neuroNicle FX2
D3F25R12
Bluetooth SPP
2023년 11월 18일 토요일
오후 1:49
time interval = 4msec
EEG1	EEG2	PPG	sdPPG	pulse	peak_interval(msec)
45.871	10.169	16364	18828	0	668
41.760	13.127	16365	19045	0	668
39.957	15.326	16367	19037	0	668
40.209	15.326	16367	18899	0	668
43.022	14.930	16369	18841	0	668
41.111	10.999	16370	18903	0	668
35.882	8.222	16372	18983	1	568
31.807	7.970	16375	19059	0	568
33.141	9.845	16377	19147	0	568
41.003	13.884	16379	19218	0	568
53.300	18.464	16381	19254	0	568
61.846	18.716	16384	19352	0	568
62.459	18.644	16386	19565	0	568
59.070	14.569	16389	19715	0	568
53.552	14.425	16391	19635	0	568
50.811	14.172	16393	19405	0	568
51.208	18.211	16395	19156	0	568
52.218	19.510	16396	18935	0	568
53.444	21.601	16397	18686	0	568
51.749	20.700	16399	18344	0	568
49.982	22.142	16399	17919	0	568
45.835	21.781	16399	17515	0	568
43.094	20.808	16400	17218	0	568
39.055	20.159	16400	17018	0	568
35.593	14.028	16401	16854	0	568
31.194	8.691	16402	16676	0	568
27.227	3.137	16403	16543	0	568
28.669	2.705	16404	16490	0	568
32.600	7.285	16406	16503	0	568
39.921	14.425	16407	16508	0	568
47.674	23.152	16407	16432	0	568
51.497	26.217	16408	16327	0	568
50.559	27.047	16409	16251	0	568
50.847	28.777	16410	16225	0	568
53.841	30.941	16411	16220	0	568
59.719	33.574	16412	16234	0	568
66.895	35.233	16413	16256	0	568
70.970	35.521	16415	16265	0	568
67.761	30.400	16415	16243	0	568
59.106	26.253	16416	16220	0	568
53.805	23.981	16417	16180	0	568
53.588	26.650	16417	16105	0	568
59.502	31.915	16418	16003	0	568
65.200	37.901	16417	15843	0	568
68.301	44.356	16417	15617	0	568
65.957	44.212	16417	15453	0	568
63.181	42.589	16417	15453	0	568
60.692	40.714	16417	15457	0	568
60.188	37.937	16416	15275	0	568
56.690	32.456	16415	14978	0	568
50.847	26.650	16414	14730	0	568
44.428	21.601	16412	14534	0	568
39.524	19.546	16410	14237	0	568
37.468	17.129	16407	13838	0	568
37.505	17.743	16405	13532	0	568
38.045	14.677	16403	13399	0	568
38.983	14.172	16401	13403	0	568
40.966	15.110	16400	13523	0	568
43.707	19.257	16399	13696	0	568
47.710	24.558	16398	13860	0	568
51.244	28.669	16397	14038	0	568
53.336	31.843	16396	14242	0	568
54.382	31.879	16396	14432	0	568
54.886	34.583	16394	14610	0	568
56.076	36.495	16394	14810	0	568
58.060	38.442	16394	15054	0	568
59.683	42.048	16394	15324	0	568
62.820	42.697	16394	15639	0	568
63.649	40.317	16394	15976	0	568
64.371	36.062	16395	16282	0	568
65.308	32.780	16395	16525	0	568
63.361	32.528	16396	16703	0	568
61.810	33.718	16396	16849	0	568
59.250	35.052	16396	17013	0	568
57.771	33.466	16396	17160	0	568
55.608	29.643	16397	17258	0	568
53.805	25.676	16397	17346	0	568
50.956	22.395	16397	17399	0	568
48.251	20.339	16398	17408	0	568
47.205	18.752	16398	17382	0	568
45.618	17.166	16398	17355	0	568
45.005	15.290	16398	17320	0	568
43.202	18.392	16398	17244	0	568
42.589	17.670	16398	17129	0	568
44.212	22.322	16397	17049	0	568
49.441	26.758	16397	17040	1	316
55.644	29.354	16398	17018	0	316
58.457	30.328	16397	16916	0	316
57.807	27.732	16396	16725	0	316
55.932	26.974	16396	16530	0	316
54.706	28.489	16395	16410	0	316
57.194	33.718	16395	16353	0	316
62.495	39.668	16394	16243	0	316
65.380	41.219	16393	16025	0	316
61.414	36.278	16391	15794	0	316
54.670	28.381	16390	15666	0	316
48.972	20.916	16390	15639	0	316
46.484	16.444	16389	15617	0	316
50.270	18.572	16388	15542	0	316
56.004	22.539	16387	15462	0	316
57.988	27.047	16386	15471	0	316
57.591	29.354	16386	15604	0	316
53.300	27.335	16386	15777	0	316
50.992	24.702	16385	15852	0	316
50.884	24.991	16385	15848	0	316
50.992	21.818	16384	15825	0	316
48.323	21.818	16384	15799	0	316
45.510	20.231	16383	15755	0	316
43.310	20.050	16382	15697	0	316
44.428	23.873	16382	15644	0	316
50.739	29.823	16381	15630	0	316
57.447	35.160	16380	15661	0	316
60.151	37.036	16379	15715	0	316
59.971	38.262	16378	15772	0	316
59.034	38.767	16378	15830	0	316
56.581	37.865	16377	15901	0	316
55.283	38.622	16377	15972	0	316
54.165	37.396	16377	16065	0	316
53.552	34.800	16377	16282	0	316
53.228	33.682	16378	16579	0	316
53.191	32.564	16378	16738	0	316
53.516	29.463	16377	16632	0	316
53.552	26.397	16376	16437	0	316
54.670	21.709	16376	16384	0	316
58.457	21.745	16376	16490	0	316
63.072	22.863	16376	16614	0	316
68.338	29.607	16376	16645	0	316
71.511	36.747	16375	16579	0	316
71.872	40.966	16374	16490	0	316
68.265	42.048	16374	16454	0	316
61.810	37.288	16374	16481	0	316
54.490	34.547	16373	16486	0	316
50.018	30.797	16373	16401	0	316
49.549	31.554	16372	16314	0	316
54.021	34.223	16372	16305	0	316
57.843	35.737	16372	16401	0	316
60.260	34.944	16372	16565	0	316
60.188	34.908	16372	16703	0	316
60.873	35.341	16373	16809	0	316
61.666	37.216	16374	16943	0	316
65.597	39.885	16375	17133	0	316
68.590	41.652	16376	17377	0	316
68.410	41.796	16378	17657	0	316
64.479	40.534	16380	17967	0	316
60.692	38.478	16383	18282	0	316
57.916	35.485	16384	18553	0	316
61.305	35.918	16386	18779	0	316
67.977	36.819	16388	18948	0	316
75.478	40.317	16390	19037	0	316
78.002	42.806	16392	19023	0	316
74.973	42.517	16394	18917	0	316
67.364	38.911	16395	18766	0	316
59.070	33.141	16396	18588	0	316
52.506	27.804	16397	18384	0	316
47.962	23.044	16398	18167	0	316
46.664	18.860	16398	17932	0	316
47.746	19.185	16399	17683	0	316
49.585	17.093	16400	17497	0	316
49.910	16.048	16401	17408	0	316
47.386	12.766	16402	17408	0	316
40.894	8.583	16404	17435	0	316
36.170	6.744	16405	17439	0	316
34.583	8.547	16407	17493	0	316
37.685	10.819	16410	17626	0	316
43.238	15.507	16412	17781	0	316
46.628	19.834	16414	17874	0	316
46.845	22.358	16416	17874	0	316
45.979	22.395	16418	17825	0	316
45.186	24.702	16419	17759	0	316
48.576	24.522	16420	17608	0	316
54.454	31.482	16421	17342	0	316
63.830	40.281	16422	17080	0	316
71.042	47.349	16423	16925	0	316
75.406	51.316	16424	16840	0	316
75.478	48.539	16425	16769	0	316
72.485	44.681	16426	16685	0	316
67.941	41.543	16426	16548	0	316
65.020	42.157	16427	16384	0	316
64.731	43.383	16427	16234	0	316
64.299	44.032	16428	16061	0	316
63.541	40.389	16427	15821	0	316
60.548	36.098	16427	15573	0	316
55.283	31.735	16427	15417	0	316
49.044	26.686	16426	15284	0	316
45.727	23.945	16425	15040	0	316
44.068	22.611	16424	14730	0	316
44.392	17.634	16423	14499	0	316
43.238	15.651	16422	14366	0	316
40.714	12.261	16420	14228	0	316
36.603	10.674	16419	14069	0	316
34.331	10.025	16418	13989	0	316
35.593	13.992	16418	14077	0	316
40.966	19.221	16418	14326	0	316
45.979	21.421	16418	14619	0	316
49.261	22.935	16417	14814	0	316
50.379	21.529	16417	14867	0	316
50.920	20.231	16416	14885	0	316
53.372	23.945	16416	14956	0	316
59.719	30.653	16415	15071	0	316
64.948	37.000	16415	15169	0	316
67.580	41.291	16414	15218	0	316
67.508	42.842	16413	15213	0	316
63.181	39.812	16411	15129	0	316
60.260	35.882	16410	15031	0	316
56.365	32.131	16410	15054	0	316
53.047	27.912	16409	15173	0	316
49.910	26.506	16408	15293	0	316
46.809	24.594	16408	15400	0	316
45.510	22.719	16407	15533	0	316
44.681	23.116	16407	15750	0	316
46.087	20.339	16408	15999	0	316
48.143	22.034	16408	16220	0	316
49.080	23.044	16408	16410	0	316
51.605	21.854	16409	16592	0	316
51.965	22.178	16409	16774	0	316
51.208	20.087	16409	16951	0	316
51.497	19.798	16410	17111	0	316
53.372	24.089	16410	17226	0	316
57.916	28.020	16411	17218	0	316
61.991	31.987	16410	17098	0	316
62.495	33.466	16410	16956	0	316
59.394	30.797	16409	16827	0	316
56.076	27.660	16408	16667	0	316
54.922	28.381	16407	16446	0	316
56.617	29.499	16405	16198	0	316
57.627	29.138	16405	16065	0	316
53.841	23.729	16405	16083	0	316
46.376	19.185	16404	16056	0	316
40.498	13.848	16402	15865	0	316
38.550	14.785	16401	15657	0	316
40.101	16.552	16400	15630	0	316
43.563	20.087	16400	15723	0	316
44.068	17.959	16398	15613	0	316
43.671	16.480	16395	15218	0	316
41.291	13.956	16393	14858	0	316
39.596	12.009	16391	14774	0	316
40.245	12.838	16390	14894	0	316
41.327	14.100	16390	15107	0	316
42.806	16.372	16390	15320	0	316
43.671	17.526	16389	15502	0	316
42.734	18.067	16389	15684	0	316
44.032	18.211	16389	15928	0	316
46.917	23.476	16390	16243	0	316
53.228	30.040	16391	16619	0	316
61.125	39.163	16393	17031	0	316
66.102	43.707	16393	17360	0	316
70.970	45.330	16393	17431	0	316
72.845	43.094	16393	17311	0	316
72.413	37.973	16394	17244	0	316
70.754	35.701	16394	17280	0	316
63.325	30.436	16394	17328	0	316
54.778	27.083	16394	17355	0	316
46.195	21.962	16394	17302	0	316
40.714	17.490	16394	17209	0	316
43.996	16.120	16395	17262	0	316
50.559	17.021	16396	17431	0	316
58.132	20.808	16396	17462	0	316
60.296	22.322	16396	17297	0	316
53.877	20.952	16395	17071	0	316
45.078	16.048	16395	16858	0	316
37.973	12.874	16394	16667	0	316
38.370	12.189	16394	16534	0	316
42.697	16.300	16393	16441	0	316
48.035	18.824	16393	16376	0	316
51.136	22.899	16393	16362	0	316
49.874	22.142	16393	16437	0	316
48.107	21.277	16394	16557	0	316
45.078	20.844	16394	16614	0	316
44.356	20.375	16394	16588	0	316
44.428	24.486	16394	16534	0	316
47.746	29.643	16394	16494	0	316
53.011	33.682	16393	16446	0	316
55.752	35.197	16393	16376	0	316
58.096	34.511	16393	16278	0	316
59.142	32.312	16392	16176	0	316
62.171	32.636	16392	16136	0	316
63.830	33.141	16392	16194	0	316
64.407	33.105	16393	16287	0	316
60.115	30.905	16392	16291	0	316
54.778	26.037	16392	16203	0	316
50.162	23.549	16391	16092	0	316
49.802	21.962	16391	15981	0	316
49.153	22.647	16390	15848	0	316
49.116	22.827	16388	15710	0	316
49.044	22.467	16388	15617	0	316
47.962	21.385	16387	15568	0	316
48.936	18.644	16386	15497	0	316
48.395	19.365	16385	15479	0	316
49.225	17.310	16386	15688	0	316
48.503	19.798	16387	16087	0	316
49.802	19.257	16388	16410	0	316
49.405	21.385	16388	16539	0	316
50.090	24.702	16389	16570	0	316
48.864	25.135	16389	16672	0	316
49.225	23.981	16390	16863	0	316
51.533	24.739	16391	17089	0	316
54.706	22.431	16392	17262	0	316
58.493	23.729	16393	17386	0	316
59.755	26.397	16395	17612	0	316
58.709	28.489	16398	17994	0	316
56.942	26.650	16401	18415	0	316
53.660	24.342	16403	18757	0	316
52.795	22.683	16406	18970	0	316
52.614	19.221	16408	19085	0	316
50.884	21.277	16410	19161	0	316
47.205	18.897	16413	19218	0	316
42.589	18.572	16415	19201	0	316
40.570	18.283	16416	19076	0	316
40.678	17.274	16418	18890	0	316
43.491	22.322	16419	18730	0	316
46.989	24.089	16421	18646	1	900
48.539	23.657	16423	18611	0	900
46.592	20.627	16425	18544	0	900
46.087	15.975	16427	18411	0	900
45.871	16.913	16428	18225	0	900
46.592	19.906	16428	17905	0	900
47.746	28.056	16428	17382	0	900
49.333	33.970	16427	16761	0	900
47.566	33.429	16426	16274	0	900
47.890	30.472	16426	15959	0	900
48.539	26.830	16426	15732	0	900
50.703	27.587	16426	15550	0	900
52.759	32.853	16426	15422	0	900
55.716	40.245	16426	15333	0	900
59.142	45.618	16425	15262	0	900
60.873	44.537	16425	15200	0	900
60.620	40.894	16426	15169	0	900
59.611	35.737	16425	15178	0	900
56.293	31.266	16426	15235	0	900
53.877	29.859	16426	15324	0	900
52.723	28.128	16427	15382	0	900
49.189	24.342	16427	15400	0	900
44.248	20.736	16427	15497	0	900
38.839	13.559	16428	15688	0	900
35.233	10.097	16429	15870	0	900
33.538	9.124	16430	15976	0	900
32.708	8.511	16430	15976	0	900
30.581	10.242	16430	15945	0	900
29.174	11.720	16430	15963	0	900
29.066	9.556	16430	16043	0	900
28.958	6.599	16431	16114	0	900
31.122	5.229	16431	16087	0	900
33.682	4.183	16429	15861	0	900
36.928	5.950	16428	15475	0	900
41.435	9.701	16426	15107	0	900
45.618	11.504	16424	14827	0	900
48.503	12.910	16422	14570	0	900
48.071	12.586	16419	14237	0	900
45.114	12.514	16416	13891	0	900
44.428	17.598	16415	13727	0	900
42.950	22.395	16413	13780	0	900
42.409	27.660	16412	13909	0	900
42.517	30.436	16411	14082	0	900
44.428	31.807	16410	14322	0	900
48.071	29.751	16410	14583	0	900
53.949	29.679	16408	14752	0	900
58.348	29.174	16407	14841	0	900
58.024	27.371	16407	14965	0	900
52.687	22.899	16406	15156	0	900
45.979	18.283	16405	15289	0	900
41.111	17.346	16404	15360	0	900
38.839	16.444	16403	15471	0	900
38.406	19.113	16403	15617	0	900
35.701	18.933	16402	15759	0	900
34.043	17.202	16402	15932	0	900
33.862	14.353	16402	16140	0	900
36.783	14.425	16402	16353	0	900
41.291	14.353	16402	16579	0	900
46.232	19.257	16403	16880	0	900
47.638	20.303	16404	17204	0	900
44.753	23.765	16405	17484	0	900
40.930	23.044	16407	17768	0	900
38.442	21.709	16408	18096	0	900
39.416	21.277	16410	18393	0	900
46.845	20.123	16411	18562	0	900
53.985	23.224	16412	18611	0	900
59.791	25.027	16414	18633	0	900
58.529	24.991	16415	18691	0	900
54.093	25.820	16417	18779	0	900
48.936	24.702	16419	18864	0	900
47.386	24.955	16420	18881	0	900
49.910	26.794	16421	18797	0	900
52.506	29.643	16422	18673	0	900
53.877	30.220	16424	18575	0	900
53.624	34.079	16425	18517	0	900
52.578	34.692	16427	18469	0	900
51.208	36.026	16428	18393	0	900
50.487	32.708	16428	18238	0	900
47.169	27.948	16429	18038	0	900
42.842	19.546	16430	17834	0	900
36.783	13.054	16430	17590	0	900
31.915	6.058	16430	17289	0	900
29.210	4.544	16430	16965	0	900
28.128	3.534	16430	16623	0	900
27.083	4.616	16428	16278	0	900
28.850	8.294	16428	15919	0	900
31.987	13.235	16427	15577	0	900
34.043	15.543	16425	15253	0	900
37.360	18.247	16423	14889	0	900
41.435	15.831	16421	14503	0	900
43.419	15.759	16419	14180	0	900
46.376	15.254	16417	13922	0	900
49.982	20.123	16414	13674	0	900
52.362	22.575	16412	13470	0	900
53.768	25.171	16410	13350	0	900
52.614	22.539	16408	13306	0	900
50.270	18.824	16407	13341	0	900
47.710	17.706	16406	13483	0	900
46.736	18.103	16404	13678	0	900
51.244	25.532	16403	13842	0	900
58.168	31.158	16402	13967	0	900
61.089	33.141	16400	14015	0	900
59.574	29.571	16398	14020	0	900
51.857	21.313	16397	14086	0	900
43.419	16.697	16395	14228	0	900
37.757	15.326	16394	14410	0	900
38.154	16.552	16393	14645	0	900
38.695	17.743	16393	14951	0	900
38.082	13.163	16392	15298	0	900
36.855	9.376	16392	15639	0	900
35.233	7.501	16392	15959	0	900
36.855	9.845	16392	16207	0	900
42.301	17.021	16392	16367	0	900
48.539	22.358	16392	16486	0	900
52.723	26.361	16391	16654	0	900
51.965	26.614	16392	16863	0	900
49.153	25.748	16392	17022	0	900
47.602	27.443	16391	17084	0	900
49.766	29.895	16391	17076	0	900
57.050	33.574	16390	17036	0	900
63.000	35.918	16390	16978	0	900
66.066	34.475	16388	16814	0	900
60.692	30.941	16386	16494	0	900
54.129	27.010	16384	16127	0	900
47.422	25.424	16383	15852	0	900
42.986	25.135	16381	15679	0	900
43.274	26.289	16380	15595	0	900
43.455	24.630	16379	15577	0	900
45.186	22.935	16377	15595	0	900
46.520	23.044	16377	15679	0	900
51.172	24.955	16376	15848	0	900
55.536	28.741	16377	16092	0	900
59.178	32.492	16377	16384	0	900
58.817	30.076	16378	16698	0	900
48.720	29.318	16395	16149	0	592
42.770	26.506	16394	16078	0	592
37.685	25.568	16393	15857	0	592
33.393	22.647	16392	15710	0	592
31.446	21.457	16392	15697	0	592
31.518	19.546	16391	15723	0	592
30.977	17.346	16391	15759	0	592
30.472	18.644	16390	15808	0	592
27.912	16.300	16389	15803	0	592
23.404	11.612	16388	15741	0	592
19.401	8.475	16388	15701	0	592
15.146	2.777	16387	15737	0	592
10.927	-0.108	16386	15781	0	592
10.963	0.000	16385	15728	0	592
10.963	-1.839	16384	15630	0	592
8.511	-4.796	16384	15621	0	592
7.176	-7.393	16384	15741	0	592
5.914	-9.376	16384	15928	0	592
7.104	-6.708	16384	16092	0	592
13.235	-1.551	16384	16198	0	592
20.700	5.445	16384	16309	0	592
26.866	9.809	16384	16472	0	592
31.626	11.973	16384	16685	0	592
31.735	9.953	16385	16880	0	592
32.348	9.376	16385	17031	0	592
31.735	10.602	16386	17173	0	592
30.364	12.874	16387	17355	0	592
26.470	13.127	16388	17546	0	592
22.106	11.792	16389	17701	1	316
17.923	8.655	16390	17785	0	316
15.398	4.508	16391	17799	0	316
13.884	1.767	16392	17781	0	316
14.281	0.865	16393	17794	0	316
14.353	1.731	16393	17817	0	316
14.497	3.173	16394	17759	0	316
16.841	6.455	16394	17621	0	316
18.716	8.583	16395	17484	0	316
21.024	8.330	16395	17373	0	316
23.188	7.789	16395	17284	0	316
25.893	8.799	16396	17222	0	316
27.804	13.018	16396	17182	0	316
28.922	16.228	16396	17093	0	316
29.643	19.293	16396	16867	0	316
27.876	19.149	16395	16552	0	316
26.866	17.995	16394	16269	0	316
24.666	15.074	16393	16034	0	316
24.414	13.920	16392	15817	0	316
24.414	13.992	16391	15581	0	316
25.965	13.776	16390	15346	0	316
28.922	16.625	16388	15147	0	316
32.239	17.743	16387	15005	0	316
32.203	20.700	16386	14925	0	316
31.013	19.978	16385	14827	0	316
28.633	19.906	16384	14676	0	316
27.371	18.428	16383	14570	0	316
25.929	18.428	16382	14561	0	316
25.460	14.569	16381	14636	0	316
20.772	10.855	16380	14770	0	316
13.884	2.849	16379	14903	0	316
8.691	-3.462	16379	15031	0	316
6.888	-5.914	16379	15213	0	316
9.845	-3.714	16379	15462	0	316
12.189	-1.947	16379	15719	0	316
13.776	-2.236	16379	15923	0	316
12.225	-3.246	16379	16092	0	316
10.494	-7.212	16380	16260	0	316
10.963	-4.760	16380	16432	0	316
12.153	-0.144	16380	16579	0	316
11.468	2.236	16380	16659	0	316
10.314	1.262	16380	16694	0	316
9.232	-0.325	16380	16738	0	316
9.845	-0.902	16380	16805	0	316
15.362	1.875	16380	16854	0	316
22.322	9.196	16380	16801	0	316
29.282	19.113	16378	16588	0	316
35.269	24.739	16376	16256	0	316
36.855	28.705	16374	15892	0	316
34.800	27.010	16373	15577	0	316
29.427	21.457	16371	15355	0	316
22.467	14.677	16369	15231	0	316
19.690	11.468	16367	15142	0	316
17.490	11.143	16365	15062	0	316
16.084	10.530	16365	15049	0	316
14.425	8.042	16364	15218	0	316
9.556	4.652	16365	15559	0	316
6.635	-0.649	16365	15932	0	316
5.013	-4.255	16366	16243	0	316
3.642	-5.409	16366	16454	0	316
5.373	-5.842	16366	16601	0	316
5.770	-6.058	16366	16707	0	316
6.924	-4.796	16366	16761	0	316
9.629	-3.642	16365	16721	0	316
9.881	-3.498	16365	16596	0	316
11.432	-4.291	16364	16459	0	316
13.631	-2.416	16363	16384	0	316
17.310	0.902	16363	16397	0	316
21.204	4.400	16363	16459	0	316
24.630	8.150	16363	16468	0	316
25.893	9.773	16361	16437	0	316
26.902	11.973	16361	16419	0	316
29.823	15.507	16361	16454	0	316
34.439	19.798	16361	16530	0	316
38.767	25.388	16361	16588	0	316
41.580	27.371	16361	16636	0	316
41.652	28.345	16361	16707	0	316
39.199	26.938	16362	16801	0	316
32.276	23.440	16362	16938	0	316
26.758	15.759	16363	17138	0	316
19.798	9.376	16364	17355	0	316
16.156	3.787	16365	17502	0	316
15.435	2.128	16365	17510	0	316
16.516	3.137	16366	17439	0	316
17.634	5.337	16366	17408	0	316
17.923	5.662	16367	17453	0	316
18.536	7.068	16368	17502	0	316
21.673	8.727	16368	17497	0	316
25.568	9.665	16369	17462	0	316
28.886	10.566	16371	17537	0	316
26.830	9.989	16372	17741	0	316
23.729	6.455	16374	17963	0	316
20.123	3.895	16376	18145	0	316
21.024	5.301	16378	18269	0	316
24.811	6.888	16380	18340	0	316
28.814	10.819	16382	18393	0	316
28.886	12.838	16383	18389	0	316
24.234	11.215	16384	18273	0	316
22.575	11.720	16384	18092	0	316
24.991	14.533	16385	17945	0	316
32.816	20.844	16386	17865	1	400
41.507	27.840	16388	17879	0	400
46.159	33.466	16390	17941	0	400
43.310	33.574	16391	17941	0	400
39.127	31.590	16393	17861	0	400
34.511	31.482	16395	17772	0	400
34.728	28.850	16396	17723	0	400
35.990	26.073	16397	17666	0	400
35.088	22.178	16399	17550	0	400
30.508	17.274	16399	17386	0	400
22.827	10.097	16400	17231	0	400
16.084	3.750	16401	17116	0	400
7.645	-2.885	16402	17018	0	400
1.695	-9.304	16403	16880	0	400
-2.200	-12.658	16403	16667	0	400
-1.767	-10.314	16403	16384	0	400
2.669	-5.157	16402	16030	0	400
8.330	1.082	16401	15635	0	400
10.927	4.544	16401	15320	0	400
10.097	3.318	16400	15116	0	400
8.150	-1.010	16399	14978	0	400
7.537	-1.262	16398	14814	0	400
9.845	0.469	16397	14641	0	400
12.802	3.534	16397	14623	0	400
13.704	7.501	16398	14827	0	400
13.163	7.501	16399	15133	0	400
10.133	4.652	16400	15431	0	400
10.963	4.544	16401	15661	0	400
13.812	7.429	16401	15794	0	400
19.942	11.323	16402	15865	0	400
26.866	18.139	16402	15928	0	400
27.299	19.473	16402	15972	0	400
24.162	20.772	16402	15950	0	400
18.933	16.012	16402	15901	0	400
17.382	15.939	16402	15901	0	400
19.834	15.146	16402	15976	0	400
23.909	18.067	16403	16070	0	400
25.893	16.877	16403	16092	0	400
22.250	12.153	16403	16052	0	400
15.507	4.255	16402	16021	0	400
9.629	-2.416	16403	16065	0	400
6.311	-5.013	16403	16185	0	400
7.357	-3.390	16404	16296	0	400
9.160	-1.515	16403	16331	0	400
11.504	-0.505	16403	16309	0	400
11.323	-0.793	16403	16265	0	400
11.143	-2.596	16403	16229	0	400
12.153	-1.442	16403	16180	0	400
11.720	-0.216	16403	16127	0	400
12.586	0.974	16403	16056	0	400
11.540	0.180	16401	15914	0	400
9.412	-1.551	16401	15768	0	400
9.556	-3.931	16401	15808	0	400
10.963	-3.859	16401	15963	0	400
15.218	-3.282	16400	15976	0	400
19.618	0.613	16399	15803	0	400
25.027	5.157	16398	15581	0	400
29.787	10.206	16397	15422	0	400
31.951	15.831	16396	15369	0	400
32.636	19.221	16396	15417	0	400
31.699	20.375	16395	15479	0	400
29.679	19.077	16394	15484	0	400
29.282	17.202	16394	15519	0	400
28.705	16.048	16394	15630	0	400
28.561	17.346	16393	15750	0	400
27.083	14.281	16393	15834	0	400
26.181	12.550	16393	15905	0	400
25.171	10.746	16393	15990	0	400
25.748	8.799	16393	16114	0	400
24.558	10.025	16393	16309	0	400
22.791	10.530	16394	16534	0	400
19.726	9.773	16394	16712	0	400
17.923	10.350	16395	16823	0	400
18.464	9.773	16395	16894	0	400
21.132	10.350	16396	16987	0	400
24.234	11.864	16396	17116	0	400
27.335	13.379	16397	17209	0	400
26.686	12.225	16397	17226	0	400
24.630	12.261	16397	17195	0	400
20.736	9.268	16398	17155	0	400
16.264	5.301	16398	17120	0	400
13.956	1.442	16399	17129	0	400
13.091	0.216	16399	17173	0	400
15.146	0.902	16399	17124	0	400
19.149	4.616	16398	16867	0	400
25.496	9.953	16396	16454	0	400
30.977	16.192	16395	16061	0	400
35.521	20.375	16393	15768	0	400
37.721	24.955	16392	15542	0	400
38.442	26.902	16389	15266	0	400
38.298	27.587	16387	14956	0	400
40.209	27.335	16386	14721	0	400
39.380	25.929	16384	14628	0	400
36.242	22.142	16384	14654	0	400
29.607	16.300	16383	14725	0	400
21.998	10.242	16382	14770	0	400
14.245	2.560	16381	14823	0	400
9.665	-3.137	16380	14907	0	400
6.708	-6.708	16379	14943	0	400
5.049	-5.698	16377	14898	0	400
6.094	-5.229	16375	14845	0	400
7.140	-1.983	16374	14867	0	400
10.314	-0.325	16373	14960	0	400
12.117	1.370	16372	15138	0	400
12.946	1.226	16372	15382	0	400
14.605	0.072	16372	15617	0	400
15.362	0.180	16371	15803	0	400
16.661	-0.072	16371	15990	0	400
16.769	-0.180	16372	16234	0	400
16.877	1.046	16372	16508	0	400
17.166	3.065	16373	16792	0	400
20.375	5.049	16374	17053	0	400
24.089	10.422	16374	17249	0	400
28.814	14.930	16374	17333	0	400
29.715	16.192	16375	17351	0	400
29.427	16.192	16375	17373	0	400
26.902	11.432	16374	17368	0	400
24.125	7.429	16374	17226	0	400
21.926	5.734	16373	16951	0	400
21.818	5.517	16371	16659	0	400
23.332	8.619	16370	16441	0	400
25.820	12.694	16369	16300	0	400
29.174	17.346	16367	16127	0	400
31.410	18.500	16365	15848	0	400
29.138	17.418	16363	15533	0	400
24.847	10.891	16362	15342	0	400
17.166	4.724	16361	15320	0	400
9.773	-0.649	16360	15422	0	400
5.698	-3.354	16360	15546	0	400
3.895	-1.551	16359	15630	0	400
5.265	-2.596	16358	15715	0	400
7.501	-1.803	16358	15768	0	400
7.573	-4.940	16357	15750	0	400
6.131	-10.350	16356	15723	0	400
4.688	-13.054	16355	15746	0	400
2.596	-14.353	16354	15821	0	400
3.498	-13.631	16354	15981	0	400
4.436	-8.763	16355	16234	0	400
7.357	-6.203	16355	16499	0	400
8.150	-6.599	16355	16676	0	400
11.937	-7.285	16355	16774	0	400
16.192	-6.167	16356	16894	0	400
21.349	-2.957	16356	17062	0	400
24.883	3.029	16357	17226	0	400
26.794	7.862	16357	17315	0	400
25.820	10.710	16358	17360	0	400
26.866	12.225	16358	17426	0	400
28.886	14.930	16359	17515	0	400
33.970	17.743	16360	17643	0	400
37.036	21.854	16362	17856	0	400
37.108	22.935	16363	18136	0	400
33.646	21.060	16365	18309	0	400
29.174	20.339	16366	18278	0	400
24.558	13.776	16367	18136	0	400
20.772	8.511	16367	18029	0	400
17.743	3.318	16368	18003	0	400
14.064	0.902	16369	18016	1	624
11.648	0.433	16370	18043	0	624
11.684	2.200	16372	18096	0	624
12.333	4.652	16374	18216	0	624
14.858	3.390	16376	18389	0	624
16.372	5.554	16379	18562	0	624
18.464	6.347	16381	18673	0	624
20.339	8.763	16383	18704	0	624
20.411	9.268	16384	18682	0	624
17.779	6.708	16386	18642	0	624
13.884	4.472	16388	18584	0	624
11.179	2.200	16390	18495	0	624
11.251	2.633	16391	18336	0	624
14.028	6.131	16392	18140	0	624
17.057	9.809	16394	17990	0	624
18.175	13.307	16396	17927	0	624
19.041	13.740	16397	17883	0	624
20.555	17.202	16398	17728	0	624
23.765	17.779	16399	17462	0	624
29.571	22.142	16399	17182	0	624
33.285	24.739	16400	16943	0	624
36.639	26.650	16401	16752	0	624
36.567	26.902	16401	16534	0	624
35.233	23.621	16400	16185	0	624
30.905	19.582	16399	15692	0	624
27.479	17.923	16398	15200	0	624
24.053	14.713	16396	14818	0	624
20.988	15.795	16395	14534	0	624
19.005	16.156	16394	14335	0	624
15.831	15.471	16393	14171	0	624
11.864	11.396	16391	13949	0	624
9.124	7.032	16389	13678	0	624
7.862	3.931	16387	13474	0	624
9.701	3.823	16386	13399	0	624
11.071	5.878	16384	13403	0	624
11.864	8.042	16384	13412	0	624
10.061	6.816	16382	13408	0	624
6.563	3.426	16381	13465	0	624
3.354	0.252	16380	13638	0	624
5.193	-0.505	16379	13918	0	624
8.691	1.623	16379	14219	0	624
13.776	5.157	16379	14477	0	624
16.444	6.671	16379	14770	0	624
16.516	8.222	16379	15156	0	624
13.631	8.114	16380	15546	0	624
12.946	8.943	16380	15852	0	624
15.326	11.900	16380	16065	0	624
18.247	15.182	16380	16247	0	624
21.096	17.093	16381	16441	0	624
22.106	19.798	16381	16676	0	624
22.539	19.473	16382	16898	0	624
22.250	19.473	16382	17005	0	624
23.404	19.726	16381	16876	0	624
23.657	17.779	16380	16596	0	624
22.431	16.697	16379	16410	0	624
21.313	13.163	16378	16384	0	624
18.211	10.927	16378	16384	0	624
16.048	10.422	16377	16392	0	624
15.254	10.891	16377	16419	0	624
15.218	10.314	16377	16450	0	624
17.670	13.018	16377	16477	0	624
20.123	13.379	16377	16512	0	624
22.431	9.484	16377	16579	0	624
21.277	7.537	16377	16654	0	624
18.788	3.390	16376	16628	0	624
14.677	-1.334	16375	16490	0	624
11.432	-2.452	16375	16362	0	624
9.845	-1.046	16374	16309	0	624
11.540	1.659	16374	16305	0	624
16.012	7.429	16373	16229	0	624
21.601	11.360	16371	16047	0	624
24.955	12.477	16370	15861	0	624
24.234	11.937	16370	15790	0	624
23.008	9.088	16369	15852	0	624
19.870	7.248	16369	15981	0	624
20.519	8.258	16369	16105	0	624
20.808	9.629	16369	16274	0	624
21.998	8.042	16370	16477	0	624
19.906	4.147	16370	16676	0	624
17.526	3.354	16371	16840	1	316
16.480	2.921	16372	16960	0	316
16.156	4.291	16372	17102	0	316
15.903	8.619	16374	17320	0	316
16.661	11.684	16376	17612	0	316
16.841	9.701	16377	17919	0	316
13.884	6.671	16379	18149	0	316
9.989	2.272	16381	18300	0	316
4.255	-4.544	16383	18424	0	316
-0.974	-7.393	16384	18562	0	316
-1.587	-8.619	16385	18695	0	316
0.469	-5.770	16387	18770	0	316
4.832	-0.072	16389	18770	0	316
6.996	1.911	16390	18708	0	316
7.032	0.180	16392	18620	0	316
5.049	-1.010	16394	18544	0	316
4.400	-4.977	16396	18549	0	316
5.698	-4.400	16397	18553	0	316
10.963	-0.613	16398	18407	0	316
15.435	4.003	16399	18087	0	316
20.664	8.186	16399	17683	0	316
25.460	9.845	16399	17302	0	316
25.712	10.963	16398	16982	0	316
25.424	9.881	16398	16610	0	316
21.421	7.140	16397	16123	0	316
15.759	2.957	16395	15652	0	316
9.665	-0.938	16395	15404	0	316
5.229	-4.868	16395	15377	0	316
4.508	-7.140	16395	15422	0	316
6.491	-7.465	16395	15431	0	316
10.891	-2.993	16395	15377	0	316
17.815	3.065	16395	15302	0	316
22.647	9.701	16394	15178	0	316
23.801	13.451	16392	14960	0	316
23.044	12.009	16391	14699	0	316
20.808	9.520	16389	14468	0	316
19.618	7.357	16388	14322	0	316
19.618	7.825	16387	14277	0	316
19.582	10.386	16386	14370	0	316
18.283	11.251	16386	14561	0	316
14.389	7.645	16386	14761	0	316
9.376	2.128	16385	14916	0	316
6.671	-1.334	16385	15009	0	316
3.787	-4.472	16384	15085	0	316
1.226	-3.065	16384	15209	0	316
0.829	-2.813	16384	15373	0	316
0.144	-2.741	16384	15506	0	316
-0.108	-3.787	16384	15599	0	316
-0.108	-4.904	16384	15670	0	316
1.082	-4.291	16384	15719	0	316
1.983	-3.534	16383	15710	0	316
5.013	-2.885	16382	15666	0	316
7.789	-3.318	16381	15621	0	316
9.665	-2.849	16380	15533	0	316
9.809	-3.642	16378	15400	0	316
7.573	-3.895	16377	15329	0	316
5.481	-3.246	16376	15373	0	316
6.455	-2.200	16375	15462	0	316
10.674	3.029	16374	15488	0	316
14.353	8.114	16373	15431	0	316
17.490	10.566	16372	15453	0	316
18.536	11.215	16372	15626	0	316
18.680	11.396	16371	15834	0	316
19.257	12.586	16371	15972	0	316
21.132	14.353	16371	16052	0	316
23.801	19.654	16370	16123	0	316
23.981	19.437	16370	16211	0	316
23.549	20.591	16369	16309	0	316
24.919	17.779	16369	16437	0	316
24.666	16.120	16369	16565	0	316
22.322	14.208	16369	16628	0	316
20.159	12.225	16369	16663	0	316
14.966	10.602	16369	16747	0	316
11.937	9.160	16369	16863	0	316
10.566	8.402	16369	16934	0	316
12.622	7.285	16369	16969	0	316
16.012	9.665	16370	17022	0	316
18.067	11.468	16370	17124	0	316
18.247	11.937	16370	17235	0	316
17.418	8.835	16371	17306	1	316
15.254	7.501	16371	17342	0	316
13.307	4.580	16372	17395	0	316
14.317	7.393	16372	17448	0	316
14.677	9.412	16373	17466	0	316
15.435	11.468	16373	17457	0	316
18.139	12.117	16374	17444	0	316
20.952	12.622	16374	17435	0	316
24.883	12.081	16374	17408	0	316
27.912	15.615	16375	17373	0	316
28.741	17.923	16376	17360	0	316
27.191	20.375	16377	17391	0	316
24.125	19.870	16377	17453	0	316
22.683	21.132	16378	17479	0	316
24.234	20.411	16379	17404	0	316
26.614	22.322	16378	17147	0	316
28.092	20.988	16377	16752	0	316
24.198	17.923	16376	16441	0	316
19.942	14.028	16376	16318	0	316
15.579	11.973	16376	16274	0	316
16.733	13.451	16376	16278	0	316
22.106	18.860	16377	16358	0	316
26.397	19.978	16377	16499	0	316
25.893	19.365	16379	16685	0	316
22.034	12.730	16380	16854	0	316
15.867	7.248	16381	16991	0	316
11.071	1.983	16383	17147	0	316
8.042	-1.118	16384	17360	0	316
7.501	-0.469	16385	17604	0	316
8.042	1.659	16387	17785	0	316
9.845	4.111	16388	17887	0	316
10.963	6.635	16390	17941	0	316
12.802	7.934	16392	17954	0	316
13.920	8.114	16393	17936	0	316
14.497	6.239	16394	17865	0	316
13.307	3.246	16395	17763	0	316
10.638	-1.226	16396	17657	0	316
7.104	-4.111	16397	17524	0	316
3.859	-6.058	16397	17351	0	316
4.724	-3.137	16398	17151	0	316
6.996	0.144	16398	16925	0	316
11.323	4.075	16397	16636	0	316
15.110	7.717	16396	16269	0	316
18.428	10.819	16395	15870	0	316
21.241	11.215	16395	15586	0	316
23.368	14.028	16394	15453	0	316
25.316	16.661	16394	15422	0	316
28.164	16.552	16394	15386	0	316
28.777	18.716	16393	15271	0	316
27.948	16.985	16391	15000	0	316
24.198	13.523	16389	14574	0	316
20.808	8.835	16387	14175	0	316
17.382	5.337	16385	13980	0	316
17.238	3.642	16384	13944	0	316
17.706	2.092	16384	14029	0	316
17.851	1.370	16384	14246	0	316
17.057	0.577	16384	14588	0	316
16.480	1.010	16384	14965	0	316
16.516	2.416	16384	15249	0	316
18.283	5.013	16384	15373	0	316
20.195	6.131	16384	15440	0	316
21.024	4.472	16384	15621	0	316
19.798	1.731	16384	15910	0	316
17.310	0.793	16384	16163	0	316
16.084	1.551	16384	16322	0	316
16.228	3.246	16384	16376	0	316
17.562	5.770	16384	16322	0	316
19.041	5.626	16384	16274	0	316
21.060	7.681	16384	16251	0	316
23.837	10.638	16383	16149	0	316
30.148	16.012	16382	15963	0	316
34.583	20.844	16381	15799	0	316
37.252	24.089	16380	15723	0	316
36.783	22.791	16379	15746	0	316
33.429	22.539	16379	15857	0	316
29.210	20.375	16379	16016	0	316
28.128	20.411	16379	16154	0	316
29.066	22.972	16379	16229	0	316
27.804	21.998	16379	16305	0	316
27.263	20.339	16379	16494	0	316
21.024	14.281	16380	16814	0	316
14.100	7.609	16382	17133	0	316
5.626	0.000	16383	17373	0	316
0.974	-4.291	16384	17568	0	316
1.875	-3.029	16385	17772	0	316
5.950	0.793	16386	17954	0	316
10.710	5.806	16387	18052	0	316
13.956	6.347	16388	18038	0	316
13.740	4.075	16389	18003	0	316
9.052	-1.226	16390	18016	0	316
6.203	-5.770	16391	18078	0	316
4.904	-6.094	16393	18105	0	316
5.337	-3.931	16393	18007	0	316
8.222	-1.695	16393	17772	0	316
9.484	-0.216	16393	17506	0	316
11.396	-0.721	16394	17333	0	316
11.973	-0.757	16394	17244	0	316
14.497	-0.505	16394	17133	0	316
16.552	2.344	16395	17005	0	316
18.247	4.147	16395	16894	0	316
17.887	4.291	16395	16836	0	316
14.353	0.288	16395	16738	0	316
11.648	-3.750	16394	16415	0	316
10.061	-3.173	16392	15896	0	316
11.792	-0.613	16390	15431	0	316
15.326	4.904	16389	15102	0	316
18.175	8.294	16387	14836	0	316
18.752	9.448	16386	14659	0	316
18.283	7.934	16385	14601	0	316
17.274	8.042	16384	14614	0	316
17.562	9.124	16384	14583	0	316
18.752	9.052	16383	14548	0	316
19.582	10.314	16383	14690	0	316
19.257	11.287	16383	15045	0	316
17.743	12.333	16384	15435	0	316
16.012	11.720	16384	15741	0	316
13.631	11.107	16384	15941	0	316
11.864	7.609	16384	15999	0	316
10.133	5.049	16383	15870	0	316
10.350	3.498	16382	15613	0	316
9.556	2.344	16380	15377	0	316
10.386	1.479	16379	15222	0	316
10.025	0.397	16377	15138	0	316
9.917	-0.036	16376	15160	0	316
11.107	0.649	16376	15320	0	316
11.576	1.875	16376	15555	0	316
11.323	3.426	16376	15763	0	316
10.638	3.606	16376	15914	0	316
9.809	4.508	16375	15999	0	316
13.018	5.265	16375	16074	0	316
18.320	9.484	16376	16238	0	316
26.433	14.749	16376	16459	0	316
30.292	19.690	16376	16672	0	316
31.158	19.113	16377	16876	0	316
29.463	17.887	16378	17089	0	316
24.847	13.307	16379	17289	0	316
21.637	10.025	16380	17426	0	316
18.536	8.258	16380	17444	0	316
18.247	9.665	16380	17337	0	316
20.231	13.776	16379	17120	0	316
24.306	17.490	16378	16885	0	316
28.381	23.512	16378	16747	0	316
30.112	24.125	16378	16698	0	316
30.220	22.070	16377	16641	0	316
30.905	18.608	16376	16477	0	316
29.787	14.930	16375	16243	0	316
28.417	13.415	16375	16132	0	316
24.486	11.215	16375	16225	0	316
18.103	7.465	16375	16392	0	316
13.415	5.013	16376	16503	0	316
12.297	4.544	16376	16508	0	316
12.982	5.193	16375	16486	0	316
15.795	7.537	16375	16494	0	316
18.356	8.186	16375	16517	0	316
18.860	7.537	16375	16486	0	316
19.978	6.094	16375	16406	0	316
22.070	9.376	16375	16376	0	316
23.693	14.136	16375	16401	0	316
25.712	16.733	16375	16410	0	316
23.693	18.644	16374	16358	0	316
21.421	13.127	16374	16291	0	316
17.418	7.789	16374	16287	0	316
17.851	5.517	16374	16358	0	316
20.916	5.121	16375	16521	0	316
27.443	9.737	16376	16752	0	316
32.780	13.018	16377	16965	0	316
34.764	16.661	16378	17111	0	316
34.079	15.362	16379	17200	0	316
31.662	16.877	16380	17280	0	316
31.554	14.821	16381	17417	0	316
31.662	17.526	16382	17581	0	316
32.276	16.949	16384	17732	0	316
32.348	18.175	16384	17821	0	316
29.499	14.821	16384	17772	0	316
27.479	13.920	16385	17617	0	316
27.407	14.028	16386	17497	0	316
26.758	14.569	16386	17448	0	316
26.433	16.697	16386	17346	1	708
22.647	12.550	16386	17098	0	708
16.120	5.265	16386	16827	0	708
8.907	-3.606	16386	16690	0	708
4.003	-9.412	16387	16712	0	708
0.577	-12.261	16388	16836	0	708
-0.397	-9.304	16389	16991	0	708
-0.397	-5.337	16391	17138	0	708
-0.721	-3.318	16393	17306	0	708
-1.226	-5.878	16394	17470	0	708
-1.442	-11.107	16396	17572	0	708
-2.056	-14.353	16398	17635	0	708
-0.974	-16.841	16399	17679	0	708
-0.144	-16.589	16401	17714	0	708
0.613	-12.730	16402	17763	0	708
0.649	-13.884	16405	17883	0	708
-0.325	-10.746	16407	18029	0	708
-0.469	-9.016	16408	18038	0	708
4.003	-5.373	16408	17759	0	708
9.376	-0.649	16408	17315	0	708
13.235	0.757	16409	17013	0	708
14.641	-1.406	16409	16903	0	708
12.081	-5.193	16410	16836	0	708
8.511	-9.592	16411	16787	0	708
5.770	-9.232	16412	16796	0	708
5.301	-5.373	16413	16832	0	708
7.717	2.236	16415	16876	0	708
7.970	6.635	16417	16951	0	708
8.799	7.357	16418	17053	0	708
7.753	5.337	16420	17107	0	708
7.645	4.724	16421	17098	0	708
8.222	4.940	16422	17036	0	708
11.612	9.268	16423	16938	0	708
15.218	11.143	16424	16845	0	708
14.497	10.278	16424	16747	0	708
10.674	4.255	16425	16565	0	708
4.832	-1.046	16424	16300	0	708
3.354	-2.019	16424	16047	0	708
6.131	4.255	16424	15870	0	708
13.920	11.720	16424	15719	0	708
21.457	19.473	16423	15515	0	708
25.099	19.473	16422	15253	0	708
25.820	17.021	16421	15018	0	708
24.198	11.973	16421	14867	0	708
23.585	11.576	16420	14783	0	708
22.755	13.091	16419	14734	0	708
21.781	13.379	16418	14690	0	708
19.473	15.398	16417	14654	0	708
18.644	12.333	16417	14654	0	708
16.733	8.006	16416	14730	0	708
17.346	4.291	16416	14867	0	708
16.733	0.325	16416	14991	0	708
17.815	-0.108	16416	15093	0	708
19.113	1.623	16416	15227	0	708
22.719	4.832	16416	15404	0	708
26.686	10.494	16416	15564	0	708
31.085	14.136	16416	15635	0	708
31.843	17.129	16415	15652	0	708
29.859	14.749	16415	15692	0	708
26.001	11.792	16415	15750	0	708
21.421	7.501	16414	15759	0	708
19.077	4.472	16414	15737	0	708
19.257	6.419	16413	15715	0	708
20.880	6.599	16411	15604	0	708
20.339	6.311	16409	15360	0	708
18.392	3.426	16408	15102	0	708
15.831	1.587	16406	14943	0	708
15.074	2.416	16405	14894	0	708
16.192	7.429	16403	14885	0	708
18.716	11.792	16402	14894	0	708
22.503	15.435	16401	14920	0	708
26.578	20.267	16400	14987	0	708
31.590	22.358	16399	15107	0	708
37.072	27.732	16399	15298	0	708
40.137	30.400	16398	15510	0	708
39.416	31.735	16398	15692	0	708
36.819	28.850	16398	15888	0	708
33.754	27.804	16398	16105	0	708
31.590	25.893	16398	16282	0	708
30.833	23.729	16397	16358	1	316
27.479	21.241	16396	16345	0	316
26.109	14.930	16396	16336	0	316
22.034	10.819	16396	16423	0	316
20.014	7.321	16396	16619	0	316
17.021	2.236	16397	16823	0	316
14.028	-0.144	16397	16969	0	316
9.304	-3.354	16397	17067	0	316
6.491	-6.708	16398	17160	0	316
4.291	-8.475	16398	17271	0	316
3.210	-8.078	16399	17351	0	316
5.806	-8.799	16399	17346	0	316
7.501	-8.042	16398	17235	0	316
10.566	-5.662	16397	16974	0	316
14.281	-3.354	16395	16570	0	316
16.589	0.902	16393	16198	0	316
17.490	2.344	16391	15923	0	316
17.418	4.327	16390	15710	0	316
17.238	6.167	16388	15515	0	316
18.175	8.583	16386	15280	0	316
19.726	11.251	16384	15036	0	316
23.008	15.543	16383	14881	0	316
26.325	16.589	16381	14841	0	316
30.833	22.358	16380	14849	0	316
35.846	25.496	16378	14832	0	316
39.596	30.328	16377	14801	0	316
43.563	35.088	16376	14836	0	316
46.809	35.629	16374	14929	0	316
47.422	36.278	16373	15062	0	316
46.700	34.006	16372	15187	0	316
43.527	30.617	16371	15275	0	316
35.269	25.388	16370	15408	0	316
25.243	17.021	16371	15666	0	316
14.858	9.989	16370	15976	0	316
6.563	2.019	16371	16274	0	316
2.849	-2.092	16371	16525	0	316
2.596	-2.452	16371	16761	0	316
5.698	-1.587	16372	16965	0	316
6.960	-1.226	16372	17133	0	316
5.445	-3.678	16373	17280	0	316
4.111	-5.806	16373	17426	0	316
4.003	-7.212	16374	17550	0	316
6.708	-6.888	16374	17586	0	316
11.215	-2.957	16374	17581	0	316
13.920	-1.118	16375	17635	0	316
12.405	-1.803	16376	17719	0	316
10.061	-2.993	16376	17785	0	316
7.068	-5.554	16377	17852	0	316
6.635	-5.770	16378	17905	0	316
10.133	-4.039	16379	17923	0	316
16.264	0.974	16379	17856	0	316
21.601	7.501	16378	17652	0	316
28.237	13.812	16378	17337	0	316
31.446	17.238	16376	16965	0	316
34.187	20.808	16375	16583	0	316
34.836	19.365	16374	16274	0	316
34.439	17.815	16373	16087	0	316
31.662	16.949	16372	15972	0	316
26.614	15.074	16371	15825	0	316
21.204	10.746	16370	15644	0	316
18.211	8.222	16370	15577	0	316
17.923	6.347	16369	15670	0	316
22.358	4.940	16369	15817	0	316
27.948	9.124	16369	15936	0	316
34.187	13.992	16369	16021	0	316
35.341	19.942	16370	16092	0	316
34.583	19.618	16370	16207	0	316
28.958	19.582	16370	16380	0	316
24.017	15.903	16371	16561	0	316
19.005	10.855	16371	16721	0	316
15.579	7.573	16372	16858	0	316
13.740	4.291	16373	17009	0	316
11.684	1.659	16375	17218	0	316
11.937	1.875	16377	17488	0	316
12.838	5.517	16378	17746	0	316
15.579	11.179	16380	17941	0	316
19.365	15.615	16382	18100	0	316
23.296	21.601	16384	18273	0	316
27.047	23.368	16385	18473	0	316
30.220	26.001	16387	18682	0	316
31.590	27.768	16390	18850	0	316
29.895	26.001	16392	18939	0	316
26.614	22.899	16395	18983	0	316
24.811	22.142	16396	19001	0	316
24.955	22.106	16399	18974	0	316
29.931	25.460	16401	18908	0	316
34.764	29.535	16402	18801	0	316
38.370	30.292	16404	18673	0	316
36.675	28.525	16405	18535	1	352
32.203	22.142	16407	18393	0	352
28.417	16.552	16409	18265	0	352
26.001	14.028	16410	18158	0	352
24.198	12.802	16411	17976	0	352
22.575	10.674	16413	17697	0	352
17.093	6.960	16414	17484	0	352
10.927	0.793	16415	17333	0	352
5.842	-2.813	16414	16960	0	352
6.960	-1.803	16413	16314	0	352
9.809	2.633	16411	15675	0	352
14.064	6.131	16410	15196	0	352
14.353	4.255	16408	14752	0	352
10.566	0.829	16406	14339	0	352
9.232	0.938	16405	14069	0	352
11.035	5.013	16404	13971	0	352
18.175	11.720	16403	13953	0	352
24.414	18.897	16403	13944	0	352
28.525	23.224	16402	13984	0	352
28.669	26.974	16402	14157	0	352
30.040	28.705	16403	14455	0	352
34.151	32.023	16403	14818	0	352
39.524	34.836	16405	15196	0	352
43.202	34.475	16406	15586	0	352
42.625	32.564	16407	15985	0	352
37.685	28.994	16409	16345	0	352
29.246	23.512	16411	16632	0	352
20.447	16.192	16412	16880	0	352
13.127	11.143	16414	17098	0	352
8.835	7.357	16416	17306	0	352
7.862	4.940	16418	17595	0	352
7.429	3.678	16420	17936	0	352
5.878	2.488	16422	18109	0	352
5.301	2.380	16423	17994	0	352
4.688	2.128	16423	17697	0	352
7.321	4.147	16423	17408	0	352
12.694	7.248	16423	17209	0	352
16.877	9.737	16424	17067	0	352
18.608	12.550	16423	16894	0	352
17.670	12.802	16423	16659	0	352
15.543	9.953	16423	16410	0	352
10.819	7.898	16422	16189	0	352
9.340	4.868	16421	15972	0	352
8.078	5.193	16420	15741	0	352
9.989	6.275	16419	15484	0	352
13.379	10.025	16418	15244	0	352
15.507	13.199	16417	15080	0	352
19.041	16.408	16416	15014	0	352
21.926	16.228	16416	15000	0	352
25.279	19.005	16415	15009	0	352
26.794	17.129	16415	15049	0	352
28.958	18.031	16415	15133	0	352
28.850	17.418	16414	15262	0	352
28.741	17.851	16415	15426	0	352
28.345	14.389	16415	15577	0	352
25.099	12.153	16415	15692	0	352
20.591	6.744	16415	15812	0	352
14.497	2.416	16416	15981	0	352
8.763	-0.685	16416	16176	0	352
6.563	-3.678	16416	16291	0	352
5.121	-5.409	16416	16309	0	352
4.219	-5.229	16416	16282	0	352
2.380	-8.907	16415	16234	0	352
-1.334	-9.989	16415	16158	0	352
-3.029	-12.333	16415	16101	0	352
-3.065	-11.684	16414	16074	0	352
-1.983	-11.071	16413	16043	0	352
1.587	-9.556	16413	15976	0	352
3.354	-8.871	16412	15914	0	352
4.760	-7.970	16413	16012	0	352
4.472	-7.573	16413	16291	0	352
4.580	-8.222	16414	16570	0	352
3.787	-7.393	16415	16721	0	352
5.590	-4.039	16415	16756	0	352
9.412	0.974	16415	16761	0	352
16.408	9.304	16415	16765	0	352
23.152	15.831	16415	16743	0	352
27.191	21.024	16415	16659	0	352
28.020	18.464	16414	16477	0	352
27.191	17.743	16413	16265	0	352
25.063	14.605	16412	16109	0	352
21.709	14.064	16412	16025	0	352
18.860	12.297	16411	15963	0	352
15.867	12.730	16410	15874	0	352
13.776	14.894	16409	15710	0	352
13.812	14.533	16406	15373	0	352
15.759	17.959	16404	14960	0	352
17.274	17.310	16402	14685	0	352
17.923	16.913	16400	14557	0	352
17.382	13.523	16398	14486	0	352
17.887	10.819	16397	14499	0	352
19.149	13.091	16396	14605	0	352
20.736	14.749	16395	14752	0	352
21.385	18.103	16394	14903	0	352
19.942	18.247	16394	15062	0	352
17.057	16.985	16393	15209	0	352
14.569	13.776	16391	15258	0	352
14.461	13.523	16390	15249	0	352
17.598	16.697	16389	15306	0	352
21.601	17.923	16388	15448	0	352
25.352	20.664	16387	15577	0	352
28.525	18.897	16386	15604	0	352
29.354	18.933	16385	15595	0	352
29.102	16.228	16385	15759	0	352
26.614	14.245	16385	16114	0	352
20.988	8.402	16386	16459	0	352
13.018	4.003	16386	16672	0	352
5.193	-0.829	16385	16743	0	352
-0.180	-2.885	16385	16783	0	352
-1.767	-1.515	16385	16872	0	352
-0.974	-1.947	16385	16996	0	352
0.252	-4.688	16386	17120	0	352
0.757	-7.248	16386	17209	0	352
0.361	-10.422	16386	17284	0	352
0.902	-9.773	16387	17364	0	352
0.216	-11.432	16387	17470	0	352
-2.488	-13.595	16388	17581	0	352
-4.364	-16.264	16388	17626	0	352
-6.058	-18.933	16388	17604	0	352
-3.029	-15.326	16389	17595	0	352
2.019	-10.566	16390	17648	0	352
5.914	-7.970	16390	17697	0	352
7.032	-7.140	16391	17635	0	352
5.842	-8.006	16390	17488	0	352
5.878	-8.799	16390	17355	0	352
9.412	-5.337	16390	17258	0	352
13.776	-0.829	16390	17164	0	352
17.851	3.606	16391	17062	0	352
17.454	6.419	16390	16969	0	352
12.730	7.285	16390	16863	0	352
8.078	1.587	16390	16712	0	352
3.426	0.072	16389	16539	0	352
4.075	-4.003	16389	16367	0	352
6.708	-3.173	16388	16185	0	352
12.153	0.685	16386	15954	0	352
16.769	3.137	16385	15630	0	352
18.969	3.498	16384	15302	0	352
18.752	4.724	16383	15173	0	352
16.733	4.400	16383	15253	0	352
14.425	3.498	16382	15369	0	352
9.917	2.885	16382	15426	0	352
7.681	2.560	16381	15395	0	352
5.373	0.865	16379	15258	0	352
5.337	1.082	16377	14974	0	352
6.419	1.370	16374	14605	0	352
8.943	3.173	16372	14348	0	352
13.595	4.832	16370	14268	0	352
18.572	6.455	16369	14335	0	352
23.152	8.402	16368	14526	0	352
26.217	8.294	16368	14801	0	352
27.083	6.924	16367	15085	0	352
25.856	7.898	16367	15315	0	352
27.083	10.746	16366	15408	0	352
30.292	17.779	16365	15431	0	352
35.810	24.558	16365	15626	0	352
41.435	32.492	16366	16025	0	352
46.917	37.685	16367	16450	0	352
49.910	40.029	16368	16858	0	352
51.064	40.353	16370	17306	0	352
49.044	37.793	16372	17799	0	352
45.330	32.780	16375	18282	0	352
39.416	25.784	16377	18708	0	352
32.708	17.490	16380	19068	0	352
26.542	11.540	16382	19316	0	352
22.322	7.429	16384	19391	0	352
19.149	3.678	16384	19329	0	352
17.238	1.731	16386	19267	0	352
14.641	-0.505	16387	19236	0	352
12.117	-3.137	16389	19205	0	352
7.970	-5.517	16391	19196	1	676
6.744	-5.626	16393	19196	0	676
5.193	-5.950	16395	19183	0	676
4.075	-5.914	16397	19174	0	676
3.282	-5.626	16400	19196	0	676
1.118	-4.652	16402	19192	0	676
-3.678	-7.825	16403	19099	0	676
-6.527	-9.376	16405	18961	0	676
-9.124	-13.018	16407	18837	0	676
-7.357	-13.992	16409	18739	0	676
-3.173	-10.674	16411	18628	0	676
1.515	-6.203	16413	18460	0	676
4.183	-0.541	16415	18251	0	676
2.993	2.416	16416	18074	0	676
2.092	2.452	16418	17945	0	676
1.298	1.298	16419	17821	0	676
1.370	0.252	16421	17621	0	676
2.488	0.072	16422	17377	0	676
3.967	-1.154	16423	17160	0	676
5.554	1.911	16424	17022	0	676
10.278	7.465	16425	16907	0	676
15.543	14.966	16426	16743	0	676
20.123	20.050	16426	16534	0	676
21.060	23.008	16427	16322	0	676
19.437	18.608	16428	16123	0	676
14.858	12.514	16428	15954	0	676
10.061	9.629	16428	15737	0	676
8.294	8.799	16427	15386	0	676
7.609	10.783	16425	14938	0	676
9.773	11.432	16423	14486	0	676
10.314	13.127	16422	14100	0	676
9.917	10.710	16420	13856	0	676
8.114	7.537	16419	13740	0	676
6.347	6.347	16418	13656	0	676
6.491	7.429	16416	13518	0	676
9.665	10.061	16414	13332	0	676
10.566	11.323	16412	13221	0	676
12.405	11.756	16411	13239	0	676
12.802	10.927	16410	13394	0	676
11.396	9.376	16409	13603	0	676
12.117	9.845	16408	13785	0	676
14.064	13.992	16407	13896	0	676
16.913	17.598	16405	13842	0	676
21.854	20.483	16403	13638	0	676
27.227	22.899	16400	13479	0	676
30.220	25.929	16398	13465	0	676
31.013	23.260	16396	13589	0	676
29.499	20.231	16395	13860	0	676
26.433	19.185	16395	14277	0	676
23.549	14.317	16395	14770	0	676
19.329	13.054	16396	15249	0	676
16.516	11.648	16396	15701	0	676
14.966	9.520	16397	16154	0	676
16.264	10.494	16399	16628	0	676
19.690	10.891	16400	17102	0	676
21.421	10.278	16401	17493	0	676
18.752	7.248	16403	17785	0	676
12.333	2.885	16404	18043	0	676
7.681	-1.046	16405	18291	0	676
5.481	0.757	16407	18526	0	676
10.025	5.301	16409	18753	0	676
14.100	10.097	16410	18872	0	676
17.021	10.133	16410	18753	0	676
16.769	6.960	16410	18424	0	676
16.120	5.770	16409	18029	0	676
17.562	7.645	16409	17675	0	676
22.827	13.235	16408	17408	0	676
28.669	21.926	16408	17178	0	676
34.908	26.974	16407	16911	0	676
38.262	30.725	16406	16632	0	676
37.901	30.148	16406	16468	0	676
37.577	29.607	16405	16432	0	676
36.278	27.083	16405	16410	0	676
34.944	23.476	16405	16345	0	676
32.961	21.313	16404	16234	0	676
27.732	16.012	16404	16118	0	676
21.349	12.730	16403	15985	0	676
13.631	6.599	16401	15675	0	676
8.150	1.983	16398	15173	0	676
5.157	-1.587	16396	14747	0	676
4.111	-2.344	16394	14570	0	676
7.573	-2.885	16393	14583	0	676
11.612	0.577	16392	14730	0	676
17.021	2.885	16392	14956	0	676
20.772	6.383	16392	15173	0	676
20.555	4.868	16392	15360	0	676
18.464	5.481	16392	15546	0	676
16.084	3.534	16392	15728	0	676
15.975	4.904	16392	15865	0	676
16.589	7.176	16391	15985	0	676
17.202	8.294	16391	16145	0	676
16.444	8.835	16392	16353	0	676
14.569	7.032	16393	16574	0	676
15.939	8.475	16393	16783	0	676
20.916	12.514	16394	16925	0	676
27.732	20.267	16394	17013	0	676
34.259	25.388	16395	17062	0	676
35.629	29.968	16394	17067	0	676
34.583	29.427	16394	17018	0	676
33.466	28.164	16394	16969	0	676
33.069	26.506	16394	16947	0	676
33.862	26.361	16394	16934	0	676
33.790	26.542	16394	16840	0	676
30.869	24.739	16393	16667	0	676
27.479	21.781	16392	16517	0	676
24.053	20.087	16392	16428	0	676
22.935	16.120	16391	16367	0	676
19.942	12.441	16391	16278	0	676
15.975	7.573	16390	16167	0	676
11.792	3.282	16390	16078	0	676
7.573	-0.361	16389	16065	0	676
8.294	-0.505	16389	16096	0	676
10.206	0.180	16388	16109	0	676
11.323	0.397	16388	16056	0	676
11.179	-1.983	16387	15985	0	676
9.881	-1.226	16387	15967	0	676
11.684	2.200	16387	16038	0	676
17.310	7.429	16387	16172	0	676
22.935	12.982	16387	16300	0	676
26.145	13.523	16387	16388	0	676
24.847	12.694	16387	16441	0	676
22.106	10.242	16387	16419	0	676
19.870	9.629	16386	16291	0	676
19.257	8.475	16385	16123	0	676
19.437	8.114	16384	16043	0	676
17.526	5.013	16384	16034	0	676
16.408	2.200	16384	16038	0	676
16.120	0.397	16384	16038	0	676
18.247	2.380	16384	16025	0	676
21.926	3.534	16383	16025	0	676
23.945	6.058	16383	16043	0	676
24.919	7.321	16382	16047	0	676
24.017	7.609	16382	16025	0	676
24.234	6.671	16381	15985	0	676
23.837	5.445	16381	15985	0	676
23.224	7.068	16380	16025	0	676
24.089	7.898	16380	16038	0	676
22.503	10.638	16379	15981	0	676
21.385	13.018	16378	15923	0	676
21.529	14.100	16378	15932	0	676
22.286	14.497	16378	15990	0	676
22.106	11.792	16377	16043	0	676
23.585	11.504	16376	16056	0	676
25.712	14.208	16376	16087	0	676
26.578	16.264	16376	16176	0	676
28.056	20.339	16376	16336	0	676
26.109	19.149	16377	16517	0	676
22.755	17.382	16377	16632	0	676
16.769	10.314	16376	16525	0	676
13.127	6.563	16375	16260	0	676
9.809	4.580	16374	16118	0	676
8.943	3.173	16374	16234	0	676
6.924	-0.252	16374	16437	0	676
5.121	-2.957	16375	16641	0	676
5.481	-3.606	16376	16894	0	676
9.448	0.829	16378	17209	0	676
16.444	8.871	16380	17555	0	676
21.132	13.920	16381	17856	0	676
21.493	12.766	16383	18029	0	676
18.392	7.393	16384	18047	0	676
15.507	2.921	16384	18029	0	676
15.867	3.354	16385	18065	0	676
19.762	8.475	16386	18132	0	676
21.241	11.360	16387	18189	0	676
20.231	10.891	16388	18149	0	676
16.733	5.986	16389	17981	0	676
15.759	4.291	16390	17825	0	676
18.969	5.517	16391	17852	0	676
24.522	9.448	16394	18083	1	672
28.309	14.569	16396	18353	0	672
29.030	13.127	16398	18504	0	672
26.001	10.710	16400	18513	0	672
22.935	6.635	16402	18478	0	672
21.998	6.058	16404	18451	0	672
23.044	8.871	16405	18433	0	672
25.712	11.396	16407	18398	0	672
24.594	12.514	16409	18305	0	672
23.837	9.773	16410	18145	0	672
21.637	8.042	16412	17981	0	672
22.467	7.862	16413	17870	0	672
23.440	8.943	16414	17777	0	672
24.919	10.061	16416	17643	0	672
22.972	7.573	16417	17479	0	672
18.067	4.039	16418	17306	0	672
12.550	-1.226	16418	17111	0	672
8.979	-3.895	16419	16867	0	672
4.940	-5.085	16419	16596	0	672
4.544	-5.085	16419	16353	0	672
5.842	-5.193	16420	16180	0	672
7.934	-2.416	16420	16074	0	672
10.927	0.505	16421	16003	0	672
11.143	1.623	16421	15888	0	672
8.258	-0.144	16421	15737	0	672
4.652	-2.849	16420	15559	0	672
5.914	-2.885	16420	15346	0	672
10.133	-0.252	16419	15129	0	672
16.156	3.750	16419	14969	0	672
18.933	4.219	16418	14872	0	672
14.966	0.613	16417	14778	0	672
9.629	-5.662	16416	14614	0	672
4.796	-8.258	16415	14441	0	672
4.400	-7.934	16414	14428	0	672
9.665	-3.246	16414	14570	0	672
12.910	-0.433	16414	14707	0	672
14.353	-0.613	16413	14778	0	672
13.704	-2.416	16413	14783	0	672
12.622	-4.364	16412	14752	0	672
12.838	-4.291	16411	14761	0	672
15.038	-2.056	16411	14845	0	672
17.490	1.947	16410	14956	0	672
16.552	1.479	16410	15005	0	672
13.415	-1.226	16408	14978	0	672
10.602	-5.734	16407	14974	0	672
8.799	-7.898	16407	15093	0	672
10.133	-7.862	16407	15298	0	672
12.333	-4.508	16407	15479	0	672
14.425	-0.505	16407	15621	0	672
14.966	2.164	16407	15799	0	672
13.054	2.344	16407	16030	0	672
11.143	1.479	16408	16256	0	672
10.963	-0.613	16408	16397	0	672
12.189	0.938	16408	16481	0	672
12.838	0.325	16408	16530	0	672
13.559	3.173	16407	16525	0	672
13.199	3.714	16407	16472	0	672
11.648	3.714	16407	16432	0	672
9.412	1.406	16406	16446	0	672
6.167	-2.488	16406	16454	0	672
1.947	-6.671	16405	16384	0	672
-1.731	-9.917	16405	16282	0	672
-1.911	-10.097	16405	16358	0	672
1.983	-6.996	16405	16596	0	672
6.491	-1.010	16406	16756	0	672
8.402	0.902	16405	16721	0	672
8.871	0.829	16405	16579	0	672
6.491	-0.433	16404	16446	0	672
7.934	-1.587	16404	16371	0	672
9.953	0.108	16403	16362	0	672
12.982	3.895	16403	16371	0	672
14.677	6.780	16403	16345	0	672
11.143	5.193	16403	16340	0	672
9.484	4.219	16403	16384	0	672
7.429	2.308	16402	16419	0	672
9.881	1.875	16403	16423	0	672
13.235	2.236	16402	16401	0	672
18.428	8.439	16402	16384	0	672
23.044	14.858	16402	16397	0	672
28.201	21.204	16402	16490	1	316
31.302	27.768	16402	16614	0	316
34.656	30.400	16403	16685	0	316
36.026	30.617	16403	16694	0	316
35.124	30.653	16403	16694	0	316
34.151	30.545	16403	16730	0	316
31.374	27.696	16403	16765	0	316
26.758	21.060	16403	16730	0	316
20.447	15.218	16403	16650	0	316
14.821	9.881	16403	16601	0	316
11.720	5.986	16403	16592	0	316
11.576	5.806	16403	16570	0	316
15.687	6.599	16403	16490	0	316
19.221	8.583	16402	16380	0	316
23.765	11.900	16401	16234	0	316
25.279	11.576	16399	15981	0	316
24.594	13.379	16398	15639	0	316
24.125	9.665	16396	15333	0	316
22.070	6.383	16394	15102	0	316
19.401	3.137	16392	14912	0	316
16.516	-0.433	16390	14681	0	316
12.586	-2.128	16387	14432	0	316
9.629	-3.642	16385	14282	0	316
9.304	-1.515	16384	14268	0	316
12.694	2.416	16384	14375	0	316
17.815	5.806	16383	14517	0	316
21.421	9.016	16382	14663	0	316
21.926	10.710	16380	14805	0	316
18.067	8.475	16379	14836	0	316
12.333	5.373	16377	14725	0	316
8.078	3.029	16375	14659	0	316
5.049	0.180	16373	14734	0	316
6.022	-0.180	16373	14889	0	316
6.671	-0.180	16372	15116	0	316
5.626	-0.829	16372	15417	0	316
4.291	-0.793	16372	15759	0	316
1.551	-3.282	16372	16074	0	316
-0.072	-5.265	16372	16331	0	316
0.793	-6.455	16372	16543	0	316
1.947	-9.052	16372	16761	0	316
4.291	-8.258	16373	17000	0	316
5.013	-6.491	16373	17218	0	316
6.311	-5.121	16374	17364	0	316
5.337	-5.229	16374	17475	0	316
2.993	-7.032	16374	17577	0	316
1.767	-9.917	16375	17670	0	316
1.334	-10.819	16375	17759	0	316
3.029	-8.907	16376	17830	0	316
5.770	-4.364	16376	17817	0	316
7.681	0.252	16375	17648	0	316
7.321	1.082	16375	17395	0	316
4.544	-1.010	16374	17182	0	316
2.308	-2.524	16374	17062	0	316
1.731	-5.193	16373	16982	0	316
1.731	-5.265	16373	16889	0	316
2.633	-3.282	16372	16769	0	316
1.298	-5.085	16372	16725	0	316
-1.190	-8.330	16373	16827	0	316
-3.750	-11.973	16374	16991	0	316
-6.527	-12.802	16374	17102	0	316
-6.744	-14.317	16375	17129	0	316
-4.760	-11.684	16375	17093	0	316
-3.714	-9.592	16374	16943	0	316
-1.659	-8.547	16374	16690	0	316
-0.361	-9.989	16373	16454	0	316
-2.200	-10.566	16372	16318	0	316
-5.986	-17.346	16372	16274	0	316
-7.645	-18.969	16373	16362	0	316
-7.176	-18.356	16374	16596	0	316
-2.777	-12.586	16375	16920	0	316
4.724	-4.183	16377	17222	0	316
9.196	0.865	16379	17479	0	316
10.025	0.180	16380	17692	0	316
6.058	-5.193	16382	17812	0	316
0.541	-12.622	16383	17879	0	316
-2.705	-16.913	16384	17981	0	316
-1.983	-13.884	16385	18136	0	316
-0.252	-11.035	16387	18282	0	316
0.865	-6.131	16390	18407	0	316
-1.082	-6.852	16392	18526	0	316
-4.796	-11.107	16394	18620	0	316
-8.006	-16.589	16396	18677	0	316
-9.484	-17.779	16398	18673	0	316
-8.691	-18.969	16399	18549	0	316
-8.547	-15.110	16400	18313	0	316
-6.203	-14.208	16401	18083	0	316
-4.904	-12.009	16402	17892	1	344
-2.633	-10.710	16403	17666	0	344
-1.442	-12.189	16402	17320	0	344
-3.426	-13.920	16403	16898	0	344
-5.229	-16.805	16402	16614	0	344
-4.472	-15.795	16403	16521	0	344
-2.921	-13.018	16404	16486	0	344
-0.938	-10.674	16405	16392	0	344
-0.793	-7.465	16405	16238	0	344
-2.560	-8.078	16405	16074	0	344
-4.291	-6.635	16405	15950	0	344
-2.777	-3.354	16405	15870	0	344
0.865	1.515	16405	15777	0	344
4.291	5.229	16404	15613	0	344
5.337	5.842	16404	15426	0	344
4.940	6.203	16403	15302	0	344
4.616	5.770	16403	15235	0	344
7.717	7.321	16403	15196	0	344
12.225	10.566	16403	15191	0	344
17.959	13.379	16403	15209	0	344
20.844	15.182	16403	15240	0	344
20.411	12.333	16403	15324	0	344
16.985	10.169	16404	15475	0	344
15.218	10.061	16404	15617	0	344
15.975	10.350	16405	15737	0	344
19.041	14.353	16405	15870	0	344
22.034	17.274	16405	16012	0	344
21.096	15.543	16407	16149	0	344
19.149	14.533	16407	16362	0	344
15.254	10.783	16409	16636	0	344
12.081	10.422	16410	16792	0	344
12.838	9.088	16410	16765	0	344
13.595	8.402	16410	16672	0	344
15.939	9.376	16410	16561	0	344
19.293	12.658	16410	16450	0	344
22.575	17.670	16409	16331	0	344
23.729	19.401	16408	16136	0	344
22.539	21.168	16408	15892	0	344
22.719	19.978	16407	15768	0	344
22.899	16.516	16407	15808	0	344
25.568	20.195	16407	15888	0	344
28.020	21.673	16407	15901	0	344
26.325	22.178	16407	15848	0	344
24.775	21.277	16406	15786	0	344
22.322	17.959	16406	15768	0	344
22.250	16.516	16405	15790	0	344
25.424	15.831	16405	15794	0	344
24.630	14.894	16405	15750	0	344
22.611	14.497	16404	15688	0	344
18.283	12.225	16404	15679	0	344
17.057	12.405	16403	15759	0	344
19.365	13.884	16403	15874	0	344
24.089	17.634	16403	15941	0	344
27.587	20.627	16403	15954	0	344
28.381	21.060	16402	15932	0	344
26.938	20.014	16402	15861	0	344
26.722	21.601	16401	15741	0	344
30.004	23.080	16400	15626	0	344
32.600	26.866	16398	15550	0	344
33.934	27.984	16398	15524	0	344
31.843	26.506	16396	15497	0	344
29.391	21.781	16396	15471	0	344
29.138	21.673	16396	15581	0	344
31.662	20.880	16396	15839	0	344
33.898	20.050	16396	16012	0	344
32.420	19.906	16395	15985	0	344
28.525	14.605	16394	15857	0	344
23.549	11.612	16393	15763	0	344
22.142	9.340	16392	15759	0	344
20.195	6.599	16392	15799	0	344
16.985	2.452	16391	15825	0	344
10.746	-3.390	16390	15839	0	344
4.075	-8.439	16390	15896	0	344
1.767	-8.475	16389	15936	0	344
6.635	-6.094	16388	15883	0	344
12.622	-1.154	16387	15794	0	344
17.346	2.272	16386	15732	0	344
16.408	1.911	16385	15688	0	344
13.631	0.505	16384	15679	0	344
12.514	1.623	16384	15719	0	344
18.103	8.222	16383	15763	0	344
25.676	16.120	16382	15755	0	344
32.744	25.388	16381	15697	0	344
34.151	27.047	16380	15697	0	344
32.239	22.755	16380	15817	0	344
27.263	17.670	16380	15999	0	344
26.470	12.550	16380	16158	0	344
29.318	13.920	16380	16300	0	344
31.266	18.464	16380	16459	0	344
30.545	17.670	16380	16641	0	344
24.089	13.848	16380	16823	0	344
13.884	5.734	16381	16974	0	344
7.825	0.288	16381	17009	0	344
6.239	-2.236	16380	16907	0	344
8.943	-1.370	16379	16796	0	344
11.756	-1.298	16379	16747	0	344
12.514	-3.714	16379	16734	0	344
10.025	-6.852	16379	16743	0	344
9.881	-6.311	16378	16752	0	344
9.124	-4.219	16378	16734	0	344
10.242	-1.551	16378	16698	0	344
11.756	0.072	16378	16663	0	344
11.937	-2.705	16377	16663	0	344
11.360	-4.832	16377	16694	0	344
11.828	-6.852	16377	16703	0	344
11.648	-6.527	16377	16641	0	344
12.694	-3.173	16377	16570	0	344
14.785	2.416	16376	16552	0	344
15.615	5.049	16376	16557	0	344
14.245	7.176	16376	16503	0	344
12.730	5.445	16375	16371	0	344
10.674	3.931	16374	16234	0	344
7.753	3.967	16374	16198	0	344
7.285	4.003	16374	16243	0	344
6.383	5.049	16373	16274	0	344
7.104	4.183	16373	16247	0	344
7.717	3.390	16372	16163	0	344
8.727	4.832	16371	15959	0	344
8.871	5.301	16369	15706	0	344
8.619	5.481	16368	15564	0	344
6.996	3.354	16367	15542	0	344
6.275	-0.721	16367	15568	0	344
7.393	-2.344	16366	15630	0	344
8.258	-1.551	16366	15732	0	344
11.360	3.426	16365	15852	0	344
13.776	7.789	16365	15941	0	344
16.589	12.225	16365	16012	0	344
18.283	14.208	16365	16092	0	344
20.159	14.064	16365	16189	0	344
21.493	11.720	16365	16349	0	344
23.188	10.819	16366	16650	0	344
21.745	10.458	16368	17027	0	344
20.591	9.052	16368	17271	0	344
18.716	9.376	16369	17342	0	344
18.969	12.333	16369	17333	0	344
20.627	16.769	16369	17324	0	344
26.722	20.519	16370	17355	0	344
29.535	21.637	16371	17417	0	344
29.463	20.303	16371	17426	0	344
24.775	11.612	16372	17337	0	344
19.834	6.527	16372	17266	0	344
15.507	3.642	16373	17333	0	344
12.982	0.288	16374	17519	0	344
8.907	-3.426	16376	17728	0	344
5.878	-5.878	16377	17870	0	344
3.642	-8.366	16378	17914	0	344
3.967	-6.888	16379	17772	0	344
8.511	-4.147	16379	17533	0	344
10.422	-1.082	16380	17395	0	344
11.323	-1.911	16380	17377	0	344
11.396	-1.118	16381	17395	0	344
14.497	0.252	16383	17484	0	344
18.247	5.445	16384	17666	0	344
24.053	11.360	16385	17883	0	344
28.886	16.661	16388	18096	0	344
33.105	21.457	16391	18305	0	344
35.557	21.673	16393	18473	0	344
36.170	19.401	16396	18588	0	344
33.646	17.418	16398	18673	0	344
29.354	13.018	16400	18704	0	344
28.958	14.208	16402	18659	0	344
30.689	20.050	16403	18540	0	344
35.846	24.089	16405	18305	0	344
38.298	27.155	16406	18021	0	344
34.006	22.683	16407	17910	1	656
25.099	14.713	16410	17985	0	656
12.874	5.914	16412	17994	0	656
4.219	-2.344	16412	17772	0	656
-2.164	-6.996	16413	17386	0	656
-4.003	-10.999	16413	16978	0	656
-2.957	-13.740	16413	16641	0	656
0.252	-11.973	16413	16384	0	656
3.823	-7.248	16413	16145	0	656
6.563	-2.669	16413	15892	0	656
6.708	0.108	16413	15719	0	656
4.436	-1.839	16413	15635	0	656
1.767	-4.724	16413	15564	0	656
3.678	-6.563	16413	15479	0	656
9.268	-1.875	16414	15395	0	656
15.290	3.318	16414	15324	0	656
18.500	7.140	16413	15222	0	656
18.933	6.744	16412	14969	0	656
18.572	6.924	16410	14579	0	656
21.890	11.756	16409	14273	0	656
28.309	18.211	16407	14148	0	656
34.475	25.856	16407	14148	0	656
35.233	27.624	16407	14237	0	656
31.626	24.378	16406	14388	0	656
27.515	20.014	16406	14530	0	656
23.404	14.317	16405	14614	0	656
19.437	10.602	16404	14610	0	656
14.749	2.019	16403	14548	0	656
5.878	-6.094	16402	14512	0	656
-0.793	-11.071	16401	14588	0	656
-4.147	-12.586	16400	14699	0	656
-3.065	-11.107	16398	14614	0	656
-0.649	-7.898	16396	14344	0	656
1.190	-6.852	16394	14197	0	656
0.072	-10.133	16393	14353	0	656
-2.200	-10.819	16393	14641	0	656
-3.426	-9.592	16392	14845	0	656
-0.541	-8.294	16391	14943	0	656
3.606	-6.203	16390	15036	0	656
7.537	-4.904	16390	15218	0	656
10.746	-3.426	16390	15479	0	656
13.451	-1.587	16389	15697	0	656
16.336	4.075	16389	15834	0	656
20.267	8.799	16389	15976	0	656
22.827	9.953	16389	16185	0	656
21.313	7.825	16389	16432	0	656
18.572	4.003	16390	16694	0	656
15.507	1.406	16390	16934	0	656
13.379	2.019	16391	17151	0	656
13.199	2.849	16392	17386	0	656
11.323	3.498	16393	17639	0	656
7.068	2.019	16395	17905	0	656
3.498	-2.308	16396	18149	0	656
-1.406	-7.140	16397	18296	0	656
-5.301	-11.035	16398	18305	0	656
-6.347	-11.684	16399	18234	0	656
-6.167	-12.045	16399	18118	0	656
-2.560	-10.494	16399	17919	0	656
2.669	-7.248	16398	17635	0	656
7.537	-5.481	16398	17360	0	656
7.934	-5.806	16397	17107	0	656
6.203	-6.816	16397	16854	0	656
2.524	-9.448	16396	16588	0	656
1.046	-7.970	16394	16314	0	656
4.364	-4.508	16393	16043	0	656
12.225	1.370	16392	15803	0	656
17.346	8.042	16390	15559	0	656
21.385	9.881	16389	15355	0	656
21.349	10.061	16388	15311	0	656
18.464	9.773	16388	15369	0	656
16.012	9.701	16386	15235	0	656
14.100	8.871	16384	14814	0	656
13.812	6.960	16381	14348	0	656
13.127	6.599	16379	14064	0	656
14.317	4.039	16377	13980	0	656
15.795	3.246	16375	14020	0	656
17.382	4.003	16373	14095	0	656
18.320	4.508	16372	14166	0	656
17.779	5.049	16371	14326	0	656
16.733	2.813	16371	14628	0	656
14.605	1.515	16371	15000	0	656
14.281	1.911	16370	15373	0	656
12.802	2.705	16371	15715	0	656
13.595	4.436	16371	16038	0	656
13.631	6.058	16372	16384	0	656
15.903	7.717	16373	16801	0	656
18.752	10.314	16375	17209	0	656
21.132	12.081	16376	17519	0	656
23.224	17.310	16377	17768	0	656
26.397	18.031	16378	18007	0	656
30.148	21.168	16380	18260	0	656
35.233	20.664	16382	18517	0	656
37.216	21.565	16384	18713	0	656
33.934	17.093	16384	18828	0	656
27.263	12.550	16385	18899	0	656
19.149	7.789	16387	18948	0	656
15.254	4.977	16389	18966	0	656
16.372	4.327	16390	18908	0	656
20.483	8.186	16391	18775	0	656
23.693	11.504	16391	18571	0	656
21.601	10.891	16391	18309	0	656
16.625	7.934	16392	18021	1	404
10.169	2.524	16392	17728	0	404
9.845	0.361	16392	17457	0	404
15.543	1.839	16392	17182	0	404
22.647	7.321	16390	16836	0	404
25.424	10.458	16389	16419	0	404
22.286	9.737	16388	16047	0	404
18.320	8.511	16387	15741	0	404
15.218	7.862	16386	15475	0	404
19.221	7.645	16384	15209	0	404
26.866	9.196	16384	14903	0	404
31.049	10.386	16382	14610	0	404
31.338	9.268	16381	14415	0	404
29.499	8.439	16379	14313	0	404
26.722	8.294	16378	14264	0	404
27.768	10.710	16376	14237	0	404
30.112	14.569	16375	14255	0	404
31.987	16.841	16374	14317	0	404
30.076	19.293	16373	14370	0	404
25.893	14.930	16372	14397	0	404
20.736	11.179	16370	14441	0	404
17.202	5.337	16370	14579	0	404
14.894	2.019	16369	14836	0	404
13.018	-0.721	16370	15209	0	404
13.127	-1.406	16371	15657	0	404
13.848	1.370	16372	16101	0	404
18.572	5.662	16373	16486	0	404
24.414	10.638	16374	16832	0	404
30.436	14.641	16376	17160	0	404
33.357	13.235	16377	17466	0	404
33.718	13.415	16379	17741	0	404
30.761	12.333	16380	17981	0	404
30.869	12.045	16382	18140	0	404
32.276	16.769	16382	18149	0	404
34.583	19.870	16382	18016	0	404
35.305	21.493	16382	17803	0	404
31.482	18.572	16382	17550	0	404
24.594	14.713	16381	17333	0	404
21.745	10.710	16381	17178	0	404
22.322	11.107	16381	17098	0	404
26.181	16.697	16383	17173	0	404
31.338	19.510	16384	17364	0	404
33.249	21.818	16384	17497	0	404
31.158	16.012	16385	17533	0	404
26.902	11.396	16386	17564	0	404
22.503	5.554	16388	17683	0	404
17.093	4.796	16389	17887	0	404
15.687	4.868	16392	18114	0	404
17.346	9.232	16394	18305	0	404
20.664	13.127	16396	18411	0	404
24.991	14.064	16398	18420	0	404
24.847	15.471	16399	18313	0	404
22.431	13.776	16400	18154	0	404
20.014	14.605	16401	18029	0	404
19.510	16.697	16403	17941	0	404
21.096	16.192	16403	17865	0	404
23.044	15.903	16405	17825	0	404
23.080	11.432	16407	17821	0	404
22.719	9.520	16408	17790	0	404
23.008	11.504	16410	17688	0	404
28.056	14.641	16410	17533	0	404
29.787	20.267	16411	17364	0	404
28.056	18.283	16412	17213	0	404
22.250	15.543	16413	17098	0	404
15.038	9.052	16414	16987	0	404
11.828	5.842	16415	16867	0	404
11.792	5.337	16415	16721	0	404
12.730	4.652	16415	16490	0	404
12.045	4.219	16415	16247	0	404
9.376	2.777	16416	16172	0	404
9.160	0.974	16418	16291	0	404
9.917	0.938	16419	16441	0	404
10.710	1.262	16420	16539	0	404
9.881	-0.577	16422	16561	0	404
8.330	-1.767	16423	16543	0	404
11.143	0.361	16423	16539	0	404
16.877	7.753	16425	16583	0	404
25.207	16.949	16426	16614	0	404
32.203	24.775	16427	16561	0	404
34.872	27.551	16427	16454	0	404
32.023	23.152	16428	16384	0	404
26.325	19.149	16428	16353	0	404
22.899	16.156	16428	16265	0	404
21.277	16.877	16428	16056	0	404
20.555	16.084	16428	15821	0	404
18.969	14.785	16428	15661	0	404
16.336	7.645	16428	15595	0	404
10.494	0.721	16427	15573	0	404
8.655	-4.219	16427	15537	0	404
8.655	-5.517	16427	15471	0	404
11.035	-3.137	16427	15373	0	404
12.586	-0.144	16426	15240	0	404
12.910	2.200	16426	15151	0	404
15.651	4.039	16425	15142	0	404
17.310	6.203	16425	15182	0	404
18.428	6.888	16424	15204	0	404
18.392	7.501	16424	15169	0	404
18.103	7.032	16423	15098	0	404
19.401	6.527	16423	15120	0	404
21.457	7.717	16423	15306	0	404
22.647	8.150	16423	15471	0	404
23.404	9.376	16422	15435	0	404
21.024	7.140	16421	15293	0	404
20.375	7.212	16420	15160	0	404
22.431	7.717	16418	15005	0	404
27.263	12.441	16416	14823	0	404
28.777	15.975	16415	14659	0	404
28.561	16.769	16413	14530	0	404
24.739	15.543	16411	14455	0	404
21.854	11.035	16410	14477	0	404
23.224	11.612	16409	14579	0	404
26.542	14.533	16408	14699	0	404
28.741	16.192	16407	14792	0	404
25.388	14.569	16406	14920	0	404
15.651	6.780	16405	15129	0	404
9.953	-0.108	16405	15404	0	404
8.943	-1.911	16405	15670	0	404
14.677	3.642	16405	15870	0	404
21.926	9.845	16405	16030	0	404
25.099	15.074	16405	16220	0	404
24.125	13.920	16406	16468	0	404
24.198	13.127	16406	16721	0	404
25.135	12.730	16406	16876	0	404
27.948	12.189	16406	16885	0	404
26.614	11.756	16405	16805	0	404
21.998	8.402	16405	16747	0	404
16.985	8.547	16404	16743	0	404
17.310	11.468	16404	16725	0	404
21.529	18.139	16403	16672	0	404
26.866	20.375	16402	16619	0	404
27.768	18.067	16402	16574	0	404
25.135	10.674	16401	16557	0	404
24.739	8.006	16402	16650	0	404
26.722	11.828	16402	16836	0	404
31.482	16.552	16403	16925	0	404
31.879	23.044	16402	16778	0	404
29.787	21.998	16400	16468	0	404
24.486	18.392	16399	16176	0	404
21.313	16.048	16397	15999	0	404
19.546	13.523	16396	15919	0	404
19.437	11.360	16395	15821	0	404
17.310	6.455	16393	15661	0	404
13.956	0.180	16392	15533	0	404
10.566	-5.373	16391	15510	0	404
9.412	-6.094	16390	15564	0	404
10.674	-3.282	16389	15613	0	404
17.670	3.065	16388	15608	0	404
26.506	12.838	16387	15590	0	404
34.439	18.211	16386	15599	0	404
37.396	21.385	16385	15568	0	404
34.511	18.897	16384	15471	0	404
31.951	16.661	16383	15369	0	404
30.184	14.172	16382	15324	0	404
33.285	16.552	16381	15351	0	404
36.567	17.454	16381	15471	0	404
36.639	16.985	16380	15661	0	404
33.033	15.435	16380	15839	0	404
28.958	12.622	16379	15954	0	404
26.397	13.595	16378	16056	0	404
25.243	13.668	16379	16203	0	404
27.587	15.975	16378	16371	0	404
30.364	17.887	16378	16499	0	404
32.997	18.139	16378	16579	0	404
34.583	17.923	16378	16654	0	404
32.925	17.851	16378	16734	0	404
29.499	15.002	16378	16827	0	404
24.162	13.956	16379	16996	0	404
21.529	13.054	16379	17187	0	404
19.329	10.891	16379	17258	0	404
17.851	6.708	16379	17178	0	404
15.038	2.380	16378	17036	0	404
13.595	-0.685	16378	16916	0	404
12.009	-1.731	16377	16796	0	404
13.451	0.325	16375	16486	0	404
15.074	4.039	16372	15954	0	404
17.021	7.537	16370	15484	0	404
18.392	9.845	16369	15311	0	404
19.437	9.448	16367	15382	0	404
21.421	9.881	16367	15568	0	404
23.080	9.088	16367	15786	0	404
26.109	9.665	16367	16007	0	404
27.912	13.127	16368	16260	0	404
30.725	17.634	16369	16565	0	404
31.915	20.123	16371	16956	0	404
33.862	22.972	16373	17413	0	404
34.043	22.286	16375	17848	0	404
32.239	18.392	16377	18216	0	404
29.751	14.028	16380	18557	0	404
27.551	11.756	16382	18917	0	404
26.686	10.674	16384	19254	0	404
28.633	15.110	16387	19494	0	404
29.787	17.887	16390	19631	0	404
28.597	19.870	16392	19733	0	404
25.460	16.120	16395	19795	0	404
20.844	11.828	16397	19777	0	404
18.969	8.439	16399	19649	0	404
19.149	7.285	16401	19436	0	404
20.483	8.655	16401	19179	0	404
19.978	10.566	16403	18895	1	792
18.175	10.674	16404	18624	0	792
16.516	9.340	16405	18407	0	792
15.651	7.285	16407	18256	0	792
15.290	6.275	16408	18114	0	792
15.074	3.750	16409	17883	0	792
12.477	1.551	16410	17595	0	792
11.612	2.308	16411	17417	0	792
11.756	3.714	16413	17377	0	792
16.661	8.943	16414	17346	0	792
21.493	14.858	16415	17253	0	792
25.063	21.096	16416	17102	0	792
28.164	21.962	16417	16911	0	792
27.119	21.673	16418	16725	0	792
27.876	20.087	16419	16570	0	792
27.119	17.202	16419	16406	0	792
26.614	18.247	16419	16203	0	792
25.676	16.372	16420	15985	0	792
22.647	15.759	16420	15834	0	792
20.411	12.225	16420	15781	0	792
17.562	7.717	16421	15777	0	792
16.120	6.239	16421	15737	0	792
14.641	3.390	16422	15657	0	792
15.687	4.436	16422	15559	0	792
18.608	7.357	16422	15440	0	792
23.116	11.432	16422	15333	0	792
25.063	14.317	16422	15306	0	792
23.224	12.694	16422	15355	0	792
16.697	6.058	16422	15400	0	792
11.468	0.288	16423	15417	0	792
13.595	-1.370	16423	15440	0	792
20.375	5.193	16423	15457	0	792
30.833	15.218	16423	15457	0	792
34.331	21.745	16422	15395	0	792
33.646	23.909	16422	15266	0	792
30.148	22.250	16421	15129	0	792
28.381	20.519	16420	15022	0	792
30.689	23.512	16419	14974	0	792
31.049	25.712	16419	14965	0	792
30.653	25.748	16418	14925	0	792
26.578	24.378	16417	14854	0	792
23.296	19.437	16415	14805	0	792
23.512	15.362	16414	14672	0	792
24.234	10.963	16411	14392	0	792
23.296	8.943	16409	14131	0	792
20.555	5.157	16407	13980	0	792
14.858	1.659	16405	13918	0	792
9.701	1.334	16403	13953	0	792
8.691	2.705	16402	14095	0	792
8.799	4.760	16401	14308	0	792
10.999	4.940	16401	14543	0	792
14.389	6.671	16401	14805	0	792
18.175	7.357	16400	15116	0	792
23.116	10.783	16401	15466	0	792
26.902	14.208	16401	15834	0	792
27.948	17.995	16402	16163	0	792
25.965	13.812	16402	16441	0	792
20.375	9.232	16403	16703	0	792
16.805	5.193	16403	16969	0	792
13.199	3.282	16405	17240	0	792
14.136	5.049	16405	17493	0	792
15.687	9.340	16405	17595	0	792
17.995	13.018	16405	17506	0	792
20.375	15.939	16405	17346	0	792
20.736	14.497	16405	17222	0	792
19.618	13.559	16404	17124	0	792
17.021	9.592	16404	17036	0	792
12.910	5.265	16403	16956	0	792
8.799	0.288	16403	16863	0	792
5.734	-3.462	16402	16734	0	792
4.183	-7.970	16402	16570	0	792
4.760	-8.439	16401	16446	0	792
6.311	-6.347	16400	16392	0	792
10.278	-3.065	16399	16358	0	792
11.684	0.433	16399	16274	0	792
12.946	1.154	16398	16207	0	792
12.514	0.757	16398	16180	0	792
10.602	-0.721	16398	16158	0	792
10.855	-1.515	16397	16145	0	792
12.117	-0.577	16397	16172	0	792
10.494	-0.974	16397	16243	0	792
7.357	-3.426	16397	16353	0	792
1.767	-7.898	16398	16494	0	792
-2.560	-11.179	16398	16636	0	792
-3.823	-11.287	16398	16716	0	792
-1.370	-8.114	16398	16734	0	792
2.092	-4.039	16398	16685	0	792
4.904	-1.154	16398	16610	0	792
6.383	-0.072	16398	16596	0	792
9.232	0.757	16397	16636	0	792
9.665	1.911	16398	16667	0	792
10.746	3.354	16398	16694	0	792
8.547	1.659	16398	16725	0	792
6.816	-2.200	16399	16774	0	792
4.796	-4.904	16399	16854	0	792
2.092	-8.258	16400	16947	0	792
2.596	-10.350	16399	16947	0	792
2.452	-7.934	16399	16827	0	792
3.967	-5.590	16399	16645	0	792
7.501	-3.426	16398	16486	0	792
11.360	-2.019	16398	16353	0	792
12.838	-2.344	16397	16194	0	792
14.605	-5.301	16395	15936	0	792
14.605	-5.229	16393	15599	0	792
14.785	-4.291	16392	15315	0	792
15.254	-0.397	16390	15138	0	792
15.146	2.921	16388	15031	0	792
15.831	5.157	16387	14969	0	792
16.841	6.744	16386	14938	0	792
17.743	8.150	16385	14960	0	792
19.546	8.979	16384	15040	0	792
19.978	10.927	16384	15187	0	792
19.257	9.412	16384	15369	0	792
16.985	8.150	16384	15510	0	792
13.595	3.390	16384	15604	0	792
13.199	2.236	16384	15737	0	792
15.398	6.275	16384	15932	0	792
21.818	12.730	16384	16149	0	792
27.191	17.923	16384	16309	0	792
27.479	19.726	16384	16380	0	792
21.637	12.369	16383	16336	0	792
13.054	6.131	16382	16158	0	792
10.386	2.128	16380	15932	0	792
13.523	4.291	16379	15755	0	792
18.356	9.016	16378	15670	0	792
19.546	9.737	16377	15679	0	792
14.569	5.734	16376	15772	0	792
4.832	1.406	16376	15901	0	792
-0.793	-4.003	16375	16003	0	792
-2.092	-6.996	16375	16056	0	792
2.272	-3.101	16374	16061	0	792
11.035	1.839	16373	15985	0	792
18.247	8.691	16371	15861	0	792
24.955	17.021	16370	15790	0	792
26.974	18.428	16370	15812	0	792
22.972	15.867	16369	15883	0	792
17.706	9.016	16368	15901	0	792
13.956	3.678	16367	15892	0	792
11.973	1.442	16367	16038	0	792
13.163	0.325	16368	16388	0	792
13.235	-1.875	16369	16809	0	792
12.982	-4.003	16371	17169	0	792
11.360	-5.517	16372	17426	0	792
9.989	-7.104	16373	17630	0	792
7.321	-6.924	16375	17852	0	792
3.967	-9.629	16376	18078	0	792
-0.072	-13.595	16377	18225	0	792
-2.308	-16.697	16378	18265	0	792
-2.019	-17.995	16380	18322	0	792
0.036	-14.966	16381	18460	0	792
1.839	-11.143	16383	18642	0	792
2.452	-9.196	16384	18815	0	792
0.757	-10.710	16386	18930	0	792
-3.534	-11.973	16388	18997	0	792
-6.744	-16.012	16391	19054	0	792
-8.294	-13.307	16393	19143	0	792
-3.823	-8.655	16395	19227	0	792
4.940	0.180	16398	19250	0	792
12.658	5.842	16400	19210	0	792
18.572	8.727	16402	19143	0	792
18.788	6.924	16404	19072	0	792
15.615	2.921	16406	18983	0	792
12.874	1.046	16407	18810	1	648
12.117	2.705	16409	18522	0	648
11.035	6.924	16409	18140	0	648
12.622	10.710	16409	17679	0	648
14.281	13.812	16409	17178	0	648
15.579	14.136	16408	16752	0	648
17.418	13.920	16408	16428	0	648
17.129	14.605	16408	16172	0	648
15.867	13.776	16408	15945	0	648
14.533	14.317	16408	15732	0	648
12.441	11.035	16408	15559	0	648
12.874	8.727	16408	15453	0	648
12.369	7.032	16408	15404	0	648
13.487	6.563	16408	15315	0	648
12.910	6.744	16407	15164	0	648
11.251	6.239	16407	15076	0	648
7.825	4.255	16407	15071	0	648
7.429	1.623	16407	15062	0	648
8.583	-0.036	16407	15036	0	648
13.668	1.731	16407	15027	0	648
18.356	7.681	16407	15045	0	648
22.791	13.235	16407	15093	0	648
24.450	16.084	16407	15182	0	648
26.650	19.329	16407	15324	0	648
29.391	18.283	16407	15448	0	648
31.302	18.752	16407	15515	0	648
33.393	19.473	16407	15564	0	648
34.006	22.214	16408	15652	0	648
35.954	26.542	16407	15746	0	648
38.839	29.354	16408	15794	0	648
39.957	31.338	16407	15808	0	648
39.596	28.705	16407	15834	0	648
33.610	22.575	16408	15883	0	648
26.073	14.461	16408	15972	0	648
18.356	11.648	16408	16101	0	648
12.225	8.402	16409	16238	0	648
6.816	3.714	16409	16318	0	648
-0.974	-5.481	16408	16296	0	648
-7.898	-17.779	16409	16265	0	648
-13.379	-24.414	16409	16349	0	648
-13.776	-26.073	16410	16543	0	648
-11.973	-22.539	16410	16672	0	648
-9.556	-15.218	16410	16605	0	648
-9.124	-15.507	16410	16423	0	648
-9.917	-14.713	16409	16251	0	648
-8.907	-15.615	16409	16127	0	648
-3.101	-11.468	16408	16034	0	648
3.534	-6.960	16407	15936	0	648
9.376	-1.947	16407	15812	0	648
13.235	0.974	16405	15715	0	648
16.048	2.380	16405	15679	0	648
16.192	3.210	16404	15657	0	648
18.608	6.058	16403	15613	0	648
22.935	12.297	16402	15475	0	648
26.073	16.156	16400	15138	0	648
28.958	22.683	16397	14681	0	648
32.780	25.929	16395	14401	0	648
35.593	29.174	16393	14388	0	648
37.721	31.807	16392	14463	0	648
37.360	29.643	16391	14543	0	648
32.708	25.063	16390	14672	0	648
26.217	16.877	16389	14881	0	648
19.473	13.018	16389	15129	0	648
16.372	10.566	16388	15346	0	648
15.218	10.314	16388	15502	0	648
14.569	9.412	16387	15613	0	648
11.576	5.806	16386	15652	0	648
8.078	-1.515	16385	15617	0	648
3.750	-6.924	16384	15652	0	648
-0.144	-9.629	16384	15777	0	648
-2.524	-12.802	16384	15821	0	648
-1.406	-12.910	16382	15715	0	648
2.488	-8.763	16380	15577	0	648
7.104	-5.878	16379	15510	0	648
11.937	0.072	16378	15555	0	648
13.271	2.128	16377	15644	0	648
15.687	2.993	16375	15652	0	648
17.562	2.524	16374	15555	0	648
21.241	3.714	16372	15488	0	648
23.008	5.914	16371	15550	0	648
24.450	9.052	16371	15706	0	648
22.214	8.655	16370	15865	0	648
20.195	7.537	16369	15994	0	648
17.887	5.806	16369	16123	0	648
19.221	8.330	16368	16269	0	648
23.080	12.369	16368	16415	0	648
28.417	17.490	16368	16543	0	648
31.338	19.798	16368	16636	0	648
26.506	15.435	16368	16730	0	648
19.257	9.989	16368	16858	0	648
12.586	4.111	16368	16974	0	648
8.439	1.767	16367	17053	0	648
10.133	-0.036	16367	17080	0	648
9.340	-2.128	16366	16956	0	648
7.825	-3.678	16365	16707	0	648
6.311	-4.364	16364	16557	0	648
9.088	-0.649	16364	16579	0	648
11.973	2.813	16363	16645	0	648
15.146	4.436	16364	16721	0	648
15.362	2.236	16363	16756	0	648
14.064	-0.974	16361	16605	0	648
11.287	-2.633	16361	16371	0	648
9.268	-2.380	16361	16388	0	648
6.960	-4.003	16361	16685	0	648
3.967	-5.986	16362	16916	0	648
4.400	-6.924	16361	16925	0	648
9.232	-3.895	16361	16840	0	648
17.670	3.498	16361	16805	0	648
24.702	10.314	16361	16854	0	648
27.407	13.307	16362	16934	0	648
24.630	8.763	16362	16987	0	648
17.418	2.777	16362	17009	0	648
10.422	-3.065	16363	17093	0	648
7.465	-4.003	16364	17262	0	648
8.727	0.938	16365	17413	0	648
14.605	8.402	16365	17470	0	648
20.159	15.795	16366	17435	0	648
22.611	16.697	16366	17351	0	648
20.916	14.749	16366	17284	0	648
15.326	8.258	16366	17266	0	648
9.556	1.551	16367	17266	0	648
5.517	-1.839	16367	17204	0	648
2.596	-4.039	16367	17076	0	648
2.524	-3.606	16367	16969	0	648
4.508	0.757	16367	16938	0	648
8.835	3.246	16368	16943	0	648
11.864	5.301	16368	16898	0	648
12.009	2.885	16368	16796	0	648
5.770	-5.337	16368	16694	0	648
-2.128	-14.497	16368	16592	0	648
-12.189	-20.664	16367	16415	0	648
-16.625	-25.171	16367	16194	0	648
-17.995	-26.794	16366	16043	0	648
-16.913	-25.532	16366	15941	0	648
-14.930	-25.424	16365	15786	0	648
-12.225	-24.342	16364	15590	0	648
-8.258	-22.431	16363	15457	0	648
-2.921	-16.444	16362	15404	0	648
4.544	-10.097	16361	15360	0	648
9.232	-2.524	16360	15293	0	648
12.081	4.039	16360	15262	0	648
10.855	5.734	16359	15315	0	648
10.746	5.121	16359	15435	0	648
10.422	2.921	16360	15613	0	648
11.973	1.370	16359	15817	0	648
12.333	0.865	16360	15990	0	648
12.802	0.000	16360	16127	0	648
11.504	0.397	16360	16256	0	648
11.612	0.036	16361	16419	0	648
13.956	0.685	16362	16641	0	648
15.326	2.813	16363	16867	0	648
18.103	6.275	16364	17080	0	648
16.769	6.780	16365	17289	0	648
13.487	6.491	16366	17431	0	648
7.176	3.282	16367	17457	0	648
1.551	-2.452	16367	17391	0	648
-0.108	-4.183	16366	17209	0	648
2.633	-3.282	16366	16965	0	648
9.592	1.695	16366	16867	0	648
14.641	6.960	16367	16951	0	648
15.435	7.645	16368	17093	0	648
11.143	5.229	16369	17249	0	648
4.183	-0.180	16371	17444	0	648
2.056	-3.642	16373	17661	0	648
4.147	-1.046	16375	17870	0	648
9.520	4.255	16377	18038	0	648
16.084	11.323	16378	18145	0	648
18.897	13.668	16380	18171	0	648
20.664	17.670	16381	18087	0	648
23.476	19.834	16382	17967	0	648
28.958	24.666	16384	18012	0	648
35.774	30.040	16385	18238	0	648
41.363	32.744	16387	18384	0	648
42.229	32.131	16388	18273	0	648
39.452	28.273	16389	18003	1	696
32.997	25.640	16389	17714	0	696
26.506	22.358	16390	17479	0	696
20.195	17.454	16391	17262	0	696
15.398	13.992	16391	16987	0	696
12.910	8.547	16390	16623	0	696
11.720	4.904	16389	16269	0	696
9.556	1.875	16389	15985	0	696
7.609	-0.361	16388	15772	0	696
3.823	-1.226	16388	15599	0	696
4.508	0.144	16388	15435	0	696
8.799	6.491	16387	15315	0	696
17.021	15.290	16387	15284	0	696
25.496	20.772	16387	15320	0	696
28.345	24.666	16387	15382	0	696
27.948	21.962	16388	15417	0	696
24.450	18.211	16387	15422	0	696
22.142	17.995	16387	15453	0	696
20.627	17.490	16388	15542	0	696
19.329	19.654	16388	15666	0	696
18.500	18.283	16389	15799	0	696
18.860	18.788	16389	15932	0	696
22.214	18.536	16390	16052	0	696
29.174	23.837	16391	16158	0	696
36.170	27.984	16391	16265	0	696
38.406	29.427	16392	16336	0	696
34.800	24.847	16392	16349	0	696
26.506	20.880	16392	16287	0	696
20.952	16.913	16391	16092	0	696
18.103	18.500	16390	15834	0	696
19.906	18.464	16390	15737	0	696
20.664	16.661	16390	15848	0	696
17.670	10.963	16390	15923	0	696
11.792	3.246	16389	15825	0	696
6.888	-0.757	16388	15644	0	696
3.967	-2.308	16387	15519	0	696
1.046	-5.373	16387	15515	0	696
-1.154	-8.042	16387	15599	0	696
-3.498	-9.773	16387	15701	0	696
-5.590	-9.196	16386	15755	0	696
-4.544	-6.203	16386	15768	0	696
-2.092	-1.587	16386	15821	0	696
0.216	1.442	16386	15910	0	696
0.974	-1.695	16385	15967	0	696
0.397	-7.681	16385	15967	0	696
-3.029	-15.182	16385	15963	0	696
-8.402	-20.916	16385	15999	0	696
-10.494	-21.818	16385	16074	0	696
-8.475	-17.057	16385	16176	0	696
0.505	-7.645	16384	16229	0	696
11.828	0.902	16384	16238	0	696
21.529	5.301	16384	16260	0	696
23.260	5.373	16384	16331	0	696
19.582	0.433	16384	16437	0	696
11.468	-4.544	16385	16503	0	696
5.590	-8.114	16384	16490	0	696
2.741	-8.691	16384	16437	0	696
2.344	-7.212	16384	16401	0	696
3.426	-4.760	16384	16384	0	696
6.203	-2.849	16384	16331	0	696
6.888	-1.587	16384	16225	0	696
6.888	-1.947	16382	16083	0	696
7.032	-2.705	16381	15857	0	696
5.554	-5.409	16380	15644	0	696
2.488	-6.888	16379	15621	0	696
2.019	-5.121	16379	15728	0	696
1.226	-3.210	16378	15728	0	696
0.974	-2.380	16376	15573	0	696
1.587	-1.551	16375	15360	0	696
5.157	0.757	16373	15200	0	696
10.927	5.698	16372	15142	0	696
18.608	13.740	16371	15156	0	696
25.965	20.339	16369	15107	0	696
29.174	20.014	16367	14947	0	696
25.712	14.569	16365	14810	0	696
22.034	6.852	16364	14814	0	696
16.913	1.587	16363	14903	0	696
15.398	1.983	16362	14987	0	696
17.021	4.580	16361	15054	0	696
17.598	9.232	16360	15156	0	696
16.084	10.458	16359	15298	0	696
11.900	9.376	16358	15422	0	696
6.635	8.547	16357	15484	0	696
3.029	8.114	16356	15542	0	696
5.013	9.520	16355	15675	0	696
8.402	9.989	16355	15888	0	696
10.602	7.285	16355	16158	0	696
10.530	3.065	16356	16423	0	696
8.475	1.767	16356	16645	0	696
6.347	3.498	16356	16809	0	696
6.167	7.357	16356	16951	0	696
7.321	9.340	16356	17076	0	696
8.475	10.674	16357	17169	0	696
10.999	11.107	16356	17200	0	696
14.461	12.946	16356	17178	0	696
17.670	16.589	16355	17102	0	696
17.923	15.507	16355	16947	0	696
14.353	10.242	16354	16774	0	696
10.710	4.219	16354	16787	0	696
9.556	0.757	16354	16982	0	696
12.405	1.695	16354	17107	0	696
17.129	8.006	16354	17013	0	696
21.168	10.530	16353	16805	0	696
21.457	9.304	16352	16663	0	696
19.654	7.609	16352	16628	0	696
18.392	7.176	16351	16605	0	696
17.562	9.088	16351	16539	0	696
18.428	12.477	16350	16446	0	696
17.166	14.353	16349	16353	0	696
13.271	10.061	16349	16256	0	696
9.773	4.868	16348	16225	0	696
7.429	-0.036	16348	16269	0	696
6.744	-1.442	16348	16331	0	696
7.465	-2.092	16348	16410	0	696
8.114	-1.046	16349	16548	0	696
7.140	0.541	16350	16769	0	696
9.448	1.731	16351	17031	0	696
14.858	5.337	16352	17240	0	696
21.529	10.314	16352	17275	0	696
26.758	11.864	16352	17173	0	696
25.279	8.691	16353	17147	0	696
20.844	3.823	16353	17262	0	696
16.336	0.865	16354	17386	0	696
14.281	3.859	16356	17470	0	696
18.211	10.746	16357	17564	0	696
22.178	14.821	16358	17666	0	696
25.460	16.228	16359	17799	0	696
23.837	12.405	16362	18078	0	696
20.123	9.268	16365	18486	0	696
17.743	7.898	16367	18793	0	696
15.290	7.248	16369	18832	0	696
14.497	6.311	16370	18695	0	696
15.795	5.770	16372	18557	0	696
16.841	5.337	16373	18486	0	696
18.247	6.671	16375	18442	0	696
18.103	6.058	16376	18318	1	540
16.300	5.265	16377	18078	0	540
13.054	1.767	16378	17834	0	540
12.153	0.288	16378	17679	0	540
11.792	0.649	16380	17572	0	540
13.956	2.560	16380	17431	0	540
12.441	3.390	16381	17235	0	540
9.088	3.210	16381	17031	0	540
4.688	-0.252	16382	16840	0	540
2.921	-4.111	16383	16681	0	540
4.904	-5.698	16383	16543	0	540
10.458	-6.996	16383	16397	0	540
15.975	-4.904	16383	16247	0	540
18.608	-4.977	16384	16136	0	540
17.418	-2.488	16384	16105	0	540
13.704	-1.442	16384	16101	0	540
10.927	1.659	16384	16030	0	540
11.360	3.859	16384	15901	0	540
15.182	8.583	16384	15808	0	540
19.365	12.874	16385	15812	0	540
22.214	14.497	16385	15905	0	540
23.296	16.516	16386	15990	0	540
22.250	14.497	16386	15959	0	540
18.572	13.054	16385	15759	0	540
14.028	9.484	16384	15475	0	540
9.268	6.635	16384	15222	0	540
6.888	6.203	16384	15058	0	540
7.068	5.121	16383	14987	0	540
10.710	11.143	16382	14943	0	540
14.100	14.785	16382	14885	0	540
14.605	17.634	16381	14867	0	540
14.281	17.310	16381	15014	0	540
11.432	10.458	16382	15320	0	540
8.727	3.787	16383	15639	0	540
4.327	-2.272	16383	15852	0	540
2.344	-5.554	16384	15954	0	540
0.397	-6.311	16384	16025	0	540
2.164	-5.049	16383	16016	0	540
5.445	-2.488	16381	15746	0	540
10.133	0.505	16379	15231	0	540
14.749	2.633	16376	14756	0	540
16.877	4.508	16374	14481	0	540
15.723	4.075	16372	14392	0	540
13.379	0.902	16372	14486	0	540
8.763	-0.757	16371	14685	0	540
8.763	-0.649	16370	14867	0	540
9.845	0.361	16370	15045	0	540
12.838	5.229	16370	15298	0	540
14.713	7.573	16371	15661	0	540
15.146	9.088	16372	16056	0	540
14.245	7.537	16372	16345	0	540
14.821	6.491	16372	16508	0	540
13.559	0.721	16373	16650	0	540
10.819	-1.479	16374	16836	0	540
7.862	-3.390	16374	17067	0	540
7.645	-3.029	16376	17284	0	540
10.891	0.252	16376	17382	0	540
14.966	3.029	16376	17280	0	540
17.887	3.750	16374	17018	0	540
18.175	3.859	16373	16712	0	540
18.933	6.167	16372	16481	0	540
21.854	8.871	16371	16340	0	540
24.270	11.215	16370	16225	0	540
24.558	10.602	16369	16061	0	540
18.680	6.203	16368	15870	0	540
12.514	0.613	16368	15825	0	540
9.448	-3.354	16367	15923	0	540
8.655	-4.436	16367	16021	0	540
10.963	-4.544	16367	16074	0	540
11.648	-3.750	16367	16114	0	540
12.946	-0.829	16366	16167	0	540
14.281	2.452	16367	16238	0	540
14.858	3.390	16366	16322	0	540
13.631	3.354	16366	16388	0	540
11.432	-1.154	16366	16419	0	540
9.160	-3.246	16366	16410	0	540
6.599	-5.193	16365	16410	0	540
6.816	-4.724	16366	16472	0	540
5.301	-5.121	16366	16548	0	540
4.616	-5.409	16366	16548	0	540
4.580	-5.265	16365	16463	0	540
6.924	-4.219	16365	16353	0	540
8.006	-1.298	16363	16278	0	540
8.475	0.036	16363	16269	0	540
6.780	0.938	16363	16282	0	540
4.904	0.938	16363	16305	0	540
4.075	-0.649	16363	16345	0	540
2.921	-2.524	16363	16401	0	540
2.560	-3.390	16363	16490	0	540
2.416	-2.272	16364	16641	0	540
3.534	2.128	16365	16796	0	540
5.049	7.285	16364	16783	0	540
3.895	7.357	16363	16583	0	540
1.587	4.003	16362	16380	0	540
0.397	-0.938	16361	16247	0	540
3.137	-0.865	16361	16123	0	540
10.530	4.183	16359	15896	0	540
19.546	10.999	16357	15502	0	540
21.601	16.697	16354	15076	0	540
18.572	14.136	16352	14778	0	540
11.684	8.222	16350	14645	0	540
7.176	2.993	16349	14654	0	540
5.914	3.967	16347	14734	0	540
7.140	3.534	16346	14814	0	540
7.681	5.049	16345	14894	0	540
9.773	5.590	16345	15018	0	540
11.684	4.364	16344	15227	0	540
16.949	5.734	16344	15471	0	540
23.512	9.484	16344	15679	0	540
28.705	14.533	16343	15834	0	540
32.095	15.903	16343	15985	0	540
31.446	17.346	16343	16198	0	540
28.705	15.435	16344	16450	0	540
23.296	10.566	16344	16619	0	540
18.356	9.953	16343	16565	0	540
16.084	8.258	16342	16384	0	540
15.002	8.511	16341	16309	0	540
14.677	10.855	16340	16384	0	540
14.605	10.783	16340	16481	0	540
13.848	10.097	16340	16579	0	540
14.713	11.035	16341	16698	0	540
16.156	14.389	16341	16867	0	540
18.103	13.740	16342	17142	0	540
16.264	13.595	16344	17559	0	540
13.523	10.242	16347	18047	0	540
10.278	4.327	16349	18420	0	540
8.655	-0.216	16350	18566	0	540
6.960	-2.957	16352	18557	0	540
6.744	-4.724	16353	18531	0	540
6.960	-4.868	16354	18526	0	540
8.439	-0.721	16355	18500	0	540
11.612	2.236	16356	18411	1	524
15.543	3.354	16356	18260	0	524
15.903	4.436	16357	18123	0	524
14.749	1.695	16358	18069	0	524
13.487	-2.092	16360	18096	0	524
14.100	-3.137	16361	18100	0	524
17.815	-1.515	16362	17998	0	524
21.854	2.957	16363	17843	0	524
24.811	7.645	16363	17719	0	524
23.549	11.576	16365	17657	0	524
21.998	11.468	16366	17621	0	524
19.870	8.727	16367	17564	0	524
19.365	5.770	16368	17506	0	524
19.870	4.616	16370	17484	0	524
18.824	5.734	16371	17519	0	524
16.156	4.580	16372	17577	0	524
11.540	4.904	16374	17612	0	524
5.517	0.829	16376	17604	0	524
1.334	-2.308	16377	17555	0	524
-1.370	-4.436	16378	17493	0	524
-0.036	-5.301	16380	17439	0	524
4.688	-0.974	16381	17373	0	524
10.061	4.472	16382	17266	0	524
12.838	6.419	16383	17138	0	524
10.350	2.957	16384	17031	0	524
4.616	-5.013	16384	16978	0	524
0.757	-11.540	16386	17062	0	524
3.390	-14.317	16388	17235	0	524
10.314	-7.068	16389	17280	0	524
18.897	3.750	16390	17071	0	524
22.250	10.638	16390	16730	0	524
19.870	11.251	16389	16419	0	524
16.048	10.494	16389	16203	0	524
14.028	7.898	16389	16043	0	524
15.543	8.150	16390	15919	0	524
17.490	9.052	16390	15808	0	524
17.166	8.150	16390	15750	0	524
12.550	4.688	16390	15719	0	524
7.825	-0.685	16389	15519	0	524
5.409	-3.282	16388	15076	0	524
6.094	-0.577	16385	14597	0	524
9.304	3.065	16384	14286	0	524
12.369	7.104	16384	14153	0	524
15.543	10.638	16383	14131	0	524
16.769	11.792	16382	14153	0	524
16.589	9.268	16381	14175	0	524
12.982	4.616	16380	14202	0	524
7.321	0.613	16379	14171	0	524
1.406	-3.101	16377	14117	0	524
-1.226	-3.534	16376	14175	0	524
-0.613	-1.010	16376	14326	0	524
0.757	1.406	16375	14495	0	524
0.974	0.829	16375	14690	0	524
1.551	0.144	16375	14947	0	524
1.767	0.361	16375	15222	0	524
4.147	0.721	16375	15440	0	524
5.517	0.721	16374	15595	0	524
5.986	-0.325	16374	15710	0	524
5.590	0.541	16374	15786	0	524
8.475	4.868	16373	15825	0	524
11.973	10.999	16372	15879	0	524
16.913	18.031	16372	15959	0	524
18.211	18.933	16371	16021	0	524
15.867	16.048	16370	15985	0	524
11.900	11.432	16369	15834	0	524
10.458	8.439	16367	15679	0	524
9.737	7.645	16366	15590	0	524
9.845	8.727	16365	15577	0	524
6.058	5.445	16365	15639	0	524
1.190	1.983	16364	15728	0	524
-5.013	-1.623	16364	15861	0	524
-7.176	-2.452	16363	16034	0	524
-5.517	0.829	16363	16185	0	524
0.829	5.445	16363	16291	0	524
5.626	6.383	16363	16401	0	524
7.789	4.255	16364	16583	0	524
6.563	0.613	16364	16836	0	524
4.977	-1.046	16365	17129	0	524
5.121	-1.515	16366	17391	0	524
6.635	1.623	16367	17577	0	524
10.566	4.868	16368	17732	0	524
12.009	7.573	16370	17914	0	524
12.261	7.357	16372	18136	0	524
11.251	7.609	16373	18358	0	524
9.629	4.760	16375	18486	0	524
10.314	4.436	16376	18482	0	524
10.350	4.436	16376	18340	0	524
12.802	5.698	16376	18123	0	524
16.228	7.681	16377	17923	0	524
20.844	11.612	16377	17746	1	356
26.217	19.834	16377	17568	0	356
30.833	23.945	16377	17382	0	356
30.725	26.361	16376	17107	0	356
27.227	22.863	16376	16778	0	356
20.952	13.271	16376	16583	0	356
15.362	7.681	16375	16463	0	356
13.199	4.400	16374	16220	0	356
11.287	3.318	16372	15848	0	356
9.953	0.902	16371	15471	0	356
6.960	-1.118	16369	15178	0	356
6.780	-1.551	16368	15031	0	356
9.160	1.515	16367	15000	0	356
13.631	6.635	16366	14969	0	356
18.464	13.559	16365	14898	0	356
19.437	16.012	16365	14898	0	356
16.661	14.136	16364	15031	0	356
13.523	12.477	16365	15222	0	356
9.484	10.783	16364	15382	0	356
9.124	7.934	16364	15510	0	356
7.537	8.150	16363	15626	0	356
6.888	9.160	16363	15675	0	356
5.626	10.891	16363	15613	0	356
3.534	11.143	16361	15519	0	356
4.868	13.992	16360	15404	0	356
7.212	14.785	16357	15164	0	356
11.648	14.677	16355	14863	0	356
17.382	19.978	16354	14756	0	356
21.637	22.935	16353	14863	0	356
24.089	26.073	16352	15014	0	356
23.188	27.191	16351	15178	0	356
21.060	25.063	16351	15395	0	356
17.706	20.339	16351	15586	0	356
14.677	16.877	16350	15666	0	356
12.153	10.386	16349	15746	0	356
8.943	6.996	16350	15963	0	356
5.337	2.669	16350	16216	0	356
1.659	-0.974	16350	16362	0	356
1.154	-1.839	16349	16423	0	356
1.695	-1.298	16349	16481	0	356
2.524	-0.757	16349	16583	0	356
2.308	-1.082	16349	16698	0	356
0.361	-2.308	16349	16747	0	356
-2.957	-6.888	16348	16707	0	356
-5.121	-10.025	16348	16659	0	356
-6.275	-10.891	16347	16672	0	356
-5.265	-9.809	16348	16747	0	356
-3.498	-7.176	16348	16845	0	356
1.082	-3.931	16348	16903	0	356
5.698	-1.875	16348	16956	0	356
9.881	0.721	16348	17036	0	356
12.694	1.262	16349	17120	0	356
13.235	2.488	16349	17173	0	356
13.199	2.092	16349	17187	0	356
11.323	1.190	16350	17191	0	356
10.458	0.505	16350	17231	0	356
10.278	1.190	16351	17320	0	356
13.163	1.551	16352	17448	0	356
18.067	2.993	16352	17541	0	356
21.998	2.813	16353	17572	0	356
20.339	0.974	16354	17617	0	356
13.451	-1.803	16356	17732	0	356
4.760	-5.517	16357	17896	0	356
-1.983	-7.537	16359	18038	0	356
-1.551	-7.898	16360	18047	0	356
3.065	-5.554	16360	17914	0	356
7.789	-3.462	16361	17803	0	356
8.691	-2.056	16363	17794	0	356
5.590	-2.380	16363	17808	0	356
-0.433	-7.176	16365	17777	0	356
-4.796	-9.016	16365	17652	0	356
-5.662	-10.746	16365	17453	0	356
-7.068	-8.583	16366	17320	0	356
-7.717	-7.285	16368	17377	0	356
-10.566	-9.592	16369	17595	0	356
-14.100	-11.360	16371	17772	0	356
-12.802	-11.900	16373	17790	0	356
-8.547	-10.927	16374	17692	0	356
-0.649	-5.626	16375	17577	0	356
5.301	0.721	16376	17488	0	356
7.862	3.895	16377	17399	0	356
8.222	3.426	16378	17271	0	356
4.904	1.370	16378	17071	0	356
1.659	-5.049	16379	16885	0	356
-0.397	-11.540	16379	16805	0	356
-2.560	-14.064	16380	16809	0	356
-3.173	-13.668	16381	16805	0	356
-2.669	-10.927	16382	16734	0	356
-3.210	-8.150	16383	16659	0	356
-4.436	-8.943	16384	16645	0	356
-5.481	-10.855	16384	16703	0	356
-8.186	-10.386	16385	16765	0	356
-8.439	-11.179	16386	16752	0	356
-8.979	-9.484	16386	16667	0	356
-7.825	-7.825	16387	16596	0	356
-7.501	-7.068	16388	16588	0	356
-6.816	-8.294	16389	16614	0	356
-5.986	-8.763	16390	16632	0	356
-6.960	-9.773	16391	16645	0	356
-5.626	-8.583	16392	16667	0	356
-3.065	-9.016	16393	16667	0	356
0.325	-5.842	16394	16610	0	356
2.056	-4.472	16394	16499	0	356
1.839	-4.724	16394	16380	0	356
-1.731	-6.635	16395	16256	0	356
-8.475	-8.366	16395	16136	0	356
-14.317	-11.900	16395	16043	0	356
-20.411	-15.651	16396	16043	0	356
-26.650	-16.156	16396	16070	0	356
-33.141	-19.473	16396	15976	0	356
-41.435	-20.050	16395	15759	0	356
-48.179	-23.512	16394	15502	0	356
-52.831	-27.047	16393	15253	0	356
-53.696	-27.624	16392	15022	0	356
-50.523	-23.440	16390	14787	0	356
-47.386	-19.257	16389	14557	0	356
-46.051	-15.110	16387	14348	0	356
-48.107	-15.723	16384	14109	0	356
-50.487	-18.572	16383	13740	0	356
-51.172	-22.322	16379	13288	0	356
-49.693	-20.519	16376	12942	0	356
-44.320	-15.975	16373	12738	0	356
-39.885	-13.235	16370	12627	0	356
-33.790	-7.465	16367	12644	0	356
-27.660	-3.570	16365	12822	0	356
-21.241	-1.839	16364	13070	0	356
-18.031	-1.406	16362	13306	0	356
-19.293	-5.301	16361	13501	0	356
-24.775	-10.530	16358	13643	0	356
-28.994	-14.858	16357	13767	0	356
-29.391	-12.405	16355	13958	0	356
-24.666	-10.422	16354	14211	0	356
-20.303	-5.157	16352	14486	0	356
-17.490	-4.436	16351	14752	0	356
-18.464	-5.121	16350	14960	0	356
-21.060	-6.635	16348	15067	0	356
-24.306	-9.160	16346	15009	0	356
-29.282	-14.894	16343	14845	0	356
-34.259	-18.824	16340	14770	0	356
-39.199	-26.650	16338	14814	0	356
-42.265	-29.931	16336	14907	0	356
-41.327	-32.420	16335	15156	0	356
-38.226	-32.059	16335	15577	0	356
-35.413	-32.203	16335	16043	0	356
-33.141	-32.456	16335	16463	0	356
-32.528	-34.295	16335	16836	0	356
-31.699	-32.203	16336	17200	0	356
-29.282	-30.040	16337	17595	0	356
-25.604	-25.748	16338	18007	0	356
-19.401	-19.329	16339	18327	0	356
-14.569	-18.320	16340	18482	0	356
-11.937	-17.743	16340	18544	0	356
-7.465	-20.375	16341	18611	0	356
-4.977	-21.890	16342	18739	0	356
-1.298	-20.159	16343	18864	0	356
2.452	-18.211	16344	18903	0	356
5.301	-13.451	16345	18903	0	356
5.626	-11.792	16346	18921	0	356
5.626	-12.117	16347	18979	0	356
4.472	-11.287	16349	19050	0	356
2.019	-13.127	16350	19090	0	356
0.829	-12.766	16352	19103	0	356
-0.902	-12.405	16353	19112	0	356
-2.993	-15.543	16356	19116	0	356
-6.131	-19.618	16357	19125	0	356
-11.468	-27.119	16359	19130	0	356
-18.067	-34.115	16361	19108	0	356
-24.162	-38.803	16363	19019	0	356
-27.984	-39.993	16363	18801	0	356
-30.689	-39.668	16365	18535	0	356
-32.889	-40.642	16366	18438	1	680
-35.269	-42.661	16368	18509	0	680
-36.206	-45.943	16369	18482	0	680
-35.269	-46.700	16371	18282	0	680
-31.771	-46.448	16372	18069	0	680
-26.470	-41.940	16374	17945	0	680
-22.899	-39.199	16375	17861	0	680
-19.257	-34.511	16376	17666	0	680
-14.497	-30.545	16375	17289	0	680
-9.809	-25.965	16375	16845	0	680
-6.131	-22.827	16375	16459	0	680
-4.832	-20.123	16375	16185	0	680
-7.789	-20.267	16375	15994	0	680
-13.595	-24.991	16374	15821	0	680
-18.897	-30.617	16374	15630	0	680
-24.666	-36.242	16374	15506	0	680
-26.974	-39.416	16375	15497	0	680
-28.381	-40.462	16375	15555	0	680
-27.299	-41.075	16376	15617	0	680
-27.732	-42.157	16376	15621	0	680
-26.470	-43.779	16376	15581	0	680
-28.128	-45.078	16377	15568	0	680
-29.030	-46.881	16377	15639	0	680
-30.761	-46.809	16378	15719	0	680
-31.158	-45.655	16377	15657	0	680
-31.951	-46.809	16375	15337	0	680
-32.167	-47.494	16373	14885	0	680
-34.439	-48.431	16372	14557	0	680
-37.144	-53.913	16370	14410	0	680
-40.029	-57.266	16370	14361	0	680
-42.661	-59.322	16368	14366	0	680
-40.714	-58.024	16367	14415	0	680
-36.026	-53.805	16367	14490	0	680
-30.112	-48.900	16366	14632	0	680
-25.496	-44.825	16367	14920	0	680
-22.034	-43.130	16368	15324	0	680
-22.286	-42.120	16368	15630	0	680
-20.411	-40.534	16368	15706	0	680
-16.985	-33.538	16367	15630	0	680
-12.441	-27.768	16366	15550	0	680
-11.179	-24.666	16365	15510	0	680
-14.100	-26.433	16364	15488	0	680
-20.303	-34.367	16363	15444	0	680
-24.811	-41.039	16362	15391	0	680
-26.614	-42.661	16361	15364	0	680
-23.549	-40.281	16361	15373	0	680
-19.762	-36.098	16359	15422	0	680
-20.772	-35.449	16359	15479	0	680
-23.224	-39.163	16358	15537	0	680
-26.938	-42.697	16357	15613	0	680
-26.974	-43.347	16357	15755	0	680
-23.621	-37.072	16357	15959	0	680
-18.139	-32.672	16357	16167	0	680
-16.769	-29.968	16357	16322	0	680
-17.959	-29.859	16357	16428	0	680
-20.952	-33.826	16358	16561	0	680
-21.349	-35.990	16358	16756	0	680
-20.339	-36.206	16359	16996	0	680
-19.906	-35.665	16360	17235	0	680
-21.854	-36.423	16361	17448	0	680
-23.152	-36.747	16363	17666	0	680
-23.044	-33.393	16364	17896	0	680
-17.923	-29.463	16365	18105	0	680
-11.576	-22.034	16367	18207	0	680
-8.583	-16.769	16367	18132	0	680
-6.960	-15.867	16367	17887	0	680
-5.734	-16.552	16366	17528	0	680
-3.678	-15.362	16365	17133	0	680
-0.613	-16.084	16364	16818	0	680
0.649	-13.848	16364	16641	0	680
-2.308	-15.074	16363	16579	0	680
-6.635	-17.598	16363	16539	0	680
-9.124	-19.798	16363	16459	0	680
-9.232	-19.185	16363	16450	0	680
-8.439	-20.555	16365	16623	0	680
-8.222	-19.798	16366	16885	0	680
-8.691	-22.755	16367	17080	0	680
-9.448	-24.378	16368	17191	0	680
-6.311	-21.457	16369	17302	0	680
-3.390	-20.411	16371	17426	0	680
-2.488	-18.392	16372	17524	0	680
-5.229	-19.870	16373	17586	0	680
-10.710	-21.313	16375	17626	0	680
-14.389	-21.457	16375	17630	0	680
-12.297	-18.644	16376	17595	0	680
-6.455	-12.658	16378	17604	0	680
1.010	-7.645	16379	17666	0	680
4.977	-6.852	16381	17697	0	680
5.806	-7.248	16382	17652	0	680
2.560	-8.799	16383	17581	0	680
-0.036	-10.638	16384	17541	0	680
-2.236	-12.514	16384	17515	0	680
-3.426	-12.117	16384	17444	0	680
-3.318	-11.792	16385	17315	0	680
-4.940	-13.163	16386	17155	0	680
-5.445	-12.333	16386	16965	0	680
-6.816	-15.182	16386	16738	0	680
-8.907	-17.706	16385	16486	0	680
-10.386	-21.637	16385	16256	0	680
-12.802	-23.873	16385	16043	0	680
-16.697	-28.922	16384	15839	0	680
-19.401	-34.079	16384	15639	0	680
-21.132	-37.396	16384	15448	0	680
-20.844	-38.983	16384	15306	0	680
-19.185	-35.882	16383	15235	0	680
-15.435	-30.761	16382	15178	0	680
-11.179	-25.929	16382	15107	0	680
-7.970	-20.664	16382	15111	0	680
-3.065	-19.257	16382	15209	0	680
0.108	-15.975	16382	15306	0	680
2.596	-14.930	16382	15373	0	680
3.859	-12.369	16381	15422	0	680
2.633	-13.199	16381	15466	0	680
0.361	-13.848	16381	15488	0	680
-2.200	-14.136	16380	15417	0	680
-4.616	-15.795	16379	15249	0	680
-1.983	-9.953	16378	15076	0	680
3.498	-3.065	16376	14894	0	680
9.412	5.698	16374	14703	0	680
14.641	10.927	16373	14636	0	680
15.110	11.792	16372	14734	0	680
12.514	8.222	16371	14858	0	680
7.717	2.705	16370	14951	0	680
5.517	-0.721	16370	15058	0	680
5.337	-0.974	16369	15213	0	680
7.285	2.200	16369	15386	0	680
10.855	5.409	16369	15564	0	680
10.566	6.347	16369	15763	0	680
9.701	4.291	16369	15963	0	680
5.517	-2.308	16368	16087	0	680
2.596	-5.806	16368	16167	0	680
0.036	-10.133	16369	16397	0	680
-2.308	-12.586	16371	16787	0	680
-3.823	-14.425	16371	17067	0	680
-8.078	-15.651	16371	17089	0	680
-9.052	-18.320	16371	16969	0	680
-9.124	-17.490	16370	16854	0	680
-4.652	-15.687	16370	16814	0	680
2.705	-10.530	16370	16832	0	680
8.871	-4.977	16369	16832	0	680
14.208	-1.587	16369	16730	0	680
13.992	-1.298	16368	16525	0	680
12.297	-2.633	16367	16251	0	680
9.917	-4.003	16365	16012	0	680
8.511	-3.246	16364	15870	0	680
9.196	-2.200	16363	15772	0	680
9.232	-1.587	16362	15688	0	680
8.835	-3.246	16361	15648	0	680
6.816	-5.734	16361	15710	0	680
4.219	-5.554	16361	15861	0	680
-0.252	-8.727	16360	16021	0	680
-3.787	-11.684	16361	16132	0	680
-4.183	-12.369	16361	16238	0	680
-3.895	-14.461	16361	16384	0	680
0.288	-12.117	16361	16565	0	680
2.669	-7.645	16361	16703	0	680
2.813	-5.337	16362	16809	0	680
1.226	-5.409	16363	16929	0	680
-0.433	-6.888	16363	17031	0	680
0.541	-8.835	16363	17093	0	680
5.013	-7.032	16363	17142	0	680
9.701	-3.895	16363	17111	0	680
13.091	-0.144	16363	16951	0	680
10.999	0.865	16362	16698	0	680
7.321	-1.659	16361	16446	0	680
3.714	-3.462	16360	16287	0	680
3.570	-2.849	16360	16238	0	680
10.350	0.252	16360	16211	0	680
17.779	6.744	16358	16105	0	680
24.955	14.353	16358	15941	0	680
28.777	17.670	16357	15825	0	680
27.768	18.464	16356	15799	0	680
22.719	13.451	16356	15857	0	680
15.651	6.022	16355	15923	0	680
8.871	0.505	16355	15945	0	680
3.823	-2.344	16355	15994	0	680
2.056	-3.390	16355	16109	0	680
4.075	-3.210	16355	16229	0	680
6.780	-4.436	16355	16296	0	680
10.314	-4.616	16355	16291	0	680
11.900	-3.859	16354	16287	0	680
12.910	0.180	16354	16349	0	680
14.749	4.508	16355	16503	0	680
15.867	7.609	16355	16685	0	680
18.969	12.514	16356	16769	0	680
23.621	16.192	16356	16756	0	680
27.299	17.562	16356	16743	0	680
28.994	20.050	16356	16778	0	680
28.525	17.274	16356	16858	0	680
26.001	13.631	16357	16894	0	680
21.349	8.655	16356	16761	0	680
17.670	6.203	16354	16472	0	680
16.949	4.688	16354	16220	0	680
17.490	7.357	16353	16070	0	680
18.933	9.340	16352	15959	0	680
20.087	10.494	16351	15865	0	680
20.664	11.215	16350	15777	0	680
20.808	11.360	16349	15666	0	680
20.303	10.710	16348	15573	0	680
21.204	11.612	16348	15617	0	680
20.627	12.153	16347	15741	0	680
18.608	9.629	16347	15759	0	680
16.084	8.258	16345	15644	0	680
14.497	7.032	16344	15493	0	680
13.704	6.888	16343	15395	0	680
14.317	5.842	16342	15395	0	680
14.930	4.111	16342	15471	0	680
13.559	1.947	16340	15524	0	680
10.278	-2.813	16340	15506	0	680
7.825	-7.176	16339	15537	0	680
5.121	-8.691	16339	15706	0	680
5.229	-8.727	16339	15941	0	680
7.104	-8.799	16339	16149	0	680
9.016	-6.671	16340	16278	0	680
11.179	-4.580	16339	16345	0	680
13.271	-4.183	16339	16410	0	680
15.651	-2.777	16340	16552	0	680
16.661	-2.019	16340	16752	0	680
16.552	-0.938	16340	16916	0	680
14.966	-1.515	16341	17045	0	680
12.982	-1.334	16341	17182	0	680
10.638	-1.875	16343	17364	0	680
9.556	-2.921	16344	17572	0	680
10.242	-3.534	16345	17768	0	680
9.953	-3.859	16346	17932	0	680
10.458	-3.498	16348	18043	0	680
7.825	-4.147	16349	18100	0	680
4.183	-6.275	16350	18167	0	680
0.072	-9.701	16353	18376	0	680
-1.479	-11.251	16355	18677	0	680
1.226	-10.963	16357	18859	0	680
7.140	-7.032	16358	18806	0	680
11.720	-3.246	16360	18620	0	680
13.163	-1.947	16361	18433	0	680
9.701	-4.400	16361	18278	0	680
2.849	-10.133	16363	18114	1	940
-2.200	-17.310	16363	17892	0	940
-3.029	-20.267	16363	17626	0	940
0.288	-20.375	16363	17386	0	940
7.248	-17.418	16363	17178	0	940
13.379	-11.396	16364	16991	0	940
17.418	-5.590	16364	16809	0	940
19.113	-1.947	16364	16610	0	940
20.195	1.911	16364	16423	0	940
20.916	3.354	16365	16314	0	940
22.575	5.517	16365	16251	0	940
21.637	5.481	16365	16180	0	940
19.149	4.977	16365	16052	0	940
15.975	2.200	16365	15905	0	940
11.684	1.551	16364	15830	0	940
11.828	2.272	16365	15870	0	940
13.776	5.517	16365	15985	0	940
16.625	9.052	16367	16092	0	940
19.762	11.900	16367	16158	0	940
22.214	10.422	16368	16207	0	940
22.431	9.376	16368	16251	0	940
21.781	9.376	16369	16327	0	940
18.752	9.088	16370	16419	0	940
15.326	7.176	16371	16512	0	940
12.946	6.527	16372	16561	0	940
11.287	3.895	16372	16543	0	940
11.504	1.334	16372	16472	0	940
11.756	-0.721	16373	16388	0	940
11.612	-0.865	16372	16287	0	940
12.838	-1.479	16372	16101	0	940
13.848	0.469	16371	15874	0	940
16.913	2.885	16370	15710	0	940
19.654	6.455	16370	15617	0	940
22.395	9.665	16369	15550	0	940
26.361	12.045	16369	15528	0	940
27.876	13.812	16369	15502	0	940
28.164	15.146	16368	15431	0	940
25.748	13.920	16368	15435	0	940
25.027	12.982	16368	15586	0	940
23.585	9.953	16369	15763	0	940
21.637	5.770	16369	15870	0	940
18.500	-0.902	16369	15896	0	940
10.710	-8.691	16368	15892	0	940
0.613	-17.779	16368	15901	0	940
-6.816	-22.214	16368	15932	0	940
-8.294	-21.998	16368	15963	0	940
-5.770	-19.113	16368	15941	0	940
-0.361	-10.350	16366	15803	0	940
4.940	-4.400	16365	15604	0	940
6.203	-1.623	16365	15524	0	940
6.455	0.180	16365	15581	0	940
7.898	0.216	16364	15657	0	940
10.530	-0.180	16364	15715	0	940
14.894	-0.180	16363	15786	0	940
16.625	0.144	16363	15888	0	940
16.661	0.144	16363	15981	0	940
15.939	1.839	16363	15994	0	940
15.759	1.767	16362	15892	0	940
15.218	3.606	16360	15701	0	940
14.497	1.803	16359	15506	0	940
11.612	-2.380	16358	15355	0	940
9.592	-4.039	16356	15289	0	940
8.943	-5.229	16355	15315	0	940
11.720	-2.272	16354	15386	0	940
15.182	1.515	16354	15422	0	940
16.805	2.596	16352	15413	0	940
16.913	2.056	16352	15413	0	940
18.175	2.200	16351	15497	0	940
20.880	2.344	16351	15684	0	940
22.431	4.183	16351	15879	0	940
22.719	6.239	16350	16021	0	940
20.339	5.049	16351	16207	0	940
17.129	3.534	16351	16446	0	940
14.641	3.318	16352	16641	0	940
13.451	3.318	16352	16778	0	940
12.405	2.596	16352	16911	0	940
12.730	1.695	16353	17018	0	940
11.864	0.216	16352	17013	0	940
13.018	-0.252	16352	16951	0	940
13.307	-0.252	16352	16938	0	940
11.612	1.154	16352	16960	0	940
11.864	3.101	16353	17000	0	940
15.759	5.950	16353	17089	0	940
22.719	14.245	16354	17226	0	940
28.922	18.103	16355	17395	0	940
30.292	21.385	16356	17524	0	940
29.102	18.031	16356	17568	0	940
25.532	14.713	16357	17550	0	940
26.073	12.802	16357	17510	0	940
28.020	14.930	16358	17484	0	940
30.761	17.382	16359	17466	0	940
30.040	21.024	16359	17448	0	940
31.013	21.204	16359	17364	0	940
33.754	25.352	16359	17142	0	940
39.776	29.066	16358	16827	0	940
44.356	32.203	16357	16548	0	940
45.330	30.797	16356	16309	0	940
40.389	24.847	16354	15919	0	940
33.285	17.959	16350	15306	0	940
24.378	10.206	16347	14659	0	940
21.421	6.094	16344	14193	0	940
19.654	5.590	16342	13971	0	940
21.168	6.419	16340	13953	0	940
22.467	6.780	16339	14042	0	940
20.123	4.436	16338	14166	0	940
17.851	3.318	16338	14348	0	940
14.461	1.803	16337	14619	0	940
15.326	4.327	16337	14920	0	940
21.024	10.242	16337	15164	0	940
25.316	15.471	16336	15342	0	940
27.479	13.523	16336	15519	0	940
27.155	12.009	16336	15750	0	940
25.027	7.393	16337	16065	0	940
24.558	6.203	16338	16415	0	940
26.938	7.393	16338	16712	0	940
27.876	10.278	16339	16916	0	940
27.840	13.451	16340	17080	0	940
27.660	15.290	16340	17271	0	940
27.515	18.897	16341	17466	0	940
29.535	19.654	16342	17568	0	940
27.335	18.247	16342	17590	0	940
24.198	12.982	16343	17590	0	940
18.392	9.016	16343	17599	0	940
14.497	6.599	16344	17639	0	940
13.956	5.301	16345	17746	0	940
15.723	7.140	16346	17879	0	940
18.139	7.140	16346	17861	0	940
17.959	6.816	16345	17577	0	940
16.805	6.744	16344	17120	0	940
15.471	6.996	16343	16681	0	940
15.687	9.016	16341	16340	0	940
17.021	10.746	16340	16012	0	940
18.824	12.225	16338	15621	0	940
20.483	11.179	16335	15200	0	940
19.257	10.242	16333	14907	0	940
16.661	5.085	16332	14761	0	940
15.543	1.731	16330	14659	0	940
14.785	-0.541	16328	14526	0	940
16.480	-2.164	16326	14392	0	940
19.437	-1.623	16324	14295	0	940
20.303	-0.505	16323	14264	0	940
20.303	1.082	16320	14251	0	940
18.752	2.308	16318	14211	0	940
17.202	2.200	16317	14153	0	940
18.211	2.344	16315	14175	0	940
17.815	2.380	16314	14361	0	940
16.733	2.236	16313	14690	0	940
15.146	0.325	16314	15098	0	940
13.379	-0.469	16313	15488	0	940
12.369	-1.154	16313	15790	0	940
13.595	0.216	16313	15923	0	940
13.415	1.623	16312	15923	0	940
13.595	2.813	16311	15923	0	940
13.199	2.921	16310	16007	0	940
14.425	1.010	16310	16229	0	940
15.687	-1.082	16311	16557	0	940
15.398	-2.596	16312	16925	0	940
14.677	-4.039	16313	17302	0	940
14.317	-1.190	16315	17683	0	940
18.500	5.445	16316	18047	0	940
25.893	13.163	16318	18398	0	940
32.853	19.618	16320	18730	0	940
34.403	17.490	16323	19041	0	940
31.302	16.012	16325	19329	0	940
26.181	11.360	16328	19600	0	940
24.125	15.074	16331	19844	0	940
26.037	19.257	16334	19995	0	940
29.535	23.657	16336	20066	0	940
30.869	21.998	16339	20212	0	940
25.135	18.067	16343	20452	0	940
17.959	8.402	16347	20665	0	940
10.133	1.262	16350	20767	0	940
4.616	-3.787	16354	20762	0	940
4.075	-6.780	16357	20700	0	940
7.393	-6.239	16360	20612	0	940
9.304	-3.210	16363	20505	0	940
10.530	0.325	16366	20363	1	704
7.862	0.252	16369	20163	0	704
5.049	-1.046	16371	19893	0	704
2.885	-2.921	16373	19520	0	704
4.183	-3.246	16374	19045	0	704
6.635	-2.092	16375	18562	0	704
10.242	2.164	16376	18069	0	704
11.071	4.436	16376	17444	0	704
12.009	6.311	16375	16725	0	704
12.838	5.698	16374	16154	0	704
12.117	4.472	16374	15759	0	704
11.684	1.082	16374	15413	0	704
11.251	-1.046	16373	15036	0	704
9.989	-0.829	16372	14645	0	704
11.648	3.426	16371	14317	0	704
13.992	8.222	16370	14086	0	704
15.831	12.261	16370	13953	0	704
17.670	12.982	16370	13904	0	704
17.851	11.143	16368	13896	0	704
16.589	8.655	16368	13882	0	704
14.569	5.986	16368	13882	0	704
12.045	0.902	16368	13931	0	704
10.927	-1.082	16367	14046	0	704
8.186	-3.498	16368	14206	0	704
6.635	-3.318	16367	14330	0	704
2.308	-4.472	16367	14370	0	704
-0.577	-5.373	16366	14419	0	704
-2.128	-6.491	16366	14539	0	704
-0.757	-9.052	16366	14756	0	704
1.875	-7.357	16366	15049	0	704
4.436	-3.534	16367	15360	0	704
6.058	-1.803	16368	15675	0	704
10.061	1.442	16370	15999	0	704
12.261	3.173	16371	16318	0	704
15.939	2.921	16372	16583	0	704
16.012	-0.144	16373	16743	0	704
14.461	-3.823	16374	16836	0	704
12.405	-5.698	16375	16956	0	704
9.016	-6.275	16376	17133	0	704
9.016	-3.065	16378	17342	0	704
9.845	3.282	16379	17559	0	704
13.163	8.835	16381	17768	0	704
17.454	13.235	16383	17905	0	704
18.211	11.540	16384	17945	0	704
18.392	9.665	16384	17919	0	704
18.247	6.780	16385	17839	0	704
19.834	7.753	16385	17719	0	704
24.702	11.612	16386	17550	0	704
27.696	17.995	16386	17333	0	704
29.427	20.339	16386	17071	0	704
29.751	22.719	16385	16765	0	704
28.850	23.008	16384	16397	0	704
31.049	21.349	16384	15981	0	704
30.328	20.339	16382	15533	0	704
27.479	13.668	16380	15102	0	704
21.673	8.547	16378	14761	0	704
15.290	5.265	16376	14557	0	704
10.891	5.662	16376	14499	0	704
10.314	7.825	16375	14539	0	704
11.360	9.701	16373	14561	0	704
12.802	9.412	16373	14557	0	704
14.172	6.131	16372	14610	0	704
11.720	2.272	16372	14774	0	704
11.251	2.524	16371	14969	0	704
11.900	2.272	16371	15111	0	704
12.117	2.128	16370	15218	0	704
13.704	1.442	16371	15360	0	704
12.694	-0.397	16371	15577	0	704
10.169	-3.895	16371	15839	0	704
5.950	-5.554	16372	16061	0	704
3.246	-5.121	16372	16207	0	704
3.678	-5.049	16371	16282	0	704
7.357	-2.380	16371	16269	0	704
13.343	2.488	16370	16194	0	704
20.627	7.357	16370	16132	0	704
25.893	11.792	16369	16114	0	704
29.174	14.461	16368	16123	0	704
27.083	13.487	16369	16163	0	704
24.378	9.629	16368	16278	0	704
20.952	7.321	16369	16481	0	704
18.716	7.898	16370	16712	0	704
19.041	9.448	16370	16832	0	704
20.159	9.124	16370	16765	0	704
19.113	8.294	16369	16579	0	704
15.975	4.616	16368	16401	0	704
13.740	0.144	16367	16287	0	704
9.917	-2.272	16366	16163	0	704
9.484	-2.993	16365	15936	0	704
8.294	-3.318	16363	15644	0	704
9.556	-2.849	16361	15453	0	704
10.783	-0.685	16360	15400	0	704
11.828	0.938	16359	15404	0	704
10.674	0.505	16358	15426	0	704
4.255	-3.426	16358	15448	0	704
-2.236	-8.907	16357	15466	0	704
-9.196	-11.179	16356	15533	0	704
-8.366	-10.638	16355	15626	0	704
-4.652	-6.203	16354	15661	0	704
4.580	1.370	16353	15599	0	704
12.838	7.212	16352	15537	0	704
20.664	11.684	16351	15586	0	704
27.155	14.461	16351	15763	0	704
30.076	15.398	16351	15990	0	704
32.023	16.444	16351	16172	0	704
32.456	15.723	16351	16282	0	704
31.518	17.815	16351	16367	0	704
29.751	18.356	16351	16441	0	704
29.499	20.880	16351	16539	0	704
28.741	18.572	16351	16659	0	704
26.397	18.788	16351	16787	0	704
23.585	15.507	16351	16894	0	704
17.093	11.432	16352	16974	0	704
10.242	5.085	16352	17053	0	704
5.301	1.046	16352	17124	0	704
6.888	-0.649	16352	17147	0	704
10.674	1.947	16352	17116	0	704
15.146	4.183	16352	17053	0	704
15.687	3.678	16351	16974	0	704
12.694	0.325	16351	16876	0	704
8.763	-3.426	16351	16805	0	704
8.222	-3.354	16351	16761	0	704
9.376	0.216	16350	16672	0	704
11.792	4.183	16349	16530	0	704
10.674	3.859	16349	16441	0	704
8.150	0.216	16349	16459	0	704
4.904	-5.409	16349	16512	0	704
6.455	-7.934	16349	16525	0	704
10.025	-7.176	16349	16486	0	704
15.867	-0.649	16349	16437	0	704
18.969	5.770	16348	16428	0	704
19.906	9.232	16348	16428	0	704
20.123	10.819	16348	16419	0	704
21.781	12.225	16348	16397	0	704
23.549	13.848	16348	16392	0	704
24.486	14.821	16348	16432	0	704
20.988	14.966	16348	16543	0	704
15.038	10.494	16349	16707	0	704
9.052	4.436	16349	16827	0	704
6.167	3.462	16349	16747	0	704
9.665	4.544	16348	16508	0	704
12.586	8.150	16348	16358	0	704
15.254	8.583	16348	16380	0	704
13.487	6.311	16348	16446	0	704
10.133	1.118	16348	16517	0	704
9.701	-0.505	16349	16623	0	704
14.677	3.859	16350	16778	0	704
22.286	10.746	16351	16951	0	704
26.866	15.759	16352	17080	0	704
28.741	17.166	16353	17182	0	704
27.010	18.572	16354	17297	0	704
27.407	18.247	16355	17404	0	704
27.479	19.149	16356	17510	0	704
26.433	20.627	16358	17706	0	704
20.339	15.326	16361	18003	0	704
12.297	7.429	16363	18273	0	704
8.402	4.147	16365	18442	0	704
9.701	2.488	16367	18509	0	704
14.858	4.688	16368	18509	0	704
17.706	5.121	16370	18495	0	704
15.867	4.796	16372	18486	0	704
12.874	5.337	16373	18415	0	704
13.343	7.176	16374	18238	0	704
19.546	14.569	16375	17990	0	704
26.145	17.418	16375	17657	0	704
29.968	18.428	16375	17289	0	704
27.624	12.586	16375	16978	0	704
20.988	5.914	16375	16707	0	704
15.146	2.092	16375	16446	0	704
13.704	0.685	16375	16278	0	704
14.281	2.308	16375	16238	0	704
15.795	4.327	16376	16291	0	704
15.579	5.301	16377	16309	0	704
14.100	2.019	16376	16136	0	704
10.278	-0.613	16375	15794	0	704
9.268	-2.344	16375	15515	0	704
8.439	-1.659	16375	15377	0	704
10.602	0.505	16374	15271	0	704
12.622	5.013	16373	15142	0	704
16.985	8.402	16373	15014	0	704
20.952	12.081	16371	14858	0	704
22.358	15.615	16370	14690	0	704
24.630	16.048	16370	14659	0	704
25.099	18.572	16369	14787	0	704
26.325	18.175	16369	14876	0	704
26.470	17.382	16367	14810	0	704
24.847	13.848	16366	14672	0	704
19.510	9.701	16365	14592	0	704
12.766	4.219	16365	14605	0	704
8.042	0.072	16363	14650	0	704
5.698	-1.046	16363	14699	0	704
6.058	-0.072	16361	14783	0	704
8.691	0.685	16361	14920	0	704
8.475	1.983	16361	15098	0	704
8.186	1.515	16361	15329	0	704
5.950	-0.288	16361	15581	0	704
3.678	-2.885	16361	15825	0	704
3.642	-5.626	16362	16078	0	704
3.714	-5.878	16363	16349	0	704
5.734	-4.977	16363	16619	0	704
7.212	-3.823	16365	16867	0	704
10.169	-2.416	16365	17018	0	704
11.973	-1.262	16365	17084	0	704
14.894	0.649	16365	17133	0	704
15.182	1.767	16366	17240	0	704
15.182	5.373	16367	17382	0	704
15.362	7.537	16368	17484	0	704
18.211	12.766	16367	17382	0	704
21.890	16.120	16366	16996	0	704
24.450	20.375	16364	16517	0	704
24.017	19.185	16363	16203	0	704
20.880	17.310	16361	16038	0	704
15.687	13.199	16361	15932	0	704
13.379	9.484	16361	15865	0	704
12.477	8.402	16360	15830	0	704
14.100	8.078	16359	15830	0	704
14.749	6.852	16359	15883	0	704
15.182	6.167	16359	15972	0	704
14.749	5.085	16359	16047	0	704
13.451	4.508	16358	16043	0	704
13.199	4.255	16358	15999	0	704
13.127	4.652	16358	16096	0	704
13.776	3.931	16359	16367	0	704
14.821	5.590	16360	16654	0	704
14.858	5.986	16360	16845	0	704
15.146	7.753	16361	16916	0	704
14.172	7.609	16361	16938	0	704
12.477	7.429	16361	16969	0	704
12.189	4.544	16362	16996	0	704
10.855	4.580	16362	16969	0	704
9.629	2.705	16362	16876	0	704
8.186	0.793	16362	16796	0	704
8.979	0.180	16362	16801	0	704
11.287	1.370	16363	16872	0	704
16.012	5.517	16363	16943	0	704
19.942	10.602	16363	16947	0	704
21.709	13.776	16363	16885	0	704
20.014	15.254	16363	16809	0	704
19.185	14.930	16363	16721	0	704
16.372	10.891	16363	16588	0	704
13.595	8.330	16363	16441	0	704
9.809	4.364	16361	16327	0	704
6.816	0.108	16361	16243	0	704
3.895	-3.065	16361	16189	0	704
3.498	-3.967	16361	16158	0	704
4.616	-4.688	16361	16127	0	704
5.878	-2.236	16361	16092	0	704
6.996	1.118	16360	16038	0	704
8.583	5.337	16359	15896	0	704
10.314	9.016	16358	15750	0	704
13.559	10.025	16358	15786	0	704
15.687	9.412	16359	15990	0	704
17.418	6.816	16359	16158	0	704
15.615	2.416	16359	16189	0	704
11.107	-2.633	16359	16123	0	704
6.888	-4.544	16358	16056	0	704
4.940	-2.236	16358	16043	0	704
4.832	1.911	16358	16083	0	704
7.753	6.347	16358	16140	0	704
8.366	8.547	16357	16180	0	704
10.278	5.554	16357	16216	0	704
10.783	3.931	16357	16269	0	704
12.369	3.931	16358	16296	0	704
14.966	3.967	16357	16243	0	704
17.274	8.943	16356	16074	0	704
19.365	12.838	16354	15848	0	704
21.745	14.208	16353	15675	0	704
19.798	14.605	16352	15604	0	704
15.362	10.891	16351	15590	0	704
8.511	2.777	16351	15568	0	704
0.757	-3.498	16350	15524	0	704
-2.488	-6.816	16349	15528	0	704
-0.721	-4.616	16349	15621	0	704
3.426	-1.370	16348	15772	0	704
5.337	2.164	16348	15910	0	704
4.652	1.154	16348	16038	0	704
2.380	-2.272	16349	16185	0	704
2.092	-4.652	16349	16305	0	704
7.357	-3.462	16349	16432	0	704
13.920	0.072	16351	16725	0	704
18.788	4.255	16352	17142	0	704
19.834	6.852	16353	17417	0	704
18.897	8.799	16353	17399	0	704
17.490	8.907	16353	17191	0	704
16.625	6.599	16352	16982	0	704
16.228	4.760	16352	16858	0	704
13.523	0.433	16352	16783	1	1140
13.235	-0.397	16351	16690	0	1140
13.956	1.479	16351	16534	0	1140
18.464	5.986	16350	16380	0	1140
21.962	8.691	16349	16269	0	1140
23.909	9.629	16349	16220	0	1140
22.539	8.763	16348	16158	0	1140
21.601	7.032	16347	16025	0	1140
20.952	7.537	16346	15910	0	1140
23.008	9.665	16346	15892	0	1140
25.460	14.208	16346	15950	0	1140
27.515	16.661	16345	16007	0	1140
24.883	14.605	16345	16034	0	1140
21.168	13.127	16345	16078	0	1140
15.182	8.583	16346	16203	0	1140
10.783	5.445	16346	16406	0	1140
8.439	3.750	16348	16694	0	1140
8.547	2.164	16349	17022	0	1140
8.330	-1.515	16351	17368	0	1140
8.294	-3.390	16353	17679	0	1140
8.402	-2.957	16355	17945	0	1140
10.278	0.252	16357	18163	0	1140
11.648	2.921	16359	18322	0	1140
13.379	4.760	16360	18424	0	1140
13.018	2.993	16361	18464	0	1140
11.287	0.685	16363	18415	0	1140
10.530	-1.082	16364	18367	0	1140
11.648	-2.488	16367	18455	0	1140
12.622	-1.226	16368	18615	0	1140
14.821	0.721	16370	18611	0	1140
16.661	2.705	16371	18384	0	1140
18.500	6.275	16371	18069	0	1140
22.034	11.720	16372	17772	0	1140
24.666	14.100	16372	17537	0	1140
27.191	19.185	16373	17399	0	1140
25.496	18.608	16374	17328	0	1140
25.243	20.952	16375	17218	0	1140
23.837	20.303	16375	17071	0	1140
26.830	22.503	16376	16934	0	1140
28.777	23.981	16377	16836	0	1140
