neuroNicle FX2
D3F25R12
Bluetooth SPP
2023년 11월 24일 금요일
오후 4:39
time interval = 4msec
EEG1	EEG2	PPG	sdPPG	pulse	peak_interval(msec)
-29.535	-39.019	16359	16535	0	2060
-21.890	-32.708	16360	16592	0	2060
-18.572	-28.417	16362	16636	0	2060
-17.598	-29.643	16363	16658	0	2060
-24.017	-34.006	16364	16665	0	2060
-27.948	-36.351	16366	16671	0	2060
-27.371	-37.000	16367	16688	0	2060
-26.614	-37.144	16369	16714	0	2060
-27.912	-41.688	16370	16726	0	2060
-31.230	-45.546	16372	16717	0	2060
-34.187	-48.143	16373	16707	0	2060
-36.026	-46.592	16375	16717	0	2060
-35.160	-44.068	16377	16748	0	2060
-34.728	-42.157	16381	16794	0	2060
-35.052	-40.570	16384	16839	0	2060
-32.492	-38.983	16386	16869	0	2060
-29.715	-37.541	16389	16890	0	2060
-20.844	-33.862	16392	16912	0	2060
-19.473	-33.502	16395	16925	0	2060
-18.464	-34.800	16397	16916	0	2060
-21.421	-36.278	16400	16891	0	2060
-25.424	-36.711	16402	16866	0	2060
-26.253	-35.593	16405	16849	0	2060
-26.217	-34.944	16408	16842	0	2060
-28.633	-35.737	16411	16835	0	2060
-29.715	-38.370	16413	16818	0	2060
-32.889	-40.714	16415	16786	0	2060
-34.980	-41.616	16417	16737	0	2060
-37.685	-43.022	16418	16679	0	2060
-38.334	-42.589	16420	16630	0	2060
-41.327	-42.589	16421	16590	0	2060
-44.609	-43.635	16423	16553	0	2060
-46.412	-46.484	16424	16520	0	2060
-47.313	-50.811	16425	16493	0	2060
-48.143	-50.847	16427	16474	0	2060
-46.340	-50.847	16429	16465	0	2060
-45.618	-47.890	16431	16452	0	2060
-48.972	-45.907	16431	16422	0	2060
-52.362	-48.792	16432	16382	0	2060
-57.663	-50.992	16433	16341	0	2060
-56.437	-51.100	16433	16296	0	2060
-53.155	-47.999	16432	16240	0	2060
-46.304	-43.058	16432	16175	0	2060
-44.212	-42.842	16430	16107	0	2060
-46.592	-44.969	16429	16038	0	2060
-50.198	-48.323	16427	15980	0	2060
-53.877	-48.215	16426	15945	0	2060
-51.424	-45.907	16425	15933	0	2060
-49.585	-40.786	16425	15933	0	2060
-49.225	-39.416	16424	15933	0	2060
-49.621	-39.163	16423	15930	0	2060
-51.857	-40.065	16422	15934	0	2060
-50.595	-42.120	16422	15949	0	2060
-50.054	-43.455	16421	15968	0	2060
-47.133	-44.140	16420	15986	0	2060
-45.510	-45.186	16420	16001	0	2060
-46.412	-46.520	16419	16019	0	2060
-49.369	-45.763	16419	16050	0	2060
-52.723	-45.005	16419	16090	0	2060
-55.680	-46.592	16419	16124	0	2060
-56.329	-45.871	16419	16153	0	2060
-53.300	-45.691	16418	16181	0	2060
-50.956	-44.537	16419	16216	0	2060
-50.054	-43.779	16419	16255	0	2060
-46.664	-40.389	16419	16290	0	2060
-47.349	-38.911	16419	16312	0	2060
-47.854	-39.488	16419	16321	0	2060
-50.126	-41.471	16418	16324	0	2060
-53.588	-42.806	16418	16329	0	2060
-55.067	-44.392	16417	16335	0	2060
-52.001	-43.779	16417	16338	0	2060
-47.133	-40.786	16416	16334	0	2060
-45.078	-39.019	16415	16311	0	2060
-44.248	-38.009	16414	16278	0	2060
-47.710	-42.229	16414	16277	0	2060
-53.372	-44.933	16414	16315	0	2060
-54.814	-46.881	16414	16350	0	2060
-54.778	-43.166	16413	16350	0	2060
-50.126	-37.216	16412	16329	0	2060
-47.313	-28.020	16411	16312	0	2060
-44.356	-24.017	16411	16311	0	2060
-43.130	-26.181	16410	16320	0	2060
-43.491	-29.931	16409	16330	0	2060
-46.484	-35.557	16409	16333	0	2060
-51.785	-42.806	16408	16329	0	2060
-61.053	-49.369	16408	16329	0	2060
-69.311	-54.057	16407	16335	0	2060
-71.223	-56.762	16406	16331	0	2060
-66.715	-53.732	16405	16316	0	2060
-60.224	-49.730	16404	16302	0	2060
-56.185	-41.832	16404	16304	0	2060
-58.709	-41.796	16403	16317	0	2060
-62.532	-43.274	16403	16333	0	2060
-68.590	-48.900	16402	16346	0	2060
-67.039	-51.821	16402	16356	0	2060
-61.197	-53.228	16402	16366	0	2060
-51.713	-45.582	16402	16379	0	2060
-44.681	-38.586	16402	16390	0	2060
-40.137	-31.879	16401	16396	0	2060
-40.137	-27.840	16401	16399	0	2060
-43.563	-29.715	16400	16402	0	2060
-50.270	-34.331	16401	16407	0	2060
-55.427	-40.642	16400	16412	0	2060
-59.755	-42.481	16400	16411	0	2060
-58.601	-43.455	16399	16404	0	2060
-51.821	-38.298	16399	16395	0	2060
-47.386	-32.420	16398	16379	0	2060
-41.075	-29.066	16396	16350	0	2060
-40.389	-29.282	16395	16316	0	2060
-41.039	-28.669	16394	16284	0	2060
-41.327	-31.374	16392	16253	0	2060
-44.609	-34.728	16390	16213	0	2060
-47.458	-36.783	16388	16169	0	2060
-47.313	-38.478	16386	16147	0	2060
-44.464	-37.108	16384	16146	0	2060
-39.632	-34.006	16383	16133	0	2060
-37.577	-31.013	16380	16089	0	2060
-37.865	-31.085	16377	16028	0	2060
-42.157	-33.033	16373	15953	0	2060
-44.032	-34.980	16369	15876	0	2060
-45.114	-35.810	16365	15828	0	2060
-45.835	-36.459	16361	15816	0	2060
-42.914	-33.754	16359	15823	0	2060
-36.675	-28.489	16356	15844	0	2060
-29.246	-22.827	16354	15881	0	2060
-22.755	-17.634	16353	15937	0	2060
-23.476	-20.123	16351	16003	0	2060
-27.660	-23.440	16350	16063	0	2060
-35.305	-26.974	16349	16117	0	2060
-39.668	-27.119	16348	16173	0	2060
-42.084	-24.522	16348	16240	0	2060
-43.635	-21.060	16348	16312	0	2060
-47.854	-24.775	16348	16378	0	2060
-47.999	-28.345	16348	16435	0	2060
-44.248	-27.768	16348	16490	0	2060
-38.298	-26.397	16349	16541	0	2060
-32.925	-23.909	16349	16585	0	2060
-32.961	-24.666	16350	16628	0	2060
-37.505	-27.155	16350	16669	0	2060
-42.373	-31.554	16351	16693	0	2060
-44.392	-32.095	16350	16685	0	2060
-42.229	-27.263	16349	16656	0	2060
-40.714	-22.899	16349	16630	0	2060
-37.973	-21.096	16348	16614	0	2060
-38.082	-22.972	16348	16594	0	2060
-38.262	-24.342	16347	16552	0	2060
-40.101	-28.128	16345	16502	0	2060
-44.573	-31.951	16344	16479	0	2060
-47.133	-33.033	16344	16486	0	2060
-51.244	-37.360	16344	16497	0	2060
-49.621	-44.537	16344	16497	0	2060
-44.681	-52.001	16343	16488	0	2060
-39.885	-58.637	16343	16478	0	2060
-33.646	-61.666	16342	16467	0	2060
-31.085	-56.509	16341	16447	0	2060
-32.239	-52.362	16340	16414	0	2060
-36.747	-45.727	16339	16380	0	2060
-38.082	-46.484	16338	16356	0	2060
-39.272	-47.386	16337	16349	0	2060
-37.324	-47.962	16337	16360	0	2060
-39.055	-50.198	16337	16376	0	2060
-43.166	-50.631	16337	16385	0	2060
-48.035	-50.162	16337	16393	0	2060
-52.290	-51.064	16337	16402	0	2060
-53.732	-44.501	16336	16412	0	2060
-48.720	-38.983	16337	16424	0	2060
-45.041	-31.843	16336	16429	0	2060
-38.803	-24.883	16336	16427	0	2060
-28.489	-16.120	16336	16425	0	2060
-20.123	-7.357	16336	16425	0	2060
-11.756	2.128	16336	16426	0	2060
-12.477	1.154	16336	16429	0	2060
-18.752	-2.019	16336	16425	0	2060
-28.886	-13.018	16334	16397	0	2060
-38.695	-21.962	16333	16347	0	2060
-42.770	-27.299	16331	16292	0	2060
-41.724	-26.866	16330	16254	0	2060
-35.774	-18.283	16328	16236	0	2060
-27.948	-11.035	16327	16227	0	2060
-21.493	-3.282	16326	16220	0	2060
-14.894	-0.938	16325	16218	0	2060
-16.084	-3.173	16324	16231	0	2060
-17.779	-8.006	16325	16266	0	2060
-23.080	-8.727	16325	16309	0	2060
-22.935	-8.294	16325	16344	0	2060
-20.195	-5.626	16325	16364	0	2060
-19.365	-3.029	16325	16378	0	2060
-16.336	-5.013	16325	16399	0	2060
-22.575	-9.520	16326	16433	0	2060
-29.354	-17.598	16327	16468	0	2060
-36.855	-22.467	16328	16498	0	2060
-42.301	-27.119	16328	16525	0	2060
-43.058	-28.633	16330	16560	0	2060
-42.986	-27.912	16332	16609	0	2060
-41.399	-28.814	16333	16660	0	2060
-39.632	-28.669	16335	16701	0	2060
-37.901	-25.207	16337	16735	0	2060
-36.062	-25.063	16339	16766	0	2060
-34.187	-20.447	16342	16800	0	2060
-31.699	-21.745	16345	16838	0	2060
-33.105	-22.106	16347	16871	0	2060
-38.442	-26.722	16350	16896	0	2060
-43.058	-33.141	16353	16916	0	2060
-47.494	-36.062	16356	16933	0	2060
-46.736	-33.069	16359	16950	0	2060
-39.740	-26.253	16362	16958	0	2060
-34.079	-19.149	16364	16958	0	2060
-33.862	-19.690	16367	16949	0	2060
-41.580	-25.496	16370	16937	0	2060
-49.441	-34.980	16373	16923	0	2060
-56.040	-39.885	16375	16903	0	2060
-50.992	-36.531	16378	16873	0	2060
-40.894	-25.604	16379	16829	0	2060
-29.499	-15.182	16381	16773	0	2060
-25.207	-9.520	16382	16710	0	2060
-27.010	-10.530	16383	16652	0	2060
-29.282	-13.668	16384	16605	0	2060
-28.453	-16.300	16385	16569	0	2060
-22.034	-11.323	16386	16534	0	2060
-14.605	-6.419	16387	16491	0	2060
-13.992	-5.806	16388	16447	0	2060
-17.959	-11.864	16389	16410	0	2060
-27.083	-18.067	16390	16378	0	2060
-36.206	-25.893	16390	16339	0	2060
-41.832	-29.679	16390	16298	0	2060
-45.366	-32.889	16390	16259	0	2060
-47.205	-34.908	16391	16233	0	2060
-44.717	-34.764	16392	16220	0	2060
-42.661	-30.797	16392	16208	0	2060
-41.507	-26.073	16392	16186	0	2060
-41.616	-25.460	16392	16161	0	2060
-44.212	-28.381	16392	16140	0	2060
-50.198	-33.934	16392	16130	0	2060
-54.382	-39.091	16391	16125	0	2060
-55.031	-40.101	16391	16118	0	2060
-54.165	-37.324	16391	16101	0	2060
-51.929	-32.889	16390	16071	0	2060
-51.461	-31.049	16388	16034	0	2060
-53.696	-31.843	16387	16001	0	2060
-60.728	-36.639	16385	15977	0	2060
-66.210	-41.183	16384	15962	0	2060
-67.436	-42.265	16384	15949	0	2060
-65.705	-41.147	16381	15924	0	2060
-60.801	-38.082	16379	15892	0	2060
-53.191	-36.747	16377	15870	0	2060
-50.811	-34.259	16375	15863	0	2060
-51.028	-31.482	16373	15865	0	2060
-52.398	-30.040	16370	15863	0	2060
-54.382	-30.689	16369	15859	0	2060
-53.805	-34.656	16366	15867	0	2060
-50.451	-39.308	16365	15896	0	2060
-46.700	-42.409	16364	15943	0	2060
-46.953	-43.022	16363	15989	0	2060
-47.710	-43.887	16362	16025	0	2060
-51.424	-43.527	16360	16064	0	2060
-55.716	-43.851	16359	16097	0	2060
-56.040	-44.969	16358	16114	0	2060
-52.434	-43.815	16357	16133	0	2060
-49.441	-43.166	16355	16165	0	2060
-47.674	-43.960	16355	16206	0	2060
-47.422	-45.150	16355	16261	0	2060
-48.900	-45.582	16355	16334	0	2060
-49.477	-45.041	16356	16408	0	2060
-44.428	-43.851	16357	16471	0	2060
-40.894	-37.216	16357	16522	0	2060
-35.629	-30.220	16358	16570	0	2060
-30.472	-24.306	16360	16619	0	2060
-27.263	-19.257	16361	16668	0	2060
-24.702	-19.113	16362	16706	0	2060
-21.998	-20.591	16363	16730	0	2060
-18.211	-20.952	16364	16750	0	2060
-11.468	-18.247	16366	16769	0	2060
-6.094	-12.081	16367	16784	0	2060
-4.580	-5.950	16368	16788	0	2060
-7.248	-3.354	16369	16780	0	2060
-10.386	-3.642	16369	16760	0	2060
-8.799	-1.515	16369	16722	0	2060
-7.681	-2.416	16369	16667	0	2060
-4.688	-2.957	16368	16606	0	2060
-10.061	-8.907	16367	16538	0	2060
-18.824	-17.093	16365	16461	0	2060
-27.948	-26.758	16363	16380	0	2060
-31.951	-32.203	16361	16298	0	2060
-32.672	-34.403	16359	16236	0	2060
-33.610	-36.278	16358	16205	0	2060
-31.879	-35.557	16357	16196	0	2060
-30.400	-33.538	16356	16194	0	2060
-28.020	-29.427	16355	16196	0	2060
-27.912	-27.696	16354	16198	0	2060
-28.164	-30.112	16354	16189	0	2060
-33.105	-33.177	16352	16170	0	2060
-37.180	-37.829	16351	16161	0	2060
-40.678	-39.776	16350	16164	0	2060
-41.580	-40.173	16350	16177	0	2060
-41.075	-40.606	16349	16200	0	2060
-41.616	-41.543	16349	16236	0	2060
-40.065	-39.452	16350	16281	0	2060
-39.488	-36.783	16349	16313	0	2060
-40.498	-36.062	16348	16307	0	2060
-42.914	-38.839	16347	16273	0	2060
-46.159	-44.176	16346	16253	0	2060
-46.412	-48.215	16345	16263	0	2060
-47.169	-45.655	16345	16282	0	2060
-41.255	-41.183	16344	16297	0	2060
-35.954	-33.105	16344	16316	0	2060
-29.174	-28.092	16344	16336	0	2060
-24.883	-24.775	16343	16353	0	2060
-25.604	-24.522	16343	16362	0	2060
-31.446	-28.777	16343	16368	0	2060
-39.596	-34.511	16342	16370	0	2060
-46.376	-42.193	16341	16353	0	2060
-49.838	-46.376	16340	16331	0	2060
-47.277	-44.356	16340	16343	0	2060
-39.921	-37.541	16341	16390	0	2060
-32.816	-29.931	16341	16433	0	2060
-26.145	-22.827	16341	16450	0	2060
-25.099	-21.313	16341	16456	0	2060
-28.561	-23.188	16342	16473	0	2060
-35.016	-25.965	16342	16501	0	2060
-38.731	-28.741	16343	16523	0	2060
-39.452	-26.181	16343	16530	0	2060
-35.954	-21.421	16343	16521	0	2060
-31.302	-16.120	16343	16505	0	2060
-27.804	-14.317	16343	16490	0	2060
-23.332	-16.048	16343	16476	0	2060
-21.926	-16.408	16342	16466	0	2060
-21.890	-20.195	16342	16457	0	2060
-20.736	-17.923	16342	16449	0	2060
-21.024	-18.247	16342	16441	0	2060
-22.935	-16.985	16342	16439	0	2060
-23.440	-19.546	16342	16442	0	2060
-28.741	-22.250	16342	16437	0	2060
-35.341	-24.414	16342	16424	0	2060
-40.606	-28.633	16342	16415	0	2060
-44.897	-28.056	16342	16415	0	2060
-45.078	-29.931	16342	16416	0	2060
-45.150	-29.354	16341	16404	0	2060
-46.989	-33.934	16341	16384	0	2060
-48.684	-39.127	16340	16361	0	2060
-50.307	-41.688	16339	16340	0	2060
-49.369	-43.274	16339	16321	0	2060
-44.573	-41.724	16338	16306	0	2060
-41.183	-37.505	16337	16296	0	2060
-34.439	-33.502	16336	16282	0	2060
-30.076	-27.768	16335	16252	0	2060
-25.243	-22.972	16333	16207	0	2060
-23.260	-18.969	16331	16165	0	2060
-25.207	-21.926	16330	16134	0	2060
-31.374	-27.479	16328	16105	0	2060
-39.091	-33.502	16325	16077	0	2060
-41.868	-37.793	16323	16051	0	2060
-43.347	-38.442	16321	16039	0	2060
-43.274	-38.190	16320	16047	0	2060
-44.140	-39.740	16319	16068	0	2060
-45.186	-42.878	16317	16085	0	2060
-46.556	-44.681	16316	16092	0	2060
-43.924	-42.553	16315	16109	0	2060
-41.147	-40.570	16314	16146	0	2060
-39.993	-38.118	16314	16194	0	2060
-42.625	-35.269	16314	16237	0	2060
-46.195	-35.954	16313	16273	0	2060
-45.655	-34.259	16313	16307	0	2060
-40.678	-30.040	16313	16342	0	2060
-34.187	-25.279	16312	16372	0	2060
-24.522	-22.142	16313	16392	0	2060
-21.132	-21.457	16312	16410	0	2060
-25.027	-21.745	16312	16431	0	2060
-27.155	-24.198	16312	16454	0	2060
-29.318	-22.034	16312	16481	0	2060
-27.263	-16.552	16313	16511	0	2060
-22.106	-10.458	16313	16537	0	2060
-13.523	-4.327	16314	16556	0	2060
-10.963	-1.370	16314	16568	0	2060
-10.963	-1.695	16314	16575	0	2060
-14.785	-5.878	16314	16579	0	2060
-22.575	-10.494	16315	16580	0	2060
-30.508	-18.139	16315	16576	0	2060
-36.891	-19.906	16315	16564	0	2060
-41.507	-24.702	16314	16533	0	2060
-42.048	-26.433	16313	16488	0	2060
-45.438	-31.482	16312	16457	0	2060
-47.782	-37.973	16312	16446	0	2060
-50.451	-42.589	16312	16448	0	2060
-50.126	-40.426	16312	16453	0	2060
-43.419	-36.242	16312	16456	0	2060
-37.721	-29.643	16313	16465	0	2060
-31.482	-23.657	16314	16490	0	2060
-32.384	-24.450	16316	16535	0	2060
-32.708	-24.594	16318	16591	0	2060
-35.088	-25.820	16320	16645	0	2060
-35.088	-25.929	16322	16689	0	2060
-31.518	-25.316	16324	16732	0	2060
-27.551	-22.178	16327	16782	0	2060
-23.152	-16.625	16330	16832	0	2060
-20.050	-16.913	16333	16873	0	2060
-21.060	-18.752	16336	16901	0	2060
-26.902	-24.125	16339	16909	0	2060
-34.872	-32.600	16341	16901	0	2060
-39.849	-38.911	16343	16895	0	2060
-43.455	-40.101	16345	16879	0	2060
-43.851	-41.543	16346	16831	0	2060
-42.048	-41.471	16348	16769	0	2060
-42.806	-42.373	16349	16732	0	2060
-40.353	-42.625	16351	16720	0	2060
-38.875	-41.147	16353	16710	0	2060
-34.583	-35.990	16355	16695	0	2060
-29.751	-27.299	16357	16677	0	2060
-26.037	-20.303	16358	16653	0	2060
-23.440	-20.231	16360	16628	0	2060
-25.712	-24.522	16361	16603	0	2060
-29.391	-32.384	16363	16576	0	2060
-33.862	-36.819	16364	16541	0	2060
-39.344	-35.665	16364	16490	0	2060
-44.825	-34.223	16364	16431	0	2060
-47.710	-32.636	16365	16380	0	2060
-49.080	-35.665	16365	16343	0	2060
-46.412	-36.134	16365	16310	0	2060
-40.462	-32.131	16365	16270	0	2060
-36.170	-25.893	16364	16221	0	2060
-34.367	-20.808	16364	16181	0	2060
-37.396	-20.123	16364	16163	0	2060
-42.481	-26.325	16364	16159	0	2060
-49.044	-32.564	16365	16159	0	2060
-51.533	-36.387	16364	16155	0	2060
-50.270	-35.413	16365	16155	0	2060
-48.612	-27.840	16365	16161	0	2060
-46.195	-24.342	16365	16169	0	2060
-46.159	-24.486	16365	16175	0	2060
-49.982	-28.814	16365	16173	0	2060
-52.074	-33.718	16365	16169	0	2060
-53.228	-35.737	16365	16171	0	2060
-48.900	-35.413	16365	16188	0	2060
-46.376	-28.128	16365	16209	0	2060
-44.428	-25.460	16365	16216	0	2060
-41.904	-24.414	16365	16206	0	2060
-41.327	-23.188	16364	16193	0	2060
-38.586	-21.168	16364	16187	0	2060
-34.187	-20.375	16363	16192	0	2060
-30.905	-19.582	16363	16198	0	2060
-34.656	-22.683	16362	16190	0	2060
-40.822	-29.102	16360	16164	0	2060
-48.143	-36.964	16360	16139	0	2060
-52.831	-39.488	16358	16127	0	2060
-49.766	-37.973	16357	16122	0	2060
-43.779	-31.482	16356	16122	0	2060
-37.108	-26.686	16355	16127	0	2060
-34.115	-25.063	16354	16134	0	2060
-39.380	-30.941	16353	16151	0	2060
-45.366	-39.849	16354	16193	0	2060
-52.759	-45.871	16355	16260	0	2060
-52.759	-47.854	16356	16329	0	2060
-48.612	-39.849	16356	16376	0	2060
-39.849	-30.581	16356	16398	0	2060
-33.898	-23.368	16356	16408	0	2060
-30.977	-20.736	16356	16413	0	2060
-30.977	-22.611	16356	16406	0	2060
-32.131	-24.558	16355	16384	0	2060
-33.357	-24.522	16353	16352	0	2060
-30.581	-23.260	16353	16329	0	2060
-31.554	-22.070	16352	16325	0	2060
-34.331	-25.676	16351	16331	0	2060
-40.426	-34.295	16351	16340	0	2060
-48.323	-43.527	16351	16351	0	2060
-54.886	-49.405	16351	16364	0	2060
-54.454	-50.090	16351	16380	0	2060
-53.083	-45.222	16351	16402	0	2060
-48.431	-41.688	16352	16429	0	2060
-49.044	-41.760	16352	16449	0	2060
-46.304	-44.032	16352	16461	0	2060
-47.169	-45.294	16352	16470	0	2060
-347.818	-570.105	15306	1	0	16389
-47.710	-41.291	16389	16606	0	720
-54.454	-45.078	16390	16611	0	720
-59.647	-44.681	16390	16612	0	720
-55.427	-41.399	16390	16603	0	720
-49.982	-35.737	16390	16585	0	720
-41.760	-33.718	16391	16566	0	720
-40.353	-35.521	16390	16542	0	720
-45.078	-39.019	16389	16496	0	720
-47.169	-40.930	16387	16431	0	720
-45.078	-37.577	16387	16384	0	720
-39.957	-31.410	16387	16372	0	720
-33.466	-26.866	16386	16372	0	720
-32.744	-26.037	16386	16364	0	720
-36.062	-28.958	16385	16346	0	720
-40.606	-32.528	16385	16329	0	720
-43.527	-36.675	16384	16321	0	720
-44.284	-39.091	16384	16307	0	720
-43.058	-40.858	16383	16277	0	720
-41.543	-40.209	16381	16240	0	720
-38.695	-39.272	16380	16212	0	720
-37.793	-33.934	16379	16195	0	720
-37.541	-32.384	16378	16181	0	720
-40.966	-33.898	16376	16176	0	720
-42.301	-37.901	16375	16181	0	720
-43.094	-40.966	16375	16193	0	720
-42.120	-44.176	16375	16216	0	720
-43.274	-43.887	16375	16259	0	720
-45.799	-43.563	16375	16314	0	720
-50.992	-43.851	16377	16370	0	720
-51.316	-43.094	16377	16418	0	720
-48.792	-39.957	16378	16456	0	720
-40.894	-36.675	16378	16486	0	720
-36.711	-34.944	16379	16507	0	720
-36.026	-37.000	16379	16513	0	720
-36.711	-38.983	16380	16509	0	720
-37.541	-38.839	16380	16499	0	720
-35.449	-34.908	16379	16480	0	720
-33.790	-30.040	16378	16459	0	720
-32.816	-29.391	16379	16464	0	720
-35.918	-30.581	16380	16494	0	720
-35.918	-32.348	16380	16511	0	720
-35.918	-30.905	16380	16490	0	720
-30.869	-24.702	16379	16446	0	720
-26.830	-20.591	16378	16404	0	720
-25.568	-23.765	16377	16372	0	720
-28.273	-28.417	16376	16337	0	720
-33.754	-36.026	16374	16289	0	720
-41.616	-40.858	16372	16235	0	720
-48.864	-43.527	16371	16192	0	720
-51.388	-44.969	16369	16167	0	720
-53.155	-45.907	16368	16159	0	720
-49.369	-44.032	16367	16157	0	720
-47.277	-41.688	16365	16155	0	720
-45.078	-39.993	16365	16156	0	720
-42.373	-42.193	16364	16169	0	720
-39.993	-43.274	16363	16196	0	720
-36.242	-42.193	16363	16229	0	720
-32.131	-40.786	16363	16255	0	720
-32.492	-37.252	16362	16274	0	720
-36.964	-38.767	16362	16293	0	720
-39.704	-39.452	16362	16319	0	720
-41.039	-37.901	16362	16347	0	720
-37.324	-33.574	16363	16375	0	720
-34.115	-30.364	16363	16404	0	720
-33.466	-29.210	16363	16431	0	720
-31.915	-31.626	16363	16450	0	720
-30.761	-29.715	16363	16464	0	720
-24.991	-26.109	16363	16472	0	720
-21.709	-21.529	16363	16472	0	720
-25.460	-22.899	16363	16461	0	720
-32.492	-27.768	16362	16429	0	720
-39.740	-37.505	16361	16394	0	720
-44.032	-43.130	16361	16394	0	720
-39.199	-45.546	16361	16418	0	720
-34.223	-40.714	16360	16422	0	720
-30.472	-37.901	16360	16402	0	720
-31.735	-36.170	16359	16378	0	720
-35.341	-36.134	16358	16366	0	720
-40.498	-38.442	16358	16370	0	720
-42.950	-40.426	16358	16378	0	720
-42.301	-41.688	16358	16385	0	720
-39.740	-41.327	16358	16398	0	720
-39.163	-42.517	16359	16432	0	720
-40.714	-44.609	16360	16490	0	720
-45.835	-46.556	16363	16560	0	720
-50.739	-48.143	16365	16625	0	720
-51.388	-49.946	16367	16678	0	720
-50.054	-47.818	16370	16727	0	720
-42.661	-45.474	16372	16784	0	720
-34.800	-41.183	16376	16852	0	720
-28.273	-38.009	16379	16915	0	720
-26.722	-36.928	16383	16956	0	720
-28.958	-36.964	16385	16981	0	720
-31.013	-36.819	16388	16997	0	720
-31.843	-34.151	16391	17013	0	720
-30.617	-31.410	16395	17026	0	720
-24.847	-30.004	16398	17029	0	720
-24.558	-29.751	16401	17019	0	720
-25.676	-30.941	16403	16995	0	720
-26.902	-30.400	16406	16956	0	720
-27.155	-27.515	16408	16909	0	720
-27.299	-24.811	16409	16855	1	9688
-27.119	-26.758	16411	16800	0	9688
-31.771	-31.518	16412	16740	0	9688
-37.613	-35.954	16413	16663	0	9688
-39.344	-37.721	16412	16571	0	9688
-38.658	-34.944	16412	16482	0	9688
-35.629	-31.771	16412	16405	0	9688
-33.718	-33.285	16412	16331	0	9688
-35.521	-33.285	16411	16253	0	9688
-39.019	-37.432	16410	16175	0	9688
-41.976	-35.882	16408	16110	0	9688
-43.383	-34.764	16408	16064	0	9688
-42.084	-33.574	16407	16035	0	9688
-42.229	-32.420	16406	16005	0	9688
-35.557	-30.653	16405	15970	0	9688
-31.590	-28.597	16404	15948	0	9688
-28.092	-28.489	16403	15950	0	9688
-27.660	-28.741	16403	15964	0	9688
-32.167	-31.987	16403	15982	0	9688
-39.380	-34.944	16402	16003	0	9688
-42.986	-35.413	16403	16026	0	9688
-42.012	-35.269	16402	16056	0	9688
-37.973	-33.213	16403	16092	0	9688
-31.807	-31.482	16403	16130	0	9688
-29.282	-30.689	16404	16165	0	9688
-32.276	-30.689	16404	16198	0	9688
-37.144	-31.410	16404	16232	0	9688
-40.245	-32.636	16405	16273	0	9688
-41.832	-32.961	16406	16317	0	9688
-39.488	-34.800	16407	16350	0	9688
-39.380	-36.603	16407	16371	0	9688
-40.065	-39.452	16408	16384	0	9688
-42.986	-40.137	16408	16390	0	9688
-42.409	-39.019	16408	16391	0	9688
-44.501	-38.622	16408	16384	0	9688
-43.058	-38.514	16407	16371	0	9688
-46.268	-41.543	16407	16354	0	9688
-49.982	-47.241	16406	16325	0	9688
-55.644	-52.038	16404	16285	0	9688
-55.355	-55.283	16403	16249	0	9688
-54.526	-52.110	16401	16216	0	9688
-49.657	-48.792	16399	16152	0	9688
-50.018	-44.969	16394	16051	0	9688
-52.362	-44.284	16391	15962	0	9688
-59.935	-47.890	16389	15928	0	9688
-68.049	-53.119	16387	15939	0	9688
-66.823	-52.651	16386	15970	0	9688
-57.807	-47.494	16385	16005	0	9688
-46.232	-36.387	16384	16041	0	9688
-33.429	-26.938	16384	16082	0	9688
-30.112	-23.404	16383	16123	0	9688
-33.141	-28.777	16382	16139	0	9688
-40.606	-35.341	16380	16127	0	9688
-46.376	-38.731	16378	16122	0	9688
-48.900	-40.173	16377	16145	0	9688
-50.884	-33.826	16377	16192	0	9688
-48.323	-32.780	16377	16259	0	9688
-47.890	-33.177	16378	16341	0	9688
-47.494	-36.639	16379	16420	0	9688
-47.710	-39.380	16381	16491	0	9688
-51.100	-43.094	16382	16556	0	9688
-52.001	-44.104	16383	16618	0	9688
-52.470	-42.373	16384	16679	0	9688
-50.920	-41.724	16386	16734	0	9688
-46.845	-40.101	16388	16780	0	9688
-45.005	-39.488	16390	16811	0	9688
-44.645	-39.488	16392	16831	0	9688
-43.779	-39.019	16393	16843	0	9688
-44.320	-36.278	16394	16845	0	9688
-38.334	-31.807	16396	16839	0	9688
-30.148	-25.748	16396	16827	0	9688
-25.316	-23.873	16398	16806	0	9688
-24.847	-22.106	16399	16773	0	9688
-30.004	-24.414	16399	16734	0	9688
-33.429	-25.640	16399	16692	0	9688
-29.246	-20.267	16399	16638	0	9688
-22.286	-16.733	16398	16565	0	9688
-17.093	-14.461	16397	16485	0	9688
-19.329	-18.320	16396	16420	0	9688
-25.712	-23.693	16396	16376	0	9688
-30.545	-29.318	16395	16346	0	9688
-31.446	-29.859	16394	16322	0	9688
-28.850	-30.581	16394	16294	0	9688
-29.715	-33.682	16393	16265	0	9688
-35.377	-39.055	16392	16244	0	9688
-42.770	-47.025	16392	16225	0	9688
-48.720	-51.136	16391	16200	0	9688
-49.477	-51.352	16389	16173	0	9688
-49.405	-50.595	16388	16154	0	9688
-46.953	-45.727	16388	16151	0	9688
-43.924	-45.186	16387	16165	0	9688
-45.510	-43.347	16387	16185	0	9688
-44.681	-44.681	16387	16201	0	9688
-42.770	-44.320	16387	16210	0	9688
-40.570	-42.517	16386	16218	0	9688
-36.855	-38.658	16386	16233	0	9688
-37.252	-34.980	16386	16249	0	9688
-35.882	-31.915	16385	16261	0	9688
-35.774	-31.554	16385	16270	0	9688
-34.872	-32.456	16384	16278	0	9688
-31.879	-33.610	16384	16274	0	9688
-28.561	-34.259	16384	16267	0	9688
-26.830	-29.751	16384	16288	0	9688
-27.155	-24.342	16384	16329	0	9688
-25.243	-20.411	16384	16346	0	9688
-24.162	-16.300	16383	16325	0	9688
-24.630	-17.129	16382	16291	0	9688
-23.332	-17.021	16380	16263	0	9688
-22.863	-19.293	16379	16247	0	9688
-20.014	-19.401	16378	16237	0	9688
-23.404	-21.854	16377	16218	0	9688
-27.984	-27.551	16375	16197	0	9688
-35.088	-32.420	16374	16200	0	9688
-42.950	-37.396	16374	16234	0	9688
-43.383	-38.298	16374	16277	0	9688
-39.957	-37.829	16374	16308	0	9688
-36.423	-36.891	16374	16324	0	9688
-36.531	-37.036	16373	16333	0	9688
-39.055	-37.901	16373	16341	0	9688
-42.084	-38.009	16372	16357	0	9688
-42.373	-36.314	16373	16378	0	9688
-41.183	-36.098	16372	16391	0	9688
-42.914	-38.262	16372	16394	0	9688
-44.609	-41.363	16372	16396	0	9688
-46.340	-42.806	16371	16406	0	9688
-45.366	-40.750	16372	16420	0	9688
-41.399	-37.973	16371	16425	0	9688
-37.108	-35.377	16370	16418	0	9688
-34.728	-34.115	16370	16408	0	9688
-34.692	-34.908	16369	16400	0	9688
-35.521	-35.052	16369	16392	0	9688
-36.603	-34.547	16368	16384	0	9688
-35.954	-34.295	16368	16376	0	9688
-34.187	-33.538	16367	16365	0	9688
-28.958	-29.066	16366	16339	0	9688
-23.476	-24.955	16364	16304	0	9688
-19.113	-21.998	16363	16278	0	9688
-20.664	-21.493	16361	16262	0	9688
-23.585	-25.496	16360	16245	0	9688
-30.545	-32.961	16358	16219	0	9688
-38.370	-38.947	16357	16192	0	9688
-43.130	-43.419	16355	16179	0	9688
-45.582	-43.347	16354	16185	0	9688
-43.599	-38.658	16353	16207	0	9688
-38.118	-33.790	16353	16230	0	9688
-31.446	-25.929	16352	16249	0	9688
-27.227	-24.306	16352	16270	0	9688
-28.922	-25.965	16351	16294	0	9688
-30.833	-28.020	16351	16315	0	9688
-35.521	-30.689	16350	16333	0	9688
-39.127	-33.285	16350	16351	0	9688
-40.822	-35.449	16350	16367	0	9688
-45.186	-39.416	16350	16385	0	9688
-44.897	-44.537	16350	16413	0	9688
-43.887	-48.684	16350	16443	0	9688
-43.347	-49.369	16350	16461	0	9688
-43.887	-48.576	16350	16472	0	9688
-43.960	-47.818	16351	16489	0	9688
-44.681	-47.169	16351	16515	0	9688
-43.058	-46.953	16351	16539	0	9688
-36.711	-43.743	16352	16556	0	9688
-32.744	-37.036	16352	16558	0	9688
-28.164	-32.239	16352	16536	0	9688
-28.092	-31.879	16351	16494	0	9688
-31.302	-36.062	16350	16459	0	9688
-35.990	-43.094	16350	16440	0	9688
-40.534	-46.232	16349	16429	0	9688
-41.580	-45.582	16349	16418	0	9688
-39.668	-40.606	16348	16392	0	9688
-35.810	-38.803	16347	16353	0	9688
-33.862	-40.930	16345	16320	0	9688
-31.735	-41.255	16344	16297	0	9688
-28.525	-41.219	16342	16263	0	9688
-29.030	-38.190	16340	16208	0	9688
-31.771	-37.793	16338	16153	0	9688
-38.983	-41.543	16336	16122	0	9688
-45.258	-47.782	16335	16120	0	9688
-46.520	-52.362	16334	16141	0	9688
-46.051	-54.959	16333	16171	0	9688
-41.940	-53.588	16333	16200	0	9688
-39.308	-51.785	16333	16237	0	9688
-37.505	-47.999	16333	16281	0	9688
-37.324	-45.366	16333	16325	0	9688
-38.298	-41.940	16334	16368	0	9688
-40.317	-40.750	16335	16408	0	9688
-45.727	-44.140	16335	16448	0	9688
-47.313	-50.739	16336	16492	0	9688
-46.448	-52.218	16338	16544	0	9688
-43.527	-52.831	16338	16587	0	9688
-43.166	-51.100	16339	16597	0	9688
-43.996	-47.458	16338	16556	0	9688
-44.068	-46.448	16336	16493	0	9688
-41.868	-42.265	16336	16454	0	9688
-37.288	-39.452	16336	16445	0	9688
-32.708	-36.387	16336	16444	0	9688
-35.377	-37.829	16336	16451	0	9688
-40.353	-41.760	16336	16467	0	9688
-46.700	-46.989	16337	16488	0	9688
-45.582	-46.556	16337	16506	0	9688
-41.183	-41.868	16338	16502	0	9688
-38.767	-39.091	16337	16478	0	9688
-36.711	-38.298	16337	16452	0	9688
-40.389	-41.147	16337	16444	0	9688
-42.914	-42.734	16337	16458	0	9688
-44.284	-42.878	16339	16491	0	9688
-43.563	-41.868	16341	16541	0	9688
-46.484	-43.563	16343	16607	0	9688
-48.792	-48.828	16346	16675	0	9688
-47.746	-50.631	16348	16730	0	9688
-46.520	-53.300	16351	16778	0	9688
-42.445	-51.208	16354	16823	0	9688
-39.055	-48.035	16357	16857	0	9688
-39.704	-50.270	16359	16875	0	9688
-43.130	-51.605	16362	16883	0	9688
-47.674	-54.129	16365	16898	0	9688
-47.241	-51.280	16368	16922	0	9688
-43.238	-48.539	16372	16948	0	9688
-37.901	-41.796	16375	16968	0	9688
-32.744	-39.740	16378	16978	0	9688
-33.105	-41.255	16382	16983	0	9688
-38.478	-46.340	16384	16987	0	9688
-41.399	-50.343	16388	16989	0	9688
-41.003	-47.277	16391	16984	0	9688
-38.045	-40.786	16394	16967	0	9688
-35.052	-32.853	16397	16944	0	9688
-33.033	-27.263	16401	16916	0	9688
-33.393	-26.902	16403	16884	0	9688
-33.898	-29.931	16406	16850	0	9688
-35.413	-34.944	16409	16816	0	9688
-37.829	-37.649	16411	16774	0	9688
-40.858	-39.272	16412	16716	0	9688
-44.212	-40.534	16414	16641	0	9688
-46.881	-41.183	16414	16559	0	9688
-51.244	-45.871	16415	16479	0	9688
-55.283	-52.290	16415	16401	0	9688
-59.250	-58.024	16415	16327	0	9688
-59.430	-59.611	16415	16252	0	9688
-58.637	-57.627	16414	16180	0	9688
-54.634	-50.667	16414	16128	0	9688
-50.307	-48.143	16414	16101	0	9688
-52.038	-47.854	16414	16081	0	9688
-53.768	-51.316	16414	16051	0	9688
-54.562	-53.624	16413	16010	0	9688
-49.910	-48.720	16412	15969	0	9688
-42.806	-38.586	16411	15937	0	9688
-31.085	-27.119	16410	15905	0	9688
-27.804	-20.050	16408	15861	0	9688
-29.968	-22.899	16406	15810	0	9688
-38.118	-33.610	16404	15772	0	9688
-44.537	-42.409	16402	15757	0	9688
-46.881	-47.025	16401	15761	0	9688
-45.582	-46.159	16399	15777	0	9688
-44.861	-44.825	16398	15798	0	9688
-45.438	-43.996	16396	15818	0	9688
-51.641	-45.835	16395	15833	0	9688
-56.293	-48.684	16393	15825	0	9688
-61.017	-50.487	16390	15804	0	9688
-61.702	-49.261	16387	15794	0	9688
-60.296	-50.847	16385	15810	0	9688
-57.880	-48.936	16384	15843	0	9688
-57.952	-48.936	16384	15892	0	9688
-55.572	-46.232	16383	15950	0	9688
-56.437	-45.114	16382	16009	0	9688
-60.115	-50.920	16381	16068	0	9688
-61.414	-55.499	16381	16123	0	9688
-63.794	-59.286	16380	16170	0	9688
-61.089	-57.411	16380	16216	0	9688
-56.653	-53.119	16381	16280	0	9688
-53.552	-46.376	16381	16356	0	9688
-53.408	-46.015	16381	16413	0	9688
-51.533	-47.638	16381	16440	0	9688
-48.143	-44.356	16381	16450	0	9688
-41.940	-40.714	16380	16461	0	9688
-35.160	-33.033	16380	16481	0	9688
-32.239	-32.131	16381	16511	0	9688
-32.095	-32.492	16381	16539	0	9688
-30.545	-34.403	16381	16552	0	9688
-27.840	-34.403	16381	16555	0	9688
-22.827	-30.941	16381	16557	0	9688
-17.779	-26.902	16381	16558	0	9688
-18.464	-23.585	16381	16555	0	9688
-18.897	-23.476	16381	16550	0	9688
-24.089	-24.522	16381	16550	0	9688
-25.820	-27.443	16381	16556	0	9688
-23.585	-26.974	16382	16572	0	9688
-21.565	-27.191	16382	16589	0	9688
-18.824	-25.352	16382	16593	0	9688
-24.702	-29.751	16383	16585	0	9688
-31.554	-36.783	16383	16579	0	9688
-39.524	-43.707	16384	16578	0	9688
-41.760	-48.864	16384	16582	0	9688
-43.960	-51.821	16384	16589	0	9688
-46.195	-53.011	16385	16599	0	9688
-49.477	-58.709	16386	16601	0	9688
-52.903	-59.899	16386	16589	0	9688
-49.838	-58.096	16387	16574	0	9688
-42.770	-49.730	16387	16556	0	9688
-34.187	-42.157	16387	16531	0	9688
-29.931	-36.819	16386	16498	0	9688
-32.636	-38.839	16386	16459	0	9688
-36.567	-41.652	16385	16414	0	9688
-38.983	-43.527	16384	16368	0	9688
-36.531	-43.635	16384	16319	0	9688
-32.744	-42.120	16382	16265	0	9688
-29.318	-40.966	16379	16196	0	9688
-30.869	-40.209	16377	16124	0	9688
-28.489	-38.190	16375	16079	0	9688
-25.676	-32.816	16374	16069	0	9688
-18.644	-23.512	16373	16071	0	9688
-9.737	-17.598	16371	16065	0	9688
-7.609	-14.064	16369	16051	0	9688
-11.576	-19.690	16368	16040	0	9688
-15.867	-25.929	16366	16037	0	9688
-23.152	-31.266	16364	16026	0	9688
-26.289	-34.151	16362	16004	0	9688
-27.984	-35.052	16360	15989	0	9688
-29.571	-36.567	16358	15995	0	9688
-29.391	-39.993	16357	16020	0	9688
-30.400	-42.229	16356	16062	0	9688
-32.420	-44.681	16355	16111	0	9688
-35.377	-45.763	16354	16151	0	9688
-37.901	-48.936	16354	16187	0	9688
-42.914	-51.388	16353	16220	0	9688
-42.229	-52.182	16352	16248	0	9688
-38.695	-47.458	16352	16272	0	9688
-32.456	-44.068	16351	16299	0	9688
-29.102	-41.507	16350	16311	0	9688
-28.237	-40.714	16349	16304	0	9688
-29.318	-42.301	16348	16304	0	9688
-30.184	-44.032	16347	16319	0	9688
-28.814	-42.193	16346	16333	0	9688
-28.128	-40.966	16345	16341	0	9688
-27.660	-39.055	16344	16336	0	9688
-29.066	-37.865	16342	16317	0	9688
-27.876	-35.557	16341	16303	0	9688
-26.109	-31.626	16339	16304	0	9688
-26.578	-32.059	16339	16317	0	9688
-30.292	-34.439	16338	16337	0	9688
-37.000	-40.029	16337	16350	0	9688
-40.678	-43.563	16336	16354	0	9688
-39.091	-44.753	16336	16363	0	9688
-35.413	-44.104	16335	16383	0	9688
-32.492	-44.104	16335	16400	0	9688
-33.069	-45.546	16334	16405	0	9688
-33.069	-48.539	16333	16406	0	9688
-33.718	-46.592	16333	16421	0	9688
-32.853	-42.697	16333	16451	0	9688
-33.357	-39.235	16334	16482	0	9688
-32.816	-36.855	16334	16510	0	9688
-36.351	-38.983	16334	16532	0	9688
-37.793	-43.599	16334	16546	0	9688
-41.291	-52.038	16335	16564	0	9688
-45.041	-55.644	16336	16597	0	9688
-43.563	-54.778	16337	16637	0	9688
-39.344	-48.720	16339	16661	0	9688
-31.843	-38.658	16338	16648	0	9688
-25.640	-32.780	16338	16605	0	9688
-28.381	-34.403	16338	16571	0	9688
-34.511	-41.291	16338	16557	0	9688
-37.901	-46.376	16338	16546	0	9688
-35.124	-44.933	16338	16533	0	9688
-26.902	-37.613	16338	16522	0	9688
-19.690	-30.581	16338	16509	0	9688
-17.310	-26.578	16338	16500	0	9688
-24.234	-31.302	16339	16525	0	9688
-33.646	-41.832	16342	16576	0	9688
-43.491	-50.270	16342	16611	0	9688
-50.884	-56.942	16343	16605	0	9688
-54.959	-63.974	16343	16576	0	9688
-55.644	-65.957	16344	16553	0	9688
-51.821	-65.885	16345	16544	0	9688
-46.592	-60.981	16345	16544	0	9688
-40.570	-53.480	16346	16542	0	9688
-37.072	-45.835	16346	16534	0	9688
-37.108	-43.743	16347	16532	0	9688
-42.445	-48.972	16349	16541	0	9688
-46.484	-53.552	16350	16550	0	9688
-48.756	-57.952	16350	16541	0	9688
-45.114	-53.877	16350	16515	0	9688
-37.793	-47.025	16350	16480	0	9688
-30.545	-40.137	16350	16445	0	9688
-27.515	-37.757	16350	16414	0	9688
-30.292	-40.209	16350	16384	0	9688
-34.367	-44.861	16349	16345	0	9688
-34.800	-45.510	16348	16301	0	9688
-29.318	-40.606	16347	16266	0	9688
-21.132	-34.151	16347	16245	0	9688
-11.973	-26.542	16346	16231	0	9688
-7.753	-26.073	16345	16210	0	9688
-10.169	-29.354	16344	16187	0	9688
-13.920	-32.528	16343	16169	0	9688
-16.228	-34.295	16342	16159	0	9688
-19.798	-34.331	16342	16157	0	9688
-23.044	-34.980	16342	16168	0	9688
-28.056	-38.478	16341	16194	0	9688
-34.475	-42.806	16342	16227	0	9688
-34.331	-46.592	16342	16251	0	9688
-31.266	-44.861	16342	16271	0	9688
-27.299	-43.094	16342	16300	0	9688
-27.840	-42.986	16343	16335	0	9688
-32.420	-46.087	16343	16365	0	9688
-39.235	-51.208	16344	16384	0	9688
-41.255	-51.172	16344	16398	0	9688
-39.380	-51.605	16345	16424	0	9688
-34.944	-46.700	16346	16467	0	9688
-32.384	-45.366	16348	16525	0	9688
-33.429	-45.727	16350	16585	0	9688
-31.122	-44.609	16352	16633	0	9688
-29.571	-42.625	16354	16674	0	9688
-26.578	-38.731	16357	16711	0	9688
-24.558	-38.911	16359	16749	0	9688
-24.342	-40.245	16361	16788	0	9688
-23.801	-40.209	16364	16818	0	9688
-21.457	-36.891	16366	16837	0	9688
-17.093	-29.318	16369	16851	0	9688
-12.514	-24.306	16371	16858	0	9688
-11.360	-22.286	16374	16854	0	9688
-13.704	-24.955	16376	16839	0	9688
-14.677	-28.633	16377	16818	0	9688
-21.745	-30.617	16380	16802	0	9688
-25.676	-34.656	16382	16796	0	9688
-34.511	-40.101	16384	16790	0	9688
-38.911	-46.232	16385	16773	0	9688
-40.678	-49.405	16387	16747	0	9688
-35.701	-49.080	16388	16711	0	9688
-30.581	-44.068	16390	16661	0	9688
-27.191	-40.462	16390	16605	0	9688
-28.453	-40.750	16390	16551	0	9688
-34.511	-46.809	16391	16502	0	9688
-42.553	-55.391	16392	16455	0	9688
-45.510	-60.368	16392	16394	0	9688
-43.058	-58.673	16391	16321	0	9688
-39.993	-52.290	16390	16252	0	9688
-36.567	-43.455	16389	16200	0	9688
-36.603	-42.842	16388	16151	0	9688
-39.993	-42.950	16387	16088	0	9688
-39.091	-47.277	16385	16020	0	9688
-34.980	-46.484	16384	15968	0	9688
-28.886	-43.707	16383	15939	0	9688
-26.614	-40.281	16382	15930	0	9688
-23.657	-37.973	16381	15930	0	9688
-23.440	-36.387	16380	15931	0	9688
-21.962	-37.252	16379	15939	0	9688
-19.113	-38.370	16378	15962	0	9688
-24.630	-41.399	16378	15988	0	9688
-30.220	-44.464	16377	16007	0	9688
-36.495	-46.556	16376	16018	0	9688
-38.009	-45.655	16376	16032	0	9688
-35.593	-43.058	16375	16054	0	9688
-33.177	-38.622	16374	16079	0	9688
-30.833	-36.603	16373	16099	0	9688
-31.771	-35.882	16372	16110	0	9688
-34.403	-39.957	16370	16094	0	9688
-37.360	-46.087	16369	16067	0	9688
-41.363	-52.182	16367	16068	0	9688
-44.464	-58.060	16367	16098	0	9688
-46.736	-57.771	16366	16135	0	9688
-45.366	-55.499	16366	16176	0	9688
-42.770	-52.831	16366	16222	0	9688
-40.029	-49.585	16366	16271	0	9688
-36.026	-48.395	16366	16317	0	9688
-34.764	-51.424	16366	16360	0	9688
-35.413	-53.191	16367	16402	0	9688
-38.298	-53.300	16368	16441	0	9688
-39.993	-49.405	16367	16459	0	9688
-38.045	-45.330	16368	16467	0	9688
-32.023	-39.921	16368	16499	0	9688
-26.578	-37.865	16370	16556	0	9688
-22.827	-37.829	16370	16599	0	9688
-22.431	-38.226	16371	16606	0	9688
-26.938	-39.127	16371	16585	0	9688
-31.266	-40.822	16371	16563	0	9688
-34.115	-41.291	16371	16559	0	9688
-36.026	-44.969	16372	16571	0	9688
-36.928	-45.510	16372	16580	0	9688
-33.646	-44.969	16372	16574	0	9688
-33.177	-42.914	16373	16564	0	9688
-29.535	-42.265	16373	16561	0	9688
-29.679	-42.373	16374	16563	0	9688
-32.131	-44.681	16374	16563	0	9688
-35.954	-49.730	16375	16556	0	9688
-40.173	-56.004	16375	16546	0	9688
-43.455	-59.106	16376	16544	0	9688
-47.349	-61.666	16377	16555	0	9688
-48.936	-62.748	16378	16571	0	9688
-49.225	-60.981	16379	16576	0	9688
-50.198	-55.175	16379	16558	0	9688
-47.999	-53.480	16379	16522	0	9688
-44.356	-50.739	16379	16490	0	9688
-43.960	-51.785	16379	16471	0	9688
-40.606	-49.693	16380	16457	0	9688
-34.079	-46.268	16380	16439	0	9688
-28.777	-40.173	16379	16413	0	9688
-25.388	-32.636	16379	16382	0	9688
-23.837	-27.732	16378	16353	0	9688
-21.277	-26.073	16379	16348	0	9688
-18.897	-21.890	16379	16369	0	9688
-12.982	-18.356	16380	16384	0	9688
-11.323	-16.192	16380	16368	0	9688
-13.091	-16.336	16379	16332	0	9688
-19.221	-18.860	16378	16295	0	9688
-25.171	-22.899	16377	16270	0	9688
-27.804	-26.073	16377	16260	0	9688
-26.506	-27.010	16377	16259	0	9688
-27.660	-28.777	16376	16256	0	9688
-32.384	-32.167	16375	16247	0	9688
-41.075	-39.524	16375	16243	0	9688
-51.352	-47.674	16375	16246	0	9688
-59.358	-54.418	16374	16251	0	9688
-55.608	-53.191	16373	16245	0	9688
-48.287	-48.720	16373	16233	0	9688
-40.822	-42.409	16372	16224	0	9688
-38.586	-39.235	16372	16223	0	9688
-40.750	-41.760	16371	16223	0	9688
-46.484	-42.193	16370	16218	0	9688
-45.150	-41.507	16369	16212	0	9688
-41.255	-39.235	16368	16214	0	9688
-38.262	-36.675	16368	16228	0	9688
-35.810	-35.305	16368	16246	0	9688
-34.836	-34.151	16368	16263	0	9688
-29.968	-29.318	16367	16281	0	9688
-23.152	-24.414	16367	16296	0	9688
-18.572	-19.906	16366	16309	0	9688
-16.913	-21.060	16366	16320	0	9688
-23.801	-23.008	16366	16329	0	9688
-29.174	-25.388	16366	16334	0	9688
-31.554	-25.316	16365	16333	0	9688
-30.797	-23.621	16364	16322	0	9688
-28.922	-22.395	16363	16310	0	9688
-30.328	-25.460	16363	16323	0	9688
-33.610	-31.266	16363	16347	0	9688
-39.452	-37.901	16362	16348	0	9688
-43.996	-42.661	16360	16322	0	9688
-44.933	-45.041	16359	16288	0	9688
-43.960	-42.950	16358	16263	0	9688
-42.301	-40.281	16357	16251	0	9688
-40.750	-36.675	16356	16250	0	9688
-39.885	-36.459	16354	16251	0	9688
-41.183	-36.098	16354	16250	0	9688
-42.734	-39.199	16353	16255	0	9688
-46.520	-41.291	16352	16266	0	9688
-47.349	-40.173	16351	16276	0	9688
-46.051	-38.983	16351	16282	0	9688
-47.602	-35.882	16350	16286	0	9688
-46.159	-35.449	16349	16296	0	9688
-45.799	-35.485	16349	16313	0	9688
-43.347	-34.043	16349	16339	0	9688
-36.170	-28.489	16349	16369	0	9688
-26.902	-21.637	16348	16380	0	9688
-20.736	-13.487	16346	16351	0	9688
-20.195	-13.199	16345	16302	0	9688
-24.594	-15.903	16343	16278	0	9688
-25.027	-20.952	16342	16284	0	9688
-22.106	-20.195	16342	16295	0	9688
-13.307	-17.021	16341	16299	0	9688
-5.554	-10.746	16340	16296	0	9688
-4.364	-9.629	16339	16290	0	9688
-12.189	-16.516	16338	16294	0	9688
-27.660	-26.073	16337	16302	0	9688
-39.235	-35.377	16336	16314	0	9688
-45.474	-41.688	16336	16325	0	9688
-47.277	-42.914	16335	16325	0	9688
-44.681	-44.284	16334	16311	0	9688
-44.356	-46.448	16332	16300	0	9688
-46.195	-45.546	16332	16298	0	9688
-47.349	-43.130	16330	16291	0	9688
-43.202	-37.000	16328	16268	0	9688
-38.803	-31.879	16327	16239	0	9688
-34.800	-30.040	16325	16229	0	9688
-33.502	-32.348	16324	16245	0	9688
-35.124	-35.593	16324	16280	0	9688
-36.351	-37.252	16324	16313	0	9688
-35.521	-35.197	16323	16327	0	9688
-32.564	-31.915	16321	16321	0	9688
-32.853	-29.246	16320	16311	0	9688
-33.898	-28.597	16320	16313	0	9688
-36.819	-30.545	16319	16332	0	9688
-37.144	-30.905	16319	16358	0	9688
-35.088	-29.607	16319	16384	0	9688
-29.066	-23.729	16319	16420	0	9688
-18.969	-16.949	16320	16468	0	9688
-14.353	-12.982	16321	16516	0	9688
-12.081	-9.484	16320	16527	0	9688
-14.064	-9.448	16319	16483	0	9688
-18.860	-9.232	16317	16422	0	9688
-18.788	-9.196	16317	16394	0	9688
-19.329	-10.025	16316	16405	0	9688
-21.024	-11.973	16316	16428	0	9688
-25.388	-18.464	16317	16450	0	9688
-33.141	-23.873	16317	16480	0	9688
-37.144	-29.931	16318	16522	0	9688
-36.711	-35.088	16320	16579	0	9688
-35.954	-37.036	16323	16658	0	9688
-36.134	-38.334	16326	16758	0	9688
-38.370	-40.642	16330	16849	0	9688
-41.219	-42.553	16333	16907	0	9688
-42.842	-43.166	16335	16935	0	9688
-40.029	-42.120	16339	16959	0	9688
-33.970	-33.754	16342	16991	0	9688
-27.083	-26.614	16345	17020	0	9688
-19.582	-18.788	16347	17032	0	9688
-18.428	-15.795	16350	17026	0	9688
-18.464	-15.146	16353	17020	0	9688
-22.142	-19.077	16356	17022	0	9688
-26.253	-20.736	16360	17033	0	9688
-26.794	-24.017	16363	17044	0	9688
-28.741	-26.650	16367	17042	0	9688
-29.174	-29.066	16370	17033	1	2428
-30.797	-29.354	16374	17021	0	2428
-32.600	-28.958	16377	17009	0	2428
-32.420	-26.722	16381	16997	0	2428
-31.085	-26.686	16384	16977	0	2428
-29.354	-24.306	16386	16949	0	2428
-25.496	-22.719	16389	16917	0	2428
-24.666	-19.582	16392	16889	0	2428
-26.145	-15.471	16395	16857	0	2428
-25.676	-15.579	16397	16809	0	2428
-27.876	-16.552	16399	16744	0	2428
-27.299	-18.536	16401	16675	0	2428
-31.374	-24.594	16402	16609	0	2428
-35.449	-30.833	16403	16545	0	2428
-45.438	-38.406	16404	16480	0	2428
-51.605	-44.104	16405	16418	0	2428
-52.542	-44.861	16406	16367	0	2428
-52.326	-42.842	16407	16317	0	2428
-47.746	-41.255	16407	16273	0	2428
-46.809	-39.632	16409	16259	0	2428
-47.854	-40.678	16411	16271	0	2428
-48.503	-40.894	16412	16267	0	2428
-49.946	-39.272	16412	16227	0	2428
-49.585	-40.101	16412	16166	0	2428
-47.422	-40.101	16411	16112	0	2428
-44.717	-39.488	16411	16071	0	2428
-36.675	-33.898	16411	16043	0	2428
-31.879	-28.705	16411	16024	0	2428
-27.371	-23.549	16410	16008	0	2428
-28.381	-23.765	16410	15991	0	2428
-31.590	-26.361	16409	15975	0	2428
-34.187	-28.525	16408	15966	0	2428
-33.970	-27.876	16408	15961	0	2428
-31.987	-25.243	16407	15952	0	2428
-31.122	-22.611	16406	15940	0	2428
-30.617	-22.539	16405	15933	0	2428
-34.115	-27.299	16404	15933	0	2428
-39.127	-32.023	16403	15944	0	2428
-44.464	-35.557	16402	15960	0	2428
-48.107	-38.514	16401	15976	0	2428
-51.424	-38.118	16401	15997	0	2428
-48.756	-37.757	16401	16030	0	2428
-48.323	-36.891	16400	16068	0	2428
-45.438	-38.334	16400	16100	0	2428
-42.842	-38.045	16399	16114	0	2428
-43.743	-38.875	16397	16105	0	2428
-45.330	-39.885	16396	16080	0	2428
-47.674	-39.452	16394	16064	0	2428
-48.792	-42.806	16392	16062	0	2428
-52.074	-42.950	16391	16069	0	2428
-52.975	-45.330	16390	16082	0	2428
-54.562	-46.412	16388	16087	0	2428
-53.300	-45.907	16387	16081	0	2428
-49.441	-43.202	16384	16074	0	2428
-42.337	-39.488	16384	16070	0	2428
-37.036	-35.557	16382	16069	0	2428
-36.098	-32.384	16380	16079	0	2428
-38.695	-31.049	16379	16113	0	2428
-39.308	-32.095	16379	16179	0	2428
-37.721	-32.059	16380	16260	0	2428
-33.682	-30.653	16380	16330	0	2428
-27.804	-28.814	16381	16380	0	2428
-23.476	-25.640	16381	16415	0	2428
-24.522	-24.811	16381	16450	0	2428
-27.624	-27.155	16382	16493	0	2428
-33.682	-29.679	16382	16540	0	2428
-37.324	-33.826	16383	16573	0	2428
-41.075	-35.954	16383	16582	0	2428
-42.625	-39.127	16383	16578	0	2428
-44.825	-40.606	16383	16580	0	2428
-47.422	-45.041	16384	16595	0	2428
-51.785	-47.818	16384	16614	0	2428
-52.182	-50.811	16384	16621	0	2428
-51.280	-49.116	16384	16618	0	2428
-50.884	-46.051	16384	16615	0	2428
-46.412	-43.130	16385	16607	0	2428
-42.950	-40.317	16385	16589	0	2428
-38.478	-38.514	16384	16566	0	2428
-35.774	-37.613	16384	16547	0	2428
-36.531	-34.836	16384	16533	0	2428
-38.478	-34.475	16385	16523	0	2428
-38.298	-29.607	16385	16514	0	2428
-31.338	-22.250	16385	16502	0	2428
-19.690	-12.045	16385	16490	0	2428
-9.737	-3.390	16385	16476	0	2428
-5.878	-1.298	16385	16460	0	2428
-10.530	-8.006	16385	16443	0	2428
-18.933	-15.326	16384	16425	0	2428
-28.669	-22.791	16384	16408	0	2428
-34.836	-24.811	16384	16384	0	2428
-38.839	-28.201	16384	16347	0	2428
-42.157	-33.321	16382	16302	0	2428
-43.274	-38.767	16381	16282	0	2428
-45.114	-43.419	16381	16290	0	2428
-46.304	-44.645	16381	16304	0	2428
-47.710	-45.150	16381	16309	0	2428
-47.854	-45.078	16380	16298	0	2428
-49.080	-44.897	16380	16281	0	2428
-49.080	-44.140	16379	16270	0	2428
-46.015	-43.202	16378	16268	0	2428
-46.051	-42.553	16378	16267	0	2428
-43.419	-43.238	16377	16259	0	2428
-40.534	-44.825	16376	16246	0	2428
-40.245	-46.232	16375	16237	0	2428
-44.969	-47.962	16375	16244	0	2428
-49.008	-47.025	16374	16265	0	2428
-50.884	-46.051	16374	16282	0	2428
-49.369	-42.806	16374	16294	0	2428
-37.360	-33.610	16374	16307	0	2428
-19.870	-23.332	16374	16323	0	2428
-5.842	-12.261	16374	16341	0	2428
0.036	-11.251	16374	16362	0	2428
-9.016	-16.336	16374	16385	0	2428
-21.673	-28.669	16375	16405	0	2428
-33.646	-36.495	16374	16414	0	2428
-37.252	-39.199	16374	16419	0	2428
-34.692	-38.442	16374	16420	0	2428
-31.662	-35.160	16374	16414	0	2428
-34.295	-37.685	16372	16386	0	2428
-37.577	-41.183	16371	16333	0	2428
-41.724	-42.265	16369	16281	0	2428
-42.301	-42.697	16368	16261	0	2428
-43.310	-43.058	16368	16274	0	2428
-44.969	-44.717	16367	16290	0	2428
-46.159	-48.179	16366	16284	0	2428
-47.890	-50.811	16365	16262	0	2428
-46.159	-51.641	16363	16237	0	2428
-42.229	-46.232	16362	16214	0	2428
-38.586	-36.855	16360	16190	0	2428
-33.249	-27.696	16358	16163	0	2428
-30.797	-22.286	16357	16140	0	2428
-28.777	-22.719	16355	16128	0	2428
-25.676	-22.503	16354	16127	0	2428
-22.142	-22.358	16352	16136	0	2428
-18.392	-18.824	16351	16149	0	2428
-16.913	-15.975	16350	16161	0	2428
-24.270	-20.014	16349	16179	0	2428
-32.780	-30.400	16348	16208	0	2428
-44.320	-44.284	16348	16247	0	2428
-53.516	-54.093	16348	16288	0	2428
-53.552	-55.572	16347	16321	0	2428
-50.090	-51.713	16347	16348	0	2428
-44.104	-44.681	16347	16371	0	2428
-40.534	-39.452	16347	16390	0	2428
-39.740	-38.370	16347	16410	0	2428
-43.058	-38.983	16346	16433	0	2428
-45.546	-42.625	16346	16441	0	2428
-47.349	-43.310	16344	16412	0	2428
-46.736	-44.789	16342	16366	0	2428
-42.517	-43.310	16342	16346	0	2428
-37.036	-39.308	16342	16373	0	2428
-32.239	-35.557	16342	16425	0	2428
-30.112	-32.492	16343	16466	0	2428
-28.345	-30.004	16342	16472	0	2428
-23.981	-27.227	16342	16461	0	2428
-15.867	-22.358	16342	16455	0	2428
-5.373	-15.651	16342	16458	0	2428
-1.767	-10.999	16341	16460	0	2428
-4.508	-9.448	16340	16447	0	2428
-16.769	-13.595	16339	16424	0	2428
-27.984	-19.690	16339	16416	0	2428
-34.403	-26.650	16339	16429	0	2428
-35.413	-29.210	16338	16430	0	2428
-31.915	-28.489	16338	16402	0	2428
-26.433	-24.955	16336	16360	0	2428
-23.945	-20.483	16334	16324	0	2428
-21.601	-17.779	16333	16304	0	2428
-21.313	-19.834	16332	16296	0	2428
-23.152	-21.781	16331	16290	0	2428
-20.519	-26.289	16331	16280	0	2428
-20.159	-29.751	16329	16261	0	2428
-22.791	-31.518	16327	16224	0	2428
-25.856	-36.062	16325	16179	0	2428
-32.889	-37.757	16323	16155	0	2428
-36.747	-43.274	16321	16155	0	2428
-35.918	-44.068	16320	16161	0	2428
-28.561	-39.524	16319	16174	0	2428
-20.411	-32.420	16318	16196	0	2428
-12.586	-25.604	16318	16220	0	2428
-12.045	-23.188	16317	16243	0	2428
-16.372	-28.777	16316	16261	0	2428
-23.693	-38.406	16316	16279	0	2428
-32.528	-45.438	16315	16288	0	2428
-39.163	-47.674	16314	16288	0	2428
-41.868	-44.933	16313	16290	0	2428
-42.337	-42.409	16312	16312	0	2428
-43.419	-43.022	16312	16350	0	2428
-40.930	-43.563	16312	16384	0	2428
-39.199	-45.330	16312	16413	0	2428
-38.190	-45.294	16314	16469	0	2428
-40.281	-46.809	16315	16551	0	2428
-42.625	-50.343	16317	16633	0	2428
-45.114	-52.254	16320	16702	0	2428
-47.782	-55.175	16322	16762	0	2428
-47.097	-53.985	16325	16820	0	2428
-49.838	-53.480	16328	16880	0	2428
-50.090	-54.165	16331	16938	0	2428
-51.424	-54.778	16334	16983	0	2428
-50.559	-55.499	16336	17011	0	2428
-46.520	-50.992	16340	17034	0	2428
-43.960	-49.405	16343	17065	0	2428
-42.950	-47.710	16347	17105	0	2428
-40.930	-43.996	16351	17146	0	2428
-37.757	-45.114	16356	17174	0	2428
-34.187	-42.697	16359	17186	0	2428
-30.545	-40.029	16363	17186	0	2428
-30.076	-37.072	16367	17174	0	2428
-31.482	-35.882	16370	17153	0	2428
-37.541	-36.603	16374	17134	0	2428
-42.445	-39.344	16378	17120	0	2428
-46.268	-40.137	16382	17104	1	840
-44.969	-36.531	16385	17087	0	840
-38.478	-29.102	16388	17065	0	840
-28.669	-20.700	16392	17030	0	840
-17.562	-15.074	16395	16974	0	840
-13.415	-13.956	16396	16889	0	840
-13.920	-19.618	16397	16783	0	840
-23.476	-27.083	16398	16672	0	840
-34.006	-37.937	16398	16565	0	840
-42.265	-45.655	16399	16470	0	840
-49.766	-49.910	16399	16386	0	840
-50.811	-53.372	16399	16300	0	840
-52.470	-53.300	16398	16209	0	840
-52.795	-54.850	16398	16132	0	840
-51.605	-53.913	16398	16078	0	840
-46.520	-49.044	16397	16043	0	840
-41.652	-42.986	16398	16018	0	840
-40.173	-43.347	16397	15997	0	840
-45.114	-46.051	16398	15986	0	840
-49.802	-50.595	16398	15986	0	840
-52.723	-54.129	16398	15988	0	840
-49.982	-49.405	16398	15991	0	840
-41.003	-39.957	16398	15996	0	840
-33.682	-34.151	16398	16004	0	840
-32.997	-30.797	16398	16019	0	840
-35.124	-32.889	16399	16046	0	840
-38.586	-35.233	16399	16077	0	840
-39.127	-34.800	16399	16094	0	840
-39.812	-33.357	16399	16076	0	840
-40.389	-33.646	16397	16033	0	840
-46.448	-37.252	16396	16006	0	840
-51.749	-41.724	16395	16011	0	840
-53.732	-43.491	16394	16025	0	840
-49.585	-38.911	16394	16040	0	840
-41.363	-31.807	16393	16061	0	840
-36.928	-29.607	16393	16081	0	840
-35.449	-30.292	16393	16097	0	840
-38.767	-35.954	16393	16125	0	840
-41.940	-39.704	16393	16170	0	840
-43.491	-42.517	16393	16209	0	840
-43.094	-40.750	16393	16220	0	840
-43.166	-41.868	16391	16212	0	840
-43.527	-44.140	16391	16210	0	840
-45.222	-47.025	16390	16218	0	840
-44.861	-50.270	16389	16223	0	840
-41.039	-46.628	16388	16210	0	840
-36.711	-39.921	16387	16186	0	840
-28.417	-31.518	16385	16175	0	840
-25.207	-25.929	16385	16188	0	840
-25.099	-26.686	16384	16217	0	840
-22.611	-29.823	16384	16250	0	840
-18.969	-30.436	16384	16279	0	840
-16.733	-31.194	16384	16316	0	840
-16.012	-29.679	16385	16365	0	840
-22.286	-31.085	16386	16414	0	840
-25.820	-31.158	16387	16453	0	840
-24.775	-28.309	16387	16479	0	840
-19.690	-22.575	16387	16498	0	840
-10.458	-14.858	16388	16518	0	840
-12.586	-14.641	16389	16546	0	840
-18.644	-16.661	16390	16576	0	840
-25.135	-21.745	16391	16599	0	840
-24.486	-20.844	16391	16600	0	840
-20.267	-16.661	16392	16587	0	840
-16.372	-11.107	16392	16576	0	840
-17.779	-13.559	16393	16576	0	840
-28.273	-21.132	16393	16572	0	840
-39.308	-32.348	16393	16565	0	840
-44.861	-37.144	16394	16557	0	840
-44.212	-34.475	16394	16545	0	840
-36.639	-28.345	16395	16537	0	840
-33.141	-22.178	16396	16553	0	840
-31.122	-20.231	16397	16576	0	840
-33.285	-23.440	16397	16568	0	840
-35.990	-24.955	16397	16524	0	840
-37.757	-25.893	16396	16468	0	840
-36.675	-27.732	16396	16416	0	840
-34.259	-26.830	16395	16376	0	840
-30.292	-23.693	16394	16339	0	840
-22.539	-19.834	16393	16294	0	840
-16.444	-16.084	16391	16242	0	840
-17.418	-15.362	16390	16213	0	840
-22.250	-19.726	16390	16218	0	840
-31.590	-26.325	16390	16241	0	840
-33.574	-28.453	16390	16261	0	840
-28.273	-25.893	16390	16275	0	840
-18.067	-19.546	16390	16289	0	840
-12.730	-17.346	16390	16307	0	840
-12.658	-18.572	16391	16324	0	840
-21.998	-25.676	16391	16339	0	840
-33.862	-32.780	16391	16352	0	840
-40.353	-36.026	16391	16362	0	840
-40.281	-35.197	16392	16376	0	840
-34.944	-31.807	16392	16396	0	840
-27.912	-27.299	16393	16419	0	840
-25.496	-25.856	16393	16431	0	840
-24.414	-26.073	16393	16436	0	840
-28.164	-24.991	16394	16438	0	840
-28.020	-23.873	16394	16437	0	840
-29.354	-21.926	16394	16433	0	840
-31.338	-25.568	16394	16425	0	840
-36.134	-30.364	16394	16418	0	840
-39.632	-36.567	16394	16408	0	840
-37.541	-37.685	16393	16387	0	840
-35.413	-31.879	16392	16343	0	840
-30.797	-24.991	16389	16259	0	840
-29.968	-22.575	16386	16155	0	840
-31.194	-24.270	16384	16070	0	840
-30.112	-24.414	16381	16007	0	840
-27.515	-22.611	16378	15955	0	840
-23.224	-18.428	16375	15932	0	840
-19.906	-15.435	16374	15945	0	840
-20.952	-17.346	16373	15970	0	840
-22.322	-19.546	16371	15991	0	840
-22.575	-23.152	16370	16015	0	840
-23.621	-21.601	16369	16048	0	840
-21.529	-21.168	16369	16097	0	840
-20.808	-20.339	16369	16157	0	840
-18.320	-16.552	16368	16213	0	840
-12.982	-14.245	16368	16256	0	840
-7.032	-10.169	16368	16292	0	840
-4.832	-6.852	16368	16335	0	840
-6.635	-7.501	16368	16386	0	840
-12.802	-12.586	16369	16442	0	840
-17.743	-17.057	16370	16490	0	840
-22.611	-21.601	16371	16531	0	840
-23.008	-23.476	16372	16575	0	840
-27.119	-27.948	16373	16619	0	840
-35.521	-34.223	16375	16654	0	840
-45.438	-42.842	16375	16672	0	840
-49.549	-51.388	16376	16677	0	840
-51.713	-52.434	16376	16677	0	840
-46.989	-51.533	16377	16669	0	840
-46.304	-48.792	16377	16654	0	840
-49.297	-50.126	16377	16638	0	840
-53.552	-50.920	16377	16609	0	840
-57.627	-54.129	16376	16545	0	840
-54.057	-51.821	16374	16453	0	840
-51.208	-53.480	16372	16376	0	840
-46.520	-51.857	16371	16325	0	840
-46.376	-52.687	16369	16290	0	840
-46.881	-49.225	16368	16257	0	840
-44.212	-44.897	16366	16217	0	840
-41.940	-41.183	16364	16181	0	840
-37.793	-39.019	16363	16175	0	840
-37.324	-40.678	16363	16194	0	840
-39.199	-41.399	16363	16216	0	840
-40.462	-40.281	16362	16235	0	840
-38.334	-34.908	16362	16245	0	840
-34.728	-27.948	16361	16253	0	840
-31.266	-24.847	16361	16268	0	840
-30.472	-26.397	16361	16291	0	840
-31.807	-30.220	16360	16309	0	840
-32.600	-33.357	16359	16310	0	840
-34.800	-37.000	16359	16307	0	840
-38.875	-38.550	16359	16317	0	840
-46.772	-45.294	16359	16341	0	840
-51.893	-52.975	16359	16370	0	840
-54.778	-55.572	16359	16392	0	840
-48.467	-53.624	16359	16411	0	840
-41.363	-43.887	16360	16433	0	840
-35.737	-36.134	16360	16458	0	840
-33.754	-32.059	16361	16486	0	840
-34.800	-32.528	16362	16509	0	840
-34.223	-35.305	16361	16505	0	840
-30.653	-34.980	16360	16474	0	840
-29.246	-35.269	16360	16439	0	840
-27.624	-33.574	16359	16416	0	840
-31.266	-34.115	16358	16399	0	840
-35.305	-36.098	16358	16385	0	840
-34.079	-37.829	16357	16376	0	840
-29.643	-35.737	16357	16362	0	840
-20.664	-28.777	16356	16341	0	840
-11.720	-19.401	16354	16319	0	840
-8.114	-14.353	16354	16300	0	840
-7.465	-11.828	16353	16292	0	840
-8.907	-12.333	16352	16278	0	840
-6.491	-14.245	16351	16261	0	840
-7.645	-13.091	16350	16260	0	840
-6.311	-14.641	16350	16281	0	840
-11.071	-17.129	16350	16311	0	840
-16.769	-21.818	16351	16342	0	840
-25.388	-25.207	16351	16372	0	840
-29.463	-28.994	16351	16400	0	840
-31.302	-29.427	16352	16439	0	840
-31.410	-30.545	16354	16490	0	840
-30.112	-30.436	16355	16543	0	840
-31.013	-29.787	16357	16587	0	840
-32.780	-30.725	16358	16627	0	840
-36.928	-34.800	16361	16675	0	840
-40.678	-38.045	16363	16730	0	840
-42.806	-40.462	16366	16788	0	840
-43.202	-39.344	16369	16838	0	840
-45.546	-36.531	16372	16878	0	840
-42.265	-33.213	16375	16913	0	840
-40.822	-32.348	16378	16945	0	840
-40.281	-34.656	16381	16974	0	840
-39.993	-37.000	16384	16993	0	840
-39.272	-38.334	16386	16987	0	840
-37.829	-37.036	16388	16951	0	840
-35.629	-34.331	16390	16908	0	840
-34.367	-32.961	16392	16874	0	840
-37.505	-34.511	16394	16847	0	840
-41.363	-38.478	16396	16822	0	840
-45.402	-39.704	16398	16798	0	840
-44.825	-39.957	16400	16773	0	840
-40.894	-37.000	16402	16750	0	840
-38.334	-33.826	16405	16745	0	840
-37.144	-33.069	16408	16759	0	840
-39.776	-34.223	16411	16766	0	840
-45.330	-37.432	16413	16749	0	840
-48.431	-40.570	16415	16709	0	840
-47.854	-42.517	16417	16660	0	840
-44.933	-40.498	16418	16614	0	840
-38.262	-35.124	16420	16575	0	840
-34.223	-30.617	16420	16531	0	840
-36.891	-30.364	16421	16474	0	840
-44.464	-33.321	16422	16415	0	840
-52.218	-39.235	16422	16370	0	840
-55.067	-41.291	16423	16335	0	840
-49.225	-37.577	16423	16296	0	840
-38.658	-30.400	16423	16248	0	840
-28.561	-24.847	16423	16201	0	840
-24.666	-22.611	16423	16159	0	840
-24.919	-21.673	16422	16124	0	840
-26.938	-22.575	16422	16093	0	840
-26.830	-21.277	16421	16063	0	840
-24.270	-17.490	16420	16031	0	840
-21.457	-18.428	16420	16003	0	840
-22.358	-21.060	16419	15985	0	840
-23.152	-27.083	16418	15982	0	840
-27.227	-32.023	16418	15992	0	840
-31.699	-34.944	16417	16003	0	840
-32.023	-33.790	16417	16002	0	840
-30.004	-27.768	16415	15983	0	840
-28.669	-25.460	16414	15960	0	840
-28.886	-28.453	16412	15947	0	840
-31.735	-33.826	16411	15947	0	840
-35.593	-40.678	16409	15952	0	840
-38.586	-44.969	16408	15950	0	840
-38.839	-42.337	16407	15947	0	840
-38.767	-39.380	16405	15969	0	840
-41.435	-38.082	16405	16010	0	840
-43.310	-39.885	16404	16042	0	840
-44.428	-40.822	16402	16054	0	840
-42.445	-38.947	16401	16048	0	840
-38.839	-35.557	16399	16039	0	840
-33.177	-29.751	16397	16039	0	840
-29.679	-26.037	16395	16046	0	840
-26.866	-23.332	16394	16045	0	840
-27.371	-22.142	16391	16032	0	840
-27.191	-22.899	16389	16023	0	840
-28.741	-22.539	16387	16030	0	840
-28.092	-23.152	16386	16054	0	840
-29.066	-25.568	16384	16087	0	840
-30.328	-25.929	16384	16116	0	840
-31.374	-26.073	16383	16144	0	840
-31.735	-26.974	16382	16176	0	840
-32.203	-26.073	16381	16219	0	840
-33.754	-27.227	16381	16268	0	840
-37.901	-29.571	16380	16308	0	840
-44.681	-32.708	16380	16339	0	840
-48.035	-36.242	16379	16370	0	840
-45.510	-37.973	16379	16404	0	840
-44.068	-38.298	16380	16441	0	840
-39.704	-39.055	16379	16478	0	840
-41.616	-39.957	16379	16496	0	840
-44.717	-39.416	16378	16480	0	840
-43.419	-37.721	16376	16448	0	840
-39.524	-33.321	16375	16427	0	840
-32.780	-29.751	16374	16421	0	840
-26.506	-22.935	16373	16424	0	840
-23.080	-22.322	16373	16430	0	840
-23.476	-22.034	16372	16427	0	840
-24.053	-20.627	16371	16412	0	840
-20.988	-22.972	16370	16402	0	840
-22.503	-23.801	16369	16402	0	840
-22.467	-26.830	16369	16410	0	840
-26.217	-31.230	16368	16422	0	840
-32.239	-34.187	16368	16432	0	840
-34.583	-34.115	16368	16443	0	840
-34.367	-33.033	16368	16461	0	840
-32.853	-32.059	16368	16486	0	840
-31.915	-34.692	16369	16507	0	840
-33.718	-39.127	16369	16513	0	840
-36.278	-39.308	16369	16511	0	840
-36.242	-35.665	16369	16514	0	840
-35.665	-29.859	16369	16525	0	840
-34.547	-27.119	16369	16542	0	840
-34.656	-28.705	16370	16552	0	840
-33.574	-29.787	16370	16552	0	840
-31.915	-29.282	16370	16548	0	840
-29.715	-26.650	16371	16546	0	840
-32.420	-25.460	16371	16548	0	840
-39.524	-28.958	16371	16544	0	840
-47.602	-34.944	16371	16522	0	840
-52.831	-39.668	16370	16488	0	840
-48.395	-38.370	16370	16462	0	840
-39.885	-34.079	16369	16448	0	840
-31.194	-27.335	16369	16435	0	840
-26.109	-22.539	16369	16424	0	840
-27.010	-23.909	16369	16412	0	840
-31.446	-26.902	16369	16394	0	840
-32.997	-33.033	16368	16374	0	840
-33.105	-34.331	16367	16358	0	840
-31.049	-33.033	16367	16351	0	840
-28.777	-29.931	16367	16348	0	840
-29.174	-29.715	16366	16337	0	840
-27.948	-30.040	16365	16315	0	840
-28.741	-31.194	16365	16300	0	840
-30.436	-33.862	16364	16295	0	840
-32.600	-35.882	16364	16296	0	840
-38.334	-39.957	16363	16296	0	840
-43.779	-42.517	16363	16290	0	840
-43.779	-44.609	16362	16284	0	840
-41.111	-42.842	16361	16285	0	840
-38.298	-41.471	16361	16294	0	840
-35.016	-36.819	16361	16303	0	840
-32.889	-34.800	16360	16305	0	840
-34.295	-31.122	16360	16300	0	840
-32.961	-28.669	16359	16284	0	840
-34.872	-31.194	16358	16266	0	840
-37.577	-36.567	16357	16266	0	840
-39.163	-42.517	16357	16279	0	840
-41.435	-45.943	16357	16296	0	840
-41.399	-47.025	16357	16317	0	840
-38.695	-42.589	16357	16346	0	840
-32.889	-35.810	16357	16381	0	840
-27.191	-30.184	16358	16417	0	840
-22.395	-27.155	16359	16454	0	840
-20.087	-25.856	16360	16482	0	840
-25.171	-27.804	16360	16490	0	840
-29.823	-29.859	16359	16471	0	840
-32.420	-30.689	16359	16437	0	840
-31.302	-29.246	16358	16414	0	840
-27.479	-27.515	16357	16400	0	840
-26.181	-29.499	16356	16378	0	840
-27.732	-33.574	16355	16347	0	840
-34.403	-38.009	16354	16315	0	840
-39.163	-44.969	16352	16269	0	840
-42.589	-48.828	16350	16214	0	840
-44.356	-49.982	16348	16181	0	840
-45.691	-53.155	16347	16175	0	840
-48.179	-53.191	16346	16185	0	840
-52.182	-54.886	16346	16211	0	840
-50.739	-52.110	16346	16250	0	840
-49.080	-50.090	16346	16290	0	840
-44.104	-44.068	16347	16326	0	840
-39.199	-39.524	16347	16358	0	840
-37.829	-36.928	16346	16372	0	840
-36.351	-37.072	16346	16374	0	840
-35.269	-34.872	16346	16385	0	840
-29.571	-32.961	16346	16406	0	840
-19.834	-24.017	16347	16430	0	840
-13.127	-18.500	16348	16457	0	840
-8.655	-16.480	16348	16493	0	840
-10.963	-17.021	16350	16533	0	840
-19.149	-22.611	16351	16564	0	840
-25.604	-25.496	16351	16567	0	840
-30.725	-29.318	16351	16548	0	840
-34.944	-30.977	16351	16535	0	840
-35.305	-33.285	16351	16539	0	840
-35.521	-35.341	16352	16544	0	840
-35.269	-36.603	16352	16548	0	840
-34.908	-37.865	16353	16553	0	840
-37.865	-40.894	16354	16556	0	840
-42.120	-45.114	16354	16555	0	840
-48.900	-47.854	16355	16548	0	840
-55.608	-54.562	16355	16529	0	840
-58.745	-58.457	16354	16496	0	840
-61.197	-61.810	16354	16449	0	840
-60.115	-62.279	16353	16398	0	840
-58.240	-59.863	16352	16360	0	840
-56.906	-57.447	16351	16341	0	840
-57.303	-57.158	16351	16336	0	840
-55.391	-55.896	16351	16333	0	840
-54.129	-55.175	16351	16325	0	840
-49.585	-52.182	16350	16319	0	840
-49.477	-50.739	16350	16317	0	840
-47.674	-48.792	16350	16321	0	840
-50.559	-49.730	16350	16330	0	840
-48.972	-48.215	16350	16338	0	840
-45.258	-44.825	16351	16344	0	840
-42.553	-42.012	16351	16360	0	840
-38.947	-40.209	16352	16389	0	840
-36.711	-38.082	16353	16425	0	840
-35.557	-34.728	16354	16453	0	840
-32.456	-31.554	16355	16473	0	840
-30.148	-26.830	16356	16492	0	840
-29.102	-24.811	16356	16505	0	840
-29.787	-24.270	16357	16504	0	840
-25.893	-26.866	16357	16498	0	840
-23.621	-28.092	16358	16502	0	840
-24.053	-31.987	16359	16518	0	840
-27.191	-37.036	16360	16544	0	840
-34.800	-42.265	16362	16574	0	840
-38.839	-43.707	16364	16607	0	840
-36.675	-40.137	16366	16639	0	840
-27.083	-34.475	16368	16669	0	840
-19.798	-27.155	16370	16696	0	840
-16.408	-26.866	16373	16723	0	840
-17.202	-31.590	16375	16747	0	840
-22.575	-37.721	16378	16768	0	840
-27.155	-40.750	16380	16782	0	840
-31.338	-40.642	16382	16782	0	840
-32.853	-39.235	16384	16772	0	840
-32.889	-37.072	16386	16779	0	840
-31.122	-37.252	16389	16805	0	840
-27.263	-37.000	16392	16831	0	840
-23.404	-35.737	16395	16841	0	840
-22.034	-34.800	16397	16832	0	840
-21.818	-30.941	16400	16812	0	840
-19.005	-27.912	16402	16791	0	840
-18.211	-24.630	16404	16775	0	840
-14.172	-23.440	16407	16757	0	840
-14.677	-24.739	16408	16733	0	840
-14.533	-27.732	16411	16706	0	840
-20.014	-29.787	16413	16681	0	840
-20.050	-31.518	16415	16658	0	840
-22.322	-31.049	16417	16634	0	840
-21.457	-32.961	16418	16600	0	840
-21.673	-34.187	16419	16558	0	840
-23.080	-33.682	16420	16516	0	840
-22.034	-32.961	16421	16475	0	840
-25.207	-31.590	16422	16432	0	840
-28.669	-32.889	16423	16385	0	840
-36.819	-39.308	16423	16322	0	840
-50.992	-47.133	16421	16241	0	840
-61.233	-58.637	16421	16169	0	840
-67.328	-62.207	16420	16118	0	840
-67.184	-62.027	16419	16076	0	840
-60.981	-57.699	16418	16035	0	840
-48.431	-47.133	16417	16000	0	840
-39.199	-37.505	16416	15972	0	840
-31.987	-31.915	16416	15956	0	840
-32.095	-27.515	16416	15969	0	840
-34.151	-27.551	16416	16013	0	840
-38.334	-29.859	16417	16060	0	840
-41.003	-28.814	16417	16081	0	840
-36.928	-28.092	16416	16075	0	840
-34.151	-26.037	16415	16060	0	840
-33.177	-25.568	16414	16046	0	840
-34.872	-29.751	16412	16026	0	840
-39.199	-34.692	16410	15992	0	840
-41.111	-35.882	16408	15952	0	840
-37.613	-32.059	16406	15925	0	840
-27.732	-24.486	16404	15921	0	840
-17.166	-14.966	16403	15934	0	840
-9.052	-10.206	16402	15956	0	840
-5.590	-6.239	16401	15977	0	840
-3.534	-1.947	16399	16003	0	840
-4.003	2.200	16399	16035	0	840
-6.203	2.452	16398	16076	0	840
-12.622	-2.236	16398	16124	0	840
-17.959	-9.268	16398	16171	0	840
-23.476	-14.028	16397	16213	0	840
-22.863	-16.192	16397	16257	0	840
-21.962	-14.858	16397	16302	0	840
-23.224	-18.031	16398	16350	0	840
-25.568	-21.673	16399	16394	0	840
-30.617	-30.220	16398	16414	0	840
-36.026	-36.711	16397	16398	0	840
-41.291	-44.464	16395	16370	0	840
-45.222	-48.684	16394	16346	0	840
-47.494	-51.172	16393	16331	0	840
-45.041	-47.530	16392	16325	0	840
-38.731	-41.111	16391	16328	0	840
-34.367	-34.620	16390	16338	0	840
-31.590	-30.977	16391	16361	0	840
-30.725	-28.597	16391	16406	0	840
-29.030	-27.479	16392	16473	0	840
-26.830	-26.253	16394	16537	0	840
-24.811	-23.909	16395	16587	0	840
-20.339	-22.755	16396	16626	0	840
-21.926	-23.512	16398	16659	0	840
-19.221	-24.306	16400	16696	0	840
-18.933	-23.693	16402	16735	0	840
-17.851	-24.162	16403	16768	0	840
-21.060	-24.702	16405	16787	0	840
-26.578	-27.155	16406	16792	0	840
-32.023	-31.518	16408	16794	0	840
-37.108	-34.764	16410	16804	0	840
-38.550	-39.776	16412	16814	0	840
-37.973	-41.435	16413	16807	0	840
-38.658	-43.671	16414	16786	0	840
-39.885	-46.412	16415	16754	0	840
-41.543	-45.979	16416	16704	0	840
-41.904	-45.150	16415	16637	0	840
-41.616	-47.313	16415	16568	0	840
-41.183	-47.638	16414	16508	0	840
-43.347	-46.268	16414	16458	0	840
-43.779	-47.349	16414	16422	0	840
-44.248	-45.258	16414	16396	0	840
-41.976	-41.255	16414	16373	0	840
-37.793	-38.983	16414	16345	0	840
-32.636	-35.160	16413	16310	0	840
-28.633	-30.761	16412	16263	0	840
-26.145	-27.299	16411	16211	0	840
-26.902	-26.470	16410	16173	0	840
-25.820	-24.125	16409	16155	0	840
-21.565	-19.906	16408	16144	0	840
-14.641	-15.651	16407	16122	0	840
-4.796	-9.701	16406	16090	0	840
1.262	-8.727	16404	16070	0	840
0.541	-12.694	16404	16073	0	840
-3.498	-16.120	16403	16095	0	840
-6.996	-20.375	16403	16127	0	840
-10.422	-19.365	16403	16156	0	840
-13.848	-19.329	16402	16171	0	840
-17.923	-20.627	16402	16173	0	840
-25.207	-26.289	16400	16168	0	840
-30.508	-31.482	16399	16153	0	840
-32.564	-34.692	16397	16131	0	840
-34.656	-37.901	16396	16114	0	840
-37.793	-42.157	16395	16109	0	840
-45.041	-48.648	16393	16116	0	840
-51.821	-53.768	16393	16133	0	840
-53.841	-55.391	16392	16154	0	840
-52.218	-52.795	16391	16178	0	840
-43.022	-45.727	16391	16209	0	840
-36.351	-39.776	16390	16246	0	840
-34.656	-36.819	16391	16287	0	840
-34.115	-34.836	16391	16329	0	840
-36.351	-35.846	16391	16367	0	840
-38.082	-36.423	16391	16397	0	840
-37.505	-35.882	16391	16424	0	840
-37.973	-34.403	16392	16447	0	840
-39.272	-34.656	16392	16459	0	840
-41.075	-36.603	16391	16458	0	840
-40.317	-38.442	16390	16443	0	840
-37.072	-37.216	16389	16407	0	840
-31.735	-34.115	16388	16365	0	840
-27.191	-29.102	16387	16352	0	840
-25.929	-26.181	16387	16366	0	840
-25.893	-27.551	16386	16374	0	840
-25.820	-29.535	16385	16358	0	840
-26.145	-30.725	16384	16329	0	840
-27.191	-31.446	16383	16304	0	840
-30.508	-31.518	16382	16295	0	840
-36.459	-33.718	16381	16298	0	840
-44.176	-36.603	16381	16300	0	840
-48.107	-40.137	16380	16292	0	840
-45.691	-39.199	16378	16276	0	840
-43.960	-37.757	16377	16257	0	840
-40.714	-37.360	16375	16245	0	840
-41.760	-40.137	16374	16241	0	840
-45.835	-46.123	16373	16241	0	840
-48.035	-48.251	16372	16245	0	840
-48.467	-47.386	16372	16257	0	840
-45.150	-43.130	16372	16285	0	840
-41.724	-36.603	16371	16321	0	840
-41.796	-32.528	16371	16352	0	840
-38.370	-28.381	16371	16375	0	840
-33.826	-24.558	16371	16393	0	840
-28.489	-20.483	16371	16415	0	840
-23.440	-20.014	16371	16440	0	840
-22.935	-21.745	16371	16459	0	840
-25.640	-24.162	16371	16470	0	840
-28.128	-28.886	16371	16471	0	840
-28.201	-31.049	16371	16462	0	840
-28.345	-31.662	16371	16459	0	840
-30.256	-34.259	16371	16488	0	840
-32.997	-35.737	16373	16540	0	840
-38.478	-41.507	16373	16570	0	840
-45.366	-47.241	16373	16559	0	840
-47.494	-50.307	16373	16525	0	840
-51.713	-53.444	16372	16496	0	840
-51.172	-50.234	16372	16480	0	840
-49.153	-47.926	16372	16470	0	840
-44.753	-42.445	16371	16457	0	840
-42.337	-40.245	16371	16436	0	840
-42.229	-38.983	16370	16412	0	840
-45.582	-40.209	16369	16392	0	840
-45.799	-41.219	16369	16382	0	840
-45.835	-41.688	16368	16373	0	840
-41.868	-40.966	16368	16362	0	840
-40.462	-40.353	16367	16352	0	840
-38.154	-39.812	16367	16349	0	840
-41.327	-42.445	16367	16348	0	840
-44.969	-43.779	16366	16347	0	840
-47.386	-47.602	16366	16341	0	840
-53.588	-51.497	16366	16337	0	840
-55.067	-54.922	16365	16337	0	840
-54.922	-53.408	16365	16344	0	840
-47.061	-48.107	16366	16357	0	840
-41.255	-41.327	16365	16371	0	840
-37.757	-36.098	16366	16384	0	840
-38.622	-35.774	16366	16400	0	840
-42.950	-38.262	16366	16417	0	840
-44.501	-37.577	16366	16433	0	840
-41.796	-34.331	16367	16445	0	840
-36.891	-28.092	16367	16453	0	840
-31.662	-24.125	16368	16463	0	840
-28.020	-24.198	16368	16470	0	840
-30.761	-28.020	16369	16477	0	840
-37.108	-34.079	16369	16482	0	840
-43.779	-39.163	16369	16482	0	840
-53.155	-41.652	16369	16475	0	840
-53.768	-42.229	16369	16459	0	840
-54.345	-41.724	16369	16441	0	840
-51.749	-41.147	16369	16437	0	840
-49.080	-41.183	16370	16457	0	840
-48.107	-39.740	16371	16493	0	840
-42.409	-37.180	16373	16526	0	840
-40.173	-34.295	16374	16543	0	840
-38.839	-34.620	16375	16559	0	840
-44.068	-39.344	16377	16587	0	840
-50.054	-45.186	16379	16624	0	840
-52.542	-49.080	16381	16659	0	840
-53.444	-47.926	16383	16686	0	840
-47.710	-45.150	16384	16704	0	840
-45.078	-43.022	16385	16709	0	840
-42.193	-41.039	16387	16713	0	840
-41.003	-41.435	16390	16728	0	840
-42.012	-41.796	16391	16745	0	840
-42.878	-42.589	16394	16752	0	840
-45.078	-43.347	16396	16757	0	840
-46.448	-42.770	16398	16766	0	840
-42.084	-39.344	16401	16776	0	840
-35.521	-32.131	16403	16773	0	840
-27.840	-25.820	16405	16746	0	840
-23.224	-20.772	16405	16683	0	840
-22.467	-19.942	16404	16595	0	840
-25.748	-23.549	16404	16513	0	840
-30.364	-31.049	16404	16450	0	840
-37.721	-36.278	16404	16400	0	840
-44.104	-43.743	16404	16360	0	840
-48.936	-46.159	16404	16325	0	840
-46.881	-42.193	16405	16303	0	840
-39.776	-36.747	16405	16311	0	840
-31.230	-30.472	16407	16333	0	840
-26.073	-27.155	16407	16332	0	840
-28.922	-28.561	16407	16302	0	840
-36.351	-33.826	16407	16263	0	840
-45.150	-37.685	16406	16231	0	840
-48.035	-39.019	16406	16210	0	840
-46.195	-36.603	16406	16200	0	840
-37.432	-32.780	16406	16196	0	840
-29.715	-31.302	16405	16188	0	840
-26.722	-30.761	16405	16174	0	840
-28.958	-33.862	16405	16161	0	840
-35.954	-40.245	16404	16157	0	840
-43.274	-44.753	16404	16155	0	840
-50.234	-50.992	16403	16147	0	840
-52.074	-55.896	16402	16128	0	840
-53.191	-54.670	16400	16089	0	840
-53.877	-52.326	16398	16038	0	840
-48.107	-43.347	16395	15980	0	840
-42.950	-32.348	16391	15896	0	840
-36.314	-22.034	16386	15777	0	840
-31.843	-16.769	16382	15675	0	840
-30.292	-14.713	16379	15638	0	840
-31.518	-17.418	16376	15657	0	840
-32.780	-18.175	16375	15705	0	840
-33.934	-17.454	16373	15775	0	840
-31.915	-15.795	16373	15859	0	840
-33.105	-15.110	16372	15949	0	840
-35.521	-20.195	16372	16040	0	840
-37.505	-23.585	16373	16129	0	840
-36.855	-25.063	16373	16212	0	840
-32.816	-23.873	16373	16272	0	840
-28.525	-21.926	16372	16311	0	840
-27.047	-20.555	16372	16350	0	840
-31.554	-24.630	16372	16398	0	840
-37.577	-28.561	16373	16455	0	840
-40.750	-30.833	16374	16513	0	840
-39.740	-31.194	16375	16564	0	840
-37.288	-30.472	16375	16604	0	840
-36.747	-30.040	16376	16635	0	840
-38.478	-31.554	16377	16661	0	840
-41.976	-35.810	16378	16686	0	840
-48.467	-42.445	16378	16708	0	840
-51.749	-47.205	16379	16719	0	840
-53.264	-46.809	16380	16724	0	840
-52.362	-44.861	16381	16735	0	840
-45.402	-39.127	16383	16752	0	840
-38.983	-32.312	16384	16766	0	840
-31.085	-28.525	16384	16761	0	840
-25.893	-24.702	16384	16734	0	840
-21.565	-21.385	16384	16699	0	840
-22.935	-21.818	16385	16678	0	840
-27.732	-24.991	16386	16669	0	840
-30.833	-25.856	16387	16654	0	840
-31.735	-25.856	16387	16634	0	840
-27.804	-22.358	16388	16617	0	840
-24.017	-17.274	16389	16603	0	840
-24.558	-19.618	16389	16588	0	840
-30.941	-24.919	16390	16577	0	840
-37.468	-31.013	16391	16573	0	840
-41.075	-35.413	16392	16564	0	840
-41.688	-34.475	16392	16538	0	840
-40.029	-33.321	16392	16498	0	840
-40.389	-31.662	16391	16457	0	840
-39.524	-32.384	16391	16420	0	840
-37.577	-32.816	16391	16382	0	840
-35.377	-32.456	16390	16346	0	840
-34.511	-32.925	16390	16317	0	840
-35.774	-34.908	16389	16289	0	840
-37.468	-36.639	16389	16265	0	840
-37.901	-35.557	16388	16252	0	840
-34.800	-32.456	16388	16241	0	840
-30.436	-30.076	16387	16220	0	840
-27.624	-26.217	16386	16202	0	840
-30.653	-27.984	16385	16188	0	840
-35.341	-31.626	16384	16153	0	840
-40.029	-32.167	16383	16101	0	840
-41.003	-31.807	16381	16058	0	840
-37.108	-30.725	16378	16028	0	840
-33.393	-29.859	16377	16005	0	840
-33.682	-31.194	16375	16000	0	840
-38.947	-34.728	16374	16013	0	840
-44.861	-39.993	16372	16029	0	840
-49.333	-41.471	16372	16043	0	840
-49.116	-43.527	16371	16064	0	840
-43.996	-43.455	16370	16097	0	840
-39.380	-42.229	16370	16141	0	840
-39.019	-38.478	16370	16193	0	840
-38.911	-38.190	16370	16247	0	840
-41.976	-39.560	16370	16294	0	840
-46.304	-43.635	16371	16333	0	840
-44.356	-44.897	16371	16369	0	840
-45.186	-46.159	16371	16402	0	840
-44.356	-43.202	16372	16431	0	840
-45.727	-43.166	16372	16454	0	840
-47.458	-45.150	16372	16469	0	840
-49.441	-48.143	16372	16478	0	840
-47.133	-46.845	16371	16481	0	840
-44.933	-45.005	16372	16479	0	840
-42.770	-41.976	16371	16471	0	840
-41.147	-40.029	16370	16448	0	840
-41.471	-41.075	16369	16415	0	840
-42.697	-43.527	16368	16390	0	840
-41.724	-42.914	16368	16384	0	840
-39.921	-43.166	16367	16390	0	840
-37.468	-40.606	16367	16391	0	840
-36.711	-40.426	16366	16374	0	840
-36.567	-39.308	16365	16349	0	840
-37.108	-41.291	16365	16339	0	840
-38.118	-43.924	16364	16345	0	840
-38.658	-43.599	16364	16356	0	840
-41.003	-43.960	16363	16363	0	840
-42.553	-44.140	16363	16371	0	840
-45.727	-46.520	16363	16383	0	840
-42.770	-47.313	16363	16392	0	840
-38.911	-46.015	16363	16392	0	840
-31.302	-43.779	16362	16388	0	840
-29.715	-40.462	16362	16384	0	840
-30.689	-37.793	16362	16384	0	840
-34.800	-38.334	16361	16391	0	840
-37.468	-38.478	16361	16405	0	840
-36.675	-37.937	16362	16419	0	840
-32.708	-36.711	16362	16431	0	840
-29.282	-36.206	16362	16445	0	840
-29.174	-35.305	16363	16461	0	840
-28.525	-35.485	16363	16488	0	840
-32.384	-38.839	16365	16531	0	840
-37.721	-44.501	16367	16585	0	840
-42.878	-51.136	16368	16617	0	840
-46.123	-53.191	16369	16613	0	840
-46.556	-52.578	16369	16590	0	840
-41.471	-45.402	16369	16569	0	840
-36.314	-38.045	16370	16558	0	840
-32.889	-33.141	16369	16548	0	840
-30.364	-33.033	16370	16526	0	840
-31.807	-33.429	16369	16484	0	840
-30.761	-35.774	16368	16428	0	840
-30.797	-37.577	16366	16370	0	840
-30.436	-36.711	16366	16323	0	840
-31.302	-37.324	16364	16287	0	840
-28.705	-37.144	16363	16250	0	840
-28.309	-33.898	16362	16216	0	840
-26.109	-31.049	16360	16198	0	840
-22.286	-24.414	16360	16192	0	840
-18.103	-19.618	16360	16194	0	840
-14.100	-18.392	16359	16200	0	840
-9.088	-15.579	16358	16206	0	840
-3.823	-15.435	16358	16218	0	840
-4.436	-13.740	16358	16243	0	840
-5.157	-10.999	16358	16274	0	840
-10.458	-13.848	16358	16294	0	840
-12.838	-16.444	16357	16304	0	840
-12.333	-21.457	16358	16320	0	840
-9.016	-21.060	16358	16344	0	840
-3.354	-19.618	16358	16374	0	840
-2.416	-16.661	16359	16403	0	840
-7.140	-18.428	16360	16430	0	840
-14.713	-20.555	16360	16449	0	840
-20.375	-22.467	16360	16459	0	840
-21.168	-21.024	16360	16466	0	840
-12.550	-16.769	16361	16474	0	840
-5.265	-15.795	16361	16484	0	840
-2.092	-19.510	16362	16490	0	840
-8.547	-26.794	16362	16494	0	840
-19.437	-35.990	16363	16497	0	840
-28.164	-39.127	16363	16502	0	840
-30.869	-40.786	16364	16518	0	840
-28.597	-39.416	16365	16548	0	840
-25.424	-38.009	16367	16580	0	840
-23.044	-37.108	16368	16601	0	840
-21.565	-34.439	16370	16619	0	840
-20.303	-30.148	16371	16642	0	840
-18.211	-25.965	16373	16672	0	840
-20.014	-26.902	16375	16702	0	840
-26.361	-30.689	16377	16722	0	840
-29.895	-38.767	16379	16738	0	840
-33.429	-43.058	16382	16752	0	840
-30.292	-42.625	16384	16769	0	840
-25.027	-38.947	16386	16786	0	840
-20.159	-33.177	16387	16782	0	840
-17.634	-29.535	16388	16742	0	840
-21.024	-30.581	16389	16679	0	840
-21.926	-30.328	16390	16636	0	840
-22.647	-29.679	16391	16621	0	840
-21.060	-28.886	16392	16613	0	840
-16.625	-27.263	16394	16601	0	840
-16.733	-27.804	16395	16587	0	840
-18.644	-29.931	16396	16574	0	840
-26.181	-33.393	16398	16562	0	840
-30.797	-35.810	16399	16549	0	840
-33.718	-36.495	16401	16538	0	840
-33.646	-36.855	16402	16524	0	840
-31.374	-36.278	16402	16490	0	840
-27.371	-33.970	16402	16435	0	840
-25.279	-32.528	16402	16380	0	840
-23.224	-32.276	16402	16337	0	840
-22.467	-33.033	16402	16307	0	840
-27.587	-37.000	16402	16280	0	840
-34.006	-41.435	16402	16252	0	840
-37.505	-44.717	16402	16224	0	840
-38.154	-46.592	16401	16203	0	840
-35.737	-45.186	16401	16192	0	840
-33.177	-43.960	16401	16181	0	840
-31.807	-44.933	16400	16161	0	840
-32.636	-44.681	16399	16138	0	840
-30.725	-43.022	16399	16118	0	840
-26.397	-39.560	16398	16097	0	840
-21.890	-34.944	16396	16076	0	840
-20.772	-30.256	16396	16058	0	840
-18.824	-26.433	16394	16049	0	840
-17.779	-22.070	16394	16056	0	840
-12.658	-18.103	16394	16083	0	840
-13.271	-17.021	16394	16119	0	840
-17.274	-23.224	16393	16149	0	840
-27.299	-29.751	16393	16161	0	840
-37.649	-37.613	16393	16161	0	840
-45.763	-43.130	16392	16168	0	840
-47.277	-44.248	16392	16188	0	840
-46.376	-47.061	16391	16205	0	840
-47.349	-47.494	16391	16216	0	840
-45.150	-44.789	16390	16229	0	840
-41.507	-38.658	16390	16246	0	840
-37.216	-31.554	16389	16251	0	840
-33.862	-26.974	16387	16215	0	840
-31.843	-25.965	16384	16153	0	840
-33.069	-29.030	16383	16108	0	840
-36.423	-33.574	16381	16081	0	840
-38.586	-36.459	16378	16054	0	840
-40.281	-38.406	16376	16042	0	840
-41.688	-38.334	16375	16054	0	840
-41.399	-36.819	16374	16081	0	840
-40.498	-35.954	16372	16101	0	840
-38.839	-34.151	16371	16114	0	840
-37.468	-31.843	16371	16147	0	840
-34.583	-29.066	16371	16212	0	840
-30.725	-25.820	16371	16286	0	840
-26.073	-21.962	16372	16350	0	840
-25.712	-20.267	16372	16398	0	840
-24.666	-21.781	16373	16444	0	840
-28.814	-21.890	16374	16490	0	840
-30.833	-23.008	16374	16531	0	840
-30.977	-25.063	16375	16558	0	840
-31.410	-25.027	16375	16576	0	840
-33.069	-25.424	16376	16597	0	840
-33.790	-27.624	16377	16624	0	840
-37.721	-28.417	16378	16660	0	840
-41.039	-30.617	16379	16696	0	840
-43.022	-32.889	16381	16720	0	840
-42.842	-34.439	16382	16731	0	840
-38.839	-34.043	16383	16737	0	840
-34.115	-31.951	16384	16733	0	840
-31.626	-31.085	16384	16715	0	840
-33.682	-29.535	16384	16693	0	840
-38.442	-29.282	16385	16676	0	840
-41.183	-30.400	16386	16663	0	840
-40.894	-27.515	16386	16645	0	840
-37.036	-25.820	16387	16624	0	840
-32.312	-26.001	16387	16601	0	840
-31.049	-27.948	16387	16578	0	840
-32.203	-32.492	16387	16548	0	840
-38.767	-38.082	16387	16499	0	840
-46.772	-45.907	16386	16441	0	840
-56.978	-51.677	16385	16395	0	840
-61.305	-53.949	16385	16370	0	840
-60.260	-56.076	16385	16356	0	840
-58.420	-51.785	16385	16339	0	840
-52.146	-48.287	16384	16314	0	840
-46.448	-44.140	16384	16296	0	840
-40.173	-42.625	16384	16295	0	840
-32.564	-37.901	16384	16299	0	840
-27.047	-32.276	16384	16294	0	840
-27.119	-28.597	16384	16280	0	840
-28.814	-26.289	16384	16265	0	840
-31.915	-24.955	16383	16254	0	840
-29.138	-24.883	16383	16250	0	840
-24.089	-24.883	16382	16249	0	840
-21.854	-21.745	16381	16237	0	840
-24.053	-23.693	16379	16199	0	840
-32.384	-29.787	16378	16152	0	840
-39.812	-32.239	16377	16128	0	840
-40.173	-32.059	16376	16126	0	840
-34.331	-28.814	16374	16126	0	840
-27.227	-24.955	16373	16125	0	840
-24.017	-25.748	16372	16127	0	840
-24.739	-29.138	16371	16129	0	840
-30.040	-33.826	16370	16132	0	840
-31.807	-34.800	16369	16136	0	840
-33.069	-32.420	16368	16145	0	840
-32.636	-31.446	16367	16157	0	840
-29.751	-29.210	16365	16159	0	840
-26.397	-26.253	16364	16149	0	840
-19.762	-20.123	16363	16144	0	840
-13.091	-14.172	16361	16148	0	840
-9.701	-9.448	16359	16143	0	840
-12.261	-8.691	16357	16122	0	840
-16.552	-11.937	16355	16098	0	840
-24.522	-17.202	16353	16094	0	840
-27.515	-22.755	16352	16111	0	840
-29.968	-26.181	16351	16143	0	840
-31.843	-26.397	16350	16181	0	840
-33.790	-27.840	16349	16216	0	840
-37.288	-29.427	16348	16239	0	840
-41.003	-32.276	16346	16231	0	840
-44.573	-38.226	16344	16204	0	840
-46.736	-43.022	16342	16197	0	840
-48.107	-43.743	16341	16212	0	840
-44.861	-40.642	16340	16235	0	840
-40.245	-35.521	16339	16270	0	840
-34.583	-30.617	16340	16327	0	840
-32.528	-29.859	16340	16394	0	840
-34.403	-34.151	16341	16456	0	840
-39.885	-38.803	16342	16509	0	840
-45.474	-43.779	16343	16558	0	840
-50.415	-47.313	16344	16609	0	840
-54.345	-51.533	16345	16660	0	840
-57.880	-55.031	16347	16706	0	840
-61.017	-60.007	16348	16743	0	840
-58.493	-60.512	16350	16776	0	840
-55.536	-56.149	16351	16801	0	840
-47.674	-50.198	16353	16813	0	840
-42.770	-44.356	16354	16808	0	840
-41.039	-39.380	16354	16782	0	840
-39.488	-38.406	16354	16732	0	840
-38.082	-37.216	16353	16663	0	840
-34.511	-36.062	16352	16591	0	840
-30.328	-34.800	16351	16531	0	840
-28.633	-33.502	16351	16493	0	840
-31.590	-33.502	16350	16469	0	840
-32.889	-31.626	16350	16451	0	840
-34.800	-31.590	16350	16432	0	840
-35.810	-31.699	16349	16414	0	840
-35.449	-33.646	16349	16402	0	840
-34.800	-36.603	16350	16401	0	840
-35.088	-36.314	16350	16406	0	840
-32.528	-32.384	16350	16405	0	840
-31.374	-27.804	16350	16400	0	840
-29.318	-25.532	16350	16401	0	840
-30.040	-26.470	16351	16403	0	840
-32.276	-29.895	16351	16401	0	840
-35.701	-32.456	16351	16393	0	840
-39.163	-35.160	16351	16390	0	840
-41.760	-36.134	16351	16401	0	840
-41.255	-36.964	16353	16429	0	840
-39.488	-36.495	16354	16468	0	840
-37.973	-34.259	16355	16501	0	840
-38.082	-32.492	16357	16525	0	840
-38.947	-33.682	16358	16545	0	840
-37.973	-33.898	16359	16567	0	840
-33.826	-32.492	16361	16593	0	840
-29.679	-29.643	16363	16618	0	840
-26.361	-26.361	16365	16642	0	840
-27.010	-26.037	16367	16669	0	840
-28.525	-25.568	16369	16693	0	840
-29.318	-24.198	16372	16725	0	840
-30.184	-21.565	16375	16780	0	840
-31.266	-19.257	16379	16840	0	840
-34.583	-22.899	16381	16867	0	840
-37.901	-25.604	16384	16855	0	840
-37.685	-27.155	16385	16831	0	840
-34.403	-25.424	16387	16810	0	840
-29.679	-21.385	16389	16793	0	840
-29.931	-18.572	16391	16777	0	840
-31.951	-22.178	16393	16747	0	840
-36.567	-25.929	16393	16702	0	840
-41.327	-30.400	16395	16665	0	840
-42.229	-33.934	16397	16645	0	840
-42.770	-37.613	16399	16628	0	840
-42.914	-40.750	16401	16609	0	840
-41.616	-41.183	16402	16587	0	840
-38.803	-39.416	16404	16563	0	840
-34.908	-33.393	16405	16544	0	840
-31.699	-27.479	16407	16530	0	840
-31.338	-23.585	16408	16516	0	840
-30.725	-23.873	16410	16494	0	840
-32.131	-27.587	16411	16468	0	840
-36.351	-32.131	16412	16449	0	840
-41.904	-39.235	16414	16437	0	840
-52.651	-45.041	16414	16421	0	840
-62.640	-51.965	16415	16392	0	840
-67.075	-54.706	16416	16360	0	840
-63.253	-54.778	16416	16329	0	840
-50.703	-47.313	16417	16300	0	840
-37.721	-39.668	16417	16270	0	840
-28.453	-31.879	16416	16233	0	840
-24.306	-28.922	16416	16185	0	840
-25.965	-30.400	16414	16122	0	840
-28.164	-31.771	16412	16055	0	840
-28.994	-31.843	16411	16005	0	840
-29.246	-31.735	16410	15972	0	840
-31.554	-31.518	16408	15947	0	840
-36.351	-36.531	16407	15928	0	840
-42.445	-40.570	16405	15908	0	840
-45.943	-42.950	16404	15889	0	840
-43.924	-40.389	16402	15898	0	840
-36.026	-34.079	16402	15934	0	840
-26.614	-25.063	16402	15973	0	840
-21.854	-19.365	16401	16000	0	840
-21.241	-18.608	16400	16011	0	840
-24.739	-18.680	16399	16017	0	840
-26.470	-22.286	16398	16032	0	840
-25.965	-23.224	16397	16059	0	840
-23.657	-24.558	16396	16090	0	840
-23.981	-26.866	16396	16117	0	840
-24.630	-29.823	16396	16143	0	840
-27.263	-34.006	16395	16177	0	840
-32.600	-37.829	16395	16221	0	840
-38.586	-39.921	16396	16272	0	840
-41.760	-41.255	16395	16313	0	840
-40.786	-39.776	16396	16343	0	840
-36.783	-35.918	16396	16362	0	840
-32.456	-33.177	16394	16363	0	840
-34.908	-34.728	16393	16345	0	840
-43.491	-41.147	16393	16333	0	840
-54.562	-50.703	16392	16339	0	840
-59.755	-56.401	16392	16353	0	840
-59.250	-57.050	16392	16370	0	840
-53.660	-53.985	16392	16388	0	840
-45.943	-46.376	16391	16404	0	840
-40.029	-39.776	16391	16413	0	840
-35.701	-35.521	16391	16412	0	840
-33.826	-31.122	16390	16403	0	840
-32.780	-27.912	16390	16397	0	840
-31.194	-25.279	16389	16395	0	840
-27.299	-22.899	16388	16395	0	840
-24.558	-17.815	16388	16392	0	840
-22.070	-17.238	16387	16379	0	840
-18.933	-18.716	16386	16352	0	840
-19.942	-18.283	16385	16332	0	840
-21.204	-22.322	16384	16323	0	840
-26.037	-25.352	16384	16313	0	840
-33.754	-31.085	16382	16286	0	840
-42.337	-36.964	16381	16256	0	840
-46.087	-40.101	16379	16242	0	840
-44.140	-39.993	16379	16249	0	840
-40.534	-38.658	16378	16271	0	840
-35.882	-35.737	16378	16299	0	840
-32.492	-33.826	16378	16328	0	840
-31.807	-31.987	16378	16361	0	840
-29.246	-28.345	16379	16398	0	840
-25.893	-25.712	16380	16442	0	840
-26.722	-26.289	16381	16485	0	840
-31.735	-30.869	16381	16517	0	840
-42.553	-40.029	16382	16541	0	840
-53.841	-48.648	16383	16563	0	840
-61.414	-55.319	16384	16587	0	840
-61.666	-56.365	16384	16611	0	840
-57.303	-52.651	16385	16623	0	840
-53.047	-47.999	16384	16603	0	840
-50.126	-43.707	16384	16558	0	840
-51.136	-40.029	16384	16518	0	840
-51.172	-39.055	16384	16497	0	840
-48.612	-37.685	16384	16483	0	840
-43.887	-36.459	16384	16468	0	840
-40.786	-37.432	16384	16453	0	840
-38.839	-38.154	16384	16435	0	840
-40.822	-40.353	16384	16422	0	840
-44.320	-42.878	16384	16420	0	840
-48.936	-45.330	16383	16410	0	840
-50.307	-46.448	16382	16380	0	840
-54.850	-48.648	16381	16346	0	840
-55.932	-49.874	16380	16315	0	840
-57.807	-48.359	16380	16288	0	840
-54.129	-47.602	16379	16274	0	840
-51.893	-41.796	16378	16276	0	840
-47.530	-38.442	16378	16275	0	840
-48.035	-37.468	16377	16263	0	840
-50.884	-40.534	16376	16245	0	840
-53.444	-44.104	16374	16202	0	840
-48.864	-43.274	16370	16122	0	840
-42.589	-39.163	16367	16041	0	840
-35.810	-33.790	16364	15991	0	840
-29.823	-28.417	16363	15975	0	840
-22.899	-23.368	16361	15985	0	840
-15.867	-17.670	16360	16017	0	840
-4.183	-12.477	16360	16065	0	840
3.173	-7.248	16359	16118	0	840
3.282	-8.655	16358	16161	0	840
-2.849	-15.290	16357	16170	0	840
-10.025	-24.125	16355	16159	0	840
-18.500	-32.203	16354	16167	0	840
-23.188	-36.891	16354	16204	0	840
-29.066	-37.432	16354	16250	0	840
-31.843	-37.180	16354	16296	0	840
-32.672	-37.505	16354	16336	0	840
-31.699	-37.505	16354	16374	0	840
-32.059	-39.452	16355	16432	0	840
-29.787	-40.642	16356	16507	0	840
-32.456	-40.065	16357	16558	0	840
-34.006	-40.101	16357	16574	0	840
-34.079	-39.632	16357	16575	0	840
-33.213	-35.918	16358	16582	0	840
-31.266	-31.338	16358	16600	0	840
-28.777	-26.938	16359	16626	0	840
-29.030	-25.099	16360	16653	0	840
-32.672	-26.217	16361	16674	0	840
-34.511	-30.364	16363	16687	0	840
-35.990	-31.554	16364	16696	0	840
-34.836	-31.771	16364	16697	0	840
-29.895	-27.227	16364	16673	0	840
-24.811	-22.142	16363	16605	0	840
-19.437	-18.247	16362	16517	0	840
-15.110	-14.858	16361	16459	0	840
-13.848	-18.608	16360	16437	0	840
-20.591	-25.676	16360	16429	0	840
-31.987	-35.521	16360	16416	0	840
-41.976	-44.464	16360	16402	0	840
-47.277	-47.854	16360	16394	0	840
-48.467	-48.648	16360	16400	0	840
-46.484	-45.979	16361	16414	0	840
-44.320	-44.248	16361	16426	0	840
-43.887	-40.498	16361	16433	0	840
-42.734	-35.088	16362	16437	0	840
-39.091	-30.725	16363	16446	0	840
-38.695	-31.158	16363	16458	0	840
-43.022	-38.875	16364	16477	0	840
-49.153	-49.405	16365	16502	0	840
-56.978	-57.952	16366	16516	0	840
-59.719	-59.647	16366	16500	0	840
-57.375	-53.913	16366	16459	0	840
-53.660	-46.917	16365	16420	0	840
-48.251	-39.885	16365	16397	0	840
-41.868	-36.675	16365	16376	0	840
-35.052	-31.915	16363	16345	0	840
-25.063	-22.755	16363	16310	0	840
-12.153	-10.602	16363	16295	0	840
0.577	3.750	16362	16297	0	840
10.278	11.287	16362	16298	0	840
14.208	13.199	16362	16294	0	840
12.586	9.016	16361	16287	0	840
9.989	2.741	16361	16284	0	840
10.819	2.560	16361	16288	0	840
12.225	2.741	16361	16293	0	840
13.812	1.983	16360	16288	0	840
5.626	-4.544	16360	16277	0	840
-8.871	-14.497	16359	16274	0	840
-21.168	-21.096	16360	16292	0	840
-27.371	-22.575	16361	16337	0	840
-23.873	-16.084	16362	16392	0	840
-17.346	-9.809	16363	16441	0	840
-15.615	-7.248	16364	16477	0	840
-19.041	-11.576	16366	16515	0	840
-27.984	-20.159	16368	16562	0	840
-35.413	-27.840	16369	16610	0	840
-36.314	-28.958	16372	16649	0	840
-31.554	-24.125	16373	16680	0	840
-24.053	-18.500	16375	16710	0	840
-17.202	-10.566	16378	16740	0	840
-19.221	-13.235	16380	16768	0	840
-24.919	-19.798	16383	16792	0	840
-34.331	-27.804	16384	16806	0	840
-39.308	-32.131	16386	16801	0	840
-36.928	-31.626	16387	16780	0	840
-30.833	-27.840	16389	16763	0	840
-23.549	-22.250	16391	16756	0	840
-19.546	-18.752	16393	16758	0	840
-19.546	-16.697	16395	16764	0	840
-23.512	-20.195	16398	16761	0	840
-25.568	-22.539	16399	16749	0	840
-26.686	-27.840	16402	16749	0	840
-26.217	-31.158	16405	16757	0	840
-26.506	-35.485	16407	16743	0	840
-26.794	-33.177	16408	16700	0	840
-28.381	-31.194	16409	16647	0	840
-32.095	-27.912	16410	16601	0	840
-34.006	-25.316	16411	16563	0	840
-38.334	-29.391	16412	16534	0	840
-42.770	-34.872	16414	16511	0	840
-44.573	-39.957	16414	16487	0	840
-45.655	-37.577	16415	16457	0	840
-40.714	-31.410	16416	16419	0	840
-35.990	-25.929	16417	16382	0	840
-33.285	-23.837	16417	16355	0	840
-32.492	-24.702	16418	16333	0	840
-34.511	-28.525	16418	16311	0	840
-36.134	-28.958	16419	16294	0	840
-36.675	-29.968	16420	16288	0	840
-37.432	-31.554	16420	16283	0	840
-39.993	-34.908	16420	16263	0	840
-42.373	-35.810	16419	16219	0	840
-41.616	-35.413	16418	16160	0	840
-39.199	-31.915	16417	16108	0	840
-35.882	-29.354	16416	16071	0	840
-36.278	-31.626	16415	16048	0	840
-40.245	-36.928	16414	16037	0	840
-43.960	-42.193	16414	16034	0	840
-42.625	-41.003	16413	16034	0	840
-34.475	-36.747	16412	16038	0	840
-27.371	-30.400	16413	16066	0	840
-23.837	-27.010	16413	16114	0	840
-25.604	-29.499	16413	16145	0	840
-28.309	-30.220	16412	16143	0	840
-28.345	-28.561	16412	16131	0	840
-23.585	-22.178	16411	16142	0	840
-13.740	-17.454	16412	16177	0	840
-10.169	-13.992	16412	16219	0	840
-10.891	-16.084	16412	16254	0	840
-15.975	-20.303	16412	16278	0	840
-22.467	-24.847	16413	16300	0	840
-27.119	-24.198	16413	16329	0	840
-25.712	-18.247	16414	16370	0	840
-21.349	-12.766	16415	16409	0	840
-20.303	-6.888	16416	16434	0	840
-20.267	-7.609	16416	16445	0	840
-26.758	-17.454	16417	16456	0	840
-31.662	-24.630	16417	16476	0	840
-34.151	-30.761	16418	16504	0	840
-34.006	-30.148	16419	16528	0	840
-28.345	-24.991	16420	16541	0	840
-27.263	-22.106	16420	16537	0	840
-30.941	-26.325	16420	16523	0	840
-39.344	-33.177	16421	16509	0	840
-47.674	-41.219	16421	16495	0	840
-50.956	-43.563	16421	16480	0	840
-45.438	-38.082	16421	16456	0	840
-33.502	-27.804	16420	16414	0	840
-25.424	-20.772	16418	16354	0	840
-21.565	-15.795	16416	16281	0	840
-23.008	-17.490	16414	16204	0	840
-27.912	-20.159	16411	16136	0	840
-31.049	-24.089	16409	16077	0	840
-33.429	-27.083	16407	16028	0	840
-31.158	-27.119	16405	16002	0	840
-28.705	-26.217	16404	16006	0	840
-24.594	-25.424	16402	16033	0	840
-22.178	-25.820	16402	16066	0	840
-21.781	-26.037	16401	16098	0	840
-23.549	-26.938	16401	16136	0	840
-26.001	-26.181	16401	16191	0	840
-28.705	-24.522	16402	16251	0	840
-30.653	-22.755	16402	16306	0	840
-32.708	-24.811	16402	16348	0	840
-31.626	-26.289	16403	16381	0	840
-29.354	-23.981	16403	16415	0	840
-28.922	-22.935	16405	16459	0	840
-30.184	-22.431	16405	16500	0	840
-34.475	-22.070	16405	16520	0	840
-39.668	-25.460	16406	16527	0	840
-40.642	-27.660	16407	16538	0	840
-38.009	-27.263	16407	16556	0	840
-33.574	-25.856	16408	16570	0	840
-28.561	-24.234	16408	16572	0	840
-23.621	-23.080	16408	16566	0	840
-18.247	-20.231	16408	16555	0	840
-16.949	-20.231	16408	16535	0	840
-15.759	-20.267	16408	16515	0	840
-21.241	-25.856	16409	16515	0	840
-28.741	-32.456	16409	16523	0	840
-35.882	-36.639	16408	16490	0	840
-39.812	-37.396	16406	16405	0	840
-38.839	-34.511	16405	16320	0	840
-36.891	-31.626	16404	16280	0	840
-33.610	-30.581	16403	16280	0	840
-33.105	-33.754	16402	16280	0	840
-32.420	-34.511	16401	16259	0	840
-31.699	-33.249	16400	16225	0	840
-31.230	-28.922	16398	16196	0	840
-28.958	-23.116	16397	16183	0	840
-26.325	-19.185	16396	16182	0	840
-23.909	-15.110	16395	16183	0	840
-20.772	-16.841	16394	16179	0	840
-20.627	-17.887	16393	16183	0	840
-22.719	-21.529	16393	16200	0	840
-23.621	-23.621	16392	16218	0	840
-28.128	-26.974	16391	16229	0	840
-28.633	-28.597	16390	16234	0	840
-33.321	-29.246	16390	16237	0	840
-34.692	-29.968	16389	16243	0	840
-40.209	-32.384	16388	16246	0	840
-43.383	-35.810	16387	16242	0	840
-47.386	-40.966	16385	16229	0	840
-50.920	-50.234	16384	16193	0	840
-55.860	-52.470	16381	16142	0	840
-56.509	-53.228	16379	16114	0	840
-56.257	-50.956	16378	16118	0	840
-51.893	-45.294	16376	16133	0	840
-47.962	-42.661	16375	16151	0	840
-42.193	-39.885	16374	16175	0	840
-38.226	-36.062	16373	16200	0	840
-35.377	-34.079	16372	16224	0	840
-34.944	-32.528	16372	16261	0	840
-33.934	-31.879	16373	16323	0	840
-31.554	-29.354	16373	16378	0	840
-26.614	-24.162	16372	16400	0	840
-18.392	-16.012	16372	16401	0	840
-13.776	-11.576	16371	16400	0	840
-12.550	-11.251	16371	16404	0	840
-16.661	-16.192	16370	16414	0	840
-22.358	-23.260	16370	16429	0	840
-23.549	-28.705	16369	16440	0	840
-21.854	-28.922	16369	16447	0	840
-23.008	-30.148	16369	16457	0	840
-25.676	-34.620	16369	16475	0	840
-30.436	-36.351	16369	16492	0	840
-35.882	-36.531	16369	16500	0	840
-35.918	-34.872	16369	16508	0	840
-32.023	-26.794	16370	16525	0	840
-28.777	-22.575	16370	16548	0	840
-28.489	-22.214	16371	16564	0	840
-31.807	-25.316	16371	16568	0	840
-31.013	-26.650	16372	16566	0	840
-31.735	-25.460	16372	16567	0	840
-31.374	-24.594	16372	16572	0	840
-32.672	-25.388	16373	16579	0	840
-37.613	-28.705	16374	16588	0	840
-42.553	-32.961	16374	16594	0	840
-46.232	-35.774	16375	16591	0	840
-47.854	-37.901	16375	16582	0	840
-50.054	-37.793	16375	16573	0	840
-50.631	-40.930	16376	16564	0	840
-51.244	-44.933	16376	16548	0	840
-47.241	-45.871	16376	16522	0	840
-41.940	-44.284	16375	16477	0	840
-35.665	-39.704	16374	16420	0	840
-32.384	-34.800	16374	16387	0	840
-30.977	-33.033	16374	16380	0	840
-35.197	-35.377	16373	16361	0	840
-40.786	-41.363	16372	16317	0	840
-45.655	-45.618	16370	16266	0	840
-44.140	-45.655	16369	16227	0	840
-37.288	-41.039	16368	16209	0	840
-29.318	-37.937	16367	16204	0	840
-24.775	-32.925	16366	16192	0	840
-25.243	-33.105	16365	16168	0	840
-28.669	-33.934	16363	16151	0	840
-29.535	-32.816	16363	16150	0	840
-29.030	-34.079	16362	16159	0	840
-30.256	-36.711	16361	16172	0	840
-34.439	-39.740	16360	16183	0	840
-38.442	-43.924	16360	16198	0	840
-39.632	-40.894	16359	16217	0	840
-37.072	-36.206	16359	16235	0	840
-34.295	-33.429	16358	16243	0	840
-34.764	-33.357	16358	16250	0	840
-38.406	-37.973	16357	16270	0	840
-43.130	-42.157	16357	16308	0	840
-45.835	-44.248	16358	16360	0	840
-49.333	-44.248	16360	16421	0	840
-50.126	-44.428	16361	16492	0	840
-52.578	-43.383	16363	16570	0	840
-49.441	-40.714	16366	16641	0	840
-47.890	-37.685	16368	16706	0	840
-49.693	-37.216	16371	16768	0	840
-53.264	-40.858	16374	16825	0	840
-61.017	-47.205	16376	16872	0	840
-63.866	-51.893	16379	16905	0	840
-59.611	-48.612	16381	16914	0	840
-51.677	-46.268	16383	16902	0	840
-44.789	-42.517	16384	16889	0	840
-42.301	-41.111	16386	16886	0	840
-42.048	-42.770	16388	16884	0	840
-42.842	-44.717	16390	16871	0	840
-41.291	-43.599	16393	16851	0	840
-37.937	-41.399	16395	16848	0	840
-36.855	-40.281	16398	16864	0	840
-36.026	-38.658	16400	16867	0	840
-36.855	-41.255	16402	16836	0	840
-36.711	-42.481	16404	16791	0	840
-34.187	-45.691	16406	16758	0	840
-33.141	-43.924	16408	16740	0	840
-34.800	-42.625	16410	16723	0	840
-38.442	-41.904	16411	16693	0	840
-41.255	-43.671	16413	16654	0	840
-42.734	-43.094	16414	16615	0	840
-38.947	-43.058	16416	16585	0	840
-37.937	-42.625	16417	16564	0	840
-42.229	-47.241	16419	16545	0	840
-50.379	-54.021	16420	16519	0	840
-60.224	-61.666	16421	16487	0	840
-63.902	-62.423	16422	16459	0	840
-63.181	-56.437	16423	16439	0	840
-55.536	-49.802	16425	16426	0	840
-50.956	-42.770	16426	16416	0	840
-45.546	-39.596	16427	16400	0	840
-41.976	-37.937	16428	16370	0	840
-42.697	-36.170	16428	16319	0	840
-44.933	-38.045	16428	16270	0	840
-45.402	-39.163	16428	16249	0	840
-49.116	-43.960	16429	16252	0	840
-47.818	-46.195	16429	16242	0	840
-45.041	-44.717	16429	16206	0	840
-45.005	-46.159	16428	16162	0	840
-44.032	-45.258	16428	16128	0	840
-45.005	-44.212	16427	16112	0	840
-42.697	-42.914	16427	16102	0	840
-41.183	-38.839	16426	16084	0	840
-36.062	-32.961	16425	16054	0	840
-33.105	-27.948	16424	16029	0	840
-31.590	-24.017	16423	16020	0	840
-31.626	-23.512	16423	16025	0	840
-30.905	-24.306	16422	16040	0	840
-31.951	-25.676	16422	16056	0	840
-32.276	-28.056	16421	16077	0	840
-36.278	-30.977	16421	16100	0	840
-41.940	-36.098	16421	16127	0	840
-49.008	-43.815	16421	16155	0	840
-55.824	-49.044	16421	16180	0	840
-56.834	-51.713	16421	16198	0	840
-55.283	-49.297	16421	16212	0	840
-49.838	-43.527	16421	16234	0	840
-44.861	-41.075	16421	16259	0	840
-39.596	-38.082	16420	16266	0	840
-37.288	-36.928	16418	16233	0	840
-34.223	-33.393	16416	16173	0	840
-30.905	-28.345	16414	16122	0	840
-27.083	-22.827	16412	16100	0	840
-24.522	-17.490	16411	16099	0	840
-23.296	-18.392	16409	16099	0	840
-20.123	-20.952	16407	16083	0	840
-20.952	-26.037	16405	16058	0	840
-18.283	-28.381	16403	16040	0	840
-17.743	-28.092	16401	16046	0	840
-16.661	-24.558	16400	16073	0	840
-19.834	-24.450	16398	16094	0	840
-22.467	-28.597	16397	16095	0	840
-29.102	-33.574	16395	16090	0	840
-34.187	-38.803	16393	16104	0	840
-34.547	-38.442	16393	16141	0	840
-30.220	-33.826	16393	16194	0	840
-25.243	-28.237	16392	16245	0	840
-20.159	-26.470	16392	16288	0	840
-23.260	-28.128	16392	16331	0	840
-27.696	-29.246	16392	16376	0	840
-32.636	-32.312	16392	16410	0	840
-32.816	-32.672	16391	16430	0	840
-29.354	-30.400	16391	16444	0	840
-21.349	-26.145	16391	16467	0	840
-17.851	-23.044	16392	16502	0	840
-16.480	-24.017	16393	16548	0	840
-24.450	-25.784	16393	16599	0	840
-31.122	-28.958	16395	16641	0	840
-34.764	-31.085	16396	16670	0	840
-32.636	-26.217	16396	16686	0	840
-26.145	-20.700	16398	16695	0	840
-22.250	-14.966	16398	16705	0	840
-22.611	-18.716	16399	16707	0	840
-29.354	-22.647	16399	16699	0	840
-37.036	-28.850	16400	16691	0	840
-40.065	-32.167	16401	16685	0	840
-37.901	-31.951	16402	16685	0	840
-30.292	-23.837	16403	16698	0	840
-21.998	-19.113	16405	16720	0	840
-16.048	-18.608	16406	16725	0	840
-15.687	-18.644	16406	16693	0	840
-22.899	-25.965	16406	16634	0	840
-28.128	-31.049	16406	16574	0	840
-32.889	-33.790	16405	16524	0	840
-32.312	-32.239	16405	16472	0	840
-29.210	-28.561	16403	16404	0	840
-24.739	-25.712	16402	16331	0	840
-22.683	-25.063	16401	16278	0	840
-24.630	-25.893	16400	16253	0	840
-28.092	-29.427	16399	16237	0	840
-29.859	-30.977	16399	16220	0	840
-28.525	-30.436	16397	16200	0	840
-25.316	-27.371	16396	16179	0	840
-24.234	-23.945	16395	16157	0	840
-24.378	-23.152	16393	16128	0	840
-27.010	-24.270	16391	16091	0	840
-27.047	-25.712	16390	16060	0	840
-24.450	-21.349	16388	16044	0	840
-18.644	-16.877	16387	16047	0	840
-17.274	-11.792	16386	16072	0	840
-20.988	-12.369	16386	16112	0	840
-20.952	-13.884	16386	16150	0	840
-21.818	-12.153	16385	16185	0	840
-14.281	-7.537	16385	16222	0	840
-8.511	-1.479	16385	16263	0	840
-4.580	-0.288	16386	16302	0	840
-6.563	-6.491	16386	16334	0	840
-12.369	-13.415	16386	16363	0	840
-20.700	-18.933	16386	16390	0	840
-26.361	-21.926	16387	16416	0	840
-30.508	-24.017	16387	16449	0	840
-29.823	-22.972	16389	16504	0	840
-27.912	-23.440	16391	16574	0	840
-25.207	-23.116	16392	16619	0	840
-24.450	-22.755	16393	16625	0	840
-27.443	-25.027	16393	16611	0	840
-28.958	-27.155	16393	16591	0	840
-29.787	-28.453	16393	16563	0	840
-28.814	-29.066	16392	16527	0	840
-29.282	-31.194	16391	16489	0	840
-31.735	-33.502	16390	16448	0	840
-34.187	-36.747	16390	16410	0	840
-34.583	-38.298	16389	16383	0	840
-33.249	-38.262	16388	16361	0	840
-29.030	-35.160	16387	16334	0	840
-25.748	-33.033	16386	16298	0	840
-24.666	-33.177	16384	16265	0	840
-28.056	-35.701	16384	16246	0	840
-28.814	-37.505	16384	16241	0	840
-28.381	-38.695	16383	16245	0	840
-27.984	-36.603	16382	16249	0	840
-22.503	-30.112	16381	16243	0	840
-19.798	-24.666	16380	16215	0	840
-15.687	-22.106	16378	16166	0	840
-15.507	-22.683	16376	16122	0	840
-15.471	-25.568	16374	16105	0	840
-18.500	-27.335	16373	16116	0	840
-20.447	-27.299	16372	16140	0	840
-23.224	-25.027	16372	16171	0	840
-25.929	-24.089	16371	16202	0	840
-24.955	-23.693	16371	16231	0	840
-26.037	-24.306	16370	16251	0	840
-27.624	-25.496	16369	16249	0	840
-27.768	-27.119	16367	16227	0	840
-31.626	-29.210	16366	16222	0	840
-34.439	-29.030	16366	16261	0	840
-34.692	-26.686	16367	16328	0	840
-30.977	-23.080	16367	16384	0	840
-26.073	-18.752	16368	16422	0	840
-22.611	-18.103	16368	16453	0	840
-19.834	-20.952	16369	16480	0	840
-20.303	-19.618	16369	16502	0	840
-16.697	-17.995	16370	16521	0	840
-12.586	-12.117	16370	16535	0	840
-6.131	-9.016	16370	16538	0	840
-3.859	-8.979	16370	16535	0	840
-5.373	-10.206	16370	16531	0	840
-6.996	-13.379	16370	16527	0	840
-8.006	-12.514	16370	16521	0	840
-6.022	-9.304	16370	16506	0	840
-6.275	-9.016	16370	16490	0	840
-10.314	-13.992	16369	16485	0	840
-19.654	-21.673	16370	16498	0	840
-27.696	-29.968	16370	16512	0	840
-34.331	-37.829	16370	16494	0	840
-38.658	-41.940	16368	16432	0	840
-39.632	-45.005	16366	16351	0	840
-40.462	-46.917	16365	16295	0	840
-41.003	-49.946	16364	16275	0	840
-38.622	-50.703	16363	16268	0	840
-35.124	-48.431	16363	16270	0	840
-33.718	-49.766	16362	16281	0	840
-34.223	-50.415	16362	16298	0	840
-37.144	-52.434	16363	16323	0	840
-41.616	-53.913	16364	16375	0	840
-46.376	-55.427	16366	16449	0	840
-45.402	-51.605	16367	16515	0	840
-45.294	-47.782	16368	16549	0	840
-42.914	-45.474	16369	16567	0	840
-39.740	-42.914	16371	16595	0	840
-40.534	-47.422	16373	16636	0	840
-39.957	-50.307	16375	16682	0	840
-42.265	-52.146	16377	16728	0	840
-40.534	-51.208	16380	16771	0	840
-39.091	-42.193	16382	16808	0	840
-35.701	-33.249	16384	16843	0	840
-34.583	-27.660	16388	16882	0	840
-37.505	-29.391	16390	16915	0	840
-42.084	-35.016	16393	16930	0	840
-43.419	-39.091	16396	16930	0	840
-41.580	-40.606	16399	16923	0	840
-39.416	-36.675	16401	16913	0	840
-41.219	-36.170	16403	16896	0	840
-44.609	-39.740	16405	16866	0	840
-46.736	-43.202	16407	16832	0	840
-48.503	-45.835	16409	16800	0	840
-43.851	-43.455	16411	16775	0	840
-39.560	-37.721	16413	16753	0	840
-39.091	-35.449	16415	16726	0	840
-39.055	-35.377	16417	16695	0	840
-36.242	-34.764	16419	16666	0	840
-34.511	-34.115	16420	16640	0	840
-28.922	-31.879	16423	16618	0	840
-22.214	-29.246	16424	16599	0	840
-20.952	-26.578	16426	16578	0	840
-20.483	-27.479	16427	16544	0	840
-22.503	-26.614	16428	16490	0	840
-24.053	-27.010	16428	16429	0	840
-21.601	-26.397	16429	16372	0	840
-20.447	-26.109	16428	16317	0	840
-15.326	-23.801	16428	16263	0	840
-12.369	-21.204	16427	16205	0	840
-9.989	-18.716	16427	16144	0	840
-7.934	-16.408	16425	16086	0	840
-10.530	-19.221	16424	16036	0	840
-13.992	-20.880	16423	16001	0	840
-16.084	-25.640	16422	15979	0	840
-17.670	-27.407	16421	15955	0	840
-17.274	-29.138	16420	15933	0	840
-20.014	-31.951	16419	15926	0	840
-22.070	-35.341	16418	15936	0	840
-26.974	-41.039	16418	15954	0	840
-35.449	-46.664	16417	15967	0	840
-43.671	-54.670	16416	15978	0	840
-50.379	-58.420	16416	15997	0	840
-57.591	-61.594	16416	16031	0	840
-56.113	-60.224	16416	16073	0	840
-54.129	-53.444	16416	16108	0	840
-49.116	-49.369	16415	16121	0	840
-48.359	-47.746	16413	16099	0	840
-47.926	-49.405	16411	16057	0	840
-50.487	-54.778	16409	16034	0	840
-51.749	-52.903	16408	16035	0	840
-51.929	-50.126	16406	16048	0	840
-47.277	-42.589	16405	16070	0	840
-38.586	-37.649	16405	16101	0	840
-29.102	-32.095	16405	16141	0	840
-21.168	-26.650	16404	16184	0	840
-15.831	-22.755	16404	16221	0	840
-14.605	-20.664	16404	16250	0	840
-14.497	-19.329	16403	16278	0	840
-17.166	-21.673	16403	16311	0	840
-17.166	-25.604	16403	16349	0	840
-20.339	-27.948	16404	16386	0	840
-22.395	-31.085	16404	16418	0	840
-22.972	-34.295	16403	16435	0	840
-24.450	-35.052	16404	16445	0	840
-21.277	-33.934	16404	16474	0	840
-22.322	-33.538	16405	16515	0	840
-24.234	-35.990	16406	16546	0	840
-27.155	-38.009	16406	16557	0	840
-31.915	-40.426	16406	16553	0	840
-34.151	-41.327	16406	16546	0	840
-37.541	-42.445	16406	16544	0	840
-40.570	-47.277	16406	16542	0	840
-45.041	-49.369	16406	16530	0	840
-45.294	-48.503	16405	16504	0	840
-42.373	-44.464	16405	16479	0	840
-37.144	-37.865	16406	16470	0	840
-36.928	-37.288	16405	16472	0	840
-41.399	-42.806	16406	16478	0	840
-47.458	-47.349	16406	16475	0	840
-50.415	-48.612	16405	16467	0	840
-47.458	-44.573	16406	16461	0	840
-40.606	-37.829	16406	16462	0	840
-38.514	-33.682	16406	16469	0	840
-37.973	-33.249	16408	16482	0	840
-41.399	-34.079	16408	16498	0	840
-43.130	-34.547	16408	16509	0	840
-39.993	-34.223	16409	16511	0	840
-35.701	-30.869	16410	16505	0	840
-31.843	-26.109	16410	16489	0	840
-28.958	-23.621	16409	16468	0	840
-30.725	-23.981	16409	16447	0	840
-34.511	-27.407	16409	16425	0	840
-39.957	-32.889	16408	16398	0	840
-44.320	-36.603	16408	16370	0	840
-43.815	-37.973	16407	16347	0	840
-43.779	-35.377	16407	16329	0	840
-39.957	-33.249	16406	16307	0	840
-39.849	-33.033	16405	16275	0	840
-41.652	-36.495	16404	16256	0	840
-44.645	-41.435	16403	16249	0	840
-48.143	-45.799	16402	16214	0	840
-53.877	-46.520	16399	16140	0	840
-55.463	-46.664	16396	16064	0	840
-55.608	-44.068	16393	16009	0	840
-52.578	-41.760	16390	15963	0	840
-47.530	-39.740	16387	15922	0	840
-41.760	-37.649	16385	15900	0	840
-37.505	-35.088	16384	15895	0	840
-37.505	-34.331	16381	15904	0	840
-33.466	-33.177	16380	15930	0	840
-31.662	-30.076	16379	15972	0	840
-27.876	-26.145	16378	16027	0	840
-22.142	-23.188	16378	16089	0	840
-20.664	-22.683	16378	16155	0	840
-18.716	-22.899	16378	16216	0	840
-21.781	-25.424	16378	16275	0	840
-25.099	-26.181	16378	16329	0	840
-26.758	-27.191	16378	16372	0	840
-31.374	-28.669	16378	16400	0	840
-36.134	-31.049	16378	16427	0	840
-39.668	-32.889	16378	16448	0	840
-42.265	-35.954	16377	16455	0	840
-42.950	-38.658	16376	16448	0	840
-45.078	-41.543	16375	16425	0	840
-48.215	-44.537	16373	16392	0	840
-52.470	-47.277	16371	16355	0	840
-58.348	-51.064	16369	16317	0	840
-58.565	-50.307	16368	16295	0	840
-57.411	-51.713	16367	16296	0	840
-54.201	-50.162	16366	16312	0	840
-48.179	-50.018	16365	16323	0	840
-46.628	-50.198	16364	16321	0	840
-41.904	-46.556	16363	16327	0	840
-40.822	-43.563	16363	16352	0	840
-39.308	-38.154	16363	16388	0	840
-38.262	-34.295	16363	16420	0	840
-36.351	-31.194	16363	16443	0	840
-34.006	-29.066	16364	16470	0	840
-28.597	-24.378	16364	16506	0	840
-19.726	-18.103	16365	16546	0	840
-12.766	-14.533	16366	16581	0	840
-8.763	-11.864	16366	16604	0	840
-10.278	-11.251	16367	16612	0	840
-14.245	-13.235	16368	16616	0	840
-18.392	-13.776	16369	16626	0	840
-16.625	-14.317	16369	16642	0	840
-15.615	-13.884	16370	16649	0	840
-12.910	-13.523	16371	16645	0	840
-16.516	-18.716	16371	16636	0	840
-21.132	-25.532	16372	16628	0	840
-30.220	-34.511	16372	16616	0	840
-35.052	-40.822	16372	16597	0	840
-35.918	-45.655	16372	16572	0	840
-33.646	-44.104	16372	16544	0	840
-29.859	-41.580	16372	16502	0	840
-26.397	-35.954	16372	16458	0	840
-21.385	-30.076	16371	16444	0	840
-21.024	-27.010	16372	16453	0	840
-22.214	-26.758	16372	16449	0	840
-27.984	-29.823	16372	16421	0	840
-36.098	-34.223	16371	16384	0	840
-43.166	-35.160	16370	16356	0	840
-43.527	-33.934	16370	16344	0	840
-37.613	-28.417	16370	16341	0	840
-29.715	-21.673	16369	16327	0	840
-23.008	-13.812	16369	16298	0	840
-21.313	-11.360	16368	16284	0	840
-22.791	-11.576	16368	16292	0	840
-26.109	-14.389	16368	16311	0	840
-27.371	-16.516	16369	16323	0	840
-26.037	-14.605	16368	16324	0	840
-22.034	-13.956	16368	16319	0	840
-21.024	-13.199	16368	16315	0	840
-20.916	-15.651	16368	16320	0	840
-22.467	-19.113	16368	16333	0	840
-26.361	-22.250	16368	16339	0	840
-31.194	-21.890	16367	16335	0	840
-36.387	-25.712	16367	16329	0	840
-42.770	-28.741	16367	16329	0	840
-47.890	-33.646	16366	16322	0	840
-48.467	-37.577	16364	16287	0	840
-49.116	-39.380	16363	16231	0	840
-48.612	-40.534	16361	16185	0	840
-47.818	-43.815	16359	16160	0	840
-53.047	-49.730	16358	16147	0	840
-52.831	-50.631	16357	16142	0	840
-50.415	-49.910	16356	16146	0	840
-41.832	-40.462	16355	16156	0	840
-32.708	-31.013	16354	16164	0	840
-25.820	-22.827	16353	16177	0	840
-24.125	-21.493	16354	16222	0	840
-22.935	-21.132	16355	16298	0	840
-20.447	-21.096	16356	16378	0	840
-16.661	-18.752	16357	16435	0	840
-11.432	-15.002	16358	16475	0	840
-9.773	-9.556	16359	16515	0	840
-13.307	-9.953	16361	16561	0	840
-15.579	-13.704	16362	16609	0	840
-19.185	-16.444	16364	16655	0	840
-19.510	-20.772	16366	16699	0	840
-21.781	-18.969	16368	16747	0	840
-20.627	-17.923	16371	16799	0	840
-22.106	-15.290	16373	16847	0	840
-23.837	-18.752	16376	16884	0	840
-25.532	-21.385	16379	16909	0	840
-27.335	-23.044	16382	16925	0	840
-27.371	-25.460	16384	16942	0	840
-30.977	-25.171	16387	16964	0	840
-33.538	-27.083	16390	16989	0	840
-37.829	-32.167	16393	17004	0	840
-43.202	-36.891	16396	17007	0	840
-45.258	-40.281	16399	16998	0	840
-45.258	-41.832	16402	16980	0	840
-42.878	-40.462	16404	16954	0	840
-42.048	-40.462	16407	16920	0	840
-38.803	-39.416	16409	16880	0	840
-36.242	-40.209	16411	16835	0	840
-33.646	-40.029	16412	16779	0	840
-29.715	-37.685	16413	16712	0	840
-27.624	-33.069	16414	16644	0	840
-26.217	-31.590	16415	16578	0	840
-28.525	-30.617	16415	16505	0	840
-31.554	-30.689	16415	16420	0	840
-31.085	-31.662	16414	16341	0	840
-30.076	-29.679	16414	16290	0	840
-27.371	-25.929	16415	16262	0	840
-21.168	-21.493	16414	16230	0	840
-20.195	-20.267	16414	16183	0	840
-19.510	-18.320	16413	16126	0	840
-22.899	-22.899	16412	16073	0	840
-29.210	-25.207	16412	16036	0	840
-34.800	-29.066	16411	16018	0	840
-38.406	-33.429	16410	16005	0	840
-40.426	-33.466	16409	15993	0	840
-37.901	-32.456	16409	15983	0	840
-36.531	-31.699	16408	15980	0	840
-38.262	-31.338	16408	15986	0	840
-41.868	-32.528	16407	16000	0	840
-43.599	-36.639	16407	16013	0	840
-45.330	-39.019	16406	16025	0	840
-43.347	-39.272	16406	16046	0	840
-39.957	-35.593	16406	16078	0	840
-37.252	-32.420	16406	16109	0	840
-38.695	-30.076	16405	16110	0	840
-43.491	-34.151	16402	16066	0	840
-49.116	-36.531	16399	16006	0	840
-55.572	-43.527	16398	15971	0	840
-56.870	-46.051	16396	15965	0	840
-54.598	-43.274	16394	15972	0	840
-49.693	-40.534	16393	15986	0	840
-43.202	-34.547	16392	16009	0	840
-35.918	-26.686	16390	16038	0	840
-30.869	-21.204	16390	16073	0	840
-28.922	-19.690	16389	16108	0	840
-28.128	-20.159	16388	16132	0	840
-30.508	-25.135	16387	16145	0	840
-28.561	-28.056	16385	16147	0	840
-25.099	-26.758	16384	16143	0	840
-20.339	-23.693	16383	16143	0	840
-19.510	-21.529	16382	16159	0	840
-18.969	-20.591	16381	16197	0	840
-19.798	-21.168	16381	16251	0	840
-17.274	-21.890	16381	16302	0	840
-16.589	-18.608	16381	16347	0	840
-17.238	-19.113	16381	16391	0	840
-24.486	-20.267	16382	16441	0	840
-31.771	-25.568	16382	16489	0	840
-36.603	-31.662	16383	16527	0	840
-38.731	-35.016	16383	16557	0	840
-37.396	-37.793	16384	16578	0	840
-35.701	-36.314	16384	16597	0	840
-35.449	-36.278	16384	16619	0	840
-36.783	-36.387	16385	16638	0	840
-37.036	-37.360	16386	16655	0	840
-38.045	-39.199	16387	16675	0	840
-35.810	-37.541	16388	16695	0	840
-33.285	-34.547	16389	16713	0	840
-32.059	-30.905	16391	16732	0	840
-31.590	-29.751	16393	16752	0	840
-35.160	-30.112	16394	16762	0	840
-37.541	-31.049	16395	16758	0	840
-41.219	-32.095	16396	16747	0	840
-42.481	-34.259	16397	16734	0	840
-44.537	-37.072	16398	16720	0	840
-46.592	-39.524	16399	16697	0	840
-44.464	-38.983	16399	16654	0	840
-39.344	-33.574	16399	16601	0	840
-32.925	-28.814	16399	16576	0	840
-29.318	-28.273	16401	16586	0	840
-32.636	-38.298	16402	16593	0	840
-37.072	-51.316	16403	16572	0	840
-43.707	-65.921	16402	16530	0	840
-46.628	-73.783	16403	16492	0	840
-44.068	-73.747	16403	16466	0	840
-42.084	-67.472	16403	16443	0	840
-41.796	-61.414	16403	16413	0	840
-40.966	-56.653	16403	16379	0	840
-43.238	-56.906	16402	16341	0	840
-44.933	-58.384	16402	16307	0	840
-44.320	-56.329	16402	16280	0	840
-43.094	-55.391	16400	16247	0	840
-40.642	-49.008	16399	16200	0	840
-37.649	-47.674	16397	16140	0	840
-35.377	-47.061	16394	16052	0	840
-33.429	-45.943	16390	15933	0	840
-34.043	-43.671	16385	15826	0	840
-32.492	-38.803	16383	15762	0	840
-33.141	-35.341	16379	15717	0	840
-33.141	-34.439	16375	15673	0	840
-34.583	-36.783	16372	15655	0	840
-35.557	-38.658	16370	15675	0	840
-36.639	-37.216	16368	15714	0	840
-34.043	-31.987	16366	15755	0	840
-28.489	-26.109	16364	15787	0	840
-27.335	-25.712	16361	15810	0	840
-26.037	-28.597	16360	15849	0	840
-28.669	-31.699	16358	15910	0	840
-28.814	-31.987	16357	15981	0	840
-28.237	-28.273	16356	16051	0	840
-27.083	-26.866	16355	16109	0	840
-31.951	-29.859	16355	16163	0	840
-40.389	-37.505	16355	16238	0	840
-47.025	-43.707	16356	16333	0	840
-49.441	-41.796	16357	16419	0	840
-44.933	-34.547	16357	16480	0	840
-39.127	-27.804	16357	16518	0	840
-37.144	-25.748	16357	16548	0	840
-37.180	-26.433	16358	16586	0	840
-40.606	-30.905	16358	16629	0	840
-42.589	-33.429	16359	16670	0	840
-41.255	-33.285	16360	16701	0	840
-40.930	-34.547	16361	16725	0	840
-41.760	-34.547	16361	16745	0	840
-41.796	-35.557	16363	16767	0	840
-44.248	-33.718	16364	16788	0	840
-45.366	-32.203	16365	16800	0	840
-42.697	-29.499	16366	16802	0	840
-38.045	-27.443	16367	16801	0	840
-32.131	-23.476	16368	16798	0	840
-27.515	-20.267	16369	16788	0	840
-27.479	-20.014	16369	16750	0	840
-27.587	-17.995	16368	16675	0	840
-27.804	-17.238	16367	16586	0	840
-22.214	-13.199	16366	16518	0	840
-17.202	-8.943	16365	16474	0	840
-9.052	-3.570	16364	16439	0	840
-3.606	-0.433	16364	16408	0	840
-0.685	1.442	16363	16377	0	840
-0.505	1.082	16361	16331	0	840
-5.157	-2.849	16360	16286	0	840
-12.910	-10.999	16361	16280	0	840
-19.726	-18.247	16361	16317	0	840
-24.450	-24.775	16362	16356	0	840
-28.453	-26.686	16362	16370	0	840
-29.715	-24.775	16362	16366	0	840
-31.915	-23.440	16362	16359	0	840
-31.374	-22.070	16362	16352	0	840
-29.895	-19.041	16360	16333	0	840
-28.994	-19.798	16359	16296	0	840
-29.859	-19.834	16358	16257	0	840
-31.626	-23.332	16357	16234	0	840
-33.177	-24.414	16357	16236	0	840
-34.764	-24.883	16357	16255	0	840
-34.511	-24.125	16357	16276	0	840
-36.423	-24.775	16357	16293	0	840
-36.747	-24.306	16357	16313	0	840
-34.403	-25.748	16357	16339	0	840
-35.124	-26.145	16358	16377	0	840
-35.665	-27.119	16359	16417	0	840
-37.108	-26.830	16360	16450	0	840
-37.793	-26.145	16360	16470	0	840
-34.980	-24.450	16361	16484	0	840
-29.679	-23.008	16362	16497	0	840
-25.712	-19.221	16363	16513	0	840
-23.296	-21.132	16363	16531	0	840
-25.965	-19.798	16364	16544	0	840
-28.669	-21.457	16364	16541	0	840
-32.780	-22.467	16365	16523	0	840
-35.810	-26.073	16365	16495	0	840
-37.793	-32.095	16364	16464	0	840
-37.721	-35.485	16363	16427	0	840
-40.317	-38.406	16362	16390	0	840
-38.334	-40.065	16362	16356	0	840
-37.505	-35.882	16361	16328	0	840
-34.151	-33.790	16361	16327	0	840
-31.807	-33.862	16362	16353	0	840
-33.898	-35.124	16363	16384	0	840
-39.163	-38.803	16363	16404	0	840
-43.671	-40.065	16363	16410	0	840
-43.383	-38.803	16364	16418	0	840
-37.577	-33.105	16365	16439	0	840
-29.751	-25.965	16366	16472	0	840
-24.666	-22.935	16367	16511	0	840
-24.162	-21.024	16369	16545	0	840
-24.847	-21.168	16371	16575	0	840
-25.316	-23.512	16373	16608	0	840
-24.847	-21.457	16375	16646	0	840
-26.397	-20.916	16377	16685	0	840
-25.640	-22.358	16379	16716	0	840
-29.535	-22.467	16381	16736	0	840
-28.164	-23.440	16384	16745	0	840
-28.417	-23.657	16385	16751	0	840
-27.407	-23.008	16387	16762	0	840
-27.119	-22.611	16389	16768	0	840
-26.866	-23.909	16391	16766	0	840
-26.181	-23.404	16393	16759	0	840
-25.424	-23.693	16395	16749	0	840
-28.705	-26.758	16397	16738	0	840
-33.898	-29.174	16398	16718	0	840
-39.452	-34.980	16400	16688	0	840
-44.897	-39.488	16401	16648	0	840
-47.025	-40.317	16401	16593	0	840
-48.035	-41.904	16401	16524	0	840
-48.431	-42.301	16402	16464	0	840
-54.562	-46.195	16402	16419	0	840
-58.132	-48.792	16402	16381	0	840
-61.702	-51.857	16401	16329	0	840
-60.476	-50.198	16401	16270	0	840
-55.247	-46.412	16400	16234	0	840
-52.038	-43.599	16401	16224	0	840
-48.503	-41.904	16401	16218	0	840
-48.720	-41.796	16401	16204	0	840
-48.503	-41.399	16400	16178	0	840
-45.546	-39.704	16400	16154	0	840
-43.635	-35.846	16399	16144	0	840
-40.678	-34.836	16399	16144	0	840
-40.065	-34.692	16399	16136	0	840
-37.360	-34.583	16398	16119	0	840
-35.810	-33.646	16396	16097	0	840
-32.744	-30.725	16395	16057	0	840
-27.948	-27.551	16393	16007	0	840
-25.352	-22.863	16391	15978	0	840
-21.745	-21.998	16389	15963	0	840
-18.536	-19.185	16387	15928	0	840
-18.103	-20.808	16384	15880	0	840
-17.490	-20.014	16383	15860	0	840
-21.601	-21.781	16381	15878	0	840
-22.863	-24.089	16380	15907	0	840
-24.053	-23.837	16378	15937	0	840
-22.503	-22.539	16377	15964	0	840
-20.627	-21.854	16376	15987	0	840
-21.385	-19.510	16375	16017	0	840
-26.397	-21.709	16374	16056	0	840
-31.879	-26.433	16373	16102	0	840
-37.432	-28.922	16373	16152	0	840
-38.514	-30.545	16372	16190	0	840
-37.577	-31.735	16371	16213	0	840
-35.918	-30.581	16371	16240	0	840
-36.531	-30.761	16370	16277	0	840
-36.531	-31.590	16370	16305	0	840
-38.045	-33.285	16368	16309	0	840
-40.173	-31.771	16367	16303	0	840
-43.022	-33.682	16366	16313	0	840
-46.268	-34.692	16366	16347	0	840
-49.116	-35.124	16366	16394	0	840
-52.001	-35.485	16367	16444	0	840
-48.215	-35.413	16367	16487	0	840
-46.159	-33.177	16368	16527	0	840
-41.832	-31.122	16369	16565	0	840
-41.183	-30.689	16370	16604	0	840
-41.327	-32.167	16372	16643	0	840
-39.812	-32.420	16372	16675	0	840
-36.891	-29.499	16374	16700	0	840
-29.282	-23.693	16375	16724	0	840
-20.591	-16.012	16376	16755	0	840
-18.860	-13.920	16378	16784	0	840
-17.670	-13.956	16379	16788	0	840
-20.844	-20.339	16379	16747	0	840
-21.096	-21.637	16379	16683	0	840
-20.014	-23.260	16378	16634	0	840
-17.634	-19.293	16379	16609	0	840
-14.317	-18.969	16379	16586	0	840
-15.146	-16.877	16379	16560	0	840
-17.526	-21.060	16379	16539	0	840
-19.618	-23.332	16379	16521	0	840
-23.801	-26.253	16380	16510	0	840
-27.443	-29.751	16381	16527	0	840
-28.561	-29.787	16383	16571	0	840
-29.823	-30.184	16384	16603	0	840
-30.905	-32.023	16384	16597	0	840
-31.049	-29.823	16385	16567	0	840
-28.561	-27.804	16386	16541	0	840
-25.568	-25.460	16386	16522	0	840
-23.224	-22.683	16386	16497	0	840
-21.241	-21.277	16386	16461	0	840
-23.909	-21.421	16386	16424	0	840
-25.279	-22.467	16385	16393	0	840
-27.371	-22.178	16385	16369	0	840
-30.328	-24.378	16385	16346	0	840
-30.833	-27.587	16385	16326	0	840
-31.735	-28.994	16384	16305	0	840
-32.420	-26.830	16384	16285	0	840
-28.850	-24.991	16384	16268	0	840
-29.391	-23.512	16384	16258	0	840
-31.735	-23.549	16384	16256	0	840
-34.079	-26.470	16384	16253	0	840
-35.557	-26.650	16384	16249	0	840
-36.206	-25.856	16383	16246	0	840
-36.062	-25.604	16383	16253	0	840
-37.216	-28.741	16384	16274	0	840
-36.387	-30.833	16384	16301	0	840
-34.980	-30.040	16384	16319	0	840
-31.807	-25.965	16384	16323	0	840
-28.453	-21.349	16384	16322	0	840
-28.489	-18.860	16384	16317	0	840
-30.040	-18.211	16384	16300	0	840
-28.273	-20.267	16382	16261	0	840
-27.191	-19.726	16380	16209	0	840
-28.164	-20.988	16377	16147	0	840
-29.751	-24.270	16375	16085	0	840
-31.230	-26.470	16373	16039	0	840
-30.364	-26.289	16370	16017	0	840
-22.539	-22.827	16369	16007	0	840
-18.211	-18.067	16366	15993	0	840
-12.694	-16.444	16364	15975	0	840
-13.631	-15.687	16362	15971	0	840
-12.586	-16.769	16361	15987	0	840
-11.179	-14.605	16360	16017	0	840
-8.114	-13.018	16358	16048	0	840
-8.871	-13.343	16357	16077	0	840
-10.674	-15.074	16356	16110	0	840
-16.084	-19.834	16356	16150	0	840
-17.093	-19.942	16355	16186	0	840
-19.329	-19.726	16354	16210	0	840
-19.365	-20.339	16353	16225	0	840
-25.388	-22.178	16352	16247	0	840
-34.187	-30.653	16352	16285	0	840
-43.779	-38.262	16352	16341	0	840
-49.513	-43.130	16352	16401	0	840
-46.989	-40.930	16353	16453	0	840
