neuroNicle FX2
D3F25R12
Bluetooth SPP
2023년 11월 15일 수요일
오전 10:25
time interval = 4msec
EEG1	EEG2	PPG	sdPPG	pulse	peak_interval(msec)
-114.533	-101.154	21444	16563	0	316
-121.168	-104.544	21343	16322	0	316
-132.239	-111.143	21141	15931	0	316
-137.685	-116.841	20776	15451	0	316
-138.190	-118.608	20432	14921	0	316
-127.732	-112.838	19966	14360	0	316
-118.536	-103.606	19420	13822	0	316
-114.677	-101.551	18954	13346	0	316
-121.529	-106.671	18307	12942	0	316
-130.004	-116.697	17942	12673	0	316
-134.583	-123.152	17699	12718	0	316
-135.124	-127.443	17639	13153	0	316
-131.662	-125.965	17699	13813	0	316
-139.452	-127.479	18043	14571	0	316
-150.343	-135.016	18347	15375	0	316
-166.787	-146.700	18610	16097	0	316
-173.386	-153.480	18813	16518	0	316
-170.934	-153.552	18813	16608	0	316
-161.558	-144.176	18610	16514	0	316
-149.477	-133.285	18549	16401	0	316
-141.147	-129.679	18549	16473	0	316
-143.383	-132.853	18651	16689	0	316
-155.608	-143.130	18610	16738	0	316
-172.557	-154.886	18347	16536	0	316
-189.794	-162.640	18104	16223	0	316
-199.964	-165.236	17801	15859	0	316
-191.201	-160.909	17335	15469	0	316
-171.836	-146.736	16930	15069	0	316
-146.772	-128.489	16424	14679	0	316
-128.381	-114.605	16081	14414	0	316
-122.539	-109.953	16040	14544	0	316
-129.174	-115.290	16243	15209	0	316
-135.593	-122.791	16485	16025	0	316
-139.344	-127.407	16626	16532	0	316
-134.944	-121.349	16687	16716	0	316
-129.174	-114.136	16687	16756	0	316
-124.306	-104.580	16586	16743	0	316
-117.634	-94.915	16485	16662	0	316
-106.599	-86.946	16384	16576	0	316
-96.646	-81.825	16485	16707	0	316
-94.194	-83.195	16626	17025	0	316
-105.301	-95.240	16626	17218	0	316
-124.306	-105.950	16525	17147	0	316
-141.507	-118.464	16424	16936	0	316
-148.648	-124.125	16182	16648	0	316
-147.674	-125.135	15878	16313	0	316
-140.317	-126.866	15777	16034	0	316
-136.855	-126.145	15676	16030	0	316
-139.127	-123.224	15777	16344	0	316
-139.560	-123.837	16040	16814	0	316
-147.638	-127.407	16344	17281	0	316
-158.889	-139.235	16424	17519	0	316
-170.790	-156.365	16485	17474	0	316
-181.825	-169.059	16384	17286	0	316
-183.664	-173.170	16243	17016	0	316
-177.209	-168.482	16040	16698	0	316
-160.404	-155.824	15777	16358	0	316
-143.383	-141.471	15575	16030	0	316
-134.187	-132.492	15372	15806	0	316
-133.718	-130.400	15433	15873	0	316
-141.832	-132.456	15534	16187	0	316
-149.369	-138.045	15575	16428	0	316
-153.949	-140.822	15636	16559	0	316
-151.713	-138.947	15878	16828	0	316
-149.261	-135.016	16182	17227	0	316
-145.871	-129.427	16344	17465	0	316
-143.779	-122.467	16384	17456	0	316
-138.406	-117.562	16384	17299	0	316
-131.085	-110.566	16384	17138	0	316
-124.017	-106.094	16525	17182	0	316
-120.195	-104.147	16687	17375	0	316
-117.129	-102.272	16728	17407	0	316
-118.824	-102.633	16626	17196	0	316
-121.962	-106.852	16525	16868	0	316
-129.463	-110.422	16424	16581	0	316
-131.158	-112.405	16485	16527	0	316
-130.184	-110.206	16728	16774	0	316
-122.575	-107.032	17031	17173	0	316
-114.281	-104.400	17335	17555	0	316
-116.084	-113.018	17699	17784	0	316
-132.023	-128.237	18043	17995	0	316
-148.359	-143.924	18408	18246	0	316
-161.450	-149.585	18509	18282	0	316
-161.522	-145.041	18610	18013	0	316
-154.309	-133.285	18448	17604	0	316
-146.015	-123.260	18408	17120	0	316
-141.976	-121.313	18246	16693	0	316
-141.039	-126.253	18246	16532	0	316
-134.259	-128.741	18347	16550	0	316
-127.263	-130.508	18307	16433	0	316
-126.866	-131.735	18104	16129	0	316
-131.194	-132.167	17942	15752	0	316
-144.897	-137.000	17639	15334	0	316
-153.083	-137.937	17294	14890	0	316
-154.922	-135.846	16890	14446	0	316
-147.458	-131.338	16424	14010	0	316
-138.983	-125.676	16081	13705	0	316
-133.105	-121.818	15939	13723	0	316
-132.167	-118.103	15878	13997	0	316
-132.456	-118.897	15737	14185	0	316
-134.043	-119.257	15474	14167	0	316
-132.816	-121.493	15170	14069	0	316
-129.895	-123.476	14927	13956	0	316
-121.204	-117.346	14522	13844	0	316
-110.566	-109.196	14158	13754	0	316
-101.767	-97.656	13814	13678	0	316
-100.036	-92.355	13409	13620	0	316
-105.914	-96.250	13044	13579	0	316
-120.736	-106.455	12700	13566	0	316
-132.384	-120.375	12295	13584	0	316
-140.029	-130.292	11931	13642	0	316
-139.127	-133.682	11688	13759	0	316
-132.889	-128.814	11384	13934	0	316
-120.627	-118.572	11121	14127	0	316
-113.199	-110.242	10919	14365	0	316
-107.934	-105.481	10777	14661	0	316
-108.907	-107.970	10615	14980	0	316
-114.389	-117.923	10615	15357	0	316
-123.549	-126.109	10818	15981	0	316
-132.600	-134.259	11121	16805	0	316
-138.983	-135.521	11384	17501	0	316
-140.606	-136.531	11587	17927	0	316
-134.475	-131.699	11729	18192	0	316
-123.801	-124.450	11891	18363	0	316
-110.350	-118.211	11931	18444	0	316
-101.803	-111.143	12093	18538	0	316
-102.056	-112.189	12538	18928	0	316
-111.756	-120.014	13308	19759	0	316
-130.040	-136.855	13955	20634	0	316
-151.569	-156.617	14563	21105	0	316
-169.383	-175.225	15028	21177	0	316
-180.238	-187.378	15271	21024	0	316
-178.002	-189.614	15474	20724	0	316
-168.590	-182.185	15534	20302	0	316
-158.276	-170.646	15636	19804	0	316
-147.926	-161.089	15575	19265	1	604
-150.018	-156.293	15534	18726	0	604
-153.119	-156.798	15534	18188	0	604
-154.706	-155.175	15332	17645	0	604
-154.021	-152.290	15170	17142	0	604
-147.169	-144.969	15028	16716	0	604
-145.366	-140.786	14866	16335	0	604
-146.736	-145.294	14765	15954	0	604
-147.133	-152.903	14461	15590	0	604
-144.789	-161.017	14320	15289	0	604
-138.875	-159.178	14219	15047	0	604
-134.151	-154.526	13915	14827	0	604
-132.961	-146.664	13753	14607	0	604
-135.449	-141.904	13449	14410	0	604
-136.603	-141.616	13247	14253	0	604
-135.882	-142.914	13004	14131	0	604
-135.774	-143.960	12802	14055	0	604
-133.321	-141.255	12599	14010	0	604
-132.672	-137.865	12336	13997	0	604
-128.597	-134.836	12133	14010	0	604
-126.902	-134.800	11992	14055	0	604
-124.666	-139.668	11729	14136	0	604
-126.902	-142.842	11627	14248	0	604
-124.666	-141.796	11526	14472	0	604
-123.188	-135.810	11789	14984	0	604
-118.860	-131.410	12194	15814	0	604
-120.700	-130.364	12741	16787	0	604
-121.601	-137.216	13348	17726	0	604
-124.270	-142.914	13814	18390	0	604
-122.972	-143.347	14259	18740	0	604
-118.320	-137.721	14461	18919	0	604
-117.093	-128.633	14725	18991	0	604
-117.995	-121.493	14967	18937	0	604
-124.630	-125.496	15028	18785	0	604
-135.918	-135.124	15170	18596	0	604
-144.032	-149.008	15170	18385	0	604
-148.936	-160.224	15231	18125	0	604
-146.520	-159.719	15170	17806	0	604
-143.347	-156.040	15069	17470	0	604
-141.796	-150.379	15028	17120	0	604
-141.580	-146.664	14927	16765	0	604
-144.717	-144.717	14866	16514	0	604
-141.471	-142.697	14967	16559	0	604
-137.505	-140.281	15231	16832	0	604
-135.449	-140.389	15372	16998	0	604
-140.606	-144.717	15474	16949	0	604
-146.051	-149.621	15474	16810	0	604
-144.032	-148.936	15474	16635	0	604
-133.934	-139.993	15372	16419	0	604
-118.536	-129.679	15332	16187	0	604
-114.208	-121.818	15271	16034	0	604
-119.473	-121.781	15575	16165	0	604
-130.292	-127.227	15838	16594	0	604
-137.973	-126.578	16344	17182	0	604
-133.898	-125.135	16829	17743	0	604
-126.614	-119.690	17132	18085	0	604
-118.247	-122.142	17497	18147	0	604
-120.050	-124.666	17639	18031	0	604
-123.873	-132.059	17740	17833	0	604
-129.679	-132.672	17801	17600	0	604
-133.033	-129.499	17902	17402	0	604
-132.925	-126.902	18307	17497	0	604
-132.528	-125.063	18914	18017	0	604
-132.564	-128.814	19420	18587	0	604
-135.665	-134.944	19764	18767	0	604
-139.452	-141.976	20169	18664	0	604
-139.380	-144.717	20533	18646	0	604
-137.072	-142.193	20877	18722	0	604
-135.197	-137.505	21080	18578	0	604
-135.413	-134.006	21242	18143	0	604
-137.468	-132.023	21080	17564	0	604
-137.649	-133.646	20877	16909	0	604
-136.639	-132.420	20635	16214	0	604
-133.393	-129.318	20270	15505	0	604
-128.850	-119.329	19865	14818	0	604
-127.263	-113.740	19420	14167	0	604
-122.935	-106.058	18954	13561	0	604
-120.087	-103.787	18549	13104	0	604
-118.860	-105.049	18307	12991	0	604
-124.522	-112.477	18347	13265	0	604
-138.082	-123.332	18549	13790	0	604
-151.713	-135.665	18711	14369	0	604
-159.070	-144.825	18813	14760	0	604
-161.810	-151.208	18752	14908	0	604
-155.896	-149.008	18752	14953	0	604
-154.670	-148.395	18651	14935	0	604
-156.329	-147.674	18408	14823	0	604
-161.053	-148.972	18205	14643	0	604
-159.466	-148.720	17902	14450	0	604
-152.723	-143.202	17537	14262	0	604
-140.930	-133.682	17193	14064	0	604
-131.518	-125.604	16829	13867	0	604
-132.672	-122.178	16424	13683	0	604
-136.206	-125.604	16040	13539	0	604
-141.327	-133.826	15575	13422	0	604
-140.137	-136.531	15231	13337	0	604
-129.138	-131.266	14765	13288	0	604
-117.346	-119.906	14461	13364	0	604
-109.917	-110.602	14522	13844	0	604
-109.665	-106.167	14967	14845	0	604
-115.831	-108.547	15271	15945	0	604
-125.207	-113.884	15575	16675	0	604
-126.938	-114.461	15838	17142	0	604
-126.289	-114.641	16344	17797	0	604
-119.293	-110.169	17092	18816	0	604
-112.045	-107.140	17801	19795	0	604
-107.970	-107.429	18205	20302	0	604
-113.523	-111.215	18610	20369	0	604
-127.732	-119.546	18813	20226	0	604
-143.527	-131.590	18853	19965	0	604
-152.759	-135.918	18914	19579	0	604
-149.153	-134.800	18752	19059	0	604
-142.770	-132.780	18651	18457	1	448
-140.822	-133.069	18549	17936	0	448
-146.592	-141.904	18549	17703	0	448
-159.755	-149.693	18651	17681	0	448
-165.092	-153.877	18549	17510	0	448
-164.263	-149.693	18509	17111	0	448
-161.378	-145.582	18307	16621	0	448
-157.519	-147.097	18003	16124	0	448
-161.378	-146.881	17639	15621	0	448
-160.476	-147.277	17294	15141	0	448
-154.201	-141.904	16890	14688	0	448
-143.202	-130.725	16485	14270	0	448
-130.761	-121.493	16081	13902	0	448
-124.450	-117.490	15636	13588	0	448
-124.089	-115.002	15170	13332	0	448
-130.328	-117.743	14765	13130	0	448
-136.531	-118.500	14320	12991	0	448
-135.377	-114.821	13915	12928	0	448
-131.446	-113.559	13611	12928	0	448
-129.174	-110.025	13247	12978	0	448
-131.338	-114.461	12943	13157	0	448
-141.435	-122.647	13044	13665	0	448
-152.903	-133.429	13105	14432	0	448
-159.034	-140.642	13247	15119	0	448
-156.149	-143.996	13247	15572	0	448
-154.742	-144.897	13409	15927	0	448
-158.312	-148.323	13409	16268	0	448
-166.715	-149.513	13449	16541	0	448
-168.410	-145.330	13409	16716	0	448
-161.486	-136.206	13409	16810	0	448
-146.015	-125.496	13348	16855	0	448
-134.511	-115.651	13308	16855	0	448
-130.725	-116.769	13206	16828	0	448
-137.757	-118.824	13004	16783	0	448
-144.861	-124.270	12943	16720	0	448
-144.140	-123.945	12842	16734	0	448
-141.075	-124.847	13105	17030	0	448
-137.505	-124.053	13449	17627	0	448
-136.639	-124.522	14057	18372	0	448
-141.940	-125.135	14522	19081	0	448
-152.146	-131.410	14967	19530	0	448
-159.178	-138.550	15332	19660	0	448
-160.368	-143.130	15534	19597	0	448
-151.100	-142.625	15636	19422	0	448
-137.577	-134.764	15676	19153	0	448
-124.955	-122.214	15737	18812	0	448
-121.277	-114.713	15676	18426	0	448
-123.152	-112.550	15636	18044	0	448
-130.689	-116.625	15575	17672	0	448
-136.278	-123.008	15474	17299	0	448
-142.806	-130.076	15332	16954	0	448
-148.720	-135.521	15231	16662	0	448
-157.807	-141.363	15129	16392	0	448
-162.459	-143.347	15028	16115	0	448
-163.217	-143.347	14826	15837	0	448
-156.473	-141.219	14623	15608	0	448
-151.028	-141.075	14461	15415	0	448
-146.448	-138.334	14360	15235	0	448
-146.989	-139.488	14117	15065	0	448
-152.362	-133.898	13955	14926	0	448
-153.191	-131.230	13753	14814	0	448
-151.461	-128.922	13712	14814	0	448
-149.874	-129.499	13814	15114	0	448
-144.140	-129.354	14057	15648	0	448
-141.399	-128.417	14219	16079	0	448
-141.435	-128.381	14320	16286	0	448
-143.130	-129.535	14522	16469	0	448
-145.943	-136.314	14967	16886	0	448
-145.078	-138.767	15271	17456	0	448
-139.524	-134.475	15575	17847	0	448
-132.276	-125.027	15939	18053	0	448
-129.895	-119.906	16525	18489	0	448
-134.547	-121.096	17396	19341	0	448
-144.969	-131.266	18145	20199	0	448
-150.884	-138.550	18752	20598	0	448
-151.821	-141.724	19258	20589	0	448
-147.818	-136.891	19562	20392	0	448
-141.039	-128.597	19825	20046	0	448
-136.855	-123.945	19865	19539	0	448
-132.853	-120.844	19825	18928	1	316
-129.931	-119.221	19825	18282	0	316
-128.741	-117.562	19622	17627	0	316
-130.581	-118.608	19460	16945	0	316
-131.410	-118.680	19157	16250	0	316
-134.223	-118.933	18853	15563	0	316
-132.744	-121.962	18408	14908	0	316
-131.699	-120.772	18043	14311	0	316
-127.804	-119.618	17639	13772	0	316
-125.676	-117.634	17132	13297	0	316
-129.282	-120.339	16829	12991	0	316
-138.226	-128.201	16728	13045	0	316
-147.241	-137.865	16687	13382	0	316
-158.096	-145.438	16586	13651	0	316
-163.902	-149.946	16586	13822	0	316
-166.931	-147.602	16788	14208	0	316
-167.580	-145.150	16890	14778	0	316
-166.607	-143.779	16991	15191	0	316
-159.683	-143.671	16991	15334	0	316
-153.552	-142.697	16930	15352	0	316
-150.126	-145.582	16829	15307	0	316
-150.126	-148.071	16586	15231	0	316
-155.608	-152.001	16525	15244	0	316
-154.959	-149.513	16687	15545	0	316
-148.395	-144.104	16890	16039	0	316
-141.075	-135.990	17031	16415	0	316
-133.646	-131.662	17092	16594	0	316
-132.600	-134.079	17193	16657	0	316
-137.649	-138.983	17132	16621	0	316
-142.337	-142.445	17031	16487	0	316
-145.907	-144.212	16890	16299	0	316
-145.727	-142.697	16687	16075	0	316
-140.317	-138.370	16525	15918	0	316
-134.583	-136.603	16586	16016	0	316
-129.499	-131.879	16687	16317	0	316
-129.427	-131.049	16687	16500	0	316
-131.735	-134.079	16788	16559	0	316
-142.553	-141.327	17031	16805	0	316
-151.713	-148.179	17234	17223	0	316
-154.165	-152.218	17436	17465	0	316
-152.110	-149.549	17436	17425	0	316
-142.734	-144.789	17537	17340	0	316
-136.062	-144.537	17740	17465	0	316
-136.242	-148.503	18003	17734	0	316
-141.652	-154.418	18246	17927	0	316
-145.727	-155.968	18651	18129	0	316
-144.428	-152.290	18914	18417	0	316
-140.642	-145.330	19218	18542	0	316
-138.226	-143.419	19258	18390	0	316
-140.534	-146.015	19319	18080	0	316
-143.347	-149.513	19218	17694	0	316
-146.015	-153.985	19157	17290	0	316
-145.041	-154.382	18954	16850	0	316
-142.012	-155.896	18711	16349	0	316
-138.803	-160.512	18408	15819	0	316
-135.233	-159.647	18043	15330	0	316
-133.466	-156.653	17699	14885	0	316
-131.807	-146.592	17436	14549	0	316
-132.023	-137.829	17335	14513	0	316
-132.420	-133.862	17294	14724	0	316
-133.285	-135.701	17234	14849	0	316
-130.905	-141.363	17031	14787	0	316
-126.470	-141.399	16829	14656	0	316
-123.476	-134.006	16687	14603	0	316
-120.555	-128.128	16728	14809	0	316
-125.171	-125.784	16829	15227	0	316
-131.879	-132.312	16829	15523	0	316
-139.740	-145.871	16788	15617	0	316
-147.097	-155.391	16687	15617	0	316
-150.307	-159.863	16525	15550	0	316
-153.805	-160.079	16344	15424	0	316
-155.608	-155.968	16142	15289	0	316
-153.444	-155.824	15878	15168	0	316
-154.129	-156.581	15575	15034	0	316
-153.372	-159.466	15332	14903	0	316
-160.512	-163.902	15069	14800	0	316
-166.066	-167.905	14826	14733	0	316
-174.937	-171.619	14461	14656	0	316
-183.772	-176.560	14219	14585	0	316
-189.145	-182.726	13915	14553	0	316
-193.004	-191.057	13611	14558	0	316
-189.614	-193.689	13409	14585	0	316
-178.291	-193.040	13105	14625	0	316
-164.984	-183.628	12903	14683	0	316
-156.906	-171.439	12700	14760	0	316
-155.031	-163.974	12397	14845	0	316
-161.450	-160.332	12235	14948	0	316
-168.806	-163.469	12032	15065	0	316
-175.298	-169.167	11992	15298	0	316
-180.995	-174.865	12133	15819	0	316
-179.300	-175.766	12397	16545	0	316
-175.550	-175.838	12640	17147	0	316
-169.167	-172.449	12741	17506	0	316
-168.590	-174.180	12903	17726	0	316
-175.298	-180.058	13044	17954	0	316
-187.270	-184.602	13550	18399	0	316
-193.942	-185.972	13955	19009	0	316
-194.122	-179.373	14360	19458	0	316
-187.450	-172.340	14623	19602	0	316
-183.808	-170.465	14866	19579	0	316
-187.198	-178.002	15069	19480	0	316
-191.814	-186.369	15170	19319	0	316
-188.893	-188.388	15170	19068	0	316
-181.103	-180.022	15231	18753	0	316
-169.419	-167.905	15332	18524	0	316
-164.587	-160.620	15676	18605	0	316
-167.436	-164.551	16142	18897	0	316
-176.596	-170.393	16485	19108	0	316
-178.940	-175.081	16930	19310	0	316
-172.088	-168.734	17436	19579	0	316
-160.873	-156.653	17801	19642	0	316
-145.691	-143.058	18043	19409	0	316
-135.593	-135.557	18104	19018	0	316
-132.492	-133.321	18145	18542	0	316
-136.495	-134.583	18145	18004	0	316
-140.353	-136.062	18003	17434	0	316
-141.652	-136.242	17841	16859	0	316
-138.514	-129.643	17639	16295	0	316
-133.790	-125.712	17396	15747	0	316
-137.324	-128.922	17092	15235	0	316
-147.818	-134.006	16788	14760	0	316
-161.197	-145.655	16586	14410	0	316
-169.311	-151.533	16586	14387	0	316
-168.157	-154.309	16626	14630	0	316
-164.190	-152.867	16626	14800	0	316
-159.755	-150.811	16586	14823	0	316
-157.699	-152.038	16586	14818	0	316
-155.139	-145.727	16424	14809	0	316
-150.739	-139.055	16344	14760	0	316
-145.510	-132.672	16182	14697	0	316
-142.697	-130.256	16142	14639	0	316
-139.488	-130.545	15980	14643	0	316
-133.682	-130.364	16182	14989	0	316
-126.289	-125.640	16687	15810	0	316
-124.811	-132.961	13449	18309	0	316
-125.460	-129.895	13712	18462	0	316
-128.994	-129.427	14158	18812	0	316
-134.620	-132.636	14522	19301	0	316
-138.370	-134.980	14866	19597	0	316
-138.406	-139.524	15170	19602	0	316
-137.541	-143.707	15231	19445	0	316
-139.416	-147.422	15332	19202	0	316
-144.861	-154.382	15372	18888	0	316
-148.431	-156.581	15433	18623	0	316
-149.657	-157.699	15737	18605	0	316
-145.510	-153.480	16182	18892	0	316
-140.786	-147.926	16728	19337	0	316
-138.478	-144.753	17234	19727	0	316
-140.462	-145.366	17699	19848	0	316
-146.015	-150.487	18003	19687	0	316
-148.864	-153.228	18145	19368	0	316
-144.248	-154.742	18205	18937	0	316
-134.583	-147.962	18246	18417	0	316
-126.001	-143.022	18145	17860	0	316
-123.512	-139.812	18145	17393	0	316
-127.155	-141.976	18307	17173	0	316
-132.889	-144.104	18509	17147	0	316
-133.754	-142.950	18448	16989	0	316
-127.191	-139.885	18448	16612	0	316
-123.440	-139.452	18307	16165	0	316
-121.637	-142.914	18104	15698	0	316
-126.974	-149.044	17841	15227	0	316
-130.508	-151.172	17598	14760	0	316
-128.164	-145.402	17234	14306	0	316
-121.890	-133.934	16890	13889	0	316
-112.586	-128.741	16485	13521	0	316
-107.934	-126.722	16081	13202	0	316
-109.412	-133.285	15676	12942	0	316
-112.550	-138.695	15433	12830	0	316
-116.480	-140.101	15332	13050	0	316
-118.428	-139.524	15372	13530	0	316
-116.733	-135.629	15332	13938	0	316
-119.185	-135.774	15372	14239	0	316
-122.070	-139.199	15636	14742	0	316
-128.128	-143.058	15878	15451	0	316
-132.203	-145.871	16081	16007	0	316
-136.964	-147.241	16182	16277	0	316
-139.849	-150.847	16243	16371	0	316
-145.186	-161.342	16182	16384	0	316
-150.992	-170.501	16182	16353	0	316
-149.513	-174.432	16081	16281	0	316
-142.914	-164.731	15939	16160	0	316
-126.470	-148.503	15737	15999	0	316
-114.281	-133.285	15534	15850	0	316
-110.530	-134.079	15372	15729	0	316
-112.730	-142.301	15170	15590	0	316
-120.411	-155.752	14927	15442	0	316
-122.286	-158.529	14664	15298	0	316
-118.139	-148.612	14461	15168	0	316
-113.776	-136.819	14158	15060	0	316
-110.458	-121.781	13915	14975	0	316
-111.432	-116.048	13712	14903	0	316
-110.999	-114.785	13409	14849	0	316
-108.583	-112.946	13206	14818	0	316
-102.092	-114.894	12943	14818	0	316
-100.649	-117.057	12700	14836	0	316
-107.753	-126.217	12498	14881	0	316
-118.211	-136.314	12397	15034	0	316
-129.174	-142.878	12640	15581	0	316
-130.328	-142.265	13247	16621	0	316
-125.929	-136.891	13814	17757	0	316
-121.854	-134.006	14360	18515	0	316
-123.368	-135.269	14664	18901	0	316
-132.925	-141.255	14967	19094	0	316
-139.993	-144.681	15231	19175	0	316
-140.606	-141.760	15433	19157	0	316
-132.961	-134.439	15636	19121	0	316
-126.542	-129.499	16040	19292	0	316
-127.515	-131.374	16485	19624	0	316
-135.449	-139.416	16788	19763	0	316
-147.602	-151.785	16991	19602	0	316
-150.415	-156.293	17031	19292	0	316
-146.376	-152.146	17092	18910	0	316
-133.610	-142.373	17092	18466	0	316
-121.421	-126.325	17031	17981	1	564
-114.461	-116.264	16890	17474	0	564
-114.064	-111.720	16728	16971	0	564
-116.841	-113.704	16485	16482	0	564
-126.794	-121.529	16243	16021	0	564
-131.735	-128.958	15980	15586	0	564
-136.819	-134.583	15737	15186	0	564
-136.531	-135.593	15433	14832	0	564
-133.898	-135.449	15129	14522	0	564
-134.872	-133.538	14927	14275	0	564
-135.629	-136.567	14623	14113	0	564
-141.832	-141.868	14421	14037	0	564
-145.258	-143.563	14219	13997	0	564
-143.022	-142.012	13955	13983	0	564
-137.973	-138.226	13814	14019	0	564
-133.682	-134.331	13611	14113	0	564
-135.701	-134.547	13510	14212	0	564
-145.114	-142.878	13308	14311	0	564
-156.581	-151.641	13206	14455	0	564
-163.289	-156.004	13206	14719	0	564
-156.653	-154.057	13449	15262	0	564
-147.169	-145.186	13712	15981	0	564
-134.872	-136.675	14016	16545	0	564
-131.374	-132.889	14117	16859	0	564
-135.774	-133.610	14259	17043	0	564
-143.022	-136.206	14320	17151	0	564
-140.317	-134.115	14320	17191	0	564
-132.023	-124.883	14360	17182	0	564
-118.356	-112.658	14421	17142	0	564
-108.763	-107.862	14320	17070	0	564
-108.943	-109.989	14320	16971	0	564
-114.713	-115.290	14219	16864	0	564
-118.933	-119.221	14158	16743	0	564
-120.014	-113.920	14057	16617	0	564
-115.975	-109.124	13955	16509	0	564
-116.084	-102.669	13955	16446	0	564
-113.956	-104.868	13854	16415	0	564
-112.982	-107.465	13814	16380	0	564
-110.638	-108.078	13814	16331	0	564
-110.314	-107.393	13652	16317	0	564
-112.694	-105.914	13712	16331	0	564
-121.529	-106.203	13611	16340	0	564
-130.653	-111.035	13652	16344	0	564
-141.327	-117.706	13712	16460	0	564
-148.756	-127.047	14219	16958	0	564
-150.162	-138.983	14927	17914	0	564
-150.992	-146.159	15636	18910	0	564
-145.258	-146.051	16283	19530	0	564
-141.724	-142.409	16728	19790	0	564
-142.517	-134.547	17132	19835	0	564
-143.743	-128.777	17335	19705	0	564
-142.445	-121.529	17537	19440	0	564
-134.331	-114.245	17598	19081	0	564
-123.585	-103.787	17639	18650	0	564
-116.012	-98.702	17639	18183	0	564
-113.235	-99.603	17537	17690	0	564
-118.608	-107.970	17396	17191	0	564
-121.818	-115.507	17294	16689	0	564
-123.044	-116.805	17132	16299	0	564
-122.683	-113.631	17294	16214	0	564
-122.755	-111.648	17436	16367	0	564
-124.955	-109.665	17598	16500	0	564
-123.909	-111.973	17942	16707	0	564
-123.512	-112.550	18448	17133	0	564
-119.437	-111.107	19056	17712	0	564
-120.555	-110.674	19622	18251	0	564
-123.116	-113.343	20027	18502	0	564
-131.013	-122.214	20331	18426	0	564
-141.147	-132.131	20574	18273	0	564
-147.494	-141.832	20938	18305	0	564
-148.359	-143.924	21343	18435	0	564
-146.123	-139.344	21545	18354	0	564
-141.616	-134.043	21647	18004	0	564
-141.003	-133.033	21748	17528	0	564
-146.700	-140.137	21545	16971	0	564
-151.028	-149.513	21343	16353	0	564
-151.461	-154.886	21039	15702	0	564
-144.969	-150.884	20675	15056	0	564
-137.613	-145.150	20270	14419	0	564
-132.816	-135.665	19825	13817	1	316
-131.951	-129.787	19258	13270	0	316
-125.893	-120.195	18813	12794	0	316
-121.998	-110.819	18509	12480	0	316
-116.084	-103.426	18246	12516	0	316
-115.362	-100.649	18307	12920	0	316
-115.615	-101.947	18448	13534	0	316
-116.589	-105.229	18610	14167	0	316
-114.569	-109.160	18711	14594	0	316
-116.444	-114.353	18610	14769	0	316
-121.421	-123.260	18549	14836	0	316
-127.119	-124.847	18448	14849	0	316
-131.879	-124.955	18307	14890	0	316
-130.941	-118.933	18448	15155	0	316
-128.417	-113.631	18610	15635	0	316
-130.905	-115.687	18651	15999	0	316
-134.511	-121.277	18651	16106	0	316
-136.747	-126.722	18509	16052	0	316
-137.432	-130.869	18408	15931	0	316
-132.095	-134.043	18205	15783	0	316
-129.607	-132.997	17942	15595	0	316
-125.243	-127.912	17639	15375	0	316
-120.159	-120.123	17335	15141	0	316
-116.625	-107.140	16991	14908	0	316
-108.439	-96.682	16626	14683	0	316
-102.849	-90.732	16283	14486	0	316
-102.524	-91.958	15878	14320	0	316
-107.248	-97.151	15636	14284	0	316
-115.254	-106.058	15676	14648	0	316
-117.021	-109.340	16081	15523	0	316
-115.759	-107.321	16424	16482	0	316
-106.924	-102.452	16687	17084	0	316
-105.517	-98.738	16829	17344	0	316
-112.946	-105.409	16930	17438	0	316
-129.282	-119.365	16930	17438	0	316
-143.094	-130.761	16890	17371	0	316
-143.274	-131.590	16829	17245	0	316
-132.167	-122.070	16626	17048	0	316
-119.041	-113.307	16424	16805	0	316
-116.264	-115.254	16243	16572	0	316
-125.820	-132.636	16040	16367	0	316
-140.606	-148.071	15777	16156	0	316
-148.251	-158.276	15636	15945	0	316
-147.277	-153.047	15372	15774	0	316
-141.868	-143.851	15170	15653	0	316
-141.976	-139.055	14927	15541	0	316
-145.402	-141.111	14664	15420	0	316
-149.549	-145.655	14461	15312	0	316
-148.684	-143.743	14259	15258	0	316
-141.940	-138.839	14016	15240	0	316
-134.439	-134.944	13955	15321	0	316
-130.112	-131.122	14057	15666	0	316
-127.587	-134.908	14259	16227	0	316
-130.617	-139.704	14421	16671	0	316
-135.124	-140.894	14461	16891	0	316
-135.882	-140.570	14563	17003	0	316
-138.983	-140.858	14563	17052	0	316
-138.586	-143.887	14522	17039	0	316
-140.966	-150.162	14461	16985	0	316
-144.897	-157.807	14421	16891	0	316
-152.182	-166.498	14360	16859	0	316
-159.466	-170.177	14563	17084	0	316
-160.260	-168.915	14866	17506	0	316
-159.142	-168.338	15028	17806	0	316
-154.886	-171.114	15170	17901	0	316
-156.509	-177.137	15433	17981	0	316
-160.981	-188.677	15878	18345	0	316
-171.367	-198.341	16626	19121	0	316
-184.205	-207.285	17335	19943	0	316
-191.922	-209.484	17942	20374	0	316
-195.745	-213.848	18307	20392	0	316
-199.098	-217.021	18549	20181	0	316
-198.413	-218.031	18813	19848	0	316
-190.408	-211.323	18813	19418	0	316
-177.569	-199.171	18853	18892	0	316
-164.515	-187.018	18711	18287	0	316
-156.329	-179.373	18610	17645	0	316
-155.175	-179.733	18347	16985	0	316
-161.955	-186.080	18043	16344	0	316
-163.072	-187.018	17801	15729	1	316
-159.647	-180.995	17537	15253	0	316
-151.100	-170.790	17537	15105	0	316
-149.261	-163.938	17537	15235	0	316
-153.768	-166.498	17497	15294	0	316
-156.906	-174.901	17537	15244	0	316
-157.375	-182.330	17740	15397	0	316
-146.881	-179.120	17942	15743	0	316
-131.771	-168.301	17942	15936	0	316
-122.899	-155.536	18003	15882	0	316
-120.339	-145.041	17942	15743	0	316
-125.532	-143.130	17841	15581	0	316
-129.499	-142.661	17639	15361	0	316
-128.994	-144.032	17436	15101	0	316
-131.194	-145.294	17234	14863	0	316
-138.045	-154.057	17132	14755	0	316
-151.749	-161.774	17193	14948	0	316
-162.712	-170.393	17294	15352	0	316
-168.554	-175.153	17335	15657	0	316
-160.404	-170.429	17436	15756	0	316
-152.254	-166.102	17335	15729	0	316
-149.477	-164.190	17193	15621	0	316
-154.742	-166.859	17031	15460	0	316
-165.669	-171.186	16788	15262	0	316
-172.160	-174.576	16525	15047	0	316
-167.761	-171.727	16243	14827	0	316
-159.502	-167.328	16040	14710	0	316
-153.624	-165.272	16142	14980	0	316
-154.886	-168.157	16687	15855	0	316
-163.541	-175.298	17436	17093	0	316
-176.596	-182.149	18205	18273	0	316
-184.674	-186.260	19218	19328	0	316
-187.450	-189.470	20230	20432	0	316
-190.516	-189.398	21282	21437	0	316
-190.371	-186.080	22396	22259	0	316
-187.414	-182.474	23711	23165	0	316
-183.916	-175.189	25027	24148	0	316
-179.048	-169.636	26201	24723	0	316
-178.146	-172.413	26910	24602	0	316
-181.356	-178.002	27416	23933	0	316
-183.159	-187.018	27618	22954	0	316
-178.363	-183.556	27618	21752	0	316
-163.722	-168.013	27416	20392	0	316
-149.441	-149.080	27052	18955	0	316
-143.455	-138.767	26545	17506	0	316
-149.802	-144.032	25898	16066	0	316
-161.666	-156.870	25230	14665	0	316
-168.662	-167.724	24420	13368	0	316
-169.852	-166.498	23671	12192	0	316
-166.751	-161.702	22760	11129	0	316
-166.282	-158.817	21849	10177	0	316
-172.196	-165.741	20979	9459	0	316
-175.838	-172.052	20371	9158	0	316
-174.973	-171.655	19926	9194	0	316
-167.616	-165.453	19258	9230	0	316
-160.224	-158.637	18651	9158	0	316
-156.365	-154.850	17942	9091	0	316
-159.358	-160.404	17234	9064	0	316
-164.840	-164.984	16586	9082	0	316
-166.859	-166.246	15878	9158	0	316
-163.505	-158.601	15231	9297	0	316
-151.569	-142.301	14664	9585	0	316
-137.108	-126.938	14320	10200	0	316
-127.551	-121.096	14219	11079	0	316
-127.479	-122.539	14057	11990	0	316
-131.987	-133.466	14158	12991	0	316
-143.815	-144.501	14320	14077	0	316
-153.588	-151.749	14360	14957	0	316
-157.266	-150.018	14360	15550	0	316
-154.598	-142.301	14320	15990	0	316
-147.313	-134.800	14158	16308	0	316
-141.219	-128.092	14057	16518	0	316
-136.170	-126.109	13854	16675	0	316
-134.439	-128.850	13652	16783	0	316
-137.144	-131.446	13449	16832	0	316
-138.370	-128.669	13206	16828	0	316
-138.370	-127.840	12903	16805	0	316
-140.498	-129.607	12700	16769	0	316
-143.419	-131.879	12336	16720	0	316
-143.815	-132.780	12133	16657	1	316
-140.966	-130.617	11891	16608	0	316
-139.921	-128.092	11627	16576	0	316
-141.652	-128.128	11384	16559	0	316
-147.818	-137.360	11121	16550	0	316
-152.506	-144.320	10919	16550	0	316
-153.732	-144.320	10716	16563	0	316
-146.917	-134.115	10514	16581	0	316
-137.937	-123.188	10372	16617	0	316
-133.466	-118.897	10210	16675	0	316
-136.603	-121.168	10109	16774	0	316
-141.760	-131.230	10008	16895	0	316
-145.582	-137.829	9907	16998	0	316
-146.051	-138.731	9907	17093	0	316
-143.491	-138.082	9866	17214	0	316
-141.147	-134.439	9866	17389	0	316
-138.875	-131.987	9967	17568	0	316
-140.462	-130.581	9967	17708	0	316
-142.986	-131.194	10069	17829	0	316
-147.746	-133.069	10109	17950	0	316
-150.847	-136.603	10170	18044	0	316
-152.542	-135.413	10271	18098	0	316
-144.789	-128.309	10372	18129	0	316
-135.052	-123.368	10413	18134	0	316
-127.551	-118.211	10474	18116	0	316
-122.070	-118.356	10514	18089	0	316
-124.198	-123.945	10575	18044	0	316
-128.309	-127.010	10615	17981	0	316
-130.869	-129.102	10676	17910	0	316
-133.790	-129.859	10716	17829	0	316
-133.898	-126.397	10777	17748	0	316
-138.767	-126.974	10980	17761	0	316
-144.537	-125.460	11384	18053	0	316
-149.730	-126.794	11789	18551	0	316
-157.555	-131.699	12133	18915	0	316
-158.096	-134.728	12538	19027	0	316
-154.814	-140.245	12802	19014	0	316
-151.497	-143.022	12943	18924	0	316
-148.576	-144.969	13206	18753	0	316
-147.818	-146.051	13247	18538	0	316
-149.044	-143.851	13510	18318	0	316
-152.578	-140.209	13550	18107	0	316
-154.490	-137.757	13652	17887	0	316
-157.807	-140.101	13712	17672	0	316
-164.479	-148.431	13854	17497	0	316
-170.898	-160.404	13915	17335	0	316
-174.973	-164.659	14016	17129	0	316
-172.701	-164.659	14016	16909	0	316
-166.390	-155.067	14057	16702	0	316
-157.158	-146.881	14117	16514	0	316
-144.573	-138.586	14016	16317	0	316
-137.216	-133.610	14016	16102	0	316
-133.429	-129.859	13955	15895	0	316
-135.377	-126.325	13915	15711	0	316
-140.606	-130.581	13814	15545	0	316
-147.133	-137.685	13854	15496	0	316
-148.900	-140.858	14219	15752	0	316
-146.556	-145.150	14461	16227	0	316
-144.068	-143.887	14725	16581	0	316
-148.179	-142.481	14967	16698	0	316
-153.732	-146.268	15069	16707	0	316
-158.096	-150.270	15129	16666	0	316
-158.493	-151.641	15170	16576	0	316
-155.355	-150.884	15231	16451	0	316
-153.841	-149.982	15231	16313	0	316
-156.870	-149.405	15271	16254	0	316
-160.873	-148.936	15636	16469	0	316
-164.767	-148.503	15939	16886	0	316
-165.056	-148.972	16182	17169	0	316
-161.414	-149.153	16424	17245	0	316
-161.197	-154.418	16586	17227	0	316
-160.584	-158.204	16687	17138	0	316
-159.683	-156.798	16728	16980	0	316
-151.677	-144.897	16728	16796	0	316
-139.957	-127.407	16890	16693	0	316
-126.866	-111.864	17132	16832	0	316
-119.762	-105.914	17436	17151	0	316
-121.673	-111.468	17639	17326	0	316
-131.554	-122.539	17801	17254	0	316
-137.324	-133.574	17841	17052	0	316
-136.603	-138.875	17801	16796	0	316
-132.816	-134.295	17740	16496	0	316
-125.316	-128.777	17639	16174	0	316
-123.729	-123.945	17497	15837	0	316
-124.919	-120.627	17294	15491	0	316
-132.889	-127.768	17132	15249	0	316
-144.717	-139.812	17294	15307	0	316
-156.617	-154.273	17396	15604	0	316
-169.059	-166.571	17436	15788	0	316
-176.740	-173.494	17497	15752	0	316
-176.091	-175.911	17436	15635	0	316
-166.967	-171.980	17294	15487	0	316
-149.982	-161.486	17092	15316	0	316
-131.951	-149.874	16991	15150	0	316
-121.926	-138.586	16788	15016	0	316
-123.981	-138.262	16626	14912	0	316
-139.380	-147.422	16485	14818	0	316
-157.771	-162.387	16283	14746	0	316
-168.157	-175.225	16142	14728	0	316
-168.518	-173.098	15980	14733	0	316
-158.384	-162.351	15777	14706	0	316
-145.294	-148.107	15676	14674	0	316
-134.620	-139.632	15474	14674	0	316
-132.708	-141.255	15271	14710	0	316
-133.970	-147.890	15129	14746	0	316
-138.298	-154.922	14927	14782	0	316
-138.803	-155.680	14927	14912	0	316
-140.822	-149.946	15069	15330	0	316
-141.111	-145.222	15271	15963	0	316
-141.435	-142.084	15474	16455	0	316
-140.606	-142.445	15575	16707	0	316
-136.819	-145.763	15676	16837	0	316
-134.223	-153.191	15676	16900	0	316
-132.528	-156.581	15636	16904	0	316
-131.446	-157.555	15575	16864	0	316
-128.237	-148.900	15474	16774	0	316
-123.224	-138.514	15433	16662	0	316
-123.080	-132.276	15332	16536	0	316
-128.994	-136.928	15271	16419	0	316
-138.947	-149.008	15069	16340	0	316
-145.078	-159.863	14967	16286	0	316
-143.383	-163.649	14927	16236	0	316
-137.144	-158.204	14866	16209	0	316
-131.266	-153.480	14765	16232	0	316
-126.614	-150.126	14725	16263	0	316
-126.830	-151.280	14765	16349	0	316
-129.102	-155.680	15129	16689	0	316
-132.708	-158.889	15433	17263	0	316
-143.743	-161.702	15676	17730	0	316
-150.956	-161.450	16040	18013	0	316
-157.230	-161.522	16626	18502	0	316
-155.536	-159.791	17497	19382	0	316
-149.261	-161.522	18205	20252	0	316
-146.304	-161.666	18853	20679	0	316
-144.428	-160.584	19319	20683	0	316
-147.494	-160.728	19562	20459	0	316
-151.929	-158.420	19724	20073	0	316
-150.847	-161.918	19764	19552	0	316
-151.677	-163.505	19724	18942	0	316
-149.477	-166.246	19663	18278	0	316
-150.775	-164.371	19420	17600	0	316
-150.307	-159.394	19359	17025	0	316
-150.451	-155.752	19359	16747	0	316
-147.962	-150.379	19521	16716	0	316
-144.969	-147.133	19460	16581	0	316
-144.609	-150.703	19420	16245	0	316
-148.431	-157.519	19319	15846	0	316
-156.401	-165.705	19116	15460	0	316
-163.613	-171.223	19015	15195	0	316
-163.253	-164.984	19258	15330	0	316
-153.732	-152.434	19724	15949	0	316
-142.409	-136.098	20169	16630	0	316
-132.925	-132.708	20473	16971	0	316
-135.341	-135.737	20635	16989	0	316
-145.655	-146.772	20776	16927	0	316
-149.261	-154.886	21141	17016	0	316
-147.638	-152.651	21384	17209	0	316
-137.505	-144.248	21586	17295	0	316
-128.345	-134.728	21991	17371	0	316
-132.925	-135.233	22254	17519	0	316
-148.756	-144.464	22294	17465	0	316
-168.085	-159.755	22456	17209	0	316
-182.943	-174.144	22598	17079	0	316
-186.657	-183.375	22760	17075	0	316
-183.339	-186.224	22699	16882	0	316
-175.586	-183.700	22598	16428	0	316
-173.711	-178.796	22355	15877	0	316
-173.170	-172.773	21991	15289	0	316
-175.550	-167.292	21586	14679	0	316
-175.081	-165.489	21080	14077	0	316
-169.564	-165.236	20574	13507	0	316
-160.296	-159.827	20027	12978	0	316
-151.461	-154.490	19420	12498	0	316
-145.871	-149.405	18853	12098	0	316
-148.684	-147.674	18408	11892	0	316
-157.375	-154.850	18246	12116	0	316
-169.275	-164.082	18448	12911	0	316
-178.038	-172.052	18752	13889	0	316
-182.582	-172.629	18914	14648	0	316
-179.589	-171.042	19319	15334	0	316
-171.763	-165.777	19562	16057	0	316
-163.072	-160.945	19764	16554	0	316
-155.499	-152.831	19926	16743	0	316
-150.595	-144.573	19764	16720	0	316
-145.294	-132.780	19825	16648	0	316
-139.163	-122.755	19966	16841	0	316
-134.908	-121.854	20432	17447	0	316
-132.961	-125.496	20776	18076	0	316
-132.889	-132.059	20979	18300	0	316
-130.653	-134.908	20979	18143	0	316
-129.968	-134.475	21039	17892	0	316
-125.388	-125.496	21080	17797	0	316
-120.808	-117.887	21181	17833	0	316
-120.267	-110.566	21343	17802	0	316
-123.440	-109.809	21485	17802	0	316
-132.203	-119.329	21748	17963	0	316
-140.534	-132.276	22052	18201	0	316
-145.727	-142.661	22294	18381	0	316
-144.392	-143.202	22456	18318	0	316
-139.668	-137.180	22355	17936	0	316
-137.108	-130.436	22153	17371	0	316
-143.094	-127.299	21991	16828	0	316
-148.972	-134.043	21950	16523	0	316
-151.965	-139.308	21849	16388	0	316
-149.044	-141.543	21748	16196	0	316
-143.022	-140.930	21687	16039	0	316
-141.940	-139.452	21687	16003	0	316
-144.825	-139.704	21545	15819	0	316
-149.405	-139.560	21181	15397	0	316
-152.651	-141.471	20837	14872	0	316
-150.775	-142.734	20270	14311	0	316
-146.448	-142.301	19663	13736	0	316
-143.563	-142.301	19258	13274	0	316
-140.642	-138.767	18853	13135	0	316
-134.115	-137.000	18651	13261	0	316
-127.587	-129.679	18307	13319	0	316
-122.106	-126.794	17841	13198	0	316
-123.260	-126.902	17396	13018	0	316
-131.807	-126.866	16890	12843	0	316
-141.904	-130.833	16384	12668	0	316
-146.051	-133.790	15838	12507	0	316
-143.238	-132.961	15231	12390	0	316
-141.363	-135.918	14725	12345	0	316
-142.842	-139.344	14158	12363	0	316
-150.595	-144.861	13712	12417	0	316
-157.591	-151.316	13146	12498	0	316
-157.735	-151.713	12741	12646	0	316
-149.261	-151.424	12235	12848	0	316
-138.154	-146.087	11830	13068	0	316
-134.800	-143.094	11486	13301	0	316
-139.308	-141.940	11121	13584	0	316
-148.467	-143.130	10919	14001	0	316
-154.418	-142.878	10980	14692	0	316
-154.273	-141.075	11081	15572	0	316
-142.517	-133.682	11283	16392	0	316
-131.879	-126.325	11688	17241	0	316
-127.876	-122.395	12032	18156	0	316
-134.692	-128.850	12336	18852	0	316
-147.133	-139.199	12599	19216	0	316
-154.670	-147.890	12700	19391	0	316
-158.312	-147.205	12943	19530	0	316
-153.011	-138.334	13247	19844	0	316
-145.222	-129.679	13753	20369	0	316
-145.943	-127.624	14360	20971	0	316
-148.359	-134.439	14967	21478	0	316
-156.473	-144.681	15474	21693	0	316
-160.692	-152.867	15737	21572	0	316
-162.279	-156.762	15939	21271	0	316
-158.601	-152.218	16040	20863	0	316
-150.559	-145.618	16040	20333	0	316
-146.015	-139.885	15980	19718	1	1000
-143.707	-134.475	15878	19090	0	1000
-144.897	-133.502	15737	18475	0	1000
-145.546	-135.341	15474	17856	0	1000
-146.736	-138.911	15271	17245	0	1000
-145.366	-140.534	15028	16689	0	1000
-143.599	-141.147	14765	16209	0	1000
-141.580	-140.173	14522	15752	0	1000
-139.812	-135.774	14219	15325	0	1000
-141.183	-133.429	13854	14939	0	1000
-146.232	-136.387	13611	14598	0	1000
-152.939	-144.609	13247	14311	0	1000
-156.401	-149.369	13004	14077	0	1000
-156.040	-153.841	12640	13898	0	1000
-150.884	-150.884	12397	13777	0	1000
-150.811	-150.451	12093	13700	0	1000
-151.965	-149.153	11891	13683	0	1000
-155.031	-153.336	11587	13718	0	1000
-155.752	-152.687	11324	13790	0	1000
-148.900	-147.097	11182	13889	0	1000
-142.265	-138.695	10980	14010	0	1000
-138.009	-129.679	10777	14167	0	1000
-138.622	-126.542	10676	14369	0	1000
-140.678	-126.902	10575	14616	0	1000
-144.176	-133.826	10474	14867	0	1000
-145.691	-142.301	10413	15114	0	1000
-146.268	-149.333	10372	15393	0	1000
-148.179	-151.533	10372	15702	0	1000
-151.533	-149.802	10474	15994	0	1000
-150.162	-141.363	10474	16250	0	1000
-144.284	-132.744	10575	16491	0	1000
-133.898	-123.945	10575	16729	0	1000
-123.044	-120.050	10615	16927	0	1000
-118.031	-118.139	10676	17084	0	1000
-121.421	-124.630	10716	17214	0	1000
-129.931	-130.869	10716	17317	0	1000
-136.531	-142.986	10818	17398	0	1000
-141.471	-148.503	10878	17452	0	1000
-142.806	-149.080	10878	17492	0	1000
-145.222	-148.467	11020	17618	0	1000
-152.903	-150.739	11425	18008	0	1000
-160.801	-156.473	11931	18601	0	1000
-169.275	-165.633	12437	19130	0	1000
-170.105	-168.121	13044	19669	0	1000
-166.390	-165.128	13753	20266	0	1000
-153.985	-158.312	14421	20737	0	1000
-144.717	-152.074	15231	21159	0	1000
-133.718	-149.008	15939	21594	0	1000
-123.512	-147.746	16525	21761	0	1000
-121.349	-140.173	16991	21576	0	1000
-121.313	-135.124	17335	21199	0	1000
-133.321	-137.252	17598	20719	0	1000
-147.926	-146.232	17740	20163	0	1000
-162.279	-161.197	17740	19534	0	1000
-163.325	-167.075	17801	18848	0	1000
-154.850	-165.272	17801	18174	0	1000
-140.462	-153.588	17639	17519	0	1000
-129.174	-141.580	17497	16877	0	1000
-126.037	-137.468	17335	16263	0	1000
-125.135	-138.009	17193	15720	0	1000
-126.722	-139.235	16991	15249	0	1000
-128.345	-139.921	16788	14814	0	1000
-126.938	-140.822	16626	14490	0	1000
-129.715	-141.183	16728	14472	0	1000
-128.020	-140.786	16829	14719	0	1000
-126.217	-138.767	16930	14885	0	1000
-126.217	-134.115	16930	14849	0	1000
-129.102	-136.242	16930	14818	0	1000
-138.803	-146.051	17193	15042	0	1000
-146.736	-157.086	17537	15536	0	1000
-148.071	-167.220	18043	16156	0	1000
-143.887	-168.878	18408	16734	0	1000
-139.019	-163.938	18813	17066	0	1000
-141.399	-162.423	19015	17079	0	1000
-150.198	-169.239	19015	16913	0	1000
-162.387	-175.081	19015	16644	0	1000
-163.758	-178.759	18853	16299	0	1000
-157.699	-173.278	18711	15909	0	1000
-145.835	-163.686	18408	15496	0	1000
-137.793	-157.266	18246	15074	1	316
-133.141	-153.011	17902	14679	0	316
-132.095	-149.946	17537	14338	0	316
-127.732	-143.383	17234	14046	0	316
-120.627	-132.780	16890	13790	0	316
-114.785	-127.371	16626	13593	0	316
-113.668	-123.729	16243	13458	0	316
-116.552	-132.203	15939	13355	0	316
-122.214	-138.586	15737	13350	0	316
-123.368	-143.671	15676	13656	0	316
-120.736	-141.616	15777	14203	0	316
-118.897	-138.154	15777	14661	0	316
-116.444	-132.420	15777	14899	0	316
-119.546	-131.662	15676	15029	0	316
-123.368	-134.764	15534	15114	0	316
-127.227	-138.262	15372	15164	0	316
-131.302	-141.940	15271	15186	0	316
-134.367	-144.428	15028	15195	0	316
-137.505	-146.845	14826	15195	0	316
-142.337	-149.008	14664	15195	0	316
-143.996	-150.198	14421	15204	0	316
-143.527	-148.756	14219	15227	0	316
-140.678	-145.186	14117	15280	0	316
-137.180	-142.301	13915	15370	0	316
-136.928	-142.517	13814	15451	0	316
-137.108	-148.179	13611	15523	0	316
-141.363	-153.011	13510	15630	0	316
-142.481	-152.398	13449	15788	0	316
-139.560	-146.448	13409	15945	0	316
-133.862	-135.016	13247	16079	0	316
-127.119	-125.243	13247	16209	0	316
-123.260	-122.250	13247	16433	0	316
-120.880	-125.929	13611	16918	0	316
-127.263	-136.675	13915	17586	0	316
-133.754	-149.693	14219	18103	0	316
-145.078	-159.106	14522	18349	0	316
-150.487	-165.020	14563	18444	0	316
-157.339	-164.479	14725	18439	0	316
-156.581	-159.286	14765	18358	0	316
-153.877	-154.778	14765	18219	0	316
-152.506	-152.470	14826	18040	0	316
-152.182	-150.559	14866	17923	0	316
-149.080	-150.198	15231	18062	0	316
-148.648	-149.693	15474	18399	0	316
-144.140	-149.982	15676	18596	0	316
-144.176	-151.172	15878	18538	0	316
-150.811	-155.716	15980	18367	0	316
-158.493	-158.853	16040	18165	0	316
-164.082	-158.853	16040	17936	0	316
-159.250	-151.064	16142	17752	0	316
-150.523	-142.337	16424	17806	0	316
-145.655	-138.658	16728	18076	0	316
-149.225	-144.176	16991	18224	0	316
-162.243	-156.293	17193	18116	0	316
-170.826	-167.472	17294	17883	0	316
-173.098	-169.419	17294	17604	0	316
-164.443	-158.997	17234	17299	0	316
-150.054	-144.861	17132	16949	0	316
-138.226	-132.239	17031	16572	0	316
-135.305	-131.915	17031	16304	0	316
-138.298	-138.406	17234	16344	0	316
-146.159	-148.431	17436	16590	0	316
-150.234	-153.191	17639	16792	0	316
-144.284	-147.674	18003	17030	0	316
-134.800	-139.524	18408	17380	0	316
-131.662	-135.052	18711	17568	0	316
-132.672	-136.351	18813	17474	0	316
-139.740	-138.622	19015	17340	0	316
-142.661	-137.288	19258	17411	0	316
-136.170	-128.164	19622	17609	0	316
-124.234	-116.120	19764	17618	0	316
-113.776	-106.599	19825	17353	0	316
-116.913	-105.986	19764	16949	0	316
-124.811	-112.441	19663	16581	0	316
-137.288	-121.493	19865	16446	0	316
-141.111	-123.188	19966	16518	0	316
-133.069	-120.447	20027	16491	0	316
-124.594	-114.425	19966	16268	0	316
-124.486	-114.677	19825	15927	0	316
-131.554	-120.267	19663	15532	0	316
-141.832	-127.335	19359	15132	0	316
-139.885	-123.224	19157	14751	0	316
-129.210	-113.704	18752	14383	0	316
-120.195	-106.275	18448	14019	0	316
-125.712	-111.143	18104	13705	0	316
-141.435	-122.935	17699	13449	0	316
-149.946	-134.728	17294	13229	0	316
-144.933	-134.980	16930	13036	0	316
-131.554	-126.037	16525	12884	0	316
-120.483	-120.627	16142	12776	0	316
-127.804	-122.286	15737	12704	0	316
-143.166	-130.689	15332	12673	0	316
-154.526	-136.855	14967	12695	0	316
-153.480	-136.495	14563	12771	0	316
-149.405	-133.177	14219	12897	0	316
-142.553	-130.941	13915	13045	0	316
-138.370	-129.102	13550	13225	0	316
-132.023	-122.358	13348	13422	0	316
-119.690	-111.468	13004	13656	0	316
-111.937	-98.305	12802	13911	0	316
-108.114	-91.525	12640	14190	0	316
-113.415	-93.581	12538	14603	0	316
-120.411	-102.416	12802	15325	0	316
-125.676	-108.979	13044	16241	0	316
-126.542	-113.631	13409	16985	0	316
-132.600	-115.939	13550	17488	0	316
-136.855	-117.634	13814	17887	0	316
-143.383	-121.818	13955	18201	0	316
-151.244	-125.424	14117	18408	0	316
-153.552	-132.312	14158	18533	0	316
-154.129	-135.774	14320	18605	0	316
-152.687	-137.937	14360	18601	0	316
-145.330	-134.620	14320	18515	0	316
-140.462	-131.230	14360	18372	0	316
-141.543	-134.331	14320	18197	0	316
-149.441	-140.173	14259	17995	0	316
-156.329	-147.710	14158	17779	0	316
-159.214	-148.179	14016	17559	0	316
-150.198	-136.675	14016	17344	0	316
-132.600	-122.611	13854	17147	0	316
-119.834	-110.458	13712	16954	0	316
-110.061	-104.183	13611	16774	0	316
-108.222	-100.216	13449	16603	0	316
-108.439	-93.256	13348	16460	0	316
-106.780	-85.215	13247	16349	0	316
-108.439	-79.913	13206	16268	0	316
-110.494	-82.294	13146	16232	0	316
-116.192	-89.867	13044	16223	0	316
-118.716	-97.115	13044	16227	0	316
-121.709	-99.928	12943	16236	0	316
-119.077	-100.938	13004	16286	0	316
-118.933	-101.767	13146	16451	0	316
-123.512	-107.573	13449	16895	0	316
-128.201	-116.625	14016	17627	0	316
-134.006	-121.673	14826	18515	0	316
-134.079	-123.585	15534	19404	0	316
-127.299	-119.185	16142	20015	0	316
-121.241	-112.730	16626	20243	0	316
-115.867	-110.819	17031	20230	0	316
-118.969	-112.261	17335	20086	0	316
-121.709	-114.497	17537	19826	0	316
-123.657	-113.631	17699	19454	0	316
-119.077	-110.458	17740	18991	0	316
-113.920	-105.193	17740	18475	0	316
-116.733	-105.085	17639	17927	1	576
-120.772	-108.366	17598	17375	0	576
-125.856	-112.586	17396	16832	0	576
-125.712	-112.658	17193	16322	0	576
-118.500	-109.881	16991	15828	0	576
-118.067	-112.369	16728	15370	0	576
-123.368	-119.726	16485	14953	0	576
-134.475	-129.751	16182	14594	0	576
-138.298	-131.085	15939	14288	0	576
-131.122	-121.709	15676	14042	0	576
-114.785	-109.088	15433	13849	0	576
-102.777	-94.483	15170	13732	0	576
-101.875	-94.050	15028	13692	0	576
-112.766	-105.049	14765	13687	0	576
-128.092	-119.906	14563	13714	0	576
-142.481	-133.970	14461	13790	0	576
-148.756	-144.537	14259	13911	0	576
-147.638	-147.638	14219	14140	0	576
-143.238	-144.176	14522	14652	0	576
-137.180	-139.163	14765	15411	0	576
-134.259	-135.629	15028	16057	0	576
-138.226	-141.760	15231	16428	0	576
-147.782	-152.578	15474	16734	0	576
-161.666	-166.931	15980	17236	0	576
-168.049	-175.586	16384	17874	0	576
-168.626	-173.891	16728	18313	0	576
-159.466	-165.921	16930	18453	0	576
-148.143	-155.139	17092	18421	0	576
-138.658	-151.641	17193	18291	0	576
-135.593	-153.119	17234	18085	0	576
-135.269	-152.578	17234	17820	0	576
-135.521	-153.841	17132	17515	0	576
-136.891	-150.451	17031	17178	0	576
-139.560	-149.369	16890	16828	0	576
-139.416	-147.566	16687	16482	0	576
-138.695	-144.537	16586	16169	0	576
-132.276	-140.317	16485	15999	0	576
-126.938	-131.662	16687	16160	0	576
-125.099	-130.328	16890	16541	0	576
-127.479	-136.928	17092	16796	0	576
-135.774	-149.477	17193	16850	0	576
-142.193	-160.801	17335	16850	0	576
-143.347	-162.315	17335	16814	0	576
-137.973	-152.831	17294	16707	0	576
-130.581	-139.127	17335	16563	0	576
-122.503	-127.732	17234	16406	0	576
-123.296	-127.948	17132	16218	0	576
-128.525	-135.629	17031	15985	0	576
-137.901	-145.438	16890	15738	0	576
-144.464	-149.333	16626	15496	0	576
-145.943	-150.559	16424	15271	0	576
-145.114	-149.585	16182	15069	0	576
-146.917	-152.326	16081	14980	0	576
-151.316	-162.712	16182	15195	0	576
-159.791	-172.557	16384	15653	0	576
-165.525	-180.166	16485	16003	0	576
-170.609	-184.349	16525	16133	0	576
-168.770	-182.041	16525	16165	0	576
-166.246	-180.058	16485	16147	0	576
-163.397	-177.642	16525	16174	0	576
-162.099	-175.081	16788	16451	0	576
-162.207	-172.016	17132	16949	0	576
-161.233	-170.862	17335	17322	0	576
-165.020	-172.773	17639	17515	0	576
-166.498	-176.307	18043	17833	0	576
-166.859	-180.995	18448	18313	0	576
-164.226	-179.805	18813	18614	0	576
-155.319	-171.908	19056	18605	0	576
-139.488	-155.211	19116	18417	0	576
-126.145	-136.314	19218	18147	0	576
-118.392	-125.207	19116	17824	0	576
-121.313	-124.053	19218	17528	0	576
-132.239	-134.259	19359	17465	0	576
-144.104	-149.910	19663	17613	0	576
-149.802	-160.909	19724	17631	0	576
-146.736	-161.125	19865	17483	0	576
-142.589	-157.447	20230	17474	0	576
-139.452	-147.386	20371	17618	0	576
-140.281	-141.039	20473	17591	0	576
-143.635	-139.163	20533	17299	0	576
-144.140	-138.478	20432	16891	0	576
-143.743	-142.734	20371	16518	0	576
-149.153	-149.116	20473	16384	0	576
-153.083	-153.949	20675	16527	0	576
-154.345	-153.552	20979	16823	0	576
-153.083	-147.602	21282	17088	0	576
-143.563	-141.183	21384	17111	0	576
-134.403	-131.266	21384	16855	0	576
-130.941	-127.624	21444	16559	0	576
-124.558	-124.883	21545	16482	0	576
-119.473	-118.824	21687	16599	0	576
-114.317	-114.966	21748	16576	0	576
-111.540	-113.956	21647	16295	0	576
-118.644	-116.336	21444	15868	0	576
-126.433	-121.060	21181	15411	0	576
-132.708	-124.630	20837	14935	0	576
-126.722	-121.421	20473	14441	0	576
-118.536	-119.870	19966	13952	0	576
-114.497	-119.978	19521	13512	0	576
-120.519	-128.633	19116	13130	0	576
-138.731	-141.075	18549	12794	0	576
-155.355	-150.847	18003	12502	0	576
-158.997	-153.480	17497	12269	0	576
-154.850	-146.087	16991	12094	0	576
-145.258	-135.341	16485	11968	0	576
-140.606	-132.203	16081	11990	0	576
-143.130	-133.393	15878	12345	0	576
-145.691	-141.507	15838	12960	0	576
-149.153	-146.881	15676	13494	0	576
-146.304	-150.198	15534	13826	0	576
-147.566	-150.307	15332	14073	0	576
-151.424	-149.838	15069	14279	0	576
-154.490	-149.838	14866	14446	0	576
-156.870	-149.225	14623	14585	0	576
-153.949	-146.304	14360	14715	0	576
-155.175	-145.727	14057	14872	0	576
-158.817	-148.576	13915	15038	0	576
-166.534	-153.732	13652	15191	0	576
-173.999	-160.548	13510	15334	0	576
-174.937	-160.188	13409	15613	0	576
-171.836	-160.584	13652	16205	0	576
-167.039	-156.798	13915	16994	0	576
-165.020	-156.185	14158	17613	0	576
-164.515	-155.896	14320	17968	0	576
-167.003	-161.378	14522	18291	0	576
-169.239	-163.469	14967	18780	0	576
-172.268	-164.479	15474	19364	0	576
-168.915	-160.368	15737	19732	0	576
-165.200	-154.093	15939	19790	0	576
-163.577	-148.936	16040	19678	0	576
-161.702	-149.874	16081	19458	0	576
-162.748	-155.175	16081	19148	0	576
-164.551	-158.817	16040	18776	0	576
-163.000	-161.414	15878	18358	1	532
-163.361	-159.719	15737	17932	0	532
-168.987	-160.476	15534	17515	0	532
-176.596	-166.462	15372	17106	0	532
-180.815	-169.023	15129	16711	0	532
-178.759	-169.059	14866	16344	0	532
-172.917	-162.532	14765	16106	0	532
-166.354	-154.634	14866	16178	0	532
-163.361	-153.083	15028	16487	0	532
-164.948	-155.283	15069	16707	0	532
-168.951	-163.181	15129	16725	0	532
-170.862	-168.770	15129	16653	0	532
-177.894	-175.225	15170	16572	0	532
-185.215	-177.065	15069	16482	0	532
-193.833	-177.353	15028	16376	0	532
-194.915	-175.334	14927	16268	0	532
-191.417	-171.403	14927	16200	0	532
-183.880	-168.698	14826	16133	0	532
-177.966	-172.052	14725	16034	0	532
-177.966	-175.802	14765	16021	0	532
-180.310	-177.750	15028	16308	0	532
-178.723	-176.451	15372	16904	0	532
-171.367	-166.246	15980	17631	0	532
-164.551	-158.204	16525	18296	0	532
-163.469	-157.375	16930	18686	0	532
-165.957	-160.620	17193	18758	0	532
-172.665	-167.941	17497	18726	0	532
-176.127	-173.855	18003	18951	0	532
-172.665	-168.229	18813	19552	0	532
-168.301	-159.430	19420	20154	0	532
-168.518	-155.175	19926	20320	0	532
-173.134	-157.699	20169	20077	0	532
-179.841	-165.417	20371	19629	0	532
-184.818	-172.016	20371	19054	0	532
-177.569	-169.059	20270	18390	0	532
-169.347	-160.620	20270	17766	0	532
-163.325	-153.552	20371	17393	0	532
-166.498	-156.076	20432	17241	0	532
-177.317	-164.695	20371	16971	0	532
-189.109	-172.845	20331	16482	0	532
-192.824	-178.110	20128	15927	0	532
-193.617	-178.471	19825	15375	0	532
-186.909	-176.488	19562	14849	0	532
-181.356	-174.107	19157	14338	0	532
-173.494	-170.826	18813	13853	0	532
-171.511	-167.797	18347	13440	0	532
-170.718	-164.010	18043	13108	0	532
-177.678	-166.787	17598	12816	0	532
-182.330	-168.410	17193	12551	0	532
-186.729	-171.655	16829	12412	0	532
-183.556	-168.770	16687	12601	0	532
-180.346	-167.400	16788	13139	0	532
-178.507	-167.184	17031	13876	0	532
-179.733	-170.970	17234	14630	0	532
-183.880	-174.107	17497	15249	0	532
-192.715	-178.543	17902	15859	0	532
-197.620	-181.212	18205	16509	0	532
-203.462	-186.765	18408	16940	0	532
-207.032	-193.581	18651	17142	0	532
-208.655	-200.577	18914	17443	0	532
-208.078	-201.983	19258	17847	0	532
-205.229	-199.279	19420	18053	0	532
-200.938	-196.250	19521	17968	0	532
-200.685	-195.853	19460	17708	0	532
-208.114	-204.580	19460	17434	0	532
-219.834	-214.605	19562	17398	0	532
-231.662	-223.404	19825	17582	0	532
-230.869	-224.594	19865	17622	0	532
-224.883	-218.716	19825	17384	0	532
-218.356	-211.973	19724	17012	0	532
-216.084	-208.799	19460	16599	0	532
-216.552	-207.393	19218	16142	0	532
-211.828	-203.065	18813	15635	0	532
-196.466	-192.860	18408	15114	0	532
-180.166	-179.300	18003	14616	0	532
-170.537	-172.124	17497	14158	0	532
-174.360	-174.180	16991	13745	0	532
-183.123	-182.077	16485	13386	0	532
-189.867	-188.965	15980	13090	0	532
-190.984	-193.473	15575	12861	1	316
-187.018	-190.516	15028	12691	0	316
-179.228	-183.484	14461	12587	0	316
-172.413	-175.045	14117	12542	0	316
-168.193	-167.220	13712	12650	0	316
-165.669	-165.777	13712	13086	0	316
-168.301	-169.888	13652	13790	0	316
-173.206	-176.884	13652	14432	0	316
-173.639	-179.373	13814	14971	0	316
-172.304	-177.642	14016	15666	0	316
-168.878	-174.721	14360	16496	0	316
-168.662	-176.596	14563	17151	0	316
-171.006	-185.287	14765	17528	0	316
-177.028	-193.833	14866	17721	0	316
-178.327	-198.846	14866	17793	0	316
-179.228	-197.115	14866	17788	0	316
-177.497	-189.794	14927	17820	0	316
-174.757	-182.005	15231	18062	0	316
-173.855	-177.137	15433	18444	0	316
-172.881	-176.596	15575	18641	0	316
-173.639	-177.966	15636	18578	0	316
-172.304	-184.241	15676	18385	0	316
-170.754	-186.188	15737	18228	0	316
-166.859	-183.988	15939	18300	0	316
-160.296	-179.986	16182	18547	0	316
-157.086	-171.655	16344	18628	0	316
-154.490	-166.354	16384	18444	0	316
-159.466	-167.111	16344	18138	0	316
-165.272	-171.727	16243	17784	0	316
-171.727	-180.923	16081	17389	0	316
-171.727	-184.638	16040	17057	0	316
-166.462	-179.589	16182	16989	0	316
-155.896	-166.751	16283	17138	0	316
-149.657	-154.490	16344	17173	0	316
-149.657	-149.946	16283	16994	0	316
-159.466	-160.837	16243	16729	0	316
-175.189	-180.635	16081	16464	0	316
-186.296	-196.971	15939	16200	0	316
-188.424	-203.246	15737	15904	0	316
-181.933	-197.115	15534	15613	0	316
-176.488	-189.758	15332	15366	0	316
-175.622	-183.808	15069	15159	0	316
-183.880	-187.523	14866	14962	0	316
-192.427	-189.758	14725	14867	0	316
-191.237	-187.703	14866	15092	0	316
-181.897	-180.671	15028	15568	0	316
-168.842	-174.937	15170	15931	0	316
-160.043	-172.376	15129	16057	0	316
-161.955	-171.511	15129	16075	0	316
-169.167	-171.872	15069	16048	0	316
-173.891	-170.609	15028	15981	0	316
-174.973	-168.915	14866	15873	0	316
-169.888	-169.636	14664	15738	0	316
-164.190	-172.124	14522	15608	0	316
-160.692	-167.941	14360	15482	0	316
-160.512	-163.253	14219	15455	0	316
-163.000	-160.079	14421	15711	0	316
-163.289	-158.312	14563	16187	0	316
-164.587	-161.486	14664	16541	0	316
-166.210	-163.758	14765	16662	0	316
-165.164	-166.462	14826	16684	0	316
-163.289	-163.036	14765	16684	0	316
-157.411	-155.499	14765	16666	0	316
-150.811	-145.294	14725	16594	0	316
-145.835	-135.701	14623	16478	0	316
-147.313	-135.593	14461	16376	0	316
-155.608	-139.019	14461	16281	0	316
-160.404	-147.025	14259	16169	0	316
-160.837	-152.831	14117	16039	0	316
-152.110	-148.431	14057	15936	0	316
-140.137	-142.517	13854	15859	0	316
-132.997	-137.613	13814	15783	0	316
-136.855	-136.495	13712	15783	0	316
-144.681	-137.865	13915	16061	0	316
-150.270	-141.760	14158	16550	0	316
-152.146	-143.887	14259	16927	0	316
-146.195	-140.173	14461	17070	0	316
-143.599	-135.846	14461	17093	0	316
-144.681	-132.600	14461	17061	0	316
-147.458	-129.499	14522	16980	0	316
-144.933	-130.617	14421	16859	0	316
-139.416	-132.853	14320	16707	0	316
-134.331	-134.187	14259	16541	0	316
-137.649	-136.567	14117	16376	0	316
-147.530	-139.380	13955	16209	0	316
-157.194	-141.616	13915	16057	0	316
-162.784	-142.770	13712	15949	0	316
-158.276	-142.373	13611	15882	0	316
-154.959	-142.409	13449	15828	0	316
-154.742	-142.481	13409	15783	0	316
-159.971	-143.455	13308	15774	0	316
-161.414	-144.609	13409	15882	0	316
-160.945	-141.976	13611	16259	0	316
-155.031	-138.190	13955	16828	0	316
-149.333	-136.134	14219	17295	0	316
-145.582	-136.675	14522	17541	0	316
-145.546	-141.832	14664	17649	0	316
-149.044	-147.241	14765	17676	0	316
-150.992	-148.828	14866	17654	0	316
-155.572	-146.412	14967	17595	0	316
-156.257	-138.478	14967	17488	0	316
-154.021	-133.033	14967	17335	0	316
-151.677	-128.597	15069	17236	0	316
-147.349	-129.463	15372	17398	0	316
-142.084	-128.741	15676	17748	0	316
-138.262	-125.243	15939	17959	0	316
-136.026	-124.883	16081	17919	0	316
-139.488	-128.056	16142	17752	0	316
-151.497	-138.658	16142	17524	0	316
-162.640	-150.054	16081	17245	0	316
-166.498	-151.064	16142	17030	0	316
-159.502	-143.887	16424	17079	0	316
-147.133	-129.463	16687	17335	0	316
-139.560	-121.962	16829	17465	0	316
-142.589	-126.506	16930	17362	0	316
-149.946	-134.764	16930	17138	0	316
-155.283	-140.966	16930	16850	0	316
-148.612	-138.550	16788	16536	0	316
-138.009	-130.220	16687	16214	0	316
-131.590	-123.873	16626	15999	0	316
-135.521	-124.522	16829	16084	0	316
-146.556	-131.662	17031	16401	0	316
-156.762	-139.019	17335	16698	0	316
-160.476	-143.238	17801	17061	0	316
-160.440	-145.258	18205	17555	0	316
-160.368	-152.759	18610	17851	0	316
-167.724	-160.548	18752	17820	0	316
-172.773	-168.193	18813	17622	0	316
-174.144	-164.623	18853	17326	0	316
-163.181	-153.913	18711	16949	0	316
-152.290	-136.387	18610	16523	0	316
-141.868	-128.561	18448	16084	0	316
-142.301	-129.823	18145	15639	0	316
-149.513	-137.288	17902	15204	0	316
-162.856	-146.268	17598	14800	0	316
-170.609	-152.867	17234	14428	0	316
-176.343	-153.660	16890	14091	0	316
-177.101	-153.155	16687	13880	0	316
-172.917	-151.533	16626	13997	0	316
-169.347	-154.526	16626	14374	0	316
-165.453	-155.536	16687	14688	0	316
-166.967	-158.637	16586	14818	0	316
-169.419	-159.106	16626	14957	0	316
-177.966	-161.594	16829	15339	0	316
-186.152	-166.859	17234	16012	0	316
-193.184	-178.759	17801	16810	0	316
-197.331	-186.982	18246	17546	0	316
-200.180	-194.591	18610	17990	0	316
-200.216	-194.879	18853	18120	0	316
-200.288	-193.509	18954	18071	0	316
-199.351	-189.326	19015	17887	0	316
-194.338	-185.395	18914	17586	0	316
-194.014	-186.332	18813	17218	0	316
-193.545	-185.936	18651	16801	0	316
-197.476	-189.145	18347	16353	0	316
-196.863	-187.703	18104	15886	0	316
-197.404	-185.683	17740	15437	0	316
-194.014	-186.549	17396	15025	0	316
-196.250	-191.381	16991	14656	0	316
-205.013	-200.397	16626	14329	0	316
-212.297	-207.212	16243	14051	0	316
-213.668	-201.479	15838	13822	0	316
-205.229	-190.083	15575	13656	0	316
-189.470	-174.324	15129	13543	0	316
-179.228	-163.289	14765	13490	0	316
-176.163	-162.315	14522	13512	0	316
-182.185	-166.895	14259	13593	0	316
-192.175	-177.281	13915	13692	0	316
-197.944	-185.034	13712	13822	0	316
-199.098	-189.794	13510	14006	0	316
-196.250	-185.575	13348	14235	0	316
-188.460	-178.435	13105	14459	0	316
-181.536	-169.564	13105	14755	0	316
-179.120	-163.577	13247	15348	0	316
-178.904	-164.659	13611	16160	0	316
-184.313	-167.688	13753	16819	0	316
-189.362	-173.927	14016	17205	0	316
-191.742	-179.769	14057	17452	0	316
-194.266	-186.152	14219	17613	0	316
-196.286	-194.591	14219	17690	0	316
-201.082	-201.911	14219	17699	0	316
-206.635	-203.173	14219	17663	0	316
-206.599	-198.449	14117	17586	0	316
-202.957	-194.591	14057	17488	0	316
-196.971	-188.640	14057	17389	0	316
-186.621	-186.296	13915	17286	0	316
-182.077	-184.890	13915	17173	0	316
-179.445	-178.868	13753	17048	0	316
-180.346	-173.855	13712	16931	0	316
-182.113	-169.059	13611	16837	0	316
-182.798	-169.528	13611	16769	0	316
-181.789	-170.934	13449	16725	0	316
-178.182	-171.619	13449	16671	0	316
-177.714	-169.816	13348	16617	0	316
-177.281	-162.640	13348	16590	0	316
-176.812	-158.997	13308	16590	0	316
-175.189	-158.781	13308	16581	0	316
-174.432	-161.955	13206	16568	0	316
-169.636	-166.210	13247	16572	0	316
-165.489	-163.469	13206	16612	0	316
-160.115	-157.771	13308	16639	0	316
-151.136	-148.684	13308	16648	0	316
-146.953	-144.537	13247	16680	0	316
-147.241	-146.845	13348	16734	0	316
-152.867	-153.624	13308	16774	0	316
-160.368	-159.827	13409	16792	0	316
-170.357	-167.941	13348	16810	0	316
-175.117	-175.442	13449	16823	0	316
-177.966	-180.418	13409	16832	0	316
-175.658	-183.123	13449	16823	0	316
-171.799	-178.976	13550	16886	0	316
-171.475	-172.413	13955	17218	0	316
-170.934	-168.229	14320	17757	0	316
-172.990	-166.462	14664	18156	0	316
-171.727	-169.347	14967	18309	0	316
-162.856	-172.845	15170	18327	0	316
-153.011	-171.006	15332	18273	0	316
-144.140	-167.508	15474	18156	0	316
-141.832	-159.971	15575	18004	0	316
-143.166	-154.670	15636	17833	0	316
-146.917	-151.028	15676	17658	1	880
-148.936	-152.470	15777	17452	0	880
-151.136	-160.692	15737	17223	0	880
-156.545	-166.607	15878	17102	0	880
-157.916	-171.042	16182	17268	0	880
-160.188	-169.059	16525	17627	0	880
-156.473	-163.974	16829	17838	0	880
-156.834	-161.269	17092	17833	0	880
-160.981	-167.508	17193	17734	0	880
-172.124	-179.841	17335	17559	0	880
-183.051	-192.102	17335	17304	0	880
-187.595	-200.649	17497	17093	0	880
-185.215	-198.449	17740	17138	0	880
-181.861	-197.295	18003	17371	0	880
-183.015	-196.358	18246	17465	0	880
-184.241	-198.882	18408	17326	0	880
-186.801	-201.911	18347	17079	0	880
-185.251	-197.584	18408	16778	0	880
-179.373	-191.561	18347	16446	0	880
-175.406	-182.582	18246	16192	0	880
-168.806	-178.832	18610	16281	0	880
-165.849	-177.245	19258	16936	0	880
-165.380	-177.858	20169	17954	0	880
-166.138	-176.992	20877	18825	0	880
-166.571	-177.678	21485	19234	0	880
-171.259	-175.370	21890	19238	0	880
-171.836	-172.881	22153	19000	0	880
-168.374	-167.688	22396	18686	0	880
-163.361	-158.817	22760	18538	0	880
-154.382	-146.881	23104	18533	0	880
-146.881	-144.104	23205	18322	0	880
-150.595	-146.917	23307	17914	0	880
-156.437	-157.375	23671	17676	0	880
-163.072	-165.633	23873	17604	0	880
-163.613	-164.840	23873	17344	0	880
-158.024	-159.286	23813	16810	0	880
-153.264	-152.542	23671	16187	0	880
-153.949	-151.100	23408	15541	0	880
-157.375	-152.939	23003	14858	0	880
-157.122	-150.415	22699	14248	0	880
-157.807	-147.349	22497	13929	0	880
-160.692	-148.828	22294	13858	0	880
-167.688	-156.221	22092	13705	0	880
-174.504	-164.984	21788	13364	0	880
-175.045	-169.275	21343	12982	0	880
-166.823	-164.659	20877	12619	0	880
-158.529	-153.660	20331	12273	0	880
-149.946	-147.638	19865	11959	0	880
-148.720	-143.347	19258	11681	0	880
-147.169	-143.815	18711	11452	0	880
-147.241	-147.854	18043	11272	0	880
-148.071	-154.093	17497	11156	0	880
-159.322	-165.741	16991	11111	0	880
-169.383	-173.314	16424	11156	0	880
-176.668	-175.478	15939	11272	0	880
-173.242	-167.580	15433	11434	0	880
-161.414	-157.158	15028	11640	0	880
-149.802	-147.674	14563	11914	0	880
-142.950	-143.960	14158	12242	0	880
-142.120	-146.628	13854	12587	0	880
-140.245	-142.445	13449	12942	0	880
-137.144	-135.088	13206	13323	0	880
-131.626	-127.443	12903	13732	0	880
-129.607	-119.401	12700	14127	0	880
-130.292	-116.480	12599	14585	0	880
-130.833	-121.204	12640	15303	0	880
-134.475	-124.414	12903	16218	0	880
-138.911	-130.869	13105	16985	0	880
-141.940	-133.429	13146	17483	0	880
-143.924	-132.961	13308	17824	0	880
-138.406	-129.607	13247	18076	0	880
-128.417	-122.106	13308	18242	0	880
-116.300	-116.336	13247	18340	0	880
-113.091	-112.586	13308	18381	0	880
-120.267	-112.766	13146	18376	0	880
-133.105	-117.346	13308	18430	0	880
-147.782	-124.775	13510	18731	0	880
-157.771	-133.213	13915	19229	0	880
-154.742	-137.180	14158	19602	0	880
-145.150	-133.718	14461	19732	0	880
-131.554	-125.171	14563	19718	0	880
-121.241	-114.605	14664	19620	1	324
-114.785	-107.609	14826	19467	0	324
-119.005	-108.042	14967	19274	0	324
-125.352	-112.802	14927	19018	0	324
-132.167	-117.274	14927	18717	0	324
-136.783	-124.955	14866	18430	0	324
-137.216	-127.840	15028	18246	0	324
-136.855	-130.292	15271	18322	0	324
-138.262	-133.105	15534	18578	0	324
-141.291	-134.331	15838	18695	0	324
-145.402	-135.413	15980	18578	0	324
-146.412	-133.646	16182	18435	0	324
-144.537	-130.941	16525	18511	0	324
-137.036	-122.431	17031	18825	0	324
-128.669	-116.589	17639	19238	0	324
-124.089	-112.586	18145	19593	0	324
-124.558	-114.317	18549	19691	0	324
-134.259	-120.880	18853	19476	0	324
-147.674	-129.643	18914	19085	0	324
-155.968	-135.052	19015	18601	0	324
-156.798	-132.023	18914	18044	0	324
-149.225	-127.443	18914	17456	0	324
-141.652	-124.594	18752	16877	0	324
-137.793	-125.388	18509	16326	0	324
-139.885	-132.023	18307	15774	0	324
-142.661	-136.675	18145	15330	0	324
-144.428	-138.334	18205	15227	0	324
-145.546	-134.187	18347	15424	0	324
-146.015	-131.735	18408	15541	0	324
-145.114	-131.518	18347	15424	0	324
-145.078	-128.453	18307	15227	0	324
-140.029	-123.080	18145	15016	0	324
-138.911	-121.313	17942	14778	0	324
-141.075	-121.601	17740	14513	0	324
-146.592	-126.433	17639	14333	0	324
-151.280	-128.597	17639	14437	0	324
-147.782	-128.669	17699	14764	0	324
-137.865	-120.267	17699	14980	0	324
-129.427	-115.002	17639	14980	0	324
-128.020	-115.759	17537	14899	0	324
-132.528	-121.277	17335	14791	0	324
-142.409	-127.660	17092	14652	0	324
-145.618	-129.895	16890	14499	0	324
-144.897	-126.722	16586	14347	0	324
-144.428	-127.083	16283	14199	0	324
-148.395	-130.761	15939	14069	0	324
-154.418	-139.957	15676	13970	0	324
-157.014	-145.546	15433	13929	0	324
-157.122	-146.628	15129	13943	0	324
-154.165	-138.947	14866	13970	0	324
-154.598	-132.925	14623	14001	0	324
-163.397	-135.882	14360	14077	0	324
-171.980	-143.851	14057	14199	0	324
-177.822	-152.723	13915	14329	0	324
-176.992	-155.427	13712	14472	0	324
-171.114	-152.398	13550	14648	0	324
-162.820	-144.573	13348	14845	0	324
-154.995	-137.685	13247	15016	0	324
-149.008	-132.276	13044	15173	0	324
-143.707	-132.203	12943	15357	0	324
-145.871	-135.810	12842	15563	0	324
-152.110	-142.481	12741	15761	0	324
-158.312	-144.068	12700	15927	0	324
-157.447	-141.868	12538	16075	0	324
-151.785	-130.292	12498	16200	0	324
-146.268	-122.683	12397	16308	0	324
-148.359	-122.395	12295	16401	0	324
-155.824	-126.433	12194	16500	0	324
-164.767	-134.836	12133	16594	0	324
-164.046	-139.163	12093	16689	0	324
-154.850	-140.101	12032	16774	0	324
-148.251	-138.911	11992	16864	0	324
-149.405	-139.308	11931	16954	0	324
-158.601	-143.058	11992	17039	0	324
-172.413	-146.484	11931	17124	0	324
-177.173	-149.766	11931	17209	0	324
-171.150	-146.772	11992	17317	0	324
-156.401	-139.885	12093	17438	0	324
-147.386	-133.970	12133	17537	0	324
-152.795	-136.242	12194	17618	0	324
-167.508	-146.845	12295	17694	0	324
-181.897	-158.204	12437	17775	0	324
-183.303	-162.135	12437	17824	0	324
-171.691	-158.529	12599	17838	0	324
-157.663	-146.881	12700	17847	0	324
-146.628	-140.245	12741	17860	0	324
-148.323	-138.334	13004	17945	0	324
-149.225	-137.036	13409	18282	0	324
-150.270	-132.853	13915	18798	0	324
-148.864	-130.076	14219	19157	0	324
-151.821	-128.705	14623	19243	0	324
-159.214	-135.990	14866	19184	0	324
-163.974	-145.727	15028	19050	0	324
-163.433	-149.982	15170	18843	0	324
-150.847	-143.743	15332	18592	0	324
-137.360	-131.085	15372	18305	0	324
-131.735	-119.365	15433	17990	0	324
-138.586	-119.906	15372	17672	0	324
-149.477	-123.873	15433	17357	0	324
-156.978	-130.617	15372	17052	0	324
-151.857	-128.381	15372	16778	0	324
-145.655	-124.847	15372	16554	0	324
-141.904	-123.080	15332	16371	0	324
-149.585	-130.797	15372	16272	0	324
-160.007	-142.734	15838	16518	0	324
-168.806	-153.480	16485	17277	0	324
-169.816	-156.365	17234	18156	0	324
-163.686	-153.732	17801	18691	0	324
-157.880	-150.559	18205	18861	0	324
-155.139	-149.297	18651	18861	0	324
-155.211	-146.700	18954	18780	0	324
-154.201	-143.815	19157	18596	0	324
-148.539	-135.954	19319	18282	0	324
-139.668	-128.128	19319	17878	0	324
-134.692	-128.525	19359	17438	0	324
-138.334	-136.423	19258	16989	0	324
-144.392	-141.904	19218	16509	0	324
-147.277	-147.782	18954	16007	0	324
-143.815	-143.527	18813	15505	0	324
-134.872	-138.154	18509	15029	0	324
-130.689	-134.764	18246	14585	0	324
-131.662	-136.459	17942	14190	0	324
-137.865	-136.206	17639	13844	0	324
-142.373	-140.101	17294	13557	0	324
-145.763	-145.763	16991	13323	0	324
-150.198	-153.444	16687	13148	0	324
-155.716	-160.584	16384	13027	0	324
-157.735	-159.719	16081	12951	0	324
-157.952	-157.771	15777	12924	0	324
-154.562	-154.021	15534	12942	0	324
-153.336	-157.916	15271	13009	0	324
-151.713	-159.755	15028	13144	0	324
-147.746	-160.368	14826	13332	0	324
-144.176	-152.470	14725	13557	0	324
-139.127	-145.005	14522	13808	0	324
-138.370	-143.347	14360	14095	0	324
-145.510	-153.047	14320	14365	0	324
-157.663	-163.866	14219	14612	0	324
-163.686	-172.196	14158	14876	0	324
-166.462	-173.062	14117	15155	0	324
-162.423	-165.380	14016	15415	0	324
-156.293	-156.653	14016	15644	0	324
-153.047	-151.028	13915	15850	0	324
-149.549	-148.287	13854	16039	0	324
-148.035	-147.349	13854	16209	0	324
-143.635	-146.340	13753	16371	0	324
-141.616	-145.979	13814	16518	0	324
-138.803	-144.753	13753	16648	0	324
-138.262	-142.120	13753	16765	0	324
-137.324	-140.101	13712	16868	0	324
-132.816	-134.115	13753	16954	0	324
-129.679	-129.679	13712	17021	0	324
-129.787	-130.797	13753	17084	0	324
-136.495	-136.459	13712	17133	0	324
-146.917	-145.294	13712	17182	0	324
-154.273	-155.355	13814	17254	0	324
-157.339	-160.260	13753	17340	0	324
-150.415	-162.063	13854	17407	0	324
-142.193	-155.680	13854	17447	0	324
-137.036	-148.756	14016	17492	0	324
-137.721	-139.632	14057	17541	0	324
-140.245	-132.420	14117	17559	0	324
-140.894	-126.794	14219	17546	0	324
-140.353	-126.974	14219	17550	0	324
-140.858	-132.889	14360	17573	0	324
-144.753	-139.308	14421	17573	0	324
-152.038	-148.828	14421	17537	0	324
-155.499	-156.401	14563	17483	0	324
-151.965	-153.047	14563	17411	0	324
-139.957	-143.094	14563	17326	0	324
-127.443	-129.787	14623	17227	0	324
-124.666	-120.736	14725	17133	0	324
-129.066	-119.834	14664	17052	0	324
-141.724	-129.787	14725	16976	0	324
-154.526	-143.130	14725	16900	0	324
-159.683	-152.182	14725	16823	0	324
-163.722	-157.952	14765	16738	0	324
-162.964	-160.440	14765	16662	0	324
-163.830	-163.866	14765	16585	0	324
-165.380	-167.905	14725	16518	0	324
-164.948	-172.629	14765	16487	0	324
-167.797	-171.006	14866	16505	0	324
-171.727	-169.672	14866	16518	0	324
-173.530	-167.688	14866	16518	0	324
-173.170	-164.659	15028	16550	0	324
-167.400	-160.368	15129	16621	0	324
-154.814	-154.814	15231	16698	0	324
-148.792	-145.979	15271	16738	0	324
-145.546	-140.858	15433	16769	0	324
-149.657	-141.976	15474	16805	0	324
-155.860	-148.251	15534	16810	0	324
-160.909	-155.283	15676	16774	0	324
-157.807	-156.149	15636	16711	0	324
-151.641	-148.792	15636	16639	0	324
-142.986	-140.426	15777	16644	0	324
-137.144	-136.170	16142	16922	0	324
-136.098	-135.665	16525	17402	0	324
-139.272	-142.770	16829	17748	0	324
-145.943	-148.323	17092	17842	0	324
-151.461	-153.119	17234	17806	0	324
-154.670	-153.011	17335	17703	0	324
-154.057	-148.936	17436	17537	0	324
-147.133	-141.580	17436	17326	0	324
-138.695	-130.617	17497	17088	1	812
-132.528	-123.621	17436	16837	0	812
-132.312	-125.099	17396	16612	0	812
-134.547	-129.931	17335	16410	0	812
-140.678	-134.908	17294	16223	0	812
-145.078	-135.737	17234	16030	0	812
-146.700	-133.357	17193	15864	0	812
-148.576	-131.699	17132	15725	0	812
-151.316	-134.980	16991	15586	0	812
-154.778	-139.921	16930	15455	0	812
-157.771	-146.628	16890	15375	0	812
-163.325	-151.244	16728	15330	0	812
-168.049	-148.539	16728	15285	0	812
-167.075	-145.366	16586	15222	0	812
-165.056	-139.524	16485	15159	0	812
-160.043	-135.737	16344	15105	0	812
-156.293	-135.701	16243	15069	0	812
-155.536	-139.127	16142	15042	0	812
-157.194	-143.202	16081	15119	0	812
-158.024	-144.933	16384	15487	0	812
-159.863	-145.114	16687	16084	0	812
-158.060	-142.806	16829	16554	0	812
-160.656	-142.625	17031	16778	0	812
-162.027	-143.274	17132	16873	0	812
-163.217	-144.356	17234	16900	0	812
-161.233	-145.835	17294	16877	0	812
-152.759	-144.212	17234	16810	0	812
-144.609	-140.389	17234	16702	0	812
-136.675	-135.701	17132	16572	0	812
-133.069	-134.223	17031	16424	0	812
-136.459	-132.420	16991	16281	0	812
-141.147	-133.538	16890	16165	0	812
-142.914	-134.980	16829	16075	0	812
-142.625	-134.115	16728	15985	0	812
-141.327	-134.006	16586	15891	0	812
-139.488	-131.771	16525	15828	0	812
-140.426	-131.951	16424	15801	0	812
-140.678	-131.374	16344	15761	0	812
-142.914	-134.043	16283	15720	0	812
-143.779	-135.485	16182	15720	0	812
-144.212	-135.810	16142	15761	0	812
-145.582	-135.846	16142	15792	0	812
-146.159	-133.466	16040	15801	0	812
-148.143	-132.420	15980	15797	0	812
-144.933	-129.354	15878	15774	0	812
-142.734	-125.279	15878	15846	0	812
-139.055	-121.457	16142	16205	0	812
-135.485	-120.231	16424	16774	0	812
-136.026	-119.870	16687	17218	0	812
-137.577	-122.755	16890	17416	0	812
-139.163	-124.991	16991	17483	0	812
-141.039	-126.830	17092	17488	0	812
-141.904	-130.184	17193	17429	0	812
-143.527	-130.869	17132	17322	0	812
-144.861	-132.528	17132	17164	0	812
-147.638	-132.095	17132	17084	0	812
-146.736	-129.931	17537	17295	0	812
-145.907	-128.309	17841	17730	0	812
-143.635	-127.804	18104	18004	0	812
-142.120	-126.902	18246	18013	0	812
-142.589	-130.184	18549	18017	0	812
-144.609	-133.682	19015	18260	0	812
-145.366	-132.420	19359	18637	0	812
-143.130	-128.345	19724	18816	0	812
-138.767	-123.512	19966	18735	0	812
-138.262	-118.211	20128	18565	0	812
-142.914	-124.089	20230	18331	0	812
-147.025	-129.643	20331	17995	0	812
-151.028	-133.754	20230	17577	0	812
-147.566	-132.312	20128	17142	0	812
-141.832	-126.433	20068	16711	0	812
-136.062	-123.188	19825	16268	0	812
-134.980	-121.204	19622	15801	0	812
-138.082	-125.568	19319	15361	0	812
-138.911	-127.010	19116	14953	0	812
-137.829	-125.929	18752	14580	0	812
-131.554	-122.178	18448	14248	0	812
-129.391	-119.077	18145	13970	0	812
-132.384	-118.500	17801	13745	0	812
-139.344	-126.145	17537	13579	1	316
-151.136	-132.384	17234	13458	0	316
-154.598	-136.314	17092	13467	0	316
-151.569	-134.331	17092	13786	0	316
-146.159	-129.499	17193	14347	0	316
-143.960	-126.578	17193	14800	0	316
-143.635	-129.787	17294	15042	0	316
-147.277	-133.898	17234	15209	0	316
-151.569	-139.596	17193	15366	0	316
-150.920	-138.731	17132	15478	0	316
-150.884	-135.882	17031	15563	0	316
-146.628	-129.787	16991	15657	0	316
-141.796	-126.722	16930	15752	0	316
-136.855	-121.926	16788	15801	0	316
-135.124	-123.080	16728	15810	0	316
-139.416	-124.594	16626	15819	0	316
-147.349	-131.446	16485	15823	0	316
-155.175	-139.921	16344	15801	0	316
-157.735	-146.953	16182	15752	0	316
-154.598	-146.448	15980	15693	0	316
-145.041	-136.098	15939	15639	0	316
-135.341	-120.808	15676	15599	0	316
-129.066	-109.953	15474	15572	0	316
-128.814	-106.491	15433	15648	0	316
-132.095	-112.910	15636	16007	0	316
-133.321	-119.365	15838	16572	0	316
-133.285	-123.008	16040	17016	0	316
-129.607	-119.762	16142	17223	0	316
-131.338	-120.087	16182	17308	0	316
-136.423	-121.926	16182	17326	0	316
-143.058	-128.309	16344	17371	0	316
-148.756	-133.213	16626	17654	0	316
-148.323	-136.026	16930	18107	0	316
-145.150	-134.511	17193	18408	0	316
-143.310	-134.223	17396	18453	0	316
-143.527	-139.055	17537	18372	0	316
-142.950	-140.353	17699	18331	0	316
-140.930	-138.226	18043	18524	0	316
-137.468	-128.814	18448	18861	0	316
-130.076	-118.536	18813	19094	0	316
-126.614	-112.009	19420	19346	0	316
-125.712	-113.884	19865	19673	0	316
-124.991	-119.329	20270	19772	0	316
-126.758	-120.339	20432	19539	0	316
-126.470	-119.906	20574	19130	0	316
-130.977	-117.057	20574	18637	0	316
-136.675	-117.851	20473	18076	0	316
-144.284	-125.568	20331	17483	0	316
-144.681	-128.237	20128	16868	0	316
-138.875	-128.164	20027	16344	0	316
-129.715	-119.618	19966	16106	0	316
-119.618	-114.533	20068	16120	0	316
-125.748	-116.192	20027	16039	0	316
-136.423	-126.217	19865	15765	0	316
-149.730	-140.750	19764	15406	0	316
-156.473	-147.890	19460	15034	0	316
-147.854	-142.229	19218	14652	0	316
-131.699	-129.751	18853	14288	0	316
-118.680	-117.670	18549	13952	0	316
-116.408	-112.982	18145	13642	0	316
-123.188	-114.353	17740	13377	0	316
-133.970	-123.765	17537	13279	0	316
-138.550	-127.876	17537	13525	0	316
-138.911	-131.049	17639	14033	0	316
-139.380	-135.052	17598	14455	0	316
-143.779	-141.543	17598	14674	0	316
-153.191	-149.369	17497	14787	0	316
-158.096	-156.653	17396	14836	0	316
-156.762	-157.375	17193	14849	0	316
-151.713	-151.677	17132	14935	0	316
-145.546	-146.232	17294	15361	0	316
-140.858	-140.966	17902	16241	0	316
-141.219	-139.668	18347	17169	0	316
-140.786	-139.704	18610	17717	0	316
-139.668	-139.776	18914	17892	0	316
-140.750	-141.507	18954	17883	0	316
-144.284	-146.051	18914	17743	0	316
-149.369	-150.775	18914	17510	0	316
-151.064	-149.008	18711	17214	0	316
-147.782	-143.094	18549	16873	1	316
-139.849	-135.413	18347	16505	0	316
-133.177	-132.203	18043	16165	0	316
-132.528	-135.377	17801	15850	0	316
-133.033	-140.642	17537	15545	0	316
-138.550	-144.609	17193	15253	0	316
-145.222	-145.907	16930	15020	0	316
-148.071	-147.890	16626	14836	0	316
-152.218	-147.818	16344	14683	0	316
-153.372	-146.628	16040	14553	0	316
-152.578	-145.907	15777	14477	0	316
-151.677	-144.609	15534	14455	0	316
-153.949	-147.710	15231	14432	0	316
-154.562	-150.595	15069	14490	0	316
-148.431	-148.828	15332	14935	0	316
-142.517	-144.212	15777	15891	0	316
-138.586	-139.308	16243	16936	0	316
-141.039	-141.039	16586	17609	0	316
-150.523	-149.153	16890	17919	0	316
-159.106	-160.873	16991	18040	0	316
-159.719	-166.246	17092	18026	0	316
-154.778	-160.368	17092	17896	0	316
-144.428	-146.195	17031	17690	0	316
-140.029	-134.583	16930	17429	0	316
-143.996	-130.040	16728	17129	0	316
-153.480	-142.337	16626	16904	0	316
-165.417	-158.240	16788	16949	0	316
-174.071	-170.898	16930	17214	0	316
-171.980	-172.160	17031	17353	0	316
-168.806	-165.308	16991	17254	0	316
-166.967	-157.266	16991	17066	0	316
-166.030	-153.985	16890	16877	0	316
-166.607	-150.775	16788	16689	0	316
-159.719	-149.297	16626	16464	0	316
-150.631	-143.815	16485	16218	0	316
-138.622	-137.973	16283	15990	0	316
-131.049	-131.915	16142	15788	0	316
-130.436	-129.066	15878	15595	0	316
-128.777	-126.361	15676	15406	0	316
-132.276	-122.575	15534	15249	0	316
-134.511	-121.601	15271	15137	0	316
-133.898	-120.195	15028	15029	0	316
-134.403	-121.673	14826	14921	0	316
-134.908	-123.693	14623	14836	0	316
-134.475	-126.686	14360	14773	0	316
-136.928	-130.148	14158	14737	0	316
-138.226	-130.905	13955	14724	0	316
-136.711	-130.581	13712	14724	0	316
-133.033	-125.424	13510	14737	0	316
-134.908	-126.542	13308	14782	0	316
-139.921	-128.669	13146	14854	0	316
-147.349	-135.521	13044	15047	0	316
-150.234	-140.317	13308	15532	0	316
-146.520	-137.973	13510	16227	0	316
-138.514	-131.735	13753	16787	0	316
-131.879	-124.234	13915	17111	0	316
-131.374	-122.503	14117	17335	0	316
-134.115	-125.712	14158	17528	0	316
-136.531	-130.833	14320	17645	0	316
-138.586	-132.564	14421	17699	0	316
-134.043	-131.230	14421	17717	0	316
-130.797	-123.368	14461	17708	0	316
-128.994	-118.320	14563	17649	0	316
-128.958	-114.677	14461	17546	0	316
-133.033	-117.959	14461	17434	0	316
-144.933	-132.203	14522	17313	0	316
-151.785	-141.580	14360	17178	0	316
-156.329	-144.681	14320	17025	0	316
-147.169	-137.901	14320	16877	0	316
-130.797	-117.418	14158	16734	0	316
-116.444	-103.137	14158	16599	0	316
-111.251	-100.974	14016	16469	0	316
-119.726	-110.350	13955	16353	0	316
-133.393	-126.830	13915	16254	0	316
-138.911	-131.699	13753	16178	0	316
-137.577	-130.472	13753	16129	0	316
-132.564	-123.044	13652	16093	0	316
-132.095	-117.562	13611	16066	0	316
-133.466	-117.670	13510	16048	0	316
-137.000	-124.522	13510	16039	0	316
-140.173	-129.318	13550	16133	0	316
-143.383	-135.341	14057	16630	0	316
-144.861	-138.911	14765	17649	0	316
-144.789	-135.846	15534	18731	0	316
-137.360	-129.679	16142	19400	0	316
-127.732	-119.149	16788	19795	0	316
-124.630	-117.274	17537	20275	0	316
-128.741	-117.310	18246	20787	0	316
-131.987	-119.618	18813	21020	0	316
-134.764	-121.096	19319	20926	0	316
-131.807	-119.690	19562	20656	0	316
-128.345	-116.300	19825	20243	0	316
-126.109	-112.225	19966	19691	0	316
-120.159	-105.193	19865	19041	1	372
-110.602	-95.636	19825	18345	0	372
-101.803	-89.470	19663	17640	0	372
-102.705	-92.499	19521	16949	0	372
-112.297	-101.479	19258	16290	0	372
-120.988	-111.540	19015	15648	0	372
-124.811	-113.631	18651	15047	0	372
-118.824	-110.602	18347	14499	0	372
-109.917	-105.950	18104	14104	0	372
-109.989	-103.967	18043	14051	0	372
-111.179	-104.291	18104	14266	0	372
-116.048	-105.770	18104	14405	0	372
-119.293	-107.465	17942	14369	0	372
-125.712	-112.189	17841	14293	0	372
-129.138	-118.716	17740	14230	0	372
-134.403	-128.128	17639	14239	0	372
-137.144	-129.643	17740	14504	0	372
-137.577	-128.345	18003	15007	0	372
-134.620	-126.361	18145	15402	0	372
-138.045	-125.820	18205	15545	0	372
-145.763	-132.744	18145	15563	0	372
-153.083	-142.084	18104	15541	0	372
-158.781	-146.376	18003	15482	0	372
-154.093	-142.157	17841	15370	0	372
-143.455	-130.508	17639	15222	0	372
-125.135	-114.858	17497	15083	0	372
-115.687	-105.121	17294	14962	0	372
-114.317	-103.823	17031	14827	0	372
-120.519	-110.314	16788	14692	0	372
-130.472	-121.132	16525	14580	0	372
-138.298	-131.590	16283	14486	0	372
-145.114	-140.714	15980	14414	0	372
-152.074	-148.936	15737	14369	0	372
-158.925	-155.319	15575	14428	0	372
-168.987	-163.469	15636	14787	0	372
-176.127	-163.974	15777	15366	0	372
-175.911	-164.190	15980	15922	0	372
-174.071	-161.955	16344	16514	0	372
-164.659	-155.932	16728	17200	0	372
-158.060	-149.693	17031	17699	0	372
-150.595	-146.051	17193	17892	0	372
-147.205	-139.488	17294	17919	0	372
-145.727	-135.197	17335	17874	0	372
-145.222	-132.059	17294	17757	0	372
-144.140	-131.013	17335	17577	0	372
-146.376	-134.908	17193	17340	0	372
-148.179	-138.514	17092	17102	0	372
-153.516	-142.842	17092	16958	0	372
-153.155	-143.527	17234	17066	0	372
-150.595	-139.488	17436	17357	0	372
-148.143	-136.062	17537	17528	0	372
-145.799	-137.721	17639	17488	0	372
-150.018	-144.753	17639	17335	0	372
-156.437	-151.316	17537	17115	0	372
-158.817	-153.660	17436	16846	0	372
-149.982	-147.674	17234	16545	0	372
-136.711	-136.278	17092	16232	0	372
-126.830	-126.361	16829	15918	0	372
-126.614	-126.073	16626	15621	0	372
-132.348	-129.895	16344	15348	0	372
-143.563	-136.170	16182	15173	0	372
-148.720	-139.632	16243	15289	0	372
-147.782	-138.262	16344	15653	0	372
-146.195	-138.731	16384	15931	0	372
-149.585	-143.347	16384	16003	0	372
-151.424	-147.746	16344	15990	0	372
-150.234	-148.720	16243	15940	0	372
-142.661	-142.265	16142	15877	0	372
-129.968	-129.030	16040	15819	0	372
-121.060	-120.411	15878	15747	0	372
-119.546	-116.408	15838	15653	0	372
-128.597	-125.171	15636	15581	0	372
-136.711	-131.085	15474	15568	0	372
-140.534	-135.088	15372	15572	0	372
-137.036	-130.256	15271	15563	0	372
-130.508	-119.690	15129	15559	0	372
-126.866	-113.127	15028	15572	0	372
-126.217	-112.261	14866	15572	0	372
-129.679	-117.490	14725	15550	0	372
-130.400	-123.188	14623	15532	0	372
-128.201	-127.768	14461	15518	0	372
-126.686	-129.715	14259	15509	0	372
-126.902	-124.342	14158	15500	0	372
-123.981	-123.116	13955	15482	0	372
-122.250	-117.238	13814	15482	0	372
-116.661	-113.091	13712	15505	0	372
-115.543	-114.028	13510	15541	0	372
-123.837	-119.618	13449	15586	0	372
-136.170	-126.794	13247	15639	0	372
-149.369	-135.846	13206	15707	0	372
-154.922	-139.740	13105	15783	0	372
-149.838	-138.406	12943	15873	0	372
-140.101	-132.961	12943	16007	0	372
-131.807	-126.109	12903	16178	0	372
-128.489	-122.827	12903	16340	0	372
-130.112	-127.191	12943	16473	0	372
-136.351	-133.285	12903	16626	0	372
-139.344	-140.317	13004	16787	0	372
-135.269	-138.442	13105	17021	0	372
-127.515	-128.814	13550	17497	0	372
-119.510	-116.408	13955	18174	0	372
-120.519	-111.071	14421	18722	0	372
-126.686	-113.343	14725	18987	0	372
-135.882	-120.808	15170	19175	0	372
-139.957	-129.391	15737	19557	0	372
-137.721	-128.525	16283	20068	0	372
-128.886	-126.542	16728	20369	0	372
-126.325	-123.909	17234	20441	0	372
-130.256	-127.876	17902	20620	0	372
-137.685	-138.442	18408	20903	0	372
-146.809	-146.556	18954	20953	0	372
-149.874	-147.386	19319	20683	0	372
-139.957	-140.173	19460	20230	0	372
-131.122	-130.833	19562	19673	0	372
-123.873	-126.506	19562	19036	0	372
-130.364	-132.492	19420	18349	1	460
-143.996	-144.284	19359	17649	0	460
-156.473	-155.175	19116	16949	0	460
-163.217	-158.096	18914	16272	0	460
-162.495	-156.473	18610	15635	0	460
-153.696	-147.530	18307	15060	0	460
-145.402	-141.796	18043	14571	0	460
-138.911	-131.374	17740	14167	0	460
-133.718	-125.532	17396	13813	0	460
-130.220	-122.935	17193	13507	0	460
-128.056	-120.916	16930	13368	0	460
-127.732	-123.729	17031	13584	0	460
-124.270	-123.296	17132	14042	0	460
-121.457	-122.467	17193	14401	0	460
-119.077	-115.975	17193	14576	0	460
-119.077	-113.559	17193	14688	0	460
-119.582	-112.009	17092	14760	0	460
-117.598	-112.550	17031	14769	0	460
-114.641	-109.917	16829	14733	0	460
-110.314	-107.898	16687	14665	0	460
-109.088	-105.662	16485	14585	0	460
-113.631	-108.619	16283	14508	0	460
-121.349	-113.956	16040	14441	0	460
-129.318	-120.014	15777	14392	0	460
-134.836	-127.299	15676	14450	0	460
-135.016	-130.689	15838	14796	0	460
-135.160	-132.348	15939	15361	0	460
-133.213	-133.249	16040	15814	0	460
-130.184	-131.302	16081	16043	0	460
-131.302	-128.489	16081	16160	0	460
-131.338	-128.633	16040	16227	0	460
-132.672	-129.643	15980	16254	0	460
-132.853	-129.751	15980	16263	0	460
-132.780	-131.049	15838	16236	0	460
-136.351	-133.682	15737	16174	0	460
-141.183	-137.505	15636	16138	0	460
-143.779	-140.714	15575	16151	0	460
-138.803	-134.547	15474	16169	0	460
-126.506	-121.818	15372	16165	0	460
-116.192	-112.333	15271	16165	0	460
-113.415	-108.799	15231	16183	0	460
-121.998	-117.815	15129	16183	0	460
-131.879	-127.335	15231	16245	0	460
-131.554	-129.571	15372	16559	0	460
-123.368	-120.519	15636	17075	0	460
-112.514	-110.927	15838	17452	0	460
-116.300	-110.638	15980	17582	0	460
-132.059	-121.637	16040	17591	0	460
-152.218	-137.649	16182	17622	0	460
-160.692	-147.241	16485	17860	0	460
-155.103	-144.392	16829	18260	0	460
-137.432	-130.040	17092	18502	0	460
-125.243	-114.281	17396	18569	0	460
-119.401	-108.222	17801	18785	0	460
-124.739	-109.845	18205	19126	0	460
-126.109	-115.002	18549	19261	0	460
-123.837	-117.382	18711	19130	0	460
-116.264	-114.208	19056	18951	0	460
-115.471	-112.297	19420	18960	0	460
-121.096	-112.910	19865	19171	0	460
-130.364	-120.050	20371	19476	0	460
-132.997	-122.034	20938	19732	0	460
-126.217	-118.464	21343	19736	0	460
-109.665	-108.258	21545	19427	0	460
-96.322	-101.659	21748	19054	0	460
-92.788	-98.666	22153	18906	0	460
-97.981	-99.315	22598	18982	0	460
-106.311	-100.613	23064	19117	0	460
-114.677	-104.183	23570	19157	0	460
-123.657	-107.898	23772	18937	0	460
-126.542	-114.064	23873	18435	0	460
-127.227	-117.562	23772	17761	0	460
-124.522	-114.641	23570	16989	0	460
-118.247	-110.422	23307	16169	0	460
-119.798	-107.140	22861	15330	0	460
-122.791	-112.586	22396	14504	0	460
-129.571	-116.841	21890	13723	0	460
-128.994	-118.464	21343	13000	0	460
-123.657	-112.946	20736	12354	0	460
-114.100	-108.655	20128	11788	0	460
-110.530	-107.068	19663	11393	0	460
-115.939	-113.812	19460	11456	0	460
-125.243	-121.998	19562	12089	0	460
-133.393	-124.378	19622	12875	0	460
-137.036	-124.702	19663	13368	0	460
-137.360	-125.893	19562	13575	0	460
-138.514	-127.263	19420	13674	0	460
-138.082	-131.338	19116	13692	0	460
-134.547	-128.741	18914	13651	0	460
-125.568	-119.473	18509	13602	0	460
-112.405	-107.609	18307	13638	0	460
-103.570	-100.902	18307	13925	0	460
-102.488	-99.892	18205	14410	0	460
-107.609	-105.590	18205	14791	0	460
-110.638	-108.583	18205	15038	0	460
-112.225	-108.727	18246	15428	0	460
-112.009	-109.448	18509	16039	0	460
-109.665	-108.150	18914	16729	0	460
-113.740	-109.629	19157	17357	0	460
-120.231	-113.631	19359	17699	0	460
-129.968	-116.408	19359	17717	0	460
-136.206	-120.339	19319	17537	0	460
-141.507	-124.414	19116	17259	0	460
-139.344	-125.712	18914	16900	0	460
-133.682	-123.945	18509	16505	0	460
-130.112	-123.008	18205	16097	0	460
-129.968	-126.001	17801	15671	0	460
-135.233	-130.328	17335	15258	0	460
-141.219	-138.118	16890	14881	0	460
-141.688	-139.272	16485	14553	0	460
-135.990	-134.187	16040	14288	0	460
-126.938	-126.578	15777	14190	0	460
-118.824	-119.113	15575	14401	0	460
-118.860	-113.343	15575	14845	0	460
-120.519	-114.713	15474	15222	0	460
-128.561	-117.743	15474	15437	0	460
-128.489	-119.618	15433	15662	0	460
-127.876	-120.591	15636	16102	0	460
-120.231	-116.625	16040	16787	0	460
-112.874	-109.196	16485	17609	0	460
-107.285	-103.967	16890	18345	0	460
-106.203	-101.947	17234	18767	0	460
-111.937	-106.455	17396	18848	0	460
-120.555	-113.776	17497	18740	0	460
-129.354	-119.510	17598	18610	0	460
-127.479	-119.510	17801	18655	0	460
-120.808	-110.927	18104	18834	0	460
-108.547	-100.361	18145	18830	0	460
-103.931	-96.177	18145	18551	0	460
-106.888	-97.981	18003	18134	0	460
-113.054	-104.724	17841	17649	0	460
-118.464	-109.953	17639	17124	0	460
-115.543	-107.609	17396	16680	0	460
-112.477	-105.698	17497	16612	0	460
-113.091	-107.825	17942	17057	0	460
-119.041	-114.821	18408	17721	0	460
-121.818	-118.608	18954	18336	0	460
-118.067	-120.014	19460	18803	0	460
-112.369	-112.514	19764	18964	0	460
-106.816	-107.393	20027	18803	0	460
-103.570	-101.695	20027	18448	0	460
-102.669	-97.512	19926	17959	0	460
-98.449	-91.850	19764	17366	0	460
-93.292	-85.034	19460	16738	0	460
-90.011	-85.792	19157	16120	0	460
-97.115	-91.129	18853	15572	0	460
-107.104	-99.315	18813	15312	0	460
-117.129	-105.806	18651	15298	0	460
-117.454	-104.436	18711	15298	0	460
-112.658	-98.882	18752	15370	0	460
-105.445	-90.840	18813	15581	0	460
-101.587	-89.686	18813	15657	0	460
-105.409	-92.211	18610	15482	0	460
-113.920	-101.659	18448	15191	0	460
-125.965	-112.550	18145	14845	0	460
-129.968	-119.906	17740	14472	0	460
-134.620	-126.325	17294	14104	0	460
-133.826	-124.162	16890	13759	0	460
-129.427	-121.529	16424	13449	0	460
-123.224	-115.326	15939	13180	0	460
-117.670	-112.297	15534	12951	0	460
-114.028	-112.477	15028	12771	0	460
-117.454	-118.175	14461	12641	0	460
-122.755	-121.998	14057	12583	0	460
-130.472	-125.352	13814	12691	0	460
-132.023	-120.952	13652	13139	0	460
-123.801	-115.507	13712	13822	0	460
-113.018	-107.645	13611	14387	0	460
-102.056	-102.705	13611	14755	0	460
-97.512	-102.344	13449	15047	0	460
-100.829	-105.409	13348	15271	0	460
-104.940	-109.412	13146	15437	0	460
-109.917	-112.550	13105	15586	0	460
-111.179	-110.133	12943	15720	0	460
-109.448	-105.914	12700	15819	0	460
-108.402	-101.406	12538	15882	0	460
-104.904	-100.361	12397	15927	0	460
-102.921	-101.659	12093	15958	0	460
-105.085	-108.186	11931	15994	0	460
-114.749	-116.733	11789	16025	0	460
-128.777	-126.866	11627	16066	0	460
-138.154	-132.997	11384	16115	0	460
-137.829	-129.282	11283	16174	0	460
-127.551	-122.178	11081	16232	0	460
-109.989	-108.943	10980	16290	0	460
-99.351	-104.868	10777	16353	0	460
-99.459	-105.013	10676	16415	0	460
-107.393	-112.550	10575	16491	0	460
-120.050	-119.437	10474	16585	0	460
-125.856	-119.437	10474	16716	0	460
-126.325	-115.939	10474	16864	0	460
-121.168	-108.943	10474	16998	0	460
-120.375	-107.104	10615	17205	0	460
-120.880	-110.746	10919	17712	0	460
-125.568	-116.985	11587	18551	0	460
-126.361	-121.529	12295	19521	0	460
-126.001	-124.198	13105	20392	0	460
-124.414	-121.024	13652	20966	0	460
-123.693	-119.149	14219	21208	0	460
-120.916	-117.382	14623	21213	0	460
-119.510	-112.802	14927	21038	0	460
-112.658	-107.357	15170	20724	0	460
-105.914	-103.750	15271	20315	0	460
-101.839	-99.459	15372	19840	0	460
-102.308	-98.882	15372	19314	1	816
-107.825	-101.947	15332	18762	0	816
-115.435	-106.275	15231	18201	0	816
-124.558	-111.864	15271	17734	0	816
-124.234	-114.713	15433	17564	0	816
-123.837	-117.923	15737	17627	0	816
-119.257	-115.074	15838	17591	0	816
-116.444	-113.740	15878	17335	0	816
-117.490	-113.559	15878	16998	0	816
-120.339	-117.346	15777	16644	0	816
-128.453	-120.447	15737	16286	0	816
-130.472	-122.827	15636	15918	0	816
-132.780	-126.614	15534	15644	0	816
-130.545	-124.847	15676	15662	0	816
-124.017	-120.375	16081	16016	0	816
-119.690	-113.091	16525	16568	0	816
-115.326	-106.383	16991	17138	0	816
-114.317	-103.246	17335	17483	0	816
-117.310	-105.626	17639	17546	0	816
-120.880	-108.979	17902	17479	0	816
-117.959	-109.629	17942	17322	0	816
-110.963	-101.623	18043	17057	0	816
-99.531	-91.381	17942	16720	0	816
-92.211	-89.867	18043	16451	0	816
-89.903	-93.545	18145	16442	0	816
-93.978	-98.413	18408	16608	0	816
-98.918	-101.370	18509	16630	0	816
-101.082	-98.413	18448	16419	0	816
-109.124	-99.892	18408	16115	0	816
-119.005	-103.173	18246	15765	0	816
-125.243	-111.973	18003	15379	0	816
-119.149	-112.369	17902	15069	0	816
-107.501	-105.734	17942	15038	0	816
-98.521	-97.331	17942	15231	0	816
-95.853	-97.331	18003	15312	0	816
-109.701	-106.816	17902	15191	0	816
-123.801	-119.726	17740	14984	0	816
-133.105	-128.201	17537	14836	0	816
-135.124	-132.131	17699	14944	0	816
-137.360	-130.076	17841	15348	0	816
-134.872	-129.210	18246	15909	0	816
-134.403	-128.633	18610	16532	0	816
-129.427	-124.414	19218	17209	0	816
-120.988	-119.113	19663	17833	0	816
-112.730	-110.422	20128	18179	0	816
-102.885	-100.288	20270	18170	0	816
-94.879	-92.571	20331	17945	0	816
-88.027	-84.926	20371	17622	0	816
-84.746	-81.464	20230	17209	0	816
-80.563	-78.868	19966	16711	0	816
-80.923	-75.334	19724	16160	0	816
-81.897	-77.317	19460	15671	0	816
-84.493	-77.714	19420	15460	0	816
-88.677	-80.058	19319	15482	0	816
-88.893	-80.887	19218	15406	0	816
-92.066	-81.428	18914	15123	0	816
-94.699	-83.772	18651	14769	0	816
-101.983	-88.857	18205	14396	0	816
-109.845	-97.836	17902	14024	0	816
-112.982	-103.390	17436	13683	0	816
-108.943	-99.603	16991	13377	0	816
-103.787	-92.968	16485	13117	0	816
-97.367	-90.263	15980	12906	0	816
-98.738	-91.417	15575	12753	0	816
-106.239	-97.259	15129	12677	0	816
-115.038	-102.849	14725	12686	0	816
-120.591	-103.787	14320	12740	0	816
-124.486	-104.544	13915	12821	0	816
-121.818	-106.635	13712	13054	0	816
-119.041	-111.071	13712	13642	0	816
-116.769	-111.720	13915	14468	0	816
-110.819	-104.940	13915	15155	0	816
-106.888	-92.968	14016	15608	0	816
-98.413	-79.120	14016	15954	0	816
-94.987	-74.324	13955	16218	0	816
-97.548	-75.622	13915	16392	0	816
-100.865	-83.808	13814	16509	0	816
-105.301	-92.138	13753	16590	0	816
-108.078	-100.288	13550	16635	0	816
-107.717	-105.986	13510	16653	0	816
-111.468	-111.900	13308	16635	0	816
-116.661	-118.933	13146	16599	0	816
-121.926	-122.791	12943	16554	0	816
-126.217	-122.755	12903	16509	0	816
-122.647	-118.139	12700	16464	0	816
-115.074	-107.681	12437	16415	0	816
-105.914	-97.331	12295	16384	0	816
-100.072	-90.552	12194	16349	0	816
-102.092	-95.276	11992	16335	0	816
-111.900	-105.626	11891	16362	0	816
-122.395	-116.408	11789	16410	0	816
-124.702	-118.500	11688	16455	0	816
-122.647	-114.172	11627	16505	0	816
-113.199	-103.750	11526	16581	0	816
-107.537	-100.613	11526	16680	0	816
-107.934	-98.846	11486	16765	0	816
-108.835	-100.072	11486	16841	0	816
-109.845	-101.551	11486	16931	0	816
-107.573	-96.863	11486	17030	0	816
-102.813	-92.896	11486	17106	0	816
-100.252	-89.217	11486	17164	0	816
-102.488	-89.867	11486	17214	0	816
-107.176	-92.319	11587	17259	0	816
-111.540	-95.853	11587	17299	0	816
-111.323	-97.223	11587	17317	0	816
-108.547	-95.889	11627	17308	0	816
-107.681	-97.764	11627	17290	0	816
-112.081	-104.219	11587	17272	0	816
-123.116	-116.372	11830	17357	0	816
-134.908	-126.722	12295	17815	0	816
-140.462	-134.367	13105	18749	0	816
-138.406	-137.108	13854	19750	0	816
-134.403	-136.459	14522	20360	0	816
-130.617	-137.360	15069	20585	0	816
-133.285	-136.964	15474	20598	0	816
-137.901	-137.396	15777	20454	0	816
-140.065	-135.665	16040	20176	0	816
-138.983	-134.295	16243	19813	0	816
-136.639	-130.725	16344	19409	0	816
-134.259	-129.823	16424	18987	1	476
-133.718	-126.289	16485	18529	0	476
-134.439	-127.768	16485	18040	0	476
-133.105	-126.325	16424	17564	0	476
-131.662	-126.433	16384	17111	0	476
-129.499	-124.558	16283	16666	0	476
-130.364	-120.483	16182	16245	0	476
-130.977	-117.887	16040	15868	0	476
-130.508	-116.841	15939	15545	0	476
-128.164	-116.552	15777	15249	0	476
-122.611	-113.379	15636	14971	0	476
-116.480	-112.802	15433	14724	0	476
-114.425	-111.107	15372	14513	0	476
-120.303	-114.100	15129	14338	0	476
-126.325	-116.120	14927	14199	0	476
-131.374	-120.195	14765	14118	0	476
-131.699	-119.077	14623	14077	0	476
-126.217	-117.093	14461	14069	0	476
-126.470	-120.519	14320	14091	0	476
-128.020	-123.657	14219	14136	0	476
-132.961	-128.345	14016	14203	0	476
-135.197	-128.453	14057	14378	0	476
-138.514	-130.040	14360	14930	0	476
-140.498	-134.511	15028	15990	0	476
-147.926	-139.055	15676	17147	0	476
-154.598	-147.962	16243	17950	0	476
-159.286	-157.699	16687	18363	0	476
-162.495	-160.079	17031	18560	0	476
-158.276	-159.322	17294	18628	0	476
-149.477	-150.307	17537	18583	0	476
-136.026	-132.492	17598	18421	0	476
-123.368	-118.969	17639	18165	0	476
-118.572	-115.038	17639	17878	0	476
-127.948	-125.856	17639	17573	0	476
-141.868	-142.337	17598	17227	0	476
-151.388	-152.975	17436	16855	0	476
-151.208	-149.982	17234	16473	0	476
-138.082	-137.901	17092	16106	0	476
-122.286	-122.070	16890	15752	0	476
-109.484	-109.556	16687	15428	0	476
-105.554	-103.895	16424	15132	0	476
-106.635	-103.787	16182	14872	0	476
-112.297	-107.573	15939	14652	0	476
-116.444	-112.405	15676	14477	0	476
-117.562	-112.009	15474	14347	0	476
-112.982	-108.078	15231	14248	0	476
-105.445	-99.603	15129	14275	0	476
-99.603	-90.227	15271	14616	0	476
-93.833	-87.162	15433	15204	0	476
-94.014	-85.864	15575	15716	0	476
-95.168	-91.922	15777	16007	0	476
-100.793	-95.564	15838	16183	0	476
-105.698	-101.190	15838	16295	0	476
-108.799	-101.911	15878	16367	0	476
-109.629	-101.046	15838	16406	0	476
-108.475	-101.334	15777	16397	0	476
-111.468	-104.544	15777	16353	0	476
-116.877	-109.268	15737	16308	0	476
-125.712	-112.225	15636	16268	0	476
-128.128	-113.018	15575	16200	0	476
-124.198	-109.881	15433	16097	0	476
-115.723	-107.285	15332	16003	0	476
-111.396	-108.511	15170	15940	0	476
-111.035	-111.143	15129	15909	0	476
-114.894	-115.074	15129	15958	0	476
-116.444	-118.283	15332	16277	0	476
-114.100	-116.733	15575	16792	0	476
-111.035	-114.605	15777	17182	0	476
-110.278	-115.435	15980	17326	0	476
-114.172	-118.572	16081	17348	0	476
-115.903	-118.139	16243	17407	0	476
-112.622	-114.497	16525	17681	0	476
-103.750	-101.370	16930	18112	0	476
-94.086	-87.054	17193	18376	0	476
-90.191	-84.025	17335	18372	0	476
-97.584	-90.552	17436	18233	0	476
-110.855	-107.140	17537	18022	0	476
-120.519	-118.644	17537	17752	0	476
-121.709	-118.536	17497	17470	0	476
-119.329	-110.927	17396	17182	0	476
-112.189	-102.777	17335	16868	0	476
-115.218	-103.426	17132	16541	0	476
-124.017	-115.687	17031	16245	0	476
-135.846	-128.201	16890	15981	0	476
-139.776	-133.862	16687	15711	0	476
-138.586	-132.312	16525	15446	0	476
-132.997	-121.493	16344	15222	0	476
-127.804	-117.454	16142	15056	0	476
-125.568	-117.815	15939	14917	0	476
-124.234	-117.526	15737	14791	0	476
-121.132	-117.706	15636	14773	0	476
-117.382	-113.379	15838	15056	0	476
-114.425	-108.114	15980	15577	0	476
-116.697	-110.638	16142	15990	0	476
-120.627	-117.057	16243	16165	0	476
-124.270	-126.289	16243	16241	0	476
-120.808	-127.083	16243	16263	0	476
-118.283	-124.775	16182	16236	0	476
-116.480	-116.336	16142	16174	0	476
-117.057	-111.900	16040	16079	0	476
-122.322	-111.684	15939	15972	0	476
-125.027	-114.641	15777	15850	0	476
-125.316	-114.966	15636	15734	0	476
-122.539	-116.156	15474	15657	0	476
-122.322	-112.946	15372	15617	0	476
-122.106	-114.749	15231	15572	0	476
-126.037	-117.815	15069	15527	0	476
-129.210	-125.460	15028	15527	0	476
-134.403	-131.266	14927	15563	0	476
-137.072	-135.737	14927	15675	0	476
-138.298	-135.665	15129	16052	0	476
-137.577	-131.807	15474	16662	0	476
-134.872	-127.010	15838	17259	0	476
-133.321	-125.532	16384	17878	0	476
-134.980	-128.525	16930	18565	0	476
-135.016	-128.669	17396	19027	0	476
-133.213	-127.083	17740	19166	0	476
-127.587	-116.480	17841	19103	0	476
-117.021	-107.573	18104	18919	0	476
-109.953	-101.839	18104	18632	0	476
-108.330	-101.983	18043	18273	0	476
-108.222	-103.210	17942	17865	0	476
-109.484	-102.344	17841	17411	0	476
-106.888	-98.666	17699	16936	0	476
-106.058	-99.062	17436	16469	0	476
-108.511	-105.229	17193	16030	0	476
-115.579	-117.418	16991	15630	0	476
-122.827	-124.162	16687	15280	0	476
-127.155	-126.974	16424	15007	0	476
-124.270	-120.555	16243	14818	0	476
-121.060	-114.353	15980	14661	0	476
-114.100	-110.674	15980	14616	0	476
-105.734	-109.124	16081	14899	0	476
-100.036	-107.068	16283	15437	0	476
-98.666	-106.275	16424	15864	0	476
-103.065	-104.508	16525	16061	0	476
-110.927	-102.993	16586	16178	0	476
-116.228	-104.400	16687	16268	0	476
-113.992	-104.544	16687	16286	0	476
-113.054	-107.285	16586	16245	0	476
-112.261	-110.963	16525	16165	0	476
-117.706	-114.064	16525	16156	0	476
-120.447	-113.740	16890	16496	0	476
-120.808	-111.684	17639	17402	0	476
-116.048	-105.878	18549	18641	0	476
-110.783	-103.318	19359	19682	0	476
-110.999	-103.390	19966	20199	0	476
-118.320	-106.058	20635	20360	0	476
-122.935	-107.934	21181	20549	0	476
-124.162	-107.248	21748	20778	0	476
-112.730	-100.325	22153	20728	0	476
-96.322	-93.076	22396	20315	0	476
-85.215	-86.837	22396	19705	0	476
-87.126	-91.525	22355	18987	0	476
-98.449	-99.531	22294	18291	1	616
-109.268	-108.258	22396	17833	0	616
-108.979	-109.016	22456	17577	0	616
-103.678	-104.219	22456	17227	0	616
-102.380	-100.469	22294	16689	0	616
-106.275	-101.334	22092	16070	0	616
-119.906	-107.717	21788	15428	0	616
-132.420	-118.139	21444	14800	0	616
-135.918	-122.719	21039	14208	0	616
-134.043	-125.279	20574	13642	0	616
-129.643	-121.168	20128	13108	0	616
-123.116	-117.562	19562	12655	0	616
-124.125	-115.435	19258	12376	0	616
-125.460	-113.740	19056	12439	0	616
-127.624	-115.182	19116	12857	0	616
-126.181	-112.730	19218	13472	0	616
-121.998	-109.016	19420	14095	0	616
-116.841	-104.688	19420	14513	0	616
-119.329	-104.977	19420	14665	0	616
-121.854	-106.924	19218	14688	0	616
-124.450	-110.855	19056	14639	0	616
-123.945	-110.638	18711	14522	0	616
-115.182	-107.934	18448	14360	0	616
-106.671	-102.200	18043	14181	0	616
-102.056	-96.286	17801	14095	0	616
-103.750	-96.286	17740	14293	0	616
-109.520	-99.098	17740	14724	0	616
-117.274	-103.859	17639	15051	0	616
-116.733	-104.255	17497	15195	0	616
-108.799	-97.476	17335	15249	0	616
-98.269	-87.450	17132	15231	0	616
-89.650	-79.986	16890	15159	0	616
-87.018	-72.990	16626	15083	0	616
-84.349	-72.521	16485	15114	0	616
-81.536	-71.691	16485	15406	0	616
-77.497	-69.888	16586	15895	0	616
-72.449	-69.383	16586	16268	0	616
-71.259	-69.780	16525	16424	0	616
-75.730	-71.150	16424	16460	0	616
-83.231	-74.648	16283	16419	0	616
-89.867	-80.382	16142	16322	0	616
-93.725	-85.828	15878	16183	0	616
-94.302	-89.903	15777	16120	0	616
-91.525	-87.234	15838	16326	0	616
-93.761	-88.280	15980	16729	0	616
-101.334	-89.867	15980	17003	0	616
-112.441	-97.656	15939	17030	0	616
-117.238	-103.534	15838	16954	0	616
-113.884	-106.311	15777	16832	0	616
-106.852	-105.373	15575	16680	0	616
-102.885	-105.121	15372	16496	0	616
-105.193	-107.393	15129	16299	0	616
-112.874	-112.477	14866	16093	0	616
-117.634	-118.067	14664	15900	0	616
-118.464	-119.473	14461	15814	0	616
-113.992	-119.437	14563	16025	0	616
-111.215	-117.490	14866	16545	0	616
-112.405	-111.792	15271	17245	0	616
-114.317	-108.330	15676	17950	0	616
-122.214	-108.114	16081	18448	0	616
-128.597	-115.975	16344	18641	0	616
-133.970	-122.935	16525	18673	0	616
-133.790	-125.820	16687	18632	0	616
-127.299	-122.395	16687	18489	0	616
-116.625	-111.504	16687	18233	0	616
-112.153	-107.609	16728	17990	0	616
-113.343	-111.900	16991	18013	0	616
-122.070	-120.339	17234	18246	0	616
-127.299	-125.496	17436	18327	0	616
-124.775	-123.080	17497	18138	0	616
-117.562	-113.812	17598	17910	0	616
-111.035	-107.321	17942	17995	0	616
-113.451	-107.393	18509	18511	0	616
-119.834	-113.740	19056	19063	0	616
-127.479	-116.949	19359	19220	0	616
-128.273	-118.824	19622	19000	0	616
-126.722	-116.516	19663	18601	0	616
-125.929	-117.743	19663	18094	0	616
-123.080	-119.257	19460	17506	0	616
-120.952	-116.733	19420	16962	0	616
-116.192	-112.189	19521	16765	0	616
-112.550	-105.013	19926	17052	0	616
-113.704	-102.777	20270	17429	0	616
-120.988	-109.484	20432	17461	0	616
-127.083	-120.844	20473	17173	0	616
-131.049	-127.191	20432	16756	0	616
-128.092	-129.391	20230	16295	0	616
-121.457	-124.162	19966	15810	0	616
-112.586	-113.740	19724	15303	0	616
-110.206	-105.590	19319	14760	0	616
-109.376	-101.911	18954	14217	0	616
-115.867	-105.373	18448	13736	0	616
-123.260	-114.533	18043	13328	0	616
-129.571	-123.044	17639	12973	0	616
-130.545	-127.804	17092	12655	0	616
-130.256	-127.984	16626	12385	0	616
-126.506	-124.486	16142	12179	0	616
-122.611	-123.188	15636	12035	0	616
-120.447	-119.798	15170	11955	0	616
-115.435	-118.933	14725	11932	0	616
-113.956	-118.320	14421	12053	0	616
-119.113	-120.591	14259	12498	0	616
-126.686	-131.590	14259	13207	0	616
-139.812	-145.618	14219	13817	0	616
-149.513	-154.706	14117	14203	0	616
-150.379	-154.237	14016	14486	0	616
-141.904	-144.501	13854	14733	0	616
-129.787	-128.128	13753	14975	0	616
-121.673	-116.805	13611	15218	0	616
-118.788	-116.048	13550	15505	0	616
-127.155	-123.765	13814	16039	0	616
-134.295	-129.354	14016	16769	0	616
-139.596	-135.124	14259	17366	0	616
-137.721	-135.233	14360	17676	0	616
-132.023	-134.908	14421	17820	0	616
-124.522	-131.843	14461	17896	0	616
-119.654	-129.354	14461	17905	0	616
-113.956	-125.712	14421	17838	0	616
-112.405	-115.615	14320	17708	0	616
-112.477	-107.429	14158	17528	0	616
-114.461	-104.688	14117	17326	0	616
-116.336	-106.058	13854	17115	0	616
-119.906	-112.586	13712	16918	0	616
-122.575	-119.690	13611	16729	0	616
-123.945	-124.378	13348	16554	0	616
-131.807	-128.201	13247	16397	0	616
-136.567	-127.551	13044	16259	0	616
-138.118	-125.027	12802	16129	0	616
-132.348	-120.050	12640	16021	0	616
-123.621	-113.992	12437	15940	0	616
-120.339	-118.788	12295	15877	0	616
-123.801	-131.230	12133	15832	0	616
-133.898	-145.655	12032	15832	0	616
-138.875	-152.506	11931	15873	0	616
-135.305	-141.075	11789	15931	0	616
-123.080	-124.594	11729	15994	0	616
-119.329	-113.415	11729	16106	0	616
-123.332	-112.477	11789	16277	0	616
-130.617	-122.972	11789	16451	0	616
-132.384	-128.958	11729	16599	0	616
-127.047	-128.128	11830	16734	0	616
-119.726	-119.293	11891	16873	0	616
-117.706	-115.471	11992	16994	0	616
-121.529	-113.271	11992	17070	0	616
-128.381	-116.048	11992	17106	0	616
-127.191	-117.093	11992	17115	0	616
-124.234	-117.166	12194	17209	0	616
-123.693	-118.933	12599	17667	0	616
-124.630	-123.549	13348	18605	0	616
-126.253	-128.489	14117	19602	0	616
-124.847	-129.499	14765	20203	0	616
-123.621	-124.162	15271	20410	0	616
-119.510	-118.464	15636	20410	0	616
-119.437	-111.360	15980	20261	0	616
-117.526	-103.606	16283	20086	0	616
-113.668	-99.784	16788	20100	0	616
-108.186	-95.240	17294	20266	0	616
-104.039	-96.790	17699	20270	1	628
-104.724	-98.918	17942	20010	0	628
-106.383	-103.750	18145	19584	0	628
-107.032	-103.426	18408	19162	0	628
-102.416	-97.331	18711	18978	0	628
-93.365	-89.903	19116	18982	0	628
-88.388	-82.185	19258	18816	0	628
-87.342	-82.113	19460	18390	0	628
-90.768	-84.349	19460	17869	0	628
-95.817	-86.585	19460	17317	0	628
-95.528	-92.138	19319	16716	0	628
-99.675	-94.302	19157	16097	0	628
-104.472	-102.849	18914	15505	0	628
-112.297	-112.117	18651	14957	0	628
-119.005	-119.113	18307	14441	0	628
-119.654	-119.834	18043	13956	0	628
-117.995	-112.189	17699	13525	0	628
-115.435	-101.911	17335	13157	0	628
-110.638	-94.338	16930	12848	0	628
-110.566	-93.329	16586	12601	0	628
-109.989	-97.404	16243	12417	0	628
-112.766	-108.907	15838	12291	0	628
-121.781	-118.897	15636	12318	0	628
-128.669	-125.640	15636	12673	0	628
-129.571	-122.899	15676	13279	0	628
-124.234	-117.526	15676	13795	0	628
-114.821	-109.520	15636	14095	0	628
-109.268	-105.013	15676	14297	0	628
-112.514	-107.465	15474	14459	0	628
-118.320	-112.658	15372	14612	0	628
-121.313	-114.064	15231	14755	0	628
-122.503	-116.444	15129	14854	0	628
-115.435	-115.398	14967	14930	0	628
-111.504	-118.500	14826	15029	0	628
-114.317	-121.096	14664	15150	0	628
-121.709	-125.856	14563	15258	0	628
-126.578	-125.171	14461	15339	0	628
-128.741	-119.113	14421	15527	0	628
-125.712	-112.874	14664	16012	0	628
-122.935	-113.812	14927	16675	0	628
-122.611	-117.598	15129	17173	0	628
-126.470	-124.883	15372	17501	0	628
-130.941	-130.617	15838	17972	0	628
-127.443	-126.794	16384	18668	0	628
-123.368	-120.664	17031	19427	0	628
-117.887	-114.389	17801	20167	0	628
-121.493	-116.552	18549	20876	0	628
-126.974	-120.736	19359	21433	0	628
-134.259	-126.974	19966	21720	0	628
-138.731	-129.282	20736	21886	0	628
-132.961	-126.289	21282	22012	0	628
-124.991	-118.788	21687	21855	0	628
-119.906	-114.713	21950	21330	0	628
-119.257	-115.723	21991	20612	0	628
-121.781	-118.572	22092	19907	0	628
-122.503	-117.166	22294	19427	0	628
-120.014	-115.507	22497	19094	0	628
-117.490	-111.396	22497	18605	0	628
-118.897	-112.225	22456	17905	0	628
-124.342	-118.788	22294	17160	0	628
-131.302	-127.119	22052	16401	0	628
-130.833	-127.732	21687	15626	0	628
-123.368	-120.375	21282	14876	0	628
-112.946	-110.314	20837	14190	0	628
-108.907	-105.193	20371	13534	0	628
-110.819	-107.681	19865	12911	0	628
-115.615	-117.093	19420	12439	0	628
-121.565	-122.683	19218	12323	0	628
-120.375	-119.510	19116	12587	0	628
-115.146	-113.704	19218	13068	0	628
-112.045	-107.717	19258	13575	0	628
-110.674	-106.527	19319	13893	0	628
-113.668	-112.694	19116	13974	0	628
-116.516	-115.579	19056	14015	0	628
-121.457	-115.398	19056	14275	0	628
-120.555	-111.648	19218	14697	0	628
-117.202	-105.842	19116	14966	0	628
-116.805	-104.291	19015	14971	0	628
-119.834	-109.052	18752	14854	0	628
-122.863	-116.877	18549	14692	1	316
-124.955	-118.716	18205	14490	0	316
-118.428	-112.802	17801	14270	0	316
-104.436	-99.135	17335	14055	0	316
-95.997	-86.260	16930	13867	0	316
-96.286	-87.306	16586	13732	0	316
-106.671	-97.692	16182	13642	0	316
-115.579	-109.917	15777	13579	0	316
-120.772	-113.271	15433	13570	0	316
-117.706	-111.071	15069	13633	0	316
-114.641	-104.364	14725	13736	0	316
-118.356	-104.327	14421	13853	0	316
-120.519	-107.068	14158	13992	0	316
-123.224	-111.432	13814	14158	0	316
-123.873	-112.550	13611	14320	0	316
-117.815	-110.314	13247	14459	0	316
-112.441	-107.573	13044	14598	0	316
-106.131	-103.462	12741	14737	0	316
-100.072	-98.558	12498	14881	0	316
-97.331	-92.463	12295	15038	0	316
-97.440	-87.018	12032	15195	0	316
-101.406	-87.414	11789	15357	0	316
-103.462	-88.100	11627	15523	0	316
-102.705	-92.535	11425	15698	0	316
-101.298	-99.964	11283	15877	0	316
-100.793	-101.947	11283	16147	0	316
-104.544	-105.662	11425	16684	0	316
-105.770	-109.088	11729	17416	0	316
-109.232	-111.179	11931	18008	0	316
-107.645	-114.821	12194	18372	0	316
-107.104	-113.595	12397	18637	0	316
-108.907	-114.966	12437	18816	0	316
-115.002	-114.605	12640	18901	0	316
-118.752	-116.480	12802	18942	0	316
-114.894	-113.091	12802	18951	0	316
-109.629	-107.212	12903	18901	0	316
-102.272	-100.721	13004	18803	0	316
-102.524	-97.512	13004	18691	0	316
-105.554	-101.731	13105	18574	0	316
-112.514	-105.085	13044	18430	0	316
-109.701	-107.429	13105	18246	0	316
-105.013	-105.229	13044	18044	0	316
-100.974	-102.416	13105	17838	0	316
-104.760	-106.599	13105	17627	0	316
-113.163	-113.343	12943	17425	0	316
-124.414	-122.250	12943	17227	0	316
-131.699	-126.614	12842	17039	0	316
-133.790	-131.266	12802	16859	0	316
-128.633	-127.227	12802	16693	0	316
-121.385	-122.106	12640	16545	0	316
-114.353	-115.326	12640	16419	0	316
-111.323	-113.776	12599	16322	0	316
-112.874	-117.057	12498	16245	0	316
-118.860	-120.988	12498	16192	0	316
-119.113	-122.178	12538	16178	0	316
-112.477	-114.064	12437	16209	0	316
-102.560	-101.370	12498	16236	0	316
-94.050	-90.047	12538	16263	0	316
-92.752	-89.758	12538	16317	0	316
-97.656	-93.581	12640	16415	0	316
-99.748	-103.570	12903	16617	0	316
-101.479	-110.855	13247	17061	0	316
-103.895	-116.805	13753	17699	0	316
-107.212	-119.582	14158	18197	0	316
-113.271	-124.125	14522	18417	0	316
-115.218	-124.089	14826	18484	0	316
-112.369	-123.116	14967	18448	0	316
-108.042	-117.526	15129	18318	0	316
-107.573	-113.163	15231	18129	0	316
-110.350	-109.881	15271	17905	0	316
-114.821	-110.891	15433	17658	0	316
-116.192	-114.317	15372	17402	0	316
-118.860	-115.615	15332	17142	0	316
-118.572	-117.129	15332	16873	0	316
-113.884	-111.396	15231	16599	0	316
-111.684	-104.760	15231	16344	0	316
-107.934	-99.928	15069	16102	0	316
-111.756	-103.029	14967	15873	0	316
-124.775	-114.713	14927	15675	0	316
-138.082	-127.371	14866	15541	0	316
-144.212	-136.531	14765	15446	0	316
-142.120	-135.846	14623	15352	0	316
-135.774	-130.292	14563	15267	0	316
-129.138	-126.614	14563	15231	0	316
-131.446	-131.266	14563	15325	0	316
-135.882	-134.656	14866	15698	0	316
-139.235	-137.505	15231	16272	0	316
-138.478	-134.583	15534	16743	0	316
-133.466	-127.804	15878	17088	0	316
-125.027	-122.683	16384	17573	0	316
-122.358	-120.231	16930	18174	0	316
-118.356	-117.093	17396	18569	0	316
-118.428	-114.281	17639	18659	0	316
-116.408	-109.592	17902	18560	0	316
-116.228	-110.169	18043	18349	0	316
-118.464	-116.120	18043	18049	0	316
-123.404	-123.621	18104	17699	0	316
-124.919	-126.686	18043	17322	0	316
-122.719	-120.772	17942	16927	0	316
-113.091	-108.042	17740	16523	0	316
-101.875	-94.446	17598	16120	0	316
-95.600	-85.395	17436	15734	0	316
-97.115	-86.657	17234	15384	0	316
-101.370	-91.814	16991	15060	0	316
-106.491	-98.017	16788	14773	0	316
-108.727	-100.649	16525	14522	0	316
-107.032	-100.288	16283	14306	0	316
-104.327	-100.216	16040	14145	0	316
-102.669	-97.440	15838	14060	0	316
-100.685	-96.682	15636	14051	0	316
-98.882	-95.781	15474	14060	0	316
-101.082	-97.043	15271	14091	0	316
-107.104	-102.308	15170	14167	0	316
-116.228	-114.136	15028	14293	0	316
-127.732	-126.181	14866	14423	0	316
-131.374	-129.823	14866	14643	0	316
-127.660	-127.804	15231	15258	0	316
-119.510	-117.670	16081	16469	0	316
-109.088	-107.068	16991	18017	0	316
-105.554	-101.983	17942	19341	0	316
-107.753	-103.282	18711	20122	0	316
-115.182	-109.845	19218	20432	0	316
-115.759	-111.035	19663	20459	0	316
-110.927	-106.744	19865	20288	0	316
-94.230	-93.509	20068	19956	0	316
-74.216	-75.045	20128	19503	0	316
-61.955	-61.486	20068	18964	0	316
-63.397	-61.991	20027	18381	0	316
-75.406	-71.908	19825	17757	0	316
-89.470	-86.369	19663	17214	0	316
-97.404	-97.728	19764	16954	0	316
-94.735	-97.764	19825	16922	0	316
-90.912	-94.699	19926	16796	0	316
-91.453	-92.427	19825	16491	0	316
-94.915	-95.312	19663	16133	0	316
-102.524	-99.820	19521	15747	0	316
-103.282	-101.947	19218	15339	0	316
-99.171	-99.098	19015	14957	0	316
-97.656	-98.558	18651	14625	0	316
-100.108	-99.207	18448	14311	0	316
-112.441	-109.016	18104	14015	0	316
-126.470	-119.437	17740	13768	0	316
-133.069	-125.640	17396	13588	0	316
-129.751	-121.709	17092	13445	0	316
-120.303	-115.579	16788	13319	0	316
-114.317	-113.054	16424	13225	0	316
-119.365	-114.858	16142	13198	0	316
-130.256	-125.352	15838	13234	0	316
-133.033	-128.417	15534	13301	0	316
-132.023	-129.354	15332	13382	0	316
-126.181	-124.270	14967	13472	0	316
-122.214	-122.250	14664	13584	0	316
-126.938	-119.762	14461	13723	0	316
-130.040	-119.510	14219	13884	0	316
-131.158	-116.552	13955	14064	0	316
-127.047	-114.569	13814	14257	0	316
-121.060	-116.336	13550	14463	0	316
-118.969	-117.706	13550	14773	0	316
-117.382	-114.858	13652	15357	0	316
-117.815	-113.199	13955	16142	0	316
-118.788	-107.068	14158	16783	0	316
-117.526	-103.065	14320	17191	0	316
-117.093	-102.596	14563	17564	0	316
-117.959	-106.419	15028	18161	0	316
-118.897	-108.439	15534	18892	0	316
-124.089	-109.701	15939	19413	0	316
-122.755	-110.638	16243	19647	0	316
-124.306	-111.756	16525	19741	0	316
-125.965	-117.490	16728	19732	0	316
-131.266	-124.234	16890	19588	0	316
-136.062	-132.348	16930	19341	0	316
-138.803	-132.059	16991	19050	0	316
-136.639	-130.364	16930	18731	1	688
-134.367	-124.342	16930	18372	0	688
-132.672	-123.440	16829	17990	0	688
-135.377	-120.988	16728	17609	0	688
-137.721	-123.585	16586	17227	0	688
-137.685	-125.063	16424	16841	0	688
-137.036	-127.083	16283	16473	0	688
-134.259	-126.361	16142	16133	0	688
-131.843	-124.234	15838	15819	0	688
-128.741	-118.680	15636	15527	0	688
-125.424	-116.048	15372	15267	0	688
-121.854	-110.169	15170	15047	0	688
-113.559	-102.524	14927	14872	0	688
-106.311	-93.978	14725	14733	0	688
-99.171	-88.244	14461	14621	0	688
-94.266	-85.034	14259	14549	0	688
-93.401	-84.241	14057	14513	0	688
-88.100	-83.844	13955	14607	0	688
-83.952	-77.605	14219	15007	0	688
-78.832	-72.881	14421	15653	0	688
-77.533	-71.223	14664	16214	0	688
-81.861	-74.324	14866	16559	0	688
-90.552	-84.169	14967	16778	0	688
-99.387	-92.788	15069	16922	0	688
-107.176	-102.705	15170	17025	0	688
-109.881	-108.655	15231	17097	0	688
-107.537	-106.671	15332	17115	0	688
-102.885	-101.767	15271	17070	0	688
-100.469	-98.269	15271	16985	0	688
-100.397	-94.483	15231	16877	0	688
-106.852	-99.603	15170	16756	0	688
-110.025	-103.282	15129	16621	0	688
-108.835	-101.046	15028	16482	0	688
-103.823	-94.951	14866	16353	0	688
-94.699	-82.726	14826	16241	0	688
-91.201	-80.707	14725	16142	0	688
-93.473	-84.854	14623	16057	0	688
-99.639	-94.951	14522	15985	0	688
-108.799	-104.219	14461	15922	0	688
-114.569	-107.321	14320	15877	0	688
-120.087	-106.780	14259	15850	0	688
-121.854	-109.196	14158	15832	0	688
-123.729	-114.208	14057	15828	0	688
-125.568	-118.500	14057	15837	0	688
-123.404	-117.418	13955	15859	0	688
-118.320	-110.746	13955	15918	0	688
-112.946	-101.587	13915	15999	0	688
-110.494	-98.990	13854	16075	0	688
-109.160	-100.252	13955	16174	0	688
-113.776	-106.996	13955	16317	0	688
-120.555	-113.127	14057	16455	0	688
-122.286	-113.451	14057	16559	0	688
-121.745	-110.350	14117	16626	0	688
-113.920	-107.212	14158	16698	0	688
-108.330	-103.282	14158	16774	0	688
-101.695	-100.433	14219	16823	0	688
-94.807	-96.538	14320	16855	0	688
-93.833	-90.876	14259	16864	0	688
-92.679	-84.710	14461	16954	0	688
-91.994	-82.474	14765	17304	0	688
-92.896	-81.789	15170	17865	0	688
-93.689	-81.536	15575	18282	0	688
-91.129	-85.106	15838	18444	0	688
-94.194	-87.955	16081	18471	0	688
-95.781	-94.050	16243	18412	0	688
-98.738	-98.125	16344	18278	0	688
-99.892	-100.108	16424	18080	0	688
-95.853	-97.295	16485	17847	0	688
-95.817	-94.771	16485	17595	0	688
-96.574	-94.627	16485	17340	0	688
-104.364	-98.305	16586	17191	0	688
-110.674	-101.370	17031	17434	0	688
-114.172	-102.813	17740	18152	0	688
-116.913	-104.724	18408	18955	0	688
-121.241	-110.422	19015	19413	0	688
-125.748	-117.562	19622	19602	0	688
-131.518	-124.378	20230	19835	0	688
-130.833	-126.758	20837	20127	0	688
-119.473	-117.490	21282	20176	0	688
-109.124	-106.996	21748	20001	0	688
-102.741	-99.351	22254	19902	0	688
-107.465	-99.423	22699	19884	0	688
-117.887	-105.662	23003	19638	0	688
-123.801	-112.658	23165	19094	1	332
-122.791	-112.477	23104	18399	0	332
-110.999	-107.825	23003	17631	0	332
-97.944	-99.207	22760	16814	0	332
-90.263	-90.480	22497	15981	0	332
-88.172	-90.371	22052	15146	0	332
-94.338	-91.381	21586	14338	0	332
-104.724	-97.367	21181	13597	0	332
-113.271	-101.731	20635	12937	0	332
-117.851	-103.498	20068	12363	0	332
-118.969	-102.488	19562	11878	0	332
-113.920	-101.262	19015	11492	0	332
-111.143	-98.990	18610	11286	0	332
-110.494	-100.685	18509	11528	0	332
-113.199	-106.094	18813	12332	0	332
-115.723	-112.622	19056	13292	0	332
-118.031	-117.815	19157	13970	0	332
-118.211	-123.260	19258	14356	0	332
-115.471	-120.664	19218	14571	0	332
-113.487	-115.002	19157	14679	0	332
-110.638	-106.167	18954	14733	0	332
-103.173	-97.367	18853	14751	0	332
-98.305	-90.552	18549	14719	0	332
-90.768	-89.650	18347	14643	0	332
-90.155	-94.302	18104	14544	0	332
-91.273	-97.872	17740	14441	0	332
-97.440	-99.748	17396	14347	0	332
-98.810	-95.564	17092	14248	0	332
-98.774	-91.345	16728	14163	0	332
-96.863	-88.100	16384	14086	0	332
-99.423	-92.715	16040	14028	0	332
-109.196	-100.757	15636	14001	0	332
-119.257	-110.422	15332	14010	0	332
-128.489	-116.733	14967	14051	0	332
-125.712	-118.933	14765	14208	0	332
-121.313	-115.615	14826	14670	0	332
-113.307	-110.206	14967	15357	0	332
-108.330	-106.599	14967	15931	0	332
