neuroNicle FX2
D3F25R12
Bluetooth SPP
2023년 11월 2일 목요일
오후 7:10
time interval = 4msec
EEG1	EEG2	PPG	sdPPG	pulse	peak_interval(msec)
111.576	-49.874	16437	16804	0	1364
102.777	-57.591	16490	16888	0	1364
98.413	-62.351	16543	16960	0	1364
96.646	-63.722	16596	16986	0	1364
101.695	-60.224	16618	16963	0	1364
109.629	-53.732	16649	16903	0	1364
119.654	-44.717	16618	16819	0	1364
128.958	-33.357	16618	16717	0	1364
137.901	-26.542	16564	16603	0	1364
142.157	-21.709	16543	16486	0	1364
142.697	-22.683	16511	16373	0	1364
137.072	-27.876	16490	16267	0	1364
129.138	-34.656	16437	16172	0	1364
126.001	-36.134	16384	16089	0	1364
126.001	-35.016	16363	16017	0	1364
131.013	-29.174	16310	15956	0	1364
134.511	-26.433	16257	15903	0	1364
130.400	-32.023	16225	15880	0	1364
121.998	-42.878	16225	15918	0	1364
113.884	-51.028	16225	16002	0	1364
109.845	-53.444	16225	16077	0	1364
113.415	-45.979	16278	16131	0	1364
119.906	-38.550	16278	16214	0	1364
121.421	-37.577	16331	16331	0	1364
118.464	-44.068	16331	16418	0	1364
107.934	-57.303	16363	16474	0	1364
96.935	-66.066	16405	16550	0	1364
92.030	-70.105	16458	16637	0	1364
90.804	-68.770	16490	16687	0	1364
99.279	-64.587	16490	16702	0	1364
115.579	-54.959	16543	16740	0	1364
130.725	-46.664	16596	16800	0	1364
143.238	-39.452	16596	16823	0	1364
148.179	-38.586	16618	16797	0	1364
145.474	-42.445	16618	16747	0	1364
144.356	-46.556	16618	16687	0	1364
145.871	-47.205	16618	16607	0	1364
150.847	-43.094	16618	16528	0	1364
148.287	-41.363	16564	16440	0	1364
141.039	-43.274	16543	16358	0	1364
135.774	-43.635	16511	16275	0	1364
135.521	-41.399	16458	16191	0	1364
139.957	-36.387	16437	16115	0	1364
145.222	-33.033	16405	16051	0	1364
144.501	-35.233	16363	15998	0	1364
138.082	-39.199	16331	15952	0	1364
130.617	-46.700	16278	15926	0	1364
123.080	-55.932	16278	15960	0	1364
115.615	-63.253	16310	16047	0	1364
108.402	-71.259	16310	16123	0	1364
105.662	-73.278	16310	16176	0	1364
108.222	-67.328	16331	16259	0	1364
115.759	-56.293	16363	16369	0	1364
124.125	-46.268	16384	16440	0	1364
129.030	-39.849	16405	16482	0	1364
134.800	-34.331	16437	16543	0	1364
137.901	-31.338	16490	16622	0	1364
138.911	-30.076	16511	16660	0	1364
136.314	-33.574	16511	16653	0	1364
130.761	-38.370	16511	16611	0	1364
125.316	-43.238	16511	16558	0	1364
124.991	-44.032	16490	16497	0	1364
124.053	-41.399	16490	16437	0	1364
124.558	-40.714	16458	16381	0	1364
120.303	-46.448	16437	16316	0	1364
112.045	-52.651	16384	16248	0	1364
110.206	-58.420	16363	16180	0	1364
109.881	-58.384	16310	16119	0	1364
113.776	-53.732	16278	16077	0	1364
116.084	-47.710	16257	16047	0	1364
116.769	-47.566	16225	16024	0	1364
115.218	-48.612	16204	16032	0	1364
111.468	-51.028	16204	16089	0	1364
109.520	-55.427	16204	16184	0	1364
106.563	-57.339	16225	16263	0	1364
103.137	-58.024	16257	16320	0	1364
103.931	-57.086	16310	16418	0	1364
106.924	-51.064	16384	16584	0	1364
111.396	-47.566	16437	16747	0	1364
115.543	-43.527	16490	16854	0	1364
118.320	-41.111	16564	16933	0	1364
118.103	-42.337	16596	17009	0	1364
116.264	-42.950	16649	17036	0	1364
112.838	-46.556	16671	17005	0	1364
108.222	-50.054	16703	16948	0	1364
103.462	-55.752	16671	16873	0	1364
100.685	-58.240	16703	16770	0	1364
99.315	-58.961	16649	16660	1	1364
102.200	-59.178	16649	16550	0	1364
103.859	-56.004	16618	16437	0	1364
105.770	-56.870	16564	16331	0	1364
108.871	-54.850	16543	16244	0	1364
109.520	-55.139	16511	16172	0	1364
110.025	-52.975	16458	16104	0	1364
112.477	-50.018	16437	16043	0	1364
117.166	-42.517	16384	15983	0	1364
120.339	-37.613	16363	15926	0	1364
124.775	-34.079	16310	15880	0	1364
124.630	-32.564	16257	15846	0	1364
121.818	-36.819	16257	15823	0	1364
113.271	-42.553	16204	15808	0	1364
106.239	-50.487	16172	15812	0	1364
101.190	-55.499	16172	15873	0	1364
98.197	-59.827	16172	15968	0	1364
97.908	-59.214	16172	16058	0	1364
97.079	-59.178	16204	16161	0	1364
94.302	-61.558	16225	16286	0	1364
93.942	-63.361	16257	16381	0	1364
98.702	-60.765	16310	16437	0	1364
106.455	-53.119	16310	16524	0	1364
116.805	-46.340	16363	16634	0	1364
121.601	-38.406	16384	16713	0	1364
117.779	-38.767	16405	16740	0	1364
110.566	-44.428	16405	16721	0	1364
101.154	-51.280	16405	16679	0	1364
95.204	-58.024	16405	16637	0	1364
94.014	-58.096	16405	16584	0	1364
99.026	-52.795	16384	16531	0	1364
105.445	-47.241	16363	16486	0	1364
108.907	-41.688	16363	16440	0	1364
108.871	-44.933	16331	16391	0	1364
104.724	-49.802	16310	16347	0	1364
100.433	-54.959	16278	16297	0	1364
101.010	-50.884	16257	16248	0	1364
106.960	-45.150	16225	16195	0	1364
114.533	-37.072	16172	16157	0	1364
122.106	-30.328	16172	16168	0	1364
122.719	-30.112	16172	16229	0	1364
122.647	-32.492	16172	16271	0	1364
117.454	-37.360	16204	16301	0	1364
114.317	-40.930	16225	16369	0	1364
113.776	-41.796	16278	16463	0	1364
115.002	-40.173	16278	16531	0	1364
119.473	-35.413	16310	16565	0	1364
125.388	-31.807	16363	16619	0	1364
127.984	-30.400	16384	16698	0	1364
128.994	-30.653	16405	16736	0	1364
127.515	-35.269	16437	16721	0	1364
121.818	-40.101	16437	16679	0	1364
116.733	-45.979	16437	16637	0	1364
108.078	-52.326	16437	16584	0	1364
100.144	-59.647	16405	16531	0	1364
95.312	-63.109	16405	16482	0	1364
95.420	-59.574	16405	16433	0	1364
102.452	-53.552	16384	16384	0	1364
109.520	-43.887	16363	16331	0	1364
111.864	-43.671	16331	16282	0	1364
108.042	-50.270	16331	16240	0	1364
103.354	-57.411	16310	16203	0	1364
101.875	-59.034	16257	16161	0	1364
107.862	-53.372	16257	16138	0	1364
114.641	-42.553	16257	16172	0	1364
119.546	-37.360	16278	16248	0	1364
117.202	-36.639	16278	16309	0	1364
114.858	-38.262	16310	16350	0	1364
112.117	-40.173	16331	16429	0	1364
113.487	-42.120	16405	16573	0	1364
114.641	-43.347	16458	16717	0	1364
115.975	-42.806	16543	16812	0	1364
117.923	-40.462	16618	16891	0	1364
121.529	-34.331	16671	16963	0	1364
124.125	-27.804	16724	16986	0	1364
129.859	-22.863	16756	16945	0	1364
131.915	-21.637	16724	16869	0	1364
134.475	-18.536	16724	16766	0	1364
137.937	-18.392	16724	16653	0	1364
138.406	-17.274	16671	16524	0	1364
134.223	-24.089	16671	16402	0	1364
124.125	-33.718	16596	16286	0	1364
113.379	-46.556	16564	16172	0	1364
106.563	-53.588	16511	16066	0	1364
107.825	-52.867	16458	15971	0	1364
115.146	-46.448	16437	15892	0	1364
121.313	-39.885	16384	15823	0	1364
120.736	-37.865	16331	15767	0	1364
116.697	-41.255	16278	15736	0	1364
114.677	-42.157	16257	15763	0	1364
115.002	-41.147	16257	15835	0	1364
117.598	-38.406	16257	15899	0	1364
120.808	-36.711	16225	15949	0	1364
116.084	-39.596	16257	16036	0	1364
111.648	-44.897	16310	16161	0	1364
105.193	-49.693	16331	16267	0	1364
105.445	-50.811	16363	16347	0	1364
107.681	-47.710	16384	16437	0	1364
110.206	-46.195	16405	16543	0	1364
113.848	-45.114	16437	16607	0	1364
111.504	-46.736	16458	16615	0	1364
103.101	-52.506	16458	16596	0	1364
98.666	-55.608	16405	16558	0	1364
97.404	-57.519	16405	16512	0	1364
101.298	-52.326	16384	16456	0	1364
108.114	-48.179	16363	16395	0	1364
110.458	-43.094	16331	16331	0	1364
108.907	-41.796	16278	16263	0	1364
105.409	-44.068	16278	16195	0	1364
104.255	-46.051	16257	16131	0	1364
108.330	-45.835	16172	16077	0	1364
113.091	-45.546	16150	16043	0	1364
114.533	-46.268	16097	16028	0	1364
112.441	-47.241	16065	16028	0	1364
110.278	-47.097	16044	16032	0	1364
109.448	-44.825	16044	16043	0	1364
110.927	-39.849	16012	16058	0	1364
116.589	-35.233	15991	16096	0	1364
116.516	-36.747	16012	16187	0	1364
113.631	-42.914	16065	16312	0	1364
108.042	-48.503	16065	16406	0	1364
107.032	-51.172	16065	16463	0	1364
105.590	-47.782	16097	16528	0	1364
110.097	-46.051	16119	16619	0	1364
109.556	-44.933	16172	16683	0	1364
106.744	-45.727	16204	16713	0	1364
104.977	-49.910	16225	16766	0	1364
106.455	-46.845	16278	16838	0	1364
111.468	-38.983	16310	16884	0	1364
117.670	-33.033	16331	16884	0	1364
122.178	-27.624	16331	16865	0	1364
124.522	-27.912	16363	16827	0	1364
122.322	-29.607	16363	16774	0	1364
120.988	-35.160	16363	16710	0	1364
115.795	-40.822	16331	16641	0	1364
109.629	-45.943	16331	16569	0	1364
103.390	-49.874	16310	16486	0	1364
100.938	-54.057	16278	16406	0	1364
100.288	-51.352	16257	16347	0	1364
103.714	-45.835	16257	16294	0	1364
108.006	-38.118	16257	16248	0	1364
113.704	-27.010	16204	16206	0	1364
119.582	-15.615	16172	16176	0	1364
126.181	-4.977	16172	16184	0	1364
126.938	0.793	16204	16233	0	1364
123.801	-1.226	16204	16278	0	1364
114.821	-5.806	16204	16316	0	1364
104.977	-10.674	16278	16387	0	1364
99.964	-14.930	16310	16482	0	1364
98.918	-11.396	16331	16543	0	1364
100.721	-9.052	16363	16569	0	1364
98.630	-11.504	16405	16622	0	1364
94.410	-19.041	16437	16698	0	1364
89.037	-26.902	16458	16736	0	1364
85.106	-33.429	16490	16713	0	1364
84.782	-37.144	16490	16660	0	1364
84.421	-39.632	16458	16596	0	1364
80.959	-43.491	16458	16524	0	1364
76.668	-51.208	16437	16448	0	1364
75.009	-54.634	16405	16381	0	1364
77.425	-53.768	16384	16312	0	1364
84.277	-46.628	16363	16244	0	1364
90.876	-38.983	16331	16180	0	1364
94.230	-33.934	16310	16127	0	1364
98.233	-29.643	16278	16093	0	1364
101.406	-25.568	16257	16070	0	1364
107.537	-23.512	16257	16051	0	1364
109.592	-24.089	16257	16047	0	1364
106.419	-29.318	16257	16093	0	1364
98.161	-38.839	16257	16176	0	1364
87.631	-48.864	16278	16240	0	1364
81.608	-55.932	16278	16290	0	1364
80.779	-57.988	16331	16369	0	1364
82.762	-56.257	16363	16471	0	1364
88.424	-55.716	16384	16543	0	1364
89.326	-52.651	16405	16588	0	1364
88.352	-54.021	16458	16653	0	1364
83.736	-54.418	16511	16740	0	1364
81.428	-56.401	16564	16789	0	1364
86.513	-51.136	16596	16785	0	1364
94.591	-46.051	16596	16755	0	1364
104.688	-37.252	16618	16713	0	1364
112.225	-32.744	16596	16664	0	1364
112.405	-31.554	16596	16607	0	1364
108.078	-35.557	16596	16535	0	1364
101.875	-42.553	16564	16448	0	1364
98.990	-46.700	16543	16358	0	1364
96.502	-47.638	16490	16267	0	1364
99.351	-45.835	16458	16187	0	1364
104.796	-39.524	16437	16119	0	1364
111.612	-33.934	16405	16062	0	1364
115.903	-30.256	16384	16009	0	1364
114.353	-32.889	16331	15975	0	1364
108.475	-39.308	16331	15986	0	1364
97.800	-48.359	16331	16040	0	1364
89.145	-57.627	16363	16081	0	1364
86.585	-59.214	16331	16119	0	1364
88.352	-57.952	16363	16195	0	1364
95.925	-55.031	16384	16297	0	1364
101.803	-48.756	16405	16377	0	1364
107.501	-42.878	16405	16421	0	1364
110.169	-41.580	16437	16493	0	1364
108.114	-43.599	16490	16581	0	1364
103.606	-48.972	16543	16637	0	1364
96.430	-55.391	16543	16664	0	1364
89.542	-57.988	16564	16706	0	1364
87.342	-59.683	16618	16770	0	1364
87.198	-56.545	16649	16800	0	1364
93.761	-54.129	16671	16782	0	1364
101.587	-48.864	16703	16725	0	1364
108.547	-43.022	16671	16653	0	1364
111.251	-39.560	16649	16577	0	1364
106.888	-41.075	16649	16497	0	1364
98.233	-48.359	16618	16414	0	1364
91.093	-55.536	16596	16335	0	1364
93.761	-54.598	16543	16256	0	1364
102.488	-48.720	16543	16180	0	1364
115.435	-36.711	16490	16115	0	1364
125.207	-28.056	16437	16055	0	1364
123.332	-27.263	16405	16002	0	1364
118.788	-32.780	16363	15949	0	1364
111.215	-40.281	16331	15926	0	1364
108.006	-46.772	16331	15964	0	1364
106.311	-48.576	16331	16051	0	1364
103.967	-52.470	16331	16119	0	1364
101.551	-54.850	16363	16165	0	1364
99.928	-57.375	16363	16233	0	1364
102.164	-53.191	16405	16320	0	1364
109.196	-45.582	16405	16373	0	1364
118.644	-34.547	16405	16395	0	1364
124.558	-25.135	16437	16448	0	1364
126.758	-21.132	16458	16516	0	1364
119.978	-24.450	16490	16554	0	1364
112.910	-33.682	16490	16539	0	1364
106.599	-42.229	16458	16501	0	1364
109.881	-43.274	16458	16448	0	1364
126.650	-34.872	16437	16391	0	1364
148.900	-19.365	16405	16339	0	1364
162.063	-7.212	16384	16286	0	1364
162.892	-6.888	16363	16237	0	1364
146.412	-15.975	16310	16191	0	1364
128.128	-29.895	16278	16149	0	1364
118.320	-37.649	16225	16104	0	1364
116.661	-41.183	16204	16062	0	1364
119.834	-42.553	16150	16032	0	1364
118.788	-43.491	16172	16009	0	1364
115.759	-41.543	16119	16017	0	1364
118.752	-37.613	16119	16074	0	1364
125.207	-29.427	16119	16172	0	1364
136.170	-22.827	16119	16263	0	1364
137.252	-22.178	16150	16331	0	1364
134.692	-26.866	16225	16440	0	1364
125.784	-31.554	16278	16622	0	1364
121.457	-36.134	16363	16808	0	1364
118.933	-38.550	16437	16929	0	1364
119.041	-40.281	16490	17028	0	1364
117.815	-44.681	16564	17119	0	1364
116.769	-44.356	16618	17161	0	1364
117.670	-42.265	16649	17142	0	1364
120.267	-39.740	16671	17092	0	1364
119.510	-38.262	16671	17017	0	1364
117.995	-40.678	16671	16926	0	1364
112.874	-47.349	16671	16816	1	1048
107.898	-51.749	16649	16694	0	1048
108.186	-53.372	16618	16558	0	1048
112.441	-50.379	16564	16421	0	1048
120.195	-43.166	16543	16297	0	1048
130.040	-37.432	16490	16176	0	1048
136.314	-33.718	16437	16062	0	1048
140.353	-34.583	16384	15968	0	1048
143.058	-33.033	16331	15888	0	1048
147.999	-31.735	16310	15835	0	1048
155.499	-24.450	16278	15846	0	1048
158.889	-20.339	16278	15914	0	1048
158.204	-23.801	16278	15971	0	1048
147.458	-33.069	16278	16013	0	1048
134.980	-45.691	16278	16085	0	1048
127.263	-54.418	16310	16187	0	1048
131.735	-50.631	16310	16267	0	1048
141.940	-39.776	16331	16320	0	1048
151.677	-26.938	16384	16399	0	1048
159.574	-16.661	16405	16497	0	1048
155.968	-17.202	16437	16562	0	1048
150.559	-23.044	16458	16588	0	1048
142.193	-31.771	16490	16637	0	1048
134.043	-38.911	16543	16710	0	1048
127.191	-42.553	16564	16751	0	1048
121.204	-41.291	16596	16740	0	1048
119.942	-38.947	16596	16694	0	1048
117.057	-37.144	16596	16634	0	1048
113.199	-39.416	16596	16562	0	1048
106.816	-46.015	16543	16490	0	1048
99.639	-52.398	16511	16418	0	1048
96.827	-58.168	16490	16350	0	1048
100.541	-54.886	16458	16267	0	1048
110.386	-49.657	16437	16184	0	1048
121.637	-43.996	16384	16112	0	1048
129.463	-41.832	16363	16055	0	1048
127.768	-44.681	16310	16005	0	1048
122.683	-51.749	16278	15960	0	1048
115.038	-56.617	16225	15930	0	1048
111.179	-57.122	16204	15907	0	1048
112.333	-54.057	16150	15895	0	1048
116.228	-46.556	16150	15892	0	1048
122.503	-40.570	16097	15895	0	1048
129.354	-37.108	16097	15926	0	1048
131.626	-35.557	16097	16009	0	1048
134.115	-33.862	16097	16134	0	1048
128.994	-38.658	16172	16252	0	1048
121.277	-41.796	16172	16373	0	1048
112.838	-50.307	16225	16493	0	1048
105.481	-55.968	16257	16573	0	1048
99.784	-61.702	16257	16600	0	1048
98.918	-61.846	16257	16607	0	1048
98.630	-60.043	16257	16603	0	1048
100.216	-60.837	16257	16596	0	1048
97.908	-63.649	16257	16592	0	1048
91.129	-68.806	16257	16584	0	1048
86.693	-73.098	16278	16569	0	1048
85.106	-71.763	16278	16547	0	1048
93.906	-63.902	16257	16524	0	1048
106.708	-51.136	16257	16505	0	1048
118.283	-40.966	16257	16486	0	1048
125.316	-36.928	16225	16463	0	1048
121.493	-38.658	16225	16429	0	1048
112.874	-44.356	16225	16410	0	1048
101.695	-52.290	16225	16440	0	1048
91.778	-58.240	16257	16509	0	1048
86.765	-58.420	16278	16550	0	1048
90.624	-53.480	16278	16565	0	1048
96.827	-46.881	16363	16622	0	1048
104.868	-38.478	16437	16755	0	1048
111.684	-33.790	16490	16880	0	1048
115.074	-30.689	16543	16948	0	1048
117.959	-31.374	16596	16990	0	1048
119.365	-28.777	16671	17036	0	1048
116.552	-30.004	16703	17043	0	1048
113.992	-30.617	16724	16994	0	1048
109.881	-32.853	16756	16918	0	1048
105.445	-36.567	16724	16819	0	1048
101.551	-40.642	16724	16710	0	1048
98.161	-46.628	16724	16600	0	1048
93.942	-50.775	16671	16490	0	1048
90.083	-50.956	16671	16384	0	1048
90.047	-51.028	16618	16275	0	1048
87.126	-49.585	16596	16168	0	1048
83.375	-53.228	16564	16074	0	1048
76.524	-57.339	16543	15994	0	1048
70.213	-62.784	16490	15926	0	1048
72.016	-62.820	16437	15858	0	1048
80.959	-55.283	16405	15816	0	1048
95.961	-45.835	16405	15831	0	1048
110.530	-38.226	16405	15895	0	1048
115.362	-33.466	16405	15949	0	1048
115.398	-33.682	16405	15986	0	1048
112.622	-32.564	16405	16055	0	1048
116.012	-29.787	16437	16165	0	1048
119.870	-25.460	16458	16252	0	1048
122.899	-26.938	16458	16305	0	1048
114.677	-33.790	16490	16373	0	1048
102.813	-44.609	16511	16456	0	1048
90.732	-54.562	16543	16509	0	1048
87.847	-55.031	16564	16516	0	1048
90.083	-51.424	16564	16524	0	1048
97.043	-44.356	16596	16543	0	1048
100.757	-39.596	16564	16547	0	1048
101.947	-37.324	16596	16524	0	1048
100.216	-37.937	16564	16486	0	1048
102.128	-35.954	16564	16440	0	1048
103.318	-33.466	16543	16384	0	1048
105.049	-32.600	16511	16320	0	1048
106.275	-33.249	16490	16244	0	1048
105.950	-35.052	16437	16172	0	1048
104.147	-37.577	16405	16104	0	1048
103.462	-38.154	16363	16040	0	1048
104.652	-38.334	16310	15979	0	1048
103.029	-39.091	16257	15922	0	1048
96.538	-42.806	16204	15880	0	1048
87.342	-49.766	16150	15854	0	1048
75.189	-54.959	16119	15850	0	1048
68.338	-59.358	16172	15899	0	1048
67.724	-59.899	16119	15998	0	1048
71.619	-55.644	16119	16085	0	1048
79.084	-52.182	16119	16149	0	1048
83.123	-46.520	16150	16240	0	1048
87.703	-44.140	16172	16358	0	1048
86.080	-41.976	16204	16440	0	1048
87.955	-38.550	16225	16490	0	1048
87.847	-34.547	16257	16562	0	1048
92.102	-28.381	16278	16660	0	1048
93.329	-24.053	16310	16725	0	1048
96.574	-21.096	16310	16736	0	1048
205.121	-10.386	16618	16297	0	2012
197.476	-13.054	16596	16324	0	2012
189.181	-22.755	16618	16316	0	2012
178.615	-33.862	16618	16339	0	2012
167.003	-44.609	16649	16384	0	2012
160.945	-53.444	16649	16402	0	2012
159.719	-50.234	16649	16373	0	2012
171.042	-43.671	16618	16316	0	2012
182.654	-35.052	16596	16256	0	2012
187.378	-31.987	16543	16187	0	2012
181.933	-35.665	16490	16119	0	2012
176.307	-39.235	16437	16051	0	2012
179.192	-37.252	16405	15994	0	2012
191.561	-26.974	16363	15945	0	2012
204.724	-17.310	16310	15899	0	2012
208.511	-11.540	16257	15865	0	2012
202.488	-13.235	16204	15839	0	2012
192.788	-20.050	16150	15820	0	2012
188.857	-24.775	16119	15816	0	2012
188.532	-26.217	16097	15835	0	2012
192.283	-24.198	16097	15914	0	2012
198.521	-18.139	16097	16032	0	2012
201.731	-10.566	16097	16131	0	2012
207.140	-8.006	16150	16203	0	2012
207.934	-8.330	16150	16316	0	2012
203.426	-13.704	16172	16448	0	2012
200.108	-17.346	16172	16547	0	2012
197.043	-18.933	16204	16600	0	2012
198.017	-13.812	16225	16672	0	2012
200.252	-13.451	16278	16759	0	2012
194.158	-18.320	16310	16819	0	2012
185.106	-29.138	16310	16831	0	2012
175.406	-37.000	16331	16812	0	2012
170.429	-39.776	16331	16782	0	2012
174.071	-33.321	16331	16736	0	2012
182.546	-27.227	16331	16679	0	2012
187.018	-23.765	16310	16611	0	2012
184.277	-24.991	16278	16550	0	2012
181.392	-26.397	16257	16497	0	2012
181.067	-22.755	16257	16444	0	2012
183.520	-17.202	16204	16387	0	2012
192.571	-8.979	16172	16335	0	2012
196.177	-7.537	16150	16282	0	2012
198.954	-8.042	16119	16229	0	2012
195.312	-9.268	16150	16187	0	2012
197.043	-8.402	16097	16191	0	2012
200.541	-4.616	16097	16240	0	2012
204.255	-1.911	16097	16275	0	2012
205.878	-4.364	16097	16301	0	2012
203.462	-12.153	16150	16377	0	2012
198.449	-18.320	16204	16531	0	2012
190.299	-22.791	16278	16694	0	2012
187.811	-24.558	16331	16797	0	2012
184.529	-24.378	16384	16888	0	2012
180.454	-26.866	16458	16982	0	2012
178.074	-29.787	16511	17032	0	2012
175.947	-32.059	16543	17020	0	2012
174.360	-34.223	16564	16971	0	2012
176.812	-30.653	16564	16899	0	2012
183.880	-26.181	16543	16808	0	2012
191.850	-20.916	16543	16710	0	2012
197.584	-15.218	16543	16607	0	2012
202.128	-15.759	16511	16505	0	2012
198.449	-15.579	16490	16402	0	2012
196.213	-18.247	16458	16305	0	2012
192.535	-18.680	16405	16210	0	2012
193.942	-19.726	16384	16123	0	2012
190.876	-23.044	16363	16047	0	2012
189.217	-24.162	16310	15994	0	2012
183.411	-27.083	16310	15971	0	2012
180.382	-25.532	16310	16009	0	2012
180.490	-20.375	16310	16085	0	2012
184.565	-16.516	16310	16138	0	2012
192.247	-13.307	16310	16172	0	2012
195.204	-15.903	16363	16244	0	2012
196.069	-20.772	16384	16335	0	2012
188.496	-28.669	16384	16384	0	2012
178.110	-35.377	16405	16406	0	2012
167.436	-40.822	16437	16463	0	2012
159.827	-43.851	16490	16539	0	2012
163.289	-42.914	16490	16581	0	2012
173.170	-36.242	16511	16588	0	2012
189.037	-23.585	16564	16615	0	2012
203.931	-11.432	16596	16664	0	2012
210.061	-3.065	16596	16675	0	2012
207.898	-3.426	16618	16637	0	2012
200.541	-7.429	16596	16573	0	2012
198.738	-12.297	16596	16497	0	2012
201.623	-13.451	16564	16418	0	2012
205.878	-10.133	16543	16339	0	2012
205.193	-11.360	16511	16259	0	2012
196.754	-16.300	16490	16180	0	2012
186.477	-21.926	16437	16104	0	2012
182.077	-26.614	16384	16032	0	2012
184.854	-25.243	16363	15968	0	2012
192.824	-20.087	16310	15914	0	2012
197.223	-15.687	16257	15873	0	2012
195.889	-17.995	16204	15839	0	2012
195.636	-19.257	16172	15835	0	2012
195.204	-20.916	16172	15888	0	2012
200.180	-18.139	16172	15986	0	2012
205.554	-16.769	16172	16070	0	2012
208.114	-12.766	16204	16131	0	2012
204.436	-16.733	16257	16221	0	2012
199.856	-18.428	16257	16339	0	2012
195.492	-21.421	16278	16429	0	2012
192.571	-20.483	16278	16486	0	2012
195.492	-20.555	16331	16565	0	2012
198.558	-16.192	16363	16664	0	2012
200.577	-15.903	16384	16725	0	2012
203.390	-13.163	16405	16728	0	2012
199.026	-14.461	16405	16710	0	2012
193.329	-16.300	16405	16679	0	2012
186.693	-17.093	16405	16641	0	2012
185.503	-17.959	16405	16607	0	2012
186.729	-13.848	16405	16573	0	2012
190.588	-11.251	16405	16528	0	2012
193.112	-8.871	16384	16482	0	2012
192.499	-8.547	16363	16425	0	2012
192.391	-11.432	16331	16366	0	2012
189.722	-15.651	16310	16301	0	2012
189.145	-17.310	16278	16240	0	2012
186.260	-21.204	16257	16184	0	2012
181.572	-24.198	16225	16153	0	2012
178.543	-25.424	16225	16176	0	2012
177.028	-28.092	16225	16240	0	2012
177.209	-30.076	16225	16290	0	2012
179.048	-31.338	16257	16324	0	2012
180.779	-32.023	16278	16381	0	2012
180.707	-32.059	16310	16463	0	2012
179.733	-30.472	16331	16528	0	2012
177.678	-28.633	16363	16562	0	2012
179.084	-28.850	16405	16611	0	2012
180.490	-29.895	16437	16679	0	2012
180.743	-31.518	16458	16713	0	2012
182.798	-32.023	16458	16694	0	2012
184.313	-28.273	16490	16653	0	2012
186.621	-21.060	16458	16596	0	2012
194.519	-14.677	16458	16539	0	2012
199.820	-8.799	16437	16490	0	2012
202.128	-4.544	16405	16440	0	2012
203.462	-7.609	16405	16384	0	2012
197.151	-9.304	16384	16331	0	2012
194.266	-12.045	16363	16271	0	2012
187.703	-14.208	16331	16214	0	2012
181.825	-18.211	16310	16165	0	2012
172.990	-21.168	16278	16119	0	2012
169.347	-25.135	16257	16074	0	2012
170.069	-29.354	16225	16043	0	2012
176.091	-28.741	16225	16070	0	2012
184.674	-28.525	16225	16138	0	2012
188.821	-27.768	16225	16184	0	2012
184.962	-29.030	16225	16206	0	2012
178.002	-28.741	16257	16263	0	2012
173.747	-28.777	16257	16354	0	2012
174.504	-25.929	16278	16418	0	2012
179.228	-23.080	16310	16459	0	2012
184.565	-22.250	16363	16531	0	2012
186.477	-22.034	16405	16626	0	2012
184.998	-24.378	16437	16687	0	2012
180.599	-25.676	16437	16710	0	2012
179.445	-22.395	16490	16744	0	2012
181.392	-19.618	16511	16797	0	2012
183.267	-14.749	16564	16819	0	2012
187.847	-12.622	16564	16797	0	2012
191.381	-10.314	16596	16747	0	2012
193.040	-9.953	16596	16679	0	2012
195.600	-9.412	16564	16600	0	2012
196.502	-8.583	16564	16509	0	2012
196.538	-9.088	16543	16414	0	2012
193.978	-10.783	16490	16324	0	2012
191.201	-13.127	16437	16237	0	2012
188.100	-12.838	16405	16153	0	2012
187.847	-14.425	16363	16077	0	2012
188.857	-12.802	16331	16013	0	2012
192.102	-9.592	16278	15960	0	2012
198.341	-7.681	16257	15922	0	2012
198.882	-6.094	16225	15903	0	2012
199.531	-8.402	16225	15941	0	2012
195.528	-13.199	16257	16024	0	2012
190.227	-19.257	16257	16104	0	2012
188.785	-21.096	16257	16165	0	2012
189.254	-21.168	16278	16256	0	2012
188.460	-17.851	16310	16373	0	2012
187.595	-18.392	16331	16448	0	2012
182.257	-21.529	16363	16501	0	2012
182.510	-24.306	16405	16573	0	2012
186.909	-23.404	16458	16672	0	2012
197.512	-15.687	16490	16740	0	2012
206.347	-6.491	16511	16759	0	2012
211.864	0.000	16543	16740	0	2012
211.756	1.695	16543	16698	0	2012
209.917	0.252	16543	16637	0	2012
208.835	-2.056	16511	16569	0	2012
206.058	-4.219	16490	16486	0	2012
202.128	-9.304	16437	16391	0	2012
192.607	-17.238	16405	16297	0	2012
186.513	-21.565	16363	16206	0	2012
182.871	-27.299	16310	16119	0	2012
181.969	-26.397	16257	16040	0	2012
180.995	-26.938	16257	15979	0	2012
177.101	-32.167	16204	15930	0	2012
170.790	-38.695	16150	15911	0	2012
164.371	-44.104	16150	15937	0	2012
164.803	-44.645	16150	16013	0	2012
169.311	-41.868	16119	16081	0	2012
174.684	-35.629	16150	16146	0	2012
178.471	-33.610	16225	16256	0	2012
179.950	-31.879	16257	16433	0	2012
180.346	-31.266	16331	16607	0	2012
181.933	-26.866	16384	16732	0	2012
186.260	-21.637	16437	16835	0	2012
188.352	-18.644	16511	16933	0	2012
188.677	-15.975	16543	16990	0	2012
189.145	-17.166	16596	16990	0	2012
190.408	-14.497	16596	16952	0	2012
196.790	-12.838	16596	16888	0	2012
199.171	-10.422	16596	16812	0	2012
198.990	-9.412	16596	16728	0	2012
196.286	-15.182	16596	16641	0	2012
190.263	-18.824	16564	16550	0	2012
187.306	-23.549	16543	16459	0	2012
184.782	-28.850	16511	16384	0	2012
178.976	-36.387	16490	16320	0	2012
173.891	-44.320	16458	16259	0	2012
166.246	-50.739	16437	16195	0	2012
161.955	-55.247	16405	16127	0	2012
158.276	-52.975	16384	16085	0	2012
160.151	-52.759	16384	16100	0	2012
161.738	-50.090	16405	16161	0	2012
166.426	-51.136	16405	16214	0	2012
169.203	-47.422	16405	16244	0	2012
174.684	-44.969	16458	16312	0	2012
178.615	-41.471	16490	16395	0	2012
184.602	-37.000	16490	16448	0	2012
191.670	-32.853	16511	16456	0	2012
193.329	-30.364	16543	16486	0	2012
193.545	-27.119	16596	16543	0	2012
188.677	-27.515	16564	16569	0	2012
186.441	-28.886	16618	16558	0	2012
187.486	-27.984	16596	16539	0	2012
191.850	-26.145	16618	16524	0	2012
197.223	-22.611	16618	16497	0	2012
200.288	-19.870	16596	16444	0	2012
199.423	-21.493	16596	16373	0	2012
196.286	-23.332	16543	16290	0	2012
195.961	-24.991	16511	16206	0	2012
196.105	-27.696	16458	16131	0	2012
197.151	-29.679	16405	16058	0	2012
196.213	-33.538	16363	15998	0	2012
189.903	-40.714	16331	15949	0	2012
179.950	-47.746	16278	15918	0	2012
175.298	-51.893	16257	15903	0	2012
169.059	-56.040	16257	15907	0	2012
169.455	-55.860	16225	15926	0	2012
172.088	-56.726	16204	15952	0	2012
173.675	-53.155	16204	15998	0	2012
177.461	-49.910	16204	16093	0	2012
181.356	-44.428	16225	16221	0	2012
186.693	-40.498	16257	16328	0	2012
190.804	-37.505	16257	16384	0	2012
195.745	-33.646	16278	16429	0	2012
199.748	-28.958	16310	16505	0	2012
202.380	-21.673	16363	16603	0	2012
202.633	-18.031	16384	16672	0	2012
199.748	-16.264	16437	16710	0	2012
196.646	-18.644	16458	16770	0	2012
197.656	-18.860	16490	16857	0	2012
196.682	-19.329	16543	16899	0	2012
195.997	-20.339	16543	16880	0	2012
193.076	-21.709	16564	16823	0	2012
185.864	-29.499	16543	16744	0	2012
177.028	-35.449	16511	16645	0	2012
173.026	-40.173	16490	16535	0	2012
170.285	-40.173	16458	16433	0	2012
172.088	-37.685	16437	16347	0	2012
174.973	-35.593	16405	16267	0	2012
179.517	-35.377	16384	16203	0	2012
180.490	-37.829	16331	16146	0	2012
179.517	-39.849	16310	16093	0	2012
174.107	-42.048	16257	16043	0	2012
170.718	-41.832	16225	16017	0	2012
168.374	-42.301	16225	16051	0	2012
167.761	-43.238	16257	16127	0	2012
172.449	-42.806	16257	16187	0	2012
175.766	-42.373	16257	16221	0	2012
178.255	-38.983	16278	16301	0	2012
179.084	-36.206	16331	16456	0	2012
178.507	-33.429	16405	16626	0	2012
179.733	-32.456	16458	16744	0	2012
180.815	-31.626	16543	16835	0	2012
185.900	-29.391	16596	16922	0	2012
192.175	-25.965	16649	16967	0	2012
192.535	-24.594	16671	16952	0	2012
191.201	-26.938	16703	16899	0	2012
184.313	-35.413	16703	16823	0	2012
178.435	-43.419	16671	16736	0	2012
177.028	-47.674	16671	16641	0	2012
179.769	-46.520	16649	16531	0	2012
184.746	-40.606	16596	16425	0	2012
186.224	-38.009	16596	16331	0	2012
183.880	-37.973	16543	16244	0	2012
181.680	-39.993	16511	16172	0	2012
179.120	-42.229	16490	16112	0	2012
176.884	-42.661	16437	16055	0	2012
176.956	-41.904	16405	15998	0	2012
176.379	-42.734	16384	15960	0	2012
178.976	-40.462	16384	15983	0	2012
185.251	-36.928	16384	16051	0	2012
189.470	-31.626	16384	16096	0	2012
189.217	-29.174	16384	16119	0	2012
180.599	-32.672	16384	16168	0	2012
172.088	-38.983	16405	16248	0	2012
163.181	-48.323	16405	16309	0	2012
162.820	-50.198	16437	16339	0	2012
171.727	-45.078	16458	16391	0	2012
182.762	-35.990	16490	16474	0	2012
194.374	-29.391	16511	16520	0	2012
198.702	-24.666	16511	16516	0	2012
195.709	-31.266	16511	16486	0	2012
183.123	-40.317	16490	16440	0	2012
172.521	-47.349	16490	16387	0	2012
163.325	-52.146	16458	16335	0	2012
160.512	-52.506	16405	16271	0	2012
164.010	-49.080	16384	16210	0	2012
165.200	-47.530	16363	16149	0	2012
165.849	-46.917	16310	16089	0	2012
163.036	-50.090	16257	16032	0	2012
157.699	-52.470	16204	15971	0	2012
154.814	-54.057	16150	15918	0	2012
153.516	-54.490	16097	15873	0	2012
157.230	-51.641	16044	15842	0	2012
162.928	-46.484	15991	15835	0	2012
163.541	-43.383	15991	15850	0	2012
164.803	-41.904	15938	15877	0	2012
162.315	-45.005	15906	15922	0	2012
159.178	-48.035	15938	16021	0	2012
160.945	-46.953	15938	16157	0	2012
164.190	-45.041	15938	16267	0	2012
165.813	-42.878	15991	16350	0	2012
164.587	-44.825	16012	16456	0	2012
154.995	-53.841	16044	16596	0	2012
145.330	-63.325	16097	16710	0	2012
134.115	-69.203	16119	16782	0	2012
128.633	-74.540	16204	16873	0	2012
125.676	-78.002	16257	16975	0	2012
124.919	-80.851	16310	17039	0	2012
123.116	-83.664	16331	17043	0	2012
122.431	-82.005	16331	17017	0	2012
120.627	-80.923	16363	16960	0	2012
122.322	-78.796	16363	16888	0	2012
124.558	-77.605	16331	16808	0	2012
129.931	-73.603	16331	16728	1	1468
136.062	-68.662	16310	16649	0	1468
141.399	-63.361	16278	16562	0	1468
143.310	-61.630	16278	16482	0	1468
140.534	-60.548	16257	16410	0	1468
138.082	-61.918	16225	16347	0	1468
138.947	-62.604	16172	16282	0	1468
140.606	-61.486	16172	16221	0	1468
141.976	-61.125	16150	16180	0	1468
140.029	-63.974	16150	16195	0	1468
133.429	-64.010	16172	16252	0	1468
127.876	-64.912	16172	16297	0	1468
121.457	-66.102	16172	16324	0	1468
119.329	-67.472	16225	16387	0	1468
115.182	-71.259	16278	16531	0	1468
110.927	-76.019	16384	16679	0	1468
104.003	-81.428	16437	16778	0	1468
98.017	-87.126	16511	16857	0	1468
94.987	-89.109	16543	16941	0	1468
94.194	-89.001	16596	16979	0	1468
98.125	-85.900	16618	16956	0	1468
105.409	-79.336	16649	16895	0	1468
110.566	-72.521	16671	16816	0	1468
114.569	-68.013	16649	16728	0	1468
115.002	-68.770	16649	16630	0	1468
110.206	-69.059	16618	16528	0	1468
106.022	-69.600	16596	16425	0	1468
103.498	-68.482	16564	16328	0	1468
103.246	-65.164	16543	16229	0	1468
102.957	-64.912	16511	16134	0	1468
100.433	-68.049	16458	16040	0	1468
96.033	-71.006	16437	15952	0	1468
90.804	-71.980	16384	15877	0	1468
92.463	-68.338	16331	15823	0	1468
97.872	-60.837	16331	15827	0	1468
101.839	-55.247	16310	15884	0	1468
102.416	-53.408	16310	15933	0	1468
97.764	-52.434	16310	15964	0	1468
91.273	-58.745	16310	16021	0	1468
84.638	-62.171	16331	16108	0	1468
86.224	-62.676	16331	16180	0	1468
86.765	-62.604	16331	16229	0	1468
88.532	-60.440	16363	16309	0	1468
82.618	-62.027	16405	16410	0	1468
73.999	-69.023	16437	16493	0	1468
65.200	-78.796	16458	16543	0	1468
58.889	-84.097	16511	16607	0	1468
61.918	-83.411	16543	16683	0	1468
70.357	-75.838	16564	16717	0	1468
77.137	-65.489	16596	16702	0	1468
78.182	-61.882	16564	16664	0	1468
75.730	-62.856	16564	16619	0	1468
68.301	-69.023	16564	16562	0	1468
63.866	-72.521	16543	16501	0	1468
64.731	-71.691	16543	16429	0	1468
72.593	-65.417	16511	16354	0	1468
79.950	-55.932	16490	16278	0	1468
83.592	-52.290	16437	16203	0	1468
80.599	-52.038	16405	16131	0	1468
72.304	-57.375	16363	16066	0	1468
64.515	-63.325	16331	16009	0	1468
62.207	-66.607	16278	15964	0	1468
63.397	-63.830	16257	15945	0	1468
65.128	-61.630	16257	15986	0	1468
62.748	-62.135	16257	16062	0	1468
58.817	-64.299	16225	16123	0	1468
60.043	-70.069	16257	16168	0	1468
63.289	-68.049	16257	16248	0	1468
71.367	-63.145	16278	16354	0	1468
76.451	-56.509	16310	16418	0	1468
77.750	-52.867	16310	16456	0	1468
76.920	-52.578	16363	16520	0	1468
73.999	-57.086	16405	16611	0	1468
72.845	-57.230	16405	16672	0	1468
71.944	-55.247	16437	16694	0	1468
69.564	-50.523	16458	16698	0	1468
67.292	-47.854	16458	16679	0	1468
65.272	-46.809	16458	16637	0	1468
63.902	-49.585	16458	16584	0	1468
64.010	-53.516	16437	16531	0	1468
67.797	-52.723	16405	16471	0	1468
70.826	-52.867	16405	16410	0	1468
69.383	-50.379	16384	16350	0	1468
65.417	-52.218	16363	16294	0	1468
58.529	-53.949	16310	16229	0	1468
50.487	-58.457	16278	16165	0	1468
41.616	-63.109	16225	16096	0	1468
32.636	-66.895	16204	16055	0	1468
25.027	-72.485	16204	16070	0	1468
24.234	-72.773	16204	16127	0	1468
28.237	-70.934	16204	16165	0	1468
37.541	-67.075	16204	16184	0	1468
43.815	-60.440	16204	16252	0	1468
45.510	-57.050	16257	16381	0	1468
45.078	-54.742	16278	16501	0	1468
44.609	-51.352	16331	16584	0	1468
43.779	-50.162	16384	16664	0	1468
43.383	-48.467	16437	16759	0	1468
40.245	-46.159	16458	16812	0	1468
37.432	-45.582	16490	16816	0	1468
38.370	-43.419	16511	16789	0	1468
41.219	-40.786	16511	16744	0	1468
44.645	-38.226	16511	16691	0	1468
48.684	-36.206	16511	16634	0	1468
49.153	-36.134	16490	16565	0	1468
48.287	-36.423	16490	16486	0	1468
49.080	-35.413	16458	16402	0	1468
47.674	-35.377	16437	16324	0	1468
45.078	-31.374	16384	16240	0	1468
36.459	-31.230	16363	16153	0	1468
25.856	-33.718	16310	16077	0	1468
15.146	-37.613	16257	16013	0	1468
7.393	-42.048	16225	15979	0	1468
2.957	-44.428	16225	16013	0	1468
0.793	-47.061	16225	16100	0	1468
1.082	-46.195	16257	16176	0	1468
4.219	-43.635	16257	16233	0	1468
8.619	-41.580	16278	16316	0	1468
15.507	-37.252	16331	16410	0	1468
18.644	-35.449	16331	16471	0	1468
19.690	-34.656	16363	16497	0	1468
20.195	-34.187	16384	16550	0	1468
23.332	-30.833	16437	16634	0	1468
26.001	-28.056	16458	16687	0	1468
31.662	-25.496	16490	16687	0	1468
38.478	-23.585	16490	16645	0	1468
46.159	-23.404	16458	16588	0	1468
52.326	-18.788	16458	16516	0	1468
56.978	-16.120	16437	16448	0	1468
57.591	-12.550	16405	16384	0	1468
53.372	-15.146	16384	16312	0	1468
53.011	-18.283	16363	16237	0	1468
51.929	-22.503	16310	16165	0	1468
54.886	-21.745	16278	16093	0	1468
53.768	-21.818	16225	16036	0	1468
51.064	-23.837	16172	15994	0	1468
45.150	-28.345	16150	15960	0	1468
39.885	-36.062	16150	15937	0	1468
38.803	-40.137	16097	15930	0	1468
42.481	-39.632	16065	15933	0	1468
46.304	-35.701	16012	15945	0	1468
48.720	-31.266	16012	15983	0	1468
50.956	-29.138	16044	16070	0	1468
50.270	-28.056	16065	16187	0	1468
49.693	-27.443	16065	16290	0	1468
52.146	-26.506	16097	16373	0	1468
51.424	-21.313	16119	16478	0	1468
54.634	-16.985	16225	16611	0	1468
57.158	-12.477	16225	16710	0	1468
61.702	-12.514	16278	16770	0	1468
66.679	-12.838	16331	16838	0	1468
69.492	-13.848	16363	16918	0	1468
73.062	-14.533	16405	16952	0	1468
76.920	-11.900	16437	16937	0	1468
82.005	-8.655	16437	16899	0	1468
89.037	-4.652	16437	16850	0	1468
94.555	-2.777	16437	16778	0	1468
96.682	-4.364	16437	16687	0	1468
93.833	-11.540	16405	16588	0	1468
92.319	-19.257	16384	16497	0	1468
97.043	-21.204	16363	16418	0	1468
105.590	-22.034	16331	16354	0	1468
113.054	-19.762	16331	16294	0	1468
118.392	-21.745	16278	16237	0	1468
114.533	-26.938	16257	16187	0	1468
109.665	-29.679	16225	16142	0	1468
109.953	-26.614	16225	16127	0	1468
114.100	-20.952	16225	16161	0	1468
124.811	-12.838	16257	16240	0	1468
132.816	-10.602	16257	16297	0	1468
139.091	-11.504	16310	16335	0	1468
140.462	-14.208	16331	16391	0	1468
136.314	-17.346	16363	16478	0	1468
134.439	-17.346	16384	16539	0	1468
134.043	-17.346	16405	16569	0	1468
136.026	-12.694	16458	16622	0	1468
142.373	-8.619	16511	16698	0	1468
145.150	-3.859	16511	16740	0	1468
151.424	1.118	16543	16728	0	1468
155.103	4.436	16543	16679	0	1468
154.778	7.934	16543	16607	0	1468
154.634	6.852	16511	16528	0	1468
151.893	7.429	16511	16444	0	1468
150.559	5.914	16490	16366	0	1468
153.264	4.472	16458	16282	0	1468
156.473	4.760	16437	16206	0	1468
157.699	2.957	16384	16138	0	1468
159.286	-0.361	16363	16070	0	1468
159.178	-3.029	16310	16002	0	1468
162.099	-2.596	16278	15949	0	1468
168.085	0.072	16225	15907	0	1468
171.763	4.472	16204	15888	0	1468
170.609	4.724	16172	15926	0	1468
167.508	0.180	16204	16013	0	1468
163.469	-5.770	16204	16093	0	1468
163.145	-7.970	16204	16161	0	1468
170.429	-4.327	16257	16259	0	1468
184.493	5.157	16278	16381	0	1468
192.427	10.855	16310	16463	0	1468
198.521	12.261	16331	16524	0	1468
197.944	10.206	16405	16622	0	1468
197.512	7.176	16490	16793	0	1468
194.951	8.511	16564	16956	0	1468
195.240	9.556	16649	17039	0	1468
196.033	12.550	16671	17062	0	1468
194.843	12.946	16724	17096	0	1468
202.092	14.821	16809	17134	0	1468
212.441	23.116	16830	17130	0	1468
222.827	28.345	16862	17058	0	1468
232.672	30.761	16862	16952	0	1468
228.886	25.820	16862	16835	0	1468
225.099	16.372	16862	16717	1	844
218.500	9.412	16809	16592	0	844
217.815	8.799	16777	16463	0	844
223.476	12.802	16724	16343	0	844
227.047	15.507	16703	16218	0	844
227.155	13.740	16649	16096	0	844
222.827	4.075	16618	15986	0	844
214.064	-6.239	16564	15888	0	844
210.097	-12.333	16511	15801	0	844
211.900	-12.550	16458	15744	0	844
216.336	-8.583	16458	15751	0	844
221.277	-1.190	16437	15805	0	844
226.397	1.334	16405	15842	0	844
227.696	1.911	16384	15861	0	844
230.653	0.902	16384	15918	0	844
230.869	-1.334	16405	16021	0	844
228.237	-3.354	16405	16108	0	844
226.181	-5.770	16405	16165	0	844
221.745	-4.688	16437	16244	0	844
224.919	-1.154	16458	16339	0	844
230.076	4.147	16490	16395	0	844
236.747	8.655	16490	16410	0	844
236.134	6.924	16490	16402	0	844
232.744	2.957	16458	16384	0	844
223.585	-1.587	16437	16343	0	844
217.923	-4.940	16405	16297	0	844
213.127	-4.003	16384	16248	0	844
212.153	0.288	16363	16203	0	844
210.927	3.750	16310	16153	0	844
207.825	4.760	16278	16112	0	844
201.623	3.354	16257	16081	0	844
194.987	-1.262	16204	16058	0	844
187.739	-7.032	16172	16043	0	844
183.520	-5.878	16150	16028	0	844
184.277	2.524	16119	16032	0	844
192.788	15.146	16119	16093	0	844
203.101	29.210	16119	16191	0	844
210.206	32.708	16119	16271	0	844
213.091	30.004	16119	16335	0	844
212.009	20.591	16204	16421	0	844
210.819	15.362	16225	16539	0	844
213.415	13.956	16225	16619	0	844
220.014	19.401	16257	16664	0	844
226.974	21.385	16310	16732	0	844
232.312	23.765	16363	16823	0	844
233.574	20.591	16384	16876	0	844
233.826	18.788	16405	16873	0	844
236.639	18.788	16405	16842	0	844
236.278	18.067	16405	16800	0	844
235.557	19.293	16405	16751	0	844
235.124	17.923	16405	16691	0	844
231.482	16.877	16384	16622	0	844
232.456	13.884	16363	16543	0	844
235.016	15.723	16363	16463	0	844
241.327	17.706	16331	16402	0	844
242.517	14.317	16310	16354	0	844
240.173	13.271	16278	16297	0	844
236.603	7.032	16257	16248	0	844
231.338	4.544	16225	16199	0	844
232.528	4.616	16204	16180	0	844
235.954	12.153	16204	16210	0	844
246.917	17.238	16257	16282	0	844
258.312	23.837	16257	16324	0	844
267.292	27.083	16257	16335	0	844
270.321	28.309	16278	16377	0	844
269.275	28.201	16310	16444	0	844
264.299	26.470	16331	16501	0	844
260.765	24.450	16331	16528	0	844
258.204	22.611	16384	16581	0	844
259.791	23.116	16405	16656	0	844
260.728	20.519	16458	16698	0	844
262.423	20.159	16458	16694	0	844
263.649	13.199	16490	16668	0	844
262.640	9.665	16490	16619	0	844
262.964	6.599	16458	16558	0	844
260.548	7.753	16458	16490	0	844
263.036	14.641	16437	16429	0	844
261.846	16.012	16437	16373	0	844
257.483	13.595	16405	16324	0	844
253.624	8.871	16405	16286	0	844
247.494	3.282	16384	16256	0	844
244.104	1.442	16363	16221	0	844
243.635	4.436	16331	16184	0	844
244.176	8.763	16310	16138	0	844
243.347	9.520	16310	16108	0	844
242.914	12.477	16278	16123	0	844
244.609	12.982	16278	16168	0	844
248.756	19.618	16278	16203	0	844
255.175	26.830	16278	16221	0	844
261.053	35.918	16310	16267	0	844
262.820	41.003	16310	16335	0	844
258.096	40.822	16331	16377	0	844
253.805	35.305	16331	16387	0	844
250.811	28.489	16363	16429	0	844
252.651	23.476	16384	16509	0	844
258.817	24.162	16405	16558	0	844
262.532	26.470	16437	16581	0	844
262.171	28.020	16458	16622	0	844
256.870	24.847	16511	16691	0	844
252.326	21.024	16543	16740	0	844
247.926	16.048	16596	16751	0	844
246.881	15.435	16596	16732	0	844
246.159	14.172	16618	16698	0	844
241.399	11.035	16596	16637	0	844
235.160	9.016	16564	16562	0	844
228.417	6.852	16564	16482	0	844
227.624	8.114	16543	16402	0	844
226.397	8.907	16511	16320	0	844
227.191	9.232	16490	16225	0	844
230.040	8.511	16437	16142	0	844
230.220	7.104	16405	16070	0	844
232.131	10.638	16363	16002	0	844
237.108	14.569	16310	15937	0	844
237.685	15.975	16278	15899	0	844
238.118	18.211	16257	15922	0	844
241.688	17.382	16257	15994	0	844
248.071	22.575	16257	16058	0	844
259.971	29.607	16278	16112	0	844
272.160	38.658	16310	16206	0	844
282.798	43.924	16331	16335	0	844
285.359	44.897	16363	16425	0	844
278.074	37.216	16384	16490	0	844
264.695	25.712	16437	16573	0	844
246.376	10.710	16490	16668	0	844
234.006	3.065	16511	16721	0	844
230.545	-1.695	16543	16721	0	844
231.951	-0.685	16543	16698	0	844
234.728	0.108	16543	16660	0	844
232.384	-2.993	16543	16607	0	844
227.479	-7.573	16511	16539	0	844
221.781	-8.907	16490	16459	0	844
224.991	-5.878	16490	16384	0	844
225.171	-2.669	16458	16312	0	844
224.234	-2.524	16384	16244	0	844
221.277	-7.717	16363	16180	0	844
214.930	-11.864	16310	16115	0	844
212.910	-14.172	16310	16062	0	844
215.326	-11.432	16310	16024	0	844
219.546	-5.085	16225	15998	0	844
225.712	1.803	16204	15986	0	844
229.751	8.366	16172	15986	0	844
231.446	15.398	16150	15986	0	844
233.538	18.500	16119	16002	0	844
233.213	22.467	16119	16070	0	844
230.869	20.519	16172	16180	0	844
229.282	17.887	16172	16267	0	844
225.027	14.208	16172	16328	0	844
223.044	12.874	16204	16406	0	844
219.113	10.602	16257	16516	0	844
219.654	11.684	16278	16596	0	844
219.365	10.314	16278	16630	0	844
218.860	7.465	16310	16634	0	844
218.211	4.688	16310	16619	0	844
215.795	3.787	16278	16592	0	844
216.156	3.534	16278	16554	0	844
215.651	8.835	16278	16509	0	844
215.398	10.097	16278	16459	0	844
213.163	10.674	16225	16406	0	844
209.520	5.986	16204	16358	0	844
204.940	4.364	16172	16316	0	844
203.390	1.515	16150	16282	0	844
206.635	4.688	16150	16263	0	844
211.576	7.717	16119	16248	0	844
215.146	9.376	16150	16252	0	844
215.759	5.409	16150	16312	0	844
212.622	3.534	16172	16410	0	844
213.091	3.210	16204	16486	0	844
213.812	7.934	16225	16531	0	844
221.168	13.956	16278	16607	0	844
227.804	20.916	16310	16706	0	844
234.656	21.854	16363	16770	0	844
236.747	23.657	16384	16800	0	844
237.757	20.808	16437	16850	0	844
231.699	16.877	16490	16918	0	844
217.706	6.563	16543	16956	0	844
204.327	-5.409	16596	16963	0	844
191.129	-17.166	16649	16982	0	844
188.280	-20.808	16703	17013	0	844
190.624	-18.572	16756	17001	0	844
193.761	-11.215	16724	16926	0	844
193.292	-8.799	16756	16819	0	844
187.342	-10.602	16724	16706	0	844
180.851	-15.903	16703	16588	0	844
174.071	-24.702	16671	16474	0	844
172.521	-26.253	16671	16369	0	844
172.304	-24.162	16649	16267	0	844
175.406	-20.988	16618	16176	0	844
177.533	-14.497	16564	16093	0	844
179.264	-11.900	16543	16013	0	844
176.920	-11.504	16511	15937	0	844
171.006	-15.002	16437	15877	0	844
167.761	-19.077	16405	15831	0	844
167.580	-19.906	16384	15812	0	844
174.396	-17.418	16384	15850	0	844
184.385	-9.953	16384	15933	0	844
192.679	-6.491	16384	16002	0	844
197.584	-7.537	16384	16047	0	844
193.833	-12.838	16405	16119	0	844
190.516	-19.041	16437	16214	0	844
186.260	-20.447	16437	16278	0	844
184.385	-19.221	16458	16312	0	844
183.339	-15.290	16490	16381	0	844
184.818	-14.966	16543	16471	0	844
182.726	-15.579	16543	16528	0	844
181.608	-13.992	16564	16531	0	844
182.979	-15.759	16564	16509	0	844
182.690	-15.759	16543	16471	0	844
185.792	-16.192	16543	16421	0	844
187.955	-15.398	16490	16369	0	844
188.640	-14.425	16458	16316	0	844
190.119	-11.973	16437	16259	0	844
191.670	-7.465	16405	16203	0	844
192.535	-7.248	16384	16146	0	844
194.302	-7.645	16331	16089	0	844
190.912	-9.592	16278	16040	0	844
186.982	-11.107	16257	16005	0	844
182.474	-13.812	16225	15979	0	844
181.897	-13.920	16225	15971	0	844
184.854	-9.160	16204	16021	0	844
192.211	-5.121	16204	16112	0	844
196.213	-1.551	16204	16191	0	844
198.954	0.649	16204	16248	0	844
195.276	-3.678	16257	16350	0	844
191.525	-9.953	16331	16528	0	844
187.198	-13.848	16384	16713	0	844
186.621	-15.723	16458	16842	0	844
190.408	-13.163	16511	16952	0	844
193.833	-7.753	16596	17054	0	844
199.243	-5.481	16649	17104	0	844
200.793	-4.364	16671	17085	0	844
198.918	-5.950	16671	17024	0	844
196.033	-9.592	16671	16937	0	844
190.588	-11.396	16671	16838	0	844
189.506	-11.973	16671	16728	1	932
193.906	-9.917	16649	16615	0	932
197.512	-5.517	16618	16501	0	932
206.491	-0.974	16596	16391	0	932
211.973	3.750	16543	16297	0	932
215.290	4.508	16511	16214	0	932
216.408	2.416	16458	16146	0	932
217.274	-0.865	16437	16077	0	932
217.490	-0.649	16405	16017	0	932
217.598	2.200	16384	15983	0	932
223.188	4.111	16384	16002	0	932
223.260	2.669	16384	16070	0	932
220.664	-5.265	16384	16119	0	932
212.946	-14.353	16384	16142	0	932
203.859	-23.765	16384	16191	0	932
198.197	-25.243	16405	16278	0	932
200.433	-19.726	16437	16343	0	932
206.203	-12.225	16437	16377	0	932
207.717	-4.255	16490	16437	0	932
208.042	-3.065	16511	16524	0	932
203.210	-4.364	16543	16569	0	932
201.623	-3.678	16564	16577	0	932
206.599	0.541	16564	16607	0	932
212.550	8.979	16649	16668	0	932
219.257	14.425	16649	16694	0	932
223.116	18.464	16649	16668	0	932
223.188	20.159	16649	16607	0	932
226.253	25.965	16618	16531	0	932
228.201	30.833	16596	16440	0	932
230.040	33.898	16564	16347	0	932
229.751	31.518	16511	16244	0	932
226.542	26.433	16458	16146	0	932
226.722	22.250	16405	16051	0	932
223.909	16.913	16363	15971	0	932
219.906	8.114	16310	15907	0	932
209.520	-2.596	16257	15850	0	932
195.925	-13.992	16204	15808	0	932
182.366	-20.591	16172	15778	0	932
177.642	-19.978	16150	15786	0	932
178.976	-15.398	16119	15850	0	932
186.332	-10.566	16119	15956	0	932
197.259	-7.717	16119	16051	0	932
204.760	-6.383	16119	16131	0	932
207.970	-6.527	16204	16240	0	932
207.104	-7.248	16225	16381	0	932
203.029	-6.996	16257	16486	0	932
200.325	-6.744	16278	16565	0	932
198.954	-4.219	16331	16675	0	932
201.010	-2.236	16405	16842	0	932
203.210	-0.829	16490	17001	0	932
202.596	-3.210	16543	17077	0	932
201.947	-7.248	16564	17077	0	932
205.409	-8.475	16596	17039	0	932
211.612	-4.760	16618	16975	0	932
222.611	5.481	16596	16884	0	932
231.951	15.507	16564	16774	0	932
234.583	23.476	16543	16656	0	932
223.765	19.041	16511	16539	0	932
212.225	10.638	16490	16433	0	932
204.400	3.534	16458	16335	0	932
209.845	3.065	16405	16237	0	932
221.132	7.970	16363	16138	0	932
231.554	15.362	16310	16043	0	932
230.977	17.995	16278	15983	0	932
221.962	14.894	16278	15990	0	932
208.547	10.242	16257	16051	0	932
202.813	9.304	16257	16100	0	932
204.868	10.206	16257	16138	0	932
210.638	15.687	16310	16221	0	932
215.471	18.320	16363	16384	0	932
213.848	16.733	16405	16547	0	932
210.494	12.910	16458	16660	0	932
202.488	7.970	16543	16751	0	932
200.829	2.777	16596	16838	0	932
202.560	5.265	16649	16876	0	932
207.429	9.629	16671	16857	0	932
212.982	14.533	16671	16812	0	932
216.625	19.654	16649	16747	0	932
216.985	18.536	16649	16660	0	932
211.576	13.018	16649	16562	0	932
202.416	3.895	16618	16463	0	932
192.571	-9.809	16564	16373	0	932
183.303	-18.933	16564	16282	0	932
175.298	-27.263	16490	16191	0	932
173.747	-28.237	16458	16104	0	932
175.298	-27.299	16405	16024	0	932
174.504	-24.342	16363	15960	0	932
172.737	-24.847	16331	15914	0	932
169.455	-28.020	16310	15892	0	932
164.587	-31.626	16278	15926	0	932
166.679	-28.381	16310	16002	0	932
175.766	-22.286	16310	16055	0	932
184.962	-13.054	16331	16089	0	932
187.739	-6.239	16331	16157	0	932
186.801	-7.212	16331	16256	0	932
179.986	-13.776	16363	16324	0	932
176.235	-18.356	16363	16362	0	932
179.661	-16.192	16384	16421	0	932
185.287	-12.081	16437	16509	0	932
191.021	-5.409	16437	16565	0	932
195.023	-1.262	16458	16584	0	932
195.781	0.757	16458	16622	0	932
199.820	4.652	16543	16683	0	932
204.183	10.133	16511	16706	0	932
207.212	11.396	16543	16679	0	932
206.275	8.763	16543	16626	0	932
199.567	1.262	16511	16565	0	932
192.463	-3.859	16490	16490	0	932
191.850	-4.940	16458	16406	0	932
194.338	1.262	16437	16331	0	932
196.935	4.219	16405	16263	0	932
195.853	0.397	16384	16199	0	932
184.493	-8.222	16331	16134	0	932
173.206	-20.555	16310	16074	0	932
168.987	-25.712	16257	16017	0	932
175.586	-22.178	16204	15968	0	932
190.083	-13.776	16172	15933	0	932
204.183	-3.462	16119	15930	0	932
213.091	3.642	16172	15983	0	932
213.451	6.419	16150	16074	0	932
210.169	7.393	16150	16149	0	932
210.494	8.222	16150	16199	0	932
216.372	11.323	16172	16282	0	932
222.106	14.713	16204	16384	0	932
227.191	16.552	16225	16463	0	932
224.378	17.238	16257	16516	0	932
215.975	12.081	16310	16596	0	932
212.946	8.727	16331	16691	0	932
210.674	7.321	16363	16747	0	932
214.533	9.340	16384	16751	0	932
219.185	13.235	16384	16725	0	932
216.841	12.117	16384	16683	0	932
207.970	6.852	16384	16634	0	932
200.793	-2.200	16363	16577	0	932
190.912	-13.451	16363	16512	0	932
186.008	-19.942	16331	16444	0	932
184.277	-23.837	16310	16377	0	932
185.683	-20.483	16257	16312	0	932
187.631	-17.021	16225	16248	0	932
192.499	-11.396	16204	16195	0	932
193.329	-10.530	16150	16146	0	932
195.961	-8.511	16119	16104	0	932
195.204	-7.465	16119	16081	0	932
198.089	-6.094	16119	16108	0	932
203.534	-1.695	16119	16180	0	932
205.517	-2.452	16119	16237	0	932
204.868	-6.527	16119	16275	0	932
198.774	-12.802	16150	16358	0	932
190.408	-15.831	16225	16509	0	932
189.542	-14.677	16310	16675	0	932
191.021	-7.970	16363	16789	0	932
200.361	0.072	16437	16891	0	932
205.517	4.616	16490	16994	0	932
209.088	4.147	16543	17047	0	932
206.491	0.902	16564	17036	0	932
199.062	-4.832	16564	16986	0	932
194.122	-10.314	16596	16907	0	932
189.434	-14.028	16596	16812	0	932
190.588	-14.353	16564	16706	0	932
194.663	-14.028	16564	16592	0	932
194.086	-14.569	16511	16474	0	932
192.679	-14.425	16490	16369	0	932
185.251	-19.942	16458	16263	0	932
177.137	-23.260	16437	16168	0	932
175.334	-27.263	16363	16093	0	932
172.232	-28.705	16331	16028	0	932
174.468	-30.833	16310	15971	0	932
176.560	-29.066	16278	15933	0	932
179.805	-25.748	16310	15949	0	932
183.339	-20.050	16278	16021	0	932
190.876	-11.540	16278	16077	0	932
197.079	-2.921	16278	16115	0	932
202.560	3.859	16310	16180	0	932
202.524	5.986	16331	16275	0	932
201.875	6.419	16331	16335	0	932
201.623	5.734	16363	16369	0	932
203.606	7.032	16384	16425	0	932
209.701	10.494	16405	16509	0	932
215.507	14.713	16437	16558	0	932
213.307	14.317	16458	16569	0	932
210.314	8.475	16490	16596	0	932
199.171	1.082	16511	16634	0	932
193.473	-5.626	16543	16645	0	932
186.332	-12.514	16511	16611	0	932
181.284	-16.733	16543	16562	0	932
176.704	-24.414	16490	16501	0	932
173.530	-28.128	16490	16433	0	932
172.593	-29.030	16458	16369	0	932
176.379	-25.929	16437	16305	0	932
181.969	-20.231	16405	16240	0	932
185.539	-16.985	16384	16180	0	932
182.871	-18.933	16331	16123	0	932
179.336	-21.421	16310	16070	0	932
177.028	-22.178	16257	16024	0	932
178.363	-18.428	16225	15990	0	932
183.880	-13.091	16225	15975	0	932
191.778	-6.022	16204	15964	0	932
192.896	-3.750	16150	15952	0	932
192.571	-3.426	16119	15952	0	932
188.027	-6.888	16097	15964	0	932
182.185	-10.314	16044	15975	0	932
179.264	-11.973	16065	16002	0	932
176.524	-14.317	16065	16081	0	932
177.678	-14.028	16097	16206	0	932
177.533	-14.533	16119	16328	0	932
177.642	-16.805	16150	16448	0	932
173.026	-20.087	16204	16573	0	932
162.532	-31.879	16278	16664	0	932
148.251	-45.222	16278	16702	0	932
135.737	-54.886	16278	16710	0	932
132.528	-59.719	16278	16702	0	932
138.947	-53.155	16278	16675	0	932
153.805	-42.012	16278	16641	0	932
167.147	-28.922	16257	16600	0	932
177.678	-22.755	16257	16550	0	932
181.284	-19.798	16225	16493	0	932
183.664	-16.300	16204	16440	0	932
183.952	-15.795	16172	16402	0	932
183.303	-16.264	16204	16369	0	932
184.241	-13.235	16172	16331	0	932
187.486	-13.956	16150	16301	0	932
191.453	-10.602	16119	16290	0	932
199.026	-4.327	16150	16324	0	932
204.327	0.433	16150	16395	0	932
208.943	7.032	16172	16456	0	932
212.910	12.333	16257	16501	0	932
217.454	16.300	16278	16592	0	932
220.664	21.673	16363	16751	0	932
223.549	23.044	16437	16914	0	932
221.313	21.241	16511	17017	0	932
215.435	16.300	16564	17100	0	932
206.419	9.845	16671	17176	0	932
197.800	1.659	16724	17206	0	932
194.951	-3.787	16756	17164	0	932
195.673	-7.140	16777	17081	0	932
202.633	-6.347	16809	16979	0	932
205.337	-3.895	16777	16869	0	932
205.590	-2.452	16777	16747	1	948
197.872	-4.111	16756	16626	0	948
192.788	-5.986	16756	16501	0	948
191.129	-7.789	16703	16381	0	948
196.250	-5.734	16671	16256	0	948
205.121	-3.642	16618	16131	0	948
209.701	-2.885	16596	16013	0	948
205.986	-5.013	16543	15907	0	948
197.079	-13.379	16458	15808	0	948
184.710	-20.844	16405	15744	0	948
175.947	-28.741	16405	15740	0	948
172.845	-33.357	16384	15793	0	948
176.884	-31.915	16384	15842	0	948
183.664	-25.099	16384	15888	0	948
193.581	-18.320	16405	15971	0	948
200.865	-9.989	16437	16093	0	948
208.835	-5.698	16437	16176	0	948
213.343	-1.911	16458	16233	0	948
218.428	0.829	16511	16320	0	948
219.437	3.246	16543	16418	0	948
217.166	2.524	16564	16482	0	948
211.576	-3.065	16564	16493	0	948
207.032	-10.350	16596	16482	0	948
206.852	-14.353	16543	16452	0	948
210.963	-15.398	16564	16402	0	948
215.002	-10.855	16511	16350	0	948
212.333	-6.167	16490	16286	0	948
200.216	-6.996	16458	16221	0	948
184.674	-15.831	16405	16161	0	948
172.160	-24.053	16384	16104	0	948
169.564	-31.049	16331	16055	0	948
177.065	-30.545	16310	16017	0	948
188.965	-24.666	16257	15983	0	948
195.781	-16.084	16225	15960	0	948
199.351	-12.297	16204	15945	0	948
197.548	-12.225	16172	15933	0	948
197.944	-10.819	16119	15926	0	948
197.151	-10.133	16065	15933	0	948
197.800	-7.429	16065	15964	0	948
199.423	-5.770	16065	16047	0	948
199.026	-5.373	16097	16168	0	948
200.757	-8.511	16097	16271	0	948
203.859	-7.140	16119	16347	0	948
202.669	-8.943	16150	16444	0	948
197.908	-9.629	16172	16569	0	948
191.093	-12.045	16204	16664	0	948
182.438	-16.697	16278	16732	0	948
177.101	-16.228	16363	16816	0	948
175.334	-16.913	16363	16910	0	948
175.225	-12.189	16405	16956	0	948
177.389	-10.783	16405	16948	0	948
179.264	-11.143	16405	16903	0	948
182.726	-10.025	16437	16846	0	948
185.467	-8.799	16405	16774	0	948
190.804	-5.914	16405	16691	0	948
191.742	-1.947	16384	16596	0	948
194.014	0.216	16363	16505	0	948
193.581	1.515	16331	16418	0	948
195.781	1.839	16310	16339	0	948
196.754	2.669	16257	16259	0	948
197.295	1.623	16225	16191	0	948
193.112	-0.649	16172	16138	0	948
187.018	-3.859	16150	16096	0	948
180.779	-6.455	16119	16085	0	948
180.779	-6.311	16119	16131	0	948
186.080	-3.354	16172	16218	0	948
189.145	-1.515	16172	16294	0	948
192.535	-2.596	16204	16347	0	948
184.638	-8.583	16257	16440	0	948
174.648	-18.320	16331	16615	0	948
166.426	-26.001	16405	16789	0	948
163.109	-31.410	16458	16907	0	948
167.508	-32.095	16543	16990	0	948
171.908	-29.066	16618	17066	0	948
180.022	-24.594	16671	17096	0	948
180.851	-17.166	16703	17062	0	948
183.808	-12.586	16703	16986	0	948
184.241	-9.556	16703	16880	0	948
185.287	-7.537	16703	16763	0	948
185.972	-7.032	16649	16645	0	948
189.903	-4.868	16649	16531	0	948
194.158	-1.118	16618	16418	0	948
195.564	-0.325	16596	16312	0	948
194.915	-3.895	16564	16214	0	948
189.073	-10.422	16511	16123	0	948
182.474	-14.785	16490	16043	0	948
176.704	-19.077	16437	15971	0	948
175.442	-15.254	16405	15922	0	948
173.494	-11.540	16384	15895	0	948
172.376	-7.212	16384	15930	0	948
173.819	-5.481	16405	16013	0	948
176.524	-5.517	16405	16081	0	948
177.317	-7.032	16405	16123	0	948
176.596	-10.927	16437	16191	0	948
170.501	-15.398	16458	16282	0	948
161.269	-24.270	16490	16343	0	948
156.437	-28.309	16458	16366	0	948
155.608	-30.328	16511	16406	0	948
160.873	-28.453	16543	16482	0	948
163.686	-25.820	16564	16524	0	948
164.154	-24.125	16564	16528	0	948
164.154	-24.198	16618	16558	0	948
161.630	-23.404	16618	16611	0	948
163.541	-21.313	16671	16637	0	948
168.301	-17.057	16649	16611	0	948
168.878	-14.713	16649	16550	0	948
169.636	-16.516	16649	16478	0	948
170.321	-16.841	16618	16402	0	948
170.609	-20.627	16596	16324	0	948
169.023	-26.578	16543	16229	0	948
164.226	-29.607	16490	16127	0	948
159.719	-34.079	16405	16024	0	948
153.985	-37.036	16363	15941	0	948
156.653	-35.233	16310	15873	0	948
161.522	-32.203	16278	15823	0	948
166.859	-26.397	16225	15782	0	948
169.636	-24.486	16172	15751	0	948
165.813	-22.719	16119	15751	0	948
163.794	-23.080	16119	15812	0	948
163.505	-24.234	16119	15922	0	948
165.777	-24.955	16119	16021	0	948
170.754	-21.385	16172	16096	0	948
177.028	-20.087	16150	16199	0	948
182.474	-14.569	16172	16328	0	948
186.008	-10.458	16204	16425	0	948
188.063	-7.537	16225	16490	0	948
188.568	-6.527	16257	16577	0	948
184.313	-8.330	16310	16687	0	948
180.202	-12.802	16331	16763	0	948
176.199	-16.552	16363	16785	0	948
172.953	-17.634	16363	16785	0	948
173.783	-17.995	16363	16766	0	948
176.091	-14.172	16363	16732	0	948
181.320	-11.937	16363	16691	0	948
183.520	-10.783	16363	16641	0	948
185.972	-12.225	16331	16588	0	948
181.753	-18.644	16363	16539	0	948
174.252	-24.450	16331	16490	0	948
167.292	-30.977	16310	16437	0	948
164.443	-32.095	16278	16377	0	948
165.200	-27.551	16257	16309	0	948
172.052	-19.978	16225	16244	0	948
179.373	-12.369	16204	16206	0	948
179.661	-12.550	16204	16221	0	948
178.796	-13.559	16204	16282	0	948
177.605	-13.559	16204	16328	0	948
178.723	-12.441	16225	16358	0	948
183.231	-6.635	16257	16437	0	948
185.755	-1.118	16363	16592	0	948
188.821	-0.036	16405	16751	0	948
186.909	-0.144	16490	16854	0	948
188.352	2.777	16543	16941	0	948
195.564	9.629	16596	17024	0	948
200.469	16.444	16649	17058	0	948
204.400	23.549	16703	17036	0	948
205.049	22.827	16724	16982	0	948
202.344	20.087	16724	16903	0	948
196.971	15.687	16703	16800	0	948
192.030	10.494	16703	16687	0	948
183.087	4.724	16671	16569	0	948
172.917	-3.101	16649	16452	0	948
163.505	-11.684	16618	16335	0	948
161.486	-15.362	16564	16210	0	948
164.695	-18.608	16511	16096	0	948
171.006	-14.930	16458	15998	0	948
177.966	-15.254	16437	15918	0	948
180.599	-12.982	16384	15854	0	948
178.579	-11.071	16363	15820	0	948
176.704	-10.746	16363	15842	0	948
174.288	-9.773	16363	15918	0	948
175.478	-10.855	16363	15983	0	948
177.930	-10.891	16363	16032	0	948
180.995	-11.287	16384	16115	0	948
182.510	-9.052	16405	16218	0	948
179.589	-9.592	16405	16290	0	948
176.488	-13.199	16437	16335	0	948
173.422	-16.769	16458	16402	0	948
170.682	-21.024	16511	16493	0	948
170.970	-20.555	16511	16547	0	948
172.809	-17.887	16543	16543	0	948
176.307	-12.441	16543	16509	0	948
181.861	-7.212	16511	16471	0	948
187.450	-6.852	16511	16425	0	948
188.568	-9.484	16490	16384	0	948
189.614	-10.819	16437	16335	0	948
186.873	-15.939	16437	16286	0	948
186.116	-13.956	16405	16244	0	948
188.929	-10.530	16363	16199	0	948
189.290	-9.124	16331	16149	0	948
189.470	-11.215	16310	16096	0	948
186.549	-14.749	16278	16047	0	948
177.642	-23.224	16225	16002	0	948
170.754	-27.010	16204	15960	0	948
167.003	-26.109	16150	15937	0	948
170.609	-22.431	16097	15922	0	948
176.956	-14.245	16044	15903	0	948
188.208	-9.088	16012	15899	0	948
191.850	-5.842	16044	15949	0	948
191.165	-5.193	16012	16047	0	948
186.801	-6.491	16012	16134	0	948
180.202	-7.248	16012	16206	0	948
175.261	-7.393	16065	16316	0	948
172.124	-7.609	16097	16452	0	948
171.655	-9.340	16119	16565	0	948
171.727	-10.314	16150	16649	0	948
171.980	-12.189	16204	16740	0	948
172.160	-11.432	16257	16838	0	948
170.141	-10.025	16310	16895	0	948
168.915	-9.737	16331	16903	0	948
167.256	-9.737	16363	16888	0	948
170.069	-7.825	16331	16850	0	948
174.144	-8.835	16331	16800	0	948
177.966	-5.409	16331	16747	0	948
183.015	-3.787	16331	16691	0	948
183.448	-5.049	16310	16626	0	948
179.120	-7.862	16310	16539	0	948
175.947	-12.910	16257	16452	0	948
172.809	-17.057	16225	16381	0	948
174.829	-18.500	16204	16309	0	948
179.913	-18.464	16172	16252	0	948
183.556	-16.516	16150	16203	0	948
183.123	-18.536	16150	16184	0	948
178.796	-20.700	16150	16218	0	948
174.144	-23.080	16172	16290	0	948
175.875	-19.906	16172	16339	0	948
180.779	-12.766	16172	16366	0	948
187.486	-5.157	16225	16437	0	948
189.398	-3.678	16310	16592	0	948
186.909	-6.671	16363	16751	0	948
181.536	-14.821	16437	16850	0	948
176.163	-19.906	16490	16922	0	948
175.045	-23.981	16564	16986	0	948
171.980	-23.224	16596	17005	0	948
172.773	-20.555	16618	16967	0	948
171.872	-19.329	16649	16903	0	948
174.216	-16.120	16671	16827	0	948
178.759	-13.776	16649	16736	0	948
185.828	-12.261	16618	16626	0	948
187.595	-11.179	16596	16509	0	948
189.794	-13.018	16564	16387	0	948
184.854	-13.487	16543	16275	0	948
181.212	-18.175	16490	16165	0	948
173.711	-21.060	16458	16070	0	948
170.465	-25.532	16405	15975	0	948
168.878	-28.164	16363	15899	0	948
177.642	-22.322	16331	15839	0	948
190.047	-15.218	16278	15801	0	948
208.475	-0.721	16278	15816	0	948
215.074	7.609	16257	15880	0	948
214.569	6.780	16257	15937	0	948
203.137	-1.911	16225	15964	0	948
188.532	-14.245	16225	15990	0	948
180.671	-21.998	16225	16055	0	948
176.992	-24.378	16257	16149	0	948
177.425	-24.053	16278	16248	0	948
177.137	-20.375	16363	16373	0	948
174.180	-22.286	16437	16558	0	948
169.600	-25.676	16511	16744	0	948
165.561	-29.318	16543	16865	0	948
163.649	-31.158	16618	16967	0	948
166.498	-30.617	16703	17066	0	948
167.905	-29.210	16756	17111	0	948
167.941	-27.551	16777	17092	0	948
167.977	-29.571	16809	17036	0	948
168.878	-28.741	16830	16952	0	948
168.734	-26.397	16830	16854	0	948
172.990	-23.260	16830	16751	1	1064
174.144	-18.969	16777	16637	0	1064
174.180	-17.021	16777	16516	0	1064
175.406	-17.959	16724	16399	0	1064
181.031	-15.507	16724	16294	0	1064
191.598	-9.340	16649	16191	0	1064
206.239	1.551	16618	16085	0	1064
219.654	14.028	16564	15990	0	1064
229.282	26.181	16511	15907	0	1064
231.771	30.292	16490	15858	0	1064
228.092	26.974	16490	15873	0	1064
220.664	17.562	16490	15926	0	1064
218.211	9.989	16458	15964	0	1064
216.120	7.176	16437	15983	0	1064
215.795	7.285	16458	16047	0	1064
215.723	8.691	16490	16146	0	1064
213.199	8.979	16490	16214	0	1064
210.025	3.895	16490	16252	0	1064
207.609	0.505	16543	16316	0	1064
207.104	-0.757	16564	16402	0	1064
207.970	-0.252	16564	16452	0	1064
208.114	2.380	16564	16444	0	1064
210.278	3.895	16543	16414	0	1064
209.376	4.219	16543	16377	0	1064
205.265	-0.433	16490	16328	0	1064
195.204	-7.501	16458	16275	0	1064
186.152	-14.281	16437	16218	0	1064
180.238	-19.293	16405	16161	0	1064
182.438	-15.543	16363	16108	0	1064
191.273	-10.314	16331	16055	0	1064
201.406	-4.183	16278	16005	0	1064
207.321	0.325	16225	15960	0	1064
206.563	0.216	16225	15930	0	1064
199.603	-2.993	16172	15918	0	1064
193.004	-7.032	16119	15933	0	1064
186.873	-8.691	16119	15998	0	1064
186.621	-9.737	16119	16104	0	1064
189.903	-8.691	16119	16187	0	1064
191.886	-7.068	16119	16248	0	1064
193.617	-5.770	16172	16347	0	1064
189.614	-7.645	16204	16463	0	1064
179.805	-13.379	16225	16558	0	1064
169.744	-19.906	16257	16615	0	1064
159.719	-25.820	16278	16691	0	1064
156.798	-30.148	16331	16785	0	1064
157.807	-27.119	16363	16846	0	1064
167.508	-20.411	16384	16861	0	1064
177.461	-11.828	16405	16850	0	1064
183.628	-10.314	16405	16823	0	1064
183.087	-12.874	16405	16785	0	1064
175.081	-17.887	16405	16736	0	1064
168.338	-23.404	16405	16679	0	1064
164.695	-23.044	16405	16622	0	1064
166.318	-18.067	16384	16558	0	1064
170.069	-16.300	16363	16482	0	1064
171.042	-14.821	16331	16399	0	1064
170.393	-17.923	16310	16320	0	1064
168.662	-15.975	16257	16240	0	1064
171.980	-14.100	16225	16172	0	1064
173.098	-10.710	16204	16134	0	1064
171.872	-8.799	16257	16157	0	1064
168.518	-14.713	16225	16218	0	1064
166.354	-17.021	16225	16267	0	1064
165.344	-20.231	16225	16297	0	1064
170.573	-15.939	16257	16366	0	1064
176.379	-8.619	16310	16463	0	1064
179.805	-5.517	16331	16539	0	1064
177.786	-5.590	16363	16577	0	1064
175.406	-8.727	16405	16637	0	1064
174.757	-10.710	16437	16717	0	1064
176.235	-13.559	16490	16763	0	1064
178.615	-14.100	16490	16759	0	1064
178.759	-14.966	16511	16725	0	1064
173.458	-19.437	16511	16675	0	1064
168.482	-18.860	16511	16611	0	1064
166.931	-19.834	16458	16535	0	1064
165.236	-19.293	16490	16452	0	1064
169.492	-20.339	16458	16369	0	1064
171.836	-19.690	16405	16286	0	1064
175.550	-16.300	16384	16214	0	1064
178.615	-12.117	16363	16149	0	1064
180.130	-9.340	16331	16089	0	1064
181.212	-7.898	16278	16040	0	1064
178.110	-9.953	16278	16002	0	1064
174.252	-14.172	16225	15971	0	1064
169.672	-17.562	16172	15945	0	1064
165.669	-19.257	16150	15922	0	1064
162.856	-20.988	16097	15911	0	1064
162.423	-22.972	16065	15922	0	1064
165.344	-21.673	16097	15994	0	1064
164.876	-22.034	16119	16108	0	1064
167.869	-21.060	16119	16203	0	1064
171.836	-17.166	16150	16275	0	1064
175.406	-14.930	16172	16381	0	1064
179.733	-13.451	16225	16505	0	1064
179.589	-13.812	16257	16603	0	1064
174.612	-17.995	16310	16656	0	1064
171.583	-19.798	16363	16721	0	1064
169.996	-21.709	16384	16800	0	1064
171.078	-23.296	16405	16835	0	1064
177.137	-21.096	16437	16816	0	1064
180.202	-20.159	16437	16770	0	1064
185.828	-15.759	16437	16717	0	1064
189.650	-13.343	16405	16649	0	1064
190.660	-10.530	16384	16573	0	1064
190.984	-11.287	16363	16493	0	1064
187.414	-14.100	16331	16414	0	1064
184.277	-14.461	16331	16350	0	1064
181.753	-15.651	16310	16301	0	1064
181.861	-13.668	16310	16252	0	1064
181.644	-11.720	16257	16199	0	1064
178.832	-11.900	16225	16142	0	1064
176.199	-13.235	16172	16093	0	1064
172.160	-14.245	16150	16062	0	1064
169.888	-17.310	16150	16093	0	1064
168.770	-19.329	16172	16176	0	1064
165.669	-24.919	16172	16252	0	1064
159.719	-31.410	16225	16309	0	1064
153.083	-38.334	16257	16395	0	1064
147.277	-42.625	16310	16512	0	1064
145.835	-42.806	16331	16596	0	1064
148.828	-41.003	16363	16645	0	1064
148.900	-40.786	16405	16710	0	1064
149.946	-41.724	16458	16789	0	1064
149.008	-43.779	16490	16827	0	1064
149.044	-42.481	16511	16819	0	1064
153.444	-35.521	16543	16785	0	1064
163.145	-25.604	16543	16740	0	1064
172.773	-16.480	16511	16675	0	1064
180.815	-10.530	16511	16603	0	1064
180.310	-10.999	16511	16528	0	1064
179.805	-14.064	16490	16452	0	1064
178.940	-11.792	16458	16381	0	1064
183.700	-9.052	16458	16309	0	1064
190.155	-2.993	16437	16244	0	1064
194.122	0.397	16405	16187	0	1064
192.896	-0.505	16384	16134	0	1064
186.080	-5.842	16363	16093	0	1064
179.913	-12.369	16331	16066	0	1064
172.953	-17.418	16331	16089	0	1064
166.607	-22.539	16331	16157	0	1064
165.489	-25.893	16363	16214	0	1064
166.607	-26.506	16363	16248	0	1064
168.301	-24.270	16384	16309	0	1064
169.888	-22.755	16405	16384	0	1064
168.915	-19.221	16437	16425	0	1064
166.571	-20.339	16437	16433	0	1064
167.003	-20.916	16458	16471	0	1064
166.787	-21.962	16490	16535	0	1064
167.688	-23.549	16511	16569	0	1064
168.770	-20.952	16511	16558	0	1064
168.878	-19.978	16511	16524	0	1064
168.193	-19.726	16490	16474	0	1064
171.295	-16.264	16490	16414	0	1064
172.629	-17.598	16490	16354	0	1064
175.081	-18.139	16437	16290	0	1064
177.209	-17.995	16405	16229	0	1064
179.697	-14.713	16384	16180	0	1064
180.094	-12.153	16331	16134	0	1064
183.015	-4.760	16310	16096	0	1064
186.585	-1.370	16278	16062	0	1064
191.561	0.541	16278	16032	0	1064
192.175	-0.865	16257	16005	0	1064
192.607	-3.354	16204	15998	0	1064
190.191	-4.291	16172	16009	0	1064
190.840	-3.498	16150	16032	0	1064
194.374	-0.036	16150	16051	0	1064
197.692	5.121	16119	16085	0	1064
199.315	6.780	16150	16168	0	1064
199.243	7.429	16172	16286	0	1064
195.168	6.275	16204	16366	0	1064
192.066	2.596	16225	16421	0	1064
187.054	2.380	16257	16512	0	1064
181.608	-0.721	16310	16626	0	1064
177.353	-0.541	16331	16706	0	1064
176.884	1.370	16363	16747	0	1064
177.605	4.940	16405	16800	0	1064
179.156	6.816	16458	16876	0	1064
176.163	3.714	16490	16910	0	1064
168.265	-5.301	16511	16891	0	1064
159.394	-12.189	16511	16846	0	1064
156.870	-18.897	16511	16789	0	1064
158.961	-15.182	16511	16725	0	1064
165.489	-9.592	16511	16653	0	1064
171.944	-5.337	16511	16577	0	1064
172.593	-4.940	16490	16505	0	1064
169.311	-7.681	16437	16425	0	1064
161.991	-11.071	16405	16350	0	1064
160.079	-14.353	16384	16271	0	1064
160.043	-13.920	16363	16199	0	1064
168.193	-8.583	16331	16138	0	1064
174.144	-4.183	16310	16089	0	1064
181.284	-1.154	16310	16070	0	1064
183.159	1.046	16310	16108	0	1064
183.159	-0.865	16331	16187	0	1064
181.825	-3.570	16331	16248	0	1064
179.769	-6.383	16363	16282	0	1064
174.901	-13.091	16384	16350	0	1064
167.724	-21.529	16405	16437	0	1064
161.378	-31.554	16437	16501	0	1064
153.408	-39.849	16458	16531	0	1064
149.874	-42.806	16511	16584	0	1064
146.736	-42.734	16543	16653	0	1064
146.268	-42.553	16543	16683	0	1064
146.376	-41.724	16564	16668	0	1064
145.655	-39.957	16564	16634	0	1064
149.621	-34.656	16564	16592	0	1064
158.817	-24.270	16564	16539	0	1064
170.321	-11.576	16564	16474	0	1064
181.572	-1.082	16511	16399	0	1064
181.103	-1.551	16511	16335	0	1064
175.766	-9.340	16458	16271	0	1064
164.046	-18.031	16437	16206	0	1064
159.286	-23.080	16405	16149	0	1064
163.325	-22.142	16384	16100	0	1064
168.806	-13.415	16363	16062	0	1064
174.071	-10.999	16310	16028	0	1064
178.074	-8.294	16310	16017	0	1064
180.130	-8.943	16331	16062	0	1064
182.257	-7.862	16331	16149	0	1064
183.880	-9.448	16363	16218	0	1064
183.411	-11.143	16363	16252	0	1064
179.373	-13.848	16384	16320	0	1064
174.865	-19.473	16405	16418	0	1064
173.747	-17.743	16437	16482	0	1064
176.560	-16.084	16458	16505	0	1064
183.988	-12.369	16490	16550	0	1064
191.958	-8.294	16511	16630	0	1064
196.863	-6.924	16543	16679	0	1064
196.358	-7.032	16543	16683	0	1064
191.958	-6.996	16543	16649	0	1064
183.520	-8.691	16543	16596	0	1064
175.875	-12.550	16543	16539	0	1064
168.951	-19.257	16543	16474	0	1064
165.272	-24.414	16511	16402	0	1064
162.171	-29.535	16458	16328	0	1064
165.813	-30.941	16437	16248	0	1064
168.842	-26.578	16405	16180	0	1064
171.150	-23.765	16363	16115	0	1064
169.275	-21.637	16331	16062	0	1064
166.967	-23.332	16310	16021	0	1064
164.154	-23.945	16257	15986	0	1064
166.318	-23.116	16225	15960	0	1064
170.177	-22.719	16204	15986	0	1064
175.838	-18.103	16204	16055	0	1064
177.209	-17.346	16204	16115	0	1064
176.127	-13.956	16204	16165	0	1064
175.117	-13.559	16225	16244	0	1064
173.963	-12.694	16257	16350	0	1064
174.648	-14.785	16278	16425	0	1064
177.281	-17.490	16310	16478	0	1064
181.608	-17.238	16363	16554	0	1064
186.657	-17.310	16384	16649	0	1064
187.739	-15.398	16405	16706	0	1064
187.270	-18.175	16405	16728	0	1064
179.769	-23.404	16490	16763	0	1064
174.216	-28.237	16511	16816	0	1064
172.449	-27.768	16511	16835	0	1064
177.858	-20.844	16511	16800	0	1064
184.854	-12.477	16543	16740	0	1064
190.263	-7.104	16543	16675	0	1064
188.785	-9.484	16511	16607	0	1064
182.077	-15.218	16511	16528	0	1064
175.983	-24.630	16490	16444	0	1064
174.540	-24.739	16458	16362	0	1064
176.776	-22.142	16405	16275	0	1064
180.779	-17.274	16384	16187	0	1064
180.310	-17.923	16331	16108	0	1064
174.865	-23.837	16278	16040	0	1064
165.561	-33.970	16257	15979	0	1064
158.420	-41.940	16204	15930	0	1064
153.768	-47.025	16172	15903	0	1064
155.680	-45.366	16150	15937	0	1064
159.070	-40.678	16150	16028	0	1064
164.623	-37.036	16204	16108	0	1064
169.059	-31.590	16172	16142	0	1064
172.953	-27.155	16172	16165	0	1064
175.947	-24.919	16172	16229	0	1064
175.261	-24.089	16204	16328	0	1064
173.170	-23.765	16225	16418	0	1064
171.655	-24.378	16278	16528	0	1064
173.963	-22.575	16363	16702	0	1064
181.644	-13.487	16437	16876	0	1064
192.643	-3.390	16490	16971	0	1064
196.286	1.190	16543	16990	0	1064
191.237	0.829	16564	16963	0	1064
180.202	-10.855	16564	16918	0	1064
170.537	-20.808	16596	16854	0	1064
168.734	-25.027	16596	16774	0	1064
177.281	-19.185	16543	16687	0	1064
189.578	-10.242	16564	16596	0	1064
201.370	-1.442	16511	16509	0	1064
206.491	4.111	16490	16421	0	1064
204.436	1.082	16458	16335	0	1064
196.322	-8.294	16437	16248	0	1064
184.061	-16.877	16405	16165	0	1064
174.648	-26.470	16384	16112	0	1064
174.071	-25.712	16384	16127	0	1064
178.543	-19.077	16384	16187	0	1064
182.979	-14.569	16405	16237	0	1064
186.044	-13.992	16405	16256	0	1064
181.140	-20.772	16437	16320	0	1064
175.117	-28.092	16511	16444	0	1064
173.458	-31.554	16543	16562	0	1064
174.360	-28.741	16596	16630	0	1064
178.435	-23.332	16649	16687	0	1064
182.979	-19.113	16703	16763	0	1064
186.116	-18.824	16724	16797	0	1064
187.667	-16.012	16756	16774	0	1064
187.414	-17.418	16756	16713	0	1064
182.690	-17.238	16724	16626	0	1064
175.261	-18.969	16724	16524	0	1064
167.652	-22.106	16703	16418	0	1064
164.623	-26.001	16649	16316	0	1064
164.876	-26.722	16618	16199	0	1064
169.131	-25.929	16564	16085	0	1064
173.927	-19.726	16511	15979	0	1064
176.740	-17.454	16437	15888	0	1064
176.379	-14.677	16384	15805	0	1064
175.658	-16.877	16310	15736	0	1064
172.953	-19.906	16257	15683	0	1064
170.321	-26.470	16225	15664	0	1064
165.344	-32.095	16225	15702	0	1064
161.558	-37.072	16204	15786	0	1064
157.194	-45.005	16172	15858	0	1064
151.749	-50.523	16172	15911	0	1064
148.864	-51.893	16172	15998	0	1064
149.838	-52.939	16172	16119	0	1064
150.775	-49.116	16204	16210	0	1064
151.893	-45.546	16257	16271	0	1064
152.398	-42.265	16257	16358	0	1064
154.742	-37.757	16278	16463	0	1064
153.264	-35.160	16310	16547	0	1064
158.276	-31.626	16310	16596	0	1064
163.217	-28.453	16363	16664	0	1064
169.600	-25.929	16384	16759	0	1064
170.213	-24.198	16437	16812	0	1064
171.763	-24.089	16437	16812	0	1064
168.338	-26.217	16437	16774	0	1064
164.335	-28.056	16437	16721	0	1064
166.679	-25.748	16405	16649	0	1064
169.203	-20.952	16405	16569	0	1064
173.350	-16.697	16384	16490	0	1064
176.812	-12.694	16363	16429	0	1064
175.117	-15.398	16331	16381	0	1064
170.718	-19.437	16310	16331	0	1064
166.859	-23.621	16278	16282	0	1064
164.010	-27.515	16257	16240	0	1064
160.837	-32.239	16225	16203	0	1064
161.846	-35.521	16172	16165	0	1064
159.070	-37.396	16150	16142	0	1064
157.447	-39.993	16150	16176	0	1064
152.723	-43.274	16204	16248	0	1064
147.025	-47.241	16204	16305	0	1064
144.284	-52.074	16204	16339	0	1064
140.281	-53.372	16225	16406	0	1064
137.396	-55.752	16278	16516	0	1064
136.423	-53.768	16310	16600	0	1064
134.367	-54.201	16331	16649	0	1064
133.898	-51.821	16384	16713	0	1064
133.466	-50.415	16437	16789	0	1064
134.908	-45.150	16458	16831	0	1064
133.177	-43.310	16490	16823	0	1064
129.210	-44.032	16511	16797	0	1064
125.748	-47.890	16511	16751	0	1064
122.611	-49.297	16511	16683	0	1064
123.729	-49.982	16511	16611	0	1064
128.633	-45.402	16490	16535	0	1064
133.862	-38.767	16490	16463	0	1064
137.613	-37.721	16458	16391	0	1064
138.911	-39.308	16437	16324	0	1064
138.082	-46.015	16384	16259	0	1064
135.233	-49.838	16363	16199	0	1064
135.016	-54.021	16310	16131	0	1064
133.970	-53.444	16310	16062	0	1064
133.898	-52.578	16278	16024	0	1064
134.656	-51.929	16278	16047	0	1064
136.855	-51.352	16278	16127	0	1064
139.163	-49.946	16278	16184	0	1064
141.363	-47.602	16310	16221	0	1064
141.796	-49.513	16331	16301	0	1064
139.632	-49.802	16405	16452	0	1064
135.449	-52.362	16458	16607	0	1064
131.807	-51.605	16511	16706	0	1064
133.538	-47.097	16564	16778	0	1064
137.036	-41.543	16618	16850	0	1064
140.894	-37.577	16671	16876	0	1064
141.471	-37.541	16671	16838	0	1064
137.937	-40.353	16671	16770	0	1064
134.620	-42.265	16671	16687	0	1064
133.033	-41.363	16618	16596	0	1064
134.115	-40.245	16649	16501	0	1064
136.242	-38.875	16596	16399	0	1064
135.774	-37.432	16543	16301	0	1064
133.429	-38.334	16511	16206	0	1064
131.626	-37.613	16490	16119	0	1064
129.102	-36.134	16437	16040	0	1064
127.587	-37.432	16384	15964	0	1064
127.551	-37.252	16331	15892	0	1064
126.506	-40.389	16310	15839	0	1064
126.325	-42.697	16257	15812	0	1064
120.447	-50.090	16257	15839	0	1064
115.074	-56.004	16225	15907	0	1064
107.321	-64.659	16225	15960	0	1064
103.714	-68.806	16204	16002	0	1064
105.049	-68.734	16278	16085	0	1064
110.710	-62.820	16278	16210	0	1064
115.723	-54.093	16310	16312	0	1064
121.457	-45.691	16310	16384	0	1064
126.722	-39.849	16363	16478	0	1064
124.883	-39.416	16405	16600	0	1064
122.503	-41.435	16437	16679	0	1064
115.939	-45.943	16490	16721	0	1064
111.396	-49.585	16490	16785	0	1064
109.989	-50.162	16564	16861	0	1064
114.172	-46.664	16618	16888	0	1064
117.093	-43.671	16596	16865	0	1064
116.228	-41.147	16618	16819	0	1064
111.576	-42.770	16618	16759	0	1064
101.551	-48.215	16618	16683	0	1064
93.833	-54.273	16618	16607	0	1064
90.660	-54.778	16596	16528	0	1064
92.932	-53.480	16543	16448	0	1064
95.276	-48.972	16511	16362	0	1064
96.899	-48.864	16490	16278	0	1064
92.427	-50.054	16458	16195	0	1064
88.316	-58.781	16405	16127	0	1064
83.484	-63.613	16384	16070	0	1064
81.356	-68.590	16363	16024	0	1064
81.789	-70.501	16331	15998	0	1064
77.461	-69.852	16331	16024	0	1064
73.422	-69.167	16331	16096	0	1064
71.547	-68.698	16331	16153	0	1064
72.016	-66.571	16331	16187	0	1064
76.091	-63.974	16363	16252	0	1064
78.940	-65.128	16384	16343	0	1064
81.320	-67.688	16384	16399	0	1064
77.317	-70.970	16405	16421	0	1064
73.567	-70.537	16437	16467	0	1064
72.449	-65.380	16458	16535	0	1064
73.026	-56.798	16490	16577	0	1064
74.684	-51.497	16490	16573	0	1064
77.281	-46.628	16490	16543	0	1064
78.219	-49.153	16490	16505	0	1064
78.399	-48.612	16458	16456	0	1064
79.589	-47.061	16437	16399	0	1064
78.399	-46.664	16405	16343	0	1064
81.608	-44.573	16384	16271	0	1064
81.464	-41.688	16363	16195	0	1064
81.140	-41.435	16310	16131	0	1064
78.399	-41.616	16257	16074	0	1064
73.891	-44.428	16225	16017	0	1064
68.915	-49.910	16172	15964	0	1064
65.020	-58.853	16119	15918	0	1064
62.532	-65.056	16065	15903	0	1064
57.591	-74.468	16097	15941	0	1064
52.687	-78.723	16097	16032	0	1064
50.090	-77.281	16065	16115	0	1064
52.110	-70.970	16097	16184	0	1064
56.726	-61.269	16119	16301	0	1064
63.433	-50.451	16257	16486	0	1064
67.292	-47.169	16278	16683	0	1064
66.462	-48.936	16363	16823	0	1064
64.767	-49.333	16405	16941	0	1064
61.522	-50.090	16490	17051	0	1064
62.640	-45.041	16511	17111	0	1064
67.508	-37.865	16596	17119	0	1064
70.537	-31.590	16596	17085	0	1064
71.511	-31.302	16618	17024	0	1064
64.948	-38.226	16618	16937	0	1064
57.266	-46.304	16618	16835	0	1064
49.657	-53.624	16596	16721	1	1884
48.035	-54.129	16564	16600	0	1884
45.691	-53.805	16543	16474	0	1884
43.094	-52.290	16490	16369	0	1884
37.829	-56.329	16437	16271	0	1884
34.620	-60.332	16405	16180	0	1884
36.206	-59.611	16384	16096	0	1884
44.104	-57.122	16331	16032	0	1884
51.713	-48.864	16310	16002	0	1884
56.293	-45.474	16310	16028	0	1884
56.293	-45.041	16331	16093	0	1884
52.110	-45.438	16331	16131	0	1884
49.802	-47.999	16331	16153	0	1884
50.595	-48.756	16363	16206	0	1884
57.158	-43.887	16384	16297	0	1884
62.532	-41.507	16405	16358	0	1884
68.698	-38.154	16405	16384	0	1884
69.023	-36.675	16458	16448	0	1884
68.842	-38.803	16490	16543	0	1884
69.528	-38.911	16511	16600	0	1884
76.091	-35.810	16543	16626	0	1884
85.142	-31.013	16596	16672	0	1884
94.591	-24.125	16618	16736	0	1884
95.600	-21.349	16649	16751	0	1884
92.102	-19.365	16649	16710	0	1884
86.296	-24.306	16671	16641	0	1884
80.671	-28.417	16618	16562	0	1884
79.877	-31.771	16618	16471	0	1884
84.746	-33.141	16596	16377	0	1884
87.018	-32.997	16543	16286	0	1884
92.535	-29.823	16511	16203	0	1884
94.122	-26.830	16490	16123	0	1884
94.266	-25.279	16437	16043	0	1884
95.925	-21.673	16384	15971	0	1884
97.620	-19.654	16331	15914	0	1884
100.469	-18.067	16310	15865	0	1884
102.416	-20.447	16257	15823	0	1884
102.380	-24.558	16204	15808	0	1884
99.964	-25.784	16204	15846	0	1884
100.036	-28.886	16204	15930	0	1884
98.738	-27.155	16172	15994	0	1884
102.524	-25.063	16172	16055	0	1884
107.212	-20.339	16204	16153	0	1884
116.264	-16.877	16278	16286	0	1884
126.722	-10.422	16278	16384	0	1884
130.292	-7.970	16278	16444	0	1884
127.299	-9.304	16331	16528	0	1884
121.204	-13.668	16363	16626	0	1884
115.146	-15.795	16384	16687	0	1884
112.982	-17.166	16405	16694	0	1884
113.343	-15.687	16405	16679	0	1884
113.343	-18.211	16405	16656	0	1884
111.251	-19.005	16384	16611	0	1884
112.838	-21.565	16384	16550	0	1884
117.815	-17.490	16363	16471	0	1884
124.739	-12.658	16331	16399	0	1884
127.551	-7.321	16278	16335	0	1884
123.873	-12.514	16257	16278	0	1884
115.002	-20.050	16225	16233	0	1884
108.691	-27.191	16204	16203	0	1884
108.799	-30.112	16172	16176	0	1884
114.749	-23.585	16150	16157	0	1884
127.299	-17.634	16150	16157	0	1884
138.082	-12.910	16150	16210	0	1884
143.383	-14.713	16172	16297	0	1884
145.799	-14.317	16172	16369	0	1884
150.667	-10.674	16204	16414	0	1884
153.588	-4.183	16257	16509	0	1884
159.214	3.462	16331	16679	0	1884
164.263	6.022	16405	16854	0	1884
162.279	5.481	16458	16963	0	1884
162.640	2.633	16543	17047	0	1884
163.036	1.154	16618	17130	0	1884
164.623	3.101	16671	17168	0	1884
171.114	6.780	16724	17138	0	1884
179.733	12.225	16756	17070	0	1884
188.857	20.627	16724	16986	0	1884
194.771	25.712	16756	16884	0	1884
196.502	28.597	16724	16763	0	1884
192.535	27.155	16703	16626	1	316
184.457	20.519	16649	16478	0	316
180.238	15.687	16618	16335	0	316
180.707	11.143	16564	16203	0	316
180.563	11.323	16543	16081	0	316
178.615	8.871	16490	15979	0	316
178.038	5.157	16437	15892	0	316
174.216	0.974	16384	15816	0	316
176.199	-1.767	16363	15774	0	316
179.877	-1.875	16331	15793	0	316
187.523	1.226	16331	15865	0	316
190.840	2.380	16331	15930	0	316
192.319	2.056	16331	15979	0	316
193.112	2.236	16363	16062	0	316
191.165	1.551	16384	16172	0	316
191.453	5.301	16384	16252	0	316
189.758	6.563	16405	16305	0	316
191.598	8.907	16458	16391	0	316
192.896	12.153	16511	16558	0	316
199.207	19.185	16596	16725	0	316
209.809	26.325	16649	16816	0	316
220.050	30.400	16703	16857	0	316
222.935	28.994	16756	16907	0	316
220.159	21.529	16809	16963	0	316
215.110	13.271	16809	16975	0	316
210.638	13.127	16830	16922	0	316
211.107	15.903	16862	16831	0	316
215.435	18.247	16830	16725	0	316
218.103	19.473	16830	16611	0	316
217.959	13.848	16777	16486	0	316
217.129	9.989	16756	16362	0	316
212.514	6.094	16671	16233	0	316
211.107	3.823	16649	16108	0	316
205.301	0.613	16564	15990	0	316
204.364	-2.560	16511	15888	0	316
204.544	-4.219	16458	15808	0	316
208.979	-1.262	16405	15740	0	316
214.497	5.481	16363	15706	0	316
219.365	12.297	16331	15725	0	316
222.719	18.752	16331	15789	0	316
221.349	19.005	16310	15846	0	316
220.772	17.346	16310	15892	0	316
220.627	11.323	16310	15975	0	316
222.070	10.602	16310	16085	0	316
223.224	11.648	16310	16165	0	316
227.047	13.812	16331	16218	0	316
227.119	17.202	16384	16301	0	316
227.551	15.110	16405	16402	0	316
225.748	11.828	16384	16463	0	316
224.342	10.025	16384	16474	0	316
222.431	10.061	16384	16463	0	316
223.476	12.514	16363	16444	0	316
225.856	15.615	16363	16406	0	316
227.047	12.874	16331	16373	0	316
225.388	9.737	16310	16339	0	316
223.765	3.029	16310	16305	0	316
219.149	-2.596	16257	16271	0	316
219.041	-4.075	16225	16237	0	316
220.087	-2.416	16204	16206	0	316
226.974	1.659	16150	16180	0	316
231.302	3.714	16119	16161	0	316
236.387	3.895	16097	16146	0	316
235.341	3.282	16097	16146	0	316
234.836	4.977	16097	16195	0	316
234.583	6.419	16097	16282	0	316
233.754	11.179	16097	16354	0	316
237.793	15.002	16097	16395	0	316
241.363	16.552	16150	16493	0	316
243.527	19.906	16257	16660	0	316
244.068	19.834	16310	16827	0	316
241.580	18.428	16363	16937	0	316
239.308	12.730	16437	17017	0	316
236.062	10.891	16490	17092	0	316
238.514	11.648	16490	17115	0	316
242.553	17.418	16543	17081	0	316
245.763	25.748	16564	17017	0	316
249.116	30.977	16543	16933	0	316
248.900	29.318	16543	16838	0	316
248.359	26.614	16543	16728	0	316
253.264	24.558	16511	16611	0	316
257.483	26.325	16490	16497	0	316
262.027	29.751	16458	16395	0	316
266.102	30.617	16437	16309	0	316
261.053	25.496	16384	16233	0	316
252.506	17.238	16363	16168	0	316
245.366	9.917	16331	16104	0	316
243.058	6.491	16310	16043	0	316
243.707	9.412	16278	16005	0	316
246.484	12.946	16257	16013	0	316
249.441	16.012	16257	16066	0	316
249.405	21.385	16257	16108	0	316
248.936	24.847	16257	16134	0	316
249.008	27.010	16278	16191	0	316
249.621	29.859	16278	16278	0	316
250.559	29.354	16310	16339	0	316
250.775	30.004	16363	16377	0	316
252.074	29.318	16384	16433	0	316
251.280	31.049	16405	16509	0	316
250.487	32.564	16405	16543	0	316
251.713	35.016	16437	16528	0	316
254.886	37.757	16405	16512	0	316
257.194	40.209	16405	16509	0	316
259.286	39.488	16405	16493	0	316
255.680	34.800	16405	16463	0	316
252.074	30.364	16384	16418	0	316
249.693	26.758	16363	16358	0	316
250.270	27.768	16331	16286	0	316
252.795	28.164	16310	16221	0	316
253.264	27.587	16278	16165	0	316
247.926	19.870	16278	16115	0	316
238.226	9.701	16225	16077	0	316
227.191	-1.803	16172	16043	0	316
217.743	-6.852	16150	16005	0	316
216.444	-8.727	16097	15975	0	316
218.247	-6.022	16065	15956	0	316
219.257	-4.688	16012	15949	0	316
223.837	-5.590	16012	15956	0	316
226.902	-6.455	16012	16021	0	316
232.492	-2.921	16012	16127	0	316
240.245	2.272	16044	16210	0	316
244.176	9.484	16044	16278	0	316
243.815	10.169	16065	16381	0	316
240.389	5.626	16119	16505	0	316
237.613	3.065	16150	16596	0	316
237.649	1.623	16172	16649	0	316
243.274	8.114	16225	16717	0	316
249.297	14.425	16278	16800	0	316
252.542	19.978	16310	16846	0	316
253.300	20.339	16331	16842	0	316
251.893	22.142	16331	16816	0	316
249.369	21.096	16331	16774	0	316
247.530	21.926	16331	16721	0	316
247.313	21.565	16310	16656	0	316
249.369	23.693	16310	16581	0	316
253.300	27.876	16278	16505	0	316
258.853	29.499	16257	16429	0	316
258.240	25.784	16225	16362	0	316
249.766	17.995	16204	16301	0	316
239.596	8.799	16172	16252	0	316
226.722	2.236	16172	16206	0	316
221.673	0.541	16119	16161	0	316
222.611	1.226	16097	16134	0	316
227.155	3.570	16097	16161	0	316
236.387	6.058	16119	16244	0	316
241.976	11.035	16150	16324	0	316
245.366	17.995	16172	16384	0	316
244.753	17.706	16225	16482	0	316
242.481	18.139	16331	16660	0	316
242.589	16.300	16405	16842	0	316
250.631	16.480	16490	16960	0	316
258.348	20.591	16564	17047	0	316
263.000	25.712	16649	17126	0	316
263.866	24.955	16703	17157	0	316
254.634	18.536	16724	17130	0	316
241.255	7.429	16756	17062	0	316
229.318	-3.678	16724	16971	0	316
222.791	-8.943	16777	16869	0	316
224.630	-3.714	16756	16759	1	628
234.692	7.537	16756	16645	0	628
245.546	19.870	16724	16535	0	628
250.775	23.296	16724	16425	0	628
247.277	21.818	16671	16316	0	628
240.606	12.405	16649	16206	0	628
234.115	6.455	16596	16104	0	628
230.869	6.022	16564	16017	0	628
236.170	10.891	16543	15937	0	628
244.032	17.959	16458	15873	0	628
251.172	25.532	16437	15812	0	628
254.995	28.705	16405	15767	0	628
255.103	28.345	16363	15729	0	628
251.208	24.162	16331	15717	0	628
248.035	20.555	16363	15770	0	628
246.953	17.526	16331	15877	0	628
246.268	19.834	16331	15971	0	628
243.960	23.729	16363	16043	0	628
240.570	25.207	16384	16142	0	628
234.583	23.873	16405	16259	0	628
231.085	23.837	16437	16335	0	628
226.145	20.411	16437	16354	0	628
225.532	21.349	16405	16354	0	628
223.296	19.185	16405	16343	0	628
219.978	16.769	16384	16320	0	628
214.641	11.215	16384	16290	0	628
215.759	7.825	16363	16256	0	628
221.204	8.799	16331	16221	0	628
229.102	14.028	16278	16184	0	628
241.183	22.863	16257	16138	0	628
243.707	28.092	16204	16096	0	628
240.462	27.299	16150	16058	0	628
232.023	23.080	16097	16017	0	628
224.342	12.586	16044	15983	0	628
218.103	9.232	16044	15956	0	628
217.526	8.691	15991	15952	0	628
219.041	12.081	15938	15968	0	628
221.385	17.382	15906	15994	0	628
225.171	20.772	15959	16047	0	628
225.496	23.080	15938	16153	0	628
226.001	21.926	15959	16290	0	628
225.820	21.313	15959	16399	0	628
224.306	20.880	16012	16482	0	628
226.289	21.168	16044	16584	0	628
228.417	23.621	16097	16713	0	628
231.915	24.486	16119	16816	0	628
231.446	22.719	16225	16884	0	628
232.023	22.142	16257	16975	0	628
228.525	20.483	16331	17077	0	628
229.968	25.640	16384	17142	0	628
232.167	33.357	16405	17149	0	628
233.105	36.603	16437	17115	0	628
230.004	33.826	16458	17058	0	628
224.739	25.135	16458	16982	0	628
218.788	14.930	16458	16903	0	628
215.218	11.576	16437	16823	0	628
220.339	12.730	16458	16740	0	628
225.856	17.382	16458	16649	0	628
228.164	15.795	16405	16550	0	628
231.338	15.398	16384	16452	0	628
228.850	14.389	16363	16362	0	628
225.640	12.694	16331	16271	0	628
223.404	14.497	16331	16191	0	628
222.611	13.704	16310	16142	0	628
226.037	11.432	16331	16146	0	628
228.525	15.903	16310	16195	0	628
233.069	17.346	16310	16237	0	628
233.393	21.998	16331	16256	0	628
232.276	23.188	16363	16316	0	628
230.076	24.955	16437	16448	0	628
232.636	26.902	16490	16596	0	628
236.891	30.292	16511	16698	0	628
239.091	32.059	16618	16778	0	628
237.541	34.872	16671	16861	0	628
235.160	32.636	16703	16895	0	628
228.092	30.472	16756	16861	0	628
227.587	29.138	16756	16785	0	628
227.696	29.751	16756	16691	0	628
232.023	28.633	16724	16581	0	628
231.879	29.102	16703	16467	1	316
229.968	25.171	16671	16354	0	316
224.486	19.185	16596	16244	0	316
221.854	16.012	16596	16131	0	316
219.365	13.884	16511	16028	0	316
220.123	15.002	16490	15941	0	316
221.204	18.752	16437	15877	0	316
217.959	15.218	16384	15823	0	316
211.251	11.576	16331	15767	0	316
203.606	4.219	16310	15744	0	316
198.558	-2.056	16310	15782	0	316
195.925	-4.796	16310	15865	0	316
201.154	-2.669	16278	15930	0	316
206.708	3.931	16278	15968	0	316
215.038	10.422	16331	16047	0	316
215.435	13.956	16331	16161	0	316
216.552	16.408	16363	16244	0	316
215.074	14.713	16363	16297	0	316
214.136	14.930	16384	16373	0	316
214.389	14.281	16437	16482	0	316
216.084	17.057	16458	16565	0	316
218.608	18.283	16458	16592	0	316
222.178	21.241	16490	16588	0	316
227.443	20.591	16458	16565	0	316
228.092	22.539	16437	16535	0	316
227.407	19.870	16437	16505	0	316
223.981	16.552	16437	16467	0	316
220.483	12.802	16405	16421	0	316
217.995	11.215	16384	16373	0	316
221.277	11.468	16363	16316	0	316
219.942	12.441	16331	16252	0	316
219.834	13.631	16278	16184	0	316
217.129	10.278	16225	16123	0	316
212.189	6.347	16204	16070	0	316
210.855	4.472	16204	16036	0	316
211.287	5.229	16150	16013	0	316
213.307	7.645	16097	15998	0	316
217.959	9.124	16065	15994	0	316
218.392	10.278	16044	16005	0	316
218.175	10.278	16065	16066	0	316
218.067	10.494	16065	16172	0	316
219.077	10.494	16065	16263	0	316
217.923	14.136	16065	16331	0	316
222.214	16.012	16119	16421	0	316
223.188	19.437	16204	16547	0	316
226.001	23.152	16204	16641	0	316
230.076	26.506	16225	16710	0	316
229.102	24.883	16278	16800	0	316
227.624	23.801	16331	16899	0	316
221.601	24.017	16384	16956	0	316
216.480	23.404	16405	16963	0	316
211.612	25.063	16437	16933	0	316
211.360	28.741	16437	16888	0	316
210.963	28.705	16437	16827	0	316
209.088	26.073	16437	16763	0	316
207.429	21.204	16437	16691	0	316
203.931	17.274	16437	16615	0	316
200.252	11.828	16405	16531	0	316
200.577	11.396	16384	16444	0	316
200.000	13.091	16363	16362	0	316
202.813	13.451	16331	16282	0	316
206.311	15.471	16310	16214	0	316
208.150	13.271	16257	16157	0	316
207.645	11.720	16225	16119	0	316
206.563	11.287	16257	16138	0	316
202.164	11.396	16257	16206	0	316
200.757	13.631	16257	16256	0	316
200.649	14.461	16278	16286	0	316
200.649	11.107	16310	16343	0	316
198.161	8.799	16331	16429	0	316
195.312	5.157	16363	16490	0	316
189.939	3.498	16405	16512	0	316
187.847	4.075	16405	16573	0	316
192.607	9.304	16490	16706	0	316
194.951	13.704	16564	16842	0	316
201.406	19.690	16618	16907	0	316
198.990	20.736	16671	16922	0	316
193.869	18.897	16724	16945	0	316
184.854	12.369	16756	16975	0	316
176.343	6.491	16809	16963	0	316
173.603	3.029	16830	16899	0	316
175.586	5.193	16830	16804	0	316
178.507	9.556	16830	16691	0	316
176.271	11.864	16777	16565	0	316
167.688	10.999	16777	16437	0	316
151.929	0.036	16703	16316	0	316
138.190	-11.937	16703	16203	0	316
137.757	-19.401	16649	16100	0	316
147.674	-19.546	16618	16021	0	316
166.607	-7.609	16618	15994	0	316
180.851	5.481	16596	16009	0	316
189.578	17.851	16596	16013	0	316
186.513	19.654	16596	16005	0	316
175.550	13.343	16564	16028	0	316
162.315	-0.325	16564	16089	0	316
153.191	-9.845	16596	16131	0	316
151.965	-9.845	16596	16149	0	316
159.863	-0.757	16618	16199	0	316
171.727	14.208	16618	16278	0	316
180.418	20.159	16649	16324	0	316
180.166	18.860	16618	16324	0	316
178.940	11.756	16618	16301	0	316
178.904	9.412	16618	16263	0	316
183.484	14.930	16596	16218	0	316
188.352	21.349	16564	16168	0	316
190.335	26.722	16511	16115	0	316
187.234	21.781	16490	16058	0	316
181.933	16.084	16405	16009	0	316
178.904	11.251	16384	15960	0	316
177.497	9.989	16331	15930	0	316
175.911	7.789	16331	15907	0	316
175.153	4.183	16278	15895	0	316
172.232	-1.226	16225	15892	0	316
173.458	-5.950	16204	15888	0	316
173.530	-6.167	16150	15892	0	316
171.006	-4.652	16119	15903	0	316
164.371	-6.383	16065	15926	0	316
158.204	-9.376	16044	15964	0	316
154.634	-12.081	16097	16047	0	316
158.673	-8.186	16097	16168	0	316
168.987	1.118	16097	16271	0	316
174.107	10.097	16097	16350	0	316
172.232	12.009	16119	16459	0	316
166.102	7.321	16204	16596	0	316
159.322	0.865	16225	16698	0	316
161.991	-0.505	16257	16763	0	316
165.489	5.662	16310	16846	0	316
173.855	14.858	16363	16941	0	316
177.678	21.601	16384	17001	0	316
180.418	24.883	16437	17009	0	316
182.366	25.965	16437	16979	0	316
182.618	19.978	16437	16929	0	316
181.608	13.668	16437	16861	0	316
175.550	6.924	16437	16793	0	316
171.114	1.082	16437	16717	0	316
170.321	0.829	16405	16626	0	316
171.475	1.226	16384	16531	0	316
171.114	0.505	16363	16433	0	316
169.455	-1.803	16310	16347	0	316
166.823	-3.282	16278	16259	0	316
161.991	-3.606	16225	16184	0	316
161.774	-3.642	16204	16119	0	316
165.020	-2.452	16172	16077	0	316
166.138	-0.433	16150	16085	0	316
166.030	1.659	16150	16138	0	316
165.489	4.147	16204	16184	0	316
157.591	2.741	16172	16218	0	316
153.047	-2.633	16225	16305	0	316
151.677	-7.429	16278	16463	0	316
155.536	-6.022	16331	16626	0	316
167.003	2.633	16384	16736	0	316
180.923	12.441	16458	16823	0	316
190.840	22.647	16511	16914	0	316
192.319	22.972	16564	16956	0	316
187.559	18.644	16564	16948	0	316
175.694	8.619	16618	16910	0	316
168.085	2.019	16618	16850	0	316
168.265	0.000	16618	16774	0	316
175.153	3.101	16618	16687	0	316
182.871	10.278	16596	16592	0	316
185.431	11.576	16596	16497	0	316
177.642	6.131	16564	16395	0	316
164.118	-3.642	16543	16297	0	316
153.480	-10.133	16458	16203	0	316
147.854	-9.520	16437	16112	0	316
148.359	-2.993	16384	16028	0	316
152.434	3.534	16363	15956	0	316
156.004	7.934	16310	15907	0	316
156.076	3.534	16310	15911	0	316
152.831	-2.236	16331	15968	0	316
150.018	-8.078	16310	16009	0	316
145.222	-9.340	16310	16036	0	316
145.943	-5.517	16331	16104	0	316
151.172	1.406	16363	16214	0	316
153.660	3.859	16363	16294	0	316
156.149	0.252	16384	16343	0	316
152.578	-5.301	16437	16406	0	316
151.749	-7.898	16458	16493	0	316
156.834	-2.524	16490	16543	0	316
163.036	7.862	16490	16543	0	316
170.465	17.129	16490	16509	0	316
175.370	22.106	16437	16456	0	316
176.055	18.716	16405	16395	0	316
174.360	12.153	16384	16335	0	316
171.980	6.635	16363	16267	0	316
171.439	1.406	16331	16206	0	316
168.085	-1.659	16278	16153	0	316
167.328	-2.957	16278	16100	0	316
164.767	-6.708	16225	16055	0	316
161.666	-12.405	16204	16021	0	316
154.706	-15.615	16150	15998	0	316
151.821	-19.762	16119	15979	0	316
150.487	-18.716	16065	15971	0	316
150.559	-19.582	16044	15968	0	316
152.687	-18.139	16044	15975	0	316
155.572	-19.582	15991	15994	0	316
153.877	-19.798	15991	16032	0	316
153.949	-22.611	15991	16127	0	316
152.434	-25.135	16044	16259	0	316
151.280	-26.181	16044	16377	0	316
154.021	-24.775	16065	16467	0	316
159.611	-22.214	16119	16581	0	316
161.846	-16.048	16172	16713	0	316
162.135	-11.900	16257	16804	0	316
162.532	-7.573	16278	16857	0	316
159.070	-3.678	16331	16922	0	316
159.791	-0.613	16384	17005	0	316
157.519	-0.252	16405	17051	0	316
155.175	-3.390	16437	17036	0	316
150.739	-9.484	16458	16986	0	316
151.280	-14.100	16437	16922	0	316
150.379	-16.805	16458	16838	0	316
149.153	-21.637	16458	16747	0	316
139.308	-28.345	16437	16649	0	316
129.607	-38.298	16384	16550	0	316
120.519	-48.359	16363	16456	0	316
121.854	-50.775	16363	16373	0	316
127.948	-45.150	16331	16290	0	316
136.134	-36.495	16310	16214	0	316
141.111	-28.237	16310	16142	0	316
141.255	-23.404	16225	16081	0	316
140.534	-21.529	16204	16036	0	316
141.363	-20.988	16172	16005	0	316
145.799	-17.238	16119	15979	0	316
150.018	-15.723	16097	15960	0	316
153.768	-14.569	16065	15945	0	316
155.932	-12.550	16065	15949	0	316
154.454	-14.208	16065	16005	0	316
150.920	-12.730	16065	16108	0	316
150.847	-14.677	16097	16214	0	316
149.297	-14.677	16150	16335	0	316
151.352	-13.163	16225	16478	0	316
152.506	-12.333	16257	16588	0	316
157.771	-10.602	16278	16649	0	316
156.942	-10.061	16310	16679	0	316
156.473	-12.946	16331	16687	0	316
152.398	-15.290	16331	16672	0	316
145.691	-20.375	16331	16641	0	316
142.445	-18.824	16331	16603	0	316
142.157	-22.034	16310	16558	0	316
147.313	-20.087	16310	16516	0	316
154.273	-19.906	16278	16467	0	316
157.555	-18.464	16278	16418	0	316
157.014	-21.349	16257	16373	0	316
149.153	-25.965	16225	16320	0	316
138.658	-28.886	16225	16271	0	316
132.095	-31.013	16225	16244	0	316
131.302	-27.191	16225	16278	0	316
138.731	-19.654	16257	16358	0	316
148.035	-10.530	16257	16410	0	316
154.742	-8.979	16278	16448	0	316
158.348	-7.285	16331	16512	0	316
160.620	-8.186	16384	16611	0	316
161.738	-4.760	16405	16672	0	316
163.938	-1.587	16437	16691	0	316
165.344	1.154	16490	16725	0	316
160.188	-0.505	16543	16793	0	316
154.345	-7.212	16564	16819	0	316
147.926	-17.166	16596	16793	0	316
143.960	-21.421	16596	16728	0	316
142.625	-25.207	16564	16653	0	316
140.606	-28.056	16564	16569	0	316
135.701	-29.391	16543	16486	0	316
128.381	-33.321	16511	16399	0	316
123.044	-37.180	16490	16312	0	316
118.139	-39.272	16458	16225	0	316
120.664	-39.740	16437	16138	0	316
123.044	-39.416	16384	16062	0	316
124.450	-35.990	16363	16002	0	316
128.814	-33.213	16331	15952	0	316
136.314	-25.027	16278	15903	0	316
147.566	-15.471	16225	15865	0	316
160.079	-6.419	16204	15839	0	316
164.551	-2.813	16150	15820	0	316
163.036	-5.914	16119	15812	0	316
157.771	-12.441	16119	15827	0	316
154.562	-14.497	16119	15899	0	316
157.086	-13.127	16119	16013	0	316
162.387	-8.727	16119	16112	0	316
164.623	-5.517	16150	16195	0	316
160.151	-7.429	16172	16316	0	316
155.860	-11.612	16257	16459	0	316
150.956	-14.317	16310	16565	0	316
147.710	-14.533	16310	16630	0	316
149.189	-16.552	16363	16710	0	316
151.641	-13.307	16405	16808	0	316
154.490	-10.999	16437	16865	0	316
158.493	-5.698	16458	16873	0	316
162.387	-1.370	16458	16854	0	316
165.633	1.118	16511	16831	0	316
164.046	0.216	16511	16785	0	316
162.748	-1.695	16490	16721	0	316
164.659	-2.236	16458	16641	0	316
170.213	2.019	16458	16554	0	316
177.642	9.196	16437	16474	0	316
182.834	13.992	16405	16399	0	316
178.038	15.146	16384	16335	0	316
170.718	9.232	16363	16271	0	316
166.895	3.570	16331	16210	0	316
173.314	3.282	16310	16161	0	316
182.546	8.691	16278	16134	0	316
189.470	17.887	16278	16165	0	316
187.631	22.431	16310	16237	0	316
179.805	22.106	16331	16290	0	316
173.711	17.779	16363	16316	0	316
174.937	13.956	16384	16381	0	316
179.336	14.028	16405	16467	0	316
183.556	16.625	16437	16528	0	316
181.572	14.569	16458	16554	0	316
175.838	11.107	16490	16600	0	316
166.534	3.029	16511	16660	0	316
162.568	-4.544	16543	16694	0	316
159.863	-7.140	16564	16683	0	316
162.532	-5.950	16564	16641	0	316
165.669	-1.983	16564	16584	0	316
165.885	-0.649	16564	16512	0	316
163.686	-3.426	16543	16440	0	316
157.663	-10.133	16543	16373	0	316
150.523	-17.887	16490	16305	0	316
146.881	-22.142	16458	16233	0	316
147.530	-21.060	16405	16168	0	316
153.732	-16.300	16384	16112	0	316
161.269	-8.979	16363	16062	0	316
164.190	-3.282	16310	16017	0	316
165.921	-3.498	16278	15968	0	316
163.686	-4.544	16257	15945	0	316
159.430	-8.150	16278	15986	0	316
158.276	-11.396	16278	16074	0	316
156.329	-10.061	16278	16142	0	316
154.922	-8.943	16310	16195	0	316
153.372	-7.753	16331	16286	0	316
153.588	-8.222	16363	16402	0	316
150.739	-11.071	16384	16482	0	316
146.556	-16.805	16405	16528	0	316
144.681	-19.618	16437	16584	0	316
142.697	-24.342	16490	16660	0	316
143.887	-23.512	16511	16702	0	316
144.176	-20.483	16511	16694	0	316
146.412	-21.024	16543	16664	0	316
143.455	-20.736	16490	16615	0	316
139.993	-25.135	16490	16562	0	316
138.009	-29.607	16490	16505	0	316
138.262	-29.679	16458	16433	0	316
140.570	-28.417	16437	16354	0	316
143.491	-24.378	16384	16275	0	316
145.835	-23.332	16363	16206	0	316
147.710	-20.303	16331	16146	0	316
153.768	-18.031	16310	16108	0	316
164.046	-12.369	16257	16081	0	316
175.370	-7.248	16225	16055	0	316
180.238	-4.255	16204	16024	0	316
179.697	-5.517	16172	16002	0	316
175.406	-7.501	16150	15986	0	316
174.288	-5.986	16119	15975	0	316
175.947	-3.065	16097	15979	0	316
176.055	-1.839	16065	16036	0	316
166.751	-6.239	16097	16123	0	316
153.191	-17.706	16097	16199	0	316
137.685	-31.626	16119	16263	0	316
129.102	-38.550	16150	16366	0	316
129.066	-40.750	16204	16501	0	316
134.115	-35.990	16225	16619	0	316
139.921	-29.643	16278	16702	0	316
145.294	-24.053	16363	16797	0	316
149.225	-18.500	16405	16910	0	316
151.424	-17.490	16458	16979	0	316
153.444	-16.480	16458	16994	0	316
150.956	-20.050	16490	16979	0	316
145.907	-23.549	16511	16941	0	316
137.072	-29.895	16511	16876	0	316
129.607	-32.528	16511	16793	0	316
127.587	-32.131	16511	16710	0	316
132.564	-27.479	16511	16637	0	316
142.806	-16.084	16511	16569	0	316
153.119	-2.813	16490	16497	0	316
163.686	8.871	16490	16429	0	316
167.364	15.651	16437	16366	0	316
169.960	14.677	16437	16290	0	316
166.498	8.006	16405	16214	0	316
159.827	-1.190	16384	16161	0	316
149.585	-11.251	16384	16161	0	316
143.455	-13.740	16384	16210	0	316
140.498	-12.910	16384	16248	0	316
141.543	-12.297	16405	16275	0	316
143.779	-13.415	16437	16335	0	316
144.356	-15.471	16458	16414	0	316
144.753	-18.933	16458	16467	0	316
144.032	-17.959	16490	16497	0	316
143.743	-17.382	16543	16547	0	316
142.589	-16.625	16596	16615	0	316
139.957	-21.854	16618	16645	0	316
136.639	-27.515	16618	16626	0	316
135.377	-30.833	16649	16584	0	316
133.898	-30.797	16618	16512	0	316
138.731	-27.587	16564	16425	0	316
144.392	-21.854	16564	16343	0	316
149.621	-16.228	16511	16259	0	316
154.886	-13.163	16490	16172	0	316
155.463	-10.097	16458	16096	0	316
154.562	-6.563	16405	16024	0	316
158.709	-3.029	16363	15964	0	316
161.233	-0.397	16331	15914	0	316
161.630	-1.623	16278	15880	0	316
156.365	-6.275	16225	15850	0	316
147.205	-13.415	16204	15846	0	316
140.750	-16.156	16204	15899	0	316
143.924	-14.281	16204	16005	0	316
153.083	-6.708	16225	16096	0	316
163.649	-1.154	16257	16165	0	316
163.577	-2.092	16278	16263	0	316
156.798	-9.412	16310	16387	0	316
144.104	-20.591	16331	16486	0	316
134.583	-26.722	16363	16550	0	316
131.302	-28.056	16405	16630	0	316
133.177	-28.525	16458	16728	0	316
130.869	-27.227	16490	16782	0	316
126.758	-31.843	16511	16785	0	316
121.457	-37.757	16511	16759	0	316
115.326	-43.274	16511	16710	0	316
112.153	-47.926	16511	16645	0	316
114.497	-46.232	16458	16569	0	316
123.260	-39.416	16437	16490	0	316
137.937	-24.162	16405	16410	0	316
157.303	-6.311	16384	16335	0	316
170.898	5.806	16363	16263	0	316
175.478	8.439	16310	16199	0	316
170.177	5.229	16278	16146	0	316
163.938	1.226	16257	16112	0	316
161.342	1.983	16257	16093	0	316
166.354	6.527	16225	16081	0	316
172.160	12.225	16204	16074	0	316
177.786	13.271	16172	16074	0	316
173.999	11.215	16150	16077	0	316
166.246	6.455	16119	16089	0	316
156.149	1.082	16150	16142	0	316
149.621	-4.255	16204	16237	0	316
149.477	-7.501	16172	16316	0	316
150.956	-11.828	16204	16384	0	316
151.316	-12.441	16257	16478	0	316
147.746	-11.251	16278	16603	0	316
144.501	-12.910	16331	16691	0	316
142.661	-11.828	16363	16740	0	316
143.779	-9.629	16405	16804	0	316
147.277	-11.360	16458	16891	0	316
148.648	-9.917	16511	16945	0	316
149.008	-9.701	16543	16941	0	316
148.900	-11.756	16564	16903	0	316
150.703	-14.641	16543	16854	0	316
153.732	-15.146	16596	16785	0	316
153.372	-17.274	16564	16710	0	316
154.273	-15.074	16543	16630	0	316
151.749	-11.540	16543	16550	0	316
150.126	-8.114	16511	16463	0	316
148.756	-4.760	16490	16377	0	316
152.723	-2.236	16458	16286	0	316
154.670	-2.524	16437	16206	0	316
155.031	-3.210	16405	16134	0	316
153.841	-4.039	16363	16074	0	316
147.638	-5.662	16331	16032	0	316
143.527	-8.907	16331	16047	0	316
143.851	-9.556	16331	16104	0	316
146.484	-10.386	16331	16142	0	316
150.162	-12.117	16331	16157	0	316
150.559	-15.254	16363	16206	0	316
146.340	-17.670	16384	16297	0	316
139.163	-23.476	16405	16373	0	316
133.069	-26.001	16437	16418	0	316
131.085	-24.919	16458	16493	0	316
137.216	-21.132	16511	16588	0	316
145.222	-13.163	16543	16649	0	316
157.555	-6.167	16564	16660	0	316
161.089	-3.714	16596	16653	0	316
158.817	-6.131	16618	16637	0	316
148.756	-11.648	16596	16603	0	316
140.209	-18.211	16596	16550	0	316
135.088	-19.510	16564	16486	0	316
135.124	-20.664	16564	16410	0	316
136.891	-20.483	16543	16339	0	316
136.964	-24.630	16490	16256	0	316
133.790	-29.715	16437	16180	0	316
126.001	-32.636	16437	16112	0	316
122.467	-36.964	16405	16066	0	316
117.815	-38.947	16384	16040	0	316
119.041	-37.937	16363	16028	0	316
122.322	-34.656	16363	16062	0	316
131.374	-27.624	16363	16138	0	316
140.642	-16.336	16384	16203	0	316
153.768	-8.475	16384	16244	0	316
161.197	-5.229	16384	16312	0	316
165.200	-6.455	16437	16410	0	316
160.260	-11.756	16458	16486	0	316
155.319	-17.057	16511	16539	0	316
149.730	-18.283	16511	16611	0	316
147.277	-19.437	16564	16706	0	316
144.428	-19.582	16618	16755	0	316
143.238	-22.683	16618	16747	0	316
140.209	-25.388	16649	16717	0	316
141.003	-29.066	16649	16683	0	316
141.147	-28.381	16671	16637	0	316
143.527	-26.037	16618	16577	0	316
140.570	-23.476	16618	16501	0	316
136.134	-23.801	16596	16421	0	316
131.410	-25.496	16564	16347	0	316
128.345	-27.479	16543	16275	0	316
131.374	-28.417	16490	16199	0	316
135.485	-25.929	16490	16123	0	316
143.347	-22.286	16437	16055	0	316
146.412	-18.320	16405	16009	0	316
145.871	-16.913	16363	15979	0	316
141.003	-22.250	16331	15968	0	316
134.620	-26.902	16310	15956	0	316
125.171	-34.259	16310	15952	0	316
120.627	-38.262	16257	15949	0	316
118.356	-35.990	16225	15945	0	316
123.368	-32.095	16172	15945	0	316
128.705	-27.912	16150	15945	0	316
136.026	-22.863	16097	15949	0	316
140.389	-18.788	16097	15971	0	316
139.380	-18.247	16119	16047	0	316
138.262	-16.192	16119	16165	0	316
137.829	-16.733	16150	16282	0	316
136.531	-16.192	16172	16402	0	316
136.062	-18.572	16225	16550	0	316
133.177	-17.923	16257	16664	0	316
129.535	-19.437	16310	16725	0	316
126.506	-19.005	16310	16759	0	316
123.188	-19.690	16331	16766	0	316
123.368	-21.818	16363	16747	0	316
121.709	-21.457	16363	16713	0	316
122.503	-23.116	16363	16675	0	316
123.693	-18.464	16363	16630	0	316
127.047	-16.228	16331	16581	0	316
125.207	-14.569	16331	16528	0	316
121.168	-20.880	16310	16474	0	316
111.937	-29.571	16278	16429	0	316
104.832	-37.937	16257	16384	0	316
104.904	-40.209	16225	16354	0	316
112.405	-35.737	16225	16339	0	316
121.313	-29.102	16257	16373	0	316
130.256	-22.972	16278	16437	0	316
134.872	-20.700	16278	16497	0	316
135.305	-20.303	16310	16531	0	316
139.885	-17.057	16363	16596	0	316
143.563	-13.343	16405	16683	0	316
147.169	-9.737	16437	16736	0	316
149.549	-6.419	16458	16755	0	316
149.116	-5.013	16511	16793	0	316
148.539	-3.318	16564	16842	0	316
150.631	-0.469	16596	16854	0	316
156.617	0.216	16618	16808	0	316
160.079	0.325	16596	16736	0	316
164.118	-1.911	16618	16653	0	316
161.918	-4.977	16564	16558	0	316
159.863	-7.537	16564	16459	0	316
156.329	-8.366	16543	16366	0	316
154.959	-8.439	16511	16275	0	316
151.677	-8.799	16458	16191	0	316
146.736	-13.668	16437	16123	0	316
137.252	-20.087	16405	16055	0	316
128.164	-30.220	16363	15994	0	316
123.909	-35.701	16331	15941	0	316
124.847	-34.006	16310	15903	0	316
132.420	-26.578	16278	15892	0	316
141.832	-17.706	16278	15937	0	316
145.763	-13.668	16278	16036	0	316
144.248	-12.874	16278	16123	0	316
142.337	-17.851	16310	16187	0	316
139.308	-19.437	16331	16275	0	316
138.695	-21.781	16363	16381	0	316
138.947	-20.736	16384	16448	0	316
138.334	-20.159	16405	16490	0	316
138.154	-17.959	16458	16558	0	316
139.524	-16.300	16490	16645	0	316
142.553	-12.946	16543	16698	0	316
146.376	-13.235	16564	16706	0	316
149.261	-14.425	16564	16683	0	316
148.720	-15.038	16564	16641	0	316
147.782	-17.310	16564	16588	0	316
143.166	-17.057	16564	16528	0	316
139.849	-20.267	16543	16456	0	316
131.446	-25.027	16490	16381	0	316
127.010	-29.607	16458	16301	0	316
124.811	-31.626	16437	16225	0	316
124.630	-30.617	16384	16149	0	316
128.201	-27.984	16331	16074	0	316
127.696	-27.443	16310	16009	0	316
126.289	-29.318	16257	15971	0	316
124.522	-31.843	16225	15964	0	316
123.296	-31.518	16257	16013	0	316
129.463	-27.804	16257	16096	0	316
134.223	-22.322	16257	16168	0	316
136.783	-17.093	16278	16214	0	316
136.675	-16.733	16310	16294	0	316
134.980	-18.103	16331	16399	0	316
131.951	-22.431	16363	16474	0	316
129.066	-24.702	16363	16512	0	316
130.328	-19.834	16405	16573	0	316
136.170	-12.405	16437	16660	0	316
144.753	-1.190	16490	16717	0	316
157.194	7.393	16511	16736	0	316
163.325	9.629	16564	16778	0	316
162.027	6.960	16596	16831	0	316
152.038	-1.479	16618	16854	0	316
142.878	-10.566	16618	16823	0	316
135.810	-18.500	16649	16770	0	316
134.295	-20.916	16649	16702	0	316
136.387	-22.431	16618	16622	0	316
138.370	-21.818	16596	16531	0	316
137.937	-21.565	16596	16440	0	316
136.711	-24.739	16543	16358	0	316
136.098	-28.814	16511	16278	0	316
137.649	-28.814	16490	16195	0	316
138.911	-28.128	16437	16112	0	316
140.029	-26.073	16405	16040	0	316
138.442	-22.395	16363	15983	0	316
137.541	-19.041	16331	15941	0	316
134.439	-19.798	16310	15926	0	316
133.213	-21.890	16310	15968	0	316
129.787	-26.938	16310	16058	0	316
126.686	-30.581	16310	16131	0	316
121.962	-33.321	16310	16180	0	316
122.106	-32.744	16363	16267	0	316
121.601	-31.482	16384	16384	0	316
124.414	-32.816	16405	16471	0	316
126.614	-30.004	16437	16528	0	316
132.420	-25.388	16490	16596	0	316
135.882	-21.421	16543	16679	0	316
141.688	-13.595	16564	16721	0	316
144.140	-13.415	16564	16713	0	316
145.979	-14.028	16596	16679	0	316
147.313	-17.887	16596	16622	0	316
146.051	-19.437	16564	16554	0	316
143.130	-23.765	16543	16478	0	316
139.199	-25.676	16490	16399	0	316
135.377	-28.381	16458	16324	0	316
132.131	-30.905	16437	16248	0	316
129.787	-31.158	16405	16184	0	316
131.122	-30.545	16363	16127	0	316
130.833	-31.230	16331	16077	0	316
128.922	-32.384	16310	16036	0	316
125.352	-36.783	16257	15998	0	316
121.854	-40.101	16257	15979	0	316
118.320	-41.003	16257	16021	0	316
120.555	-37.757	16257	16108	0	316
128.705	-32.312	16257	16184	0	316
135.954	-30.653	16278	16240	0	316
136.495	-31.194	16310	16339	0	316
134.800	-33.141	16363	16474	0	316
132.276	-33.069	16405	16588	0	316
133.862	-29.174	16437	16660	0	316
138.442	-22.322	16490	16744	0	316
143.599	-19.726	16543	16838	0	316
145.618	-18.464	16596	16888	0	316
144.753	-20.447	16618	16895	0	316
144.140	-19.618	16649	16910	0	316
147.710	-18.139	16703	16945	0	316
152.110	-13.740	16724	16937	0	316
155.391	-14.785	16724	16873	0	316
155.355	-15.831	16756	16778	0	316
152.362	-21.745	16703	16672	0	316
146.592	-26.902	16671	16554	0	316
137.757	-34.692	16649	16433	0	316
128.056	-42.842	16618	16320	0	316
118.716	-48.035	16596	16214	0	316
113.668	-49.369	16543	16127	0	316
121.565	-42.301	16490	16047	0	316
134.367	-30.833	16437	15979	0	316
148.684	-20.736	16405	15914	0	316
152.398	-19.365	16363	15858	0	316
144.825	-25.243	16310	15805	0	316
131.194	-35.197	16257	15774	0	316
121.349	-40.173	16257	15812	0	316
122.791	-39.308	16278	15907	0	316
127.587	-33.970	16278	15994	0	316
135.449	-27.660	16278	16058	0	316
142.084	-25.243	16310	16149	0	316
144.537	-23.621	16331	16271	0	316
145.799	-22.539	16363	16366	0	316
145.041	-21.926	16363	16421	0	316
145.150	-19.618	16405	16501	0	316
147.602	-15.975	16437	16596	0	316
149.333	-12.838	16458	16656	0	316
155.427	-9.665	16490	16668	0	316
154.382	-9.665	16490	16660	0	316
151.388	-16.372	16490	16634	0	316
145.366	-21.241	16490	16600	0	316
140.317	-27.768	16458	16554	0	316
138.406	-27.587	16437	16486	0	316
137.108	-24.811	16405	16402	0	316
135.737	-24.775	16384	16328	0	316
129.859	-26.650	16331	16263	0	316
125.856	-32.528	16310	16210	0	316
122.972	-38.009	16278	16161	0	316
120.772	-39.921	16257	16112	0	316
123.801	-39.308	16225	16066	0	316
126.253	-35.124	16172	16040	0	316
133.826	-29.463	16172	16066	0	316
140.822	-26.433	16172	16146	0	316
152.254	-19.690	16172	16210	0	316
155.319	-16.084	16172	16248	0	316
152.614	-12.802	16204	16316	0	316
147.746	-14.028	16257	16406	0	316
145.402	-14.353	16278	16474	0	316
146.304	-14.785	16278	16516	0	316
151.893	-17.598	16310	16584	0	316
154.670	-17.923	16363	16683	0	316
152.903	-21.709	16384	16755	0	316
145.979	-24.702	16405	16770	0	316
140.245	-26.145	16437	16751	0	316
139.199	-23.981	16437	16713	0	316
141.976	-19.978	16437	16668	0	316
146.448	-16.733	16405	16615	0	316
147.710	-19.401	16405	16550	0	316
142.120	-21.313	16384	16478	0	316
133.538	-29.210	16363	16410	0	316
123.368	-36.964	16331	16354	0	316
118.283	-42.301	16331	16301	0	316
116.625	-46.592	16278	16252	0	316
116.372	-45.871	16257	16203	0	316
116.516	-45.041	16225	16153	0	316
120.447	-41.688	16204	16123	0	316
121.313	-37.144	16204	16146	0	316
125.568	-30.689	16204	16206	0	316
127.948	-23.404	16204	16256	0	316
128.777	-16.156	16257	16297	0	316
129.138	-16.913	16310	16387	0	316
125.784	-20.519	16363	16562	0	316
124.630	-28.056	16437	16736	0	316
123.801	-28.958	16511	16850	0	316
129.246	-23.945	16596	16937	0	316
132.780	-14.353	16618	17013	0	316
138.045	-8.835	16671	17039	0	316
139.632	-7.501	16703	17005	0	316
136.855	-10.278	16703	16933	0	316
133.826	-13.235	16724	16835	0	316
130.941	-17.346	16671	16717	0	316
121.313	-19.221	16671	16584	1	2944
112.694	-25.929	16618	16452	0	2944
103.750	-32.312	16596	16335	0	2944
100.613	-39.524	16564	16225	0	2944
101.659	-43.166	16511	16127	0	2944
104.868	-47.926	16490	16036	0	2944
107.465	-50.054	16405	15956	0	2944
110.133	-50.667	16363	15884	0	2944
113.884	-45.691	16310	15820	0	2944
117.743	-39.560	16310	15789	0	2944
119.401	-33.898	16310	15820	0	2944
117.093	-32.853	16278	15884	0	2944
109.953	-36.819	16278	15933	0	2944
106.383	-39.740	16257	15964	0	2944
108.258	-40.065	16278	16036	0	2944
113.595	-37.036	16278	16149	0	2944
117.274	-32.889	16310	16244	0	2944
122.575	-30.076	16331	16312	0	2944
120.087	-31.843	16363	16399	0	2944
122.214	-27.840	16405	16505	0	2944
124.739	-23.044	16437	16577	0	2944
129.968	-19.221	16437	16600	0	2944
132.276	-15.290	16490	16641	0	2944
128.056	-19.473	16511	16710	0	2944
123.621	-25.207	16543	16747	0	2944
116.480	-29.571	16564	16740	0	2944
113.415	-32.564	16564	16713	0	2944
110.710	-33.177	16543	16668	0	2944
105.265	-35.810	16543	16607	0	2944
95.528	-40.426	16543	16539	0	2944
79.733	-46.484	16511	16467	0	2944
69.852	-51.929	16490	16391	0	2944
61.017	-55.536	16458	16316	0	2944
60.728	-55.968	16437	16237	0	2944
62.964	-52.651	16384	16165	0	2944
65.344	-47.349	16363	16108	0	2944
63.974	-46.484	16331	16062	0	2944
56.509	-47.097	16278	16028	0	2944
50.631	-51.641	16257	16009	0	2944
45.871	-54.273	16257	16047	0	2944
49.657	-50.270	16278	16134	0	2944
56.690	-43.815	16278	16206	0	2944
63.036	-36.747	16278	16259	0	2944
63.505	-36.928	16331	16343	0	2944
56.401	-40.498	16363	16448	0	2944
51.929	-42.589	16384	16520	0	2944
50.559	-40.678	16405	16558	0	2944
55.463	-31.554	16437	16622	0	2944
60.584	-24.666	16490	16710	0	2944
65.236	-17.995	16511	16755	0	2944
61.666	-22.827	16543	16744	0	2944
55.572	-29.391	16543	16710	0	2944
47.422	-34.692	16543	16660	0	2944
46.592	-36.278	16543	16603	0	2944
50.775	-31.085	16543	16531	0	2944
58.024	-24.089	16511	16448	0	2944
63.469	-21.385	16458	16373	0	2944
62.784	-21.962	16437	16294	0	2944
53.083	-30.833	16405	16214	0	2944
42.589	-39.452	16384	16138	0	2944
33.682	-45.907	16331	16074	0	2944
30.148	-51.677	16310	16021	0	2944
32.131	-55.175	16257	15979	0	2944
37.360	-52.218	16225	15964	0	2944
43.022	-48.900	16225	15998	0	2944
44.609	-44.032	16225	16074	0	2944
41.724	-39.380	16225	16142	0	2944
38.514	-40.714	16204	16180	0	2944
37.432	-41.904	16204	16218	0	2944
41.507	-42.012	16225	16282	0	2944
47.097	-35.665	16278	16369	0	2944
52.146	-27.984	16310	16448	0	2944
53.408	-24.270	16363	16562	0	2944
52.975	-25.135	16437	16740	0	2944
52.903	-28.705	16511	16914	0	2944
53.949	-31.554	16596	17009	0	2944
55.031	-30.292	16618	17047	0	2944
55.572	-24.125	16703	17096	0	2944
55.788	-22.899	16756	17153	0	2944
59.034	-22.286	16777	17149	0	2944
60.692	-26.073	16809	17077	0	2944
61.702	-30.328	16809	16967	0	2944
60.837	-33.538	16809	16842	0	2944
54.093	-38.586	16809	16710	1	332
48.684	-42.193	16756	16573	0	332
42.734	-49.261	16724	16440	0	332
35.810	-54.526	16671	16312	0	332
32.997	-59.611	16618	16187	0	332
29.751	-61.053	16596	16081	0	332
33.610	-57.483	16564	16028	0	332
41.760	-51.605	16543	16021	0	332
50.667	-42.445	16511	16009	0	332
58.745	-35.810	16511	15994	0	332
63.613	-32.095	16511	16017	0	332
61.125	-32.564	16511	16074	0	332
62.532	-33.321	16511	16112	0	332
64.876	-31.338	16543	16127	0	332
70.573	-28.958	16543	16168	0	332
73.206	-25.171	16564	16244	0	332
71.547	-26.650	16564	16297	0	332
65.849	-30.292	16564	16320	0	332
61.774	-35.160	16596	16373	0	332
62.604	-36.639	16649	16444	0	332
66.390	-33.393	16649	16486	0	332
69.888	-27.660	16649	16471	0	332
69.383	-24.883	16618	16425	0	332
65.092	-26.506	16596	16369	0	332
62.423	-31.230	16564	16297	0	332
61.305	-37.216	16543	16218	0	332
61.089	-41.039	16490	16134	0	332
59.142	-44.537	16458	16051	0	332
56.581	-47.530	16384	15975	0	332
49.044	-50.090	16331	15899	0	332
46.772	-55.067	16278	15827	0	332
45.041	-54.201	16225	15782	0	332
47.566	-52.651	16172	15767	0	332
52.687	-48.539	16119	15767	0	332
54.850	-48.684	16065	15786	0	332
58.240	-45.366	16119	15842	0	332
61.666	-45.222	16065	15949	0	332
65.020	-43.924	16065	16043	0	332
70.393	-39.235	16065	16134	0	332
75.045	-33.177	16097	16259	0	332
77.281	-28.489	16172	16406	0	332
78.002	-27.804	16172	16516	0	332
78.327	-24.162	16204	16588	0	332
77.786	-26.614	16257	16683	0	332
78.579	-27.155	16310	16797	0	332
77.028	-30.292	16331	16861	0	332
75.514	-30.941	16331	16865	0	332
71.763	-33.754	16363	16838	0	332
71.799	-34.223	16363	16797	0	332
73.242	-35.160	16331	16747	0	332
76.055	-37.793	16331	16687	0	332
73.350	-43.887	16310	16622	0	332
66.895	-52.651	16278	16554	0	332
59.935	-57.266	16257	16482	0	332
55.103	-61.305	16257	16418	0	332
54.814	-60.224	16257	16358	0	332
60.368	-56.221	16172	16290	0	332
64.623	-55.860	16150	16225	0	332
67.472	-52.831	16097	16168	0	332
67.472	-55.103	16065	16134	0	332
66.715	-53.264	16065	16157	0	332
67.688	-51.641	16097	16221	0	332
71.727	-47.277	16097	16271	0	332
75.802	-46.484	16097	16301	0	332
78.255	-48.179	16119	16377	0	332
74.901	-50.451	16204	16528	0	332
71.078	-53.516	16257	16694	0	332
69.996	-50.379	16331	16816	0	332
72.521	-45.258	16405	16926	0	332
83.267	-37.396	16490	17039	0	332
93.184	-30.184	16543	17100	0	332
102.200	-27.047	16564	17085	0	332
106.275	-24.053	16564	17017	0	332
106.347	-24.017	16596	16922	0	332
102.488	-24.234	16564	16812	0	332
102.993	-23.549	16564	16698	0	332
107.357	-20.519	16543	16573	0	332
111.071	-21.745	16511	16452	0	332
114.317	-24.594	16490	16339	0	332
111.756	-29.679	16437	16233	0	332
109.340	-33.790	16384	16146	0	332
110.025	-32.312	16363	16081	0	332
115.543	-26.578	16331	16028	0	332
124.702	-17.923	16310	15986	0	332
130.689	-12.045	16278	15960	0	332
132.492	-8.006	16278	15983	0	332
128.633	-10.963	16278	16047	0	332
122.358	-15.759	16278	16096	0	332
120.808	-18.716	16278	16123	0	332
121.060	-21.385	16310	16172	0	332
126.181	-20.339	16331	16259	0	332
130.040	-17.454	16331	16328	0	332
131.338	-21.096	16363	16366	0	332
130.725	-23.837	16384	16418	0	332
130.833	-25.207	16405	16482	0	332
138.875	-21.818	16405	16512	0	332
149.116	-12.369	16437	16505	0	332
161.197	-4.688	16458	16531	0	332
165.417	-2.885	16490	16588	0	332
161.378	-9.953	16511	16615	0	332
150.523	-17.274	16511	16588	0	332
141.255	-27.335	16511	16539	0	332
135.918	-30.040	16490	16474	0	332
135.521	-31.807	16458	16402	0	332
137.252	-32.961	16437	16339	0	332
138.478	-34.620	16384	16275	0	332
141.255	-32.744	16363	16214	0	332
143.347	-29.787	16331	16161	0	332
145.294	-23.512	16331	16119	0	332
144.861	-17.670	16278	16074	0	332
146.556	-14.858	16257	16036	0	332
150.631	-10.999	16225	16002	0	332
156.004	-8.366	16172	15971	0	332
164.948	-3.462	16150	15964	0	332
170.285	-1.082	16150	16013	0	332
166.282	-2.200	16150	16119	0	332
161.702	-7.789	16150	16206	0	332
158.384	-10.206	16225	16271	0	332
159.214	-9.484	16225	16362	0	332
168.229	-1.983	16257	16471	0	332
177.605	7.321	16278	16550	0	332
183.267	12.946	16310	16603	0	332
183.844	15.543	16363	16675	0	332
179.950	11.828	16405	16766	0	332
179.373	9.881	16437	16812	0	332
179.877	7.321	16458	16808	0	332
181.248	4.760	16458	16778	0	332
182.149	3.895	16490	16740	0	332
183.267	0.793	16458	16683	0	332
182.402	-0.829	16458	16600	0	332
179.625	-3.570	16437	16509	0	332
179.517	-5.193	16405	16414	0	332
177.533	-7.104	16363	16328	0	332
173.458	-11.071	16331	16248	0	332
169.023	-15.615	16278	16176	0	332
165.272	-18.500	16257	16108	0	332
160.440	-21.277	16204	16043	0	332
159.827	-21.529	16150	15986	0	332
164.984	-20.627	16119	15941	0	332
168.446	-19.221	16065	15907	0	332
171.980	-19.762	16044	15884	0	332
173.530	-20.844	15991	15865	0	332
172.845	-16.733	15959	15869	0	332
175.622	-15.038	15959	15933	0	332
182.907	-6.058	16012	16047	0	332
196.430	5.337	15991	16149	0	332
208.799	13.559	15991	16240	0	332
219.293	20.627	16044	16362	0	332
222.863	20.231	16097	16509	0	332
219.546	17.310	16150	16626	0	332
216.805	11.360	16172	16683	0	332
