neuroNicle FX2
D3F25R12
Bluetooth SPP
2023년 11월 12일 일요일
오후 4:14
time interval = 4msec
EEG1	EEG2	PPG	sdPPG	pulse	peak_interval(msec)
-0.685	-1.947	16384	17666	0	432
-0.865	0.505	16972	18114	0	432
-1.010	0.865	16972	18563	0	432
-1.767	-1.623	17854	18755	0	432
-4.111	-5.770	17854	18627	0	432
-6.527	-9.088	17854	18435	0	432
-9.340	-8.799	17854	18242	0	432
-11.071	-7.501	17854	17986	0	432
-12.586	-5.157	17854	17537	1	860
-12.405	-5.013	16972	17089	0	860
-10.422	-4.688	16972	16640	0	860
-8.583	-4.400	16972	16256	0	860
-7.465	-2.705	16384	15808	0	860
-7.176	-1.875	16384	15359	0	860
-6.996	-2.957	15796	14910	0	860
-7.789	-4.904	14914	14461	0	860
-6.419	-6.203	14914	14205	0	860
-6.311	-5.013	14914	14205	0	860
-6.275	-2.741	14914	14461	0	860
-5.842	1.947	14914	14846	0	860
-5.950	5.301	14326	15038	0	860
-4.291	8.835	14326	15167	0	860
-3.246	10.386	14326	15487	0	860
-1.947	11.973	14914	16256	0	860
-1.659	11.937	15796	17089	0	860
-2.056	10.314	15796	17730	0	860
-1.262	9.304	16384	18307	0	860
-0.108	8.006	16972	19012	0	860
0.793	6.311	17854	19589	0	860
0.577	2.813	17854	19717	0	860
0.072	0.613	18442	19717	0	860
-0.865	-0.469	19325	19973	0	860
-0.649	-0.505	19325	20101	0	860
0.036	-0.721	19325	19973	0	860
0.000	-0.541	19913	19460	0	860
-0.902	-0.397	19913	18884	0	860
-0.505	0.288	19325	18178	0	860
0.505	2.092	19325	17473	0	860
0.757	2.741	19325	16896	0	860
0.252	1.154	19325	16384	0	860
-1.839	-3.173	17854	15743	0	860
-3.101	-6.599	17854	15038	0	860
-2.272	-8.078	16972	14397	0	860
0.577	-6.275	16384	13884	0	860
3.967	-2.344	16384	13500	0	860
5.914	2.741	15796	13115	0	860
6.527	5.481	15796	12923	0	860
4.760	6.960	14914	12795	0	860
1.947	5.121	14914	12795	0	860
-0.757	4.508	14326	12795	0	860
-3.318	3.714	14914	12859	0	860
-4.868	5.590	14326	12923	0	860
-5.013	6.203	14326	13372	0	860
-6.852	6.419	14326	14013	0	860
-6.780	8.439	14326	14590	0	860
-6.022	8.655	14326	14974	0	860
-6.131	11.143	14326	15423	0	860
-4.616	11.143	14914	16064	0	860
-3.534	11.432	14914	16448	0	860
-2.705	11.360	14914	16640	0	860
-2.488	11.540	14914	16704	0	860
-2.019	14.028	14914	16768	0	860
-3.101	16.913	14914	16896	0	860
-5.409	18.067	14914	17153	0	860
-6.599	18.103	14914	17281	0	860
-8.943	16.877	14914	17281	0	860
-8.583	16.336	14914	17281	0	860
-9.484	16.084	14914	17345	0	860
-8.258	16.408	14914	17345	0	860
-8.114	16.228	14914	17217	0	860
-6.996	13.668	14326	17025	0	860
-7.573	11.323	14326	16896	0	860
-7.357	9.556	14326	16704	0	860
-7.429	8.655	14326	16448	0	860
-8.583	9.520	14326	16256	0	860
-7.537	9.665	14914	16064	0	860
-5.806	10.963	14326	16000	0	860
-3.678	11.323	14326	16256	0	860
-2.380	10.494	14326	16512	0	860
-2.741	8.439	14326	16832	0	860
-5.554	6.022	14914	17409	0	860
-5.878	4.364	15796	18371	0	860
-4.616	5.950	16384	19268	0	860
-2.452	6.167	16972	19717	0	860
-1.190	5.698	16972	19845	0	860
-2.019	5.626	17854	20166	0	860
-3.498	4.327	18442	20486	0	860
-5.517	3.823	19325	20486	0	860
-4.977	5.301	19325	20101	0	860
-5.914	5.193	18442	19717	0	860
-7.212	5.590	19913	19396	1	328
-8.583	4.688	19325	19012	0	328
-10.169	4.940	19325	18499	0	328
-9.701	2.669	19325	17922	0	328
-8.619	1.010	19325	17409	0	328
-5.590	-0.361	19325	16896	0	328
-3.426	-1.695	19325	16384	0	328
-2.488	-2.200	18442	15808	0	328
-3.354	-1.731	18442	15167	0	328
-4.039	-0.938	17854	14590	0	328
-6.527	0.144	17854	14013	0	328
-7.970	1.118	16972	13436	0	328
-9.556	0.433	16384	12987	0	328
-12.477	0.757	16384	12667	0	328
-14.389	0.180	15796	12602	0	328
-13.884	1.334	15796	12923	0	328
-12.586	2.777	16384	13692	0	328
-12.874	3.498	16384	14654	0	328
-13.163	2.524	16972	15423	0	328
-13.920	2.019	16972	16064	0	328
-13.884	2.164	17854	16640	0	328
-11.504	3.859	18442	17153	0	328
-7.573	6.708	18442	17281	0	328
-3.787	9.953	18442	17025	0	328
-2.092	11.973	17854	16576	0	328
-3.210	13.127	17854	16256	0	328
-6.708	11.287	17854	15808	0	328
-10.314	10.025	16972	15423	0	328
-13.415	9.340	16972	15038	0	328
-10.602	8.583	16384	14526	0	328
-6.094	10.999	15796	13949	0	328
-0.613	13.054	14914	13500	0	328
1.334	13.379	14914	13179	0	328
-0.865	12.514	14326	13115	0	328
-4.652	7.934	14326	13243	0	328
-9.592	4.652	13443	13564	0	328
-11.432	1.370	13443	13884	0	328
-10.999	1.082	13443	14205	0	328
-8.294	2.813	13443	14461	0	328
-6.599	5.049	12855	14718	0	328
-5.914	6.852	12855	14846	0	328
-7.501	6.780	12855	15167	0	328
-8.042	6.527	12855	15743	0	328
-6.131	8.475	12855	16448	0	328
-2.957	9.556	13443	17281	0	328
0.757	12.586	14914	18499	0	328
2.128	14.858	15796	19781	0	328
1.082	14.785	16972	20742	0	328
1.479	14.677	17854	21319	0	328
3.534	14.677	18442	21832	0	328
8.078	14.208	18442	22345	0	328
10.206	14.245	19325	22473	0	328
11.107	14.641	19325	22217	0	328
8.727	13.091	19913	21768	0	328
7.465	13.776	19913	21319	0	328
6.094	14.353	19913	20614	0	328
8.907	14.821	19913	19781	0	328
9.881	15.939	19913	18819	0	328
9.953	17.057	19913	17858	0	328
7.429	16.769	19325	17025	0	328
5.481	17.490	19325	16384	0	328
3.642	18.211	19325	15615	0	328
5.337	20.050	18442	14846	0	328
10.494	23.404	16972	14141	0	328
13.776	25.568	16972	13436	0	328
15.687	27.768	16384	13051	0	328
14.533	27.299	16384	13051	0	328
11.720	27.191	16384	13243	0	328
7.068	25.532	16384	13436	0	328
5.590	26.578	16384	13756	0	328
3.895	25.784	16384	14397	0	328
3.859	26.037	16384	15102	0	328
2.669	25.135	16384	15231	0	328
3.246	22.575	16384	15102	0	328
4.003	22.214	16384	15231	0	328
6.419	23.873	16384	15551	0	328
11.251	28.814	16384	15679	0	328
16.480	36.459	16384	15615	0	328
19.041	40.534	16384	15487	0	328
17.490	39.380	16384	15295	1	316
12.441	33.790	15796	15038	0	316
5.698	26.650	15796	14782	0	316
-1.226	22.935	14914	14590	0	316
-3.534	22.863	15796	14397	0	316
-1.226	26.938	14914	14205	0	316
4.219	30.004	14914	14077	0	316
8.511	31.158	14326	14077	0	316
11.287	29.138	13443	13949	0	316
7.032	23.044	13443	13692	0	316
-1.154	15.182	12855	13372	0	316
-6.167	11.504	11973	13179	0	316
-7.176	11.287	11384	13115	0	316
-4.400	16.120	10502	13115	0	316
-1.479	20.375	10502	13115	0	316
-3.534	19.762	9914	13179	0	316
-9.376	14.569	11384	13628	0	316
-15.038	9.448	10502	14526	0	316
-16.589	5.914	10502	15487	0	316
-15.182	6.455	11384	16512	0	316
-12.009	9.989	11973	17922	0	316
-10.927	12.117	12855	19332	0	316
-11.648	15.002	12855	20166	0	316
-10.458	16.480	13443	20550	0	316
-10.097	15.975	13443	20678	0	316
-7.501	15.579	14914	20742	0	316
-6.203	15.326	14914	20678	0	316
-5.950	15.002	14914	20422	0	316
-7.357	16.661	14914	20037	0	316
-6.599	18.933	14914	19717	0	316
-4.291	21.637	14914	19332	0	316
-0.469	26.325	14914	18948	0	316
1.947	28.814	14914	18371	0	316
1.911	29.210	14914	17858	0	316
-1.154	24.739	14326	17345	0	316
-4.147	20.014	14326	16896	0	316
-5.121	17.959	14326	16640	0	316
-1.659	20.519	14326	16512	0	316
2.885	24.955	14326	16512	0	316
5.481	28.741	14326	16384	0	316
6.419	26.830	14326	16384	0	316
2.741	24.198	14326	16576	0	316
-2.380	20.555	14326	17089	0	316
-6.708	19.293	14914	17601	0	316
-10.566	19.870	15796	18114	0	316
-10.530	21.277	16384	18948	0	316
-9.881	23.837	16972	19653	0	316
-6.960	24.270	17854	19909	0	316
-5.878	24.991	18442	19973	0	316
-3.895	25.243	18442	20101	0	316
-3.714	23.729	19325	20294	0	316
-3.210	23.512	19913	20358	0	316
-4.760	23.080	20795	20101	0	316
-5.481	22.755	20795	19717	0	316
-5.914	23.585	20795	19204	0	316
-5.590	24.702	21384	18627	0	316
-2.380	26.578	21384	17922	0	316
-1.046	29.210	19913	17153	0	316
-2.633	28.489	19913	16320	0	316
-5.914	26.289	19913	15487	0	316
-11.251	23.368	19325	14846	0	316
-13.487	19.906	19325	14269	0	316
-13.271	20.339	18442	13564	0	316
-8.907	23.657	17854	12795	0	316
-2.236	29.679	17854	12154	0	316
2.596	31.843	16972	11577	0	316
2.092	29.895	16384	11192	0	316
-3.426	23.729	15796	10936	0	316
-10.891	15.182	15796	10936	0	316
-17.129	11.828	14914	10936	0	316
-17.562	12.189	14914	11192	0	316
-15.651	16.012	14326	11705	0	316
-12.766	18.897	14326	12282	0	316
-10.566	21.204	14914	13179	0	316
-7.825	21.565	14914	14526	0	316
-5.013	22.863	15796	16000	0	316
-5.373	20.231	16384	16832	0	316
-8.006	16.120	16384	17281	0	316
-14.533	10.638	16972	17537	0	316
-20.231	5.481	16972	17794	0	316
-22.755	5.193	16972	17922	0	316
-22.250	5.337	16972	17794	0	316
-21.890	5.698	16972	17473	0	316
-21.601	5.229	16972	17153	0	316
-23.368	3.426	16384	16768	0	316
-22.142	4.111	16384	16384	0	316
-18.139	6.780	15796	16128	0	316
-13.199	11.684	15796	15743	0	316
-8.042	16.192	14914	15295	0	316
-6.383	16.805	14914	14974	0	316
-9.881	16.300	14326	14782	0	316
-12.982	12.982	14326	14782	0	316
-16.084	9.737	13443	14782	0	316
-15.543	9.989	13443	14782	0	316
-12.910	11.720	13443	14846	0	316
-11.251	13.054	14326	15167	0	316
-10.999	13.920	14326	15615	0	316
-13.054	12.514	14326	16128	0	316
-14.317	13.343	14326	16640	0	316
-10.097	15.146	14914	17281	0	316
-5.013	18.428	14914	17858	0	316
0.000	19.257	15796	18435	0	316
0.252	15.759	16384	19140	0	316
-5.013	8.439	16972	19909	0	316
-10.710	0.000	17854	20422	0	316
-13.704	-4.400	17854	20550	0	316
-11.360	-4.075	18442	20358	0	316
-6.311	-2.993	18442	20101	0	316
-2.921	-1.082	18442	19909	0	316
-2.380	-1.731	19325	19653	0	316
-4.652	-3.065	19325	19332	0	316
-6.563	-4.219	18442	18755	0	316
-7.104	-2.813	18442	18050	0	316
-4.400	-0.577	17854	17409	0	316
1.370	2.380	17854	16768	0	316
5.878	4.760	17854	16256	0	316
8.799	5.662	16972	15679	0	316
9.701	4.580	16972	15167	0	316
7.212	2.993	16972	14718	0	316
5.085	0.757	16972	14718	0	316
3.318	0.325	16972	15038	0	316
4.219	1.334	16972	15102	0	316
5.445	2.164	16972	15038	0	316
9.232	2.488	16972	15231	0	316
10.819	1.983	16972	15487	0	316
13.127	2.669	16972	15615	0	316
15.939	3.895	16972	15551	0	316
18.175	8.763	16972	15679	0	316
21.565	12.333	16972	15936	0	316
25.460	15.398	16972	16064	0	316
28.020	17.418	16972	16000	0	316
29.246	17.202	16972	15743	0	316
28.994	16.264	16972	15423	0	316
26.686	15.471	16384	15038	0	316
24.955	14.677	16384	14718	0	316
24.486	13.668	15796	14526	0	316
25.568	14.713	15796	14269	0	316
28.850	14.894	14914	14141	0	316
31.590	14.245	14914	14013	0	316
30.869	12.225	14326	13884	0	316
30.004	8.294	14326	13820	0	316
29.463	6.708	13443	13884	0	316
32.312	6.852	13443	13949	0	316
35.990	10.783	13443	14141	0	316
42.445	15.579	13443	14718	0	316
44.428	18.860	13443	15551	0	316
44.428	19.077	14914	16320	0	316
42.589	15.903	14914	16832	0	316
40.065	11.792	15796	17537	0	316
39.344	8.547	16384	18627	0	316
38.154	6.455	16972	19589	0	316
37.685	6.744	17854	20166	0	316
39.019	8.186	18442	20742	0	316
40.714	11.864	18442	21448	0	316
44.140	13.271	19325	21896	0	316
44.068	12.838	19913	21832	0	316
41.399	10.061	19913	21576	0	316
36.170	5.445	20795	21191	0	316
32.420	2.308	20795	20678	0	316
32.889	4.400	20795	19973	1	636
37.360	7.032	20795	19140	0	636
39.632	6.671	20795	18371	0	636
37.793	3.210	19913	17666	0	636
31.482	-3.318	20795	17025	0	636
26.722	-9.953	19325	16384	0	636
24.919	-9.088	19325	15615	0	636
28.092	-5.590	18442	14910	0	636
31.951	-0.685	18442	14269	0	636
31.915	0.541	18442	13949	0	636
30.328	-0.757	18442	14013	0	636
27.263	-3.678	18442	14269	0	636
22.431	-5.373	18442	14461	0	636
20.736	-4.868	18442	14590	0	636
17.779	-5.554	18442	14974	0	636
15.435	-5.337	19325	15487	0	636
15.471	-5.878	19325	15679	0	636
15.182	-7.104	19325	15615	0	636
16.625	-6.671	19325	15615	0	636
16.841	-6.275	19325	15679	0	636
17.274	-7.573	19325	15679	0	636
17.166	-8.330	18442	15487	0	636
14.966	-10.783	18442	15423	0	636
12.622	-11.756	18442	15615	0	636
12.622	-11.143	18442	15679	0	636
13.127	-8.150	18442	15487	0	636
16.012	-3.678	17854	15295	0	636
18.716	-0.721	17854	15102	0	636
19.726	0.180	17854	14846	0	636
19.329	-0.397	16972	14461	0	636
18.572	-0.144	16972	14141	0	636
19.329	1.154	16384	13884	0	636
20.736	2.921	15796	13692	0	636
23.657	4.111	15796	13500	0	636
24.162	4.400	14914	13372	0	636
23.260	2.560	14326	13243	0	636
23.440	2.344	14326	13179	0	636
21.457	2.596	13443	13115	0	636
21.277	3.210	12855	13115	0	636
19.870	4.039	12855	13308	0	636
19.077	3.678	13443	13692	0	636
18.464	5.049	12855	13949	0	636
20.808	6.167	12855	14141	0	636
23.693	7.645	12855	14654	0	636
23.729	7.970	12855	15679	0	636
20.952	4.652	13443	16640	0	636
14.569	-0.433	13443	17409	0	636
9.016	-4.111	14326	18178	0	636
8.907	-4.183	14914	19012	0	636
11.612	0.649	14914	19653	0	636
18.031	6.599	15796	20101	0	636
21.204	11.215	15796	20294	0	636
21.385	11.684	16384	20294	0	636
18.247	8.511	16384	20101	0	636
15.038	3.282	16384	19781	0	636
13.631	-0.469	16384	19332	0	636
15.831	-1.334	16384	18819	0	636
16.877	-0.288	15796	18307	0	636
16.913	2.741	15796	17858	0	636
15.795	5.554	15796	17601	0	636
13.271	7.393	15796	17345	0	636
13.451	7.393	15796	17025	0	636
13.668	7.104	14914	16576	0	636
15.507	7.104	14914	16256	0	636
15.471	5.806	14914	16192	0	636
13.740	5.337	14914	16320	0	636
13.271	4.796	14914	16384	0	636
12.405	5.085	14914	16384	0	636
13.199	2.993	16384	16512	0	636
12.405	1.911	16384	16896	0	636
10.494	-0.505	16384	17153	0	636
6.671	-1.334	16972	17345	0	636
4.508	-0.757	16972	17794	0	636
3.137	2.272	16972	18499	0	636
5.085	6.311	17854	19204	0	636
6.563	7.681	18442	19525	0	636
8.691	7.898	19325	19525	0	636
6.239	6.527	19325	19653	0	636
3.390	3.895	19913	19845	0	636
-0.757	1.839	20795	19781	0	636
-2.344	2.164	20795	19332	0	636
-1.587	5.481	20795	18691	0	636
2.452	8.114	20795	17922	0	636
7.357	11.756	20795	17025	0	636
8.078	12.045	19913	16192	0	636
6.275	10.061	19913	15487	0	636
1.442	5.914	18442	14846	0	636
-2.777	5.770	18442	14333	0	636
-3.534	6.022	17854	13756	0	636
-4.111	7.573	17854	13243	0	636
-2.452	9.989	16972	12859	0	636
-1.442	10.458	16384	12474	0	636
0.685	14.028	16384	12282	0	636
5.662	20.844	15796	12282	0	636
11.504	27.587	15796	12410	0	636
12.225	30.472	15796	12602	0	636
7.501	28.597	14914	12859	0	636
-0.757	22.178	14914	13243	0	636
-7.537	17.815	15796	13884	0	636
-8.006	19.077	15796	14782	0	636
-4.832	22.106	15796	15551	0	636
0.072	25.820	16384	16384	0	636
2.921	24.883	16972	17601	0	636
1.983	21.349	18442	18819	0	636
-1.947	16.084	18442	19396	0	636
-7.537	11.143	19325	19460	0	636
-11.648	9.376	19325	19140	0	636
-12.910	13.163	19325	18627	0	636
-8.330	18.608	19325	18050	0	636
-1.118	27.263	18442	17537	0	636
4.688	31.049	18442	16832	0	636
6.275	30.653	17854	16128	0	636
2.813	28.056	16972	15295	0	636
0.180	23.729	16972	14654	0	636
-2.488	23.440	16384	14013	0	636
-2.200	23.549	15796	13500	0	636
-1.262	23.801	14914	13051	0	636
-0.902	23.801	14326	12667	0	636
-2.993	24.053	13443	12346	0	636
-5.157	25.424	12855	12218	0	636
-5.698	28.164	12855	12154	0	636
-5.770	29.715	11973	12218	0	636
-2.993	29.391	11384	12474	0	636
-1.442	27.407	11384	13115	0	636
-0.325	23.693	11973	13884	0	636
-0.397	22.539	11973	14526	0	636
1.154	22.575	12855	15359	0	636
3.065	24.342	12855	16576	0	636
5.445	24.378	13443	17730	0	636
4.796	21.854	13443	18499	0	636
2.272	17.490	14326	18884	0	636
-2.200	13.271	14914	19460	0	636
-5.013	11.251	15796	20166	0	636
-590.840	212.117	644	65534	0	354
26.361	27.083	21384	14397	0	644
26.217	24.234	20795	13756	0	644
26.181	20.844	20795	13372	0	644
23.440	16.949	19913	13243	0	644
19.149	12.045	19913	13243	0	644
13.199	7.429	19913	13500	0	644
7.825	2.957	20795	13949	0	644
6.491	-0.252	20795	14205	0	644
5.698	-1.587	20795	14205	0	644
7.104	-2.777	19913	14141	0	644
7.789	-2.813	19913	14269	0	644
7.357	-2.488	19325	14269	0	644
8.294	0.433	19325	14269	0	644
8.475	2.596	19325	14461	0	644
9.809	5.013	19325	14846	0	644
8.871	4.652	19325	15038	0	644
6.996	2.524	19325	15038	0	644
4.652	-0.685	19325	14974	0	644
2.921	-2.236	19325	14910	0	644
3.101	-3.967	18442	14718	0	644
3.354	-4.291	18442	14461	0	644
3.714	-5.013	17854	14141	0	644
5.950	-2.921	16972	13692	0	644
9.556	-0.577	16384	13308	0	644
11.864	3.354	16384	12987	0	644
13.920	6.744	15796	12667	0	644
14.821	7.032	14914	12410	0	644
12.874	7.104	14326	12218	0	644
12.658	6.852	13443	12154	0	644
12.081	6.744	12855	12154	0	644
12.225	8.402	11973	12410	0	644
10.242	8.979	11973	12859	0	644
8.222	9.304	11384	13243	0	644
5.698	6.527	11384	13692	0	644
2.633	2.488	11384	14333	0	644
1.911	-2.416	11973	15487	0	644
2.524	-6.563	12855	16704	0	644
4.436	-5.734	13443	17794	0	644
7.429	-1.515	13443	18884	0	644
10.530	3.282	14326	19973	0	644
10.494	6.383	14914	20807	0	644
9.881	5.734	15796	21063	0	644
6.527	4.508	15796	20871	0	644
4.904	2.813	14914	20358	0	644
3.714	4.544	14914	19717	0	644
4.796	5.806	14914	19012	0	644
4.255	7.645	14326	18307	1	320
4.580	6.780	14326	17730	0	320
5.409	9.304	13443	17217	0	320
7.934	12.730	12855	16576	0	320
13.631	17.779	12855	16000	0	320
17.346	21.385	11973	15551	0	320
17.021	20.988	13443	15295	0	320
13.163	16.661	11973	15231	0	320
7.465	11.504	11973	15231	0	320
5.517	8.475	11973	15487	0	320
7.789	7.501	11973	15872	0	320
12.550	11.576	11973	16064	0	320
18.464	13.776	11384	16064	0	320
18.716	15.903	11384	16128	0	320
16.192	14.497	11384	16384	0	320
11.648	11.107	11973	16640	0	320
6.924	5.734	11973	16832	0	320
5.049	4.075	12855	17217	0	320
3.895	3.714	12855	17666	0	320
3.823	4.832	12855	17986	0	320
-0.144	3.823	13443	18242	0	320
-3.931	1.767	13443	18691	0	320
-4.724	-0.108	14326	19332	0	320
-4.291	2.488	14914	19845	0	320
-0.865	7.104	14914	20037	0	320
0.072	11.360	15796	20037	0	320
-3.065	11.864	15796	19909	0	320
-7.176	9.917	15796	19717	0	320
-8.655	7.898	16384	19460	0	320
-5.049	10.061	16384	19140	0	320
0.865	12.946	16384	18691	0	320
4.436	15.002	16384	18242	0	320
5.445	14.136	16384	17858	0	320
1.983	11.251	16384	17537	0	320
-1.767	6.888	16384	17217	0	320
-4.291	5.409	16384	16832	0	320
-6.094	4.003	16384	16448	0	320
-7.248	3.570	16384	16128	0	320
-8.943	1.190	16384	15936	0	320
-7.176	-0.397	16384	16000	0	320
-4.688	-0.325	16384	16128	0	320
0.865	2.056	16384	16192	0	320
4.111	5.878	16972	16384	0	320
4.868	8.330	16972	16640	0	320
0.793	5.878	17854	16832	0	320
-4.652	1.767	17854	16768	0	320
-10.278	-3.029	17854	16832	0	320
-11.937	-5.698	18442	16960	0	320
-13.487	-5.770	18442	16960	0	320
-14.208	-6.311	18442	16640	0	320
-15.975	-8.619	18442	16320	0	320
-17.418	-10.169	17854	15872	0	320
-17.310	-12.081	17854	15423	0	320
-13.487	-8.222	17854	15102	0	320
-7.248	-2.164	16972	14718	0	320
0.902	4.508	16972	14333	0	320
6.888	8.835	16384	13949	0	320
9.665	7.825	16384	13628	0	320
10.494	3.823	16384	13500	0	320
6.635	1.479	15796	13372	0	320
5.013	0.180	15796	13243	0	320
3.210	0.325	14914	13051	0	320
3.750	-0.072	14914	13051	0	320
4.111	-2.056	14326	13308	0	320
5.734	-4.291	14326	13820	0	320
4.977	-5.950	14326	14269	0	320
2.885	-5.409	14326	14654	0	320
0.108	-2.741	14914	15231	0	320
-2.849	-0.721	14914	16064	0	320
-3.534	1.839	14914	16640	0	320
-0.144	5.878	15796	17089	0	320
6.131	7.934	15796	17537	0	320
9.773	9.088	16384	17922	0	320
10.530	8.763	16384	18050	0	320
6.203	4.616	16384	18114	0	320
-0.252	-0.072	16972	18435	0	320
-3.750	-3.606	16972	19012	0	320
-4.364	-5.878	17854	19332	0	320
-0.505	-3.931	17854	19460	0	320
1.442	-1.875	18442	19460	0	320
-0.505	0.721	18442	19460	0	320
-3.678	1.803	19325	19268	0	320
-7.825	2.019	19325	18884	0	320
-6.419	1.695	19325	18242	0	320
-1.226	2.488	18442	17601	0	320
6.671	4.616	18442	17025	0	320
13.487	9.412	18442	16512	0	320
16.408	12.802	17854	16000	0	320
15.146	13.992	17854	15423	0	320
11.756	12.297	16972	14910	0	320
7.248	5.193	16972	14526	0	320
3.570	-0.072	16972	14205	0	320
1.262	-5.554	16384	14013	0	320
-0.036	-6.888	16384	13949	0	320
-2.272	-7.898	15796	13884	0	320
-6.708	-9.340	15796	13949	0	320
-9.556	-10.530	15796	14205	0	320
-11.973	-11.576	15796	14461	0	320
-11.071	-9.881	15796	14526	0	320
-9.881	-8.222	15796	14526	0	320
-10.855	-7.789	15796	14782	0	320
-14.425	-10.746	15796	15359	0	320
-21.060	-16.336	15796	15743	0	320
-26.542	-22.214	15796	15743	0	320
-30.869	-26.289	14914	15487	0	320
-32.925	-28.128	14914	15231	0	320
-34.259	-30.148	14326	14974	0	320
-34.800	-30.761	13443	14718	0	320
-33.466	-30.869	13443	14526	0	320
-33.141	-28.633	12855	14461	0	320
-33.934	-27.119	12855	14526	0	320
-35.485	-25.063	12855	14782	0	320
-36.964	-25.532	12855	14974	0	320
-35.629	-25.063	11973	15167	0	320
-32.239	-23.440	12855	15359	0	320
-29.607	-20.375	13443	15487	0	320
-29.318	-19.437	12855	15679	0	320
-30.148	-20.375	12855	16192	0	320
-32.925	-22.034	12855	16896	0	320
-34.331	-25.460	13443	17537	0	320
-35.737	-24.847	13443	17986	0	320
-35.737	-22.467	14326	18563	0	320
-34.439	-20.014	14326	19140	0	320
-31.590	-15.795	14914	19525	0	320
-29.931	-13.992	14914	19589	0	320
-28.777	-11.973	15796	19845	0	320
-29.931	-12.730	15796	20101	0	320
-30.400	-13.163	16384	20294	0	320
-28.669	-13.631	16384	20166	0	320
-27.840	-13.343	16972	20037	0	320
-27.948	-14.028	16972	19781	0	320
-28.453	-13.199	16972	19332	0	320
-29.463	-13.704	16972	18755	1	528
-30.653	-12.838	16972	18242	0	528
-29.895	-13.956	16972	17794	0	528
-30.508	-14.028	16972	17345	0	528
-31.518	-15.182	16384	16896	0	528
-30.653	-17.129	16384	16384	0	528
-30.004	-17.815	16384	15936	0	528
-27.696	-16.949	15796	15423	0	528
-22.755	-14.136	15796	15102	0	528
-16.625	-6.996	15796	14782	0	528
-9.376	0.252	14914	14526	0	528
-4.219	8.114	14914	14205	0	528
-5.121	9.160	14326	13884	0	528
-10.386	7.321	14326	13756	0	528
-17.670	2.200	14326	13820	0	528
-20.664	0.288	14326	14077	0	528
-18.788	2.669	14326	14333	0	528
-15.218	6.888	14326	14590	0	528
-14.749	11.792	14914	14974	0	528
-19.437	11.937	14914	15551	0	528
-26.614	10.025	14914	16000	0	528
-34.331	5.013	14914	16384	0	528
-38.262	1.911	15796	16704	0	528
-38.767	-0.541	15796	17089	0	528
-37.072	1.515	15796	17281	0	528
-34.764	4.616	15796	17281	0	528
-33.466	7.645	15796	17217	0	528
-34.908	9.088	15796	17153	0	528
-37.685	7.068	15796	16960	0	528
-40.209	4.039	15796	16768	0	528
-42.806	4.364	15796	16640	0	528
-42.012	4.868	15796	16512	0	528
-43.563	5.193	15796	16448	0	528
-46.015	4.580	15796	16384	0	528
-50.739	-0.469	15796	16320	0	528
-54.959	-4.039	14914	16256	0	528
-56.653	-6.563	14914	16128	0	528
-55.860	-5.121	14914	16064	0	528
-51.244	-2.380	14914	16064	0	528
-47.854	-0.397	14914	16128	0	528
-47.458	-1.226	14914	16384	0	528
-50.667	-5.409	14914	16576	0	528
-57.230	-11.648	15796	16704	0	528
-63.433	-16.661	15796	17025	0	528
-66.318	-17.887	16384	17666	0	528
-66.102	-16.012	16384	18050	0	528
-64.551	-12.658	16972	18307	0	528
-62.135	-12.297	17854	18627	0	528
-63.145	-14.028	17854	18948	0	528
-61.918	-16.264	18442	19012	0	528
-59.394	-16.733	18442	18819	0	528
-54.995	-13.343	18442	18563	0	528
-50.307	-10.530	18442	18307	0	528
-49.261	-10.710	18442	17986	0	528
-50.920	-12.514	18442	17730	0	528
-54.129	-16.877	19325	17473	0	528
-55.572	-18.752	19325	17409	0	528
-54.922	-18.680	19325	17345	0	528
-52.903	-17.346	19325	17153	0	528
-51.316	-17.310	19325	16768	0	528
-51.208	-18.211	19325	16384	0	528
-52.795	-19.690	18442	16064	0	528
-55.283	-20.087	18442	15743	0	528
-57.591	-22.034	17854	15231	0	528
-59.322	-21.709	17854	14718	0	528
-60.728	-22.286	16972	14141	0	528
-60.512	-22.106	16972	13692	0	528
-60.945	-22.214	16972	13564	0	528
-60.151	-22.755	16972	13820	0	528
-58.420	-23.116	16972	14397	0	528
-57.086	-22.322	16972	14910	0	528
-55.247	-22.178	16972	15231	0	528
-55.139	-20.267	17854	15551	0	528
-55.427	-21.168	17854	15808	0	528
-56.545	-24.414	17854	15872	0	528
-58.781	-29.643	17854	15872	0	528
-60.332	-32.816	17854	16064	0	528
-61.305	-35.665	17854	16384	0	528
-61.342	-35.449	17854	16448	0	528
-57.771	-32.492	17854	16384	0	528
-53.805	-27.804	17854	16128	0	528
-48.936	-22.106	17854	15872	0	528
-44.356	-16.985	17854	15808	0	528
-43.779	-15.903	17854	15872	0	528
-44.356	-16.877	17854	15936	0	528
-47.133	-18.644	17854	16000	0	528
-48.359	-18.680	16384	16000	0	528
-47.133	-15.579	16972	15872	0	528
-44.789	-13.054	16972	15743	0	528
-43.022	-9.665	16972	15615	0	528
-42.120	-8.511	16384	15359	0	528
-41.507	-5.590	16384	15102	0	528
-38.370	-4.472	16384	14910	0	528
-38.262	-4.364	15796	14974	0	528
-38.262	-7.934	16384	15295	0	528
-40.173	-12.910	16384	15679	0	528
-40.894	-14.028	16384	15936	0	528
-40.245	-13.235	16384	16384	0	528
-36.747	-10.458	16384	16896	0	528
-36.531	-7.898	16972	17345	0	528
-38.839	-8.727	16972	17537	0	528
-41.976	-8.655	17854	17922	0	528
-44.392	-9.160	18442	18627	0	528
-43.310	-6.816	17854	19332	0	528
-41.652	-6.347	18442	19589	0	528
-39.849	-5.481	18442	19525	0	528
-40.426	-5.806	19325	19396	0	528
-41.147	-7.934	19325	19332	0	528
-40.858	-7.645	19325	19076	0	528
-38.045	-7.681	19325	18499	0	528
-33.862	-6.491	19325	17794	0	528
-29.859	-5.517	19325	17089	0	528
-29.210	-7.176	18442	16448	0	528
-29.030	-8.222	18442	15808	0	528
-29.535	-10.133	17854	15038	0	528
-26.902	-8.150	17854	14461	0	528
-22.214	-4.436	16972	13949	0	528
-16.697	-1.262	16972	13692	0	528
-12.982	-1.695	16384	13756	0	528
-12.297	-4.327	16384	14077	0	528
-13.848	-7.537	16384	14461	0	528
-15.831	-10.710	16384	14718	0	528
-15.362	-9.953	16972	15102	0	528
-14.064	-8.258	16972	15551	0	528
-12.405	-4.436	16972	15808	0	528
-12.189	-3.173	16972	15872	0	528
-13.271	-3.678	16972	16192	0	528
-15.471	-7.825	17854	16640	0	528
-17.202	-11.973	17854	17089	0	528
-16.156	-14.172	18442	17345	0	528
-14.028	-12.874	17854	17666	0	528
-10.422	-9.845	17854	17858	0	528
-5.049	-4.796	17854	17794	0	528
-0.180	-1.082	17854	17473	0	528
5.878	0.793	17854	17025	0	528
9.809	0.829	17854	16576	0	528
15.398	-0.865	16972	16192	0	528
17.129	-2.452	16972	15808	0	528
17.706	-3.895	16972	15359	0	528
15.110	-3.714	16384	14846	0	528
14.172	-4.544	15796	14333	0	528
15.326	-4.688	14914	13820	0	528
21.673	-3.246	14326	13243	0	528
30.112	2.056	13443	12731	0	528
37.108	6.455	12855	12346	0	528
40.281	10.314	12855	12218	0	528
38.947	10.819	12855	12346	0	528
39.091	10.530	12855	12731	0	528
40.750	11.468	12855	13372	0	528
44.933	13.091	11973	13820	0	528
47.422	15.939	11973	14269	0	528
48.143	16.408	12855	15102	0	528
44.464	14.425	12855	16384	0	528
42.842	13.631	13443	17730	0	528
43.310	11.973	14326	18691	0	528
47.313	13.451	14914	19653	0	528
50.451	14.605	15796	20614	0	528
52.723	14.136	16384	21319	0	528
52.578	12.477	16972	21512	0	528
50.018	7.934	16972	21255	0	528
48.576	4.111	16972	20807	0	528
48.828	1.803	16972	20294	0	528
50.270	1.947	16972	19589	0	528
52.038	4.508	16972	18819	1	652
54.562	6.383	16972	18050	0	652
55.752	8.114	16384	17281	0	652
54.021	5.914	16384	16576	0	652
50.847	2.849	15796	15936	0	652
46.736	-0.108	15796	15359	0	652
46.340	-0.577	14914	15038	0	652
49.874	2.813	14914	14910	0	652
56.942	7.537	14914	14974	0	652
62.027	11.179	14914	15487	0	652
63.794	12.441	15796	16256	0	652
60.765	11.396	16384	16960	0	652
58.889	8.511	16384	17409	0	652
58.384	6.780	16972	17858	0	652
59.214	4.868	16972	18242	0	652
60.656	2.633	17854	18371	0	652
59.647	1.082	17854	18307	0	652
58.601	2.092	18442	18435	0	652
60.224	4.977	18442	18627	0	652
62.784	8.114	19325	18627	0	652
67.508	11.684	19325	18371	0	652
69.780	10.638	19325	18242	0	652
69.600	8.655	19913	18178	0	652
65.633	5.878	19913	17858	0	652
62.279	6.131	19325	17217	0	652
59.971	7.573	19325	16384	0	652
57.411	7.898	18442	15487	0	652
54.742	8.511	18442	14782	0	652
49.802	6.347	17854	14397	0	652
43.310	4.400	17854	14141	0	652
36.855	2.452	17854	13949	0	652
32.059	1.370	16972	13692	0	652
29.679	1.226	16972	13564	0	652
28.994	1.479	16384	13692	0	652
31.590	2.993	16384	13820	0	652
34.475	3.823	15796	13820	0	652
37.649	6.239	16384	13820	0	652
40.570	7.104	16384	13949	0	652
39.849	7.357	16384	14397	0	652
38.370	7.825	16384	15038	0	652
36.495	8.114	16384	15423	0	652
34.475	10.133	16384	15615	0	652
35.665	12.297	16972	16000	0	652
38.983	15.867	16384	16512	0	652
43.058	15.939	16384	17025	0	652
45.258	13.091	16972	17281	0	652
46.917	9.629	16972	17730	0	652
45.871	5.662	17854	18307	0	652
43.707	2.560	18442	18691	0	652
40.101	0.000	18442	18627	0	652
34.800	-3.606	18442	18371	0	652
28.561	-7.212	18442	17986	0	652
24.306	-9.196	18442	17537	0	652
22.142	-8.330	17854	16832	0	652
23.080	-4.039	17854	16192	0	652
23.188	-0.685	16972	15615	0	652
21.709	-0.541	16972	15295	0	652
17.346	-3.678	16384	15102	0	652
14.353	-7.717	16384	14782	0	652
12.838	-9.701	15796	14461	0	652
14.785	-9.016	15796	14077	0	652
18.824	-4.652	14914	13820	0	652
22.899	-2.092	14914	13692	0	652
26.470	0.793	14326	13820	0	652
29.499	1.442	14326	14269	0	652
29.030	0.902	14326	14526	0	652
27.551	-1.875	14326	14526	0	652
25.460	-6.816	13443	14526	0	652
23.873	-8.835	13443	14718	0	652
24.702	-9.556	14326	15038	0	652
28.777	-7.285	14326	15359	0	652
29.715	-4.183	14326	16000	0	652
30.905	-4.147	14914	16896	0	652
31.266	-4.796	15796	17666	0	652
32.744	-4.940	15796	18178	0	652
34.836	-3.173	16384	18691	0	652
38.767	-1.082	16972	19332	0	652
41.796	1.731	16972	19845	0	652
42.012	3.714	17854	19909	0	652
39.957	4.616	17854	19653	0	652
37.973	5.698	17854	19076	0	652
34.403	5.626	16972	18499	0	652
33.249	5.914	16972	17858	0	652
32.744	4.400	16972	17217	0	652
30.220	4.183	16384	16576	0	652
26.794	2.380	15796	15936	0	652
22.683	2.524	15796	15167	0	652
19.978	2.236	14914	14526	0	652
21.241	3.498	14326	14077	0	652
25.063	7.176	13443	13692	0	652
30.112	9.737	13443	13436	0	652
32.420	13.054	12855	13372	0	652
32.456	14.245	12855	13372	0	652
28.020	13.956	11973	13436	0	652
21.673	10.314	11973	13436	0	652
14.894	8.511	11384	13308	0	652
11.864	7.970	10502	13308	0	652
11.035	11.468	10502	13692	0	652
12.658	17.238	11973	14333	0	652
15.290	22.250	11384	15102	0	652
18.103	26.181	11973	16192	0	652
21.565	27.587	12855	17666	0	652
26.866	29.210	14326	19268	0	652
32.276	30.653	14914	20358	0	652
34.115	28.597	15796	20999	0	652
30.581	25.316	16384	21255	0	652
22.611	19.005	16384	21384	0	652
16.625	12.838	16972	21384	0	652
15.903	11.684	16972	21255	0	652
20.772	14.317	17854	20871	0	652
26.830	17.598	17854	20230	0	652
28.237	18.897	17854	19525	0	652
24.234	16.841	16972	18884	1	448
21.132	14.389	16972	18371	0	448
22.070	12.658	16972	17794	0	448
26.974	14.749	16972	17217	0	448
33.393	16.552	16972	16576	0	448
36.134	16.228	16384	15872	0	448
34.656	14.064	15796	15102	0	448
32.203	12.730	15796	14333	0	448
28.741	12.117	14914	13692	0	448
27.515	15.939	14326	13372	0	448
26.974	21.745	14326	13372	0	448
27.263	26.902	14326	13756	0	448
30.076	32.708	14326	14269	0	448
31.338	34.620	14914	15167	0	448
32.420	33.105	15796	16512	0	448
31.122	30.869	16972	17858	0	448
30.364	26.470	16972	18627	0	448
27.768	24.991	17854	18948	0	448
26.830	23.621	18442	19332	0	448
22.863	21.277	19325	19781	0	448
20.123	18.933	19913	19909	0	448
15.507	16.625	19913	19653	0	448
13.848	16.120	20795	19460	0	448
12.153	17.166	20795	19268	0	448
11.900	18.572	19913	18948	0	448
11.648	18.969	20795	18435	0	448
12.261	18.933	19913	17794	0	448
13.812	18.067	19913	17025	0	448
13.920	18.572	19913	16320	0	448
11.540	17.310	19325	15551	0	448
6.203	14.605	19325	14910	0	448
0.974	12.982	18442	14269	0	448
-2.380	10.386	18442	13692	0	448
-4.688	10.458	17854	13179	0	448
-4.219	9.412	16972	12859	0	448
-5.445	8.439	16972	12731	0	448
-5.373	6.708	16972	12667	0	448
-6.527	7.321	16384	12602	0	448
-5.085	9.376	16384	12795	0	448
-3.282	13.343	16384	13179	0	448
-0.469	19.293	16384	13500	0	448
3.137	23.909	15796	13692	0	448
6.599	27.587	16384	14077	0	448
8.583	29.859	16384	14590	0	448
10.602	30.761	16384	15102	0	448
10.133	28.201	16384	15423	0	448
11.215	25.676	16384	15615	0	448
11.071	22.070	15796	15615	0	448
8.366	17.923	15796	15551	0	448
6.131	15.002	15796	15423	0	448
3.101	13.992	15796	15359	0	448
1.623	13.956	14914	15359	0	448
2.633	17.057	14914	15231	0	448
3.678	19.546	14326	15167	0	448
4.075	19.906	14326	15231	0	448
1.010	16.913	14326	15231	0	448
-1.695	12.802	13443	15231	0	448
0.252	11.251	13443	15231	0	448
6.239	11.432	13443	15295	0	448
13.163	15.471	13443	15679	0	448
17.166	16.516	13443	16256	0	448
15.146	14.389	14326	16576	0	448
10.350	11.684	14326	16832	0	448
5.121	9.088	14914	17281	0	448
4.400	9.845	14914	18050	0	448
5.193	10.242	15796	18884	0	448
5.265	10.819	16384	19396	0	448
4.760	8.655	16384	19909	0	448
6.131	8.655	17854	20678	0	448
7.321	10.025	17854	21191	0	448
9.340	15.795	17854	21384	0	448
12.982	21.709	19325	21384	0	448
15.975	25.640	19325	21063	0	448
19.185	28.994	19325	20486	0	448
22.539	29.174	19325	19845	0	448
25.279	29.679	19325	19268	0	448
27.876	29.571	19325	18627	0	448
28.814	29.787	18442	17986	0	448
29.030	27.407	18442	17345	0	448
28.958	25.316	18442	16704	1	316
25.893	21.601	18442	16064	0	316
24.414	17.706	17854	15295	0	316
23.549	15.362	16972	14590	0	316
23.549	13.595	16972	13884	0	316
23.729	13.704	16384	13243	0	316
22.827	14.966	15796	12731	0	316
21.709	12.982	14914	12282	0	316
19.365	11.720	14914	12026	0	316
18.175	9.629	14326	12026	0	316
16.877	7.970	14326	12218	0	316
15.254	8.871	13443	12474	0	316
13.271	9.124	13443	12731	0	316
11.937	10.963	13443	13243	0	316
12.297	13.668	13443	14077	0	316
13.091	16.192	13443	14910	0	316
15.831	19.726	14326	15615	0	316
16.805	20.555	14914	16384	0	316
17.418	19.185	15796	17217	0	316
18.644	17.093	16384	17986	0	316
21.024	17.454	16384	18371	0	316
24.558	21.673	16384	18435	0	316
28.345	26.758	16384	18371	0	316
27.984	30.833	16384	18114	0	316
25.460	30.472	16384	17858	0	316
20.844	26.722	16384	17601	0	316
18.067	22.467	16384	17409	0	316
18.644	22.899	16384	17217	0	316
24.847	24.739	16384	16896	0	316
30.797	27.948	16384	16640	0	316
37.396	29.823	15796	16448	0	316
42.193	31.013	15796	16192	0	316
46.340	30.581	15796	15872	0	316
48.792	32.131	15796	15679	0	316
49.441	32.059	14914	15679	0	316
46.953	30.076	14914	15872	0	316
41.652	26.758	14914	16000	0	316
37.865	22.214	14914	16128	0	316
36.459	18.139	15796	16448	0	316
39.055	16.372	16384	17281	0	316
42.986	16.192	16384	18242	0	316
46.159	17.346	16972	19012	0	316
45.474	19.005	18442	19717	0	316
42.409	18.788	19325	20486	0	316
39.488	17.706	19325	20935	0	316
37.973	17.779	20795	20935	0	316
42.734	19.870	19913	20742	0	316
48.143	22.683	20795	20422	0	316
52.398	27.191	20795	19973	0	316
51.316	28.309	20795	19396	0	316
46.520	27.624	20795	18755	0	316
39.776	25.424	20795	18178	0	316
35.665	24.378	20795	17537	0	316
35.846	24.342	20795	16832	0	316
37.649	26.974	20795	16064	0	316
41.976	30.400	19913	15359	0	316
44.212	33.033	19325	14718	0	316
44.248	33.177	18442	14077	0	316
40.822	31.446	18442	13500	0	316
34.475	25.496	17854	13243	0	316
29.499	20.844	17854	13372	0	316
25.424	16.589	17854	13564	0	316
24.378	14.317	17854	13628	0	316
25.784	14.317	17854	13884	0	316
25.099	13.992	17854	14333	0	316
24.234	15.507	17854	14654	0	316
23.224	18.536	17854	14782	0	316
24.666	23.260	18442	15038	0	316
28.164	28.994	18442	15487	0	316
32.095	30.292	18442	15808	0	316
33.754	28.020	18442	16064	0	316
31.662	22.719	19325	16384	0	316
29.499	17.310	19913	17025	0	316
27.840	15.435	19325	17345	0	316
29.715	16.228	19913	17345	0	316
33.321	18.536	19325	17217	0	316
34.583	19.041	19325	16960	0	316
32.708	17.057	19325	16512	0	316
28.020	14.317	19325	16064	0	316
24.847	12.658	18442	15615	0	316
24.919	15.326	18442	15167	0	316
28.922	19.293	17854	14782	0	316
33.357	21.060	17854	14397	0	316
35.701	17.670	16972	14077	0	316
34.692	11.648	16972	13820	0	316
31.518	6.383	16384	13628	0	316
29.679	5.373	15796	13436	0	316
29.895	8.547	15796	13243	0	316
29.174	10.422	14914	13051	0	316
29.607	10.350	14326	12859	0	316
27.227	6.599	13443	12795	0	316
23.549	1.226	13443	12923	0	316
22.214	-1.551	13443	13436	0	316
22.214	-3.823	13443	14269	0	316
25.929	-3.426	13443	15231	0	316
28.922	-2.777	14326	16064	0	316
28.525	-1.983	14914	16960	0	316
27.083	-1.442	15796	18114	0	316
22.358	-0.613	16384	19140	0	316
19.798	-0.541	16972	19653	0	316
17.202	-2.416	16972	19845	0	316
15.182	-6.780	17854	19973	0	316
13.559	-8.907	17854	20230	0	316
15.326	-9.592	17854	20422	0	316
18.211	-6.744	17854	20230	0	316
20.050	-4.183	17854	19845	0	316
17.382	-6.383	17854	19204	0	316
10.422	-10.025	17854	18499	0	316
3.318	-15.002	17854	17858	0	316
-0.505	-17.093	16972	17281	0	316
0.433	-15.615	16972	16768	0	316
2.200	-15.543	16972	16384	0	316
1.262	-17.382	16384	15872	0	316
-1.839	-20.303	16384	15359	0	316
-3.714	-20.664	15796	14846	0	316
-0.829	-17.418	15796	14461	0	316
5.662	-9.917	14914	14141	0	316
12.081	-4.183	14914	14077	0	316
14.713	-3.714	14914	14333	0	316
11.468	-7.068	14914	14782	0	316
2.741	-14.317	14914	15231	0	316
-3.426	-17.562	15796	15872	0	316
-5.373	-16.120	15796	16896	0	316
-2.777	-9.592	16384	17922	0	316
4.436	-0.793	16972	18435	0	316
9.124	5.085	16972	18563	0	316
11.215	4.616	17854	18755	0	316
8.547	1.190	17854	18948	0	316
5.554	-3.534	18442	18948	0	316
4.291	-4.364	18442	18755	0	316
5.301	-1.226	18442	18499	0	316
7.212	1.947	18442	18114	0	316
7.104	2.416	18442	17666	0	316
4.904	-0.649	18442	17153	0	316
4.436	-5.481	17854	16448	0	316
3.823	-8.799	17854	15615	0	316
6.527	-10.422	16972	14654	0	316
8.042	-10.061	16384	13820	0	316
8.258	-10.855	15796	13308	0	316
5.806	-10.097	14914	12859	0	316
4.075	-10.999	14326	12538	0	316
2.777	-11.576	14326	12282	0	316
2.488	-10.927	13443	12090	0	316
2.019	-12.477	12855	11961	0	316
1.731	-13.884	11973	11897	0	316
1.515	-13.740	11384	11897	0	316
2.164	-13.415	11384	12154	0	316
0.397	-12.586	12855	12795	0	316
-1.370	-11.684	11973	13756	0	316
-4.039	-10.242	11973	14654	0	316
-2.056	-9.989	12855	15679	0	316
3.498	-6.708	13443	17025	0	316
11.360	-3.426	14326	18499	0	316
14.677	-1.695	14914	19653	0	316
10.999	-4.327	15796	20486	0	316
3.931	-7.898	16384	20999	0	316
-1.190	-11.540	16384	21127	0	316
2.344	-11.251	16972	21063	0	316
11.576	-5.914	16972	20807	0	316
21.060	1.226	16972	20422	0	316
22.899	4.508	16972	19909	0	316
16.589	4.255	16972	19204	1	644
7.465	0.072	16972	18435	0	644
0.757	-3.354	16384	17666	0	644
-0.072	-4.580	16384	16896	0	644
3.642	-3.173	15796	16256	0	644
7.321	-2.669	15796	15615	0	644
5.409	-6.455	14914	14974	0	644
-0.433	-10.169	14326	14269	0	644
-5.445	-14.497	13443	13756	0	644
-8.511	-16.012	12855	13372	0	644
-7.717	-14.966	12855	13179	0	644
-5.481	-14.821	12855	13372	0	644
-3.859	-16.877	13443	13884	0	644
-5.842	-18.392	13443	14461	0	644
-4.652	-17.166	13443	15102	0	644
-1.515	-11.468	14326	16128	0	644
3.967	-4.039	14914	17025	0	644
6.888	1.551	14914	17537	0	644
4.796	1.551	14914	17794	0	644
2.344	-0.865	15796	18178	0	644
-1.370	-3.498	16384	18691	0	644
-1.803	-5.409	16384	18948	0	644
-1.587	-5.914	16384	18948	0	644
-2.056	-7.862	16384	18755	0	644
-5.121	-9.016	16384	18307	0	644
-7.321	-8.799	16384	17537	0	644
-8.222	-5.662	15796	16896	0	644
-11.071	-2.813	15796	16384	0	644
-14.677	-2.849	14914	15936	0	644
-18.500	-6.635	14914	15487	0	644
-21.565	-10.530	14326	15102	0	644
-22.034	-13.487	14326	14718	0	644
-21.781	-12.874	13443	14397	0	644
-22.719	-10.314	13443	14141	0	644
-31.554	-7.212	12855	14077	0	644
-50.739	-5.554	12855	14397	0	644
-89.542	-4.291	13443	14974	0	644
-143.599	-6.852	13443	15487	0	644
-204.544	-9.088	14326	15743	0	644
-250.920	-13.668	14914	16256	0	644
-269.059	-15.182	14914	16832	0	644
-259.142	-13.631	14914	17409	0	644
-234.620	-9.701	15796	17922	0	644
-215.254	-4.796	16384	18499	0	644
-207.212	-0.613	16384	19012	0	644
-206.527	-0.072	16972	19332	0	644
-205.734	-1.947	16972	19332	0	644
-200.613	-6.599	16972	19204	0	644
-192.211	-10.242	17854	18884	0	644
-186.260	-11.576	16972	18499	0	644
-181.284	-9.232	17854	18114	0	644
-176.776	-3.390	17854	17794	0	644
-171.980	1.442	17854	17345	0	644
-167.688	3.354	16972	16960	0	644
-163.541	3.029	16972	16704	0	644
-157.339	0.216	16384	16448	0	644
-148.251	-2.056	16384	16192	0	644
-135.088	-3.101	16384	15936	0	644
-121.709	-3.534	16384	15679	0	644
-112.550	-3.210	16384	15551	0	644
-106.563	-2.921	16384	15551	0	644
-103.642	-3.137	16384	15679	0	644
-99.639	-1.442	16384	15743	0	644
-93.906	0.144	16384	15743	0	644
-85.503	1.911	16384	15936	0	644
-76.740	4.291	16384	16320	0	644
-69.816	6.960	16972	16448	0	644
-65.489	8.186	16972	16512	0	644
-64.840	7.898	16972	16832	0	644
-63.938	5.698	17854	17153	0	644
-65.020	1.551	17854	17281	0	644
-65.164	-1.479	17854	17025	0	644
-62.856	-0.685	17854	16768	0	644
-61.378	5.193	17854	16576	0	644
-56.221	11.937	17854	16256	0	644
-50.956	19.221	16972	15679	0	644
-46.087	22.539	16972	14974	0	644
-43.779	25.352	16384	14333	0	644
-44.140	26.361	15796	13820	0	644
-47.241	30.148	14914	13436	0	644
-52.831	32.889	14914	13115	0	644
-57.952	35.269	14326	12987	0	644
-61.486	35.882	13443	12859	0	644
-61.558	36.639	13443	12795	0	644
-60.656	37.072	12855	12923	0	644
-59.899	38.045	13443	13115	0	644
-64.226	36.387	14326	13308	0	644
-69.600	32.889	12855	13436	0	644
-75.081	28.633	11973	13500	0	644
-77.894	25.099	11973	13820	0	644
-76.055	24.053	11973	14590	0	644
-71.186	24.558	11973	15295	0	644
-66.643	24.847	12855	15872	0	644
-64.046	24.053	12855	16512	0	644
-65.020	21.457	13443	17473	0	644
-66.751	18.572	13443	18371	0	644
-69.239	15.939	14914	19140	0	644
-69.672	12.514	15796	19909	0	644
-67.364	9.052	16384	20614	0	644
-64.082	5.121	16972	21127	0	644
-59.899	1.623	17854	21319	0	644
-52.506	2.705	17854	21255	0	644
-47.061	5.013	17854	21063	0	644
-43.202	6.780	17854	20742	0	644
-44.861	5.013	17854	20358	0	644
-47.530	2.416	17854	19845	1	420
-49.477	-0.036	17854	19268	0	420
-47.818	1.010	17854	18627	0	420
-45.005	5.193	17854	18050	0	420
-40.642	8.114	17854	17666	0	420
-38.118	9.196	17854	17217	0	420
-37.793	8.114	17854	16704	0	420
-36.603	6.816	16972	16192	0	420
-36.819	3.714	16972	15743	0	420
-38.118	0.288	16972	15487	0	420
-40.353	-2.957	16972	15359	0	420
-39.488	-2.200	16972	15231	0	420
-35.701	1.803	16972	15231	0	420
-30.545	7.645	16972	15551	0	420
-27.624	11.396	17854	16320	0	420
-29.859	8.114	18442	17089	0	420
-32.816	1.731	19325	17537	0	420
-34.547	-3.498	19325	17922	0	420
-30.869	-5.265	19913	18307	0	420
-25.640	-2.272	19913	18307	0	420
-23.440	-0.325	20795	17858	0	420
-27.371	-2.633	19325	17217	0	420
-29.968	-6.347	19325	16576	0	420
-30.508	-9.881	19325	15936	0	420
-26.938	-9.016	18442	15295	0	420
-21.493	-7.501	18442	14782	0	420
-19.834	-6.419	17854	14333	0	420
-23.008	-7.789	17854	13949	0	420
-28.056	-10.602	16972	13500	0	420
-30.400	-12.225	16972	13179	0	420
-30.040	-10.314	16384	12923	0	420
-26.542	-8.691	15796	12731	0	420
-22.250	-5.626	15796	12474	0	420
-20.627	-4.724	14914	12474	0	420
-19.690	-2.921	14914	12667	0	420
-18.933	-3.065	14914	12987	0	420
-17.706	-2.380	14326	13308	0	420
-16.697	-1.298	14326	13692	0	420
-17.923	-0.325	14326	14333	0	420
-22.467	-1.551	14914	15295	0	420
-29.391	-3.570	14914	16128	0	420
-37.505	-8.042	15796	16832	0	420
-42.048	-10.169	16384	17601	0	420
-41.543	-9.196	16384	18371	0	420
-35.160	-5.409	16972	18819	0	420
-28.633	-1.082	16972	19012	0	420
-24.450	-0.577	17854	19268	0	420
-26.758	-1.983	17854	19653	0	420
-27.768	-2.957	18442	19845	0	420
-28.489	-2.200	18442	19717	0	420
-24.558	0.397	18442	19332	0	420
-21.385	2.488	18442	18755	0	420
-21.385	1.839	18442	18050	0	420
-24.522	-1.118	18442	17345	0	420
-27.155	-2.236	17854	16640	0	420
-25.171	-1.262	17854	16064	0	420
-22.431	1.406	16972	15487	0	420
-19.726	3.282	16972	15038	0	420
-21.421	3.029	16384	14654	0	420
-26.650	1.298	15796	14333	0	420
-33.357	0.829	15796	14013	0	420
-38.622	0.938	14914	13692	0	420
-40.930	2.741	14914	13436	0	420
-39.272	3.787	14326	13628	0	420
-36.278	4.039	14326	14013	0	420
-31.987	4.183	14326	14205	0	420
-30.076	5.914	14326	14333	0	420
-30.004	6.780	14326	14718	0	420
-32.276	7.176	14326	15423	0	420
-34.836	5.662	14326	16064	0	420
-36.242	3.390	14914	16512	0	420
-38.875	0.505	14914	16960	0	420
-40.750	-0.865	14914	17409	0	420
-42.301	-1.334	16384	17794	0	420
-43.563	0.072	16384	18050	0	420
-42.589	1.334	16384	18050	0	420
-41.652	0.938	16384	17922	0	420
-43.707	-2.236	16384	17794	0	420
-45.691	-7.753	16384	17666	0	420
-48.756	-13.487	16384	17601	0	420
-49.982	-14.677	16384	17537	0	420
-45.979	-12.838	16384	17473	0	420
-41.724	-9.556	16384	17409	0	420
-37.108	-6.744	16972	17345	0	420
-35.521	-8.871	16384	17345	0	420
-35.701	-12.261	16384	17409	0	420
-35.882	-15.254	16384	17409	0	420
-35.918	-14.100	16384	17601	0	420
-32.889	-11.143	16972	18050	0	420
-30.833	-4.544	17854	18627	0	420
-30.905	0.325	18442	18948	0	420
-32.239	2.164	18442	18819	0	420
-34.656	1.334	18442	18755	0	420
-35.810	-0.865	19325	18884	0	420
-35.160	-3.318	19325	18819	0	420
-32.925	-3.859	19913	18627	0	420
-29.427	-3.642	19913	18627	0	420
-28.020	-3.173	20795	18691	0	420
-27.948	-4.219	20795	18563	0	420
-27.371	-6.527	21384	18371	0	420
-29.463	-10.674	22266	18435	0	420
-30.869	-13.451	21384	18563	0	420
-30.833	-16.985	21384	18307	0	420
-31.843	-18.031	21384	17730	0	420
-31.446	-16.625	21384	17025	0	420
-31.699	-13.018	21384	16448	0	420
-29.968	-8.619	21384	15872	0	420
-29.859	-4.255	21384	15231	0	420
-29.571	-1.334	19913	14526	0	420
-29.571	-1.875	19913	13820	0	420
-29.751	-6.239	19325	13051	0	420
-29.354	-9.232	18442	12282	0	420
-25.893	-11.756	17854	11641	0	420
-21.349	-8.475	16972	11128	0	420
-17.346	-4.327	16384	10679	0	420
-13.992	1.406	15796	10423	0	420
-11.864	4.544	14914	10359	0	420
-7.934	8.294	14914	10615	0	420
-2.236	12.802	14326	11128	0	420
4.327	18.464	14326	11577	0	420
6.419	20.916	13443	12026	0	420
4.075	19.149	14326	12667	0	420
-2.164	14.569	14914	13500	0	420
-6.635	10.746	14326	14269	0	420
-7.934	11.720	14326	14846	0	420
-4.400	13.812	14914	15551	0	420
-1.911	15.290	14914	16256	0	420
-3.173	13.091	14914	16768	0	420
-8.222	8.691	14914	17025	0	420
-12.297	4.616	14914	16896	0	420
-14.894	4.111	14326	16640	0	420
-15.615	5.950	14326	16384	0	420
-16.048	7.393	13443	16256	0	420
-16.372	6.671	13443	16192	0	420
-19.582	6.203	12855	16064	0	420
-19.510	4.652	12855	15936	0	420
-17.779	4.436	11973	15743	0	420
-16.336	4.075	11973	15743	0	420
-15.975	5.265	12855	15872	0	420
-16.408	4.003	11973	16064	0	420
-19.149	1.731	11973	16192	0	420
-24.198	-3.101	11973	16384	0	420
-28.561	-8.330	11973	16896	0	420
-31.951	-11.937	12855	17537	0	420
-30.184	-12.441	12855	17986	0	420
-25.532	-9.016	12855	18242	0	420
-20.303	-5.626	12855	18435	0	420
-18.320	-5.409	12855	18691	0	420
-19.870	-5.734	12855	18755	0	420
-21.421	-5.481	14326	18755	0	420
-20.087	-3.534	14914	18884	0	420
-14.713	2.633	14326	19076	0	420
-7.248	10.097	14326	19076	0	420
-2.596	14.713	14914	19012	0	420
-1.262	16.012	14914	19012	0	420
-3.390	14.894	14914	19012	0	420
-8.727	11.973	14914	18819	0	420
-11.720	8.222	14914	18563	1	628
-13.559	7.789	14914	18242	0	628
-14.425	6.022	14914	17922	0	628
-16.444	6.311	14914	17666	0	628
-18.644	5.590	14914	17473	0	628
-23.693	3.931	14914	17281	0	628
-26.650	3.534	14914	17025	0	628
-27.083	1.695	14914	16704	0	628
-26.542	0.469	14914	16384	0	628
-25.243	0.757	14326	15936	0	628
-22.647	1.623	14326	15423	0	628
-21.096	2.813	13443	15038	0	628
-18.536	3.210	13443	14718	0	628
-16.192	3.462	12855	14461	0	628
-14.028	1.767	14326	14654	0	628
-13.668	1.046	14326	15167	0	628
-13.668	0.216	14326	15551	0	628
-15.867	-0.252	14326	15808	0	628
-17.851	-0.577	14326	16256	0	628
-18.247	-0.757	14914	16896	0	628
-17.021	0.829	15796	17537	0	628
-14.353	2.849	15796	17858	0	628
-10.746	2.849	16384	18242	0	628
-10.530	1.623	16972	18691	0	628
-13.884	-0.361	16972	18948	0	628
-16.949	-0.721	16972	18884	0	628
-20.159	1.515	17854	18691	0	628
-21.601	2.849	17854	18371	0	628
-20.772	2.019	17854	17922	0	628
-19.221	-0.793	16972	17345	0	628
-18.356	-2.344	16972	16768	0	628
-17.526	-2.560	16972	16192	0	628
-16.084	-0.469	16384	15487	0	628
-14.713	0.829	15796	14718	0	628
-14.281	-0.072	15796	14205	0	628
-12.766	-2.452	14914	13884	0	628
-14.966	-4.796	14914	13756	0	628
-18.824	-5.121	14326	13692	0	628
-23.621	-6.491	14326	13884	0	628
-26.938	-6.239	14914	14333	0	628
-25.784	-6.239	14914	14974	0	628
-21.601	-5.481	14914	15423	0	628
-15.975	-4.544	14914	15679	0	628
-12.838	-1.659	14914	16000	0	628
-11.323	1.623	15796	16384	0	628
-13.992	3.534	15796	16768	0	628
-16.480	3.787	15796	17153	0	628
-18.572	3.065	16384	17730	0	628
-18.897	2.813	17854	18819	0	628
-16.589	3.137	18442	19973	0	628
-13.415	6.708	19325	20742	0	628
-10.999	8.042	19913	21255	0	628
-12.081	5.734	20795	21512	0	628
-14.208	1.515	21384	21448	0	628
-15.507	-2.380	22266	20935	0	628
-15.182	-2.164	22266	20230	0	628
-11.396	2.344	21384	19268	0	628
-10.061	8.150	20795	18178	0	628
-9.592	12.081	20795	16896	0	628
-12.369	11.576	19913	15808	0	628
-15.759	7.429	19325	14782	0	628
-18.283	2.380	18442	13884	0	628
-18.897	-2.128	17854	13051	0	628
-18.608	-4.111	16972	12346	0	628
-17.238	-3.029	16972	11961	0	628
-14.533	-2.633	16384	11961	0	628
-11.107	-0.325	16384	12154	0	628
-5.662	1.875	16384	12282	0	628
-0.252	4.039	16384	12731	0	628
2.849	7.357	16384	13436	0	628
4.147	8.439	16384	14077	0	628
3.065	8.222	16384	14526	0	628
2.524	6.960	16972	15231	0	628
4.075	6.960	16972	16064	0	628
7.825	9.701	17854	16576	0	628
9.809	14.605	17854	17089	0	628
11.287	17.129	17854	17537	0	628
9.412	19.726	19325	18114	0	628
8.799	18.500	19325	18371	0	628
8.078	17.670	18442	18307	1	316
9.989	16.012	18442	17922	0	316
10.458	15.579	18442	17409	0	316
11.648	16.264	18442	16768	0	316
11.360	17.490	17854	16320	0	316
9.088	17.490	17854	15808	0	316
7.357	17.706	16972	15423	0	316
5.481	17.238	16972	15167	0	316
3.678	16.048	16384	14910	0	316
4.003	16.336	16384	14526	0	316
3.787	17.166	15796	14077	0	316
4.039	17.021	14914	13628	0	316
4.219	15.038	14914	13308	0	316
4.039	13.235	14326	13179	0	316
6.816	11.576	14326	13500	0	316
10.242	13.668	14326	14141	0	316
14.172	17.166	14326	14782	0	316
16.336	21.637	14326	15359	0	316
15.723	22.827	15796	16128	0	316
12.261	23.224	16384	17153	0	316
10.169	20.411	16384	18050	0	316
9.520	19.041	16972	18627	0	316
9.484	18.572	17854	19140	0	316
11.468	18.031	17854	19845	0	316
11.540	17.454	18442	20358	0	316
12.081	15.867	18442	20422	0	316
12.982	13.379	18442	20230	0	316
11.648	11.540	18442	19653	0	316
12.081	9.773	18442	18884	0	316
12.946	11.973	18442	18114	0	316
15.903	15.038	18442	17473	0	316
18.680	17.959	17854	16896	0	316
23.152	19.906	17854	16384	0	316
24.234	18.933	16972	15872	0	316
24.017	16.589	16972	15359	0	316
25.207	14.749	16384	14846	0	316
24.342	10.999	16384	14397	0	316
20.700	7.970	15796	13949	0	316
16.589	3.750	14914	13564	0	316
8.330	1.839	14914	13308	0	316
3.246	1.190	14326	13243	0	316
0.541	3.029	14326	13372	0	316
-0.902	5.013	14326	13820	0	316
-1.334	4.291	14326	14526	0	316
-3.173	2.488	14914	15423	0	316
-5.337	0.036	14914	16128	0	316
-8.042	-1.226	14914	16448	0	316
-7.104	0.829	15796	16960	0	316
-7.645	5.085	16384	17666	0	316
-8.258	8.114	16384	18178	0	316
-9.737	7.789	16384	18371	0	316
-11.756	5.373	16972	18371	0	316
-11.864	2.524	16972	18371	0	316
-7.609	3.462	16972	18242	0	316
-2.272	6.780	16972	17858	0	316
3.678	11.179	16972	17409	0	316
6.960	13.920	16384	17025	0	316
8.294	12.874	16384	16576	0	316
7.898	12.838	16384	16192	0	316
8.871	13.018	15796	15743	0	316
9.124	14.930	15796	15423	0	316
9.520	14.858	14914	15102	0	316
7.429	13.704	14914	14718	0	316
5.229	10.855	14326	14397	0	316
1.262	7.176	13443	14077	0	316
-1.623	5.121	14326	13756	0	316
-4.255	4.760	14326	13372	0	316
-5.229	5.698	12855	13115	0	316
-6.852	5.481	12855	13436	0	316
-7.609	4.868	12855	14141	0	316
-9.340	2.164	12855	14846	0	316
-9.376	0.649	12855	15423	0	316
-10.206	-1.046	13443	16256	0	316
-8.222	-0.541	14326	17345	0	316
-7.609	0.685	14914	18435	0	316
-7.934	-0.072	14914	19140	0	316
-9.304	-3.282	15796	19653	0	316
-12.477	-5.698	16384	20166	0	316
-13.523	-6.527	16972	20358	0	316
-13.379	-3.570	16972	20166	0	316
-9.340	1.370	16972	19653	0	316
-6.491	6.780	16972	19076	0	316
-4.724	7.429	16972	18435	0	316
-4.616	3.787	16384	17858	0	316
-7.862	0.938	16384	17089	0	316
-9.016	-1.695	15796	16320	0	316
-11.648	-1.298	14914	15423	0	316
-12.261	1.082	14326	14718	0	316
-13.379	2.921	14326	14141	0	316
-11.107	5.121	13443	13692	0	316
-6.527	6.671	12855	13308	0	316
-2.741	8.583	12855	13115	0	316
0.649	11.035	12855	13179	0	316
-0.865	10.206	12855	13628	0	316
-3.714	9.484	12855	14333	0	316
-4.760	9.088	12855	14974	0	316
-1.983	8.547	12855	15423	0	316
3.534	10.242	13443	15936	0	316
7.609	10.638	13443	16640	0	316
6.022	10.025	14326	17281	0	316
1.406	5.481	14326	17730	0	316
-5.914	1.551	14914	18242	0	316
-10.783	-0.865	14914	18884	0	316
-10.674	-1.226	15796	19332	0	316
-9.232	0.469	16384	19589	0	316
-6.816	1.406	16972	19973	0	316
-6.275	1.731	16972	20294	0	316
-5.986	2.416	17854	20294	0	316
-6.852	2.633	17854	19973	0	316
-8.078	1.731	17854	19525	0	316
-8.402	-0.649	17854	19076	0	316
-9.052	-3.498	17854	18563	0	316
-6.924	-3.029	17854	18114	0	316
-4.111	1.695	17854	17666	0	316
0.252	7.717	17854	17281	0	316
2.813	12.477	17854	16832	0	316
3.318	13.848	17854	16320	0	316
0.613	11.035	17854	15743	0	316
-2.705	7.573	16972	15167	0	316
-5.734	5.590	16972	14654	0	316
-8.402	4.977	16384	14333	0	316
-8.727	5.337	16384	14077	0	316
-5.950	9.196	15796	13884	0	316
0.000	10.891	15796	13564	0	316
5.842	12.153	14914	13243	0	316
8.294	11.612	14914	13051	0	316
6.491	5.878	14326	13179	0	316
-1.010	0.938	14326	13500	0	316
-6.816	-3.029	14326	13756	0	316
-8.691	-2.272	14326	14141	0	316
-7.212	2.777	14326	14782	0	316
-5.301	7.248	14914	15679	0	316
-6.131	10.350	14914	16256	0	316
-8.366	8.871	14914	16448	0	316
-12.297	6.599	14914	16384	0	316
-13.307	3.137	14914	16384	0	316
-13.523	1.298	14914	16448	0	316
-11.828	-1.118	14914	16512	0	316
-8.763	-2.308	15796	16512	0	316
-2.705	0.685	15796	16384	0	316
3.859	4.796	15796	16320	0	316
8.583	9.124	14914	16256	0	316
10.638	7.573	15796	16192	0	316
7.465	5.229	14914	16128	0	316
4.977	1.695	14914	16064	0	316
4.508	2.957	14914	16064	0	316
6.167	9.232	14326	16064	0	316
8.547	13.920	14326	16192	0	316
8.042	15.723	14914	16512	0	316
4.977	13.018	14914	16832	0	316
3.318	10.206	14914	16896	0	316
1.839	10.891	14914	17089	0	316
2.957	12.261	14914	17345	0	316
5.517	15.326	14914	17473	0	316
5.301	15.038	15796	17601	0	316
4.544	12.477	15796	17922	0	316
2.777	9.196	16384	18499	0	316
0.325	6.960	16384	18884	0	316
-1.911	4.327	16972	19076	0	316
-5.049	3.498	17854	19332	0	316
-7.393	0.505	18442	19717	0	316
-8.691	0.505	18442	19781	0	316
-6.708	2.957	18442	19525	0	316
-3.426	7.717	18442	18948	0	316
-0.325	13.884	18442	18178	0	316
0.505	16.625	18442	17409	0	316
-2.056	17.382	17854	16704	1	664
-4.652	15.939	17854	16256	0	664
-5.914	15.759	16972	15679	0	664
-4.219	16.661	16972	15038	0	664
-4.291	18.788	16384	14397	0	664
-4.327	19.257	16384	13820	0	664
-7.573	19.293	15796	13436	0	664
-11.576	18.428	16384	13243	0	664
-12.369	19.798	14914	13243	0	664
-12.622	22.755	14914	13308	0	664
-12.982	23.296	14914	13564	0	664
-16.012	22.899	14914	13884	0	664
-18.644	19.726	14326	14077	0	664
-22.106	16.949	14326	14269	0	664
-20.916	16.516	14914	14782	0	664
-17.562	18.860	14914	15615	0	664
-13.415	22.683	14914	16320	0	664
-12.261	23.585	15796	16896	0	664
-10.638	22.972	16384	17730	0	664
-11.504	20.880	16972	18563	0	664
-11.720	20.736	17854	19140	0	664
-9.665	19.618	17854	19204	0	664
-9.520	19.798	17854	19140	0	664
-9.917	18.283	17854	18884	0	664
-11.360	13.776	17854	18563	0	664
-14.064	9.917	18442	18242	0	664
-13.163	6.599	17854	17858	0	664
-12.405	6.744	17854	17409	0	664
-10.025	8.042	17854	16768	0	664
-8.439	12.333	16972	16256	0	664
-9.592	14.389	16384	15872	0	664
-11.179	15.435	16972	15551	0	664
-12.369	13.595	16384	15231	0	664
-12.766	10.422	16384	14974	0	664
-11.973	5.770	16384	14846	0	664
-11.720	3.065	16384	14974	0	664
-11.684	1.875	16384	15167	0	664
-11.864	1.695	16384	15102	0	664
-12.910	2.524	15796	15038	0	664
-13.307	3.210	16384	15359	0	664
-14.497	3.173	16384	16000	0	664
-16.120	2.164	16972	16576	0	664
-16.300	4.111	16972	17025	0	664
-14.353	8.619	17854	17473	0	664
-11.360	11.143	18442	18114	0	664
-8.691	14.533	18442	18499	0	664
-8.114	13.956	18442	18627	0	664
-10.927	12.009	18442	18563	0	664
-12.874	9.881	18442	18435	0	664
-12.982	10.169	18442	18307	0	664
-10.783	11.648	18442	18050	0	664
-6.275	13.884	19325	17666	0	664
-3.823	13.415	18442	17217	0	664
-2.452	11.504	18442	16704	0	664
-3.101	6.527	18442	16192	0	664
-3.173	2.885	17854	15743	0	664
-2.813	4.147	17854	15295	0	664
-2.741	6.996	16972	14782	0	664
-5.770	9.665	16972	14205	0	664
-8.150	9.989	16384	13756	0	664
-12.045	5.770	16384	13500	0	664
-12.045	2.416	15796	13436	0	664
-10.819	1.262	15796	13500	0	664
-8.763	4.039	15796	13692	0	664
-6.599	6.888	15796	14141	0	664
-5.193	7.970	15796	14910	0	664
-5.734	6.563	15796	15487	0	664
-5.626	2.921	16384	15808	0	664
-4.724	1.370	16384	16192	0	664
-4.508	0.793	16384	16640	0	664
-1.262	2.308	16384	16960	0	664
-0.325	2.380	16972	17089	0	664
-1.911	1.010	16972	17345	0	664
-6.419	-1.983	17854	17730	0	664
-10.278	-4.616	17854	18050	0	664
-12.694	-5.517	17854	18114	0	664
-11.540	-6.094	17854	17922	0	664
-6.455	-4.940	17854	17601	0	664
-1.442	-0.757	17854	17089	0	664
3.859	4.652	16972	16576	0	664
6.852	9.124	16972	16128	0	664
6.203	11.035	16384	15743	0	664
3.210	8.583	16384	15295	0	664
1.154	6.131	15796	14846	0	664
-0.325	6.167	15796	14397	0	664
1.046	9.701	14914	14141	0	664
6.455	17.562	14914	14013	0	664
10.855	24.883	14326	13949	0	664
14.966	29.246	14326	14077	0	664
16.444	29.751	14326	14461	0	664
14.208	26.397	14326	14974	0	664
11.215	21.565	14326	15551	0	664
8.258	17.851	14326	16064	0	664
6.816	17.670	14914	16640	0	664
8.402	18.824	14914	17345	0	664
8.402	18.067	15796	17794	0	664
8.366	17.815	15796	18242	0	664
6.960	15.867	16384	18884	0	664
5.013	13.018	17854	19909	0	664
5.409	11.504	18442	20935	0	664
5.698	10.061	19325	21448	0	664
6.455	6.671	19913	21576	0	664
6.383	5.734	20795	21768	0	664
3.931	2.741	21384	21960	0	664
0.036	0.938	22266	21960	0	664
-2.669	0.072	22266	21576	0	664
-5.373	0.288	22266	20935	0	664
-5.049	1.334	22266	20230	0	664
-4.219	2.236	22266	19460	0	664
-0.505	2.524	22266	18691	1	436
2.849	1.911	22266	18050	0	436
6.167	2.633	21384	17345	0	436
8.258	2.993	22266	16576	0	436
8.943	4.003	21384	15872	0	436
9.484	4.327	20795	14974	0	436
7.970	2.669	20795	14013	0	436
8.078	1.442	19913	13179	0	436
6.708	-0.361	19325	12538	0	436
8.078	-0.541	18442	12090	0	436
8.475	1.659	18442	11641	0	436
12.369	4.652	17854	11320	0	436
13.595	7.537	16972	11192	0	436
14.930	8.547	16972	11256	0	436
14.136	8.583	16972	11577	0	436
13.127	6.816	16972	12154	0	436
13.595	7.176	16384	12602	0	436
12.333	6.924	16384	12859	0	436
13.091	7.717	16384	13436	0	436
14.930	8.907	16384	14077	0	436
19.546	12.117	16384	14526	0	436
24.558	15.615	16384	14590	0	436
27.948	16.949	16384	14654	0	436
27.660	14.785	15796	14718	0	436
25.279	11.468	15796	14718	0	436
26.686	9.773	14914	14590	0	436
28.128	11.323	14914	14526	0	436
29.787	14.064	14914	14526	0	436
27.660	14.749	14326	14654	0	436
20.700	9.556	14326	14910	0	436
15.146	5.590	14326	15231	0	436
13.884	3.570	13443	15423	0	436
17.129	4.183	13443	15359	0	436
21.962	9.592	12855	15295	0	436
24.775	12.694	12855	15551	0	436
24.486	13.379	12855	16000	0	436
21.096	12.802	12855	16384	0	436
18.283	7.934	14326	16448	0	436
16.120	4.436	13443	16832	0	436
16.084	2.344	14326	17666	0	436
17.598	4.111	14914	18691	0	436
19.077	8.402	14914	19460	0	436
21.457	14.100	15796	19973	0	436
21.421	16.661	16384	20230	0	436
21.818	16.228	16384	20166	0	436
19.906	15.939	16384	19845	0	436
18.608	17.021	16384	19460	0	436
20.375	21.457	16384	19012	0	436
22.611	25.640	16384	18499	0	436
23.404	25.243	15796	17986	0	436
22.575	19.690	15796	17409	0	436
17.238	13.091	14914	16832	0	436
14.281	7.825	14914	16320	0	436
15.723	10.206	14326	15808	0	436
20.050	14.821	14326	15423	0	436
24.125	17.779	13443	15038	0	436
24.414	16.300	13443	14654	0	436
19.221	12.369	12855	14333	0	436
16.408	10.242	11973	14077	0	436
16.300	10.746	11973	14269	0	436
21.565	16.625	12855	14782	0	436
29.535	22.250	13443	15359	0	436
33.357	26.073	13443	15872	0	436
34.331	25.676	13443	16384	0	436
29.391	21.168	14326	17089	0	436
23.296	15.651	14326	17601	0	436
17.815	9.376	14326	17858	0	436
16.012	8.114	14914	18114	0	436
16.336	8.475	15796	18563	0	436
18.608	9.917	15796	18948	0	436
20.411	8.402	15796	19012	0	436
22.755	7.465	16384	19012	0	436
27.768	7.825	16384	19012	0	436
33.826	13.127	16384	18884	0	436
42.084	20.664	16384	18563	0	436
47.782	26.974	16384	17986	0	436
46.159	26.866	16384	17409	0	436
40.498	22.142	15796	16768	0	436
34.223	15.795	15796	16192	0	436
31.951	13.920	14914	15551	0	436
36.964	17.598	14914	15102	0	436
44.464	22.755	14326	14590	0	436
49.585	25.424	14326	14205	0	436
47.602	22.611	13443	13884	0	436
43.599	16.877	13443	13692	0	436
41.291	13.631	12855	13500	0	436
42.301	13.956	11973	13436	0	436
45.438	17.706	13443	13564	0	436
47.422	17.202	12855	14077	0	436
44.933	13.379	13443	14910	0	436
38.622	6.419	13443	15615	0	436
33.466	0.577	13443	16256	0	436
29.931	-1.154	14326	16960	0	436
28.994	1.406	14914	18050	0	436
27.047	4.111	15796	19204	0	436
27.840	4.940	16384	19973	0	436
27.732	6.527	17854	20614	0	436
30.400	7.789	18442	21127	0	436
35.269	11.864	18442	21319	0	436
39.849	14.497	19325	21127	0	436
40.101	15.795	19325	20807	0	436
36.603	12.658	19913	20294	0	436
33.429	9.701	19325	19717	0	436
33.610	8.258	19913	19204	1	412
37.108	11.179	19913	18819	0	412
40.534	12.225	19913	18435	0	412
43.779	13.812	19325	17858	0	412
42.373	12.658	19325	17025	0	412
42.409	12.910	19325	16192	0	412
42.337	13.054	18442	15295	0	412
41.399	15.903	17854	14526	0	412
39.668	16.372	17854	13949	0	412
33.502	14.497	17854	13564	0	412
28.777	12.694	16972	13500	0	412
23.729	10.025	16972	13756	0	412
23.008	9.701	16972	14077	0	412
23.512	10.097	17854	14333	0	412
25.460	10.350	17854	14782	0	412
28.128	11.576	17854	15295	0	412
29.246	11.396	17854	15551	0	412
29.354	12.946	18442	15551	0	412
28.597	13.559	18442	15679	0	412
25.171	14.966	18442	16000	0	412
23.260	13.091	18442	16128	0	412
20.700	13.163	18442	16128	0	412
20.916	12.405	19325	16384	0	412
20.267	12.297	18442	16832	0	412
19.762	10.927	19325	17217	0	412
17.815	8.727	19325	17217	0	412
16.625	6.744	19325	17025	0	412
17.346	9.448	19325	16640	0	412
20.087	14.064	18442	16192	0	412
22.106	19.618	18442	15615	0	412
21.313	20.195	17854	14974	0	412
19.041	16.048	17854	14461	0	412
17.057	10.602	16972	13949	0	412
16.985	6.888	16384	13436	0	412
19.257	6.671	15796	12923	0	412
20.916	7.862	14914	12474	0	412
19.510	8.114	14326	12282	0	412
15.975	8.258	14326	12282	0	412
11.973	9.484	13443	12410	0	412
10.350	10.783	13443	13051	0	412
10.638	12.874	14326	14013	0	412
11.323	13.559	14326	14910	0	412
12.189	13.127	14326	15487	0	412
13.668	11.143	14326	16064	0	412
13.451	9.989	14914	16768	0	412
15.867	10.350	14914	17281	0	412
18.500	10.602	15796	17666	0	412
22.142	12.802	16384	18178	0	412
25.640	16.048	16384	18755	0	412
28.561	17.923	16972	19140	0	412
29.174	18.175	16972	19204	0	412
26.217	17.490	16972	19076	0	412
22.899	12.910	16972	18884	0	412
20.447	10.422	16972	18755	0	412
22.106	10.530	16972	18499	0	412
26.145	12.153	16384	18178	0	412
31.879	16.480	16384	17666	0	412
34.620	18.464	16384	17217	0	412
32.780	17.021	16384	16768	0	412
28.489	12.297	15796	16448	0	412
24.775	8.871	15796	16192	0	412
23.621	7.032	15796	15872	0	412
27.083	10.746	14914	15615	0	412
31.338	15.903	15796	15487	0	412
33.970	20.303	15796	15359	0	412
33.105	20.375	15796	15231	0	412
28.886	14.966	14914	15038	0	412
23.116	6.671	14914	15038	0	412
16.697	-1.875	14914	15295	0	412
13.343	-8.979	14914	15872	0	412
10.855	-9.016	15796	16576	0	412
13.595	-6.203	16384	17217	0	412
17.238	-1.803	16384	17922	0	412
18.788	-0.072	16972	18563	0	412
17.021	-3.390	17854	19012	0	412
12.658	-9.917	17854	19140	0	412
8.799	-14.172	18442	19332	0	412
10.566	-12.874	19325	19717	0	412
16.012	-8.078	19325	19781	0	412
20.844	-2.452	19325	19460	0	412
22.286	-0.180	19325	18884	0	412
19.978	-1.046	19325	18307	0	412
17.851	-2.741	18442	17730	0	412
17.274	-1.803	18442	17089	0	412
19.762	0.793	18442	16384	0	412
21.241	3.606	17854	15615	0	412
23.008	5.373	17854	14910	0	412
21.926	5.373	16972	14333	0	412
20.231	5.590	16384	13756	0	412
18.608	5.986	15796	13179	0	412
17.779	6.852	14914	12667	0	412
18.752	10.025	14914	12346	0	412
21.241	10.819	14326	12346	0	412
26.506	13.018	14326	12667	0	412
28.705	14.966	14326	13179	0	412
30.977	15.398	14326	13564	0	412
32.889	14.533	14326	13949	0	412
32.744	15.290	14326	14461	0	412
33.826	16.264	14326	15231	0	412
34.475	17.598	14326	15808	0	412
34.187	18.933	15796	16128	0	412
32.312	18.175	15796	16512	0	412
30.617	15.831	15796	17089	0	412
31.338	14.317	16384	17473	0	412
32.853	14.821	16384	17601	0	412
35.269	17.310	16384	17601	0	412
34.944	18.031	16384	17473	0	412
31.013	16.480	16384	17345	0	412
26.289	14.028	15796	17089	0	412
22.935	12.045	15796	16768	0	412
24.125	13.091	15796	16448	0	412
25.027	14.966	14914	16128	0	412
23.909	15.867	14914	15872	0	412
19.041	13.235	14914	15743	0	412
11.504	6.780	14326	15615	0	412
4.003	0.757	14326	15551	0	412
2.272	-3.210	13443	15423	0	412
5.337	-3.606	13443	15295	0	412
11.792	1.046	13443	15551	0	412
18.103	4.760	13443	16000	0	412
19.762	8.042	14326	16384	0	412
15.074	6.599	14326	16640	0	412
8.547	2.885	14326	17089	0	412
3.282	0.902	14326	17537	0	412
2.705	0.325	14914	17794	0	412
5.337	2.128	14914	17986	0	412
9.268	3.642	15796	18499	0	412
8.583	2.560	16384	19204	0	412
5.481	0.036	16384	19717	0	412
0.613	-3.173	16972	19909	0	412
-2.813	-4.472	17854	19909	0	412
-2.019	-3.210	17854	19653	0	412
1.767	-1.875	17854	19332	0	412
7.140	0.721	17854	18948	0	412
10.458	1.803	17854	18563	0	412
13.163	2.957	17854	18114	1	540
13.776	3.173	17854	17473	0	540
14.785	4.255	17854	16768	0	540
14.353	6.563	16972	16192	0	540
15.182	9.196	16972	15615	0	540
14.966	10.566	16384	15038	0	540
15.326	11.756	16384	14590	0	540
15.471	9.376	15796	14205	0	540
15.759	7.104	15796	13949	0	540
15.687	5.734	14914	13756	0	540
16.408	6.239	14914	13628	0	540
19.329	10.999	14914	13564	0	540
22.683	17.490	14914	13692	0	540
23.693	22.034	14914	14077	0	540
22.034	23.621	14914	14461	0	540
18.500	22.539	14914	14910	0	540
16.516	19.906	14914	15487	0	540
17.743	19.942	15796	16256	0	540
19.618	21.204	15796	16768	0	540
21.457	23.260	16384	17281	0	540
19.798	22.503	16384	17922	0	540
18.428	23.512	16972	18627	0	540
18.897	24.847	17854	19012	0	540
20.303	26.974	17854	18948	0	540
20.123	28.669	17854	18563	0	540
16.444	28.345	17854	17922	0	540
11.179	24.702	16972	17281	0	540
7.717	22.863	16972	16640	0	540
7.717	22.395	16972	16064	0	540
12.514	24.594	16384	15615	0	540
16.516	27.840	16384	15359	0	540
19.185	29.318	15796	15102	0	540
18.464	29.607	15796	14782	0	540
15.651	28.164	14914	14461	0	540
13.127	27.840	14914	14333	0	540
11.612	28.237	14914	14397	0	540
11.360	27.551	14914	14526	0	540
9.520	25.965	14914	14846	0	540
10.278	23.585	14914	15359	0	540
9.052	20.591	14914	15872	0	540
9.412	20.664	14914	16192	0	540
11.251	20.375	16384	16576	0	540
12.514	21.385	16972	17345	0	540
14.641	22.539	16384	17986	0	540
16.697	24.630	16972	18435	0	540
16.661	25.316	17854	18819	0	540
14.425	24.053	17854	19140	0	540
9.665	22.214	18442	19396	0	540
7.248	18.572	19325	19589	0	540
6.347	17.706	19325	19717	0	540
9.412	16.877	19913	19781	0	540
10.710	16.120	19913	19653	0	540
10.746	15.290	19913	19268	0	540
8.366	15.182	19913	18627	0	540
6.671	15.687	19913	17922	0	540
5.337	15.831	19913	17281	0	540
5.157	16.120	19913	16768	0	540
4.219	16.408	19913	16320	0	540
4.219	17.526	19325	15872	0	540
3.823	20.231	18442	15295	0	540
4.364	21.096	18442	14782	0	540
2.813	20.772	17854	14397	0	540
1.947	18.680	17854	14205	0	540
1.442	17.310	17854	14077	0	540
1.010	16.805	16972	13949	0	540
-0.505	17.779	16972	13756	0	540
-3.931	18.608	16972	13756	0	540
-8.763	19.401	16972	13884	0	540
-12.874	19.329	16972	14077	0	540
-15.975	19.834	16972	14333	0	540
-15.038	20.772	16972	14782	0	540
-13.415	23.260	16972	15423	0	540
-12.153	26.506	16972	15808	0	540
-12.189	26.866	17854	16064	0	540
-13.884	24.775	17854	16256	0	540
-19.221	19.690	17854	16640	0	540
-22.539	15.651	18442	17217	0	540
-25.784	13.163	18442	17601	0	540
-24.991	13.956	18442	17730	0	540
-23.729	14.281	18442	17537	0	540
-20.375	15.759	18442	17153	0	540
-16.336	17.454	18442	16640	0	540
-12.333	20.231	16972	16128	0	540
-10.206	21.998	17854	15615	0	540
-12.838	23.152	17854	15295	0	540
-19.510	19.149	16972	15167	0	540
-28.417	14.425	16972	15102	0	540
-33.321	12.658	16972	15295	0	540
-33.285	11.828	16972	15551	0	540
-27.047	15.471	16384	15808	0	540
-22.972	17.670	16384	16064	0	540
-22.611	17.706	16972	16448	0	540
-27.227	15.218	16972	16960	0	540
-32.528	11.756	16972	17153	0	540
-35.413	9.989	17854	17281	0	540
-34.800	8.871	17854	17666	0	540
-31.735	12.045	18442	18371	0	540
-29.138	13.776	19325	18948	0	540
-28.309	15.074	19913	19204	0	540
-29.571	14.028	19913	19332	0	540
-31.085	12.622	20795	19268	0	540
-30.761	11.287	20795	19140	0	540
-28.417	13.091	20795	18755	0	540
-24.811	14.064	20795	18371	0	540
-23.296	12.946	20795	17986	1	416
-22.683	7.104	20795	17601	0	416
-24.270	3.462	19913	17089	0	416
-22.972	1.839	19913	16448	0	416
-19.510	4.616	19325	15808	0	416
-18.356	8.330	19325	14974	0	416
-19.510	10.133	18442	14205	0	416
-25.135	6.167	17854	13436	0	416
-27.912	3.354	16972	12731	0	416
-28.201	1.046	16384	12026	0	416
-24.378	0.974	15796	11384	0	416
-20.591	2.200	14914	10936	0	416
-16.733	3.750	14326	10872	0	416
-15.507	4.796	14326	11320	0	416
-12.441	6.635	13443	11897	0	416
-9.376	6.924	13443	12474	0	416
-8.979	4.796	13443	13115	0	416
-10.927	2.705	13443	13884	0	416
-15.074	-0.325	13443	14461	0	416
-17.310	-2.416	14326	14974	0	416
-16.589	-0.793	14914	15679	0	416
-13.595	-0.325	14914	16384	0	416
-10.061	0.036	14914	16832	0	416
-10.999	-1.190	14914	17153	0	416
-14.353	-2.849	15796	17666	0	416
-16.661	-3.065	15796	18307	0	416
-16.048	-1.082	15796	18691	0	416
-9.737	3.895	16384	18819	0	416
-3.318	7.465	16384	18691	0	416
0.397	10.530	16384	18499	0	416
-0.865	7.176	15796	18178	0	416
-4.472	4.111	15796	17794	0	416
-5.806	0.036	15796	17345	0	416
-3.498	-0.938	14914	16768	0	416
1.406	1.803	14326	16256	0	416
5.337	5.878	14326	15872	0	416
6.924	8.006	14326	15679	0	416
5.662	9.232	13443	15487	0	416
4.544	7.753	13443	15295	0	416
6.311	7.753	12855	15038	0	416
6.960	6.275	12855	14910	0	416
8.727	6.383	12855	15102	0	416
8.475	3.570	11973	15423	0	416
6.780	1.515	12855	15679	0	416
6.816	0.902	13443	16000	0	416
7.862	1.767	13443	16512	0	416
10.783	3.678	13443	17345	0	416
11.684	7.068	14326	18050	0	416
13.595	9.124	14914	18691	0	416
14.821	11.143	15796	19653	0	416
16.336	11.251	16384	20614	0	416
17.562	9.484	16972	21319	0	416
18.067	7.465	17854	21448	0	416
19.113	8.511	18442	21319	0	416
20.555	11.684	18442	20999	0	416
19.870	16.372	18442	20678	0	416
16.697	18.320	19325	20294	0	416
10.494	15.254	18442	19909	0	416
3.210	10.494	19325	19332	0	416
0.469	5.590	19325	18755	0	416
0.036	4.364	18442	18178	0	416
0.577	4.327	18442	17601	0	416
-1.875	2.849	18442	16960	0	416
-8.006	-1.334	18442	16384	0	416
-14.641	-7.140	17854	15679	0	416
-19.798	-10.710	17854	15102	0	416
-22.683	-12.766	17854	14718	0	416
-22.503	-12.225	17854	14654	0	416
-23.837	-12.081	17854	14590	0	416
-25.352	-14.858	17854	14526	0	416
-27.335	-15.939	17854	14654	0	416
-26.433	-15.687	17854	14974	0	416
-24.198	-12.586	17854	15102	0	416
-19.942	-9.773	17854	15102	0	416
-16.480	-8.330	17854	15102	0	416
-14.966	-9.232	17854	15359	0	416
-13.956	-10.783	17854	15551	0	416
-14.569	-12.694	17854	15679	0	416
-13.776	-11.107	18442	15808	0	416
-14.785	-10.314	18442	16128	1	316
-15.326	-9.448	18442	16384	0	316
-14.641	-6.527	19325	16448	0	316
-12.910	-4.255	19325	16384	0	316
-8.547	-3.859	18442	16256	0	316
-6.780	-4.291	17854	16000	0	316
-6.203	-6.888	17854	15615	0	316
-8.799	-10.602	17854	15295	0	316
-10.278	-10.891	16972	15038	0	316
-10.602	-7.970	16972	14718	0	316
-6.744	-4.327	16384	14333	0	316
-4.940	-0.865	16384	14013	0	316
-3.570	-0.325	15796	13884	0	316
-3.787	-0.288	15796	13756	0	316
-2.921	-0.288	14914	13692	0	316
0.000	2.524	14914	13756	0	316
3.354	5.914	14914	14205	0	316
3.462	6.527	14914	14654	0	316
-0.613	4.364	14914	14910	0	316
-5.590	1.082	14914	14974	0	316
-8.835	-0.577	15796	15231	0	316
-5.157	1.947	15796	15615	0	316
1.406	6.527	15796	15936	0	316
7.321	8.402	15796	16128	0	316
8.943	7.898	15796	16512	0	316
7.862	5.085	16384	17281	0	316
7.537	4.724	16384	17858	0	316
11.900	8.979	16384	18242	0	316
16.480	11.684	16972	18307	0	316
19.618	11.937	16972	18242	0	316
18.175	9.304	16972	17986	0	316
16.372	4.580	16384	17666	0	316
16.552	4.183	16384	17409	0	316
21.060	10.710	16384	17153	0	316
26.974	17.815	16384	16832	0	316
26.974	20.375	15796	16448	0	316
24.053	17.779	15796	16128	0	316
18.139	10.674	14914	15679	0	316
15.074	6.780	14914	15295	0	316
16.552	8.402	14326	15038	0	316
1772.449	-577.930	13119	17603	0	16804
44.681	15.326	15796	18691	0	316
46.232	16.300	16384	19332	0	316
48.215	17.670	16972	19589	0	316
49.946	18.031	16972	19717	0	316
54.345	17.598	17854	19717	0	316
59.502	18.752	17854	19653	0	316
65.813	21.890	18442	19589	0	316
71.006	26.397	18442	19396	0	316
73.530	29.679	18442	19204	0	316
72.485	29.679	19325	18948	0	316
67.977	24.125	19325	18627	0	316
62.279	17.274	19325	18371	0	316
58.384	11.684	19913	18114	0	316
58.276	11.828	19913	17858	0	316
62.892	14.605	19913	17473	0	316
65.453	19.510	19913	17153	0	316
67.328	20.736	19325	16832	0	316
65.200	18.897	19325	16512	0	316
61.918	15.074	19325	16192	0	316
58.384	11.360	19325	15743	0	316
56.690	10.025	19325	15295	0	316
55.283	7.753	19325	15102	0	316
53.083	6.780	19325	15167	0	316
50.667	4.472	19325	15102	0	316
47.746	3.137	19325	14910	0	316
46.953	2.741	19325	14846	0	316
46.953	1.226	19325	15038	0	316
45.078	-0.361	19325	15231	0	316
43.779	-2.200	18442	15295	0	316
39.235	-3.678	19325	15487	0	316
34.692	-4.436	19913	15808	0	316
31.915	-2.885	19325	15936	0	316
29.643	-2.272	19325	15808	0	316
30.617	-1.911	18442	15423	0	316
32.636	-0.865	18442	14846	0	316
34.331	0.793	17854	14333	0	316
36.459	2.957	17854	14013	0	316
36.855	5.265	16972	13756	0	316
36.314	7.681	16972	13564	0	316
36.459	10.494	16972	13564	0	316
38.731	11.215	16384	13756	0	316
41.543	12.766	16384	14077	0	316
42.950	12.297	16384	14397	0	316
43.563	12.658	16384	14526	0	316
39.235	10.999	16384	14590	0	316
35.882	8.835	16384	14590	0	316
31.482	6.203	16384	14846	0	316
31.699	6.131	15796	15231	0	316
34.187	6.275	15796	15423	0	316
36.026	7.321	15796	15487	0	316
34.043	6.996	15796	15808	0	316
28.597	1.515	16384	16512	0	316
21.601	-3.678	16384	17281	0	316
19.726	-6.455	16972	17794	0	316
20.880	-3.029	17854	18242	0	316
25.207	0.793	17854	18884	0	316
29.535	6.419	18442	19268	0	316
30.977	9.304	18442	19204	0	316
31.771	9.268	18442	18884	0	316
31.735	9.160	18442	18371	0	316
30.797	7.753	18442	17794	0	316
26.037	5.445	17854	17089	1	656
23.260	4.472	16972	16320	0	656
22.467	4.003	16972	15679	0	656
25.135	7.465	16384	15102	0	656
28.705	8.835	15796	14526	0	656
29.066	8.583	15796	14013	0	656
26.289	3.426	14914	13692	0	656
20.087	-0.865	14326	13436	0	656
17.454	-2.921	13443	13179	0	656
16.733	-0.144	13443	13051	0	656
18.067	4.760	12855	13115	0	656
20.159	7.898	12855	13308	0	656
20.736	9.989	11973	13628	0	656
20.231	8.258	11973	14077	0	656
20.339	6.780	11973	14654	0	656
18.716	4.616	12855	15359	0	656
15.759	1.731	13443	16064	0	656
12.081	1.731	14326	16704	0	656
10.169	2.596	14326	17537	0	656
8.655	5.481	14914	18499	0	656
9.448	7.934	14914	19076	0	656
8.691	9.953	15796	19268	0	656
9.196	10.169	15796	19525	0	656
8.150	11.612	16384	19909	0	656
10.097	13.379	16384	20037	0	656
11.360	14.858	16384	19845	0	656
12.081	16.156	16384	19460	0	656
10.819	16.589	16384	19012	0	656
7.789	18.067	16384	18499	0	656
7.140	20.664	16384	17986	0	656
6.744	22.575	16384	17409	0	656
5.265	23.801	15796	16960	0	656
4.688	22.070	15796	16704	0	656
1.839	21.204	15796	16448	0	656
0.180	20.808	15796	16256	0	656
-0.325	23.260	14914	16000	0	656
1.262	26.506	14914	15679	0	656
2.633	27.840	14914	15487	0	656
2.524	26.722	14914	15487	0	656
1.190	22.863	14914	15487	0	656
-1.154	20.159	14326	15423	0	656
-2.777	18.320	14326	15423	0	656
-2.200	19.618	14326	15423	0	656
-0.144	21.926	14326	15487	0	656
0.974	23.476	14326	15743	0	656
1.154	24.414	14326	16128	0	656
-2.019	22.863	14914	16384	0	656
-6.058	21.241	14914	16896	0	656
-8.799	19.365	15796	17730	0	656
-10.494	18.464	16384	18499	0	656
-8.150	19.257	16972	18884	0	656
-6.527	20.339	16972	19140	0	656
-5.121	20.844	17854	19589	0	656
-5.157	19.690	18442	20101	0	656
-8.547	16.444	19325	20358	0	656
-11.973	12.838	19913	20358	0	656
-17.418	10.097	20795	20358	0	656
-22.358	7.176	20795	20294	0	656
-24.486	7.176	21384	19909	0	656
-25.171	8.186	21384	19396	0	656
-22.286	10.061	20795	18691	0	656
-17.851	12.802	21384	17922	0	656
-17.274	13.559	21384	17153	0	656
-19.257	12.730	19913	16384	0	656
-25.424	8.330	19913	15551	0	656
-30.941	5.914	19325	14910	0	656
-35.124	3.498	19325	14205	0	656
-34.403	4.111	18442	13436	0	656
-30.040	5.770	17854	12602	0	656
-23.693	9.304	16972	11897	0	656
-19.798	9.160	16384	11320	0	656
-18.175	7.789	15796	11000	0	656
-21.277	2.164	15796	11192	0	656
-25.316	-3.750	15796	11897	0	656
-29.643	-8.294	15796	12859	0	656
-29.427	-7.789	16384	13628	0	656
-27.479	-3.750	16384	14205	0	656
-22.250	2.777	16384	15038	0	656
-18.139	7.429	16972	15872	0	656
-15.362	8.871	16972	16448	1	316
-14.245	5.770	17854	16832	0	316
-16.625	0.397	17854	17025	0	316
-20.772	-3.390	17854	17089	0	316
-23.981	-3.318	17854	16960	0	316
-26.614	-0.829	17854	16960	0	316
-24.558	3.137	17854	17089	0	316
-20.808	4.580	17854	17281	0	316
-15.831	3.354	18442	17537	0	316
-11.973	1.767	18442	17666	0	316
-10.025	-0.397	18442	17601	0	316
-11.684	-0.721	18442	17345	0	316
-14.894	-2.596	18442	17025	0	316
-17.129	-4.796	17854	16704	0	316
-17.562	-4.039	17854	16576	0	316
-13.271	-2.164	16972	16384	0	316
-9.520	0.180	16972	16192	0	316
-9.268	2.488	16972	15872	0	316
-12.622	1.479	16972	15679	0	316
-18.283	-2.092	16972	15808	0	316
-22.070	-6.347	16972	16064	0	316
-20.231	-7.321	16972	16384	0	316
-16.120	-5.481	17854	16832	0	316
-9.556	-1.010	18442	17601	0	316
-3.606	6.058	18442	18307	0	316
1.659	10.386	19325	18563	0	316
3.462	11.504	19325	18435	0	316
0.938	9.592	19913	18371	0	316
-2.669	5.806	19913	18371	0	316
-6.419	2.669	19913	18178	0	316
-8.979	1.803	19913	17794	0	316
-10.278	0.072	19325	17345	0	316
-10.314	-1.695	19913	16832	0	316
-13.307	-4.796	19325	16320	0	316
-15.759	-5.121	18442	15615	0	316
-15.687	-2.705	17854	15038	0	316
-13.127	2.308	17854	14654	0	316
-11.756	5.662	16972	14269	0	316
-11.864	3.498	16972	14013	0	316
-16.516	-4.039	16972	14013	0	316
-21.818	-10.494	16972	14141	0	316
-25.712	-14.389	16384	14141	0	316
-24.666	-12.045	16384	14013	0	316
-21.926	-9.232	16384	14141	0	316
-17.129	-7.212	16384	14461	0	316
-14.605	-8.583	15796	14590	0	316
-14.028	-10.530	15796	14461	0	316
-12.802	-11.648	15796	14526	0	316
-13.163	-11.323	15796	14782	0	316
-12.658	-8.114	14914	14910	0	316
-10.458	-5.914	14914	14846	0	316
-7.465	-4.219	14914	14846	0	316
-3.570	-1.731	14914	15038	0	316
-1.226	0.469	14326	15102	0	316
2.452	4.003	14914	14846	0	316
5.698	6.888	14326	14590	0	316
7.934	8.006	14326	14333	0	316
7.789	5.662	13443	14269	0	316
6.888	0.469	12855	14269	0	316
4.003	-3.354	12855	14397	0	316
3.462	-5.265	11973	14526	0	316
4.868	-2.705	11973	14718	0	316
8.727	-1.875	11384	14910	0	316
8.835	-1.010	11384	14974	0	316
7.753	-2.921	10502	14974	0	316
5.265	-5.085	10502	14910	0	316
4.400	-4.436	10502	15102	0	316
4.544	-0.108	10502	15359	0	316
5.193	3.390	10502	15936	0	316
3.823	4.039	10502	16576	0	316
0.974	2.272	10502	17089	0	316
-0.649	0.252	10502	17409	0	316
0.649	0.252	11384	17794	0	316
6.094	4.003	12855	18371	0	316
9.701	8.042	11973	18627	0	316
12.441	10.927	11973	18691	0	316
10.530	11.612	11973	18755	0	316
8.078	9.556	12855	19076	0	316
5.878	7.645	12855	19332	0	316
5.590	6.167	12855	19396	0	316
6.131	3.462	12855	19332	0	316
7.825	4.508	12855	19268	0	316
10.855	5.842	13443	19204	0	316
13.018	7.537	14326	19012	0	316
15.867	10.097	13443	18691	0	316
16.408	9.448	13443	18114	0	316
15.471	8.727	13443	17601	0	316
13.595	5.734	13443	17217	0	316
13.704	5.698	12855	16832	0	316
12.477	5.698	12855	16448	0	316
13.451	5.265	11973	16128	0	316
12.874	5.409	11973	15743	0	316
14.136	2.344	11973	15551	0	316
13.956	0.685	11973	15808	0	316
14.605	0.757	11973	16320	0	316
13.379	1.839	13443	16704	0	316
10.999	2.380	14326	17025	0	316
7.393	1.262	13443	17473	0	316
7.501	0.397	14326	18050	0	316
6.491	0.072	14326	18371	0	316
8.871	0.541	14914	18499	0	316
9.665	0.938	15796	18755	0	316
9.989	0.721	15796	19012	0	316
7.068	-2.019	15796	19012	0	316
3.967	-6.816	16384	18755	0	316
1.551	-9.737	16384	18371	0	316
1.587	-12.297	16384	17986	0	316
4.111	-10.963	16384	17666	0	316
8.078	-6.852	16384	17217	0	316
11.792	-0.902	16384	16960	0	316
11.540	3.750	16384	16832	0	316
11.432	4.616	16384	16640	0	316
11.576	3.859	16384	16384	0	316
12.009	2.236	16384	16128	0	316
14.821	2.200	15796	15808	0	316
17.490	2.272	15796	15487	0	316
19.510	2.849	15796	15231	0	316
20.627	3.354	15796	14974	0	316
22.611	3.426	14914	14654	0	316
23.260	2.019	14914	14397	0	316
23.404	2.993	14914	14205	0	316
21.096	2.056	14914	14269	0	316
15.687	0.865	14914	14654	0	316
11.900	0.072	14914	15231	0	316
10.566	2.308	14914	15679	0	316
10.638	5.157	15796	15936	0	316
13.595	7.068	15796	16320	0	316
14.208	9.196	16384	16896	0	316
14.605	6.996	16384	17473	0	316
13.127	5.878	16972	17986	0	316
12.802	4.364	17854	18627	0	316
10.494	4.183	18442	19268	0	316
5.914	2.416	19325	19589	0	316
2.200	0.180	19325	19525	0	316
-0.649	-0.649	19913	19204	0	316
0.288	0.252	19913	18755	0	316
2.741	2.272	19913	18178	0	316
4.688	4.724	19325	17601	1	548
3.606	2.957	19325	16960	0	548
0.793	0.288	18442	16384	0	548
0.469	-1.010	19325	15872	0	548
2.200	-0.325	18442	15359	0	548
5.842	2.957	17854	14846	0	548
7.717	5.517	16972	14397	0	548
5.914	5.878	16972	13949	0	548
4.111	2.200	16384	13564	0	548
1.226	-1.479	16384	13308	0	548
2.380	-4.436	16384	13372	0	548
5.409	-3.931	16384	13692	0	548
6.635	-3.859	15796	13949	0	548
7.537	-2.633	15796	14141	0	548
5.734	-4.075	16384	14782	0	548
4.616	-5.445	16972	15808	0	548
1.911	-9.376	17854	16768	0	548
-0.252	-11.323	17854	17473	0	548
-2.236	-13.451	18442	18114	0	548
-3.714	-15.146	19325	18884	0	548
-5.301	-14.641	19913	19268	0	548
-3.318	-11.071	19913	19204	0	548
0.649	-6.599	20795	19140	0	548
5.049	-0.793	20795	19012	0	548
6.816	3.534	20795	18819	0	548
6.455	4.039	21384	18371	0	548
3.787	0.649	20795	17794	0	548
0.433	-3.606	20795	17089	0	548
0.180	-6.275	19913	16448	0	548
1.118	-5.950	19325	15936	0	548
0.865	-6.022	19325	15423	0	548
0.288	-5.590	19325	15038	0	548
-2.524	-6.888	18442	14718	0	548
-3.101	-8.835	18442	14333	0	548
-1.262	-5.590	17854	13949	0	548
2.452	-0.938	17854	13628	0	548
6.094	3.246	16972	13436	0	548
8.583	5.590	16972	13243	0	548
6.203	2.344	16972	13243	0	548
2.524	-1.262	16972	13564	0	548
3.029	-2.092	16972	14141	0	548
6.311	0.649	16972	14718	0	548
11.287	3.678	16972	15231	0	548
13.704	4.003	17854	15808	0	548
12.009	-1.731	17854	16384	0	548
7.357	-6.888	17854	16832	0	548
8.222	-6.275	18442	17025	0	548
13.127	-1.082	17854	17281	0	548
20.375	9.376	18442	17666	0	548
22.719	13.018	19325	17922	0	548
19.473	10.927	18442	17794	0	548
11.937	4.977	18442	17409	0	548
6.563	1.731	17854	17025	0	548
5.229	1.226	17854	16576	0	548
7.970	3.029	17854	16256	0	548
9.520	3.137	16972	15872	0	548
10.169	0.036	16972	15615	0	548
8.655	-3.534	16972	15423	0	548
7.609	-4.003	16384	15231	0	548
7.140	-1.623	16384	15038	0	548
8.835	1.659	16384	14974	0	548
9.196	2.633	15796	14974	0	548
9.556	1.947	15796	15102	0	548
7.862	0.216	15796	15359	0	548
6.635	0.036	16384	15808	0	548
4.327	0.685	16384	16384	0	548
2.272	0.469	16384	16832	0	548
0.000	-1.803	16384	16960	0	548
-1.515	-6.022	16972	17217	0	548
-1.515	-8.979	17854	17922	0	548
-1.010	-11.504	17854	18627	0	548
0.505	-11.864	18442	19012	0	548
2.669	-9.124	19325	19204	0	548
4.977	-5.590	19325	19460	0	548
10.710	-0.252	19913	19589	0	548
14.461	4.760	19913	19525	0	548
17.959	4.652	20795	19396	0	548
16.516	2.777	20795	19140	0	548
12.658	-1.623	20795	18819	0	548
7.681	-6.780	19913	18371	1	316
4.904	-9.124	19913	17794	0	316
2.921	-9.953	19913	17217	0	316
5.337	-8.907	19913	16704	0	316
9.088	-5.445	19913	16320	0	316
15.146	-0.757	19325	15808	0	316
18.500	1.767	19325	15295	0	316
18.933	0.613	19325	14782	0	316
13.848	-3.462	18442	14397	0	316
5.662	-9.016	18442	14205	0	316
0.757	-13.704	18442	14461	0	316
0.325	-11.973	18442	14782	0	316
4.075	-8.330	17854	14782	0	316
8.402	-2.633	18442	14526	0	316
10.927	1.370	18442	14526	0	316
9.989	2.885	17854	14846	0	316
6.203	2.056	17854	14974	0	316
4.327	0.974	17854	15102	0	316
3.967	-0.433	17854	15423	0	316
5.229	-0.685	17854	15872	0	316
9.376	0.252	18442	16256	0	316
11.937	0.397	18442	16512	0	316
12.550	0.793	19325	17025	0	316
11.900	0.757	19325	17473	0	316
8.511	0.433	19325	17601	0	316
7.357	0.902	19325	17217	0	316
6.708	1.118	19325	16704	0	316
7.068	0.902	18442	16192	0	316
6.131	0.757	18442	15615	0	316
4.977	0.829	17854	15102	0	316
3.570	0.865	16972	14590	0	316
4.796	1.370	16972	14077	0	316
5.734	-1.010	16384	13436	0	316
6.924	-3.750	15796	12923	0	316
8.799	-4.652	14914	12538	0	316
8.871	-2.452	14326	12282	0	316
11.396	2.957	13443	12026	0	316
12.838	6.960	12855	11769	0	316
13.127	5.409	11973	11769	0	316
10.278	-0.541	11973	12282	0	316
5.229	-8.871	11973	12987	0	316
4.183	-12.838	11384	13500	0	316
4.977	-11.215	11384	14013	0	316
8.547	-6.996	11973	14910	0	316
11.143	-6.419	13443	16064	0	316
10.386	-7.573	12855	17217	0	316
8.547	-10.494	13443	18050	0	316
8.366	-7.645	14326	18755	0	316
13.343	-0.469	14326	19396	0	316
19.365	8.907	14914	19909	0	316
22.467	12.117	14914	20101	0	316
21.962	9.773	14914	20101	0	316
16.913	3.606	15796	19973	0	316
12.694	-0.902	15796	19781	0	316
11.179	-0.685	15796	19396	0	316
13.018	1.911	14914	18884	0	316
14.641	6.275	14914	18178	0	316
16.877	7.465	14326	17345	0	316
16.769	5.049	13443	16576	0	316
16.625	3.787	13443	15936	0	316
18.139	3.354	12855	15359	0	316
20.627	5.950	11973	14718	0	316
22.034	9.701	11973	14269	0	316
22.863	11.071	11973	14013	0	316
19.546	8.655	11384	14077	0	316
15.074	4.724	11384	14397	0	316
12.405	2.777	11384	14782	0	316
10.458	2.452	11384	15167	0	316
12.261	4.327	11384	15743	0	316
13.704	4.688	11384	16384	0	316
15.939	4.868	12855	16960	0	316
15.398	3.137	13443	17409	0	316
16.336	1.983	13443	17986	0	316
18.139	3.714	13443	18499	0	316
19.834	4.868	14326	18819	0	316
22.034	7.104	14326	19076	0	316
22.431	6.455	14914	19460	0	316
17.129	2.128	14914	19909	0	316
12.045	-2.272	15796	20101	0	316
9.701	-3.426	15796	19909	0	316
13.343	-0.649	15796	19460	1	320
20.195	5.517	15796	19012	0	320
24.811	8.258	15796	18627	0	320
23.909	5.229	15796	18242	0	320
16.877	-0.036	15796	17858	0	320
11.864	-5.013	15796	17473	0	320
9.124	-6.491	15796	17025	0	320
12.117	-3.065	15796	16640	0	320
15.615	1.010	15796	16384	0	320
17.021	3.534	15796	16064	0	320
16.589	3.750	14914	15679	0	320
13.704	2.056	14914	15359	0	320
11.576	-0.541	14914	14974	0	320
11.504	-1.911	14326	14718	0	320
12.838	-1.190	14326	14590	0	320
15.831	-0.252	13443	14397	0	320
16.552	1.298	13443	14077	0	320
14.064	1.695	13443	13820	0	320
11.143	2.019	13443	13949	0	320
7.357	3.642	13443	14333	0	320
7.357	5.373	13443	14718	0	320
8.475	6.239	14326	15359	0	320
10.927	6.131	14326	16192	0	320
10.746	5.986	14914	17025	0	320
10.097	5.013	15796	17473	0	320
8.763	3.642	15796	17666	0	320
8.547	4.904	15796	17730	0	320
11.864	6.275	15796	17730	0	320
14.930	8.655	15796	17666	0	320
16.697	11.179	15796	17473	0	320
16.156	11.179	15796	17153	0	320
12.982	8.547	15796	16832	0	320
10.855	4.111	15796	16512	0	320
9.520	1.911	14914	16256	0	320
10.963	0.974	14914	16000	0	320
12.874	1.046	14914	16000	0	320
14.353	2.272	14914	16000	0	320
15.038	3.173	14914	16000	0	320
15.471	4.724	14914	16064	0	320
16.408	6.527	14914	16320	0	320
17.057	9.412	15796	16512	0	320
16.444	10.133	15796	16640	0	320
16.120	10.133	15796	16832	0	320
14.533	9.665	15796	17089	0	320
15.146	9.124	15796	17153	0	320
17.166	10.819	15796	17025	0	320
19.690	12.117	16384	17153	0	320
20.844	13.956	16384	17473	0	320
21.096	13.163	16972	17666	0	320
21.241	11.432	16972	17730	0	320
20.483	7.537	16972	17601	0	320
20.447	4.832	16972	17473	0	320
19.582	2.633	16972	17153	0	320
17.166	0.072	16972	16768	0	320
15.759	-0.361	16972	16384	0	320
14.461	-0.541	16384	16128	0	320
14.930	1.623	16384	15808	0	320
16.805	5.590	16384	15423	0	320
19.870	9.953	15796	14974	0	320
21.493	12.694	15796	14461	0	320
20.988	12.261	14914	14141	0	320
17.057	7.032	14914	13949	0	320
14.461	4.364	14326	13820	0	320
12.514	2.885	14914	13564	0	320
14.208	5.517	14326	13436	0	320
16.156	7.609	14326	13372	0	320
14.677	9.953	13443	13500	0	320
11.468	8.078	13443	14013	0	320
9.448	6.816	14326	14846	0	320
8.042	7.032	14326	15679	0	320
9.917	7.898	14326	16320	0	320
10.566	7.357	14914	16960	0	320
9.340	5.878	14914	17730	0	320
6.960	3.282	15796	18178	0	320
6.203	3.210	15796	18371	0	320
8.727	4.904	16384	18499	0	320
15.002	8.871	16384	18627	0	320
20.159	10.746	16384	18691	0	320
21.854	11.035	16384	18499	0	320
19.510	6.888	16384	18242	0	320
14.858	3.246	16384	17794	0	320
11.396	-0.829	15796	17153	0	320
11.504	-2.777	15796	16384	0	320
11.071	-3.859	14914	15808	0	320
12.117	-3.931	14914	15231	0	320
12.910	-2.705	14326	14718	0	320
12.009	-0.793	13443	14141	0	320
12.009	0.793	12855	13692	0	320
10.386	1.082	11973	13372	0	320
5.049	-1.370	11973	13179	0	320
1.695	-4.039	11973	13051	0	320
0.361	-4.436	11384	13115	0	320
0.613	-4.688	11384	13436	0	320
2.128	-2.849	11384	14141	0	320
3.065	-2.524	11384	14846	0	320
3.462	-3.354	11384	15423	0	320
4.147	-3.642	11973	16064	0	320
4.868	-3.606	11973	16704	0	320
8.835	-0.938	12855	17281	0	320
11.215	1.911	14326	17601	0	320
14.281	3.967	13443	18114	0	320
15.651	6.491	14326	18819	0	320
14.136	4.652	14914	19460	0	320
9.340	1.515	14914	19781	0	320
6.455	-1.154	15796	19909	0	320
5.157	-3.029	15796	19973	0	320
5.626	-3.678	15796	19909	0	320
7.104	-3.787	15796	19589	0	320
6.491	-2.741	16384	19204	0	320
6.888	-2.308	15796	18755	0	320
8.583	0.325	15796	18242	1	440
13.559	3.426	15796	17730	0	440
17.382	6.131	15796	17409	0	440
18.536	5.481	15796	17217	0	440
15.543	4.183	15796	17153	0	440
12.694	2.128	15796	17089	0	440
11.143	3.895	15796	16960	0	440
14.461	6.635	15796	16768	0	440
17.057	10.819	15796	16448	0	440
18.320	13.018	15796	15936	0	440
17.202	14.100	14914	15487	0	440
14.281	12.009	14914	15423	0	440
13.920	12.189	14914	15615	0	440
17.779	13.127	14914	15679	0	440
23.837	15.398	14914	15615	0	440
28.092	16.697	14914	15679	0	440
29.030	18.175	15796	15936	0	440
25.243	16.841	15796	16064	0	440
19.149	14.353	15796	16256	0	440
14.785	12.297	15796	16512	0	440
14.461	12.009	16384	17025	0	440
17.418	13.848	16384	17409	0	440
20.627	15.002	16972	17473	0	440
22.611	16.805	16972	17345	0	440
21.962	17.526	16972	17345	0	440
21.529	18.139	16972	17345	0	440
23.260	19.510	17854	17409	0	440
23.981	20.123	17854	17409	0	440
24.414	18.788	17854	17281	0	440
20.736	16.012	17854	17089	0	440
15.543	10.999	17854	16960	0	440
13.451	9.412	17854	16704	0	440
15.867	10.350	17854	16384	0	440
19.726	14.281	17854	15936	0	440
24.630	17.093	16972	15551	0	440
24.558	18.500	16972	15423	0	440
21.637	16.192	17854	15615	0	440
18.752	12.225	17854	16000	0	440
17.238	11.251	17854	16256	0	440
19.113	11.900	17854	16384	0	440
24.017	15.507	18442	16768	0	440
28.633	19.546	19325	17537	0	440
30.761	21.962	19913	18242	0	440
30.617	23.116	19913	18691	0	440
26.217	20.988	20795	18884	0	440
23.296	18.788	20795	19012	0	440
20.411	15.326	21384	19012	0	440
20.916	14.317	21384	18948	0	440
22.863	14.208	22266	19012	0	440
26.938	16.877	22854	19140	0	440
27.551	18.897	22854	18948	0	440
26.866	19.041	22854	18307	0	440
22.142	15.831	22854	17601	0	440
16.697	9.989	22266	16768	0	440
12.045	4.832	21384	16000	0	440
12.297	2.777	21384	15038	0	440
15.903	5.698	20795	14013	0	440
20.591	9.124	19913	13051	0	440
21.673	9.773	19325	12346	0	440
18.211	5.662	18442	11833	0	440
11.684	-0.649	16972	11384	0	440
6.996	-4.868	17854	11000	0	440
7.285	-5.085	16972	10679	0	440
14.858	1.154	16384	10487	0	440
21.096	6.744	15796	10423	0	440
25.856	10.891	15796	10808	0	440
23.693	9.160	15796	11577	0	440
20.375	6.852	15796	12410	0	440
18.788	5.878	15796	13179	0	440
21.781	7.717	15796	14077	0	440
26.253	12.297	15796	15038	0	440
29.318	15.182	16384	15872	0	440
26.001	14.100	16384	16448	0	440
19.077	9.196	16384	17153	0	440
13.848	5.481	16972	17730	0	440
12.045	4.327	16972	17986	0	440
15.074	5.337	16972	18114	0	440
19.401	9.556	16384	18178	0	440
21.818	11.900	16972	18178	0	440
20.375	10.530	16972	18050	0	440
17.238	7.068	16972	17858	0	440
13.343	2.128	16972	17666	0	440
11.973	-0.974	16972	17409	0	440
13.595	-0.144	16972	17089	0	440
16.444	2.957	16384	16896	0	440
18.860	5.878	16384	16704	0	440
18.500	4.868	16384	16576	0	440
15.903	2.019	16384	16512	0	440
12.153	-3.210	16384	16384	0	440
11.432	-5.806	16384	16384	0	440
12.441	-5.229	16384	16576	0	440
14.930	-3.426	16384	16960	0	440
14.317	-2.741	16384	17281	0	440
12.297	-3.859	16972	17537	0	440
9.773	-6.275	17854	18114	0	440
9.953	-5.662	17854	19012	0	440
14.461	-3.173	18442	19781	0	440
19.293	-0.649	18442	20037	0	440
20.808	0.325	19325	20166	0	440
17.670	-2.741	19913	20230	0	440
13.163	-5.481	19913	20101	0	440
11.143	-6.022	19913	19653	0	440
12.622	-3.246	19913	19012	0	440
17.490	0.649	19913	18307	0	440
20.519	3.750	19913	17730	1	416
20.231	4.977	19913	17217	0	416
19.113	5.734	19913	16832	0	416
16.300	5.337	19913	16384	0	416
16.012	5.337	19325	16000	0	416
16.480	4.147	18442	15551	0	416
16.228	2.669	18442	15102	0	416
13.559	1.046	18442	14718	0	416
10.422	0.108	18442	14461	0	416
7.753	1.190	17854	14333	0	416
7.321	2.741	17854	14269	0	416
9.592	5.445	17854	14397	0	416
12.910	6.419	18442	14782	0	416
13.884	6.058	18442	15102	0	416
15.038	6.852	18442	15167	0	416
14.317	6.455	18442	15487	0	416
15.903	6.924	18442	15872	0	416
17.851	9.232	19325	16192	0	416
21.132	11.323	19325	16320	0	416
22.286	14.930	18442	16640	0	416
22.539	16.480	19913	17153	0	416
17.923	15.146	19913	17409	0	416
13.379	11.323	19913	17409	0	416
10.133	5.265	19913	17409	0	416
9.665	4.291	19913	17409	0	416
12.802	4.472	19913	17025	0	416
14.713	6.203	19325	16384	0	416
14.172	4.832	19325	15615	0	416
11.973	4.183	18442	15102	0	416
9.773	2.524	18442	14718	0	416
8.655	4.255	18442	14397	0	416
10.710	5.481	17854	14205	0	416
11.107	6.888	17854	14013	0	416
11.684	5.121	16972	13756	0	416
12.333	4.075	16384	13436	0	416
13.812	6.635	16384	13051	0	416
17.238	9.701	15796	12859	0	416
19.185	12.874	14914	12795	0	416
19.365	11.973	14914	12859	0	416
18.067	9.376	14326	12987	0	416
15.002	4.508	14326	13500	0	416
13.379	3.678	14326	14141	0	416
13.018	4.544	14326	14654	0	416
14.605	7.609	14326	14846	0	416
15.831	10.025	14326	15231	0	416
17.238	10.386	14326	15808	0	416
16.913	10.674	14326	16256	0	416
15.939	9.917	14326	16448	0	416
15.182	10.169	14326	16704	0	416
15.759	11.143	14326	17025	0	416
17.706	11.973	14326	17281	0	416
20.736	12.802	14326	17345	0	416
20.916	12.730	14326	17537	0	416
19.473	8.763	14914	17601	0	416
14.028	5.013	14914	17537	0	416
9.124	0.902	15796	17281	0	416
8.799	-0.577	14326	17089	0	416
11.035	2.092	14326	16896	0	416
16.120	6.094	14326	16704	0	416
19.690	10.242	14326	16704	0	416
20.231	11.468	14326	16896	0	416
18.680	11.035	14326	17089	0	416
15.795	9.665	14326	17281	0	416
12.946	7.537	14326	17217	0	416
9.701	4.111	14326	17153	0	416
5.770	2.669	14326	17345	0	416
5.986	2.019	14326	17794	0	416
8.042	2.416	14914	18178	0	416
12.261	5.373	14914	18242	0	416
16.372	6.635	14914	18307	0	416
16.985	8.979	15796	18499	0	416
15.651	9.052	15796	18691	0	416
13.668	10.386	16384	18884	0	416
13.559	10.350	16384	19268	0	416
15.795	11.360	16972	19589	0	416
17.851	12.333	16972	19589	0	416
20.303	12.117	17854	19332	0	416
22.863	12.045	17854	19076	0	416
23.512	13.163	17854	18948	0	416
24.162	12.586	18442	18691	0	416
26.722	15.218	18442	18178	0	416
26.722	16.192	17854	17601	0	416
28.309	16.372	17854	16832	0	416
27.876	15.218	16972	16128	0	416
28.309	14.569	16972	15295	0	416
24.702	13.848	16384	14590	0	416
22.935	12.369	15796	13949	0	416
21.493	11.468	15796	13436	0	416
21.132	12.946	14914	13051	0	416
24.558	13.884	14326	12731	0	416
26.253	17.743	14326	12474	0	416
28.886	20.159	13443	12282	0	416
27.804	20.014	12855	12154	0	416
26.001	19.798	11973	11961	0	416
23.765	18.824	11973	11897	0	416
22.503	18.933	11973	12026	0	416
23.512	19.185	11973	12346	0	416
21.998	17.238	11384	12731	0	416
20.411	14.172	11384	13179	0	416
19.582	12.081	11384	13820	0	416
22.395	12.117	11384	14654	0	416
27.119	16.336	11384	15359	0	416
34.079	22.647	11973	16064	0	416
38.406	26.217	11973	16704	0	416
38.586	26.470	13443	17473	0	416
36.964	22.647	13443	17922	0	416
36.711	18.428	13443	18178	0	416
38.767	17.923	13443	18371	0	416
39.921	21.204	13443	18499	0	416
41.039	24.522	13443	18563	0	416
39.849	26.361	13443	18563	0	416
37.577	25.676	13443	18627	0	416
36.387	22.827	13443	18627	0	416
37.396	21.241	13443	18435	0	416
40.101	23.657	13443	18114	0	416
44.320	25.207	13443	17730	0	416
44.464	24.630	13443	17409	0	416
43.671	23.729	14326	17153	0	416
41.147	21.673	14326	17153	0	416
39.091	21.060	14326	17345	0	416
39.235	23.404	14326	17666	0	416
37.829	23.476	14326	17922	0	416
34.511	19.654	14914	18178	0	416
29.246	12.874	15796	18499	0	416
26.470	7.537	15796	18948	0	416
26.433	6.563	16384	19268	0	416
30.292	11.107	16384	19268	0	416
30.545	14.821	16972	19396	0	416
28.092	15.867	17854	19589	0	416
23.044	10.999	17854	19589	0	416
17.670	4.868	17854	19076	0	416
15.687	-1.226	17854	18307	0	416
16.012	-2.452	16972	17409	0	416
15.975	-2.200	16972	16576	0	416
16.264	-0.325	16384	15743	1	536
17.743	0.541	16384	14910	0	536
18.933	2.669	15796	14141	0	536
21.781	3.462	14914	13692	0	536
23.008	2.993	14914	13308	0	536
23.549	3.065	14326	12987	0	536
22.719	2.885	13443	12731	0	536
24.666	4.147	13443	12474	0	536
26.109	9.989	12855	12282	0	536
29.679	14.533	11973	12218	0	536
30.292	18.464	11973	12410	0	536
30.328	17.923	11384	12602	0	536
28.886	15.182	11384	12795	0	536
27.804	11.576	10502	12859	0	536
27.335	9.989	11973	13115	0	536
26.181	9.989	11384	13692	0	536
25.532	12.514	10502	14205	0	536
23.873	17.382	10502	14654	0	536
23.801	20.483	11384	15295	0	536
23.008	21.673	11384	16128	0	536
21.637	19.690	11384	16832	0	536
22.214	14.966	11973	17537	0	536
21.132	10.819	12855	18242	0	536
21.204	9.124	13443	18948	0	536
22.467	10.963	13443	19332	0	536
23.873	13.595	14326	19525	0	536
23.909	14.353	14326	19525	0	536
22.070	13.668	14326	19332	0	536
19.726	11.684	14326	19012	0	536
17.526	11.540	14326	18755	0	536
17.454	12.730	14326	18563	0	536
20.375	16.300	14326	18242	0	536
23.981	17.598	14326	17922	0	536
25.496	16.661	14326	17601	0	536
25.965	15.254	13443	17217	0	536
24.847	13.848	13443	16832	0	536
23.512	14.749	13443	16512	0	536
23.368	14.785	14326	16384	0	536
23.260	15.218	13443	16192	0	536
22.358	14.245	14326	16192	0	536
23.945	12.441	13443	16320	0	536
23.585	11.612	13443	16384	0	536
23.440	11.396	14326	16512	0	536
24.198	11.468	14326	16896	0	536
22.358	11.648	14914	17345	0	536
19.942	10.169	14914	17666	0	536
16.877	9.124	14914	17858	0	536
14.100	7.176	15796	18114	0	536
13.631	7.321	16384	18563	0	536
14.064	7.681	16384	18819	0	536
14.930	6.635	16384	18755	0	536
14.245	5.554	16972	18499	0	536
10.783	1.875	16972	18114	0	536
8.763	-1.370	16972	17794	0	536
7.176	-2.777	16972	17473	0	536
9.412	-2.524	16972	17089	0	536
12.946	-0.577	16384	16576	0	536
16.372	2.164	16384	16064	0	536
16.949	4.255	16384	15551	0	536
16.120	5.373	15796	15167	0	536
14.713	5.878	15796	14910	0	536
14.641	6.527	15796	14782	0	536
15.579	8.547	15796	14718	0	536
17.166	10.999	15796	14910	0	536
16.120	11.179	15796	15102	0	536
14.605	11.540	15796	15295	0	536
13.307	10.422	15796	15359	0	536
13.740	9.052	15796	15487	0	536
17.490	9.845	16384	16000	0	536
20.664	10.350	16384	16704	0	536
24.017	12.225	16972	17281	0	536
24.342	14.245	17854	17666	0	536
24.450	14.930	17854	18242	0	536
22.250	15.579	18442	18884	0	536
20.700	14.677	19325	19204	0	536
20.303	13.631	19913	19332	0	536
20.267	13.704	19913	19396	0	536
21.024	15.903	20795	19396	0	536
22.575	17.310	19913	19204	0	536
22.575	20.195	21384	18819	0	536
21.998	20.231	20795	18435	0	536
17.634	17.851	20795	18050	0	536
14.208	14.966	20795	17601	1	328
11.360	13.595	20795	17089	0	328
11.504	14.821	20795	16512	0	328
14.858	19.185	20795	16064	0	328
18.752	20.447	19913	15423	0	328
18.608	19.654	19913	14718	0	328
16.012	15.831	19913	14205	0	328
12.622	11.792	19325	13949	0	328
8.402	10.422	18442	13756	0	328
8.294	10.819	18442	13564	0	328
8.799	10.350	17854	13500	0	328
12.730	12.045	18442	13756	0	328
16.192	13.271	18442	14333	0	328
17.995	13.054	18442	14846	0	328
15.795	11.864	18442	15102	0	328
9.809	9.232	19325	15487	0	328
6.275	5.049	19325	16000	0	328
5.734	3.823	19913	16320	0	328
10.963	7.140	19913	16384	0	328
15.435	9.881	19913	16576	0	328
17.418	11.143	19913	16832	0	328
13.487	8.006	20795	16960	0	328
8.619	4.255	20795	16832	0	328
6.311	-0.144	19913	16704	0	328
8.511	0.757	19913	16704	0	328
12.982	3.823	19913	16768	0	328
16.985	5.770	19913	16704	0	328
17.526	5.770	19913	16448	0	328
14.317	2.488	19913	16192	0	328
11.396	-0.505	19913	15743	0	328
9.088	-2.236	19325	15295	0	328
12.009	-0.721	19325	14782	0	328
16.012	3.354	18442	14205	0	328
19.906	7.681	17854	13692	0	328
21.168	10.819	17854	13372	0	328
19.113	10.422	16972	13179	0	328
15.290	7.789	16384	13051	0	328
12.658	3.642	16384	12987	0	328
11.756	1.442	15796	13115	0	328
14.569	1.803	15796	13500	0	328
17.166	4.255	15796	14077	0	328
19.654	8.907	16384	14846	0	328
20.375	10.206	16384	15487	0	328
19.654	10.530	16384	16000	0	328
16.733	6.311	16384	16512	0	328
15.723	2.596	16972	17089	0	328
14.749	-0.938	16972	17409	0	328
15.867	-0.938	16972	17537	0	328
18.536	2.488	16972	17794	0	328
21.168	7.321	16972	18114	0	328
23.260	12.333	16972	18307	0	328
24.414	15.903	16972	18242	0	328
22.539	15.471	16972	18114	0	328
19.834	12.586	16972	17858	0	328
17.670	9.448	16972	17601	0	328
17.923	7.393	16972	17281	0	328
19.798	9.448	16972	17025	0	328
22.647	12.297	16384	16704	0	328
23.440	15.398	16384	16384	0	328
20.591	15.507	16384	16192	0	328
16.625	13.884	15796	16000	0	328
15.579	11.287	15796	15808	0	328
19.546	12.802	15796	15551	0	328
28.417	15.903	14914	15359	0	328
35.990	19.293	14914	15359	0	328
39.524	20.772	14914	15551	0	328
36.928	20.050	15796	15872	0	328
31.446	17.959	15796	16064	0	328
28.561	17.274	15796	16064	0	328
28.309	16.769	16384	16384	0	328
27.047	15.471	16384	17089	0	328
25.965	12.477	16972	17922	0	328
22.467	10.350	17854	18435	0	328
20.050	7.862	17854	18884	0	328
20.483	6.924	17854	19396	0	328
20.231	4.904	18442	19781	0	328
19.113	3.101	18442	19589	0	328
17.382	2.416	18442	19012	0	328
15.579	2.596	18442	18242	0	328
14.749	3.173	17854	17345	0	328
15.038	1.226	17854	16512	1	320
15.687	-0.613	16972	15808	0	320
16.913	-0.865	16384	15038	0	320
17.851	0.252	16384	14461	0	320
19.005	2.921	15796	13949	0	320
19.437	5.229	14914	13628	0	320
19.113	5.373	14914	13372	0	320
20.700	7.104	14326	13179	0	320
22.286	9.340	13443	13051	0	320
24.666	13.992	13443	13115	0	320
25.171	15.471	13443	13436	0	320
23.549	15.326	13443	14013	0	320
21.204	12.910	14326	14526	0	320
19.834	9.953	14326	14910	0	320
18.969	9.052	14326	15487	0	320
19.942	10.602	14326	16192	0	320
20.555	12.225	14914	16576	0	320
19.906	11.215	14914	16704	0	320
19.041	8.763	14914	16960	0	320
16.589	4.616	14914	17409	0	320
14.677	3.678	14914	17730	0	320
12.946	4.904	15796	17858	0	320
13.271	7.501	15796	17986	0	320
12.982	9.809	15796	18178	0	320
14.713	8.150	15796	18242	0	320
16.372	5.517	15796	18114	0	320
18.067	5.085	15796	17922	0	320
19.401	6.311	15796	17730	0	320
19.726	8.078	15796	17409	0	320
19.798	10.783	15796	16960	0	320
19.546	11.540	14914	16512	0	320
18.969	10.133	14914	16192	0	320
19.690	9.124	14914	16000	0	320
19.582	8.655	14914	15936	0	320
21.962	9.737	14326	15872	0	320
22.972	10.963	14326	15872	0	320
24.775	13.235	14326	15872	0	320
26.614	14.425	14326	15808	0	320
25.316	14.281	14326	15743	0	320
25.027	12.477	14914	15872	0	320
23.044	10.674	14914	16256	0	320
20.808	8.547	14914	16384	0	320
19.257	7.248	15796	16448	0	320
18.283	7.212	14914	16704	0	320
17.382	9.088	15796	17281	0	320
17.129	8.186	15796	17730	0	320
14.858	6.491	16384	18114	0	320
13.595	3.750	16972	18691	0	320
13.127	-0.072	17854	19268	0	320
13.451	-3.101	16972	19525	0	320
14.281	-3.859	17854	19332	0	320
14.172	-3.714	18442	18948	0	320
15.074	-1.334	18442	18563	0	320
15.038	1.479	17854	18178	0	320
15.362	3.823	17854	17730	0	320
15.002	3.931	16972	17217	0	320
12.946	1.875	16972	16704	0	320
10.674	1.731	16972	16384	0	320
10.530	2.993	16972	16128	0	320
12.009	6.924	16972	15872	0	320
14.100	9.592	16972	15551	0	320
14.677	11.432	16384	15102	0	320
14.749	10.097	16384	14654	0	320
14.749	10.169	15796	14397	0	320
15.074	9.052	16384	14526	0	320
15.615	9.052	16384	14974	0	320
16.949	6.996	16384	15359	0	320
18.969	6.022	16384	15743	0	320
21.313	7.285	16972	16320	0	320
26.758	11.720	16972	16832	0	320
29.138	14.317	17854	17217	0	320
28.922	15.903	18442	17537	0	320
25.929	11.360	18442	17986	0	320
22.575	6.239	19325	18563	0	320
20.591	0.938	19913	18819	0	320
19.906	-0.505	19913	18819	0	320
18.464	-0.721	20795	18755	0	320
16.625	-0.180	20795	18819	0	320
13.199	0.000	21384	18691	0	320
12.874	0.613	21384	18307	0	320
16.589	1.911	20795	17858	0	320
21.637	5.337	20795	17473	0	320
27.010	8.330	20795	17025	0	320
30.004	10.927	20795	16448	0	320
28.309	11.432	19913	15872	0	320
26.217	9.124	19913	15231	0	320
23.909	9.701	19325	14590	0	320
25.712	11.612	19325	14077	0	320
27.227	15.543	18442	13628	0	320
29.030	19.221	17854	13179	0	320
27.227	19.618	17854	12923	0	320
24.053	17.598	17854	12731	0	320
22.178	16.733	16972	12538	0	320
23.693	18.897	16384	12410	0	320
28.381	23.801	16384	12282	0	320
32.348	28.309	15796	12154	0	320
31.735	26.145	15796	12218	0	320
28.597	20.303	14914	12474	0	320
24.594	13.415	14914	12923	0	320
22.611	8.799	15796	13500	0	320
23.332	11.432	14914	14077	0	320
27.191	16.156	14914	14718	0	320
27.768	17.923	14914	15487	0	320
28.128	16.841	15796	16064	0	320
27.227	12.730	15796	16448	0	320
27.371	9.340	15796	16704	0	320
28.417	8.655	15796	16896	0	320
27.912	8.547	15796	17025	0	320
27.335	8.727	14914	16960	0	320
24.739	6.888	14914	16768	0	320
24.522	4.760	14914	16512	0	320
25.207	4.977	14326	16384	0	320
28.345	6.852	14326	16256	0	320
31.338	9.160	14326	16128	0	320
32.600	11.828	13443	16064	0	320
31.554	12.261	13443	16000	0	320
30.725	9.448	13443	15936	0	320
28.489	7.285	12855	15936	0	320
28.489	5.698	13443	16320	0	320
28.994	7.032	13443	16832	0	320
30.040	9.052	14326	17281	0	320
29.751	11.215	14326	17537	0	320
30.040	12.405	14914	18050	0	320
29.174	11.792	15796	18819	0	320
29.931	12.838	15796	19396	0	320
31.049	13.271	16384	19781	0	320
31.518	14.569	16972	20101	0	320
33.646	15.759	16972	20486	0	320
35.233	18.139	17854	20742	0	320
36.675	19.257	18442	20614	0	320
36.170	19.185	18442	20422	0	320
34.295	16.661	18442	19909	0	320
30.725	12.730	18442	19268	0	320
27.551	11.396	17854	18627	1	532
24.630	11.540	17854	17986	0	532
24.883	13.018	17854	17409	0	532
25.388	15.471	16972	16768	0	532
28.561	16.372	16972	16320	0	532
29.715	16.084	16972	15743	0	532
31.085	16.012	16384	15295	0	532
29.823	15.290	16384	14846	0	532
27.335	13.812	15796	14397	0	532
27.191	13.307	15796	14013	0	532
26.433	13.343	14914	13628	0	532
26.542	11.323	14914	13243	0	532
25.207	10.350	14326	12923	0	532
25.135	9.773	13443	12795	0	532
25.496	9.809	14326	12987	0	532
27.371	12.658	14326	13564	0	532
28.201	14.641	14326	14205	0	532
28.994	16.156	14326	14718	0	532
28.922	17.238	14914	15295	0	532
27.732	16.156	14914	15872	0	532
27.768	14.966	14914	16192	0	532
26.758	12.369	14914	16384	0	532
25.784	12.153	15796	16832	0	532
26.361	12.802	15796	17537	0	532
29.354	18.247	16384	17986	0	532
34.764	22.719	16384	18114	0	532
37.721	24.486	16384	18050	0	532
37.072	21.601	16384	17858	0	532
33.682	17.454	16384	17537	0	532
31.554	14.858	16384	17089	0	532
28.814	16.012	15796	16448	0	532
29.787	18.824	14914	15872	0	532
30.869	20.664	14914	15167	0	532
30.184	19.365	14326	14590	0	532
30.869	17.526	13443	14269	0	532
32.239	17.274	13443	14077	0	532
34.223	18.464	12855	13949	0	532
35.269	19.257	12855	14013	0	532
34.511	18.572	11973	14077	0	532
33.754	17.057	11973	14269	0	532
33.718	16.408	13443	14782	0	532
35.088	16.877	12855	15295	0	532
36.170	17.418	12855	15615	0	532
34.872	16.733	13443	16256	0	532
32.276	14.894	13443	17153	0	532
28.201	13.812	14326	17858	0	532
26.902	15.002	14326	18371	0	532
26.289	16.697	14914	18884	0	532
27.696	17.454	15796	19460	0	532
26.289	17.346	15796	19781	0	532
24.342	15.831	16384	19845	0	532
22.431	13.848	16384	19653	0	532
20.700	13.920	16384	19332	0	532
22.467	13.848	16384	19076	0	532
24.630	14.749	16384	18755	0	532
25.424	14.317	16384	18435	0	532
24.089	11.828	16384	18114	0	532
20.195	10.242	16384	17794	0	532
15.651	6.996	16384	17473	0	532
13.848	6.996	16384	17089	0	532
13.956	8.222	16384	16704	0	532
16.192	11.215	16384	16384	0	532
17.670	12.838	16384	16000	0	532
19.077	15.651	15796	15679	0	532
20.483	17.923	15796	15231	0	532
20.880	19.834	14914	14718	0	532
20.447	19.329	14326	14141	0	532
17.887	17.634	14326	13628	0	532
14.785	14.569	13443	13500	0	532
11.071	13.163	13443	13628	0	532
11.648	13.235	13443	13628	0	532
13.199	16.192	13443	13628	0	532
16.769	18.644	13443	13820	0	532
18.680	19.546	13443	14141	0	532
17.274	17.923	13443	14526	0	532
13.595	14.425	13443	15038	0	532
8.727	11.143	13443	15743	0	532
6.239	8.547	14326	16384	0	532
8.907	10.242	14326	16896	0	532
12.982	12.009	14326	17217	0	532
16.228	13.415	14914	17537	0	532
15.615	12.802	14914	17858	0	532
12.441	8.439	14914	18178	0	532
8.763	5.409	15796	18307	0	532
9.340	2.957	15796	18242	0	532
9.917	1.551	15796	17986	0	532
11.143	1.839	15796	17794	0	532
11.287	1.875	15796	17601	0	532
8.439	2.128	15796	17473	0	532
4.904	1.118	15796	17409	0	532
0.144	0.036	15796	17473	0	532
-4.255	-2.128	15796	17409	0	532
-4.977	-2.921	15796	17217	0	532
-4.580	-3.498	15796	17281	0	532
-0.108	-0.541	16384	17601	0	532
2.200	1.875	16384	17986	0	532
2.596	2.813	16972	18178	0	532
1.515	1.731	17854	18499	0	532
0.649	0.144	17854	18819	0	532
0.361	-1.659	18442	18884	0	532
1.947	-2.596	18442	18755	0	532
3.137	-0.829	19325	18755	0	532
3.534	0.793	19325	18948	0	532
4.688	1.515	19913	18948	0	532
4.868	2.416	19913	18691	0	532
7.429	2.885	20795	18371	0	532
7.321	2.705	20795	18307	0	532
8.078	1.875	21384	18307	0	532
6.275	2.092	21384	18114	0	532
6.131	2.596	20795	17666	0	532
8.222	4.327	20795	17153	0	532
11.179	6.852	20795	16512	0	532
13.776	8.727	20795	16000	0	532
15.290	8.042	19913	15359	0	532
12.045	7.248	19913	14846	0	532
9.520	6.167	19913	14397	0	532
8.294	7.104	19325	13949	0	532
9.412	8.835	18442	13500	0	532
13.595	11.648	18442	13179	0	532
16.300	11.937	18442	12859	0	532
17.021	11.035	17854	12667	0	532
15.254	9.917	16972	12602	0	532
12.189	8.006	16972	12859	0	532
10.350	8.222	16972	13308	0	532
8.114	7.573	16972	13692	0	532
6.599	5.626	16972	13949	0	532
4.724	3.210	16972	14269	0	532
3.714	1.046	16972	14654	0	532
6.383	2.056	16972	14846	0	532
8.547	5.445	16972	14846	0	532
11.684	6.816	16972	15038	0	532
11.720	7.609	16972	15487	0	532
12.982	6.167	16972	15808	0	532
13.343	4.977	16972	15936	0	532
13.379	5.878	16972	16128	0	532
14.245	7.717	16972	16320	0	532
12.333	9.592	16972	16384	0	532
11.215	8.366	16972	16448	0	532
9.989	7.104	16972	16384	0	532
11.684	4.075	16384	16256	0	532
14.966	2.921	16384	16000	0	532
16.733	2.488	16384	15743	0	532
18.464	4.255	15796	15615	0	532
18.283	7.501	15796	15551	0	532
18.031	9.701	15796	15615	0	532
16.589	11.396	15796	15743	0	532
14.389	10.458	15796	15936	0	532
12.550	8.835	15796	16256	0	532
10.133	5.517	15796	16768	0	532
8.330	4.616	16384	17153	0	532
9.520	4.400	16384	17537	0	532
10.783	3.606	16972	18114	0	532
11.937	2.885	17854	18948	0	532
13.054	1.983	18442	19781	0	532
14.172	1.406	19325	20294	0	532
13.415	1.442	19913	20807	0	532
12.694	3.390	20795	21384	0	532
10.819	4.364	21384	21576	0	532
9.304	4.472	21384	21319	0	532
10.025	4.327	22266	20807	0	532
10.061	1.370	22266	20037	0	532
10.169	-2.380	21384	19204	0	532
9.268	-5.229	21384	18371	1	648
7.212	-7.176	20795	17537	0	648
7.717	-5.301	20795	16768	0	648
8.583	-1.983	20795	16064	0	648
10.242	-0.288	19913	15359	0	648
8.799	-0.505	19913	14590	0	648
7.212	-2.092	18442	13820	0	648
4.724	-4.977	18442	13051	0	648
5.157	-4.472	17854	12410	0	648
7.825	-2.524	17854	12026	0	648
9.520	0.072	16384	12090	0	648
11.720	2.236	16384	12538	0	648
11.035	3.426	16384	12923	0	648
11.900	4.796	16384	13243	0	648
14.245	5.842	16384	13756	0	648
16.048	8.835	16384	14333	0	648
18.464	9.592	16384	14782	0	648
18.752	10.530	16972	15167	0	648
17.562	10.494	16972	15808	0	648
16.336	8.330	17854	16448	0	648
14.245	6.455	17854	16960	0	648
12.658	3.606	17854	17153	0	648
11.179	1.406	17854	17345	0	648
10.746	2.344	18442	17537	0	648
12.189	4.724	18442	17601	0	648
13.956	8.511	18442	17537	0	648
13.523	8.943	18442	17345	0	648
10.025	6.491	18442	17089	0	648
5.986	1.803	18442	16896	0	648
4.327	-0.072	18442	16704	0	648
6.852	2.452	18442	16512	0	648
13.307	8.547	17854	16256	0	648
18.139	12.838	17854	16064	0	648
16.841	11.396	17854	15808	0	648
11.215	4.688	17854	15679	0	648
5.626	-2.272	16972	15615	0	648
3.354	-4.327	16972	15551	0	648
9.448	-0.216	16972	15487	0	648
17.851	6.635	16972	15551	0	648
24.089	9.917	16972	16000	0	648
26.397	9.809	17854	16448	0	648
22.647	4.544	17854	16704	0	648
16.552	1.082	17854	16832	0	648
12.658	0.685	18442	17217	0	648
11.900	3.462	18442	17794	0	648
13.559	8.655	18442	18242	0	648
17.526	13.631	18442	18371	0	648
21.818	16.444	19325	18563	0	648
24.955	17.959	19325	18691	0	648
26.397	17.454	19913	18627	0	648
27.696	17.851	19913	18307	0	648
27.624	19.582	19913	17922	0	648
28.633	21.204	19913	17473	0	648
30.617	24.486	19325	16896	0	648
31.374	24.883	19325	16320	0	648
33.970	24.125	19325	15808	0	648
35.882	25.784	17854	15487	0	648
38.370	28.561	18442	15295	0	648
41.003	32.708	18442	14974	0	648
45.186	35.846	16972	14654	0	648
46.304	36.603	16972	14269	0	648
48.287	34.403	16384	13949	0	648
49.982	33.249	16384	13628	0	648
50.523	34.656	15796	13372	0	648
50.811	36.928	15796	13372	0	648
51.965	39.921	14914	13628	0	648
52.687	41.832	15796	13884	0	648
54.273	43.635	15796	14077	0	648
56.221	43.274	15796	14590	0	648
56.653	43.527	15796	15295	0	648
56.329	42.373	15796	15808	0	648
55.067	42.120	16384	16000	0	648
54.237	43.851	16384	16320	0	648
53.155	43.491	16384	16768	0	648
50.847	41.507	16384	16960	0	648
46.809	36.062	16384	16768	0	648
41.616	29.571	16384	16640	0	648
38.442	26.253	15796	16576	0	648
37.973	26.686	16384	16384	0	648
39.163	30.472	15796	16256	0	648
40.101	31.338	14914	16000	0	648
40.858	29.354	14914	15872	0	648
38.226	24.919	14914	15743	0	648
35.665	18.824	14326	15679	0	648
32.203	15.002	14326	15551	0	648
28.633	12.333	14326	15487	0	648
25.604	13.018	13443	15487	0	648
25.532	12.874	13443	15359	0	648
27.047	14.353	12855	15038	0	648
30.545	15.038	12855	14782	0	648
32.492	15.471	11973	14654	0	648
33.105	16.408	11973	14718	0	648
30.328	16.120	11384	14910	0	648
27.479	15.543	11973	15167	0	648
24.450	12.874	11973	15359	0	648
21.962	11.287	11973	15551	0	648
20.664	11.540	11973	15872	0	648
18.536	10.602	11973	16384	0	648
16.516	11.071	11973	17153	0	648
15.507	9.917	12855	17666	0	648
14.858	7.032	12855	17858	0	648
14.136	5.806	12855	18242	0	648
12.730	4.400	13443	18819	0	648
8.871	1.911	14326	19268	0	648
7.862	-0.469	14914	19589	0	648
7.898	-2.236	15796	19653	0	648
11.432	-2.669	14914	19589	0	648
14.930	-2.452	15796	19460	0	648
13.163	-2.488	15796	19140	0	648
9.016	-5.517	14914	18755	0	648
0.433	-6.960	14914	18178	0	648
-5.662	-6.491	14914	17537	0	648
-7.212	-6.131	14326	16896	0	648
-4.580	-3.354	14326	16320	0	648
-0.541	-2.019	13443	15872	0	648
5.049	0.361	13443	15359	0	648
10.602	3.173	12855	14782	0	648
14.461	6.924	11973	14333	0	648
15.543	8.078	11973	14205	0	648
16.012	6.131	11973	14461	0	648
14.281	4.291	11973	14782	0	648
13.740	4.003	12855	15038	0	648
15.831	6.599	12855	15615	0	648
17.238	8.366	12855	16320	0	648
16.949	8.727	13443	16640	0	648
15.543	6.599	13443	16896	0	648
12.694	3.282	13443	17409	0	648
11.612	1.767	14326	18050	0	648
10.710	0.613	14326	18435	0	648
10.530	1.731	14914	18371	0	648
12.586	4.400	14914	18114	0	648
16.444	8.402	14914	17922	0	648
18.933	11.468	14914	17794	0	648
17.995	9.412	14914	17601	0	648
13.595	4.616	14914	17281	0	648
6.816	-1.911	14326	16960	0	648
3.210	-6.203	14326	16704	0	648
1.947	-7.176	14326	16384	0	648
3.101	-5.517	14914	16192	0	648
4.111	-4.291	14914	15872	0	648
4.688	-3.029	14914	15615	0	648
7.285	-1.515	14326	15359	0	648
9.809	-0.361	13443	15102	0	648
11.071	0.108	13443	15038	0	648
9.917	-1.659	13443	15038	0	648
8.583	-2.957	13443	15038	0	648
6.780	-3.246	13443	15102	0	648
6.671	-2.921	13443	15359	0	648
5.554	-1.262	13443	15743	0	648
4.291	-0.433	13443	16128	0	648
2.092	-0.541	13443	16512	0	648
-0.072	-3.029	14326	17217	0	648
-0.036	-3.967	14914	18178	0	648
0.036	-3.282	15796	18691	0	648
0.505	-1.767	15796	18884	0	648
0.938	-1.190	16384	19204	0	648
1.587	-2.560	16972	19653	0	648
2.236	-4.364	17854	19909	0	648
3.282	-6.527	17854	19909	0	648
3.787	-4.940	18442	19717	0	648
6.960	-0.505	18442	19460	0	648
8.979	2.849	18442	19140	0	648
13.631	5.265	18442	18755	0	648
17.634	6.383	18442	18307	1	652
22.250	9.016	18442	17794	0	652
24.847	10.097	18442	17217	0	652
23.224	10.819	18442	16576	0	652
18.211	8.330	18442	16000	0	652
12.514	5.878	17854	15295	0	652
9.376	3.967	17854	14590	0	652
9.160	4.039	16972	14013	0	652
12.405	7.465	16972	13820	0	652
14.245	8.439	16972	14013	0	652
15.939	8.078	16972	14333	0	652
15.507	8.366	16972	14461	0	652
15.759	7.104	16972	14397	0	652
14.245	5.445	16972	14654	0	652
10.746	4.436	17854	15359	0	652
9.737	4.580	16972	16192	0	652
11.937	9.484	18442	16704	0	652
17.851	14.605	19325	17089	0	652
23.296	19.185	19325	17537	0	652
23.440	18.428	19325	17794	0	652
19.365	11.973	19325	17666	0	652
13.776	5.986	19325	17409	0	652
9.484	4.760	19325	17089	0	652
11.287	7.753	19325	16704	0	652
14.785	12.622	18442	16320	0	652
17.021	15.218	18442	15872	0	652
16.228	15.326	18442	15423	0	652
14.749	13.451	17854	14910	0	652
13.235	13.740	17854	14397	0	652
12.117	13.559	16972	13820	0	652
13.704	14.389	16384	13436	0	652
14.569	15.038	16384	13243	0	652
15.903	15.398	15796	13243	0	652
16.228	17.815	15796	13243	0	652
16.769	20.014	14914	13308	0	652
15.218	21.313	14914	13436	0	652
12.441	20.880	14914	13628	0	652
9.592	16.625	14914	14013	0	652
6.022	12.045	14914	14718	0	652
2.669	6.167	14914	15487	0	652
-0.613	3.895	14914	16064	0	652
-4.688	2.993	15796	16320	0	652
-5.914	4.508	15796	16576	0	652
-4.688	7.176	15796	17025	0	652
-2.380	10.530	15796	17217	0	652
-1.154	10.133	15796	17345	0	652
-2.128	8.402	15796	17473	0	652
-5.409	2.488	16384	17730	0	652
-8.727	-5.121	16384	17666	0	652
-9.953	-9.448	15796	17409	0	652
-5.806	-9.809	15796	17089	0	652
-3.065	-6.888	15796	16768	0	652
-1.406	-4.039	14914	16384	0	652
-2.993	-6.275	14914	16000	0	652
-7.573	-10.133	14326	15615	0	652
-8.655	-14.100	14326	15359	0	652
-6.239	-13.163	14326	15231	0	652
-1.551	-10.999	14326	15231	0	652
1.406	-9.448	14326	15295	0	652
-0.180	-9.737	14914	15359	0	652
-3.714	-12.333	13443	15359	0	652
-6.203	-13.343	13443	15487	0	652
-8.258	-9.701	13443	15743	0	652
-7.934	-7.501	14326	16192	0	652
-8.871	-4.508	14326	16768	0	652
-7.681	-4.940	14326	17089	0	652
-5.229	-2.741	14326	17153	0	652
0.685	0.361	14326	17345	0	652
5.914	4.616	14914	17730	0	652
9.773	6.131	14914	17922	0	652
8.727	4.832	14914	17986	0	652
6.058	0.361	15796	18242	0	652
3.318	-3.823	15796	18948	0	652
1.118	-6.167	16384	19589	0	652
-1.839	-10.025	16384	19653	0	652
-5.517	-13.631	16972	19460	0	652
-9.304	-16.841	16972	19396	0	652
-9.845	-17.021	17854	19589	0	652
-4.111	-11.540	18442	19717	0	652
4.977	-4.111	18442	19525	0	652
12.946	1.082	18442	19204	1	320
13.343	1.046	18442	18755	0	320
6.094	-2.885	18442	18114	0	320
-3.029	-7.898	18442	17473	0	320
-8.619	-9.304	18442	16832	0	320
-7.465	-7.429	17854	16320	0	320
-2.633	-3.462	17854	15808	0	320
3.173	-0.216	17854	15423	0	320
4.868	-0.469	17854	15423	0	320
3.787	-2.200	17854	15679	0	320
0.613	-5.914	17854	15936	0	320
-0.613	-7.212	18442	16064	0	320
-0.433	-6.239	19325	16384	0	320
1.262	-3.967	18442	16768	0	320
3.642	-0.613	19325	17153	0	320
5.013	0.865	19325	17345	0	320
3.931	0.974	19913	17666	0	320
4.868	1.803	20795	18050	0	320
5.950	3.137	20795	18307	0	320
7.248	5.049	21384	18242	0	320
9.556	5.193	21384	18114	0	320
9.232	5.373	22266	18114	0	320
10.458	4.255	22266	18050	0	320
12.045	5.049	22266	17794	0	320
12.225	3.859	22266	17409	0	320
11.792	3.390	22266	17025	0	320
12.658	2.308	22266	16576	0	320
14.641	3.967	22266	15936	0	320
18.283	6.960	21384	15231	0	320
20.555	8.835	20795	14590	0	320
17.851	7.537	20795	13884	0	320
11.937	2.524	19325	13243	0	320
7.717	-3.137	19325	12667	0	320
6.203	-5.265	18442	12090	0	320
8.655	-3.390	17854	11705	0	320
8.402	-3.714	16972	11577	0	320
5.445	-6.239	16972	11641	0	320
0.721	-8.907	16972	12026	0	320
-2.777	-10.855	16972	12731	0	320
-1.659	-7.285	16972	13564	0	320
2.200	-2.488	16972	14269	0	320
6.888	2.092	17854	15102	0	320
10.242	3.787	18442	16064	0	320
12.369	3.967	18442	16768	0	320
14.353	3.210	19325	17409	0	320
14.317	4.544	19325	17858	0	320
15.471	6.563	19913	18242	0	320
16.516	10.422	19913	18371	0	320
18.464	12.441	20795	18371	0	320
20.159	13.812	20795	18114	0	320
19.473	10.638	19325	17730	0	320
15.110	3.354	19325	17345	0	320
9.232	-1.839	19325	16960	0	320
6.635	-5.265	19325	16576	0	320
7.068	-2.849	19325	16320	0	320
9.881	1.010	18442	15872	0	320
11.756	4.832	18442	15359	0	320
11.360	4.291	17854	14910	0	320
8.511	2.200	17854	14654	0	320
8.222	-0.938	16972	14461	0	320
9.665	-1.118	16972	14397	0	320
12.225	1.010	16972	14526	0	320
15.218	3.606	16972	14846	0	320
15.002	4.688	16972	15359	0	320
11.612	3.931	16972	15808	0	320
9.304	2.200	16972	16128	0	320
