neuroNicle FX2
D3F25R12
Bluetooth SPP
2023년 11월 19일 일요일
오후 4:27
time interval = 4msec
EEG1	EEG2	PPG	sdPPG	pulse	peak_interval(msec)
-7.357	-8.402	25652	14939	0	588
-10.458	-8.258	25652	14767	0	588
-11.468	-9.809	25671	14670	0	588
-15.074	-13.668	25680	14619	0	588
-17.346	-16.480	25689	14573	0	588
-18.897	-20.808	25717	14579	0	588
-19.329	-21.926	25736	14647	0	588
-21.060	-22.683	25774	14762	0	588
-22.611	-23.801	25821	14882	0	588
-24.414	-24.270	25839	14979	0	588
-25.460	-23.621	25877	15053	0	588
-23.224	-23.332	25914	15144	0	588
-21.493	-20.736	25961	15304	0	588
-20.050	-19.942	26008	15504	0	588
-17.346	-18.860	26065	15664	0	588
-16.444	-15.543	26111	15756	0	588
-12.477	-14.353	26121	15830	0	588
-8.258	-10.746	26187	15904	0	588
-6.094	-7.645	26215	15973	0	588
-3.029	-4.400	26252	16070	0	588
-1.587	-0.649	26327	16213	0	588
2.019	3.967	26374	16356	0	588
6.780	8.222	26421	16406	0	588
12.153	9.845	26421	16389	0	588
16.769	9.016	26449	16344	0	588
17.021	7.068	26440	16264	0	588
15.831	5.554	26440	16133	0	588
11.792	4.724	26393	15956	0	588
7.717	6.780	26374	15767	0	588
9.412	8.475	26327	15602	0	588
12.946	8.078	26290	15476	0	588
18.608	9.773	26215	15344	0	588
21.313	11.864	26140	15093	0	588
21.529	11.684	26018	14733	0	588
15.687	10.494	25924	14464	0	588
10.566	5.842	25839	14367	0	588
5.842	-0.325	25746	14304	0	588
1.551	-2.128	25652	14202	0	588
-0.144	-1.875	25539	14087	0	588
-1.118	3.282	25445	14019	0	588
-0.938	10.891	25361	14024	0	588
3.678	16.120	25267	14082	0	588
7.321	18.824	25202	14150	0	588
11.937	13.523	25117	14219	0	588
13.523	6.852	25033	14310	0	588
11.468	0.541	24976	14442	0	588
8.366	-0.072	24929	14607	0	588
10.530	7.104	24854	14767	0	588
17.310	15.435	24761	14859	0	588
23.621	26.217	24695	14910	0	588
30.040	31.266	24639	14990	0	588
31.735	32.672	24592	15139	0	588
32.925	32.239	24545	15350	0	588
33.502	30.220	24498	15527	0	588
35.701	29.354	24385	15522	0	588
33.574	25.893	24263	15344	0	588
26.325	20.880	24151	15190	0	588
14.172	13.668	24038	15162	0	588
4.472	8.078	23944	15167	0	588
-1.010	6.924	23860	15179	0	588
-0.433	9.773	23729	15173	0	588
5.301	11.792	23635	15139	0	588
11.900	12.910	23522	15116	0	588
12.045	9.520	23475	15236	0	588
8.619	2.849	23429	15482	0	588
2.669	-3.426	23353	15664	0	588
-1.046	-5.770	23250	15659	0	588
0.865	-4.688	23147	15544	0	588
3.390	0.685	23044	15459	0	588
6.239	7.068	22950	15470	0	588
5.662	8.475	22866	15527	0	588
3.606	6.996	22772	15579	0	588
-0.072	4.904	22678	15630	0	588
1.370	1.947	22594	15687	0	588
1.947	0.541	22537	15744	0	588
0.974	-0.288	22453	15847	0	588
0.685	1.515	22397	15933	0	588
1.370	6.852	22303	15950	0	588
3.318	12.405	22200	15887	0	588
7.609	15.759	22040	15647	0	588
8.402	16.012	21843	15259	0	588
6.708	12.730	21665	14922	0	588
-0.613	6.527	21477	14704	0	588
-9.376	2.957	21327	14573	0	588
-15.146	0.397	21196	14584	0	588
-16.985	-2.092	21121	14727	0	588
-17.923	-2.272	21008	14927	0	588
-13.740	-3.426	20943	15122	0	588
-12.081	-1.334	20868	15327	0	588
-10.999	-2.560	20802	15556	0	588
-12.009	-3.931	20774	15819	0	588
-14.749	-8.763	20746	16099	0	588
-14.136	-13.631	20699	16333	0	588
-14.353	-19.257	20680	16515	0	588
-13.704	-19.005	20661	16732	0	588
-9.520	-18.067	20671	17001	0	588
-9.124	-14.281	20680	17298	0	588
-9.124	-15.759	20699	17544	0	588
-7.248	-17.310	20680	17618	0	588
-6.311	-17.310	20614	17492	0	588
-6.816	-19.401	20577	17355	0	588
-4.472	-18.392	20530	17315	0	588
-4.977	-20.591	20492	17292	0	588
-7.537	-23.188	20464	17246	0	588
-9.160	-24.775	20417	17189	0	588
-9.484	-25.135	20370	17115	0	588
-10.386	-23.008	20305	16972	0	588
-10.999	-20.627	20230	16789	0	588
-10.278	-21.132	20155	16629	0	588
-12.910	-22.791	20089	16475	0	588
-13.451	-23.368	19976	16259	0	588
-11.576	-26.181	19873	15979	0	588
-11.251	-27.732	19761	15756	0	588
-8.655	-27.768	19676	15647	0	588
-5.914	-27.696	19573	15579	0	588
-3.787	-26.722	19479	15430	0	588
-1.767	-22.863	19357	15253	0	588
0.649	-16.805	19263	15179	0	588
1.190	-12.694	19207	15253	0	588
1.515	-7.934	19160	15436	0	588
3.101	-5.734	19151	15670	0	588
6.671	-3.282	19151	15916	0	588
10.314	-1.082	19160	16224	0	588
12.910	0.216	19207	16589	0	588
15.471	0.865	19273	16989	0	588
14.605	0.000	19357	17395	0	588
13.631	-0.649	19432	17789	0	588
13.307	-0.108	19573	18178	0	588
11.143	1.406	19695	18612	0	588
8.475	1.118	19883	19121	0	588
8.907	1.010	20089	19669	0	588
8.655	2.092	20277	20121	0	588
8.402	1.190	20427	20321	0	588
4.940	-1.370	20567	20332	0	588
3.210	-3.534	20727	20389	0	588
0.433	-6.780	20905	20572	0	588
2.416	-6.491	21121	20761	0	588
8.366	-1.334	21308	20881	0	588
11.973	4.364	21515	20949	0	588
12.802	8.691	21731	21012	0	588
10.422	9.773	21965	21115	0	588
5.950	11.684	22209	21229	0	588
4.580	9.809	22434	21286	0	588
6.455	8.475	22631	21212	0	588
10.242	8.943	22819	20949	0	588
17.923	8.799	22959	20589	0	588
19.293	8.330	23110	20258	0	588
18.969	8.511	23260	19972	1	712
14.172	7.068	23429	19681	0	712
12.405	4.003	23560	19361	0	712
11.576	3.895	23682	19058	0	712
13.668	3.931	23860	18852	0	712
19.221	7.934	24029	18726	0	712
18.897	8.042	24179	18572	0	712
17.129	8.258	24282	18275	0	712
12.477	6.275	24367	17829	0	712
11.612	3.101	24432	17361	0	712
12.622	3.498	24498	16949	0	712
14.208	5.554	24545	16561	0	712
18.644	7.176	24592	16213	0	712
15.687	7.862	24620	15904	0	712
12.622	5.986	24667	15670	0	712
8.763	2.524	24751	15522	0	712
6.888	1.659	24808	15436	0	712
7.501	2.019	24854	15367	0	712
9.773	4.652	24920	15270	0	712
12.333	8.366	24967	15156	0	712
16.661	11.360	24995	15082	0	712
17.743	17.490	25070	15087	0	712
18.716	19.365	25117	15122	0	712
19.041	20.231	25126	15059	0	712
18.320	17.093	25089	14762	0	712
15.110	13.451	25023	14339	0	712
10.855	8.655	24986	14059	0	712
8.294	7.285	24967	13979	0	712
2.308	7.681	24920	13956	0	712
1.010	8.547	24901	13933	0	712
1.298	8.294	24854	13933	0	712
2.200	5.914	24854	13962	0	712
1.046	1.334	24826	13996	0	712
-3.354	-3.967	24751	13990	0	712
-9.268	-8.763	24695	13893	0	712
-13.163	-9.989	24592	13710	0	712
-16.192	-9.592	24470	13499	0	712
-14.533	-9.737	24338	13310	0	712
-12.225	-11.900	24235	13219	0	712
-13.271	-15.543	24141	13259	0	712
-13.920	-20.880	24057	13356	0	712
-17.129	-23.404	23991	13459	0	712
-18.680	-25.712	23907	13602	0	712
-21.277	-23.909	23907	13933	0	712
-22.214	-19.293	23954	14459	0	712
-22.431	-16.805	23982	15019	0	712
-21.818	-13.127	24010	15470	0	712
-21.565	-14.605	24048	15779	0	712
-23.873	-17.021	24048	16030	0	712
-23.044	-21.024	24085	16287	0	712
-21.637	-20.555	24095	16515	0	712
-19.401	-19.798	24095	16658	0	712
-14.389	-15.074	24085	16686	0	712
-13.848	-14.569	24057	16698	0	712
-16.300	-15.867	24076	16766	0	712
-17.634	-17.129	24076	16875	0	712
-20.952	-21.132	24095	16955	0	712
-22.034	-24.234	24085	16989	0	712
-24.522	-25.388	24085	16995	0	712
-28.561	-28.164	24104	17052	0	712
-30.761	-29.282	24132	17172	0	712
-32.059	-30.256	24179	17292	0	712
-29.679	-28.597	24179	17326	0	712
-25.748	-25.099	24179	17275	0	712
-21.457	-23.260	24188	17206	0	712
-19.293	-22.575	24198	17201	0	712
-16.408	-21.818	24217	17229	0	712
-16.913	-22.503	24198	17166	0	712
-15.903	-22.178	24188	16966	0	712
-17.562	-18.608	24123	16704	0	712
-16.336	-18.788	24076	16486	0	712
-17.202	-16.408	24038	16333	0	712
-16.012	-17.274	23991	16173	0	712
-12.514	-13.091	23907	15973	0	712
-8.619	-9.629	23841	15756	0	712
-3.246	-6.708	23747	15504	0	712
-1.839	-5.049	23654	15282	0	712
-5.301	-6.888	23626	15213	0	712
-12.081	-11.973	23588	15316	0	712
-21.565	-18.572	23522	15367	0	712
-25.820	-22.863	23438	15224	0	712
-25.243	-26.181	23335	14990	0	712
-24.342	-27.227	23232	14819	0	712
-20.664	-25.893	23110	14704	0	712
-21.132	-24.162	23006	14573	0	712
-25.568	-25.027	22875	14402	0	712
-27.227	-26.145	22725	14224	0	712
-29.210	-24.630	22584	14070	0	712
-28.164	-24.017	22453	13984	0	712
-26.722	-22.178	22340	14013	0	712
-25.352	-20.411	22256	14122	0	712
-23.476	-21.637	22134	14230	0	712
-24.522	-22.935	22040	14304	0	712
-23.765	-22.178	21928	14344	0	712
-22.972	-22.286	21824	14379	0	712
-23.585	-19.798	21693	14413	0	712
-21.277	-19.690	21571	14436	0	712
-16.949	-17.562	21459	14476	0	712
-13.704	-15.723	21365	14590	0	712
-6.888	-11.396	21290	14813	0	712
-4.255	-8.727	21233	15093	0	712
-2.092	-6.744	21187	15356	0	712
-2.777	-6.563	21102	15533	0	712
-5.265	-8.943	21008	15567	0	712
-9.737	-11.973	20886	15510	0	712
-12.874	-14.245	20802	15516	0	712
-11.792	-15.146	20717	15607	0	712
-13.668	-16.589	20624	15727	0	712
-14.317	-15.903	20577	15859	0	712
-14.749	-18.716	20520	16019	0	712
-16.372	-18.211	20436	16110	0	712
-11.504	-17.418	20277	15922	0	712
-5.590	-12.045	20051	15424	0	712
2.921	-8.619	19836	14904	0	712
4.940	-6.203	19620	14527	0	712
0.180	-11.360	19404	14264	0	712
-8.943	-16.949	19217	14127	0	712
-19.401	-25.207	19066	14133	0	712
-25.965	-29.282	18916	14213	0	712
-26.794	-28.525	18776	14310	0	712
-23.296	-24.883	18663	14447	0	712
-17.706	-22.431	18597	14762	0	712
-14.136	-17.851	18588	15259	0	712
-12.081	-18.536	18588	15807	0	712
-13.595	-18.897	18560	16259	0	712
-14.028	-20.375	18550	16589	0	712
-19.798	-22.972	18560	16875	0	712
-23.368	-25.784	18560	17195	0	712
-26.253	-27.984	18588	17521	0	712
-27.840	-29.102	18588	17744	0	712
-25.893	-27.587	18550	17795	0	712
-23.729	-25.748	18541	17795	0	712
-22.106	-21.962	18513	17835	0	712
-17.743	-19.365	18504	17886	0	712
-15.110	-13.199	18494	17886	0	712
-8.402	-9.124	18447	17818	0	712
-1.370	-4.616	18419	17732	0	712
3.750	-1.515	18382	17658	0	712
4.868	-0.685	18372	17618	0	712
4.400	-2.777	18353	17606	0	712
1.659	-3.318	18335	17561	0	712
-1.118	-3.967	18288	17469	0	712
-2.164	-2.705	18288	17389	0	712
-3.137	0.685	18278	17372	0	712
-2.344	3.787	18288	17401	0	712
-2.741	4.400	18288	17401	0	712
-2.344	3.318	18269	17355	0	712
-1.010	-0.938	18269	17292	0	712
-0.325	-3.173	18260	17246	0	712
0.649	-3.354	18278	17224	0	712
4.075	0.000	18269	17195	0	712
6.311	6.058	18260	17161	0	712
8.835	8.763	18278	17149	0	712
7.429	9.592	18288	17178	0	712
5.734	3.895	18325	17235	0	712
2.777	1.334	18335	17292	0	712
0.865	0.180	18372	17309	0	712
8.655	6.563	18372	17264	0	712
18.572	16.084	18372	17149	0	712
26.830	21.709	18372	17029	0	712
31.194	23.260	18410	17012	0	712
27.768	22.395	18447	17132	0	712
21.637	19.005	18541	17332	0	712
16.805	20.447	18588	17464	0	712
19.942	21.926	18644	17498	0	712
22.395	23.981	18710	17561	0	712
27.191	26.794	18804	17726	0	712
30.436	25.279	18926	17978	0	712
30.941	26.397	19066	18264	0	712
31.662	25.604	19217	18538	0	712
31.410	23.693	19385	18812	0	712
26.001	19.365	19582	19098	0	712
19.437	14.064	19761	19361	0	712
10.602	4.472	19958	19584	0	712
2.308	-3.678	20117	19738	0	712
-1.515	-7.068	20305	19812	0	712
2.092	-2.596	20483	19858	0	712
7.609	4.544	20680	19921	0	712
14.028	13.343	20849	19961	0	712
17.274	16.480	21027	19875	0	712
15.831	18.283	21130	19629	0	712
15.471	15.038	21196	19172	0	712
12.441	12.730	21215	18601	0	712
8.799	9.196	21262	18098	1	732
6.239	5.013	21308	17681	0	732
2.813	2.488	21318	17286	0	732
1.406	1.334	21365	16961	0	732
3.750	2.993	21412	16721	0	732
3.859	5.878	21459	16538	0	732
3.426	6.708	21515	16395	0	732
-1.515	5.770	21590	16287	0	732
-5.229	3.246	21609	16139	0	732
-4.868	0.974	21618	15899	0	732
-1.479	-1.298	21618	15624	0	732
4.111	-1.731	21637	15419	0	732
8.799	-0.144	21646	15282	0	732
9.953	1.154	21637	15144	0	732
6.780	2.019	21609	14927	0	732
6.852	3.137	21562	14647	0	732
5.950	3.498	21496	14402	0	732
5.878	3.678	21449	14230	0	732
5.770	1.515	21421	14156	0	732
3.931	1.442	21384	14150	0	732
0.902	0.938	21365	14139	0	732
1.118	2.777	21318	14133	0	732
2.236	4.111	21308	14224	0	732
3.101	3.967	21318	14402	0	732
1.442	3.173	21280	14533	0	732
-2.957	-1.695	21262	14556	0	732
-5.698	-4.147	21233	14596	0	732
-6.780	-3.714	21224	14750	0	732
-3.173	0.757	21233	14967	0	732
2.560	3.318	21243	15162	0	732
5.121	4.364	21233	15304	0	732
2.344	1.911	21233	15424	0	732
-4.255	-4.760	21262	15573	0	732
-13.163	-12.009	21271	15779	0	732
-18.464	-15.254	21290	15979	0	732
-23.188	-18.031	21290	16082	0	732
-19.546	-15.867	21290	16133	0	732
-17.346	-13.054	21318	16219	0	732
-11.973	-9.665	21337	16362	0	732
-11.396	-9.448	21365	16498	0	732
-13.992	-12.622	21365	16572	0	732
-15.362	-16.733	21365	16561	0	732
-19.654	-21.565	21365	16515	0	732
-19.762	-20.736	21355	16498	0	732
-19.618	-22.250	21365	16521	0	732
-20.447	-22.719	21355	16521	0	732
-21.529	-26.397	21355	16469	0	732
-26.794	-29.066	21290	16356	0	732
-31.807	-30.581	21233	16144	0	732
-32.095	-27.912	21149	15859	0	732
-30.941	-22.935	21046	15573	0	732
-25.027	-20.772	20943	15304	0	732
-18.716	-17.238	20802	15013	0	732
-14.785	-19.726	20699	14716	0	732
-17.202	-21.241	20558	14476	0	732
-17.057	-23.368	20436	14310	0	732
-16.444	-23.404	20305	14167	0	732
-11.792	-18.175	20183	14059	0	732
-8.330	-13.379	20061	14002	0	732
-7.429	-8.042	19948	13973	0	732
-8.619	-6.203	19836	13984	0	732
-10.350	-8.907	19761	14099	0	732
-13.704	-11.287	19676	14299	0	732
-15.362	-13.379	19601	14470	0	732
-16.697	-17.562	19507	14567	0	732
-21.457	-20.844	19460	14716	0	732
-25.532	-24.775	19414	14990	0	732
-22.322	-22.755	19404	15316	0	732
-19.618	-18.320	19357	15596	0	732
-15.002	-12.802	19348	15813	0	732
-13.704	-9.665	19301	15967	0	732
-12.838	-10.422	19263	16099	0	732
-15.831	-13.740	19245	16253	0	732
-15.615	-14.353	19217	16424	0	732
-11.612	-11.143	19170	16526	0	732
-8.871	-9.701	19104	16481	0	732
-5.662	-9.845	18973	16219	0	732
-3.570	-10.674	18832	15836	0	732
-3.895	-11.684	18691	15556	0	732
-5.337	-12.261	18560	15390	0	732
-6.022	-11.540	18429	15264	0	732
-10.855	-10.963	18325	15213	0	732
-16.228	-14.353	18241	15253	0	732
-19.690	-15.795	18166	15304	0	732
-23.909	-19.365	18044	15310	0	732
-26.470	-18.392	17941	15276	0	732
-24.450	-18.860	17809	15184	0	732
-22.755	-18.536	17659	15013	0	732
-24.162	-22.972	17509	14813	0	732
-21.277	-23.116	17368	14704	0	732
-18.392	-20.267	17256	14722	0	732
-12.910	-12.802	17115	14790	0	732
-4.183	-0.036	17003	14790	0	732
2.019	8.799	16871	14773	0	732
3.065	7.104	16824	14956	0	732
-2.092	1.190	16787	15339	0	732
-7.789	-9.520	16740	15693	0	732
-10.242	-14.497	16674	15859	0	732
-7.537	-12.225	16599	15922	0	732
-1.983	-7.898	16571	16059	0	732
3.173	-2.380	16534	16287	0	732
5.409	-0.216	16496	16464	0	732
4.760	-0.180	16430	16544	0	732
3.101	-1.839	16356	16526	0	732
-0.397	-3.787	16272	16464	0	732
-3.967	-7.357	16216	16435	0	732
-4.472	-9.881	16141	16446	0	732
-4.255	-11.576	16056	16435	0	732
-0.108	-11.900	15981	16344	0	732
1.947	-11.504	15869	16247	0	732
-0.649	-15.002	15840	16270	0	732
-9.809	-22.106	15803	16435	0	732
-19.798	-29.499	15794	16646	0	732
-29.246	-35.377	15775	16784	0	732
-33.177	-37.252	15728	16852	0	732
-30.689	-34.259	15718	16909	0	732
-24.198	-30.112	15709	17006	0	732
-17.057	-21.313	15709	17115	0	732
-10.566	-19.257	15672	17166	0	732
-9.556	-14.533	15662	17178	0	732
-9.196	-13.956	15653	17189	0	732
-8.042	-10.494	15625	17224	0	732
-7.429	-10.927	15625	17264	0	732
-8.150	-10.278	15606	17275	0	732
-9.340	-12.766	15587	17235	0	732
-14.677	-19.077	15559	17155	0	732
-21.745	-24.234	15521	17024	0	732
-21.998	-26.794	15484	16915	0	732
-7.970	-7.321	19920	14813	0	884
-6.708	-8.366	19873	14916	0	884
-7.248	-6.816	19836	15013	0	884
-7.104	-5.121	19817	15127	0	884
-8.547	-3.065	19789	15259	0	884
-10.602	-3.137	19779	15384	0	884
-9.701	-3.714	19761	15522	0	884
-8.475	-1.839	19742	15636	0	884
-3.210	0.505	19723	15744	0	884
0.000	0.288	19732	15876	0	884
-0.649	-1.154	19732	16059	0	884
-2.777	-3.967	19761	16259	0	884
-4.364	-5.121	19761	16441	0	884
-4.039	-3.282	19779	16589	0	884
-3.967	1.442	19779	16681	0	884
-1.082	7.068	19808	16732	0	884
-0.108	10.638	19779	16755	0	884
-0.252	10.746	19761	16709	0	884
-2.849	5.554	19742	16629	0	884
-4.580	-0.288	19723	16584	0	884
-6.671	-6.671	19723	16589	0	884
-7.681	-9.701	19686	16578	0	884
-5.301	-7.248	19676	16504	0	884
-1.587	-3.137	19629	16389	0	884
0.721	1.010	19582	16304	0	884
1.154	5.049	19554	16230	0	884
-0.397	4.219	19498	16150	0	884
-4.580	1.587	19460	16064	0	884
-8.402	-4.688	19414	15979	0	884
-12.405	-8.835	19357	15870	0	884
-12.802	-10.530	19245	15670	0	884
-10.097	-9.665	19179	15447	0	884
-5.986	-6.455	19151	15442	0	884
-1.911	-1.190	19113	15590	0	884
-0.685	2.380	18991	15493	0	884
-2.416	2.741	18832	15047	0	884
-6.239	1.479	18682	14562	0	884
-9.016	-1.659	18504	14282	0	884
-8.439	-4.977	18400	14196	0	884
-5.626	-4.832	18288	14230	0	884
-3.065	-2.488	18213	14316	0	884
-1.911	0.397	18119	14407	0	884
-3.570	0.721	18025	14516	0	884
-9.268	-1.190	17903	14522	0	884
-14.028	-5.193	17791	14419	0	884
-20.844	-13.631	17669	14390	0	884
-25.352	-17.779	17575	14487	0	884
-29.463	-17.995	17490	14642	0	884
-28.417	-15.326	17472	14882	0	884
-23.765	-8.258	17425	15219	0	884
-16.733	-5.986	17397	15567	0	884
-14.858	-3.895	17368	15807	0	884
-13.559	-8.402	17293	15876	0	884
-18.788	-10.891	17209	15847	0	884
-18.969	-12.694	17162	15904	0	884
-20.411	-14.028	17143	16082	0	884
-17.238	-12.730	17096	16293	0	884
-17.021	-12.766	17096	16504	0	884
-14.389	-12.658	17096	16749	0	884
-15.651	-10.674	17096	16955	0	884
-13.523	-12.802	17087	17081	0	884
-10.602	-12.081	17087	17166	0	884
-10.206	-9.629	17068	17269	0	884
-7.393	-9.340	17087	17372	0	884
-3.678	-5.193	17068	17441	0	884
-3.714	-3.282	17087	17464	0	884
-5.193	-4.111	17059	17469	0	884
-7.970	-6.383	17050	17464	0	884
-12.874	-9.773	17050	17418	0	884
-14.028	-12.153	17021	17349	0	884
-12.694	-10.855	17003	17281	0	884
-9.953	-7.357	16993	17224	0	884
-6.852	-4.400	16965	17184	0	884
-6.708	-1.731	16956	17126	0	884
-4.977	-2.669	16899	16984	0	884
-4.219	-3.606	16862	16755	0	884
-3.462	-3.137	16787	16538	0	884
-1.911	-0.613	16731	16389	0	884
-1.442	2.092	16684	16270	0	884
-1.623	2.452	16590	16070	0	884
-1.010	1.587	16496	15796	0	884
-1.767	0.325	16412	15584	0	884
-3.137	-2.128	16356	15487	0	884
-3.606	-4.075	16291	15476	0	884
-5.698	-5.265	16234	15487	0	884
-4.364	-6.924	16178	15493	0	884
-4.832	-4.291	16122	15499	0	884
-1.911	-0.252	16094	15527	0	884
0.325	3.823	16037	15607	0	884
4.147	8.006	16028	15727	0	884
5.626	9.124	15991	15830	0	884
9.881	10.061	15953	15876	0	884
9.737	10.278	15915	15933	0	884
8.763	10.602	15915	16053	0	884
3.246	8.547	15906	16224	0	884
-3.787	4.472	15887	16339	0	884
-10.891	1.046	15812	16247	0	884
-15.038	-2.092	15709	15984	0	884
-11.179	-1.839	15634	15767	0	884
-5.409	4.183	15540	15670	0	884
3.606	11.756	15475	15584	0	884
9.484	17.454	15390	15487	0	884
14.136	20.267	15306	15430	0	884
12.117	16.516	15231	15384	0	884
7.934	8.691	15156	15402	0	884
5.409	3.354	15193	15647	0	884
1.298	0.757	15240	16099	0	884
-0.865	1.370	15249	16481	0	884
-2.777	4.255	15240	16601	0	884
-3.210	4.977	15203	16544	0	884
-4.039	6.888	15165	16464	0	884
1.082	8.222	15118	16429	0	884
4.580	12.622	15062	16401	0	884
8.979	13.776	14996	16287	0	884
9.592	13.848	14902	16082	0	884
7.573	11.179	14837	15922	0	884
6.131	8.979	14771	15882	0	884
7.393	10.638	14724	15910	0	884
10.206	15.074	14677	15916	0	884
13.307	17.923	14602	15887	0	884
14.497	21.854	14574	15916	0	884
15.362	18.933	14555	16024	0	884
11.468	16.228	14536	16162	0	884
11.792	12.441	14527	16270	0	884
10.638	7.357	14490	16322	0	884
8.439	6.058	14461	16356	0	884
6.383	5.590	14461	16435	0	884
6.888	6.455	14490	16629	0	884
10.061	9.737	14546	16921	0	884
12.550	15.939	14574	17195	0	884
16.444	18.464	14593	17338	0	884
15.903	22.142	14583	17269	0	884
13.127	21.565	14536	17064	0	884
11.432	20.916	14527	16944	0	884
10.386	18.247	14490	16898	0	884
9.629	18.680	14433	16744	0	884
8.511	16.697	14415	16572	0	884
5.121	13.559	14415	16601	0	884
1.010	8.114	14480	16835	0	884
-3.462	4.400	14527	17115	0	884
-4.580	1.190	14602	17384	0	884
-5.554	5.590	14696	17675	0	884
-4.760	9.665	14827	17995	0	884
-1.983	13.559	14977	18389	0	884
-2.524	14.930	15212	18949	0	884
-2.524	12.297	15465	19629	0	884
-2.128	8.258	15672	20144	0	884
-3.137	7.068	15859	20326	0	884
-2.416	8.835	16000	20292	0	884
0.180	10.602	16150	20224	0	884
1.551	11.432	16309	20184	0	884
2.777	10.350	16459	20155	0	884
1.010	10.746	16599	20075	1	864
-0.793	8.366	16731	19909	0	864
-2.669	7.140	16853	19704	0	864
-5.409	6.094	16974	19515	0	864
-7.825	2.056	17087	19275	0	864
-10.710	-0.288	17143	18909	0	864
-15.038	0.433	17200	18481	0	864
-17.057	2.019	17256	18098	0	864
-15.975	2.596	17331	17772	0	864
-15.579	1.659	17368	17492	0	864
-12.441	-0.721	17434	17264	0	864
-9.809	-2.092	17490	17058	0	864
-7.068	-2.524	17575	16886	0	864
-3.967	-0.577	17669	16806	0	864
-3.895	2.669	17753	16824	0	864
-4.039	3.282	17884	16892	0	864
-8.907	1.154	17997	16938	0	864
-12.658	-3.967	18091	16926	0	864
-16.228	-9.376	18194	16915	0	864
-19.618	-14.821	18307	16932	0	864
-18.103	-18.031	18410	16955	0	864
-17.670	-15.146	18494	16921	0	864
-12.946	-12.045	18569	16835	0	864
-9.412	-7.321	18654	16726	0	864
-6.744	-3.426	18729	16664	0	864
-7.032	-2.633	18841	16686	0	864
-8.835	-5.265	18926	16738	0	864
-12.658	-7.862	18982	16664	0	864
-15.398	-10.025	18991	16389	0	864
-15.615	-9.268	18973	15990	0	864
-16.697	-11.612	18935	15584	0	864
-16.589	-12.045	18898	15264	0	864
-19.654	-14.281	18898	15047	0	864
-23.476	-19.942	18869	14887	0	864
-27.227	-22.250	18832	14739	0	864
-28.705	-23.260	18823	14613	0	864
-26.289	-23.801	18832	14636	0	864
-21.277	-18.247	18879	14847	0	864
-18.933	-16.841	18926	15110	0	864
-16.444	-12.730	18973	15287	0	864
-18.103	-12.694	18991	15350	0	864
-17.923	-11.720	19020	15356	0	864
-19.690	-9.845	19010	15367	0	864
-15.002	-5.662	18991	15339	0	864
-10.963	-2.092	18944	15207	0	864
-3.534	0.974	18879	15007	0	864
-0.288	2.488	18832	14853	0	864
0.649	3.282	18794	14807	0	864
-2.524	3.137	18776	14842	0	864
-4.327	3.570	18747	14916	0	864
-4.255	7.573	18729	14973	0	864
0.865	11.071	18691	15024	0	864
6.671	16.048	18691	15110	0	864
11.035	19.654	18701	15276	0	864
11.071	18.320	18691	15453	0	864
6.275	12.982	18644	15470	0	864
0.397	4.147	18541	15219	0	864
-5.265	-3.931	18410	14842	0	864
-8.186	-9.665	18335	14659	0	864
-7.212	-9.124	18278	14739	0	864
-5.121	-5.265	18241	14904	0	864
-4.796	-1.659	18213	15064	0	864
-6.167	0.829	18222	15242	0	864
-11.143	-4.472	18222	15470	0	864
-14.100	-10.097	18222	15733	0	864
-13.848	-14.389	18260	16019	0	864
-12.982	-13.668	18269	16287	0	864
-8.114	-10.819	18307	16458	0	864
-3.642	-4.327	18278	16486	0	864
-3.173	0.649	18232	16418	0	864
-3.390	2.957	18222	16389	0	864
-1.623	3.462	18194	16441	0	864
-2.524	4.868	18213	16509	0	864
1.010	6.383	18185	16526	0	864
4.544	8.222	18147	16498	0	864
12.802	13.054	18138	16464	0	864
17.238	17.706	18138	16492	0	864
21.385	22.142	18138	16595	0	864
19.473	23.837	18138	16664	0	864
17.634	25.748	18119	16618	0	864
11.035	25.568	18081	16532	0	864
4.436	21.277	18081	16504	0	864
0.325	15.651	18053	16509	0	864
-4.940	8.006	18035	16486	0	864
-5.193	4.904	17988	16412	0	864
-1.659	4.977	17978	16344	0	864
4.364	10.891	17950	16327	0	864
6.924	13.091	17950	16356	0	864
6.924	14.208	17931	16373	0	864
1.334	8.763	17866	16270	0	864
-3.678	3.859	17725	15904	0	864
-5.842	2.669	17565	15339	0	864
-3.498	4.039	17425	14899	0	864
1.911	5.842	17331	14750	0	864
5.265	7.898	17247	14750	0	864
7.573	8.727	17190	14824	0	864
7.212	6.311	17143	14967	0	864
7.429	6.708	17115	15133	0	864
8.583	8.258	17087	15293	0	864
12.333	12.730	17096	15493	0	864
15.507	14.677	17068	15767	0	864
14.894	18.608	17096	16042	0	864
16.733	18.247	17106	16282	0	864
15.146	18.320	17134	16486	0	864
15.687	16.625	17143	16658	0	864
13.884	16.661	17153	16789	0	864
12.694	12.982	17181	16886	0	864
8.114	9.016	17162	16949	0	864
2.056	6.744	17190	17024	0	864
-0.685	5.445	17228	17195	0	864
-3.390	4.977	17275	17406	0	864
-5.445	4.003	17284	17452	0	864
-7.357	3.534	17237	17275	0	864
-7.862	1.190	17190	17006	0	864
-9.592	2.344	17153	16772	0	864
-9.304	2.921	17096	16618	0	864
-8.979	5.193	17068	16509	0	864
-10.097	2.993	16993	16339	0	864
-12.297	-0.541	16899	16042	0	864
-12.514	-4.904	16806	15744	0	864
-16.913	-10.314	16712	15567	0	864
-17.634	-11.215	16674	15499	0	864
-18.500	-12.441	16590	15453	0	864
-18.175	-10.891	16524	15362	0	864
-16.625	-8.979	16449	15282	0	864
-13.776	-8.078	16393	15270	0	864
-11.900	-7.429	16356	15316	0	864
-14.858	-9.052	16309	15379	0	864
-17.021	-12.333	16244	15413	0	864
-20.772	-14.100	16197	15442	0	864
-22.395	-18.788	16150	15510	0	864
-23.837	-19.582	16150	15642	0	864
-23.585	-22.142	16122	15807	0	864
-22.431	-22.503	16103	15962	0	864
-22.719	-21.781	16094	16082	0	864
-21.673	-20.700	16056	16150	0	864
-16.589	-15.290	16037	16179	0	864
-16.300	-16.913	15981	16179	0	864
-16.769	-16.589	15944	16162	0	864
-14.930	-16.480	15934	16167	0	864
-16.769	-17.959	15887	16213	0	864
-13.271	-14.136	15859	16287	0	864
-11.864	-11.035	15869	16389	0	864
-9.304	-6.852	15906	16612	0	864
-7.393	-3.210	15953	16909	0	864
-7.321	-0.216	15953	17092	0	864
-4.688	1.262	15934	17018	0	864
-4.652	-0.685	15859	16761	0	864
-6.455	-3.678	15775	16492	0	864
-10.314	-8.222	15718	16282	0	864
-15.867	-12.081	15625	16093	0	864
-18.139	-12.838	15540	15887	0	864
-17.454	-12.225	15437	15693	0	864
-15.975	-11.720	15400	15607	0	864
-10.422	-9.088	15353	15647	0	864
-6.455	-6.527	15324	15716	0	864
-3.606	-3.570	15249	15727	0	864
0.469	1.442	15193	15670	0	864
4.400	4.364	15109	15590	0	864
6.491	6.888	15062	15527	0	864
3.823	6.816	14977	15499	0	864
0.577	3.101	14912	15476	0	864
-4.436	-0.685	14827	15419	0	864
-9.196	-3.967	14743	15327	0	864
-9.737	-4.472	14668	15287	0	864
-6.419	-2.380	14630	15356	0	864
-5.121	1.010	14546	15442	0	864
-1.442	3.642	14490	15470	0	864
-0.325	5.229	14433	15464	0	864
0.974	4.255	14349	15482	0	864
2.128	5.157	14302	15527	0	864
2.236	3.931	14227	15573	0	864
2.488	2.344	14133	15562	0	864
2.416	1.226	14077	15522	0	864
2.164	0.288	13992	15504	0	864
3.137	2.019	13936	15544	0	864
4.327	5.554	13852	15596	0	864
4.652	7.285	13786	15602	0	864
3.859	6.960	13702	15573	0	864
3.642	4.003	13617	15562	0	864
3.173	0.216	13551	15596	0	864
3.282	-1.875	13476	15659	0	864
4.616	-1.262	13430	15722	0	864
1.659	-0.685	13354	15762	0	864
-1.118	-0.036	13289	15762	0	864
-2.957	2.452	13167	15653	0	864
-3.246	6.671	13054	15482	0	864
0.829	10.783	12914	15310	0	864
6.960	13.956	12745	15047	0	864
10.133	13.235	12538	14647	0	864
9.953	9.052	12341	14287	0	864
4.904	6.527	12163	14076	0	864
2.056	5.409	12004	14019	0	864
0.433	7.068	11910	14122	0	864
3.246	10.819	11816	14384	0	864
8.330	16.480	11769	14739	0	864
12.369	19.726	11722	15104	0	864
13.848	23.729	11732	15499	0	864
14.930	24.486	11732	15967	0	864
13.848	22.719	11769	16435	0	864
16.012	22.178	11778	16824	0	864
17.670	20.375	11816	17121	0	864
19.113	20.736	11825	17372	0	864
17.129	16.228	11863	17646	0	864
12.405	15.146	11947	17966	0	864
4.977	8.402	11966	18252	0	864
-1.659	5.157	12013	18401	0	864
-6.419	2.019	12051	18452	0	864
-5.734	0.361	12088	18521	0	864
-5.409	0.541	12144	18646	0	864
-1.010	0.649	12201	18744	0	864
1.731	-0.361	12238	18744	0	864
2.669	-2.236	12285	18704	0	864
0.865	-4.508	12323	18658	0	864
-1.695	-5.337	12351	18606	0	864
-4.472	-3.859	12398	18526	0	864
-6.708	-2.236	12435	18412	1	864
-6.671	0.757	12463	18309	0	864
-6.094	2.488	12510	18252	0	864
-7.140	1.370	12557	18206	0	864
-7.501	-1.587	12623	18166	0	864
-11.540	-9.448	12763	18321	0	864
-14.208	-14.317	12895	18652	0	864
-15.435	-18.933	13036	18881	0	864
-13.776	-16.697	13101	18852	0	864
-8.078	-9.520	13186	18681	0	864
-2.308	-5.193	13261	18509	0	864
1.659	-0.288	13336	18401	0	864
3.606	0.757	13411	18332	0	864
1.875	-0.685	13505	18246	0	864
-0.433	-1.479	13542	18081	0	864
-5.121	-3.462	13570	17829	0	864
-9.376	-5.770	13608	17532	0	864
-14.930	-9.196	13655	17326	0	864
-16.877	-12.477	13711	17264	0	864
-19.005	-14.172	13777	17224	0	864
-14.821	-12.009	13842	17155	0	864
-12.369	-11.792	13917	17104	0	864
-9.304	-9.232	13974	17069	0	864
-8.907	-8.366	14011	16995	0	864
-11.035	-8.294	14067	16858	0	864
-14.281	-8.907	14105	16715	0	864
-15.759	-8.835	14133	16652	0	864
-16.516	-7.465	14246	16681	0	864
-12.622	-6.708	14311	16761	0	864
-11.179	-3.750	14368	16789	0	864
-8.835	-2.164	14452	16778	0	864
-9.701	-3.173	14527	16812	0	864
-15.218	-7.176	14630	16926	0	864
-22.431	-13.307	14733	17029	0	864
-27.371	-17.346	14790	17058	0	864
-29.427	-21.060	14855	17006	0	864
-28.164	-18.392	14921	16944	0	864
-24.702	-15.867	14996	16904	0	864
-19.546	-8.835	15052	16875	0	864
-16.084	-6.635	15099	16824	0	864
-15.867	-5.554	15146	16726	0	864
-15.182	-6.022	15184	16606	0	864
-14.245	-7.825	15212	16481	0	864
-15.903	-7.609	15203	16327	0	864
-13.704	-6.383	15146	15967	0	864
-11.504	-4.544	15006	15322	0	864
-10.025	-4.327	14809	14499	0	864
-8.619	-4.616	14621	13762	0	864
-7.753	-4.796	14527	13413	0	864
-8.727	-6.599	14499	13562	0	864
-11.107	-6.419	14555	14042	0	864
-12.369	-8.078	14649	14647	0	864
-15.759	-9.232	14762	15242	0	864
-14.966	-9.052	14884	15790	0	864
-15.471	-9.268	15024	16327	0	864
-13.054	-8.402	15193	16892	0	864
-7.970	-5.337	15381	17458	0	864
-3.931	-1.118	15531	17944	0	864
1.515	1.587	15718	18332	0	864
1.911	3.714	15897	18698	0	864
-0.865	3.931	16103	19092	0	864
-3.210	2.380	16319	19452	0	864
-4.364	2.092	16505	19709	0	864
-3.750	2.200	16684	19864	0	864
0.036	3.426	16871	19938	0	864
3.498	7.248	17040	19972	0	864
6.708	9.196	17237	19995	0	864
10.278	12.477	17397	19995	0	864
13.920	14.208	17528	19841	0	864
15.290	15.831	17584	19401	0	864
17.670	15.471	17622	18789	0	864
15.867	18.247	17669	18286	0	864
14.245	16.625	17716	17938	0	864
11.540	16.769	17753	17595	0	864
9.629	12.009	17791	17229	0	864
9.556	12.802	17819	16886	0	864
11.828	14.028	17847	16584	0	864
11.864	14.389	17866	16316	0	864
12.333	14.785	17894	16082	0	864
10.494	11.756	17913	15922	1	316
8.150	8.402	17950	15784	0	316
8.330	10.278	17941	15573	0	316
13.704	15.398	17931	15310	0	316
18.428	20.050	17894	15019	0	316
23.657	23.621	17772	14584	0	316
23.512	24.378	17612	13956	0	316
19.978	18.860	17462	13333	0	316
12.225	15.435	17303	12904	0	316
8.727	10.566	17190	12659	0	316
6.131	9.809	17059	12573	0	316
9.412	12.982	17003	12619	0	316
11.251	15.398	16899	12727	0	316
15.975	19.401	16853	12824	0	316
14.713	16.877	16777	12979	0	316
13.415	14.028	16721	13219	0	316
9.484	9.809	16684	13459	0	316
7.393	7.862	16618	13642	0	316
5.121	9.809	16571	13819	0	316
8.439	12.946	16543	14082	0	316
9.052	14.497	16524	14424	0	316
6.924	17.490	16543	14813	0	316
4.724	13.595	16543	15213	0	316
2.164	11.432	16580	15556	0	316
3.354	11.035	16580	15836	0	316
8.979	11.468	16618	16110	0	316
15.146	14.749	16665	16424	0	316
18.247	18.428	16712	16778	0	316
21.818	20.952	16759	17081	0	316
23.440	22.322	16815	17315	0	316
23.837	24.630	16871	17492	0	316
23.873	22.683	16899	17612	0	316
19.834	19.149	16946	17681	0	316
11.973	16.661	16965	17761	0	316
5.950	11.251	17040	17864	0	316
0.541	7.032	17068	17938	0	316
0.685	4.940	17134	17984	0	316
1.406	4.868	17153	17978	0	316
4.327	3.318	17190	17898	0	316
6.888	4.436	17190	17755	0	316
5.806	4.580	17190	17578	0	316
3.137	5.698	17190	17372	0	316
0.974	6.491	17143	17132	0	316
-0.180	6.780	17106	16869	0	316
0.144	6.347	17050	16589	0	316
2.921	4.219	16993	16316	0	316
6.708	2.452	16899	15996	0	316
8.691	2.885	16806	15642	0	316
10.927	5.049	16731	15362	0	316
8.655	5.770	16627	15156	0	316
4.327	4.400	16524	14927	0	316
-2.777	-1.803	16384	14590	0	316
-8.763	-5.770	16234	14213	0	316
-11.828	-10.494	16103	13944	0	316
-8.763	-9.881	15981	13864	0	316
-6.599	-6.563	15897	13933	0	316
-4.688	-4.940	15840	14059	0	316
-6.022	-4.183	15747	14196	0	316
-10.278	-7.212	15718	14390	0	316
-15.254	-12.586	15681	14676	0	316
-20.159	-14.425	15681	15002	0	316
-20.664	-16.733	15681	15322	0	316
-21.277	-14.569	15681	15607	0	316
-19.005	-13.884	15672	15853	0	316
-13.631	-12.297	15672	16047	0	316
-11.323	-10.855	15634	16144	0	316
-10.097	-10.169	15578	16144	0	316
-10.566	-8.186	15512	16059	0	316
-15.326	-5.626	15371	15824	0	316
-18.969	-5.049	15231	15487	0	316
-18.716	-2.993	15137	15276	0	316
-18.283	-2.416	15052	15270	0	316
-11.612	-0.865	14968	15327	0	316
-7.934	-1.190	14874	15276	0	316
-5.626	-1.334	14733	15110	0	316
-4.147	-1.154	14640	15024	0	316
-5.842	-1.046	14574	15099	0	316
-7.862	-5.013	14499	15253	0	316
-14.389	-11.720	14461	15447	0	316
-21.601	-18.680	14452	15682	0	316
-30.797	-26.938	14405	15922	0	316
-35.846	-30.148	14386	16093	0	316
-35.521	-29.282	14349	16207	0	316
-32.059	-26.109	14358	16350	0	316
-27.263	-20.844	14321	16532	0	316
-21.745	-17.202	14311	16646	0	316
-17.346	-10.025	14274	16675	0	316
-9.520	-3.823	14246	16732	0	316
-2.813	2.849	14264	16892	0	316
3.570	9.376	14274	17115	0	316
4.940	11.756	14293	17281	0	316
5.517	11.251	14293	17309	0	316
2.524	8.619	14311	17349	0	316
-0.865	4.940	14339	17486	0	316
-3.606	1.875	14358	17635	0	316
-6.131	0.541	14396	17715	0	316
-9.196	0.649	14405	17744	0	316
-6.563	3.390	14443	17744	0	316
-1.623	9.124	14452	17738	0	316
4.291	14.136	14490	17766	0	316
9.845	19.041	14536	17812	0	316
15.651	21.493	14546	17812	0	316
17.562	21.998	14574	17721	0	316
17.418	22.250	14555	17589	0	316
13.379	15.146	14583	17509	0	316
6.816	9.304	14602	17481	0	316
-2.236	1.479	14602	17406	0	316
-8.619	-4.508	14621	17275	0	316
-11.215	-6.058	14630	17155	0	316
-9.737	-3.787	14630	17081	0	316
-6.022	0.216	14602	16955	0	316
-4.111	3.462	14490	16532	0	316
-3.570	5.662	14293	15767	0	316
-4.760	7.465	14105	14962	0	316
-7.248	5.914	13936	14390	0	316
-5.626	7.501	13777	14047	0	316
-2.993	8.475	13636	13836	0	316
1.839	12.261	13523	13739	0	316
5.950	15.579	13411	13722	0	316
10.386	15.903	13279	13670	0	316
12.405	19.546	13167	13602	0	316
14.317	16.336	13120	13790	0	316
14.930	17.743	13129	14253	0	316
13.523	18.031	13101	14693	0	316
14.028	17.887	13082	14933	0	316
13.091	17.779	13007	15064	0	316
15.651	19.942	12998	15224	0	316
18.175	22.791	12951	15419	0	316
17.382	24.089	12951	15647	0	316
18.788	26.181	12942	15904	0	316
11.612	23.585	12914	16139	0	316
6.671	15.290	12932	16344	0	316
-1.118	7.285	12942	16538	0	316
-8.475	-0.721	12960	16761	0	316
-14.713	-7.934	12989	16978	0	316
-20.411	-12.153	12998	17155	0	316
-19.185	-15.002	13036	17304	0	316
-18.320	-13.163	13045	17435	0	316
-13.235	-12.225	13092	17566	0	316
-10.674	-10.458	13101	17681	0	316
-11.251	-8.979	13120	17692	0	316
-12.045	-12.189	13129	17618	0	316
-15.615	-13.271	13129	17555	0	316
-16.048	-13.054	13167	17566	0	316
-18.464	-15.290	13176	17624	0	316
-18.211	-15.326	13223	17675	0	316
-18.464	-13.740	13261	17704	0	316
-13.848	-11.973	13279	17675	0	316
-9.845	-4.436	13289	17589	0	316
-5.229	1.298	13279	17464	0	316
-3.859	4.075	13279	17315	0	316
-6.924	1.298	13270	17144	0	316
-12.766	-4.544	13233	16949	0	316
-19.510	-11.540	13186	16715	0	316
-21.421	-16.372	13176	16521	0	316
-21.781	-16.444	13167	16481	0	316
-16.625	-16.156	13176	16509	0	316
-13.379	-14.100	13120	16373	0	316
-8.006	-11.251	13036	16024	0	316
-9.232	-12.658	12914	15624	0	316
-9.016	-12.658	12820	15287	0	316
-9.196	-11.720	12726	15036	0	316
-10.422	-10.855	12576	14767	0	316
-11.215	-10.494	12426	14384	0	316
-12.189	-7.068	12276	13990	0	316
-9.773	-6.419	12144	13819	0	316
-9.304	-4.977	12069	13939	0	316
-6.058	-3.390	12041	14207	0	316
-4.183	-0.433	12013	14510	0	316
-1.587	1.298	12004	14790	0	316
-2.092	4.111	11994	15087	0	316
1.010	5.950	11975	15362	0	316
3.426	6.996	11919	15436	0	316
7.068	9.556	11816	15322	0	316
10.206	13.559	11769	15287	0	316
12.586	17.598	11741	15476	0	316
17.418	21.854	11778	15842	0	316
15.723	24.017	11854	16350	0	316
15.326	21.060	11966	16944	0	316
12.694	20.555	12088	17509	0	316
11.937	16.733	12210	18012	0	316
9.701	14.100	12369	18509	0	316
8.294	8.979	12538	19012	0	316
5.157	4.039	12717	19469	0	316
1.262	-1.190	12904	19846	0	316
-0.613	-4.760	13082	20149	0	316
-2.993	-5.121	13289	20412	0	316
-0.577	-2.669	13467	20635	0	316
1.118	1.515	13664	20801	0	316
1.334	3.714	13842	20892	0	316
0.180	4.832	14021	20886	0	316
1.154	3.426	14161	20795	0	316
-1.046	-0.288	14293	20572	0	316
-1.839	-3.282	14415	20298	0	316
-0.252	-3.714	14593	20149	1	776
2.200	0.180	14724	20064	0	776
4.003	5.301	14827	19806	0	776
8.186	11.432	14912	19372	0	776
11.828	16.841	14968	18898	0	776
10.927	16.552	15024	18469	0	776
11.468	16.769	15052	18041	0	776
11.071	13.992	15006	17418	0	776
10.494	13.776	14949	16618	0	776
9.809	12.730	14912	15979	0	776
11.396	10.999	14912	15676	0	776
8.907	11.792	14949	15613	0	776
8.655	10.927	14977	15607	0	776
10.386	12.225	15024	15573	0	776
12.477	16.769	15062	15522	0	776
12.297	18.788	15109	15516	0	776
13.884	22.539	15184	15567	0	776
11.071	22.178	15240	15659	0	776
6.058	18.716	15287	15727	0	776
1.298	12.225	15353	15739	0	776
-2.128	7.717	15400	15773	0	776
-4.904	2.236	15484	15893	0	776
-5.481	1.370	15578	16110	0	776
-6.311	2.344	15709	16384	0	776
-4.904	5.842	15803	16635	0	776
-4.508	8.006	15915	16818	0	776
-3.570	11.504	16047	16978	0	776
-0.757	12.117	16169	17172	0	776
-2.308	8.763	16309	17395	0	776
-0.433	8.330	16412	17549	0	776
0.505	8.511	16524	17584	0	776
3.101	9.665	16599	17549	0	776
5.481	10.710	16684	17509	0	776
6.708	10.097	16806	17475	0	776
4.039	7.357	16899	17464	0	776
0.361	2.777	16965	17464	0	776
-2.633	1.767	17040	17372	0	776
-3.210	1.983	17040	17092	0	776
-0.361	2.560	17050	16709	0	776
3.967	4.400	17040	16379	0	776
9.016	5.085	17050	16127	0	776
10.999	3.895	17012	15893	0	776
11.323	2.380	16974	15573	0	776
9.989	0.216	16928	15236	0	776
5.950	-1.659	16946	15104	0	776
2.993	-3.029	16974	15213	0	776
-0.180	-3.714	17003	15379	0	776
-1.226	-4.796	17040	15459	0	776
-1.875	-4.255	17040	15447	0	776
-2.993	-3.498	17050	15407	0	776
-5.445	-2.921	17050	15413	0	776
-8.619	-3.462	17087	15470	0	776
-10.891	-5.698	17096	15539	0	776
-15.471	-9.160	17115	15590	0	776
-15.795	-15.471	17143	15676	0	776
-19.582	-18.031	17190	15830	0	776
-17.454	-18.644	17237	15996	0	776
-17.779	-16.012	17247	16070	0	776
-15.290	-11.648	17247	16030	0	776
-14.028	-9.448	17256	15933	0	776
-14.821	-6.491	17228	15853	0	776
-15.615	-8.042	17237	15842	0	776
-19.906	-9.160	17247	15864	0	776
-23.224	-12.910	17209	15830	0	776
-26.217	-15.002	17200	15750	0	776
-26.001	-19.329	17190	15710	0	776
-23.008	-18.969	17190	15744	0	776
-19.221	-19.870	17209	15830	0	776
-17.274	-16.228	17181	15882	0	776
-13.992	-14.605	17143	15762	0	776
-15.398	-13.235	17050	15487	0	776
-16.661	-12.297	16993	15253	0	776
-17.526	-15.146	16909	15116	0	776
-20.627	-16.769	16834	15007	0	776
-22.070	-18.824	16787	14939	0	776
-21.854	-16.805	16712	14916	0	776
-21.854	-15.398	16646	14910	0	776
-19.077	-11.828	16580	14882	0	776
-17.202	-8.871	16487	14767	0	776
-12.261	-5.554	16375	14579	0	776
-12.550	-3.714	16263	14413	0	776
-12.874	-2.957	16131	14270	0	776
-13.631	-3.173	15991	14127	0	776
-14.605	-2.813	15906	14076	0	776
-11.251	-1.839	15803	14179	0	776
-8.547	-0.108	15775	14430	0	776
-6.816	1.334	15728	14727	0	776
-5.698	2.092	15718	15002	0	776
-4.111	1.983	15709	15327	0	776
-4.003	3.390	15756	15756	0	776
-2.056	2.524	15775	16190	0	776
-1.983	2.633	15812	16509	0	776
-2.452	0.252	15803	16692	0	776
-5.481	-3.750	15812	16818	0	776
-6.058	-5.950	15850	16972	0	776
-6.888	-6.167	15850	17144	0	776
-6.635	-4.832	15859	17258	0	776
-4.147	0.180	15840	17264	0	776
-2.272	5.229	15840	17246	0	776
0.000	8.655	15859	17286	0	776
-0.325	8.150	15887	17389	0	776
0.000	6.816	15906	17504	0	776
1.190	3.246	15915	17549	0	776
1.911	0.180	15915	17498	0	776
3.029	1.587	15915	17401	0	776
3.570	7.465	15897	17309	0	776
4.760	13.235	15906	17269	0	776
4.327	17.202	15915	17229	0	776
7.393	19.365	15850	17052	0	776
9.629	16.552	15794	16721	0	776
14.317	15.831	15718	16435	0	776
14.785	15.759	15672	16259	0	776
15.579	18.283	15606	16110	0	776
14.317	16.480	15559	15973	0	776
11.684	15.795	15521	15870	0	776
12.514	15.002	15446	15796	0	776
12.369	14.353	15400	15710	0	776
9.917	14.894	15343	15607	0	776
6.275	12.622	15278	15504	0	776
1.118	10.386	15184	15390	0	776
-1.442	7.934	15090	15190	0	776
0.000	7.321	14977	14939	0	776
4.688	10.025	14865	14762	0	776
12.550	16.336	14771	14716	0	776
18.139	21.241	14696	14744	0	776
23.476	26.614	14583	14727	0	776
24.594	30.256	14480	14590	0	776
20.050	27.587	14358	14470	0	776
17.382	24.198	14293	14499	0	776
12.514	21.998	14208	14636	0	776
16.084	21.204	14124	14790	0	776
20.375	22.683	14077	14899	0	776
27.768	27.299	14011	15007	0	776
30.869	30.184	13945	15144	0	776
29.715	29.859	13880	15264	0	776
22.791	26.109	13795	15316	0	776
16.769	20.664	13739	15373	0	776
9.665	11.432	13692	15522	0	776
5.878	7.176	13683	15779	0	776
7.862	6.599	13692	16122	0	776
9.484	8.547	13711	16475	0	776
10.097	10.999	13739	16778	0	776
6.311	11.720	13739	16966	0	776
2.092	7.176	13692	16972	0	776
-5.229	1.839	13645	16864	0	776
-8.366	-2.849	13617	16835	0	776
-6.275	-4.291	13598	16898	0	776
-1.190	0.757	13598	16966	0	776
7.068	7.573	13570	17006	0	776
14.317	15.002	13561	17035	0	776
21.421	20.159	13561	17086	0	776
22.395	20.952	13598	17246	0	776
22.395	21.241	13617	17412	0	776
21.673	22.611	13617	17424	0	776
19.582	19.401	13608	17344	0	776
19.185	19.582	13598	17286	0	776
15.831	16.012	13589	17246	0	776
15.146	15.759	13570	17206	0	776
13.379	14.172	13561	17126	0	776
13.812	17.346	13495	16921	0	776
11.287	15.615	13430	16652	0	776
8.222	13.487	13420	16498	0	776
2.128	9.845	13401	16515	0	776
-0.793	5.337	13383	16566	0	776
-3.534	3.931	13354	16509	0	776
-2.416	4.039	13317	16362	0	776
-2.416	2.092	13242	16213	0	776
-3.173	2.164	13167	15979	0	776
-6.058	-2.272	13026	15584	0	776
-8.439	-7.248	12904	15207	0	776
-11.360	-12.982	12773	14962	0	776
-15.651	-15.435	12698	14842	0	776
-17.454	-18.392	12623	14836	0	776
-20.339	-15.795	12585	14967	0	776
-18.247	-11.792	12557	15184	0	776
-14.461	-7.753	12538	15407	0	776
-6.167	-3.570	12520	15584	0	776
0.108	0.505	12529	15767	0	776
5.265	3.390	12538	16002	0	776
5.878	5.409	12557	16270	0	776
2.344	5.554	12604	16549	0	776
-4.832	2.308	12660	16846	0	776
-11.143	-2.705	12707	17115	0	776
-14.208	-5.445	12745	17309	0	776
-11.107	-5.085	12773	17424	0	776
-1.298	1.587	12801	17458	0	776
12.297	11.035	12801	17435	0	776
21.241	18.211	12820	17395	0	776
23.837	21.745	12810	17338	0	776
16.949	16.985	12792	17252	0	776
0.613	5.806	12792	17132	0	776
-16.156	-6.599	12763	16995	0	776
-31.482	-15.579	12717	16806	0	776
-35.810	-23.801	12623	16509	0	776
-34.187	-23.476	12538	16150	0	776
-26.325	-21.709	12435	15824	0	776
-18.428	-20.014	12351	15579	0	776
-13.992	-15.254	12248	15373	0	776
-11.576	-12.550	12154	15139	0	776
-7.898	-9.052	12022	14876	0	776
-8.727	-5.085	11919	14693	0	776
-8.150	-4.472	11854	14670	0	776
-10.350	-3.246	11788	14767	0	776
-11.864	-2.705	11741	14899	0	776
-12.477	-2.741	11666	14962	0	776
-10.494	-1.118	11591	14939	0	776
-6.996	-1.947	11488	14876	0	776
-4.472	-4.003	11413	14836	0	776
-4.977	-6.347	11338	14847	0	776
-6.563	-9.917	11263	14927	0	776
-10.025	-10.242	11216	15076	0	776
-11.035	-10.746	11178	15310	0	776
-10.855	-9.556	11206	15624	0	776
-7.212	-7.285	11216	15962	0	776
-6.131	-7.104	11178	16162	0	776
-6.563	-10.494	11103	16099	0	776
-9.340	-13.415	11019	15899	0	776
-12.045	-16.084	10972	15864	0	776
-12.117	-17.274	10944	16042	0	776
-8.330	-12.514	10934	16259	0	776
-5.517	-10.566	10944	16464	0	776
-4.075	-9.809	10972	16686	0	776
-6.671	-11.107	10981	16892	0	776
-10.566	-11.756	11019	17092	0	776
-13.956	-11.937	11066	17344	0	776
-15.362	-10.494	11150	17646	0	776
-12.838	-9.268	11197	17898	0	776
-13.668	-10.278	11253	18029	0	776
-12.550	-10.133	11300	18092	0	776
-7.285	-6.599	11366	18178	0	776
-1.370	-1.983	11450	18338	0	776
4.868	4.364	11544	18544	0	776
8.871	11.107	11666	18755	0	776
7.537	12.658	11778	18949	0	776
3.714	10.963	11929	19161	0	776
-3.173	7.032	12088	19418	0	776
-8.294	3.282	12257	19686	0	776
-7.537	1.947	12426	19846	0	776
-1.442	6.311	12557	19852	0	776
9.629	14.966	12698	19829	0	776
18.392	23.729	12867	19892	0	776
22.863	23.837	13054	20018	0	776
16.913	21.096	13233	20115	0	776
10.746	15.074	13411	20115	0	776
4.940	8.727	13570	20052	0	776
3.210	7.898	13748	19972	0	776
3.318	7.609	13917	19869	0	776
3.642	6.383	14058	19732	1	988
3.606	4.580	14208	19561	0	988
4.327	5.265	14339	19366	0	988
7.176	8.402	14499	19212	0	988
10.494	11.864	14668	19132	0	988
11.612	16.625	14827	19069	0	988
11.432	16.228	14949	18858	0	988
8.727	16.877	14977	18372	0	988
6.708	14.208	15006	17726	0	988
8.475	16.589	15062	17235	0	988
14.713	20.231	15109	16949	0	988
23.188	27.299	15165	16698	0	988
29.643	32.744	15240	16469	0	988
34.728	35.846	15324	16339	0	988
31.446	35.088	15381	16259	0	988
26.037	32.853	15475	16173	0	988
18.464	28.489	15531	16087	0	988
13.235	25.171	15578	15973	0	988
17.346	26.217	15625	15779	0	988
20.808	28.273	15615	15482	0	988
26.830	29.463	15578	15150	0	988
29.679	31.338	15578	14899	0	988
26.542	26.758	15559	14756	0	988
18.680	20.447	15568	14613	0	988
9.160	10.855	15531	14459	0	988
-2.921	2.633	15521	14373	0	988
-12.009	-6.311	15540	14419	0	988
-19.437	-10.566	15587	14573	0	988
-17.274	-12.441	15625	14813	0	988
-14.136	-7.537	15700	15064	0	988
-6.780	-3.210	15747	15259	0	988
-0.974	1.262	15803	15402	0	988
-0.180	3.210	15840	15550	0	988
-3.101	2.128	15887	15693	0	988
-6.491	-1.118	15934	15767	0	988
-10.458	-4.291	15915	15756	0	988
-12.225	-4.147	15934	15722	0	988
-10.422	-3.101	15962	15750	0	988
-7.176	1.767	15981	15824	0	988
-5.517	3.137	16009	15904	0	988
-2.885	7.609	16037	15950	0	988
-3.967	7.537	16056	15996	0	988
-6.671	5.445	16103	16127	0	988
-9.809	3.750	16188	16350	0	988
-10.999	3.210	16272	16606	0	988
-7.104	3.065	16338	16824	0	988
-1.406	4.400	16412	16978	0	988
3.823	7.717	16487	17092	0	988
5.986	6.852	16571	17206	0	988
3.390	3.462	16627	17258	0	988
1.839	1.154	16627	17109	0	988
-0.469	-0.361	16552	16704	0	988
-0.397	-0.829	16487	16236	0	988
-0.649	1.082	16449	15933	0	988
-1.587	4.400	16430	15802	0	988
-5.337	7.032	16402	15727	0	988
-4.724	5.806	16402	15693	0	988
-6.131	5.013	16393	15699	0	988
-5.590	2.885	16393	15750	0	988
-1.587	4.291	16440	15893	0	988
2.777	6.599	16552	16247	0	988
9.629	12.514	16684	16732	0	988
15.507	17.815	16787	17086	0	988
18.788	17.706	16834	17212	0	988
16.769	17.129	16918	17264	0	988
12.550	12.369	17012	17389	0	988
8.006	9.665	17134	17578	0	988
6.924	9.881	17200	17744	0	988
9.917	12.658	17284	17772	0	988
17.382	16.480	17303	17629	0	988
20.303	20.555	17275	17326	0	988
20.375	18.897	17209	16824	0	988
12.730	18.103	17087	16196	0	988
7.609	13.415	16974	15619	0	988
6.599	13.848	16862	15167	0	988
8.979	12.081	16768	14847	0	988
13.884	14.713	16712	14676	0	988
14.497	14.136	16637	14630	0	988
10.097	12.369	16618	14670	0	988
3.750	10.819	16543	14659	0	988
2.813	8.006	16430	14436	0	988
2.164	9.052	16291	14082	0	988
3.714	10.061	16188	13882	0	988
5.373	12.225	16131	13910	0	988
5.373	13.523	16037	14007	0	988
5.085	17.851	15981	14127	0	988
6.888	17.923	15934	14304	0	988
10.963	20.808	15934	14562	0	988
14.713	19.906	15915	14899	0	988
13.920	19.798	15934	15236	0	988
14.389	17.490	15906	15430	0	988
11.900	18.500	15850	15459	0	988
12.405	17.166	15812	15493	0	988
16.048	20.339	15765	15590	0	988
18.608	22.214	15718	15653	0	988
23.044	22.972	15662	15670	0	988
21.349	22.791	15625	15722	0	988
18.356	18.464	15568	15779	0	988
15.651	16.552	15531	15807	0	988
11.684	14.497	15521	15927	0	988
8.655	15.759	15531	16219	0	988
4.688	15.326	15540	16486	0	988
3.931	13.631	15531	16561	0	988
0.613	9.088	15465	16481	0	988
1.046	5.265	15428	16395	0	988
3.462	5.373	15390	16362	0	988
4.147	6.924	15343	16333	0	988
2.488	10.783	15296	16316	0	988
2.128	10.891	15278	16322	0	988
1.262	10.278	15231	16339	0	988
1.370	10.133	15212	16384	0	988
3.895	10.314	15203	16458	0	988
5.878	10.422	15184	16515	0	988
4.219	9.592	15156	16521	0	988
2.921	6.671	15137	16532	0	988
-0.902	4.111	15118	16566	0	988
-2.993	2.092	15099	16572	0	988
-7.176	2.993	15052	16498	0	988
-5.662	4.472	14996	16384	0	988
-3.931	5.698	14949	16276	0	988
0.721	7.537	14902	16213	0	988
6.491	9.701	14865	16224	0	988
8.366	10.458	14855	16276	0	988
7.393	8.943	14827	16310	0	988
4.075	7.465	14790	16299	0	988
-0.180	5.590	14780	16293	0	988
-5.698	1.731	14743	16322	0	988
-8.511	-1.839	14733	16379	0	988
-11.684	-4.039	14715	16406	0	988
-11.792	-4.616	14724	16424	0	988
-6.708	-4.183	14677	16441	0	988
-2.741	-0.793	14649	16418	0	988
0.649	-0.036	14649	16418	0	988
2.993	-0.361	14687	16601	0	988
-1.298	-5.698	14743	16949	0	988
-7.753	-12.261	14790	17189	0	988
-17.418	-16.408	14780	17178	0	988
-23.729	-21.854	14780	17029	0	988
-28.020	-20.988	14733	16869	0	988
-25.820	-19.113	14715	16738	0	988
-18.897	-11.937	14649	16566	0	988
-10.602	-7.501	14602	16356	0	988
-2.633	-1.587	14546	16190	0	988
-0.505	-0.541	14546	16179	0	988
-2.849	-3.570	14536	16287	0	988
-10.025	-9.196	14546	16401	0	988
-19.257	-15.002	14546	16452	0	988
-22.395	-18.031	14527	16429	0	988
-21.096	-16.084	14508	16384	0	988
-17.959	-15.074	14499	16356	0	988
-16.589	-12.369	14461	16293	0	988
-20.483	-16.697	14405	16133	0	988
-24.450	-21.421	14321	15899	0	988
-31.699	-29.318	14264	15704	0	988
-32.925	-32.095	14208	15613	0	988
-30.797	-28.705	14171	15659	0	988
-25.279	-22.972	14152	15756	0	988
-16.084	-15.507	14086	15722	0	988
-8.078	-8.547	13945	15447	0	988
-3.462	-3.895	13833	15042	0	988
-3.029	-3.859	13730	14796	0	988
-7.212	-5.986	13645	14779	0	988
-10.530	-9.809	13570	14819	0	988
-15.471	-14.281	13505	14876	0	988
-17.093	-18.644	13430	14950	0	988
-18.608	-16.552	13373	15024	0	988
-15.615	-13.559	13326	15093	0	988
-9.773	-8.258	13270	15207	0	988
-5.013	-1.479	13214	15304	0	988
-2.019	1.731	13139	15322	0	988
-5.049	1.118	13045	15299	0	988
-10.061	-2.921	12979	15276	0	988
-15.939	-8.402	12895	15282	0	988
-19.473	-13.595	12848	15339	0	988
-19.257	-14.749	12773	15413	0	988
-19.726	-14.100	12707	15504	0	988
-16.949	-13.271	12698	15676	0	988
-16.697	-9.809	12707	15967	0	988
-15.615	-8.439	12707	16270	0	988
-17.634	-8.835	12679	16429	0	988
-19.365	-10.638	12651	16498	0	988
-20.988	-12.297	12651	16561	0	988
-19.906	-12.225	12613	16635	0	988
-14.894	-8.330	12613	16721	0	988
-5.950	-2.452	12623	16869	0	988
1.262	3.750	12623	17024	0	988
7.970	6.599	12613	17115	0	988
9.052	7.248	12623	17149	0	988
3.498	5.265	12623	17178	0	988
-1.190	3.859	12623	17206	0	988
-6.311	1.226	12604	17184	0	988
-8.078	-1.695	12576	17109	0	988
-5.517	-1.767	12557	17035	0	988
0.577	-0.829	12566	17035	0	988
9.448	3.931	12585	17132	0	988
17.923	9.124	12613	17258	0	988
19.834	11.900	12632	17315	0	988
19.149	10.494	12613	17252	0	988
10.061	6.635	12520	16966	0	988
1.515	2.524	12435	16515	0	988
-4.977	-0.757	12341	16144	0	988
-9.881	-2.705	12238	15836	0	988
-9.268	-4.255	12051	15396	0	988
-5.986	-4.940	11882	14870	0	988
-0.685	-5.914	11741	14522	0	988
5.950	-3.426	11628	14436	0	988
9.304	-1.767	11572	14504	0	988
8.727	-0.613	11525	14653	0	988
2.524	0.252	11478	14870	0	988
0.000	1.442	11450	15082	0	988
-3.714	0.793	11460	15333	0	988
-5.986	-1.010	11525	15802	0	988
-7.140	-3.354	11628	16429	0	988
-7.429	-5.049	11694	16944	0	988
-4.904	-3.606	11778	17246	0	988
-1.010	0.288	11825	17481	0	988
5.157	6.239	11919	17761	0	988
9.592	9.592	12022	18115	0	988
9.232	8.547	12154	18475	0	988
6.131	6.203	12257	18749	0	988
2.488	1.947	12369	18892	0	988
-2.200	0.613	12491	19058	0	988
-4.616	-0.397	12651	19315	0	988
-5.409	1.442	12820	19589	0	988
-3.750	3.137	12979	19824	0	988
-1.190	4.832	13167	20012	0	988
0.649	6.635	13336	20172	0	988
1.803	6.419	13523	20315	0	988
2.488	7.104	13692	20378	0	988
1.695	7.285	13842	20326	0	988
0.288	7.753	13992	20195	0	988
1.767	8.583	14124	20052	0	988
3.570	10.206	14311	19966	0	988
8.330	12.586	14490	19966	1	932
13.054	12.405	14687	20001	0	932
13.776	11.864	14855	19978	0	932
15.507	11.035	15024	19864	0	932
12.946	9.376	15203	19721	0	932
10.746	8.871	15353	19589	0	932
9.629	11.035	15531	19441	0	932
8.222	12.369	15672	19235	0	932
5.986	11.900	15794	18961	0	932
4.075	12.045	15897	18618	0	932
1.803	10.386	16000	18241	0	932
-1.803	6.311	16056	17858	0	932
-5.121	2.669	16131	17486	0	932
-8.475	-2.272	16188	17121	0	932
-9.124	-7.645	16225	16749	0	932
-8.835	-8.222	16225	16293	0	932
-7.465	-5.590	16188	15744	0	932
-2.705	-1.334	16169	15282	0	932
4.111	5.698	16169	14984	0	932
10.422	10.674	16141	14739	0	932
14.605	10.710	16094	14424	0	932
11.576	8.402	16056	14076	0	932
4.977	3.570	16000	13824	0	932
-3.895	-0.865	15981	13733	0	932
-7.501	-1.587	16000	13796	0	932
-6.347	0.433	15991	13916	0	932
-3.714	1.983	15991	13996	0	932
-0.433	3.678	15991	14047	0	932
-1.298	1.659	15991	14127	0	932
-0.649	-0.541	16009	14276	0	932
-2.019	-2.092	16028	14482	0	932
-2.488	-1.623	16056	14676	0	932
-0.541	0.361	16056	14824	0	932
2.560	5.878	16094	14967	0	932
7.032	10.350	16122	15150	0	932
7.934	12.477	16131	15339	0	932
6.058	10.566	16150	15419	0	932
-0.325	1.442	16103	15356	0	932
-6.996	-6.058	16084	15282	0	932
-10.566	-10.746	16094	15356	0	932
-8.979	-10.746	16131	15550	0	932
-6.527	-7.429	16131	15733	0	932
-3.606	-3.246	16150	15887	0	932
-2.236	-2.560	16188	16013	0	932
-3.318	-2.633	16188	16082	0	932
-5.229	-3.101	16178	16093	0	932
-6.455	-4.003	16188	16070	0	932
-7.104	-4.616	16169	16070	0	932
-5.373	-6.022	16169	16093	0	932
-3.967	-6.599	16178	16150	0	932
-4.111	-7.537	16197	16242	0	932
-4.940	-7.140	16216	16356	0	932
-5.878	-5.590	16234	16464	0	932
-4.508	-4.940	16272	16549	0	932
-2.957	-4.904	16309	16606	0	932
-1.767	-7.176	16309	16646	0	932
-3.606	-9.196	16319	16669	0	932
-6.455	-9.773	16338	16681	0	932
-11.179	-9.412	16338	16675	0	932
-15.038	-7.898	16319	16578	0	932
-17.526	-8.042	16291	16418	0	932
-21.745	-9.124	16319	16379	0	932
-23.044	-11.973	16356	16498	0	932
-19.221	-13.163	16393	16692	0	932
-13.595	-9.304	16430	16818	0	932
-5.481	-6.780	16449	16846	0	932
-1.370	-1.551	16487	16846	0	932
-0.902	-0.072	16505	16898	0	932
-2.741	1.262	16552	16989	0	932
-1.406	1.947	16590	17075	0	932
1.587	4.760	16646	17098	0	932
6.635	8.330	16674	17081	0	932
8.763	9.520	16721	17086	0	932
5.409	8.042	16759	17138	0	932
0.902	8.078	16815	17184	0	932
0.180	6.094	16834	17144	0	932
2.092	9.989	16834	17035	0	932
6.491	12.333	16862	16915	0	932
12.189	12.514	16871	16824	0	932
14.136	14.028	16881	16778	0	932
11.179	11.973	16909	16738	0	932
10.855	11.720	16928	16698	0	932
9.809	13.091	16946	16641	0	932
9.881	13.307	16956	16566	0	932
8.799	11.576	16946	16486	0	932
7.970	6.635	16928	16350	0	932
3.787	2.849	16881	16127	0	932
1.298	1.190	16834	15842	0	932
3.137	3.678	16740	15522	0	932
6.780	7.789	16646	15219	0	932
9.412	11.071	16552	14973	0	932
10.999	12.261	16487	14784	0	932
9.304	9.052	16384	14602	0	932
6.167	6.275	16244	14322	0	932
4.291	5.481	16122	14002	0	932
5.409	6.239	16009	13870	0	932
8.655	7.789	15915	13910	0	932
11.792	9.376	15775	13824	0	932
13.523	9.376	15578	13510	0	932
17.274	10.097	15418	13167	0	932
16.012	10.963	15240	12996	0	932
16.336	10.530	15109	13042	0	932
13.451	9.160	15015	13236	0	932
9.340	8.475	14912	13476	0	932
6.419	6.275	14818	13676	0	932
6.167	7.645	14724	13876	0	932
8.078	10.278	14668	14116	0	932
10.314	13.235	14593	14407	0	932
10.133	13.307	14546	14716	0	932
9.629	13.307	14499	15007	0	932
9.556	15.290	14461	15299	0	932
9.773	13.199	14461	15642	0	932
10.927	12.802	14480	16082	0	932
7.068	8.583	14527	16549	0	932
0.505	3.101	14536	16932	0	932
-5.698	-3.823	14555	17195	0	932
-9.160	-7.068	14602	17429	0	932
-6.996	-5.301	14640	17721	0	932
-1.695	-0.216	14715	18035	0	932
3.750	5.481	14762	18264	0	932
7.068	6.996	14771	18309	0	932
3.390	6.203	14715	18104	0	932
-0.721	1.226	14649	17744	0	932
-6.094	-4.219	14593	17458	0	932
-9.304	-9.629	14536	17286	0	932
-12.477	-12.622	14499	17149	0	932
-14.930	-15.759	14480	17029	0	932
-16.589	-19.618	14396	16858	0	932
-18.969	-17.418	14339	16606	0	932
-17.021	-16.769	14255	16384	0	932
-15.290	-12.514	14180	16230	0	932
-11.648	-8.979	14133	16144	0	932
-10.891	-6.960	14086	16076	0	932
-9.556	-6.419	14039	16082	0	932
-6.167	-5.914	14077	16242	0	932
-3.246	-6.383	14086	16486	0	932
-1.659	-6.671	14086	16612	0	932
-4.472	-8.186	14039	16549	0	932
-7.357	-8.943	14021	16458	0	932
-11.468	-9.052	13992	16429	0	932
-10.710	-6.671	13927	16322	0	932
-7.934	-4.544	13833	16070	0	932
-4.327	-3.137	13758	15853	0	932
-4.147	-3.606	13692	15739	0	932
-6.635	-6.599	13617	15659	0	932
-10.710	-11.071	13561	15619	0	932
-13.884	-18.644	13523	15647	0	932
-17.923	-21.457	13495	15722	0	932
-18.680	-22.395	13458	15796	0	932
-19.870	-16.733	13448	15870	0	932
-18.392	-12.982	13430	16013	0	932
-19.437	-10.710	13458	16276	0	932
-19.437	-12.225	13514	16589	0	932
-17.743	-15.038	13551	16841	0	932
-16.949	-12.189	13551	16944	0	932
-12.261	-11.251	13505	16806	0	932
-9.773	-9.124	13401	16469	0	932
-10.963	-8.655	13289	16116	0	932
-13.559	-13.127	13167	15744	0	932
-13.812	-14.461	12960	15253	0	932
-11.323	-9.520	12801	14750	0	932
-3.498	-4.003	12670	14493	0	932
5.698	3.354	12566	14482	0	932
10.242	9.665	12510	14602	0	932
11.828	10.566	12463	14802	0	932
9.665	8.006	12426	15059	0	932
6.491	6.383	12426	15344	0	932
2.164	4.255	12416	15619	0	932
0.469	3.426	12416	15876	0	932
-1.479	3.859	12416	16110	0	932
-3.318	2.452	12416	16316	0	932
-4.796	2.272	12388	16424	0	932
-5.409	-0.613	12369	16481	0	932
-6.455	-2.524	12369	16566	0	932
-5.157	-3.534	12369	16709	0	932
-5.337	-4.183	12369	16835	0	932
-6.058	-3.390	12351	16915	0	932
-7.898	-1.983	12351	16972	0	932
-8.511	-0.649	12369	17052	0	932
-8.330	0.361	12388	17166	0	932
-7.825	-0.433	12416	17309	0	932
-7.789	-2.092	12435	17412	0	932
-7.212	-1.659	12445	17435	0	932
-7.393	-0.685	12445	17401	0	932
-2.921	1.983	12426	17281	0	932
-0.829	4.400	12388	17086	0	932
2.019	3.570	12351	16909	0	932
1.623	5.770	12323	16778	0	932
4.472	8.150	12294	16698	0	932
6.563	10.458	12294	16709	0	932
12.297	14.894	12341	16824	0	932
14.930	18.175	12388	17012	0	932
17.959	18.933	12426	17155	0	932
16.120	21.529	12435	17166	0	932
14.930	20.159	12445	17109	0	932
12.297	17.490	12473	17104	0	932
10.242	12.586	12491	17172	0	932
10.097	11.360	12529	17206	0	932
8.439	9.701	12538	17172	0	932
8.583	9.629	12557	17104	0	932
5.986	9.989	12529	16972	0	932
3.967	9.989	12510	16766	0	932
2.669	8.619	12520	16652	0	932
3.931	9.629	12566	16772	0	932
5.842	8.763	12632	16989	0	932
6.131	7.068	12660	17092	0	932
5.842	5.662	12707	17086	0	932
3.606	4.832	12745	17104	0	932
-0.144	1.947	12792	17184	0	932
-2.380	0.685	12839	17224	0	932
-4.688	0.649	12885	17224	0	932
-5.265	4.219	12942	17252	0	932
-2.741	8.078	13007	17344	0	932
1.587	12.658	13101	17498	0	932
8.655	15.074	13223	17749	0	932
16.300	17.634	13364	18018	0	932
23.116	18.716	13476	18229	0	932
27.768	22.863	13636	18412	0	932
27.119	21.313	13795	18652	0	932
24.919	19.510	13974	18921	0	932
23.260	14.677	14124	19138	0	932
17.815	8.979	14311	19246	0	932
19.113	7.429	14452	19304	0	932
18.933	8.402	14640	19361	0	932
20.772	12.225	14809	19452	0	932
23.837	16.480	14996	19555	0	932
23.729	20.844	15165	19572	0	932
20.808	19.978	15334	19515	0	932
16.949	18.860	15475	19424	0	932
10.999	13.595	15662	19366	0	932
6.816	8.511	15812	19326	0	932
1.298	2.488	15991	19224	1	924
-3.570	-3.859	16122	19058	0	924
-7.717	-6.599	16272	18892	0	924
-11.251	-7.212	16412	18772	0	924
-10.314	-3.390	16580	18698	0	924
-9.809	-0.036	16721	18618	0	924
-4.688	4.255	16824	18401	0	924
-1.190	4.003	16918	18012	0	924
1.226	2.056	16974	17601	0	924
-1.911	-1.659	17050	17258	0	924
-8.330	-6.275	17096	16926	0	924
-11.251	-8.619	17143	16584	0	924
-10.097	-5.481	17162	16270	0	924
-4.327	0.793	17200	15967	0	924
3.931	7.393	17247	15733	0	924
6.996	11.179	17322	15659	0	924
5.229	10.783	17415	15756	0	924
0.180	5.157	17519	15842	0	924
-4.436	0.361	17556	15773	0	924
-7.934	-0.685	17575	15579	0	924
-7.789	1.623	17584	15379	0	924
-3.462	5.193	17612	15213	0	924
0.361	6.635	17612	15047	0	924
-0.505	7.285	17584	14842	0	924
-3.859	0.541	17556	14630	0	924
-10.133	-5.842	17519	14442	0	924
-19.726	-13.920	17519	14322	0	924
-24.198	-17.418	17490	14293	0	924
-28.273	-20.700	17481	14333	0	924
-29.174	-18.320	17481	14373	0	924
-28.381	-16.048	17472	14430	0	924
-27.732	-12.802	17481	14544	0	924
-26.217	-13.235	17528	14727	0	924
-24.702	-14.425	17556	14962	0	924
-21.024	-12.261	17575	15156	0	924
-12.441	-10.746	17612	15322	0	924
-7.140	-6.383	17650	15504	0	924
-5.013	-2.272	17716	15727	0	924
-8.366	-3.246	17772	15962	0	924
-13.848	-5.157	17809	16144	0	924
-14.821	-4.580	17856	16270	0	924
-10.278	-2.452	17894	16384	0	924
-2.741	1.983	17959	16521	0	924
3.210	3.606	18025	16675	0	924
3.029	5.590	18081	16806	0	924
0.902	1.515	18091	16818	0	924
-2.056	-2.849	18091	16681	0	924
-4.616	-4.868	18081	16504	0	924
-4.472	-4.904	18072	16362	0	924
-3.642	-3.642	18035	16230	0	924
-0.865	1.298	18035	16116	0	924
2.380	5.445	18025	16036	0	924
6.383	6.924	18006	15973	0	924
5.229	4.147	18006	15962	0	924
1.659	-2.596	18044	16076	0	924
-6.311	-10.386	18091	16287	0	924
-12.766	-17.598	18128	16401	0	924
-14.245	-16.408	18100	16362	0	924
-9.989	-9.665	18100	16242	0	924
-1.190	1.262	18119	16207	0	924
6.708	9.520	18128	16299	0	924
9.665	13.920	18175	16401	0	924
10.242	12.153	18175	16424	0	924
9.989	10.963	18166	16373	0	924
10.314	12.009	18166	16276	0	924
12.441	12.694	18128	16162	0	924
15.362	16.012	18091	16019	0	924
14.894	16.697	18035	15842	0	924
10.891	13.415	17959	15630	0	924
10.314	11.973	17903	15430	0	924
9.088	11.215	17856	15304	0	924
10.278	13.054	17819	15299	0	924
16.012	18.464	17791	15356	0	924
21.060	22.106	17744	15373	0	924
24.991	27.263	17697	15333	0	924
22.611	26.722	17650	15276	0	924
17.166	22.286	17603	15259	0	924
11.937	16.913	17565	15304	0	924
7.573	10.133	17528	15344	0	924
6.167	6.780	17481	15367	0	924
8.366	7.501	17434	15413	0	924
8.511	7.898	17425	15476	0	924
8.871	7.573	17368	15533	0	924
10.638	8.330	17331	15544	0	924
11.360	7.393	17275	15522	0	924
12.189	7.753	17200	15464	0	924
10.819	9.520	17106	15333	0	924
7.248	9.340	17012	15144	0	924
4.291	10.963	16918	15013	0	924
3.787	11.035	16815	14973	0	924
3.787	12.874	16731	14956	0	924
6.058	13.920	16618	14870	0	924
9.052	12.586	16496	14727	0	924
8.547	10.927	16440	14744	0	924
7.501	8.943	16402	14984	0	924
5.914	6.167	16384	15282	0	924
5.517	6.491	16356	15504	0	924
5.590	8.330	16319	15664	0	924
5.914	10.999	16309	15847	0	924
6.960	10.855	16291	16059	0	924
4.724	9.160	16291	16282	0	924
4.003	3.426	16291	16475	0	924
0.685	1.515	16291	16624	0	924
-0.721	-1.515	16291	16761	0	924
-2.416	-2.092	16309	16926	0	924
-1.551	-0.829	16319	17092	0	924
0.613	-0.505	16319	17201	0	924
3.931	2.380	16309	17206	0	924
7.357	8.979	16291	17161	0	924
7.032	10.927	16272	17098	0	924
5.770	9.556	16272	17064	0	924
1.190	5.481	16263	17086	0	924
-3.859	-0.577	16263	17132	0	924
-6.671	-2.921	16263	17172	0	924
-8.150	-1.731	16281	17212	0	924
-4.291	0.974	16319	17281	0	924
-0.361	4.147	16338	17366	0	924
3.823	6.131	16366	17424	0	924
5.193	7.825	16375	17418	0	924
4.364	6.527	16384	17361	0	924
-0.541	4.508	16384	17304	0	924
-2.957	2.416	16384	17235	0	924
-2.633	1.659	16366	17086	0	924
-2.019	4.003	16291	16795	0	924
1.731	5.626	16197	16406	0	924
4.327	8.979	16094	15984	0	924
4.688	7.862	15962	15562	0	924
1.947	3.606	15859	15247	0	924
-2.092	0.649	15775	15082	0	924
-7.032	-3.354	15681	15002	0	924
-10.278	-4.472	15587	14893	0	924
-10.855	-0.793	15475	14722	0	924
-9.592	2.019	15381	14562	0	924
-7.140	3.534	15259	14453	0	924
-5.085	1.659	15165	14402	0	924
-4.868	-2.308	15062	14373	0	924
-3.282	-7.898	14959	14344	0	924
-4.400	-11.035	14874	14362	0	924
-5.481	-11.179	14809	14493	0	924
-5.698	-9.124	14790	14733	0	924
-6.960	-5.085	14733	15013	0	924
-5.842	-1.515	14715	15242	0	924
-4.977	-2.272	14668	15396	0	924
-7.681	-4.688	14649	15567	0	924
-8.150	-9.016	14621	15802	0	924
-11.179	-13.307	14602	16042	0	924
-12.946	-14.317	14621	16230	0	924
-16.697	-14.317	14583	16384	0	924
-17.274	-13.595	14602	16584	0	924
-20.591	-12.477	14640	16846	0	924
-18.428	-13.018	14649	17109	0	924
-17.166	-13.812	14687	17304	0	924
-12.694	-12.477	14715	17418	0	924
-12.441	-14.858	14696	17424	0	924
-13.559	-14.749	14677	17366	0	924
-13.776	-16.985	14677	17332	0	924
-15.074	-15.182	14687	17326	0	924
-12.982	-14.749	14677	17326	0	924
-11.071	-9.124	14677	17309	0	924
-8.619	-3.534	14668	17264	0	924
-4.111	-0.613	14668	17184	0	924
-1.947	1.515	14593	17024	0	924
0.865	-0.397	14536	16761	0	924
-1.479	-3.859	14443	16429	0	924
-9.160	-8.439	14358	16139	0	924
-21.096	-15.795	14293	15933	0	924
-32.420	-19.365	14218	15813	0	924
-38.118	-24.162	14161	15744	0	924
-35.485	-22.863	14114	15704	0	924
-24.811	-18.644	14030	15607	0	924
-13.812	-9.773	13964	15464	0	924
-7.212	-4.796	13917	15447	0	924
-6.780	-1.983	13899	15613	0	924
-11.360	-3.282	13917	15847	0	924
-15.723	-5.337	13899	16030	0	924
-15.687	-7.537	13889	16122	0	924
-15.651	-8.114	13889	16184	0	924
-14.569	-10.350	13880	16276	0	924
-17.310	-15.651	13870	16379	0	924
-19.077	-20.014	13824	16373	0	924
-23.188	-24.342	13730	16122	0	924
-23.008	-25.316	13608	15762	0	924
-20.123	-20.339	13542	15579	0	924
-19.293	-17.779	13505	15642	0	924
-15.398	-10.458	13495	15802	0	924
-14.930	-8.258	13458	15904	0	924
-12.766	-6.383	13430	15973	0	924
-9.232	-4.940	13430	16087	0	924
-6.960	-3.498	13448	16282	0	924
-3.426	0.325	13476	16526	0	924
-2.921	3.318	13514	16789	0	924
-4.364	3.750	13551	17018	0	924
-7.681	2.741	13608	17172	0	924
-11.576	-2.524	13617	17269	0	924
-17.995	-6.708	13645	17338	0	924
-20.195	-8.943	13664	17366	0	924
-20.844	-10.097	13683	17355	0	924
-13.668	-5.698	13692	17344	0	924
-7.357	-1.010	13711	17349	0	924
-1.298	1.911	13739	17366	0	924
-0.541	3.750	13758	17372	0	924
-3.823	2.705	13795	17378	0	924
-7.393	1.334	13824	17384	0	924
-8.150	3.895	13805	17321	0	924
-7.681	6.744	13833	17195	0	924
-2.308	11.828	13842	17115	0	924
1.262	13.884	13880	17109	0	924
3.498	12.441	13899	17144	0	924
4.147	9.124	13927	17138	0	924
3.570	5.193	13945	17092	0	924
2.921	3.390	13992	17115	0	924
2.308	4.111	14067	17286	0	924
1.947	6.347	14180	17544	0	924
1.442	6.924	14302	17789	0	924
2.524	11.251	14386	17944	0	924
7.573	13.631	14452	17984	0	924
12.694	16.444	14546	17972	0	924
19.149	18.897	14640	18024	0	924
16.733	14.208	14733	18144	0	924
13.343	11.540	14865	18252	0	924
9.124	7.753	14977	18349	0	924
6.311	7.465	15118	18504	0	924
6.203	10.133	15296	18755	0	924
7.321	12.405	15493	19035	0	924
5.590	9.629	15634	19149	0	924
0.938	7.212	15709	18972	0	924
-2.777	3.246	15794	18646	0	924
0.252	2.741	15887	18446	0	924
9.340	9.196	16009	18429	1	912
19.834	19.221	16131	18429	0	912
28.597	29.499	16272	18406	0	912
31.518	34.583	16402	18424	0	912
26.397	34.511	16543	18446	0	912
22.214	30.004	16646	18349	0	912
20.736	24.053	16731	18121	0	912
17.743	18.320	16834	17915	0	912
16.012	15.651	16909	17766	0	912
10.350	12.730	16974	17549	0	912
4.688	9.629	17021	17269	0	912
-1.262	7.862	17096	17041	0	912
-3.246	7.068	17153	16886	0	912
-0.216	7.176	17190	16692	0	912
6.852	9.592	17237	16424	0	912
14.497	13.523	17247	16184	0	912
18.680	16.769	17293	16030	0	912
20.447	17.021	17350	15984	0	912
14.605	17.743	17434	16059	0	912
9.376	13.704	17519	16167	0	912
2.705	11.251	17612	16247	0	912
-4.400	6.203	17716	16367	0	912
-9.556	1.046	17838	16549	0	912
-14.497	-3.210	17959	16726	0	912
-16.841	-8.475	18072	16846	0	912
-12.477	-7.573	18147	16898	0	912
-6.167	-4.111	18260	16892	0	912
1.515	2.993	18335	16898	0	912
7.176	8.619	18457	16938	0	912
6.996	11.684	18522	16978	0	912
2.128	7.898	18607	16949	0	912
-4.724	2.849	18663	16864	0	912
-9.232	-4.364	18757	16818	0	912
-10.458	-6.816	18841	16846	0	912
-7.429	-7.862	18926	16881	0	912
-2.741	-2.308	18991	16818	0	912
3.101	1.370	19038	16675	0	912
5.842	5.481	19085	16538	0	912
4.796	5.986	19132	16441	0	912
1.010	3.137	19160	16350	0	912
-4.147	-4.003	19198	16236	0	912
-9.376	-8.799	19226	16150	0	912
-8.907	-8.943	19273	16099	0	912
-5.445	-4.039	19310	16076	0	912
1.983	3.823	19348	16053	0	912
5.626	10.566	19395	16019	0	912
4.688	8.366	19432	15967	0	912
-1.587	2.777	19451	15904	0	912
-8.907	-3.714	19414	15756	0	912
-14.533	-7.862	19367	15476	0	912
-14.461	-8.258	19320	15139	0	912
-12.514	-5.337	19254	14882	0	912
-11.504	-4.111	19179	14687	0	912
-10.783	-4.147	19085	14447	0	912
-10.494	-2.885	19020	14184	0	912
-9.232	-2.993	18916	13979	0	912
-5.590	-1.046	18804	13830	0	912
-1.515	2.921	18710	13722	0	912
0.000	5.590	18616	13653	0	912
0.180	5.842	18541	13596	0	912
-0.902	6.960	18429	13602	0	912
-1.118	7.645	18400	13750	0	912
1.515	9.665	18372	14047	0	912
7.465	15.110	18372	14390	0	912
13.415	21.493	18363	14716	0	912
20.123	25.532	18400	15053	0	912
20.050	26.145	18419	15442	0	912
18.500	23.585	18475	15847	0	912
9.773	16.336	18513	16202	0	912
0.108	6.275	18550	16464	0	912
-10.458	-0.433	18607	16681	0	912
-15.615	-6.239	18644	16909	0	912
-15.398	-8.583	18710	17178	0	912
-14.894	-8.511	18785	17464	0	912
-12.766	-9.701	18841	17641	0	912
-16.733	-11.576	18804	17549	0	912
-20.231	-11.720	18747	17224	0	912
-24.594	-13.595	18729	16961	0	912
-23.260	-12.477	18710	16852	0	912
-19.185	-10.097	18663	16738	0	912
-17.166	-8.943	18616	16578	0	912
-13.091	-7.753	18588	16429	0	912
-9.629	-4.616	18560	16316	0	912
-7.645	0.433	18504	16213	0	912
-3.173	4.003	18466	16116	0	912
2.308	9.376	18419	16019	0	912
7.898	12.874	18372	15893	0	912
12.910	16.012	18269	15687	0	912
17.021	17.418	18185	15430	0	912
17.526	22.034	18119	15259	0	912
18.572	24.991	18025	15196	0	912
17.129	26.686	17978	15173	0	912
20.303	28.669	17884	15104	0	912
22.250	29.391	17809	15024	0	912
24.919	29.859	17791	15093	0	912
28.525	30.436	17762	15322	0	912
27.660	29.174	17753	15539	0	912
22.395	24.955	17706	15642	0	912
14.389	19.005	17659	15642	0	912
3.354	10.242	17622	15647	0	912
-5.013	2.633	17584	15733	0	912
-9.268	-4.111	17575	15882	0	912
-10.314	-8.691	17556	16013	0	912
-10.206	-10.855	17528	16099	0	912
-11.360	-10.602	17528	16179	0	912
-13.379	-10.133	17509	16287	0	912
-13.559	-7.393	17509	16418	0	912
-13.271	-2.813	17509	16549	0	912
-7.357	0.144	17490	16612	0	912
-0.793	3.859	17472	16629	0	912
5.914	5.806	17481	16669	0	912
13.235	8.078	17481	16755	0	912
17.382	10.566	17481	16846	0	912
23.945	16.697	17490	16909	0	912
28.850	21.818	17472	16915	0	912
30.256	25.496	17444	16864	0	912
28.092	25.099	17444	16795	0	912
23.260	20.627	17415	16755	0	912
18.680	17.887	17397	16698	0	912
15.002	13.018	17350	16595	0	912
14.389	11.973	17340	16498	0	912
16.012	10.566	17284	16418	0	912
12.477	9.304	17247	16333	0	912
9.484	7.321	17190	16179	0	912
4.291	6.275	17096	15967	0	912
-3.462	1.839	17012	15710	0	912
-8.763	-0.325	16871	15430	0	912
-11.323	-5.085	16768	15144	0	912
-14.497	-7.573	16665	14922	0	912
-13.595	-9.160	16543	14802	0	912
-14.389	-8.439	16459	14744	0	912
-11.179	-6.419	16375	14722	0	912
-6.816	-3.029	16281	14704	0	912
-4.075	-1.442	16197	14710	0	912
-2.056	-0.757	16141	14790	0	912
-3.859	-1.803	16084	14950	0	912
-5.337	-3.354	16047	15133	0	912
-5.229	-3.678	15991	15264	0	912
-3.282	-1.659	15934	15379	0	912
-1.334	-0.469	15906	15533	0	912
-0.577	2.092	15897	15727	0	912
-2.885	2.272	15859	15893	0	912
-5.373	2.488	15822	16002	0	912
-6.780	-1.515	15775	16076	0	912
-10.963	-6.455	15765	16179	0	912
-15.687	-14.353	15747	16344	0	912
-18.572	-18.860	15756	16538	0	912
-22.358	-20.447	15747	16692	0	912
-21.493	-15.543	15747	16795	0	912
-17.851	-12.405	15747	16904	0	912
-16.372	-10.638	15756	17052	0	912
-14.930	-11.648	15794	17206	0	912
-18.824	-16.949	15775	17281	0	912
-18.860	-20.267	15775	17269	0	912
-23.080	-22.431	15756	17218	0	912
-25.027	-22.106	15756	17161	0	912
-28.814	-22.611	15718	17132	0	912
-34.259	-23.801	15747	17144	0	912
-37.577	-20.375	15728	17189	0	912
-35.954	-19.726	15728	17161	0	912
-27.083	-12.477	15672	16984	0	912
-15.579	-6.094	15625	16721	0	912
-4.868	-0.216	15568	16498	0	912
3.065	2.344	15493	16339	0	912
4.472	4.111	15446	16190	0	912
5.698	6.131	15381	16019	0	912
6.635	12.586	15306	15876	0	912
10.602	17.057	15287	15847	0	912
14.821	22.503	15249	15899	0	912
17.959	24.414	15193	15876	0	912
21.024	23.549	15109	15722	0	912
19.870	22.178	15015	15493	0	912
18.680	19.834	14921	15293	0	912
16.552	19.834	14827	15167	0	912
16.336	18.464	14724	15047	0	912
13.920	19.437	14583	14836	0	912
11.215	15.579	14443	14567	0	912
5.193	10.206	14321	14384	0	912
0.252	0.288	14227	14367	0	912
-3.606	-5.914	14133	14476	0	912
-3.246	-7.176	14058	14596	0	912
0.397	-2.164	13983	14676	0	912
5.085	6.671	13899	14784	0	912
8.475	14.136	13870	14984	0	912
10.133	15.975	13833	15264	0	912
11.756	15.759	13842	15584	0	912
9.592	10.566	13842	15893	0	912
7.537	4.868	13842	16202	0	912
6.131	1.587	13870	16504	0	912
6.455	1.442	13917	16818	0	912
9.232	5.517	13974	17166	0	912
13.920	13.451	14021	17526	0	912
20.880	20.483	14114	17858	0	912
25.424	27.768	14180	18121	0	912
29.427	30.725	14255	18332	0	912
33.177	32.564	14349	18526	0	912
32.384	31.554	14415	18686	0	912
29.859	28.345	14527	18829	0	912
23.693	24.162	14602	18972	0	912
14.677	19.546	14715	19132	0	912
6.239	14.605	14874	19332	0	912
0.613	12.874	15043	19641	0	912
-1.479	14.208	15212	19978	0	912
1.370	18.211	15400	20178	0	912
4.796	20.303	15531	20178	0	912
7.825	20.700	15653	20046	0	912
8.475	14.569	15775	19921	0	912
8.330	8.330	15897	19835	0	912
11.648	5.554	16028	19715	0	912
15.471	7.645	16122	19521	1	836
18.139	12.514	16234	19338	0	836
19.726	20.014	16384	19264	0	836
16.012	23.585	16543	19292	0	836
12.766	25.207	16684	19321	0	836
10.314	22.827	16862	19275	0	836
8.691	17.887	17003	19166	0	836
13.379	14.641	17115	19012	0	836
13.379	10.025	17247	18829	0	836
15.038	8.330	17378	18635	0	836
12.405	7.753	17462	18418	0	836
7.465	7.970	17565	18144	0	836
2.272	11.143	17650	17864	0	836
-0.397	14.785	17744	17658	0	836
3.173	22.431	17866	17566	0	836
6.960	23.945	17997	17544	0	836
10.422	23.657	18081	17469	0	836
11.828	20.736	18166	17241	0	836
7.609	12.081	18166	16784	0	836
2.777	6.311	18128	16219	0	836
-4.147	0.541	18138	15779	0	836
-7.789	-1.515	18128	15482	0	836
-10.819	0.433	18128	15253	0	836
-11.215	4.796	18138	15099	0	836
-7.212	9.376	18166	15030	0	836
-3.210	12.297	18213	15030	0	836
4.760	15.975	18307	15184	0	836
11.900	16.841	18410	15487	0	836
16.192	18.175	18475	15722	0	836
17.202	19.654	18513	15733	0	836
19.149	20.627	18550	15602	0	836
16.444	17.634	18550	15493	0	836
15.074	17.093	18588	15464	0	836
10.206	13.307	18607	15447	0	836
6.347	8.727	18569	15339	0	836
0.829	7.429	18569	15179	0	836
-2.452	6.635	18607	15150	0	836
-3.534	7.465	18635	15304	0	836
-1.262	9.016	18682	15504	0	836
0.397	10.494	18738	15630	0	836
1.767	10.386	18738	15670	0	836
1.767	7.429	18776	15682	0	836
-2.056	2.741	18738	15613	0	836
-8.871	-2.993	18654	15310	0	836
-16.012	-7.681	18504	14790	0	836
-18.211	-9.737	18400	14350	0	836
-21.277	-8.475	18325	14190	0	836
-18.788	-6.996	18288	14253	0	836
-18.464	-6.780	18278	14459	0	836
-16.228	-6.816	18288	14716	0	836
-17.490	-7.032	18269	14922	0	836
-16.156	-7.068	18278	15087	0	836
-18.139	-7.862	18288	15270	0	836
-17.057	-10.638	18307	15442	0	836
-14.821	-10.061	18288	15550	0	836
-8.943	-6.455	18269	15624	0	836
-1.731	-0.252	18278	15744	0	836
4.183	9.160	18278	15927	0	836
7.176	14.858	18325	16133	0	836
5.049	14.317	18353	16333	0	836
3.895	12.333	18382	16469	0	836
3.318	9.701	18400	16572	0	836
5.986	9.953	18410	16629	0	836
7.357	11.684	18400	16646	0	836
11.468	13.523	18400	16629	0	836
11.576	13.487	18382	16606	0	836
8.727	10.314	18400	16601	0	836
4.868	3.498	18372	16595	0	836
0.000	-2.128	18335	16469	0	836
-6.239	-6.275	18288	16304	0	836
-8.763	-5.481	18325	16287	0	836
-10.314	-3.678	18325	16418	0	836
-10.566	-0.216	18335	16509	0	836
-8.547	1.659	18325	16486	0	836
-7.393	0.252	18307	16412	0	836
-6.780	-4.039	18307	16367	0	836
-11.360	-8.799	18288	16389	0	836
-14.605	-14.605	18316	16464	0	836
-19.365	-15.362	18278	16469	0	836
-16.444	-12.586	18269	16362	0	836
-10.350	-5.337	18260	16259	0	836
-2.560	1.767	18232	16276	0	836
2.308	2.813	18260	16367	0	836
0.036	-0.938	18241	16429	0	836
-6.203	-6.599	18260	16446	0	836
-11.576	-9.088	18260	16452	0	836
-16.264	-10.278	18278	16498	0	836
-13.631	-3.642	18307	16595	0	836
-8.475	3.065	18316	16686	0	836
-0.541	9.196	18316	16664	0	836
5.734	14.425	18222	16401	0	836
11.107	15.182	18100	15904	0	836
11.720	12.622	17959	15396	0	836
7.104	9.160	17856	15064	0	836
3.823	5.950	17772	14950	0	836
0.036	7.212	17744	15013	0	836
0.108	9.376	17716	15173	0	836
4.652	13.451	17716	15373	0	836
7.645	14.064	17716	15596	0	836
8.583	11.323	17725	15796	0	836
4.688	8.979	17716	15927	0	836
-2.777	1.010	17678	15944	0	836
-10.855	-5.121	17612	15824	0	836
-16.552	-10.278	17537	15664	0	836
-19.870	-13.054	17490	15573	0	836
-17.021	-12.622	17444	15596	0	836
-12.766	-7.717	17397	15664	0	836
-4.003	-1.118	17368	15676	0	836
3.787	4.255	17284	15619	0	836
5.662	6.563	17247	15619	0	836
3.498	3.065	17256	15767	0	836
-4.472	-4.183	17247	15990	0	836
-12.009	-9.701	17237	16173	0	836
-12.694	-13.848	17237	16242	0	836
-7.681	-9.196	17190	16224	0	836
2.633	0.577	17143	16156	0	836
12.982	9.088	17068	16076	0	836
20.555	16.084	17021	16019	0	836
19.401	19.185	16956	15933	0	836
15.362	15.435	16899	15847	0	836
6.455	11.323	16853	15836	0	836
2.092	8.871	16815	15864	0	836
2.092	10.530	16759	15876	0	836
8.006	13.163	16693	15830	0	836
14.064	15.182	16618	15750	0	836
15.038	15.471	16580	15710	0	836
12.946	13.992	16543	15784	0	836
5.445	11.684	16543	15984	0	836
-1.947	9.845	16524	16144	0	836
-9.520	7.681	16412	16019	0	836
-11.323	3.065	16244	15544	0	836
-10.169	2.524	16094	15064	0	836
-4.147	4.580	16000	14916	0	836
4.868	10.710	15944	15053	0	836
13.451	19.077	15915	15299	0	836
19.041	22.827	15906	15573	0	836
17.166	24.053	15915	15882	0	836
10.602	18.608	15944	16196	0	836
1.190	11.864	15962	16469	0	836
-7.248	6.744	15962	16681	0	836
-5.878	3.462	15944	16749	0	836
0.721	8.835	15887	16618	0	836
15.398	15.867	15803	16412	0	836
24.666	22.935	15756	16310	0	836
30.436	27.155	15709	16316	0	836
28.164	28.309	15681	16356	0	836
18.283	24.234	15625	16339	0	836
9.052	18.536	15559	16213	0	836
-0.829	13.668	15418	15916	0	836
-4.327	7.862	15259	15516	0	836
-3.498	5.157	15165	15247	0	836
-1.118	2.236	15062	15196	0	836
-0.541	3.282	14996	15242	0	836
-3.859	-0.469	14949	15339	0	836
-12.009	-4.111	14930	15550	0	836
-22.539	-11.251	14968	15887	0	836
-27.732	-13.631	15006	16310	0	836
-26.506	-12.802	15062	16726	0	836
-21.204	-8.475	15137	17115	0	836
-8.330	-1.118	15212	17498	0	836
0.829	4.904	15334	17875	0	836
6.780	5.770	15418	18184	0	836
8.366	2.560	15493	18401	0	836
6.167	2.957	15568	18538	0	836
1.118	0.144	15662	18658	0	836
-4.147	-1.154	15728	18772	0	836
-7.465	-1.010	15840	18864	0	836
-7.934	0.829	15906	18898	0	836
-3.895	4.436	15981	18864	0	836
3.318	9.917	16047	18795	0	836
5.554	13.487	16103	18704	0	836
5.734	10.927	16150	18601	0	836
-1.623	4.688	16216	18458	1	688
-11.540	-7.321	16263	18292	0	688
-22.106	-15.795	16281	18104	0	688
-26.109	-19.329	16281	17824	0	688
-24.955	-18.572	16263	17412	0	688
-17.490	-9.412	16263	17046	0	688
-4.508	2.777	16234	16829	0	688
6.094	13.091	16188	16595	0	688
12.874	17.670	16122	16202	0	688
13.451	17.598	16037	15744	0	688
12.802	11.468	15962	15367	0	688
8.330	8.366	15869	15082	0	688
4.796	6.599	15775	14813	0	688
1.118	4.868	15672	14510	0	688
-2.236	5.301	15568	14247	0	688
-3.642	5.517	15475	14122	0	688
-0.577	5.013	15437	14167	0	688
7.104	10.710	15428	14356	0	688
13.848	13.992	15400	14619	0	688
21.457	16.985	15437	14882	0	688
22.755	17.743	15475	15224	0	688
20.411	14.713	15568	15716	0	688
16.625	12.225	15681	16282	0	688
9.484	9.376	15794	16801	0	688
4.219	8.114	15934	17258	0	688
0.288	8.150	16056	17704	0	688
-0.072	9.016	16234	18189	0	688
-0.325	8.006	16430	18721	0	688
0.072	6.527	16580	19115	0	688
-0.649	0.469	16665	19121	0	688
-0.974	-3.354	16693	18824	0	688
-0.613	-7.140	16768	18624	0	688
1.551	-4.688	16881	18652	0	688
4.291	0.793	17003	18766	0	688
6.744	6.996	17134	18846	0	688
7.753	10.206	17237	18886	0	688
8.042	10.927	17368	18926	0	688
8.366	10.602	17528	18978	0	688
7.176	8.006	17659	19029	0	688
8.835	8.258	17809	19075	0	688
9.592	9.124	17950	19104	0	688
8.511	7.898	18119	19126	0	688
3.318	3.498	18260	19109	0	688
0.252	0.613	18410	19104	0	688
-6.203	-3.282	18616	19218	0	688
-5.265	-3.534	18869	19452	0	688
-3.642	0.108	19029	19572	0	688
-0.288	6.239	19170	19435	0	688
3.462	9.665	19292	19109	0	688
5.950	14.245	19395	18766	0	688
6.347	14.749	19489	18446	0	688
3.859	12.658	19526	18046	0	688
-1.226	7.573	19545	17521	0	688
-6.491	1.226	19545	16966	0	688
-12.838	-4.219	19554	16526	0	688
-16.913	-7.753	19601	16264	0	688
-20.267	-7.862	19639	16110	0	688
-19.582	-8.294	19714	15979	0	688
-16.480	-7.285	19742	15842	0	688
-9.124	-4.111	19826	15784	0	688
-3.318	-0.974	19883	15836	0	688
-1.442	1.767	19976	15922	0	688
-1.479	2.705	20061	15944	0	688
-4.724	0.865	20108	15910	0	688
-6.744	-1.803	20183	15876	0	688
-5.554	-1.587	20239	15887	0	688
-1.370	1.082	20305	15939	0	688
3.678	5.806	20380	16002	0	688
7.717	9.917	20399	15944	0	688
9.268	12.622	20370	15630	0	688
9.376	12.730	20305	15167	0	688
7.248	9.881	20277	14876	0	688
4.255	4.977	20258	14819	0	688
0.000	0.180	20277	14836	0	688
-2.813	-2.416	20295	14870	0	688
-3.967	-1.298	20295	14939	0	688
-1.190	3.390	20323	15047	0	688
5.481	7.609	20352	15184	0	688
10.494	13.343	20389	15316	0	688
13.776	13.271	20389	15356	1	316
12.405	11.323	20352	15247	0	316
7.248	8.583	20286	15042	0	316
2.344	3.065	20211	14819	0	316
-1.082	-0.072	20164	14670	0	316
0.180	0.721	20117	14624	0	316
4.436	5.734	20061	14619	0	316
11.468	10.061	20014	14573	0	316
15.435	13.595	19929	14504	0	316
14.605	12.730	19883	14499	0	316
14.930	10.314	19864	14590	0	316
12.405	10.710	19826	14779	0	316
14.894	15.038	19836	14979	0	316
16.625	19.654	19817	15156	0	316
17.057	22.827	19826	15350	0	316
16.048	23.729	19854	15584	0	316
11.720	18.464	19864	15819	0	316
9.376	16.769	19864	15979	0	316
6.527	14.569	19836	16042	0	316
6.275	12.802	19826	16082	0	316
4.291	10.458	19854	16173	0	316
2.452	7.825	19864	16339	0	316
0.974	2.633	19901	16544	0	316
0.325	1.515	19920	16726	0	316
-0.721	0.072	19967	16898	0	316
-0.288	2.705	20023	17081	0	316
0.505	6.708	20089	17298	0	316
4.111	9.809	20155	17509	0	316
5.373	10.025	20211	17635	0	316
6.852	9.917	20258	17669	0	316
8.114	8.763	20305	17698	0	316
8.042	8.727	20370	17778	0	316
7.970	9.448	20427	17841	0	316
9.953	10.530	20464	17806	0	316
9.160	13.992	20483	17698	0	316
6.960	12.189	20492	17538	0	316
3.534	13.740	20511	17355	0	316
2.957	14.064	20483	17149	0	316
6.131	11.973	20474	16938	0	316
12.369	13.704	20445	16721	0	316
16.120	15.074	20399	16486	0	316
19.834	16.769	20352	16219	0	316
17.310	19.798	20305	15973	0	316
14.677	20.664	20305	15910	0	316
7.645	17.562	20323	16019	0	316
2.669	15.146	20305	16070	0	316
-3.210	9.448	20258	15904	0	316
-8.655	4.219	20192	15596	0	316
-8.583	1.298	20098	15304	0	316
-6.816	1.911	20042	15116	0	316
-2.993	1.911	19967	15024	0	316
-0.216	2.560	19911	14973	0	316
0.216	2.705	19836	14882	0	316
-1.695	0.252	19732	14756	0	316
-4.940	-1.875	19667	14647	0	316
-8.583	-2.128	19582	14602	0	316
-9.268	-0.685	19498	14573	0	316
-6.852	2.308	19432	14533	0	316
-2.596	7.176	19338	14544	0	316
-0.252	11.035	19292	14613	0	316
3.859	11.648	19198	14647	0	316
4.183	12.982	19104	14607	0	316
2.164	10.530	19010	14567	0	316
0.072	6.635	18916	14567	0	316
-2.308	5.517	18823	14613	0	316
-3.931	2.272	18757	14716	0	316
-1.515	2.921	18701	14882	0	316
2.488	4.183	18654	15076	0	316
6.852	6.708	18607	15247	0	316
8.150	7.862	18588	15419	0	316
4.183	7.104	18541	15619	0	316
1.334	5.373	18541	15842	0	316
-3.823	2.957	18475	15996	0	316
-4.868	0.216	18400	15956	0	316
-2.344	-1.082	18307	15773	0	316
2.200	0.793	18194	15607	0	316
8.294	4.508	18081	15527	0	316
11.143	9.052	18006	15499	0	316
11.937	11.504	17931	15504	0	316
9.052	11.468	17856	15544	0	316
2.596	7.825	17791	15590	0	316
-2.200	4.796	17697	15619	0	316
-3.714	3.318	17622	15619	0	316
-2.560	5.373	17537	15607	0	316
3.282	8.330	17434	15579	0	316
9.448	11.828	17331	15499	0	316
15.290	15.687	17228	15396	0	316
19.798	16.228	17143	15402	0	316
19.654	17.490	17087	15544	0	316
19.618	16.156	17021	15699	0	316
13.956	15.254	16946	15756	0	316
9.052	13.271	16862	15693	0	316
4.075	8.078	16768	15659	0	316
1.515	6.563	16731	15784	0	316
2.019	6.094	16693	15984	0	316
3.750	5.950	16646	16133	0	316
3.426	8.402	16590	16219	0	316
3.354	5.806	16534	16247	0	316
0.685	4.111	16412	16116	0	316
-2.272	0.865	16281	15813	0	316
-3.426	-0.036	16141	15539	0	316
-4.327	1.334	16047	15413	0	316
-4.472	2.019	15934	15419	0	316
-5.770	3.931	15869	15522	0	316
-6.635	3.426	15859	15733	0	316
-5.770	5.121	15840	16013	0	316
-5.265	5.481	15822	16287	0	316
-1.947	5.193	15812	16515	0	316
-1.262	5.950	15822	16726	0	316
0.433	8.114	15822	16921	0	316
1.875	9.484	15822	17098	0	316
6.383	11.864	15840	17229	0	316
12.153	14.894	15822	17326	0	316
14.028	15.218	15840	17389	0	316
14.245	12.225	15803	17378	0	316
8.150	8.186	15803	17355	0	316
-0.938	1.479	15840	17475	0	316
-6.491	-2.705	15859	17664	0	316
-8.150	-3.065	15850	17641	0	316
-4.544	1.623	15765	17378	0	316
1.442	9.701	15709	17041	0	316
10.819	13.379	15625	16772	0	316
14.641	14.930	15578	16612	0	316
13.127	10.566	15559	16549	0	316
10.602	5.409	15512	16521	0	316
4.760	-0.469	15475	16458	0	316
-3.390	-3.750	15428	16356	0	316
-7.104	-6.419	15371	16253	0	316
-9.340	-8.150	15343	16196	0	316
-6.996	-6.383	15296	16156	0	316
-1.623	-3.318	15249	16093	0	316
6.635	1.370	15203	16042	0	316
10.855	7.140	15184	16076	0	316
15.975	10.710	15165	16156	0	316
13.054	11.648	15118	16179	0	316
11.504	11.251	15071	16099	0	316
8.691	10.602	15043	16007	0	316
4.724	7.789	15006	16013	0	316
4.688	6.275	15006	16110	0	316
5.481	6.383	14977	16230	0	316
7.429	6.383	14959	16287	0	316
9.809	7.176	14930	16287	0	316
8.547	7.248	14912	16299	0	316
6.058	5.878	14912	16350	0	316
2.092	2.957	14912	16424	0	316
-2.236	0.829	14902	16498	0	316
-2.488	-0.180	14902	16578	0	316
-1.479	1.334	14921	16698	0	316
-1.226	4.003	14968	16869	0	316
-0.865	3.931	15024	17058	0	316
-2.957	4.075	15062	17241	0	316
-5.229	1.334	15109	17424	0	316
-6.708	-1.731	15184	17561	0	316
-9.088	-5.770	15212	17612	0	316
-9.953	-7.573	15249	17641	0	316
-11.251	-8.691	15334	17755	0	316
-8.799	-6.527	15428	17955	0	316
-5.085	-2.921	15512	18144	0	316
-0.938	2.380	15587	18235	0	316
-0.361	3.967	15681	18281	0	316
-1.082	2.452	15840	18475	0	316
-2.596	-0.577	15981	18812	0	316
-3.318	-0.721	16150	19115	0	316
0.649	2.092	16309	19315	0	316
5.157	9.052	16459	19424	0	316
9.268	17.021	16618	19498	0	316
13.956	21.060	16787	19601	0	316
15.002	24.342	16956	19721	0	316
16.769	22.611	17153	19795	0	316
14.136	20.375	17293	19772	0	316
11.900	18.608	17481	19772	0	316
9.773	16.120	17697	19875	0	316
8.366	17.310	17903	20012	0	316
8.799	16.156	18119	20086	0	316
11.720	15.435	18316	20052	0	316
11.396	14.281	18504	19944	0	316
9.556	9.845	18663	19812	1	704
4.111	5.806	18851	19686	0	704
-5.409	0.216	19020	19544	0	704
-15.398	-5.842	19170	19321	0	704
-20.591	-12.802	19320	19058	0	704
-25.532	-14.461	19479	18835	0	704
-23.945	-15.615	19620	18652	0	704
-21.493	-15.507	19770	18464	0	704
-18.644	-11.684	19883	18235	0	704
-14.425	-9.809	19976	17921	0	704
-12.514	-5.698	20042	17452	0	704
-9.592	-2.092	20042	16875	0	704
-4.075	0.000	20070	16384	0	704
-0.325	0.541	20098	16024	0	704
4.652	1.082	20117	15710	0	704
8.078	1.515	20145	15396	0	704
4.724	4.003	20108	15042	0	704
0.505	6.708	20089	14659	0	704
-5.049	8.006	20061	14350	0	704
-8.186	9.088	20061	14167	0	704
-7.393	7.176	20042	14053	0	704
-2.308	7.393	20014	13956	0	704
6.888	8.691	20005	13847	0	704
15.975	13.271	20014	13824	0	704
21.457	15.290	20023	13956	0	704
19.437	17.238	20098	14242	0	704
12.946	13.127	20155	14579	0	704
0.505	6.852	20230	14870	0	704
-10.855	-1.190	20333	15184	0	704
-18.824	-6.635	20427	15544	0	704
-21.745	-12.802	20520	15859	0	704
-24.198	-14.894	20605	16093	0	704
-20.267	-18.500	20680	16264	0	704
-16.516	-17.093	20764	16401	0	704
-10.458	-14.605	20839	16555	0	704
-5.265	-9.809	20943	16749	0	704
-1.623	-4.688	21027	16926	0	704
-0.180	-2.019	21093	16961	0	704
-2.633	-1.515	21083	16778	0	704
-4.652	-4.327	21074	16481	0	704
-4.111	-4.796	21074	16304	0	704
-1.839	-3.931	21093	16270	0	704
2.705	-1.731	21102	16242	0	704
9.052	2.669	21102	16127	0	704
11.720	6.996	21036	15842	0	704
15.182	10.746	20952	15419	0	704
14.425	13.631	20849	15019	0	704
9.160	11.215	20793	14762	0	704
3.931	7.429	20746	14687	0	704
-1.370	4.147	20717	14744	0	704
-2.849	3.498	20699	14847	0	704
1.695	7.573	20708	14990	0	704
7.609	12.081	20727	15184	0	704
12.405	13.415	20746	15424	0	704
12.441	11.360	20811	15682	0	704
11.143	8.402	20849	15933	0	704
8.078	7.717	20896	16156	0	704
5.878	9.665	20943	16339	0	704
5.121	13.091	20990	16498	0	704
5.734	14.749	21008	16629	0	704
9.088	19.293	21036	16669	0	704
13.379	19.005	21036	16629	0	704
16.985	21.745	21083	16669	0	704
21.096	22.972	21130	16812	0	704
21.529	23.044	21177	16966	0	704
22.467	25.099	21233	17046	0	704
21.168	24.991	21233	17046	0	704
18.752	24.594	21271	17012	0	704
15.831	24.775	21318	16995	0	704
11.504	23.044	21327	17001	0	704
10.422	19.942	21355	16978	0	704
12.477	20.231	21365	16909	0	704
13.199	17.490	21374	16835	0	704
11.937	15.290	21402	16778	0	704
8.619	11.432	21421	16761	0	704
1.695	6.167	21430	16778	0	704
-2.957	3.895	21477	16766	0	704
-4.183	1.479	21468	16692	0	704
-2.056	2.993	21459	16555	0	704
3.714	6.744	21421	16344	0	704
9.124	8.619	21365	16070	0	704
11.107	10.927	21280	15767	0	704
9.448	11.612	21168	15373	0	704
6.203	9.124	21008	14876	0	704
0.397	5.806	20886	14482	0	704
-2.380	1.623	20802	14304	0	704
-2.272	-0.108	20717	14270	0	704
0.577	2.633	20661	14322	0	704
6.275	5.770	20577	14384	0	704
13.091	14.641	20492	14356	0	704
19.942	19.329	20389	14236	0	704
22.214	25.893	20295	14156	0	704
23.440	26.686	20192	14133	0	704
21.818	26.145	20051	14070	0	704
21.818	21.745	19920	13973	0	704
20.952	19.077	19826	13939	0	704
19.113	16.156	19723	14013	0	704
16.877	15.038	19648	14173	0	704
11.287	14.245	19582	14390	0	704
5.950	9.196	19507	14573	0	704
2.019	5.914	19451	14710	0	704
-0.216	1.515	19357	14847	0	704
-0.505	-0.252	19320	15024	0	704
0.072	-1.118	19254	15202	0	704
0.397	-0.793	19198	15333	0	704
0.974	-0.180	19123	15424	0	704
2.633	0.505	19066	15550	0	704
4.075	3.931	19029	15750	0	704
7.898	8.330	18991	15984	0	704
8.907	11.828	18973	16162	0	704
9.232	13.776	18926	16253	0	704
7.573	12.441	18823	16173	0	704
5.409	7.248	18644	15853	0	704
4.544	5.193	18475	15390	0	704
5.950	3.714	18278	14996	0	704
9.376	7.898	18091	14693	0	704
11.396	13.848	17866	14373	0	704
14.064	18.860	17678	14082	0	704
12.694	22.647	17537	14042	0	704
11.756	20.231	17434	14242	0	704
10.746	17.670	17368	14527	0	704
9.412	9.629	17293	14836	0	704
8.222	6.419	17275	15202	0	704
8.150	2.092	17256	15607	0	704
5.986	0.325	17247	16030	0	704
2.200	-0.433	17275	16441	0	704
-1.046	0.793	17303	16818	0	704
-4.364	0.180	17293	17115	0	704
-2.344	1.298	17284	17286	0	704
0.793	2.849	17275	17355	0	704
4.472	2.056	17247	17435	0	704
6.455	1.911	17247	17538	0	704
5.842	4.400	17256	17652	0	704
4.255	7.357	17256	17778	0	704
6.599	11.468	17284	17892	0	704
9.665	15.362	17293	17955	0	704
10.963	15.543	17303	17995	0	704
11.900	13.920	17331	18052	0	704
11.071	10.855	17331	18058	0	704
9.376	7.934	17340	17961	0	704
9.845	10.927	17284	17761	0	704
10.999	12.874	17200	17424	0	704
12.658	15.759	17115	17006	0	704
10.025	19.473	17021	16675	0	704
5.121	17.454	16965	16469	0	704
2.056	17.779	16909	16333	0	704
-0.685	15.290	16853	16253	0	704
-0.649	13.127	16834	16253	0	704
-2.416	8.078	16815	16270	0	704
-7.068	2.777	16768	16270	0	704
-15.615	-2.524	16759	16276	0	704
-21.421	-7.789	16740	16316	0	704
-26.397	-10.927	16731	16384	0	704
-28.201	-12.153	16740	16469	0	704
-26.578	-13.920	16731	16526	0	704
-22.575	-14.064	16721	16532	0	704
-17.057	-9.953	16693	16526	0	704
-8.943	-6.058	16712	16549	0	704
-1.875	0.829	16684	16561	0	704
3.246	8.006	16665	16515	0	704
7.068	15.002	16627	16446	0	704
9.448	15.903	16590	16395	0	704
5.986	16.120	16580	16373	0	704
-0.397	10.710	16580	16389	0	704
-7.789	0.757	16618	16544	0	704
-15.326	-8.186	16627	16709	0	704
-15.218	-12.153	16590	16681	0	704
-12.045	-10.206	16524	16446	0	704
-2.416	1.118	16449	16156	0	704
5.157	12.550	16384	15910	0	704
10.422	21.637	16319	15739	0	704
10.314	19.906	16234	15590	0	704
6.708	11.792	16141	15442	0	704
0.757	1.154	16056	15310	0	704
-6.563	-10.025	15991	15224	0	704
-12.081	-14.497	15944	15190	0	704
-16.805	-15.615	15859	15202	0	704
-15.182	-12.586	15812	15224	0	704
-11.143	-6.924	15728	15219	0	704
-5.337	-2.128	15672	15184	0	704
-1.947	1.839	15531	15042	0	704
-3.895	2.524	15371	14716	0	704
-4.400	0.757	15203	14350	0	704
-5.229	-0.685	15062	14122	0	704
0.902	-0.541	14921	14064	0	704
5.409	1.298	14818	14116	0	704
9.088	6.094	14733	14276	0	704
12.009	9.773	14677	14487	0	704
10.350	12.369	14583	14664	0	704
9.268	12.802	14527	14836	0	704
11.396	13.920	14499	15082	0	704
9.160	9.701	14480	15430	0	704
7.789	8.042	14508	15859	0	704
5.554	5.157	14536	16322	0	704
2.488	1.226	14583	16744	0	704
1.911	-0.649	14649	17115	0	704
4.003	1.118	14687	17441	0	704
8.330	5.193	14743	17732	0	704
10.819	9.701	14809	18001	0	704
11.828	13.884	14902	18252	0	704
8.294	13.992	14968	18515	0	704
0.865	9.160	15052	18721	0	704
-6.491	3.137	15146	18904	0	704
-10.314	-0.469	15334	19264	0	704
-8.439	-2.236	15531	19812	0	704
-2.921	-1.731	15709	20246	0	704
3.750	-0.469	15869	20401	0	704
6.960	2.164	16000	20389	0	704
10.169	5.121	16150	20395	0	704
10.746	9.124	16319	20469	0	704
9.484	11.973	16496	20566	0	704
10.278	11.323	16674	20646	0	704
9.160	10.458	16862	20669	0	704
10.350	8.835	17012	20618	0	704
14.966	10.169	17200	20526	0	704
21.024	14.208	17368	20458	1	860
23.801	20.231	17556	20378	0	860
25.568	22.358	17706	20224	0	860
26.578	24.125	17856	20001	0	860
26.181	24.630	18006	19772	0	860
23.549	20.447	18128	19538	0	860
22.070	18.211	18269	19269	0	860
18.031	12.369	18372	18966	0	860
12.045	7.970	18504	18686	0	860
6.131	5.157	18635	18481	0	860
2.560	2.236	18757	18349	0	860
-1.262	2.272	18916	18241	0	860
-6.744	0.433	19010	18029	0	860
-10.710	-3.462	19057	17606	0	860
-16.552	-9.881	19085	17075	0	860
-21.781	-13.054	19132	16658	0	860
-22.863	-16.661	19198	16424	0	860
-22.214	-15.579	19254	16253	0	860
-18.392	-14.894	19320	16093	0	860
-14.894	-13.559	19395	15990	0	860
-9.845	-11.143	19460	15944	0	860
-5.481	-9.340	19582	15956	0	860
-1.983	-7.068	19667	16007	0	860
-0.974	-3.210	19761	16030	0	860
-1.479	-2.885	19789	15922	0	860
-2.272	-1.731	19817	15670	0	860
-3.895	-0.974	19779	15362	0	860
-4.219	-1.659	19789	15122	0	860
-4.111	-2.164	19808	14996	0	860
-4.003	-2.741	19836	14962	0	860
-3.065	-2.488	19854	14962	0	860
-1.082	-1.082	19883	14973	0	860
2.092	1.731	19929	15036	0	860
6.419	3.606	19995	15207	0	860
10.097	9.448	20070	15430	0	860
9.304	10.097	20117	15590	0	860
4.075	7.248	20164	15636	0	860
-4.219	2.164	20230	15659	0	860
-12.514	-5.770	20258	15739	0	860
-15.687	-10.350	20333	15887	0	860
-16.841	-9.845	20389	16053	0	860
-13.668	-7.609	20464	16196	0	860
-8.006	-5.914	20539	16327	0	860
-4.364	-3.498	20614	16469	0	860
-1.334	-1.803	20708	16618	0	860
-0.721	0.361	20764	16715	0	860
-0.938	2.200	20811	16715	0	860
-0.541	1.803	20858	16664	0	860
0.541	0.541	20896	16612	0	860
1.370	-1.226	20933	16578	0	860
0.721	-3.354	20980	16544	0	860
-0.865	-2.092	20990	16469	0	860
-2.488	-0.649	21027	16379	0	860
-3.354	1.334	21036	16310	0	860
-1.190	5.265	21074	16287	0	860
1.262	6.888	21083	16282	0	860
6.527	6.167	21102	16224	0	860
9.773	7.032	21102	16127	0	860
12.153	4.508	21121	16036	0	860
9.052	0.974	21102	15984	0	860
6.383	-1.010	21130	15950	0	860
3.498	-2.560	21121	15887	0	860
1.370	-3.354	21121	15796	0	860
-1.406	-2.236	21074	15676	0	860
-2.777	-1.515	21008	15453	0	860
-5.806	-1.262	20914	15127	0	860
-5.986	-0.974	20839	14836	0	860
-4.832	0.757	20764	14664	0	860
-3.714	0.649	20680	14573	0	860
-4.436	-3.282	20586	14436	0	860
-6.131	-8.006	20492	14247	0	860
-11.468	-14.245	20427	14202	0	860
-18.067	-15.038	20389	14327	0	860
-19.293	-14.713	20352	14499	0	860
-17.959	-10.206	20305	14642	0	860
-10.494	-2.596	20277	14762	0	860
2.380	5.842	20239	14887	0	860
12.946	15.182	20211	15059	0	860
18.824	22.250	20202	15207	0	860
16.625	24.775	20145	15299	0	860
9.809	22.863	20108	15373	0	860
-1.406	14.245	20089	15482	0	860
-6.744	5.878	20061	15624	0	860
-8.042	-2.813	20089	15819	0	860
-3.390	-8.006	20061	16019	0	860
0.577	-6.094	20042	16150	0	860
3.426	-3.534	20023	16219	0	860
1.659	0.288	20023	16264	0	860
-3.210	0.649	19958	16259	0	860
-6.852	-1.046	19911	16190	0	860
-8.475	-1.479	19864	16110	0	860
-5.229	-0.361	19808	16053	0	860
3.606	3.859	19770	16030	0	860
11.179	7.970	19714	16036	0	860
17.057	14.785	19686	16042	0	860
19.762	15.903	19629	16024	0	860
15.651	17.202	19582	15990	0	860
13.740	12.658	19507	15950	0	860
7.825	6.780	19479	15910	0	860
2.308	2.993	19404	15853	0	860
1.515	2.056	19338	15784	0	860
1.190	4.580	19254	15722	0	860
4.580	10.133	19198	15653	0	860
9.845	13.307	19076	15499	0	860
11.504	15.507	18973	15310	0	860
9.881	13.379	18916	15264	0	860
7.789	8.943	18869	15367	0	860
2.993	3.534	18785	15442	0	860
-1.442	0.721	18701	15430	0	860
-3.967	-1.551	18635	15390	0	860
-4.868	-1.551	18569	15367	0	860
-4.219	1.046	18475	15390	0	860
-0.613	4.904	18429	15453	0	860
1.875	9.845	18335	15482	0	860
4.327	14.028	18269	15447	0	860
3.606	16.661	18175	15442	0	860
1.947	14.858	18138	15527	0	860
-1.406	9.124	18081	15642	0	860
-3.282	9.340	18025	15722	0	860
-3.967	12.045	17941	15744	0	860
-2.741	14.677	17894	15762	0	860
-3.137	19.005	17809	15767	0	860
-0.974	17.454	17697	15653	0	860
0.180	14.353	17556	15407	0	860
3.426	10.314	17415	15162	0	860
7.573	9.520	17228	14876	0	860
10.350	9.448	17050	14562	0	860
8.547	8.078	16928	14442	0	860
6.671	5.229	16824	14556	0	860
3.931	4.255	16731	14744	0	860
3.137	4.183	16684	14944	0	860
3.065	4.724	16618	15167	0	860
3.714	5.842	16552	15373	0	860
-0.072	3.714	16505	15556	0	860
-3.390	-0.902	16459	15767	0	860
-4.796	-5.373	16440	16019	0	860
-2.741	-4.364	16402	16253	0	860
-0.829	-2.380	16356	16333	0	860
3.859	0.938	16291	16339	0	860
3.642	0.829	16281	16475	0	860
0.325	-1.406	16244	16669	0	860
-3.390	-4.436	16188	16692	0	860
-5.986	-6.924	16094	16561	0	860
-8.402	-7.681	16028	16418	0	860
-5.734	-3.967	15953	16373	0	860
-0.216	-0.685	15915	16441	0	860
6.708	4.436	15897	16578	0	860
10.819	9.232	15840	16652	0	860
14.966	9.773	15794	16629	0	860
13.127	8.366	15775	16669	0	860
10.206	6.924	15775	16846	0	860
7.609	6.816	15803	17058	0	860
5.626	5.914	15794	17218	0	860
3.462	6.094	15803	17292	0	860
1.983	4.760	15775	17326	0	860
0.613	4.544	15803	17372	0	860
-1.334	5.409	15803	17441	0	860
-0.505	6.563	15803	17469	0	860
-0.144	6.996	15775	17372	0	860
1.298	5.301	15718	17184	0	860
1.118	2.092	15700	17001	0	860
1.082	-1.623	15662	16915	0	860
0.180	-4.327	15662	16926	0	860
-3.642	-6.708	15653	16944	0	860
-6.780	-8.691	15634	16949	0	860
-9.088	-8.006	15634	16949	0	860
-11.035	-7.681	15606	16886	0	860
-10.458	-5.337	15578	16749	0	860
-7.970	-1.587	15578	16664	0	860
-1.587	2.669	15559	16669	0	860
6.167	6.852	15540	16669	0	860
14.425	12.694	15521	16635	0	860
21.132	18.572	15521	16595	0	860
20.519	20.447	15493	16544	0	860
16.841	19.510	15446	16464	0	860
10.278	18.283	15437	16379	0	860
5.986	13.848	15390	16270	0	860
0.757	11.648	15343	16150	0	860
-2.128	10.927	15287	16019	0	860
-5.409	6.671	15231	15910	0	860
-8.294	3.282	15165	15784	0	860
-7.934	2.272	15062	15556	0	860
-4.147	3.426	14959	15287	0	860
2.272	7.970	14902	15167	0	860
8.511	11.251	14855	15202	0	860
10.242	11.215	14780	15242	0	860
7.140	8.042	14696	15202	0	860
2.849	5.049	14621	15104	0	860
-2.056	2.164	14546	15024	0	860
-3.065	0.361	14452	15007	0	860
-3.426	-0.469	14396	15047	0	860
-1.767	-2.128	14321	15110	0	860
2.236	-0.721	14255	15144	0	860
5.914	4.219	14199	15150	0	860
12.045	10.025	14124	15202	0	860
13.523	11.684	14105	15362	0	860
11.323	11.864	14086	15596	0	860
10.314	8.727	14039	15784	0	860
7.789	6.383	14030	15893	0	860
6.419	7.465	13983	15973	0	860
8.258	9.196	13974	16093	0	860
12.117	12.441	13964	16259	0	860
15.579	15.074	13936	16406	0	860
19.762	15.687	13945	16532	0	860
20.555	16.949	13936	16641	0	860
17.779	12.730	13917	16709	0	860
9.412	6.996	13899	16749	0	860
0.541	1.082	13899	16824	0	860
-7.321	-2.885	13899	16932	0	860
-11.107	-4.724	13889	16995	0	860
-11.684	-4.904	13899	17035	0	860
-9.124	-2.596	13899	17075	0	860
-6.563	-4.436	13917	17132	0	860
-7.248	-4.977	13936	17235	0	860
-10.927	-9.484	13974	17349	0	860
-15.362	-13.054	13974	17384	0	860
-14.894	-14.930	13974	17344	0	860
-12.982	-14.533	14021	17355	0	860
-6.563	-7.429	14058	17452	0	860
1.046	0.036	14114	17572	0	860
3.570	4.977	14124	17635	0	860
0.433	6.960	14171	17629	0	860
-5.085	2.705	14246	17698	0	860
-8.943	-2.669	14321	17892	0	860
-7.429	-2.921	14452	18166	0	860
-2.957	-0.361	14574	18446	0	860
6.960	6.635	14724	18709	0	860
13.776	12.874	14884	19001	0	860
15.687	16.913	15071	19338	0	860
15.002	17.490	15278	19652	0	860
10.855	12.838	15475	19898	0	860
5.409	8.619	15653	20069	0	860
3.210	3.967	15869	20172	0	860
1.983	1.731	16047	20264	0	860
4.544	1.983	16263	20361	0	860
6.419	2.705	16440	20406	0	860
5.662	1.659	16580	20258	0	860
2.488	-1.767	16665	19846	0	860
-0.793	-3.065	16712	19281	0	860
-4.616	-5.626	16806	18818	1	956
-6.383	-6.671	16871	18509	0	956
-6.635	-7.753	16946	18218	0	956
-6.275	-9.016	17040	17932	0	956
-7.068	-10.278	17106	17698	0	956
-7.393	-8.439	17200	17509	0	956
-5.878	-5.698	17275	17326	0	956
-5.662	-1.118	17378	17184	0	956
-4.724	1.911	17472	17098	0	956
-6.744	2.813	17565	16978	0	956
-10.314	-0.180	17575	16709	0	956
-13.740	-4.724	17603	16367	0	956
-13.379	-5.698	17622	16070	0	956
-7.357	-2.777	17631	15853	0	956
2.056	3.642	17631	15573	0	956
10.746	10.566	17584	15196	0	956
14.353	16.084	17528	14796	0	956
14.281	16.228	17481	14476	0	956
10.674	17.238	17481	14322	0	956
8.619	16.084	17472	14344	0	956
6.275	15.398	17490	14459	0	956
2.885	12.369	17519	14579	0	956
-1.262	8.042	17556	14704	0	956
-0.974	4.255	17575	14847	0	956
1.623	4.147	17622	15013	0	956
7.212	8.547	17669	15224	0	956
13.451	13.487	17725	15430	0	956
14.677	18.464	17772	15607	0	956
8.475	16.228	17838	15784	0	956
-1.082	11.864	17894	15939	0	956
-10.494	4.544	17931	16019	0	956
-14.858	-1.334	17959	16047	0	956
-14.533	-5.085	17978	16082	0	956
-7.609	-5.914	18035	16167	0	956
4.039	-3.426	18081	16304	0	956
10.963	-0.938	18147	16469	0	956
15.723	8.114	18175	16572	0	956
18.933	16.084	18166	16446	0	956
16.552	23.440	18138	16162	0	956
11.360	26.938	18100	15967	0	956
2.416	25.063	18128	15956	0	956
-7.537	12.946	18138	15990	0	956
-15.182	0.577	18128	16019	0	956
-19.365	-8.763	18175	16076	0	956
-13.235	-14.208	18213	16179	0	956
-6.383	-11.792	18241	16316	0	956
2.200	-5.986	18288	16446	0	956
4.472	-2.633	18325	16509	0	956
4.508	2.236	18353	16492	0	956
0.974	4.724	18363	16464	0	956
-2.128	10.963	18410	16504	0	956
-5.590	15.110	18475	16675	0	956
-8.258	13.920	18588	16955	0	956
-10.674	11.396	18616	17149	0	956
-10.891	4.291	18654	17109	0	956
-6.491	-1.082	18654	16904	0	956
-1.515	-3.065	18644	16721	0	956
3.426	-4.111	18663	16641	0	956
7.032	-2.741	18691	16641	0	956
7.429	-2.092	18701	16595	0	956
5.806	0.793	18663	16424	0	956
1.767	3.390	18654	16247	0	956
-4.724	3.390	18654	16144	0	956
-12.730	2.633	18644	16087	0	956
-18.211	-0.325	18635	16013	0	956
-22.539	-6.635	18607	15910	0	956
-24.522	-12.297	18588	15813	0	956
-24.342	-21.601	18560	15727	0	956
-24.125	-33.285	18513	15619	0	956
-22.358	-49.189	18457	15470	0	956
-19.473	-67.328	18382	15259	0	956
-21.565	-78.904	18241	14916	0	956
-30.220	-79.625	18119	14527	0	956
-36.459	-66.246	18044	14339	0	956
-44.392	-50.054	17950	14367	0	956
-43.347	-38.154	17903	14430	0	956
-36.026	-39.019	17819	14459	0	956
-26.866	-48.287	17772	14522	0	956
-23.873	-59.719	17744	14676	0	956
-26.974	-66.246	17716	14887	0	956
-32.889	-69.095	17678	15064	0	956
-37.901	-68.446	17650	15184	0	956
-38.009	-66.498	17603	15276	0	956
-34.511	-64.010	17556	15322	0	956
-32.276	-60.440	17509	15339	0	956
-33.538	-59.178	17434	15362	0	956
-38.009	-57.735	17387	15424	0	956
-41.147	-57.627	17340	15504	0	956
-39.235	-58.673	17275	15504	0	956
-34.295	-56.762	17200	15476	0	956
-28.705	-57.086	17200	15642	0	956
-27.948	-58.348	17247	16024	0	956
-32.528	-57.988	17256	16401	0	956
-38.983	-59.142	17275	16606	0	956
-41.976	-56.653	17256	16646	0	956
-42.625	-49.080	17228	16629	0	956
-37.505	-43.996	17200	16618	0	956
-37.829	-39.235	17162	16595	0	956
-37.360	-38.695	17115	16544	0	956
-38.190	-39.127	17087	16469	0	956
-37.721	-36.783	17021	16395	0	956
-34.259	-33.682	16993	16333	0	956
-31.518	-31.230	16928	16276	0	956
-29.931	-30.220	16881	16230	0	956
-28.886	-30.941	16824	16173	0	956
-28.128	-31.879	16759	16087	0	956
-27.912	-31.410	16721	16024	0	956
-28.345	-25.820	16684	16042	0	956
-27.479	-20.375	16665	16116	0	956
-24.378	-16.516	16599	16133	0	956
-21.277	-11.287	16571	16093	0	956
-19.329	-8.943	16524	16070	0	956
-19.221	-8.799	16496	16104	0	956
-25.424	-10.458	16459	16162	0	956
-31.518	-11.396	16430	16190	0	956
-35.124	-17.021	16402	16207	0	956
-35.882	-21.277	16384	16253	0	956
-36.314	-23.368	16366	16322	0	956
-34.728	-21.565	16356	16389	0	956
-34.367	-21.096	16328	16429	0	956
-33.574	-17.274	16309	16429	0	956
-31.915	-17.526	16263	16367	0	956
-29.571	-14.461	16178	16173	0	956
-27.732	-12.405	16037	15842	0	956
-28.309	-8.655	15869	15390	0	956
-29.535	-5.049	15681	14876	0	956
-32.095	-5.698	15475	14419	0	956
-33.285	-9.088	15296	14064	0	956
-33.502	-12.477	15109	13790	0	956
-33.646	-14.136	14959	13659	0	956
-32.456	-14.966	14837	13722	0	956
-33.357	-10.891	14771	13927	0	956
-36.062	-12.081	14668	14162	0	956
-38.298	-12.766	14602	14362	0	956
-39.416	-15.903	14574	14647	0	956
-37.108	-18.536	14546	15082	0	956
-32.528	-16.444	14574	15567	0	956
-27.155	-13.631	14602	16019	0	956
-21.421	-10.169	14593	16379	0	956
-18.320	-5.265	14621	16646	0	956
-12.622	-1.803	14640	16904	0	956
-9.881	1.623	14640	17149	0	956
-5.878	4.183	14677	17366	0	956
-5.770	4.796	14715	17549	0	956
-7.573	2.056	14724	17704	0	956
-9.592	-2.200	14771	17875	0	956
-14.208	-8.114	14827	18086	0	956
-18.644	-11.107	14865	18258	0	956
-24.198	-14.966	14912	18332	0	956
-26.109	-12.874	14959	18338	0	956
-24.378	-10.206	14977	18338	0	956
-21.241	-4.904	15015	18315	0	956
-15.435	-1.839	15024	18235	0	956
-16.408	-0.469	15024	18098	0	956
-16.444	-2.452	15043	17949	0	956
-17.887	-3.498	15043	17818	0	956
-14.208	-3.318	15043	17681	0	956
-10.314	-0.721	15062	17572	0	956
-6.780	2.272	15109	17566	0	956
-5.373	3.498	15156	17641	0	956
-5.013	2.416	15184	17624	0	956
-5.193	0.541	15146	17395	0	956
-3.462	-0.649	15109	17029	0	956
-3.210	0.613	15052	16669	0	956
-1.442	3.246	14996	16367	0	956
0.180	8.186	14921	16070	0	956
1.839	13.307	14809	15710	0	956
2.849	15.795	14696	15344	0	956
2.777	14.317	14640	15144	0	956
2.957	14.569	14593	15122	0	956
5.698	13.487	14546	15144	0	956
10.458	14.172	14499	15133	0	956
12.586	15.975	14452	15087	0	956
14.389	15.651	14386	15030	0	956
13.848	16.336	14339	15019	0	956
13.379	17.418	14302	15076	0	956
14.749	22.647	14246	15156	0	956
14.172	25.856	14218	15219	0	956
13.343	27.335	14171	15299	0	956
11.720	26.253	14180	15447	0	956
8.330	22.178	14199	15682	0	956
5.590	16.985	14199	15950	0	956
5.085	14.966	14227	16173	0	956
6.780	13.668	14255	16373	0	956
9.881	14.894	14274	16578	0	956
14.713	18.680	14311	16761	0	956
18.608	19.906	14321	16892	0	956
18.211	20.375	14386	17024	0	956
18.356	21.493	14415	17201	0	956
16.697	20.916	14499	17429	0	956
16.625	22.106	14593	17726	0	956
13.848	18.824	14724	18081	0	956
12.946	16.228	14855	18424	0	956
11.900	10.494	15006	18721	0	956
8.619	8.186	15156	18989	0	956
4.544	6.347	15306	19246	0	956
5.878	5.157	15475	19492	0	956
6.455	5.445	15653	19721	0	956
10.278	5.121	15850	19909	0	956
16.012	7.825	16000	20029	0	956
23.188	12.009	16131	19989	0	956
27.804	14.064	16234	19784	0	956
31.590	17.057	16338	19549	0	956
34.547	18.572	16449	19372	0	956
31.085	16.516	16552	19206	1	816
25.063	15.579	16618	18938	0	816
19.582	10.169	16684	18561	0	816
12.982	5.914	16759	18252	0	816
8.979	-0.108	16824	18081	0	816
7.645	-4.977	16928	17955	0	816
7.321	-7.681	17012	17806	0	816
9.232	-9.304	17096	17618	0	816
12.514	-7.501	17153	17401	0	816
16.012	-2.488	17209	17206	0	816
18.572	2.092	17275	17046	0	816
22.070	6.527	17340	16915	0	816
23.332	9.340	17415	16801	0	816
20.952	8.258	17490	16709	0	816
17.202	5.373	17556	16635	0	816
10.097	2.200	17631	16601	0	816
2.921	1.190	17697	16561	0	816
0.865	3.210	17716	16395	0	816
2.633	8.691	17678	16007	0	816
8.835	14.245	17631	15493	0	816
13.668	16.480	17612	15144	0	816
13.595	14.713	17603	15036	0	816
11.323	12.189	17612	15019	0	816
5.337	9.340	17622	15030	0	816
0.938	6.131	17650	15082	0	816
-2.669	5.301	17659	15110	0	816
-5.445	2.705	17650	15053	0	816
-7.898	0.252	17659	14996	0	816
-10.891	-3.787	17669	15030	0	816
-13.018	-4.977	17669	15104	0	816
-10.963	-4.219	17650	15087	0	816
-3.931	1.262	17631	14996	0	816
6.131	10.386	17603	14944	0	816
17.093	18.464	17575	14962	0	816
19.329	20.267	17537	14962	0	816
15.903	14.894	17509	14876	0	816
8.402	4.904	17444	14767	0	816
1.659	-5.265	17397	14739	0	816
3.787	-9.304	17415	14847	0	816
7.393	-8.294	17397	15042	0	816
12.802	-4.508	17415	15236	0	816
16.372	0.793	17415	15390	0	816
18.572	3.173	17444	15579	0	816
15.038	2.416	17472	15813	0	816
15.507	6.635	17490	16036	0	816
13.054	8.907	17537	16224	0	816
14.605	11.792	17565	16373	0	816
14.317	14.389	17603	16509	0	816
12.369	14.461	17659	16698	0	816
12.730	11.540	17725	16955	0	816
10.025	12.405	17809	17218	0	816
8.655	13.415	17884	17424	0	816
7.717	11.900	17950	17538	0	816
2.019	12.333	18006	17584	0	816
-3.137	11.360	18053	17652	0	816
-6.239	10.891	18138	17732	0	816
-4.904	14.461	18185	17749	0	816
-1.803	15.867	18222	17704	0	816
-0.469	15.435	18278	17635	0	816
-4.327	12.622	18288	17481	0	816
-10.169	8.006	18278	17264	0	816
-13.595	4.003	18316	17121	0	816
-14.641	4.147	18335	17086	0	816
-13.199	5.878	18372	17058	0	816
-10.314	8.727	18382	16978	0	816
-10.350	10.602	18419	16881	0	816
-10.458	13.559	18419	16772	0	816
-5.590	18.897	18429	16646	0	816
-0.757	21.601	18410	16492	0	816
4.616	24.017	18410	16339	0	816
7.393	23.440	18400	16219	0	816
4.832	16.769	18382	16127	0	816
0.000	14.064	18353	15962	0	816
-6.203	11.756	18232	15556	0	816
-9.773	9.773	18035	14882	0	816
-11.323	8.547	17856	14184	0	816
-12.766	6.996	17678	13710	0	816
-11.684	6.708	17537	13487	0	816
-8.799	6.780	17472	13476	0	816
-6.708	9.989	17368	13562	0	816
-3.714	13.812	17284	13642	0	816
-0.180	15.398	17209	13733	0	816
1.551	18.752	17143	13882	0	816
3.931	16.769	17096	14087	0	816
5.734	16.444	17050	14293	0	816
3.246	13.776	16993	14453	0	816
3.029	15.867	16928	14619	0	816
2.596	17.706	16918	14847	0	816
5.481	23.080	16881	15139	0	816
11.684	26.722	16899	15447	0	816
15.687	29.859	16899	15704	0	816
19.293	31.338	16862	15910	0	816
17.526	30.184	16862	16093	0	816
16.048	27.227	16862	16322	0	816
10.458	22.178	16909	16595	0	816
6.599	18.392	16928	16846	0	816
5.445	12.982	16928	17024	0	816
5.049	12.622	16956	17144	0	816
5.914	11.432	16946	17195	0	816
3.462	11.720	16965	17206	0	816
0.036	12.622	16956	17195	0	816
-2.344	13.343	16881	17081	0	816
-1.190	16.552	16815	16818	0	816
3.318	17.995	16731	16526	0	816
9.520	22.683	16646	16299	0	816
13.343	23.693	16590	16127	0	816
17.815	26.253	16505	16013	0	816
19.041	28.489	16449	15922	0	816
20.844	28.669	16384	15836	0	816
23.008	27.227	16319	15750	0	816
20.736	23.296	16244	15670	0	816
20.231	20.339	16178	15607	0	816
16.985	17.021	16141	15579	0	816
16.300	19.978	16047	15550	0	816
13.559	19.365	15962	15493	0	816
13.091	20.411	15869	15390	0	816
10.206	14.136	15747	15156	0	816
8.619	9.520	15587	14824	0	816
4.652	3.967	15446	14602	0	816
4.760	2.092	15343	14550	0	816
4.544	3.967	15249	14596	0	816
4.472	5.301	15184	14722	0	816
2.777	6.058	15118	14899	0	816
3.823	7.140	15062	15093	0	816
6.780	7.501	15024	15282	0	816
10.710	10.530	14996	15504	0	816
18.572	14.245	15006	15802	0	816
22.863	19.978	15043	16196	0	816
24.306	21.349	15090	16618	0	816
28.128	22.358	15137	16995	0	816
28.922	24.378	15165	17292	0	816
33.141	24.486	15203	17509	0	816
33.718	24.991	15212	17629	0	816
32.816	26.073	15231	17664	0	816
29.499	21.926	15231	17618	0	816
25.207	17.238	15193	17504	0	816
22.575	12.261	15156	17366	0	816
18.716	12.441	15118	17218	0	816
18.536	11.864	15090	17081	0	816
16.336	15.687	15024	16926	0	816
16.444	17.202	14930	16675	0	816
12.189	15.543	14809	16264	0	816
11.179	16.480	14640	15739	0	816
10.133	13.631	14461	15230	0	816
10.638	13.920	14311	14813	0	816
11.432	12.081	14114	14464	0	816
16.120	12.874	13889	14042	0	816
16.480	13.054	13655	13533	0	816
19.978	13.451	13420	13099	0	816
19.834	15.398	13242	12910	0	816
21.421	14.208	13092	13007	0	816
14.713	9.917	13026	13322	0	816
12.658	5.950	12942	13722	0	816
9.376	4.904	12904	14099	0	816
8.691	5.481	12867	14499	0	816
12.910	10.963	12848	14962	0	816
12.477	15.615	12839	15396	0	816
12.658	16.913	12820	15739	0	816
10.097	14.749	12801	16030	0	816
5.914	12.802	12810	16344	0	816
4.688	11.179	12848	16715	0	816
4.652	12.514	12885	17132	0	816
8.402	15.651	12942	17544	0	816
14.172	17.670	12998	17881	0	816
19.365	21.349	13073	18161	0	816
24.342	23.837	13129	18406	0	816
22.863	21.349	13223	18664	0	816
14.641	15.975	13289	18921	0	816
2.092	4.147	13373	19075	0	816
-8.835	-7.825	13430	19115	0	816
-17.093	-13.595	13495	19104	0	816
-14.677	-16.336	13551	19086	0	816
-9.052	-10.386	13598	19024	0	816
-1.731	-3.462	13636	18898	0	816
2.452	0.288	13655	18721	1	696
2.308	3.426	13664	18504	0	696
1.298	3.823	13683	18269	0	696
0.325	2.560	13692	18046	0	696
0.072	2.236	13711	17892	0	696
2.669	3.101	13711	17732	0	696
5.698	5.229	13664	17406	0	696
9.737	6.563	13589	16904	0	696
13.595	10.061	13476	16373	0	696
14.785	13.956	13401	15916	0	696
17.021	15.398	13279	15562	0	696
17.057	17.670	13186	15247	0	696
17.490	15.867	13073	14893	0	696
16.552	15.218	12932	14504	0	696
17.274	14.353	12792	14196	0	696
16.805	14.749	12698	14042	0	696
16.264	16.408	12613	14042	0	696
17.706	13.343	12538	14104	0	696
17.129	11.251	12445	14133	0	696
17.959	8.402	12398	14230	0	696
18.356	8.727	12369	14459	0	696
23.657	12.550	12332	14699	0	696
27.191	19.185	12285	14842	0	696
30.364	19.546	12229	14910	0	696
28.164	20.123	12201	15059	0	696
23.260	16.985	12210	15350	0	696
18.788	12.441	12257	15784	0	696
16.913	12.550	12323	16276	0	696
21.818	14.749	12398	16709	0	696
25.279	13.704	12491	17115	0	696
24.125	15.254	12576	17521	0	696
19.942	11.107	12717	17961	0	696
9.881	7.104	12857	18412	0	696
3.859	2.200	12989	18806	0	696
0.938	1.947	13139	19144	0	696
4.940	6.094	13326	19492	0	696
13.668	13.920	13505	19869	0	696
21.709	20.014	13711	20224	0	696
27.660	25.640	13917	20492	0	696
27.191	25.352	14058	20549	0	696
21.096	22.286	14114	20252	0	696
16.480	20.591	14171	19772	0	696
10.783	15.903	14274	19475	0	696
10.963	14.136	14405	19475	0	696
12.910	11.432	14574	19584	0	696
13.812	11.612	14715	19538	0	696
17.454	12.550	14790	19315	0	696
13.956	11.504	14884	19024	0	696
14.353	14.785	14977	18795	0	696
13.812	16.372	15109	18686	0	696
20.123	22.791	15249	18669	0	696
25.279	27.587	15381	18606	0	696
30.869	29.174	15465	18406	0	696
27.660	25.099	15568	18201	0	696
20.050	17.238	15700	18115	0	696
11.360	10.133	15859	18126	0	696
6.527	6.527	15962	18121	0	696
7.537	6.455	16103	18052	0	696
10.025	9.052	16244	17978	0	696
10.458	10.206	16384	17955	0	696
8.871	10.350	16524	17949	0	696
5.554	7.645	16646	17881	0	696
1.695	5.626	16740	17721	0	696
-2.849	0.649	16853	17538	0	696
-4.977	-3.823	16956	17418	0	696
-9.701	-9.160	17096	17389	0	696
-11.215	-13.884	17228	17435	0	696
-11.864	-16.120	17368	17441	0	696
-11.828	-17.815	17472	17372	0	696
-12.261	-17.238	17575	17246	0	696
-12.261	-15.975	17659	17081	0	696
-13.920	-13.487	17744	16886	0	696
-11.107	-7.645	17800	16675	0	696
-6.131	-2.596	17866	16486	0	696
-2.308	2.308	17931	16356	0	696
2.308	4.868	17997	16259	0	696
4.652	5.337	18053	16162	0	696
6.203	7.321	18091	16036	0	696
5.445	6.960	18166	15899	0	696
6.491	7.681	18185	15739	1	316
5.121	6.094	18147	15482	0	316
1.442	3.498	18147	15150	0	316
2.308	3.570	18119	14882	0	316
3.787	4.327	18081	14704	0	316
8.943	9.160	18072	14550	0	316
13.848	12.477	17997	14327	0	316
17.238	16.048	17941	14082	0	316
17.851	15.831	17903	13996	0	316
14.533	14.425	17894	14064	0	316
13.127	13.487	17884	14162	0	316
9.448	11.396	17884	14242	0	316
7.501	12.117	17847	14299	0	316
6.203	9.773	17838	14362	0	316
5.554	6.383	17838	14493	0	316
5.409	4.075	17847	14687	0	316
6.852	3.354	17847	14870	0	316
7.970	5.806	17838	14984	0	316
8.943	8.294	17847	15104	0	316
10.097	10.638	17866	15327	0	316
11.360	12.874	17931	15630	0	316
14.425	16.012	17978	15933	0	316
19.365	20.159	18025	16162	0	316
22.106	26.866	18072	16322	0	316
24.702	30.941	18100	16475	0	316
25.856	30.292	18185	16681	0	316
21.998	28.561	18241	16892	0	316
19.257	24.089	18278	17035	0	316
16.120	20.303	18335	17115	0	316
12.081	15.543	18382	17201	0	316
12.261	15.290	18457	17309	0	316
16.877	17.490	18504	17401	0	316
22.503	24.270	18550	17418	0	316
27.263	31.554	18597	17355	0	316
28.525	35.918	18588	17241	0	316
25.316	34.115	18597	17109	0	316
17.490	27.191	18616	16961	0	316
13.812	18.536	18588	16795	0	316
9.340	11.468	18569	16606	0	316
6.996	9.629	18541	16367	0	316
7.212	6.635	18447	16007	0	316
5.914	6.960	18363	15630	0	316
5.734	5.229	18316	15464	0	316
5.698	5.013	18307	15464	0	316
7.717	6.094	18241	15396	0	316
9.629	10.025	18175	15202	0	316
13.091	14.172	18091	14996	0	316
14.785	19.401	18035	14870	0	316
17.346	19.546	17959	14847	0	316
19.041	20.808	17950	14933	0	316
23.008	19.690	17931	15070	0	316
26.722	22.647	17903	15202	0	316
28.958	24.342	17903	15333	0	316
28.525	24.306	17894	15504	0	316
25.965	23.368	17903	15676	0	316
20.375	20.447	17866	15779	0	316
18.211	16.048	17856	15790	0	316
13.271	15.074	17809	15767	0	316
10.855	15.254	17762	15750	0	316
9.376	13.956	17697	15670	0	316
7.104	13.884	17603	15482	0	316
5.229	10.891	17481	15224	0	316
1.046	8.078	17331	14853	0	316
-2.488	3.282	17143	14436	0	316
-4.616	-0.649	17040	14224	0	316
-5.229	-3.246	16918	14259	0	316
-4.724	-2.560	16834	14356	0	316
-2.200	-0.829	16777	14476	0	316
-2.560	1.659	16693	14624	0	316
-4.364	1.587	16627	14739	0	316
-5.950	-1.010	16505	14722	0	316
-7.645	-4.868	16384	14619	0	316
-7.645	-7.104	16291	14590	0	316
-5.626	-6.527	16188	14664	0	316
-1.623	-2.056	16103	14744	0	316
2.885	2.452	16000	14807	0	316
4.039	5.301	15915	14904	0	316
4.904	6.203	15850	15053	0	316
2.200	2.344	15775	15219	0	316
-1.298	2.633	15728	15379	0	316
-2.452	2.164	15662	15533	0	316
-2.128	4.796	15625	15710	0	316
1.515	8.222	15587	15944	0	316
5.301	9.448	15587	16230	0	316
8.727	10.927	15568	16475	0	316
10.025	11.937	15568	16646	0	316
7.681	10.927	15578	16858	0	316
3.967	7.537	15587	17155	0	316
-0.252	3.426	15625	17418	0	316
-3.714	-0.288	15625	17555	0	316
-3.859	-0.613	15625	17584	0	316
-2.416	1.046	15634	17612	0	316
-0.288	1.442	15634	17698	0	316
-0.252	1.370	15672	17801	0	316
0.216	-0.938	15672	17864	0	316
0.180	-2.921	15700	17858	0	316
1.731	-2.272	15681	17818	0	316
3.678	-0.974	15709	17789	0	316
7.501	2.416	15747	17835	0	316
8.150	7.357	15794	17938	0	316
11.432	10.963	15812	17978	0	316
9.989	11.540	15850	17926	0	316
7.753	11.107	15859	17846	0	316
4.977	8.691	15869	17772	0	316
3.498	5.986	15869	17612	0	316
5.193	6.635	15840	17384	0	316
10.025	6.563	15840	17189	0	316
11.973	7.104	15812	17046	0	316
10.855	5.265	15803	16915	0	316
7.609	4.003	15794	16784	0	316
4.183	4.183	15756	16624	0	316
4.327	4.904	15728	16446	0	316
4.832	5.806	15681	16287	0	316
3.967	4.544	15653	16133	0	316
2.669	1.082	15587	15944	0	316
2.128	-0.180	15512	15727	0	316
2.885	-0.938	15437	15533	0	316
6.239	2.885	15371	15356	0	316
7.789	5.517	15249	15104	0	316
9.412	4.904	15118	14802	0	316
9.268	5.085	15024	14579	0	316
10.061	5.373	14949	14493	0	316
11.143	8.042	14837	14470	0	316
10.602	9.809	14724	14407	0	316
10.891	12.081	14621	14264	0	316
11.215	12.838	14480	14104	0	316
11.900	13.091	14274	13864	0	316
14.605	15.398	14114	13556	0	316
15.182	14.353	13945	13373	0	316
14.389	13.920	13805	13356	0	316
13.992	11.684	13664	13436	0	316
13.451	10.819	13598	13642	0	316
15.579	14.208	13523	13956	0	316
14.064	15.831	13458	14287	0	316
10.891	14.641	13401	14544	0	316
3.282	9.809	13326	14779	0	316
-4.436	2.777	13279	15053	0	316
-9.124	-1.875	13270	15402	0	316
-9.773	-4.003	13279	15802	0	316
-9.376	-4.652	13261	16162	0	316
-7.862	-4.003	13270	16469	0	316
-6.167	-5.517	13289	16755	0	316
-3.462	-3.137	13270	16984	0	316
1.190	0.685	13270	17138	0	316
2.344	4.904	13270	17235	0	316
1.298	6.383	13214	17224	0	316
-1.370	5.590	13148	17086	0	316
-3.823	4.472	13082	16955	0	316
-0.216	6.708	13045	16886	0	316
5.301	10.314	12989	16864	0	316
12.730	15.795	12960	16864	0	316
17.815	18.356	12914	16869	0	316
18.608	19.401	12904	16864	0	316
18.031	18.536	12867	16852	0	316
12.658	16.877	12810	16841	0	316
9.124	12.694	12801	16818	0	316
4.003	10.927	12773	16824	0	316
2.416	10.674	12717	16795	0	316
3.967	11.756	12679	16692	0	316
6.960	16.949	12604	16526	0	316
9.845	17.310	12491	16253	0	316
9.881	15.723	12379	15916	0	316
5.085	11.612	12294	15710	0	316
2.164	7.753	12229	15676	0	316
1.298	5.626	12182	15744	0	316
4.075	8.186	12182	15916	0	316
7.717	10.602	12201	16173	0	316
13.848	10.927	12229	16475	0	316
13.271	11.432	12276	16795	0	316
14.785	11.071	12341	17121	0	316
17.166	10.494	12398	17395	0	316
17.057	14.641	12482	17664	0	316
19.365	17.129	12585	17995	0	316
18.500	16.300	12698	18344	0	316
17.887	15.579	12848	18675	0	316
17.490	13.199	12998	19029	0	316
16.913	14.533	13176	19435	0	316
18.103	15.146	13383	19875	0	316
18.536	20.123	13608	20286	0	316
18.716	20.772	13852	20646	0	316
16.516	22.214	14067	20926	0	316
17.382	20.844	14321	21161	0	316
17.779	21.709	14546	21349	0	316
22.935	23.549	14780	21458	0	316
25.640	24.883	14996	21469	0	316
26.181	24.739	15193	21389	0	316
