neuroNicle FX2
D3F25R12
Bluetooth SPP
2023년 6월 8일 목요일
오후 2:27
time interval = 4msec
EEG1	EEG2	PPG	sdPPG	pulse	peak_interval(msec)
15.795	-14.497	16459	16493	0	1328
18.680	-12.117	16491	16482	0	1328
21.132	-7.753	16491	16474	0	1328
26.037	-4.291	16491	16471	0	1328
29.282	-3.318	16513	16460	0	1328
29.823	-3.823	16513	16445	0	1328
29.607	-6.491	16513	16438	0	1328
25.388	-9.953	16513	16431	0	1328
17.743	-18.716	16545	16424	0	1328
10.963	-26.073	16545	16409	0	1328
5.373	-31.915	16513	16394	0	1328
2.056	-31.951	16513	16384	0	1328
6.852	-24.125	16513	16374	0	1328
13.956	-14.317	16513	16363	0	1328
20.411	-7.862	16513	16355	0	1328
19.690	-9.376	16513	16344	0	1328
14.605	-17.526	16513	16337	0	1328
6.275	-27.335	16513	16326	0	1328
3.462	-28.020	16513	16319	0	1328
6.960	-22.611	16491	16312	0	1328
15.831	-10.314	16513	16304	0	1328
20.555	-4.868	16513	16304	0	1328
23.404	-3.282	16566	16381	0	1328
21.998	-8.078	16760	16682	0	1328
20.844	-11.396	16975	17144	0	1328
21.818	-11.179	17136	17479	0	1328
19.762	-11.720	17244	17599	0	1328
19.185	-10.710	17373	17613	0	1328
15.723	-12.261	17427	17573	0	1328
16.012	-14.064	17459	17482	0	1328
15.398	-14.028	17534	17359	0	1328
19.113	-12.730	17534	17206	0	1328
20.555	-12.766	17480	17035	1	2272
23.873	-12.658	17480	16846	0	2272
22.863	-10.674	17480	16653	0	2272
23.585	-8.907	17405	16456	0	2272
23.296	-6.419	17373	16268	0	2272
19.798	-4.580	17319	16086	0	2272
19.077	-3.282	17211	15922	0	2272
21.493	-3.642	17190	15788	0	2272
22.719	-3.642	17136	15671	0	2272
26.938	-1.406	17050	15573	0	2272
32.131	1.479	16975	15493	0	2272
33.141	4.760	16943	15438	0	2272
32.456	7.717	16867	15395	0	2272
31.807	7.501	16814	15362	0	2272
27.407	5.554	16760	15340	0	2272
22.034	0.793	16674	15333	0	2272
18.247	-4.724	16620	15336	0	2272
14.064	-9.268	16566	15362	0	2272
12.658	-9.412	16513	15398	0	2272
16.552	-7.465	16491	15446	0	2272
17.454	-3.498	16437	15493	0	2272
20.736	-1.695	16384	15544	0	2272
18.320	-1.298	16363	15606	0	2272
17.057	-3.606	16309	15664	0	2272
12.766	-5.049	16277	15719	0	2272
9.629	-5.373	16223	15773	0	2272
4.904	-7.176	16202	15828	0	2272
4.219	-8.835	16148	15886	0	2272
5.301	-9.665	16116	15944	0	2272
9.448	-6.744	16062	16002	0	2272
19.546	-1.370	16062	16061	0	2272
22.719	1.623	16040	16108	0	2272
22.755	0.144	15987	16144	0	2272
20.664	-2.777	15954	16184	0	2272
15.543	-7.825	15987	16232	0	2272
12.009	-10.927	15933	16286	0	2272
8.799	-12.225	15901	16344	0	2272
7.429	-12.838	15879	16394	0	2272
5.626	-12.982	15901	16453	0	2272
3.570	-14.641	15879	16507	0	2272
7.825	-12.550	15901	16555	0	2272
10.133	-12.261	15901	16602	0	2272
12.982	-9.881	15901	16646	0	2272
17.418	-4.364	15879	16686	0	2272
17.454	0.721	15933	16726	0	2272
20.195	3.931	15933	16769	0	2272
21.024	3.642	15933	16813	0	2272
24.991	0.433	16008	16846	0	2272
23.512	-0.577	15987	16867	0	2272
23.873	0.469	15987	16882	0	2272
21.890	2.236	16008	16897	0	2272
20.483	3.678	16062	16908	0	2272
20.880	4.400	16062	16915	0	2272
22.935	3.246	16094	16918	0	2272
19.726	0.829	16094	16915	0	2272
18.428	-2.056	16116	16908	0	2272
13.812	-5.265	16169	16886	0	2272
12.658	-6.455	16169	16857	0	2272
14.713	-4.400	16169	16827	0	2272
20.303	0.433	16202	16802	0	2272
26.758	2.056	16202	16784	0	2272
30.869	0.829	16223	16762	0	2272
31.410	-0.288	16223	16736	0	2272
32.420	-2.524	16277	16707	0	2272
31.915	-0.902	16277	16682	0	2272
33.105	-0.288	16309	16649	0	2272
33.574	-1.262	16309	16613	0	2272
28.994	-6.419	16309	16576	0	2272
20.952	-13.559	16309	16544	0	2272
14.353	-16.949	16331	16522	0	2272
10.819	-8.439	16331	16504	0	2272
17.057	6.203	16331	16489	0	2272
29.138	28.633	16363	16460	0	2272
36.747	43.383	16363	16431	0	2272
33.790	44.969	16363	16402	0	2272
24.089	38.947	16363	16381	0	2272
11.215	31.626	16331	16348	0	2272
6.527	32.276	16331	16312	0	2272
12.189	39.091	16331	16275	0	2272
17.634	44.861	16309	16239	0	2272
22.972	45.510	16309	16217	0	2272
19.365	39.632	16309	16206	0	2272
15.435	31.085	16309	16203	0	2272
10.025	24.306	16277	16206	0	2272
7.898	18.572	16277	16206	0	2272
5.806	17.418	16277	16206	0	2272
3.318	14.389	16309	16210	0	2272
3.750	15.182	16331	16217	0	2272
4.508	11.612	16277	16213	0	2272
6.131	6.347	16277	16210	0	2272
6.599	3.859	16277	16206	0	2272
9.484	2.272	16255	16195	0	2272
8.114	1.947	16223	16192	0	2272
6.167	0.469	16223	16192	0	2272
4.291	-1.046	16202	16192	0	2272
3.606	-6.131	16202	16188	0	2272
2.777	-6.311	16169	16188	0	2272
7.140	-5.626	16202	16192	0	2272
9.737	-2.452	16169	16203	0	2272
9.737	-1.010	16169	16221	0	2272
9.989	1.587	16169	16235	0	2272
10.855	4.544	16148	16257	0	2272
12.405	5.734	16148	16279	0	2272
15.759	10.530	16148	16304	0	2272
18.788	12.514	16202	16330	0	2272
17.490	15.038	16169	16352	0	2272
17.310	16.841	16169	16370	0	2272
15.218	14.136	16148	16381	0	2272
16.300	14.749	16148	16387	0	2272
17.743	15.507	16148	16405	0	2272
24.702	17.923	16148	16424	0	2272
28.525	23.404	16202	16442	0	2272
32.636	27.587	16202	16460	0	2272
32.203	29.607	16202	16471	0	2272
27.407	26.902	16202	16471	0	2272
22.719	20.844	16202	16467	0	2272
20.050	14.858	16202	16471	0	2272
17.418	9.917	16202	16485	0	2272
21.241	11.937	16202	16500	0	2272
23.945	17.346	16255	16507	0	2272
29.066	21.926	16223	16507	0	2272
34.115	25.099	16255	16515	0	2272
35.557	27.840	16255	16515	0	2272
37.000	25.604	16255	16511	0	2272
37.865	24.739	16255	16504	0	2272
39.704	24.378	16255	16500	0	2272
42.012	22.863	16255	16493	0	2272
45.727	25.027	16255	16493	0	2272
49.008	28.056	16277	16489	0	2272
50.270	30.472	16277	16489	0	2272
52.001	32.312	16309	16493	0	2272
54.093	33.646	16331	16507	0	2272
53.805	32.312	16363	16525	0	2272
56.221	31.446	16363	16540	0	2272
57.447	30.400	16384	16544	0	2272
58.709	30.941	16384	16544	0	2272
58.889	33.538	16405	16540	0	2272
55.103	36.062	16405	16533	0	2272
53.119	35.413	16405	16518	0	2272
49.802	33.862	16437	16500	0	2272
51.965	28.381	16437	16478	0	2272
52.218	26.361	16437	16460	0	2272
54.814	26.109	16437	16438	0	2272
51.929	26.578	16405	16420	0	2272
50.090	24.955	16405	16402	0	2272
44.140	21.818	16405	16384	0	2272
38.622	16.048	16405	16370	0	2272
40.858	16.120	16405	16355	0	2272
45.294	18.933	16405	16348	0	2272
56.113	28.561	16405	16337	0	2272
65.994	32.600	16405	16330	0	2272
66.859	29.282	16405	16323	0	2272
54.526	17.129	16405	16315	0	2272
41.183	1.695	16405	16301	0	2272
29.679	-6.996	16405	16283	0	2272
25.856	-8.402	16405	16264	0	2272
27.047	-5.229	16384	16257	0	2272
28.056	-2.885	16459	16330	0	2272
28.309	-2.993	16620	16624	0	2272
27.443	-6.744	16835	17075	0	2272
28.128	-7.753	16975	17406	0	2272
28.814	-8.042	17136	17533	0	2272
27.515	-9.268	17244	17559	0	2272
24.125	-9.052	17297	17530	0	2272
23.945	-10.169	17351	17453	0	2272
22.214	-12.297	17373	17337	0	2272
23.368	-14.353	17373	17184	0	2272
24.739	-12.910	17373	17009	1	668
22.935	-10.746	17373	16827	0	668
22.899	-7.898	17351	16653	0	668
22.214	-4.255	17297	16485	0	668
17.418	-7.032	17265	16330	0	668
13.163	-13.451	17244	16177	0	668
6.671	-18.392	17158	16028	0	668
4.544	-20.988	17136	15890	0	668
3.029	-17.743	17050	15766	0	668
7.501	-13.054	16996	15657	0	668
9.592	-8.294	16921	15566	0	668
11.396	-5.517	16835	15500	0	668
13.884	-5.914	16814	15449	0	668
16.480	-7.898	16760	15413	0	668
18.572	-6.635	16706	15395	0	668
21.745	-7.248	16652	15387	0	668
20.411	-5.265	16599	15398	0	668
20.195	-2.849	16545	15413	0	668
21.962	-0.325	16459	15431	0	668
21.926	0.974	16405	15457	0	668
25.712	1.226	16384	15497	0	668
25.965	2.308	16331	15544	0	668
24.270	0.108	16277	15598	0	668
20.159	-1.587	16255	15660	0	668
17.454	-5.806	16255	15733	0	668
13.451	-11.432	16223	15813	0	668
11.360	-12.514	16202	15901	0	668
14.028	-10.819	16169	15984	0	668
16.372	-6.275	16169	16079	0	668
19.473	-3.318	16169	16166	0	668
17.129	-4.219	16148	16243	0	668
14.136	-8.186	16148	16308	0	668
9.737	-11.720	16169	16363	0	668
8.619	-11.071	16148	16409	0	668
8.727	-10.566	16148	16456	0	668
11.612	-9.845	16116	16493	0	668
8.691	-11.071	16116	16522	0	668
5.734	-15.579	16094	16536	0	668
4.796	-14.785	16116	16551	0	668
14.353	-12.802	16094	16573	0	668
29.210	-1.803	16094	16595	0	668
47.097	9.448	16094	16609	0	668
60.801	18.608	16062	16616	0	668
62.495	18.103	16116	16624	0	668
58.853	11.071	16094	16635	0	668
56.365	6.311	16094	16642	0	668
56.653	2.777	16094	16646	0	668
59.394	6.960	16062	16642	0	668
63.325	10.746	16094	16638	0	668
62.495	12.946	16094	16638	0	668
60.692	12.153	16094	16646	0	668
58.348	11.432	16094	16656	0	668
51.785	12.081	16094	16656	0	668
47.638	8.799	16148	16656	0	668
41.399	4.508	16148	16656	0	668
36.314	-0.072	16148	16656	0	668
35.737	-3.137	16148	16649	0	668
36.278	-2.993	16148	16642	0	668
38.622	-0.865	16148	16635	0	668
38.334	2.019	16169	16631	0	668
39.776	2.560	16202	16627	0	668
37.000	3.534	16202	16620	0	668
34.944	5.085	16202	16613	0	668
33.033	6.239	16223	16602	0	668
32.492	9.124	16223	16591	0	668
31.771	7.429	16223	16580	0	668
28.273	3.642	16223	16573	0	668
24.089	-1.983	16255	16562	0	668
18.752	-7.321	16255	16551	0	668
10.710	-8.475	16277	16544	0	668
9.412	-5.842	16331	16533	0	668
9.124	-2.092	16309	16525	0	668
10.927	2.056	16309	16515	0	668
11.251	4.400	16331	16496	0	668
13.018	4.472	16331	16474	0	668
11.792	2.849	16331	16456	0	668
8.583	-0.072	16331	16438	0	668
7.573	-3.823	16331	16416	0	668
3.895	-6.780	16331	16391	0	668
3.534	-6.203	16331	16370	0	668
6.960	-1.334	16309	16348	0	668
10.061	5.986	16309	16337	0	668
15.615	13.415	16309	16326	0	668
14.605	16.408	16309	16308	0	668
12.838	12.441	16277	16275	0	668
10.530	7.501	16277	16250	0	668
11.468	2.200	16255	16228	0	668
19.762	7.212	16255	16213	0	668
27.876	16.589	16277	16210	0	668
33.141	23.981	16255	16213	0	668
31.771	23.873	16255	16221	0	668
27.191	16.192	16255	16228	0	668
22.034	5.301	16255	16239	0	668
20.050	2.308	16223	16250	0	668
22.683	3.714	16223	16257	0	668
22.250	7.970	16223	16250	0	668
18.608	5.517	16202	16250	0	668
13.163	0.757	16202	16261	0	668
10.638	-3.714	16223	16279	0	668
8.258	-3.750	16255	16301	0	668
11.973	1.334	16223	16319	0	668
17.670	6.455	16223	16337	0	668
20.916	8.943	16223	16352	0	668
24.811	9.268	16223	16363	0	668
27.515	11.396	16223	16370	0	668
26.794	10.133	16223	16381	0	668
24.991	8.763	16223	16394	0	668
22.575	6.852	16223	16413	0	668
17.887	5.698	16255	16427	0	668
18.536	4.868	16255	16442	0	668
18.752	7.681	16255	16453	0	668
23.152	11.287	16277	16464	0	668
27.912	16.120	16277	16474	0	668
27.912	18.392	16277	16482	0	668
27.732	23.945	16277	16489	0	668
23.837	23.476	16277	16496	0	668
23.729	22.575	16309	16500	0	668
26.253	24.811	16309	16493	0	668
33.141	27.119	16309	16485	0	668
40.281	31.410	16309	16474	0	668
44.428	34.944	16309	16471	0	668
46.412	33.105	16309	16478	0	668
43.599	30.653	16363	16482	0	668
41.219	27.876	16363	16482	0	668
37.252	27.515	16363	16478	0	668
33.934	25.604	16363	16471	0	668
32.816	26.938	16384	16460	0	668
32.131	27.227	16384	16445	0	668
32.853	26.145	16384	16431	0	668
33.357	24.162	16363	16413	0	668
31.013	22.142	16363	16391	0	668
27.876	19.473	16363	16374	0	668
23.549	16.733	16363	16363	0	668
19.726	17.670	16384	16355	0	668
21.709	16.805	16363	16344	0	668
22.358	19.041	16331	16326	0	668
25.929	18.536	16331	16301	0	668
27.515	19.942	16331	16283	0	668
27.984	17.562	16309	16283	0	668
25.929	15.687	16309	16294	0	668
23.693	14.208	16309	16304	0	668
23.116	17.238	16309	16308	0	668
18.716	19.293	16309	16312	0	668
20.159	21.313	16309	16319	0	668
18.320	21.024	16309	16334	0	668
20.159	22.322	16309	16348	0	668
24.306	24.270	16331	16370	0	668
25.929	25.424	16331	16391	0	668
28.128	25.352	16331	16405	0	668
28.092	24.594	16331	16416	0	668
27.407	21.421	16331	16424	0	668
25.388	20.916	16363	16431	0	668
24.991	22.322	16363	16434	0	668
24.486	20.736	16363	16427	0	668
24.666	20.664	16363	16416	0	668
25.893	19.798	16363	16398	0	668
26.830	18.897	16331	16387	0	668
27.083	17.598	16331	16381	0	668
22.575	17.238	16363	16374	0	668
22.322	15.110	16363	16370	0	668
24.306	19.257	16363	16366	0	668
27.227	21.637	16363	16359	0	668
35.737	27.515	16363	16348	0	668
42.625	34.728	16331	16344	0	668
49.333	38.478	16331	16344	0	668
51.461	37.505	16331	16341	0	668
49.982	35.124	16331	16341	0	668
48.648	31.807	16331	16344	0	668
43.563	30.220	16331	16352	0	668
41.363	32.420	16331	16359	0	668
43.058	34.692	16331	16370	0	668
40.714	33.357	16331	16374	0	668
37.649	30.869	16331	16374	0	668
36.387	26.758	16331	16377	0	668
36.387	28.345	16331	16384	0	668
39.019	30.112	16331	16391	0	668
40.137	29.138	16331	16402	0	668
37.613	27.227	16331	16409	0	668
30.184	19.185	16331	16409	0	668
25.893	16.372	16331	16402	0	668
28.633	17.706	16331	16398	0	668
38.190	24.414	16331	16394	0	668
47.241	30.545	16331	16398	0	668
51.857	33.033	16331	16405	0	668
49.693	29.859	16331	16413	0	668
44.320	27.047	16331	16416	0	668
38.767	24.162	16331	16409	0	668
34.764	25.099	16331	16391	0	668
33.790	25.207	16331	16377	0	668
34.439	29.499	16363	16366	0	668
38.839	34.151	16331	16359	0	668
42.373	36.964	16331	16355	0	668
45.474	37.901	16363	16352	0	668
41.183	33.321	16331	16352	0	668
37.036	25.784	16331	16359	0	668
34.043	23.801	16331	16366	0	668
35.701	23.837	16331	16377	0	668
40.606	30.148	16331	16384	0	668
45.438	32.312	16331	16394	0	668
45.222	30.112	16363	16409	0	668
39.163	25.748	16363	16424	0	668
29.535	18.320	16363	16438	0	668
23.765	17.310	16363	16453	0	668
22.322	16.480	16384	16464	0	668
26.217	20.123	16384	16482	0	668
34.187	22.719	16405	16489	0	668
40.353	27.047	16405	16485	0	668
42.734	30.076	16405	16474	0	668
42.481	31.951	16405	16467	0	668
37.973	29.066	16437	16467	0	668
32.239	23.080	16437	16467	0	668
29.427	15.290	16437	16460	0	668
28.345	10.386	16437	16442	0	668
31.194	16.480	16437	16424	0	668
38.803	22.647	16437	16413	0	668
43.635	29.391	16405	16409	0	668
46.340	31.446	16437	16405	0	668
46.159	28.777	16437	16402	0	668
44.248	25.099	16437	16394	0	668
43.166	23.873	16459	16387	0	668
45.330	25.532	16437	16384	0	668
50.054	29.354	16491	16449	0	668
50.631	30.076	16674	16736	0	668
50.415	32.384	16889	17188	0	668
48.107	32.961	17082	17530	0	668
45.150	30.400	17211	17672	0	668
45.727	28.958	17297	17704	0	668
44.825	26.830	17405	17672	0	668
41.652	24.847	17480	17584	0	668
36.603	21.529	17480	17453	0	668
30.905	20.952	17588	17373	0	668
30.256	22.142	17728	17493	1	924
36.855	28.201	17964	17759	0	924
47.025	34.223	18072	17905	0	924
53.408	38.082	18211	17839	0	924
55.572	37.108	18233	17668	0	924
53.155	33.429	18287	17450	0	924
49.441	29.030	18319	17188	0	924
47.999	28.525	18233	16897	0	924
52.578	30.581	18211	16602	0	924
53.624	33.862	18125	16315	0	924
55.391	36.387	18072	16028	0	924
51.857	37.108	17943	15751	0	924
50.667	36.423	17857	15493	0	924
50.018	36.855	17728	15267	0	924
55.463	39.091	17642	15074	0	924
62.712	43.599	17480	14911	0	924
67.977	44.140	17405	14772	0	924
66.174	42.301	17297	14671	0	924
60.728	35.197	17136	14598	0	924
57.807	32.312	17082	14558	0	924
59.250	34.944	16943	14540	0	924
65.056	40.714	16921	14620	0	924
71.186	47.962	16996	14940	0	924
71.367	50.090	17104	15449	0	924
68.121	48.035	17190	15864	0	924
65.885	48.359	17265	16086	0	924
68.842	49.585	17297	16210	0	924
76.127	56.149	17297	16275	0	924
82.979	60.296	17297	16297	0	924
83.159	61.774	17297	16286	0	924
82.546	60.043	17211	16250	0	924
81.176	58.889	17158	16192	0	924
86.008	60.801	17104	16122	0	924
99.531	70.213	17029	16046	0	924
114.894	79.625	16943	15973	0	924
126.253	86.044	16921	15911	0	924
138.226	94.446	16814	15864	0	924
146.845	98.558	16760	15817	0	924
160.801	106.167	16674	15777	0	924
174.288	117.057	16599	15740	0	924
188.244	126.542	16566	15784	0	924
201.515	137.613	16674	16057	0	924
211.323	146.556	16814	16500	0	924
221.565	154.526	16889	16846	0	924
231.410	161.197	16975	16998	0	924
241.976	163.577	17029	17053	0	924
245.907	165.741	17050	17060	0	924
249.477	169.852	358	4019	0	63
-34.692	-10.783	17319	16733	0	336
-33.321	-11.576	17244	16533	0	336
-35.521	-13.776	17244	16348	0	336
-36.459	-21.168	17190	16181	0	336
-37.829	-20.700	17136	16028	0	336
-40.209	-21.637	17050	15890	0	336
-40.209	-19.041	17029	15766	0	336
-41.471	-20.123	16975	15657	0	336
-41.471	-20.772	16921	15562	0	336
-40.606	-23.116	16835	15475	0	336
-39.704	-25.748	16760	15402	0	336
-36.387	-24.089	16706	15347	0	336
-36.026	-23.152	16620	15318	0	336
-34.331	-25.316	16566	15307	0	336
-35.557	-30.725	16513	15307	0	336
-36.747	-33.970	16459	15315	0	336
-36.891	-37.288	16405	15333	0	336
-38.045	-39.199	16363	15366	0	336
-37.937	-34.872	16309	15409	0	336
-38.082	-32.420	16277	15460	0	336
-39.163	-30.581	16223	15515	0	336
-39.019	-26.433	16169	15577	0	336
-37.360	-22.899	16202	15642	0	336
-35.593	-18.933	16148	15715	0	336
-35.737	-16.372	16094	15791	0	336
-39.632	-19.978	16062	15871	0	336
-47.205	-25.532	16040	15951	0	336
-61.125	-36.675	16062	16035	0	336
-69.672	-43.671	16040	16119	0	336
-71.980	-45.979	16008	16199	0	336
-69.311	-40.426	16008	16279	0	336
-57.952	-31.049	16040	16355	0	336
-52.723	-26.794	16008	16416	0	336
-49.513	-23.152	16008	16478	0	336
-52.074	-25.171	16008	16529	0	336
-49.693	-23.152	16008	16573	0	336
-45.366	-16.084	16040	16613	0	336
-36.242	-10.602	16008	16649	0	336
-30.112	-4.400	16008	16675	0	336
-27.443	-1.298	16008	16696	0	336
-28.814	0.072	16062	16718	0	336
-26.938	3.678	16040	16729	0	336
-23.188	5.770	16040	16733	0	336
-19.582	8.294	16040	16736	0	336
-14.208	7.753	16062	16740	0	336
-15.651	7.898	16062	16736	0	336
-18.356	7.321	16062	16729	0	336
-24.125	5.337	16062	16718	0	336
-28.201	3.823	16062	16711	0	336
-31.158	3.137	16116	16700	0	336
-31.374	4.075	16094	16686	0	336
-31.194	2.669	16094	16667	0	336
-30.977	4.147	16094	16646	0	336
-30.112	3.137	16062	16627	0	336
-29.391	2.885	16094	16609	0	336
-28.056	2.669	16094	16591	0	336
-25.532	2.993	16094	16573	0	336
-21.601	4.075	16094	16551	0	336
-17.634	7.537	16094	16536	0	336
-12.550	10.638	16148	16522	0	336
-10.242	14.317	16116	16507	0	336
-13.595	12.369	16094	16489	0	336
-18.031	5.914	16094	16474	0	336
-20.772	3.318	16094	16464	0	336
-16.120	1.659	16094	16460	0	336
-13.343	4.291	16116	16456	0	336
-10.314	8.511	16116	16456	0	336
-13.776	7.862	16116	16456	0	336
-23.801	5.085	16148	16464	0	336
-29.463	-1.370	16148	16467	0	336
-31.518	-4.472	16148	16464	0	336
-28.633	-3.101	16202	16456	0	336
-23.224	1.875	16169	16453	0	336
-13.523	8.763	16169	16449	0	336
-1.767	15.254	16169	16445	0	336
8.042	17.418	16169	16438	0	336
10.999	13.992	16169	16427	0	336
6.635	8.691	16169	16413	0	336
-7.104	-1.659	16202	16391	0	336
-19.978	-7.825	16202	16381	0	336
-24.486	-6.744	16202	16370	0	336
-18.788	-0.829	16202	16363	0	336
-6.996	8.186	16202	16359	0	336
1.046	13.307	16202	16366	0	336
1.226	10.314	16202	16374	0	336
-6.960	0.938	16202	16381	0	336
-20.014	-6.022	16255	16384	0	336
-25.496	-9.556	16223	16384	0	336
-26.470	-9.737	16223	16387	0	336
-20.700	-4.183	16223	16391	0	336
-13.018	0.793	16223	16391	0	336
-8.222	6.635	16223	16384	0	336
-2.741	10.097	16223	16370	0	336
-4.039	11.143	16223	16355	0	336
-9.592	5.950	16223	16344	0	336
-17.382	0.325	16255	16348	0	336
-26.361	-5.986	16309	16431	0	336
-30.040	-9.052	16491	16744	0	336
-23.044	-4.760	16728	17217	0	336
-13.812	4.003	16889	17573	0	336
-2.885	12.694	17029	17726	0	336
0.865	18.680	17190	17770	0	336
-3.462	14.028	17265	17755	0	336
-15.831	5.157	17319	17679	0	336
-27.587	-6.527	17351	17552	0	336
-36.819	-16.300	17373	17395	0	336
-39.596	-17.995	17405	17213	1	432
-34.331	-15.182	17373	17020	0	432
-24.666	-8.330	17373	16824	0	432
-15.579	-0.505	17351	16624	0	432
-15.074	-0.036	17265	16427	0	432
-18.067	-5.085	17244	16246	0	432
-26.289	-14.172	17211	16068	0	432
-30.545	-23.765	17136	15904	0	432
-30.905	-29.391	17082	15766	0	432
-30.689	-31.410	17029	15649	0	432
-28.237	-30.364	16975	15555	0	432
-26.578	-26.253	16921	15471	0	432
-21.745	-20.303	16835	15398	0	432
-14.100	-11.323	16760	15340	0	432
-6.491	-9.340	16728	15304	0	432
-5.770	-10.494	16652	15289	0	432
-7.032	-13.812	16599	15293	0	432
-9.556	-21.024	16545	15307	0	432
-12.730	-22.683	16491	15336	0	432
-12.982	-22.575	16437	15373	0	432
-6.852	-18.644	16405	15417	0	432
-4.868	-12.910	16363	15467	0	432
-0.216	-9.665	16331	15529	0	432
-1.370	-12.369	16309	15606	0	432
-5.445	-16.408	16255	15682	0	432
-10.638	-22.539	16223	15759	0	432
-12.874	-25.893	16223	15839	0	432
-15.218	-26.506	16202	15922	0	432
-14.533	-24.991	16169	16010	0	432
-10.891	-24.594	16223	16093	0	432
-9.629	-22.827	16169	16170	0	432
-7.248	-22.106	16169	16235	0	432
-5.914	-19.329	16148	16294	0	432
-7.501	-19.798	16148	16341	0	432
-11.504	-21.745	16116	16384	0	432
-13.343	-19.437	16116	16434	0	432
-9.665	-21.132	16116	16474	0	432
-6.599	-17.887	16116	16504	0	432
-1.334	-16.661	16116	16529	0	432
3.642	-13.054	16094	16555	0	432
2.019	-15.831	16094	16573	0	432
-3.318	-17.202	16116	16584	0	432
-11.900	-24.955	16094	16591	0	432
-19.942	-29.931	16062	16598	0	432
-26.866	-35.449	16062	16598	0	432
-26.361	-33.105	16062	16595	0	432
-14.930	-25.532	16062	16595	0	432
-0.865	-15.507	16062	16591	0	432
10.963	-5.950	16040	16580	0	432
16.444	-3.787	16040	16565	0	432
9.520	-8.222	16008	16555	0	432
0.685	-16.589	16040	16544	0	432
-4.652	-20.627	16008	16536	0	432
-5.626	-22.935	16008	16533	0	432
-4.724	-19.113	15987	16540	0	432
-5.698	-17.310	16008	16551	0	432
-6.275	-16.913	16008	16558	0	432
-6.888	-19.185	16008	16569	0	432
-3.750	-21.457	16008	16584	0	432
-3.137	-22.827	16094	16591	0	432
-4.977	-25.171	16062	16598	0	432
-8.294	-26.145	16062	16605	0	432
-6.419	-22.611	16062	16613	0	432
5.229	-19.221	16062	16616	0	432
17.562	-10.963	16116	16620	0	432
25.640	-7.248	16116	16624	0	432
21.565	-5.914	16116	16624	0	432
13.091	-7.465	16148	16620	0	432
4.688	-8.583	16148	16616	0	432
2.344	-7.681	16169	16616	0	432
4.364	-10.710	16223	16609	0	432
2.416	-12.982	16202	16598	0	432
3.101	-13.884	16202	16580	0	432
3.137	-12.766	16202	16555	0	432
6.311	-7.393	16202	16529	0	432
6.491	-3.895	16223	16515	0	432
0.902	-8.222	16223	16496	0	432
-11.756	-21.241	16223	16474	0	432
-21.890	-31.122	16255	16456	0	432
-24.306	-36.134	16255	16445	0	432
-17.526	-31.626	16255	16431	0	432
-6.924	-21.277	16255	16420	0	432
0.361	-16.264	16255	16409	0	432
-0.829	-15.254	16255	16398	0	432
-7.717	-23.512	16255	16387	0	432
-17.670	-32.203	16255	16381	0	432
-22.935	-38.370	16255	16381	0	432
-23.152	-40.281	16277	16384	0	432
-16.625	-40.930	16277	16384	0	432
-9.556	-35.629	16277	16384	0	432
-4.147	-30.400	16309	16387	0	432
-0.144	-25.316	16331	16394	0	432
-1.010	-17.093	16363	16398	0	432
-1.803	-15.651	16331	16387	0	432
-3.137	-15.398	16331	16374	0	432
-3.606	-17.310	16331	16359	0	432
-3.750	-21.493	16331	16344	0	432
-3.390	-24.162	16309	16334	0	432
-0.325	-21.313	16309	16319	0	432
2.272	-19.582	16309	16301	0	432
3.029	-15.651	16309	16290	0	432
4.364	-16.625	16277	16283	0	432
0.036	-21.096	16277	16279	0	432
-4.832	-29.246	16277	16279	0	432
-11.648	-36.062	16277	16275	0	432
-15.182	-39.380	16255	16272	0	432
-17.346	-39.596	16255	16275	0	432
-17.923	-36.278	16255	16286	0	432
-14.425	-34.151	16277	16290	0	432
-13.054	-31.518	16277	16290	0	432
-11.504	-31.013	16255	16283	0	432
-10.422	-30.869	16255	16283	0	432
-12.514	-32.203	16255	16283	0	432
-14.208	-34.259	16223	16286	0	432
-12.802	-34.295	16223	16297	0	432
-10.819	-32.961	16223	16312	0	432
-6.022	-31.085	16223	16330	0	432
1.515	-26.109	16223	16348	0	432
7.032	-23.404	16223	16359	0	432
9.629	-22.935	16277	16370	0	432
11.792	-20.844	16255	16384	0	432
11.973	-20.303	16255	16398	0	432
9.412	-20.808	16277	16413	0	432
6.419	-19.077	16277	16424	0	432
3.390	-22.611	16277	16431	0	432
3.426	-22.863	16277	16442	0	432
4.291	-22.467	16277	16456	0	432
7.212	-22.395	16309	16467	0	432
8.799	-20.591	16309	16474	0	432
5.950	-23.440	16309	16474	0	432
1.875	-27.551	16309	16464	0	432
-1.190	-28.597	16309	16453	0	432
-1.406	-29.895	16309	16449	0	432
-0.252	-28.201	16331	16453	0	432
0.974	-25.171	16331	16453	0	432
0.252	-26.289	16331	16445	0	432
-3.498	-29.354	16331	16431	0	432
-7.825	-34.403	16331	16416	0	432
-14.064	-40.065	16331	16398	0	432
-16.048	-43.527	16331	16391	0	432
-16.733	-44.645	16331	16387	0	432
-10.566	-39.416	16331	16394	0	432
-4.291	-33.754	16331	16409	0	432
3.282	-27.515	16363	16424	0	432
7.862	-24.450	16363	16434	0	432
14.389	-17.995	16363	16445	0	432
16.913	-16.408	16384	16453	0	432
22.142	-13.054	16384	16449	0	432
23.476	-11.973	16384	16445	0	432
21.926	-14.245	16384	16445	0	432
19.077	-14.136	16405	16445	0	432
16.084	-13.740	16405	16442	0	432
14.064	-10.855	16405	16438	0	432
16.192	-7.104	16405	16431	0	432
13.668	-9.016	16405	16420	0	432
12.297	-12.514	16405	16413	0	432
8.294	-16.012	16405	16402	0	432
5.229	-20.627	16405	16391	0	432
3.967	-18.320	16405	16377	0	432
4.075	-14.245	16405	16359	0	432
7.970	-8.979	16405	16337	0	432
9.845	-5.734	16405	16323	0	432
9.124	-5.373	16384	16315	0	432
6.058	-8.583	16384	16308	0	432
2.705	-12.802	16384	16304	0	432
-3.173	-15.471	16384	16297	0	432
-7.789	-16.552	16363	16290	0	432
-5.590	-10.963	16363	16279	0	432
-0.613	-3.498	16363	16275	0	432
7.393	5.373	16363	16279	0	432
13.884	13.127	16363	16294	0	432
19.437	12.982	16363	16308	0	432
16.048	9.665	16363	16323	0	432
13.992	7.789	16363	16334	0	432
11.323	4.940	16363	16334	0	432
13.668	4.183	16331	16330	0	432
12.622	4.472	16331	16330	0	432
12.117	3.101	16331	16337	0	432
11.937	1.803	16331	16352	0	432
10.133	0.685	16363	16374	0	432
10.206	1.659	16363	16387	0	432
8.655	1.551	16363	16398	0	432
8.691	0.829	16363	16402	0	432
5.770	0.865	16363	16409	0	432
4.652	-0.577	16363	16420	0	432
3.823	-2.488	16363	16427	0	432
2.705	-6.311	16363	16424	0	432
-0.649	-7.032	16363	16416	0	432
-1.803	-6.491	16363	16409	0	432
-3.462	-4.111	16363	16394	0	432
-1.767	-2.380	16363	16384	0	432
1.298	-1.911	16331	16377	0	432
5.013	-1.226	16331	16374	0	432
4.003	-2.669	16331	16374	0	432
2.596	-2.128	16331	16370	0	432
-0.649	-4.868	16331	16363	0	432
-3.823	-3.282	16331	16366	0	432
-1.623	-1.659	16331	16370	0	432
2.524	3.931	16331	16374	0	432
3.967	10.783	16331	16374	0	432
8.078	14.930	16331	16370	0	432
8.042	14.136	16331	16363	0	432
6.131	10.314	16331	16363	0	432
5.265	6.960	16363	16363	0	432
2.669	1.695	16331	16366	0	432
-0.685	-0.938	16331	16374	0	432
-1.803	-5.049	16331	16384	0	432
-6.311	-7.068	16331	16391	0	432
-9.412	-11.107	16331	16402	0	432
-12.117	-15.579	16363	16416	0	432
-15.975	-16.661	16363	16438	0	432
-15.074	-18.536	16363	16460	0	432
-13.415	-16.913	16384	16471	0	432
-12.117	-17.526	16384	16482	0	432
-10.242	-15.579	16384	16489	0	432
-7.176	-17.093	16405	16489	0	432
-7.645	-14.641	16405	16474	0	432
-1.947	-12.730	16405	16456	0	432
2.236	-7.537	16384	16434	0	432
6.094	-5.842	16384	16413	0	432
6.311	-5.445	16384	16398	0	432
7.681	-6.599	16384	16387	0	432
4.472	-9.881	16384	16377	0	432
1.479	-10.061	16384	16359	0	432
1.875	-10.783	16363	16337	0	432
2.885	-8.727	16363	16323	0	432
5.373	-6.275	16363	16312	0	432
7.609	-3.787	16331	16304	0	432
8.114	-2.488	16331	16308	0	432
3.750	-5.121	16331	16312	0	432
-6.383	-9.809	16331	16319	0	432
-17.959	-21.565	16331	16326	0	432
-28.525	-27.155	16331	16341	0	432
-33.429	-31.013	16331	16359	0	432
-30.364	-26.506	16363	16384	0	432
-20.267	-17.923	16363	16402	0	432
-10.494	-10.061	16363	16420	0	432
-4.436	-7.032	16363	16431	0	432
-6.131	-9.448	16384	16438	0	432
-12.333	-14.461	16384	16438	0	432
-14.208	-17.743	16384	16431	0	432
-14.100	-18.392	16384	16416	0	432
-9.016	-13.343	16384	16402	0	432
-3.065	-7.970	16363	16394	0	432
0.469	-1.551	16384	16398	0	432
-1.659	0.685	16384	16398	0	432
-6.022	2.092	16363	16391	0	432
-9.448	1.479	16363	16384	0	432
-11.468	2.452	16363	16381	0	432
-10.206	2.849	16363	16374	0	432
-5.878	6.022	16363	16370	0	432
0.144	10.602	16363	16370	0	432
3.029	12.333	16363	16370	0	432
3.859	13.235	16363	16366	0	432
2.957	12.153	16363	16363	0	432
-2.560	9.448	16363	16366	0	432
-7.789	6.203	16363	16370	0	432
-11.792	1.334	16363	16370	0	432
-15.110	0.757	16363	16374	0	432
-13.415	0.938	16363	16377	0	432
-11.143	3.065	16363	16381	0	432
-9.340	7.032	16363	16384	0	432
-8.799	8.763	16363	16391	0	432
-10.963	6.960	16384	16398	0	432
-14.353	6.599	16384	16402	0	432
-13.884	4.868	16384	16405	0	432
-14.569	8.114	16384	16405	0	432
-10.025	11.215	16384	16402	0	432
-5.626	15.687	16384	16398	0	432
-2.921	23.332	16384	16394	0	432
-1.911	25.243	16384	16387	0	432
-3.678	23.044	16384	16387	0	432
-10.206	17.021	16405	16394	0	432
-17.815	9.665	16384	16405	0	432
-20.159	6.708	16384	16413	0	432
-18.139	12.550	16384	16416	0	432
-9.917	23.260	16384	16420	0	432
2.452	34.944	16384	16420	0	432
6.852	41.507	16384	16409	0	432
7.393	40.498	16384	16394	0	432
3.390	36.964	16384	16384	0	432
0.721	33.502	16384	16381	0	432
1.334	30.869	16384	16374	0	432
1.334	30.472	16384	16366	0	432
0.252	29.535	16384	16355	0	432
-6.527	26.866	16384	16352	0	432
-9.845	23.476	16384	16359	0	432
-12.225	22.431	16384	16377	0	432
-10.963	24.739	16384	16387	0	432
-7.212	24.342	16384	16391	0	432
-6.058	26.794	16384	16391	0	432
-8.655	27.191	16384	16391	0	432
-11.251	25.460	16384	16391	0	432
-12.441	23.188	16384	16391	0	432
-12.838	23.404	16384	16387	0	432
-5.301	26.830	16384	16384	0	432
2.813	29.463	16384	16384	0	432
7.465	33.069	16384	16377	0	432
7.032	33.466	16384	16370	0	432
3.931	30.040	16384	16366	0	432
-2.813	24.811	16384	16363	0	432
-4.760	22.214	16384	16363	0	432
-6.924	18.933	16384	16355	0	432
-7.393	17.815	16384	16348	0	432
-7.789	15.254	16363	16337	0	432
-5.662	16.949	16384	16323	0	432
-3.606	16.661	16384	16312	0	432
0.902	20.375	16384	16312	0	432
2.560	20.700	16363	16323	0	432
0.469	21.132	16363	16334	0	432
-3.606	16.084	16363	16341	0	432
-8.979	16.697	16363	16341	0	432
-8.222	16.120	16363	16341	0	432
-3.823	22.358	16363	16341	0	432
3.354	30.617	16331	16334	0	432
8.402	33.249	16331	16334	0	432
7.753	32.708	16331	16341	0	432
2.308	28.092	16331	16355	0	432
-0.469	22.358	16331	16366	0	432
-0.865	21.421	16331	16381	0	432
2.092	21.457	16331	16391	0	432
3.570	23.224	16363	16405	0	432
3.570	25.243	16363	16420	0	432
4.364	24.883	16363	16427	0	432
5.193	25.424	16363	16434	0	432
7.609	28.669	16363	16431	0	432
7.212	27.299	16363	16427	0	432
7.573	27.047	16363	16424	0	432
7.681	24.198	16363	16420	0	432
8.258	23.332	16363	16413	0	432
11.215	22.214	16363	16405	0	432
12.874	24.702	16363	16405	0	432
15.687	29.463	16363	16402	0	432
14.425	32.600	16363	16402	0	432
16.480	35.233	16363	16402	0	432
13.559	34.115	16363	16398	0	432
10.169	29.535	16363	16394	0	432
8.258	24.414	16331	16394	0	432
5.590	20.591	16363	16398	0	432
6.888	22.935	16363	16409	0	432
5.878	25.532	16363	16420	0	432
6.022	28.020	16363	16427	0	432
3.787	28.417	16384	16438	0	432
0.757	21.781	16384	16445	0	432
-2.560	17.562	16384	16445	0	432
-5.337	15.218	16384	16445	0	432
-6.058	14.064	16384	16442	0	432
-6.167	17.670	16384	16438	0	432
-0.793	21.457	16384	16434	0	432
4.111	29.643	16384	16424	0	432
8.222	33.754	16405	16420	0	432
13.776	38.009	16405	16416	0	432
13.884	40.281	16405	16420	0	432
12.009	37.288	16405	16424	0	432
13.884	35.593	16405	16427	0	432
13.091	36.639	16437	16438	0	432
17.562	38.731	16437	16445	0	432
19.185	40.930	16437	16449	0	432
21.096	41.543	16459	16449	0	432
19.077	42.084	16459	16438	0	432
19.582	40.606	16459	16424	0	432
18.933	41.111	16459	16416	0	432
21.493	44.068	16459	16413	0	432
22.034	44.681	16459	16413	0	432
19.401	44.753	16491	16405	0	432
17.129	39.560	16491	16398	0	432
13.956	37.541	16491	16391	0	432
12.477	35.052	16491	16394	0	432
14.677	35.341	16459	16405	0	432
12.838	37.216	16491	16413	0	432
14.353	38.118	16491	16420	0	432
14.569	39.632	16513	16424	0	432
16.300	40.858	16513	16424	0	432
20.050	43.743	16513	16413	0	432
23.837	44.969	16513	16402	0	432
22.322	44.933	16513	16387	0	432
23.657	46.015	16513	16370	0	432
22.647	46.917	16513	16348	0	432
27.371	51.965	16491	16330	0	432
33.862	56.221	16491	16319	0	432
39.488	61.558	16491	16308	0	432
40.137	59.755	16459	16297	0	432
36.423	58.168	16459	16286	0	432
30.040	54.490	16437	16268	0	432
23.621	51.424	16437	16253	0	432
22.106	53.913	16437	16246	0	432
21.637	57.086	16437	16253	0	432
24.666	62.171	16405	16257	0	432
28.850	64.876	16405	16257	0	432
30.689	66.318	16405	16253	0	432
28.922	62.640	16384	16246	0	432
22.034	55.860	16384	16250	0	432
15.435	49.585	16384	16253	0	432
10.097	45.294	16363	16264	0	432
10.566	44.609	16363	16279	0	432
18.175	49.549	16363	16294	0	432
24.739	53.913	16363	16312	0	432
28.381	59.358	16363	16337	0	432
28.958	56.473	16363	16355	0	432
25.496	52.939	16363	16377	0	432
20.087	46.123	16384	16394	0	432
19.437	43.383	16384	16416	0	432
18.211	45.907	16384	16442	0	432
21.637	50.775	16405	16464	0	432
25.388	58.961	16405	16478	0	432
26.938	62.459	16405	16482	0	432
28.345	63.649	16405	16474	0	432
28.345	61.378	16405	16467	0	432
28.237	58.637	16405	16456	0	432
27.155	54.237	16405	16453	0	432
21.529	52.110	16405	16453	0	432
15.759	48.395	16437	16456	0	432
9.737	47.061	16437	16453	0	432
12.297	47.566	16437	16449	0	432
23.909	52.146	16437	16445	0	432
35.954	58.565	16437	16438	0	432
38.262	62.495	16437	16431	0	432
30.472	59.322	16437	16427	0	432
19.005	53.768	16437	16427	0	432
10.097	46.917	16437	16427	0	432
8.871	44.645	16437	16416	0	432
14.281	47.386	16437	16405	0	432
18.320	53.877	16437	16394	0	432
24.306	61.738	16437	16384	0	432
30.076	68.951	16437	16377	0	432
38.586	71.475	16437	16370	0	432
45.510	71.583	16437	16366	0	432
46.628	68.878	16437	16366	0	432
41.976	67.580	16437	16363	0	432
38.262	70.249	16405	16359	0	432
40.173	77.028	16405	16355	0	432
49.189	84.025	16405	16355	0	432
62.459	86.296	16405	16355	0	432
67.436	85.539	16405	16363	0	432
63.722	78.219	16405	16370	0	432
52.542	72.809	16405	16377	0	432
44.825	69.816	16405	16374	0	432
43.310	70.429	16405	16359	0	432
43.851	70.682	16384	16348	0	432
38.622	66.679	16384	16348	0	432
26.902	56.906	16384	16344	0	432
13.668	46.881	16384	16341	0	432
3.714	40.642	16384	16334	0	432
5.842	40.534	16363	16323	0	432
12.766	44.861	16363	16312	0	432
18.211	50.920	16363	16304	0	432
20.555	52.903	16331	16304	0	432
16.012	50.811	16331	16308	0	432
12.369	49.513	16331	16312	0	432
12.261	46.881	16331	16319	0	432
16.444	47.566	16363	16330	0	432
21.565	47.530	16363	16341	0	432
23.909	47.241	16363	16348	0	432
20.483	46.340	16363	16355	0	432
20.627	45.330	16363	16370	0	432
22.683	46.881	16363	16384	0	432
27.371	50.559	16363	16384	0	432
32.095	51.533	16363	16387	0	432
32.023	49.044	16363	16394	0	432
28.705	49.441	16363	16405	0	432
23.801	46.123	16363	16416	0	432
22.106	45.727	16363	16438	0	432
23.476	45.222	16363	16456	0	432
24.558	43.599	16363	16456	0	432
26.650	42.986	16363	16445	0	432
28.958	45.871	16363	16431	0	432
30.364	52.001	16363	16413	0	432
29.643	55.932	16363	16398	0	432
25.929	55.968	16363	16391	0	432
21.781	50.523	16331	16387	0	432
16.372	41.580	16331	16384	0	432
13.091	36.278	16331	16374	0	432
10.999	33.574	16331	16363	0	432
12.514	35.305	16309	16355	0	432
11.973	39.163	16309	16344	0	432
14.641	43.779	16309	16334	0	432
21.781	46.015	16309	16334	0	432
28.741	48.864	16277	16334	0	432
29.787	46.376	16277	16326	0	432
30.148	42.445	16255	16315	0	432
25.496	42.193	16255	16308	0	432
23.044	41.796	16277	16315	0	432
23.188	44.825	16309	16326	0	432
29.787	50.054	16277	16341	0	432
35.557	54.850	16277	16355	0	432
38.839	55.139	16277	16366	0	432
38.983	55.860	16255	16370	0	432
34.872	53.768	16255	16370	0	432
28.814	52.182	16255	16370	0	432
23.729	48.684	16255	16377	0	432
25.856	50.811	16255	16384	0	432
30.220	52.182	16255	16398	0	432
35.557	57.411	16255	16409	0	432
40.606	59.430	16255	16413	0	432
37.108	59.971	16277	16413	0	432
32.672	57.735	16277	16413	0	432
23.296	48.431	16277	16409	0	432
16.516	44.104	16255	16402	0	432
10.278	39.740	16255	16398	0	432
10.999	39.632	16255	16394	0	432
14.136	43.563	16255	16394	0	432
19.437	50.487	16255	16391	0	432
24.378	53.696	16255	16391	0	432
24.775	54.021	16255	16394	0	432
18.464	52.903	16255	16402	0	432
15.254	48.576	16255	16413	0	432
12.586	49.189	16277	16431	0	432
12.658	48.287	16309	16449	0	432
15.579	50.920	16309	16467	0	432
20.519	51.569	16309	16482	0	432
23.332	54.490	16309	16493	0	432
27.660	57.916	16331	16496	0	432
30.653	62.748	16331	16496	0	432
32.672	65.344	16331	16496	0	432
29.643	65.020	16331	16485	0	432
28.309	63.289	16331	16471	0	432
27.335	59.574	16331	16449	0	432
31.987	58.709	16331	16434	0	432
37.432	59.214	16331	16427	0	432
42.193	62.712	16331	16420	0	432
40.678	66.318	16331	16413	0	432
33.646	65.957	16331	16402	0	432
22.899	61.702	16331	16387	0	432
15.867	54.237	16331	16384	0	432
13.307	49.225	16331	16370	0	432
17.093	45.294	16309	16348	0	432
23.765	45.799	16309	16334	0	432
30.040	48.684	16309	16326	0	432
31.446	47.422	16331	16326	0	432
28.273	47.386	16331	16326	0	432
26.289	49.189	16309	16326	0	432
26.217	52.001	16309	16330	0	432
32.203	59.502	16309	16334	0	432
39.199	62.495	16309	16341	0	432
42.229	65.344	16309	16352	0	432
40.534	62.387	16309	16359	0	432
37.360	59.358	16309	16363	0	432
36.278	55.427	16309	16366	0	432
38.370	57.483	16309	16366	0	432
41.183	61.089	16309	16363	0	432
43.815	63.541	16309	16363	0	432
44.753	68.049	16309	16366	0	432
43.815	66.462	16309	16374	0	432
43.238	62.387	16309	16377	0	432
39.127	56.653	16309	16370	0	432
37.577	50.667	16309	16363	0	432
36.351	50.595	16277	16355	0	432
39.199	52.578	16277	16344	0	432
43.996	59.430	16309	16337	0	432
48.972	65.056	16309	16334	0	432
48.684	66.354	16277	16334	0	432
49.225	66.462	16277	16341	0	432
45.474	66.390	16277	16348	0	432
45.979	68.049	16277	16352	0	432
46.520	70.105	16277	16355	0	432
45.222	69.167	16255	16352	0	432
42.157	65.957	16255	16348	0	432
41.183	61.594	16255	16352	0	432
37.144	57.771	16255	16355	0	432
36.747	56.906	16255	16359	0	432
36.855	57.663	16255	16366	0	432
37.180	57.266	16255	16366	0	432
36.928	59.647	16255	16363	0	432
41.471	63.758	16255	16366	0	432
44.573	64.046	16255	16370	0	432
43.599	65.308	16255	16377	0	432
43.599	64.226	16255	16384	0	432
41.183	63.181	16255	16402	0	432
41.868	66.679	16255	16424	0	432
43.599	73.206	16277	16445	0	432
47.205	80.599	16277	16471	0	432
47.999	83.087	16309	16500	0	432
45.438	80.166	16309	16518	0	432
44.032	76.560	16309	16533	0	432
41.904	69.564	16363	16533	0	432
36.891	63.145	16363	16529	0	432
33.538	58.420	16363	16518	0	432
31.230	52.182	16363	16507	0	432
30.436	52.326	16384	16496	0	432
37.685	58.240	16384	16493	0	432
44.969	67.797	16384	16485	0	432
48.035	72.845	16384	16474	0	432
42.553	68.698	16384	16460	0	432
36.603	60.476	16384	16449	0	432
28.164	50.234	16384	16438	0	432
27.984	47.710	16384	16424	0	432
29.174	48.972	16405	16416	0	432
32.492	56.726	16405	16409	0	432
39.380	63.613	16405	16398	0	432
48.359	70.826	16384	16384	0	432
59.178	75.983	16384	16366	0	432
65.200	78.038	16384	16344	0	432
62.964	73.567	16384	16334	0	432
55.788	71.078	16384	16330	0	432
49.225	70.105	16384	16330	0	432
48.107	68.770	16384	16334	0	432
48.792	72.521	16384	16337	0	432
48.720	73.494	16384	16337	0	432
49.369	76.668	16384	16337	0	432
45.402	76.920	16384	16344	0	432
38.154	75.875	16384	16352	0	432
34.223	71.006	16384	16363	0	432
26.470	65.849	16405	16377	0	432
27.948	62.135	16405	16387	0	432
35.990	64.551	16405	16398	0	432
47.566	69.023	16405	16409	0	432
58.853	71.439	16405	16413	0	432
60.007	69.564	16405	16416	0	432
54.382	61.197	16405	16409	0	432
44.717	54.598	16405	16394	0	432
38.550	51.280	16405	16384	0	432
39.091	53.660	16405	16381	0	432
45.258	62.820	16405	16384	0	432
50.884	71.078	16405	16387	0	432
55.644	76.560	16405	16398	0	432
53.768	78.832	16437	16405	0	432
51.461	77.966	16437	16409	0	432
47.782	76.343	16437	16416	0	432
44.464	76.812	16437	16420	0	432
46.953	76.920	16459	16427	0	432
49.116	84.421	16459	16431	0	432
57.086	89.109	16459	16438	0	432
66.390	97.584	16491	16442	0	432
71.655	99.423	16491	16442	0	432
72.268	98.666	16491	16434	0	432
66.931	92.571	16491	16431	0	432
54.778	87.018	16513	16427	0	432
42.770	80.418	16513	16420	0	432
32.492	75.550	16566	16478	0	432
29.859	70.465	16728	16762	0	432
35.810	71.727	16943	17210	0	432
47.205	77.786	17104	17544	0	432
61.738	88.532	17265	17683	0	432
68.806	92.499	17405	17712	0	432
65.994	90.480	17427	17672	0	432
56.401	81.969	17513	17577	0	432
51.208	77.028	17566	17446	0	432
49.441	75.658	17534	17290	0	432
56.798	81.140	17566	17108	1	2552
65.236	86.296	17534	16915	0	2552
67.256	91.309	17513	16715	0	2552
67.328	91.489	17480	16515	0	2552
65.777	93.004	17480	16394	0	2552
63.649	91.093	17620	16511	0	2552
62.892	86.116	17803	16806	0	2552
60.548	82.510	17889	17002	0	2552
57.122	79.012	17996	17009	0	2552
55.716	80.490	18018	16922	0	2552
58.961	82.834	18018	16795	0	2552
62.748	90.552	18050	16624	0	2552
65.489	94.807	17943	16431	0	2552
65.128	94.555	17943	16228	0	2552
62.315	92.860	17835	16017	0	2552
57.483	89.001	17781	15810	0	2552
59.250	91.742	17728	15620	0	2552
61.558	96.177	17588	15449	0	2552
62.423	96.538	17513	15296	0	2552
60.115	92.030	17373	15155	0	2552
56.653	84.962	17297	15038	0	2552
55.067	78.759	17211	14954	0	2552
51.388	79.445	17082	14900	0	2552
49.802	79.120	16975	14871	0	2552
45.799	80.959	16889	14860	0	2552
43.779	78.182	16814	14874	0	2552
47.097	79.481	16760	14911	0	2552
57.122	80.418	16674	14958	0	2552
65.777	85.575	16566	15016	0	2552
65.128	85.034	16491	15071	0	2552
58.493	86.260	16437	15133	0	2552
49.982	85.647	16363	15209	0	2552
45.294	85.755	16309	15293	0	2552
48.035	85.251	16255	15384	0	2552
58.240	86.152	16169	15482	0	2552
63.289	88.352	16148	15577	0	2552
62.315	89.650	16094	15675	0	2552
60.043	93.112	16062	15773	0	2552
54.706	92.283	16008	15875	0	2552
52.001	91.850	15954	15973	0	2552
55.644	89.470	15987	16068	0	2552
57.663	84.890	15933	16159	0	2552
59.178	83.628	15879	16239	0	2552
56.870	80.887	15847	16315	0	2552
50.956	79.697	15847	16394	0	2552
46.700	74.865	15825	16474	0	2552
41.940	71.980	15879	16547	0	2552
42.734	68.374	15825	16620	0	2552
42.084	67.184	15825	16682	0	2552
44.609	66.751	15825	16744	0	2552
40.353	67.797	15825	16798	0	2552
33.790	64.299	15847	16857	0	2552
27.912	58.637	15847	16908	0	2552
26.361	56.113	15847	16948	0	2552
26.289	52.146	15879	16977	0	2552
28.453	51.893	15901	17002	0	2552
27.876	49.838	15901	17017	0	2552
25.424	50.054	15933	17024	0	2552
16.913	51.388	15954	17031	0	2552
17.562	54.057	15954	17031	0	2552
21.349	61.882	15954	17028	0	2552
27.479	68.842	16008	17017	0	2552
33.862	71.331	16008	16995	0	2552
35.882	71.655	16008	16966	0	2552
32.528	70.934	16008	16922	0	2552
29.931	70.429	16062	16871	0	2552
31.013	72.701	16008	16813	0	2552
32.744	72.304	16008	16758	0	2552
33.249	69.095	16008	16718	0	2552
31.302	63.505	16008	16689	0	2552
26.902	58.601	16040	16660	0	2552
25.135	56.437	16040	16642	0	2552
27.119	57.050	16040	16624	0	2552
27.443	55.752	16040	16605	0	2552
27.227	54.345	16094	16580	0	2552
22.214	52.218	16062	16555	0	2552
18.392	51.244	16062	16533	0	2552
14.858	49.802	16062	16518	0	2552
18.356	52.398	16094	16504	0	2552
22.683	53.300	16116	16496	0	2552
28.164	56.365	16116	16493	0	2552
29.282	58.817	16148	16493	0	2552
26.578	56.726	16148	16496	0	2552
21.926	57.014	16148	16504	0	2552
19.690	52.542	16169	16507	0	2552
17.887	52.326	16223	16504	0	2552
21.421	51.497	16202	16485	0	2552
24.666	54.490	16223	16460	0	2552
30.004	56.978	16223	16442	0	2552
35.485	62.748	16223	16427	0	2552
39.668	66.931	16223	16416	0	2552
40.894	68.806	16223	16416	0	2552
37.180	67.039	16255	16420	0	2552
29.535	62.964	16255	16424	0	2552
20.339	54.345	16309	16424	0	2552
14.785	50.234	16309	16420	0	2552
9.268	45.330	16309	16413	0	2552
8.222	45.222	16309	16402	0	2552
5.337	44.753	16309	16391	0	2552
5.121	41.940	16331	16384	0	2552
3.137	40.426	16331	16377	0	2552
4.183	40.317	16331	16370	0	2552
10.422	40.209	16331	16370	0	2552
16.408	48.035	16363	16374	0	2552
21.890	52.110	16363	16377	0	2552
21.962	54.634	16363	16370	0	2552
21.277	52.038	16363	16359	0	2552
20.014	51.244	16363	16355	0	2552
18.211	50.775	16363	16352	0	2552
24.089	52.146	16363	16348	0	2552
24.522	56.581	16384	16344	0	2552
27.335	60.656	16384	16334	0	2552
29.823	63.253	16384	16330	0	2552
34.583	66.246	16384	16323	0	2552
37.793	70.429	16363	16312	0	2552
37.685	71.367	16363	16301	0	2552
34.620	70.393	16363	16294	0	2552
28.741	66.895	16363	16290	0	2552
26.794	62.712	16363	16279	0	2552
23.909	62.135	16363	16272	0	2552
28.273	63.794	16331	16268	0	2552
31.194	68.049	16331	16264	0	2552
34.006	72.990	16331	16261	0	2552
36.026	74.107	16331	16261	0	2552
35.197	72.593	16309	16268	0	2552
33.754	69.816	16309	16275	0	2552
36.098	71.799	16309	16286	0	2552
41.796	72.593	16309	16297	0	2552
47.962	78.038	16331	16319	0	2552
53.083	85.359	16363	16344	0	2552
54.850	87.486	16363	16359	0	2552
54.165	88.424	16363	16366	0	2552
51.821	83.231	16363	16374	0	2552
50.415	76.668	16384	16377	0	2552
46.268	70.393	16363	16384	0	2552
45.258	66.967	16363	16384	0	2552
44.032	66.390	16363	16394	0	2552
51.424	72.665	16363	16409	0	2552
57.122	77.822	16384	16424	0	2552
61.955	86.188	16384	16431	0	2552
64.154	88.677	16384	16431	0	2552
58.853	89.939	16384	16434	0	2552
51.461	84.313	16384	16434	0	2552
45.366	79.445	16384	16434	0	2552
42.517	76.415	16384	16427	0	2552
44.537	74.793	16384	16424	0	2552
50.343	77.858	16384	16413	0	2552
57.880	79.913	16384	16394	0	2552
56.978	82.762	16384	16377	0	2552
52.038	80.490	16363	16352	0	2552
41.039	76.704	16363	16341	0	2552
33.502	71.403	16363	16341	0	2552
30.977	67.003	16363	16348	0	2552
38.911	67.616	16363	16352	0	2552
48.503	71.583	16363	16359	0	2552
54.021	77.966	16363	16359	0	2552
50.703	82.149	16363	16363	0	2552
45.078	86.657	16363	16366	0	2552
39.199	83.880	16363	16366	0	2552
39.740	80.779	16331	16359	0	2552
44.789	76.812	16331	16348	0	2552
52.470	74.901	16331	16341	0	2552
54.959	76.560	16331	16334	0	2552
58.420	78.868	16309	16330	0	2552
56.653	84.638	16309	16330	0	2552
59.178	87.919	16309	16334	0	2552
62.279	94.591	16309	16341	0	2552
60.404	96.250	16309	16344	0	2552
60.476	96.682	16309	16341	0	2552
56.113	93.761	16277	16334	0	2552
49.080	86.549	16277	16326	0	2552
49.946	83.556	16277	16319	0	2552
49.766	81.572	16277	16315	0	2552
54.129	80.671	16277	16312	0	2552
51.569	83.159	16255	16308	0	2552
48.720	80.887	16255	16308	0	2552
40.642	79.192	16255	16319	0	2552
32.744	76.920	16255	16334	0	2552
25.676	75.081	16255	16355	0	2552
26.217	75.586	16255	16381	0	2552
29.823	79.733	16255	16405	0	2552
39.993	83.267	16277	16431	0	2552
49.441	86.332	16277	16445	0	2552
52.506	84.061	16277	16456	0	2552
48.143	79.120	16309	16464	0	2552
44.969	76.704	16309	16464	0	2552
41.724	76.848	16331	16456	0	2552
43.743	80.346	16309	16453	0	2552
46.232	85.359	16309	16449	0	2552
51.821	89.975	16309	16453	0	2552
51.893	90.299	16309	16453	0	2552
54.814	90.948	16309	16445	0	2552
53.949	89.867	16309	16431	0	2552
55.932	88.496	16309	16416	0	2552
54.418	88.172	16277	16405	0	2552
57.771	87.018	16277	16394	0	2552
60.837	87.342	16277	16384	0	2552
59.647	84.421	16277	16384	0	2552
54.814	81.284	16277	16384	0	2552
49.802	79.264	16277	16384	0	2552
43.130	78.363	16277	16391	0	2552
39.632	74.035	16309	16391	0	2552
35.629	67.147	16309	16391	0	2552
31.338	58.493	16309	16384	0	2552
24.306	53.155	16277	16377	0	2552
19.365	50.054	16277	16366	0	2552
15.362	53.841	16277	16359	0	2552
18.716	55.211	16277	16355	0	2552
23.296	56.509	16277	16359	0	2552
30.689	55.536	16255	16359	0	2552
36.531	57.519	16255	16355	0	2552
36.495	57.194	16255	16359	0	2552
34.475	60.728	16255	16359	0	2552
32.420	61.918	16255	16363	0	2552
32.636	64.335	16255	16359	0	2552
34.980	65.525	16277	16359	0	2552
39.849	68.734	16309	16366	0	2552
41.219	72.701	16277	16374	0	2552
42.734	76.271	16277	16384	0	2552
41.832	80.454	16277	16405	0	2552
37.865	79.120	16277	16427	0	2552
31.771	71.475	16309	16438	0	2552
25.748	62.748	16309	16449	0	2552
21.962	59.034	16309	16464	0	2552
27.840	60.692	16309	16471	0	2552
36.098	70.898	16331	16478	0	2552
48.792	80.779	16331	16485	0	2552
51.208	82.871	16331	16485	0	2552
45.727	76.307	16331	16485	0	2552
33.429	65.092	16363	16482	0	2552
23.224	57.663	16363	16478	0	2552
17.670	54.309	16363	16474	0	2552
20.700	56.473	16363	16460	0	2552
23.765	60.945	16363	16442	0	2552
28.669	63.469	16363	16427	0	2552
32.384	66.174	16363	16405	0	2552
33.718	69.203	16363	16391	0	2552
32.276	72.232	16363	16387	0	2552
27.732	70.285	16363	16391	0	2552
20.880	64.515	16384	16398	0	2552
18.824	60.981	16384	16394	0	2552
22.286	58.709	16384	16387	0	2552
30.581	65.777	16384	16384	0	2552
37.180	75.225	16405	16387	0	2552
40.462	83.267	16384	16402	0	2552
40.786	89.614	16384	16409	0	2552
38.406	88.893	16405	16413	0	2552
35.233	87.414	16405	16409	0	2552
34.043	82.149	16405	16405	0	2552
31.302	77.317	16405	16402	0	2552
33.934	78.832	16405	16391	0	2552
37.721	81.861	16405	16377	0	2552
38.839	85.755	16405	16352	0	2552
39.488	88.965	16405	16344	0	2552
32.961	83.520	16405	16352	0	2552
22.683	72.449	16405	16359	0	2552
15.435	62.495	16405	16363	0	2552
9.701	53.480	16405	16366	0	2552
11.612	51.352	16405	16374	0	2552
15.471	54.490	16405	16381	0	2552
25.929	64.695	16437	16387	0	2552
32.095	71.439	16437	16405	0	2552
33.826	71.511	16459	16427	0	2552
28.850	66.210	16459	16442	0	2552
20.916	55.355	16491	16442	0	2552
13.343	50.811	16491	16445	0	2552
9.773	50.234	16491	16456	0	2552
12.045	57.266	16513	16464	0	2552
18.500	65.669	16513	16467	0	2552
23.729	69.672	16513	16467	0	2552
29.066	72.737	16545	16467	0	2552
30.472	71.006	16513	16456	0	2552
26.938	70.790	16513	16438	0	2552
19.185	68.987	16545	16420	0	2552
13.776	67.147	16545	16402	0	2552
9.124	68.518	16513	16384	0	2552
7.898	67.761	16513	16366	0	2552
8.330	67.724	16513	16344	0	2552
7.321	67.364	16513	16323	0	2552
0.216	64.551	16513	16308	0	2552
-6.780	61.882	16513	16301	0	2552
-12.658	58.853	16513	16301	0	2552
-18.788	55.752	16491	16304	0	2552
-16.805	55.968	16491	16312	0	2552
-13.487	54.165	16491	16323	0	2552
-8.042	54.959	16491	16334	0	2552
-2.452	57.158	16491	16334	0	2552
1.587	58.529	16491	16326	0	2552
3.678	60.007	16491	16319	0	2552
2.885	58.168	16491	16315	0	2552
3.390	57.194	16491	16312	0	2552
4.760	58.312	16491	16315	0	2552
8.186	59.791	16491	16323	0	2552
9.304	62.027	16491	16323	0	2552
13.018	64.154	16459	16323	0	2552
12.153	61.666	16459	16323	0	2552
12.405	58.168	16459	16323	0	2552
14.966	55.031	16437	16326	0	2552
14.821	54.490	16437	16334	0	2552
15.074	53.624	16437	16334	0	2552
13.235	55.896	16437	16330	0	2552
9.196	54.670	16437	16323	0	2552
6.563	54.201	16405	16308	0	2552
1.515	49.189	16405	16294	0	2552
-2.524	47.458	16384	16286	0	2552
-3.895	45.943	16384	16290	0	2552
-6.094	47.097	16384	16297	0	2552
-2.308	49.189	16384	16308	0	2552
0.180	51.316	16363	16312	0	2552
7.357	54.742	16363	16308	0	2552
10.530	56.185	16363	16308	0	2552
12.477	56.834	16363	16312	0	2552
12.369	52.074	16331	16315	0	2552
11.973	48.756	16331	16323	0	2552
8.979	41.183	16331	16337	0	2552
7.321	36.531	16331	16355	0	2552
7.537	33.069	16331	16370	0	2552
6.635	30.400	16363	16384	0	2552
6.383	28.850	16363	16394	0	2552
6.167	29.679	16363	16409	0	2552
5.445	29.751	16363	16416	0	2552
2.633	30.256	16363	16416	0	2552
4.977	30.220	16363	16409	0	2552
11.612	31.771	16363	16394	0	2552
16.769	35.557	16331	16387	0	2552
24.125	40.281	16331	16384	0	2552
24.702	43.707	16331	16384	0	2552
22.503	44.501	16331	16394	0	2552
21.024	43.130	16331	16405	0	2552
17.562	39.524	16331	16416	0	2552
15.723	36.567	16331	16424	0	2552
12.369	34.223	16331	16434	0	2552
9.701	30.400	16331	16445	0	2552
10.891	29.066	16331	16453	0	2552
15.507	32.600	16331	16456	0	2552
20.555	37.252	16363	16456	0	2552
25.388	42.661	16363	16464	0	2552
24.991	42.661	16363	16471	0	2552
21.637	39.163	16363	16474	0	2552
17.959	33.177	16363	16478	0	2552
16.264	29.427	16384	16474	0	2552
14.821	29.571	16384	16471	0	2552
13.127	32.276	16384	16467	0	2552
17.129	36.134	16384	16456	0	2552
20.050	37.144	16384	16438	0	2552
25.929	38.442	16363	16416	0	2552
30.004	37.865	16363	16402	0	2552
29.138	36.928	16363	16402	0	2552
23.476	38.190	16363	16402	0	2552
19.978	40.678	16384	16402	0	2552
19.726	42.806	16384	16402	0	2552
24.919	46.087	16384	16405	0	2552
31.085	47.494	16384	16405	0	2552
32.600	50.018	16384	16409	0	2552
30.472	52.001	16384	16409	0	2552
22.611	47.494	16384	16405	0	2552
14.208	40.534	16384	16398	0	2552
5.914	29.968	16384	16394	0	2552
1.911	19.906	16384	16391	0	2552
0.721	15.326	16384	16391	0	2552
1.442	18.283	16405	16387	0	2552
3.354	21.385	16405	16387	0	2552
2.019	26.289	16405	16384	0	2552
-3.101	23.440	16405	16381	0	2552
-6.131	19.221	16384	16370	0	2552
-8.619	14.245	16384	16359	0	2552
-3.823	15.795	16384	16348	0	2552
1.839	18.103	16384	16344	0	2552
8.402	24.125	16384	16344	0	2552
12.477	26.686	16384	16348	0	2552
12.802	25.388	16384	16348	0	2552
9.016	22.575	16384	16352	0	2552
4.977	22.503	16384	16363	0	2552
-0.252	20.519	16384	16374	0	2552
-2.488	22.431	16384	16381	0	2552
0.000	23.801	16405	16384	0	2552
5.409	28.345	16405	16384	0	2552
12.550	30.292	16405	16384	0	2552
16.733	33.105	16405	16387	0	2552
19.726	32.780	16405	16391	0	2552
16.841	30.869	16405	16391	0	2552
13.812	29.138	16405	16387	0	2552
8.006	25.496	16405	16387	0	2552
4.183	21.854	16405	16398	0	2552
1.262	20.555	16437	16416	0	2552
2.885	19.978	16437	16427	0	2552
5.806	24.630	16437	16431	0	2552
13.487	31.807	16437	16427	0	2552
16.336	35.593	16437	16416	0	2552
19.041	34.800	16437	16405	0	2552
15.290	28.453	16437	16398	0	2552
7.573	21.060	16437	16402	0	2552
4.219	17.382	16437	16413	0	2552
2.452	17.418	16459	16420	0	2552
6.563	22.935	16459	16420	0	2552
9.881	26.902	16459	16413	0	2552
11.215	30.977	16437	16398	0	2552
8.006	32.167	16437	16391	0	2552
2.164	29.391	16437	16387	0	2552
-2.560	25.748	16437	16387	0	2552
-4.436	22.755	16437	16384	0	2552
-4.183	20.195	16437	16381	0	2552
-0.974	23.116	16437	16377	0	2552
2.813	28.814	16437	16370	0	2552
5.554	32.708	16437	16363	0	2552
6.888	32.816	16437	16352	0	2552
5.986	31.302	16437	16344	0	2552
5.049	28.201	16437	16337	0	2552
2.705	26.109	16437	16334	0	2552
-0.541	27.227	16405	16323	0	2552
-1.803	27.804	16405	16319	0	2552
-0.649	29.066	16405	16323	0	2552
2.019	29.571	16405	16326	0	2552
4.219	30.581	16405	16330	0	2552
6.527	30.256	16405	16330	0	2552
4.075	28.741	16405	16330	0	2552
1.406	23.188	16405	16330	0	2552
-0.902	19.293	16405	16330	0	2552
-0.974	20.014	16384	16330	0	2552
2.488	21.529	16384	16326	0	2552
6.347	27.948	16384	16326	0	2552
10.819	32.961	16384	16326	0	2552
13.235	35.341	16384	16330	0	2552
13.163	36.747	16384	16330	0	2552
12.369	35.124	16363	16337	0	2552
10.386	34.223	16363	16344	0	2552
12.910	31.410	16363	16344	0	2552
12.333	31.915	16363	16337	0	2552
9.629	32.816	16363	16334	0	2552
11.143	37.360	16363	16344	0	2552
8.943	40.678	16331	16355	0	2552
9.701	44.392	16331	16359	0	2552
12.333	46.051	16331	16359	0	2552
9.953	42.589	16331	16355	0	2552
4.364	35.737	16331	16352	0	2552
-4.616	24.558	16309	16344	0	2552
-13.559	15.507	16309	16341	0	2552
-15.398	10.278	16277	16334	0	2552
-11.432	13.415	16277	16330	0	2552
-3.390	18.969	16277	16341	0	2552
1.983	25.748	16277	16366	0	2552
3.570	27.010	16309	16391	0	2552
1.803	26.289	16331	16409	0	2552
3.318	26.289	16363	16416	0	2552
8.186	29.427	16309	16420	0	2552
14.064	33.285	16309	16416	0	2552
15.903	35.269	16309	16416	0	2552
12.045	34.836	16309	16420	0	2552
8.727	31.410	16309	16427	0	2552
7.140	30.472	16309	16431	0	2552
11.251	31.807	16309	16427	0	2552
14.425	34.511	16309	16427	0	2552
17.706	37.577	16309	16434	0	2552
16.516	38.586	16331	16445	0	2552
12.189	37.432	16331	16445	0	2552
6.239	34.944	16309	16434	0	2552
4.400	32.816	16309	16409	0	2552
6.311	34.331	16309	16387	0	2552
16.985	40.426	16277	16381	0	2552
28.345	46.268	16277	16374	0	2552
35.088	45.366	16277	16370	0	2552
30.653	36.819	16309	16363	0	2552
19.221	23.765	16277	16359	0	2552
7.321	13.631	16277	16355	0	2552
1.190	13.523	16277	16359	0	2552
6.347	17.526	16277	16370	0	2552
13.487	25.604	16277	16384	0	2552
15.002	25.099	16277	16398	0	2552
12.514	21.637	16309	16416	0	2552
-0.072	15.110	16309	16434	0	2552
-11.323	6.563	16309	16449	0	2552
-20.519	1.298	16331	16464	0	2552
-16.769	1.370	16331	16474	0	2552
-10.530	4.796	16331	16489	0	2552
1.515	16.228	16363	16496	0	2552
12.946	26.614	16363	16496	0	2552
20.411	32.708	16363	16496	0	2552
20.447	31.735	16363	16489	0	2552
20.303	29.427	16363	16474	0	2552
15.218	27.696	16384	16460	0	2552
15.182	31.049	16437	16522	0	2552
12.838	33.429	16620	16809	0	2552
11.973	32.420	16835	17257	0	2552
12.730	28.886	17029	17592	0	2552
14.064	25.424	17158	17723	0	2552
17.346	24.739	17244	17759	0	2552
18.536	26.217	17351	17734	0	2552
20.411	26.866	17427	17646	0	2552
17.562	26.866	17427	17508	0	2552
15.146	23.404	17480	17337	0	2552
10.314	17.598	17480	17144	1	1960
5.337	14.281	17427	16937	0	1960
-2.056	7.429	17427	16736	0	1960
-9.484	4.688	17427	16544	0	1960
-10.314	1.659	17351	16366	0	1960
-9.232	0.685	17319	16199	0	1960
-4.760	-1.118	17265	16039	0	1960
-1.479	-1.515	17190	15893	0	1960
-1.442	-1.262	17158	15766	0	1960
-6.599	-1.911	17104	15649	0	1960
-9.556	-3.931	17050	15555	0	1960
-12.081	-4.436	16975	15486	0	1960
-8.258	-4.183	16921	15438	0	1960
-4.544	0.938	16867	15413	0	1960
1.767	6.599	16814	15391	0	1960
3.173	11.035	16760	15369	0	1960
2.741	11.179	16728	15355	0	1960
1.803	12.045	16652	15358	0	1960
-0.902	8.835	16599	15376	0	1960
-4.147	7.212	16545	15406	0	1960
-7.104	4.724	16513	15446	0	1960
-7.789	1.983	16459	15497	0	1960
-8.835	-1.334	16437	15551	0	1960
-9.340	-3.390	16384	15602	0	1960
-17.129	-8.763	16363	15660	0	1960
-27.227	-14.966	16331	15726	0	1960
-40.462	-23.945	16277	15788	0	1960
-49.513	-33.502	16255	15846	0	1960
-54.201	-39.055	16223	15908	0	1960
-52.723	-41.255	16202	15966	0	1960
-52.290	-42.409	16169	16028	0	1960
-49.477	-38.911	16148	16090	0	1960
-44.969	-34.187	16116	16155	0	1960
-42.048	-30.797	16116	16221	0	1960
-40.137	-28.092	16116	16290	0	1960
-41.003	-27.407	16094	16355	0	1960
-41.435	-29.282	16094	16416	0	1960
-42.986	-29.823	16094	16478	0	1960
-43.635	-31.518	16148	16536	0	1960
-43.383	-30.184	16116	16576	0	1960
-45.871	-30.905	16094	16609	0	1960
-47.097	-31.807	16094	16638	0	1960
-50.307	-33.213	16094	16664	0	1960
-48.395	-33.610	16094	16686	0	1960
-44.356	-29.823	16116	16707	0	1960
-40.029	-24.811	16116	16722	0	1960
-35.810	-23.404	16116	16729	0	1960
-37.505	-21.673	16116	16729	0	1960
-41.291	-26.506	16116	16726	0	1960
-46.232	-30.833	16169	16718	0	1960
-46.772	-34.439	16148	16707	0	1960
-47.241	-33.357	16148	16693	0	1960
-48.539	-33.826	16148	16686	0	1960
-48.143	-32.600	16148	16678	0	1960
-50.415	-31.266	16148	16664	0	1960
-46.953	-33.069	16116	16642	0	1960
-45.258	-34.908	16148	16616	0	1960
-40.678	-38.478	16148	16584	0	1960
-38.983	-41.219	16116	16551	0	1960
-37.360	-40.786	16116	16518	0	1960
-37.468	-40.930	16116	16500	0	1960
-38.442	-39.163	16116	16493	0	1960
-42.301	-40.894	16116	16489	0	1960
-46.592	-43.058	16116	16489	0	1960
-47.818	-44.897	16116	16485	0	1960
-47.890	-47.386	16116	16482	0	1960
-48.035	-47.061	16116	16482	0	1960
-42.084	-45.294	16148	16485	0	1960
-36.206	-41.760	16169	16489	0	1960
-29.715	-35.233	16169	16496	0	1960
-24.811	-30.797	16169	16500	0	1960
-26.109	-25.352	16169	16500	0	1960
-30.364	-24.486	16169	16493	0	1960
-35.485	-24.414	16169	16485	0	1960
-36.747	-24.053	16223	16471	0	1960
-33.249	-22.178	16202	16456	0	1960
-30.328	-24.414	16202	16438	0	1960
-33.502	-29.427	16202	16427	0	1960
-37.252	-31.626	16202	16424	0	1960
-43.022	-34.295	16202	16420	0	1960
-44.681	-32.131	16202	16420	0	1960
-44.645	-26.289	16202	16413	0	1960
-42.301	-24.558	16223	16405	0	1960
-44.104	-27.443	16223	16402	0	1960
-43.851	-30.653	16223	16402	0	1960
-43.779	-31.843	16255	16413	0	1960
-38.190	-28.850	16255	16427	0	1960
-33.285	-24.053	16255	16434	0	1960
-33.105	-21.998	16255	16434	0	1960
-37.216	-19.329	16277	16427	0	1960
-45.078	-22.827	16277	16420	0	1960
-50.307	-23.693	16277	16413	0	1960
-52.939	-24.198	16277	16402	0	1960
-47.458	-23.657	16277	16391	0	1960
-41.616	-21.457	16309	16384	0	1960
-36.567	-17.887	16309	16381	0	1960
-31.699	-15.471	16331	16374	0	1960
-28.417	-11.071	16277	16370	0	1960
-25.027	-5.986	16309	16370	0	1960
-24.306	-2.308	16309	16374	0	1960
-27.443	0.216	16309	16377	0	1960
-28.814	-0.180	16309	16381	0	1960
-32.744	-2.921	16309	16384	0	1960
-31.987	-10.566	16309	16384	0	1960
-32.095	-15.398	16309	16384	0	1960
-32.420	-21.781	16331	16398	0	1960
-37.180	-28.345	16331	16409	0	1960
-41.904	-32.744	16331	16416	0	1960
-44.537	-35.990	16331	16416	0	1960
-46.232	-40.750	16331	16402	0	1960
-48.287	-45.294	16331	16384	0	1960
-52.795	-47.854	16331	16363	0	1960
-60.043	-51.641	16309	16344	0	1960
-65.813	-48.972	16309	16330	0	1960
-64.010	-45.438	16309	16315	0	1960
-56.473	-38.550	16331	16308	0	1960
-45.907	-33.105	16331	16304	0	1960
-39.019	-31.843	16309	16308	0	1960
-39.199	-35.449	16309	16319	0	1960
-42.084	-41.147	16331	16334	0	1960
-43.202	-45.691	16331	16352	0	1960
-41.435	-43.924	16331	16363	0	1960
-38.586	-38.009	16331	16374	0	1960
-36.675	-30.364	16331	16384	0	1960
-37.613	-25.424	16363	16398	0	1960
-39.993	-26.650	16363	16413	0	1960
-42.301	-29.066	16363	16431	0	1960
-41.616	-32.276	16363	16438	0	1960
-41.075	-33.682	16384	16438	0	1960
-43.491	-33.393	16384	16431	0	1960
-45.618	-37.144	16384	16424	0	1960
-49.730	-39.199	16384	16413	0	1960
-54.309	-41.580	16384	16402	0	1960
-53.588	-41.399	16384	16387	0	1960
-56.221	-38.767	16384	16384	0	1960
-56.545	-39.668	16384	16384	0	1960
-61.450	-42.265	16384	16384	0	1960
-66.210	-46.556	16384	16387	0	1960
-63.938	-49.874	16384	16384	0	1960
-58.925	-45.078	16384	16377	0	1960
-51.749	-37.036	16363	16370	0	1960
-42.265	-28.633	16363	16359	0	1960
-37.360	-22.250	16363	16352	0	1960
-38.082	-22.935	16363	16344	0	1960
-38.478	-24.414	16363	16337	0	1960
-39.921	-27.083	16363	16330	0	1960
-42.734	-28.201	16331	16326	0	1960
-43.671	-27.191	16331	16330	0	1960
-41.688	-24.378	16331	16330	0	1960
-39.163	-21.313	16331	16323	0	1960
-36.747	-18.464	16331	16323	0	1960
-34.403	-12.622	16331	16319	0	1960
-34.006	-14.461	16309	16315	0	1960
-36.639	-15.507	16309	16308	0	1960
-37.973	-18.175	16277	16297	0	1960
-39.127	-20.555	16277	16294	0	1960
-39.163	-22.611	16277	16294	0	1960
-39.308	-19.906	16309	16301	0	1960
-36.387	-19.582	16309	16312	0	1960
-33.429	-15.687	16277	16330	0	1960
-33.502	-16.733	16277	16344	0	1960
-35.269	-18.247	16309	16366	0	1960
-39.993	-25.279	16309	16391	0	1960
-44.825	-29.246	16309	16424	0	1960
-43.779	-28.525	16331	16449	0	1960
-41.471	-24.955	16331	16474	0	1960
-35.197	-20.447	16363	16493	0	1960
-33.754	-17.743	16363	16507	0	1960
-33.177	-19.834	16363	16515	0	1960
-35.124	-20.844	16363	16511	0	1960
-36.567	-22.467	16384	16496	0	1960
-38.190	-20.808	16384	16485	0	1960
-39.127	-19.582	16384	16471	0	1960
-37.036	-19.762	16384	16456	0	1960
-33.538	-16.697	16363	16427	0	1960
-27.299	-13.776	16363	16394	0	1960
-22.791	-9.124	16331	16363	0	1960
-18.139	-5.193	16331	16334	0	1960
-20.195	-6.275	16309	16308	0	1960
-22.467	-6.960	16309	16297	0	1960
-25.965	-11.179	16309	16301	0	1960
-29.354	-12.802	16309	16312	0	1960
-32.780	-15.687	16277	16323	0	1960
-36.242	-16.408	16309	16330	0	1960
-36.819	-20.303	16309	16337	0	1960
-38.478	-21.818	16309	16341	0	1960
-37.072	-24.053	16309	16341	0	1960
-37.793	-23.945	16309	16334	0	1960
-39.632	-25.352	16309	16334	0	1960
-44.032	-27.335	16277	16337	0	1960
-45.727	-28.273	16277	16344	0	1960
-45.763	-30.833	16277	16348	0	1960
-43.707	-28.345	16277	16355	0	1960
-39.668	-24.702	16277	16370	0	1960
-34.223	-20.591	16277	16384	0	1960
-31.194	-14.172	16277	16387	0	1960
-28.128	-14.028	16277	16398	0	1960
-29.066	-13.559	16309	16416	0	1960
-33.033	-16.552	16309	16442	0	1960
-38.262	-15.939	16331	16467	0	1960
-39.632	-13.091	16363	16489	0	1960
-32.384	-2.957	16384	16511	0	1960
-23.801	7.717	16384	16529	0	1960
-14.894	11.720	16405	16544	0	1960
-16.444	11.612	16405	16551	0	1960
-22.358	1.118	16405	16551	0	1960
-32.276	-7.862	16405	16544	0	1960
-38.334	-11.612	16405	16525	0	1960
-40.317	-15.290	16405	16500	0	1960
-41.796	-16.372	16405	16474	0	1960
-43.238	-21.385	16405	16449	0	1960
-45.222	-24.630	16405	16420	0	1960
-48.251	-29.246	16405	16398	0	1960
-50.667	-30.905	16405	16384	0	1960
-53.336	-33.357	16405	16374	0	1960
-57.627	-36.026	16405	16370	0	1960
-59.755	-38.442	16405	16374	0	1960
-58.781	-37.685	16405	16377	0	1960
-55.427	-34.079	16405	16370	0	1960
-50.307	-29.643	16405	16363	0	1960
-42.842	-23.368	16405	16355	0	1960
-36.531	-18.680	16405	16348	0	1960
-33.862	-14.172	16405	16341	0	1960
-32.203	-11.432	16405	16337	0	1960
-30.184	-9.665	16405	16337	0	1960
-26.650	-10.674	16405	16344	0	1960
-23.260	-6.996	16405	16348	0	1960
-15.795	-4.436	16405	16344	0	1960
-12.189	1.731	16405	16337	0	1960
-9.592	7.789	16405	16326	0	1960
-7.176	12.405	16384	16319	0	1960
-6.058	15.182	16384	16319	0	1960
-7.681	13.956	16384	16315	0	1960
-9.376	10.097	16384	16308	0	1960
-13.127	8.042	16363	16290	0	1960
-15.002	4.724	16363	16272	0	1960
-17.346	3.137	16331	16261	0	1960
-16.985	4.508	16331	16257	0	1960
-20.159	3.678	16331	16261	0	1960
-21.349	1.803	16309	16268	0	1960
-25.027	-0.469	16309	16279	0	1960
-24.306	-4.075	16309	16297	0	1960
-23.765	-5.517	16309	16315	0	1960
-17.490	-6.022	16309	16330	0	1960
-15.903	-4.075	16309	16341	0	1960
-14.208	-1.731	16331	16348	0	1960
-13.235	2.741	16331	16352	0	1960
-13.631	8.871	16331	16359	0	1960
-8.619	12.586	16363	16370	0	1960
-3.462	17.274	16309	16377	0	1960
0.072	16.805	16309	16377	0	1960
-0.361	11.612	16309	16381	0	1960
-6.671	9.989	16309	16384	0	1960
-9.376	9.484	16309	16387	0	1960
-10.133	14.281	16309	16394	0	1960
-5.554	24.414	16309	16398	0	1960
-0.974	29.030	16309	16409	0	1960
1.010	32.059	16309	16416	0	1960
-1.983	29.968	16309	16420	0	1960
-4.472	26.686	16309	16427	0	1960
-4.616	26.037	16309	16434	0	1960
-1.046	27.299	16309	16431	0	1960
3.065	24.955	16309	16427	0	1960
2.777	20.411	16309	16416	0	1960
-3.823	12.297	16309	16413	0	1960
-12.333	5.517	16277	16413	0	1960
-17.743	1.154	16309	16405	0	1960
-19.041	2.885	16309	16398	0	1960
-11.504	6.852	16309	16391	0	1960
-3.642	8.655	16309	16391	0	1960
0.144	9.016	16309	16391	0	1960
-5.950	4.977	16309	16387	0	1960
-12.369	0.757	16309	16387	0	1960
-17.238	0.397	16309	16394	0	1960
-18.175	4.111	16309	16402	0	1960
-12.802	11.179	16309	16409	0	1960
-5.013	15.651	16309	16420	0	1960
-2.813	20.664	16384	16511	0	1960
1.479	25.279	16566	16827	0	1960
1.875	28.417	16781	17304	0	1960
3.859	29.282	16996	17661	0	1960
0.757	26.506	17136	17810	0	1960
-3.498	21.060	17244	17854	0	1960
-10.133	12.946	17351	17839	0	1960
-14.100	10.710	17427	17763	0	1960
-16.480	8.583	17459	17643	0	1960
-19.618	5.337	17513	17482	0	1960
-20.736	2.019	17534	17301	1	1148
-22.395	0.252	17480	17100	0	1148
-24.739	0.433	17480	16893	0	1148
-19.798	1.587	17427	16682	0	1148
-18.175	2.669	17427	16478	0	1148
-17.526	1.010	17373	16283	0	1148
-22.250	-3.678	17319	16093	0	1148
-27.624	-7.465	17244	15926	0	1148
-31.482	-11.107	17190	15773	0	1148
-31.879	-11.432	17158	15646	0	1148
-29.102	-11.900	17050	15540	0	1148
-23.801	-10.710	17029	15467	0	1148
-20.952	-7.429	16975	15417	0	1148
-16.841	-3.426	16921	15384	0	1148
-15.759	-1.839	16835	15362	0	1148
-15.543	-0.505	16814	15347	0	1148
-14.425	-0.541	16760	15336	0	1148
-15.723	-0.613	16674	15336	0	1148
-12.586	-0.757	16620	15340	0	1148
-13.487	1.370	16566	15355	0	1148
-13.668	2.560	16513	15384	0	1148
-12.153	2.019	16459	15424	0	1148
-11.215	4.075	16437	15478	0	1148
-10.242	5.373	16384	15540	0	1148
-9.665	5.950	16363	15602	0	1148
-14.208	3.246	16331	15660	0	1148
-19.546	-0.974	16277	15722	0	1148
-27.119	-8.943	16255	15780	0	1148
-35.124	-17.779	16202	15839	0	1148
-44.501	-26.830	16169	15897	0	1148
-46.917	-29.571	16148	15959	0	1148
-40.750	-27.551	16169	16032	0	1148
-29.643	-16.156	16116	16101	0	1148
-19.978	-9.592	16094	16163	0	1148
-16.300	-5.229	16062	16224	0	1148
-24.666	-11.396	16062	16283	0	1148
-34.295	-17.634	16062	16341	0	1148
-42.517	-21.529	16040	16394	0	1148
-42.842	-21.241	16040	16445	0	1148
-41.003	-16.372	16040	16496	0	1148
-36.783	-12.622	16040	16536	0	1148
-30.292	-5.409	16040	16569	0	1148
-22.575	1.659	16008	16598	0	1148
-18.283	7.501	16008	16620	0	1148
-15.507	8.763	16008	16642	0	1148
-18.283	6.780	16008	16653	0	1148
-22.286	2.849	16008	16660	0	1148
-25.460	0.144	16008	16667	0	1148
-23.765	1.875	16008	16671	0	1148
-19.618	4.688	16008	16671	0	1148
-16.877	8.366	16008	16671	0	1148
-14.713	9.412	15987	16671	0	1148
-17.490	8.006	15987	16675	0	1148
-20.880	3.426	16008	16682	0	1148
-27.840	-1.515	16008	16689	0	1148
-33.285	-5.301	16040	16696	0	1148
-37.288	-6.816	16040	16704	0	1148
-39.488	-7.104	16094	16715	0	1148
-40.678	-7.970	16094	16729	0	1148
-40.065	-10.638	16094	16729	0	1148
-41.111	-11.937	16094	16726	0	1148
-40.570	-15.074	16116	16715	0	1148
-38.009	-13.271	16148	16700	0	1148
-32.636	-8.258	16148	16689	0	1148
-25.640	-2.741	16148	16675	0	1148
-21.385	1.695	16148	16653	0	1148
-20.231	3.967	16148	16624	0	1148
-22.106	-0.036	16169	16602	0	1148
-28.850	-2.633	16202	16576	0	1148
-30.508	-3.895	16223	16547	0	1148
-27.984	0.613	16169	16515	0	1148
-18.320	9.232	16169	16485	0	1148
-8.402	18.860	16169	16456	0	1148
-2.957	21.890	16169	16427	0	1148
-6.419	19.473	16169	16402	0	1148
-16.048	9.665	16148	16394	0	1148
-26.650	-0.541	16169	16387	0	1148
-31.987	-5.734	16169	16381	0	1148
-34.403	-5.734	16169	16366	0	1148
-32.564	-3.065	16169	16352	0	1148
-32.853	-1.875	16169	16337	0	1148
-33.141	-3.534	16148	16323	0	1148
-34.800	-7.321	16148	16319	0	1148
-39.416	-13.127	16202	16326	0	1148
-44.140	-20.231	16169	16341	0	1148
-51.677	-25.856	16202	16359	0	1148
-56.257	-32.744	16202	16370	0	1148
-62.784	-38.767	16202	16377	0	1148
-64.551	-38.875	16202	16377	0	1148
-64.984	-38.658	16202	16374	0	1148
-58.961	-32.816	16223	16359	0	1148
-53.877	-24.234	16202	16352	0	1148
-47.169	-17.526	16202	16348	0	1148
-45.618	-12.477	16202	16355	0	1148
-46.232	-13.992	16202	16370	0	1148
-45.510	-14.605	16223	16384	0	1148
-43.383	-15.759	16223	16402	0	1148
-36.134	-10.638	16223	16416	0	1148
-26.758	-2.993	16255	16427	0	1148
-22.899	1.406	16255	16427	0	1148
-18.500	3.173	16309	16424	0	1148
-21.096	1.226	16277	16424	0	1148
-24.162	-4.039	16277	16431	0	1148
-29.210	-6.708	16309	16438	0	1148
-31.085	-6.996	16309	16445	0	1148
-31.590	-9.088	16309	16453	0	1148
-30.364	-10.710	16309	16453	0	1148
-27.010	-9.232	16309	16442	0	1148
-22.972	-10.278	16309	16427	0	1148
-22.395	-7.465	16331	16416	0	1148
-22.142	-8.475	16331	16420	0	1148
-26.289	-10.242	16331	16424	0	1148
-33.321	-16.408	16331	16420	0	1148
-36.387	-18.283	16331	16409	0	1148
-36.639	-17.093	16331	16398	0	1148
-31.735	-10.061	16331	16387	0	1148
-24.630	-1.118	16331	16384	0	1148
-17.166	6.852	16331	16384	0	1148
-15.146	10.566	16363	16384	0	1148
-14.389	9.124	16363	16384	0	1148
-17.706	6.527	16363	16384	0	1148
-18.283	3.462	16363	16384	0	1148
-21.024	2.200	16363	16377	0	1148
-20.591	2.416	16384	16359	0	1148
-21.529	3.390	16363	16341	0	1148
-21.818	6.094	16363	16326	0	1148
-19.293	9.232	16363	16312	0	1148
-19.221	10.314	16363	16301	0	1148
-18.860	10.350	16331	16294	0	1148
-24.522	1.911	16331	16283	0	1148
-33.502	-7.825	16331	16272	0	1148
-39.488	-15.759	16309	16261	0	1148
-39.488	-20.050	16309	16257	0	1148
-34.583	-15.723	16309	16264	0	1148
-28.525	-11.756	16277	16272	0	1148
-27.660	-8.655	16277	16283	0	1148
-27.804	-8.222	16277	16290	0	1148
-28.705	-8.583	16277	16297	0	1148
-25.965	-7.176	16277	16304	0	1148
-20.375	-3.065	16277	16308	0	1148
-18.103	-1.875	16255	16315	0	1148
-22.791	-5.445	16255	16323	0	1148
-29.138	-11.107	16255	16330	0	1148
-33.898	-18.572	16277	16341	0	1148
-35.665	-17.779	16309	16352	0	1148
-30.508	-14.749	16277	16366	0	1148
-23.332	-7.465	16277	16381	0	1148
-18.031	0.397	16277	16391	0	1148
-15.074	3.210	16277	16409	0	1148
-17.670	2.777	16277	16424	0	1148
-18.716	1.839	16277	16431	0	1148
-20.952	-0.902	16277	16431	0	1148
-20.411	-2.308	16277	16434	0	1148
-19.762	-2.344	16309	16445	0	1148
-17.093	-2.308	16309	16453	0	1148
-19.473	-1.298	16309	16456	0	1148
-21.313	-4.291	16309	16449	0	1148
-25.460	-6.780	16309	16438	0	1148
-25.207	-9.556	16309	16438	0	1148
-23.549	-7.104	16331	16445	0	1148
-17.021	-0.613	16331	16460	0	1148
-15.074	4.580	16363	16474	0	1148
-17.274	5.481	16363	16482	0	1148
-26.217	-1.695	16363	16489	0	1148
-31.807	-10.314	16384	16493	0	1148
-34.800	-12.658	16384	16489	0	1148
-31.049	-7.934	16384	16485	0	1148
-27.732	-2.272	16384	16478	0	1148
-25.207	1.695	16384	16471	0	1148
-24.666	3.750	16405	16464	0	1148
-17.851	3.678	16405	16464	0	1148
-12.550	11.756	16405	16474	0	1148
-5.337	16.697	16437	16478	0	1148
-2.849	22.142	16437	16482	0	1148
-4.868	19.942	16459	16478	0	1148
-7.717	17.129	16437	16474	0	1148
-8.402	13.523	16437	16471	0	1148
-6.491	12.405	16459	16467	0	1148
-4.039	15.975	16459	16460	0	1148
-2.344	14.821	16459	16453	0	1148
-1.046	16.300	16459	16442	0	1148
-0.325	16.156	16491	16427	0	1148
2.596	18.897	16491	16416	0	1148
5.950	18.969	16491	16405	0	1148
7.898	20.159	16491	16391	0	1148
6.744	15.398	16491	16374	0	1148
1.587	10.674	16491	16348	0	1148
-2.560	5.049	16459	16319	0	1148
-4.111	5.193	16459	16297	0	1148
-1.406	9.016	16437	16283	0	1148
2.669	16.661	16459	16272	0	1148
5.878	20.988	16437	16261	0	1148
6.094	23.729	16437	16253	0	1148
2.849	19.870	16437	16246	0	1148
-0.216	15.002	16405	16243	0	1148
-2.885	12.622	16405	16246	0	1148
-4.760	11.900	16384	16250	0	1148
-5.842	11.648	16384	16250	0	1148
-6.455	9.448	16384	16250	0	1148
-8.583	5.842	16363	16250	0	1148
-12.045	2.308	16363	16250	0	1148
-11.612	1.659	16363	16261	0	1148
-10.350	4.111	16363	16283	0	1148
-7.789	8.547	16384	16308	0	1148
-4.580	11.756	16384	16323	0	1148
-5.229	13.559	16384	16326	0	1148
-10.350	10.494	16384	16330	0	1148
-15.759	6.455	16384	16344	0	1148
-20.087	0.721	16384	16366	0	1148
-22.395	-4.508	16384	16384	0	1148
-22.358	-4.508	16405	16402	0	1148
-16.805	-3.787	16384	16416	0	1148
-14.894	-2.813	16384	16424	0	1148
-13.812	-1.262	16384	16424	0	1148
-13.920	-1.947	16384	16427	0	1148
-19.582	-3.967	16384	16427	0	1148
-26.361	-9.268	16384	16427	0	1148
-33.177	-17.526	16384	16427	0	1148
-37.324	-21.673	16384	16424	0	1148
-34.764	-23.116	16384	16416	0	1148
-24.378	-13.740	16384	16413	0	1148
-10.602	-2.019	16384	16409	0	1148
-0.902	6.419	16384	16398	0	1148
1.767	9.484	16363	16384	0	1148
-1.875	5.626	16384	16381	0	1148
-6.996	1.334	16384	16384	0	1148
-7.681	-0.108	16384	16387	0	1148
-7.068	2.849	16405	16398	0	1148
-7.321	5.842	16384	16405	0	1148
-6.635	8.727	16384	16413	0	1148
-2.849	10.638	16384	16409	0	1148
3.210	13.487	16384	16402	0	1148
9.520	12.081	16384	16394	0	1148
9.701	8.330	16384	16391	0	1148
1.695	1.767	16363	16384	0	1148
-11.215	-7.465	16384	16381	0	1148
-24.450	-17.779	16384	16374	0	1148
-31.266	-19.257	16384	16363	0	1148
-36.819	-19.077	16384	16355	0	1148
-36.062	-16.156	16384	16348	0	1148
-34.151	-15.182	16363	16348	0	1148
-31.771	-13.054	16363	16355	0	1148
-24.270	-9.989	16363	16363	0	1148
-20.123	-9.737	16363	16370	0	1148
-18.428	-8.799	16363	16377	0	1148
-18.067	-9.556	16363	16384	0	1148
-24.089	-13.235	16384	16391	0	1148
-26.470	-15.903	16384	16402	0	1148
-25.460	-12.514	16384	16409	0	1148
-22.935	-10.566	16384	16416	0	1148
-21.457	-9.845	16384	16427	0	1148
-20.988	-10.097	16384	16427	0	1148
-24.053	-11.720	16384	16424	0	1148
-25.568	-7.789	16405	16431	0	1148
-24.450	-1.911	16405	16445	0	1148
-25.279	2.308	16405	16460	0	1148
-25.929	5.337	16437	16464	0	1148
-24.414	3.534	16437	16453	0	1148
-26.109	1.262	16405	16434	0	1148
-26.109	1.370	16384	16416	0	1148
-26.686	2.885	16384	16394	0	1148
-28.669	1.983	16384	16381	0	1148
-31.374	-2.741	16384	16366	0	1148
-30.004	-7.934	16384	16355	0	1148
-28.128	-13.668	16363	16344	0	1148
-29.066	-14.172	16363	16337	0	1148
-30.256	-14.100	16384	16334	0	1148
-34.367	-13.595	16384	16334	0	1148
-39.488	-14.533	16437	16394	0	1148
-40.678	-15.939	16599	16682	0	1148
-41.147	-16.372	16814	17144	0	1148
-39.308	-17.346	16975	17501	0	1148
-39.812	-15.975	17136	17646	0	1148
-42.914	-17.274	17211	17686	0	1148
-42.625	-16.336	17319	17668	0	1148
-40.750	-14.461	17373	17592	0	1148
-35.233	-11.251	17405	17468	0	1148
-29.535	-7.645	17427	17319	0	1148
-25.316	-6.852	17427	17148	1	1112
-29.210	-11.143	17405	16969	0	1112
-34.043	-15.471	17427	16791	0	1112
-40.137	-23.368	17405	16613	0	1112
-41.868	-23.549	17351	16431	0	1112
-36.928	-19.221	17297	16257	0	1112
-29.030	-12.333	17244	16090	0	1112
-20.519	-5.337	17211	15933	0	1112
-16.877	-3.065	17104	15788	0	1112
-16.841	-6.852	17104	15733	0	1112
-20.447	-9.412	17244	15922	0	1112
-22.503	-15.723	17373	16304	0	1112
-25.856	-15.975	17480	16595	0	1112
-28.273	-16.480	17588	16693	0	1112
-29.895	-17.310	17588	16704	0	1112
-29.318	-16.841	17642	16667	0	1112
-29.246	-19.185	17674	16591	0	1112
-27.551	-20.555	17642	16482	0	1112
-29.463	-23.801	17620	16352	0	1112
-30.653	-26.722	17534	16206	0	1112
-34.295	-33.177	17513	16061	0	1112
-38.334	-35.088	17459	15915	0	1112
-41.543	-38.622	17351	15784	0	1112
-42.734	-36.423	17297	15664	0	1112
-41.724	-32.925	17244	15558	0	1112
-36.062	-29.535	17136	15464	0	1112
-30.797	-25.099	17050	15384	0	1112
-25.784	-22.575	16975	15322	0	1112
-24.522	-19.762	16921	15282	0	1112
-20.231	-16.589	16835	15256	0	1112
-22.142	-15.651	16728	15249	0	1112
-22.070	-14.894	16674	15245	0	1112
-25.460	-16.408	16599	15249	0	1112
-26.650	-16.949	16491	15267	0	1112
-25.496	-15.074	16459	15296	0	1112
-17.923	-13.884	16384	15340	0	1112
-12.802	-9.160	16331	15391	0	1112
-10.963	-10.783	16277	15457	0	1112
-11.360	-12.045	16255	15537	0	1112
-17.634	-14.894	16169	15624	0	1112
-19.473	-17.129	16116	15711	0	1112
-23.008	-18.031	16094	15802	0	1112
-21.673	-16.444	16040	15890	0	1112
-22.142	-15.903	16008	15977	0	1112
-22.142	-12.189	15987	16053	0	1112
-21.781	-12.477	15954	16133	0	1112
-22.719	-11.973	15933	16210	0	1112
-25.893	-17.562	15954	16290	0	1112
-25.207	-18.969	15901	16359	0	1112
-25.135	-20.159	15879	16424	0	1112
-21.781	-17.346	15879	16482	0	1112
-17.851	-13.487	15879	16536	0	1112
-17.093	-10.422	15847	16591	0	1112
-16.805	-7.212	15879	16642	0	1112
-20.303	-9.412	15847	16682	0	1112
-20.555	-8.619	15847	16715	0	1112
-21.132	-10.963	15879	16744	0	1112
-20.014	-10.638	15847	16766	0	1112
-17.634	-11.071	15847	16784	0	1112
-17.418	-10.242	15879	16795	0	1112
-16.120	-6.924	15847	16802	0	1112
-16.264	-4.688	15847	16806	0	1112
-14.281	-1.226	15879	16813	0	1112
-12.261	2.236	15879	16813	0	1112
-11.648	2.885	15847	16813	0	1112
-12.874	0.505	15933	16820	0	1112
-13.235	-2.885	15901	16827	0	1112
-16.480	-4.219	15901	16827	0	1112
-14.389	-6.852	15933	16817	0	1112
-13.091	-8.799	15933	16802	0	1112
-12.514	-11.720	15933	16787	0	1112
-11.360	-14.317	15954	16777	0	1112
-12.802	-18.247	15954	16762	0	1112
-13.631	-16.516	15954	16744	0	1112
-10.674	-11.900	15954	16726	0	1112
-9.196	-5.409	15987	16711	0	1112
-7.357	-1.659	16008	16693	0	1112
-6.239	-0.974	16008	16667	0	1112
-8.439	-3.462	16008	16642	0	1112
-11.215	-5.157	16062	16616	0	1112
-12.694	-5.626	16040	16598	0	1112
-10.855	-1.479	16040	16580	0	1112
-8.943	0.000	16040	16555	0	1112
-8.150	0.108	16040	16536	0	1112
-7.357	-2.849	16062	16522	0	1112
-7.934	-5.878	16062	16511	0	1112
-10.602	-8.727	16062	16504	0	1112
-9.196	-7.717	16094	16504	0	1112
-7.321	-4.868	16148	16504	0	1112
-5.445	-3.606	16116	16496	0	1112
-5.734	-3.354	16116	16478	0	1112
-9.701	-8.006	16116	16460	0	1112
-14.281	-14.136	16116	16438	0	1112
-20.519	-16.913	16116	16424	0	1112
-24.378	-17.670	16148	16402	0	1112
-24.919	-17.706	16148	16384	0	1112
-24.089	-15.074	16148	16366	0	1112
-24.775	-12.153	16116	16352	0	1112
-22.431	-11.179	16116	16330	0	1112
-18.103	-6.311	16116	16304	0	1112
-13.920	-0.108	16148	16286	0	1112
-9.052	4.183	16116	16283	0	1112
-5.950	6.816	16116	16283	0	1112
-6.347	8.006	16116	16283	0	1112
-7.501	5.229	16116	16279	0	1112
-8.294	5.193	16094	16279	0	1112
-7.573	5.986	16116	16283	0	1112
-6.094	7.032	16116	16286	0	1112
-5.517	8.655	16116	16294	0	1112
-7.393	7.934	16116	16301	0	1112
-8.763	7.645	16094	16301	0	1112
-8.583	8.078	16148	16297	0	1112
-6.816	8.402	16116	16297	0	1112
-5.878	9.088	16116	16308	0	1112
-3.931	9.809	16116	16323	0	1112
-3.642	9.232	16116	16337	0	1112
-1.334	7.898	16116	16348	0	1112
2.308	6.455	16148	16363	0	1112
3.823	2.416	16148	16381	0	1112
1.551	1.370	16148	16394	0	1112
-4.327	-0.721	16148	16416	0	1112
-10.710	-2.849	16169	16438	0	1112
-10.746	-3.318	16169	16456	0	1112
-8.439	-4.868	16169	16467	0	1112
-2.524	-2.705	16255	16474	0	1112
2.849	-1.587	16223	16478	0	1112
3.787	-2.957	16223	16482	0	1112
-0.829	-7.465	16223	16485	0	1112
-10.133	-14.317	16223	16485	0	1112
-19.618	-22.070	16255	16485	0	1112
-25.171	-23.332	16255	16478	0	1112
-22.827	-21.060	16255	16464	0	1112
-14.245	-14.389	16255	16453	0	1112
-2.993	-7.068	16277	16442	0	1112
4.003	-1.767	16277	16442	0	1112
4.219	-0.865	16277	16445	0	1112
0.433	-1.587	16309	16449	0	1112
-4.688	-4.219	16309	16453	0	1112
-9.088	-6.708	16309	16449	0	1112
-11.468	-8.763	16309	16445	0	1112
-13.199	-10.927	16331	16438	0	1112
-11.540	-10.494	16331	16427	0	1112
-11.468	-11.071	16331	16409	0	1112
-8.763	-7.465	16309	16387	0	1112
-5.734	-4.111	16309	16366	0	1112
-4.652	-3.678	16309	16337	0	1112
-7.681	-2.921	16277	16301	0	1112
-9.340	-6.094	16255	16264	0	1112
-13.127	-8.655	16255	16239	0	1112
-13.127	-12.369	16223	16232	0	1112
-13.487	-13.523	16255	16235	0	1112
-11.468	-14.858	16277	16235	0	1112
-8.186	-13.127	16223	16232	0	1112
-6.780	-8.402	16223	16224	0	1112
-4.183	-3.823	16202	16221	0	1112
-3.101	-2.019	16202	16224	0	1112
-4.796	-2.019	16202	16246	0	1112
-8.475	-7.176	16202	16268	0	1112
-11.251	-11.251	16202	16286	0	1112
-12.730	-8.799	16223	16308	0	1112
-7.970	-7.104	16223	16334	0	1112
-4.111	0.072	16223	16355	0	1112
1.479	3.931	16223	16374	0	1112
4.868	3.895	16223	16384	0	1112
3.931	4.255	16223	16384	0	1112
1.587	2.236	16223	16391	0	1112
-0.721	1.875	16223	16398	0	1112
-3.029	1.334	16223	16405	0	1112
-4.400	-0.252	16202	16405	0	1112
-4.760	-1.803	16255	16409	0	1112
-1.875	-1.803	16223	16416	0	1112
-0.757	0.108	16223	16420	0	1112
3.173	2.092	16223	16427	0	1112
2.488	2.921	16255	16438	0	1112
-2.056	-2.200	16255	16453	0	1112
-7.321	-5.734	16255	16474	0	1112
-12.153	-9.196	16277	16496	0	1112
-12.658	-6.960	16277	16511	0	1112
-5.554	-1.659	16309	16515	0	1112
-1.226	5.662	16309	16525	0	1112
3.859	8.943	16331	16536	0	1112
2.056	6.960	16363	16547	0	1112
-1.551	2.885	16384	16555	0	1112
-3.354	-0.757	16384	16558	0	1112
-4.904	-2.164	16405	16562	0	1112
-1.659	2.236	16405	16569	0	1112
2.344	8.186	16437	16576	0	1112
4.940	12.081	16437	16584	0	1112
10.061	14.894	16459	16595	0	1112
11.215	13.199	16491	16598	0	1112
7.753	9.340	16491	16595	0	1112
2.272	4.724	16513	16580	0	1112
-5.085	2.380	16513	16555	0	1112
-10.350	1.479	16545	16529	0	1112
-12.261	2.092	16545	16496	0	1112
-10.530	1.947	16545	16464	0	1112
-9.088	-0.325	16545	16424	0	1112
-9.268	-2.272	16513	16384	0	1112
-5.445	-1.839	16545	16359	0	1112
-1.587	1.370	16513	16341	0	1112
2.596	6.996	16513	16323	0	1112
5.049	10.710	16491	16297	0	1112
2.344	9.845	16491	16275	0	1112
-4.255	8.402	16491	16264	0	1112
-9.304	4.075	16491	16257	0	1112
-13.704	1.947	16491	16257	0	1112
-12.225	3.895	16491	16257	0	1112
-5.337	10.206	16491	16253	0	1112
3.246	15.651	16491	16243	0	1112
11.287	22.142	16491	16228	0	1112
14.425	27.263	16459	16217	0	1112
13.956	27.624	16459	16206	0	1112
7.753	26.109	16437	16199	0	1112
2.128	23.981	16437	16188	0	1112
-3.354	18.175	16384	16181	0	1112
-7.248	16.625	16384	16181	0	1112
-5.517	16.661	16384	16192	0	1112
2.741	22.467	16363	16203	0	1112
13.127	29.246	16384	16206	0	1112
19.437	35.088	16363	16203	0	1112
19.618	34.583	16363	16195	0	1112
9.484	29.715	16331	16195	0	1112
2.272	24.125	16331	16199	0	1112
-1.839	20.375	16309	16213	0	1112
0.072	20.195	16309	16232	0	1112
5.085	22.935	16309	16250	0	1112
6.816	24.162	16277	16268	0	1112
4.436	20.339	16277	16290	0	1112
2.272	18.608	16277	16319	0	1112
-0.108	14.317	16277	16348	0	1112
-1.695	14.389	16277	16366	0	1112
-1.911	14.353	16277	16374	0	1112
-3.606	16.372	16277	16384	0	1112
-5.409	16.480	16277	16394	0	1112
-5.337	17.021	16277	16416	0	1112
-5.193	17.815	16277	16442	0	1112
-1.262	21.313	16277	16464	0	1112
-0.325	22.719	16331	16482	0	1112
0.902	23.368	16331	16500	0	1112
4.111	25.388	16331	16511	0	1112
4.147	24.775	16363	16511	0	1112
6.888	26.253	16331	16504	0	1112
4.039	26.794	16331	16489	0	1112
-2.596	24.883	16331	16482	0	1112
-7.429	18.716	16331	16482	0	1112
-12.838	14.172	16331	16485	0	1112
-13.595	8.583	16331	16493	0	1112
-10.746	5.734	16331	16493	0	1112
-8.186	4.760	16363	16493	0	1112
-8.150	8.691	16363	16496	0	1112
-7.934	9.268	16363	16504	0	1112
-6.058	11.504	16384	16518	0	1112
-6.347	12.261	16384	16533	0	1112
-4.652	13.559	16405	16533	0	1112
-7.212	10.927	16405	16525	0	1112
-13.163	8.222	16405	16522	0	1112
-19.221	6.347	16437	16522	0	1112
-24.053	3.173	16437	16518	0	1112
-24.919	2.236	16437	16507	0	1112
-18.680	7.429	16459	16489	0	1112
-15.182	11.071	16459	16467	0	1112
-10.530	13.379	16459	16442	0	1112
-7.934	12.946	16437	16424	0	1112
-8.294	11.360	16459	16409	0	1112
-10.169	7.717	16459	16398	0	1112
-10.783	2.921	16459	16387	0	1112
-16.264	-2.308	16437	16384	0	1112
-20.700	-5.770	16437	16377	0	1112
-24.775	-8.186	16437	16363	0	1112
-23.837	-8.835	16437	16337	0	1112
-22.142	-6.131	16405	16312	0	1112
-19.726	-3.642	16405	16304	0	1112
-15.795	-1.659	16405	16308	0	1112
-17.526	0.505	16405	16319	0	1112
-14.497	5.013	16437	16326	0	1112
-9.484	9.304	16437	16334	0	1112
-6.744	12.045	16437	16337	0	1112
-6.094	15.074	16437	16341	0	1112
-8.691	14.208	16437	16337	0	1112
-12.225	11.143	16405	16326	0	1112
-15.579	10.710	16405	16312	0	1112
-15.110	6.924	16405	16304	0	1112
-17.490	5.265	16405	16294	0	1112
-17.670	1.190	16405	16290	0	1112
-21.060	-3.534	16384	16297	0	1112
-20.087	-4.688	16384	16304	0	1112
-20.664	-4.544	16384	16304	0	1112
-18.283	-0.829	16384	16304	0	1112
-17.887	3.101	16384	16308	0	1112
-15.759	1.623	16384	16315	0	1112
-16.949	-3.859	16384	16319	0	1112
-16.336	-12.514	16363	16319	0	1112
-19.365	-18.644	16363	16315	0	1112
-18.031	-20.772	16363	16323	0	1112
-16.084	-18.608	16363	16341	0	1112
-12.081	-12.117	16363	16363	0	1112
-12.261	-8.619	16363	16377	0	1112
-11.937	-9.160	16363	16384	0	1112
-12.946	-9.520	16363	16391	0	1112
-15.326	-11.179	16384	16394	0	1112
-16.444	-13.018	16384	16398	0	1112
-17.526	-13.776	16363	16398	0	1112
-17.887	-11.468	16363	16391	0	1112
-15.435	-10.061	16363	16384	0	1112
-8.366	-5.914	16363	16384	0	1112
-1.154	-0.974	16363	16384	0	1112
0.938	1.154	16363	16384	0	1112
-1.911	0.793	16363	16387	0	1112
-6.203	-2.596	16363	16398	0	1112
-12.261	-5.337	16363	16409	0	1112
-16.300	-6.058	16363	16420	0	1112
-15.002	-6.203	16384	16431	0	1112
-14.172	-1.731	16384	16445	0	1112
-12.153	1.298	16384	16464	0	1112
-6.852	5.986	16405	16482	0	1112
-5.373	8.799	16405	16500	0	1112
-2.092	8.619	16437	16515	0	1112
-3.967	6.744	16437	16525	0	1112
-9.124	1.983	16459	16533	0	1112
-15.579	-2.669	16491	16540	0	1112
-25.748	-6.239	16491	16540	0	1112
-30.112	-8.871	16491	16525	0	1112
-28.201	-7.429	16491	16500	0	1112
-22.539	-2.813	16491	16467	0	1112
-14.966	3.895	16491	16431	0	1112
-14.497	7.717	16491	16402	0	1112
-19.473	5.337	16459	16374	0	1112
-24.847	0.902	16459	16341	0	1112
-25.820	-4.544	16437	16308	0	1112
-21.277	-4.760	16437	16275	0	1112
-15.471	-0.036	16384	16246	0	1112
-13.415	5.157	16384	16224	0	1112
-17.382	8.871	16363	16210	0	1112
-22.791	7.248	16331	16199	0	1112
-29.859	2.813	16363	16192	0	1112
-33.970	-2.849	16331	16192	0	1112
-34.980	-9.629	16331	16192	0	1112
-32.312	-8.835	16309	16195	0	1112
-26.758	-5.301	16309	16210	0	1112
-21.673	0.938	16309	16228	0	1112
-14.641	4.652	16309	16243	0	1112
-14.281	3.498	16277	16253	0	1112
-15.182	0.902	16277	16272	0	1112
-17.238	-1.479	16277	16290	0	1112
-21.601	-0.793	16277	16301	0	1112
-24.234	0.938	16255	16301	0	1112
-20.303	2.560	16255	16304	0	1112
-16.625	4.291	16255	16312	0	1112
-11.504	5.950	16223	16326	0	1112
-6.996	7.681	16223	16344	0	1112
-8.511	11.540	16277	16366	0	1112
-12.586	10.350	16255	16381	0	1112
-13.523	10.602	16255	16391	0	1112
-12.910	13.343	16255	16405	0	1112
-8.511	14.930	16255	16420	0	1112
-2.921	16.048	16255	16434	0	1112
-0.865	17.129	16255	16449	0	1112
-1.695	16.372	16255	16464	0	1112
-2.272	16.372	16277	16478	0	1112
-0.902	17.779	16277	16489	0	1112
-0.541	20.880	16277	16493	0	1112
-0.288	18.067	16277	16485	0	1112
-4.255	15.038	16309	16474	0	1112
-9.376	11.071	16309	16471	0	1112
-12.694	10.025	16309	16464	0	1112
-8.330	11.684	16277	16449	0	1112
-4.183	15.398	16277	16438	0	1112
1.731	20.195	16277	16431	0	1112
4.977	20.591	16277	16427	0	1112
6.708	21.204	16277	16420	0	1112
7.212	22.935	16277	16424	0	1112
6.996	22.322	16277	16434	0	1112
5.842	23.116	16277	16442	0	1112
2.200	18.860	16277	16445	0	1112
-2.019	18.392	16309	16449	0	1112
-2.560	16.228	16309	16456	0	1112
0.252	19.221	16309	16460	0	1112
3.534	21.818	16309	16464	0	1112
2.777	21.998	16363	16467	0	1112
0.757	18.356	16363	16464	0	1112
-2.705	14.172	16363	16456	0	1112
0.288	15.507	16363	16445	0	1112
6.311	21.132	16363	16442	0	1112
17.093	29.030	16384	16442	0	1112
17.202	33.177	16363	16449	0	1112
12.009	30.941	16384	16456	0	1112
0.252	21.385	16384	16460	0	1112
-7.248	11.107	16437	16536	0	1112
-11.143	4.760	16652	16831	0	1112
-7.934	5.734	16835	17282	0	1112
-3.101	9.124	17029	17617	0	1112
0.613	18.356	17190	17748	0	1112
3.101	21.024	17265	17774	0	1112
2.524	21.529	17405	17737	0	1112
0.902	21.745	17459	17650	0	1112
-2.560	19.293	17459	17519	0	1112
-6.419	21.926	17513	17355	0	1112
-8.006	23.621	17513	17177	1	1588
-7.357	24.847	17480	16980	0	1588
-4.327	26.758	17480	16780	0	1588
-0.865	24.811	17459	16584	0	1588
3.895	28.273	17405	16398	0	1588
6.419	28.633	17351	16217	0	1588
4.183	29.282	17319	16042	0	1588
-1.262	27.227	17211	15882	0	1588
-7.501	21.890	17190	15744	0	1588
-9.881	19.293	17136	15617	0	1588
-9.773	16.048	17050	15500	0	1588
-7.032	15.867	16943	15402	0	1588
-6.744	11.396	16921	15336	0	1588
-9.556	9.737	16835	15293	0	1588
-11.864	6.816	16781	15275	0	1588
-8.222	11.612	16728	15267	0	1588
0.072	21.241	16674	15275	0	1588
6.419	28.777	16620	15286	0	1588
7.862	31.338	16566	15311	0	1588
3.787	25.424	16513	15358	0	1588
-3.210	19.618	16491	15413	0	1588
-8.547	14.497	16437	15471	0	1588
-8.691	12.550	16405	15533	0	1588
-4.940	16.336	16363	15602	0	1588
-1.839	14.821	16331	15679	0	1588
1.406	16.985	16309	15751	0	1588
6.131	18.933	16277	15824	0	1588
11.612	24.198	16255	15897	0	1588
14.172	27.804	16223	15970	0	1588
15.471	30.148	16223	16046	0	1588
13.848	30.689	16202	16122	0	1588
10.891	30.905	16169	16199	0	1588
10.819	33.321	16202	16264	0	1588
13.740	38.947	16169	16319	0	1588
18.716	44.176	16169	16363	0	1588
24.594	46.268	16148	16409	0	1588
27.984	46.736	16148	16467	0	1588
28.850	42.301	16148	16522	0	1588
25.676	39.019	16148	16573	0	1588
19.329	35.197	16202	16616	0	1588
16.552	35.449	16169	16656	0	1588
15.723	37.036	16169	16689	0	1588
18.536	41.688	16169	16718	0	1588
23.224	42.625	16202	16736	0	1588
24.378	44.501	16202	16747	0	1588
20.159	39.019	16202	16744	0	1588
14.533	34.764	16202	16736	0	1588
9.665	31.626	16223	16733	0	1588
3.606	30.508	16223	16740	0	1588
2.993	30.689	16223	16747	0	1588
3.282	31.626	16223	16744	0	1588
2.777	29.643	16223	16729	0	1588
2.705	28.958	16223	16704	0	1588
2.993	27.299	16223	16671	0	1588
5.842	28.705	16223	16631	0	1588
12.333	31.807	16202	16591	0	1588
19.185	32.780	16255	16555	0	1588
23.657	32.672	16223	16529	0	1588
23.008	28.273	16202	16507	0	1588
19.978	25.424	16202	16489	0	1588
14.425	23.332	16202	16471	0	1588
11.540	28.994	16202	16453	0	1588
16.264	38.190	16169	16434	0	1588
21.024	49.044	16169	16416	0	1588
26.614	52.651	16202	16402	0	1588
29.499	54.165	16169	16391	0	1588
24.811	47.782	16169	16391	0	1588
19.870	43.671	16169	16391	0	1588
20.844	43.960	16169	16402	0	1588
27.804	51.461	16169	16416	0	1588
38.803	59.971	16202	16431	0	1588
44.176	66.823	16202	16453	0	1588
41.904	64.226	16277	16478	0	1588
31.446	58.637	16255	16496	0	1588
22.899	48.467	16255	16511	0	1588
20.014	46.232	16277	16515	0	1588
25.784	46.304	16277	16518	0	1588
32.744	49.874	16309	16518	0	1588
38.731	56.762	16309	16507	0	1588
40.930	57.194	16309	16485	0	1588
41.616	59.358	16309	16467	0	1588
39.957	59.142	16309	16449	0	1588
40.498	53.660	16277	16431	0	1588
39.740	51.929	16277	16409	0	1588
39.380	47.854	16277	16387	0	1588
39.849	49.910	16277	16374	0	1588
45.835	52.578	16309	16370	0	1588
50.307	59.971	16309	16366	0	1588
50.234	60.260	16309	16363	0	1588
48.539	59.286	16309	16355	0	1588
40.750	55.211	16309	16348	0	1588
36.711	48.828	16277	16341	0	1588
36.964	47.638	16277	16334	0	1588
38.839	45.258	16277	16334	0	1588
37.973	43.238	16277	16341	0	1588
35.882	40.065	16309	16355	0	1588
28.525	37.505	16309	16370	0	1588
25.929	34.728	16309	16384	0	1588
24.125	34.547	16309	16387	0	1588
26.866	34.547	16309	16391	0	1588
29.066	35.629	16309	16398	0	1588
34.043	35.629	16331	16394	0	1588
36.459	35.882	16331	16394	0	1588
36.026	35.918	16331	16398	0	1588
32.528	34.728	16363	16405	0	1588
26.073	32.744	16363	16416	0	1588
21.529	31.662	16363	16413	0	1588
16.048	28.164	16363	16409	0	1588
16.264	25.965	16363	16402	0	1588
13.307	22.539	16363	16398	0	1588
13.235	20.159	16363	16391	0	1588
12.297	16.661	16384	16384	0	1588
14.172	20.195	16384	16384	0	1588
22.539	25.352	16384	16391	0	1588
31.879	33.502	16384	16394	0	1588
35.954	39.019	16384	16394	0	1588
35.810	37.613	16384	16387	0	1588
29.318	31.951	16384	16384	0	1588
20.303	23.945	16384	16377	0	1588
16.661	22.683	16384	16381	0	1588
15.074	20.339	16384	16384	0	1588
15.795	22.358	16384	16394	0	1588
13.127	19.293	16405	16398	0	1588
11.576	18.824	16405	16398	0	1588
10.386	16.841	16405	16398	0	1588
11.396	19.041	16405	16394	0	1588
13.235	22.431	16405	16394	0	1588
15.507	24.847	16405	16402	0	1588
18.139	24.522	16437	16409	0	1588
19.473	24.883	16405	16416	0	1588
17.743	21.168	16405	16420	0	1588
15.975	18.933	16405	16420	0	1588
13.235	14.713	16437	16416	0	1588
13.271	14.281	16437	16409	0	1588
13.127	12.225	16437	16394	0	1588
17.166	14.425	16405	16384	0	1588
17.346	15.903	16405	16370	0	1588
15.507	16.372	16405	16355	0	1588
14.461	16.408	16405	16337	0	1588
11.756	14.100	16405	16319	0	1588
10.494	11.143	16384	16308	0	1588
6.527	7.898	16384	16304	0	1588
4.580	5.986	16384	16304	0	1588
3.354	4.255	16384	16301	0	1588
2.560	5.517	16384	16304	0	1588
3.426	4.832	16384	16304	0	1588
2.236	3.101	16363	16304	0	1588
0.721	-1.226	16363	16294	0	1588
-3.462	-4.940	16363	16283	0	1588
-6.383	-6.996	16331	16279	0	1588
-3.462	-8.402	16331	16286	0	1588
-1.587	-4.977	16331	16297	0	1588
3.173	-2.993	16331	16315	0	1588
5.986	-2.488	16331	16330	0	1588
3.823	-3.678	16331	16341	0	1588
3.859	-4.977	16363	16352	0	1588
3.137	-6.239	16363	16363	0	1588
3.931	-8.402	16363	16366	0	1588
2.741	-7.393	16363	16374	0	1588
-1.442	-8.727	16363	16384	0	1588
-3.678	-7.573	16363	16391	0	1588
-2.200	-4.868	16363	16398	0	1588
5.986	0.144	16384	16398	0	1588
13.992	5.229	16363	16402	0	1588
18.428	6.780	16363	16405	0	1588
17.887	5.301	16363	16409	0	1588
11.792	2.308	16363	16416	0	1588
7.248	-2.596	16363	16427	0	1588
4.580	-4.508	16384	16442	0	1588
4.652	-2.164	16384	16460	0	1588
10.278	1.911	16405	16482	0	1588
13.199	4.291	16405	16493	0	1588
16.336	5.662	16405	16493	0	1588
12.550	4.075	16405	16489	0	1588
9.376	1.947	16405	16485	0	1588
5.986	3.859	16437	16478	0	1588
5.049	6.311	16437	16471	0	1588
10.386	11.937	16437	16464	0	1588
12.982	13.163	16437	16449	0	1588
17.166	12.261	16405	16434	0	1588
15.507	11.540	16405	16420	0	1588
12.694	8.186	16405	16409	0	1588
10.891	8.547	16405	16398	0	1588
9.665	9.845	16405	16387	0	1588
15.651	14.497	16405	16384	0	1588
18.500	15.579	16405	16374	0	1588
21.421	16.372	16405	16359	0	1588
17.706	13.776	16384	16348	0	1588
14.641	10.278	16384	16334	0	1588
11.143	10.963	16384	16323	0	1588
13.127	12.225	16384	16312	0	1588
17.526	14.713	16363	16297	0	1588
18.175	18.933	16363	16290	0	1588
18.283	14.353	16363	16286	0	1588
10.133	10.494	16331	16275	0	1588
2.236	1.046	16331	16268	0	1588
-7.825	-7.068	16309	16264	0	1588
-14.208	-10.458	16331	16264	0	1588
-12.261	-10.963	16331	16272	0	1588
-8.042	-1.875	16331	16283	0	1588
-2.524	6.347	16363	16294	0	1588
-4.075	10.963	16331	16308	0	1588
-9.484	14.353	16331	16326	0	1588
-17.382	12.117	16331	16348	0	1588
-21.926	8.655	16331	16370	0	1588
-17.598	6.275	16331	16384	0	1588
-16.228	-0.036	16331	16394	0	1588
-17.887	-6.094	16331	16405	0	1588
-23.512	-12.514	16331	16413	0	1588
-26.578	-15.362	16331	16413	0	1588
-24.089	-10.133	16331	16409	0	1588
-17.202	-5.301	16331	16413	0	1588
-11.720	-0.829	16331	16424	0	1588
-11.251	-2.885	16331	16438	0	1588
-14.100	-5.950	16331	16442	0	1588
-13.740	-8.763	16331	16442	0	1588
-10.097	-7.825	16331	16434	0	1588
-4.364	-4.796	16331	16424	0	1588
-1.731	-3.282	16331	16416	0	1588
-3.570	-4.364	16331	16413	0	1588
-6.455	-3.570	16331	16409	0	1588
-7.357	-2.957	16331	16409	0	1588
-6.419	-0.577	16331	16413	0	1588
-0.865	2.056	16331	16416	0	1588
0.505	1.442	16331	16420	0	1588
-1.262	-3.282	16363	16424	0	1588
-6.888	-9.556	16384	16427	0	1588
-14.497	-15.110	16384	16438	0	1588
-17.670	-19.798	16384	16453	0	1588
-15.615	-16.084	16405	16467	0	1588
-4.724	-9.052	16405	16471	0	1588
5.626	0.144	16384	16471	0	1588
13.920	6.167	16384	16460	0	1588
12.910	6.888	16384	16438	0	1588
9.268	5.734	16384	16413	0	1588
2.957	2.092	16384	16391	0	1588
-1.659	1.767	16384	16384	0	1588
-1.190	4.291	16384	16377	0	1588
1.118	6.527	16384	16374	0	1588
5.626	11.612	16384	16377	0	1588
12.694	17.815	16384	16381	0	1588
22.214	23.008	16384	16384	0	1588
32.997	28.633	16384	16384	0	1588
40.173	31.987	16384	16384	0	1588
42.625	33.898	16384	16381	0	1588
43.671	36.351	16384	16374	0	1588
42.842	38.947	16384	16366	0	1588
40.930	41.219	16384	16363	0	1588
42.553	43.347	16384	16359	0	1588
42.986	44.681	16384	16359	0	1588
41.832	45.150	16384	16359	0	1588
39.632	45.258	16384	16363	0	1588
37.505	42.084	16384	16366	0	1588
35.124	39.091	16384	16363	0	1588
35.521	36.351	16384	16355	0	1588
35.160	35.377	16384	16348	0	1588
36.891	38.154	16384	16348	0	1588
36.278	40.822	16384	16359	0	1588
37.000	42.914	16384	16366	0	1588
37.324	42.157	16363	16363	0	1588
41.616	40.714	16384	16352	0	1588
44.356	37.252	16384	16337	0	1588
46.376	35.305	16384	16330	0	1588
46.556	32.853	16384	16330	0	1588
46.087	31.266	16363	16334	0	1588
46.772	34.836	16363	16337	0	1588
53.841	40.606	16363	16334	0	1588
57.230	47.854	16363	16337	0	1588
59.394	52.903	16363	16337	0	1588
57.339	54.959	16363	16341	0	1588
49.008	50.451	16363	16341	0	1588
42.409	46.989	16331	16341	0	1588
39.272	45.150	16331	16337	0	1588
38.839	42.589	16331	16337	0	1588
39.127	44.861	16331	16337	0	1588
40.534	44.717	16309	16341	0	1588
43.238	45.078	16309	16348	0	1588
44.068	47.205	16309	16352	0	1588
49.044	48.792	16309	16352	0	1588
49.585	47.313	16309	16348	0	1588
50.126	45.438	16277	16337	0	1588
47.818	41.688	16277	16323	0	1588
43.455	35.954	16255	16312	0	1588
41.183	34.547	16255	16312	0	1588
37.324	34.583	16255	16326	0	1588
34.980	34.656	16255	16344	0	1588
29.859	31.771	16277	16355	0	1588
24.775	26.974	16309	16374	0	1588
15.651	21.168	16277	16384	0	1588
11.287	14.569	16255	16387	0	1588
10.530	14.605	16255	16391	0	1588
11.432	16.120	16255	16402	0	1588
17.021	16.120	16255	16409	0	1588
17.562	18.247	16255	16420	0	1588
16.661	14.389	16255	16431	0	1588
13.307	13.740	16255	16438	0	1588
10.963	12.405	16255	16438	0	1588
12.225	15.759	16255	16431	0	1588
14.713	15.759	16277	16424	0	1588
14.858	12.622	16277	16413	0	1588
13.415	8.871	16277	16405	0	1588
3.750	-0.757	16277	16409	0	1588
-5.085	-6.094	16277	16420	0	1588
-7.465	-7.321	16277	16434	0	1588
-0.829	-1.911	16277	16453	0	1588
9.520	6.671	16309	16474	0	1588
16.084	14.785	16309	16489	0	1588
15.326	16.012	16309	16493	0	1588
5.950	12.586	16309	16485	0	1588
-3.642	4.796	16309	16474	0	1588
-7.176	1.010	16331	16471	0	1588
-4.544	2.344	16331	16467	0	1588
-0.108	8.799	16331	16460	0	1588
6.022	13.848	16331	16442	0	1588
10.783	21.241	16309	16424	0	1588
13.379	20.736	16309	16398	0	1588
15.002	19.582	16331	16381	0	1588
13.271	17.057	16331	16366	0	1588
10.278	13.812	16309	16363	0	1588
8.475	8.655	16331	16363	0	1588
5.517	9.088	16309	16363	0	1588
6.780	4.796	16309	16363	0	1588
6.924	5.373	16309	16366	0	1588
8.006	6.383	16309	16374	0	1588
5.986	7.898	16331	16387	0	1588
3.318	10.206	16331	16402	0	1588
-1.046	8.222	16331	16409	0	1588
-5.157	5.734	16331	16416	0	1588
-5.193	3.210	16331	16416	0	1588
-2.488	3.787	16405	16482	0	1588
5.301	7.285	16566	16766	0	1588
14.208	17.634	16781	17210	0	1588
18.680	23.116	16943	17537	0	1588
20.555	23.981	17082	17657	0	1588
17.598	22.431	17211	17675	0	1588
17.093	18.716	17265	17643	0	1588
16.913	20.411	17319	17555	0	1588
22.106	23.837	17351	17428	0	1588
23.404	27.804	17373	17268	0	1588
21.998	27.660	17351	17093	1	1356
18.175	24.883	17351	16908	0	1356
13.127	19.906	17351	16711	0	1356
13.668	20.772	17265	16515	0	1356
13.235	21.277	17244	16334	0	1356
14.894	23.585	17211	16159	0	1356
14.389	24.342	17136	15999	0	1356
10.278	19.906	17082	15860	0	1356
3.859	15.615	17029	15737	0	1356
-2.056	10.746	16975	15635	0	1356
-5.554	10.530	16889	15562	0	1356
-3.642	14.749	16867	15504	0	1356
-1.334	17.923	16781	15464	0	1356
3.462	20.159	16760	15442	0	1356
4.003	19.978	16706	15431	0	1356
4.544	16.372	16652	15427	0	1356
4.003	17.382	16599	15427	0	1356
9.412	18.860	16566	15435	0	1356
10.783	22.034	16513	15453	0	1356
12.081	22.070	16459	15478	0	1356
12.261	23.945	16405	15518	0	1356
10.242	20.952	16363	15566	0	1356
10.927	22.431	16331	15624	0	1356
13.307	25.424	16331	15693	0	1356
12.946	25.352	16309	15766	0	1356
11.432	26.470	16277	15839	0	1356
10.710	23.657	16255	15908	0	1356
8.619	22.683	16223	15973	0	1356
9.052	22.539	16202	16035	0	1356
9.665	25.207	16169	16097	0	1356
11.360	29.318	16169	16163	0	1356
10.819	30.364	16148	16232	0	1356
10.638	32.420	16148	16304	0	1356
10.169	32.744	16202	16374	0	1356
8.330	30.328	16169	16424	0	1356
5.626	28.201	16148	16467	0	1356
5.914	26.902	16148	16504	0	1356
4.868	26.289	16148	16544	0	1356
8.547	26.181	16148	16584	0	1356
13.091	27.696	16169	16620	0	1356
17.310	31.662	16169	16646	0	1356
22.178	34.367	16169	16664	0	1356
21.349	36.531	16169	16671	0	1356
18.969	37.865	16169	16675	0	1356
16.552	34.475	16169	16678	0	1356
17.057	32.456	16169	16678	0	1356
16.733	30.725	16169	16686	0	1356
19.401	31.158	16223	16689	0	1356
17.815	34.367	16202	16693	0	1356
17.887	35.016	16202	16689	0	1356
15.975	35.737	16202	16686	0	1356
16.841	37.324	16202	16675	0	1356
19.149	35.846	16202	16660	0	1356
21.457	35.665	16202	16642	0	1356
22.827	35.737	16202	16620	0	1356
21.349	35.846	16223	16587	0	1356
20.483	34.800	16223	16555	0	1356
16.552	33.826	16202	16525	0	1356
15.074	32.600	16202	16500	0	1356
12.946	28.345	16169	16474	0	1356
13.992	28.273	16169	16445	0	1356
15.398	28.201	16169	16427	0	1356
17.526	32.961	16148	16409	0	1356
21.493	36.891	16202	16398	0	1356
23.044	39.668	16169	16387	0	1356
19.365	38.118	16148	16384	0	1356
14.533	32.348	16148	16377	0	1356
7.321	26.433	16148	16370	0	1356
3.606	24.486	16148	16366	0	1356
2.596	26.433	16148	16366	0	1356
10.927	32.600	16148	16374	0	1356
19.401	40.101	16148	16384	0	1356
24.450	42.842	16148	16387	0	1356
27.768	42.734	16148	16394	0	1356
24.378	37.973	16148	16402	0	1356
20.916	33.970	16169	16424	0	1356
16.264	31.266	16223	16445	0	1356
15.795	32.059	16202	16456	0	1356
15.146	31.049	16202	16460	0	1356
17.310	35.449	16202	16460	0	1356
21.529	37.973	16223	16460	0	1356
26.902	39.740	16223	16460	0	1356
27.083	42.120	16223	16456	0	1356
24.594	41.039	16223	16456	0	1356
18.608	35.377	16255	16453	0	1356
11.360	30.292	16255	16449	0	1356
6.635	26.397	16255	16445	0	1356
2.885	20.050	16255	16438	0	1356
0.325	18.824	16255	16442	0	1356
-0.072	19.293	16277	16449	0	1356
2.596	20.988	16277	16464	0	1356
7.645	26.542	16277	16474	0	1356
13.668	30.292	16363	16555	0	1356
18.103	36.278	16545	16849	0	1356
17.959	36.603	16781	17311	0	1356
16.913	36.495	16975	17657	0	1356
13.992	34.403	17104	17795	0	1356
15.579	33.393	17211	17817	0	1356
17.490	34.620	17319	17785	0	1356
22.286	37.252	17405	17697	0	1356
23.080	37.541	17405	17566	0	1356
23.729	39.812	17459	17395	0	1356
20.267	37.505	17480	17199	1	408
19.690	36.783	17427	16991	0	408
21.024	36.567	17427	16777	0	408
20.411	37.108	17405	16569	0	408
22.611	37.108	17319	16374	0	408
18.247	36.711	17297	16184	0	408
16.697	38.803	17244	16002	0	408
12.766	37.144	17158	15831	0	408
10.855	35.665	17082	15686	0	408
7.825	35.846	17029	15558	0	408
7.212	35.810	16975	15453	0	408
3.354	34.692	16889	15373	0	408
2.777	33.862	16835	15315	0	408
0.649	30.761	16760	15278	0	408
-2.849	27.407	16728	15256	0	408
-2.344	26.542	16652	15242	0	408
0.865	28.741	16599	15242	0	408
7.176	34.151	16545	15256	0	408
15.795	40.462	16491	15286	0	408
18.500	41.760	16437	15326	0	408
18.572	41.507	16384	15369	0	408
14.749	38.658	16331	15417	0	408
14.425	36.639	16309	15482	0	408
14.028	36.567	16255	15548	0	408
13.379	35.160	16223	15620	0	408
12.982	34.403	16169	15697	0	408
7.501	31.410	16148	15770	0	408
4.688	28.850	16116	15846	0	408
3.534	28.994	16148	15922	0	408
7.393	30.797	16094	15999	0	408
12.009	33.538	16062	16079	0	408
16.192	38.118	16040	16155	0	408
20.988	41.147	16008	16228	0	408
20.123	42.986	16040	16301	0	408
19.726	41.940	16040	16370	0	408
15.398	38.695	16008	16434	0	408
16.661	36.423	16008	16489	0	408
14.677	35.701	16040	16533	0	408
17.634	37.144	16008	16565	0	408
21.024	39.632	16008	16591	0	408
25.748	41.616	15987	16605	0	408
27.371	40.029	15987	16620	0	408
24.270	35.810	15987	16635	0	408
20.447	34.908	15987	16653	0	408
16.552	30.761	15954	16667	0	408
13.018	33.357	16008	16678	0	408
13.776	34.331	15987	16689	0	408
17.382	33.574	15987	16700	0	408
13.920	31.987	15987	16711	0	408
12.441	27.660	16008	16722	0	408
8.114	25.748	16008	16736	0	408
7.032	25.676	16040	16751	0	408
6.960	27.876	16040	16766	0	408
12.514	31.915	16094	16766	0	408
13.668	34.403	16062	16758	0	408
12.009	33.610	16094	16747	0	408
8.439	31.951	16094	16740	0	408
2.524	28.561	16094	16736	0	408
0.865	26.722	16148	16736	0	408
2.993	24.125	16148	16729	0	408
5.157	26.397	16169	16718	0	408
5.770	27.191	16169	16700	0	408
1.479	26.578	16169	16678	0	408
-4.724	21.385	16169	16656	0	408
-12.550	12.225	16202	16631	0	408
-17.238	3.065	16255	16609	0	408
-16.841	-1.695	16223	16591	0	408
-9.809	3.390	16223	16573	0	408
1.551	14.425	16255	16551	0	408
10.386	25.712	16255	16536	0	408
12.658	30.112	16255	16522	0	408
9.845	28.417	16277	16507	0	408
7.104	24.378	16277	16496	0	408
7.537	25.135	16277	16489	0	408
15.110	33.429	16309	16482	0	408
23.909	41.724	16309	16474	0	408
24.847	47.241	16309	16467	0	408
20.880	45.727	16363	16449	0	408
18.139	38.839	16363	16434	0	408
13.740	37.613	16363	16420	0	408
14.605	39.235	16363	16416	0	408
15.867	43.094	16384	16405	0	408
16.300	44.176	16384	16391	0	408
17.310	43.599	16384	16381	0	408
14.064	37.901	16384	16366	0	408
11.576	35.269	16384	16348	0	408
6.131	29.463	16384	16330	0	408
1.839	27.443	16384	16323	0	408
-0.433	24.558	16384	16319	0	408
2.488	25.820	16384	16323	0	408
7.970	31.590	16384	16326	0	408
13.776	35.593	16405	16326	0	408
15.939	41.580	16405	16323	0	408
15.038	41.868	16405	16319	0	408
13.595	37.721	16405	16315	0	408
8.150	31.735	16405	16308	0	408
4.219	28.705	16384	16301	0	408
5.193	26.758	16363	16290	0	408
6.744	29.679	16384	16275	0	408
10.783	35.052	16384	16261	0	408
15.687	39.957	16384	16253	0	408
20.916	41.147	16384	16257	0	408
19.473	41.724	16363	16264	0	408
20.700	40.930	16363	16261	0	408
17.815	40.462	16363	16261	0	408
19.834	39.957	16363	16257	0	408
17.887	41.291	16331	16257	0	408
18.464	41.652	16331	16261	0	408
18.933	38.839	16331	16268	0	408
16.552	38.658	16331	16272	0	408
13.307	36.603	16309	16279	0	408
15.002	35.665	16309	16294	0	408
14.136	37.144	16309	16308	0	408
15.831	37.829	16309	16319	0	408
14.713	37.721	16309	16326	0	408
11.720	35.377	16309	16334	0	408
5.626	30.689	16309	16341	0	408
-2.200	25.496	16309	16352	0	408
-5.770	17.887	16309	16359	0	408
-6.311	17.490	16309	16374	0	408
-1.154	19.690	16309	16384	0	408
8.871	25.712	16309	16391	0	408
20.087	34.006	16309	16402	0	408
25.099	40.750	16309	16413	0	408
27.335	41.904	16309	16420	0	408
24.811	43.202	16331	16424	0	408
23.044	41.363	16331	16424	0	408
20.808	39.380	16331	16420	0	408
20.195	39.740	16363	16416	0	408
19.870	38.190	16331	16413	0	408
21.096	38.875	16331	16416	0	408
25.099	39.921	16331	16416	0	408
29.174	43.310	16331	16413	0	408
29.535	42.625	16309	16402	0	408
25.965	41.435	16309	16391	0	408
19.834	36.170	16309	16384	0	408
10.422	30.040	16309	16377	0	408
2.957	23.801	16277	16370	0	408
1.659	23.116	16277	16363	0	408
0.685	24.414	16277	16352	0	408
3.462	24.847	16255	16337	0	408
6.347	27.083	16255	16323	0	408
5.590	24.919	16255	16319	0	408
3.534	25.243	16223	16323	0	408
1.010	24.630	16255	16326	0	408
0.433	26.325	16255	16330	0	408
1.262	29.823	16255	16344	0	408
4.544	31.554	16255	16363	0	408
5.842	32.997	16255	16384	0	408
8.547	33.826	16255	16402	0	408
6.816	33.826	16255	16413	0	408
3.029	31.302	16255	16416	0	408
2.200	32.239	16255	16416	0	408
3.606	33.898	16255	16413	0	408
6.058	35.124	16255	16402	0	408
5.337	36.098	16255	16387	0	408
3.931	34.439	16277	16374	0	408
-1.551	29.823	16255	16359	0	408
-4.760	25.027	16223	16355	0	408
-5.878	24.270	16223	16359	0	408
-2.596	23.585	16223	16374	0	408
1.082	24.125	16223	16384	0	408
4.544	27.660	16223	16387	0	408
7.032	29.138	16223	16398	0	408
9.665	30.581	16223	16405	0	408
6.924	30.653	16255	16409	0	408
6.022	29.751	16255	16413	0	408
4.039	27.660	16255	16413	0	408
2.705	27.191	16255	16416	0	408
0.180	24.739	16255	16427	0	408
-1.803	24.270	16277	16442	0	408
-2.993	23.008	16277	16460	0	408
-3.642	21.204	16309	16485	0	408
-1.911	24.991	16309	16511	0	408
0.505	27.227	16331	16533	0	408
4.183	27.587	16331	16547	0	408
4.508	24.270	16363	16558	0	408
3.029	21.168	16384	16565	0	408
0.000	18.356	16384	16569	0	408
-3.967	14.461	16405	16562	0	408
-6.852	14.641	16405	16558	0	408
-7.068	14.533	16437	16555	0	408
-3.137	14.245	16437	16544	0	408
2.777	18.067	16437	16525	0	408
6.852	21.241	16437	16500	0	408
6.960	20.772	16437	16467	0	408
2.452	17.779	16437	16427	0	408
-5.517	12.189	16437	16391	0	408
-11.468	8.150	16437	16370	0	408
-12.946	9.016	16437	16355	0	408
-11.684	9.845	16437	16344	0	408
-10.566	12.297	16437	16334	0	408
-8.475	12.766	16405	16323	0	408
-4.472	16.877	16405	16312	0	408
-2.128	16.408	16405	16304	0	408
-0.829	18.536	16405	16290	0	408
-1.262	16.156	16405	16279	0	408
-6.094	14.641	16405	16272	0	408
-9.845	11.251	16384	16264	0	408
-10.494	11.251	16384	16261	0	408
-6.996	17.526	16384	16257	0	408
-4.652	21.313	16384	16261	0	408
-1.046	22.899	16384	16268	0	408
-4.436	21.637	16384	16279	0	408
-9.773	14.749	16384	16290	0	408
-12.405	9.520	16384	16304	0	408
-13.920	9.124	16384	16312	0	408
-8.294	12.658	16363	16315	0	408
-3.210	17.021	16363	16326	0	408
0.865	19.654	16384	16341	0	408
0.361	21.493	16384	16355	0	408
-1.479	18.608	16384	16363	0	408
-2.164	18.392	16384	16370	0	408
-3.931	13.631	16384	16384	0	408
-5.373	6.960	16384	16398	0	408
-6.924	1.479	16384	16413	0	408
-10.819	-2.813	16405	16424	0	408
-10.855	-3.101	16405	16434	0	408
-5.409	3.678	16405	16431	0	408
2.272	12.586	16405	16424	0	408
9.412	18.752	16405	16416	0	408
12.225	21.709	16405	16416	0	408
11.323	16.625	16405	16420	0	408
9.196	14.461	16405	16424	0	408
7.645	12.766	16405	16416	0	408
7.248	16.048	16405	16409	0	408
7.501	20.375	16405	16405	0	408
4.832	24.125	16405	16409	0	408
6.491	21.132	16405	16409	0	408
8.222	21.457	16405	16402	0	408
11.973	19.582	16405	16394	0	408
14.821	20.195	16405	16387	0	408
17.166	25.388	16405	16381	0	408
13.235	26.866	16405	16374	0	408
10.710	27.371	16384	16377	0	408
5.662	26.542	16384	16384	0	408
2.380	22.178	16384	16381	0	408
0.865	18.680	16384	16370	0	408
1.226	19.762	16384	16366	0	408
1.370	20.195	16384	16363	0	408
2.128	22.358	16384	16366	0	408
3.895	24.089	16384	16366	0	408
2.344	23.621	16384	16370	0	408
4.219	22.467	16384	16377	0	408
0.433	15.975	16384	16384	0	408
-2.849	13.884	16405	16398	0	408
-4.147	9.484	16405	16420	0	408
-4.940	12.694	16437	16438	0	408
-0.216	15.651	16437	16453	0	408
4.219	19.437	16437	16456	0	408
5.950	20.555	16459	16464	0	408
5.085	16.012	16459	16460	0	408
-1.875	12.261	16459	16445	0	408
-9.232	9.412	16459	16431	0	408
-15.254	6.058	16459	16424	0	408
-14.208	9.088	16459	16424	0	408
-7.321	14.245	16459	16420	0	408
-0.288	19.798	16459	16409	0	408
3.065	24.198	16459	16402	0	408
3.498	24.594	16459	16387	0	408
-2.849	17.743	16459	16374	0	408
-10.242	12.441	16459	16359	0	408
-13.631	7.212	16459	16344	0	408
-15.290	5.914	16437	16334	0	408
-16.985	5.734	16459	16334	0	408
-9.088	13.451	16459	16334	0	408
2.596	19.149	16437	16330	0	408
13.668	27.479	16405	16323	0	408
17.743	28.814	16405	16312	0	408
15.435	25.316	16405	16301	0	408
6.744	17.454	16384	16286	0	408
0.036	12.694	16384	16275	0	408
1.875	17.923	16363	16261	0	408
7.501	23.080	16363	16250	0	408
15.182	29.463	16331	16243	0	408
17.310	33.033	16331	16228	0	408
16.949	31.482	16331	16217	0	408
14.533	28.886	16309	16210	0	408
11.720	24.162	16331	16210	0	408
12.333	23.116	16277	16210	0	408
12.297	23.296	16277	16221	0	408
11.973	22.791	16255	16239	0	408
14.028	26.758	16255	16261	0	408
13.127	27.299	16255	16286	0	408
12.658	27.407	16255	16312	0	408
15.362	24.991	16255	16344	0	408
12.766	24.955	16255	16377	0	408
11.828	24.739	16277	16402	0	408
8.835	24.666	16277	16424	0	408
8.439	24.775	16277	16434	0	408
6.527	26.866	16309	16438	0	408
10.638	28.741	16309	16445	0	408
12.946	29.174	16309	16464	0	408
16.012	28.922	16309	16482	0	408
16.516	28.741	16309	16496	0	408
13.451	24.955	16309	16500	0	408
11.143	23.080	16309	16496	0	408
7.285	20.808	16309	16485	0	408
6.888	21.132	16309	16471	0	408
7.573	21.673	16309	16464	0	408
12.694	25.316	16309	16471	0	408
17.995	30.725	16309	16474	0	408
21.349	37.000	16309	16467	0	408
22.827	39.199	16309	16445	0	408
20.591	36.062	16309	16420	0	408
14.569	31.771	16277	16398	0	408
13.091	26.902	16277	16384	0	408
11.323	25.640	16277	16381	0	408
13.271	27.083	16277	16366	0	408
17.454	29.138	16309	16355	0	408
19.041	29.210	16277	16348	0	408
20.159	28.669	16277	16352	0	408
18.211	28.525	16277	16363	0	408
16.408	28.922	16277	16363	0	408
14.677	28.164	16255	16359	0	408
14.930	26.902	16255	16359	0	408
13.271	25.460	16255	16366	0	408
12.261	22.358	16255	16381	0	408
11.360	22.467	16255	16394	0	408
9.953	23.549	16277	16413	0	408
7.717	22.395	16277	16431	0	408
7.898	22.755	16309	16442	0	408
4.508	22.719	16309	16449	0	408
3.246	19.437	16309	16449	0	408
4.652	22.250	16309	16442	0	408
7.465	23.512	16309	16434	0	408
9.376	27.479	16309	16427	0	408
14.317	29.643	16309	16420	0	408
14.966	30.797	16309	16416	0	408
15.507	31.230	16309	16413	0	408
13.199	30.436	16309	16416	0	408
7.934	26.289	16331	16427	0	408
4.652	23.044	16331	16438	0	408
0.397	19.942	16331	16442	0	408
0.613	19.077	16331	16438	0	408
6.419	23.116	16331	16438	0	408
14.894	29.607	16363	16442	0	408
20.700	31.735	16363	16442	0	408
23.008	34.295	16363	16438	0	408
20.195	28.994	16363	16434	0	408
12.586	23.332	16363	16431	0	408
10.386	21.024	16363	16427	0	408
12.586	19.798	16384	16431	0	408
16.012	25.243	16384	16438	0	408
21.529	30.076	16384	16449	0	408
20.267	33.285	16405	16464	0	408
19.437	32.023	16405	16474	0	408
16.300	30.833	16437	16485	0	408
18.644	29.571	16437	16489	0	408
19.762	31.230	16459	16489	0	408
22.178	34.043	16459	16482	0	408
21.637	35.016	16459	16467	0	408
17.021	31.266	16459	16449	0	408
12.477	25.784	16459	16431	0	408
7.789	17.562	16459	16405	0	408
6.996	15.362	16491	16387	0	408
5.265	16.012	16491	16384	0	408
9.737	20.339	16491	16384	0	408
12.838	23.981	16491	16381	0	408
13.668	26.073	16491	16381	0	408
16.589	26.470	16513	16381	0	408
15.038	24.883	16491	16384	0	408
13.848	23.621	16491	16387	0	408
12.081	21.926	16491	16391	0	408
10.999	21.781	16513	16384	0	408
12.153	21.818	16513	16377	0	408
14.677	27.660	16513	16366	0	408
19.690	32.600	16513	16355	0	408
21.060	34.511	16513	16344	0	408
19.762	33.285	16513	16337	0	408
12.045	29.066	16513	16330	0	408
5.049	22.935	16491	16330	0	408
-0.505	17.995	16513	16330	0	408
-0.685	15.398	16491	16323	0	408
1.118	17.779	16459	16304	0	408
7.176	19.401	16459	16286	0	408
9.917	20.772	16459	16268	0	408
10.674	22.899	16437	16250	0	408
7.970	18.031	16437	16239	0	408
4.472	15.471	16437	16239	0	408
0.397	11.937	16405	16243	0	408
-2.164	9.809	16405	16253	0	408
-3.210	8.402	16405	16264	0	408
-5.301	7.862	16405	16279	0	408
-5.554	6.816	16405	16297	0	408
-6.131	8.222	16405	16312	0	408
-5.986	8.943	16405	16323	0	408
-4.544	9.881	16405	16326	0	408
-5.590	9.412	16405	16330	0	408
-7.537	7.898	16405	16337	0	408
-9.701	6.275	16405	16348	0	408
-11.360	7.212	16405	16359	0	408
-7.068	10.097	16405	16359	0	408
-3.137	15.326	16405	16363	0	408
2.777	21.277	16384	16370	0	408
7.140	21.637	16405	16381	0	408
6.960	22.467	16405	16384	0	408
5.842	22.214	16405	16391	0	408
5.950	20.519	16384	16391	0	408
5.698	21.673	16384	16384	0	408
4.652	20.988	16384	16374	0	408
6.852	22.106	16363	16359	0	408
7.465	22.539	16363	16344	0	408
7.862	21.709	16331	16323	0	408
6.599	20.591	16331	16301	0	408
3.534	18.320	16309	16283	0	408
0.433	17.959	16277	16268	0	408
1.334	18.392	16277	16253	0	408
5.301	22.575	16255	16250	0	408
12.550	27.263	16255	16261	0	408
14.858	28.273	16223	16275	0	408
13.956	29.030	16223	16290	0	408
9.484	25.460	16255	16304	0	408
3.137	23.981	16255	16315	0	408
0.252	18.500	16223	16323	0	408
0.685	19.510	16223	16334	0	408
6.491	23.224	16223	16348	0	408
11.035	28.237	16223	16374	0	408
17.887	32.600	16223	16402	0	408
17.851	34.295	16223	16431	0	408
14.172	29.463	16255	16464	0	408
8.366	24.306	16255	16485	0	408
1.983	17.743	16277	16496	0	408
-2.885	16.336	16277	16493	0	408
-2.380	16.949	16277	16485	0	408
1.875	22.719	16255	16474	0	408
9.160	28.092	16255	16464	0	408
16.084	32.997	16255	16453	0	408
17.166	33.429	16255	16449	0	408
12.658	28.201	16255	16442	0	408
3.101	21.024	16255	16438	0	408
-4.760	17.634	16255	16438	0	408
-6.167	15.543	16255	16449	0	408
0.072	16.913	16255	16460	0	408
10.746	21.457	16277	16474	0	408
21.204	26.289	16331	16493	0	408
27.732	26.974	16309	16507	0	408
27.551	27.768	16331	16515	0	408
22.034	24.558	16331	16525	0	408
19.149	20.952	16331	16533	0	408
13.018	16.120	16363	16533	0	408
8.222	14.785	16363	16522	0	408
1.983	12.369	16363	16504	0	408
-3.534	11.287	16363	16482	0	408
-4.400	13.812	16363	16467	0	408
0.144	15.435	16363	16460	0	408
8.583	17.743	16384	16456	0	408
13.523	15.867	16384	16460	0	408
13.776	11.323	16384	16467	0	408
10.422	7.645	16405	16478	0	408
3.246	3.823	16405	16482	0	408
0.649	6.347	16437	16474	0	408
1.587	11.864	16437	16460	0	408
6.167	20.700	16437	16442	0	408
9.448	25.784	16437	16413	0	408
13.379	25.893	16405	16384	0	408
8.366	22.611	16405	16366	0	408
1.731	13.523	16405	16355	0	408
-5.590	10.674	16405	16352	0	408
-10.963	9.088	16405	16344	0	408
-12.802	9.160	16384	16337	0	408
-12.009	11.360	16437	16337	0	408
-10.710	14.100	16437	16341	0	408
-9.268	14.461	16437	16341	0	408
-9.160	15.651	16437	16348	0	408
-13.054	13.631	16405	16352	0	408
-13.992	9.809	16405	16352	0	408
-18.247	9.088	16405	16344	0	408
-16.769	8.727	16405	16330	0	408
-13.884	11.215	16405	16323	0	408
-8.078	15.435	16405	16319	0	408
-2.200	17.562	16405	16319	0	408
2.596	22.431	16405	16323	0	408
0.577	21.060	16405	16323	0	408
-3.498	19.798	16405	16334	0	408
-9.881	12.982	16405	16355	0	408
-18.067	7.898	16405	16377	0	408
-16.697	4.652	16437	16391	0	408
-15.074	5.157	16437	16398	0	408
-10.097	10.314	16437	16398	0	408
-5.193	15.795	16437	16402	0	408
-3.714	20.123	16459	16413	0	408
-4.183	22.322	16459	16427	0	408
-9.016	17.526	16459	16434	0	408
-14.461	12.117	16459	16431	0	408
-19.005	5.590	16459	16420	0	408
-24.234	3.282	16459	16405	0	408
-24.991	5.698	16459	16391	0	408
-20.375	10.242	16459	16381	0	408
-17.093	18.392	16459	16377	0	408
-10.530	22.142	16459	16381	0	408
-8.655	24.378	16491	16384	0	408
-9.088	22.899	16491	16387	0	408
-13.343	18.428	16459	16384	0	408
-15.182	15.471	16459	16374	0	408
-15.290	14.533	16459	16363	0	408
-9.160	17.454	16459	16355	0	408
-6.167	21.060	16437	16348	0	408
-1.515	24.017	16437	16341	0	408
-3.390	21.673	16437	16326	0	408
-8.511	15.831	16437	16315	0	408
-16.949	8.655	16405	16304	0	408
-24.234	0.829	16405	16297	0	408
-24.450	-0.216	16405	16290	0	408
-18.680	3.101	16405	16286	0	408
-7.934	11.576	16384	16286	0	408
2.957	17.166	16384	16294	0	408
4.652	20.411	16384	16308	0	408
1.262	16.733	16384	16326	0	408
-6.816	14.389	16384	16341	0	408
-12.586	12.694	16384	16341	0	408
-13.018	14.208	16384	16330	0	408
-9.052	17.526	16363	16315	0	408
-8.655	15.651	16363	16304	0	408
-6.311	13.415	16363	16297	0	408
-7.537	8.763	16331	16301	0	408
-8.366	7.321	16331	16304	0	408
-6.599	5.590	16331	16304	0	408
-3.101	10.494	16309	16312	0	408
0.577	13.523	16309	16319	0	408
3.065	17.021	16309	16326	0	408
3.534	20.014	16309	16334	0	408
2.849	15.687	16309	16344	0	408
3.462	15.579	16309	16366	0	408
2.813	13.523	16331	16394	0	408
3.390	14.461	16331	16424	0	408
2.056	15.038	16363	16453	0	408
-0.252	16.444	16363	16478	0	408
-3.354	16.012	16384	16496	0	408
-4.760	12.982	16384	16511	0	408
-5.517	14.389	16384	16515	0	408
-7.393	11.540	16384	16511	0	408
-5.878	12.477	16384	16507	0	408
-4.760	15.362	16405	16504	0	408
-1.983	14.713	16405	16500	0	408
-1.587	14.821	16405	16493	0	408
-5.229	7.645	16405	16493	0	408
-10.350	0.721	16405	16489	0	408
-15.867	-5.229	16405	16478	0	408
-15.435	-5.554	16405	16456	0	408
-8.763	0.397	16405	16438	0	408
-3.246	8.475	16384	16427	0	408
0.180	12.333	16384	16413	0	408
-2.308	12.910	16384	16402	0	408
-8.583	7.357	16384	16394	0	408
-12.982	3.859	16384	16387	0	408
-14.785	2.560	16384	16384	0	408
-11.684	3.931	16384	16374	0	408
-8.366	8.907	16384	16374	0	408
-3.642	13.848	16384	16377	0	408
-0.216	18.103	16384	16377	0	408
