neuroNicle FX2
D3F25R12
Bluetooth SPP
2023년 11월 2일 목요일
오후 4:14
time interval = 4msec
EEG1	EEG2	PPG	sdPPG	pulse	peak_interval(msec)
-41.255	-113.668	16394	15251	0	608
-44.428	-109.340	16394	14718	0	608
-48.467	-107.032	16394	14385	0	608
-49.405	-104.111	16389	14184	0	608
-43.743	-104.400	16391	14051	0	608
-34.439	-106.419	16391	14051	0	608
-25.640	-108.366	16389	14184	0	608
-26.866	-111.973	16389	14585	0	608
-36.314	-113.343	16389	14918	0	608
-50.090	-114.677	16391	15251	0	608
-54.959	-108.222	16391	15651	0	608
-49.044	-94.987	16394	16184	0	608
-29.102	-80.887	16394	16384	0	608
-9.376	-69.023	16394	16251	0	608
4.472	-68.626	16394	15984	0	608
2.813	-79.697	16394	15851	0	608
-8.402	-91.706	16394	15718	0	608
-20.880	-99.928	16391	15518	0	608
-27.407	-96.033	16391	15184	0	608
-22.322	-82.834	16389	14851	0	608
-9.917	-72.629	16389	14451	0	608
-0.252	-66.426	16386	14118	0	608
5.193	-65.453	16386	13784	0	608
7.104	-63.433	16384	13651	0	608
7.970	-60.656	16384	13518	0	608
8.655	-59.719	16382	13384	0	608
7.357	-63.938	16382	13318	0	608
1.082	-73.350	16379	13318	0	608
-7.825	-83.664	16379	13451	0	608
-17.202	-86.152	16377	13584	0	608
-19.906	-78.940	16377	13984	0	608
-16.661	-69.564	16377	14451	0	608
-3.318	-58.961	16377	14984	0	608
16.877	-44.753	16377	15318	0	608
36.062	-36.387	16377	15651	0	608
51.641	-35.449	16377	16051	0	608
52.362	-44.753	16377	16384	0	608
43.887	-61.630	16377	16584	0	608
30.689	-76.884	16377	16850	0	608
22.431	-81.572	16377	17250	0	608
23.224	-72.521	16379	17784	0	608
30.869	-61.233	16379	18050	0	608
37.541	-56.040	16379	18050	0	608
37.432	-60.512	16379	18050	0	608
32.925	-68.301	16379	18050	0	608
29.859	-69.600	16382	18117	0	608
31.662	-62.532	16382	18250	0	608
39.488	-49.874	16382	18383	0	608
41.363	-43.707	16384	18517	0	608
31.699	-45.222	16384	18650	0	608
18.103	-56.076	16384	18650	0	608
10.566	-62.135	16384	18650	0	608
19.834	-60.151	16384	18584	0	608
38.406	-51.388	16384	18317	0	608
52.398	-41.616	16384	17850	0	608
51.352	-35.413	16384	17450	0	608
32.997	-37.324	16384	17117	0	608
15.543	-40.894	16384	16717	0	608
7.212	-40.606	16382	16384	0	608
9.304	-42.986	16382	16118	0	608
16.228	-46.989	16382	16051	0	608
15.110	-52.975	16382	16184	0	608
8.727	-60.981	16384	16184	0	608
-1.190	-65.813	16382	16118	0	608
-8.943	-66.354	16382	16051	0	608
-9.232	-65.921	16382	16251	0	608
-5.770	-64.371	16382	16450	0	608
-1.442	-63.613	16384	16650	0	608
1.118	-60.007	16384	16850	0	608
0.974	-56.798	16384	17250	0	608
-3.642	-59.034	16386	17584	0	608
-9.196	-65.669	16386	17784	0	608
-13.884	-75.802	16389	17917	0	608
-18.139	-82.474	16386	17917	0	608
-17.923	-81.680	16389	17784	0	608
-19.618	-74.071	16389	17584	0	608
-21.601	-68.554	16389	17450	0	608
-27.299	-65.813	16391	17450	0	608
-32.853	-72.413	16389	17450	0	608
-38.622	-83.952	16389	17383	0	608
-40.678	-94.014	16389	17317	0	608
-43.635	-101.046	16389	17184	0	608
-47.061	-106.058	16389	16984	0	608
-53.516	-108.727	16389	16650	0	608
-57.916	-111.828	16389	16384	0	608
-57.771	-110.206	16391	16384	0	608
-48.287	-102.705	16391	16650	0	608
-37.649	-91.237	16391	16717	0	608
-30.977	-82.294	16391	16717	0	608
-34.043	-86.801	16394	16784	0	608
-44.501	-97.656	16394	16984	0	608
-55.319	-109.484	16396	17050	0	608
-61.053	-113.235	16396	17117	0	608
-58.565	-111.179	16396	17117	0	608
-54.670	-110.206	16396	17117	0	608
-48.395	-111.107	16400	16984	0	608
-45.078	-113.812	16396	16784	0	608
-43.563	-108.871	16396	16517	0	608
-43.022	-97.656	16396	16184	0	608
-45.005	-89.001	16394	15651	0	608
-47.241	-87.270	16394	15118	0	608
-49.766	-94.014	16391	14385	0	608
-56.149	-100.577	16391	13718	0	608
-61.125	-102.200	16389	13184	0	608
-67.328	-101.515	16386	12785	0	608
-68.951	-100.000	16384	12518	0	608
-67.869	-104.255	16384	12318	0	608
-66.715	-112.225	16382	12051	0	608
-67.075	-118.103	16379	11984	0	608
-69.672	-116.625	16379	12184	0	608
-74.612	-113.848	16379	12785	0	608
-76.884	-110.891	16379	13584	0	608
-76.307	-109.412	16379	14318	0	608
-69.852	-108.439	16382	14984	0	608
-60.765	-104.147	16382	15718	0	608
-52.651	-93.437	16382	16384	0	608
-51.569	-82.510	16384	16850	0	608
-60.584	-78.651	16384	17184	0	608
-69.239	-82.077	16384	17450	0	608
-74.468	-92.715	16384	17850	0	608
-68.878	-95.456	16384	18050	0	608
-57.194	-96.177	16384	17984	0	608
-49.946	-91.453	16384	17650	0	608
-47.133	-85.828	16384	17317	0	608
-54.057	-87.883	16384	17050	0	608
-60.837	-88.749	16384	16850	0	608
-65.921	-91.453	16384	16850	0	608
-63.541	-88.208	16384	16984	0	608
-55.391	-83.411	16384	17117	0	608
-46.123	-76.668	16384	17050	0	608
-41.652	-70.213	16384	16984	0	608
-46.772	-68.085	16382	16717	0	608
-53.805	-72.376	16382	16450	0	608
-66.066	-78.399	16382	16251	0	608
-69.203	-86.296	16382	16184	0	608
-68.662	-92.355	16382	16251	0	608
-64.659	-93.797	16382	16318	0	608
-59.034	-96.141	16382	16384	0	608
-59.647	-101.803	16382	16318	0	608
-65.308	-105.121	16382	16384	0	608
-74.576	-107.357	16382	16584	0	608
-84.457	-107.068	16382	16784	0	608
-88.063	-104.364	16382	16717	0	608
-84.385	-104.472	16382	16717	0	608
-82.871	-106.383	16382	16784	0	608
-80.166	-109.232	16382	16650	0	608
-79.048	-106.996	16382	16450	0	608
-78.363	-102.344	16379	16384	0	608
-76.451	-99.062	16379	16184	0	608
-78.543	-102.813	16379	16051	0	608
-83.339	-111.432	16379	15984	0	608
-92.679	-119.834	16382	15918	0	608
-96.682	-121.385	16379	15784	0	608
-95.348	-118.716	16379	15584	0	608
-92.427	-114.208	16379	15451	0	608
-88.172	-113.704	16377	15318	0	608
-88.244	-118.969	16377	15385	0	608
-87.414	-125.424	16377	15584	0	608
-86.405	-128.489	16377	15718	0	608
-82.113	-127.948	16377	15784	0	608
-79.913	-120.303	16377	15918	0	608
-78.904	-106.311	16377	16318	0	608
-76.379	-90.948	16377	16717	0	608
-70.429	-77.822	16379	17184	0	608
-64.659	-77.425	16379	17650	0	608
-60.801	-82.474	16382	18117	0	608
-62.279	-91.525	16382	18517	0	608
-64.876	-100.036	16382	18650	0	608
-66.354	-103.714	16384	18784	0	608
-63.938	-104.652	16384	18917	0	608
-64.443	-106.852	16386	19050	0	608
-69.455	-108.042	16386	19184	0	608
-76.019	-106.671	16389	19250	0	608
-76.163	-105.085	16389	19184	0	608
-66.174	-104.940	16389	18917	0	608
-57.050	-107.609	16389	18517	0	608
-53.552	-111.612	16389	18050	0	608
-62.423	-112.081	16389	17584	1	724
-72.809	-110.566	16389	17117	0	724
-76.956	-106.131	16389	16650	0	724
-68.301	-103.931	16389	16051	0	724
-56.690	-106.022	16386	15318	0	724
-49.405	-108.655	16384	14718	0	724
-52.975	-103.426	16384	14318	0	724
-63.866	-93.112	16384	14051	0	724
-66.787	-80.274	16382	13784	0	724
-62.748	-68.518	16382	13584	0	724
-49.080	-64.299	16379	13518	0	724
-30.040	-62.640	16379	13584	0	724
-16.949	-61.053	16379	13918	0	724
-6.635	-57.519	16379	14451	0	724
-5.770	-56.401	16379	15051	0	724
-5.878	-54.634	16382	15584	0	724
-10.494	-58.457	16382	16251	0	724
-13.559	-58.961	16384	16917	0	724
-19.113	-56.329	16384	17450	0	724
-17.815	-52.074	16386	17784	0	724
-17.057	-45.078	16386	18050	0	724
-10.458	-40.245	16389	18383	0	724
-5.049	-38.118	16389	18650	0	724
-1.442	-38.334	16391	18650	0	724
-3.065	-36.964	16391	18517	0	724
-7.645	-31.302	16391	18250	0	724
-11.540	-24.594	16391	17917	0	724
-10.386	-14.605	16391	17517	0	724
-9.701	-11.179	16391	17117	0	724
-11.432	-15.074	16391	16650	0	724
-18.392	-20.303	16389	16251	0	724
-30.653	-26.506	16389	15718	0	724
-40.678	-27.083	16389	15385	0	724
-44.392	-21.998	16384	15251	0	724
-43.491	-19.546	16384	15184	0	724
-41.616	-19.726	16384	15118	0	724
-43.815	-21.277	16384	15184	0	724
-49.982	-26.361	16384	15385	0	724
-53.624	-31.338	16384	15718	0	724
-57.303	-36.278	16386	15851	0	724
-54.742	-44.356	16386	16051	0	724
-54.057	-53.805	16386	16384	0	724
-54.850	-61.089	16389	16850	0	724
-58.132	-65.308	16389	17383	0	724
-60.476	-63.181	16391	17717	0	724
-60.368	-58.529	16391	17917	0	724
-60.873	-54.165	16391	17984	0	724
-64.623	-57.014	16394	17917	0	724
-67.797	-63.505	16394	17784	0	724
-71.259	-69.564	16394	17584	0	724
-70.573	-66.751	16394	17117	0	724
-67.220	-60.873	16391	16450	0	724
-64.335	-56.401	16391	15851	0	724
-62.568	-58.853	16389	15184	0	724
-64.840	-70.790	16389	14651	0	724
-69.095	-83.159	16386	14251	0	724
-72.088	-93.545	16386	13851	0	724
-74.937	-94.699	16384	13451	0	724
-79.084	-92.607	16382	13118	0	724
-81.067	-92.932	16382	12918	0	724
-85.683	-91.057	16379	12918	0	724
-90.011	-97.367	16379	13184	0	724
-94.915	-104.688	16379	13718	0	724
-98.053	-110.314	16379	14318	0	724
-96.430	-110.278	16379	14784	0	724
-96.105	-106.383	16379	15184	0	724
-97.295	-102.488	16379	15518	0	724
-97.512	-103.065	16379	15918	0	724
-101.479	-109.340	16379	16251	0	724
-106.131	-118.644	16379	16450	0	724
-107.357	-124.378	16382	16850	0	724
-107.357	-127.083	16382	17517	0	724
-106.527	-125.027	16384	18183	0	724
-105.265	-120.916	16384	18584	0	724
-103.823	-119.437	16386	18850	0	724
-100.072	-120.447	16389	19384	0	724
-93.473	-118.392	16389	19917	0	724
-81.320	-111.937	16391	20250	0	724
-69.239	-98.125	16394	20317	0	724
-61.991	-80.382	16394	19983	0	724
-60.368	-67.075	16394	19517	0	724
-64.118	-65.020	16394	18917	0	724
-69.275	-72.052	16394	18250	0	724
-71.908	-80.743	16389	17584	1	332
-70.465	-87.991	16391	16917	0	332
-69.383	-91.634	16391	16384	0	332
-69.203	-96.069	16389	16118	0	332
-70.970	-101.370	16389	15918	0	332
-74.180	-104.400	16389	15784	0	332
-77.786	-103.823	16389	15718	0	332
-80.346	-98.810	16389	15784	0	332
-84.746	-95.204	16389	15984	0	332
-86.982	-96.538	16389	16118	0	332
-87.811	-100.757	16389	16118	0	332
-82.438	-104.796	16389	15851	0	332
-73.278	-99.387	16389	15651	0	332
-66.318	-92.066	16389	15718	0	332
-65.344	-85.719	16389	15918	0	332
-68.770	-80.418	16389	16051	0	332
-72.665	-80.995	16391	16318	0	332
-71.908	-77.389	16391	16517	0	332
-66.354	-73.170	16391	16784	0	332
-57.663	-68.482	16394	16917	0	332
-51.605	-67.220	16394	16984	0	332
-45.150	-70.609	16394	17050	0	332
-42.625	-74.576	16394	16984	0	332
-41.868	-77.028	16394	16850	0	332
-45.330	-78.182	16394	16517	0	332
-51.893	-82.438	16391	16251	0	332
-57.519	-88.316	16391	15918	0	332
-63.649	-90.083	16389	15584	0	332
-64.515	-87.378	16389	15318	0	332
-61.486	-73.999	16389	14984	0	332
-52.434	-61.197	16386	14718	0	332
-39.885	-54.129	16386	14385	0	332
-24.378	-51.749	16386	14051	0	332
-14.425	-52.218	16384	13984	0	332
-7.573	-47.674	16384	13918	0	332
-4.580	-41.399	16382	13851	0	332
-1.479	-34.223	16382	13784	0	332
5.013	-27.804	16382	13984	0	332
12.369	-23.440	16382	14451	0	332
17.851	-17.238	16382	14918	0	332
14.172	-19.762	16382	15318	0	332
-0.974	-30.436	16382	15718	0	332
-20.952	-46.268	16382	16184	0	332
-36.170	-60.837	16382	16318	0	332
-37.541	-61.955	16382	16251	0	332
-27.407	-55.031	16382	16184	0	332
-15.543	-52.146	16382	16251	0	332
-17.887	-58.168	16382	16318	0	332
-31.230	-78.182	16379	16251	0	332
-48.359	-97.692	16379	16118	0	332
-63.505	-110.097	16379	15918	0	332
-72.376	-114.569	16379	15718	0	332
-80.779	-119.113	16379	15451	0	332
-89.903	-128.056	16377	15318	0	332
-98.233	-138.695	16377	15184	0	332
-94.483	-141.039	16377	15118	0	332
-83.916	-131.230	16374	15051	0	332
-69.600	-120.591	16374	15118	0	332
-58.132	-113.091	16374	15318	0	332
-52.398	-113.271	16374	15651	0	332
-47.638	-111.973	16372	15918	0	332
-45.727	-102.705	16372	16118	0	332
-45.150	-87.198	16372	16384	0	332
-44.464	-76.560	16374	16850	0	332
-46.809	-77.786	16374	17117	0	332
-46.304	-86.873	16374	17383	0	332
-45.799	-95.384	16377	17784	0	332
-48.107	-102.308	16379	18450	0	332
-55.932	-108.835	16379	18984	0	332
-66.751	-116.156	16384	19184	0	332
-72.376	-122.467	16382	19184	0	332
-75.261	-125.929	16382	19050	0	332
-70.429	-119.798	16382	18917	0	332
-65.994	-113.127	16382	18784	0	332
-67.184	-110.206	16382	18517	0	332
-68.446	-113.848	16382	18183	0	332
-71.691	-120.772	16382	17850	0	332
-71.799	-126.073	16382	17517	0	332
-66.571	-118.608	16382	17184	0	332
-57.014	-105.770	16382	16784	0	332
-49.044	-86.549	16379	16517	0	332
-41.616	-76.235	16379	16318	0	332
-38.009	-74.252	16379	16118	0	332
-35.593	-79.589	16379	15851	0	332
-33.538	-85.395	16379	15651	0	332
-30.220	-87.667	16377	15451	0	332
-29.354	-83.448	16377	15184	0	332
-32.564	-80.923	16377	15118	0	332
-38.190	-80.058	16377	15251	0	332
-42.806	-81.572	16377	15518	0	332
-43.815	-85.864	16377	15718	0	332
-44.681	-89.867	16377	16051	0	332
-43.022	-90.119	16377	16384	0	332
-41.291	-83.592	16377	16650	0	332
-35.629	-71.655	16379	16850	0	332
-23.476	-57.663	16379	16984	0	332
-7.176	-44.428	16382	17117	0	332
10.963	-33.393	16382	17250	0	332
25.496	-25.820	16382	17383	0	332
33.538	-20.844	16382	17450	0	332
38.009	-14.461	16382	17317	0	332
41.183	-8.150	16382	17050	0	332
49.802	5.950	16382	16717	0	332
59.070	20.844	16382	16384	0	332
71.547	35.449	16382	16118	0	332
75.225	37.396	16379	15784	0	332
72.953	25.063	16379	15451	0	332
65.597	5.301	16379	15251	0	332
56.906	-13.235	16379	15451	0	332
44.320	-30.292	16379	15851	0	332
24.558	-41.507	16379	16118	0	332
-7.140	-63.361	16379	16318	0	332
-49.189	-97.404	16379	16450	0	332
-101.731	-144.609	16379	16650	0	332
-155.427	-198.954	16379	16717	0	332
-205.842	-249.441	16379	16584	0	332
-248.287	-289.614	16382	16650	0	332
-278.471	-322.539	16382	16850	0	332
-295.961	-349.044	16382	17117	0	332
-305.085	-373.603	16382	17383	0	332
-303.859	-388.821	16384	17850	0	332
-298.954	-388.316	16386	18317	0	332
-287.126	-369.492	16386	18584	0	332
-270.646	-338.334	16386	18450	0	332
-249.657	-300.325	16386	18183	0	332
-222.467	-266.318	16389	17917	0	332
-194.122	-237.865	16389	17650	0	332
-170.429	-215.074	16386	17250	0	332
-163.072	-206.203	16386	16717	0	332
-173.314	-214.028	16386	16318	0	332
-197.800	-235.377	16386	15918	0	332
-221.096	-267.761	16384	15518	0	332
-239.812	-292.391	16384	15184	0	332
-247.638	-310.927	16384	14984	0	332
-253.119	-314.677	16384	14918	0	332
-259.827	-312.153	16382	14718	0	332
-258.925	-303.498	16382	14451	0	332
-247.313	-286.224	16382	14318	0	332
-216.552	-256.653	16382	14451	0	332
-177.533	-220.736	16379	14651	0	332
-141.435	-185.070	16379	14784	0	332
-118.139	-156.834	16379	15051	0	332
-103.101	-137.577	16382	15518	0	332
-91.201	-127.768	16382	15784	0	332
-77.353	-118.500	16382	15918	0	332
-57.339	-108.835	16382	16118	0	332
-38.622	-96.105	16382	16384	0	332
-24.991	-80.346	16382	16517	0	332
-14.136	-62.568	16382	16584	0	332
-5.049	-46.051	16382	16517	0	332
-0.216	-35.016	16382	16384	0	332
1.406	-34.475	16379	16184	0	332
2.416	-38.695	16379	15918	0	332
4.147	-42.120	16379	15584	0	332
9.701	-41.904	16377	15184	0	332
13.235	-36.855	16374	14718	0	332
15.939	-31.518	16374	14318	0	332
10.963	-29.715	16374	13984	0	332
3.823	-27.876	16374	13784	0	332
0.938	-24.739	16372	13651	0	332
2.957	-18.103	16368	13651	0	332
12.946	-14.930	16368	13784	0	332
21.168	-10.674	16368	14251	0	332
31.735	-11.251	16368	14784	0	332
39.957	-5.517	16366	15184	0	332
45.510	2.777	16368	15584	0	332
47.566	8.547	16368	16251	0	332
44.645	5.914	16372	17050	0	332
42.409	3.282	16374	17717	0	332
41.507	1.046	16374	18317	0	332
45.582	8.979	16377	18917	0	332
56.690	25.784	16379	19517	0	332
72.557	47.962	16379	20050	0	332
92.355	68.049	16382	20250	0	332
113.451	81.933	16382	20183	0	332
127.984	91.345	16382	19917	0	332
133.429	90.804	16382	19450	0	332
131.735	89.542	16382	18917	0	332
124.775	87.703	16382	18450	1	712
124.306	92.824	16382	18050	0	712
124.125	99.856	16379	17517	0	712
127.876	100.865	16379	16917	0	712
129.174	98.449	16379	16450	0	712
126.253	88.677	16377	16118	0	712
124.270	82.041	16377	15851	0	712
122.683	83.916	16377	15651	0	712
127.876	90.480	16377	15385	0	712
134.331	99.784	16377	15385	0	712
136.603	100.252	16377	15518	0	712
132.023	96.358	16374	15651	0	712
124.053	88.388	16377	15584	0	712
115.723	88.496	16377	15718	0	712
116.552	93.329	16382	16318	0	712
121.637	101.370	16379	16917	0	712
127.551	106.635	16382	17250	0	712
127.948	105.986	16382	17383	0	712
129.282	100.865	16382	17584	0	712
130.905	100.288	16384	17650	0	712
137.036	104.977	16384	17584	0	712
148.503	115.903	16384	17450	0	712
156.617	128.850	16384	17317	0	712
-97.115	-92.571	16394	18650	0	516
-97.728	-92.211	16394	18850	0	516
-96.899	-93.112	16396	18850	0	516
-98.485	-97.187	16396	18584	0	516
-99.748	-102.308	16396	18183	0	516
-102.416	-104.472	16396	17784	0	516
-102.849	-104.147	16396	17383	0	516
-99.315	-100.793	16394	17050	0	516
-94.050	-96.863	16394	16584	0	516
-89.398	-92.247	16394	16118	0	516
-82.257	-90.191	16394	15584	0	516
-76.019	-84.746	16391	15118	0	516
-67.400	-80.238	16391	14784	0	516
-59.755	-73.242	16391	14651	0	516
-56.690	-69.528	16391	14718	0	516
-60.007	-70.393	16391	14918	0	516
-63.145	-70.790	16391	15118	0	516
-62.928	-73.206	16391	15118	0	516
-57.158	-71.295	16391	15051	0	516
-51.497	-67.724	16391	15051	0	516
-46.376	-65.921	16389	14984	0	516
-45.114	-66.138	16391	14918	0	516
-46.845	-64.587	16391	15051	0	516
-46.989	-60.909	16391	15251	0	516
-40.966	-48.467	16389	15451	0	516
-36.964	-36.242	16389	15451	0	516
-33.177	-29.931	16389	15451	0	516
-30.941	-32.167	16389	15451	0	516
-32.600	-42.229	16389	15451	0	516
-34.223	-53.588	16389	15451	0	516
-33.105	-55.788	16389	15518	0	516
-29.174	-52.218	16389	15584	0	516
-24.162	-43.743	16389	15584	1	316
-19.942	-38.045	16389	15584	0	316
-17.346	-36.855	16386	15451	0	316
-18.283	-41.832	16386	15385	0	316
-18.247	-45.691	16386	15251	0	316
-17.706	-47.169	16384	14984	0	316
-13.848	-43.743	16384	14718	0	316
-15.146	-39.849	16384	14518	0	316
-16.589	-37.144	16382	14585	0	316
-17.634	-36.639	16382	14718	0	316
-16.985	-34.728	16382	14784	0	316
-9.665	-32.492	16379	14784	0	316
-4.111	-31.843	16379	14851	0	316
-3.895	-37.721	16379	15051	0	316
-9.412	-46.664	16379	15385	0	316
-13.704	-53.768	16379	15718	0	316
-15.218	-56.004	16379	15984	0	316
-8.475	-46.232	16379	16251	0	316
1.515	-34.656	16379	16517	0	316
6.780	-24.775	16379	16984	0	316
5.914	-24.811	16382	17450	0	316
-0.433	-32.239	16382	17850	0	316
-6.744	-44.717	16382	18117	0	316
-6.671	-50.739	16382	18183	0	316
-1.659	-44.825	16386	18250	0	316
7.212	-30.148	16384	18183	0	316
14.858	-12.261	16384	17917	0	316
22.431	-4.327	16382	17584	0	316
27.587	-6.744	16384	17250	0	316
31.158	-14.245	16384	16850	0	316
33.754	-22.503	16384	16584	0	316
31.410	-18.608	16382	16384	0	316
31.302	-10.314	16382	16051	0	316
32.708	3.570	16382	15784	0	316
38.658	12.946	16379	15651	0	316
44.645	17.346	16382	15918	0	316
48.395	12.730	16382	16384	0	316
50.162	10.530	16382	16717	0	316
52.470	8.727	16384	16784	0	316
56.004	13.054	16382	16917	0	316
64.948	21.998	16384	17317	0	316
74.180	31.662	16384	17517	0	316
78.002	37.432	16384	17650	0	316
79.805	41.760	16386	17917	0	316
77.065	43.527	16384	18317	0	316
78.399	47.061	16389	18517	0	316
82.041	47.818	16389	18517	0	316
83.303	45.727	16389	18383	0	316
83.087	39.560	16389	18183	0	316
77.389	30.076	16389	17917	0	316
71.403	23.368	16386	17650	0	316
69.383	21.096	16386	17317	0	316
73.458	26.650	16386	16984	0	316
78.651	32.925	16386	16650	0	316
82.762	41.832	16386	16251	0	316
87.234	47.530	16386	15851	0	316
86.369	49.333	16384	15518	0	316
88.027	47.277	16384	15318	0	316
85.611	45.005	16384	15118	0	316
84.602	39.596	16384	14984	0	316
80.563	35.377	16382	14918	0	316
75.298	33.213	16382	15051	0	316
72.160	33.970	16382	15118	0	316
71.836	36.351	16382	15184	0	316
71.042	38.947	16382	15385	0	316
68.446	37.468	16382	15518	0	316
60.440	30.905	16382	15584	0	316
51.605	25.027	16382	15584	0	316
46.159	23.512	16384	15651	0	316
50.811	21.457	16384	15851	0	316
61.197	20.772	16384	16051	0	316
70.032	20.555	16384	16184	0	316
70.249	18.933	16386	16384	0	316
60.476	21.637	16384	16584	0	316
46.484	21.818	16384	16717	0	316
35.341	20.375	16384	16584	0	316
31.194	11.756	16384	16384	0	316
34.872	6.599	16382	16251	0	316
40.642	4.291	16384	15984	0	316
45.041	8.727	16384	15651	0	316
44.320	12.586	16382	15385	0	316
38.478	15.579	16382	15318	0	316
29.102	10.927	16382	15251	0	316
19.365	3.065	16379	15184	0	316
14.100	-5.301	16379	15051	0	316
11.937	-12.694	16382	15051	0	316
12.514	-13.127	16379	15051	0	316
14.100	-11.071	16377	15051	0	316
11.937	-11.468	16377	15184	0	316
4.183	-13.487	16377	15584	0	316
-4.075	-25.893	16379	16118	0	316
-17.382	-36.351	16379	16650	0	316
-28.273	-47.386	16379	17050	0	316
-35.629	-52.939	16382	17450	0	316
-34.223	-49.369	16382	17850	0	316
-31.446	-47.638	16382	18183	0	316
-25.388	-46.917	16384	18517	0	316
-26.794	-52.506	16386	18917	0	316
-30.833	-63.722	16386	19250	0	316
-38.911	-74.829	16386	19317	0	316
-44.176	-81.933	16389	19184	0	316
-49.225	-81.140	16389	18917	0	316
-52.218	-80.094	16389	18717	0	316
-58.565	-78.651	16389	18383	0	316
-59.574	-79.156	16389	17850	1	416
-58.204	-78.219	16386	17117	0	416
-53.660	-77.137	16386	16384	0	416
-49.657	-77.858	16386	15851	0	416
-47.746	-80.202	16384	15385	0	416
-50.415	-85.323	16382	14851	0	416
-53.696	-93.725	16382	14318	0	416
-61.702	-98.233	16379	13851	0	416
-70.069	-105.013	16379	13584	0	416
-79.048	-112.369	16377	13451	0	416
-85.142	-118.392	16377	13651	0	416
-80.274	-118.608	16377	13984	0	416
-71.475	-112.838	16377	14385	0	416
-62.892	-102.777	16377	14585	0	416
-53.805	-91.814	16377	14918	0	416
-54.886	-85.070	16377	15451	0	416
-53.588	-81.969	16377	16118	0	416
-54.850	-80.671	16379	16584	0	416
-50.775	-82.726	16379	17117	0	416
-47.999	-83.700	16382	17717	0	416
-42.157	-82.474	16382	18117	0	416
-34.331	-80.887	16382	18250	0	416
-26.614	-76.740	16384	18250	0	416
-18.320	-68.049	16384	18117	0	416
-9.052	-61.378	16384	18117	0	416
-4.075	-54.706	16384	18183	0	416
-2.488	-50.162	16386	18183	0	416
-4.724	-52.687	16386	18317	0	416
-9.809	-54.959	16386	18450	0	416
-13.343	-60.188	16389	18517	0	416
-16.733	-58.637	16389	18383	0	416
-16.156	-55.103	16389	18117	0	416
-16.697	-49.477	16389	17784	0	416
-15.254	-44.969	16389	17383	0	416
-18.716	-42.770	16389	17050	0	416
-16.661	-46.772	16389	16784	0	416
-20.159	-54.201	16389	16650	0	416
-20.772	-61.161	16389	16450	0	416
-22.142	-65.921	16389	16184	0	416
-20.736	-66.174	16389	15984	0	416
-18.933	-61.053	16389	15851	0	416
-15.110	-55.932	16389	15784	0	416
-12.369	-49.513	16389	15851	0	416
-10.891	-45.222	16389	16118	0	416
-14.713	-41.976	16391	16450	0	416
-17.706	-40.029	16391	16850	0	416
-19.077	-41.111	16389	16984	0	416
-20.087	-43.383	16394	17050	0	416
-19.113	-45.691	16394	17117	0	416
-19.257	-49.153	16396	17383	0	416
-26.650	-51.316	16394	17383	0	416
-32.276	-56.581	16394	17184	0	416
-37.108	-57.158	16394	16917	0	416
-36.495	-59.611	16394	16584	0	416
-33.213	-60.151	16394	16384	0	416
-28.489	-60.151	16394	16118	0	416
-26.650	-58.817	16394	15851	0	416
-27.083	-54.273	16394	15584	0	416
-25.532	-47.530	16391	15385	0	416
-21.385	-40.642	16391	15184	0	416
-18.572	-37.252	16391	15184	0	416
-13.523	-37.180	16391	15251	0	416
-15.398	-37.685	16391	15251	0	416
-17.815	-33.934	16391	15251	0	416
-23.332	-29.715	16391	15184	0	416
-29.607	-26.433	16389	15251	0	416
-32.636	-29.066	16389	15251	0	416
-33.249	-34.043	16389	15318	0	416
-29.318	-38.262	16389	15651	0	416
-26.001	-37.216	16389	15984	0	416
-28.489	-35.377	16391	16251	0	416
-38.154	-39.524	16391	16384	0	416
-53.877	-50.992	16391	16384	0	416
-64.190	-63.902	16391	16384	0	416
-69.455	-71.295	16391	16384	0	416
-69.167	-70.537	16391	16184	0	416
-68.987	-68.049	16391	15918	0	416
-73.819	-68.049	16389	15651	0	416
-79.012	-73.639	16389	15385	0	416
-81.789	-78.796	16389	15118	0	416
-80.274	-78.074	16386	14984	0	416
-75.334	-72.629	16386	14918	0	416
-72.413	-67.220	16386	14918	0	416
-70.862	-64.876	16386	14918	0	416
-70.862	-64.587	16384	14851	0	416
-71.042	-65.344	16384	14718	0	416
-69.203	-65.777	16382	14585	0	416
-66.174	-64.226	16382	14451	0	416
-64.443	-63.758	16379	14318	0	416
-65.417	-65.777	16379	14184	0	416
-66.534	-70.032	16377	14051	0	416
-70.862	-73.494	16377	13851	0	416
-71.114	-73.530	16374	13718	0	416
-68.193	-67.508	16374	13918	0	416
-65.200	-57.916	16374	14451	0	416
-65.128	-50.198	16374	14984	0	416
-67.869	-50.451	16374	15518	0	416
-71.799	-59.430	16374	16184	0	416
-69.347	-65.344	16374	16984	0	416
-61.161	-67.544	16377	17650	0	416
-51.965	-62.676	16379	18050	0	416
-46.376	-56.870	16379	18183	0	416
-51.461	-55.968	16379	18317	0	416
-59.358	-62.856	16379	18317	0	416
-66.823	-68.482	16382	18383	0	416
-65.525	-68.842	16382	18317	0	416
-60.476	-63.289	16382	18183	0	416
-51.569	-54.273	16382	18250	0	416
-48.936	-49.008	16382	18250	0	416
-47.999	-45.150	16382	18250	0	416
-50.847	-44.104	16382	18117	0	416
-46.953	-43.166	16382	17917	0	416
-44.248	-43.779	16382	17584	0	416
-41.796	-46.989	16382	17450	0	416
-45.150	-55.247	16382	17517	0	416
-51.713	-60.151	16382	17784	0	416
-55.644	-62.532	16384	17917	0	416
-56.293	-63.000	16384	17717	0	416
-53.444	-62.063	16384	17517	0	416
-49.802	-66.534	16384	17450	0	416
-50.811	-74.035	16384	17450	0	416
-46.628	-76.812	16384	17383	0	416
-38.298	-74.829	16384	17383	0	416
-31.554	-63.505	16384	17383	0	416
-29.138	-47.386	16384	17250	0	416
-35.269	-39.199	16384	17050	0	416
-44.717	-36.134	16384	16650	0	416
-47.890	-40.750	16384	16318	0	416
-42.842	-45.258	16384	15984	0	416
-29.859	-45.258	16384	15784	0	416
-19.257	-40.137	16382	15651	0	416
-16.228	-36.098	16382	15451	0	416
-24.450	-38.550	16382	15251	0	416
-34.259	-45.005	16382	15184	0	416
-43.383	-52.038	16382	15118	0	416
-46.736	-56.726	16379	14984	0	416
-43.563	-54.165	16379	14651	0	416
-39.091	-52.759	16377	14318	0	416
-37.108	-53.119	16377	14251	0	416
-36.242	-55.860	16377	14318	0	416
-33.934	-57.916	16374	14518	0	416
-29.859	-58.276	16374	14585	0	416
-28.345	-52.795	16374	14784	0	416
-29.859	-48.467	16374	15251	0	416
-32.780	-43.563	16377	15918	0	416
-36.964	-41.760	16379	16584	0	416
-38.983	-40.101	16382	17317	0	416
-37.901	-38.334	16384	18183	0	416
-34.475	-36.747	16386	18984	0	416
-28.633	-34.223	16386	19584	0	416
-21.385	-31.230	16389	19850	0	416
-14.461	-30.869	16391	19917	0	416
-14.317	-31.013	16389	19783	0	416
-19.906	-29.499	16389	19650	0	416
-27.912	-28.453	16391	19450	0	416
-32.095	-27.443	16391	19384	0	416
-27.804	-27.047	16394	19317	1	624
-18.283	-27.840	16394	18984	0	624
-8.366	-26.289	16394	18383	0	624
-0.974	-23.801	16394	17717	0	624
0.144	-23.837	16391	17117	0	624
-0.216	-25.352	16391	16650	0	624
0.793	-29.174	16391	16251	0	624
4.868	-30.256	16391	15918	0	624
12.910	-25.965	16391	15651	0	624
20.844	-16.516	16391	15518	0	624
28.020	-7.609	16391	15385	0	624
35.377	0.721	16391	15184	0	624
43.022	9.196	16391	15051	0	624
54.309	16.805	16391	15051	0	624
62.676	26.578	16389	15118	0	624
69.816	29.391	16389	15051	0	624
72.088	32.636	16389	15051	0	624
76.704	36.351	16389	15051	0	624
85.431	45.330	16389	15118	0	624
100.649	62.135	16386	15118	0	624
115.326	79.553	16386	15118	0	624
121.781	90.696	16386	15118	0	624
123.585	93.581	16386	15184	0	624
119.978	89.867	16386	15251	0	624
118.464	87.703	16386	15251	0	624
120.808	86.044	16386	15051	0	624
119.041	87.523	16386	14918	0	624
113.848	86.008	16384	14851	0	624
103.570	81.284	16384	14918	0	624
94.230	78.291	16384	14918	0	624
88.280	76.343	16384	14984	0	624
87.847	75.442	16382	14918	0	624
87.306	75.189	16382	14784	0	624
87.739	72.016	16379	14518	0	624
82.185	64.263	16379	14451	0	624
74.144	53.768	16379	14451	0	624
62.568	45.655	16377	14451	0	624
54.418	39.055	16377	14318	0	624
49.333	37.468	16374	14118	0	624
47.926	38.118	16372	13918	0	624
48.828	40.498	16374	13851	0	624
48.107	40.209	16372	13918	0	624
45.402	37.396	16372	14251	0	624
44.681	35.629	16372	14651	0	624
48.503	35.665	16372	14984	0	624
53.877	37.793	16372	15385	0	624
61.918	41.507	16372	15784	0	624
67.039	46.917	16368	16118	0	624
65.597	47.458	16368	16251	0	624
58.493	46.845	16368	16318	0	624
51.641	46.340	16368	16384	0	624
44.356	43.599	16374	16584	0	624
40.209	41.147	16372	16850	0	624
41.616	34.547	16372	17117	0	624
39.632	27.515	16372	17317	0	624
33.682	19.113	16368	17383	0	624
26.470	14.064	16368	17517	0	624
14.172	13.127	16368	17650	0	624
9.232	11.720	16368	17850	0	624
7.465	15.254	16372	17984	0	624
11.684	16.156	16372	18050	0	624
16.264	18.716	16374	18050	0	624
13.704	17.238	16374	18050	0	624
7.573	16.444	16374	18050	0	624
7.140	11.540	16374	17984	0	624
7.140	9.160	16374	17917	0	624
10.422	10.566	16374	17850	0	624
15.651	13.956	16374	17984	0	624
17.274	16.877	16374	18117	0	624
14.497	19.690	16374	18383	0	624
13.487	18.824	16377	18717	0	624
9.665	16.697	16377	19050	0	624
4.400	12.297	16379	19250	0	624
-1.731	7.104	16379	19250	0	624
-3.967	1.515	16382	19250	0	624
-5.698	-3.859	16382	19250	0	624
-7.176	-8.006	16382	19117	0	624
-10.602	-11.973	16384	18850	0	624
-19.113	-15.723	16384	18383	0	624
-31.374	-20.844	16384	17917	0	624
-43.202	-28.164	16384	17584	0	624
-51.497	-36.242	16384	17317	0	624
-59.935	-47.530	16384	17050	0	624
-66.751	-57.591	16384	16650	0	624
-70.609	-69.564	16382	16184	0	624
-73.927	-78.255	16382	15651	0	624
-75.298	-84.457	16382	15251	0	624
-75.766	-88.316	16382	15318	0	624
-78.507	-87.198	16382	15584	0	624
-84.061	-84.602	16382	15851	0	624
-86.224	-82.221	16382	16051	0	624
-86.441	-79.913	16384	16184	0	624
-81.140	-82.654	16384	16384	0	624
-79.913	-85.287	16384	16650	0	624
-79.409	-87.198	16386	16850	0	624
-79.228	-87.378	16386	16984	0	624
-76.956	-81.428	16386	17117	0	624
-72.449	-77.533	16389	17117	0	624
-69.888	-76.415	16389	17050	0	624
-71.583	-81.608	16389	16850	0	624
-77.209	-88.316	16389	16517	0	624
-81.284	-93.978	16389	16184	0	624
-80.599	-91.489	16386	15651	0	624
-74.793	-83.592	16386	15051	0	624
-72.160	-76.451	16384	14585	0	624
-71.114	-76.884	16384	14251	0	624
-76.776	-80.490	16384	14118	0	624
-83.375	-87.018	16382	13984	0	624
-86.369	-93.689	16382	13918	0	624
-89.867	-90.408	16379	13784	0	624
-86.837	-83.844	16379	13651	0	624
-84.313	-74.324	16379	13651	0	624
-79.553	-67.039	16379	13918	0	624
-75.514	-64.731	16379	14318	0	624
-74.865	-66.643	16379	14784	0	624
-75.478	-71.114	16379	15251	0	624
-78.796	-72.990	16382	15851	0	624
-78.615	-70.141	16382	16318	0	624
-77.533	-66.895	16384	16584	0	624
-78.471	-68.518	16384	16784	0	624
-82.690	-74.360	16384	17117	0	624
-90.732	-82.149	16386	17584	0	624
-98.918	-86.296	16386	17917	0	624
-97.548	-88.857	16386	17850	0	624
-93.942	-83.844	16384	17584	0	624
-89.831	-82.005	16384	17250	0	624
-88.100	-77.750	16382	16917	0	624
-91.850	-74.180	16384	16584	0	624
-92.247	-69.275	16384	16318	0	624
-90.876	-63.938	16384	16051	0	624
-82.907	-60.512	16382	15984	0	624
-76.884	-59.214	16382	15851	0	624
-74.360	-60.512	16382	15718	0	624
-72.521	-64.299	16382	15518	0	624
-72.521	-65.489	16379	15451	0	624
-68.157	-65.921	16382	15518	0	624
-59.394	-59.322	16379	15651	0	624
-48.720	-48.359	16379	15718	0	624
-42.986	-40.281	16379	15718	0	624
-42.265	-36.783	16379	15784	0	624
-49.910	-42.950	16379	15984	0	624
-60.188	-50.234	16379	16251	0	624
-68.842	-55.247	16379	16450	0	624
-72.737	-55.463	16379	16584	0	624
-73.567	-48.864	16379	16717	0	624
-72.665	-44.573	16379	16984	0	624
-72.052	-44.212	16382	17383	0	624
-72.737	-45.222	16382	17717	0	624
-74.107	-50.343	16384	18117	0	624
-75.514	-52.542	16384	18584	0	624
-74.612	-53.047	16386	19117	0	624
-72.881	-51.713	16389	19450	0	624
-69.600	-48.359	16389	19450	0	624
-65.777	-48.107	16389	19184	0	624
-63.072	-46.448	16389	18717	0	624
-63.866	-45.835	16389	18250	0	624
-63.722	-46.087	16389	17717	0	624
-62.171	-43.419	16389	17117	1	628
-58.529	-43.202	16386	16450	0	628
-52.903	-46.087	16386	15851	0	628
-46.520	-46.195	16386	15518	0	628
-43.383	-44.248	16384	15318	0	628
-40.930	-37.577	16384	15251	0	628
-37.396	-28.309	16384	15184	0	628
-34.367	-22.935	16384	15184	0	628
-31.771	-23.080	16384	15184	0	628
-31.662	-25.712	16384	15318	0	628
-33.502	-28.020	16384	15651	0	628
-34.728	-25.496	16386	16051	0	628
-32.600	-21.818	16386	16384	0	628
-30.725	-23.188	16386	16584	0	628
-33.033	-32.348	16386	16850	0	628
-34.115	-43.130	16389	16850	0	628
-35.629	-45.907	16389	16717	0	628
-36.170	-41.904	16389	16650	0	628
-29.246	-33.213	16389	16784	0	628
-22.935	-26.650	16386	16784	0	628
-20.808	-25.424	16386	16650	0	628
-15.290	-28.201	16386	16384	0	628
-12.982	-29.463	16386	16184	0	628
-10.097	-27.551	16386	15918	0	628
-10.530	-28.381	16384	15651	0	628
-11.323	-30.508	16384	15318	0	628
-12.117	-32.023	16384	15051	0	628
-9.953	-31.807	16382	14918	0	628
-5.554	-28.777	16382	14918	0	628
-1.911	-26.794	16382	14984	0	628
-1.803	-22.972	16382	14984	0	628
-7.285	-23.476	16382	14918	0	628
-14.245	-27.083	16379	14851	0	628
-23.080	-31.302	16382	14784	0	628
-28.056	-36.675	16382	14718	0	628
-30.004	-38.947	16379	14651	0	628
-29.643	-39.308	16379	14784	0	628
-23.296	-36.531	16382	14918	0	628
-19.546	-34.223	16379	15118	0	628
-17.129	-35.233	16379	15584	0	628
-19.582	-40.714	16379	16118	0	628
-26.938	-47.530	16382	16517	0	628
-36.855	-52.578	16382	16984	0	628
-42.770	-56.113	16382	17450	0	628
-43.094	-52.795	16384	17917	0	628
-40.065	-50.126	16384	18117	0	628
-37.577	-45.366	16384	18250	0	628
-33.574	-41.471	16386	18517	0	628
-32.600	-36.242	16386	18784	0	628
-27.804	-31.987	16389	19050	0	628
-26.397	-34.259	16389	19184	0	628
-30.292	-43.815	16389	19117	0	628
-38.875	-55.932	16389	18784	0	628
-47.169	-63.325	16389	18250	0	628
-47.530	-57.339	16389	17717	0	628
-42.012	-42.770	16389	17250	0	628
-34.728	-27.227	16389	16784	0	628
-32.276	-22.972	16386	16384	0	628
-36.170	-28.309	16386	16318	0	628
-41.904	-38.298	16386	16384	0	628
-47.241	-45.005	16386	16717	0	628
-46.268	-47.097	16389	16917	0	628
-43.599	-46.917	16389	17050	0	628
-38.406	-47.205	16389	17184	0	628
-32.420	-50.451	16391	17317	0	628
-28.128	-47.566	16391	17184	0	628
-26.361	-40.498	16391	16984	0	628
-25.352	-32.708	16391	16784	0	628
-28.561	-27.696	16391	16984	0	628
-32.167	-30.833	16394	17250	0	628
-36.711	-41.868	16394	17383	0	628
-37.252	-49.549	16394	17317	0	628
-34.367	-51.280	16396	17117	0	628
-30.148	-43.455	16396	16784	0	628
-28.958	-38.082	16394	16384	0	628
-32.492	-36.928	16394	16118	0	628
-35.341	-44.320	16394	15784	0	628
-36.278	-52.362	16391	15385	0	628
-31.590	-52.578	16391	14984	0	628
-24.847	-49.044	16389	14585	0	628
-21.024	-44.753	16389	14251	0	628
-21.709	-43.924	16386	13918	0	628
-23.440	-49.838	16386	13651	0	628
-24.991	-52.470	16386	13651	0	628
-22.899	-53.480	16386	13918	0	628
-19.005	-47.926	16384	14184	0	628
-17.490	-46.123	16384	14385	0	628
-15.074	-40.930	16384	14518	0	628
-16.048	-40.209	16384	14851	0	628
-15.975	-39.127	16386	15318	0	628
-18.283	-40.570	16386	15651	0	628
-19.113	-42.048	16386	15718	0	628
-21.349	-43.996	16386	15984	0	628
-20.014	-42.301	16386	16384	0	628
-19.654	-37.252	16386	16717	0	628
-16.516	-31.446	16386	16917	0	628
-19.401	-29.751	16389	17250	0	628
-21.529	-32.672	16389	17650	0	628
-22.719	-36.819	16391	17850	0	628
-23.404	-37.000	16391	17784	0	628
-19.510	-31.410	16391	17650	0	628
-19.834	-23.549	16391	17317	0	628
-20.591	-21.277	16389	16850	0	628
-24.270	-28.201	16389	16384	0	628
-26.722	-36.459	16386	15851	0	628
-28.092	-41.976	16386	15318	0	628
-27.479	-39.740	16384	14784	0	628
-24.630	-30.941	16382	14385	0	628
-22.070	-23.224	16382	14051	0	628
-16.192	-22.322	16379	13718	0	628
-15.074	-22.863	16377	13384	0	628
-14.172	-27.479	16374	12985	0	628
-19.618	-30.977	16374	12718	0	628
-24.089	-32.600	16372	12918	0	628
-30.328	-33.285	16372	13518	0	628
-29.391	-31.302	16372	14184	0	628
-24.162	-28.777	16372	14784	0	628
-16.012	-26.145	16372	15518	0	628
-10.746	-25.965	16374	16384	0	628
-10.278	-31.626	16374	16984	0	628
-14.677	-36.459	16379	17584	0	628
-23.873	-45.222	16379	18383	0	628
-29.787	-51.893	16382	19184	0	628
-31.410	-53.696	16384	19650	0	628
-29.391	-54.021	16384	19917	0	628
-27.191	-46.917	16386	19917	0	628
-24.522	-39.993	16386	19783	0	628
-25.027	-35.088	16386	19450	0	628
-26.902	-36.531	16386	18984	0	628
-28.525	-41.652	16384	18450	0	628
-27.263	-46.772	16384	17984	1	520
-28.201	-47.602	16384	17584	0	520
-27.047	-46.015	16384	17250	0	520
-28.237	-43.130	16384	17050	0	520
-30.040	-40.245	16384	16850	0	520
-28.345	-39.596	16384	16650	0	520
-24.306	-38.731	16384	16517	0	520
-18.716	-39.849	16384	16384	0	520
-17.346	-38.406	16384	16450	0	520
-19.005	-38.911	16384	16717	0	520
-25.748	-37.180	16384	16850	0	520
-31.662	-37.468	16384	16984	0	520
-31.122	-39.380	16386	17117	0	520
-29.102	-41.327	16386	17383	0	520
-30.256	-42.265	16389	17717	0	520
-35.160	-38.947	16386	18050	0	520
-40.173	-38.082	16389	18317	0	520
-43.130	-41.183	16389	18450	0	520
-41.904	-47.638	16391	18450	0	520
-40.534	-54.309	16391	18317	0	520
-41.940	-59.755	16391	18050	0	520
-45.871	-61.125	16391	17517	0	520
-46.268	-56.437	16391	16850	0	520
-42.770	-54.526	16391	16318	0	520
-37.432	-50.775	16389	15718	0	520
-32.780	-51.929	16389	15118	0	520
-32.564	-52.614	16386	14585	0	520
-32.925	-55.824	16384	13984	0	520
-33.105	-53.480	16384	13451	0	520
-31.915	-48.395	16382	13051	0	520
-27.010	-41.363	16382	12918	0	520
-25.929	-36.928	16379	13051	0	520
-26.145	-34.692	16379	13184	0	520
-28.633	-35.737	16379	13384	0	520
-29.643	-37.505	16377	13518	0	520
-28.309	-37.865	16377	13651	0	520
-26.578	-37.505	16377	13918	0	520
-27.119	-40.101	16377	14385	0	520
-33.934	-47.061	16377	14851	0	520
-42.517	-54.021	16377	15251	0	520
-45.871	-60.043	16377	15651	0	520
-40.209	-56.545	16382	16251	0	520
-34.079	-50.667	16382	16850	0	520
-27.912	-42.157	16382	17250	0	520
-29.787	-37.036	16382	17383	0	520
-34.006	-38.911	16382	17450	0	520
-38.911	-40.678	16382	17383	0	520
-39.199	-42.445	16382	17317	0	520
-36.675	-44.176	16382	17250	0	520
-32.420	-40.894	16382	17250	0	520
-28.345	-36.928	16382	17184	0	520
-25.568	-33.466	16382	17050	0	520
-21.421	-30.148	16382	17050	0	520
-20.303	-29.354	16382	17050	0	520
-20.267	-32.708	16382	17184	0	520
-19.185	-36.314	16382	17184	0	520
-22.142	-40.750	16382	16984	0	520
-22.755	-42.120	16382	16717	0	520
-26.506	-40.245	16382	16384	0	520
-27.227	-39.452	16379	16184	0	520
-30.545	-36.639	16379	15851	0	520
-31.843	-40.750	16379	15584	0	520
-38.226	-48.539	16377	15518	0	520
-42.265	-54.634	16377	15584	0	520
-46.772	-59.214	16377	15651	0	520
-47.025	-57.050	16377	15651	0	520
-42.914	-50.018	16377	15784	0	520
-41.796	-45.691	16377	16051	0	520
-41.543	-42.517	16377	16318	0	520
-45.979	-47.169	16377	16517	0	520
-48.215	-48.431	16377	16584	0	520
-48.395	-47.602	16377	16784	0	520
-43.130	-41.147	16377	16917	0	520
-36.964	-33.646	16379	16917	0	520
-32.564	-32.853	16379	16784	0	520
-31.951	-36.891	16379	16584	0	520
-31.158	-40.570	16382	16384	0	520
-29.679	-42.986	16377	15984	0	520
-28.309	-38.550	16377	15584	0	520
-28.273	-37.721	16374	15385	0	520
-26.217	-37.577	16374	15251	0	520
-27.299	-41.976	16374	15251	0	520
-24.883	-45.222	16374	15385	0	520
-24.162	-41.435	16374	15584	0	520
-20.844	-39.308	16372	15784	0	520
-24.234	-37.721	16372	15918	0	520
-25.460	-41.760	16372	16118	0	520
-25.135	-43.960	16374	16450	0	520
-26.506	-47.458	16374	17117	0	520
-29.499	-46.953	16379	17650	0	520
-33.069	-48.071	16379	17984	0	520
-37.901	-49.225	16382	18383	0	520
-35.918	-44.897	16382	18850	0	520
-31.807	-40.606	16384	19250	0	520
-23.152	-31.699	16384	19450	0	520
-20.772	-27.371	16386	19517	0	520
-21.854	-26.650	16386	19450	0	520
-23.621	-30.833	16386	19250	0	520
-26.902	-33.321	16386	18917	0	520
-27.551	-32.312	16389	18584	0	520
-25.316	-28.814	16389	18317	1	400
-23.044	-24.775	16386	18050	0	400
-21.673	-21.132	16386	17717	0	400
-21.024	-21.673	16386	17383	0	400
-23.837	-26.145	16386	17050	0	400
-26.397	-30.833	16386	16717	0	400
-32.348	-33.682	16386	16384	0	400
-33.393	-33.393	16386	16318	0	400
-36.098	-32.384	16386	16184	0	400
-38.478	-31.626	16386	15984	0	400
-43.310	-31.230	16386	15718	0	400
-47.349	-29.823	16386	15584	0	400
-49.946	-27.299	16386	15651	0	400
-53.336	-22.539	16386	15718	0	400
-52.470	-18.320	16386	15718	0	400
-52.795	-14.605	16386	15651	0	400
-53.372	-12.658	16386	15784	0	400
-56.221	-9.520	16386	16184	0	400
-55.860	-6.960	16389	16517	0	400
-55.752	-2.236	16389	16650	0	400
-54.129	0.902	16389	16717	0	400
-52.290	2.452	16391	16917	0	400
-51.461	1.370	16391	16917	0	400
-55.427	-2.452	16391	16717	0	400
-59.791	-5.662	16391	16584	0	400
-62.135	-6.203	16391	16384	0	400
-61.378	-3.173	16391	16251	0	400
-55.896	0.288	16391	15984	0	400
-49.333	1.334	16391	15718	0	400
-49.116	-0.974	16386	15251	0	400
-50.631	-7.609	16389	14718	0	400
-55.608	-13.812	16386	14051	0	400
-61.522	-17.093	16384	13584	0	400
-62.099	-14.064	16384	13318	0	400
-58.168	-8.078	16382	13118	0	400
-53.949	-3.137	16382	13051	0	400
-52.506	-1.983	16379	13184	0	400
-54.129	-8.186	16382	13518	0	400
-61.991	-16.985	16379	13984	0	400
-69.816	-27.407	16379	14518	0	400
-73.278	-32.059	16379	14984	0	400
-71.908	-31.879	16382	15584	0	400
-68.626	-25.063	16382	16184	0	400
-65.525	-17.346	16382	16517	0	400
-66.571	-16.769	16382	16650	0	400
-69.600	-19.726	16382	16717	0	400
-73.927	-27.119	16382	16850	0	400
-74.937	-31.410	16382	16984	0	400
-75.838	-29.354	16382	17050	0	400
-74.071	-26.217	16382	17184	0	400
-74.396	-26.470	16382	17250	0	400
-76.632	-32.384	16382	17117	0	400
-81.140	-42.878	16382	16850	0	400
-87.342	-52.542	16382	16584	0	400
-94.050	-58.204	16379	16384	0	400
-98.702	-58.565	16379	16318	0	400
-99.964	-55.608	16379	16384	0	400
-97.764	-48.395	16379	16584	0	400
-95.925	-47.494	16379	16784	0	400
-95.384	-48.467	16379	16984	0	400
-96.502	-49.874	16382	17050	0	400
-98.846	-54.273	16382	17050	0	400
-101.190	-52.542	16382	17184	0	400
-101.551	-53.408	16382	17450	0	400
-102.741	-53.372	16382	17517	0	400
-104.364	-56.509	16382	17450	0	400
-104.580	-56.762	16382	17450	0	400
-104.580	-52.975	16384	17584	0	400
-101.515	-49.838	16384	17650	0	400
-101.406	-50.090	16384	17850	0	400
-101.479	-52.001	16386	18117	0	400
-103.498	-56.040	16386	18317	0	400
-106.455	-55.103	16386	18383	0	400
-107.032	-53.228	16389	18250	0	400
-106.960	-49.657	16389	18317	0	400
-106.599	-54.742	16389	18383	0	400
-107.537	-61.089	16391	18250	0	400
-111.576	-67.364	16391	17984	0	400
-113.848	-69.095	16391	17584	0	400
-114.208	-64.010	16391	17317	0	400
-110.891	-57.952	16391	17117	0	400
-106.635	-53.336	16391	16917	0	400
-103.823	-54.309	16391	16517	0	400
-103.750	-57.555	16391	16118	0	400
-105.770	-57.158	16389	15651	0	400
-106.888	-54.165	16389	15318	0	400
-104.544	-45.618	16389	15118	0	400
-101.875	-40.714	16386	14918	0	400
-100.541	-43.455	16389	14851	0	400
-103.137	-51.461	16389	14851	0	400
-105.878	-61.305	16389	14918	0	400
-107.248	-61.161	16389	15184	0	400
-105.698	-57.735	16386	15451	0	400
-106.563	-49.802	16386	15584	0	400
-108.150	-49.585	16386	15918	0	400
-112.369	-51.929	16389	16384	0	400
-113.668	-56.437	16389	16917	0	400
-109.124	-51.352	16391	17383	0	400
-100.252	-44.320	16391	17650	0	400
-94.374	-35.846	16394	17850	0	400
-93.509	-36.495	16396	18117	0	400
-94.663	-43.202	16396	18117	0	400
-100.180	-49.621	16396	17784	0	400
-102.380	-52.146	16396	17184	0	400
-100.577	-47.097	16394	16517	0	400
-99.243	-41.363	16394	16118	0	400
-95.492	-41.471	16394	15718	0	400
-97.151	-46.051	16391	15251	0	400
-100.613	-50.126	16391	14718	0	400
-105.445	-53.372	16389	14184	0	400
-107.140	-51.497	16384	13584	0	400
-106.816	-49.838	16384	13118	0	400
-103.606	-49.080	16382	12918	0	400
-100.829	-47.602	16382	12851	0	400
-99.171	-46.340	16382	12651	0	400
-97.187	-42.265	16379	12385	0	400
-97.367	-41.039	16377	12318	0	400
-96.754	-39.091	16377	12385	0	400
-97.584	-41.003	16374	12518	0	400
-99.026	-43.166	16374	12785	0	400
-99.423	-49.441	16374	13184	0	400
-99.423	-52.939	16372	13718	0	400
-99.171	-54.742	16372	14451	0	400
-94.302	-47.638	16372	15051	0	400
-87.775	-39.524	16372	15518	0	400
-84.349	-33.538	16372	15918	0	400
-82.654	-32.997	16372	16318	0	400
-83.844	-35.088	16374	16784	0	400
-85.287	-36.711	16374	17383	0	400
-80.923	-33.610	16377	17984	0	400
-76.992	-30.508	16379	18517	0	400
-75.730	-30.328	16382	18850	0	400
-79.084	-33.213	16379	18984	0	400
-85.034	-36.495	16379	18917	0	400
-87.919	-35.810	16379	18717	0	400
-91.670	-33.574	16379	18450	0	400
-92.319	-32.780	16379	18183	0	400
-93.581	-33.141	16379	17917	1	548
-96.286	-36.783	16377	17584	0	548
-94.519	-38.658	16377	17250	0	548
-89.650	-38.045	16377	17050	0	548
-86.044	-35.774	16377	16984	0	548
-80.599	-35.233	16377	17117	0	548
-78.110	-34.800	16377	17117	0	548
-78.832	-34.115	16377	17050	0	548
-80.527	-33.538	16377	17117	0	548
-80.130	-31.194	16377	17450	0	548
-80.130	-30.545	16379	17850	0	548
-80.346	-30.040	16379	18317	0	548
-79.120	-30.508	16382	18717	0	548
-77.137	-27.155	16384	19050	0	548
-75.334	-26.001	16384	19050	0	548
-72.737	-21.241	16384	18850	0	548
-70.754	-21.890	16384	18650	0	548
-75.370	-24.234	16384	18317	0	548
-80.743	-29.679	16384	17984	0	548
-86.369	-36.747	16384	17517	0	548
-87.667	-39.849	16384	17050	0	548
-88.749	-42.986	16384	16584	0	548
-86.837	-42.914	16384	16384	0	548
-88.893	-42.481	16384	16251	0	548
-89.109	-42.409	16384	16051	0	548
-90.768	-40.894	16384	15851	0	548
-91.742	-40.173	16382	15584	0	548
-88.568	-39.127	16382	15118	0	548
-89.794	-42.265	16379	14585	0	548
-87.090	-43.996	16382	14251	0	548
-87.270	-45.041	16382	14184	0	548
-83.339	-41.111	16379	14051	0	548
-76.415	-33.466	16379	13984	0	548
-66.571	-24.378	16379	14184	0	548
-55.788	-17.995	16379	14518	0	548
-51.641	-16.336	16379	14784	0	548
-54.778	-20.483	16377	14918	0	548
-64.335	-28.345	16377	15118	0	548
-73.170	-32.564	16377	15318	0	548
-76.740	-32.420	16377	15318	0	548
-72.701	-25.676	16377	15184	0	548
-66.210	-17.743	16377	15184	0	548
-62.964	-9.556	16374	15385	0	548
-62.387	-10.133	16374	15584	0	548
-68.518	-11.756	16374	15584	0	548
-69.924	-17.129	16374	15584	0	548
-70.826	-23.945	16374	15584	0	548
-69.023	-28.201	16372	15718	0	548
-66.210	-29.354	16372	15851	0	548
-63.433	-26.470	16374	15984	0	548
-59.683	-22.827	16377	16184	0	548
-56.906	-18.897	16374	16384	0	548
-52.506	-20.195	16374	16650	0	548
-51.280	-22.791	16377	17050	0	548
-48.503	-23.044	16377	17450	0	548
-46.700	-21.601	16377	17850	0	548
-44.681	-16.552	16379	18250	0	548
-43.707	-16.228	16379	18784	0	548
-45.005	-18.500	16382	19450	0	548
-44.933	-24.666	16384	20250	0	548
-41.327	-27.263	16386	20650	0	548
-34.547	-25.099	16389	20717	0	548
-32.961	-22.322	16389	20584	0	548
-35.413	-25.532	16391	20650	0	548
-43.166	-31.951	16394	20717	0	548
-48.539	-39.560	16394	20717	0	548
-49.405	-42.445	16396	20650	0	548
-44.861	-37.541	16396	20650	0	548
-38.190	-31.410	16402	20450	0	548
-35.233	-28.525	16400	19983	0	548
-34.006	-30.653	16400	19317	0	548
-32.276	-29.030	16400	18717	0	548
-29.318	-26.938	16402	18183	0	548
-29.463	-24.053	16402	17717	0	548
-28.381	-22.142	16402	17250	0	548
-27.335	-22.142	16402	16650	0	548
-22.575	-23.801	16402	16051	0	548
-18.500	-20.050	16400	15451	0	548
-13.668	-16.805	16396	14851	0	548
-17.202	-12.477	16396	14184	1	316
-23.404	-14.677	16394	13518	0	316
-27.047	-15.651	16391	12785	0	316
-26.974	-19.005	16391	12184	0	316
-21.601	-17.526	16389	11718	0	316
-18.500	-16.336	16386	11584	0	316
-24.811	-12.369	16386	11518	0	316
-36.423	-13.018	16384	11518	0	316
-45.943	-14.677	16384	11584	0	316
-54.057	-19.221	16384	11784	0	316
-61.197	-28.814	16382	11984	0	316
-64.840	-37.180	16382	12118	0	316
-70.537	-45.222	16379	12385	0	316
-71.475	-45.691	16379	12785	0	316
-63.036	-39.488	16379	13318	0	316
-53.480	-31.230	16379	13851	0	316
-45.186	-22.431	16379	14451	0	316
-45.691	-25.027	16379	14984	0	316
-51.461	-31.049	16379	15385	0	316
-54.201	-37.108	16379	15651	0	316
-53.372	-37.144	16379	15718	0	316
-45.835	-31.374	16377	15584	0	316
-40.426	-23.476	16377	15385	0	316
-38.442	-20.159	16374	15251	0	316
-39.993	-22.395	16377	15184	0	316
-39.704	-25.856	16374	15118	0	316
-37.108	-24.739	16374	15051	0	316
-32.348	-24.414	16372	15051	0	316
-30.797	-24.775	16372	15318	0	316
-36.783	-28.561	16372	15784	0	316
-40.966	-34.439	16372	16384	0	316
-44.933	-36.062	16374	17117	0	316
-44.104	-34.980	16374	17850	0	316
-37.324	-31.699	16377	18650	0	316
-32.059	-33.285	16379	19384	0	316
-29.931	-35.521	16379	19917	0	316
-29.391	-37.432	16382	20117	0	316
-32.744	-35.088	16382	20183	0	316
-37.180	-33.862	16384	20317	0	316
-37.937	-33.321	16384	20450	0	316
-34.944	-36.783	16386	20517	0	316
-26.686	-39.235	16386	20383	0	316
-17.129	-40.137	16386	20250	0	316
-10.999	-37.577	16389	20117	0	316
-12.333	-36.639	16389	20050	0	316
-17.310	-36.242	16391	19850	0	316
-25.424	-37.036	16391	19450	0	316
-28.201	-34.692	16391	18917	0	316
-29.463	-32.167	16391	18317	0	316
-28.309	-30.581	16391	17784	0	316
-28.309	-31.230	16391	17317	0	316
-26.361	-33.466	16391	16984	0	316
-20.664	-33.141	16391	16650	0	316
-18.103	-30.653	16391	16384	0	316
-16.841	-27.912	16391	16318	0	316
-24.198	-30.508	16391	16384	0	316
-35.810	-36.062	16391	16384	0	316
-47.458	-46.881	16394	16384	0	316
-50.451	-53.949	16394	16384	0	316
-49.477	-59.466	16394	16384	0	316
-46.376	-56.581	16391	16318	0	316
-43.743	-54.634	16391	16118	0	316
-48.648	-49.730	16394	16118	0	316
-54.490	-51.028	16394	16251	0	316
-61.918	-54.309	16394	16251	0	316
-64.803	-61.053	16394	16184	0	316
-62.676	-63.830	16396	16184	0	316
-56.040	-55.680	16396	16318	0	316
-43.851	-43.383	16396	16251	0	316
-37.541	-32.131	16396	16051	0	316
-38.767	-31.085	16394	15718	0	316
-46.700	-39.524	16396	15451	0	316
-55.824	-53.300	16394	15184	0	316
-62.495	-59.647	16391	14851	0	316
-59.322	-57.158	16391	14585	0	316
-50.739	-52.723	16389	14385	0	316
-45.005	-46.376	16389	14051	0	316
-43.887	-46.340	16389	13651	0	316
-43.743	-44.933	16386	13384	0	316
-45.727	-44.140	16384	13118	0	316
-47.061	-44.248	16384	13051	0	316
-46.520	-47.422	16384	13184	0	316
-45.402	-51.064	16382	13451	0	316
-47.782	-56.870	16382	13784	0	316
-49.621	-56.617	16382	14118	0	316
-48.900	-59.430	16382	14318	0	316
-48.648	-57.339	16382	14518	0	316
-45.330	-57.303	16382	14918	0	316
-40.678	-55.211	16382	15584	0	316
-38.983	-51.388	16382	16118	0	316
-38.118	-46.736	16384	16450	0	316
-38.298	-43.383	16384	16984	0	316
-38.118	-41.868	16386	17584	0	316
-38.082	-42.301	16386	18117	0	316
-38.983	-42.193	16386	18383	0	316
-39.812	-44.753	16389	18517	0	316
-42.301	-46.917	16389	18517	0	316
-42.878	-47.205	16389	18317	0	316
-44.933	-51.497	16389	18050	0	316
-48.251	-55.968	16386	17584	0	316
-48.792	-61.738	16386	17117	0	316
-47.818	-66.715	16386	16784	0	316
-42.734	-64.840	16386	16584	0	316
-35.377	-61.450	16386	16384	0	316
-34.764	-57.735	16384	16184	0	316
-39.704	-57.916	16384	16118	0	316
-47.854	-62.315	16384	16051	0	316
-56.293	-70.032	16384	16118	0	316
-57.807	-73.963	16384	16318	0	316
-54.093	-72.737	16384	16450	0	316
-44.284	-67.256	16386	16584	0	316
-34.006	-58.276	16386	16717	0	316
-27.047	-52.146	16386	17050	0	316
-22.322	-49.405	16386	17317	0	316
-23.152	-50.631	16386	17250	0	316
-25.424	-51.641	16386	16917	0	316
-25.893	-46.123	16386	16650	0	316
-22.611	-40.786	16386	16450	0	316
-22.322	-37.541	16386	16251	0	316
-21.349	-40.714	16384	15918	0	316
-27.155	-47.710	16384	15518	0	316
-33.826	-60.548	16384	15251	0	316
-39.812	-64.659	16382	14984	0	316
-40.173	-64.623	16382	14651	0	316
-37.036	-58.961	16379	14385	0	316
-30.004	-52.218	16379	14251	0	316
-24.342	-47.169	16377	14184	0	316
-26.073	-46.664	16377	14051	0	316
-28.633	-52.975	16374	13984	0	316
-37.324	-54.454	16374	13984	0	316
-44.645	-57.230	16372	14051	0	316
-44.573	-53.336	16372	14118	0	316
-43.455	-50.270	16368	14251	0	316
-38.622	-46.051	16374	14318	0	316
-34.439	-44.320	16372	14451	0	316
-31.879	-44.320	16368	14518	0	316
-28.814	-42.481	16368	14784	0	316
-25.820	-40.606	16368	15251	0	316
-21.241	-40.065	16368	16051	0	316
-19.329	-39.272	16372	16784	0	316
-21.277	-41.435	16372	17383	0	316
-22.467	-43.924	16372	17850	0	316
-25.316	-43.635	16372	18250	0	316
-27.587	-42.048	16377	18450	0	316
-26.397	-40.173	16377	18517	0	316
-28.597	-40.065	16377	18584	0	316
-34.367	-42.337	16377	18650	0	316
-37.721	-46.412	16377	18584	0	316
-40.606	-47.854	16377	18517	0	316
-38.478	-48.936	16377	18450	0	316
-34.656	-47.962	16377	18383	0	316
-32.059	-47.205	16377	18050	0	316
-35.341	-49.766	16377	17717	0	316
-39.921	-52.110	16377	17450	0	316
-44.789	-54.309	16374	17050	0	316
-44.897	-52.903	16374	16717	0	316
-43.383	-49.585	16374	16517	0	316
-43.022	-41.652	16374	16450	0	316
-44.933	-37.000	16374	16584	0	316
-53.083	-38.478	16374	16984	0	316
-60.512	-44.392	16377	17317	0	316
-69.455	-53.047	16379	17650	0	316
-73.242	-60.007	16382	18050	0	316
-75.153	-65.957	16382	18517	0	316
-75.442	-68.842	16384	18917	0	316
-75.766	-69.383	16386	19184	0	316
-79.373	-69.528	16386	19584	0	316
-83.231	-67.400	16389	19917	0	316
-86.693	-68.157	16391	20117	0	316
-87.883	-68.301	16391	20183	0	316
-88.388	-70.754	16391	19917	0	316
-83.772	-71.042	16391	19517	0	316
-77.750	-69.419	16391	18917	0	316
-71.114	-67.977	16394	18317	0	316
-64.335	-67.941	16394	17850	1	696
-60.079	-68.121	16394	17383	0	696
-56.113	-67.364	16394	16917	0	696
-53.264	-63.289	16394	16517	0	696
-47.133	-60.765	16394	16384	0	696
-44.248	-58.673	16394	16384	0	696
-42.589	-56.545	16396	16384	0	696
-39.596	-56.076	16396	16384	0	696
-38.875	-51.713	16396	16318	0	696
-37.144	-49.153	16396	16051	0	696
-36.603	-48.251	16394	15784	0	696
-43.419	-57.519	16394	15518	0	696
-50.451	-65.669	16394	15251	0	696
-54.706	-74.180	16394	14984	0	696
-56.185	-75.009	16394	14784	0	696
-50.343	-71.114	16394	14518	0	696
-48.972	-70.105	16391	14184	0	696
-49.802	-72.376	16391	13918	0	696
-57.591	-82.041	16391	13718	0	696
-64.046	-87.559	16391	13718	0	696
-69.492	-88.821	16389	13784	0	696
-70.934	-86.044	16389	13918	0	696
-68.193	-79.264	16389	14118	0	696
-69.167	-77.245	16389	14385	0	696
-72.773	-77.786	16389	14518	0	696
-78.687	-81.969	16386	14585	0	696
-86.116	-87.595	16389	14718	0	696
-92.102	-93.653	16389	14918	0	696
-91.850	-94.591	16389	15184	0	696
-89.614	-93.401	16389	15451	0	696
-89.794	-90.912	16386	15584	0	696
-88.316	-86.837	16386	15518	0	696
-90.083	-89.290	16386	15385	0	696
-90.191	-90.948	16384	15118	0	696
-91.021	-92.391	16384	14851	0	696
-89.939	-90.624	16382	14651	0	696
-91.237	-84.746	16382	14718	0	696
-92.896	-78.904	16382	14851	0	696
-90.155	-77.930	16382	15184	0	696
-88.244	-79.012	16382	15518	0	696
-83.267	-79.769	16384	15651	0	696
-78.507	-78.182	16384	15718	0	696
-74.144	-74.865	16382	15851	0	696
-69.816	-69.996	16382	16051	0	696
-65.056	-71.114	16382	16251	0	696
-63.938	-73.350	16382	16318	0	696
-62.207	-74.648	16382	16384	0	696
-63.109	-72.485	16382	16650	0	696
-61.558	-66.787	16382	16850	0	696
-55.103	-61.233	16384	16984	0	696
-45.474	-54.237	16384	17117	0	696
-36.351	-51.424	16384	17184	0	696
-30.148	-43.707	16384	17250	0	696
-28.345	-36.819	16382	17117	0	696
-29.679	-31.374	16382	16850	0	696
-29.246	-28.164	16382	16517	0	696
-26.578	-29.895	16379	16318	0	696
-19.978	-33.105	16379	16118	0	696
-14.821	-32.961	16379	16118	0	696
-8.655	-27.119	16379	16118	0	696
-8.366	-20.555	16379	16251	0	696
-8.583	-16.444	16379	16318	0	696
-12.514	-21.493	16379	16384	0	696
-14.461	-28.128	16379	16650	0	696
-15.903	-34.872	16379	16850	0	696
-13.595	-34.583	16379	16784	0	696
-11.468	-25.027	16379	16650	0	696
-6.203	-16.300	16379	16650	0	696
2.813	-11.035	16379	16917	0	696
7.862	-14.858	16379	17383	0	696
7.862	-23.152	16382	17717	0	696
3.931	-30.436	16382	17984	0	696
-4.147	-33.970	16382	18183	0	696
-9.737	-32.997	16382	18183	0	696
-12.009	-30.256	16384	18050	0	696
-11.684	-31.626	16384	17917	0	696
-16.877	-34.547	16384	17784	0	696
-20.123	-36.711	16384	17584	0	696
-22.539	-36.747	16384	17317	0	696
-20.375	-35.197	16384	17050	0	696
-19.654	-35.088	16384	16850	0	696
-20.014	-38.045	16382	16584	0	696
-25.207	-42.914	16382	16384	0	696
-33.718	-48.684	16382	16051	0	696
-40.029	-50.379	16382	15718	0	696
-43.130	-54.309	16379	15451	0	696
-43.743	-53.985	16379	15184	0	696
-42.445	-56.978	16379	15051	0	696
-43.851	-59.250	16379	15184	0	696
-43.779	-61.161	16379	15451	0	696
-42.914	-59.611	16382	15584	0	696
-39.199	-54.454	16382	15584	0	696
-36.819	-48.792	16382	15784	0	696
-34.295	-42.553	16382	16184	0	696
-36.855	-42.301	16382	16384	0	696
-38.658	-48.323	16382	16517	0	696
-40.930	-55.355	16382	16584	0	696
-41.652	-59.286	16382	16717	0	696
-43.887	-59.611	16382	16850	0	696
-48.143	-55.824	16384	16917	0	696
-56.329	-53.408	16384	17050	0	696
-58.348	-52.038	16384	17117	0	696
-63.649	-51.893	16384	17050	0	696
-65.164	-52.903	16384	16917	0	696
-65.200	-50.018	16384	16784	0	696
-66.138	-50.307	16384	16517	0	696
-69.167	-50.343	16382	16318	0	696
-72.304	-54.922	16382	16051	0	696
-74.937	-57.699	16382	15851	0	696
-76.848	-57.663	16382	15584	0	696
-78.182	-56.040	16379	15385	0	696
-78.651	-51.100	16379	15318	0	696
-80.454	-52.867	16379	15584	0	696
-82.113	-57.988	16379	15718	0	696
-85.972	-69.528	16379	15584	0	696
-84.818	-75.983	16377	15385	0	696
-81.103	-73.134	16377	15251	0	696
-76.199	-66.030	16377	15318	0	696
-71.006	-60.981	16377	15651	0	696
-67.364	-61.378	16377	15984	0	696
-67.833	-69.492	16377	16251	0	696
-69.419	-76.451	16379	16450	0	696
-71.259	-78.182	16379	16850	0	696
-71.186	-73.386	16379	17184	0	696
-69.816	-68.951	16379	17450	0	696
-66.931	-67.184	16382	17584	0	696
-65.056	-69.311	16382	17717	0	696
-63.109	-70.646	16382	17650	0	696
-64.226	-72.124	16382	17650	0	696
-69.347	-71.186	16382	17650	0	696
-73.530	-69.275	16382	17584	0	696
-75.045	-68.915	16384	17517	0	696
-76.199	-71.078	16384	17450	0	696
-75.983	-73.134	16384	17383	0	696
-77.894	-75.730	16384	17317	0	696
-79.084	-77.425	16384	17184	0	696
-78.976	-75.550	16384	16984	0	696
-73.422	-71.403	16384	16784	0	696
-67.580	-66.967	16384	16584	0	696
-63.433	-65.921	16382	16384	0	696
-64.335	-67.688	16382	16118	0	696
-66.210	-73.098	16382	15918	0	696
-64.840	-76.091	16384	15918	0	696
-62.820	-74.684	16384	16184	0	696
-56.834	-70.682	16386	16384	0	696
-55.067	-65.453	16384	16650	0	696
-52.326	-62.243	16384	16917	0	696
-52.723	-61.161	16386	17184	0	696
-49.838	-59.574	16386	17250	0	696
-48.503	-61.089	16386	17117	0	696
-45.546	-64.984	16386	17184	0	696
-44.537	-66.895	16389	17450	0	696
-43.707	-65.525	16389	17784	0	696
-41.435	-60.476	16391	17917	0	696
-36.206	-49.585	16391	17850	0	696
-33.033	-47.025	16391	17717	0	696
-31.626	-47.494	16391	17517	0	696
-34.475	-50.126	16391	17184	0	696
-37.360	-52.074	16391	16784	0	696
-37.757	-44.753	16391	16318	0	696
-32.131	-36.603	16391	15851	0	696
-24.883	-30.617	16389	15318	0	696
-23.549	-30.977	16389	14784	0	696
-22.503	-36.098	16386	14318	0	696
-25.604	-40.029	16386	13918	0	696
-25.640	-40.606	16384	13651	0	696
-22.431	-35.954	16384	13451	0	696
-20.339	-31.554	16382	13318	0	696
-18.608	-30.761	16382	13384	0	696
-21.024	-33.610	16382	13718	0	696
-22.178	-37.072	16382	14184	0	696
-20.591	-35.377	16382	14851	0	696
-19.005	-29.427	16384	15651	0	696
-12.297	-23.657	16384	16318	0	696
-6.455	-20.483	16384	16650	0	696
4.508	-18.428	16386	16917	0	696
15.867	-17.166	16386	17184	0	696
25.820	-13.018	16386	17250	0	696
32.997	-7.789	16386	17250	0	696
33.177	-8.330	16386	17184	0	696
31.049	-12.874	16386	17050	0	696
28.705	-16.589	16386	16850	0	696
30.112	-17.598	16386	16650	0	696
33.754	-10.278	16386	16584	0	696
37.649	-4.652	16386	16450	0	696
42.950	-0.721	16384	16318	0	696
47.097	-2.380	16384	16051	0	696
52.218	-5.085	16384	15918	0	696
54.273	-7.212	16384	15984	0	696
54.670	-6.455	16384	16184	0	696
48.539	-7.717	16384	16251	0	696
41.543	-13.776	16384	16251	0	696
32.023	-18.716	16384	16450	0	696
26.902	-24.666	16386	16850	0	696
20.736	-27.299	16386	17117	0	696
18.536	-27.840	16386	17317	0	696
15.038	-27.804	16386	17584	0	696
14.461	-29.571	16389	17850	0	696
12.910	-27.732	16389	17984	0	696
16.300	-22.611	16389	17917	0	696
19.329	-15.146	16391	18050	0	696
24.666	-7.032	16391	18317	0	696
25.568	-5.193	16391	18517	0	696
22.178	-7.537	16391	18517	0	696
16.877	-15.507	16394	18450	0	696
10.169	-21.024	16394	18250	0	696
7.645	-23.657	16394	17917	0	696
10.350	-24.666	16394	17383	1	828
10.314	-21.601	16391	16784	0	828
9.556	-22.863	16391	16318	0	828
8.619	-22.214	16391	15984	0	828
8.907	-19.401	16391	15784	0	828
9.448	-17.887	16391	15584	0	828
11.396	-13.956	16391	15385	0	828
11.179	-15.939	16391	15385	0	828
7.825	-16.589	16391	15518	0	828
7.898	-18.139	16389	15584	0	828
9.088	-20.808	16391	15584	0	828
10.999	-21.709	16391	15651	0	828
12.261	-19.726	16391	15584	0	828
13.018	-18.211	16389	15518	0	828
14.930	-13.884	16389	15651	0	828
14.245	-10.963	16389	15851	0	828
17.021	-10.783	16389	15918	0	828
16.625	-9.773	16389	15918	0	828
19.473	-10.169	16389	15984	0	828
21.493	-6.203	16389	16051	0	828
25.424	-5.734	16389	15984	0	828
23.332	-6.203	16389	15784	0	828
21.709	-10.422	16389	15651	0	828
18.103	-15.254	16389	15584	0	828
13.163	-16.300	16389	15451	0	828
10.927	-17.779	16386	15184	0	828
8.655	-16.012	16386	15051	0	828
7.068	-11.251	16386	15051	0	828
8.475	-9.665	16386	15118	0	828
14.461	-7.825	16386	15385	0	828
20.375	-7.717	16386	15784	0	828
26.974	-9.160	16386	16118	0	828
25.929	-10.458	16386	16318	0	828
18.752	-10.278	16386	16384	0	828
8.943	-7.321	16386	16384	0	828
0.865	-5.662	16386	16384	0	828
-0.649	-0.036	16386	16450	0	828
1.983	-0.072	16386	16450	0	828
3.426	-3.606	16386	16384	0	828
-2.957	-12.225	16386	16318	0	828
-11.792	-19.798	16386	16384	0	828
-21.241	-27.768	16386	16384	0	828
-25.135	-31.230	16386	16450	0	828
-26.470	-34.331	16386	16584	0	828
-25.604	-37.865	16389	16917	0	828
-28.453	-40.714	16389	16984	0	828
-33.826	-45.041	16389	16917	0	828
-40.642	-49.802	16389	16917	0	828
-45.871	-54.562	16389	17050	0	828
-48.107	-58.276	16389	17050	0	828
-47.458	-58.997	16386	16917	0	828
-43.960	-51.605	16386	16784	0	828
-41.435	-46.304	16386	16584	0	828
-42.770	-44.428	16386	16384	0	828
-47.205	-46.700	16386	16384	0	828
-55.031	-55.716	16386	16251	0	828
-60.945	-62.279	16384	15984	0	828
-64.515	-66.066	16384	15651	0	828
-65.308	-65.453	16384	15385	0	828
-65.633	-60.728	16382	15251	0	828
-61.197	-56.329	16382	15118	0	828
-58.240	-50.920	16382	14918	0	828
-56.437	-49.874	16379	14784	0	828
-53.264	-48.503	16379	14718	0	828
-56.437	-49.297	16382	14851	0	828
-59.755	-53.408	16382	15251	0	828
-62.495	-54.706	16382	15651	0	828
-65.994	-58.529	16382	15984	0	828
-67.003	-63.577	16382	16318	0	828
-66.643	-65.921	16384	16717	0	828
-67.977	-68.338	16384	17050	0	828
-65.164	-69.564	16384	17250	0	828
-63.253	-69.780	16384	17383	0	828
-61.450	-71.006	16384	17517	0	828
-62.712	-74.721	16384	17383	0	828
-66.571	-80.490	16384	17184	0	828
-74.396	-89.542	16384	16784	0	828
-81.680	-95.492	16382	16318	0	828
-86.260	-98.269	16379	15651	0	828
-84.205	-95.276	16379	14984	0	828
-82.005	-87.414	16377	14451	0	828
-75.622	-80.671	16374	14184	0	828
-71.259	-76.271	16374	14184	0	828
-70.718	-74.865	16374	14385	0	828
-72.521	-76.884	16372	14518	0	828
-74.865	-78.002	16372	14585	0	828
-79.661	-81.572	16372	14518	0	828
-78.146	-83.628	16368	14585	0	828
-78.687	-84.962	16368	14784	0	828
-76.740	-86.657	16368	14984	0	828
-77.317	-86.801	16368	15318	0	828
-80.563	-87.450	16372	15651	0	828
-83.988	-87.234	16368	15984	0	828
-84.746	-86.909	16368	16251	0	828
-85.539	-83.339	16368	16584	0	828
-83.087	-78.651	16372	16984	0	828
-81.356	-77.028	16372	17383	0	828
-80.094	-76.235	16372	17850	0	828
-80.418	-76.451	16374	18517	0	828
-79.373	-78.182	16374	19184	0	828
-81.969	-77.966	16377	19584	0	828
-82.582	-79.553	16379	19783	0	828
-81.861	-79.733	16382	19983	0	828
-79.769	-76.848	16382	19983	0	828
-77.245	-72.953	16382	19783	0	828
-77.461	-67.075	16382	19384	0	828
-78.074	-65.597	16382	18850	0	828
-80.166	-71.475	16382	18250	0	828
-80.851	-77.281	16382	17784	1	432
-77.353	-80.346	16382	17383	0	432
-74.865	-78.651	16382	17250	0	432
-75.370	-70.682	16382	17184	0	432
-76.019	-62.820	16382	17117	0	432
-78.507	-58.420	16382	17050	0	432
-79.156	-55.067	16382	16984	0	432
-80.527	-60.115	16382	16917	0	432
-79.986	-64.154	16384	16784	0	432
-79.877	-66.534	16384	16650	0	432
-79.336	-62.243	16384	16584	0	432
-76.668	-56.040	16384	16450	0	432
-74.144	-48.864	16382	16251	0	432
-75.766	-52.578	16382	15851	0	432
-78.255	-58.420	16382	15584	0	432
-82.149	-64.154	16382	15718	0	432
-80.779	-62.495	16382	15851	0	432
-74.324	-55.536	16382	15918	0	432
-66.390	-47.602	16384	16118	0	432
-59.899	-43.527	16384	16384	0	432
-58.420	-42.193	16384	16517	0	432
-56.113	-40.173	16384	16450	0	432
-52.434	-36.278	16384	16251	0	432
-51.244	-33.898	16384	15984	0	432
-48.612	-34.439	16382	15784	0	432
-48.287	-38.731	16382	15518	0	432
-50.270	-42.301	16382	15184	0	432
-46.845	-41.724	16379	14784	0	432
-39.632	-37.541	16379	14385	0	432
-35.124	-29.895	16377	14118	0	432
-26.253	-22.755	16377	13851	0	432
-18.716	-17.418	16374	13651	0	432
-12.369	-9.881	16372	13451	0	432
-8.619	-5.662	16372	13318	0	432
-6.816	-2.813	16368	13318	0	432
-8.511	-0.757	16368	13384	0	432
-10.025	3.750	16374	13718	0	432
-6.960	10.891	16368	14118	0	432
-2.921	18.644	16368	14518	0	432
-0.108	19.978	16368	15118	0	432
1.046	17.706	16372	15784	0	432
1.154	11.756	16372	16184	0	432
2.236	13.956	16372	16450	0	432
5.878	24.630	16372	16917	0	432
9.953	41.507	16372	17517	0	432
12.514	53.913	16374	18050	0	432
9.953	62.279	16374	18317	0	432
4.291	60.692	16377	18584	0	432
3.895	56.617	16379	18717	0	432
6.491	58.457	16379	18784	0	432
13.559	61.125	16379	18784	0	432
18.897	67.724	16379	18850	0	432
21.060	71.944	16382	18917	0	432
18.356	70.393	16382	18984	0	432
16.697	65.633	16382	18984	0	432
16.516	60.801	16382	18917	0	432
18.572	61.882	16384	18717	0	432
20.736	61.089	16384	18584	0	432
20.375	60.620	16384	18383	0	432
17.021	58.673	16384	18317	0	432
15.326	52.939	16386	18450	0	432
14.533	52.001	16386	18650	0	432
15.579	51.965	16389	18650	0	432
17.238	54.814	16389	18517	0	432
16.661	54.959	16389	18383	0	432
16.516	49.982	16391	18383	0	432
14.785	44.104	16391	18450	0	432
18.680	44.645	16394	18584	0	432
23.765	47.313	16391	18584	0	432
27.948	53.552	16394	18450	0	432
30.436	57.988	16394	18183	0	432
27.696	55.139	16394	17850	0	432
23.044	47.169	16394	17517	0	432
20.916	41.904	16396	17117	0	432
21.962	38.370	16394	16584	0	432
24.342	40.209	16394	16118	0	432
29.643	38.947	16394	15584	0	432
33.970	37.649	16394	15051	0	432
33.141	36.531	16391	14585	0	432
31.230	34.439	16391	14118	0	432
28.056	33.321	16389	13851	0	432
21.457	29.968	16389	13651	0	432
17.670	25.856	16389	13451	0	432
18.283	21.349	16389	13251	0	432
20.772	21.132	16386	13118	0	432
26.217	25.027	16386	13118	0	432
25.604	27.119	16384	13184	0	432
24.089	27.696	16382	13251	0	432
22.539	27.443	16384	13318	0	432
20.267	26.722	16384	13584	0	432
21.241	26.578	16384	13918	0	432
21.204	24.450	16384	14184	0	432
14.894	19.113	16384	14318	0	432
10.963	10.746	16384	14651	0	432
10.061	9.088	16384	15051	0	432
11.576	11.684	16384	15385	0	432
16.336	14.966	16384	15518	0	432
15.579	16.552	16384	15651	0	432
9.448	12.405	16382	15784	0	432
4.039	7.176	16382	15851	0	432
1.262	4.075	16382	15918	0	432
1.839	5.698	16382	15918	0	432
6.744	8.763	16382	15918	0	432
7.501	9.629	16379	15851	0	432
7.248	8.691	16382	15851	0	432
2.813	6.239	16379	15918	0	432
3.750	2.777	16379	15918	0	432
5.662	2.380	16379	15918	0	432
7.970	3.859	16377	16051	0	432
8.907	4.183	16377	16251	0	432
5.481	6.167	16377	16384	0	432
-0.180	4.904	16377	16450	0	432
-4.760	1.659	16377	16450	0	432
-4.796	1.623	16377	16384	0	432
0.180	3.678	16377	16584	0	432
5.950	6.347	16377	17050	0	432
7.609	10.025	16377	17383	0	432
4.039	7.573	16379	17584	0	432
-6.744	0.252	16379	17917	0	432
-24.017	-12.802	16379	18317	0	432
-36.170	-26.325	16382	18517	0	432
-43.851	-35.846	16382	18517	0	432
-40.642	-37.505	16382	18650	0	432
-33.610	-31.302	16384	18784	0	432
-29.715	-29.102	16384	18784	0	432
-36.783	-34.583	16384	18784	0	432
-51.857	-50.234	16384	18784	0	432
-67.869	-68.265	16386	18650	0	432
-77.642	-78.723	16386	18450	0	432
-77.389	-81.103	16386	18250	0	432
-76.199	-80.346	16386	17917	0	432
-78.074	-82.221	16386	17450	0	432
-83.700	-91.561	16386	16917	0	432
-89.362	-96.250	16386	16650	0	432
-91.489	-99.784	16386	16584	0	432
-90.660	-96.682	16386	16584	0	432
-86.224	-89.326	16386	16584	0	432
-86.621	-85.503	16386	16384	0	432
-89.506	-80.671	16386	16051	0	432
-95.023	-83.231	16384	15651	0	432
-99.098	-88.532	16384	15385	0	432
-104.219	-96.394	16384	15118	0	432
-108.078	-104.508	16382	14784	0	432
-112.189	-109.016	16382	14585	0	432
-114.533	-109.448	16382	14651	0	432
-117.779	-107.285	16382	14851	0	432
-117.021	-105.842	16382	14984	0	432
-112.730	-105.301	16382	15184	0	432
-109.520	-104.400	16382	15584	0	432
-106.708	-104.904	16384	15984	0	432
-103.750	-104.472	16384	16184	0	432
-104.652	-101.154	16382	16118	0	432
-105.842	-98.666	16382	15918	0	432
-105.373	-98.089	16382	15718	0	432
-105.481	-97.584	16382	15518	0	432
-104.688	-98.846	16379	15385	0	432
-102.705	-96.538	16379	15385	0	432
-100.505	-93.004	16379	15518	0	432
-97.007	-86.657	16379	15784	0	432
-98.341	-84.890	16382	16051	0	432
-99.567	-86.224	16384	16251	0	432
-100.757	-89.542	16384	16384	0	432
-96.358	-90.732	16384	16384	0	432
-88.857	-84.638	16384	16450	0	432
-80.887	-79.048	16384	16584	0	432
-77.966	-77.245	16384	16917	0	432
-81.392	-77.750	16384	17184	0	432
-85.503	-80.923	16384	17383	0	432
-90.119	-81.067	16386	17650	0	432
-91.273	-79.120	16389	18117	0	432
-95.781	-77.678	16386	18517	0	432
-100.649	-78.651	16389	18717	0	432
-103.426	-82.726	16389	18917	0	432
-103.282	-84.385	16391	19050	0	432
-94.807	-80.635	16391	19117	0	432
-87.955	-76.415	16391	18984	0	432
-80.815	-74.035	16394	18717	0	432
-80.490	-72.990	16394	18317	0	432
-81.644	-70.790	16394	17984	0	432
-82.005	-68.698	16394	17517	1	716
-86.116	-65.380	16394	17184	0	716
-90.480	-58.961	16394	16850	0	716
-97.295	-58.240	16394	16450	0	716
-99.387	-59.647	16391	15984	0	716
-89.290	-59.070	16391	15451	0	716
-77.353	-57.411	16389	14984	0	716
-65.380	-55.103	16389	14585	0	716
-63.181	-53.047	16389	14184	0	716
-64.587	-55.319	16386	13851	0	716
-64.731	-56.798	16386	13851	0	716
-58.348	-58.529	16384	14118	0	716
-49.225	-54.670	16384	14451	0	716
-41.507	-50.379	16384	14784	0	716
-39.957	-45.114	16386	15318	0	716
-42.517	-46.159	16386	15784	0	716
-47.458	-50.631	16386	16118	0	716
-51.388	-54.670	16389	16318	0	716
-55.932	-58.601	16389	16517	0	716
-54.418	-61.017	16389	16784	0	716
-58.132	-60.115	16389	16984	0	716
-59.755	-61.125	16389	16984	0	716
-65.813	-61.774	16389	16850	0	716
-69.888	-60.296	16389	16584	0	716
-73.747	-58.024	16389	16318	0	716
-76.596	-56.906	16389	15918	0	716
-78.543	-59.214	16386	15451	0	716
-78.723	-61.918	16386	15051	0	716
-77.750	-63.541	16384	14784	0	716
-73.639	-61.846	16384	14718	0	716
-70.105	-56.726	16384	14851	0	716
-69.960	-50.018	16384	14984	0	716
-69.636	-49.621	16384	15118	0	716
-68.842	-49.225	16384	15118	0	716
-67.039	-47.530	16382	15051	0	716
-65.597	-47.097	16382	15251	0	716
-62.964	-43.491	16382	15584	0	716
-62.063	-37.721	16382	15851	0	716
-63.794	-34.295	16382	16051	0	716
-63.325	-30.581	16384	16384	0	716
-66.102	-29.066	16384	16650	0	716
-66.607	-30.472	16384	16984	0	716
-67.508	-33.357	16386	17383	0	716
-69.996	-35.449	16386	17784	0	716
-73.206	-37.613	16386	18183	0	716
-75.478	-38.045	16389	18517	0	716
-77.317	-39.235	16389	18717	0	716
-74.793	-41.904	16391	18850	0	716
-73.494	-41.219	16391	18917	0	716
-72.232	-40.498	16391	18784	0	716
-73.026	-37.937	16394	18584	0	716
-74.901	-35.377	16394	18317	0	716
-76.343	-36.206	16394	18050	0	716
-79.950	-37.973	16394	17650	0	716
-86.621	-42.157	16394	17250	0	716
-89.903	-43.887	16391	16717	0	716
-94.302	-43.166	16391	16184	0	716
-93.256	-42.120	16386	15518	0	716
-92.030	-43.347	16386	14918	0	716
-91.561	-43.779	16384	14451	0	716
-92.355	-45.078	16384	14051	0	716
-94.807	-45.150	16382	13651	0	716
-98.197	-42.193	16379	13251	0	716
-98.305	-39.921	16379	12985	0	716
-100.902	-39.993	16379	13051	0	716
-103.823	-44.609	16379	13318	0	716
-104.868	-48.359	16379	13718	0	716
-106.744	-54.814	16379	14118	0	716
-107.104	-55.319	16379	14718	0	716
-108.763	-54.093	16382	15385	0	716
-109.376	-47.926	16382	15984	0	716
-109.124	-46.520	16382	16384	0	716
-106.022	-49.513	16382	16850	0	716
-98.594	-53.408	16384	17250	0	716
-92.824	-59.502	16384	17517	0	716
-89.794	-56.942	16384	17717	0	716
-90.696	-49.838	16384	17917	0	716
-93.004	-43.815	16386	18050	0	716
-90.696	-43.599	16386	18250	0	716
-89.109	-47.349	16386	18317	0	716
-83.700	-54.418	16386	18183	0	716
-80.851	-54.237	16386	17984	0	716
-76.920	-48.756	16386	17650	0	716
-71.114	-40.894	16386	17184	0	716
-67.941	-39.308	16386	16784	0	716
-68.842	-47.386	16384	16517	0	716
-72.773	-64.082	16384	16384	0	716
-80.995	-74.324	16384	16251	0	716
-87.234	-74.973	16384	16051	0	716
-87.559	-64.479	16384	16118	0	716
-80.454	-47.349	16384	16251	0	716
-73.494	-39.344	16384	16251	0	716
-65.489	-40.894	16384	16251	0	716
-61.269	-48.395	16384	16384	0	716
-57.086	-51.785	16386	16784	0	716
-55.355	-49.008	16386	17250	0	716
-47.566	-40.678	16389	17584	0	716
-40.894	-35.377	16389	17984	0	716
-35.521	-37.973	16391	18317	0	716
-33.141	-42.589	16389	18517	0	716
-31.951	-47.818	16389	18383	0	716
-30.761	-45.907	16389	18050	0	716
-26.866	-40.426	16389	17584	0	716
-25.712	-34.800	16389	17184	0	716
-25.243	-32.420	16389	16784	0	716
-26.866	-31.374	16389	16584	0	716
-27.443	-31.302	16389	16650	0	716
-28.489	-31.194	16391	16784	0	716
-29.859	-31.049	16391	16850	0	716
-29.823	-30.977	16391	16717	0	716
-30.040	-31.230	16391	16450	0	716
-28.453	-32.420	16391	16051	0	716
-21.421	-33.069	16389	15385	0	716
-17.418	-36.891	16389	14851	0	716
-11.468	-37.541	16389	14718	0	716
-8.511	-38.082	16389	14851	0	716
-2.019	-34.800	16386	14918	0	716
6.708	-29.318	16386	14784	0	716
15.831	-23.765	16386	14585	0	716
23.512	-19.870	16386	14518	0	716
25.207	-18.752	16386	14851	0	716
21.132	-17.310	16386	15251	0	716
16.084	-20.087	16386	15718	0	716
11.720	-19.293	16386	16384	0	716
14.930	-19.437	16389	16984	0	716
17.057	-19.834	16391	17450	0	716
20.952	-22.503	16391	17784	0	716
19.618	-25.171	16391	18117	0	716
21.637	-24.522	16391	18317	0	716
23.332	-19.942	16394	18317	0	716
27.804	-14.497	16394	18183	0	716
28.814	-9.629	16394	17984	0	716
24.955	-10.278	16394	17850	0	716
16.480	-14.641	16394	17584	0	716
9.268	-20.087	16394	17117	0	716
5.121	-21.096	16394	16517	0	716
4.147	-22.358	16394	16051	0	716
6.167	-23.549	16391	15784	0	716
6.924	-22.467	16391	15584	0	716
5.554	-22.683	16391	15451	0	716
7.898	-23.657	16391	15451	0	716
8.763	-23.368	16391	15318	0	716
10.999	-23.549	16391	15051	0	716
9.629	-25.748	16386	14718	0	716
7.248	-25.748	16386	14518	0	716
0.361	-24.270	16384	14318	0	716
-4.940	-24.198	16384	14118	0	716
-7.104	-23.188	16384	14251	0	716
-7.429	-26.109	16384	14651	0	716
-9.773	-31.699	16384	15051	0	716
-13.235	-33.502	16384	15451	0	716
-17.382	-34.764	16386	15984	0	716
-23.008	-36.567	16386	16384	0	716
-27.083	-42.229	16386	16717	0	716
-27.948	-48.431	16386	16717	0	716
-29.066	-59.358	16386	16517	0	716
-33.393	-64.263	16386	16384	0	716
-41.219	-70.393	16386	16318	0	716
-53.588	-78.327	16386	16251	0	716
-67.724	-86.513	16384	16051	0	716
-76.127	-95.060	16384	15651	0	716
-77.425	-94.699	16382	15251	0	716
-72.629	-85.936	16382	14918	0	716
-69.528	-77.281	16379	14718	0	716
-66.715	-72.304	16379	14651	0	716
-68.915	-74.144	16379	14518	0	716
-68.085	-80.490	16377	14385	0	716
-66.679	-84.313	16379	14251	0	716
-65.236	-87.054	16377	14385	0	716
-66.030	-85.323	16377	14651	0	716
-69.852	-88.063	16377	14918	0	716
-70.393	-89.109	16377	15051	0	716
-67.111	-89.398	16374	15251	0	716
-61.991	-87.018	16374	15718	0	716
-58.096	-82.834	16374	16118	0	716
-59.322	-83.159	16374	16251	0	716
-64.010	-83.988	16374	16318	0	716
-67.328	-87.847	16374	16517	0	716
-68.157	-87.486	16374	16717	0	716
-64.803	-85.755	16374	16717	0	716
-63.145	-83.015	16374	16717	0	716
-60.620	-79.300	16372	16717	0	716
-59.791	-81.212	16372	16650	0	716
-60.548	-82.654	16374	16584	0	716
-61.053	-80.346	16377	16584	0	716
-59.611	-78.723	16374	16517	0	716
-57.483	-71.655	16372	16650	0	716
-54.562	-67.616	16372	16784	0	716
-49.080	-65.417	16372	16850	0	716
-46.195	-65.344	16372	16850	0	716
-42.301	-64.190	16372	16850	0	716
-38.406	-62.351	16372	16984	0	716
-37.144	-61.017	16372	17117	0	716
-34.872	-59.250	16372	17250	0	716
-34.800	-57.411	16372	17383	0	716
-34.475	-55.860	16374	17383	0	716
-33.538	-50.198	16374	17517	0	716
-30.833	-45.330	16377	17917	0	716
-28.633	-40.534	16377	18650	0	716
-24.666	-38.983	16379	19250	0	716
-22.178	-38.226	16382	19650	0	716
-15.182	-36.351	16382	19917	0	716
-12.153	-31.338	16384	20050	0	716
-4.291	-23.080	16384	19983	0	716
4.436	-13.704	16386	19650	0	716
12.550	-5.481	16386	19317	0	716
21.168	-4.111	16386	19050	0	716
26.433	-3.967	16386	18650	1	828
30.364	-2.957	16386	18117	0	828
36.387	4.544	16386	17450	0	828
42.157	19.149	16384	16784	0	828
49.730	36.314	16384	16118	0	828
55.824	51.965	16382	15318	0	828
56.545	60.007	16382	14718	0	828
57.122	60.945	16379	14251	0	828
57.447	61.053	16379	13851	0	828
58.024	64.118	16377	13584	0	828
61.774	72.701	16377	13451	0	828
66.210	78.399	16374	13451	0	828
65.489	79.625	16374	13451	0	828
63.686	75.045	16374	13584	0	828
54.670	68.229	16374	13718	0	828
46.989	63.145	16372	14051	0	828
42.120	60.909	16372	14518	0	828
40.462	58.853	16372	14918	0	828
42.084	55.788	16377	15251	0	828
41.471	50.162	16377	15918	0	828
40.245	48.179	16382	16584	0	828
36.711	46.232	16379	17250	0	828
32.744	43.887	16382	17717	0	828
27.515	41.363	16382	18183	0	828
20.411	39.921	16382	18450	0	828
16.156	35.701	16384	18650	0	828
11.215	31.085	16384	18784	0	828
10.278	24.414	16386	18784	0	828
8.799	15.759	16386	18650	0	828
5.590	12.369	16386	18450	0	828
2.813	12.369	16386	18317	0	828
1.118	13.740	16386	18117	0	828
0.865	16.841	16384	17850	0	828
1.983	12.081	16386	17383	0	828
2.380	7.140	16386	16850	0	828
-0.216	1.587	16386	16450	0	828
-3.462	-2.128	16384	16318	0	828
-7.681	-5.157	16384	16251	0	828
-12.225	-11.071	16386	16251	0	828
-15.038	-16.589	16386	16184	0	828
-20.736	-23.440	16386	16184	0	828
-27.624	-29.679	16386	16251	0	828
-38.154	-38.370	16386	16184	0	828
-51.785	-46.412	16384	16184	0	828
-65.056	-60.007	16384	16318	0	828
-73.494	-68.446	16384	16584	0	828
-78.219	-76.668	16386	16850	0	828
-79.084	-83.375	16386	17117	0	828
-79.553	-89.254	16389	17383	0	828
-84.746	-93.581	16389	17717	0	828
-87.378	-97.512	16391	17850	0	828
-89.722	-98.305	16391	17784	0	828
-91.958	-97.440	16391	17584	0	828
-93.148	-97.007	16391	17250	0	828
-94.374	-94.771	16391	16984	0	828
-96.574	-93.978	16391	16717	0	828
-93.942	-89.578	16391	16384	0	828
-86.729	-88.316	16391	16051	0	828
-82.654	-86.549	16389	15584	0	828
-81.428	-88.172	16389	15184	0	828
-82.077	-88.280	16389	14851	0	828
-84.205	-88.388	16389	14585	0	828
-82.113	-82.726	16386	14385	0	828
-77.642	-79.661	16386	14318	0	828
-75.875	-77.317	16386	14318	0	828
-74.937	-77.353	16386	14318	0	828
-74.360	-78.327	16384	14318	0	828
-74.252	-78.471	16384	14318	0	828
-70.646	-73.747	16384	14451	0	828
-64.803	-68.698	16384	14718	0	828
-56.726	-63.361	16384	15118	0	828
-47.277	-56.149	16384	15451	0	828
-40.966	-53.805	16384	15584	0	828
-39.308	-54.670	16384	15518	0	828
-44.537	-58.204	16384	15451	0	828
-48.756	-61.702	16384	15451	0	828
-53.264	-60.440	16382	15451	0	828
-49.405	-54.165	16382	15385	0	828
-45.294	-52.074	16382	15251	0	828
-43.022	-50.234	16379	15051	0	828
-40.786	-53.480	16379	15051	0	828
-35.593	-51.136	16379	15251	0	828
-27.732	-45.402	16379	15651	0	828
-19.726	-36.314	16379	16118	0	828
-10.133	-31.013	16379	16384	0	828
-7.609	-32.095	16379	16517	0	828
-9.448	-37.829	16379	16450	0	828
-10.350	-42.265	16379	16384	0	828
-12.045	-45.186	16379	16251	0	828
-15.254	-45.907	16377	16251	0	828
-18.860	-52.578	16379	16450	0	828
-27.335	-60.692	16379	16917	0	828
-34.620	-70.718	16379	17317	0	828
-40.534	-78.976	16382	17717	0	828
-41.543	-79.120	16382	18317	0	828
-38.586	-77.425	16384	18984	0	828
-33.898	-77.101	16386	19517	0	828
-30.869	-76.956	16386	19650	0	828
-32.023	-79.264	16389	19650	0	828
-35.088	-77.750	16389	19717	0	828
-39.235	-76.235	16391	19650	0	828
-44.032	-75.983	16391	19384	0	828
-44.104	-76.812	16391	18917	0	828
-42.878	-80.094	16391	18450	0	828
-44.789	-82.690	16391	18050	1	416
-47.313	-84.205	16391	17650	0	416
-50.703	-86.152	16391	17383	0	416
-57.050	-87.126	16391	17184	0	416
-57.807	-90.804	16391	16984	0	416
-56.293	-90.083	16391	16850	0	416
-54.706	-89.398	16391	16650	0	416
-52.831	-88.100	16391	16384	0	416
-55.824	-86.621	16391	16251	0	416
-59.899	-88.352	16391	15984	0	416
-66.571	-93.076	16391	15784	0	416
-67.869	-96.827	16389	15718	0	416
-65.525	-95.817	16391	15918	0	416
-58.817	-89.578	16391	16251	0	416
-51.388	-82.402	16391	16384	0	416
-49.044	-73.711	16391	16384	0	416
-49.225	-68.842	16394	16318	0	416
-48.972	-66.210	16394	16184	0	416
-49.982	-64.695	16394	15984	0	416
-47.241	-62.459	16394	15851	0	416
-44.537	-62.568	16394	15718	0	416
-39.632	-63.217	16391	15584	0	416
-36.639	-62.135	16391	15451	0	416
-33.177	-60.765	16391	15318	0	416
-31.230	-58.601	16391	15051	0	416
-31.662	-57.591	16389	14851	0	416
-34.944	-57.014	16389	14651	0	416
-35.629	-55.752	16389	14518	0	416
-35.413	-54.382	16389	14518	0	416
-33.141	-51.388	16389	14585	0	416
-31.230	-49.297	16386	14651	0	416
-26.794	-47.349	16386	14784	0	416
-25.243	-45.943	16386	15051	0	416
-25.460	-45.438	16386	15318	0	416
-25.388	-44.392	16386	15451	0	416
-26.181	-41.724	16386	15584	0	416
-27.335	-38.695	16386	15918	0	416
-28.850	-34.800	16386	16384	0	416
-30.797	-31.879	16389	16850	0	416
-33.538	-30.472	16389	17117	0	416
-36.242	-30.581	16389	17250	0	416
-34.511	-27.840	16389	17250	0	416
-30.761	-22.034	16389	17184	0	416
-26.001	-12.225	16391	17184	0	416
-23.585	-6.347	16391	17383	0	416
-26.794	-8.042	16391	17784	0	416
-30.328	-11.756	16394	17917	0	416
-32.131	-19.546	16394	17784	0	416
-31.915	-19.365	16394	17784	0	416
-27.804	-19.041	16396	18050	0	416
-24.775	-17.887	16396	18383	0	416
-24.558	-21.565	16400	18383	0	416
-24.702	-26.397	16400	18183	0	416
-25.063	-27.227	16396	17917	0	416
-27.876	-25.063	16396	17650	0	416
-29.354	-22.250	16396	17184	0	416
-29.354	-18.572	16396	16717	0	416
-24.847	-20.700	16394	16318	0	416
-21.096	-22.358	16394	15718	0	416
-16.985	-25.604	16391	14918	0	416
-19.185	-28.237	16389	14118	0	416
-24.125	-30.112	16389	13318	0	416
-24.919	-26.578	16386	12651	0	416
-23.585	-26.217	16384	12184	0	416
-23.837	-28.309	16382	11918	0	416
-24.414	-34.151	16379	11851	0	416
-30.148	-41.724	16379	11851	0	416
-33.898	-46.772	16377	11851	0	416
-34.908	-45.474	16374	11918	0	416
-34.223	-46.772	16374	12118	0	416
-34.403	-46.520	16372	12318	0	416
-36.747	-46.592	16372	12585	0	416
-38.550	-45.041	16368	12918	0	416
-39.055	-41.219	16368	13518	0	416
-38.875	-41.111	16368	14451	0	416
-39.380	-47.313	16372	15385	0	416
-42.229	-55.067	16372	15984	0	416
-45.799	-60.909	16372	16384	0	416
-44.068	-61.846	16372	16717	0	416
-42.806	-57.699	16372	16984	0	416
-39.921	-56.690	16372	17184	0	416
-41.399	-61.342	16372	17317	0	416
-48.251	-68.878	16372	17383	0	416
-53.228	-71.727	16372	17517	0	416
-53.624	-71.655	16372	17584	0	416
-51.316	-64.912	16372	17650	0	416
-43.094	-55.067	16372	17517	0	416
-39.704	-50.811	16374	17383	0	416
-39.416	-47.674	16372	17317	0	416
-40.678	-45.727	16372	17317	0	416
-40.065	-40.389	16372	17584	0	416
-38.478	-34.079	16372	17850	0	416
-36.891	-31.699	16372	17850	0	416
-38.622	-36.567	16372	17784	0	416
-41.507	-46.845	16372	17917	0	416
-46.448	-55.572	16374	18450	0	416
-46.628	-59.611	16374	19050	0	416
-41.255	-54.634	16377	19517	0	416
-37.180	-46.772	16377	19917	0	416
-34.908	-44.248	16382	20383	0	416
-36.567	-46.520	16384	20784	0	416
-40.065	-50.090	16386	20850	0	416
-42.048	-49.802	16386	20584	0	416
-41.760	-47.746	16386	20183	0	416
-38.442	-41.039	16386	19783	0	416
-34.583	-36.170	16386	19384	0	416
-30.040	-34.872	16386	18784	1	424
-26.974	-35.485	16386	18250	0	424
-21.313	-34.547	16386	17917	0	424
-15.579	-31.122	16386	17517	0	424
-9.773	-25.965	16386	17050	0	424
-5.914	-21.565	16384	16517	0	424
-2.957	-17.238	16384	16051	0	424
-2.596	-18.139	16384	15518	0	424
-3.750	-17.166	16384	15184	0	424
-1.190	-18.716	16384	15051	0	424
2.416	-15.651	16384	15118	0	424
5.554	-12.514	16384	15184	0	424
12.009	-6.780	16384	15318	0	424
18.536	-1.190	16384	15584	0	424
21.745	4.472	16384	15784	0	424
25.243	6.635	16384	15918	0	424
24.270	6.852	16386	16051	0	424
23.657	7.248	16386	16318	0	424
26.974	8.727	16386	16517	0	424
34.043	15.182	16389	16717	0	424
44.573	23.080	16389	16717	0	424
58.348	36.242	16389	16584	0	424
71.403	48.143	16389	16384	0	424
84.277	60.476	16389	16118	0	424
91.093	66.282	16386	15651	0	424
93.292	66.859	16386	15251	0	424
89.542	64.731	16386	14851	0	424
85.828	62.027	16384	14518	0	424
85.323	63.397	16384	14251	0	424
88.857	61.558	16382	14051	0	424
89.254	55.031	16382	13918	0	424
84.169	44.681	16382	13851	0	424
71.475	36.314	16379	13918	0	424
58.420	36.242	16379	13984	0	424
50.126	41.760	16379	14184	0	424
46.087	45.005	16379	14585	0	424
44.248	38.875	16379	14984	0	424
38.767	21.385	16379	15318	0	424
28.417	4.868	16379	15784	0	424
18.211	-8.078	16379	16184	0	424
14.389	-10.602	16379	16384	0	424
12.586	-12.081	16379	16384	0	424
13.451	-14.894	16382	16384	0	424
9.953	-18.716	16382	16517	0	424
4.544	-25.856	16382	16584	0	424
-3.750	-31.987	16382	16717	0	424
-12.802	-39.488	16384	16917	0	424
-20.700	-50.775	16384	17184	0	424
-30.076	-57.447	16384	17383	0	424
-36.314	-55.860	16384	17317	0	424
-38.731	-46.700	16384	17050	0	424
-36.639	-37.901	16382	16650	0	424
-34.944	-38.731	16382	16384	0	424
-37.973	-50.162	16382	16184	0	424
-44.681	-64.407	16382	16118	0	424
-50.595	-74.757	16382	16118	0	424
-55.211	-75.009	16379	16184	0	424
-53.119	-73.422	16379	16118	0	424
-52.542	-73.855	16379	16184	0	424
-52.867	-78.723	16379	16384	0	424
-57.266	-83.556	16382	16584	0	424
-59.106	-87.162	16382	16717	0	424
-58.060	-85.792	16382	16717	0	424
-55.896	-79.373	16382	16784	0	424
-49.766	-75.622	16382	16850	0	424
-46.340	-71.078	16382	16850	0	424
-43.635	-67.616	16382	16784	0	424
-40.137	-64.984	16382	16917	0	424
-40.173	-62.748	16382	17250	0	424
-38.658	-58.637	16384	17650	0	424
-41.435	-57.050	16384	17917	0	424
-46.268	-60.801	16384	18117	0	424
-50.270	-63.830	16386	18250	0	424
-57.807	-69.167	16386	18317	0	424
-59.899	-71.042	16386	18250	0	424
-63.433	-71.295	16386	18117	0	424
-65.957	-70.032	16389	17984	0	424
-69.311	-70.754	16389	17717	0	424
-74.288	-73.422	16389	17450	0	424
-79.769	-76.812	16389	17250	0	424
-83.267	-78.038	16389	16984	0	424
-86.441	-78.796	16389	16717	0	424
-90.768	-79.805	16389	16517	0	424
-92.283	-81.933	16389	16384	0	424
-93.329	-86.152	16386	16051	0	424
-96.430	-90.696	16386	15651	0	424
-97.476	-94.663	16386	15318	0	424
-100.902	-93.401	16386	15184	0	424
-103.282	-93.689	16386	15184	0	424
-101.226	-89.758	16386	15385	0	424
-94.843	-87.523	16386	15518	0	424
-87.306	-82.366	16384	15451	0	424
-81.717	-78.146	16384	15451	0	424
-78.146	-73.026	16382	15451	0	424
-73.350	-68.049	16384	15518	0	424
-71.042	-66.534	16386	15718	0	424
-69.311	-67.003	16384	15918	0	424
-66.859	-67.147	16384	16118	0	424
-64.335	-63.109	16384	16251	0	424
-56.545	-52.470	16384	16384	0	424
-46.628	-41.688	16384	16384	0	424
-38.118	-34.115	16384	16384	0	424
-35.882	-36.206	16384	16318	0	424
-38.767	-41.327	16384	16184	0	424
-43.347	-42.265	16382	15851	0	424
-46.448	-37.360	16384	15385	0	424
-51.100	-30.761	16382	14984	0	424
-51.713	-28.561	16382	14585	0	424
-55.319	-32.853	16379	14251	0	424
-52.182	-37.685	16379	14118	0	424
-49.838	-38.118	16379	14118	0	424
-45.041	-35.737	16377	14385	0	424
-41.580	-35.016	16377	14784	0	424
-44.861	-38.406	16379	15385	0	424
-48.215	-44.933	16379	16051	0	424
-51.785	-48.612	16379	16450	0	424
-52.578	-49.044	16379	16850	0	424
-47.386	-42.661	16382	17250	0	424
-42.950	-37.541	16382	17850	0	424
-38.478	-33.069	16384	18250	0	424
-39.380	-30.472	16384	18517	0	424
-43.455	-32.636	16386	18917	0	424
-45.943	-35.521	16389	19384	0	424
-47.133	-38.875	16389	19650	0	424
-47.349	-39.812	16391	19717	0	424
-45.474	-38.550	16391	19650	0	424
-44.356	-34.187	16394	19517	0	424
-47.638	-31.085	16394	19184	0	424
-50.198	-32.816	16394	18717	0	424
-53.732	-39.632	16394	18117	0	424
-55.139	-48.251	16389	17383	0	424
-54.814	-55.572	16389	16717	0	424
-53.660	-55.608	16389	16251	0	424
-55.644	-51.605	16386	15784	0	424
-58.348	-44.717	16386	15451	0	424
-62.027	-43.419	16386	15118	0	424
-63.181	-46.917	16386	14918	0	424
-62.568	-49.657	16384	14718	0	424
-57.843	-52.542	16384	14718	0	424
-58.348	-49.008	16384	14851	0	424
-56.581	-43.924	16384	14851	0	424
-56.113	-37.288	16384	14918	0	424
-58.493	-34.980	16384	15118	0	424
-54.995	-34.764	16384	15451	0	424
-53.372	-37.216	16386	15718	0	424
-47.926	-38.226	16386	15918	0	424
-45.114	-37.721	16386	16251	0	424
-42.048	-33.429	16386	16650	0	424
-40.029	-27.840	16389	17050	0	424
-39.235	-25.604	16389	17050	0	424
-38.695	-25.424	16389	16917	0	424
-36.351	-27.155	16389	16917	0	424
-37.685	-29.391	16389	17117	0	424
-36.314	-30.040	16391	17117	0	424
-37.324	-31.266	16389	16850	0	424
-38.370	-31.915	16389	16450	0	424
-39.596	-33.105	16389	16184	0	424
-41.688	-33.574	16389	15984	0	424
-44.753	-34.583	16386	15651	0	424
-48.215	-39.163	16386	15318	0	424
-55.824	-45.258	16386	15051	0	424
-61.089	-53.696	16386	14984	0	424
-63.758	-57.375	16384	14918	0	424
-64.371	-58.673	16384	14918	0	424
-60.584	-54.345	16384	14851	0	424
-56.004	-47.422	16384	14784	0	424
-53.660	-41.471	16382	14918	0	424
-54.021	-41.363	16384	15251	0	424
-52.687	-42.445	16384	15718	0	424
-57.266	-47.313	16384	16051	0	424
-59.034	-51.533	16384	16184	0	424
-60.873	-55.175	16384	16384	0	424
-61.846	-53.264	16384	16784	0	424
-58.565	-48.828	16386	16984	0	424
-54.850	-37.577	16386	17050	0	424
-47.458	-24.198	16386	17184	0	424
-42.337	-16.228	16386	17317	0	424
-42.409	-16.156	16386	17383	0	424
-47.422	-27.155	16386	17317	0	424
-58.060	-39.163	16386	17117	0	424
-63.794	-44.825	16386	16650	0	424
-63.686	-46.556	16384	16251	0	424
-58.745	-42.337	16384	15784	0	424
-53.552	-40.822	16382	15385	0	424
-50.956	-36.098	16382	15118	0	424
-54.634	-32.564	16382	14984	0	424
-53.552	-26.974	16379	14784	0	424
-54.021	-23.260	16377	14518	0	424
-49.982	-26.037	16377	14184	0	424
-47.638	-27.696	16374	13784	0	424
-47.386	-26.001	16372	13451	0	424
-47.890	-18.283	16372	13251	0	424
-51.100	-10.674	16368	13384	0	424
-52.795	-6.852	16368	13651	0	424
-50.595	-9.773	16366	13918	0	424
-49.477	-14.497	16366	14251	0	424
-45.150	-17.743	16368	14784	0	424
-42.914	-14.677	16368	15518	0	424
-41.940	-12.261	16368	16118	0	424
-40.534	-8.294	16368	16517	0	424
-37.432	-6.131	16372	16917	0	424
-34.620	-2.236	16372	17250	0	424
-33.682	-0.793	16372	17650	0	424
-35.377	-3.173	16372	18050	0	424
-38.947	-5.950	16372	18383	0	424
-41.940	-11.396	16374	18717	0	424
-40.570	-11.684	16374	18917	0	424
-38.442	-9.881	16377	18984	0	424
-35.413	-4.652	16379	19050	0	424
-32.925	-4.904	16382	19184	0	424
-36.026	-11.251	16379	19384	0	424
-39.524	-20.591	16382	19450	0	424
-46.087	-28.994	16382	19450	0	424
-49.693	-31.807	16382	19450	0	424
-50.270	-25.316	16384	19450	0	424
-49.766	-15.435	16384	19317	0	424
-48.143	-9.845	16384	19184	0	424
-52.290	-12.441	16386	19050	0	424
-59.214	-21.096	16386	19050	0	424
-66.138	-30.184	16389	19117	1	876
-66.426	-32.348	16386	19184	0	876
-62.928	-28.309	16391	19184	0	876
-53.985	-20.880	16391	19250	0	876
-50.234	-16.480	16394	19117	0	876
-51.172	-22.322	16391	18784	0	876
-57.627	-30.148	16391	18317	0	876
-60.224	-38.082	16391	17917	0	876
-58.997	-40.822	16391	17517	0	876
-53.336	-37.396	16391	17050	0	876
-45.150	-33.393	16394	16650	0	876
-46.015	-32.600	16394	16450	0	876
-50.523	-38.154	16394	16318	0	876
-57.627	-44.537	16394	16118	0	876
-64.551	-46.809	16394	15918	0	876
-66.715	-44.645	16394	15451	0	876
-66.787	-43.058	16391	14851	0	876
-66.066	-46.015	16391	14385	0	876
-65.921	-50.739	16391	14051	0	876
-62.712	-52.975	16391	13918	0	876
-59.070	-51.280	16389	13918	0	876
-58.276	-40.894	16389	13918	0	876
-58.457	-33.826	16389	13918	0	876
-63.866	-33.934	16386	13984	0	876
-72.737	-40.714	16386	14118	0	876
-78.759	-50.451	16386	14251	0	876
-79.445	-52.795	16386	14251	0	876
-78.471	-54.201	16386	14251	0	876
-76.127	-51.605	16384	14385	0	876
-75.478	-49.297	16384	14451	0	876
-77.822	-49.008	16384	14518	0	876
-78.471	-44.068	16384	14651	0	876
-78.219	-41.652	16384	14984	0	876
-71.908	-36.026	16384	15251	0	876
-68.878	-36.314	16384	15251	0	876
-70.141	-41.183	16384	15318	0	876
-74.144	-47.061	16384	15385	0	876
-81.176	-50.595	16382	15385	0	876
-83.375	-52.398	16382	15385	0	876
-83.556	-50.920	16382	15385	0	876
-80.166	-49.802	16382	15385	0	876
-76.992	-47.818	16382	15385	0	876
-75.261	-43.599	16379	15451	0	876
-74.504	-41.183	16382	15451	0	876
-71.006	-35.413	16382	15385	0	876
-65.849	-32.131	16379	15385	0	876
-62.315	-32.023	16379	15451	0	876
-63.613	-36.098	16379	15451	0	876
-68.806	-41.111	16379	15451	0	876
-74.901	-43.347	16377	15451	0	876
-79.409	-42.986	16377	15584	0	876
-78.182	-39.452	16377	15718	0	876
-75.009	-38.622	16377	15918	0	876
-73.819	-40.858	16377	16184	0	876
-73.963	-47.205	16377	16384	0	876
-73.783	-48.756	16377	16450	0	876
-72.881	-43.779	16377	16517	0	876
-73.062	-37.072	16374	16584	0	876
-73.494	-27.443	16374	16784	0	876
-75.153	-23.909	16377	16984	0	876
-75.045	-24.775	16377	17317	0	876
-72.232	-25.424	16377	17717	0	876
-68.374	-25.893	16377	17917	0	876
-69.023	-29.246	16377	17917	0	876
-72.449	-35.521	16377	17984	0	876
-78.002	-42.914	16382	18050	0	876
-82.726	-48.576	16382	18117	0	876
-84.746	-48.612	16382	17984	0	876
-81.356	-41.868	16379	17650	0	876
-81.031	-32.023	16382	17250	0	876
-79.517	-28.705	16379	16984	0	876
-78.579	-28.381	16379	16717	0	876
-77.678	-28.669	16379	16584	0	876
-77.497	-28.309	16379	16584	0	876
-75.225	-21.529	16379	16650	0	876
-74.252	-15.759	16379	16584	0	876
-74.757	-9.412	16377	16517	0	876
-75.478	-9.412	16377	16384	0	876
-77.137	-11.035	16377	16118	0	876
-79.553	-12.982	16374	15784	0	876
-82.185	-12.838	16374	15584	0	876
-81.572	-10.638	16374	15718	0	876
-78.038	-5.950	16377	16184	0	876
-76.596	-4.472	16377	16650	0	876
-75.730	-3.534	16377	17050	0	876
-82.294	-9.340	16379	17450	0	876
-88.893	-14.966	16379	17917	0	876
-95.384	-17.923	16382	18383	0	876
-95.853	-19.077	16382	18584	0	876
-89.362	-13.127	16386	18650	0	876
-87.126	-11.323	16384	18517	0	876
-83.628	-11.360	16384	18450	0	876
-85.936	-11.432	16384	18383	0	876
-87.414	-13.595	16384	18183	0	876
-88.027	-12.802	16384	17850	0	876
-88.136	-9.304	16386	17517	0	876
-84.529	-8.691	16386	17317	0	876
-79.553	-5.193	16386	16984	0	876
-68.698	0.036	16384	16717	0	876
-55.788	7.140	16384	16384	0	876
-44.501	12.514	16384	16051	0	876
-45.041	11.900	16384	15718	0	876
-52.542	5.445	16384	15584	0	876
-59.322	-1.190	16384	15718	0	876
-55.824	-1.010	16384	15851	0	876
-46.556	5.301	16384	16051	0	876
-33.898	14.064	16386	16384	0	876
-28.020	17.851	16386	16850	0	876
-31.843	13.091	16389	17184	0	876
-38.045	5.590	16389	17184	0	876
-43.347	-2.128	16389	17117	0	876
-48.828	-6.960	16389	16984	0	876
-50.956	-11.251	16389	16850	0	876
-54.021	-13.523	16389	16584	0	876
-52.687	-13.595	16389	16318	0	876
-52.542	-14.317	16389	16051	0	876
-52.398	-13.199	16389	15784	0	876
-54.273	-17.202	16389	15518	0	876
-55.427	-22.719	16389	15451	0	876
-56.293	-32.889	16389	15451	0	876
-58.420	-39.957	16389	15451	0	876
-57.591	-41.652	16389	15385	0	876
-60.981	-38.839	16386	15318	0	876
-64.623	-36.891	16386	15251	0	876
-67.111	-35.629	16386	15184	0	876
-70.393	-39.524	16386	15118	0	876
-72.593	-44.320	16386	15251	0	876
-72.376	-47.926	16386	15518	0	876
-70.970	-48.684	16386	15851	0	876
-71.042	-47.854	16389	16051	0	876
-70.862	-50.054	16389	16251	0	876
-71.799	-49.766	16389	16384	0	876
-75.009	-48.576	16389	16717	0	876
-74.324	-45.835	16389	16917	0	876
-73.062	-43.455	16391	16917	0	876
-69.744	-45.222	16391	16850	0	876
-66.751	-48.900	16389	16850	0	876
-64.984	-50.703	16389	16717	0	876
-63.000	-51.172	16386	16384	0	876
-60.476	-48.035	16386	16118	0	876
-58.168	-41.868	16386	15651	0	876
-55.860	-40.101	16384	15184	0	876
-53.300	-41.183	16384	14851	0	876
-54.959	-44.176	16384	14718	0	876
-52.038	-45.618	16382	14718	0	876
-49.044	-43.887	16382	14718	0	876
-45.114	-37.072	16382	14718	0	876
-41.219	-31.230	16379	14585	0	876
-39.091	-26.974	16379	14518	0	876
-40.822	-29.066	16379	14451	0	876
-41.183	-32.925	16379	14451	0	876
-41.940	-36.351	16379	14518	0	876
-39.993	-36.819	16379	14651	0	876
-39.524	-36.567	16379	14718	0	876
-40.570	-36.098	16377	14718	0	876
-45.510	-34.115	16377	14918	0	876
-53.696	-34.511	16377	15318	0	876
-56.401	-36.062	16377	15851	0	876
-57.735	-36.603	16377	16318	0	876
-53.841	-39.308	16377	16650	0	876
-49.910	-40.966	16379	17184	0	876
-46.736	-42.229	16379	17784	0	876
-48.431	-42.048	16379	18317	0	876
-49.477	-41.003	16382	18717	0	876
-50.343	-40.173	16384	19050	0	876
-48.936	-38.118	16384	19384	0	876
-43.527	-36.747	16384	19517	0	876
-42.337	-35.088	16386	19384	0	876
-42.878	-35.990	16386	19184	0	876
-44.645	-35.233	16386	18850	0	876
-43.671	-32.816	16386	18383	0	876
-39.740	-26.578	16386	17984	1	684
-36.314	-22.358	16386	17650	0	684
-36.711	-20.591	16386	17517	0	684
-42.878	-26.217	16386	17383	0	684
-51.533	-36.134	16386	17184	0	684
-54.309	-42.193	16386	17117	0	684
-53.372	-40.642	16386	17050	0	684
-48.576	-33.790	16386	16917	0	684
-47.097	-25.820	16386	16784	0	684
-47.205	-25.171	16386	16917	0	684
-55.031	-31.482	16389	17117	0	684
-58.961	-40.894	16389	17250	0	684
-63.505	-46.592	16389	17250	0	684
-65.741	-45.150	16389	17117	0	684
-64.371	-41.255	16391	17050	0	684
-66.715	-39.127	16389	17184	0	684
-67.688	-41.507	16391	17317	0	684
-65.128	-44.861	16394	17383	0	684
-59.791	-44.537	16394	17584	0	684
-52.831	-39.668	16394	17717	0	684
-45.618	-31.951	16394	17717	0	684
-41.435	-27.155	16394	17450	0	684
-40.570	-28.381	16394	17050	0	684
-44.501	-35.665	16394	16584	0	684
-47.926	-40.750	16394	16118	0	684
-48.179	-42.697	16391	15651	0	684
-49.008	-42.301	16391	15251	0	684
-46.917	-39.921	16391	14918	0	684
-45.114	-41.868	16391	14518	0	684
-47.386	-46.268	16389	14184	0	684
-45.871	-48.035	16389	13851	0	684
-40.678	-48.287	16386	13651	0	684
-34.043	-44.176	16386	13651	0	684
-30.472	-39.776	16386	13718	0	684
-32.708	-37.649	16386	13984	0	684
-39.091	-36.928	16386	14318	0	684
-43.743	-37.468	16386	14718	0	684
-46.376	-38.803	16386	14984	0	684
-42.084	-42.229	16386	15184	0	684
-37.288	-42.409	16386	15451	0	684
-34.475	-42.193	16386	15718	0	684
-33.754	-39.163	16386	15918	0	684
-34.547	-35.233	16386	16118	0	684
-35.124	-32.456	16389	16384	0	684
-32.889	-30.364	16389	16984	0	684
-27.732	-30.292	16389	17650	0	684
-21.277	-26.794	16389	17917	0	684
-14.966	-19.185	16389	17984	0	684
-9.737	-7.321	16391	18050	0	684
-3.462	6.996	16391	18183	0	684
0.793	14.785	16391	18317	0	684
2.452	17.923	16394	18250	0	684
0.613	14.461	16394	18050	0	684
-2.560	10.061	16394	17717	0	684
-2.416	12.369	16394	17317	0	684
1.551	20.123	16394	16984	0	684
11.143	35.918	16391	16717	0	684
24.991	53.913	16391	16384	0	684
34.043	67.652	16391	16184	0	684
36.459	74.180	16391	15918	0	684
29.607	71.727	16389	15651	0	684
18.247	64.118	16391	15451	0	684
11.828	58.817	16389	15251	0	684
13.307	59.935	16389	14984	0	684
17.706	66.390	16386	14918	0	684
21.096	69.564	16386	15051	0	684
14.605	68.482	16386	15251	0	684
8.222	62.676	16386	15451	0	684
2.488	58.204	16386	15651	0	684
4.688	57.807	16386	15918	0	684
8.835	61.882	16386	16118	0	684
10.494	63.577	16386	16184	0	684
15.471	60.043	16386	16184	0	684
15.074	55.788	16386	15918	0	684
18.428	51.100	16386	15718	0	684
18.933	53.949	16386	15651	0	684
23.476	59.178	16384	15584	0	684
25.748	64.984	16384	15451	0	684
28.453	66.390	16384	15451	0	684
32.059	66.534	16384	15451	0	684
35.124	63.577	16384	15518	0	684
34.331	60.332	16384	15584	0	684
32.239	58.420	16382	15651	0	684
30.184	58.853	16382	15718	0	684
24.775	54.345	16382	15851	0	684
19.077	51.136	16382	15918	0	684
17.923	47.458	16382	15918	0	684
14.136	43.707	16382	15784	0	684
13.091	42.301	16379	15584	0	684
10.746	39.993	16379	15451	0	684
9.412	37.180	16379	15518	0	684
6.275	31.085	16379	15651	0	684
0.541	25.207	16382	15851	0	684
-6.058	22.431	16382	16251	0	684
-10.097	18.536	16382	16650	0	684
-11.612	15.759	16382	16984	0	684
-8.799	14.713	16382	16984	0	684
-2.777	15.435	16382	17050	0	684
1.118	14.930	16382	17050	0	684
-1.010	15.651	16384	16917	0	684
-7.248	11.468	16382	16784	0	684
-19.365	6.022	16382	16517	0	684
-30.869	0.793	16379	16318	0	684
-40.353	-1.370	16379	15984	0	684
-46.051	-3.462	16379	15784	0	684
-51.064	-3.787	16377	15851	0	684
-53.949	-4.472	16377	15851	0	684
-58.384	-6.275	16377	15784	0	684
-61.305	-7.573	16377	15584	0	684
-65.885	-11.071	16374	15451	0	684
-74.540	-19.041	16374	15318	0	684
-85.900	-27.335	16372	15184	0	684
-98.485	-36.387	16372	15118	0	684
-108.330	-42.481	16372	15118	0	684
-113.523	-43.310	16368	15318	0	684
-114.605	-45.041	16372	15651	0	684
-113.848	-43.202	16372	15984	0	684
-112.982	-42.842	16374	16318	0	684
-113.487	-44.356	16374	16717	0	684
-114.136	-42.734	16374	17250	0	684
-115.723	-45.438	16374	17517	0	684
-117.166	-50.234	16374	17584	0	684
-122.899	-54.237	16374	17584	0	684
-126.722	-59.034	16374	17650	0	684
-133.502	-61.197	16374	17517	0	684
-137.793	-61.594	16374	17383	0	684
-141.904	-61.053	16374	17250	0	684
-145.763	-63.866	16374	17117	0	684
-153.516	-68.013	16374	17050	0	684
-163.397	-75.586	16377	17184	0	684
-175.622	-84.421	16377	17317	0	684
-185.539	-90.227	16379	17450	0	684
-189.001	-92.138	16377	17584	0	684
-187.198	-90.011	16379	17650	0	684
-179.950	-84.674	16379	17717	0	684
-173.278	-78.399	16379	17717	0	684
-173.170	-75.334	16379	17784	0	684
-177.533	-74.540	16379	17784	0	684
-182.510	-78.399	16379	17850	0	684
-185.755	-82.005	16382	18050	0	684
-184.457	-84.493	16382	18250	0	684
-182.979	-84.998	16384	18517	0	684
-180.707	-80.166	16384	18584	0	684
-178.904	-77.894	16386	18784	0	684
-175.875	-71.583	16389	19050	0	684
-169.311	-66.318	16389	19450	0	684
-162.459	-64.731	16391	19717	0	684
-159.106	-61.342	16394	19783	0	684
-156.040	-60.620	16396	19850	0	684
-156.401	-61.161	16394	19717	0	684
-152.687	-61.558	16396	19250	0	684
-151.569	-60.043	16396	18650	0	684
-150.198	-63.830	16396	18117	0	684
-151.749	-65.885	16396	17650	1	612
-156.473	-66.066	16396	17317	0	612
-161.414	-65.741	16396	16850	0	612
-161.269	-63.794	16396	16384	0	612
-159.935	-61.017	16396	15718	0	612
-157.952	-60.224	16394	15118	0	612
-155.716	-59.214	16394	14518	0	612
-154.237	-56.978	16391	13918	0	612
-154.021	-55.860	16391	13318	0	612
-150.126	-50.415	16389	12851	0	612
-144.356	-47.241	16389	12518	0	612
-139.344	-43.310	16386	12518	0	612
-135.521	-41.616	16386	12718	0	612
-135.810	-42.157	16386	12985	0	612
-137.324	-42.301	16386	13118	0	612
-137.324	-38.262	16386	13384	0	612
-133.718	-29.751	16384	13851	0	612
-130.761	-20.736	16384	14385	0	612
-126.037	-14.461	16384	14718	0	612
-129.895	-18.464	16384	14984	0	612
-133.285	-26.758	16384	15251	0	612
-136.603	-32.961	16384	15385	0	612
-137.288	-36.314	16384	15451	0	612
-134.006	-32.131	16384	15518	0	612
-128.705	-27.768	16384	15518	0	612
-119.329	-24.630	16384	15385	0	612
-111.287	-21.637	16382	15318	0	612
-102.993	-22.972	16384	15184	0	612
-96.754	-22.178	16384	15051	0	612
-91.778	-21.168	16382	14851	0	612
-86.441	-19.798	16382	14784	0	612
-77.245	-13.776	16379	14851	0	612
-69.275	-8.042	16379	14984	0	612
-61.846	-6.203	16379	15051	0	612
-57.411	-8.763	16379	15118	0	612
-56.653	-14.858	16377	15318	0	612
-53.985	-19.293	16377	15518	0	612
-49.802	-16.408	16377	15651	0	612
-42.914	-12.369	16377	15651	0	612
-40.786	-9.124	16374	15651	0	612
-40.389	-9.737	16374	15718	0	612
-48.576	-15.975	16374	15718	0	612
-56.762	-20.555	16372	15718	0	612
-62.027	-22.142	16372	15651	0	612
-63.397	-24.919	16372	15651	0	612
-61.738	-24.702	16372	15918	0	612
-62.495	-29.499	16372	16384	0	612
-68.301	-33.502	16374	16717	0	612
-73.603	-35.197	16377	17050	0	612
-75.766	-34.583	16374	17383	0	612
-75.334	-32.456	16374	17850	0	612
-72.701	-30.689	16377	18183	0	612
-71.655	-32.023	16377	18517	0	612
-75.406	-35.269	16377	18850	0	612
-77.281	-37.360	16379	18917	0	612
-74.901	-35.233	16379	18984	0	612
-69.780	-30.004	16379	19117	0	612
-66.426	-25.640	16382	19184	0	612
-67.688	-26.037	16382	19117	0	612
-73.783	-29.715	16382	18850	0	612
-79.877	-34.475	16382	18517	0	612
-80.887	-37.180	16382	18050	0	612
-78.796	-37.901	16382	17650	0	612
-78.832	-39.560	16379	17250	0	612
-78.940	-42.806	16379	16850	0	612
-82.871	-44.789	16379	16517	0	612
-87.018	-43.851	16379	16384	0	612
-90.155	-40.498	16379	16251	0	612
-91.922	-38.911	16379	16251	0	612
-96.610	-42.048	16379	16384	0	612
-102.308	-48.071	16379	16517	0	612
-105.914	-52.831	16379	16650	0	612
-106.852	-51.785	16379	16850	0	612
-104.544	-42.842	16384	17184	0	612
-101.046	-36.819	16386	17717	0	612
-99.531	-35.701	16386	18250	0	612
-99.712	-40.317	16386	18584	0	612
-100.829	-50.090	16389	18917	0	612
-100.072	-52.326	16389	19184	0	612
-98.377	-49.730	16391	19384	0	612
-96.682	-44.068	16394	19317	0	612
-97.656	-40.606	16394	19050	0	612
-99.026	-39.668	16394	18517	0	612
-99.495	-42.229	16394	17850	0	612
-96.574	-43.851	16394	17317	0	612
-95.204	-42.950	16394	17050	0	612
-92.283	-41.003	16394	16784	0	612
-90.371	-35.918	16394	16517	0	612
-84.638	-31.338	16394	16251	0	612
-82.077	-31.662	16394	16051	0	612
-80.058	-37.541	16394	16051	0	612
-78.723	-44.176	16396	16184	0	612
-82.149	-50.162	16394	16251	0	612
-83.195	-48.756	16396	16384	0	612
-79.913	-41.724	16396	16450	0	612
-75.406	-36.747	16400	16717	0	612
-72.737	-35.449	16400	16850	0	612
-71.655	-39.668	16400	16584	0	612
-71.475	-44.573	16400	16318	0	612
-71.511	-48.792	16400	16051	0	612
-68.915	-48.431	16400	15984	0	612
-63.866	-48.287	16400	15984	0	612
-57.771	-45.510	16402	15918	0	612
-54.490	-43.743	16396	15651	0	612
-50.884	-40.894	16396	15251	0	612
-48.179	-38.118	16396	14918	0	612
-42.914	-36.098	16396	14651	0	612
-41.003	-39.921	16396	14385	0	612
-36.783	-45.150	16394	14051	0	612
-34.006	-49.297	16394	13718	0	612
-30.184	-49.874	16391	13384	0	612
-20.664	-42.409	16391	13184	0	612
-9.773	-31.302	16389	12985	0	612
1.370	-19.654	16386	12851	0	612
7.862	-14.389	16386	12851	0	612
9.953	-13.523	16386	13051	0	612
10.206	-13.343	16386	13384	0	612
13.487	-16.084	16386	13651	0	612
16.192	-12.333	16384	13851	0	612
25.712	-7.537	16384	14118	0	612
33.502	-0.469	16384	14385	0	612
42.517	8.943	16384	14585	0	612
50.920	19.690	16384	14718	0	612
53.588	27.804	16382	14984	0	612
55.680	32.239	16382	15451	0	612
53.768	32.708	16384	15918	0	612
56.149	34.475	16384	16384	0	612
60.224	37.685	16384	16717	0	612
66.354	46.051	16384	17050	0	612
72.449	57.663	16384	17184	0	612
77.137	66.679	16384	17250	0	612
77.786	72.376	16384	17250	0	612
75.514	74.937	16384	17117	0	612
73.242	73.062	16384	16850	0	612
68.915	71.331	16382	16717	0	612
66.426	70.537	16382	16717	0	612
65.489	69.600	16384	16784	0	612
63.361	67.364	16382	16917	0	612
62.207	65.344	16384	17250	0	612
60.656	63.830	16384	17784	0	612
62.279	63.902	16386	18517	0	612
63.289	66.859	16384	19117	0	612
66.246	71.006	16389	19450	0	612
69.492	70.970	16389	19517	0	612
72.160	69.996	16391	19450	0	612
71.872	68.049	16391	19384	0	612
67.400	60.043	16389	19250	0	612
61.955	53.768	16391	18984	0	612
55.968	50.379	16391	18784	1	592
52.542	50.379	16391	18650	0	592
52.939	51.713	16391	18450	0	592
50.667	53.119	16394	18183	0	592
49.441	47.566	16394	17984	0	592
46.917	37.685	16394	17850	0	592
42.842	27.768	16394	17584	0	592
38.009	18.933	16394	17250	0	592
32.167	16.949	16394	16850	0	592
25.496	16.012	16394	16584	0	592
20.591	17.382	16394	16384	0	592
18.500	16.336	16394	16118	0	592
17.057	14.569	16394	15784	0	592
21.277	10.242	16394	15451	0	592
25.965	7.429	16391	15184	0	592
31.915	7.537	16389	14918	0	592
32.925	3.714	16389	14784	0	592
28.020	-3.065	16389	14651	0	592
22.358	-9.088	16389	14585	0	592
20.591	-13.415	16389	14585	0	592
27.119	-13.487	16389	14651	0	592
38.045	-8.547	16389	14718	0	592
44.537	-8.258	16389	14918	0	592
42.337	-16.192	16389	15184	0	592
31.302	-26.974	16389	15385	0	592
19.870	-39.344	16389	15784	0	592
14.317	-48.828	16391	16184	0	592
13.235	-52.903	16391	16384	0	592
17.310	-52.110	16391	16450	0	592
20.231	-50.415	16391	16517	0	592
22.178	-49.080	16391	16650	0	592
22.972	-46.123	16391	16784	0	592
24.666	-47.890	16391	16784	0	592
25.171	-49.044	16394	16650	0	592
21.060	-51.857	16394	16584	0	592
14.966	-57.771	16391	16450	0	592
5.229	-65.344	16391	16450	0	592
-5.229	-75.875	16391	16384	0	592
-12.333	-82.618	16389	16318	0	592
-12.153	-82.402	16389	16051	0	592
-10.278	-74.973	16389	15851	0	592
-5.373	-66.282	16389	15518	0	592
-5.445	-57.519	16386	15184	0	592
-8.763	-59.394	16386	14984	0	592
-19.401	-67.184	16386	14851	0	592
-25.929	-74.721	16386	14784	0	592
-33.357	-78.543	16384	14784	0	592
-33.934	-77.569	16384	14918	0	592
-31.735	-73.747	16384	15051	0	592
-29.318	-74.035	16384	14984	0	592
-30.653	-77.533	16384	14984	0	592
-34.151	-84.349	16384	15184	0	592
-41.075	-87.919	16384	15651	0	592
-47.566	-85.215	16384	15984	0	592
-52.578	-83.844	16384	16251	0	592
-51.064	-80.743	16384	16517	0	592
-48.720	-82.366	16384	16850	0	592
-41.075	-81.608	16384	17117	0	592
-34.764	-80.779	16386	17250	0	592
-32.059	-77.605	16386	17450	0	592
-34.331	-74.973	16386	17584	0	592
-38.118	-74.937	16386	17517	0	592
-39.704	-76.848	16386	17250	0	592
-39.235	-79.084	16386	16984	0	592
-40.029	-79.661	16386	16784	0	592
-41.003	-82.798	16384	16584	0	592
-44.320	-83.339	16384	16384	0	592
-43.960	-81.428	16384	15918	0	592
-41.868	-79.336	16382	15518	0	592
-39.019	-77.461	16382	15318	0	592
-36.242	-76.632	16382	15318	0	592
-39.235	-79.048	16382	15518	0	592
-42.265	-78.904	16382	15851	0	592
-43.130	-76.307	16382	16184	0	592
-42.048	-70.429	16382	16318	0	592
-39.596	-66.354	16382	16384	0	592
-36.423	-64.551	16382	16584	0	592
-34.079	-65.236	16382	16717	0	592
-35.233	-66.462	16382	16717	0	592
-34.908	-66.174	16382	16850	0	592
-37.144	-67.436	16384	17117	0	592
-41.219	-68.410	16384	17383	0	592
-43.419	-74.071	16384	17317	0	592
-45.582	-76.451	16384	17117	0	592
-41.471	-75.875	16384	16984	0	592
-32.312	-67.616	16384	16850	0	592
-23.296	-58.096	16382	16650	0	592
-20.519	-54.706	16382	16584	0	592
-22.575	-57.086	16382	16650	0	592
-30.436	-64.335	16384	16717	0	592
-35.124	-69.744	16384	16784	0	592
-32.816	-67.977	16384	16650	0	592
-27.768	-62.387	16382	16517	0	592
-24.306	-54.670	16382	16318	0	592
-25.424	-52.398	16382	16118	0	592
-32.600	-56.617	16382	15851	0	592
-40.786	-60.151	16379	15651	0	592
-42.950	-65.272	16379	15518	0	592
-39.416	-64.010	16379	15318	0	592
-32.059	-61.414	16379	15251	0	592
-25.568	-54.418	16379	15451	0	592
-25.532	-55.175	16382	15784	0	592
-30.797	-58.817	16382	15984	0	592
-35.774	-63.974	16382	16251	0	592
-37.360	-67.616	16382	16584	0	592
-33.213	-64.443	16384	17184	0	592
-26.145	-56.113	16384	17717	0	592
-19.942	-45.402	16386	18050	0	592
-16.012	-36.351	16386	18317	0	592
-11.648	-31.085	16386	18383	0	592
-10.530	-28.561	16386	18183	0	592
-8.511	-29.138	16386	17650	0	592
-8.186	-29.895	16384	17184	0	592
-11.684	-32.564	16384	16717	0	592
-13.848	-33.069	16382	16318	0	592
-11.396	-32.167	16384	15918	0	592
-7.212	-24.089	16384	15518	0	592
1.695	-17.129	16382	15251	0	592
9.665	-8.006	16382	15051	0	592
12.622	-0.757	16379	14784	0	592
10.169	2.741	16379	14518	0	592
5.121	3.426	16379	14318	0	592
0.757	3.895	16379	14184	0	592
-0.685	6.491	16377	14051	0	592
1.334	10.891	16374	13851	0	592
5.229	15.759	16374	13851	0	592
11.612	24.486	16372	14184	0	592
17.706	32.023	16372	14585	0	592
27.010	39.632	16372	14984	0	592
34.439	46.989	16372	15385	0	592
39.776	51.533	16372	15851	0	592
37.829	47.710	16372	16184	0	592
35.305	43.851	16374	16384	0	592
31.554	42.301	16374	16850	0	592
32.889	45.330	16377	17250	0	592
40.317	55.211	16377	17584	0	592
49.333	63.289	16379	17850	0	592
56.004	69.383	16379	17984	0	592
61.558	69.455	16379	18050	0	592
59.899	67.147	16379	18050	0	592
55.247	62.459	16379	17984	0	592
51.569	53.444	16379	17850	0	592
48.648	45.799	16379	17784	0	592
50.920	42.986	16379	17850	0	592
57.880	45.150	16379	17850	0	592
66.174	51.028	16379	17850	0	592
70.177	53.660	16382	17784	0	592
70.465	52.759	16382	17717	0	592
67.869	48.071	16382	17584	0	592
60.765	43.635	16382	17383	0	592
56.545	41.796	16382	17317	0	592
56.473	38.082	16382	17450	0	592
56.401	33.754	16382	17450	0	592
59.466	28.597	16382	17450	0	592
62.532	27.371	16384	17517	0	592
63.253	27.768	16384	17917	0	592
61.233	29.751	16386	18317	0	592
59.863	26.938	16386	18450	0	592
53.444	19.798	16389	18317	0	592
51.352	8.907	16389	18250	0	592
49.874	3.931	16389	18050	0	592
53.155	3.462	16389	17784	0	592
57.086	7.717	16389	17450	1	648
60.765	12.081	16389	17050	0	648
63.072	11.396	16389	16650	0	648
57.699	7.609	16389	16251	0	648
55.175	2.993	16389	15718	0	648
53.841	-0.541	16386	15318	0	648
52.398	-1.190	16386	14918	0	648
57.303	-2.452	16386	14651	0	648
60.404	-1.983	16384	14385	0	648
58.961	-5.193	16384	14118	0	648
52.146	-11.287	16382	13784	0	648
40.642	-23.332	16382	13584	0	648
28.705	-36.603	16382	13518	0	648
22.611	-46.232	16382	13718	0	648
19.834	-48.251	16382	14184	0	648
18.392	-47.386	16382	14718	0	648
17.743	-46.556	16382	15118	0	648
13.848	-46.953	16382	15518	0	648
12.982	-49.766	16382	15918	0	648
13.668	-52.614	16382	16118	0	648
11.540	-51.424	16382	16118	0	648
7.465	-54.273	16382	16251	0	648
0.072	-56.113	16382	16384	0	648
-6.131	-60.043	16382	16384	0	648
-6.996	-61.666	16382	16384	0	648
-5.662	-59.971	16382	16318	0	648
-5.950	-59.034	16382	16318	0	648
-8.619	-60.079	16382	16384	0	648
-12.261	-62.387	16382	16517	0	648
-19.365	-70.393	16382	16650	0	648
-23.765	-77.786	16382	16784	0	648
-28.525	-84.061	16384	16917	0	648
-31.302	-85.792	16384	17184	0	648
-31.085	-83.484	16384	17450	0	648
-32.203	-83.375	16386	17784	0	648
-29.282	-81.825	16386	18050	0	648
-28.381	-82.690	16386	18183	0	648
-27.587	-83.880	16389	18317	0	648
-26.361	-83.520	16389	18450	0	648
-27.768	-81.680	16391	18517	0	648
-28.453	-81.753	16391	18517	0	648
-31.446	-80.022	16391	18450	0	648
-32.131	-77.281	16391	18250	0	648
-28.201	-71.836	16391	17917	0	648
-22.827	-64.803	16391	17450	0	648
-14.821	-56.690	16391	16784	0	648
-8.727	-53.805	16389	16184	0	648
-4.400	-48.684	16389	15784	0	648
-4.544	-48.648	16389	15518	0	648
-5.590	-47.277	16389	15184	0	648
-6.599	-47.349	16384	14651	0	648
-8.907	-47.422	16384	14318	0	648
-10.999	-44.392	16382	14118	0	648
-10.278	-39.524	16382	13918	0	648
-9.088	-32.961	16382	13651	0	648
-5.878	-26.542	16382	13384	0	648
-3.498	-24.017	16379	13318	0	648
-5.445	-25.316	16379	13384	0	648
-8.078	-26.217	16377	13451	0	648
-10.927	-26.578	16377	13451	0	648
-16.012	-27.912	16374	13384	0	648
-20.555	-31.230	16374	13518	0	648
-25.712	-35.990	16374	13784	0	648
-30.689	-36.964	16374	14184	0	648
-27.407	-33.105	16372	14518	0	648
-25.856	-26.542	16372	14718	0	648
-23.945	-20.988	16372	14918	0	648
-25.784	-21.421	16372	15251	0	648
-29.210	-26.289	16372	15718	0	648
-32.023	-30.040	16372	16051	0	648
-31.590	-29.679	16374	16251	0	648
-28.633	-26.253	16377	16517	0	648
-27.047	-24.522	16374	16984	0	648
-26.109	-23.693	16374	17450	0	648
-26.109	-25.748	16374	17784	0	648
-24.847	-29.463	16374	18117	0	648
-23.080	-28.201	16377	18450	0	648
-19.113	-24.702	16377	18650	0	648
-18.211	-19.690	16377	18650	0	648
-18.788	-17.093	16377	18650	0	648
-24.270	-16.552	16379	18717	0	648
-28.886	-22.142	16379	18784	0	648
-29.102	-26.433	16379	18650	0	648
-25.135	-27.624	16379	18317	0	648
-20.159	-26.866	16377	17917	1	336
-12.910	-23.044	16377	17584	0	336
-12.333	-20.411	16377	17383	0	336
-12.405	-21.998	16377	17184	0	336
-16.733	-27.732	16379	16850	0	336
-19.654	-31.482	16377	16517	0	336
-21.565	-32.528	16377	16184	0	336
-20.664	-27.335	16377	15918	0	336
-17.454	-19.834	16377	15918	0	336
-11.215	-12.441	16377	15984	0	336
-10.422	-12.405	16377	15984	0	336
-8.691	-13.559	16377	15984	0	336
-8.294	-17.743	16377	16318	0	336
-7.753	-17.093	16377	16784	0	336
-5.193	-18.067	16379	17317	0	336
-3.426	-18.356	16379	17717	0	336
-3.137	-22.503	16382	18117	0	336
-5.337	-26.253	16384	18584	0	336
-7.573	-31.230	16384	18850	0	336
-6.094	-29.715	16384	18850	0	336
-2.705	-28.345	16386	18784	0	336
0.144	-26.433	16386	18517	0	336
0.938	-28.092	16386	18117	0	336
0.144	-32.167	16386	17517	0	336
-2.488	-33.213	16384	16917	0	336
-1.226	-28.814	16384	16517	0	336
2.488	-19.437	16384	16318	0	336
12.405	-8.583	16384	16118	0	336
17.634	-3.065	16384	15918	0	336
20.700	-3.642	16384	15651	0	336
15.398	-11.287	16384	15451	0	336
5.662	-15.795	16382	15251	0	336
0.288	-12.802	16382	15051	0	336
-0.325	-7.176	16382	15051	0	336
4.219	-0.288	16382	15118	0	336
9.917	0.397	16382	15184	0	336
10.025	-4.183	16382	15118	0	336
6.996	-10.927	16382	15118	0	336
1.839	-13.956	16382	15251	0	336
1.947	-14.028	16379	15251	0	336
3.534	-10.783	16379	15184	0	336
8.222	-6.960	16379	15451	0	336
12.045	-3.534	16382	15851	0	336
13.884	1.803	16382	16184	0	336
12.333	3.570	16382	16384	0	336
8.078	0.829	16382	16450	0	336
3.210	-2.344	16382	16584	0	336
-1.623	-9.232	16382	16584	0	336
-3.137	-12.874	16382	16517	0	336
-0.938	-8.330	16382	16450	0	336
5.770	-0.361	16382	16517	0	336
13.091	14.064	16382	16717	0	336
18.464	22.647	16384	16917	0	336
14.569	22.791	16384	17117	0	336
7.068	11.179	16384	17184	0	336
-5.878	-4.580	16384	17250	0	336
-16.444	-18.211	16384	17250	0	336
-20.375	-20.411	16384	17117	0	336
-12.405	-14.317	16386	16984	0	336
-2.056	-0.036	16386	16984	0	336
6.383	9.773	16386	16850	0	336
3.787	11.035	16386	16784	0	336
-5.698	3.426	16386	16784	0	336
-24.702	-10.169	16386	16717	0	336
-39.885	-25.568	16386	16717	0	336
-49.225	-35.774	16386	16717	0	336
-51.569	-38.045	16386	16850	0	336
-50.198	-34.151	16389	16984	0	336
-45.582	-27.696	16389	16917	0	336
-40.426	-21.277	16389	16717	0	336
-40.606	-24.558	16389	16517	0	336
-48.972	-36.639	16386	16384	0	336
-60.332	-54.706	16386	16118	0	336
-72.088	-70.898	16386	15784	0	336
-82.257	-78.399	16386	15584	0	336
-84.133	-80.274	16386	15451	0	336
-84.818	-76.812	16386	15451	0	336
-85.179	-76.055	16386	15518	0	336
-86.621	-77.425	16386	15518	0	336
-85.611	-81.140	16386	15518	1	316
-80.923	-79.300	16384	15584	0	316
-76.668	-72.881	16384	15584	0	316
-75.694	-64.479	16384	15651	0	316
-79.409	-58.168	16384	15651	0	316
-82.149	-56.798	16384	15584	0	316
-82.871	-57.014	16384	15318	0	316
-76.271	-59.250	16382	15184	0	316
-65.921	-53.588	16382	15318	0	316
-60.584	-48.179	16384	15584	0	316
-59.647	-43.924	16384	15851	0	316
-63.181	-49.261	16384	16051	0	316
-65.056	-53.228	16384	16384	0	316
-60.981	-55.788	16384	16650	0	316
-51.100	-53.372	16384	16917	0	316
-43.924	-49.477	16386	17184	0	316
-42.517	-45.871	16386	17584	0	316
-49.189	-47.602	16389	18117	0	316
-58.132	-52.182	16391	18584	0	316
-61.738	-50.054	16391	18784	0	316
-55.824	-48.972	16391	18850	0	316
-51.388	-45.582	16394	18717	0	316
-47.241	-46.123	16394	18517	0	316
-48.035	-46.340	16394	18117	0	316
-46.304	-46.159	16394	17650	0	316
-39.452	-41.435	16394	17184	0	316
-28.994	-33.790	16389	16717	0	316
-20.591	-27.083	16389	16384	0	316
-18.644	-24.306	16389	16051	0	316
-20.664	-26.974	16389	15651	0	316
-24.234	-27.984	16386	15318	0	316
-20.988	-28.273	16386	14984	0	316
-14.641	-24.739	16386	14585	0	316
-7.176	-19.618	16384	14184	0	316
-1.731	-14.172	16384	13918	0	316
-1.695	-9.881	16382	13718	0	316
-3.390	-4.904	16379	13518	0	316
-5.590	-3.029	16379	13384	0	316
-5.662	-6.275	16379	13451	0	316
-2.128	-12.225	16377	13718	0	316
1.983	-19.798	16377	14051	0	316
3.426	-20.952	16377	14451	0	316
6.419	-18.897	16382	15051	0	316
7.357	-12.081	16382	15784	0	316
9.232	-11.251	16382	16318	0	316
10.530	-11.900	16382	16517	0	316
10.169	-14.533	16382	16584	0	316
9.376	-17.238	16382	16517	0	316
9.629	-13.487	16382	16384	0	316
12.946	-7.717	16379	16184	0	316
17.454	-0.649	16379	16118	0	316
25.027	4.255	16379	16184	0	316
30.869	8.366	16379	16118	0	316
31.518	9.845	16377	16051	0	316
32.420	7.862	16377	15918	0	316
30.977	8.835	16377	15718	0	316
33.177	11.179	16374	15385	0	316
38.911	22.935	16372	14984	0	316
48.936	37.577	16372	14918	0	316
59.719	53.949	16372	15051	0	316
67.616	64.840	16372	15318	0	316
70.069	67.472	16372	15651	0	316
68.590	63.722	16372	16051	0	316
64.876	60.728	16374	16517	0	316
59.971	59.358	16377	17117	0	316
59.574	61.378	16374	17517	0	316
61.846	65.236	16377	17984	0	316
61.125	67.724	16377	18383	0	316
55.968	64.299	16379	18650	0	316
47.061	57.952	16379	18717	0	316
36.747	49.549	16379	18850	0	316
31.735	46.700	16379	18984	0	316
31.879	49.333	16382	19117	0	316
35.557	54.309	16382	18984	0	316
36.603	60.584	16382	18784	0	316
35.052	60.188	16382	18650	0	316
30.400	57.735	16384	18650	0	316
22.755	56.076	16384	18650	0	316
18.211	58.565	16384	18517	0	316
14.497	59.574	16384	18383	1	316
10.674	61.918	16386	18317	0	316
7.573	63.433	16386	18317	0	316
1.695	58.781	16386	18250	0	316
-7.970	52.795	16386	18050	0	316
-21.529	46.412	16389	17784	0	316
-32.312	39.812	16389	17450	0	316
-45.402	36.206	16389	17050	0	316
-56.653	32.853	16389	16784	0	316
-66.138	31.590	16389	16584	0	316
-75.838	27.263	16389	16384	0	316
-87.775	20.303	16389	16184	0	316
-96.682	16.336	16389	16051	0	316
-108.078	8.402	16389	15918	0	316
-117.526	0.577	16386	15718	0	316
-128.092	-7.429	16386	15385	0	316
-136.170	-15.903	16384	15318	0	316
-144.681	-18.392	16386	15385	0	316
-148.900	-21.349	16386	15318	0	316
-150.811	-19.437	16386	15184	0	316
-153.732	-19.329	16386	15184	0	316
-157.230	-19.798	16386	15251	0	316
-164.840	-23.693	16386	15251	0	316
-174.035	-28.994	16386	15251	0	316
-186.405	-36.062	16386	15318	0	316
-199.603	-46.268	16384	15318	0	316
-209.556	-54.057	16384	15318	0	316
-215.254	-56.690	16384	15251	0	316
-215.471	-56.473	16382	15251	0	316
