neuroNicle FX2
D3F25R12
Bluetooth SPP
2023년 11월 23일 목요일
오후 4:55
time interval = 4msec
EEG1	EEG2	PPG	sdPPG	pulse	peak_interval(msec)
-61.882	-66.210	16832	4351	0	936
-68.626	-63.613	16777	3915	0	936
-73.530	-63.541	16722	3869	0	936
-69.816	-61.991	16685	4397	0	936
-60.115	-60.007	16659	5134	0	936
-44.861	-58.673	16622	5767	0	936
-31.626	-58.565	16593	6460	0	936
-26.974	-63.722	16586	7574	0	936
-31.194	-67.111	16611	9381	0	936
-39.416	-70.069	16648	11595	0	936
-48.828	-69.023	16659	13282	0	936
-52.038	-65.921	16678	14201	0	936
-52.074	-65.417	16659	14653	0	936
-55.608	-67.869	16641	14818	0	936
-60.043	-75.117	16611	14758	0	936
-66.354	-82.762	16593	14577	0	936
-69.131	-81.212	16549	14336	0	936
-65.489	-71.980	16512	14035	0	936
-56.149	-59.214	16475	13719	0	936
-43.455	-50.451	16439	13644	0	936
-37.288	-52.182	16446	14397	0	936
-37.396	-59.142	16464	15782	0	936
-42.697	-64.948	16483	16880	0	936
-52.651	-62.604	16483	17513	0	936
-59.214	-58.817	16501	17995	0	936
-61.594	-56.978	16494	18206	0	936
-60.692	-59.538	16483	18191	0	936
-55.788	-62.568	16483	18251	0	936
-47.962	-61.522	16483	18402	0	936
-40.029	-58.384	16475	18356	0	936
-33.790	-56.040	16457	18130	0	936
-32.889	-59.538	16457	17995	0	936
-36.891	-66.859	16446	17965	0	936
-44.176	-74.721	16439	17769	0	936
-51.929	-79.697	16420	17438	0	936
-58.384	-78.399	16409	17242	0	936
-61.702	-74.937	16420	17468	0	936
-58.096	-66.895	16457	18402	0	936
-52.723	-59.574	16531	20043	0	936
-41.796	-53.480	16611	22001	0	936
-34.006	-51.064	16696	23763	0	936
-30.364	-51.569	16740	24697	0	936
-29.895	-52.867	16795	24637	0	936
-32.239	-54.742	16814	24004	0	936
-36.062	-57.266	16806	23040	0	936
-38.947	-60.043	16795	21820	0	936
-42.625	-61.197	16770	20420	0	936
-45.402	-61.630	16751	18914	0	936
-43.960	-58.024	16722	17634	0	936
-42.842	-55.031	16722	17212	0	936
-37.360	-51.461	16751	17483	0	936
-32.997	-49.333	16751	17468	0	936
-29.571	-47.566	16733	16835	0	936
-26.902	-48.359	16722	15978	0	936
-28.561	-51.713	16696	15059	0	936
-33.970	-56.113	16659	14201	0	936
-40.714	-58.024	16630	13538	0	936
-42.301	-52.254	16604	13071	0	936
-34.944	-37.829	16575	12529	0	936
-19.221	-21.890	16531	11912	0	936
-5.301	-13.127	16531	11791	0	936
0.288	-17.634	16549	12830	0	936
-5.734	-30.112	16593	14472	0	936
-17.743	-41.580	16611	15511	0	936
-27.443	-42.625	16622	15722	0	936
-30.472	-36.855	16604	15541	0	936
-31.230	-31.590	16586	15195	0	936
-33.393	-33.502	16556	14668	0	936
-37.901	-41.688	16531	14050	0	936
-43.743	-48.612	16494	13357	0	936
-49.261	-50.920	16446	12680	0	936
-50.667	-49.910	16409	12062	0	936
-46.736	-50.162	16348	11505	0	936
-40.029	-54.706	16311	11023	0	936
-34.151	-57.375	16256	10601	0	936
-30.653	-58.276	16212	10270	0	936
-30.869	-56.221	16164	10074	0	936
-35.449	-56.473	16127	10210	0	936
-38.082	-60.873	16090	10616	0	936
-40.714	-66.859	16065	10993	0	936
-42.012	-69.167	16046	11339	0	936
-41.796	-64.082	16028	11927	0	936
-41.255	-53.155	16035	13011	0	936
-38.839	-44.537	16083	14848	0	936
-35.016	-43.996	16138	17152	0	936
-34.836	-53.300	16193	19200	0	936
-36.206	-65.813	16237	20615	0	936
-39.452	-76.091	16274	21459	0	936
-44.140	-79.084	16293	21805	0	936
-47.097	-76.127	16311	21820	0	936
-47.169	-68.518	16329	21624	0	936
-43.924	-61.486	16322	21203	0	936
-37.288	-56.545	16311	20585	0	936
-29.571	-55.175	16293	19847	0	936
-25.604	-57.952	16267	19034	0	936
-25.063	-61.089	16248	18191	0	936
-31.626	-64.731	16219	17377	0	936
-38.767	-66.318	16193	16624	0	936
-46.051	-66.643	16164	15933	0	936
-45.330	-66.715	16127	15270	0	936
-39.524	-63.577	16090	14668	0	936
-29.679	-58.132	16072	14246	0	936
-20.880	-53.047	16054	14171	0	936
-21.132	-52.398	16046	14397	0	936
-28.814	-56.473	16035	14577	0	936
-41.147	-64.046	16028	14698	0	936
-52.903	-69.023	16017	14984	0	936
-59.394	-71.042	16028	15421	0	936
-60.909	-69.780	16028	15737	0	936
-56.185	-66.534	16017	15918	0	936
-44.284	-62.315	16028	16279	0	936
-30.905	-58.132	16054	16760	0	936
-21.132	-56.798	16046	17106	0	936
-20.267	-57.627	16046	17227	0	936
-29.427	-61.702	16054	17242	0	936
-38.406	-64.154	16035	17167	0	936
-43.058	-64.695	16035	17031	0	936
-39.704	-63.469	16028	16850	0	936
-36.964	-63.217	16009	16624	0	936
-42.157	-64.948	15998	16354	0	936
-53.228	-64.912	15998	16098	0	936
-62.676	-62.459	15962	15903	0	936
-64.190	-55.067	15962	15707	0	936
-52.578	-49.405	15943	15556	0	936
-35.521	-49.080	15936	15481	0	936
-23.152	-55.067	15925	15481	0	936
-21.673	-63.361	15918	15541	0	936
-27.083	-65.633	15907	15601	0	936
-34.872	-60.043	15888	15662	0	936
-37.829	-47.638	15899	15707	0	936
-34.872	-39.668	15888	15872	0	936
-32.744	-40.642	15907	16324	0	936
-38.983	-50.595	15918	16986	0	936
-49.333	-65.994	15943	17528	0	936
-58.673	-75.694	15954	17920	0	936
-62.027	-78.255	15980	18417	0	936
-54.093	-71.547	16009	18974	0	936
-41.652	-58.781	16017	19320	0	936
-32.492	-46.376	16046	19501	0	936
-31.771	-41.543	16072	19757	0	936
-39.632	-42.842	16101	20118	0	936
-47.205	-51.208	16120	20254	0	936
-50.162	-57.952	16138	20103	0	936
-46.628	-60.115	16157	19817	0	936
-39.416	-56.978	16146	19426	0	936
-37.180	-55.499	16157	18959	0	936
-44.392	-59.286	16146	18477	0	936
-51.208	-64.840	16157	18010	0	936
-53.949	-67.472	16146	17543	0	936
-48.792	-63.758	16127	17076	0	936
-36.639	-52.687	16127	16640	0	936
-28.020	-43.527	16127	16249	0	936
-28.345	-38.731	16120	15918	0	936
-36.170	-42.734	16101	15616	0	936
-44.753	-47.458	16101	15345	0	936
-47.422	-51.461	16101	15195	0	936
-40.534	-51.965	16101	15330	0	936
-31.013	-49.441	16109	15692	0	936
-25.388	-45.871	16120	15963	0	936
-30.400	-41.940	16146	16128	0	936
-36.387	-37.865	16146	16429	0	936
-41.940	-34.547	16164	16850	0	936
-39.885	-34.115	16182	17091	0	936
-33.754	-37.829	16193	17212	0	936
-27.804	-42.265	16237	17513	0	936
-25.388	-42.265	16248	17950	0	936
-26.830	-37.288	16267	18206	0	936
-32.564	-32.528	16274	18191	0	936
-35.629	-32.816	16293	18010	0	936
-40.462	-39.560	16293	17754	0	936
-41.183	-50.487	16293	17423	0	936
-39.416	-55.067	16285	17031	0	936
-38.118	-51.028	16274	16609	0	936
-36.747	-42.950	16285	16219	0	936
-35.882	-39.272	16267	15842	0	936
-32.131	-41.507	16256	15466	0	936
-26.289	-47.241	16237	15119	0	936
-24.919	-51.497	16219	14803	0	936
-24.450	-51.965	16219	14532	0	936
-30.112	-50.703	16201	14261	0	936
-35.810	-50.847	16193	14095	0	936
-39.957	-52.759	16193	14216	0	936
-40.642	-53.660	16193	14547	0	936
-40.029	-50.379	16193	14818	0	936
-39.344	-47.494	16193	14969	0	936
-40.353	-44.356	16201	15150	0	936
-40.065	-44.140	16212	15541	0	936
-39.704	-44.248	16219	16038	0	936
-37.829	-43.707	16230	16459	0	936
-36.314	-41.399	16267	17016	0	936
-36.747	-37.721	16304	17890	0	936
-40.822	-37.108	16340	18763	0	936
-46.592	-36.242	16366	19200	0	936
-50.487	-34.944	16384	19365	0	936
-45.618	-30.292	16420	19576	0	936
-33.177	-21.890	16446	19847	0	936
-17.202	-15.290	16464	19862	0	936
-7.681	-14.641	16475	19561	0	936
-10.206	-20.808	16483	19109	0	936
-20.627	-27.479	16475	18552	0	936
-29.138	-31.013	16464	17920	0	936
-31.230	-29.282	16457	17242	1	864
-24.414	-26.145	16439	16549	0	864
-22.214	-27.768	16446	16204	0	864
-24.486	-32.203	16475	16715	0	864
-30.292	-33.538	16531	17874	0	864
-31.230	-30.869	16556	18627	0	864
-25.279	-24.919	16586	18703	0	864
-16.120	-21.421	16622	18763	0	864
-10.855	-25.424	16678	19606	0	864
-13.631	-35.233	16759	21158	0	864
-19.942	-45.618	16832	22347	0	864
-26.830	-50.667	16869	22588	0	864
-27.371	-49.693	16917	22227	0	864
-24.847	-42.986	16935	21760	0	864
-20.736	-34.656	16961	21203	0	864
-16.733	-28.705	16961	20314	0	864
-16.805	-23.765	16961	19200	0	864
-17.887	-25.135	16961	18176	0	864
-19.582	-27.407	16935	17272	0	864
-22.034	-32.564	16924	16249	0	864
-26.361	-38.911	16887	15044	0	864
-27.804	-44.392	16861	13839	0	864
-30.148	-47.349	16825	12680	0	864
-31.879	-47.313	16777	11565	0	864
-30.761	-44.428	16740	10571	0	864
-32.276	-41.688	16685	9728	0	864
-35.413	-40.606	16630	9005	0	864
-41.760	-42.625	16586	8388	0	864
-43.996	-41.940	16538	7891	0	864
-43.599	-40.065	16475	7514	0	864
-39.885	-33.898	16428	7273	0	864
-34.764	-30.400	16384	7183	0	864
-36.459	-28.922	16340	7198	0	864
-38.695	-31.049	16293	7394	0	864
-41.291	-32.384	16267	7891	0	864
-38.875	-31.843	16248	8674	0	864
-33.970	-32.167	16237	9728	0	864
-31.699	-33.466	16274	11565	0	864
-35.954	-36.783	16340	14246	0	864
-42.625	-35.449	16391	16655	0	864
-48.035	-31.302	16439	18161	0	864
-47.818	-26.974	16464	19124	0	864
-45.330	-26.217	16501	19953	0	864
-41.183	-31.735	16531	20661	0	864
-41.507	-37.577	16549	20992	0	864
-40.173	-37.685	16549	20917	0	864
-37.973	-31.194	16549	20540	0	864
-34.043	-24.594	16538	19983	0	864
-32.167	-24.955	16538	19591	0	864
-33.718	-33.141	16586	20013	0	864
-38.190	-44.464	16630	21052	0	864
-41.688	-49.982	16648	21624	0	864
-41.904	-48.576	16667	21414	0	864
-39.019	-41.291	16678	20871	0	864
-36.567	-33.429	16678	20164	0	864
-35.593	-29.138	16659	19305	0	864
-37.468	-30.905	16630	18326	0	864
-40.498	-33.213	16604	17302	0	864
-41.976	-35.665	16586	16384	0	864
-41.039	-34.872	16556	15737	0	864
-38.442	-30.220	16549	15330	0	864
-32.564	-23.260	16512	14878	0	864
-27.696	-16.733	16494	14381	0	864
-19.257	-10.458	16483	14171	0	864
-7.898	-2.236	16494	14381	0	864
3.895	5.193	16512	14984	0	864
13.595	12.658	16567	16234	0	864
20.195	16.336	16622	18070	0	864
21.962	15.290	16667	19546	0	864
21.349	10.458	16714	20088	0	864
22.358	7.681	16759	20284	0	864
27.948	6.239	16806	20992	0	864
41.291	12.441	16880	22076	0	864
61.738	19.401	16906	22573	0	864
80.274	26.001	16942	22167	0	864
84.133	23.765	16935	21323	0	864
68.842	17.021	16942	20239	0	864
41.688	6.924	16906	18959	0	864
16.841	-0.433	16887	17558	0	864
5.734	-7.934	16843	16098	1	316
8.583	-18.175	16806	14638	0	316
15.939	-32.492	16740	13237	0	316
19.690	-47.890	16696	11927	0	316
14.966	-61.017	16641	10812	0	316
-2.669	-67.724	16593	10089	0	316
-25.207	-70.537	16549	9713	0	316
-51.461	-78.796	16501	9366	0	316
-73.206	-89.037	16464	9065	0	316
-83.880	-100.974	16428	9050	0	316
-83.880	-110.133	16402	9306	0	316
-77.281	-114.172	16366	9532	0	316
-71.511	-115.290	16340	9698	0	316
-71.619	-117.779	16311	10044	0	316
-79.481	-124.486	16311	10586	0	316
-89.903	-131.410	16274	11053	0	316
-97.656	-138.298	16256	11415	0	316
-101.298	-142.625	16237	11957	0	316
-102.560	-145.474	16219	12650	0	316
-107.645	-149.513	16212	13177	0	316
-115.471	-153.480	16193	13478	0	316
-124.162	-154.418	16175	13674	0	316
-128.273	-153.264	16146	13839	0	316
-125.496	-149.982	16120	14020	0	316
-121.637	-145.294	16101	14201	0	316
-113.018	-142.337	16072	14336	0	316
-104.075	-139.776	16046	14442	0	316
-92.319	-135.305	16028	14532	0	316
-83.772	-129.282	15998	14638	0	316
-81.103	-122.863	15973	14803	0	316
-85.792	-120.591	15954	14999	0	316
-93.797	-124.558	15943	15210	0	316
-101.983	-133.682	15918	15436	0	316
-103.714	-141.543	15907	15707	0	316
-102.560	-143.094	15899	16174	0	316
-99.603	-135.341	15918	16820	0	316
-96.790	-124.306	15907	17393	0	316
-94.158	-116.300	15925	17859	0	316
-90.948	-115.975	15936	18462	0	316
-83.375	-116.913	15954	19170	0	316
-70.465	-115.903	15980	19697	0	316
-57.916	-108.871	15980	20028	0	316
-51.136	-99.928	16017	20465	0	316
-49.874	-93.112	16035	21007	0	316
-53.372	-94.446	16054	21353	0	316
-50.523	-97.800	16072	21384	0	316
-42.409	-100.721	16083	21233	0	316
-36.242	-99.531	16083	20947	0	316
-41.327	-94.879	16090	20570	0	316
-54.959	-91.706	16090	20149	0	316
-69.744	-93.473	16090	19712	0	316
-75.694	-101.334	16090	19275	0	316
-72.268	-108.691	16090	18808	0	316
-61.918	-109.917	16072	18341	0	316
-56.004	-103.534	16065	17874	0	316
-52.939	-94.446	16065	17468	0	316
-52.903	-88.352	16065	17121	0	316
-50.090	-89.326	16046	16805	0	316
-45.582	-93.365	16035	16504	0	316
-37.541	-92.752	16035	16249	0	316
-29.174	-88.496	16028	16023	0	316
-25.568	-82.294	16017	15857	0	316
-32.239	-80.671	16028	15737	0	316
-43.924	-85.936	16009	15752	0	316
-53.516	-91.345	16028	16068	0	316
-54.598	-90.299	16065	16594	0	316
-49.477	-83.664	16065	17061	0	316
-45.582	-73.350	16101	17588	0	316
-47.349	-67.616	16146	18447	0	316
-52.723	-69.275	16182	19320	0	316
-52.723	-74.865	16219	19862	0	316
-44.392	-78.651	16248	20013	0	316
-34.331	-75.009	16267	19923	0	316
-27.515	-65.849	16274	19697	0	316
-26.542	-57.086	16285	19365	0	316
-31.807	-51.713	16293	18959	0	316
-32.600	-50.234	16311	18492	0	316
-31.122	-50.847	16293	17980	0	316
-28.164	-49.621	16293	17438	0	316
-25.063	-46.159	16285	16926	0	316
-24.125	-41.075	16274	16429	0	316
-23.909	-36.314	16274	15978	0	316
-22.142	-31.013	16256	15481	0	316
-18.392	-25.352	16248	15089	0	316
-15.362	-19.870	16248	14954	0	316
-14.425	-16.552	16267	15059	0	316
-11.900	-12.369	16248	15134	0	316
-3.390	-4.796	16256	15134	0	316
11.720	7.934	16256	15300	0	316
31.049	21.926	16274	15631	0	316
47.205	34.620	16285	15842	0	316
55.896	40.678	16293	15933	0	316
64.299	40.966	16304	16174	0	316
77.605	41.183	16322	16504	0	316
99.062	43.960	16322	16685	0	316
118.644	50.415	16329	16640	0	316
123.152	55.608	16348	16489	0	316
111.504	56.870	16340	16324	0	316
92.175	50.379	16329	16098	0	316
79.769	37.793	16322	15857	0	316
88.460	25.784	16311	15601	0	316
111.937	18.139	16304	15330	0	316
129.859	17.670	16285	15044	0	316
129.751	20.050	16267	14773	0	316
108.402	17.923	16267	14562	0	316
83.231	10.278	16248	14381	0	316
68.518	-2.056	16230	14231	0	316
71.619	-9.268	16219	14095	0	316
81.140	-9.773	16201	13975	0	316
84.133	-4.940	16182	13900	0	316
73.098	-2.957	16175	13869	0	316
53.516	-6.744	16164	13900	0	316
32.564	-18.103	16157	14050	0	316
16.408	-30.941	16157	14442	0	316
6.852	-41.543	16164	15059	0	316
4.039	-48.143	16175	15601	0	316
5.229	-51.821	16182	16023	0	316
4.544	-53.372	16212	16534	0	316
-1.406	-54.959	16219	17152	0	316
-9.124	-56.509	16230	17573	0	316
-10.566	-60.440	16248	17829	0	316
-6.311	-64.010	16267	18146	0	316
-0.649	-67.039	16285	18567	0	316
-0.865	-68.265	16304	18838	0	316
-7.934	-65.885	16311	18868	0	316
-18.464	-64.371	16322	18793	0	316
-28.164	-66.751	16329	18643	0	316
-36.747	-75.947	16348	18402	0	316
-51.965	-88.893	16329	18085	0	316
-65.489	-99.207	16329	17754	0	316
-74.216	-105.301	16322	17423	0	316
-79.950	-108.150	16311	17061	0	316
-87.486	-114.245	16304	16670	0	316
-100.252	-123.981	16293	16324	0	316
-111.973	-135.124	16293	15978	0	316
-116.336	-140.714	16274	15677	0	316
-112.369	-142.373	16267	15406	0	316
-115.831	-142.950	16256	15240	0	316
-127.155	-146.953	16256	15330	0	316
-144.464	-153.083	16274	15616	0	316
-149.657	-155.319	16267	15857	0	316
-138.803	-149.730	16274	16038	0	316
-118.716	-138.262	16293	16444	0	316
-106.022	-128.489	16322	17212	0	316
-112.117	-127.479	16359	17965	0	316
-124.991	-134.620	16384	18447	0	316
-135.341	-144.933	16409	18838	0	316
-133.285	-151.965	16439	19215	0	316
-121.529	-150.198	16457	19335	0	316
-108.078	-141.652	16464	19185	0	316
-98.594	-131.771	16475	18884	0	316
-95.564	-124.739	16483	18492	0	316
-94.591	-122.286	16475	18010	0	316
-93.869	-123.296	16464	17483	0	316
-93.401	-121.998	16457	16956	0	316
-92.391	-120.519	16446	16429	0	316
-90.948	-120.087	16439	15933	0	316
-89.217	-123.188	16420	15466	0	316
-85.683	-128.020	16409	15029	0	316
-80.094	-130.148	16391	14607	0	316
-73.530	-125.496	16366	14186	0	316
-66.066	-115.218	16348	13809	0	316
-63.000	-105.265	16329	13553	0	316
-64.623	-100.938	16348	13884	0	316
-72.665	-103.101	16402	15300	0	316
-81.212	-106.960	16464	17302	0	316
-84.493	-109.304	16520	18838	0	316
-74.757	-106.491	16575	19757	0	316
-55.968	-100.829	16611	20405	0	316
-37.468	-90.804	16641	20691	0	316
-32.889	-86.513	16667	20630	0	316
-46.123	-85.647	16703	20525	0	316
-66.102	-88.785	16722	20420	0	316
-74.216	-91.201	16733	20073	0	316
-64.118	-90.480	16740	19441	1	696
-40.317	-84.818	16733	18673	0	696
-24.270	-79.192	16714	17844	0	696
-26.722	-79.625	16703	16971	0	696
-44.573	-84.349	16678	16098	0	696
-64.731	-93.689	16648	15225	0	696
-71.583	-98.882	16622	14366	0	696
-5.013	-3.787	16311	15119	0	316
-2.596	-1.983	16329	15692	0	316
-8.799	-5.373	16359	16579	0	316
-17.382	-11.035	16391	17513	0	316
-26.073	-17.743	16409	18100	0	316
-29.102	-20.303	16439	18387	0	316
-26.037	-19.041	16464	18703	0	316
-22.972	-16.805	16483	19049	0	316
-22.503	-16.661	16501	19185	0	316
-23.404	-18.031	16512	19079	0	316
-26.253	-21.457	16520	18823	0	316
-27.840	-23.585	16512	18477	0	316
-28.850	-24.811	16520	18040	0	316
-26.578	-23.801	16512	17543	0	316
-23.008	-20.411	16501	17031	0	316
-18.464	-19.690	16494	16489	0	316
-15.507	-18.175	16475	15948	0	316
-16.336	-17.598	16446	15391	0	316
-20.123	-17.634	16428	14878	0	316
-22.827	-16.661	16409	14427	0	316
-22.972	-15.218	16391	14065	0	316
-22.467	-11.973	16366	13749	0	316
-20.555	-10.927	16348	13493	0	316
-19.473	-10.206	16329	13297	0	316
-19.185	-9.953	16311	13222	0	316
-15.975	-10.530	16311	13327	0	316
-12.081	-8.258	16311	13794	0	316
-6.058	-5.517	16329	14653	0	316
-4.075	-3.173	16348	15586	0	316
-5.085	-3.462	16366	16234	0	316
-11.864	-9.268	16384	16655	0	316
-19.510	-13.920	16402	17197	0	316
-26.037	-17.490	16428	17784	0	316
-26.361	-16.985	16446	18161	0	316
-24.089	-14.389	16457	18236	0	316
-21.204	-12.586	16464	18161	0	316
-20.447	-14.317	16457	17995	0	316
-20.988	-16.120	16457	17724	0	316
-21.926	-18.428	16446	17393	0	316
-22.935	-17.670	16439	17016	0	316
-21.024	-14.208	16428	16655	0	316
-17.562	-11.360	16420	16324	0	316
-12.946	-9.737	16409	16023	0	316
-9.773	-8.583	16391	15722	0	316
-9.484	-9.304	16384	15436	0	316
-13.163	-9.773	16366	15150	0	316
-16.733	-9.232	16348	14894	0	316
-17.166	-8.799	16340	14698	0	316
-16.913	-9.665	16322	14547	0	316
-16.120	-10.494	16304	14442	0	316
-16.949	-12.838	16285	14351	0	316
-22.214	-15.579	16274	14397	0	316
-27.696	-18.860	16293	14728	0	316
-31.085	-22.863	16293	15270	0	316
-35.088	-26.974	16304	15782	0	316
-35.016	-30.436	16329	16429	0	316
-32.348	-29.174	16359	17393	0	316
-28.309	-27.010	16391	18371	0	316
-23.729	-22.539	16420	18929	0	316
-24.162	-21.277	16428	19064	0	316
-25.243	-20.303	16439	18959	0	316
-25.279	-20.411	16446	18733	0	316
-23.404	-18.897	16446	18447	0	316
-20.267	-17.238	16446	18115	0	316
-19.690	-18.969	16446	17754	1	628
-23.296	-22.467	16439	17393	0	628
-26.866	-26.830	16420	17031	0	628
-26.938	-25.099	16409	16685	0	628
-22.106	-22.142	16409	16384	0	628
-17.670	-17.418	16391	16098	0	628
-15.975	-17.779	16384	15812	0	628
-19.762	-21.890	16377	15526	0	628
-24.270	-25.568	16359	15240	0	628
-27.335	-26.938	16348	14984	0	628
-27.407	-23.585	16329	14758	0	628
-25.135	-20.087	16311	14562	0	628
-21.962	-19.185	16311	14502	0	628
-19.690	-21.024	16311	14713	0	628
-17.202	-21.349	16322	15150	0	628
-15.759	-20.303	16322	15571	0	628
-15.795	-18.103	16348	16128	0	628
-18.211	-17.598	16377	16986	0	628
-20.808	-20.483	16409	17890	0	628
-23.549	-24.306	16428	18417	0	628
-24.125	-27.335	16457	18688	0	628
-22.250	-25.279	16483	19004	0	628
-22.503	-22.250	16512	19365	0	628
-24.125	-19.690	16531	19486	0	628
-24.702	-18.680	16531	19305	0	628
-24.234	-18.464	16538	18929	0	628
-17.923	-17.382	16531	18462	0	628
-11.432	-14.749	16531	17965	0	628
-6.094	-10.999	16520	17438	0	628
-6.383	-9.268	16512	16896	0	628
-10.242	-9.376	16501	16384	0	628
-16.625	-14.497	16475	15857	0	628
-22.106	-19.690	16457	15345	0	628
-25.893	-25.929	16439	14833	0	628
-27.696	-26.433	16420	14366	0	628
-23.873	-22.395	16402	13945	0	628
-16.264	-14.749	16377	13598	0	628
-8.006	-8.006	16359	13372	0	628
-2.921	-5.265	16340	13312	0	628
-2.669	-6.491	16329	13418	0	628
-9.917	-13.307	16322	13613	0	628
-19.762	-19.726	16329	14095	0	628
-27.083	-25.279	16359	14984	0	628
-28.994	-27.912	16377	15978	0	628
-27.984	-25.712	16391	16640	0	628
-23.440	-20.411	16409	17091	0	628
-17.166	-12.117	16439	17618	0	628
-14.172	-6.996	16464	18221	0	628
-10.278	-2.885	16483	18597	0	628
-6.708	-1.875	16494	18658	0	628
-5.445	-3.714	16501	18507	0	628
-5.626	-5.013	16501	18251	0	628
-7.465	-4.796	16501	17920	0	628
-10.602	-4.436	16494	17558	0	628
-11.251	-5.445	16494	17152	0	628
-13.740	-7.537	16483	16760	0	628
-15.759	-12.694	16464	16399	0	628
-19.582	-19.077	16457	16098	0	628
-23.945	-21.385	16446	15797	0	628
-26.974	-22.503	16428	15496	0	628
-26.650	-21.493	16420	15180	0	628
-24.414	-20.555	16402	14894	0	628
-24.378	-22.539	16384	14638	0	628
-24.450	-23.729	16366	14427	0	628
-26.614	-24.486	16348	14246	0	628
-28.056	-22.827	16329	14095	0	628
-25.496	-18.752	16322	14080	0	628
-21.673	-15.939	16322	14366	0	628
-16.300	-14.389	16322	14833	0	628
-13.415	-15.290	16329	15300	0	628
-13.848	-17.743	16348	15903	0	628
-16.805	-19.582	16384	16865	0	628
-18.752	-19.510	16409	17890	0	628
-18.824	-17.382	16439	18552	0	628
-16.408	-13.920	16464	18838	0	628
-13.740	-12.333	16475	18914	0	628
-13.054	-13.704	16483	18823	0	628
-15.398	-15.290	16483	18582	0	628
-18.139	-16.372	16494	18221	0	628
-20.447	-14.894	16475	17814	1	316
-20.736	-11.756	16464	17377	0	316
-19.257	-10.242	16457	16911	0	316
-18.860	-9.809	16446	16429	0	316
-17.706	-11.828	16428	15978	0	316
-19.113	-14.208	16409	15556	0	316
-19.582	-14.317	16391	15165	0	316
-22.899	-17.021	16377	14788	0	316
-25.243	-19.257	16359	14442	0	316
-28.922	-21.745	16340	14186	0	316
-31.446	-25.748	16311	13975	0	316
-31.338	-25.496	16293	13809	0	316
-30.436	-23.729	16285	13764	0	316
-26.145	-19.582	16274	14020	0	316
-24.991	-16.877	16293	14502	0	316
-25.856	-17.598	16293	14999	0	316
-27.299	-19.293	16304	15601	0	316
-25.893	-20.447	16340	16534	0	316
-21.529	-17.166	16359	17483	0	316
-13.776	-10.602	16384	18085	0	316
-5.590	-3.354	16402	18417	0	316
-2.921	0.108	16428	18793	0	316
-5.301	0.974	16457	19230	0	316
-9.196	-1.010	16475	19441	0	316
-12.297	-4.508	16475	19365	0	316
-15.038	-6.491	16494	19109	0	316
-16.480	-7.609	16483	18748	0	316
-17.021	-9.304	16483	18296	0	316
-18.283	-10.350	16475	17784	0	316
-19.834	-13.884	16464	17227	0	316
-21.529	-16.625	16446	16670	0	316
-20.087	-18.752	16428	16174	0	316
-20.303	-16.949	16409	15707	0	316
-20.195	-14.930	16391	15255	0	316
-21.024	-12.658	16377	14833	0	316
-23.585	-12.081	16359	14502	0	316
-25.460	-12.694	16340	14261	0	316
-22.683	-12.117	16329	14110	0	316
-17.274	-8.366	16329	14246	0	316
-9.556	-6.419	16329	14592	0	316
-6.671	-4.472	16329	14939	0	316
-6.708	-4.652	16348	15391	0	316
-9.737	-6.058	16377	16189	0	316
-10.133	-4.688	16402	17016	0	316
-10.133	-2.344	16420	17543	0	316
-8.583	-0.216	16439	17829	0	316
-10.314	-1.154	16457	18146	0	316
-14.461	-5.986	16475	18477	0	316
-19.726	-13.235	16483	18552	0	316
-21.673	-21.096	16483	18341	0	316
-23.404	-25.424	16483	17995	0	316
-23.657	-26.974	16483	17588	0	316
-22.431	-27.010	16464	17137	0	316
-24.594	-25.316	16457	16640	0	316
-26.289	-25.135	16439	16174	0	316
-30.725	-24.919	16420	15722	0	316
-32.564	-25.640	16409	15330	0	316
-32.023	-23.801	16391	14984	0	316
-24.991	-20.844	16377	14653	0	316
-16.733	-19.726	16359	14397	0	316
-13.163	-18.320	16340	14216	0	316
-16.408	-19.906	16322	14095	0	316
-24.017	-20.880	16311	14020	0	316
-29.535	-19.978	16311	13960	0	316
-26.289	-15.579	16285	13930	0	316
-19.582	-11.251	16267	13915	0	316
-14.497	-10.133	16256	13990	0	316
-13.884	-11.973	16248	14306	0	316
-19.546	-15.795	16267	14848	0	316
-22.178	-18.608	16267	15375	0	316
-22.719	-17.959	16285	16008	0	316
-18.464	-15.507	16311	16926	0	316
-17.562	-13.992	16340	17890	0	316
-20.339	-14.605	16377	18477	0	316
-26.073	-17.959	16384	18673	0	316
-32.059	-21.926	16391	18703	0	316
-35.774	-25.135	16402	18582	0	316
-35.629	-24.955	16391	18341	0	316
-34.367	-23.693	16384	18040	0	316
-30.905	-20.339	16384	17679	0	316
-28.561	-16.841	16377	17302	0	316
-27.119	-15.290	16359	16926	0	316
-25.099	-15.146	16359	16549	0	316
-25.027	-16.120	16348	16189	0	316
-24.162	-16.300	16329	15857	0	316
-22.395	-15.362	16311	15556	0	316
-21.421	-11.792	16293	15300	0	316
-18.067	-9.881	16285	15059	0	316
-16.444	-8.330	16267	14863	0	316
-15.002	-8.258	16256	14698	0	316
-13.523	-7.934	16237	14562	0	316
-10.963	-7.501	16230	14562	0	316
-9.737	-6.203	16230	14833	0	316
-10.638	-7.970	16248	15330	0	316
-14.569	-10.746	16248	15827	0	316
-20.050	-14.821	16267	16429	0	316
-24.450	-18.356	16304	17362	0	316
-25.460	-18.608	16340	18311	0	316
-22.863	-18.211	16366	18884	0	316
-20.844	-16.444	16391	19245	0	316
-23.044	-15.146	16420	19667	0	316
-26.037	-16.408	16457	20103	0	316
-30.436	-19.726	16464	20284	0	316
-34.151	-24.125	16483	20134	0	316
-32.600	-24.775	16494	19817	0	316
-26.902	-22.070	16501	19396	0	316
-19.365	-15.939	16494	18868	0	316
-12.730	-7.357	16494	18296	1	428
-9.809	-3.029	16483	17709	0	428
-10.061	-1.623	16475	17121	0	428
-9.917	-1.767	16464	16564	0	428
-9.773	-2.308	16457	16053	0	428
-5.806	-1.226	16439	15556	0	428
-4.003	-1.334	16420	15119	0	428
-2.416	-2.560	16402	14728	0	428
-4.039	-6.744	16384	14366	0	428
-6.419	-10.242	16377	14095	0	428
-10.710	-12.874	16366	14125	0	428
-13.163	-12.153	16366	14412	0	428
-14.641	-10.746	16377	14728	0	428
-16.264	-10.097	16384	15150	0	428
-16.156	-9.989	16409	15872	0	428
-17.057	-11.107	16439	16609	0	428
-18.175	-11.251	16446	17016	0	428
-18.428	-10.386	16464	17182	0	428
-15.687	-9.268	16483	17438	0	428
-14.245	-6.563	16494	17769	0	428
-10.783	-4.472	16520	17890	0	428
-9.592	-4.760	16520	17769	0	428
-9.016	-5.481	16520	17513	0	428
-12.369	-5.878	16520	17182	0	428
-16.192	-8.078	16512	16790	0	428
-20.555	-7.717	16494	16384	0	428
-20.952	-9.881	16483	15963	0	428
-20.159	-13.054	16464	15541	0	428
-17.959	-16.589	16446	15150	0	428
-19.113	-19.834	16439	14788	0	428
-21.890	-22.647	16420	14472	0	428
-27.660	-23.765	16391	14186	0	428
-29.895	-25.352	16377	13945	0	428
-29.318	-25.135	16359	13749	0	428
-29.571	-25.388	16340	13613	0	428
-29.427	-26.433	16329	13508	0	428
-30.761	-29.210	16322	13689	0	428
-33.321	-30.508	16359	14773	0	428
-31.915	-30.112	16409	16579	0	428
-27.840	-26.397	16464	18281	0	428
-24.089	-22.286	16501	19411	0	428
-21.313	-18.392	16549	20058	0	428
-18.752	-15.290	16575	20374	0	428
-15.975	-13.127	16611	20615	0	428
-10.314	-10.999	16641	20841	0	428
-7.753	-10.963	16659	20826	0	428
-6.311	-10.314	16667	20465	0	428
-6.960	-9.917	16678	19908	0	428
-6.996	-5.265	16678	19486	0	428
-3.390	0.216	16740	19802	0	428
0.829	5.517	16788	20706	0	428
3.534	5.914	16814	21173	0	428
2.488	2.272	16843	20871	0	428
0.397	-3.498	16843	20224	0	428
-2.705	-6.924	16850	19411	0	428
-3.534	-8.366	16843	18447	0	428
-4.940	-8.475	16814	17362	0	428
-4.075	-6.960	16795	16279	0	428
-4.472	-9.232	16759	15210	0	428
-6.275	-12.117	16733	14201	0	428
-14.713	-17.382	16696	13222	0	428
-22.755	-23.260	16648	12303	0	428
-29.282	-26.974	16604	11475	0	428
-31.699	-29.318	16575	10857	0	428
-29.246	-29.715	16549	10631	0	428
-26.037	-27.155	16549	10963	0	428
-24.630	-25.856	16575	12228	0	428
-20.447	-21.745	16630	14321	0	428
-15.326	-16.841	16696	16384	0	428
-8.186	-9.556	16751	17769	0	428
-5.554	-5.121	16777	18432	0	428
-6.167	-3.029	16806	18658	0	428
-9.989	-3.534	16832	18793	0	428
-12.946	-4.688	16843	18853	0	428
-9.016	-4.544	16850	18612	0	428
-4.868	-2.741	16850	18311	0	428
-0.108	-0.216	16898	18688	0	428
-0.469	-0.036	16953	19862	0	428
-6.635	-2.777	17045	21368	0	428
-13.523	-7.645	17108	22694	0	428
-18.175	-13.956	17156	23221	0	428
-18.247	-18.067	17181	22814	0	428
-17.057	-20.267	17218	22167	1	328
-17.562	-21.313	17266	22061	0	328
-21.457	-23.440	17310	22347	0	328
-25.748	-26.506	17328	22091	0	328
-25.929	-28.669	17328	21007	0	328
-21.060	-28.237	17321	19531	0	328
-17.238	-24.234	17292	17965	0	328
-15.543	-21.998	17266	16519	0	328
-17.706	-22.178	17236	15255	0	328
-23.837	-24.666	17200	13960	0	328
-26.217	-25.604	17163	12845	0	328
-24.053	-23.585	17137	12153	0	328
-20.267	-18.175	17108	11595	0	328
-13.379	-12.622	17064	10797	0	328
-10.783	-8.835	17016	9894	0	328
-8.114	-6.780	16972	9216	0	328
-8.186	-5.626	16917	8764	0	328
-7.717	-4.219	16869	8282	0	328
-6.527	-3.931	16806	7695	0	328
-7.212	-4.796	16751	7092	0	328
-10.061	-7.934	16685	6550	0	328
-14.028	-11.792	16611	6083	0	328
-19.257	-15.939	16538	5752	0	328
-23.332	-20.555	16464	5541	0	328
-27.191	-24.522	16402	5436	0	328
-29.823	-28.705	16329	5451	0	328
-29.030	-29.859	16267	5616	0	328
-26.758	-28.525	16219	5918	0	328
-22.575	-23.945	16146	6324	0	328
-20.195	-20.952	16109	7077	0	328
-23.260	-20.952	16109	8734	0	328
-29.066	-24.739	16138	11113	0	328
-34.006	-29.751	16138	13131	0	328
-34.800	-30.328	16138	14427	0	328
-31.482	-29.463	16138	15345	0	328
-28.164	-26.433	16138	16128	0	328
-23.945	-22.935	16138	16956	0	328
-25.424	-20.303	16138	17844	0	328
-23.044	-18.464	16138	18477	0	328
-18.572	-15.759	16138	18884	0	328
-11.576	-13.018	16146	19380	0	328
-7.393	-12.514	16146	19923	0	328
-5.590	-11.576	16146	20194	0	328
-10.169	-10.350	16127	20149	0	328
-15.398	-9.989	16127	19908	0	328
-20.844	-9.917	16101	19606	0	328
-21.241	-10.674	16090	19275	0	328
-22.683	-13.559	16072	18929	0	328
-22.791	-19.293	16046	18597	0	328
-24.775	-23.621	16028	18251	0	328
-28.164	-27.191	16009	17890	0	328
-29.643	-26.289	15980	17498	0	328
-27.840	-20.880	15962	17121	0	328
-25.135	-14.677	15936	16775	0	328
-20.519	-11.973	15907	16519	0	328
-19.654	-13.595	15899	16324	0	328
-22.611	-18.247	15862	16144	0	328
-25.784	-23.188	15851	15963	0	328
-27.912	-24.162	15826	15842	0	328
-25.784	-21.277	15815	15782	0	328
-19.365	-16.589	15796	15872	0	328
-12.081	-12.117	15807	16249	0	328
-6.311	-9.556	15807	16820	0	328
-6.239	-8.222	15833	17393	0	328
-8.979	-8.439	15851	18040	0	328
-10.133	-8.871	15881	19004	0	328
-7.753	-5.914	15918	19968	0	328
-2.200	-1.406	15954	20585	0	328
4.832	2.921	15962	20932	0	328
5.157	5.445	16009	21308	0	328
1.731	4.039	16035	21715	0	328
-6.383	-2.633	16072	21911	0	328
-14.208	-9.953	16090	21805	0	328
-21.745	-16.084	16101	21504	0	328
-24.342	-18.969	16109	21097	0	328
-24.702	-17.851	16120	20600	0	328
-22.358	-13.451	16127	20058	0	328
-19.473	-12.586	16120	19486	0	328
-22.503	-14.425	16120	18929	0	328
-28.814	-20.303	16120	18356	0	328
-37.360	-26.506	16109	17784	0	328
-41.940	-29.463	16101	17257	0	328
-40.786	-27.696	16090	16790	0	328
-36.314	-27.587	16090	16384	0	328
-32.384	-27.624	16090	16038	0	328
-32.167	-29.535	16083	15782	0	328
-34.475	-30.653	16090	15797	0	328
-35.449	-28.092	16101	16008	0	328
-33.466	-25.352	16109	16219	0	328
-28.273	-21.060	16127	16549	0	328
-21.313	-19.437	16175	17212	0	328
-16.228	-17.166	16201	17920	0	328
-14.605	-14.966	16237	18281	0	328
-15.867	-11.612	16256	18417	0	328
-17.959	-11.071	16274	18612	0	328
-17.454	-12.369	16304	18884	0	328
-15.723	-14.677	16322	18944	0	328
-12.405	-18.716	16348	18733	0	328
-14.749	-21.060	16348	18341	0	328
-20.447	-23.621	16348	17859	0	328
-28.237	-26.397	16348	17302	0	328
-34.151	-29.931	16340	16715	0	328
-37.072	-33.357	16329	16159	0	328
-37.937	-35.882	16311	15601	0	328
-39.812	-38.947	16293	15059	0	328
-41.507	-40.570	16274	14562	0	328
-44.537	-42.301	16274	14110	0	328
-43.563	-41.760	16248	13704	0	328
-41.652	-39.704	16219	13327	0	328
-40.786	-38.586	16201	13011	0	328
-39.812	-36.387	16182	12740	0	328
-40.930	-34.728	16157	12559	0	328
-39.452	-31.590	16157	12469	0	328
-34.439	-27.912	16120	12469	0	328
-26.578	-23.116	16109	12589	0	328
-20.627	-20.159	16109	12996	0	328
-20.087	-20.627	16127	13644	0	328
-22.611	-23.116	16120	14231	0	328
-25.424	-24.162	16138	14743	0	328
-25.424	-23.080	16146	15391	0	328
-23.188	-23.044	16175	16159	0	328
-22.034	-21.673	16182	16775	0	328
-24.666	-23.368	16193	17121	0	328
-27.407	-26.758	16212	17317	0	328
-29.859	-26.397	16212	17408	0	328
-28.201	-25.171	16212	17423	0	328
-26.253	-22.827	16230	17393	0	328
-22.322	-22.431	16212	17317	0	328
-21.854	-25.532	16212	17182	0	328
-22.250	-26.470	16212	17046	0	328
-22.863	-27.335	16201	16880	0	328
-24.919	-26.145	16201	16715	0	328
-29.030	-25.965	16193	16549	0	328
-32.564	-27.263	16182	16414	0	328
-35.485	-32.203	16175	16309	0	328
-37.901	-35.665	16175	16234	0	328
-38.478	-37.216	16175	16159	0	328
-36.423	-33.646	16182	16098	0	328
-32.059	-25.820	16164	16023	0	328
-26.145	-18.860	16157	16008	0	328
-18.464	-13.812	16175	16249	0	328
-12.369	-12.189	16193	16700	0	328
-12.081	-11.900	16201	17137	0	328
-13.559	-13.091	16230	17664	0	328
-18.247	-14.172	16267	18477	0	328
-20.988	-14.281	16311	19305	0	328
-21.204	-16.084	16340	19757	0	328
-18.680	-16.048	16366	19923	0	328
-12.658	-14.281	16391	20149	0	328
-6.852	-12.369	16428	20420	0	328
-4.111	-12.117	16464	20751	0	328
-4.291	-10.927	16538	21640	0	328
-9.917	-10.097	16611	23010	0	328
-14.028	-9.124	16678	23868	0	328
-17.274	-10.169	16722	23899	0	328
-15.795	-13.054	16770	23477	0	328
-12.874	-15.182	16795	23040	0	328
-11.576	-15.903	16869	23236	0	328
-12.153	-14.172	16935	23914	0	328
-12.405	-10.602	16990	24049	0	328
-14.389	-8.583	17009	23296	0	328
-13.920	-9.629	17027	22121	1	644
-12.189	-11.612	17045	21067	0	644
-9.016	-11.900	17089	20766	0	644
-7.104	-11.468	17145	21127	0	644
-4.472	-11.323	17192	21233	0	644
-6.852	-10.638	17218	20706	0	644
-8.547	-12.622	17229	19787	0	644
-13.595	-12.550	17247	18838	0	644
-13.559	-12.297	17284	18387	0	644
-15.723	-11.504	17339	18763	0	644
-16.120	-12.477	17395	19396	0	644
-17.166	-16.192	17431	19396	0	644
-16.048	-18.500	17457	18778	0	644
-13.307	-17.274	17486	18206	0	644
-7.789	-12.514	17531	18146	0	644
-5.373	-7.681	17567	18341	0	644
-5.986	-5.770	17586	17950	0	644
-9.809	-10.566	17578	16730	0	644
-13.523	-14.461	17567	15406	0	644
-15.182	-17.129	17578	14743	0	644
-14.966	-15.507	17578	14638	0	644
-13.451	-10.278	17578	14231	0	644
-9.376	-4.111	17560	13267	0	644
-6.419	-1.695	17542	12258	0	644
-2.705	-1.839	17542	11912	0	644
-2.308	-4.940	17549	12363	0	644
-4.472	-8.943	17615	13523	0	644
-9.016	-12.225	17689	15481	0	644
-9.412	-10.422	17762	17377	0	644
-9.484	-8.222	17806	17965	0	644
-8.402	-5.193	17817	17618	0	644
-9.989	-5.049	17872	17679	0	644
-10.422	-4.977	17898	18236	0	644
-11.107	-4.724	17928	18296	0	644
-7.357	-3.642	17917	17438	0	644
-2.849	-1.767	17891	16008	0	644
-2.488	-0.252	17843	14291	0	644
-4.940	-1.515	17799	12860	0	644
-11.864	-3.282	17788	12333	0	644
-15.254	-4.904	17770	12273	0	644
-14.749	-5.481	17725	11716	0	644
-10.999	-7.717	17670	10481	0	644
-8.078	-7.934	17622	9261	0	644
-5.662	-7.934	17578	8749	0	644
-6.419	-6.744	17567	9080	0	644
-8.583	-4.255	17578	10165	0	644
-8.330	-3.678	17641	12092	0	644
-9.881	-4.904	17689	14261	0	644
-11.720	-9.484	17751	16068	0	644
-15.759	-12.946	17781	17302	0	644
-19.113	-14.966	17788	17618	0	644
-21.529	-13.271	17781	16911	0	644
-23.476	-13.704	17725	15647	0	644
-26.866	-16.408	17659	14005	0	644
-30.364	-21.926	17597	12348	0	644
-35.665	-28.164	17549	11415	0	644
-40.570	-33.754	17512	11369	0	644
-43.996	-38.983	17505	11897	0	644
-47.422	-42.301	17505	12619	0	644
-50.198	-43.851	17494	13207	0	644
-47.386	-40.822	17512	13915	0	644
-41.543	-34.331	17531	15104	0	644
-32.312	-26.938	17542	15978	0	644
-25.640	-24.558	17523	15933	0	644
-24.450	-25.207	17486	15104	0	644
-28.237	-27.732	17420	13900	0	644
-32.095	-28.886	17358	12604	0	644
-31.446	-25.424	17284	11475	0	644
-26.578	-18.428	17266	11264	0	644
-21.818	-11.864	17273	12424	0	644
-19.906	-8.619	17284	13945	0	644
-21.781	-8.186	17284	14788	0	644
-23.404	-12.514	17303	15481	0	644
-21.673	-14.785	17310	16294	0	644
-17.093	-15.723	17303	16700	0	644
-12.405	-13.776	17328	17332	0	644
-11.648	-11.720	17413	19230	0	644
-15.146	-10.963	17505	21896	0	644
-19.942	-12.694	17597	24064	0	644
-20.736	-13.740	17696	25676	0	644
-18.788	-14.785	17825	27664	0	644
-14.281	-12.622	17983	30254	0	644
-10.314	-11.287	18137	32767	0	644
-8.006	-10.674	18295	32767	0	644
-6.131	-11.179	18413	32767	0	644
-4.940	-12.658	18505	32767	0	644
-3.498	-12.261	18553	32767	0	644
-4.652	-8.835	18578	31399	0	644
-8.727	-7.285	18542	28206	0	644
-14.353	-6.635	18497	24576	1	356
-15.362	-9.376	18461	21338	0	356
-15.002	-11.792	18424	18944	0	356
-11.107	-14.100	18395	17091	0	356
-8.835	-14.028	18358	15391	0	356
-6.780	-12.730	18339	13749	0	356
-10.242	-14.533	18277	12062	0	356
-12.838	-17.454	18185	9803	0	356
-13.992	-19.726	18075	6836	0	356
-12.694	-18.752	17953	3869	0	356
-10.386	-13.343	17854	1761	0	356
-7.393	-6.780	17744	707	0	356
-6.058	-1.154	17670	285	0	356
-7.501	-1.010	17604	270	0	356
-8.330	-5.698	17542	601	0	356
-10.422	-12.730	17486	1219	0	356
-12.874	-18.500	17450	2077	0	356
-14.713	-20.555	17395	2951	0	356
-16.336	-19.005	17321	3237	0	356
-16.228	-15.651	17218	2725	0	356
-17.202	-14.749	17100	1716	0	356
-18.031	-14.461	16979	767	0	356
-18.139	-15.002	16880	677	0	356
-13.920	-13.018	16806	1460	0	356
-8.907	-8.475	16722	2394	0	356
-2.813	-4.364	16667	3478	0	356
-2.344	-3.750	16611	4878	0	356
-6.888	-6.960	16556	5993	0	356
-13.884	-10.025	16464	6505	0	356
-15.867	-12.405	16377	6535	0	356
-17.346	-15.110	16256	6174	0	356
-18.247	-16.625	16164	5903	0	356
-20.555	-20.664	16083	6415	0	356
-28.237	-27.047	16046	7891	0	356
-33.429	-30.545	16017	9984	0	356
-34.583	-31.987	15998	12138	0	356
-30.869	-30.256	15998	13854	0	356
-24.775	-26.470	15980	15466	0	356
-21.132	-24.522	16009	17468	0	356
-20.159	-23.476	16054	19968	0	356
-22.358	-23.909	16157	23296	0	356
-21.854	-22.935	16274	27121	0	356
-19.870	-21.204	16377	30058	0	356
-17.093	-17.310	16428	31218	0	356
-13.523	-14.100	16446	30871	0	356
-11.179	-12.045	16457	29938	0	356
-8.330	-10.819	16475	29290	0	356
-5.914	-8.655	16494	28929	0	356
-2.488	-7.140	16494	28356	0	356
-0.865	-2.957	16531	27859	0	356
-0.288	2.308	16538	27528	0	356
0.685	5.914	16556	26760	0	356
3.173	8.294	16538	25435	0	356
5.229	7.717	16512	23763	0	356
5.013	5.481	16457	21624	0	356
4.436	3.029	16384	19094	0	356
1.190	0.216	16285	16414	0	356
-2.128	-0.613	16201	13990	0	356
-1.947	-2.669	16138	12499	0	356
-1.010	-2.524	16090	11791	0	356
0.433	0.433	16028	11189	0	356
1.659	3.065	15998	10963	0	356
3.498	5.878	15980	11309	0	356
4.183	3.354	15925	11339	0	356
3.498	-2.705	15881	10692	0	356
1.118	-10.350	15796	9773	0	356
-3.318	-15.795	15723	8794	0	356
-7.537	-15.507	15642	7815	0	356
-8.871	-12.153	15539	6897	0	356
-9.520	-8.835	15440	6083	0	356
-10.530	-8.691	15348	5421	0	356
-17.129	-11.828	15256	4924	0	356
-25.965	-17.202	15182	4713	0	356
-34.259	-21.962	15090	4894	0	356
-40.786	-23.837	15017	5421	0	356
-42.373	-24.991	14969	6068	0	356
-42.048	-25.929	14914	6972	0	356
-39.452	-27.912	14888	8297	0	356
-37.468	-29.354	14859	9743	0	356
-33.429	-29.138	14840	11204	0	356
-27.768	-26.217	14877	13327	0	356
-24.234	-21.854	14914	16174	0	356
-23.296	-20.447	14969	18688	0	356
-27.551	-23.332	14987	20254	0	356
-34.764	-30.472	15017	21429	0	356
-43.130	-37.252	15090	23085	0	356
-45.835	-40.930	15164	25118	0	356
-46.123	-41.868	15208	26504	0	356
-45.979	-39.668	15245	26941	0	356
-45.907	-39.704	15263	26820	0	356
-47.602	-41.255	15274	26338	0	356
-47.962	-42.337	15282	25555	0	356
-43.419	-42.337	15274	24667	0	356
-35.269	-38.118	15256	23733	0	356
-27.732	-31.843	15237	22709	0	356
-22.106	-27.047	15219	21594	0	356
-19.762	-24.378	15201	20480	0	356
-17.706	-25.460	15164	19396	0	356
-16.625	-28.814	15134	18387	0	356
-17.238	-32.672	15098	17423	0	356
-19.618	-36.242	15061	16504	0	356
-25.279	-39.740	15043	15782	0	356
-32.600	-43.094	15017	15406	0	356
-39.235	-48.612	15024	15647	0	356
-46.304	-51.244	15072	16685	0	356
-53.119	-54.165	15127	18356	0	356
-58.529	-56.762	15182	19847	0	356
-58.601	-57.230	15226	20781	0	356
-55.572	-57.916	15293	21504	0	356
-49.405	-56.113	15392	22950	0	356
-43.455	-53.191	15532	25540	0	356
-42.950	-47.710	15660	28115	0	356
-44.140	-44.392	15752	29305	0	356
-45.763	-41.616	15851	29516	0	356
-46.953	-42.806	15954	29938	0	356
-43.202	-43.815	16054	30570	0	356
-37.180	-44.645	16157	30781	0	356
-31.735	-41.543	16274	31112	0	356
-28.777	-37.541	16446	32634	0	356
-28.164	-31.879	16630	32767	0	356
-27.984	-27.804	16814	32767	0	356
-27.010	-26.253	17009	32767	0	356
-24.053	-26.037	17229	32767	0	356
-21.818	-25.207	17457	32767	0	356
-23.404	-26.037	17696	32767	0	356
-29.174	-30.364	17964	32767	0	356
-37.613	-36.314	18203	32767	0	356
-41.616	-41.652	18431	32767	0	356
-43.599	-43.383	18626	32767	0	356
-41.832	-41.363	18762	32767	0	356
-41.003	-35.990	18865	32767	0	356
-43.924	-34.656	18994	32767	0	356
-50.559	-37.432	19111	32767	1	528
-51.677	-40.858	19240	32767	0	528
-46.700	-41.435	19325	30359	0	528
-37.324	-39.235	19361	26549	0	528
-27.515	-34.043	19387	22634	0	528
-25.856	-31.049	19442	19817	0	528
-30.761	-30.004	19497	17784	0	528
-36.387	-30.040	19516	15526	0	528
-36.531	-29.138	19545	13071	0	528
-28.633	-25.352	19571	11279	0	528
-16.589	-19.510	19626	10406	0	528
-6.996	-13.199	19692	10134	0	528
1.334	-6.131	19766	10195	0	528
6.635	2.056	19847	10406	0	528
12.081	6.527	19931	10647	0	528
16.408	8.511	19994	10903	0	528
18.139	6.022	20078	11189	0	528
16.012	1.515	20141	11430	0	528
13.379	0.649	20207	11625	0	528
11.468	-0.180	20262	11610	0	528
12.658	3.895	20281	10963	0	528
16.264	7.357	20299	9788	0	528
21.313	10.386	20288	8659	0	528
28.273	13.956	20270	7288	0	528
34.511	17.238	20170	4909	0	528
39.812	19.546	20060	1656	0	528
41.507	21.673	19913	0	0	528
40.534	23.621	19766	0	0	528
40.786	25.063	19589	0	0	528
41.111	28.453	19424	0	0	528
42.770	31.302	19314	0	0	528
42.445	32.528	19222	0	0	528
41.003	33.646	19167	0	0	528
37.577	33.177	19104	0	0	528
38.767	32.744	19075	0	0	528
39.740	32.167	19056	0	0	528
40.642	32.131	19056	104	0	528
37.613	30.040	19056	2695	0	528
34.944	30.436	19049	4969	0	528
31.049	30.869	19012	6369	0	528
31.915	32.131	18964	7183	0	528
34.079	30.436	18957	8327	0	528
32.492	27.191	18957	9969	0	528
29.787	22.539	18946	11656	0	528
26.614	18.356	18957	13267	0	528
25.243	18.500	18957	14863	0	528
28.128	19.365	18983	16384	0	528
32.600	20.808	18975	17603	0	528
33.393	21.385	18946	17769	0	528
28.994	20.808	18865	16609	0	528
21.529	21.277	18799	15180	0	528
15.146	20.159	18744	14532	0	528
13.343	20.014	18689	14442	0	528
15.687	19.365	18615	14125	0	528
19.834	18.320	18560	13583	0	528
19.401	15.362	18516	13433	0	528
14.894	11.900	18486	13930	0	528
8.871	8.655	18486	14969	0	528
5.265	7.321	18497	16324	0	528
6.239	9.845	18486	17377	0	528
8.871	12.838	18450	17408	0	528
12.369	14.785	18406	16700	0	528
11.540	14.208	18376	16384	0	528
9.052	11.756	18358	16790	0	528
4.796	8.691	18376	17528	0	528
1.695	7.104	18376	18341	0	528
-2.813	4.291	18387	19124	0	528
-6.563	0.469	18395	19847	0	528
-12.117	-4.832	18413	20585	0	528
-18.644	-11.792	18442	21399	0	528
-23.729	-17.490	18479	22182	0	528
-27.696	-21.673	18505	22784	0	528
-28.597	-22.214	18534	23161	0	528
-27.696	-20.700	18560	23417	0	528
-26.109	-21.204	18597	23733	0	528
-25.820	-20.772	18634	24079	0	528
-26.830	-22.395	18663	24019	0	528
-28.850	-22.719	18626	22905	0	528
-31.626	-24.053	18560	20540	0	528
-32.816	-24.270	18486	17874	0	528
-33.862	-25.784	18424	15948	0	528
-34.836	-28.561	18369	14758	0	528
-36.964	-29.931	18321	13930	0	528
-39.308	-31.013	18277	13071	0	528
-42.770	-32.564	18174	11565	0	528
-43.527	-33.646	18082	9713	0	528
-44.573	-34.980	18027	8674	0	528
-42.229	-33.826	17972	8689	0	528
-41.507	-32.600	17928	8779	0	528
-40.101	-29.895	17825	8116	0	528
-39.488	-29.607	17744	6987	0	528
-38.190	-30.436	17670	6415	0	528
-36.278	-32.672	17615	6746	0	528
-37.072	-34.151	17560	7303	0	528
-38.154	-34.511	17475	7288	0	528
-40.065	-34.475	17395	6761	0	528
-40.101	-35.665	17328	6716	0	528
-37.432	-35.197	17303	7499	0	528
-32.853	-34.872	17247	8538	0	528
-31.158	-32.853	17181	9125	0	528
-29.931	-29.174	17126	9366	0	528
-30.653	-26.650	17082	9758	0	528
-26.722	-22.286	17016	10210	0	528
-19.510	-17.274	16972	10707	0	528
-11.107	-12.586	16953	11746	0	528
-6.599	-10.097	16935	13297	0	528
-5.698	-9.160	16935	14758	0	528
-9.773	-9.953	16906	15647	0	528
-12.622	-11.287	16898	16098	0	528
-13.415	-11.756	16880	16790	0	528
-15.218	-13.091	16880	17709	0	528
-16.877	-16.084	16814	17739	0	528
-21.493	-18.211	16740	16339	0	528
-26.397	-19.726	16630	14397	0	528
-27.155	-20.159	16501	12514	0	528
-26.722	-21.421	16348	10165	0	528
-23.296	-22.539	16175	7439	0	528
-21.637	-21.818	16017	5240	0	528
-19.510	-20.700	15851	3508	0	528
-19.149	-16.733	15668	1746	0	528
-19.690	-15.435	15502	406	0	528
-24.306	-18.103	15355	0	0	528
-31.049	-22.322	15226	165	0	528
-35.124	-25.424	15116	647	0	528
-37.685	-24.702	15017	1656	0	528
-35.593	-22.683	14951	3508	0	528
-29.715	-20.050	14907	5782	0	528
-28.489	-20.700	14870	8131	0	528
-28.597	-21.601	14851	10436	0	528
-30.040	-22.863	14804	12243	0	528
-29.571	-19.870	14785	13704	0	528
-25.676	-15.038	14759	15406	0	528
-22.142	-10.710	14785	17588	0	528
-19.365	-7.248	14822	20344	0	528
-21.132	-7.681	14851	22618	0	528
-26.361	-9.484	14840	23582	0	528
-28.201	-13.091	14870	24260	0	528
-29.787	-17.346	14896	25661	0	528
-29.499	-21.168	14943	27091	0	528
-29.535	-23.512	14962	27935	0	528
-30.148	-24.378	14962	28130	0	528
-30.869	-22.935	14962	27528	0	528
-29.138	-19.906	14962	26865	0	528
-27.984	-17.815	15017	27393	0	528
-25.099	-14.930	15090	28853	0	528
-22.178	-12.153	15127	29727	0	528
-20.916	-8.871	15116	28959	0	528
-19.834	-9.196	15079	26820	0	528
-19.942	-10.674	15006	24004	0	528
-21.349	-12.982	14896	20826	0	528
-18.139	-12.297	14785	17468	0	528
-13.812	-8.402	14638	14125	0	528
-11.396	-3.787	14502	10933	0	528
-10.746	-0.397	14373	8418	0	528
-12.946	-0.216	14271	7198	0	528
-16.048	-1.695	14197	6957	0	528
-17.454	-4.183	14116	6746	0	528
-19.113	-6.527	14032	6415	0	528
-22.972	-11.179	13958	6068	0	528
-27.191	-15.939	13840	5511	0	528
-31.843	-19.978	13767	5074	0	528
-31.987	-24.522	13701	5571	0	528
-33.249	-26.686	13664	6851	0	528
-34.511	-30.400	13620	8131	0	528
-38.262	-32.239	13609	9638	0	528
-41.796	-33.069	13638	11821	0	528
-43.887	-31.482	13664	14412	0	528
-39.199	-27.587	13701	16805	0	528
-32.348	-21.781	13730	18387	0	528
-26.686	-18.969	13712	19004	0	528
-24.883	-17.562	13719	19365	0	528
-24.811	-19.005	13737	20269	0	528
-25.207	-20.988	13767	21519	0	528
-23.981	-21.493	13767	22152	0	528
-18.356	-18.752	13756	21911	0	528
-14.749	-13.163	13719	21248	0	528
-13.595	-7.212	13701	20420	0	528
-13.559	-2.164	13646	19531	0	528
-13.018	-0.757	13627	18793	0	528
-16.589	-2.777	13609	18492	0	528
-20.159	-8.619	13620	19019	0	528
-25.784	-14.966	13664	20359	0	528
-31.302	-19.798	13737	21956	0	528
-33.105	-22.431	13811	23778	0	528
-32.708	-22.106	13921	25902	0	528
-28.850	-22.106	14043	28100	0	528
-27.624	-21.241	14160	30073	0	528
-29.354	-23.693	14252	31233	0	528
-32.492	-26.794	14318	31173	0	528
-36.567	-31.807	14362	30269	0	528
-38.009	-35.016	14392	28899	0	528
-36.423	-36.567	14399	27257	0	528
-31.518	-35.052	14381	25359	1	768
-28.489	-30.977	14355	23251	0	768
-27.371	-27.010	14344	21353	0	768
-24.198	-22.972	14362	20374	0	768
-23.224	-20.411	14392	20179	0	768
-20.014	-18.320	14418	20013	0	768
-17.021	-18.031	14502	20374	0	768
-15.398	-17.959	14620	22227	0	768
-13.704	-17.310	14778	25058	0	768
-13.307	-14.569	14932	27603	0	768
-9.016	-7.212	15127	29802	0	768
-5.517	-2.308	15329	32603	0	768
-4.183	0.613	15576	32767	0	768
-4.400	-1.118	15862	32767	0	768
-8.475	-5.554	16138	32767	0	768
-11.432	-9.412	16402	32767	0	768
-13.848	-12.369	16659	32767	0	768
-13.740	-14.497	16917	32767	0	768
-15.182	-18.139	17181	32767	0	768
-18.536	-22.034	17413	32767	0	768
-24.053	-26.001	17622	32767	0	768
-30.112	-27.299	17861	32767	0	768
-33.538	-29.354	18082	32767	0	768
-37.144	-29.391	18314	32767	0	768
-36.928	-30.436	18523	32767	0	768
-34.980	-30.508	18718	32767	0	768
-32.636	-30.220	18920	32767	0	768
-30.400	-29.643	19104	32767	0	768
-30.545	-29.859	19277	32767	0	768
-29.751	-29.787	19453	32767	0	768
-28.201	-27.696	19589	32767	0	768
-22.972	-25.856	19747	30826	0	768
-17.743	-22.431	19876	28627	0	768
-14.461	-20.195	19994	26534	0	768
-15.867	-21.024	20115	24124	0	768
-18.031	-20.087	20141	20691	0	768
-20.231	-18.211	20170	16489	0	768
-18.031	-15.146	20178	12755	0	768
-12.586	-11.396	20196	9878	0	768
-8.547	-7.501	20207	7213	0	768
-5.842	-6.239	20170	4261	0	768
-7.681	-5.626	20134	1294	0	768
-9.556	-6.419	20122	0	0	768
-12.189	-10.566	20097	0	0	768
-12.910	-14.894	20122	0	0	768
-15.543	-19.510	20134	0	0	768
-17.346	-22.972	20152	0	0	768
-18.428	-24.089	20152	0	0	768
-17.346	-22.647	20141	0	0	768
-13.884	-21.529	20134	0	0	768
-12.982	-20.555	20122	0	0	768
-13.595	-21.132	20104	0	0	768
-16.625	-23.188	20031	0	0	768
-17.995	-22.972	19950	0	0	768
-16.084	-22.250	19858	0	0	768
-14.966	-18.897	19784	0	0	768
-16.012	-18.211	19718	0	0	768
-19.690	-19.005	19656	0	0	768
-22.106	-19.582	19571	0	0	768
-19.762	-18.211	19509	0	0	768
-13.307	-12.982	19453	0	0	768
-8.475	-8.547	19406	0	0	768
-6.311	-6.167	19369	0	0	768
-10.927	-10.458	19314	692	0	768
-15.903	-14.497	19277	1866	0	768
-17.851	-19.041	19240	3162	0	768
-17.057	-19.942	19203	4592	0	768
-16.084	-19.654	19178	5993	0	768
-17.779	-19.293	19141	7168	0	768
-19.401	-19.942	19075	7860	0	768
-21.926	-20.411	19031	8071	0	768
-22.395	-22.395	18957	8282	0	768
-23.873	-24.811	18909	8854	0	768
-24.811	-28.705	18884	10014	0	768
-27.840	-29.174	18872	11580	0	768
-29.318	-28.237	18854	12936	0	768
-27.696	-24.414	18828	13854	0	768
-25.640	-22.863	18810	14622	0	768
-24.306	-24.414	18799	15481	0	768
-25.676	-28.020	18773	16324	1	316
-26.470	-29.499	18762	16986	0	316
-26.614	-27.587	18744	17423	0	316
-20.447	-21.277	18718	17649	0	316
-14.172	-15.290	18689	17769	0	316
-9.881	-12.153	18663	17874	0	316
-9.412	-13.595	18645	18025	0	316
-13.848	-16.264	18626	18130	0	316
-17.887	-18.428	18589	18176	0	316
-19.834	-18.716	18571	18146	0	316
-22.755	-19.005	18553	18176	0	316
-24.666	-20.555	18542	18477	0	316
-28.092	-22.322	18542	18914	0	316
-24.089	-21.024	18516	19109	0	316
-16.589	-17.526	18523	19170	0	316
-6.599	-13.884	18516	19411	0	316
-3.173	-11.684	18505	19697	0	316
-5.301	-13.668	18497	19712	0	316
-11.612	-14.353	18486	19441	0	316
-17.346	-14.064	18468	19109	0	316
-20.483	-12.622	18450	18808	0	316
-22.178	-14.605	18424	18356	0	316
-24.198	-17.887	18387	17739	0	316
-24.630	-22.431	18369	17031	0	316
-22.034	-22.863	18314	16264	0	316
-18.320	-21.818	18259	15391	0	316
-15.002	-16.048	18192	14442	0	316
-12.550	-11.287	18137	13568	0	316
-12.117	-6.527	18093	12815	0	316
-12.441	-5.445	18020	12258	0	316
-9.160	-4.652	17983	11912	0	316
-8.943	-5.842	17917	11641	0	316
-7.393	-6.563	17872	11324	0	316
-10.386	-8.258	17817	11113	0	316
-13.235	-9.592	17762	11068	0	316
-18.464	-13.127	17725	11113	0	316
-20.159	-15.723	17670	11144	0	316
-19.654	-16.877	17615	11174	0	316
-17.382	-15.615	17578	11249	0	316
-15.615	-12.261	17523	11430	0	316
-14.245	-11.143	17494	11806	0	316
-15.615	-12.477	17457	12333	0	316
-18.392	-14.605	17431	12785	0	316
-20.267	-17.634	17384	13101	0	316
-21.385	-18.716	17328	13011	0	316
-18.428	-15.795	17266	12529	0	316
-13.776	-11.648	17218	12183	0	316
-9.701	-7.681	17156	12138	0	316
-5.481	-5.085	17089	12183	0	316
-4.544	-3.426	17053	12288	0	316
-5.085	-4.327	16997	12469	0	316
-6.022	-5.409	16961	12785	0	316
-9.016	-5.698	16942	13327	0	316
-10.458	-6.527	16906	14065	0	316
-10.999	-5.445	16869	14427	0	316
-10.891	-3.823	16788	13734	0	316
-9.881	-2.092	16685	12318	0	316
-10.963	-3.678	16604	11249	0	316
-11.756	-7.717	16531	10888	0	316
-12.441	-12.874	16439	10601	0	316
-14.281	-18.933	16322	9668	0	316
-17.670	-21.421	16212	8357	0	316
-22.214	-20.231	16120	7785	0	316
-25.279	-18.500	16065	8252	0	316
-25.676	-16.733	15991	9065	0	316
-21.313	-14.966	15918	9502	0	316
-14.677	-13.379	15862	9607	0	316
-11.179	-13.668	15807	10119	0	316
-10.169	-12.658	15759	11279	0	316
-13.992	-14.353	15723	12303	0	316
-18.283	-14.641	15660	12891	0	316
-22.503	-16.012	15649	13659	0	316
-21.565	-14.785	15612	14713	0	316
-17.779	-11.396	15576	15436	0	316
-11.720	-7.970	15539	15872	0	316
-6.852	-4.472	15539	16700	0	316
-5.409	-3.714	15539	18025	0	316
-9.665	-4.039	15557	19516	0	316
-11.720	-7.140	15576	21007	0	316
-13.415	-8.006	15612	22483	0	316
-13.054	-7.321	15660	23899	0	316
-9.304	-7.645	15715	25179	0	316
-9.989	-7.104	15752	26323	0	316
-15.435	-10.242	15796	27046	0	316
-20.627	-14.028	15778	26745	0	316
-25.784	-18.139	15796	25676	0	316
-27.876	-21.493	15789	24787	0	316
-27.263	-24.089	15741	23823	0	316
-26.578	-24.198	15697	22061	0	316
-24.919	-22.395	15623	19802	0	316
-22.214	-20.483	15557	17844	0	316
-16.228	-16.841	15521	16880	0	316
-13.091	-14.641	15513	16865	0	316
-11.035	-11.720	15521	17257	0	316
-12.658	-10.422	15484	17227	0	316
-13.884	-9.520	15421	15993	0	316
-15.326	-10.783	15329	13794	0	316
-17.670	-14.208	15237	11761	0	316
-19.401	-17.779	15146	10330	0	316
-21.890	-17.093	15079	9487	0	316
-19.510	-13.812	15043	9472	0	316
-15.867	-8.366	15024	10360	0	316
-9.484	-6.996	15024	11821	0	316
-9.448	-9.124	15043	13372	0	316
-12.802	-14.930	15043	14412	0	316
-18.139	-21.421	15035	14984	0	316
-20.339	-21.457	15061	15933	0	316
-19.870	-18.103	15098	17513	0	316
-17.418	-13.740	15171	19365	0	316
-17.418	-11.864	15226	21263	0	316
-20.339	-15.110	15311	23176	0	316
-25.820	-18.897	15403	24998	0	316
-27.010	-23.260	15502	26685	0	316
-21.421	-21.277	15576	27950	0	316
-12.838	-16.264	15612	27995	0	316
-4.868	-10.783	15587	26158	0	316
-3.678	-6.383	15495	22754	0	316
-7.501	-6.131	15384	18748	0	316
-12.297	-6.167	15274	15210	0	316
-14.930	-6.455	15153	12288	0	316
-13.235	-4.652	14987	9201	0	316
-11.684	-3.967	14822	5571	0	316
-11.143	-3.029	14612	1851	0	316
-11.792	-4.400	14429	0	0	316
-10.494	-3.787	14226	0	0	316
-5.734	-2.019	14087	0	0	316
-3.570	0.541	13987	0	0	316
-4.183	1.010	13932	0	0	316
-8.511	-3.137	13866	0	0	316
-17.923	-9.304	13785	526	0	316
-25.207	-15.290	13730	1520	0	316
-28.092	-17.995	13664	3086	0	316
-25.712	-15.939	13627	4939	0	316
-20.447	-13.631	13583	6625	0	316
-15.507	-9.520	13509	7619	0	316
-13.992	-9.989	13443	8131	0	316
-16.408	-11.360	13418	9351	0	316
-22.467	-14.028	13454	12077	0	316
-25.171	-15.579	13517	15978	0	316
-25.460	-15.218	13627	20374	0	316
-22.322	-14.677	13756	24667	0	316
-17.743	-11.973	13859	28130	0	316
-15.795	-11.360	13987	30856	0	316
-16.805	-10.242	14153	32767	0	316
-19.149	-8.222	14344	32767	0	316
-19.690	-7.645	14557	32767	0	316
-18.175	-7.537	14778	32767	0	316
-15.723	-9.232	14943	32767	0	316
-13.704	-10.278	15098	32767	0	316
-11.540	-11.251	15256	32767	0	316
-9.665	-8.691	15410	32767	0	316
-6.275	-5.481	15587	32767	0	316
-3.570	-3.246	15789	32767	0	316
-7.285	-2.957	15980	32767	0	316
-11.900	-5.481	16201	32767	0	316
-17.670	-9.052	16420	32767	0	316
-21.096	-10.783	16648	32767	0	316
-19.221	-12.333	16869	32767	0	316
-15.831	-13.163	17071	32767	0	316
-12.081	-11.937	17266	32767	1	636
-9.989	-11.864	17468	32767	0	636
-8.258	-10.855	17652	32767	0	636
-10.674	-10.422	17817	32767	0	636
-14.605	-12.910	17990	32767	0	636
-20.195	-16.985	18130	32767	0	636
-21.601	-20.700	18284	32767	0	636
-21.457	-22.034	18424	32767	0	636
-18.933	-21.024	18560	32393	0	636
-16.264	-18.969	18681	30088	0	636
-19.906	-19.041	18792	27769	0	636
-25.712	-22.899	18884	25555	0	636
-28.561	-25.748	19001	23447	0	636
-28.669	-24.702	19086	21414	0	636
-22.034	-20.519	19167	19486	0	636
-11.756	-12.514	19240	17603	0	636
-3.967	-6.888	19295	15647	0	636
-1.947	-8.691	19332	13493	0	636
-9.592	-14.425	19369	11294	0	636
-18.788	-21.096	19387	9261	0	636
-27.407	-25.279	19398	7348	0	636
-28.705	-25.099	19398	5541	0	636
-25.748	-23.116	19387	3869	0	636
-19.834	-25.027	19380	2273	0	636
-20.159	-26.794	19350	888	0	636
-21.637	-29.931	19332	0	0	636
-25.929	-28.922	19314	0	0	636
-26.109	-26.866	19270	0	0	636
-25.207	-23.044	19214	0	0	636
-23.476	-21.854	19185	0	0	636
-19.582	-19.618	19130	0	0	636
-17.021	-17.706	19067	0	0	636
-15.903	-16.841	19020	0	0	636
-15.507	-18.392	18957	0	0	636
-14.172	-22.214	18909	0	0	636
-14.713	-24.270	18854	0	0	636
-14.281	-22.935	18810	0	0	636
-12.261	-17.202	18773	0	0	636
-10.999	-10.566	18725	0	0	636
-7.681	-5.626	18689	225	0	636
-4.832	-6.816	18663	1294	0	636
-1.587	-8.186	18615	2318	0	636
-1.839	-11.720	18571	3177	0	636
-4.544	-10.963	18534	3990	0	636
-6.058	-9.665	18497	4924	0	636
-8.186	-8.186	18450	5842	0	636
-10.458	-10.206	18406	6535	0	636
-10.746	-13.091	18358	7138	0	636
-11.792	-11.540	18332	8177	0	636
-10.783	-7.970	18314	9592	0	636
-6.599	-2.524	18295	10647	0	636
-5.229	-1.587	18240	11053	0	636
-7.537	-6.635	18185	11234	0	636
-12.261	-13.848	18156	11656	0	636
-19.473	-17.923	18119	12303	0	636
-21.277	-17.418	18082	12951	0	636
-21.890	-14.569	18064	13508	0	636
-20.123	-13.379	18020	13975	0	636
-18.933	-13.740	17990	14397	0	636
-19.113	-16.480	17964	14878	0	636
-19.149	-18.283	17928	15360	0	636
-16.228	-17.995	17909	15782	0	636
-11.287	-15.795	17891	16083	0	636
-7.862	-12.514	17861	16384	0	636
-4.400	-11.504	17854	16835	0	636
-6.708	-11.792	17836	17453	0	636
-13.343	-15.831	17836	18025	0	636
-18.969	-18.572	17799	18161	0	636
-24.378	-18.356	17733	17377	0	636
-24.702	-14.749	17659	15903	0	636
-21.385	-9.989	17604	14713	0	636
-15.182	-5.878	17542	14261	0	636
-10.638	-6.563	17494	14201	0	636
-8.619	-7.537	17457	14306	0	636
-12.982	-11.107	17420	14517	0	636
-20.483	-13.343	17395	14758	0	636
-28.309	-15.182	17365	14999	0	636
-32.348	-16.625	17339	15225	0	636
-30.508	-16.913	17310	15466	0	636
-27.047	-17.346	17292	15722	0	636
-23.224	-16.084	17255	15812	0	636
-19.365	-16.300	17218	15797	0	636
-17.274	-16.769	17229	16098	0	636
-16.913	-17.021	17200	16700	0	636
-19.546	-19.077	17181	17197	0	636
-25.135	-19.401	17174	17362	0	636
-28.417	-19.546	17156	17302	0	636
-28.669	-17.887	17126	17242	0	636
-22.070	-15.795	17108	17287	0	636
-14.533	-13.956	17108	17468	0	636
-9.232	-9.124	17089	17694	0	636
-7.898	-6.094	17071	17844	0	636
-8.042	-2.560	17082	18025	0	636
-10.133	-1.046	17071	18432	0	636
-10.169	-2.993	17082	18944	0	636
-11.576	-7.934	17089	19380	0	636
-12.333	-10.999	17100	19561	0	636
-15.795	-13.523	17089	19576	0	636
-18.788	-15.903	17089	19591	0	636
-23.188	-16.985	17108	19546	0	636
-27.371	-18.680	17082	19396	0	636
-31.194	-20.916	17082	19109	0	636
-29.968	-20.844	17064	18582	0	636
-27.984	-18.320	17027	17814	0	636
-22.863	-15.471	16997	16971	0	636
-16.733	-13.704	16953	16189	0	636
-14.497	-10.746	16924	15406	0	636
-10.927	-10.530	16869	14668	0	636
-10.927	-10.169	16832	13990	0	636
-8.006	-7.357	16770	13297	0	636
-8.114	-4.760	16722	12589	0	636
-7.248	-2.380	16667	11957	0	636
-9.917	-3.029	16611	11490	0	636
-11.396	-5.445	16567	11159	0	636
-15.074	-9.953	16520	10933	0	636
-17.598	-12.369	16475	10722	0	636
-18.824	-13.271	16420	10571	0	636
-19.942	-13.920	16377	10556	0	636
-18.247	-13.668	16340	10812	0	636
-14.713	-16.192	16311	11249	0	636
-12.405	-17.418	16274	11656	0	636
-11.179	-17.598	16237	12032	0	636
-14.136	-17.274	16230	12589	0	636
-17.598	-16.192	16219	13448	0	636
-19.546	-15.398	16212	14366	0	636
-18.175	-14.136	16193	15074	0	636
-13.920	-13.271	16193	15601	0	636
-11.468	-10.314	16175	16023	0	636
-10.819	-9.448	16164	16399	0	636
-11.864	-8.475	16146	16700	0	636
-13.415	-9.917	16127	16820	0	636
-11.504	-10.206	16109	16760	0	636
-10.927	-11.756	16090	16700	0	636
-14.389	-13.451	16065	16700	0	636
-21.277	-14.641	16046	16760	0	636
-26.902	-15.507	16028	16775	0	636
-27.047	-15.362	15980	16474	0	636
-19.942	-13.307	15899	15285	0	636
-12.261	-11.323	15826	13403	0	636
-11.900	-13.127	15741	11927	0	636
-16.480	-15.507	15660	11249	0	636
-23.729	-17.670	15605	11008	0	636
-24.847	-16.697	15550	10857	0	636
-18.608	-13.343	15458	10360	0	636
-9.989	-9.124	15384	9622	0	636
-5.662	-8.294	15329	9547	0	636
-8.366	-9.592	15311	10511	0	636
-12.333	-12.189	15311	12122	0	636
-18.175	-13.451	15318	13839	0	636
-19.978	-13.163	15337	15391	0	636
-18.716	-14.569	15355	16790	0	636
-17.382	-15.110	15392	18326	0	636
-16.408	-16.228	15440	19953	0	636
-13.451	-15.074	15484	21429	0	636
-9.232	-11.360	15513	22588	0	636
-4.940	-9.124	15557	23447	0	636
-3.931	-8.186	15605	24094	0	636
-4.255	-10.169	15631	24621	0	636
-8.294	-10.891	15668	25043	0	636
-11.612	-9.629	15704	25254	0	636
-12.874	-6.311	15752	25254	0	636
-15.002	-6.131	15759	25103	0	636
-16.372	-7.609	15796	24877	0	636
-18.752	-12.081	15815	24546	0	636
-19.942	-14.245	15826	23884	0	636
-19.401	-12.874	15778	22347	0	636
-17.526	-9.845	15723	19847	0	636
-15.831	-7.609	15612	16609	0	636
-15.182	-9.592	15465	12830	0	636
-17.382	-13.163	15337	9381	0	636
-18.680	-15.290	15219	7077	0	636
-17.202	-14.858	15072	5165	0	636
-13.631	-11.540	14925	2906	0	636
-10.350	-7.898	14796	1053	0	636
-8.078	-8.583	14704	511	0	636
-11.071	-9.448	14638	1279	0	636
-11.828	-11.504	14601	2725	0	636
-10.638	-9.268	14546	4005	0	636
-6.275	-6.455	14491	4878	0	636
-4.796	-4.327	14484	6159	0	636
-5.590	-6.527	14454	7966	0	636
-10.169	-9.016	14399	8990	0	636
-11.828	-9.737	14318	8659	0	636
-11.179	-9.592	14226	7936	0	636
-8.979	-7.934	14123	7394	0	636
-5.445	-6.888	14013	6701	0	636
-5.049	-7.681	13921	6339	0	636
-5.986	-9.484	13866	7288	0	636
-8.547	-10.278	13866	9381	0	636
-9.917	-11.396	13884	12077	0	636
-12.189	-13.379	13932	15119	0	636
-13.235	-12.694	14006	18115	0	636
-12.009	-10.819	14032	20465	0	636
-11.828	-7.898	14068	21986	0	636
-10.819	-3.823	14087	22965	0	636
-7.501	-0.938	14123	23808	0	636
-3.318	1.154	14160	24847	0	636
1.659	1.695	14197	25781	0	636
3.678	1.695	14215	26188	0	636
4.832	1.767	14234	26097	0	636
5.878	4.616	14234	25706	0	636
7.789	8.907	14252	25254	0	636
13.704	13.740	14271	25043	0	636
15.507	15.326	14318	25450	0	636
13.235	14.569	14392	26564	0	636
7.248	9.592	14484	27995	0	636
0.216	6.094	14583	29546	0	636
-1.298	4.039	14723	31173	0	636
1.587	2.524	14859	32767	0	636
3.246	3.570	15006	32767	0	636
5.842	1.695	15153	32767	0	636
3.246	0.000	15329	32767	0	636
1.875	-1.118	15502	32767	0	636
2.596	-0.036	15679	32767	0	636
4.904	1.623	15862	32767	0	636
6.852	3.354	16054	32767	0	636
6.960	3.859	16248	32767	0	636
3.750	3.642	16409	32767	0	636
3.101	4.616	16593	32767	0	636
1.659	6.094	16770	32767	1	876
3.570	5.590	16924	32767	0	876
7.176	1.875	17108	32767	0	876
10.206	-0.685	17266	32767	0	876
10.566	-3.823	17420	32767	0	876
9.629	-1.695	17567	32767	0	876
6.094	0.613	17707	32767	0	876
0.793	1.262	17854	32767	0	876
-3.750	-1.262	17972	32287	0	876
-7.898	-3.750	18082	30420	0	876
-10.999	-6.924	18156	28161	0	876
-14.461	-9.629	18203	25164	0	876
-18.752	-12.225	18247	21730	0	876
-20.231	-15.218	18284	19019	0	876
-18.283	-16.913	18339	17272	0	876
-15.507	-15.398	18395	15812	0	876
-13.379	-13.848	18431	14186	0	876
-14.966	-12.802	18461	12499	0	876
-21.132	-14.677	18486	10978	0	876
-24.125	-16.841	18516	9713	0	876
-24.702	-17.706	18542	8689	0	876
-22.178	-17.815	18571	7800	0	876
-22.827	-18.500	18578	6987	0	876
-24.306	-20.664	18589	6279	0	876
-28.056	-22.683	18608	5782	0	876
-26.397	-21.998	18626	5571	0	876
-23.801	-20.159	18645	5556	0	876
-19.293	-16.552	18652	5451	0	876
-18.572	-15.218	18663	5255	0	876
-18.860	-13.920	18663	5210	0	876
-20.339	-13.487	18681	5406	0	876
-21.096	-12.874	18689	5797	0	876
-20.050	-12.514	18700	6174	0	876
-17.743	-14.461	18700	6234	0	876
-16.516	-16.228	18670	5948	0	876
-14.028	-16.372	18645	5586	0	876
-12.874	-13.740	18634	5481	0	876
-11.360	-10.314	18615	5737	0	876
-11.684	-7.212	18608	6204	0	876
-13.054	-7.898	18578	6445	0	876
-16.084	-10.386	18542	6189	0	876
-19.221	-13.487	18479	5707	0	876
-20.231	-14.389	18431	5300	0	876
-18.067	-10.855	18387	5089	0	876
-16.336	-9.160	18321	4939	0	876
-14.821	-10.927	18259	4713	0	876
-17.923	-15.362	18192	4427	0	876
-23.729	-21.024	18119	4261	0	876
-26.938	-22.647	18064	4381	0	876
-27.587	-20.375	18009	4758	0	876
-25.604	-17.202	17946	5195	0	876
-23.981	-17.526	17891	5571	0	876
-23.044	-20.014	17825	5948	0	876
-23.296	-22.935	17781	6400	0	876
-20.880	-21.493	17725	6927	0	876
-15.435	-16.625	17670	7499	0	876
-9.556	-11.143	17604	8041	0	876
-7.753	-9.412	17578	8704	0	876
-9.809	-9.701	17531	9607	0	876
-12.117	-12.910	17512	10737	0	876
-13.235	-15.218	17505	12047	0	876
-15.146	-17.454	17494	13448	0	876
-17.166	-20.195	17494	14758	0	876
-20.555	-23.440	17486	15827	0	876
-21.241	-25.965	17475	16655	0	876
-18.211	-24.847	17468	17362	0	876
-12.009	-20.808	17457	17920	0	876
-8.439	-17.166	17450	18356	0	876
-10.891	-16.264	17431	18673	0	876
-16.733	-18.608	17420	18853	0	876
-22.683	-21.349	17402	18944	0	876
-24.234	-22.395	17402	19275	0	876
-21.565	-21.998	17413	19923	0	876
-15.038	-17.238	17413	20405	0	876
-6.275	-12.189	17395	20329	0	876
0.902	-6.383	17376	19908	0	876
4.796	-2.921	17358	19441	0	876
3.570	-1.767	17339	19019	0	876
-1.587	-4.580	17303	18537	0	876
-6.816	-7.032	17266	17874	0	876
-9.737	-8.655	17229	17046	0	876
-7.104	-5.950	17181	16309	0	876
-6.094	-4.291	17145	15872	0	876
-4.400	-4.183	17126	15767	0	876
-5.914	-5.698	17108	15812	0	876
-8.511	-6.744	17082	15918	0	876
-9.556	-8.763	17071	16083	0	876
-8.907	-8.114	17064	16189	0	876
-8.114	-8.114	17027	16068	0	876
-9.340	-8.439	16997	15797	0	876
-11.756	-10.422	16990	15571	0	876
-14.461	-10.746	16942	15466	0	876
-18.283	-12.838	16935	15406	0	876
-21.168	-14.966	16898	15360	0	876
-22.358	-16.372	16887	15315	0	876
-22.972	-17.959	16850	15240	0	876
-22.791	-16.156	16832	15104	0	876
-19.798	-12.586	16795	14818	0	876
-18.320	-9.376	16751	14366	0	876
-17.562	-5.914	16703	13854	0	876
-14.713	-4.255	16659	13418	0	876
-11.864	-1.803	16611	13147	0	876
-5.554	1.875	16575	12951	0	876
-0.721	6.491	16520	12665	0	876
1.839	8.366	16483	12348	0	876
2.596	9.773	16439	12288	0	876
1.334	8.042	16409	12514	0	876
0.108	7.429	16377	12860	0	876
-0.036	4.616	16348	13237	0	876
-1.983	2.741	16329	13598	0	876
-3.210	-1.515	16311	14020	0	876
-6.347	-4.255	16304	14668	0	876
-7.140	-6.852	16293	15330	0	876
-5.914	-6.924	16274	15767	0	876
-5.806	-6.455	16256	15948	0	876
-4.183	-5.445	16256	16174	0	876
-3.787	-3.462	16230	16519	0	876
-5.445	-1.262	16219	16911	0	876
-9.448	-1.010	16212	17152	0	876
-13.127	-1.406	16193	17227	0	876
-14.930	-4.111	16175	17212	0	876
-15.074	-5.878	16175	17167	0	876
-13.235	-7.429	16138	17016	0	876
-13.379	-9.556	16109	16790	0	876
-13.127	-9.917	16090	16609	0	876
-13.704	-10.025	16083	16549	0	876
-10.133	-6.455	16046	16459	0	876
-3.390	-2.488	16017	16279	0	876
-0.902	1.010	15991	15978	0	876
-2.885	-0.144	15954	15647	0	876
-11.179	-6.780	15925	15315	0	876
-24.486	-14.749	15881	14999	0	876
-33.574	-21.565	15851	14698	0	876
-39.308	-23.152	15815	14427	0	876
-36.531	-22.395	15789	14291	0	876
-29.643	-18.716	15752	14321	0	876
-22.250	-16.192	15741	14592	0	876
-19.041	-15.867	15734	14984	0	876
-20.952	-17.093	15715	15345	0	876
-27.479	-18.211	15697	15541	0	876
-31.266	-18.392	15649	15270	0	876
-32.420	-18.247	15605	14607	0	876
-31.807	-18.103	15568	14110	0	876
-26.325	-17.057	15539	13990	0	876
-21.926	-16.697	15513	14005	0	876
-16.661	-15.651	15476	14171	0	876
-9.917	-12.514	15465	14562	0	876
-6.022	-9.701	15447	15074	0	876
-3.714	-5.986	15447	15571	0	876
-3.137	-1.659	15440	16038	0	876
-3.354	3.462	15440	16504	0	876
-3.210	5.950	15440	17016	0	876
-4.400	6.996	15447	17528	0	876
-6.022	4.868	15447	17935	0	876
-6.239	2.488	15447	18221	0	876
-7.609	0.000	15447	18477	0	876
-6.888	-1.226	15458	18733	0	876
-6.888	-3.823	15458	19004	0	876
-8.907	-7.862	15458	19200	0	876
-8.871	-11.900	15429	18673	0	876
-10.386	-13.054	15366	17182	0	876
-12.441	-12.874	15293	15255	0	876
-15.687	-11.612	15208	13523	0	876
-19.546	-9.629	15146	12258	0	876
-21.277	-10.891	15054	11204	0	876
-19.798	-12.297	14962	10074	0	876
-14.821	-11.071	14877	8794	0	876
-11.792	-11.143	14767	7559	0	876
-10.061	-9.448	14693	6836	0	876
-10.710	-8.799	14594	6324	0	876
-10.674	-9.052	14473	5496	0	876
-12.225	-8.619	14373	4622	0	876
-11.107	-9.376	14271	4186	0	876
-12.405	-8.150	14208	4653	0	876
-12.369	-6.708	14179	6098	0	876
-13.018	-5.229	14153	7875	0	876
-11.432	-3.714	14087	8960	0	876
-9.016	-1.659	14006	8945	0	876
-4.436	-0.361	13951	8915	0	876
1.118	2.019	13940	9984	0	876
6.888	5.517	13921	12002	0	876
8.583	7.862	13951	14397	0	876
8.078	7.501	14006	16956	0	876
3.426	2.524	14061	19637	0	876
-3.498	-3.967	14142	22362	0	876
-9.484	-7.934	14215	24832	0	876
-11.215	-8.150	14282	26564	0	876
-7.393	-4.111	14344	27694	0	876
-1.406	0.613	14410	28703	0	876
5.049	1.515	14447	29140	0	876
6.058	-1.659	14447	28402	0	876
-0.829	-4.868	14465	27377	0	876
-6.419	-8.655	14502	27197	0	876
-11.071	-8.907	14546	27588	0	876
-10.386	-9.629	14565	27302	1	776
-9.160	-8.979	14539	25721	0	776
-8.402	-10.422	14521	23884	0	776
-10.494	-9.376	14546	23010	0	776
-13.091	-8.439	14583	23100	0	776
-12.405	-4.868	14620	23402	0	776
-8.763	-3.065	14631	23176	0	776
-3.714	-1.442	14657	22513	0	776
0.216	-0.685	14704	22287	0	776
2.596	0.469	14748	22784	0	776
2.741	2.741	14840	23688	0	776
1.226	4.003	14925	24787	0	776
-1.767	4.580	15024	25962	0	776
-4.652	2.236	15146	27091	0	776
-5.193	0.252	15256	28191	0	776
-4.724	-1.082	15384	29320	0	776
-2.813	-1.154	15513	30450	0	776
-1.587	0.216	15631	31173	0	776
-0.938	0.721	15715	30796	0	776
-1.839	0.325	15771	29486	0	776
-1.767	-0.865	15862	28492	0	776
-1.659	-2.596	15954	28296	0	776
-3.173	-3.859	16065	28432	0	776
-7.537	-4.616	16175	28552	0	776
-12.694	-7.501	16285	28627	0	776
-17.562	-10.783	16402	28718	0	776
-19.618	-14.713	16531	28929	0	776
-19.257	-16.985	16667	29365	0	776
-18.680	-17.238	16814	29862	0	776
-18.752	-15.146	16942	30013	0	776
-19.690	-13.018	17071	29591	0	776
-21.241	-10.097	17156	28748	0	776
-17.202	-7.609	17266	27769	0	776
-11.323	-4.255	17347	26775	0	776
-4.436	-0.649	17439	25766	0	776
-1.479	1.406	17512	24576	0	776
-3.498	1.479	17578	23176	0	776
-7.898	-0.325	17652	21790	0	776
-13.631	-4.327	17707	20600	0	776
-17.634	-9.016	17762	19576	0	776
-18.860	-10.638	17825	18627	0	776
-18.933	-10.386	17861	17588	0	776
-17.274	-7.934	17928	16534	0	776
-16.372	-8.511	17964	15616	0	776
-15.362	-11.396	18020	14894	0	776
-18.680	-18.175	18045	14321	0	776
-22.827	-23.729	18093	13734	0	776
-25.171	-23.765	18119	13147	0	776
-22.972	-20.988	18156	12544	0	776
-19.870	-17.815	18185	11942	0	776
-16.336	-15.615	18203	11400	0	776
-18.356	-15.903	18192	10601	0	776
-21.204	-15.651	18148	8900	0	776
-22.358	-14.930	18093	6445	0	776
-20.195	-12.117	18009	4246	0	776
-15.074	-11.648	17946	2695	0	776
-11.973	-11.179	17872	1641	0	776
-10.819	-9.953	17825	1038	0	776
-14.497	-9.376	17781	782	0	776
-15.939	-7.357	17714	662	0	776
-16.444	-5.301	17678	737	0	776
-15.362	-4.652	17652	1279	0	776
-15.435	-5.049	17622	2318	0	776
-15.651	-8.402	17615	3463	0	776
-20.014	-12.514	17586	4427	0	776
-22.719	-17.490	17560	5195	0	776
-26.109	-21.529	17542	5918	0	776
-25.388	-23.080	17512	6671	0	776
-26.001	-22.322	17494	7454	0	776
-24.414	-22.178	17475	8237	0	776
-24.847	-22.070	17457	9035	0	776
-23.621	-21.673	17431	9894	0	776
-22.034	-21.385	17420	10782	0	776
-20.339	-22.214	17395	11535	0	776
-23.693	-22.683	17365	11791	0	776
-25.676	-24.017	17321	11656	0	776
-30.400	-26.289	17284	11701	0	776
-28.309	-24.955	17255	12077	0	776
-23.152	-21.926	17236	12650	0	776
-16.228	-16.516	17229	13403	1	316
-12.297	-14.208	17211	14246	0	316
-15.903	-11.973	17211	14984	0	316
-21.421	-13.451	17200	15571	0	316
-23.981	-12.658	17192	15993	0	316
-20.627	-10.386	17174	16294	0	316
-13.163	-6.094	17156	16519	0	316
-6.816	-2.633	17145	16670	0	316
-4.255	-2.957	17126	16760	0	316
-8.691	-3.895	17108	16850	0	316
-12.622	-4.832	17089	16941	0	316
-14.064	-5.265	17071	16911	0	316
-14.281	-4.977	17045	16820	0	316
-11.792	-5.517	17027	16730	0	316
-13.091	-8.186	17009	16624	0	316
-13.235	-11.756	16972	16444	0	316
-14.785	-12.838	16961	16309	0	316
-14.317	-13.848	16935	16279	0	316
-13.812	-12.694	16924	16414	0	316
-12.586	-11.937	16906	16564	0	316
-12.297	-9.268	16898	16624	0	316
-11.756	-6.419	16880	16700	0	316
-11.612	-3.498	16880	16941	0	316
-10.963	-1.947	16869	17272	0	316
-8.511	-2.308	16880	17618	0	316
-9.016	-7.248	16880	17950	0	316
-7.825	-10.025	16887	18251	0	316
-8.366	-10.206	16880	18417	0	316
-7.212	-5.517	16880	18356	0	316
-7.898	2.416	16861	18191	0	316
-6.311	7.104	16869	18085	0	316
-5.770	4.868	16861	18100	0	316
-6.347	-1.082	16861	18055	0	316
-8.619	-10.422	16850	17874	0	316
-12.117	-14.461	16832	17649	0	316
-14.461	-15.471	16825	17317	0	316
-16.516	-12.550	16795	16896	0	316
-14.497	-11.215	16777	16459	0	316
-12.153	-9.845	16759	16038	0	316
-11.973	-11.287	16722	15616	0	316
-14.821	-12.694	16703	15270	0	316
-21.204	-15.002	16685	15029	0	316
-23.332	-17.057	16648	14818	0	316
-23.621	-17.021	16630	14592	0	316
-20.700	-16.120	16604	14291	0	316
-17.815	-14.605	16586	14050	0	316
-16.769	-13.704	16556	14050	0	316
-15.975	-12.838	16520	14020	0	316
-13.920	-12.009	16475	13297	0	316
-9.088	-9.737	16402	12047	0	316
-4.580	-5.445	16348	11324	0	316
-4.904	-3.137	16311	11294	0	316
-9.304	-1.587	16293	11475	0	316
-13.884	-4.003	16248	11671	0	316
-17.454	-6.058	16212	11791	0	316
-16.048	-7.501	16164	11881	0	316
-12.550	-7.176	16138	12062	0	316
-11.792	-6.094	16120	12348	0	316
-12.550	-7.609	16083	12695	0	316
-18.572	-9.304	16054	13011	0	316
-21.060	-11.792	16035	13342	0	316
-23.296	-11.215	16009	13719	0	316
-20.159	-9.520	15980	14125	0	316
-16.264	-8.402	15980	14532	0	316
-13.054	-8.475	15954	14909	0	316
-10.169	-11.648	15936	15270	0	316
-9.881	-12.622	15936	15586	0	316
-9.088	-11.071	15899	15918	0	316
-6.455	-7.609	15899	16204	0	316
-3.101	-2.705	15870	16414	0	316
-4.291	-1.046	15870	16700	0	316
-5.950	-1.911	15844	16880	0	316
-9.088	-4.544	15796	16384	0	316
-12.045	-7.465	15734	15150	0	316
-9.953	-6.635	15697	14427	0	316
-4.940	-4.255	15686	14773	0	316
-2.019	-1.406	15660	15345	0	316
-0.433	-1.442	15612	15074	0	316
-1.839	-2.705	15539	13945	0	316
-5.409	-3.282	15465	12619	0	316
-8.006	-3.678	15392	11595	0	316
-11.432	-2.777	15337	11144	0	316
-16.336	-3.678	15293	11294	0	316
-22.142	-9.520	15263	11806	0	316
-27.119	-15.326	15237	12589	0	316
-30.184	-20.267	15237	13583	0	316
-27.768	-20.267	15237	14773	0	316
-20.772	-17.815	15256	16038	0	316
-15.146	-14.389	15282	17287	0	316
-11.071	-12.586	15311	18507	0	316
-8.439	-10.963	15337	19667	0	316
-6.924	-10.314	15348	20495	0	316
-6.996	-8.114	15337	20450	0	316
-6.491	-5.662	15311	19727	0	316
-6.275	-5.590	15300	19245	0	316
-8.078	-5.698	15300	19335	0	316
-8.402	-7.753	15311	19637	0	316
-9.124	-8.330	15318	20043	0	316
-7.825	-6.924	15329	20329	0	316
-8.258	-5.049	15300	19787	0	316
-6.852	-2.056	15237	18161	0	316
-4.616	0.505	15182	16384	0	316
-4.111	0.433	15146	15496	0	316
-4.003	-1.226	15116	15300	0	316
-6.780	-4.977	15079	14954	0	316
-10.350	-9.809	15024	14171	0	316
-16.228	-15.579	14951	13011	0	316
-21.962	-19.510	14896	11851	0	316
-25.243	-22.358	14840	11460	0	316
-29.282	-22.683	14822	11776	0	316
-30.941	-23.224	14741	11520	0	316
-28.489	-21.385	14649	10104	0	316
-24.558	-18.536	14576	8689	0	316
-18.175	-15.110	14509	8553	0	316
-11.540	-10.314	14502	9592	0	316
-7.357	-5.698	14484	10963	0	316
-5.517	-2.560	14465	11912	0	316
-4.688	-1.875	14454	12514	0	316
-3.642	-2.128	14436	13357	0	316
-1.659	-3.065	14418	14171	0	316
0.613	-2.849	14381	14472	0	316
2.092	-3.318	14337	14156	0	316
4.327	-2.488	14234	12845	0	316
3.931	-3.065	14116	10541	0	316
2.993	-4.508	13940	7845	0	316
-1.118	-5.157	13767	5210	0	316
-3.534	-6.708	13590	2710	0	316
-6.094	-6.239	13388	330	0	316
-5.878	-5.554	13197	0	0	316
-5.590	-5.914	13013	0	0	316
-5.265	-6.888	12837	0	0	316
-8.763	-8.511	12646	0	0	316
-12.766	-11.720	12462	0	0	316
-14.785	-14.064	12296	0	0	316
-14.785	-15.867	12168	0	0	316
-13.451	-16.192	12083	0	0	316
-11.684	-17.815	12039	782	0	316
-12.946	-18.969	12046	4984	0	316
-15.759	-19.365	12083	9592	0	316
-18.428	-20.627	12131	13900	0	316
-21.313	-20.772	12193	17935	0	316
-21.313	-19.365	12278	21835	0	316
-19.473	-17.887	12359	25495	0	316
-16.733	-15.074	12480	29185	0	316
-11.071	-11.612	12634	32767	0	316
-7.429	-6.671	12763	32767	0	316
-4.508	-2.308	12940	32767	0	316
-3.210	2.524	13112	32767	0	316
-3.714	4.977	13289	32767	0	316
-2.092	6.671	13454	32767	0	316
-2.308	6.888	13638	32767	0	316
-0.613	6.058	13822	32767	0	316
-1.334	4.977	14024	32767	0	316
-2.849	1.803	14208	32767	0	316
-4.760	-1.839	14418	32767	0	316
-3.498	-4.652	14638	32767	0	316
0.108	-3.750	14870	32767	0	316
5.662	-2.308	15035	32767	0	316
7.789	-0.361	15182	32767	0	316
4.580	-0.757	15282	32767	0	316
-3.173	-4.039	15384	32767	0	316
-9.304	-6.239	15513	32767	1	644
-10.566	-6.022	15668	32767	0	644
-6.131	-6.563	15826	32767	0	644
-1.262	-6.563	16009	32767	0	644
-0.505	-9.412	16182	32767	0	644
-4.111	-14.317	16359	32767	0	644
-9.701	-15.903	16549	32767	0	644
-12.910	-16.120	16733	32767	0	644
-11.035	-14.966	16924	32767	0	644
-7.753	-12.730	17089	32767	0	644
-5.554	-11.540	17266	32767	0	644
-4.868	-10.314	17431	32453	0	644
-6.816	-7.248	17586	31248	0	644
-6.311	-3.678	17751	30058	0	644
-4.183	0.072	17891	28778	0	644
1.695	2.488	18038	27332	0	644
6.131	1.947	18156	25856	0	644
7.717	-1.551	18303	24652	0	644
2.380	-6.996	18442	23733	0	644
-7.970	-14.425	18571	22784	0	644
-16.552	-20.952	18681	21519	0	644
-21.818	-22.214	18792	20058	0	644
-21.962	-21.277	18884	18627	0	644
-16.841	-18.067	18964	17167	0	644
-14.136	-17.490	19038	15556	0	644
-13.127	-21.385	19104	13884	0	644
-13.523	-26.145	19141	12213	0	644
-16.805	-29.679	19178	10466	0	644
-19.906	-28.525	19214	8749	0	644
-22.899	-27.443	19233	7484	0	644
-28.092	-25.532	19270	6595	0	644
-29.066	-26.289	19277	5586	0	644
-28.525	-26.325	19277	4291	0	644
-23.981	-25.856	19251	2875	0	644
-20.411	-23.260	19233	1520	0	644
-14.172	-20.664	19196	270	0	644
-13.704	-17.202	19148	0	0	644
-12.586	-14.100	19104	0	0	644
-11.432	-9.592	19049	0	0	644
-9.448	-6.852	18983	0	0	644
-4.472	-3.678	18939	0	0	644
0.577	-1.190	18865	0	0	644
4.075	0.108	18828	0	0	644
5.554	-0.577	18762	0	0	644
5.554	-1.442	18707	0	0	644
4.940	-2.524	18652	0	0	644
2.524	-2.452	18615	0	0	644
-0.397	-2.236	18534	0	0	644
-5.986	-4.111	18450	0	0	644
-14.208	-7.104	18369	0	0	644
-18.211	-11.648	18303	0	0	644
-19.041	-14.605	18229	0	0	644
-16.949	-13.054	18156	511	0	644
-13.307	-12.009	18100	1445	0	644
-11.576	-11.468	18045	2439	0	644
-13.091	-11.035	17972	3418	0	644
-19.221	-14.425	17928	4397	0	644
-26.866	-17.274	17872	5421	0	644
-32.816	-19.726	17825	6475	0	644
-36.567	-20.700	17781	7514	0	644
-34.187	-18.644	17725	8508	0	644
-27.696	-14.208	17678	9442	0	644
-21.854	-9.232	17641	10360	0	644
-15.435	-5.265	17597	11098	0	644
-14.677	-5.698	17494	11008	0	644
-12.730	-7.465	17384	9999	0	644
-13.704	-9.196	17284	9186	0	644
-12.622	-9.016	17200	9186	0	644
-9.665	-5.013	17145	9818	0	644
-8.042	-1.731	17100	10842	0	644
-8.907	0.505	17053	11881	0	644
-11.720	-2.019	16997	12499	0	644
-16.589	-7.898	16953	12845	0	644
-18.356	-12.622	16898	13478	0	644
-17.021	-14.641	16880	14457	0	644
-14.713	-11.973	16843	15391	0	644
-14.497	-9.052	16788	15903	0	644
-16.048	-6.816	16751	16023	0	644
-19.185	-8.222	16703	16294	0	644
-19.149	-11.287	16696	16971	0	644
-18.067	-12.838	16678	17859	0	644
-15.651	-11.360	16659	18703	0	644
-14.821	-10.314	16622	19155	0	644
-14.894	-10.206	16567	18673	0	644
-16.048	-10.242	16494	17513	0	644
-16.120	-11.432	16439	16685	0	644
-16.300	-12.081	16391	16534	0	644
-16.156	-11.648	16366	16745	0	644
-15.038	-10.602	16340	17167	0	644
-12.838	-10.458	16322	17724	0	644
-10.278	-10.819	16311	18341	0	644
-11.107	-11.323	16304	18959	0	644
-12.658	-10.494	16304	19591	0	644
-13.668	-9.773	16311	20209	0	644
-13.415	-8.042	16340	20887	0	644
-9.845	-7.934	16348	21655	0	644
-6.347	-7.934	16366	22332	0	644
-5.734	-9.520	16366	22498	0	644
-9.160	-9.737	16359	22091	0	644
-12.550	-9.160	16348	21655	0	644
-14.100	-8.366	16359	21564	0	644
-14.353	-11.071	16366	21760	0	644
-12.838	-13.631	16391	22167	0	644
-11.071	-15.290	16420	22588	0	644
-9.592	-14.605	16446	22935	0	644
-9.881	-12.009	16483	23236	0	644
-9.016	-11.396	16501	23387	0	644
-9.773	-10.169	16512	23100	0	644
-7.393	-10.602	16483	21911	0	644
-5.049	-9.160	16439	20013	0	644
-3.354	-6.960	16409	18432	0	644
-2.344	-5.409	16384	17483	0	644
-2.885	-6.275	16359	16865	0	644
-7.068	-8.330	16348	16429	0	644
-8.294	-9.304	16329	16174	0	644
-8.330	-9.989	16329	16144	0	644
-10.422	-11.143	16348	16549	0	644
-12.189	-11.504	16377	17287	0	644
-14.136	-12.261	16384	17649	0	644
-18.428	-12.658	16348	16911	0	644
-21.926	-12.081	16304	15421	0	644
-22.322	-12.622	16256	14080	0	644
-19.582	-14.966	16182	12800	0	644
-15.110	-16.625	16090	11144	0	644
-12.477	-16.552	15998	9216	0	644
-9.845	-15.435	15918	7710	0	644
-13.091	-12.514	15851	7409	0	644
-18.572	-11.323	15833	8192	0	644
-23.080	-11.792	15815	9291	0	644
-24.630	-11.107	15826	10436	0	644
-22.214	-11.396	15826	11731	0	644
-16.012	-8.547	15851	13101	0	644
-8.799	-6.852	15862	14276	0	644
-4.977	-5.265	15807	14412	0	644
-4.868	-5.914	15734	13101	0	644
-8.186	-3.210	15642	11475	0	644
-7.898	1.911	15594	10857	0	644
-4.760	8.763	15568	11249	0	644
-1.515	15.182	15539	11912	0	644
-2.056	15.543	15495	12122	0	644
-5.481	8.366	15447	12017	0	644
-11.468	-1.118	15403	12138	0	644
-14.281	-8.078	15366	12198	0	644
-10.422	-10.169	15293	11791	0	644
-5.049	-5.481	15237	11128	0	644
-3.534	-1.875	15164	10707	0	644
-6.419	1.010	15109	10827	0	644
-13.379	-0.469	15043	10888	0	644
-21.385	-3.570	14951	10119	0	644
-23.512	-6.491	14851	9065	0	644
-20.483	-6.275	14759	8327	0	644
-12.333	-4.400	14649	7619	0	644
-3.210	-0.721	14557	7047	0	644
-0.288	1.983	14447	6595	0	644
-2.777	2.596	14307	5616	0	644
-10.133	1.226	14153	4095	0	644
-13.668	1.623	14006	2770	0	644
-13.343	2.885	13877	2183	0	644
-8.871	6.094	13756	2378	0	644
-3.895	7.321	13682	3342	0	644
-2.056	6.635	13646	5481	0	644
-2.164	4.760	13675	8854	0	644
-1.046	2.741	13719	12604	0	644
-0.469	1.551	13730	15571	0	644
-2.164	0.072	13712	16926	0	644
-6.383	-1.046	13646	16971	0	644
-11.468	-2.452	13590	16564	0	644
-13.595	-3.678	13554	16564	0	644
-11.323	-3.678	13509	17152	0	644
-7.465	-3.787	13498	17995	0	644
-5.806	-6.203	13462	18627	0	644
-6.275	-7.032	13425	18823	0	644
-10.458	-7.898	13407	19185	0	644
-13.307	-8.907	13399	19938	0	644
-12.874	-8.727	13351	20118	0	644
-12.766	-9.376	13315	19591	0	644
-10.602	-9.052	13259	18989	0	644
-12.153	-10.169	13197	18296	0	644
-15.038	-9.881	13123	17182	0	644
-17.743	-9.989	13032	15888	0	644
-18.860	-9.268	12965	15029	0	644
-17.238	-6.383	12940	15225	0	644
-13.054	-2.560	12921	16038	0	644
-8.583	-1.479	12866	16339	0	644
-9.412	-2.452	12818	15963	0	644
-12.477	-5.626	12782	15662	0	644
-16.264	-9.520	12756	16144	0	644
-19.654	-11.792	12763	17197	0	644
-20.087	-10.999	12737	17874	0	644
-18.716	-12.802	12719	17844	0	644
-20.267	-16.264	12671	17558	0	644
-19.582	-20.231	12634	17197	0	644
-19.113	-22.827	12609	16805	0	644
-15.002	-20.808	12554	16444	0	644
-10.422	-16.228	12506	16113	0	644
-13.415	-11.612	12487	16053	0	644
-19.618	-9.124	12487	16850	0	644
-26.001	-9.412	12517	18356	0	644
-29.607	-12.261	12543	19591	0	644
-26.325	-14.966	12543	20224	0	644
-20.627	-14.858	12590	20902	0	644
-15.362	-14.569	12653	22453	0	644
-14.533	-11.900	12756	24968	0	644
-11.864	-7.609	12892	27844	0	644
-10.927	-5.409	13032	30600	0	644
-10.783	-3.426	13160	32754	0	644
-9.953	-4.580	13289	32767	0	644
-10.133	-4.472	13454	32767	0	644
-7.825	-4.616	13675	32767	0	644
-5.770	-3.282	13940	32767	0	644
-3.931	-2.308	14226	32767	0	644
-3.282	-2.633	14521	32767	0	644
-6.960	-5.554	14851	32767	0	644
-9.304	-10.169	15164	32767	0	644
-11.756	-13.704	15465	32767	0	644
-11.251	-14.569	15741	32767	0	644
-11.973	-12.117	16054	32767	0	644
-15.074	-11.900	16329	32767	0	644
-18.320	-12.514	16622	32767	0	644
-23.152	-15.038	16906	32767	0	644
-21.168	-15.723	17181	32767	0	644
-14.533	-15.110	17439	32767	0	644
-8.547	-11.251	17696	32767	1	888
-5.986	-8.619	17935	32767	0	888
-6.960	-6.311	18156	32767	0	888
-8.439	-5.698	18358	32767	0	888
-6.167	-4.003	18523	32767	0	888
-5.157	-2.957	18663	32767	0	888
-3.895	-3.534	18773	32767	0	888
-6.347	-4.147	18865	29772	0	888
-9.917	-5.337	18946	25555	0	888
-11.396	-4.580	19020	21850	0	888
-12.225	-4.183	19104	18643	0	888
-14.894	-4.111	19178	15752	0	888
-16.733	-5.770	19240	13282	0	888
-18.572	-7.393	19314	11204	0	888
-18.860	-10.206	19369	9201	0	888
-17.887	-12.405	19435	7243	0	888
-18.067	-15.290	19461	5451	0	888
-19.329	-18.211	19497	3809	0	888
-18.788	-20.664	19516	2243	0	888
-17.923	-21.565	19527	782	0	888
-16.300	-18.933	19534	0	0	888
-15.903	-15.507	19534	0	0	888
-17.923	-11.937	19516	0	0	888
-22.034	-11.179	19472	0	0	888
-24.558	-10.566	19406	0	0	888
-25.316	-11.756	19350	0	0	888
-24.198	-12.333	19295	0	0	888
-21.096	-11.900	19251	0	0	888
-17.382	-12.333	19214	0	0	888
-15.687	-12.730	19178	0	0	888
-14.389	-11.576	19148	0	0	888
-13.487	-11.323	19122	0	0	888
-13.884	-12.910	19093	0	0	888
-13.127	-13.956	19056	0	0	888
-10.530	-15.471	18994	0	0	888
-6.167	-13.992	18946	0	0	888
-2.056	-9.484	18891	0	0	888
-0.613	-5.517	18865	0	0	888
-4.291	-7.032	18828	722	0	888
-10.530	-11.576	18810	2017	0	888
-17.815	-18.788	18773	3192	0	888
-19.149	-23.188	18744	4336	0	888
-17.274	-22.358	18707	5421	0	888
-14.281	-19.870	18681	6535	0	888
-11.360	-16.300	18663	7725	0	888
-11.937	-14.894	18615	8403	0	888
-10.746	-14.569	18523	7996	0	888
-11.900	-15.146	18406	6746	0	888
-14.461	-13.884	18284	5360	0	888
-14.930	-12.910	18185	4577	0	888
-14.930	-11.900	18093	4562	0	888
-11.504	-9.701	18001	4969	0	888
-7.934	-8.907	17935	5616	0	888
-5.049	-7.862	17872	6475	0	888
-6.527	-8.402	17825	7514	0	888
-9.232	-8.222	17781	8704	0	888
-8.258	-8.871	17744	10029	0	888
-6.383	-8.439	17707	11204	0	888
-4.580	-9.448	17652	11761	0	888
-4.832	-8.799	17578	11836	0	888
-7.429	-9.124	17523	12198	0	888
-7.248	-6.203	17494	13056	0	888
-5.770	-4.003	17431	13749	0	888
-3.534	-2.596	17376	14035	0	888
-0.865	-2.524	17358	14487	0	888
-4.111	-4.436	17321	15330	0	888
-7.501	-4.580	17303	16384	0	888
-9.917	-2.452	17292	17558	0	888
-9.629	-0.902	17292	18643	0	888
-10.746	-0.216	17292	19576	0	888
-10.746	-2.092	17292	20435	0	888
-11.540	-5.121	17303	21203	0	888
-10.783	-7.393	17310	21835	0	888
-7.789	-7.753	17310	22317	0	888
-6.203	-6.599	17321	22709	0	888
-7.176	-4.904	17321	23025	0	888
-11.179	-6.239	17328	23251	0	888
-14.461	-6.275	17347	23387	0	888
-14.281	-6.347	17347	23462	0	888
-12.189	-6.960	17358	23477	0	888
-8.799	-6.960	17347	23206	0	888
-9.052	-7.321	17310	22106	0	888
-11.251	-9.196	17255	20420	0	888
-12.694	-10.530	17247	19215	0	888
-11.900	-8.402	17211	18793	0	888
-9.484	-5.554	17174	18341	0	888
-7.862	-5.914	17108	17061	0	888
-10.350	-8.619	17009	14818	0	888
-16.336	-13.740	16906	12514	0	888
-21.024	-17.454	16843	11144	0	888
-20.014	-17.526	16770	10496	0	888
-13.127	-12.514	16678	9728	0	888
-5.554	-8.006	16586	8553	0	888
-1.154	-6.455	16464	7062	0	888
-2.128	-8.439	16359	5707	0	888
-8.691	-11.937	16274	5225	0	888
-13.163	-15.615	16219	5827	0	888
-17.021	-18.175	16175	7002	0	888
-21.096	-18.969	16175	8493	0	888
-23.188	-19.077	16157	10240	0	888
-23.945	-18.139	16146	11897	0	888
-22.250	-17.166	16127	12981	0	888
-17.310	-16.769	16109	13659	0	888
-11.937	-15.831	16109	14713	0	888
-10.927	-16.192	16101	15993	0	888
-10.206	-15.471	16072	16489	0	888
-12.369	-13.271	16054	16354	0	888
-14.858	-12.730	16009	16384	0	888
-16.805	-12.225	15973	16384	0	888
-19.978	-15.038	15899	15616	0	888
-23.440	-15.867	15833	14517	0	888
-21.781	-13.054	15759	13719	0	888
-14.281	-8.330	15715	13508	0	888
-5.445	-0.974	15686	14171	0	888
0.433	1.370	15686	15255	0	888
-0.685	-1.947	15642	15556	0	888
-9.088	-7.970	15568	14743	0	888
-17.454	-14.208	15513	13975	0	888
-19.329	-15.651	15495	14291	0	888
-15.543	-14.245	15476	15240	0	888
-10.674	-10.710	15447	15752	0	888
-7.285	-8.727	15421	15827	0	888
-7.609	-6.744	15429	16414	0	888
-9.953	-5.193	15447	17874	0	888
-12.730	-5.590	15476	19441	0	888
-13.631	-7.104	15465	20043	0	888
-16.120	-10.133	15410	19260	0	888
-19.798	-15.471	15373	17980	0	888
-21.385	-18.320	15318	16971	0	888
-21.493	-18.175	15263	16068	0	888
-16.733	-14.858	15190	15119	0	888
-8.835	-10.999	15116	14186	0	888
-3.137	-6.311	15024	13041	0	888
-2.056	-4.544	14914	11144	0	888
-4.940	-5.373	14748	8478	0	888
-10.133	-6.058	14594	5842	0	888
-11.251	-7.465	14454	4171	0	888
-9.773	-6.599	14337	3463	0	888
-6.094	-4.255	14190	2725	0	888
-5.914	-3.318	14032	1490	0	888
-6.780	-2.344	13877	285	0	888
-9.917	-3.931	13737	0	0	888
-12.477	-4.724	13590	0	0	888
-12.261	-7.068	13473	0	0	888
-8.006	-7.429	13407	1264	0	888
-7.248	-7.248	13351	3388	0	888
-7.176	-8.114	13296	5601	0	888
-13.307	-9.196	13252	7499	0	888
-20.555	-11.828	13234	9487	0	888
-26.325	-15.939	13215	11731	0	888
-26.073	-17.166	13168	13372	0	888
-19.221	-15.543	13112	14110	0	888
-13.343	-10.314	13076	14698	0	888
-8.078	-6.888	13050	15888	0	888
-8.222	-5.445	13032	17498	0	888
-8.979	-6.780	13032	18899	0	888
-9.917	-8.907	13039	20359	0	888
-8.475	-6.635	13087	22347	0	888
-4.977	-3.787	13131	24576	0	888
-1.587	-0.397	13186	26534	0	888
-0.469	0.252	13204	27634	0	888
-1.659	-0.541	13223	27784	0	888
-6.816	-3.534	13223	27528	0	888
-12.874	-5.986	13223	27091	0	888
-17.634	-8.727	13223	26685	0	888
-19.401	-9.448	13278	27106	0	888
-18.211	-9.629	13333	28356	0	888
-15.507	-7.285	13388	29170	0	888
-13.776	-6.094	13407	28884	0	888
-15.002	-8.511	13425	28010	0	888
-19.618	-14.533	13425	27031	0	888
-25.135	-22.214	13425	25992	0	888
-32.672	-30.869	13418	24757	0	888
-38.154	-32.961	13388	23281	0	888
-38.875	-31.482	13381	21971	0	888
-34.367	-26.758	13388	21489	0	888
-29.066	-19.870	13425	21700	0	888
-23.585	-16.625	13436	21564	0	888
-21.168	-14.930	13436	20796	0	888
-20.664	-13.343	13418	19817	0	888
-18.680	-11.287	13399	18793	0	888
-13.235	-7.501	13388	17995	0	888
-8.186	-2.993	13436	18085	0	888
-5.481	-1.623	13462	18853	0	888
-9.773	-3.714	13491	19275	0	888
-13.487	-7.970	13498	18959	0	888
-17.057	-12.405	13498	18447	0	888
-14.353	-13.559	13517	18115	0	888
-10.458	-13.091	13528	17920	0	888
-8.619	-11.684	13528	17649	0	888
-12.405	-11.323	13535	17408	0	888
-20.087	-13.740	13554	17272	0	888
-25.532	-15.579	13565	17061	0	888
-24.847	-17.382	13554	16760	0	888
-18.752	-17.995	13583	16609	0	888
-11.323	-18.680	13583	16609	0	888
-7.537	-19.257	13583	16489	0	888
-10.494	-19.329	13583	16219	0	888
-13.992	-17.923	13583	15903	0	888
-15.687	-13.559	13583	15571	0	888
-13.127	-7.321	13590	15511	0	888
-9.412	-4.940	13646	16324	0	888
-8.366	-5.517	13693	17844	0	888
-11.720	-9.412	13756	19019	0	888
-14.605	-12.694	13793	19516	0	888
-15.975	-13.740	13859	19953	0	888
-14.461	-9.484	13921	21067	0	888
-12.333	-6.599	14013	22679	0	888
-11.900	-6.527	14123	24049	0	888
-12.946	-8.006	14252	25721	0	888
-14.713	-11.504	14447	28673	0	888
-16.372	-14.894	14657	32408	0	888
-16.156	-16.408	14877	32767	0	888
-15.146	-15.615	15079	32767	0	888
-14.821	-14.641	15282	32767	0	888
-12.874	-14.605	15484	32767	0	888
-13.595	-16.084	15697	32767	0	888
-13.559	-19.041	15973	32767	0	888
-11.684	-21.601	16212	32767	0	888
-7.321	-21.096	16446	32767	0	888
-6.671	-19.834	16659	32767	0	888
-8.475	-21.024	16850	32767	0	888
-13.127	-22.250	17100	32767	0	888
-16.913	-22.935	17339	32767	0	888
-16.480	-20.916	17597	32767	1	896
-16.408	-18.536	17843	32767	0	896
-18.716	-16.733	18038	32767	0	896
-22.863	-20.087	18211	32767	0	896
-25.965	-22.863	18395	32767	0	896
-21.204	-23.801	18578	32767	0	896
-10.855	-21.060	18744	32767	0	896
-3.498	-16.805	18920	32767	0	896
-2.380	-13.668	19038	32362	0	896
-7.465	-12.730	19111	28763	0	896
-16.300	-13.487	19148	24576	0	896
-20.231	-16.516	19178	20103	0	896
-20.050	-20.267	19159	15571	0	896
-18.392	-23.116	19130	11369	0	896
-15.543	-25.135	19130	7936	0	896
-14.533	-24.630	19093	4954	0	896
-15.507	-22.178	19056	1987	0	896
-16.769	-19.582	19012	0	0	896
-15.723	-17.454	18975	0	0	896
-16.300	-19.149	18920	0	0	896
-17.382	-21.385	18891	0	0	896
-16.913	-25.604	18854	0	0	896
-19.221	-26.253	18854	0	0	896
-20.591	-24.486	18872	0	0	896
-20.303	-20.519	18872	0	0	896
-20.844	-18.139	18909	0	0	896
-18.752	-17.923	18939	0	0	896
-15.002	-17.670	18983	1309	0	896
-10.097	-15.038	19031	3252	0	896
-3.823	-10.891	19086	5014	0	896
1.046	-4.400	19056	5647	0	896
1.659	-1.298	19012	4668	0	896
0.433	-0.288	18939	3207	0	896
-5.301	-2.849	18902	2619	0	896
-11.900	-7.032	18854	2936	0	896
-15.831	-9.701	18817	3388	0	896
-14.821	-10.783	18762	3222	0	896
-10.746	-8.511	18689	2650	0	896
-7.032	-4.400	18615	2394	0	896
-6.635	-3.462	18542	2168	0	896
-10.927	-4.111	18431	1475	0	896
-16.192	-8.583	18321	556	0	896
-17.923	-10.278	18192	0	0	896
-15.435	-11.323	18075	0	0	896
-14.100	-10.602	17964	0	0	896
-16.444	-12.045	17817	0	0	896
-19.221	-14.894	17689	0	0	896
-22.791	-18.933	17567	0	0	896
-23.080	-20.050	17475	0	0	896
-19.510	-19.185	17376	0	0	896
-16.228	-16.408	17310	1038	0	896
-13.848	-14.100	17284	3207	0	896
-12.261	-14.533	17273	6174	0	896
-10.458	-14.533	17284	9397	0	896
-9.088	-16.697	17339	12695	0	896
-10.314	-17.779	17376	16008	0	896
-11.215	-17.815	17439	19185	0	896
-13.776	-16.048	17494	21941	0	896
-13.704	-13.595	17505	23402	0	896
-15.435	-9.484	17486	23176	0	896
-15.903	-6.311	17439	22362	0	896
-16.048	-7.068	17439	22332	0	896
-14.425	-9.052	17450	23085	0	896
-12.514	-14.461	17475	24079	0	896
-12.081	-18.608	17494	24847	0	896
-15.507	-22.250	17486	24847	0	896
-21.565	-23.693	17475	24215	0	896
-27.263	-22.647	17494	23959	0	896
-27.227	-21.313	17512	24380	0	896
-23.332	-16.228	17542	24862	0	896
-16.913	-11.215	17531	24576	0	896
-11.215	-6.888	17494	23191	0	896
-10.242	-3.498	17468	21609	0	896
-8.727	-3.029	17439	20630	0	896
-8.475	-1.911	17384	19591	0	896
-8.222	-3.246	17321	17829	0	896
-7.393	-5.986	17255	16144	0	896
-9.340	-11.756	17218	15240	0	896
-12.730	-15.182	17156	14502	0	896
-12.045	-15.831	17100	13372	0	896
-9.052	-10.855	17016	12122	0	896
-4.652	-4.977	16961	11189	0	896
-3.426	-2.164	16924	11113	0	896
-5.698	-6.455	16924	11972	0	896
-10.638	-12.874	16917	13116	0	896
-13.235	-19.437	16906	13734	0	896
-15.218	-20.483	16880	13945	0	896
-15.651	-20.339	16880	14366	0	896
-16.661	-18.067	16843	14683	0	896
-17.995	-16.697	16832	14713	0	896
-16.877	-16.769	16806	14999	0	896
-13.992	-17.202	16777	15104	0	896
-9.845	-17.634	16703	13960	0	896
-8.439	-17.382	16575	11791	0	896
-7.285	-17.129	16494	9863	0	896
-7.212	-16.769	16391	8809	0	896
-11.035	-16.913	16311	8297	0	896
-14.930	-17.166	16230	7891	0	896
-16.661	-17.129	16146	7574	0	896
-15.579	-14.569	16065	7348	0	896
-12.225	-10.242	15962	6791	0	896
-8.402	-6.167	15826	5541	0	896
-6.058	-2.200	15697	4050	0	896
-7.645	-0.541	15557	3222	0	896
-6.094	2.019	15465	3177	0	896
-2.777	5.157	15318	2921	0	896
-0.361	6.311	15190	2228	0	896
-1.803	4.868	15098	2318	0	896
-6.744	-0.144	15035	3869	0	896
-11.792	-6.599	14969	5737	0	896
-13.595	-12.117	14877	6565	0	896
-11.071	-12.153	14759	6475	0	896
-6.311	-9.340	14668	6294	0	896
-6.960	-3.967	14594	6821	0	896
-9.124	-1.442	14509	7936	0	896
-13.523	-1.515	14410	8644	0	896
-14.172	-4.616	14307	8674	0	896
-12.838	-8.619	14226	8719	0	896
-9.412	-10.566	14153	9547	0	896
-7.609	-8.799	14105	11264	0	896
-10.855	-6.455	14098	13523	0	896
-13.127	-4.183	14105	15963	0	896
-18.392	-5.265	14087	17844	0	896
-19.221	-6.744	14068	18808	0	896
-17.562	-9.448	14043	19350	0	896
-13.235	-8.583	14006	19877	0	896
-10.025	-6.816	13969	20209	0	896
-7.393	-3.895	13932	20088	0	896
-9.881	-1.082	13859	19682	0	896
-13.776	-0.180	13840	19621	0	896
-15.651	1.190	13829	20510	0	896
-15.507	2.524	13866	22167	0	896
-13.668	1.154	13914	24064	0	896
-11.720	-1.623	13951	25766	0	896
-13.415	-4.580	13987	26670	0	896
-14.245	-9.124	13995	26655	0	896
-15.543	-10.999	13995	26384	0	896
-12.730	-11.756	14043	26685	0	896
-10.422	-10.963	14087	27408	0	896
-9.773	-10.963	14098	27558	0	896
-15.435	-11.432	14098	26880	0	896
-23.152	-12.802	14105	26052	0	896
-28.777	-14.966	14142	25871	0	896
-29.643	-15.579	14179	26203	0	896
-24.811	-14.605	14197	26052	0	896
-17.202	-11.756	14215	25103	0	896
-11.684	-6.563	14190	23808	0	896
-7.609	-5.626	14171	22362	0	896
-9.412	-6.094	14134	20826	0	896
-8.222	-8.078	14098	19365	0	896
-9.088	-9.881	14079	18191	0	896
-7.176	-7.321	14050	17242	0	896
-4.544	-3.137	14013	16309	0	896
-2.308	2.092	13995	15662	0	896
-0.721	3.246	14032	16144	0	896
-1.370	1.082	14087	17543	0	896
-3.390	-2.128	14116	18567	0	896
-4.291	-7.501	14134	18733	0	896
-6.383	-9.701	14142	18492	0	896
-7.393	-10.494	14142	18085	0	896
-6.852	-9.520	14134	17543	0	896
-6.563	-9.376	14123	16926	0	896
-6.960	-8.907	14116	16279	0	896
-8.186	-10.999	14087	15601	0	896
-11.720	-12.874	14061	14954	0	896
-15.146	-14.821	14032	14366	0	896
-20.087	-16.444	14013	13900	0	896
-20.808	-17.057	13995	13583	0	896
-21.385	-16.048	13969	13388	0	896
-18.860	-13.704	13958	13282	0	896
-15.471	-10.458	13940	13252	0	896
-12.441	-6.671	13921	13312	0	896
-9.412	-5.481	13921	13448	0	896
-6.996	-5.590	13914	13628	0	896
-7.068	-6.347	13903	13900	0	896
-8.763	-7.321	13921	14442	0	896
-12.622	-6.924	13932	15195	0	896
-15.290	-4.796	13951	15993	0	896
-14.208	-4.977	13987	16911	0	896
-11.143	-4.400	14032	18115	0	896
-7.465	-5.770	14079	19335	0	896
-6.347	-6.744	14123	20194	0	896
-9.665	-8.222	14160	20796	0	896
-12.586	-8.475	14208	21414	0	896
-12.514	-10.855	14271	22046	0	896
-10.097	-11.215	14300	22423	0	896
-7.970	-11.071	14344	22528	0	896
-5.554	-8.907	14381	22498	0	896
-7.140	-5.626	14399	22317	0	896
-7.898	-4.616	14429	22001	0	896
-9.665	-4.796	14454	21564	0	896
-12.009	-6.419	14473	21082	0	896
-13.271	-7.898	14491	20615	0	896
-16.156	-10.746	14502	20134	0	896
-17.166	-11.576	14528	19682	0	896
-18.067	-13.451	14539	19260	0	896
-19.365	-14.461	14557	18868	0	896
-20.700	-13.740	14557	18492	0	896
-19.762	-12.009	14583	18161	0	896
-16.949	-7.609	14601	17950	0	896
-11.432	-4.472	14631	17995	0	896
-6.996	-1.190	14675	18537	0	896
-5.698	-0.757	14778	19908	0	896
-7.573	-2.885	14877	22016	0	896
-11.540	-6.167	15024	24260	0	896
-14.353	-10.206	15182	26564	0	896
-17.959	-13.776	15329	28778	0	896
-21.168	-16.264	15458	30073	0	896
-21.132	-17.274	15557	30435	0	896
-20.664	-15.723	15660	30284	0	896
-16.444	-14.100	15741	29561	0	896
-14.533	-13.018	15778	28266	0	896
-15.723	-15.435	15826	26594	0	896
-19.978	-19.149	15833	24697	1	852
-23.296	-20.555	15851	22634	0	852
-20.988	-20.087	15862	20781	0	852
-15.362	-19.077	15907	19817	0	852
-12.477	-18.283	15954	19546	0	852
-12.658	-19.365	16009	19230	0	852
-16.913	-21.493	16072	19124	0	852
-20.916	-23.693	16138	19380	0	852
-24.594	-23.693	16201	19501	0	852
-23.260	-24.125	16285	19742	0	852
-22.972	-22.683	16384	20555	0	852
-19.546	-17.598	16494	21655	0	852
-15.038	-11.360	16593	22438	0	852
-7.753	-6.058	16667	22302	0	852
-4.327	-3.787	16685	21158	0	852
-4.688	-4.868	16740	19832	0	852
-10.855	-9.953	16795	19275	0	852
-17.598	-13.199	16850	19320	0	852
-20.808	-15.579	16887	18778	0	852
-21.204	-14.821	16887	17377	0	852
-17.959	-13.704	16917	16023	0	852
-13.704	-14.208	16942	15481	0	852
-10.061	-14.317	16979	15360	0	852
-7.645	-16.913	16997	14939	0	852
-6.203	-17.959	17064	14863	0	852
-10.710	-19.618	17174	16189	0	852
-19.329	-22.683	17284	18402	0	852
-27.912	-27.696	17376	20028	0	852
-32.023	-28.597	17431	20118	0	852
-31.338	-27.443	17450	18884	0	852
-26.938	-22.539	17439	16956	0	852
-26.073	-20.555	17395	14638	0	852
-25.027	-20.700	17328	12017	0	852
-23.981	-23.188	17266	9532	0	852
-18.680	-21.962	17236	8192	0	852
-10.061	-17.959	17255	8448	0	852
-5.157	-10.314	17247	9110	0	852
-5.013	-7.573	17218	8839	0	852
-11.323	-8.835	17163	7680	0	852
-19.257	-15.507	17119	6520	0	852
-23.332	-21.457	17089	6144	0	852
-21.493	-22.935	17071	6550	0	852
-17.851	-20.159	17053	7002	0	852
-12.081	-16.625	17064	7604	0	852
-12.369	-14.713	17064	8719	0	852
-16.733	-18.897	17064	9653	0	852
-23.476	-25.279	17034	9788	0	852
-26.001	-27.010	16972	9246	0	852
-25.893	-23.765	16924	8372	0	852
-20.808	-19.149	16861	7800	0	852
-14.425	-14.858	16869	8463	0	852
-11.035	-15.362	16917	10752	0	852
-8.979	-17.851	16997	13930	0	852
-9.845	-20.087	17053	16474	0	852
-13.740	-20.483	17100	17769	0	852
-20.375	-19.365	17156	18643	0	852
-23.476	-18.969	17174	19486	0	852
-23.080	-18.752	17174	19501	0	852
-17.346	-17.202	17137	18432	0	852
-9.737	-13.559	17108	17016	0	852
-5.013	-10.206	17089	16474	0	852
-4.219	-8.186	17145	17543	0	852
-6.708	-9.412	17229	19637	0	852
-11.756	-11.792	17292	21489	0	852
-15.759	-14.461	17358	22679	0	852
-19.005	-14.821	17413	23341	0	852
-21.349	-14.461	17431	23161	0	852
-20.736	-12.225	17439	22257	0	852
-16.552	-10.530	17457	21534	0	852
-12.550	-7.212	17475	21233	0	852
-7.176	-3.065	17468	20600	0	852
-5.121	-0.469	17439	19140	0	852
-5.698	-1.226	17376	16926	0	852
-9.845	-4.327	17303	14622	0	852
-13.487	-9.232	17266	13177	0	852
-14.317	-10.242	17229	12514	0	852
-13.848	-8.475	17174	11731	0	852
-9.629	-5.301	17145	11038	0	852
-7.934	-1.911	17119	10978	0	852
-8.006	-3.534	17108	11324	0	852
-10.097	-6.852	17108	11881	0	852
-9.953	-9.160	17108	12604	0	852
-9.124	-8.511	17100	13101	0	852
-6.527	-6.563	17089	13041	0	852
-2.128	-3.498	17071	12921	0	852
-2.236	-4.111	17064	13327	0	852
-4.183	-5.698	17100	14261	0	852
-6.671	-7.862	17137	15827	0	852
-9.881	-10.314	17163	17182	0	852
-10.061	-10.206	17156	17242	0	852
-10.674	-10.350	17108	16098	0	852
-9.629	-11.504	17034	14381	0	852
-10.746	-11.900	16942	12378	0	852
-14.749	-13.487	16850	10270	0	852
-19.618	-15.110	16740	8388	0	852
-22.827	-16.516	16641	7198	0	852
-22.755	-17.418	16593	7062	0	852
-16.769	-16.444	16538	7559	0	852
-9.809	-14.821	16494	7845	0	852
-6.419	-12.586	16428	7815	0	852
-8.655	-11.287	16348	7604	0	852
-14.821	-12.694	16267	7047	0	852
-18.752	-14.461	16182	6490	0	852
-21.565	-16.012	16127	6761	0	852
-19.942	-15.038	16090	7680	0	852
-16.372	-12.045	16028	8508	0	852
-15.471	-10.602	16009	9532	0	852
-14.461	-9.088	15998	10963	0	852
-12.766	-9.196	15943	11927	0	852
-12.045	-6.996	15907	12092	0	852
-11.215	-4.039	15833	11866	0	852
-9.160	-1.515	15759	11445	0	852
-8.871	-1.010	15679	10903	0	852
-7.393	-4.688	15587	10360	0	852
-7.537	-8.439	15495	9833	0	852
-9.412	-11.828	15403	9366	0	852
-12.730	-10.819	15318	9020	0	852
-16.841	-10.530	15226	8809	0	852
-17.562	-7.681	15134	8734	0	852
-14.353	-6.275	15061	8869	0	852
-6.671	-4.436	14998	9351	0	852
-1.046	-5.013	14943	10104	0	852
1.262	-4.724	14888	10918	0	852
1.010	-5.662	14851	11897	0	852
-0.793	-3.570	14833	13222	0	852
0.541	-1.190	14804	14638	0	852
2.308	2.308	14796	15782	0	852
3.137	4.364	14767	16640	0	852
1.551	3.931	14759	17377	0	852
0.793	1.875	14741	18025	0	852
1.695	1.118	14712	18612	0	852
5.121	0.180	14704	19124	0	852
8.114	-0.216	14686	19561	0	852
10.169	0.325	14675	19953	0	852
10.025	1.515	14668	20284	0	852
8.583	1.659	14649	20600	0	852
7.789	0.036	14649	20871	0	852
6.816	-2.957	14649	21112	0	852
4.364	-4.364	14631	21323	0	852
5.049	-4.436	14631	21534	0	852
5.265	-1.010	14638	21700	0	852
5.229	1.082	14631	21805	0	852
2.741	0.793	14638	21865	0	852
0.974	-2.524	14649	21911	0	852
-3.246	-4.832	14638	21971	0	852
-5.121	-5.157	14657	22016	0	852
-5.626	-3.210	14675	22061	0	852
-5.734	-1.370	14675	22167	0	852
-7.753	-0.613	14723	22588	0	852
-7.681	-2.849	14759	23371	0	852
-7.393	-4.436	14815	24185	0	852
-6.022	-5.878	14851	24697	0	852
-3.714	-6.708	14907	24953	0	852
-4.075	-7.140	14962	25254	0	852
-8.042	-8.511	15017	25555	0	852
-11.648	-9.196	15072	25630	0	852
-13.415	-10.206	15098	25374	0	852
-15.038	-11.684	15134	24908	0	852
-15.218	-12.910	15153	24320	0	852
-17.743	-14.785	15182	23658	0	852
-23.404	-16.913	15219	22965	1	640
-25.243	-17.598	15226	22272	0	640
-25.496	-18.103	15245	21579	0	640
-24.702	-20.050	15256	20856	0	640
-23.729	-22.034	15263	20149	0	640
-24.198	-22.647	15293	19456	0	640
-25.568	-23.909	15300	18823	0	640
-24.414	-22.034	15311	18236	0	640
-23.332	-21.024	15318	17694	0	640
-21.601	-19.365	15329	17182	0	640
-22.863	-18.175	15329	16745	0	640
-23.621	-16.444	15337	16369	0	640
-24.162	-14.317	15355	16083	0	640
-21.277	-11.540	15373	16113	0	640
-15.687	-9.665	15421	16564	0	640
-11.864	-8.186	15458	17167	0	640
-10.061	-8.402	15495	17603	0	640
-10.061	-6.960	15539	18055	0	640
-10.097	-4.544	15594	18688	0	640
-8.439	-1.262	15649	19290	0	640
-6.347	-1.298	15697	19546	0	640
-6.167	-4.183	15715	19486	0	640
-8.078	-8.583	15752	19230	0	640
-9.448	-11.323	15759	18853	0	640
-9.268	-12.369	15796	18356	0	640
-8.150	-13.631	15807	17769	0	640
-10.061	-16.516	15796	17167	0	640
-10.819	-20.195	15807	16579	0	640
-14.064	-20.916	15796	16023	0	640
-14.064	-17.995	15807	15466	0	640
-13.199	-13.920	15789	14924	0	640
-10.783	-10.927	15796	14397	0	640
-11.432	-12.261	15796	13930	0	640
-11.035	-14.317	15778	13538	0	640
-13.920	-17.274	15778	13222	0	640
-14.785	-17.923	15752	12981	0	640
-14.858	-16.480	15752	12815	0	640
-13.812	-13.127	15752	12785	0	640
-9.268	-9.629	15759	13026	0	640
-6.131	-5.554	15778	13478	0	640
-1.983	-1.695	15771	13884	0	640
1.262	-0.144	15796	14216	0	640
1.442	0.721	15807	14698	0	640
-1.695	-1.190	15833	15300	0	640
-6.203	-5.770	15851	15722	0	640
-10.458	-9.845	15870	15903	0	640
-10.458	-12.081	15870	16038	0	640
-7.645	-10.819	15899	16339	0	640
-4.147	-9.376	15907	16760	0	640
-2.957	-7.212	15936	17046	0	640
-7.609	-9.953	15936	17106	0	640
-12.369	-13.812	15954	17061	0	640
-16.661	-18.392	15954	16941	0	640
-17.923	-20.808	15962	16790	0	640
-16.877	-20.555	15973	16640	0	640
-13.956	-19.798	15954	16444	0	640
-13.235	-17.490	15980	16474	0	640
-11.828	-16.156	16028	17332	0	640
-11.792	-15.290	16090	18823	0	640
-13.740	-14.641	16146	19908	0	640
-16.156	-17.166	16182	20254	0	640
-18.247	-19.582	16230	20510	0	640
-17.166	-18.860	16304	21459	0	640
-9.124	-16.372	16391	22905	0	640
-1.659	-10.097	16457	23974	0	640
2.777	-6.816	16520	24320	0	640
0.577	-7.465	16575	24185	0	640
-6.383	-12.045	16622	23868	0	640
-10.602	-17.129	16696	23884	0	640
-11.540	-21.060	16788	24546	0	640
-9.448	-23.368	16880	25676	0	640
-10.422	-25.352	17009	26911	0	640
-13.704	-28.128	17126	28085	0	640
-16.661	-28.850	17229	28823	0	640
-18.969	-27.551	17358	29260	0	640
-16.877	-24.089	17457	29516	0	640
-13.235	-21.962	17531	28884	0	640
-10.891	-19.401	17567	27167	0	640
-9.917	-18.500	17586	25134	0	640
-9.917	-17.851	17622	23627	0	640
-11.540	-15.543	17689	22829	1	320
-11.720	-13.054	17751	22362	0	320
-13.127	-11.792	17799	21745	0	320
-13.343	-10.458	17806	20405	0	320
-13.740	-11.287	17799	18221	0	320
-13.235	-12.225	17751	15662	0	320
-12.622	-13.668	17696	12951	0	320
-10.891	-13.523	17622	10195	0	320
-8.727	-13.487	17542	7484	0	320
-9.052	-11.648	17439	4924	0	320
-9.629	-12.189	17328	2589	0	320
-11.720	-13.848	17218	481	0	320
-15.615	-18.247	17108	0	0	320
-21.060	-21.998	16997	0	0	320
-25.279	-24.991	16898	0	0	320
-27.912	-23.945	16806	0	0	320
-27.443	-21.854	16703	0	0	320
-24.739	-18.608	16611	0	0	320
-20.195	-16.120	16520	0	0	320
-12.766	-13.992	16475	0	0	320
-9.052	-12.297	16439	0	0	320
-7.248	-9.376	16428	1866	0	320
-6.744	-9.088	16428	4246	0	320
-10.494	-8.150	16446	6776	0	320
-11.900	-7.789	16483	9607	0	320
-11.828	-5.626	16494	11897	0	320
-9.917	-2.092	16501	13282	0	320
-6.527	-0.108	16483	14171	0	320
-1.983	0.577	16464	14743	0	320
2.488	-0.721	16457	15300	0	320
7.140	-2.344	16464	16459	0	320
5.626	-4.003	16501	18146	0	320
-1.695	-6.635	16501	19305	0	320
-8.871	-11.648	16501	19606	0	320
-17.779	-18.644	16501	19742	0	320
-21.421	-22.178	16538	20480	0	320
-19.077	-21.926	16556	21624	0	320
-12.622	-15.651	16575	22317	0	320
-7.032	-9.917	16586	22393	0	320
-3.606	-6.744	16593	22227	0	320
-4.688	-8.511	16586	21805	0	320
-9.376	-14.100	16586	21323	0	320
-16.661	-16.985	16575	21007	0	320
-18.031	-16.300	16567	20661	0	320
-14.064	-13.379	16549	19953	0	320
-7.789	-7.321	16520	19019	0	320
0.288	-4.364	16512	18402	0	320
0.541	-3.714	16538	18703	0	320
-5.734	-6.635	16556	19516	0	320
-16.480	-13.307	16556	19772	0	320
-25.604	-18.103	16556	19260	0	320
-25.460	-20.123	16531	18432	0	320
-15.975	-16.589	16501	17453	0	320
-5.734	-8.799	16464	16369	0	320
-0.108	-3.714	16409	15195	0	320
-2.957	-3.534	16359	14020	0	320
-13.668	-7.429	16304	12921	0	320
-21.204	-12.514	16237	11881	0	320
-21.962	-14.930	16193	11264	0	320
-16.949	-11.540	16193	11671	0	320
-10.927	-7.970	16201	12875	0	320
-7.645	-4.219	16193	13794	0	320
-7.825	-4.111	16193	14125	0	320
-6.419	-4.760	16182	14381	0	320
-6.527	-5.517	16175	14683	0	320
-3.931	-3.642	16164	14878	0	320
-4.580	-2.596	16157	15134	0	320
-6.924	-1.334	16164	15647	0	320
-10.025	-3.029	16175	16414	0	320
-10.386	-6.311	16230	17694	0	320
-10.169	-8.078	16285	19396	0	320
-9.917	-9.340	16329	20751	0	320
-9.556	-7.248	16366	21384	0	320
-11.612	-7.285	16377	21444	0	320
-13.812	-7.104	16384	21037	0	320
-13.884	-8.943	16391	20585	0	320
-12.045	-9.232	16428	20766	0	320
-9.592	-9.556	16464	21399	0	320
-8.258	-8.763	16475	21549	0	320
-10.746	-10.350	16483	20932	0	320
-12.694	-10.891	16464	20013	0	320
-14.569	-10.963	16446	18974	0	320
-11.432	-8.258	16420	17784	0	320
-6.671	-4.219	16384	16534	0	320
-5.770	-2.560	16340	15285	0	320
-9.809	-3.787	16293	14095	0	320
-15.651	-7.825	16248	12996	0	320
-19.510	-9.016	16212	12017	0	320
-16.805	-8.366	16146	11174	0	320
-10.783	-4.255	16083	10481	0	320
-3.570	-0.649	16035	9924	0	320
0.757	1.587	15998	9532	0	320
0.577	0.072	15943	9472	0	320
-2.921	-2.019	15925	9698	0	320
-8.006	-2.993	15881	9954	0	320
-10.458	-2.560	15862	10225	0	320
-11.179	-0.938	15833	10752	0	320
-7.717	2.164	15833	11475	0	320
-2.164	5.013	15807	12122	0	320
1.983	6.780	15796	12604	0	320
3.967	7.789	15771	13011	0	320
5.409	8.511	15771	13388	0	320
4.580	8.763	15741	13719	0	320
5.662	11.612	15715	13990	0	320
7.537	13.848	15697	14231	0	320
9.556	16.300	15686	14457	0	320
10.314	15.867	15649	14698	0	320
8.258	13.307	15642	14984	0	320
9.665	11.576	15631	15300	0	320
10.638	9.268	15612	15616	0	320
12.982	9.016	15605	15903	0	320
11.828	5.373	15594	16189	0	320
3.714	2.272	15594	16474	0	320
-3.967	-1.695	15576	16775	0	320
-8.619	-3.137	15568	17076	0	320
-5.914	-3.354	15568	17332	0	320
-2.957	-0.757	15576	17634	0	320
-2.092	0.361	15576	18115	0	320
-4.580	1.442	15587	18703	0	320
-6.816	0.252	15623	19245	0	320
-8.655	-0.397	15642	19893	0	320
-7.068	-1.118	15686	20826	0	320
-5.698	0.144	15723	21760	0	320
-3.426	3.534	15759	22302	0	320
-2.957	5.734	15778	22543	0	320
-1.551	7.393	15815	22649	0	320
-2.272	5.878	15833	22634	0	320
-5.662	4.183	15870	22438	0	320
-6.635	2.308	15870	22061	0	320
-6.419	1.983	15888	21594	0	320
-7.285	0.793	15888	21097	0	320
-7.717	-1.370	15907	20585	0	320
-6.996	-4.291	15899	20103	0	320
-6.455	-5.806	15918	19621	0	320
-4.688	-6.888	15907	19109	0	320
-3.859	-5.409	15925	18582	0	320
-8.186	-3.534	15918	18085	0	320
-11.720	-3.967	15925	17649	0	320
-15.398	-3.859	15918	17212	0	320
-14.605	-4.111	15907	16775	0	320
-12.333	-4.688	15918	16369	0	320
-8.402	-3.462	15888	16023	0	320
-7.140	-4.544	15907	15933	0	320
-6.491	-3.967	15907	16068	0	320
-7.176	-4.183	15936	16219	0	320
-9.016	-2.164	15943	16474	0	320
-9.665	-1.082	15991	17031	0	320
-10.025	0.469	16017	17618	0	320
-11.396	-0.180	16028	17935	0	320
-11.432	-1.659	16072	18070	0	320
-11.576	-3.246	16090	18296	0	320
-9.845	-2.813	16120	18582	0	320
-10.169	-3.678	16138	18688	0	320
-12.982	-4.796	16157	18567	0	320
-17.021	-7.537	16182	18296	0	320
-21.277	-9.809	16175	17950	0	320
-22.647	-13.415	16175	17558	0	320
-20.050	-14.208	16182	17182	0	320
-18.464	-15.543	16175	16790	0	320
-18.320	-14.605	16193	16414	0	320
-18.464	-13.307	16175	16008	0	320
-18.572	-10.963	16164	15586	0	320
-18.464	-7.393	16157	15165	0	320
-15.507	-5.626	16146	14758	0	320
-12.730	-2.777	16138	14366	0	320
-9.376	-0.541	16120	14035	0	320
-6.780	1.911	16101	13749	0	320
-8.078	3.282	16090	13523	0	320
-9.845	3.065	16072	13372	0	320
-13.343	2.200	16054	13267	0	320
-14.208	0.902	16065	13297	0	320
-13.307	-0.541	16065	13598	0	320
-12.261	-0.216	16065	14110	0	320
-12.694	0.829	16072	14592	0	320
-10.927	2.092	16083	14969	0	320
-11.287	2.813	16101	15481	0	320
-11.648	1.983	16120	16128	0	320
-10.674	-0.397	16138	16624	0	320
-10.855	-2.705	16157	16911	0	320
-10.746	-2.669	16157	17031	0	320
-9.232	-0.252	16157	17061	0	320
-10.133	2.669	16164	17001	0	320
-11.937	2.236	16164	16911	0	320
-15.795	0.361	16164	16790	0	320
-17.166	-2.885	16157	16609	0	320
-14.605	-3.318	16157	16399	0	320
-10.242	-0.613	16146	16234	0	320
-6.058	2.705	16157	16053	0	320
-3.173	4.364	16127	15888	0	320
-6.419	3.570	16120	15752	0	320
-9.340	0.974	16120	15662	0	320
-13.018	-1.442	16120	15586	0	320
-11.251	-2.164	16109	15511	0	320
-9.304	-2.019	16101	15466	0	320
-4.472	-1.010	16090	15466	0	320
0.144	0.433	16109	15571	0	320
2.056	1.659	16109	15903	0	320
2.272	1.623	16127	16384	0	320
0.180	-0.144	16138	16850	0	320
-4.760	-2.416	16175	17377	0	320
-7.357	-5.193	16201	18176	0	320
-7.140	-4.760	16237	18989	0	320
-3.895	-3.895	16267	19471	0	320
-0.469	-0.180	16293	19637	0	320
1.803	3.173	16311	19637	0	320
0.397	3.498	16322	19516	0	320
-3.137	2.236	16329	19260	0	320
-7.934	-2.236	16329	18899	0	320
-9.917	-8.186	16366	18748	0	320
-10.710	-11.107	16409	19411	0	320
-8.475	-10.602	16475	20706	0	320
-4.832	-5.229	16520	21564	0	320
-2.885	-2.056	16556	21640	0	320
-2.957	-0.685	16586	21338	0	320
-6.708	-4.219	16604	20841	0	320
-7.104	-9.124	16622	20450	0	320
-5.662	-13.199	16685	20796	0	320
-4.147	-12.802	16759	21700	0	320
-2.488	-12.477	16806	22408	0	320
-6.131	-13.559	16906	23146	0	320
-13.559	-14.605	16979	24200	0	320
-19.113	-18.824	17071	24862	0	320
-23.981	-22.611	17119	24757	1	888
-26.866	-25.532	17163	24124	0	888
-27.191	-27.263	17200	23311	0	888
-28.741	-28.741	17255	22814	0	888
-26.758	-28.092	17328	23010	0	888
-23.693	-27.515	17395	23387	0	888
-19.582	-26.433	17439	23085	0	888
-17.743	-25.352	17468	22076	0	888
-18.644	-24.702	17475	20796	0	888
-20.303	-25.929	17475	19215	0	888
-23.116	-25.279	17450	17272	0	888
-21.601	-24.053	17402	15210	0	888
-15.507	-19.798	17358	13131	0	888
-9.268	-12.910	17292	11113	0	888
-2.993	-6.419	17218	9186	0	888
-2.164	-2.741	17145	7394	0	888
-4.111	-0.865	17071	5767	0	888
-8.186	-1.010	16979	4351	0	888
-9.376	0.541	16898	3192	0	888
-8.042	3.570	16825	2303	0	888
-3.462	6.347	16759	1957	0	888
-0.433	8.258	16733	2710	0	888
2.416	8.402	16722	4291	0	888
1.442	5.626	16714	5616	0	888
-2.524	1.587	16667	6324	0	888
-9.665	-3.823	16648	6791	0	888
-14.641	-10.206	16604	7183	0	888
-17.166	-12.874	16567	7574	0	888
-16.444	-14.533	16531	8131	0	888
-13.740	-12.766	16501	8839	0	888
-13.920	-13.884	16464	9427	0	888
-18.500	-15.831	16439	9878	0	888
-25.279	-19.978	16428	10767	0	888
-30.617	-23.765	16457	12619	0	888
-30.004	-22.899	16494	14999	0	888
-25.388	-18.824	16520	16730	0	888
-16.084	-13.127	16538	17573	0	888
-10.422	-8.619	16538	17950	0	888
-8.294	-6.960	16520	18070	0	888
-11.504	-8.475	16501	17950	0	888
-14.064	-7.789	16475	17649	0	888
-12.730	-6.094	16457	17227	0	888
-9.160	-0.288	16409	16730	0	888
-4.940	3.210	16377	16249	0	888
-7.068	2.344	16340	15797	0	888
-9.953	-0.541	16304	15421	0	888
-14.136	-5.481	16285	15074	0	888
-17.670	-9.412	16230	14743	0	888
-18.500	-13.704	16193	14442	0	888
-20.808	-15.831	16146	14171	0	888
-24.234	-17.382	16109	13945	0	888
-23.224	-17.021	16083	13779	0	888
-20.483	-13.956	16035	13734	0	888
-15.362	-12.153	16017	13975	0	888
-11.251	-12.766	16009	14427	0	888
-12.225	-13.920	15991	14878	0	888
-14.461	-17.454	15991	15481	0	888
-19.726	-19.618	16017	16414	0	888
-25.135	-20.664	16009	17423	0	888
-26.830	-21.096	16035	18130	0	888
-26.578	-17.490	16028	18522	0	888
-22.611	-13.379	16028	18733	0	888
-20.808	-9.520	16035	18853	0	888
-20.844	-10.206	16028	18899	0	888
-22.431	-12.153	16017	18868	0	888
-23.116	-13.812	16028	18793	0	888
-19.942	-11.360	16009	18673	0	888
-12.586	-5.914	15998	18477	0	888
-5.337	0.000	15991	18251	0	888
-1.479	2.777	15973	17995	0	888
-2.092	2.056	15973	17754	0	888
-3.246	-0.469	15954	17513	0	888
-6.275	-3.787	15936	17317	0	888
-8.042	-8.330	15936	17182	0	888
-13.235	-12.874	15918	17091	0	888
-18.175	-17.670	15925	16986	0	888
-27.191	-20.844	15907	16896	0	888
-29.318	-20.952	15907	16880	0	888
-29.282	-20.808	15907	17121	0	888
-23.981	-18.788	15925	17573	0	888
-19.798	-17.815	15954	17995	0	888
-17.923	-18.139	15962	18537	0	888
-17.454	-18.392	16009	19350	0	888
-19.906	-19.221	16035	20164	0	888
-22.034	-20.014	16072	20600	0	888
-22.683	-20.808	16101	20781	0	888
-24.775	-20.267	16127	20947	0	888
-22.070	-17.959	16157	21143	0	888
-19.113	-13.487	16182	21143	0	888
-15.002	-10.133	16193	20887	0	888
-14.100	-9.124	16212	20495	0	888
-12.982	-8.979	16219	20013	0	888
-14.136	-8.835	16219	19486	0	888
-9.592	-4.724	16212	18944	0	888
-4.111	4.400	16219	18387	0	888
4.868	12.766	16212	17799	0	888
9.124	16.913	16212	17212	0	888
8.583	15.362	16201	16670	0	888
2.344	9.124	16182	16204	0	888
-4.832	1.695	16175	15752	0	888
-7.537	-1.515	16175	15360	0	888
-4.183	-0.361	16164	14999	0	888
1.515	2.849	16146	14668	0	888
8.114	5.554	16127	14381	0	888
8.330	6.852	16127	14141	0	888
3.931	5.085	16120	13945	0	888
-0.649	3.642	16109	13900	0	888
-2.813	1.839	16127	14412	0	888
-2.741	1.334	16193	15963	0	888
-1.515	-0.288	16256	18010	0	888
0.108	-1.334	16322	19576	0	888
0.108	-1.262	16377	20510	0	888
-0.216	-0.180	16428	21188	0	888
0.865	1.262	16464	21474	0	888
3.173	3.101	16501	21338	0	888
2.777	5.013	16520	20932	0	888
3.606	5.085	16531	20374	0	888
-0.361	4.796	16531	19682	0	888
-3.714	2.488	16531	18868	0	888
-6.491	1.226	16512	17995	0	888
-4.977	-1.298	16512	17121	0	888
-3.570	-2.885	16483	16264	0	888
-2.344	-4.868	16464	15436	0	888
-2.633	-6.131	16439	14653	0	888
-6.131	-5.013	16420	13930	0	888
-6.599	-2.849	16391	13297	0	888
-5.085	0.938	16366	12785	0	888
-5.193	2.596	16348	12348	0	888
-2.813	0.938	16322	12017	0	888
-4.219	-0.325	16293	11791	0	888
-5.373	-3.101	16267	11610	0	888
-8.655	-4.111	16256	11535	0	888
-9.881	-4.183	16237	11761	0	888
-9.701	-3.606	16237	12243	0	888
-8.006	-2.560	16230	12755	0	888
-6.022	-2.344	16248	13372	0	888
-6.527	-4.940	16267	14306	0	888
-9.845	-7.068	16285	15255	0	888
-14.425	-8.799	16293	15888	0	888
-16.589	-9.340	16304	16264	0	888
-17.418	-8.583	16322	16459	0	888
-16.913	-9.124	16311	16534	0	888
-16.264	-9.124	16304	16504	0	888
-14.605	-9.773	16293	16414	0	888
-11.756	-9.340	16285	16294	0	888
-9.556	-7.934	16274	16113	0	888
-11.360	-7.681	16267	15933	0	888
-14.569	-10.061	16256	15752	0	888
-19.726	-12.117	16237	15571	0	888
-23.693	-14.461	16230	15391	0	888
-24.594	-15.615	16212	15210	0	888
-23.621	-15.435	16193	15044	0	888
-24.883	-14.569	16175	14939	0	888
-26.073	-14.677	16164	14878	0	888
-26.253	-13.379	16146	14863	0	888
-24.017	-12.333	16146	14833	0	888
-19.582	-9.376	16120	14909	0	888
-13.812	-5.698	16127	15210	0	888
-9.953	-4.796	16127	15722	0	888
-9.376	-3.318	16157	16249	0	888
-8.583	-2.921	16164	16911	0	888
-8.186	-1.190	16193	17859	0	888
-6.455	1.370	16237	18808	0	888
-4.652	2.741	16256	19411	0	888
-5.157	1.623	16285	19727	0	888
-8.835	-2.200	16329	20058	0	888
-14.389	-8.366	16348	20390	0	888
-18.716	-14.028	16366	20525	0	888
-20.772	-17.057	16377	20374	0	888
-17.454	-17.202	16384	20058	0	888
-13.199	-14.749	16384	19606	0	888
-8.547	-10.242	16384	19094	0	888
-9.232	-9.268	16384	18537	0	888
-10.458	-9.340	16377	17980	0	888
-13.595	-12.009	16366	17423	0	888
-14.894	-14.533	16359	16880	0	888
-11.179	-13.668	16340	16384	0	888
-8.799	-11.504	16329	15918	0	888
-7.465	-8.727	16311	15466	0	888
-9.412	-7.212	16293	15074	0	888
-14.136	-10.422	16274	14728	0	888
-17.743	-12.369	16274	14457	0	888
-18.175	-13.776	16256	14231	0	888
-16.300	-11.251	16237	14080	0	888
-12.874	-5.806	16230	13975	0	888
-11.071	-1.983	16219	13975	0	888
-10.061	0.685	16219	14216	0	888
-9.016	-0.541	16219	14653	0	888
-7.753	-0.938	16230	15014	0	888
-5.914	-1.551	16230	15315	0	888
-3.895	-1.334	16248	15767	0	888
-5.698	0.036	16267	16324	0	888
-7.970	-0.108	16274	16745	0	888
-12.405	-1.875	16285	16941	0	888
-14.930	-4.183	16285	17046	0	888
-13.559	-4.544	16285	17061	0	888
-9.953	-5.085	16285	17031	0	888
-5.337	-3.787	16293	16941	0	888
-6.635	-4.183	16293	16805	0	888
-10.710	-6.058	16285	16624	0	888
-17.202	-9.268	16274	16489	0	888
-20.880	-9.520	16274	16384	0	888
-20.447	-8.294	16274	16279	0	888
-17.021	-5.265	16267	16159	0	888
-14.245	-4.580	16256	16038	0	888
-13.487	-4.544	16248	15933	0	888
-16.336	-5.481	16248	15812	0	888
-17.923	-4.724	16237	15722	0	888
-18.067	-3.246	16230	15647	0	888
-15.579	-0.216	16230	15586	0	888
-11.035	0.865	16219	15601	0	888
-6.852	0.216	16230	15872	0	888
-4.111	-0.613	16237	16324	0	888
-4.977	-0.180	16256	16760	0	888
-6.275	-0.072	16285	17287	0	888
-7.717	1.082	16311	18085	0	888
-8.439	1.983	16348	18899	0	888
-7.465	2.633	16377	19380	0	888
-6.852	2.524	16391	19531	0	888
-6.022	0.180	16409	19486	0	888
-8.439	-3.606	16420	19275	0	888
-11.900	-8.763	16428	18944	0	888
-15.002	-11.107	16428	18567	0	888
-16.156	-10.638	16446	18447	1	892
-15.687	-7.176	16501	19124	0	892
-14.353	-4.904	16567	20405	0	892
-12.514	-3.678	16604	21233	0	892
-14.353	-5.229	16630	21293	0	892
-15.254	-6.744	16659	20977	0	892
-14.569	-9.124	16678	20480	0	892
-12.514	-10.855	16678	19847	0	892
-8.078	-11.179	16678	19094	0	892
-4.616	-9.196	16678	18251	0	892
-1.298	-3.787	16667	17347	0	892
1.226	1.803	16630	16444	0	892
0.938	4.147	16630	15647	0	892
-1.767	2.849	16622	15089	0	892
-6.816	-2.705	16611	14743	0	892
-13.740	-8.222	16593	14427	0	892
-15.759	-12.225	16593	14306	0	892
-15.110	-11.937	16604	14547	0	892
-11.323	-11.251	16622	14909	0	892
-8.114	-9.845	16630	15014	0	892
-9.520	-11.107	16611	14939	0	892
-13.704	-13.992	16630	14999	0	892
-21.096	-17.166	16630	15165	0	892
-26.037	-18.680	16641	15165	0	892
-28.309	-17.959	16622	14924	0	892
-26.073	-16.372	16604	14592	0	892
-21.637	-15.903	16586	14186	0	892
-18.644	-15.975	16567	13749	0	892
-18.031	-17.202	16549	13297	0	892
-21.060	-17.743	16512	12875	0	892
-22.178	-16.480	16483	12529	0	892
-22.647	-13.740	16457	12288	0	892
-19.437	-12.550	16420	12122	0	892
-16.552	-13.343	16409	12032	0	892
-15.831	-13.127	16384	11972	0	892
-16.769	-12.802	16359	11927	0	892
-19.185	-10.638	16340	11942	0	892
-20.555	-8.763	16304	12017	0	892
