neuroNicle FX2
D3F0R0
Bluetooth SPP
2023년 11월 1일 수요일
오후 1:17
time interval = 4msec
EEG1	EEG2	PPG	sdPPG	pulse	peak_interval(msec)
20.664	6.996	16329	22256	0	316
31.843	7.825	16329	21283	0	316
38.442	13.668	16324	17021	0	316
34.006	19.726	16319	11921	0	316
25.568	25.460	16314	8062	0	316
12.838	23.585	16312	5713	0	316
3.823	19.942	16311	5613	0	316
2.777	16.120	16313	7962	0	316
6.852	18.031	16316	11351	0	316
13.343	18.680	16319	13700	0	316
18.608	16.084	16322	14774	0	316
17.346	3.426	16324	16116	0	316
18.608	-4.868	16327	17424	0	316
20.050	0.072	16328	17524	0	316
25.748	18.897	16324	15881	0	316
29.931	39.308	16319	11418	0	316
30.292	44.825	16307	4338	0	316
26.470	30.400	16293	0	0	316
22.972	9.881	16278	0	0	316
22.503	-1.515	16268	0	0	316
21.132	5.986	16260	0	0	316
20.736	26.433	16257	0	0	316
18.716	38.514	16260	0	0	316
20.664	36.098	16263	0	0	316
25.820	18.320	16271	5344	0	316
28.525	5.662	16279	13868	0	316
26.289	6.239	16289	22457	0	316
22.647	17.598	16302	30880	0	316
17.021	30.545	16315	32767	0	316
19.221	31.302	16329	32767	0	316
26.001	23.404	16345	32767	0	316
27.624	7.862	16360	32767	0	316
23.332	-3.426	16376	32767	0	316
15.579	-9.268	16391	32767	0	316
8.402	-4.616	16407	32767	0	316
10.350	10.674	16423	32767	0	316
21.024	24.919	16437	32767	0	316
28.669	29.751	16446	32767	0	316
23.837	16.877	16455	32767	0	316
7.357	-2.993	16463	32767	0	316
-10.891	-14.569	16470	32767	0	316
-17.887	-7.645	16478	32767	1	516
-0.288	8.150	16485	32767	0	516
27.768	22.755	16491	32767	0	516
51.424	23.260	16497	32767	0	516
55.572	19.906	16502	32767	0	516
39.704	21.818	16506	32767	0	516
20.808	29.499	16504	30645	0	516
13.271	38.262	16503	22558	0	516
16.084	34.692	16502	15613	0	516
24.594	17.346	16500	10713	0	516
23.404	-0.902	16500	6955	0	516
14.858	-13.054	16500	3901	0	516
3.606	-7.789	16500	1687	0	516
-0.721	9.340	16501	411	0	516
4.904	25.460	16503	0	0	516
17.706	34.583	16504	0	0	516
29.499	29.715	16506	0	0	516
34.583	14.749	16509	0	0	516
28.777	-4.472	16511	344	0	516
16.697	-14.966	16513	915	0	516
2.885	-16.733	16514	1351	0	516
0.938	-6.780	16517	2056	0	516
10.097	9.196	16517	2962	0	516
26.073	27.840	16520	3633	0	516
35.810	42.265	16519	3364	0	516
33.177	49.008	16516	1183	0	516
20.844	39.452	16511	0	0	516
9.629	20.627	16507	0	0	516
11.540	3.642	16502	0	0	516
27.624	5.842	16499	0	0	516
46.989	27.335	16496	0	0	516
55.139	50.487	16493	0	0	516
46.376	51.857	16490	0	0	516
27.155	26.397	16488	0	0	516
12.117	-6.167	16486	0	0	516
6.167	-20.555	16485	0	0	516
9.629	-10.963	16483	0	0	516
13.271	9.304	16482	0	0	516
9.304	15.831	16480	1150	0	516
4.832	4.472	16480	2727	0	516
4.183	-11.287	16478	4338	0	516
11.792	-14.245	16476	5411	0	516
24.955	4.832	16471	4673	0	516
37.577	34.295	16466	2559	0	516
41.399	53.913	16460	1116	0	516
36.783	53.949	16458	1351	0	516
25.460	33.177	16455	2693	0	516
16.841	11.360	16452	4640	0	516
12.514	-0.685	16452	6653	0	516
15.290	0.072	16451	8633	0	516
14.605	3.967	16452	10881	0	516
8.366	-4.327	16452	13364	0	516
-5.590	-21.313	16452	15579	0	516
-19.149	-32.780	16453	17390	0	516
-19.834	-27.948	16452	18263	0	516
-7.898	-8.691	16448	16920	0	516
13.018	13.956	16441	13868	0	516
30.508	18.067	16438	11619	0	516
33.249	4.904	16434	10982	0	516
20.664	-17.526	16431	11116	0	516
0.216	-31.518	16429	11552	0	516
-12.153	-27.551	16426	12291	0	516
-12.441	-8.475	16426	13297	0	516
-3.065	10.674	16425	14472	0	516
7.429	18.788	16425	15680	0	516
15.074	14.821	16425	16853	0	516
19.365	9.809	16423	17524	0	516
20.555	5.986	16419	16451	0	516
22.647	6.491	16414	14203	0	516
19.257	4.832	16411	12727	0	516
9.124	0.902	16409	12794	0	516
-0.397	-4.255	16405	13029	0	516
-7.285	-5.842	16401	11888	0	516
-8.691	-2.128	16394	9136	0	516
-7.789	0.216	16386	5411	0	516
-7.645	0.577	16379	2324	0	516
-8.150	1.767	16375	1720	0	516
-3.498	3.390	16371	3431	0	516
7.176	0.721	16370	5277	0	516
25.207	-2.128	16364	5411	0	516
37.649	-3.246	16358	4438	0	516
39.488	-0.721	16355	4640	0	516
31.302	8.619	16354	6687	0	516
20.880	25.532	16353	9640	0	516
20.988	35.810	16355	12895	0	516
24.955	39.055	16356	16351	0	516
29.246	36.170	16357	19169	0	516
22.322	24.125	16355	19941	0	516
7.825	16.120	16354	19135	0	516
-1.587	12.514	16351	19169	0	516
6.708	12.045	16353	20813	0	516
28.345	13.704	16354	23229	0	516
49.333	18.103	16358	26249	0	516
54.922	19.726	16363	29672	0	516
38.226	21.493	16369	32767	0	516
12.766	16.697	16372	32767	0	516
-4.832	12.838	16373	32767	0	516
-3.678	8.150	16373	32767	0	516
7.357	9.376	16375	32222	0	516
14.100	17.346	16378	32390	0	516
13.127	24.558	16379	32659	0	516
3.570	30.112	16376	30511	0	516
-5.229	32.925	16370	24605	0	516
-7.681	32.780	16361	17290	0	516
-7.212	32.816	16352	10982	0	516
-6.203	33.069	16345	6082	0	516
3.967	34.006	16339	3331	0	516
23.116	34.547	16334	2257	0	516
43.238	35.918	16327	646	0	516
49.405	31.879	16321	0	0	516
32.780	27.227	16318	0	0	516
3.318	25.893	16315	0	0	516
-20.375	27.660	16309	0	0	516
-17.851	29.607	16299	0	0	516
3.065	27.948	16292	0	0	516
30.220	17.202	16285	0	0	516
43.996	9.268	16278	0	0	516
38.370	8.294	16273	0	0	516
22.972	15.435	16269	0	0	516
6.960	29.066	16266	0	0	516
5.373	38.154	16259	0	0	516
13.091	39.560	16256	0	0	516
22.106	30.508	16251	176	0	516
23.368	15.110	16247	1317	0	516
13.776	-3.967	16243	2928	0	516
-2.921	-11.323	16244	6854	0	516
-8.619	-4.688	16250	13230	0	516
-2.488	13.704	16255	20410	0	516
14.064	32.997	16263	27726	0	516
26.830	38.658	16274	32767	0	516
31.554	33.538	16285	32767	0	516
26.866	23.440	16297	32767	0	516
19.401	14.713	16309	32767	0	516
21.241	17.670	16314	32767	0	516
31.951	21.854	16316	32767	0	516
41.435	29.643	16316	32767	0	516
39.560	32.636	16316	32767	0	516
24.955	28.417	16313	32767	0	516
6.635	17.923	16306	32767	0	516
2.092	8.150	16297	25310	0	516
17.706	9.917	16286	15680	0	516
40.389	28.597	16274	7358	0	516
53.155	46.845	16264	1284	0	516
43.383	56.473	16257	0	0	516
21.926	43.887	16252	0	0	516
6.275	23.476	16251	0	0	516
3.642	5.770	16247	109	0	516
10.602	4.544	16241	0	0	516
15.146	11.107	16232	0	0	516
19.510	17.382	16220	0	0	516
22.647	14.136	16209	0	0	516
30.797	13.595	16203	0	0	516
38.658	17.346	16198	0	0	516
36.675	29.030	16193	0	0	516
30.545	40.317	16188	0	0	516
25.496	41.652	16187	0	0	516
25.171	32.384	16188	0	0	516
29.823	20.519	16187	4572	0	516
28.741	13.559	16185	7123	0	516
23.765	17.490	16185	8868	0	516
16.372	23.476	16185	11519	0	516
19.365	28.994	16185	14539	0	516
27.299	30.797	16183	16753	0	516
37.072	34.547	16181	17625	0	516
48.503	41.796	16182	18967	0	516
57.303	54.850	16185	22659	0	516
65.777	69.419	16188	26384	0	516
77.281	84.854	16189	27692	0	516
91.958	99.171	16192	28867	0	516
106.347	110.025	16199	32767	0	516
124.450	117.851	16209	32767	0	516
142.842	129.895	16221	32767	0	516
163.541	155.211	16230	32767	0	516
185.900	199.784	16242	32767	0	516
209.520	255.139	16256	32767	0	516
232.167	295.384	16272	32767	0	516
246.340	301.695	16289	32767	0	516
247.710	269.167	16308	32767	0	516
236.278	222.503	16326	32767	0	516
219.690	186.909	16341	32767	0	516
202.777	175.045	16354	32767	0	516
192.499	178.327	16370	32767	0	516
185.683	182.582	16384	32767	0	516
180.274	176.920	16401	32767	0	516
172.413	162.063	16417	32767	1	736
163.433	139.452	16432	32767	0	736
149.369	114.858	16448	32767	0	736
128.453	84.854	16463	32767	0	736
100.397	53.805	16476	32767	0	736
72.917	28.417	16491	32767	0	736
51.785	9.665	16503	32767	0	736
33.249	-5.950	16514	32767	0	736
16.012	-19.185	16526	32767	0	736
-3.750	-34.620	16535	32767	0	736
-24.125	-45.078	16545	32767	0	736
-28.850	-47.422	16553	32767	0	736
-17.454	-45.402	16560	32767	0	736
-3.318	-39.704	16566	31719	0	736
-2.308	-42.553	16572	26451	0	736
-23.765	-51.100	16575	20746	0	736
-51.857	-61.955	16573	13532	0	736
-65.561	-63.397	16572	5277	0	736
-55.175	-57.230	16569	0	0	736
-31.122	-46.412	16569	0	0	736
-13.740	-42.337	16567	0	0	736
-19.473	-47.458	16566	0	0	736
-40.137	-53.228	16566	0	0	736
-58.384	-50.343	16564	0	0	736
-56.798	-37.216	16559	0	0	736
-41.652	-22.431	16552	0	0	736
-21.818	-21.781	16547	0	0	736
-13.884	-40.029	16543	0	0	736
-22.250	-62.063	16538	0	0	736
-38.550	-71.980	16534	0	0	736
-49.838	-59.683	16532	0	0	736
-47.926	-35.269	16530	0	0	736
-38.442	-12.658	16528	0	0	736
-27.660	-6.311	16526	0	0	736
-20.988	-14.966	16525	0	0	736
-22.539	-33.249	16522	0	0	736
-22.539	-46.989	16521	0	0	736
-24.630	-54.129	16519	0	0	736
-29.282	-55.644	16519	0	0	736
-34.295	-50.667	16517	0	0	736
-37.108	-47.458	16517	0	0	736
-32.312	-41.976	16517	0	0	736
-25.676	-28.850	16518	1955	0	736
-18.680	-10.674	16517	4640	0	736
-16.913	5.662	16517	6888	0	736
-12.333	8.583	16519	9136	0	736
-6.383	-3.859	16518	11384	0	736
0.252	-24.594	16519	13163	0	736
-3.029	-34.475	16518	14438	0	736
-15.867	-29.679	16519	15713	0	736
-27.696	-13.018	16518	16887	0	736
-29.499	-0.108	16519	17726	0	736
-21.637	0.613	16516	17424	0	736
-12.982	-5.265	16511	14841	0	736
-6.131	-14.858	16503	10546	0	736
0.325	-15.074	16497	7123	0	736
8.583	-12.514	16490	4707	0	736
18.788	-8.294	16480	1082	0	736
21.565	-10.638	16466	0	0	736
7.285	-14.389	16452	0	0	736
-14.136	-17.959	16439	0	0	736
-38.803	-12.838	16429	0	0	736
-50.811	-5.590	16420	0	0	736
-49.657	2.885	16412	0	0	736
-29.931	6.996	16407	0	0	736
4.147	5.950	16404	0	0	736
39.308	8.799	16401	0	0	736
56.437	13.235	16393	0	0	736
48.972	19.041	16387	0	0	736
20.123	21.132	16384	0	0	736
-6.744	15.471	16382	2123	0	736
-9.701	3.390	16382	6854	0	736
9.052	-4.580	16381	11015	0	736
27.371	-3.570	16379	13062	0	736
26.686	2.560	16373	13163	0	736
6.022	4.219	16367	12358	0	736
-19.618	-2.164	16359	10814	0	736
-26.181	-11.937	16351	8666	0	736
-12.009	-15.218	16342	6519	0	736
11.468	-1.442	16333	4606	0	736
29.787	18.428	16324	3331	0	736
30.581	28.309	16319	4036	0	736
19.005	23.224	16318	7089	0	736
5.662	8.583	16317	11418	0	736
-4.291	-1.406	16319	16384	0	736
-3.282	1.262	16323	21753	0	736
9.304	9.196	16328	27357	0	736
25.207	16.769	16333	32767	0	736
39.235	16.480	16340	32767	0	736
42.265	12.045	16347	32767	0	736
29.066	9.989	16355	32767	0	736
10.602	9.088	16364	32767	0	736
-6.996	7.753	16372	32767	0	736
-12.550	9.484	16378	32767	0	736
-10.422	7.285	16382	32767	0	736
-9.052	3.137	16385	32767	0	736
-13.740	-1.875	16390	32767	0	736
-20.555	-6.744	16392	32767	0	736
-14.208	-5.662	16392	32767	0	736
2.452	1.190	16393	32767	0	736
22.683	10.350	16394	32767	0	736
27.876	13.018	16399	32767	0	736
15.651	8.943	16402	32767	0	736
-3.787	6.852	16407	32767	0	736
-13.920	7.140	16410	32767	0	736
-5.049	9.520	16411	32767	0	736
11.756	7.898	16410	29739	0	736
22.935	6.635	16410	25947	0	736
21.745	4.327	16410	23867	0	736
11.143	9.520	16412	22524	0	736
7.501	14.208	16414	21551	0	736
14.136	15.182	16414	20276	0	736
23.404	5.409	16410	16618	0	736
25.460	-5.301	16402	9640	0	736
15.903	-6.852	16394	2223	0	736
-1.298	4.039	16388	0	0	736
-7.212	21.637	16384	0	0	736
4.940	38.875	16383	0	0	736
21.673	43.779	16381	0	0	736
34.547	33.249	16382	0	0	736
30.617	14.389	16384	1821	0	736
16.913	-4.039	16384	4707	0	736
2.452	-8.186	16382	4975	0	736
-3.210	2.993	16375	1552	0	736
-0.108	16.625	16369	0	0	736
8.871	27.191	16366	0	0	736
16.552	20.411	16363	0	0	736
23.044	6.275	16356	0	0	736
26.650	-6.131	16347	0	0	736
26.181	-6.708	16339	0	0	736
25.640	7.537	16333	0	0	736
26.758	26.506	16331	0	0	736
21.204	42.373	16330	0	0	736
11.071	44.356	16330	244	0	736
0.613	33.826	16328	2559	0	736
-0.721	19.726	16325	3599	0	736
14.245	10.783	16323	5143	0	736
39.344	16.985	16319	5848	0	736
53.336	27.047	16311	3834	0	736
50.884	32.131	16305	1485	0	736
32.564	26.830	16302	2089	0	736
16.733	16.444	16299	4707	0	736
8.150	6.780	16296	6519	0	736
4.724	4.832	16292	6854	0	736
1.587	9.737	16287	6619	0	736
-1.911	12.297	16283	6921	0	736
4.400	10.927	16281	8431	0	736
21.926	6.311	16276	9405	0	736
37.360	1.406	16270	7995	0	736
42.770	-1.406	16265	6921	0	736
33.610	2.741	16265	9304	0	736
20.700	13.307	16266	13599	0	736
14.569	27.010	16264	16183	0	736
20.231	37.468	16258	15344	0	736
25.748	39.091	16252	12492	0	736
29.174	34.043	16245	10109	0	736
28.417	30.833	16239	8398	0	736
28.561	31.807	16230	6250	0	736
35.593	40.606	16223	4539	0	736
38.514	46.123	16216	3599	0	736
36.170	40.678	16206	1317	0	736
22.827	27.407	16195	0	0	736
7.681	9.376	16189	0	0	736
-1.190	-3.390	16185	0	0	736
-0.902	-8.619	16183	2794	0	736
4.400	-6.563	16182	6821	0	736
9.412	0.902	16186	12827	0	736
14.677	11.035	16193	20545	0	736
22.611	20.591	16196	26518	0	736
35.233	26.578	16198	28464	0	736
48.395	29.895	16195	27759	0	736
50.920	33.357	16196	28061	0	736
45.186	35.701	16199	30914	0	736
29.787	34.439	16203	32767	0	736
17.706	25.532	16203	32767	0	736
11.432	12.874	16207	32767	0	736
13.848	4.940	16214	32767	0	736
21.168	6.203	16225	32767	0	736
27.335	17.418	16237	32767	0	736
29.282	25.784	16253	32767	0	736
28.164	28.273	16271	32767	0	736
26.794	23.585	16288	32767	0	736
30.112	23.404	16303	32767	0	736
39.596	30.112	16319	32767	0	736
58.781	46.664	16336	32767	0	736
77.678	70.465	16352	32767	0	736
101.515	95.204	16370	32767	0	736
127.443	125.496	16386	32767	0	736
157.627	155.175	16402	32767	0	736
184.602	186.946	16418	32767	0	736
213.776	211.540	16434	32767	0	736
242.048	235.665	16449	32767	0	736
276.163	265.308	16464	32767	0	736
317.706	307.501	16477	32767	1	772
357.627	355.860	16490	32767	0	772
386.188	397.548	16503	32767	0	772
392.535	417.021	16511	32767	0	772
382.871	406.527	16517	32767	0	772
365.453	383.159	16519	32767	0	772
351.136	360.404	16525	32767	0	772
344.428	347.638	16528	30310	0	772
339.776	342.914	16531	25142	0	772
333.898	340.389	16535	19639	0	772
321.673	334.115	16534	12962	0	772
304.364	320.195	16532	5546	0	772
287.414	304.147	16531	0	0	772
277.605	288.460	16532	0	0	772
276.235	272.953	16531	0	0	772
277.065	259.250	16532	0	0	772
273.675	250.559	16534	0	0	772
258.997	242.481	16534	0	0	772
237.000	237.613	16537	0	0	772
218.392	230.472	16538	0	0	772
209.665	220.411	16542	0	0	772
209.665	204.219	16542	0	0	772
211.107	190.588	16542	0	0	772
208.583	188.532	16544	0	0	772
200.865	198.305	16544	0	0	772
191.706	211.540	16543	0	0	772
189.903	216.300	16537	0	0	772
187.342	204.940	16530	0	0	772
181.969	185.972	16525	0	0	772
172.521	167.833	16520	0	0	772
158.673	157.086	16517	0	0	772
150.090	148.359	16512	0	0	772
142.770	135.774	16510	0	0	772
131.446	120.519	16507	0	0	772
114.749	108.330	16505	0	0	772
99.135	106.635	16502	0	0	772
95.132	108.114	16494	0	0	772
107.104	106.816	16483	0	0	772
122.827	96.646	16472	0	0	772
127.299	80.923	16463	0	0	772
112.261	72.809	16456	0	0	772
91.453	78.146	16452	0	0	772
79.481	94.302	16447	0	0	772
80.454	108.583	16445	0	0	772
93.725	112.730	16445	0	0	772
103.390	104.183	16445	0	0	772
103.426	91.345	16445	3599	0	772
93.869	80.202	16446	7928	0	772
80.094	72.340	16448	12022	0	772
68.013	69.492	16449	15814	0	772
60.765	60.440	16450	19269	0	772
49.441	41.111	16277	0	0	316
42.409	33.141	16269	0	0	316
28.922	24.450	16265	0	0	316
15.651	20.014	16261	0	0	316
12.874	18.067	16259	0	0	316
11.360	19.257	16259	0	0	316
10.710	15.903	16257	1653	0	316
9.016	10.350	16256	5411	0	316
8.222	3.895	16257	8901	0	316
12.946	2.560	16255	12693	0	316
20.375	9.629	16252	14874	0	316
22.286	22.142	16248	15613	0	316
22.358	33.141	16249	17457	0	316
19.942	37.541	16248	20175	0	316
18.536	35.052	16244	21384	0	316
22.070	29.859	16241	20746	0	316
26.181	25.496	16235	19437	0	316
29.679	23.152	16230	17659	0	316
31.662	19.510	16223	15344	0	316
31.158	22.178	16217	13532	0	316
28.958	31.158	16216	14572	0	316
25.496	44.464	16220	19806	0	316
22.034	54.201	16228	27659	0	316
25.135	52.687	16237	32767	0	316
31.302	38.550	16247	32767	0	316
38.009	25.460	16260	32767	0	316
40.930	21.709	16272	32767	0	316
38.406	29.499	16286	32767	0	316
31.446	38.370	16302	32767	0	316
27.155	38.442	16319	32767	0	316
21.132	31.554	16333	32767	0	316
16.408	18.608	16342	32767	0	316
9.052	8.439	16354	32767	0	316
2.524	3.678	16366	32767	0	316
0.541	7.681	16375	32767	0	316
6.708	18.536	16381	32767	0	316
18.716	32.239	16386	32767	0	316
31.194	39.740	16391	32767	0	316
40.750	38.622	16397	32767	0	316
39.163	27.804	16406	32767	0	316
28.814	20.339	16417	32767	0	316
8.619	15.579	16425	32767	0	316
-4.832	19.726	16432	32767	0	316
-10.025	21.421	16436	32767	0	316
2.524	22.719	16438	32767	0	316
28.489	21.385	16440	31048	0	316
46.592	26.073	16446	28128	0	316
48.035	30.797	16454	27894	0	316
27.443	30.725	16464	29202	0	316
2.921	29.823	16476	31417	0	316
-10.206	24.883	16486	32767	0	316
-5.950	26.001	16494	32767	0	316
10.061	28.273	16502	30914	0	316
20.736	29.787	16509	28967	0	316
16.192	27.696	16511	25847	0	316
7.717	20.700	16511	19706	0	316
1.406	17.851	16507	12525	0	316
2.957	15.687	16502	5512	0	316
3.678	15.939	16494	0	0	316
3.210	12.802	16486	0	0	316
6.527	17.382	16475	0	1	316
20.700	26.830	16463	0	0	316
43.166	40.029	16448	0	0	316
56.473	47.710	16434	0	0	316
50.126	42.265	16421	0	0	316
26.866	30.220	16407	0	0	316
6.852	13.920	16397	0	0	316
5.914	11.035	16390	0	0	316
18.500	16.372	16383	0	0	316
32.816	29.066	16373	0	0	316
30.869	36.314	16363	0	0	316
20.952	39.596	16350	0	0	316
12.838	34.836	16341	0	0	316
17.202	27.551	16331	0	0	316
26.686	28.525	16323	0	0	316
37.721	33.249	16319	0	0	316
36.459	36.603	16317	0	0	316
24.198	30.076	16316	0	0	316
6.599	16.480	16313	0	0	316
-6.708	4.003	16313	0	0	316
-7.789	3.787	16315	3364	0	316
5.878	19.762	16317	11183	0	316
29.066	36.783	16323	18330	0	316
45.366	45.041	16332	26686	0	316
51.461	45.474	16342	32767	0	316
41.580	37.468	16355	32767	0	316
27.443	30.833	16365	32767	0	316
22.935	29.607	16374	32767	0	316
29.174	27.551	16380	32767	0	316
40.101	25.532	16381	32767	0	316
42.373	27.732	16381	32767	0	316
31.626	34.764	16378	32767	0	316
16.336	38.118	16377	32767	0	316
4.436	34.692	16378	32767	0	316
6.671	24.125	16378	32767	0	316
17.887	16.444	16377	32767	0	316
27.443	15.110	16378	32767	0	316
32.708	24.017	16382	32767	0	316
31.013	33.249	16382	32767	0	316
29.210	32.600	16380	31149	0	316
28.273	23.440	16376	26081	0	316
26.578	13.776	16375	22424	0	316
19.618	8.979	16378	22424	0	316
10.350	8.763	16384	25477	0	316
-0.577	9.376	16391	29974	0	316
-4.327	12.622	16403	32767	0	316
1.911	15.903	16413	32767	0	316
18.067	24.125	16421	32767	0	316
35.377	28.777	16424	32767	0	316
46.917	26.470	16430	32767	0	316
50.956	20.664	16436	32767	0	316
45.041	14.136	16446	32767	0	316
36.278	22.322	16455	32767	0	316
30.400	42.048	16461	32767	0	316
27.479	60.043	16466	32767	0	316
23.765	65.849	16468	32767	0	316
18.283	50.234	16471	32767	0	316
9.304	26.650	16476	32357	0	316
7.934	8.402	16483	32558	0	316
17.490	10.242	16492	32767	0	316
32.708	23.512	16501	32767	0	316
45.186	37.396	16512	32767	0	316
45.258	39.776	16521	32767	0	316
33.934	28.561	16526	32767	0	316
22.647	16.841	16525	31887	0	316
20.087	10.278	16520	23128	0	316
26.758	11.323	16514	14505	0	316
31.807	17.129	16507	7358	0	316
30.581	18.644	16503	1720	0	316
23.368	24.342	16499	0	0	316
15.146	30.761	16491	0	0	316
14.858	40.353	16480	0	0	316
25.171	48.900	16466	0	0	316
40.930	47.494	16455	0	0	316
52.614	39.812	16448	0	0	316
51.028	27.047	16445	0	0	316
41.471	18.428	16443	0	0	316
28.633	16.264	16438	0	0	316
22.863	23.981	16431	0	0	316
27.443	34.223	16426	0	0	316
36.567	41.796	16422	0	0	316
40.642	41.976	16415	0	0	316
37.505	34.006	16407	0	0	316
27.876	24.991	16401	0	0	316
17.202	20.339	16393	0	0	316
12.009	23.368	16384	0	0	316
13.271	30.508	16378	0	0	316
18.680	35.521	16375	0	0	316
24.811	31.843	16369	0	0	316
25.279	22.719	16363	0	0	316
19.293	11.504	16355	0	0	316
12.081	8.619	16347	0	0	316
6.167	14.028	16343	0	0	316
8.042	24.739	16339	0	0	316
17.851	35.052	16333	0	0	316
27.263	39.704	16327	76	0	316
33.466	38.406	16322	1116	0	316
32.203	37.000	16316	2693	0	316
28.958	35.846	16308	2895	0	316
30.364	34.908	16298	1082	0	316
34.151	32.889	16286	0	0	316
42.157	27.732	16273	0	0	316
45.871	23.260	16260	0	0	316
42.373	18.933	16246	0	0	316
36.747	16.048	16232	0	0	316
29.318	18.103	16220	0	0	316
21.529	20.014	16212	0	0	316
12.153	25.424	16211	0	0	316
7.717	28.020	16215	3834	0	316
8.006	29.318	16217	13129	0	316
14.749	27.624	16219	19370	0	316
25.388	26.650	16218	22625	0	316
32.708	26.650	16216	24169	0	316
33.393	27.299	16214	25477	0	316
28.381	26.506	16215	28128	0	316
21.060	21.385	16215	31451	0	316
19.437	13.127	16214	32767	0	316
20.339	10.674	16212	32767	0	316
25.316	13.127	16210	32457	0	316
29.823	24.378	16208	31618	0	316
28.525	36.459	16208	32088	0	316
27.371	43.635	16210	32767	0	316
24.198	44.392	16216	32767	0	316
23.873	36.531	16226	32767	0	316
20.339	25.171	16241	32767	0	316
15.903	15.903	16259	32767	0	316
7.681	9.953	16278	32767	0	316
6.599	10.278	16296	32767	0	316
11.900	19.149	16311	32767	0	316
20.303	26.722	16326	32767	0	316
28.777	30.689	16334	32767	0	316
27.299	28.777	16340	32767	0	316
16.661	21.096	16349	32767	0	316
7.789	13.343	16360	32767	0	316
6.888	12.622	16371	32767	1	536
14.533	17.851	16383	32767	0	536
29.823	23.224	16393	32767	0	536
39.596	27.624	16407	32767	0	536
38.298	25.207	16420	32767	0	536
28.814	23.152	16432	32767	0	536
15.831	19.618	16435	32767	0	536
9.268	24.702	16437	32767	0	536
6.347	26.217	16435	32767	0	536
9.052	24.089	16435	30914	0	536
11.287	13.595	16433	23699	0	536
13.271	-1.551	16433	18095	0	536
11.684	-13.199	16438	15579	0	536
13.343	-10.891	16445	16250	0	536
12.477	1.659	16453	17759	0	536
12.189	26.325	16458	17256	0	536
11.828	42.373	16456	13029	0	536
10.169	47.494	16453	5713	0	536
9.448	34.944	16443	0	0	536
11.468	21.493	16434	0	0	536
15.651	10.855	16425	0	0	536
19.221	12.874	16416	0	0	536
20.519	17.526	16405	0	0	536
17.202	20.555	16399	0	0	536
11.360	18.500	16395	0	0	536
4.724	16.120	16390	0	0	536
-0.938	12.405	16383	0	0	536
-5.121	11.287	16375	0	0	536
-8.114	6.275	16367	0	0	536
-7.285	2.128	16361	0	0	536
-6.239	5.301	16351	0	0	536
0.072	15.579	16340	0	0	536
7.104	28.056	16330	0	0	536
14.353	34.151	16325	0	0	536
16.516	31.879	16322	0	0	536
16.697	24.666	16319	0	0	536
11.287	22.755	16316	0	0	536
4.111	24.450	16309	0	0	536
-0.974	23.152	16301	0	0	536
-8.583	15.831	16292	0	0	536
-12.838	4.147	16282	0	0	536
-13.595	-1.190	16271	0	0	536
-11.937	2.344	16261	0	0	536
-6.419	14.930	16251	0	0	536
2.380	24.702	16245	0	0	536
12.117	31.879	16239	0	0	536
18.572	36.603	16234	0	0	536
23.765	38.262	16227	0	0	536
19.726	37.180	16222	0	0	536
10.350	31.554	16220	2794	0	536
4.111	25.388	16220	8801	0	536
7.212	20.014	16223	15780	0	536
15.146	21.168	16228	23095	0	536
20.159	24.125	16237	31249	0	536
19.257	21.601	16248	32767	0	536
8.150	17.743	16261	32767	0	536
1.479	13.523	16274	32767	0	536
0.829	14.894	16285	32767	0	536
5.337	17.670	16294	32767	0	536
4.400	19.870	16299	32767	0	536
-4.075	14.461	16303	32767	0	536
-13.271	8.186	16311	32767	0	536
-13.992	6.599	16323	32767	0	536
0.577	14.281	16338	32767	0	536
16.769	27.047	16356	32767	0	536
26.001	32.059	16376	32767	0	536
19.401	28.741	16389	32767	0	536
8.078	23.224	16402	32767	0	536
0.216	23.765	16412	32767	0	536
5.481	31.049	16422	32767	0	536
16.877	39.885	16431	32767	0	536
24.486	38.514	16438	32767	0	536
20.014	25.820	16446	32767	0	536
8.979	10.855	16454	32767	0	536
-3.823	-1.262	16461	32767	0	536
-12.153	-2.849	16469	32767	0	536
-12.189	7.393	16477	32767	0	536
-9.340	20.988	16480	32767	0	536
-1.479	30.653	16480	32767	0	536
8.222	26.830	16476	26048	1	316
18.320	12.910	16469	14774	0	316
23.476	-3.318	16458	3129	0	316
22.719	-5.373	16446	0	0	316
16.372	11.035	16440	0	0	316
11.792	33.105	16437	0	0	316
10.855	47.962	16436	0	0	316
10.097	47.061	16437	0	0	316
7.321	32.925	16438	0	0	316
-2.560	19.473	16442	0	0	316
-11.612	13.163	16445	0	0	316
-12.117	18.356	16448	0	0	316
-2.308	24.739	16449	0	0	316
9.845	25.424	16445	0	0	316
16.264	20.447	16438	0	0	316
14.172	11.143	16431	0	0	316
1.875	8.258	16427	0	0	316
-7.645	17.166	16424	0	0	316
-9.268	26.902	16421	0	0	316
-1.010	33.033	16414	0	0	316
9.809	28.814	16404	0	0	316
17.202	21.601	16394	0	0	316
15.074	17.021	16387	0	0	316
8.078	24.558	16379	0	0	316
-2.452	32.708	16369	0	0	316
-3.787	37.757	16361	0	0	316
-0.505	34.439	16351	0	0	316
7.248	28.850	16347	0	0	316
14.858	24.919	16343	0	0	316
19.401	25.676	16342	0	0	316
16.192	27.587	16340	0	0	316
10.278	25.352	16342	0	0	316
2.705	18.283	16345	5780	0	316
0.649	14.894	16352	13767	0	316
5.590	12.586	16360	22055	0	316
12.838	18.644	16367	28900	0	316
15.651	20.411	16371	32767	0	316
12.045	20.519	16375	32767	0	316
2.308	12.658	16375	32767	0	316
-2.416	10.350	16378	32767	0	316
0.974	16.264	16382	32767	0	316
9.016	28.273	16384	32767	0	316
18.680	41.147	16385	32767	0	316
21.277	44.176	16387	32767	0	316
21.457	39.416	16387	32767	0	316
18.500	30.256	16385	32767	0	316
18.247	27.299	16387	31887	0	316
17.418	26.650	16390	32390	0	316
17.706	26.902	16393	32767	0	316
14.389	23.801	16396	32767	0	316
13.199	15.867	16399	32767	0	316
10.530	5.193	16403	32767	0	316
9.412	-3.065	16412	32767	0	316
10.278	-4.580	16421	32767	0	316
10.999	1.839	16426	32767	0	316
10.422	16.264	16431	32767	0	316
13.920	33.393	16435	32767	0	316
17.129	44.284	16441	32767	0	316
22.358	46.520	16447	32767	0	316
30.905	41.039	16452	32767	0	316
37.180	39.199	16455	32767	0	316
35.305	42.517	16460	32767	0	316
30.256	50.523	16467	32767	0	316
24.702	51.569	16476	32767	0	316
25.784	42.770	16486	32767	0	316
31.158	31.410	16492	32767	0	316
36.531	19.293	16492	32767	0	316
31.554	18.788	16488	28665	0	316
19.401	20.519	16483	20175	0	316
10.674	22.286	16476	12727	0	316
11.468	20.267	16471	6854	0	316
20.195	15.867	16465	1989	0	316
27.119	16.084	16457	0	0	316
21.745	12.405	16448	0	0	316
7.321	5.698	16433	0	0	316
-6.924	3.498	16421	0	0	316
-12.081	11.432	16410	0	0	316
-2.524	34.656	16406	0	0	316
13.631	62.315	16404	0	0	316
27.768	76.488	16408	0	1	316
33.682	63.433	16410	0	0	316
30.112	31.554	16413	0	0	316
23.873	1.731	16410	0	0	316
17.166	-11.576	16405	0	0	316
17.454	-8.979	16399	0	0	316
16.408	-0.108	16395	0	0	316
13.415	3.678	16397	0	0	316
5.517	6.239	16400	4371	0	316
-0.288	14.677	16401	9103	0	316
-0.938	27.191	16399	10780	0	316
5.626	34.547	16400	11452	0	316
12.946	30.617	16399	13129	0	316
13.776	15.975	16401	15445	0	316
5.301	4.436	16400	16887	0	316
-5.121	1.154	16394	15814	0	316
-8.691	7.140	16387	12089	0	316
-3.895	10.855	16378	7056	0	316
0.793	11.035	16367	1452	0	316
1.082	6.419	16355	0	0	316
-1.983	2.056	16348	0	0	316
-1.767	3.246	16344	0	0	316
3.678	6.311	16340	0	0	316
10.638	10.350	16333	0	0	316
13.379	17.021	16324	0	0	316
9.701	21.962	16316	0	0	316
4.472	27.191	16309	0	0	316
0.865	27.804	16304	0	0	316
0.757	23.332	16296	0	0	316
-2.380	18.103	16288	0	0	316
-7.212	8.402	16281	0	0	316
-9.052	6.022	16271	0	0	316
-3.029	8.655	16268	0	0	316
7.753	17.887	16272	3297	0	316
22.178	29.751	16280	13666	0	316
29.715	35.413	16290	24840	0	316
26.037	33.429	16301	32767	0	316
16.156	27.696	16312	32767	0	316
8.619	22.827	16320	32767	0	316
8.979	22.467	16328	32767	0	316
13.992	23.044	16336	32767	0	316
16.228	17.887	16340	32767	0	316
11.360	9.953	16344	32767	0	316
0.974	5.337	16351	32767	0	316
-5.914	11.143	16358	32767	0	316
-3.029	21.962	16364	32767	0	316
6.599	31.194	16366	32767	0	316
15.543	28.237	16366	32767	0	316
20.880	20.014	16367	32767	0	316
14.894	13.740	16367	32767	0	316
8.366	18.860	16364	32767	0	316
4.472	27.010	16359	28128	0	316
9.448	31.843	16350	20444	0	316
19.762	27.732	16341	12794	0	316
30.328	20.447	16330	5277	0	316
33.466	17.779	16319	0	0	316
29.210	26.253	16309	0	0	316
21.962	37.973	16303	0	0	316
15.903	42.409	16304	0	0	316
12.117	35.774	16311	0	0	316
7.609	21.060	16319	8029	0	316
2.488	6.708	16326	14942	0	316
-5.121	-2.019	16333	19135	0	316
-10.422	-6.780	16338	22491	0	316
-12.117	-3.498	16346	26149	0	316
-7.681	4.544	16352	29504	0	316
6.058	18.500	16357	31786	0	316
18.536	36.314	16359	31786	0	316
30.797	45.655	16359	29035	0	316
33.249	42.697	16357	25175	0	316
29.823	32.600	16356	22524	0	316
21.168	19.510	16357	21585	0	316
15.507	18.175	16358	21518	0	316
14.533	19.257	16359	21115	0	316
13.523	17.670	16357	18967	0	316
9.520	7.753	16351	14841	0	316
2.741	-3.823	16345	9807	0	316
-5.301	-8.366	16337	4572	0	316
-7.825	4.796	16328	0	0	316
1.262	29.282	16319	0	1	316
15.579	49.910	16313	0	0	316
27.155	55.283	16309	0	0	316
27.587	44.428	16302	0	0	316
17.021	24.955	16296	0	0	316
5.806	8.402	16288	0	0	316
-0.216	2.019	16280	0	0	316
-1.587	0.757	16272	0	0	316
-3.787	4.436	16265	0	0	316
-7.212	6.347	16256	0	0	316
-8.835	9.556	16249	0	0	316
1.479	13.054	16240	0	0	316
18.860	19.654	16235	0	0	316
31.843	24.053	16234	0	0	316
29.607	25.424	16234	0	0	316
12.153	22.611	16230	881	0	316
-2.452	13.956	16231	4203	0	316
-4.003	8.006	16234	8935	0	316
8.619	14.569	16236	14874	0	316
22.755	25.965	16237	19471	0	316
29.463	37.216	16240	22558	0	316
22.935	34.187	16246	27290	0	316
15.110	20.195	16260	32767	0	316
10.314	4.255	16273	32767	0	316
15.543	3.101	16288	32767	0	316
19.005	20.411	16303	32767	0	316
20.627	39.127	16317	32767	0	316
17.454	49.549	16327	32767	0	316
16.084	43.022	16335	32767	0	316
14.064	26.866	16345	32767	0	316
15.074	12.369	16353	32767	0	316
10.963	3.714	16358	32767	0	316
1.659	-0.902	16360	32767	0	316
-6.347	-4.436	16362	32767	0	316
-7.140	-6.058	16367	32767	0	316
2.849	-1.911	16375	32767	0	316
17.057	13.415	16382	32767	0	316
29.102	34.764	16390	32767	0	316
29.535	51.821	16399	32767	0	316
20.411	54.382	16408	32767	0	316
13.091	36.351	16421	32767	0	316
8.150	12.117	16436	32767	0	316
12.982	-6.311	16448	32767	0	316
18.536	-7.032	16459	32767	0	316
21.385	7.357	16467	32767	0	316
17.743	21.024	16472	32767	0	316
13.704	27.443	16477	32767	0	316
9.196	25.099	16479	32767	0	316
7.970	20.195	16476	28430	0	316
10.206	23.260	16471	19169	0	316
15.867	28.597	16465	9774	0	316
20.050	28.850	16462	3029	0	316
24.053	19.798	16463	680	0	316
24.378	10.855	16466	1418	0	316
17.779	4.796	16468	2089	0	316
14.533	6.563	16472	2559	0	316
12.009	13.956	16479	4908	0	316
14.100	15.146	16489	9707	0	316
16.949	11.251	16500	15109	0	316
14.785	9.232	16508	19001	0	316
10.999	12.405	16516	20612	0	316
7.501	17.562	16519	20108	0	316
5.914	23.585	16521	17625	0	316
11.179	23.332	16521	14539	0	316
19.149	18.103	16521	11921	0	316
23.404	17.057	16521	9505	0	316
23.945	17.526	16517	6619	0	316
20.231	19.293	16512	1888	0	316
14.858	17.310	16503	0	0	316
14.245	17.166	16491	0	0	316
15.795	19.185	16482	0	0	316
17.346	30.581	16472	0	0	316
17.562	43.779	16461	0	0	316
15.543	51.028	16452	0	0	316
18.969	44.428	16441	0	0	316
23.008	29.859	16431	0	0	316
23.801	12.550	16424	0	0	316
17.743	4.544	16422	0	0	316
1.767	3.642	16422	0	0	316
-8.078	9.340	16423	0	1	316
-4.580	15.002	16424	0	0	316
9.592	19.870	16431	0	0	316
22.214	17.959	16437	7995	0	316
27.948	13.812	16441	14572	0	316
23.368	8.402	16443	17524	0	316
18.860	8.943	16446	19706	0	316
22.395	17.129	16452	24169	0	316
26.542	27.479	16459	30008	0	316
29.571	35.016	16466	32767	0	316
26.037	35.088	16472	32767	0	316
25.532	29.751	16482	32767	0	316
27.443	27.407	16494	32767	0	316
34.656	24.125	16507	32767	0	316
32.889	22.106	16518	32767	0	316
24.450	19.690	16527	32767	0	316
16.769	16.012	16534	32767	0	316
16.012	20.303	16538	32767	0	316
32.492	29.535	16542	32767	0	316
52.614	42.229	16547	32767	0	316
65.272	53.624	16553	32767	0	316
60.873	54.814	16561	32767	0	316
46.484	50.162	16568	32767	0	316
33.393	38.658	16569	32767	0	316
33.754	26.037	16565	32767	0	316
43.491	18.175	16559	26283	0	316
52.506	13.127	16552	17155	0	316
52.326	17.562	16547	11116	0	316
43.383	24.847	16540	5546	0	316
33.321	34.331	16529	0	0	316
30.256	40.317	16521	0	0	316
33.213	39.019	16515	0	0	316
42.373	32.059	16505	0	0	316
53.011	25.893	16497	0	0	316
66.066	25.424	16486	0	0	316
73.350	23.765	16475	0	0	316
71.655	24.486	16463	0	0	316
61.233	22.935	16453	0	0	316
46.628	20.159	16449	0	0	316
37.613	27.768	16445	0	0	316
35.629	40.245	16438	0	0	316
42.084	52.651	16433	0	0	316
46.592	61.991	16426	0	0	316
49.008	58.565	16419	0	0	316
46.881	49.297	16408	0	0	316
42.409	35.016	16394	0	0	316
35.160	23.621	16380	0	0	316
33.213	18.680	16364	0	0	316
36.928	17.598	16347	0	0	316
44.897	22.034	16336	0	0	316
57.194	31.626	16330	0	0	316
59.791	38.190	16328	0	0	316
56.401	45.330	16324	0	0	316
45.943	42.084	16318	0	0	316
34.439	29.679	16313	0	0	316
31.626	13.451	16308	0	0	316
40.173	3.065	16303	1921	0	316
52.687	9.701	16297	4438	0	316
64.695	32.997	16289	5076	0	316
64.443	56.906	16280	4908	0	316
56.401	66.102	16271	4807	0	316
47.494	55.427	16269	7022	0	316
41.760	35.377	16271	13599	0	316
43.924	19.329	16278	23531	0	316
48.143	20.664	16289	32767	0	316
46.845	28.922	16302	32767	0	316
39.199	31.662	16313	32767	0	316
29.427	23.657	16320	32767	0	316
22.827	16.697	16323	32767	0	316
25.279	16.480	16322	32767	0	316
31.518	27.624	16321	32767	0	316
37.937	38.009	16323	32767	0	316
39.055	35.088	16327	32767	0	316
33.682	20.519	16331	32767	0	316
27.732	3.570	16336	32767	0	316
25.352	-2.777	16340	32767	0	316
25.604	3.714	16345	32767	0	316
25.460	18.067	16349	32767	0	316
24.378	25.676	16347	32767	0	316
24.378	28.777	16344	32767	0	316
26.001	28.381	16339	32767	0	316
26.902	25.893	16336	28397	0	316
26.001	26.073	16333	24773	0	316
24.558	22.178	16328	20511	0	316
23.080	12.586	16324	15747	0	316
19.942	-1.226	16319	12492	0	316
21.096	-8.547	16319	11452	0	316
18.572	-4.436	16321	12593	0	316
17.743	10.999	16329	16920	0	316
17.346	26.938	16337	23430	0	316
17.815	34.511	16347	29035	0	316
22.142	34.656	16356	32767	0	316
27.660	34.908	16361	32767	0	316
34.223	39.957	16367	32767	0	316
43.094	48.503	16372	32767	0	316
46.556	50.559	16381	32767	0	316
43.671	41.363	16387	32767	0	316
34.583	26.145	16393	32767	0	316
23.729	13.415	16396	32767	0	316
14.172	12.802	16396	32767	0	316
9.881	15.723	16393	27692	0	316
11.576	20.375	16388	20813	0	316
18.320	15.723	16384	15512	0	316
27.804	8.763	16382	12123	0	316
32.095	-0.902	16381	9874	0	316
29.859	-1.298	16378	7660	0	316
24.162	7.970	16374	4740	0	316
21.385	19.870	16371	2291	0	316
28.669	27.551	16368	948	0	316
42.157	26.686	16364	0	0	316
51.244	22.431	16361	0	0	316
48.431	23.404	16358	0	0	316
36.531	27.804	16354	0	0	316
22.467	33.285	16346	0	0	316
15.507	31.951	16337	0	0	316
19.221	22.467	16327	0	0	316
23.188	15.146	16316	0	0	316
24.847	13.379	16305	0	0	316
23.296	15.543	16294	0	0	316
19.077	19.113	16282	0	0	316
22.791	17.779	16269	0	0	316
28.381	17.093	16261	0	0	316
33.790	15.867	16254	0	0	316
31.374	16.408	16255	0	0	316
20.159	11.612	16254	0	0	316
9.917	4.580	16254	0	0	316
8.294	-3.895	16250	0	0	316
15.903	-9.989	16247	109	0	316
31.843	-4.364	16242	1586	0	316
45.510	11.287	16236	2525	0	316
51.280	33.574	16231	3129	0	316
48.756	50.343	16225	3599	0	316
40.966	52.254	16220	4640	0	316
30.004	41.219	16220	7693	0	316
21.565	24.053	16219	12190	0	316
18.175	11.432	16218	15747	0	316
22.899	15.074	16216	17659	0	316
27.155	22.863	16216	19706	0	316
30.004	32.384	16220	23632	0	316
28.345	33.213	16224	28565	0	316
21.493	29.679	16226	31988	0	316
12.730	20.195	16227	32767	0	316
11.468	15.651	16228	32767	0	316
15.398	12.297	16228	32767	0	316
27.732	12.441	16227	32767	0	316
35.846	13.920	16226	32424	0	316
36.603	14.821	16227	32055	0	316
25.676	20.591	16230	32767	0	316
12.369	22.719	16235	32767	0	316
4.616	21.854	16237	32767	0	316
7.465	16.877	16239	32767	0	316
14.966	5.806	16242	32767	0	316
18.392	-2.777	16248	32767	0	316
19.293	-5.193	16260	32767	0	316
14.713	-1.298	16269	32767	0	316
11.900	4.364	16279	32767	0	316
7.429	9.665	16289	32767	0	316
2.777	13.595	16299	32767	0	316
1.803	12.838	16305	32767	0	316
5.590	9.232	16309	32767	0	316
13.884	5.013	16314	32767	0	316
22.358	7.321	16321	32767	0	316
27.660	16.589	16335	32767	1	648
33.429	32.312	16349	32767	0	648
39.163	47.782	16363	32767	0	648
47.782	53.047	16373	32767	0	648
50.992	43.599	16385	32767	0	648
43.491	29.246	16400	32767	0	648
32.636	16.949	16412	32767	0	648
18.969	10.783	16421	32767	0	648
12.405	10.386	16426	32767	0	648
10.097	11.035	16435	32767	0	648
10.927	8.691	16446	32767	0	648
8.763	3.318	16461	32767	0	648
4.291	0.829	16476	32767	0	648
2.813	7.212	16488	32767	0	648
4.724	19.473	16501	32767	0	648
16.228	35.557	16513	32767	0	648
33.285	43.022	16525	32767	0	648
49.838	36.387	16532	32767	0	648
54.165	18.933	16539	32767	0	648
43.310	-1.154	16545	32767	0	648
22.972	-8.366	16546	29773	0	648
6.491	-3.859	16547	22021	0	648
1.262	6.239	16546	14740	0	648
9.448	11.576	16548	10713	0	648
19.329	16.625	16552	9170	0	648
24.883	26.001	16553	6552	0	648
21.168	45.186	16549	680	0	648
19.077	64.226	16542	0	0	648
23.224	68.554	16537	0	0	648
30.256	55.283	16531	0	0	648
33.538	34.475	16525	0	0	648
26.433	16.372	16519	0	0	648
13.668	15.579	16510	0	0	648
4.364	18.536	16503	0	0	648
9.448	19.582	16495	0	0	648
19.618	11.035	16485	0	0	648
23.657	2.488	16476	0	0	648
16.516	-2.813	16469	0	0	648
2.921	1.767	16459	0	0	648
0.108	15.146	16450	0	0	648
9.773	28.741	16443	0	0	648
26.542	37.324	16439	0	0	648
35.341	38.911	16439	0	0	648
32.095	34.980	16443	0	0	648
21.926	27.948	16450	0	0	648
15.795	22.683	16459	2995	0	648
14.749	22.575	16468	13062	0	648
22.034	22.214	16474	20175	0	648
25.893	24.342	16477	23229	0	648
23.873	23.765	16479	24370	0	648
21.421	19.437	16480	25343	0	648
15.867	17.815	16483	26585	0	648
15.362	17.743	16486	28632	0	648
17.093	23.512	16486	29873	0	648
22.395	31.374	16486	28598	0	648
26.253	34.403	16483	26451	0	648
27.479	32.239	16482	24840	0	648
25.856	20.591	16481	23934	0	648
18.247	7.321	16485	25041	0	648
6.852	-2.416	16490	28498	0	648
-0.577	3.426	16497	32323	0	648
3.823	22.395	16499	32767	0	648
20.050	49.405	16497	31283	0	648
38.550	64.190	16492	25645	0	648
42.914	60.260	16483	18196	0	648
28.128	38.875	16472	10344	0	648
4.580	17.526	16462	3935	0	648
-8.691	9.701	16452	0	0	648
-1.226	15.290	16439	0	0	648
19.582	22.322	16423	0	0	648
37.649	21.168	16407	0	0	648
40.678	11.504	16389	0	0	648
29.354	4.940	16371	0	0	648
15.182	9.160	16354	0	0	648
7.898	24.270	16343	0	0	648
8.655	39.127	16334	0	0	648
12.838	45.727	16327	0	0	648
15.543	38.911	16320	0	0	648
12.838	24.630	16316	0	0	648
12.802	12.369	16319	0	1	316
15.326	7.068	16324	0	0	316
19.077	8.619	16330	9203	0	316
23.512	9.701	16337	18363	0	316
25.099	11.828	16347	28028	0	316
20.988	15.759	16356	32767	0	316
20.700	24.594	16361	32767	0	316
22.467	29.715	16366	32767	0	316
25.568	29.102	16371	32767	0	316
28.345	19.221	16378	32767	0	316
27.335	5.662	16383	32767	0	316
24.486	3.065	16388	32767	0	316
18.320	10.097	16399	32767	0	316
14.353	19.870	16410	32767	0	316
9.809	25.388	16425	32767	0	316
8.619	20.880	16438	32767	0	316
15.579	17.851	16449	32767	0	316
25.820	18.500	16459	32767	0	316
36.639	24.234	16467	32767	0	316
36.928	25.207	16473	32767	0	316
25.207	16.012	16477	32767	0	316
11.287	4.724	16480	32767	0	316
3.931	-0.325	16480	32767	0	316
9.016	9.592	16477	32767	0	316
17.274	26.722	16476	32767	0	316
23.296	43.996	16476	29202	0	316
21.709	47.313	16474	25276	0	316
18.139	44.176	16475	21384	0	316
15.975	34.764	16476	18900	0	316
21.493	25.135	16475	16518	0	316
26.938	13.271	16470	11452	0	316
32.780	5.373	16463	4371	0	316
36.928	3.462	16456	0	0	316
35.016	11.360	16449	0	0	316
29.463	23.404	16440	0	0	316
23.837	34.980	16432	0	0	316
23.440	38.731	16423	0	0	316
26.109	34.620	16413	0	0	316
32.384	28.994	16405	0	0	316
33.790	22.972	16398	0	0	316
28.633	20.952	16393	0	0	316
19.870	20.159	16391	0	0	316
8.691	23.440	16388	0	0	316
6.780	25.027	16383	0	0	316
13.163	25.784	16375	0	0	316
21.132	20.952	16371	0	0	316
29.787	14.605	16370	0	0	316
27.768	7.140	16367	0	0	316
20.880	6.419	16364	0	0	316
13.163	11.360	16361	0	0	316
12.622	23.440	16357	0	0	316
22.719	35.774	16353	0	0	316
33.862	43.310	16349	915	0	316
46.556	47.674	16346	3163	0	316
48.900	43.419	16345	6015	0	316
41.363	36.459	16344	9036	0	316
26.325	26.830	16347	12895	0	316
11.792	17.959	16350	18162	0	316
6.058	9.809	16352	22927	0	316
8.871	8.943	16353	24571	0	316
19.798	12.514	16348	23296	0	316
26.001	17.021	16344	20511	0	316
25.604	23.476	16337	17524	0	316
19.437	24.414	16334	16116	0	316
7.898	21.962	16329	15814	0	316
2.272	17.454	16324	14170	0	316
1.262	11.287	16316	10747	0	316
4.940	4.580	16305	6720	0	316
7.717	2.019	16295	2660	0	316
7.501	-1.226	16284	0	0	316
5.698	-0.505	16272	0	0	316
5.517	3.678	16261	0	0	316
12.261	11.864	16247	0	0	316
22.142	19.618	16237	0	0	316
28.561	28.741	16224	0	0	316
26.938	34.295	16212	0	0	316
19.690	36.783	16201	0	0	316
12.766	36.819	16190	0	0	316
7.717	37.036	16183	0	0	316
11.432	35.088	16181	0	1	316
21.745	31.085	16185	0	0	316
31.771	26.650	16190	9505	0	316
40.426	20.591	16199	19672	0	316
39.740	19.618	16207	28900	0	316
32.059	16.841	16214	32767	0	316
17.815	15.687	16218	32767	0	316
6.275	9.052	16221	32767	0	316
1.262	1.190	16224	32767	0	316
0.325	-8.078	16230	32767	0	316
3.859	-10.674	16236	32767	0	316
6.599	-6.419	16240	32767	0	316
12.910	5.049	16242	32767	0	316
20.627	18.716	16243	32767	0	316
25.929	32.420	16243	32767	0	316
25.820	40.714	16240	32767	0	316
17.743	44.068	16239	32767	0	316
6.022	42.265	16236	32767	0	316
3.318	37.973	16232	29806	0	316
10.819	33.321	16229	26081	0	316
23.440	25.532	16225	22524	0	316
30.581	18.103	16220	19303	0	316
26.361	9.881	16218	17088	0	316
17.490	7.032	16220	17961	0	316
8.150	5.626	16229	22793	0	316
8.078	5.698	16236	28531	0	316
4.940	5.049	16242	31786	0	316
1.551	5.049	16247	32767	0	316
-2.993	10.963	16257	32767	0	316
-0.252	24.198	16266	32767	0	316
11.143	38.767	16277	32767	0	316
27.876	44.825	16290	32767	0	316
38.190	41.111	16305	32767	0	316
36.819	32.925	16324	32767	0	316
25.820	27.119	16346	32767	0	316
11.900	24.702	16368	32767	0	316
-1.154	22.250	16387	32767	0	316
-7.212	19.401	16401	32767	0	316
-3.282	16.985	16414	32767	0	316
13.199	16.516	16424	32767	0	316
30.797	18.211	16434	32767	0	316
42.445	17.057	16438	32767	0	316
36.964	5.445	16440	32767	0	316
19.437	-5.554	16439	32767	0	316
1.226	-15.435	16439	32767	0	316
-6.924	-14.028	16441	28330	0	316
-4.327	-9.196	16441	23162	0	316
-1.262	2.669	16442	18162	0	316
-4.508	11.143	16439	11921	0	316
-10.386	20.519	16435	4774	0	316
-14.425	24.450	16435	0	0	316
-8.907	26.866	16437	0	0	316
5.517	25.243	16436	0	0	316
20.483	19.618	16437	0	0	316
29.391	15.831	16438	0	0	316
29.066	15.687	16445	0	0	316
21.998	21.024	16455	3465	0	316
15.254	26.902	16465	9505	0	316
12.982	23.585	16475	14371	0	316
16.444	16.156	16485	18363	0	316
22.972	2.813	16499	23397	0	316
27.660	-2.488	16514	29672	0	316
21.421	2.344	16530	32767	0	316
13.487	11.973	16545	32767	0	316
5.950	21.818	16556	32767	0	316
2.164	26.109	16562	32767	0	316
11.071	29.787	16569	32767	0	316
16.733	34.403	16576	32767	0	316
20.700	37.793	16585	32767	0	316
15.218	34.944	16594	32767	0	316
7.501	26.037	16605	32767	0	316
6.022	14.281	16615	32767	0	316
9.989	6.419	16624	32767	0	316
15.002	6.455	16630	32767	0	316
17.670	16.661	16633	30914	0	316
12.514	22.539	16632	24706	0	316
6.527	24.702	16631	18565	0	316
7.753	18.103	16632	14069	0	316
17.454	13.523	16635	11687	0	316
30.292	10.674	16638	10646	1	316
39.560	16.516	16643	10512	0	316
37.937	21.745	16647	10848	0	316
24.919	25.856	16652	11418	0	316
8.439	24.198	16658	12291	0	316
-4.400	21.168	16664	13364	0	316
-9.016	14.569	16669	14270	0	316
-3.210	3.246	16676	14908	0	316
4.003	-3.823	16680	15478	0	316
12.910	-4.327	16684	15311	0	316
18.752	4.904	16683	12827	0	316
23.224	19.005	16683	8465	0	316
22.142	27.912	16681	5009	0	316
14.461	29.282	16680	3331	0	316
6.671	23.945	16680	2291	0	316
1.839	22.611	16678	680	0	316
9.484	27.083	16672	0	0	316
27.227	30.977	16666	0	0	316
44.753	32.095	16660	0	0	316
50.703	26.794	16654	0	0	316
42.914	21.998	16644	0	0	316
28.020	23.296	16635	0	0	316
16.336	34.980	16624	0	0	316
12.550	45.871	16614	0	0	316
15.651	47.205	16601	0	0	316
23.404	36.423	16593	0	0	316
30.148	22.719	16586	0	0	316
35.449	17.562	16579	0	0	316
38.622	24.486	16574	0	0	316
39.957	31.266	16567	0	0	316
34.006	25.532	16559	0	0	316
26.325	9.701	16546	0	0	316
17.706	-1.623	16531	0	0	316
13.992	4.183	16516	0	0	316
11.973	27.155	16502	0	0	316
12.658	49.225	16489	0	0	316
16.192	53.985	16479	0	0	316
18.536	42.157	16472	0	0	316
22.755	26.650	16462	0	0	316
25.135	16.444	16449	0	0	316
24.414	20.087	16435	0	0	316
24.811	22.575	16424	0	0	316
26.902	19.546	16413	0	0	316
30.292	14.136	16406	0	0	316
33.033	7.104	16395	0	0	316
28.201	10.386	16384	0	0	316
21.529	19.041	16375	0	0	316
14.713	32.564	16364	0	0	316
17.959	40.462	16358	0	0	316
26.506	42.986	16353	0	0	316
33.249	40.570	16352	6888	0	316
35.521	33.898	16350	12995	0	316
29.102	26.722	16348	17961	0	316
19.654	20.555	16352	24202	0	316
15.074	17.634	16358	32424	0	316
17.346	14.028	16367	32767	0	316
25.279	16.084	16375	32767	0	316
30.761	18.536	16378	32767	0	316
29.643	24.811	16378	32767	0	316
22.142	24.162	16377	32767	0	316
10.025	20.195	16374	32767	0	316
9.016	7.285	16371	32767	0	316
15.074	-1.947	16367	32767	0	316
26.397	-2.344	16363	32767	0	316
35.305	9.412	16355	32767	0	316
33.826	30.292	16343	26820	0	316
22.972	49.838	16332	18967	0	316
15.939	56.221	16320	13062	0	316
14.100	54.814	16312	9472	0	316
23.549	40.714	16305	7928	0	316
30.941	24.919	16305	9405	0	316
30.797	14.894	16307	14069	0	316
22.178	8.907	16310	19773	0	316
12.261	11.900	16314	24370	0	316
5.950	17.093	16316	27290	0	316
7.753	22.899	16319	29236	0	316
9.448	22.358	16322	30679	0	316
6.599	16.625	16323	31618	0	316
-0.325	5.481	16327	32767	0	316
-2.524	-5.373	16333	32767	0	316
3.750	-8.763	16342	32767	0	316
15.795	-2.560	16354	32767	0	316
26.433	8.547	16364	32767	0	316
31.338	15.290	16374	32767	0	316
27.047	18.788	16382	32767	0	316
21.421	16.084	16392	32767	0	316
18.283	18.175	16403	32767	0	316
20.159	24.558	16408	32767	0	316
22.395	34.908	16411	32767	0	316
20.267	36.711	16414	32767	0	316
16.012	30.040	16417	32767	0	316
9.665	20.988	16418	32767	0	316
8.402	16.300	16415	32767	0	316
11.540	21.024	16414	28732	0	316
15.398	31.194	16415	25041	0	316
17.526	35.269	16418	24169	0	316
17.959	33.538	16421	24068	0	316
20.050	27.660	16422	22155	0	316
27.191	23.512	16418	17290	0	316
36.531	24.486	16414	11552	0	316
37.865	22.719	16409	6687	0	316
31.843	18.500	16404	2358	0	316
25.027	11.937	16397	0	0	316
18.860	6.708	16386	0	0	316
15.543	10.025	16373	0	0	316
18.211	18.464	16357	0	0	316
16.805	30.869	16338	0	0	316
16.697	38.839	16319	0	0	316
17.490	38.334	16302	0	0	316
14.749	30.220	16287	0	0	316
8.727	17.887	16274	0	0	316
0.000	6.527	16265	0	0	316
-1.154	0.144	16258	0	0	316
7.212	-0.721	16251	0	0	316
20.627	1.839	16248	0	0	316
31.987	9.160	16247	0	0	316
32.059	18.897	16243	0	0	316
24.234	24.666	16240	0	0	316
13.163	25.243	16234	0	0	316
10.494	17.634	16234	0	0	316
11.143	10.133	16232	1183	0	316
13.992	11.973	16233	6955	0	316
16.733	24.558	16231	12123	0	316
13.920	39.957	16230	15848	0	316
13.884	44.537	16234	19840	0	316
19.473	35.557	16238	26081	0	316
28.958	16.913	16243	32767	0	316
33.141	1.983	16250	32767	0	316
31.122	1.479	16256	32767	0	316
18.752	15.435	16263	32767	0	316
9.953	25.893	16269	32767	0	316
11.973	27.732	16275	32767	0	316
20.700	20.916	16281	32767	0	316
30.508	12.369	16283	32767	0	316
31.951	11.504	16285	32767	0	316
26.217	22.106	16286	32767	0	316
20.952	33.718	16289	32767	0	316
17.743	38.478	16292	32767	0	316
17.598	34.656	16296	32767	0	316
12.333	28.381	16302	32767	0	316
9.629	20.014	16311	32767	0	316
13.848	17.310	16316	32767	0	316
26.794	13.451	16319	32767	0	316
43.455	15.435	16321	32767	0	316
45.979	19.870	16321	32767	0	316
36.278	30.869	16323	32767	0	316
17.887	40.498	16319	30175	0	316
9.953	41.255	16313	23397	0	316
11.215	32.203	16307	16551	0	316
20.916	19.906	16303	11720	0	316
18.897	10.819	16301	9203	0	316
12.622	10.169	16299	8062	0	316
5.698	13.776	16297	7123	0	316
7.357	15.579	16295	5512	0	316
14.966	16.012	16294	4371	0	316
19.329	12.622	16293	4841	0	316
14.605	8.439	16295	6317	0	316
8.511	0.361	16295	7559	0	316
8.258	-6.491	16292	6989	0	316
13.992	-7.140	16287	4338	0	316
24.270	4.868	16282	1452	0	316
26.650	24.666	16280	546	0	316
25.568	40.173	16280	1989	0	316
26.506	49.621	16281	4740	0	316
29.751	44.933	16285	7928	0	316
28.273	36.242	16289	12056	0	316
19.942	27.551	16297	17894	0	316
6.599	21.781	16304	23430	0	316
1.911	20.014	16308	26249	0	316
13.054	18.067	16315	27826	0	316
33.754	23.152	16319	29538	0	316
50.307	26.361	16322	30075	0	316
48.612	27.840	16327	30679	0	316
31.482	23.981	16336	32767	0	316
15.615	20.123	16349	32767	0	316
7.248	15.651	16362	32767	0	316
12.081	15.074	16371	32767	0	316
20.014	17.346	16376	32767	0	316
24.919	12.189	16379	32767	0	316
19.690	6.924	16381	32767	0	316
11.468	5.373	16383	32767	0	316
6.022	12.333	16381	31920	0	316
10.314	26.830	16383	27860	0	316
23.549	39.993	16385	26518	0	316
33.429	44.212	16388	26182	0	316
36.639	35.341	16391	24974	0	316
29.282	25.460	16393	23397	0	316
17.995	17.526	16397	22558	0	316
15.687	18.211	16404	23833	0	316
22.142	20.808	16414	27323	0	316
32.636	24.522	16424	31182	0	316
34.583	27.732	16432	32767	0	316
28.741	26.938	16441	32767	0	316
17.562	25.676	16450	32767	0	316
13.271	23.476	16456	32767	0	316
15.651	18.572	16457	32767	0	316
25.532	14.064	16455	26585	0	316
31.122	13.451	16449	18565	0	316
32.384	18.392	16441	10076	0	316
28.489	20.772	16434	2861	0	316
25.424	20.519	16427	0	0	316
26.037	17.238	16417	0	0	316
24.306	12.369	16409	0	0	316
23.080	11.360	16403	0	0	316
20.483	18.428	16396	0	0	316
14.317	22.178	16391	0	0	316
11.215	22.575	16388	0	0	316
7.717	18.283	16388	0	0	316
9.809	15.759	16388	0	0	316
19.726	16.300	16387	0	0	316
35.557	21.926	16387	0	0	316
49.333	24.847	16390	0	0	316
54.634	24.162	16396	4002	0	316
42.697	25.893	16405	11754	0	316
25.388	31.771	16414	20142	0	316
12.658	39.199	16427	27927	0	316
11.251	41.471	16436	32767	0	316
19.906	35.918	16444	32767	0	316
26.217	23.585	16448	32767	0	316
24.702	12.333	16447	32767	0	316
17.562	6.924	16445	30377	0	316
8.402	8.907	16444	26551	0	316
8.114	15.579	16445	25209	0	316
15.326	25.784	16445	24337	1	892
19.546	31.879	16445	22390	0	892
17.887	29.210	16442	19974	0	892
8.511	13.812	16442	18296	0	892
-1.226	0.036	16445	18028	0	892
-1.190	-6.780	16443	18061	0	892
12.802	2.993	16443	16988	0	892
32.276	19.582	16440	14707	0	892
42.770	24.342	16435	10915	0	892
33.069	17.562	16432	7559	0	892
12.514	-1.406	16430	6787	0	892
-7.717	-14.930	16427	6217	0	892
-11.107	-12.189	16420	3499	0	892
-2.416	1.767	16415	445	0	892
15.002	25.424	16410	0	0	892
22.358	38.622	16405	0	0	892
24.162	44.212	16401	0	0	892
21.781	37.252	16399	0	0	892
24.089	27.371	16398	311	0	892
26.650	21.096	16397	2827	0	892
23.440	21.818	16393	3029	0	892
16.192	27.083	16393	3129	0	892
8.583	29.715	16393	5780	0	892
10.999	29.318	16393	9136	0	892
20.664	23.657	16396	11955	0	892
32.961	20.808	16401	16116	0	892
36.747	23.404	16407	21820	0	892
32.456	33.033	16410	25813	0	892
29.427	42.084	16410	25545	0	892
31.771	43.599	16407	22424	0	892
37.721	38.695	16405	20175	0	892
38.658	27.840	16407	21115	0	892
28.201	16.264	16413	24571	0	892
15.831	9.953	16420	29169	0	892
7.789	2.416	16428	32767	0	892
6.131	-3.787	16432	32767	0	892
9.953	-6.383	16438	32767	0	892
13.487	-0.541	16439	32767	0	892
15.687	15.471	16442	32767	0	892
16.841	31.987	16446	32767	0	892
20.195	39.127	16449	32767	0	892
18.716	30.364	16451	32524	0	892
17.562	13.776	16456	32524	0	892
14.497	2.596	16463	32767	0	892
17.851	3.534	16472	32767	0	892
19.005	15.074	16483	32767	0	892
17.057	20.844	16491	32767	0	892
6.924	20.339	16497	32767	0	892
-2.633	13.451	16498	32767	0	892
-3.967	14.100	16500	32767	0	892
7.934	21.277	16502	31988	0	892
28.381	33.682	16500	28363	0	892
43.058	39.127	16495	22122	0	892
44.212	32.853	16490	15009	0	892
30.545	22.214	16482	8096	0	892
10.097	13.451	16469	0	0	892
0.433	12.694	16454	0	0	892
1.262	12.838	16438	0	0	892
8.799	9.881	16424	0	0	892
12.766	3.282	16417	0	0	892
11.071	-1.695	16409	0	0	892
7.104	5.157	16404	0	0	892
10.530	23.729	16400	0	0	892
19.798	43.635	16399	0	0	892
30.581	50.126	16401	0	0	892
31.518	39.055	16406	0	0	892
24.234	17.959	16412	2962	0	892
11.684	3.426	16416	8868	0	892
3.823	0.685	16420	13398	0	892
1.551	7.717	16428	18766	0	892
3.931	12.189	16434	24672	0	892
9.484	10.746	16437	27860	0	892
13.848	9.448	16435	26618	0	892
20.772	12.730	16430	22625	0	892
27.335	25.027	16428	19303	0	892
31.302	36.783	16427	19035	0	892
28.128	39.560	16429	20880	0	892
16.048	30.761	16428	22021	0	892
2.560	16.048	16430	22155	0	892
-1.442	6.203	16431	22927	1	316
5.337	3.282	16430	23128	0	316
14.064	10.891	16424	20108	0	316
18.933	19.834	16416	13968	0	316
13.379	24.666	16406	6921	0	316
4.796	21.745	16397	1921	0	316
3.210	18.392	16393	915	0	316
7.898	16.156	16392	3197	0	316
13.199	14.281	16393	6586	0	316
13.343	11.323	16393	9069	0	316
7.862	8.114	16391	10109	0	316
-2.200	7.898	16390	10546	0	316
-7.393	15.326	16388	10747	0	316
-4.472	28.994	16386	10747	0	316
2.813	37.144	16384	11217	0	316
15.362	34.151	16387	13599	0	316
20.411	20.844	16390	18028	0	316
18.031	12.694	16398	23665	0	316
7.934	10.566	16405	29303	0	316
0.433	20.916	16410	32592	0	316
3.895	30.508	16410	32021	0	316
15.615	34.475	16410	29739	0	316
27.191	29.102	16407	27155	0	316
28.561	19.437	16403	23296	0	316
18.969	8.330	16400	19538	0	316
6.094	5.049	16398	18162	0	316
-3.426	6.708	16397	17793	0	316
-5.481	11.792	16394	16719	0	316
-2.669	13.812	16391	15176	0	316
-2.993	14.533	16390	14170	0	316
-5.806	8.258	16390	14640	0	316
-9.484	5.590	16390	15344	0	316
-8.727	11.612	16389	15042	0	316
0.397	22.972	16386	13532	0	316
15.254	34.511	16381	10512	0	316
28.633	35.990	16378	7895	0	316
33.502	25.604	16377	8398	0	316
26.650	10.927	16378	11150	0	316
15.398	3.750	16376	12525	0	316
7.970	14.136	16371	10445	0	316
10.386	29.715	16364	6317	0	316
16.516	39.849	16358	2995	0	316
23.981	35.846	16352	1418	0	316
21.060	22.034	16347	1015	0	316
15.975	17.202	16343	1250	0	316
9.016	23.008	16340	1787	0	316
10.278	37.144	16335	1888	0	316
15.867	42.734	16330	1015	0	316
17.093	34.620	16327	1049	0	316
12.802	19.005	16326	3633	0	316
0.541	9.268	16326	7022	0	316
-8.619	8.763	16327	9807	0	316
-10.494	15.579	16327	12391	0	316
-5.301	23.260	16327	14807	0	316
1.298	21.709	16328	16753	0	316
3.931	16.336	16328	18430	0	316
2.200	9.556	16327	19269	0	316
5.013	6.275	16323	17860	0	316
8.006	4.977	16316	14841	0	316
12.982	7.212	16314	13297	0	316
16.048	12.117	16316	15512	0	316
17.454	16.408	16323	20645	0	316
11.396	22.755	16330	27256	0	316
5.698	28.525	16340	32767	0	316
-0.757	29.138	16345	32767	0	316
-4.904	25.424	16347	32767	0	316
-7.501	16.336	16344	32767	0	316
-4.544	8.006	16341	29135	0	316
-3.534	7.104	16337	25310	0	316
-3.678	11.648	16334	22457	0	316
-3.390	21.132	16328	18900	0	316
-0.433	30.905	16325	15512	0	316
2.200	33.249	16320	13197	0	316
3.173	28.597	16315	10646	0	316
3.498	14.533	16310	8398	0	316
1.875	4.111	16308	7727	0	316
0.469	-0.361	16307	8364	0	316
3.426	7.248	16305	8901	0	316
5.409	18.175	16302	8331	0	316
2.596	25.316	16300	7895	0	316
0.469	17.310	16298	8331	0	316
-7.501	5.517	16295	8364	0	316
-11.071	-5.013	16293	8398	0	316
-13.415	-8.078	16291	9002	0	316
-16.733	-1.767	16288	8968	0	316
-20.844	8.330	16288	9640	0	316
-22.467	15.723	16292	13700	0	316
-16.985	14.749	16301	20712	0	316
-7.429	6.131	16313	29001	0	316
5.481	-4.760	16326	32767	0	316
11.071	-10.025	16336	32767	0	316
12.225	0.685	16346	32767	0	316
7.212	18.716	16354	32767	0	316
4.147	30.436	16362	32767	0	316
0.793	28.705	16368	32767	0	316
-4.652	16.949	16376	32767	0	316
-11.937	9.556	16384	32767	0	316
-13.271	14.858	16390	32767	0	316
-10.674	26.794	16396	32767	0	316
-2.993	32.744	16400	32767	0	316
5.373	26.145	16401	32767	1	400
7.140	12.153	16404	32767	0	400
9.124	3.354	16409	32767	0	400
8.619	4.796	16418	32767	0	400
7.248	9.016	16428	32767	0	400
3.029	9.520	16438	32767	0	400
-6.599	4.039	16452	32767	0	400
-16.480	-4.327	16466	32767	0	400
-19.906	-7.789	16478	32767	0	400
-18.211	-3.210	16487	32767	0	400
-5.157	4.147	16496	32767	0	400
5.481	10.963	16502	32767	0	400
14.208	15.759	16507	32767	0	400
14.966	22.647	16511	32767	0	400
8.114	29.823	16516	32767	0	400
3.570	33.898	16521	30981	0	400
3.029	34.259	16523	27256	0	400
7.825	27.768	16521	21618	0	400
13.307	20.447	16519	15176	0	400
14.317	13.884	16514	8465	0	400
7.789	12.117	16509	1720	0	400
-0.902	9.953	16502	0	0	400
-3.462	11.215	16492	0	0	400
-1.623	13.487	16481	0	0	400
-0.793	16.408	16470	0	0	400
-2.596	17.995	16459	0	0	400
-9.737	11.396	16451	0	0	400
-19.437	1.623	16444	0	0	400
-23.621	-8.619	16436	0	0	400
-21.962	-13.920	16431	0	0	400
-12.225	-10.891	16423	0	0	400
-2.633	-3.354	16418	0	0	400
9.196	4.436	16412	0	0	400
23.152	12.081	16406	0	0	400
31.518	16.480	16404	0	0	400
34.728	26.686	16401	0	0	400
31.266	36.098	16399	0	0	400
20.339	47.602	16400	0	0	400
10.819	51.208	16404	0	0	400
4.364	45.582	16410	6619	0	400
2.092	35.377	16418	14942	0	400
2.813	25.243	16424	22457	0	400
0.613	15.398	16431	27659	0	400
-1.839	12.766	16433	30142	0	400
-2.344	9.016	16434	30276	0	400
-0.793	5.842	16428	27189	0	400
4.364	4.436	16421	21618	0	400
9.196	-0.144	16414	17021	0	400
9.701	-6.780	16413	16049	0	400
5.590	-15.182	16412	17323	0	400
-2.488	-14.821	16408	17424	0	400
-5.734	-1.803	16404	15109	0	400
-3.462	22.935	16398	12257	0	400
5.445	43.599	16390	9606	0	400
13.884	49.874	16381	5378	0	400
13.992	36.242	16369	0	0	400
10.350	18.031	16356	0	0	400
6.131	6.094	16347	0	0	400
5.265	7.321	16341	0	0	400
6.203	14.858	16340	0	0	400
6.239	16.589	16338	0	0	400
0.974	14.605	16339	3499	0	400
-5.085	9.196	16340	8297	0	400
-2.813	7.212	16340	12391	0	400
5.986	8.078	16337	13633	0	400
17.129	9.737	16338	14505	0	400
21.277	9.196	16340	18162	0	400
18.860	10.783	16346	23699	0	400
10.097	16.841	16347	27357	0	400
4.508	26.397	16347	27692	0	400
3.498	34.043	16348	27457	0	400
8.366	36.495	16350	29202	0	400
15.074	30.508	16352	30578	0	400
20.483	22.972	16348	29169	0	400
25.604	17.995	16350	27491	0	400
29.751	18.933	16350	28196	0	400
27.263	20.483	16353	29806	0	400
20.664	21.204	16354	30444	0	400
10.819	17.418	16355	30243	0	400
0.541	15.687	16358	30175	0	400
-7.501	12.153	16361	31249	0	400
-7.321	11.540	16364	32592	0	400
-1.839	5.517	16366	32767	0	400
10.566	1.118	16368	32189	0	400
27.191	4.832	16372	32088	0	400
37.324	15.182	16379	32767	0	400
37.072	28.309	16387	32767	0	400
26.614	36.459	16398	32767	0	400
11.973	35.593	16408	32767	0	400
2.019	29.715	16416	32767	0	400
-0.865	26.974	16418	32767	0	400
0.397	25.099	16422	32767	0	400
1.695	24.342	16427	32767	0	400
1.767	20.014	16434	32767	0	400
5.517	13.595	16435	32767	1	376
10.206	9.592	16432	32424	0	376
13.668	7.104	16425	23900	0	376
10.746	6.996	16421	16753	0	376
1.695	6.816	16419	13364	0	376
-6.167	4.940	16420	12425	0	376
-7.176	7.032	16418	11183	0	376
-0.144	5.301	16418	9036	0	376
12.333	3.931	16414	6150	0	376
19.546	3.318	16405	1284	0	376
21.060	5.121	16393	0	0	376
18.969	12.045	16383	0	0	376
22.431	27.227	16373	0	0	376
25.496	43.022	16361	0	0	376
32.131	53.300	16348	0	0	376
32.384	54.454	16336	0	0	376
28.850	48.467	16323	0	0	376
27.407	37.757	16316	0	0	376
26.650	28.020	16307	0	0	376
26.794	18.824	16301	0	0	376
22.827	11.973	16298	0	0	376
17.959	5.626	16299	0	0	376
10.638	6.311	16305	0	0	376
11.792	16.264	16312	3129	0	376
18.716	31.194	16317	11687	0	376
24.775	41.147	16322	18095	0	376
28.056	40.317	16326	22524	0	376
23.224	28.958	16326	24605	0	376
13.199	16.444	16329	26216	0	376
0.793	8.979	16335	30243	0	376
-2.308	7.717	16341	32767	0	376
5.878	11.360	16348	32767	0	376
19.473	14.353	16354	32767	0	376
32.636	19.293	16364	32767	0	376
34.656	26.794	16375	32767	0	376
27.840	30.436	16386	32767	0	376
18.356	24.775	16393	32767	0	376
19.510	11.792	16399	32767	0	376
25.748	2.705	16402	32767	0	376
32.131	5.085	16402	32767	0	376
28.489	19.726	16399	32767	0	376
16.516	33.069	16394	32767	0	376
0.180	35.521	16391	28565	0	376
-4.724	23.909	16392	25880	0	376
4.255	9.160	16397	26518	0	376
23.008	4.688	16404	28900	0	376
40.498	11.504	16409	31417	0	376
44.789	22.647	16415	32323	0	376
35.269	22.503	16419	31216	0	376
15.651	14.317	16418	28430	0	376
2.092	5.409	16416	23766	0	376
-0.505	5.373	16414	18464	0	376
5.806	14.028	16407	13431	0	376
14.785	23.260	16401	7626	0	376
22.431	25.856	16393	1955	0	376
28.814	21.529	16386	0	0	376
33.069	20.159	16375	0	0	376
34.620	27.515	16363	0	0	376
33.033	34.403	16355	0	0	376
25.207	35.846	16350	0	0	376
21.204	26.650	16351	0	0	376
22.322	17.598	16356	0	0	376
32.744	15.471	16361	0	0	376
41.832	19.437	16363	5009	0	376
43.815	28.128	16364	7022	0	376
37.973	33.610	16366	8733	0	376
26.758	31.482	16371	12861	0	376
20.627	28.525	16374	17189	0	376
20.159	24.162	16377	19672	0	376
26.397	20.375	16378	20511	0	376
31.879	14.605	16375	18934	0	376
30.689	9.412	16367	14606	0	376
27.010	3.678	16361	9203	0	376
22.863	3.282	16352	5143	0	376
24.162	9.917	16345	2291	0	376
29.715	18.752	16336	0	0	376
36.711	28.056	16330	0	0	376
36.170	27.299	16323	0	0	376
28.741	23.080	16321	0	0	376
17.418	19.329	16320	9	1	316
13.307	26.542	16318	3297	0	316
17.706	36.711	16313	3868	0	316
29.282	42.986	16309	2492	0	316
35.449	33.826	16304	2123	0	316
33.862	16.084	16299	2794	0	316
26.758	2.308	16294	2928	0	316
21.529	4.868	16293	4170	0	316
25.965	21.818	16296	9069	0	316
34.403	41.976	16302	16250	0	316
41.471	49.549	16306	21920	0	316
40.930	41.976	16307	24068	0	316
34.151	23.981	16307	23967	0	316
25.532	5.445	16309	24773	0	316
20.267	-0.072	16313	27927	0	316
16.444	6.455	16316	31081	0	316
17.202	21.818	16316	31283	0	316
16.913	36.170	16313	28430	0	316
21.204	36.891	16308	24035	0	316
23.296	24.522	16300	19001	0	316
27.227	2.524	16293	14405	0	316
32.708	-12.838	16290	12257	0	316
33.790	-15.795	16292	14237	0	316
32.059	-7.429	16299	19605	0	316
28.633	8.511	16307	26786	0	316
21.998	25.532	16320	32767	0	316
21.132	34.079	16333	32767	0	316
27.371	39.957	16344	32767	0	316
36.675	39.091	16350	32767	0	316
46.304	37.000	16359	32767	0	316
47.999	32.564	16370	32767	0	316
42.481	28.092	16382	32767	0	316
33.466	24.378	16394	32767	0	316
26.361	20.736	16405	32767	0	316
21.637	13.451	16416	32767	0	316
21.637	11.107	16426	32767	0	316
23.044	10.206	16435	32767	0	316
26.001	10.710	16444	32767	0	316
28.850	12.369	16453	32767	0	316
28.814	9.304	16458	32767	0	316
25.099	3.426	16459	32767	0	316
18.464	-0.397	16463	32767	0	316
11.143	2.308	16466	32767	0	316
13.415	10.494	16466	31350	0	316
22.070	21.529	16461	23867	0	316
37.108	24.089	16455	14640	0	316
46.087	14.894	16449	6384	0	316
44.969	3.426	16442	0	0	316
38.009	-0.469	16437	0	0	316
29.679	7.717	16435	0	0	316
25.207	24.883	16432	0	0	316
25.099	38.370	16429	0	0	316
24.630	37.973	16432	0	0	316
18.067	25.929	16435	0	0	316
13.451	11.179	16442	411	0	316
9.881	9.196	16450	5982	0	316
12.910	14.100	16457	11217	0	316
17.382	19.618	16460	13801	0	316
22.286	19.834	16460	12593	0	316
28.994	9.520	16461	10512	0	316
37.108	3.137	16463	10848	0	316
44.068	5.698	16466	12760	0	316
49.441	17.562	16468	13465	0	316
52.723	29.895	16470	13029	0	316
47.962	31.122	16471	13230	0	316
42.661	28.705	16472	13499	0	316
35.341	27.335	16472	13129	0	316
27.299	32.276	16472	13129	0	316
19.618	38.226	16473	12928	0	316
17.202	36.531	16474	12291	0	316
19.401	23.152	16477	13129	0	316
25.893	9.376	16481	15747	0	316
35.197	2.344	16486	18934	0	316
38.658	8.511	16492	21719	0	316
38.298	19.437	16494	22558	0	316
32.167	26.325	16496	21820	0	316
26.397	21.096	16498	21216	0	316
23.549	8.691	16497	19437	0	316
23.476	-2.524	16490	14707	0	316
24.630	-2.308	16486	9539	1	316
23.909	10.783	16483	7223	0	316
20.195	28.201	16482	6921	0	316
19.582	37.396	16478	5848	0	316
21.024	31.915	16476	4002	0	316
29.138	17.851	16475	3767	0	316
41.760	10.242	16475	5244	0	316
47.926	12.405	16471	5445	0	316
47.422	22.503	16465	2827	0	316
32.925	30.472	16461	0	0	316
17.634	27.876	16459	0	0	316
8.475	22.286	16459	2391	0	316
12.550	12.946	16463	6317	0	316
22.791	9.845	16465	10109	0	316
28.417	2.849	16463	11485	0	316
25.784	-6.491	16459	9707	0	316
21.709	-13.379	16455	7525	0	316
17.093	-15.146	16455	7794	0	316
18.752	-8.835	16456	10244	0	316
22.358	3.246	16458	13197	0	316
21.385	15.759	16458	14807	0	316
22.683	23.152	16457	15109	0	316
25.027	27.191	16459	16250	0	316
29.931	27.948	16463	19035	0	316
31.482	28.128	16466	21820	0	316
30.328	27.551	16466	22692	0	316
26.289	31.230	16464	21350	0	316
21.926	35.413	16459	18128	0	316
22.719	34.908	16452	13029	0	316
25.712	29.499	16444	8062	0	316
26.181	20.267	16441	6082	0	316
27.191	10.025	16439	6989	0	316
25.929	7.248	16439	9338	0	316
27.047	7.429	16440	11921	0	316
28.741	6.708	16438	12425	0	316
31.915	4.868	16429	9136	0	316
33.862	6.203	16419	3029	0	316
32.672	13.812	16404	0	0	316
29.391	28.309	16387	0	0	316
25.316	39.957	16371	0	0	316
22.683	40.281	16355	0	0	316
20.555	26.758	16342	0	0	316
20.339	10.819	16329	0	0	316
17.995	0.072	16319	0	0	316
16.336	3.714	16309	0	0	316
14.966	13.992	16299	0	0	316
20.736	24.594	16289	0	0	316
29.246	26.722	16282	0	0	316
38.082	22.431	16282	0	0	316
39.488	17.779	16282	0	0	316
33.682	11.720	16283	1653	0	316
21.854	2.380	16284	8029	0	316
12.910	-6.671	16283	12895	0	316
7.248	-17.887	16278	15143	0	316
3.678	-14.172	16274	15210	0	316
5.770	1.803	16271	15680	0	316
9.052	30.328	16265	16719	0	316
13.307	53.985	16260	16887	0	316
19.942	58.384	16257	17055	0	316
20.159	46.556	16253	18565	0	316
16.697	22.972	16254	21652	0	316
11.648	4.147	16259	27290	0	316
10.855	4.183	16268	32767	0	316
18.933	14.894	16272	32767	0	316
26.181	26.902	16274	32767	0	316
30.797	31.013	16272	32767	0	316
31.122	23.080	16269	32767	0	316
27.768	11.143	16262	32625	0	316
28.020	8.294	16257	28028	0	316
30.256	10.350	16254	25310	0	316
28.525	15.471	16250	24169	0	316
19.618	15.507	16244	21988	0	316
9.052	9.232	16237	17961	0	316
-2.813	4.075	16228	13331	0	316
-11.287	7.970	16220	9237	0	316
-18.392	17.129	16216	7995	0	316
-14.461	26.361	16218	11351	0	316
1.442	27.479	16223	17692	0	316
28.345	22.322	16230	23900	0	316
56.762	10.566	16237	29605	0	316
62.748	4.039	16251	32767	0	316
48.828	-0.577	16265	32767	0	316
25.965	0.108	16283	32767	0	316
12.009	5.193	16300	32767	0	316
10.494	15.218	16315	32767	0	316
17.598	26.253	16326	32767	0	316
23.260	33.321	16334	32767	0	316
24.270	31.951	16343	32767	0	316
22.827	27.155	16347	32767	0	316
23.981	21.854	16351	32767	0	316
26.217	20.014	16353	32767	1	360
22.611	21.818	16353	32767	0	360
21.024	22.358	16348	32767	0	360
21.385	18.247	16343	28900	0	360
20.375	13.956	16342	22491	0	360
18.428	9.881	16342	19873	0	360
10.674	8.835	16342	17927	0	360
6.094	13.487	16337	13566	0	360
7.068	20.952	16332	7324	0	360
15.651	27.551	16324	646	0	360
25.027	31.410	16313	0	0	360
31.338	26.145	16305	0	0	360
27.010	19.618	16296	0	0	360
19.546	13.271	16289	0	0	360
12.586	10.638	16284	0	0	360
9.881	10.133	16278	0	0	360
10.710	13.199	16275	0	0	360
13.487	13.559	16274	0	0	360
21.709	15.218	16273	0	0	360
26.650	23.657	16269	0	0	360
28.886	28.273	16263	0	0	360
26.686	32.384	16257	0	0	360
18.392	26.650	16251	0	0	360
6.203	15.182	16250	0	0	360
-3.750	1.442	16251	0	0	360
-10.097	-7.573	16254	2593	0	360
-9.304	-7.104	16254	6653	0	360
-3.101	0.974	16253	8062	0	360
8.114	9.520	16249	8129	0	360
16.625	12.045	16246	7660	0	360
17.887	9.448	16240	6821	0	360
14.245	2.741	16237	6250	0	360
7.501	4.111	16236	7525	0	360
8.583	15.074	16235	10579	0	360
19.618	31.626	16234	13163	0	360
31.518	39.235	16234	14740	0	360
36.242	31.482	16239	17927	0	360
28.705	15.795	16247	24806	0	360
16.552	9.665	16261	32767	0	360
8.366	18.392	16277	32767	0	360
12.369	36.098	16292	32767	0	360
17.238	43.887	16306	32767	0	360
21.890	31.843	16317	32767	0	360
15.831	9.809	16328	32767	0	360
10.458	-7.357	16340	32767	0	360
7.465	-4.688	16353	32767	0	360
7.140	12.117	16370	32767	0	360
10.422	28.309	16387	32767	0	360
10.783	39.596	16407	32767	0	360
12.369	39.235	16428	32767	0	360
10.999	29.499	16451	32767	0	360
12.910	17.202	16472	32767	0	360
13.920	6.275	16494	32767	0	360
12.550	3.606	16517	32767	0	360
13.812	5.950	16535	32767	0	360
13.776	13.812	16550	32767	0	360
12.874	21.313	16559	32767	0	360
12.009	22.755	16564	32767	0	360
8.763	20.447	16568	32767	0	360
8.330	10.819	16572	32767	0	360
11.396	2.849	16576	32767	0	360
16.408	-1.515	16581	32767	0	360
18.320	0.541	16587	30947	0	360
20.123	5.445	16588	24303	0	360
15.867	13.307	16590	16820	0	360
14.353	15.975	16591	10948	0	360
13.235	20.014	16595	7223	0	360
16.336	28.633	16598	4740	0	360
13.379	37.541	16601	2358	0	360
9.376	41.724	16600	0	0	360
4.616	35.954	16599	0	0	360
0.325	25.352	16593	0	0	360
2.488	15.362	16581	0	0	360
8.330	7.681	16573	0	0	360
14.641	9.665	16566	0	0	360
18.608	17.021	16562	0	0	360
13.523	22.358	16559	0	0	360
6.058	25.243	16559	0	0	360
-2.272	23.873	16557	0	0	360
-5.301	16.084	16552	0	1	316
-1.695	12.874	16545	0	0	316
4.436	13.992	16538	0	0	316
8.979	19.005	16533	0	0	316
8.799	24.450	16531	0	0	316
3.750	22.250	16532	0	0	316
-0.072	14.677	16534	0	0	316
2.236	11.143	16536	0	0	316
7.501	14.966	16539	0	0	316
12.802	24.883	16538	0	0	316
15.507	36.134	16532	0	0	316
10.097	40.570	16526	0	0	316
6.058	34.043	16524	0	0	316
9.376	24.053	16521	0	0	316
13.884	16.516	16523	1888	0	316
16.841	11.468	16521	4975	0	316
14.281	14.785	16517	5713	0	316
4.436	17.382	16510	2995	0	316
-2.993	23.801	16500	0	0	316
-7.176	26.902	16488	0	0	316
-8.763	27.515	16474	0	0	316
-8.583	22.647	16462	0	0	316
-8.511	13.487	16447	0	0	316
-5.950	4.039	16434	0	0	316
-1.154	-1.515	16421	0	0	316
4.039	-0.036	16406	0	0	316
6.744	6.599	16394	0	0	316
7.032	16.336	16387	0	0	316
8.042	26.542	16384	0	0	316
9.701	29.715	16380	0	0	316
10.927	28.669	16375	0	0	316
10.891	23.621	16372	0	0	316
12.081	21.277	16370	1787	0	316
10.025	17.670	16372	8062	0	316
12.045	19.329	16377	16250	0	316
15.435	17.166	16384	24907	0	316
16.012	13.199	16391	32767	0	316
13.848	6.852	16401	32767	0	316
8.727	5.517	16412	32767	0	316
3.282	11.576	16424	32767	0	316
-0.252	18.211	16437	32767	0	316
-0.505	22.142	16449	32767	0	316
1.082	17.129	16462	32767	0	316
2.344	11.576	16475	32767	0	316
3.173	10.494	16487	32767	0	316
3.246	18.644	16497	32767	0	316
8.475	28.345	16504	32767	0	316
14.172	29.354	16508	32767	0	316
18.320	14.389	16507	32767	0	316
22.467	-1.082	16508	32767	0	316
19.762	-9.052	16509	32767	0	316
12.982	-3.895	16512	32767	0	316
8.907	13.415	16515	32767	0	316
10.458	32.708	16520	32767	0	316
19.762	42.409	16522	32767	0	316
32.312	44.897	16524	32767	0	316
42.770	42.229	16522	29001	0	316
42.337	37.432	16523	24437	0	316
32.420	35.124	16525	21988	0	316
20.916	32.564	16526	20645	0	316
12.694	25.640	16528	19068	0	316
13.487	16.012	16525	15713	0	316
14.353	3.101	16523	10982	0	316
14.208	-3.282	16521	6720	0	316
8.042	-1.479	16513	2291	0	316
-0.793	3.859	16507	0	0	316
-0.757	8.763	16501	0	0	316
6.960	11.215	16492	0	0	316
20.483	5.842	16486	0	0	316
32.059	-2.705	16477	0	0	316
34.872	-5.806	16467	0	0	316
31.915	-0.252	16452	0	0	316
26.794	15.038	16435	0	0	316
24.594	35.557	16419	0	0	316
26.181	46.123	16410	0	0	316
27.876	43.419	16402	0	0	316
27.876	29.427	16397	0	0	316
28.597	19.942	16393	0	0	316
30.400	19.149	16387	0	0	316
30.833	28.561	16380	0	1	316
27.876	35.449	16374	0	0	316
21.962	35.269	16370	0	0	316
13.163	28.633	16368	0	0	316
10.133	20.627	16364	0	0	316
11.107	13.307	16356	0	0	316
13.271	10.133	16345	0	0	316
14.858	6.491	16336	0	0	316
12.514	6.635	16325	0	0	316
11.251	9.953	16315	0	0	316
15.543	12.730	16307	0	0	316
20.231	13.668	16303	0	0	316
25.279	5.229	16303	1586	0	316
25.279	-6.058	16307	9572	0	316
20.844	-13.199	16313	18229	0	316
17.743	-5.986	16319	27323	0	316
14.785	16.048	16329	32767	0	316
16.913	39.416	16333	32767	0	316
18.067	54.273	16333	32767	0	316
22.431	51.569	16336	32767	0	316
25.496	34.547	16338	32767	0	316
24.450	15.471	16338	32767	0	316
21.637	6.275	16334	32767	0	316
12.730	0.721	16332	32767	0	316
8.619	1.406	16327	32767	0	316
12.405	3.534	16317	27826	0	316
19.870	8.691	16306	20175	0	316
28.273	19.618	16292	11754	0	316
30.472	31.626	16277	3230	0	316
26.686	39.091	16260	0	0	316
22.899	36.134	16243	0	0	316
22.322	26.181	16224	0	0	316
23.044	18.175	16209	0	0	316
22.719	14.821	16198	0	0	316
21.349	17.346	16194	0	0	316
24.270	20.952	16189	0	0	316
23.981	20.375	16188	0	0	316
23.188	14.028	16193	0	0	316
18.969	8.511	16200	9975	0	316
9.701	4.977	16205	18867	0	316
6.347	4.688	16207	23800	0	316
5.662	10.025	16207	25377	0	316
12.982	13.235	16206	25645	0	316
17.526	14.605	16208	27424	0	316
23.224	12.550	16212	31853	0	316
23.981	7.609	16216	32767	0	316
21.096	8.871	16217	32767	0	316
15.903	11.071	16221	32767	0	316
9.989	14.136	16225	32767	0	316
8.439	19.726	16231	32767	0	316
12.297	19.618	16241	32767	0	316
19.293	19.546	16254	32767	0	316
21.745	16.697	16264	32767	0	316
21.060	14.894	16269	32767	0	316
19.365	11.973	16274	32767	0	316
17.562	14.028	16280	32767	0	316
23.404	20.736	16289	32767	0	316
27.660	30.004	16303	32767	0	316
27.804	34.367	16316	32767	0	316
22.250	28.417	16328	32767	0	316
10.422	16.877	16340	32767	0	316
7.140	4.111	16352	32767	0	316
10.963	-5.986	16362	32767	0	316
18.897	-10.855	16369	32767	0	316
25.496	-12.369	16373	32767	0	316
22.539	-9.989	16377	32767	0	316
12.189	-3.498	16381	32767	0	316
5.085	9.304	16387	32767	0	316
5.878	21.673	16389	32767	0	316
14.533	23.008	16389	32625	0	316
23.044	15.795	16390	26518	0	316
26.253	3.137	16393	22994	0	316
24.414	-5.013	16392	19639	0	316
16.192	-3.498	16390	14036	0	316
11.468	4.940	16387	8029	0	316
8.330	16.841	16384	3398	0	316
9.520	21.060	16384	411	0	316
13.559	21.781	16385	9	0	316
14.749	18.824	16390	2458	0	316
15.146	19.041	16398	6787	0	316
12.477	17.057	16409	12123	0	316
10.061	16.156	16419	17826	0	316
14.605	9.953	16433	23598	0	316
21.998	3.714	16446	29370	0	316
25.856	-0.072	16461	32767	0	316
22.142	-0.829	16473	32767	0	316
12.982	0.902	16481	32767	0	316
1.551	3.570	16485	32767	0	316
0.577	2.380	16486	31014	0	316
6.203	3.390	16486	25746	0	316
16.841	7.068	16485	20779	0	316
19.221	12.117	16486	16786	0	316
16.084	16.444	16483	12928	0	316
11.432	20.952	16481	8733	0	316
12.117	21.926	16482	6250	0	316
19.906	23.549	16484	6183	0	316
28.381	25.748	16487	7391	0	316
31.302	30.472	16492	9237	0	316
28.633	31.915	16496	10814	0	316
25.388	31.699	16497	10512	0	316
23.873	28.850	16497	8733	0	316
28.056	24.053	16499	7962	0	316
30.364	21.998	16503	9002	0	316
30.545	21.313	16507	10948	0	316
26.974	21.781	16511	12727	0	316
21.890	21.421	16513	12827	0	316
15.615	15.362	16511	10579	0	316
9.448	10.783	16507	7089	0	316
7.789	11.864	16503	3968	0	316
10.783	13.631	16503	2895	0	316
14.785	20.772	16503	3230	0	316
21.781	18.067	16500	2458	0	316
23.116	10.566	16497	747	0	316
23.116	2.524	16496	0	0	316
23.044	3.173	16489	0	0	316
17.202	12.189	16480	0	0	316
12.622	25.712	16471	0	0	316
6.924	28.814	16466	0	0	316
6.780	23.765	16464	0	0	316
9.448	15.615	16463	0	0	316
15.579	10.746	16463	0	0	316
17.995	10.314	16463	0	0	316
20.627	16.841	16462	1921	0	316
20.627	19.257	16459	2022	0	316
23.585	24.450	16454	1049	0	316
24.775	26.578	16450	244	0	316
20.988	25.965	16448	1082	0	316
17.274	20.952	16445	3230	0	316
13.812	9.773	16441	4338	0	316
16.156	6.203	16440	4539	0	316
20.483	7.537	16436	5579	0	316
23.909	14.677	16432	5747	0	316
21.168	20.087	16423	3096	0	316
12.117	18.572	16418	478	0	316
4.219	15.759	16414	1150	0	316
2.308	18.175	16413	4438	0	316
8.330	26.578	16414	8163	0	316
21.349	34.006	16412	10646	0	316
27.299	32.744	16409	11519	0	316
23.693	23.008	16406	11384	0	316
18.788	15.687	16402	10613	0	316
13.884	16.877	16397	9673	0	316
18.644	26.578	16391	8700	0	316
27.047	35.918	16384	7458	0	316
33.033	34.656	16381	6082	0	316
33.357	23.585	16371	4136	0	316
28.056	7.717	16361	881	0	316
22.791	-4.544	16351	0	0	316
11.937	-7.465	16342	0	0	316
0.252	-4.003	16334	0	0	316
-7.934	2.019	16332	0	0	316
-8.258	6.635	16333	2358	0	316
1.875	8.511	16333	8264	0	316
17.923	14.966	16334	12895	0	316
30.869	24.053	16333	15814	0	316
36.603	38.911	16333	17793	0	316
34.475	49.513	16332	19303	0	316
25.676	48.539	16330	20343	0	316
12.622	39.596	16332	21853	0	316
5.950	28.309	16333	24639	0	316
7.609	19.329	16334	27189	0	316
16.661	19.149	16336	28934	0	316
29.463	20.700	16341	32021	0	316
32.636	17.129	16348	32767	0	316
26.073	13.271	16358	32767	0	316
14.930	7.825	16367	32767	0	316
11.179	3.426	16374	32767	0	316
14.605	3.282	16380	32767	0	316
18.247	3.462	16384	32767	0	316
16.480	2.633	16384	32767	0	316
3.678	7.357	16385	32767	0	316
-7.970	10.674	16386	32767	0	316
-8.619	16.192	16390	32767	1	688
5.626	20.952	16393	32767	0	688
21.818	21.132	16393	32767	0	688
30.400	21.709	16388	31014	0	688
25.712	20.483	16381	22894	0	688
15.615	19.113	16375	15546	0	688
12.261	14.281	16367	9841	0	688
16.913	12.369	16360	5109	0	688
30.184	11.540	16354	1082	0	688
37.108	18.428	16346	0	0	688
36.928	24.883	16339	0	0	688
30.292	31.158	16327	0	0	688
19.654	32.816	16315	0	0	688
17.166	32.239	16302	0	0	688
20.231	31.879	16291	0	0	688
26.686	31.302	16280	0	0	688
28.922	24.955	16270	0	0	688
20.159	18.716	16262	0	0	688
4.111	12.189	16258	0	0	688
-7.825	10.242	16255	0	0	688
-7.140	11.792	16250	0	0	688
1.803	12.441	16250	0	0	688
15.326	8.727	16250	0	0	688
20.411	1.406	16253	3633	0	688
19.077	-2.092	16256	10009	0	688
15.326	-0.216	16263	16988	0	688
16.913	5.049	16266	23095	0	688
20.303	9.773	16266	25477	0	688
22.395	13.271	16264	24571	0	688
22.358	17.706	16257	21920	0	688
15.038	20.844	16253	18934	0	688
11.937	27.515	16247	17256	0	688
11.900	32.456	16244	16753	0	688
12.045	30.941	16239	15915	0	688
16.192	26.578	16236	15411	0	688
16.156	17.851	16234	15814	0	688
18.067	12.009	16230	15747	0	688
16.084	9.124	16227	15881	0	688
17.815	10.999	16226	16786	0	688
17.274	17.815	16224	17323	0	688
17.887	19.618	16224	18330	0	688
13.415	17.202	16226	20914	0	688
5.481	7.393	16230	24873	0	688
-3.931	-0.865	16238	30243	0	688
-7.609	-0.433	16244	32767	0	688
2.164	12.694	16247	32767	0	688
20.988	32.780	16247	32767	0	688
37.108	48.503	16245	32767	0	688
39.560	50.884	16245	30142	0	688
29.823	37.505	16245	28732	0	688
17.021	13.379	16243	28330	0	688
9.376	-7.970	16242	26518	0	688
14.100	-15.218	16237	22793	0	688
20.555	-9.773	16234	18967	0	688
25.460	8.835	16234	17726	0	688
21.168	25.893	16239	20645	0	688
14.894	34.043	16246	26216	0	688
9.917	29.463	16254	31350	0	688
10.963	15.074	16261	32767	0	688
15.254	-0.505	16270	32767	0	688
20.591	-4.580	16281	32767	0	688
23.801	5.626	16294	32767	0	688
27.840	27.624	16309	32767	0	688
31.158	51.100	16326	32767	0	688
36.134	61.053	16340	32767	0	688
34.223	52.290	16349	32767	0	688
27.227	30.905	16361	32767	0	688
15.795	12.081	16371	32767	0	688
9.484	1.767	16380	32767	0	688
8.294	1.911	16384	32767	0	688
9.809	3.498	16386	32767	0	688
9.989	2.849	16388	32767	0	688
8.114	0.757	16390	32767	0	688
2.957	0.793	16393	32767	0	688
0.216	4.003	16401	32256	0	688
-1.082	6.203	16410	32767	0	688
0.829	7.248	16418	32767	0	688
3.570	5.662	16427	32767	0	688
10.963	9.448	16434	32767	0	688
19.762	13.307	16445	32767	1	316
30.292	16.841	16454	32767	0	316
36.026	10.674	16460	32767	0	316
33.862	0.577	16467	31686	0	316
22.431	-3.318	16476	30712	0	316
6.419	0.108	16486	31451	0	316
-5.517	9.484	16496	32767	0	316
-6.708	22.250	16508	32767	0	316
3.210	29.751	16519	32767	0	316
16.877	34.403	16532	32767	0	316
28.020	35.882	16543	32767	0	316
28.597	35.737	16556	32767	0	316
21.024	29.210	16566	32767	0	316
10.855	17.634	16571	32767	0	316
0.252	2.524	16570	29370	0	316
-3.678	-11.071	16570	21417	0	316
-0.433	-23.080	16571	16150	0	316
7.104	-27.443	16574	13163	0	316
15.687	-17.526	16576	11116	0	316
22.395	7.393	16579	9270	0	316
25.352	31.662	16578	6116	0	316
25.568	44.609	16575	1049	0	316
27.371	37.721	16569	0	0	316
27.119	21.926	16563	0	0	316
25.027	14.821	16557	0	0	316
17.598	25.712	16550	0	0	316
11.323	41.543	16542	0	0	316
7.357	42.084	16531	0	0	316
9.376	24.306	16521	0	0	316
14.136	-2.705	16516	0	0	316
17.021	-17.923	16511	0	0	316
14.894	-12.730	16510	0	0	316
16.625	4.724	16510	0	0	316
20.627	21.313	16508	0	0	316
31.951	26.361	16506	0	0	316
39.235	21.781	16500	0	0	316
40.606	18.103	16494	0	0	316
36.711	17.923	16482	0	0	316
30.653	24.198	16472	0	0	316
26.181	29.354	16466	0	0	316
24.594	28.345	16462	0	0	316
20.087	21.132	16455	0	0	316
14.461	8.078	16450	0	0	316
6.744	-0.829	16439	0	0	316
3.642	-6.635	16429	0	0	316
6.888	-9.304	16418	0	0	316
17.634	-1.334	16408	0	0	316
30.941	12.910	16397	0	0	316
44.176	32.420	16388	0	0	316
52.867	49.189	16383	0	0	316
51.641	56.870	16378	0	0	316
46.700	55.391	16372	0	0	316
39.668	45.835	16367	0	0	316
29.282	35.846	16362	0	0	316
18.572	25.027	16359	1787	0	316
8.330	15.543	16358	6754	0	316
3.859	5.301	16362	13801	0	316
5.626	4.688	16367	21753	0	316
14.389	6.708	16375	29974	0	316
23.224	8.330	16384	32767	0	316
29.246	6.383	16393	32767	0	316
30.977	3.390	16405	32767	0	316
26.614	1.370	16418	32767	0	316
21.637	2.200	16429	32767	0	316
15.038	3.859	16441	32767	0	316
6.708	-0.252	16449	32767	0	316
4.183	-3.318	16455	32767	0	316
7.825	0.036	16463	32767	0	316
13.415	19.149	16468	32767	0	316
14.064	39.127	16471	32767	0	316
13.523	51.028	16474	32767	0	316
9.088	42.120	16478	32767	0	316
6.131	19.546	16483	32767	0	316
9.088	0.577	16489	32767	0	316
15.110	-1.442	16495	32767	0	316
19.041	8.402	16500	32767	0	316
20.808	21.168	16502	32767	0	316
19.149	21.024	16502	32767	0	316
20.808	17.202	16503	32767	0	316
22.719	10.855	16507	31048	1	316
26.361	13.018	16508	29035	0	316
27.227	16.625	16512	27357	0	316
21.132	19.473	16514	25410	0	316
8.943	16.120	16513	21686	0	316
-1.659	14.894	16510	16652	0	316
-4.364	14.028	16511	12727	0	316
-1.262	14.930	16511	10680	0	316
6.599	14.821	16508	8901	0	316
9.737	11.360	16505	5646	0	316
11.323	7.393	16498	713	0	316
12.838	9.629	16489	0	0	316
14.317	14.172	16476	0	0	316
17.310	20.411	16464	0	0	316
14.713	29.210	16449	0	0	316
11.792	33.682	16431	0	0	316
8.366	36.351	16412	0	0	316
8.150	33.393	16395	0	0	316
8.727	24.955	16382	0	0	316
5.337	9.556	16367	0	0	316
-2.777	-1.334	16350	0	0	316
-7.465	-5.770	16332	0	0	316
-7.104	1.370	16313	0	0	316
0.829	17.129	16298	0	0	316
9.520	31.951	16289	0	0	316
17.021	38.947	16283	0	0	316
17.995	35.846	16277	0	0	316
22.467	27.191	16273	0	0	316
27.335	24.162	16267	0	0	316
32.961	23.765	16259	0	0	316
32.889	28.777	16254	0	0	316
23.621	25.676	16248	0	0	316
9.052	12.009	16247	0	0	316
-3.462	-8.294	16248	7458	0	316
-8.439	-22.755	16255	17659	0	316
-7.645	-22.034	16263	28800	0	316
0.829	-6.527	16275	32767	0	316
10.963	14.605	16288	32767	0	316
22.539	32.672	16301	32767	0	316
26.397	36.062	16313	32767	0	316
20.952	30.617	16324	32767	0	316
9.773	22.250	16336	32767	0	316
3.318	18.752	16350	32767	0	316
8.222	24.198	16363	32767	0	316
20.303	31.554	16374	32767	0	316
28.381	33.069	16384	32767	0	316
24.702	32.276	16393	32767	0	316
15.182	29.102	16404	32767	0	316
13.054	27.191	16412	32767	0	316
19.978	25.532	16417	32767	0	316
30.472	21.493	16418	32767	0	316
33.285	9.232	16415	32767	0	316
21.637	-0.902	16414	32767	0	316
6.816	-2.669	16414	32767	0	316
-2.272	5.914	16416	32767	0	316
1.587	17.021	16421	32767	0	316
12.730	24.234	16425	32767	0	316
22.142	18.933	16431	32767	0	316
18.860	2.380	16431	30343	0	316
9.737	-16.480	16427	23128	0	316
0.938	-24.017	16418	13633	0	316
3.642	-9.773	16411	4908	0	316
16.156	24.991	16401	0	0	316
34.115	63.145	16387	0	0	316
41.616	81.248	16371	0	0	316
36.459	67.977	16354	0	0	316
24.522	37.216	16336	0	0	316
14.028	7.212	16320	0	0	316
15.867	-2.092	16305	0	0	316
23.837	4.796	16296	0	0	316
31.699	12.009	16289	0	0	316
29.787	10.927	16282	0	0	316
20.700	3.931	16272	0	0	316
10.891	5.950	16261	0	0	316
13.631	15.110	16252	0	0	316
22.070	26.614	16243	0	0	316
28.381	30.833	16235	0	0	316
27.155	22.286	16230	0	0	316
16.156	6.491	16226	0	0	316
9.701	-1.695	16218	0	1	316
12.766	-4.796	16209	0	0	316
22.863	-2.056	16201	0	0	316
32.023	-0.577	16195	0	0	316
29.499	-3.210	16192	0	0	316
15.579	-4.327	16190	143	0	316
1.479	4.904	16189	5747	0	316
-3.101	19.870	16187	10176	0	316
3.282	37.036	16189	15109	0	316
14.281	45.943	16194	22357	0	316
26.938	42.337	16199	30243	0	316
33.285	34.079	16206	32767	0	316
35.088	24.378	16212	32767	0	316
34.547	21.132	16216	32767	0	316
29.535	18.247	16223	32767	0	316
19.437	11.937	16234	32767	0	316
8.258	6.167	16248	32767	0	316
1.262	2.524	16267	32767	0	316
0.793	5.229	16284	32767	0	316
9.484	10.602	16298	32767	0	316
19.690	13.884	16309	32767	0	316
30.400	13.415	16321	32767	0	316
33.213	6.311	16336	32767	0	316
28.020	1.551	16351	32767	0	316
15.615	0.397	16367	32767	0	316
7.357	7.429	16382	32767	0	316
8.439	20.844	16392	32767	0	316
20.447	38.334	16404	32767	0	316
37.541	48.756	16414	32767	0	316
41.652	47.926	16421	32767	0	316
33.357	31.518	16425	32767	0	316
15.831	7.681	16424	32767	0	316
1.515	-9.809	16427	32767	0	316
-4.436	-17.418	16430	32767	0	316
-3.318	-10.350	16435	32767	0	316
3.967	1.983	16434	29068	0	316
12.946	15.795	16431	20779	0	316
26.181	24.883	16424	10780	0	316
39.416	27.155	16420	2593	0	316
46.232	22.178	16417	0	0	316
38.622	14.821	16414	0	0	316
22.503	7.212	16411	0	0	316
4.003	3.210	16407	0	0	316
-6.924	0.757	16404	0	0	316
-6.131	-2.056	16401	0	0	316
5.373	-2.308	16397	0	0	316
21.457	5.049	16394	0	0	316
38.875	18.500	16393	0	0	316
46.484	33.141	16395	0	0	316
44.753	38.118	16399	0	0	316
33.934	29.463	16407	0	0	316
22.106	15.254	16416	4069	0	316
15.362	5.085	16425	11116	0	316
15.579	5.626	16437	18128	0	316
14.749	15.471	16447	24236	0	316
13.884	27.083	16455	27826	0	316
10.458	33.285	16461	29202	0	316
11.684	31.302	16467	30209	0	316
19.762	23.152	16471	30175	0	316
27.732	15.687	16474	28732	0	316
34.115	14.172	16476	27357	0	316
34.692	22.899	16477	25545	0	316
30.328	34.547	16478	22860	0	316
24.919	38.731	16479	20612	0	316
21.024	31.410	16476	17659	0	316
17.851	16.985	16469	11619	0	316
16.733	1.911	16459	3566	0	316
13.054	-3.318	16451	0	0	316
7.104	-3.606	16446	0	0	316
6.744	-3.462	16445	0	0	316
5.698	-5.986	16445	0	0	316
9.665	-7.285	16443	0	0	316
14.461	0.902	16441	0	0	316
19.726	17.129	16444	915	0	316
18.356	37.865	16448	5076	0	316
21.493	48.503	16453	9975	0	316
26.253	47.458	16457	14170	0	316
33.646	33.574	16460	16351	0	316
40.209	17.382	16462	16887	0	316
39.344	8.907	16465	18196	1	316
32.203	8.042	16470	20981	0	316
17.166	13.091	16474	23565	0	316
7.176	16.913	16476	24068	0	316
2.596	19.365	16476	22994	0	316
3.498	16.625	16479	22793	0	316
5.914	8.222	16483	24169	0	316
5.554	-2.308	16487	26182	0	316
3.895	-10.206	16494	28330	0	316
1.983	-13.235	16497	29773	0	316
8.835	-3.246	16499	29102	0	316
16.841	7.717	16500	26652	0	316
21.024	13.018	16500	24907	0	316
19.870	15.579	16503	24739	0	316
12.333	14.605	16507	25243	0	316
4.003	19.113	16513	26249	0	316
2.921	26.542	16517	27592	0	316
12.405	31.626	16523	28867	0	316
25.893	31.771	16528	29907	0	316
33.213	27.191	16534	30947	0	316
34.115	25.784	16540	31988	0	316
28.273	26.830	16545	32558	0	316
24.378	26.974	16549	32055	0	316
23.044	22.683	16548	28732	0	316
24.811	15.867	16542	21786	0	316
24.234	14.641	16535	13968	0	316
22.250	16.913	16530	8431	0	316
16.444	25.568	16527	5378	0	316
18.536	29.282	16525	3599	0	316
18.716	27.587	16521	2693	0	316
16.589	20.087	16521	2525	0	316
10.819	10.278	16519	2257	0	316
5.337	5.626	16514	311	0	316
4.075	1.659	16508	0	0	316
3.859	-0.974	16504	0	0	316
4.039	-2.092	16501	0	0	316
3.462	-1.298	16499	0	0	316
4.111	3.246	16499	0	0	316
8.979	10.386	16498	0	0	316
17.274	14.172	16499	2324	0	316
25.929	19.293	16500	5244	0	316
30.148	19.618	16503	8431	0	316
30.004	25.568	16503	10780	0	316
27.984	32.925	16501	10747	0	316
26.181	38.695	16497	8566	0	316
22.683	38.009	16488	4874	0	316
20.988	30.364	16476	0	0	316
17.490	20.844	16466	0	0	316
18.680	17.923	16458	0	0	316
16.192	13.595	16445	0	0	316
14.425	13.054	16433	0	0	316
10.422	8.511	16421	0	0	316
5.770	4.760	16410	0	0	316
1.587	1.731	16401	0	0	316
-1.118	0.505	16388	0	0	316
0.793	-3.931	16373	0	0	316
0.685	-12.694	16355	0	0	316
7.176	-14.677	16333	0	0	316
13.054	-11.107	16312	0	0	316
19.221	4.616	16295	0	0	316
25.099	25.712	16280	0	0	316
26.830	37.613	16268	0	0	316
21.818	38.190	16257	0	0	316
15.831	31.230	16246	0	0	316
7.573	17.815	16232	0	0	316
5.626	13.415	16219	0	0	316
12.982	15.651	16209	0	0	316
24.811	22.611	16200	0	0	316
35.629	26.217	16195	0	0	316
37.757	26.542	16190	0	0	316
28.633	24.053	16189	2223	0	316
19.185	20.664	16191	11183	0	316
12.297	19.365	16193	20142	0	316
12.730	17.923	16199	28565	0	316
15.723	10.206	16207	32767	0	316
14.749	1.623	16216	32767	0	316
11.828	-3.931	16226	32767	0	316
6.491	-2.380	16236	32767	0	316
4.436	9.016	16247	32767	0	316
6.131	22.683	16256	32767	0	316
10.494	31.807	16266	32767	0	316
17.129	30.508	16277	32767	0	316
19.978	23.296	16285	32767	0	316
25.279	18.139	16292	32767	0	316
30.112	15.867	16297	32767	0	316
33.105	23.224	16298	32767	0	316
33.754	26.902	16299	32767	0	316
29.138	25.135	16299	32767	1	348
21.962	19.906	16293	32767	0	348
20.916	13.091	16285	32767	0	348
23.404	14.281	16277	31988	0	348
29.066	18.824	16272	24739	0	348
27.010	25.135	16271	21920	0	348
15.723	24.306	16273	22222	0	348
1.334	20.988	16274	22793	0	348
-4.147	19.365	16278	23330	0	348
2.380	16.480	16284	25041	0	348
13.992	16.769	16288	26249	0	348
24.630	13.271	16287	24504	0	348
20.952	6.239	16285	20679	0	348
7.970	-0.288	16284	17524	0	348
-6.239	-2.416	16281	15210	0	348
-8.511	0.974	16278	12458	0	348
0.649	4.400	16278	10680	0	348
17.851	8.078	16282	12257	0	348
27.768	4.940	16289	16719	0	348
27.299	0.541	16299	22457	0	348
17.526	1.515	16309	28162	0	348
7.573	10.891	16317	32189	0	348
4.219	21.745	16325	32767	0	348
4.327	27.515	16331	32767	0	348
5.914	20.772	16337	32767	0	348
5.914	8.042	16345	32767	0	348
8.583	3.210	16348	32767	0	348
14.245	14.136	16349	32659	0	348
25.965	29.138	16350	28498	0	348
34.800	39.019	16347	24404	0	348
37.721	32.420	16343	18699	0	348
31.013	16.733	16333	10915	0	348
19.329	4.039	16323	2358	0	348
9.016	-1.262	16310	0	0	348
1.082	-0.144	16297	0	0	348
-2.452	-2.849	16287	0	0	348
-2.596	-10.242	16278	0	0	348
-1.226	-16.372	16267	0	0	348
2.488	-16.552	16255	0	0	348
10.350	-3.823	16250	0	0	348
14.821	14.785	16249	0	0	348
21.277	32.528	16252	0	0	348
24.847	42.517	16254	0	0	348
29.968	43.274	16258	0	0	348
33.466	36.351	16264	4975	0	348
33.105	29.751	16269	11250	0	348
29.787	25.568	16279	19035	0	348
25.027	22.286	16290	27793	0	348
18.428	21.421	16300	32767	0	348
14.966	18.860	16311	32767	0	348
11.756	14.497	16324	32767	0	348
12.045	11.432	16336	32767	0	348
18.969	6.635	16350	32767	0	348
22.611	3.859	16361	32767	0	348
27.912	7.032	16374	32767	0	348
29.499	13.595	16387	32767	0	348
24.702	24.053	16404	32767	0	348
17.743	31.482	16419	32767	0	348
14.353	32.384	16429	32767	0	348
10.206	21.565	16434	32767	0	348
12.297	10.278	16434	32767	0	348
13.199	-3.029	16428	32767	0	348
8.222	-12.045	16420	32767	0	348
-5.626	-11.684	16409	21417	0	348
-18.788	-8.439	16394	8264	0	348
-21.601	3.859	16381	0	0	348
-12.261	17.166	16369	0	0	348
10.242	30.220	16358	0	0	348
28.705	34.079	16351	0	0	348
39.019	28.345	16349	0	0	348
37.108	16.949	16342	0	0	348
28.958	9.845	16335	0	0	348
16.552	6.491	16327	0	0	348
4.616	3.678	16319	0	0	348
-0.649	-3.210	16315	0	0	348
0.469	-9.773	16310	0	0	348
10.710	-8.583	16308	0	0	348
18.897	6.816	16306	0	0	348
18.175	29.391	16309	0	0	348
10.999	45.943	16310	0	0	348
2.452	43.815	16313	1452	0	348
4.724	30.508	16316	5881	0	348
16.048	12.009	16319	10042	0	348
25.604	2.200	16318	13163	0	348
25.460	0.216	16317	13801	0	348
9.484	4.111	16312	11888	0	348
-6.347	6.599	16306	9539	0	348
-15.507	3.173	16303	8834	0	348
-11.792	-5.157	16299	9170	0	348
-3.354	-11.648	16295	8935	0	348
3.318	-11.251	16293	9170	0	348
10.314	-2.272	16292	10378	0	348
14.208	8.330	16286	10244	0	348
16.949	14.389	16282	8633	0	348
20.483	15.146	16278	8431	0	348
17.851	9.737	16278	10344	0	348
15.290	6.996	16278	13096	0	348
12.946	6.816	16279	16116	0	348
16.552	9.773	16282	19337	0	348
15.398	15.651	16285	22592	0	348
14.136	21.313	16290	26417	0	348
8.186	21.313	16300	32122	0	348
5.914	15.903	16311	32767	0	348
4.904	7.248	16319	32767	0	348
4.544	2.705	16323	32767	0	348
2.633	10.097	16325	32767	0	348
1.983	19.005	16330	32767	0	348
7.753	26.181	16336	32767	0	348
20.447	19.654	16340	32767	0	348
37.036	7.862	16343	32767	0	348
41.580	-2.741	16345	32767	0	348
27.876	-2.849	16349	32767	0	348
3.534	2.416	16352	32767	0	348
-16.841	9.629	16355	32767	0	348
-19.546	12.153	16359	32767	0	348
-5.013	10.133	16364	32767	0	348
16.733	6.311	16367	32767	0	348
24.089	0.829	16370	32767	0	348
17.562	-6.203	16371	30175	0	348
2.633	-8.186	16374	27726	0	348
-4.327	-5.626	16381	28498	0	348
-2.488	6.094	16387	31316	0	348
4.472	19.978	16394	32767	0	348
5.878	21.204	16402	32767	0	348
-1.479	9.412	16412	32767	0	348
-7.681	-9.845	16423	32767	0	348
-5.229	-23.945	16438	32767	0	348
1.767	-17.346	16452	32767	0	348
6.419	-1.983	16467	32767	0	348
4.183	16.516	16483	32767	0	348
-2.993	20.303	16496	32767	0	348
-5.950	15.579	16505	32767	0	348
2.488	6.708	16511	32767	0	348
11.468	6.563	16514	32767	0	348
20.736	11.540	16520	32767	0	348
17.779	22.539	16525	32767	0	348
12.333	26.217	16534	32767	0	348
5.373	22.719	16540	32767	0	348
2.092	12.586	16545	32256	0	348
6.852	-1.659	16546	27088	0	348
12.946	-11.504	16545	21115	0	348
18.500	-9.809	16545	15546	0	348
16.552	-2.308	16546	11619	0	348
10.097	9.304	16548	9908	0	348
1.587	16.300	16552	9640	0	348
-2.236	12.477	16559	10210	0	348
1.442	3.787	16562	10445	0	348
9.052	-2.596	16562	8096	0	348
11.720	-2.885	16554	1787	0	348
9.629	2.344	16546	0	0	348
4.868	8.655	16536	0	0	348
2.092	12.189	16530	0	0	348
5.157	13.704	16525	0	0	348
10.963	15.867	16518	0	0	348
13.018	19.582	16512	0	0	348
10.278	20.231	16506	0	0	348
2.092	15.038	16498	0	0	348
-1.154	4.977	16485	0	0	348
2.128	1.442	16470	0	0	348
11.035	2.993	16458	0	0	348
18.824	9.196	16449	0	0	348
16.084	14.497	16443	0	0	348
9.989	10.638	16434	0	0	348
0.829	4.039	16424	0	0	348
-4.219	-2.488	16414	0	0	348
-2.741	-5.950	16410	0	0	348
-1.983	-7.104	16409	0	0	348
-0.902	-5.517	16410	0	0	348
-0.577	-1.046	16415	0	0	348
3.390	8.258	16419	5713	0	348
9.917	16.012	16422	11921	0	348
16.048	19.798	16420	14103	0	348
15.651	10.891	16416	14505	0	348
13.631	1.370	16414	15344	0	348
9.881	-3.606	16411	16384	0	348
8.006	0.505	16406	16384	0	348
10.494	12.694	16399	14505	0	348
12.009	24.811	16392	11955	0	348
12.405	30.364	16384	9707	0	348
13.271	26.073	16373	6015	0	348
14.677	13.559	16360	1015	0	348
17.959	2.813	16350	0	0	348
18.211	-3.498	16339	0	0	348
16.120	0.541	16333	0	0	348
14.894	10.674	16329	0	0	348
12.117	20.916	16323	1552	0	348
11.071	24.053	16315	1687	0	348
4.508	17.166	16306	76	0	348
-7.212	10.061	16301	244	0	348
-15.507	4.760	16300	4338	0	348
-18.608	5.445	16302	11082	0	348
-9.376	10.097	16302	16786	0	348
5.517	14.713	16301	19571	0	348
19.942	13.668	16301	21316	0	348
25.568	8.583	16302	23967	0	348
23.621	4.400	16302	26920	0	348
16.805	1.803	16303	29437	0	348
7.248	0.685	16305	31585	0	348
1.118	2.633	16307	32767	0	348
-2.092	4.472	16312	32767	0	348
-1.839	9.809	16318	32767	0	348
2.272	16.120	16323	32767	0	348
6.022	22.322	16329	32767	0	348
9.124	23.152	16338	32767	0	348
9.592	14.245	16349	32767	0	348
5.517	5.878	16363	32767	0	348
1.298	-1.046	16376	32767	0	348
-2.777	-1.442	16387	32767	0	348
-1.947	3.354	16395	32767	0	348
3.606	5.878	16400	32767	0	348
9.845	5.662	16400	32767	0	348
13.091	1.010	16396	32767	0	348
7.176	-3.859	16389	32767	1	848
-4.652	-5.554	16384	30075	0	848
-16.372	-4.291	16379	23128	0	848
-24.198	4.580	16375	18028	0	848
-17.346	17.238	16374	15109	0	848
-2.344	29.643	16372	13163	0	848
18.247	35.918	16372	11586	0	848
33.574	30.653	16374	11653	0	848
34.511	13.848	16374	11821	0	848
22.431	-6.996	16371	9606	0	848
3.210	-20.123	16370	7358	0	848
-10.494	-19.942	16373	8499	0	848
-11.432	-2.488	16380	12727	0	848
-3.101	20.808	16386	17390	0	848
6.671	37.577	16390	19840	0	848
11.107	37.829	16390	19236	0	848
7.429	25.604	16391	17592	0	848
1.298	8.511	16391	16384	0	848
-6.094	2.596	16393	15848	0	848
-6.780	6.203	16394	16384	0	848
-3.750	13.379	16395	16317	0	848
1.479	15.398	16390	13029	0	848
6.383	11.720	16384	7525	0	848
4.977	5.193	16381	3599	0	848
-0.144	6.275	16380	3465	0	848
-6.167	11.612	16381	5814	0	848
-7.825	19.870	16380	7089	0	848
-4.796	17.526	16376	5042	0	848
1.334	14.028	16367	344	0	848
6.239	7.645	16358	0	0	848
8.871	6.671	16350	0	0	848
10.350	13.848	16344	0	0	848
13.343	18.572	16340	0	0	848
13.271	22.755	16340	0	0	848
11.323	17.706	16337	0	0	848
8.619	13.740	16331	0	0	848
0.144	9.196	16324	0	0	848
-4.940	8.907	16315	0	0	848
-8.871	14.028	16304	0	0	848
-5.481	19.077	16294	0	0	848
0.000	27.227	16282	0	0	848
9.376	27.768	16275	0	0	848
17.490	25.352	16272	0	0	848
19.005	20.195	16271	0	0	848
17.418	12.802	16272	0	0	848
8.583	10.278	16278	6586	0	848
1.803	7.681	16286	16015	0	848
-1.983	6.671	16292	23565	0	848
-0.505	4.544	16296	27793	0	848
4.003	5.085	16300	30679	0	848
9.989	6.455	16303	32767	0	848
11.973	9.124	16304	32767	0	848
7.898	10.242	16305	32767	0	848
2.669	8.402	16305	32767	0	848
-2.380	5.698	16302	32088	0	848
-5.806	-0.829	16299	28665	0	848
-4.327	-4.760	16299	26920	0	848
0.938	-2.380	16302	28531	0	848
4.796	4.832	16303	30645	0	848
6.203	15.831	16303	29873	0	848
2.777	21.024	16301	27088	0	848
-0.144	20.700	16301	25444	0	848
-1.010	11.251	16300	24873	0	848
0.757	6.239	16298	23498	0	848
4.436	10.458	16298	22155	0	848
4.508	17.634	16297	21719	0	848
2.993	27.660	16296	20981	0	848
3.678	29.968	16296	20276	0	848
7.393	22.250	16296	20075	0	848
12.838	14.749	16292	18498	0	848
14.461	8.042	16289	15680	0	848
8.042	9.016	16288	14069	0	848
0.144	11.756	16287	13801	0	848
-5.481	12.333	16282	12525	0	848
-4.291	12.658	16276	9539	0	848
1.479	9.124	16271	6519	0	848
5.806	6.744	16269	5411	0	848
6.058	6.347	16266	5881	0	848
3.065	5.157	16261	5579	0	848
-3.173	8.294	16256	3700	0	848
-6.022	12.766	16248	1217	0	848
-6.563	18.392	16241	0	0	848
-2.777	23.368	16234	0	0	848
5.193	18.752	16224	0	0	848
12.369	11.504	16216	0	0	848
13.091	3.823	16209	0	0	848
7.537	0.721	16206	0	0	848
2.056	3.895	16204	0	0	848
3.318	9.989	16203	143	0	848
13.559	20.627	16199	1888	0	848
26.542	24.234	16196	3264	0	848
29.823	26.722	16192	4640	0	848
23.224	25.424	16189	5680	0	848
11.143	21.673	16185	6384	0	848
-0.397	13.704	16184	7895	0	848
-3.065	9.520	16185	11586	0	848
0.036	3.318	16189	16686	0	848
2.957	2.164	16189	20645	0	848
1.046	5.337	16192	23363	0	848
-3.714	11.864	16199	27860	0	848
-9.268	20.519	16212	32767	0	848
-11.179	20.123	16226	32767	0	848
-7.537	14.461	16242	32767	0	848
-0.325	2.200	16253	32767	0	848
7.104	-8.799	16262	32767	0	848
10.963	-12.405	16274	32767	0	848
16.589	-6.996	16291	32767	0	848
19.654	5.265	16309	32767	0	848
23.549	19.221	16324	32767	0	848
20.664	30.364	16336	32767	0	848
16.228	32.636	16349	32767	0	848
5.554	27.155	16361	32767	0	848
-3.318	18.860	16374	32767	0	848
-7.789	10.602	16389	32767	0	848
-4.724	9.124	16407	32767	1	456
3.101	11.900	16425	32767	0	456
9.845	10.278	16443	32767	0	456
15.471	6.744	16459	32767	0	456
13.956	5.806	16476	32767	0	456
14.821	13.487	16494	32767	0	456
20.375	27.443	16507	32767	0	456
27.371	38.154	16514	32767	0	456
31.662	36.206	16517	32767	0	456
25.460	22.322	16521	32767	0	456
10.963	6.599	16521	32767	0	456
-6.527	3.750	16523	28833	0	456
-14.497	7.465	16526	22692	0	456
-13.415	9.881	16525	16618	0	456
-6.960	3.246	16523	8599	0	456
2.308	-9.989	16521	1049	0	456
5.878	-14.858	16521	0	0	456
3.426	-4.616	16520	0	0	456
2.019	16.156	16517	0	0	456
-0.433	29.282	16515	0	0	456
-1.551	27.624	16511	0	0	456
-2.669	11.937	16509	0	0	456
-1.695	-3.173	16507	0	0	456
2.777	-3.823	16508	0	0	456
11.504	10.169	16514	0	0	456
21.132	28.417	16517	0	0	456
21.457	37.865	16521	0	0	456
14.317	32.636	16523	0	0	456
3.246	17.490	16524	0	0	456
-3.210	2.200	16525	0	0	456
-1.731	-1.587	16522	0	0	456
4.868	7.609	16521	0	0	456
10.061	23.945	16516	0	0	456
14.281	32.636	16510	0	0	456
14.461	30.761	16504	0	0	456
10.638	18.139	16504	0	0	456
4.977	4.472	16504	0	0	456
-3.137	-5.842	16500	0	0	456
-11.251	-10.133	16496	0	0	456
-16.480	-8.619	16490	0	0	456
-12.766	-3.750	16483	0	0	456
-4.436	4.652	16480	0	0	456
9.268	16.841	16479	0	0	456
21.241	29.787	16480	0	0	456
18.247	31.410	16484	2559	0	456
2.813	24.702	16488	8431	0	456
-11.864	12.982	16491	12626	0	456
-14.930	-0.252	16494	15344	0	456
1.190	-5.229	16498	18833	0	456
22.142	-1.154	16505	23800	0	456
36.423	11.035	16513	29169	0	456
32.312	22.935	16524	32767	0	456
19.329	33.249	16531	32767	0	456
7.032	36.964	16535	32767	0	456
2.019	31.915	16533	32767	0	456
1.767	22.611	16525	29941	0	456
4.436	13.343	16517	21384	0	456
8.511	8.727	16508	14338	0	456
15.290	9.989	16504	10780	0	456
22.142	19.041	16501	9908	0	456
26.433	23.188	16495	8197	0	456
24.955	21.168	16487	3834	0	456
16.264	8.907	16479	0	0	456
10.278	-6.275	16469	0	0	456
7.176	-15.795	16456	0	0	456
6.275	-11.756	16448	0	0	456
5.770	1.406	16440	0	0	456
4.724	16.552	16432	0	0	456
4.832	25.532	16427	0	0	456
12.946	26.938	16418	0	0	456
22.503	26.361	16407	0	0	456
27.083	22.250	16395	0	0	456
23.981	20.844	16384	0	0	456
9.196	18.933	16375	0	0	456
-2.669	15.867	16361	0	0	456
-4.616	18.031	16346	0	0	456
1.334	19.149	16330	0	0	456
17.346	22.647	16315	0	0	456
30.112	21.962	16299	0	0	456
33.934	20.555	16287	0	1	316
27.443	15.182	16277	0	0	316
19.005	12.225	16265	0	0	316
11.360	9.989	16255	0	0	316
12.802	10.927	16249	0	0	316
20.050	14.425	16246	0	0	316
21.349	13.884	16245	0	0	316
18.752	12.622	16250	6821	0	316
10.061	8.186	16251	16082	0	316
0.757	2.056	16254	22659	0	316
-5.121	-1.767	16258	28833	0	316
-7.357	-3.390	16268	32767	0	316
-4.291	3.065	16281	32767	0	316
3.823	11.720	16295	32767	0	316
17.129	24.811	16305	32767	0	316
26.361	28.922	16315	32767	0	316
28.417	25.243	16323	32767	0	316
24.270	17.634	16330	32767	0	316
18.572	11.828	16331	32767	0	316
19.978	18.536	16332	32767	0	316
22.863	28.345	16333	32767	0	316
23.332	35.918	16333	32767	0	316
19.762	36.423	16332	32767	0	316
13.415	31.158	16327	32767	0	316
15.362	26.506	16322	32767	0	316
21.457	26.073	16321	32424	0	316
28.164	22.611	16323	31988	0	316
26.470	20.267	16330	32767	0	316
16.192	16.805	16334	32767	0	316
5.481	14.136	16336	32767	0	316
1.334	12.586	16342	32767	0	316
4.544	11.792	16350	32767	0	316
8.583	6.203	16361	32767	0	316
6.852	0.793	16367	32767	0	316
-2.488	-2.380	16372	32767	0	316
-11.251	-2.633	16371	32767	0	316
-9.268	0.577	16369	30947	0	316
5.121	6.635	16368	26182	0	316
26.181	15.002	16368	22961	0	316
41.183	25.388	16370	21216	0	316
43.815	33.393	16375	21350	0	316
35.593	35.233	16378	22155	0	316
21.781	32.853	16383	22860	0	316
12.477	23.693	16390	25142	0	316
8.258	16.444	16399	28934	0	316
5.914	11.937	16405	30914	0	316
6.058	10.963	16408	29504	0	316
9.556	13.091	16410	26853	0	316
14.136	16.733	16410	24035	0	316
17.562	15.362	16407	19269	0	316
19.618	11.107	16403	12928	0	316
14.533	6.239	16399	7895	0	316
7.140	-0.793	16393	4338	0	316
0.721	-3.462	16387	0	0	316
-2.092	-1.479	16380	0	0	316
-1.587	0.325	16373	0	0	316
2.308	2.921	16366	0	0	316
6.816	5.626	16359	0	0	316
13.884	10.638	16354	0	0	316
20.555	17.382	16350	0	0	316
29.318	26.506	16344	0	0	316
33.502	31.807	16343	0	0	316
31.554	31.662	16338	0	0	316
23.152	23.296	16333	0	0	316
8.907	14.533	16327	0	0	316
-0.216	6.383	16322	0	0	316
-2.524	3.462	16317	0	0	316
-1.190	-0.577	16311	0	0	316
1.695	-3.210	16302	0	0	316
1.118	-1.442	16293	0	0	316
4.760	6.780	16283	0	0	316
10.566	21.818	16273	0	0	316
18.716	36.891	16264	0	0	316
26.866	40.750	16257	0	0	316
28.345	32.708	16254	0	0	316
24.486	19.221	16252	0	0	316
21.385	7.717	16253	0	0	316
15.326	4.003	16251	4405	0	316
13.631	6.131	16248	6754	0	316
10.891	11.792	16243	7995	0	316
13.812	14.281	16240	8901	0	316
15.723	13.343	16235	9539	0	316
16.841	12.730	16229	9740	0	316
17.634	13.271	16226	10277	0	316
15.723	15.362	16226	12895	0	316
17.923	21.818	16226	17155	0	316
16.372	25.460	16225	20276	0	316
14.100	20.267	16223	21350	0	316
10.422	13.091	16220	21551	0	316
9.773	3.823	16217	21316	0	316
17.779	0.577	16214	20712	0	316
27.912	3.859	16210	19941	0	316
36.351	13.956	16206	19102	0	316
37.649	28.345	16203	18967	0	316
29.931	40.822	16206	21618	0	316
19.077	46.628	16216	28665	0	316
14.497	42.409	16230	32767	0	316
14.894	28.958	16247	32767	0	316
21.854	15.038	16269	32767	0	316
29.463	6.167	16286	32767	0	316
32.780	10.602	16300	32767	0	316
26.794	16.841	16312	32767	0	316
17.779	22.899	16323	32767	0	316
11.900	19.870	16334	32767	0	316
11.792	16.661	16340	32767	0	316
15.759	11.684	16345	32767	0	316
13.379	8.799	16346	32767	1	424
3.354	8.475	16346	32767	0	424
-10.602	2.849	16343	32767	0	424
-17.959	-3.642	16340	32767	0	424
-7.970	-6.744	16336	28263	0	424
13.487	-0.685	16336	22961	0	424
30.400	15.723	16336	20175	0	424
34.944	34.043	16340	19236	0	424
24.775	41.832	16341	18833	0	424
8.619	38.586	16343	17055	0	424
4.183	24.486	16340	13398	0	424
10.927	16.372	16337	8868	0	424
18.067	18.680	16332	4136	0	424
21.998	26.109	16327	0	0	424
15.471	32.925	16320	0	0	424
12.297	31.194	16313	0	0	424
16.120	26.397	16305	0	0	424
28.886	20.303	16299	0	0	424
39.416	21.529	16296	0	0	424
41.832	24.883	16295	0	0	424
33.754	24.162	16296	0	0	424
20.195	22.972	16299	0	0	424
7.104	16.661	16299	0	0	424
1.695	8.655	16300	512	0	424
3.642	2.272	16305	4572	0	424
12.982	3.750	16315	12022	0	424
20.591	11.684	16322	19437	0	424
23.404	24.198	16330	24370	0	424
17.454	33.718	16338	28565	0	424
10.458	32.420	16349	32767	0	424
8.294	26.073	16361	32767	0	424
9.953	15.867	16371	32767	0	424
15.579	14.930	16382	32767	0	424
22.467	17.959	16393	32767	0	424
24.342	21.745	16406	32767	0	424
21.529	19.041	16420	32767	0	424
18.572	14.605	16434	32767	0	424
9.809	10.350	16445	32767	0	424
5.734	12.045	16454	32767	0	424
8.583	19.834	16459	32767	0	424
16.120	22.791	16461	32767	0	424
26.001	21.709	16464	32767	0	424
26.037	14.930	16467	32767	0	424
18.572	5.626	16472	32767	0	424
4.003	1.334	16478	32767	0	424
-5.842	-0.108	16481	32759	0	424
-5.085	-0.974	16480	27860	0	424
4.364	-0.829	16479	20947	0	424
14.894	5.517	16477	15210	0	424
19.618	16.769	16475	10848	0	424
15.507	31.735	16469	5512	0	424
10.097	38.045	16461	0	0	424
6.744	30.400	16451	0	0	424
6.491	13.631	16442	0	0	424
7.032	-2.128	16436	0	0	424
10.278	-5.049	16436	0	0	424
9.737	6.563	16438	0	0	424
9.412	18.680	16440	0	0	424
8.042	26.830	16446	0	0	424
7.321	23.621	16452	1116	0	424
9.016	18.788	16456	5780	0	424
12.189	11.973	16459	7525	0	424
18.031	8.402	16460	8096	0	424
18.031	3.534	16459	8532	0	424
17.057	3.137	16456	6989	0	424
13.956	8.150	16449	2962	0	424
13.487	21.673	16440	0	0	424
18.500	38.695	16432	0	0	424
17.887	44.501	16425	0	0	424
19.546	38.334	16426	0	0	424
16.156	21.781	16429	0	0	424
16.733	5.950	16437	6351	0	424
14.028	-1.731	16447	14908	0	424
11.864	-1.515	16458	23296	0	424
5.301	0.180	16468	29806	0	424
-0.108	4.111	16476	32767	0	424
1.010	9.520	16483	32767	0	424
8.330	19.221	16487	32767	0	424
16.552	21.529	16492	32767	0	424
16.949	20.267	16498	32767	0	424
10.566	11.107	16507	32767	0	424
8.006	10.458	16514	32767	0	424
10.783	18.969	16522	32767	0	424
16.336	35.882	16529	32767	0	424
24.775	44.392	16536	32767	0	424
27.119	38.370	16539	32767	0	424
24.883	22.863	16541	32767	0	424
21.168	10.710	16541	32767	0	424
18.031	12.874	16543	31014	0	424
9.088	23.116	16548	30310	0	424
5.301	29.968	16548	28565	0	424
8.150	27.515	16548	25108	0	424
20.123	16.985	16548	20914	0	424
30.004	10.350	16547	17222	0	424
32.203	10.278	16548	15546	0	424
20.988	16.841	16552	16116	0	424
5.662	17.346	16556	17189	0	424
-5.770	10.314	16556	16150	0	424
-5.301	3.065	16552	11888	0	424
-0.288	0.541	16548	7223	0	424
4.616	7.032	16545	4774	0	424
8.186	16.805	16544	2928	0	424
6.635	23.549	16538	244	0	424
3.101	19.978	16533	0	0	424
-0.505	12.333	16529	0	0	424
-1.983	4.868	16523	0	0	424
4.075	2.128	16517	0	0	424
12.550	7.140	16511	0	0	424
25.171	15.759	16505	0	0	424
29.535	24.125	16497	0	0	424
26.902	28.237	16491	0	0	424
23.729	28.453	16483	0	0	424
21.277	23.585	16472	0	0	424
25.279	21.349	16459	0	0	424
29.066	20.736	16449	0	0	424
28.525	17.382	16442	0	0	424
21.204	17.959	16433	0	0	424
11.864	14.425	16424	0	0	424
6.888	13.884	16414	0	0	424
7.104	11.432	16404	0	0	424
16.300	9.953	16394	0	0	424
18.356	7.825	16386	0	0	424
16.372	2.921	16376	0	0	424
8.330	0.469	16367	0	0	424
4.400	2.813	16359	0	0	424
7.465	11.143	16350	0	0	424
20.772	21.998	16340	0	0	424
26.866	33.069	16336	0	0	424
25.063	34.728	16336	0	0	424
15.290	26.433	16333	3163	0	424
4.364	15.471	16330	6687	0	424
0.865	4.255	16322	7358	0	424
3.426	-1.154	16316	7593	0	424
5.193	-2.092	16313	9942	0	424
8.583	-0.180	16316	15881	0	424
10.097	5.265	16321	23867	0	424
12.333	14.461	16324	30578	0	424
17.274	24.306	16327	32767	0	424
18.897	26.109	16328	32767	0	424
20.375	21.709	16331	32767	0	424
21.998	16.552	16331	32767	0	424
26.686	15.038	16332	32767	0	424
29.571	20.159	16332	32767	0	424
29.463	28.381	16331	32767	0	424
25.712	31.194	16330	32767	0	424
17.851	25.604	16330	32767	0	424
9.629	14.785	16325	32767	0	424
1.406	7.825	16319	30142	0	424
-1.695	3.426	16312	24605	0	424
-0.144	3.173	16305	19437	0	424
5.698	6.275	16299	16217	0	424
16.408	4.688	16293	14673	0	424
21.421	2.741	16288	13230	0	424
22.034	-2.092	16286	12458	0	424
18.644	-1.010	16283	12827	0	424
12.189	6.022	16278	12391	0	424
9.520	15.939	16274	10378	0	424
10.061	23.044	16268	8666	0	424
12.802	25.316	16268	9707	0	424
12.477	24.378	16271	14203	0	424
12.766	21.529	16274	19135	0	424
13.956	23.945	16277	22290	0	424
18.283	28.850	16282	25175	0	424
27.010	27.371	16285	28363	0	424
35.918	22.358	16288	29739	0	424
37.108	16.589	16286	28833	0	424
34.115	13.776	16284	26820	0	424
29.174	18.320	16280	23967	0	424
27.010	22.395	16276	20477	0	424
23.585	21.709	16270	16652	0	424
16.697	9.484	16265	13499	0	424
2.813	-2.849	16264	13062	0	424
-10.169	-11.468	16268	16351	0	424
-17.670	-9.196	16271	20410	0	424
-11.035	2.596	16271	21988	0	424
0.938	15.831	16271	21149	0	424
19.041	25.460	16269	19236	0	424
31.446	27.263	16265	17424	0	424
37.613	24.666	16266	17357	0	424
37.036	22.286	16268	18766	0	424
30.905	19.906	16266	19169	0	424
23.404	20.519	16265	17894	0	424
20.555	23.332	16261	16183	0	424
22.611	21.024	16257	14405	0	424
29.391	20.050	16254	12358	0	424
31.158	17.706	16249	10076	0	424
25.856	15.398	16245	8062	0	424
14.136	11.215	16241	6653	0	424
7.753	10.927	16236	5579	0	424
15.146	11.684	16232	4539	0	424
30.761	17.526	16228	3700	0	424
44.717	22.899	16225	3901	0	424
43.707	20.195	16225	6284	0	424
28.669	13.956	16230	10948	0	424
10.314	3.029	16236	16753	0	424
3.282	-2.921	16241	22457	0	424
4.940	-3.390	16249	27055	0	424
5.373	-2.993	16257	31451	0	424
0.036	-4.291	16265	32767	0	424
-9.016	-6.491	16270	32767	0	424
-9.881	-5.914	16275	32767	0	424
-1.334	2.164	16283	32767	0	424
20.808	12.514	16289	32767	0	424
35.846	19.906	16294	32767	0	424
39.560	23.765	16296	32767	0	424
30.508	19.654	16297	32767	0	424
19.005	17.815	16296	32767	0	424
14.966	17.562	16295	30276	0	424
18.464	21.637	16295	26887	1	832
28.237	25.784	16296	25444	0	832
30.292	23.188	16301	26216	0	832
23.945	18.644	16307	28397	0	832
15.579	11.576	16314	30679	0	832
12.586	9.448	16318	31081	0	832
16.048	10.206	16320	29236	0	832
17.418	8.042	16322	27189	0	832
13.704	2.128	16327	26887	0	832
2.236	-8.042	16331	27625	0	832
-2.524	-15.110	16335	27625	0	832
4.688	-10.458	16341	27961	0	832
21.421	3.065	16347	29102	0	832
32.564	17.562	16350	28699	0	832
30.689	24.234	16350	25880	0	832
15.471	20.555	16350	21954	0	832
-2.236	9.160	16349	18296	0	832
-7.068	-4.219	16350	16417	0	832
0.902	-9.376	16352	16049	0	832
17.959	-9.052	16350	14707	0	832
31.374	-2.560	16349	11754	0	832
37.541	8.042	16346	8163	0	832
33.321	19.113	16340	4438	0	832
22.214	29.354	16337	1384	0	832
14.245	32.672	16336	546	0	832
10.927	28.850	16336	1418	0	832
19.005	15.939	16334	1552	0	832
30.004	7.681	16330	344	0	832
35.485	1.515	16327	0	0	832
28.561	2.128	16324	0	0	832
13.379	3.750	16326	0	0	832
-1.803	4.580	16328	2928	0	832
-2.813	0.469	16332	7458	0	832
11.179	-1.226	16340	12727	0	832
25.748	-1.370	16347	18430	0	832
30.508	-0.180	16357	24135	0	832
21.096	0.938	16368	30477	0	832
4.003	0.180	16383	32767	0	832
-8.691	-1.551	16395	32767	0	832
-10.025	-2.993	16404	32767	0	832
-5.157	-1.911	16418	32767	0	832
1.983	0.902	16432	32767	0	832
1.803	3.137	16443	32767	0	832
3.642	3.354	16454	32767	0	832
10.314	3.859	16463	32767	0	832
22.322	4.436	16469	32767	0	832
32.456	10.710	16476	32767	0	832
35.557	15.254	16481	32767	0	832
28.958	16.084	16486	32767	0	832
19.726	15.182	16489	32767	0	832
11.071	9.520	16487	32767	0	832
11.504	8.907	16486	26920	0	832
12.802	9.845	16484	20612	0	832
12.586	11.360	16482	15780	0	832
12.694	9.881	16479	10747	0	832
8.871	6.960	16476	6116	0	832
5.914	2.993	16474	3163	0	832
5.662	0.036	16473	1586	0	832
13.271	1.767	16472	176	0	832
21.926	5.698	16467	0	0	832
27.660	10.278	16459	0	0	832
22.395	10.674	16452	0	0	832
7.068	7.789	16444	0	0	832
-7.248	-3.137	16437	0	0	832
-13.956	-14.894	16432	0	0	832
-10.169	-24.089	16432	0	0	832
-4.219	-24.017	16431	0	0	832
-1.551	-16.913	16432	0	0	832
-0.757	-5.301	16430	0	0	832
1.947	4.724	16431	0	0	832
8.943	12.586	16429	0	0	832
16.949	14.389	16426	0	0	832
15.435	13.704	16419	0	0	832
7.357	11.576	16412	0	0	832
-3.390	3.426	16404	0	0	832
-13.884	-6.708	16393	0	0	832
-16.480	-10.963	16383	0	0	832
-12.009	-8.366	16371	0	0	832
-7.285	2.128	16358	0	0	832
4.219	11.323	16346	0	1	316
16.408	10.566	16334	0	0	316
26.109	0.649	16328	0	0	316
25.893	-11.792	16322	0	0	316
14.785	-15.290	16317	0	0	316
0.288	-9.016	16318	0	0	316
-8.258	3.282	16323	0	0	316
-6.635	10.133	16326	9170	0	316
3.210	9.773	16329	15546	0	316
8.475	5.085	16330	18833	0	316
6.022	2.056	16327	20511	0	316
-3.462	4.003	16328	21988	0	316
-10.891	8.078	16330	24806	0	316
-13.415	8.042	16333	29068	0	316
-7.429	0.649	16340	32767	0	316
1.226	-11.937	16351	32767	0	316
11.792	-17.887	16365	32767	0	316
19.546	-15.543	16378	32767	0	316
24.089	-0.974	16391	32767	0	316
19.834	15.146	16407	32767	0	316
10.097	23.152	16420	32767	0	316
-0.649	14.497	16427	32767	0	316
-5.986	-0.577	16432	32767	0	316
-0.974	-13.595	16432	32767	0	316
9.448	-16.625	16431	32767	0	316
16.156	-5.950	16432	32767	0	316
13.415	6.275	16429	32767	0	316
1.154	13.992	16427	32767	0	316
-5.157	14.533	16421	29571	0	316
-1.226	11.937	16415	21686	0	316
9.629	4.580	16409	14572	0	316
19.149	-1.298	16404	9640	0	316
22.142	-6.852	16402	7626	0	316
14.569	-6.960	16403	7593	0	316
11.071	-0.541	16403	7928	0	316
11.035	7.357	16401	6687	0	316
13.559	12.117	16398	4371	0	316
14.966	9.953	16397	3499	0	316
9.448	1.695	16397	3767	0	316
1.551	-0.036	16392	2727	0	316
-0.649	-1.442	16389	546	0	316
-2.236	2.741	16387	0	0	316
0.252	2.092	16387	881	0	316
3.498	-3.534	16387	3062	0	316
5.734	-12.874	16387	4975	0	316
6.311	-18.933	16385	5244	0	316
9.629	-18.608	16382	3633	0	316
14.100	-9.773	16378	1821	0	316
20.519	3.678	16376	1653	0	316
21.385	12.405	16374	2727	0	316
21.132	13.307	16369	2693	0	316
12.910	9.448	16366	1552	0	316
7.104	0.757	16364	1854	0	316
2.705	-3.750	16362	3834	0	316
-0.252	-3.606	16361	5546	0	316
1.082	-3.318	16362	7391	0	316
3.210	-2.344	16362	9942	0	316
7.825	-0.613	16361	11452	0	316
16.949	-0.433	16358	11049	0	316
24.630	-0.577	16354	9539	0	316
25.532	-6.347	16347	7492	0	316
19.510	-8.114	16344	6015	0	316
13.884	-5.481	16344	7291	0	316
9.809	4.075	16348	12022	0	316
6.744	16.012	16353	17860	0	316
8.871	21.673	16361	23665	0	316
8.186	15.795	16371	30377	0	316
7.465	5.013	16379	32767	0	316
12.694	-2.092	16385	32767	0	316
20.952	0.036	16393	32767	0	316
27.119	5.878	16406	32767	0	316
31.410	9.701	16422	32767	0	316
27.371	5.121	16438	32767	0	316
20.555	-3.318	16450	32767	0	316
12.441	-6.455	16458	32767	0	316
11.107	-2.092	16462	32767	0	316
14.533	8.835	16461	32767	0	316
20.339	12.117	16459	32767	0	316
20.195	6.167	16459	32767	0	316
14.641	-5.806	16458	32767	1	316
3.065	-17.779	16459	29639	0	316
-1.262	-16.877	16458	25746	0	316
5.193	-6.780	16456	21216	0	316
17.706	3.498	16455	17155	0	316
29.354	9.665	16452	13868	0	316
30.112	7.717	16448	9405	0	316
20.303	3.354	16441	3364	0	316
12.622	4.327	16432	0	0	316
7.176	8.042	16424	0	0	316
4.616	10.494	16416	0	0	316
6.852	8.402	16410	0	0	316
7.717	-1.875	16402	0	0	316
10.674	-7.573	16393	0	0	316
18.716	-4.868	16385	0	0	316
27.551	1.731	16380	0	0	316
32.961	10.025	16375	0	0	316
28.020	9.881	16367	0	0	316
13.776	2.272	16359	0	0	316
-0.252	-3.750	16356	0	0	316
-9.412	-3.750	16351	0	0	316
-8.150	0.252	16345	0	0	316
2.019	3.462	16341	0	0	316
9.412	1.082	16338	0	0	316
9.701	-4.940	16336	0	0	316
4.616	-8.511	16333	0	0	316
0.180	-6.671	16327	0	0	316
1.442	-0.325	16322	0	0	316
7.393	3.606	16317	0	0	316
14.497	2.416	16316	2425	0	316
19.293	-4.147	16315	6485	0	316
17.418	-12.261	16313	9371	0	316
12.261	-21.457	16310	10579	0	316
5.770	-22.719	16305	11116	0	316
1.298	-17.562	16301	11049	0	316
-1.190	-4.364	16296	10546	0	316
-1.947	14.533	16290	9975	0	316
1.875	29.174	16285	9539	0	316
9.016	34.079	16279	9036	0	316
16.841	29.102	16274	9136	0	316
22.863	17.815	16274	11317	0	316
21.854	7.357	16274	15109	0	316
12.045	3.210	16272	17994	0	316
6.599	2.488	16271	19269	0	316
6.996	3.534	16271	19739	0	316
13.415	0.361	16267	19840	0	316
18.464	-5.085	16264	19639	0	316
16.516	-10.819	16261	19337	0	316
4.327	-8.366	16257	18900	0	316
-8.222	-2.705	16254	18397	0	316
-14.749	1.623	16250	17826	0	316
-13.163	1.190	16247	17290	0	316
-9.629	-8.402	16245	17592	0	316
-8.475	-21.024	16251	21014	0	316
-9.592	-26.433	16261	29001	0	316
-11.540	-23.873	16275	32767	0	316
-10.206	-15.326	16289	32767	0	316
-4.111	-6.167	16300	32767	0	316
1.082	-0.072	16309	32767	0	316
1.082	-0.433	16316	32767	0	316
-0.505	-5.626	16321	32767	0	316
0.216	-8.330	16325	32767	0	316
5.878	-5.950	16327	32767	0	316
10.314	3.390	16327	32767	0	316
10.746	15.362	16328	32767	0	316
5.049	21.024	16327	32767	0	316
-3.246	16.192	16327	32767	0	316
-6.563	0.757	16330	31316	0	316
-2.957	-12.802	16333	31384	0	316
6.203	-20.231	16340	32558	0	316
9.773	-17.923	16346	32767	0	316
5.698	-13.595	16350	32767	0	316
-2.344	-11.864	16353	31216	0	316
-8.583	-13.740	16352	27826	0	316
-8.475	-20.916	16352	23934	0	316
-4.327	-22.683	16349	19706	0	316
0.974	-20.772	16348	16049	0	316
-1.515	-15.795	16349	14505	0	316
-6.239	-5.373	16350	14673	0	316
-6.816	2.957	16351	14069	0	316
-3.859	8.547	16351	12593	0	316
-1.334	8.799	16354	12727	0	316
-4.904	4.111	16359	14572	0	316
-11.287	-0.036	16361	15546	0	316
-16.985	-3.859	16361	14572	0	316
-12.081	-5.986	16360	12626	0	316
-2.488	-4.147	16361	11116	0	316
5.229	-5.554	16362	11586	0	316
4.075	-7.825	16365	13297	0	316
-4.039	-9.737	16366	13868	0	316
-7.573	-12.117	16368	13532	0	316
-4.508	-10.891	16374	15244	0	316
3.750	-7.393	16384	20746	0	316
9.016	-0.505	16397	29102	0	316
6.671	10.783	16414	32767	0	316
-1.010	19.654	16428	32767	0	316
-2.705	25.640	16436	32767	0	316
1.298	20.808	16442	32767	0	316
7.357	10.169	16445	32767	0	316
8.006	-3.210	16444	32767	0	316
3.173	-11.973	16441	29404	0	316
-7.104	-9.881	16439	23229	0	316
-16.841	-7.681	16439	19571	0	316
-16.697	-8.691	16445	20142	0	316
-13.956	-12.766	16453	23397	0	316
-6.239	-16.264	16459	25679	0	316
-0.216	-6.239	16462	24739	0	316
3.390	9.448	16463	21988	0	316
1.298	19.546	16466	20209	0	316
-3.101	12.694	16469	19739	0	316
-6.635	-8.402	16473	19672	0	316
-9.665	-25.784	16478	19941	0	316
-12.081	-26.109	16483	20645	0	316
-15.615	-8.799	16486	20746	0	316
-23.585	9.701	16486	18598	0	316
-24.198	14.389	16483	14203	0	316
-16.228	4.904	16477	8700	0	316
-4.472	-5.698	16469	2593	0	316
10.891	-6.708	16460	0	0	316
15.074	0.361	16451	0	0	316
7.645	8.330	16438	0	0	316
-3.173	9.845	16427	0	0	316
-11.107	4.400	16418	0	0	316
-11.756	-0.865	16410	0	0	316
-6.311	-3.210	16404	0	0	316
-0.757	-4.400	16399	0	0	316
2.488	-7.393	16396	0	0	316
2.596	-10.386	16391	0	0	316
-0.685	-14.425	16390	0	0	316
-5.626	-9.665	16388	0	0	316
-11.071	0.829	16385	0	0	316
-11.684	12.189	16381	0	0	316
-7.248	19.834	16375	0	0	316
0.793	18.247	16369	0	0	316
7.789	5.337	16363	0	0	316
8.511	-9.196	16354	0	0	316
1.803	-16.300	16346	0	0	316
-3.750	-7.862	16339	0	0	316
-4.327	8.475	16331	0	0	316
-1.659	23.585	16322	0	0	316
2.849	25.820	16316	0	0	316
3.246	10.891	16315	0	0	316
2.164	-10.350	16313	1720	0	316
2.596	-21.096	16311	5814	0	316
7.970	-17.815	16308	8398	0	316
10.638	-0.865	16307	11015	0	316
8.366	14.821	16309	15210	0	316
-0.938	23.296	16313	20947	0	316
-9.340	16.697	16319	27424	0	316
-9.412	6.744	16325	32767	0	316
2.885	1.154	16329	32767	0	316
11.900	1.803	16332	32767	0	316
15.831	5.698	16331	32767	0	316
8.078	7.609	16331	32767	0	316
-0.829	4.183	16328	32767	0	316
-4.832	-3.065	16329	32767	0	316
-0.865	-7.753	16330	32767	0	316
5.121	-8.763	16332	32767	0	316
6.599	-5.554	16333	32767	0	316
6.455	-3.787	16333	32767	0	316
3.246	-2.921	16339	32767	0	316
1.298	-5.986	16343	32767	0	316
-0.252	-7.645	16348	32767	0	316
2.128	-5.698	16353	32767	0	316
6.816	0.108	16361	32767	0	316
11.864	9.520	16371	32767	0	316
13.812	15.471	16384	32767	0	316
5.914	17.959	16397	32767	0	316
-5.085	12.009	16410	32767	0	316
-6.996	6.383	16424	32767	0	316
0.865	0.577	16439	32767	0	316
14.785	3.210	16455	32767	0	316
20.916	14.821	16469	32767	0	316
16.877	25.604	16477	32767	0	316
2.777	31.699	16482	32767	0	316
-8.727	25.784	16483	32767	0	316
-14.858	12.910	16482	32767	0	316
-13.559	-1.010	16481	32767	1	708
-10.206	-8.150	16483	31652	0	708
-1.551	-7.357	16483	27222	0	708
8.619	-7.140	16485	23531	0	708
14.533	-6.527	16487	20477	0	708
14.858	-2.777	16488	17256	0	708
7.068	2.308	16487	13129	0	708
-0.288	11.287	16488	9874	0	708
-0.252	16.841	16492	9572	0	708
2.741	15.903	16494	9942	0	708
4.977	7.321	16494	7727	0	708
0.433	-0.036	16489	2827	0	708
-7.862	-0.361	16482	0	0	708
-12.946	7.357	16473	0	0	708
-8.619	20.339	16463	0	0	708
1.623	25.099	16452	0	0	708
12.586	27.299	16438	0	0	708
16.589	23.981	16425	0	0	708
15.002	19.113	16411	0	0	708
8.258	15.507	16398	0	0	708
-1.479	11.323	16384	0	0	708
-6.527	4.219	16369	0	0	708
-4.868	1.983	16356	0	0	708
2.092	6.527	16341	0	0	708
12.694	14.713	16328	0	0	708
18.067	24.594	16316	0	0	708
17.995	22.286	16305	0	0	708
12.189	16.625	16299	0	0	708
9.917	7.321	16293	0	0	708
8.907	0.108	16288	0	0	708
4.832	0.613	16283	0	0	708
-0.902	-1.118	16277	0	0	708
-8.871	-2.272	16272	0	0	708
