neuroNicle FX2
D3F25R12
Bluetooth SPP
2023년 6월 12일 월요일
오후 3:23
time interval = 4msec
EEG1	EEG2	PPG	sdPPG	pulse	peak_interval(msec)
20.555	37.144	16380	13706	0	1144
24.558	34.656	16380	15581	0	1144
22.899	31.987	16380	17009	0	1144
22.106	30.725	16380	18348	0	1144
20.375	29.499	16380	19687	0	1144
16.949	29.463	16381	21205	0	1144
16.192	29.463	16381	22634	0	1144
16.516	29.427	16381	23973	0	1144
17.995	27.407	16381	24955	0	1144
17.815	27.479	16381	25401	0	1144
19.870	26.037	16381	25669	0	1144
19.906	25.893	16381	25848	0	1144
23.224	27.768	16382	25848	0	1144
25.171	32.708	16382	25848	0	1144
24.991	34.367	16382	25669	0	1144
25.712	38.911	16382	25491	0	1144
23.729	38.731	16382	25223	0	1144
23.080	37.505	16382	24955	0	1144
25.532	34.800	16382	24776	0	1144
27.948	32.744	16382	24509	0	1144
30.076	31.554	16382	24151	0	1144
30.436	32.816	16382	23616	0	1144
27.191	33.718	16382	22812	0	1144
25.063	34.944	16382	21919	0	1144
19.293	34.367	16382	20937	0	1144
17.743	33.393	16382	20134	0	1144
15.975	31.843	16382	19419	0	1144
17.057	30.653	16382	18884	0	1144
17.202	29.751	16382	18526	0	1144
19.329	31.446	16382	18348	0	1144
18.392	31.987	16382	18169	0	1144
17.995	32.925	16382	17812	0	1144
17.562	33.682	16383	17455	0	1144
17.670	31.951	16382	17276	0	1144
19.942	33.249	16382	17187	0	1144
19.077	34.439	16382	17098	0	1144
17.598	34.583	16382	17009	0	1144
15.182	33.862	16382	16830	0	1144
14.136	31.807	16382	16741	0	1144
13.812	29.282	16382	16651	0	1144
11.720	27.768	16382	16651	0	1144
11.071	26.614	16382	16651	0	1144
9.484	25.712	16382	16562	0	1144
8.799	24.558	16383	16562	0	1144
10.927	23.224	16383	16473	0	1144
15.362	24.017	16383	16384	0	1144
15.795	22.972	16383	16384	0	1144
16.733	22.431	16383	16384	0	1144
13.631	24.198	16383	16384	0	1144
11.973	23.476	16383	16384	0	1144
11.973	24.198	16383	16295	0	1144
12.009	25.784	16382	15938	0	1144
17.995	26.217	16382	15402	0	1144
19.978	27.010	16382	14867	0	1144
23.621	29.643	16382	14420	0	1144
22.286	30.112	16382	14242	0	1144
19.942	29.318	16382	14242	0	1144
15.038	26.181	16382	14152	0	1144
14.533	23.765	16382	13974	0	1144
12.802	22.863	16382	13884	0	1144
15.182	21.493	16382	14152	0	1144
13.740	21.277	16382	14599	0	1144
9.232	20.411	16382	15313	0	1144
5.265	15.615	16382	16027	0	1144
3.318	15.182	16382	16651	0	1144
7.862	15.471	16382	17187	0	1144
12.117	19.618	16382	17544	0	1144
17.923	22.358	16383	17901	0	1144
18.067	25.496	16383	18259	0	1144
17.057	26.614	16383	18526	0	1144
12.009	24.342	16383	18526	0	1144
9.701	22.647	16383	18526	0	1144
10.206	20.339	16383	18348	0	1144
13.631	17.562	16383	18169	0	1144
14.245	19.077	16383	18169	0	1144
16.084	19.942	16383	18259	0	1144
13.776	24.775	16383	18080	0	1144
15.218	26.217	16383	17723	0	1144
17.526	28.777	16383	17544	0	1144
23.404	28.777	16383	17366	0	1144
25.027	28.886	16384	17276	0	1144
24.053	28.922	16384	17187	0	1144
24.775	29.823	16384	17098	0	1144
23.188	29.751	16384	17098	0	1144
24.702	28.201	16384	17098	0	1144
27.984	27.335	16384	16919	0	1144
26.866	26.433	16384	16741	0	1144
27.443	25.893	16384	16651	0	1144
24.414	25.568	16384	16473	0	1144
21.204	25.099	16384	16206	0	1144
14.533	23.404	16384	15938	0	1144
11.720	19.726	16384	15670	0	1144
10.350	18.969	16384	15402	0	1144
12.261	19.510	16384	15224	0	1144
15.218	21.890	16384	15045	0	1144
14.966	24.450	16383	14956	0	1144
15.903	24.883	16383	14777	0	1144
16.012	24.270	16383	14599	0	1144
15.218	25.784	16383	14331	0	1144
18.139	24.991	16383	13884	0	1144
17.815	26.974	16382	13349	0	1144
18.716	27.768	16382	12902	0	1144
18.933	27.335	16382	12634	0	1144
20.195	26.578	16382	12456	0	1144
24.919	29.787	16382	12545	0	1144
24.991	32.348	16382	12813	0	1144
23.837	34.043	16382	12992	0	1144
22.972	33.321	16382	13170	0	1144
17.743	33.141	16381	13349	0	1144
17.202	31.662	16381	13617	0	1144
17.923	32.636	16381	13884	0	1144
21.204	36.567	16381	14152	0	1144
20.772	39.776	16381	14509	0	1144
19.582	40.137	16381	14777	0	1144
19.942	38.082	16381	15313	0	1144
17.598	34.872	16381	16027	0	1144
18.283	31.194	16381	16919	0	1144
15.218	28.525	16382	17812	0	1144
8.114	24.378	16382	18616	0	1144
3.390	19.510	16382	19330	0	1144
0.144	17.382	16382	20044	0	1144
1.226	14.641	16383	20669	0	1144
6.599	17.129	16383	21116	0	1144
8.943	18.211	16383	21473	0	1144
10.133	20.375	16383	21651	0	1144
10.422	17.670	16384	21741	0	1144
10.530	16.228	16384	21830	0	1144
11.323	13.307	16384	21830	0	1144
11.287	12.189	16384	21562	0	1144
15.543	13.127	16384	21026	0	1144
16.444	13.920	16384	20401	0	1144
20.375	18.283	16384	19598	0	1144
20.880	19.654	16384	18884	0	1144
20.159	22.395	16384	18437	0	1144
20.700	24.450	16384	18348	0	1144
22.034	24.594	16384	18437	0	1144
25.532	22.214	16384	18437	0	1144
26.722	19.221	16384	18437	0	1144
24.486	15.903	16384	18437	0	1144
21.745	15.975	16384	18526	0	1144
19.185	16.192	16384	18437	0	1144
18.969	18.139	16384	18348	0	1144
23.693	20.050	16385	18259	0	1144
23.945	22.611	16385	18080	0	1144
23.729	22.142	16385	17723	0	1144
21.673	22.431	16385	17366	0	1144
14.894	19.005	16386	18616	0	1144
12.405	15.867	16389	25044	0	1144
10.206	12.225	16392	32767	0	1144
8.907	14.281	16395	32767	0	1144
11.432	16.769	16396	32767	0	1144
14.281	20.303	16398	32767	0	1144
13.487	19.690	16400	32767	0	1144
15.579	18.320	16400	32767	0	1144
15.146	13.848	16401	32767	0	1144
15.507	13.668	16402	32767	0	1144
18.680	14.677	16401	32767	1	756
16.589	19.654	16401	28616	0	756
16.516	20.087	16401	24062	0	756
9.232	20.736	16401	19598	0	756
6.203	16.552	16400	15402	0	756
5.265	16.877	16399	11117	0	756
6.239	15.723	16398	6831	0	756
6.094	18.500	16397	2813	0	756
6.563	19.437	16396	0	0	756
6.599	21.385	16395	0	0	756
7.970	21.637	16394	0	0	756
11.828	22.250	16392	0	0	756
14.028	23.152	16392	0	0	756
17.310	22.683	16390	0	0	756
15.687	24.919	16390	0	0	756
15.326	27.155	16392	0	0	756
14.605	27.624	16394	7188	0	756
12.910	27.227	16396	15492	0	756
11.360	26.902	16397	19330	0	756
11.540	25.027	16397	21116	0	756
13.559	25.207	16398	21741	0	756
16.336	26.614	16398	21294	0	756
16.913	28.453	16397	19955	0	756
17.129	28.345	16398	18080	0	756
13.848	28.128	16397	15849	0	756
12.622	28.309	16396	13259	0	756
12.766	27.407	16395	10581	0	756
14.533	29.102	16394	7813	0	756
18.500	31.662	16393	5134	0	756
19.257	33.538	16392	2902	0	756
22.358	34.800	16391	1027	0	756
24.666	34.439	16390	0	0	756
26.433	34.475	16389	0	0	756
27.876	35.665	16388	0	0	756
27.696	37.613	16387	0	0	756
27.587	39.704	16386	0	0	756
28.597	42.265	16385	0	0	756
33.502	44.717	16384	0	0	756
39.560	45.907	16384	0	0	756
45.005	48.143	16383	0	0	756
46.845	49.261	16382	0	0	756
46.195	48.684	16382	492	0	756
42.914	50.884	16381	2099	0	756
42.157	50.270	16381	3706	0	756
46.268	53.552	16380	5402	0	756
50.667	56.870	16379	7009	0	756
54.814	61.450	16379	8617	0	756
56.834	65.056	16379	10224	0	756
62.676	68.770	16379	11831	0	756
68.734	73.098	16378	13259	0	756
78.291	77.245	16378	14599	0	756
89.001	84.025	16377	15759	0	756
95.240	87.054	16378	16830	0	756
101.442	94.194	16377	17812	0	756
112.550	98.810	16377	18884	0	756
121.781	105.445	16377	20044	0	756
131.843	110.169	16377	21205	0	756
136.531	113.595	16377	22366	0	756
137.396	112.297	16377	23259	0	756
137.865	111.828	16377	23884	0	756
138.118	110.674	16377	24330	0	756
135.016	110.999	16377	24687	0	756
130.256	108.943	16377	24776	0	756
118.752	106.852	16377	24866	0	756
109.196	102.380	16377	25044	0	756
100.397	95.997	16378	25401	0	756
92.355	91.345	16377	25669	0	756
82.979	84.025	16377	25669	0	756
72.088	76.488	16378	25491	0	756
58.997	66.066	16378	25134	0	756
46.881	50.884	16378	24866	0	756
39.308	39.560	16378	24509	0	756
30.040	25.424	16379	24241	0	756
17.887	15.543	16378	23973	0	756
5.986	7.934	16378	23794	0	756
-6.203	-0.829	16378	23348	0	756
-17.851	-8.294	16379	22812	0	756
-25.027	-12.117	16379	22544	0	756
-32.384	-16.769	16379	22455	0	756
-39.091	-17.959	16379	22366	0	756
-43.960	-21.529	16379	22098	0	756
-46.304	-24.594	16379	21741	0	756
-46.772	-29.931	16379	21205	0	756
-48.900	-32.708	16379	20580	0	756
-50.487	-34.908	16379	19866	0	756
-54.959	-36.026	16379	19151	0	756
-56.834	-37.360	16379	18705	0	756
-58.565	-41.291	16379	18437	0	756
-61.233	-44.248	16379	18080	0	756
-60.007	-44.645	16380	17723	0	756
-61.161	-41.868	16379	17544	0	756
-61.991	-35.701	16379	17366	0	756
-61.089	-31.554	16379	17098	0	756
-60.584	-31.771	16379	16830	0	756
-61.342	-33.610	16380	16651	0	756
-60.548	-35.557	16380	16562	0	756
-58.060	-36.387	16380	16562	0	756
-56.798	-34.079	16380	16562	0	756
-53.732	-32.456	16380	16741	0	756
-49.549	-30.112	16381	17009	0	756
-47.746	-28.345	16381	17009	0	756
-47.710	-27.047	16381	17009	0	756
-46.015	-26.253	16381	16919	0	756
-45.114	-25.171	16381	16919	0	756
-43.383	-24.775	16381	16651	0	756
-40.101	-22.719	16381	16295	0	756
-36.423	-20.988	16381	15849	0	756
-30.905	-15.543	16381	15313	0	756
-28.597	-11.937	16380	14956	0	756
-25.460	-10.819	16380	14867	0	756
-23.080	-8.186	16380	14777	0	756
-20.555	-6.094	16381	14688	0	756
-17.418	-2.344	16381	14688	0	756
-10.314	6.816	16381	14867	0	756
-5.590	16.084	16380	14956	0	756
-1.731	17.779	16380	15045	0	756
-0.974	18.464	16380	15313	0	756
-2.596	13.307	16381	15759	0	756
-7.970	9.665	16381	16295	0	756
-12.730	7.321	16381	16562	0	756
-13.054	5.049	16381	16830	0	756
-11.900	5.734	16381	17009	0	756
-8.727	5.229	16381	17276	0	756
-5.373	8.583	16382	17544	0	756
-5.554	12.874	16382	17812	0	756
-4.075	14.533	16382	18080	0	756
-3.137	17.526	16382	18348	0	756
1.731	15.398	16382	18526	0	756
5.986	14.281	16382	18616	0	756
8.511	13.812	16382	18526	0	756
7.645	10.602	16382	18169	0	756
3.101	10.999	16382	17723	0	756
-0.216	12.189	16382	17366	0	756
-0.288	12.766	16382	17187	0	756
2.741	17.815	16382	16919	0	756
6.852	17.526	16383	16741	0	756
8.006	18.031	16383	16384	0	756
6.203	14.389	16383	16117	0	756
3.282	12.946	16382	15670	0	756
1.479	10.530	16382	15313	0	756
-0.325	8.583	16382	14956	0	756
0.072	6.491	16382	14688	0	756
1.154	4.868	16382	14509	0	756
2.705	3.282	16382	14331	0	756
3.065	3.390	16382	14152	0	756
1.262	3.606	16382	13974	0	756
-1.911	4.544	16382	14152	0	756
-4.796	2.380	16382	14420	0	756
-4.688	1.767	16382	14956	0	756
-2.596	0.361	16382	15313	0	756
1.262	0.721	16382	15670	0	756
3.678	1.587	16382	16027	0	756
3.967	4.327	16382	16206	0	756
0.541	4.760	16382	16295	0	756
-4.436	4.904	16382	16384	0	756
-6.167	3.606	16382	16473	0	756
-4.039	3.426	16382	16651	0	756
1.010	5.229	16383	16919	0	756
8.619	6.311	16383	17366	0	756
11.107	8.078	16383	17723	0	756
10.710	6.455	16383	17812	0	756
9.953	3.318	16383	17723	0	756
8.222	1.479	16383	17723	0	756
5.806	0.577	16383	17812	0	756
5.085	2.741	16383	17812	0	756
5.734	8.258	16383	17634	0	756
7.104	11.648	16383	17455	0	756
12.477	14.785	16383	17276	0	756
13.559	14.497	16383	17187	0	756
12.982	11.396	16383	17098	0	756
9.412	10.566	16383	17098	0	756
5.770	10.566	16383	16919	0	756
7.970	10.133	16383	16651	0	756
9.448	12.261	16383	16562	0	756
14.894	12.622	16384	16473	0	756
14.100	10.999	16384	16473	0	756
14.208	11.756	16384	16473	0	756
13.668	12.910	16384	16384	0	756
14.425	11.396	16384	16206	0	756
16.805	12.550	16384	16117	0	756
15.435	11.684	16384	16027	0	756
12.946	9.845	16384	16206	0	756
9.953	8.583	16384	16295	0	756
9.520	12.694	16384	16295	0	756
15.326	17.202	16384	16206	0	756
21.457	24.125	16384	16206	0	756
26.433	27.191	16384	16295	0	756
27.299	25.568	16384	16384	0	756
20.988	23.368	16384	16473	0	756
17.382	18.356	16384	16562	0	756
13.740	17.923	16384	16651	0	756
16.084	20.519	16384	16562	0	756
17.670	18.788	16384	16562	0	756
20.159	19.942	16384	16384	0	756
18.211	18.356	16384	16206	0	756
19.293	20.411	16384	16027	0	756
19.473	22.286	16384	16027	0	756
21.637	26.686	16384	16206	0	756
21.745	28.525	16384	16384	0	756
18.428	28.597	16384	16473	0	756
16.336	26.253	16384	16651	0	756
15.471	24.125	16384	16830	0	756
15.867	25.712	16384	16919	0	756
15.687	25.243	16384	17009	0	756
14.605	25.207	16384	17009	0	756
14.569	25.568	16384	17009	0	756
16.048	25.496	16384	16741	0	756
19.978	24.234	16384	16473	0	756
20.159	22.431	16384	16295	0	756
16.697	23.404	16384	16206	0	756
10.710	21.529	16384	16117	0	756
7.970	23.693	16384	16117	0	756
12.802	26.073	16384	16117	0	756
15.615	26.614	16384	16206	0	756
17.526	24.053	16384	16206	0	756
12.081	20.772	16384	16295	0	756
5.734	15.687	16384	16295	0	756
1.298	13.920	16384	16206	0	756
4.472	11.540	16384	16206	0	756
9.665	10.819	16384	16295	0	756
11.576	11.576	16384	16384	0	756
11.107	10.061	16384	16295	0	756
9.701	8.583	16384	16295	0	756
7.862	7.789	16384	16295	0	756
8.799	7.753	16384	16027	0	756
11.143	7.212	16384	15670	0	756
12.441	8.258	16384	15492	0	756
12.766	10.674	16384	15402	0	756
11.937	11.828	16384	15492	0	756
13.668	13.956	16384	15492	0	756
13.163	17.129	16384	15492	0	756
14.858	16.733	16384	15492	0	756
13.415	15.579	16384	15402	0	756
12.297	13.884	16384	15402	0	756
10.314	10.674	16384	15581	0	756
9.917	11.828	16384	15849	0	756
9.376	11.107	16384	15938	0	756
8.835	9.376	16384	15849	0	756
7.321	7.104	16384	15849	0	756
4.652	2.452	16384	15849	0	756
2.741	-2.921	16384	15759	0	756
3.642	-4.616	16384	15759	0	756
4.904	-4.868	16384	15759	0	756
4.219	-3.714	16384	15849	0	756
4.472	-3.462	16384	16117	0	756
3.065	-1.262	16384	16384	0	756
0.793	0.433	16384	16384	0	756
-0.252	1.731	16384	16473	0	756
2.344	2.633	16384	16473	0	756
4.003	2.849	16384	16384	0	756
4.183	1.190	16384	16295	0	756
1.262	-1.046	16384	15938	0	756
-5.517	-2.777	16384	15759	0	756
-11.396	-4.075	16384	15581	0	756
-16.733	-5.878	16383	15402	0	756
-16.697	-7.934	16383	15224	0	756
-10.999	-8.619	16383	15134	0	756
-7.140	-13.956	16383	15134	0	756
-6.131	-16.336	16383	15402	0	756
-9.448	-19.582	16383	15581	0	756
-17.851	-23.909	16383	15759	0	756
-27.407	-27.371	16383	16027	0	756
-28.741	-29.138	16383	16384	0	756
-27.263	-31.843	16383	16651	0	756
-24.270	-33.682	16383	17009	0	756
-25.856	-33.574	16383	17455	0	756
-29.679	-35.160	16384	17723	0	756
-35.701	-36.278	16384	17991	0	756
-38.190	-38.226	16384	18080	0	756
-37.901	-40.281	16384	18080	0	756
-38.911	-42.697	16384	17812	0	756
-41.976	-47.205	16384	17544	0	756
-47.133	-49.549	16384	17366	0	756
-55.788	-49.405	16384	17455	0	756
-61.918	-53.624	16384	17723	1	1096
-66.751	-55.499	16384	18080	0	1096
-66.643	-61.305	16384	18080	0	1096
-64.371	-64.082	16384	17901	0	1096
-60.404	-66.030	16384	17634	0	1096
-60.801	-66.066	16384	17366	0	1096
-67.328	-67.472	16384	17187	0	1096
-76.704	-70.321	16384	16919	0	1096
-84.025	-73.314	16384	16651	0	1096
-89.542	-75.370	16384	16384	0	1096
-87.559	-77.245	16384	16295	0	1096
-87.523	-80.527	16384	16206	0	1096
-88.640	-84.998	16384	16117	0	1096
-94.410	-88.640	16384	16117	0	1096
-98.594	-91.634	16384	16206	0	1096
-101.695	-93.942	16384	16295	0	1096
-104.688	-93.689	16384	16295	0	1096
-107.176	-97.944	16384	16384	0	1096
-110.855	-102.056	16384	16562	0	1096
-116.156	-106.852	16384	16830	0	1096
-119.582	-112.766	16384	17009	0	1096
-118.788	-116.372	16384	17187	0	1096
-117.454	-117.274	16384	17366	0	1096
-120.916	-118.752	16384	17544	0	1096
-124.522	-122.791	16384	17634	0	1096
-131.735	-126.470	16384	17723	0	1096
-138.298	-130.653	16384	17634	0	1096
-142.301	-133.321	16384	17455	0	1096
-143.563	-132.312	16384	17098	0	1096
-144.573	-132.239	16384	16830	0	1096
-148.503	-135.810	16384	16651	0	1096
-151.749	-139.740	16384	16741	0	1096
-153.949	-145.114	16384	16830	0	1096
-155.680	-151.208	16384	16830	0	1096
-158.060	-153.336	16384	16651	0	1096
-159.647	-157.050	16384	16473	0	1096
-164.840	-159.466	16384	16473	0	1096
-35.052	0.108	16384	16295	0	368
-45.222	-4.940	16384	16384	0	368
-53.732	-11.504	16384	16384	0	368
-57.591	-20.844	16384	16384	0	368
-55.752	-24.306	16384	16384	0	368
-53.083	-25.748	16384	16384	0	368
-48.359	-27.191	16384	16295	0	368
-49.080	-28.922	16384	16206	0	368
-52.290	-32.744	16384	16206	0	368
-61.486	-40.426	16384	16206	0	368
-70.934	-49.441	16384	16384	0	368
-78.327	-54.778	16384	16384	0	368
-79.950	-57.555	16384	16384	0	368
-75.983	-52.254	16384	16562	0	368
-69.888	-46.412	16384	16830	0	368
-67.436	-40.966	16384	17098	0	368
-70.501	-39.849	16384	17276	0	368
-76.127	-43.779	16384	17544	0	368
-79.048	-46.628	16384	17901	0	368
-78.327	-48.792	16384	18169	0	368
-76.343	-47.782	16384	18259	0	368
-72.701	-46.376	16384	18080	0	368
-75.875	-45.150	16384	17634	0	368
-80.274	-43.996	16384	17098	0	368
-81.176	-44.789	16384	16473	0	368
-78.435	-47.638	16384	15938	0	368
-74.973	-50.956	16384	15402	0	368
-76.451	-54.778	16384	15045	0	368
-84.277	-57.375	16384	14867	0	368
-93.112	-60.728	16384	14777	0	368
-101.911	-60.909	16384	14688	0	368
-105.662	-64.335	16384	14509	0	368
-107.104	-71.872	16384	14509	0	368
-109.232	-79.156	16384	14599	0	368
-114.281	-87.775	16384	14688	0	368
-120.627	-95.600	16384	14688	0	368
-126.722	-99.351	16384	14599	0	368
-132.095	-103.642	16384	14599	0	368
-131.122	-101.154	16384	14867	0	368
-126.686	-100.325	16384	15313	0	368
-122.322	-97.079	16384	15759	0	368
-120.050	-96.430	16384	16027	0	368
-122.034	-98.594	16384	16027	0	368
-127.768	-101.118	16384	16206	0	368
-129.391	-102.669	16384	16473	0	368
-131.230	-102.885	16384	16919	0	368
-134.006	-103.678	16384	17187	0	368
-133.682	-105.409	16384	17455	0	368
-132.853	-106.852	16384	17812	0	368
-127.371	-105.770	16384	18169	0	368
-125.965	-104.868	16384	18437	0	368
-125.532	-104.508	16384	18526	0	368
-132.131	-106.888	16384	18348	0	368
-141.291	-111.973	16384	18080	0	368
-150.595	-118.283	16384	17901	0	368
-156.040	-125.532	16384	17723	0	368
-161.305	-130.833	16384	17634	0	368
-164.335	-136.603	16384	17634	0	368
-168.518	-143.743	16384	17634	0	368
-173.278	-152.362	16384	17723	0	368
-179.048	-158.961	16384	17544	0	368
-183.556	-164.912	16384	17009	0	368
-185.611	-164.551	16384	16562	0	368
-183.628	-159.538	16384	16384	0	368
-183.123	-158.601	16384	16206	0	368
-181.320	-160.728	16384	16206	0	368
-181.644	-167.147	16384	16117	0	368
-181.176	-172.809	16384	16117	0	368
-179.084	-175.442	16384	16206	0	368
-180.202	-176.343	16384	16206	0	368
-181.428	-175.298	16384	16117	0	368
-182.690	-173.747	16384	15938	0	368
-178.291	-170.754	16384	15849	0	368
-169.816	-168.915	16384	15670	0	368
-160.007	-167.797	16384	15402	0	368
-157.699	-170.862	16384	15045	0	368
-160.296	-175.658	16384	14599	0	368
-168.806	-179.517	16384	14331	0	368
-175.081	-182.113	16384	14152	0	368
-174.288	-184.241	16384	14152	0	368
-171.006	-189.217	16384	13974	0	368
-166.571	-193.545	16384	13884	0	368
-165.669	-200.865	16383	13884	0	368
-169.564	-205.770	16383	13974	0	368
-178.002	-211.432	16383	14152	0	368
-190.912	-217.779	16383	14242	0	368
-196.790	-225.496	16383	14331	0	368
-198.954	-228.922	16383	14688	0	368
-192.319	-232.600	16383	15224	0	368
-185.828	-231.302	16383	15670	0	368
-182.149	-232.492	16383	15938	0	368
-180.527	-233.177	16383	15938	0	368
-182.474	-237.288	16383	15938	0	368
-179.950	-239.885	16383	15938	0	368
-173.639	-241.003	16383	16027	0	368
-167.436	-238.226	16383	16117	0	368
-162.063	-236.531	16383	16295	0	368
-157.555	-237.396	16383	16384	0	368
-154.418	-240.317	16383	16384	0	368
-148.720	-240.678	16383	16473	0	368
-144.212	-241.940	16383	16651	0	368
-138.406	-238.911	16383	17009	0	368
-130.689	-234.836	16383	17544	0	368
-122.034	-231.915	16384	18080	0	368
-114.821	-231.915	16384	18705	0	368
-105.121	-233.970	16384	19330	0	368
-99.207	-233.790	16384	19776	0	368
-96.105	-238.262	16384	19955	0	368
-95.312	-242.337	16384	20044	0	368
-94.555	-246.051	16384	19866	0	368
-91.273	-249.080	16384	19509	0	368
-86.044	-253.408	16384	18973	0	368
-77.642	-255.211	16384	18259	0	368
-69.492	-255.175	16384	17723	0	368
-64.407	-252.074	16384	17366	0	368
-59.250	-250.198	16384	17276	0	368
-52.182	-248.287	16384	17366	0	368
-40.426	-249.405	16384	17544	0	368
-28.741	-250.775	16384	17812	0	368
-16.048	-250.234	16384	18080	0	368
-9.304	-245.546	16384	18259	0	368
-4.472	-239.993	16384	18526	0	368
1.479	-233.321	16384	18973	0	368
12.622	-231.230	16385	19330	0	368
27.876	-226.145	16385	19419	0	368
45.510	-220.880	16385	19330	0	368
61.522	-214.713	16385	19151	0	368
71.980	-209.412	16385	18973	0	368
77.642	-205.734	16385	18705	0	368
81.067	-201.623	16385	18437	0	368
82.907	-200.433	16385	18080	0	368
89.290	-194.446	16385	17723	0	368
96.682	-190.335	16385	17455	0	368
109.737	-185.719	16386	17276	0	368
119.293	-181.717	16386	16919	0	368
126.145	-180.959	16386	16473	0	368
123.729	-183.592	16385	15849	0	368
120.014	-186.982	16385	14956	0	368
117.454	-192.102	16385	14242	0	368
117.779	-195.745	16385	13884	0	368
125.424	-193.184	16385	13706	0	368
134.115	-188.857	16385	13617	0	368
143.455	-179.950	16385	13527	0	368
151.100	-172.160	16384	13349	0	368
159.394	-168.338	16384	12992	0	368
164.840	-166.715	16384	12634	0	368
170.826	-167.508	16384	12277	0	368
176.740	-167.869	16384	11920	0	368
184.313	-162.459	16384	11920	0	368
193.797	-154.454	16384	12188	0	368
201.298	-149.441	16384	12367	0	368
203.678	-148.828	16384	12277	0	368
202.669	-151.028	16384	12009	0	368
202.885	-152.614	16384	12009	0	368
203.173	-151.569	16383	12277	0	368
206.816	-145.655	16384	12634	0	368
208.943	-139.199	16383	12902	0	368
206.671	-136.278	16383	13081	0	368
205.085	-135.016	16383	13259	0	368
205.337	-134.223	16383	13438	0	368
211.215	-129.246	16383	13617	0	368
217.021	-124.919	16383	13884	0	368
221.926	-118.680	16382	14420	0	368
221.890	-116.697	16383	15224	0	368
219.473	-115.939	16383	16027	0	368
214.641	-119.185	16383	16741	0	368
211.396	-121.818	16383	17455	0	368
211.648	-117.815	16383	18080	0	368
212.802	-113.199	16383	18794	0	368
220.447	-106.094	16383	19419	0	368
225.568	-102.236	16384	19955	0	368
226.217	-102.164	16384	20312	0	368
224.883	-102.921	16384	20669	0	368
221.529	-102.128	16384	20848	0	368
220.159	-97.872	16384	20937	0	368
224.234	-90.624	16384	21026	0	368
229.174	-87.595	16384	20937	0	368
227.624	-85.539	16384	20759	0	368
224.486	-85.647	16384	20491	0	368
214.713	-85.395	16384	20223	0	368
206.888	-84.421	16384	19866	1	824
201.911	-84.421	16384	19776	0	824
199.495	-83.952	16384	19866	0	824
196.105	-87.018	16384	19955	0	824
189.145	-88.424	16384	19866	0	824
176.127	-91.093	16385	19509	0	824
162.459	-94.879	16385	19062	0	824
155.499	-97.944	16385	18348	0	824
156.581	-98.413	16385	17455	0	824
163.289	-95.456	16384	16741	0	824
166.931	-93.148	16384	16295	0	824
164.695	-91.057	16384	15581	0	824
153.372	-89.650	16384	14956	0	824
147.782	-90.299	16384	14420	0	824
145.546	-86.513	16384	14063	0	824
145.438	-84.061	16384	13884	0	824
142.481	-84.602	16384	13884	0	824
131.230	-89.001	16384	14063	0	824
117.670	-92.571	16384	14152	0	824
106.491	-93.761	16384	14152	0	824
103.787	-86.657	16384	14063	0	824
104.652	-81.861	16384	14063	0	824
104.904	-80.490	16384	14152	0	824
100.649	-81.572	16384	14509	0	824
91.706	-88.640	16384	14867	0	824
82.798	-90.119	16384	15134	0	824
79.084	-92.066	16384	15224	0	824
77.281	-92.788	16384	15313	0	824
73.062	-99.135	16384	15402	0	824
64.948	-109.304	16384	15402	0	824
53.444	-117.598	16384	15402	0	824
43.094	-120.591	16384	15492	0	824
42.770	-118.139	16384	15670	0	824
48.756	-111.179	16384	15938	0	824
51.280	-106.671	16384	16206	0	824
49.621	-106.347	16384	16384	0	824
45.041	-106.635	16384	16651	0	824
41.760	-107.140	16384	16651	0	824
43.599	-105.049	16384	16562	0	824
47.097	-104.472	16384	16562	0	824
48.143	-104.832	16384	16741	0	824
43.815	-107.248	16384	17009	0	824
41.904	-108.114	16384	17366	0	824
42.697	-106.455	16384	17544	0	824
47.890	-103.931	16384	17366	0	824
50.415	-100.180	16384	17009	0	824
51.965	-98.954	16384	16651	0	824
48.287	-99.495	16384	16384	0	824
46.123	-99.315	16384	16206	0	824
44.609	-101.046	16384	16027	0	824
39.344	-102.164	16384	16117	0	824
28.994	-104.724	16384	16295	0	824
17.238	-108.763	16384	16473	0	824
2.633	-111.973	16384	16562	0	824
-6.167	-115.182	16384	16473	0	824
-7.825	-116.841	16384	16295	0	824
-7.573	-117.418	16384	16117	0	824
-9.268	-118.283	16384	16027	0	824
-16.048	-120.880	16384	15759	0	824
-27.335	-122.106	16384	15492	0	824
-40.317	-126.145	16384	15134	0	824
-45.510	-127.299	16384	14956	0	824
-43.743	-126.614	16384	14956	0	824
-39.163	-123.945	16384	15313	0	824
-37.036	-122.322	16384	15670	0	824
-38.911	-119.149	16384	15938	0	824
-44.464	-118.392	16384	16206	0	824
-43.527	-114.894	16384	16295	0	824
-36.964	-108.583	16384	16384	0	824
-28.777	-101.298	16384	16741	0	824
-25.171	-94.843	16384	17009	0	824
-31.446	-92.932	16384	17276	0	824
-42.625	-93.292	16384	17455	0	824
-48.359	-93.725	16384	17901	0	824
-48.035	-93.725	16384	18437	0	824
-42.229	-91.525	16384	18884	0	824
-38.983	-91.309	16384	18973	0	824
-43.527	-96.538	16384	18705	0	824
-54.598	-104.436	16384	18259	0	824
-66.390	-113.631	16384	17723	0	824
-72.593	-122.935	16384	17276	0	824
-73.278	-127.299	16384	17009	0	824
-71.006	-130.689	16384	16919	0	824
-69.492	-130.689	16384	16741	0	824
-70.826	-129.318	16384	16384	0	824
-76.596	-126.361	16384	16027	0	824
-80.671	-122.431	16384	15759	0	824
-80.887	-119.618	16384	15581	0	824
-77.281	-113.523	16384	15402	0	824
-71.114	-110.602	16384	15224	0	824
-66.571	-106.996	16384	15045	0	824
-64.948	-105.013	16384	14867	0	824
-66.174	-105.554	16384	14688	0	824
-65.344	-106.888	16384	14688	0	824
-64.587	-106.563	16384	14688	0	824
-62.315	-103.823	16384	14688	0	824
-59.827	-101.190	16384	14688	0	824
-58.384	-96.141	16384	14599	0	824
-58.132	-92.030	16384	14688	0	824
-61.125	-91.670	16384	14777	0	824
-64.154	-88.604	16384	14956	0	824
-68.842	-86.909	16384	15224	0	824
-66.931	-83.303	16384	15759	0	824
-64.912	-82.474	16384	16295	0	824
-62.279	-83.808	16384	16651	0	824
-64.190	-88.100	16384	17009	0	824
-71.655	-93.184	16384	17455	0	824
-81.320	-96.286	16384	18080	0	824
-87.162	-95.745	16384	18526	0	824
-91.273	-95.456	16384	18526	0	824
-90.984	-95.745	16384	18080	0	824
-91.093	-96.899	16384	17634	0	824
-87.523	-98.738	16384	17366	0	824
-89.398	-100.865	16384	17366	0	824
-92.535	-102.488	16384	17366	0	824
-99.820	-102.019	16384	17098	0	824
-105.662	-101.983	16384	16741	0	824
-102.993	-99.351	16384	16384	0	824
-91.417	-92.535	16384	16295	0	824
-75.658	-83.772	16384	16295	0	824
-63.794	-72.953	16384	16384	0	824
-59.683	-66.138	16384	16562	0	824
-62.892	-65.453	16384	16473	0	824
-66.931	-69.059	16384	16384	0	824
-69.852	-73.711	16384	16384	0	824
-70.970	-75.370	16384	16295	0	824
-70.718	-70.249	16384	16117	0	824
-69.924	-63.217	16384	15938	0	824
-67.364	-56.978	16384	15849	0	824
-65.056	-52.903	16384	15670	0	824
-63.686	-55.103	16384	15670	0	824
-67.039	-57.843	16384	15759	0	824
-73.819	-61.378	16384	15849	0	824
-78.471	-65.489	16384	15938	0	824
-80.779	-66.859	16384	16117	0	824
-82.546	-71.655	16384	16384	0	824
-85.575	-78.543	16384	16741	0	824
-89.037	-85.936	16384	17098	0	824
-94.879	-89.109	16384	17276	0	824
-99.531	-91.021	16384	17366	0	824
-102.308	-89.867	16384	17544	0	824
-104.796	-88.352	16384	17634	0	824
-108.727	-92.896	16384	17723	0	824
-112.946	-95.853	16384	17991	0	824
-113.199	-95.817	16384	18259	0	824
-112.297	-92.175	16384	18348	0	824
-110.242	-85.323	16384	18169	0	824
-107.825	-83.592	16384	17991	0	824
-105.265	-84.169	16384	17812	0	824
-104.075	-85.503	16384	17634	0	824
-102.921	-86.441	16385	17455	0	824
-101.767	-79.733	16385	17187	0	824
-102.488	-74.035	16384	16830	0	824
-101.370	-67.869	16384	16384	0	824
-101.911	-63.974	16384	16027	0	824
-100.793	-60.476	16384	15670	0	824
-98.377	-56.365	16384	15313	0	824
-94.338	-50.018	16384	15045	0	824
-92.175	-47.999	16384	14777	0	824
-90.948	-45.366	16384	14509	0	824
-93.220	-47.638	16384	14331	0	824
-98.918	-52.434	16384	14152	0	824
-107.176	-54.850	16384	14063	0	824
-113.054	-57.483	16384	14063	0	824
-117.166	-60.692	16384	14152	0	824
-118.067	-62.604	16384	14420	0	824
-123.044	-69.167	16384	14599	0	824
-127.984	-74.684	16384	14688	0	824
-133.249	-78.038	16384	14688	0	824
-136.026	-77.317	16384	14599	0	824
-131.735	-73.170	16384	14509	0	824
-123.909	-65.777	16384	14509	0	824
-118.788	-58.817	16384	14509	0	824
-117.093	-52.182	16384	14509	0	824
-114.894	-47.241	16383	14420	0	824
-108.619	-43.022	16383	13974	0	824
-98.630	-35.701	16383	13795	0	824
-83.303	-28.994	16383	13974	0	824
-74.360	-23.368	16383	14420	0	824
-71.114	-16.985	16383	14777	0	824
-69.383	-14.966	16383	15134	0	824
-67.905	-8.799	16383	15492	0	824
-61.630	-4.544	16383	16027	0	824
-54.850	0.072	16383	16562	0	824
-52.975	1.406	16383	17187	0	824
-55.391	-2.741	16383	17812	0	824
-62.604	-6.744	16383	18526	0	824
-66.210	-8.907	16384	19241	0	824
-65.272	-8.150	16384	19687	0	824
-63.686	-8.547	16384	20134	0	824
-66.967	-11.828	16384	20580	0	824
-75.622	-16.300	16384	21026	0	824
-86.080	-23.837	16384	21205	0	824
-94.086	-26.794	16384	21026	0	824
-93.978	-28.525	16384	20669	0	824
-91.381	-27.443	16384	20044	0	824
-89.254	-28.994	16384	19419	0	824
-87.883	-29.715	16384	18794	1	788
-92.355	-28.741	16384	18259	0	788
-93.473	-26.506	16384	17812	0	788
-96.213	-24.198	16384	17276	0	788
-97.331	-20.627	16384	16651	0	788
-94.483	-18.356	16384	16384	0	788
-89.073	-18.067	16384	16295	0	788
-84.277	-15.651	16384	16384	0	788
-77.966	-15.723	16384	16473	0	788
-74.288	-13.523	16384	16651	0	788
-72.990	-10.746	16384	16651	0	788
-70.754	-8.402	16384	16741	0	788
-67.652	-5.229	16384	16830	0	788
-64.263	-3.823	16384	16830	0	788
-61.630	-1.298	16384	17009	0	788
-58.132	-1.406	16384	17098	0	788
-54.021	-1.983	16384	17009	0	788
-53.480	-3.642	16384	16830	0	788
-53.372	-6.347	16384	16384	0	788
-58.529	-7.393	16384	15938	0	788
-65.344	-7.393	16384	15402	0	788
-71.547	-8.439	16384	14867	0	788
-72.016	-10.350	16384	14331	0	788
-70.898	-11.720	16384	13795	0	788
-68.446	-14.389	16384	13349	0	788
-68.842	-13.343	16384	13259	0	788
-71.511	-14.389	16384	13081	0	788
-74.432	-13.271	16384	12992	0	788
-72.737	-9.665	16384	12902	0	788
-70.646	-8.511	16384	12813	0	788
-67.797	-6.924	16384	12724	0	788
-64.371	-4.760	16383	12724	0	788
-59.611	-4.075	16383	12813	0	788
-56.185	-2.705	16383	12813	0	788
-53.444	-1.082	16383	12813	0	788
-50.811	-1.911	16383	12992	0	788
-47.962	-2.128	16383	13527	0	788
-47.061	-1.695	16383	14331	0	788
-44.969	0.361	16383	15224	0	788
-47.277	1.154	16383	15849	0	788
-51.641	0.829	16384	16206	0	788
-51.244	-2.633	16383	16473	0	788
-47.530	-3.462	16383	16830	0	788
-42.950	-5.085	16383	17187	0	788
-42.157	-5.481	16383	17366	0	788
-48.900	-6.167	16383	17455	0	788
-58.348	-5.914	16383	17455	0	788
-63.794	-4.616	16383	17455	0	788
-60.512	-1.947	16383	17455	0	788
-53.841	0.252	16383	17634	0	788
-49.008	2.416	16383	17901	0	788
-47.458	2.777	16383	18348	0	788
-46.917	3.137	16384	18705	0	788
-47.349	5.842	16384	18973	0	788
-42.950	10.458	16384	19151	0	788
-38.586	12.405	16384	19419	0	788
-37.541	17.129	16384	19419	0	788
-39.524	15.903	16384	19330	0	788
-38.370	16.589	16384	19151	0	788
-36.278	13.415	16384	19241	0	788
-34.187	10.963	16384	19509	0	788
-34.331	8.402	16384	19687	0	788
-36.531	5.229	16384	19776	0	788
-40.570	2.019	16384	19509	0	788
-43.202	0.288	16384	19062	0	788
-42.337	-2.344	16384	18616	0	788
-41.327	-4.977	16384	18080	0	788
-40.029	-5.193	16384	17634	0	788
-40.786	-6.419	16384	17366	0	788
-41.616	-5.265	16384	17098	0	788
-46.772	-6.203	16384	16830	0	788
-48.179	-6.996	16384	16562	0	788
-46.845	-7.429	16384	16384	0	788
-41.255	-6.022	16384	16117	0	788
-33.213	-5.662	16384	15938	0	788
-28.994	-4.544	16384	15938	0	788
-30.508	-3.823	16384	16117	0	788
-34.403	-3.750	16384	16384	0	788
-36.459	-2.308	16384	16562	0	788
-35.882	1.587	16385	16830	0	788
-29.679	7.357	16385	16919	0	788
-23.188	11.360	16385	16830	0	788
-20.483	16.336	16385	16384	0	788
-19.906	17.634	16385	15849	0	788
-16.949	20.014	16384	15224	0	788
-15.759	20.880	16384	14599	0	788
-12.910	24.089	16384	14152	0	788
-8.511	28.489	16384	13795	0	788
-8.511	30.148	16384	13527	0	788
-7.825	31.013	16384	13259	0	788
-7.862	26.109	16384	13170	0	788
-9.160	19.834	16384	13259	0	788
-14.821	10.494	16384	13527	0	788
-19.798	6.780	16384	14152	0	788
-25.820	6.203	16384	14867	0	788
-28.345	8.763	16384	15759	0	788
-28.056	11.360	16384	16295	0	788
-28.273	12.586	16384	16384	0	788
-28.417	9.773	16384	16384	0	788
-29.210	8.907	16384	16384	0	788
-29.138	7.898	16384	16384	0	788
-25.784	10.350	16384	16295	0	788
-22.034	14.858	16384	16295	0	788
-15.471	21.926	16384	16295	0	788
-11.143	30.581	16384	16117	0	788
-7.862	36.459	16384	15938	0	788
-5.013	41.291	16384	15849	0	788
-3.390	43.202	16384	15759	0	788
2.416	47.566	16384	15759	0	788
8.979	53.841	16384	15759	0	788
13.704	61.450	16384	15849	0	788
12.441	65.200	16384	15849	0	788
7.573	63.217	16384	16117	0	788
-1.479	58.709	16384	16384	0	788
-6.311	50.018	16384	16741	0	788
-7.032	48.143	16384	17098	0	788
-5.481	44.464	16384	17455	0	788
-4.832	43.851	16384	17634	0	788
-5.878	41.543	16384	17723	0	788
-10.278	38.009	16384	17544	0	788
-16.264	33.862	16384	17455	0	788
-20.014	29.499	16384	17276	0	788
-25.856	27.371	16384	17009	0	788
-27.263	23.440	16384	16651	0	788
-28.958	21.132	16384	16117	0	788
-31.807	20.050	16384	15402	0	788
-30.653	18.536	16384	14777	0	788
-26.001	23.008	16384	14420	0	788
-18.211	25.063	16384	14242	0	788
-12.441	29.030	16384	14152	0	788
-7.717	31.554	16384	14063	0	788
-9.701	33.538	16383	14063	0	788
-14.136	35.593	16383	14152	0	788
-12.838	39.272	16383	14331	0	788
-7.970	40.822	16383	14688	0	788
-0.252	43.058	16383	15045	0	788
7.285	42.986	16383	15670	0	788
11.973	43.455	16383	16384	0	788
10.783	42.589	16384	17009	0	788
7.465	39.272	16384	17723	0	788
4.327	36.964	16384	18437	0	788
4.580	34.403	16384	19062	0	788
7.609	32.997	16384	19419	0	788
11.287	32.744	16384	19598	0	788
12.333	33.718	16384	19509	0	788
10.963	34.006	16384	19330	0	788
4.400	30.436	16384	19062	0	788
-3.570	25.460	16384	18794	0	788
-9.773	17.238	16384	18437	0	788
-17.923	12.766	16384	18080	0	788
-18.608	9.448	16384	17723	0	788
-20.916	11.468	16384	17455	0	788
-18.536	12.910	16384	17187	0	788
-18.680	10.746	16384	16919	0	788
-19.257	7.898	16384	16651	0	788
-21.204	10.169	16384	16384	0	788
-18.969	13.668	16384	16117	0	788
-15.759	20.952	16384	16027	0	788
-8.511	28.669	16384	16027	0	788
-3.823	34.403	16384	16027	0	788
2.921	39.560	16384	15759	0	788
8.439	43.347	16384	15313	0	788
12.477	47.854	16384	15045	0	788
17.526	52.110	16384	15134	0	788
21.637	51.713	16384	15581	0	788
20.123	53.696	16384	16027	0	788
19.293	52.218	16384	16206	0	788
16.480	49.910	16384	16295	0	788
16.877	47.854	16384	16206	0	788
16.733	47.386	16384	15938	0	788
20.447	49.802	16384	15759	0	788
17.779	47.277	16384	15849	0	788
12.441	44.789	16384	16027	0	788
0.721	38.767	16384	16206	0	788
-8.366	30.617	16384	16295	0	788
-11.287	26.902	16384	16473	0	788
-7.321	24.630	16384	16741	0	788
-2.272	24.234	16384	17009	0	788
-0.649	24.919	16384	17276	0	788
-4.796	21.421	16384	17455	0	788
-11.973	17.093	16384	17634	0	788
-14.353	16.516	16384	17812	0	788
-13.451	18.247	16384	17991	0	788
-10.674	24.342	16384	18080	0	788
-7.212	30.184	16384	18169	0	788
-7.212	32.095	16384	18169	0	788
-7.753	31.085	16384	17901	0	788
-6.671	32.456	16384	17366	0	788
-2.488	35.810	16384	16830	0	788
0.505	40.750	16384	16384	0	788
4.544	42.661	16384	16117	0	788
6.599	41.363	16384	15759	0	788
7.717	39.885	16384	15492	0	788
8.042	40.498	16384	15224	0	788
10.133	43.455	16384	15134	0	788
11.035	47.133	16384	15045	0	788
9.701	47.133	16384	14956	0	788
8.078	47.530	16384	15045	0	788
4.039	43.563	16384	15045	0	788
1.262	40.426	16384	14956	0	788
0.216	39.308	16384	14777	0	788
0.036	37.360	16384	14599	0	788
-1.226	34.223	16384	14599	0	788
-4.832	31.915	16384	14420	0	788
-11.504	27.299	16384	14063	0	788
-18.897	22.827	16384	13795	0	788
-20.447	23.945	16384	13706	0	788
-18.500	25.063	16384	13795	0	788
-10.494	27.335	16384	13974	0	788
-4.832	33.429	16384	14152	0	788
0.433	36.567	16383	14242	0	788
4.327	42.084	16383	14331	0	788
9.340	45.005	16383	14242	0	788
12.514	45.222	16383	14063	0	788
14.064	43.166	16383	14063	0	788
13.992	41.003	16382	14152	0	788
11.828	39.452	16382	14242	0	788
8.835	40.930	16382	14509	0	788
9.376	40.966	16382	14777	0	788
9.520	40.029	16382	15134	0	788
8.150	37.216	16382	15670	0	788
8.078	33.970	16383	16295	0	788
9.052	33.754	16383	16741	0	788
8.979	34.836	16383	17098	0	788
6.419	38.045	16383	17366	0	788
5.698	38.442	16383	17901	0	788
2.524	36.314	16383	18437	0	788
0.865	33.033	16383	18884	0	788
2.056	31.482	16383	19419	0	788
6.167	32.708	16383	19866	0	788
7.285	33.754	16384	20223	0	788
5.554	32.095	16384	20401	0	788
0.108	27.660	16384	20491	0	788
-4.544	20.988	16384	20580	0	788
-6.996	17.959	16384	20669	0	788
-5.914	15.543	16384	20580	0	788
-3.065	17.743	16384	20223	0	788
0.325	19.582	16384	19866	0	788
2.164	24.775	16384	19598	0	788
5.445	28.201	16384	19330	1	956
10.097	33.502	16384	18973	0	956
9.917	36.242	16384	18526	0	956
7.898	35.521	16384	18080	0	956
4.075	35.485	16384	17723	0	956
3.282	35.882	16384	17276	0	956
4.796	38.839	16384	16830	0	956
9.304	39.524	16384	16562	0	956
12.333	41.507	16384	16384	0	956
10.278	42.986	16384	15938	0	956
11.143	45.402	16384	15402	0	956
10.422	50.162	16384	14956	0	956
11.648	57.266	16384	14599	0	956
15.182	58.961	16384	14509	0	956
13.523	57.194	16384	14420	0	956
15.939	55.175	16384	14599	0	956
16.913	52.182	16384	14956	0	956
20.952	52.398	16384	15224	0	956
22.431	50.739	16384	15313	0	956
19.870	45.078	16384	15402	0	956
10.206	36.567	16384	15492	0	956
-0.757	27.515	16384	15581	0	956
-7.934	24.378	16384	15759	0	956
-11.360	23.729	16384	15938	0	956
-8.439	25.063	16384	16117	0	956
-5.914	23.693	16384	16117	0	956
-7.681	19.870	16384	16027	0	956
-8.366	17.887	16384	15849	0	956
-8.366	18.356	16384	15759	0	956
-5.265	22.539	16384	15402	0	956
0.685	30.040	16384	15045	0	956
6.599	36.062	16384	14867	0	956
8.366	38.767	16384	14777	0	956
8.150	39.596	16384	14599	0	956
6.996	38.658	16384	14509	0	956
8.078	40.894	16384	14420	0	956
10.638	46.268	16384	14599	0	956
13.704	52.470	16384	14777	0	956
16.048	58.745	16384	14956	0	956
16.084	61.414	16384	14956	0	956
14.389	60.981	16384	15045	0	956
15.110	59.070	16384	15224	0	956
13.379	55.499	16384	15402	0	956
13.091	52.939	16384	15581	0	956
9.484	53.372	16384	15670	0	956
9.484	54.922	16383	15581	0	956
9.809	56.653	16383	15759	0	956
8.979	52.001	16383	16117	0	956
5.157	47.133	16383	16384	0	956
-0.036	40.317	16384	16741	0	956
-3.570	36.495	16384	17009	0	956
-5.121	36.387	16384	17187	0	956
-3.498	37.288	16384	17544	0	956
-2.200	36.387	16384	17991	0	956
-2.380	35.665	16384	18259	0	956
-1.479	35.305	16384	18526	0	956
1.515	35.882	16384	18794	0	956
2.921	35.124	16384	18973	0	956
2.957	35.701	16384	19151	0	956
0.072	35.269	16384	19241	0	956
-0.974	35.810	16384	19151	0	956
1.731	38.045	16384	18973	0	956
7.212	40.498	16384	18794	0	956
11.360	42.914	16384	18526	0	956
11.756	45.222	16384	18259	0	956
12.874	46.484	16384	17991	0	956
11.287	47.710	16384	17723	0	956
11.360	49.802	16384	17366	0	956
15.651	49.008	16384	16830	0	956
14.677	49.585	16384	16384	0	956
16.480	49.080	16384	15938	0	956
18.103	50.523	16384	15581	0	956
21.673	54.742	16384	15492	0	956
21.637	55.752	16384	15581	0	956
21.241	55.932	16384	15670	0	956
18.392	53.372	16384	15759	0	956
14.641	47.349	16384	15670	0	956
12.622	43.166	16384	15670	0	956
13.235	41.435	16384	15759	0	956
10.746	40.353	16384	16027	0	956
4.652	37.685	16384	16295	0	956
-0.288	34.728	16384	16384	0	956
-5.085	31.699	16384	16384	0	956
-4.003	29.607	16384	16384	0	956
1.262	29.643	16384	16295	0	956
4.652	33.141	16384	16027	0	956
3.246	35.124	16384	15849	0	956
1.911	36.603	16384	15849	0	956
2.560	39.163	16384	16117	0	956
9.052	41.976	16384	16206	0	956
16.444	45.041	16384	16206	0	956
23.044	44.140	16384	16295	0	956
19.149	43.202	16384	16562	0	956
12.694	42.806	16384	16919	0	956
7.429	44.104	16384	17276	0	956
5.662	47.205	16384	17455	0	956
10.169	49.549	16384	17634	0	956
16.408	49.585	16384	17544	0	956
17.382	45.871	16384	17366	0	956
16.192	42.770	16384	17276	0	956
8.691	40.498	16384	16919	0	956
4.544	36.891	16384	16473	0	956
3.642	37.432	16384	16384	0	956
10.206	41.652	16384	16384	0	956
15.723	45.041	16384	16384	0	956
15.435	45.402	16384	16117	0	956
12.045	42.481	16384	15938	0	956
3.318	37.180	16384	15849	0	956
-0.649	34.872	16384	15759	0	956
2.308	37.432	16384	15759	0	956
8.006	40.245	16384	15759	0	956
10.097	39.668	16384	15402	0	956
8.330	36.783	16384	14867	0	956
3.029	32.167	16384	14331	0	956
-1.803	31.122	16384	14063	0	956
-2.236	34.223	16384	13884	0	956
2.019	38.767	16384	13617	0	956
6.275	41.616	16384	13259	0	956
6.455	41.652	16384	13259	0	956
5.662	39.776	16384	13617	0	956
2.488	37.577	16384	13884	0	956
1.839	37.721	16384	14152	0	956
7.825	41.255	16384	14420	0	956
16.048	45.114	16384	14867	0	956
20.772	46.592	16384	15313	0	956
21.277	47.890	16384	15759	0	956
15.326	46.917	16384	16027	0	956
8.943	43.058	16384	16295	0	956
3.967	39.885	16384	16384	0	956
5.337	36.675	16384	16473	0	956
5.950	34.872	16384	16473	0	956
7.140	34.115	16384	16473	0	956
6.708	34.403	16384	16830	0	956
3.859	34.043	16384	17187	0	956
-0.649	30.941	16384	17455	0	956
-5.373	27.299	16384	17544	0	956
-7.248	24.558	16384	17544	0	956
-6.239	24.017	16384	17634	0	956
-2.092	24.847	16384	17723	0	956
2.344	27.227	16384	17723	0	956
3.570	31.626	16384	17544	0	956
6.275	33.826	16384	17455	0	956
4.255	33.718	16384	17455	0	956
2.488	31.446	16384	17276	0	956
-1.695	28.633	16384	17098	0	956
-6.419	24.162	16384	17098	0	956
-7.717	22.070	16384	17009	0	956
-5.590	27.155	16384	17009	0	956
-1.623	29.463	16384	17276	0	956
0.036	32.816	16384	17723	0	956
-0.685	33.429	16384	18080	0	956
-0.974	32.131	16384	18348	0	956
1.334	29.607	16384	18348	0	956
3.426	28.417	16384	18437	0	956
3.967	26.361	16384	18616	0	956
3.678	20.555	16384	18794	0	956
2.236	18.103	16384	18884	0	956
3.137	14.028	16384	18973	0	956
4.147	16.516	16384	18794	0	956
3.750	15.579	16384	18348	0	956
0.325	16.084	16384	17723	0	956
-1.515	11.864	16384	17187	0	956
-2.344	10.350	16384	16919	0	956
-1.082	11.179	16384	16741	0	956
0.721	12.261	16384	16562	0	956
-0.072	15.723	16384	16384	0	956
-3.390	15.975	16384	16295	0	956
-4.796	13.559	16384	15849	0	956
-3.498	16.372	16384	15402	0	956
1.190	16.877	16384	15045	0	956
7.032	21.673	16384	14867	0	956
12.730	23.404	16384	14599	0	956
11.900	26.145	16384	14420	0	956
11.937	26.830	16384	14331	0	956
11.251	26.686	16384	14420	0	956
10.061	26.289	16384	14599	0	956
11.756	24.666	16384	14688	0	956
8.871	21.962	16384	14956	0	956
5.662	17.093	16384	15581	0	956
5.517	15.074	16384	16206	0	956
5.662	12.658	16384	16651	0	956
6.888	13.018	16384	16830	0	956
5.950	14.533	16384	16741	0	956
4.147	19.149	16384	16651	0	956
0.757	19.221	16384	16562	0	956
0.000	20.123	16384	16562	0	956
0.397	19.005	16384	16562	0	956
1.875	21.096	16384	16562	0	956
3.570	21.818	16384	16473	0	956
6.491	23.512	16384	16384	0	956
6.275	23.152	16384	16027	0	956
5.337	19.906	16384	15849	0	956
2.633	19.113	16384	15670	0	956
0.288	17.454	16384	15581	0	956
1.010	20.916	16384	15581	0	956
6.419	22.935	16384	15670	0	956
11.792	26.397	16384	15759	0	956
16.048	29.066	16384	16027	0	956
19.293	29.643	16384	16384	0	956
19.185	28.741	16384	16473	0	956
19.798	27.335	16384	16473	0	956
20.880	27.984	16384	16562	0	956
18.536	31.735	16384	16830	0	956
17.887	35.088	16384	17187	0	956
15.543	39.452	16384	17366	0	956
19.762	39.344	16384	17187	0	956
24.125	39.272	16384	17098	0	956
29.102	37.180	16384	17098	0	956
28.381	36.170	16384	17009	0	956
19.329	35.846	16384	16741	0	956
10.963	33.646	16384	16473	0	956
5.121	33.790	16384	16295	0	956
7.681	35.160	16384	16117	0	956
12.730	35.088	16384	16206	0	956
14.245	34.367	16384	16206	0	956
10.061	29.643	16384	16295	0	956
3.173	25.135	16384	16384	0	956
-3.029	21.457	16384	16295	0	956
-3.354	18.680	16384	16117	0	956
0.902	20.303	16384	15938	0	956
3.210	18.283	16384	15759	0	956
1.479	19.113	16384	15759	0	956
-2.885	17.670	16384	15759	0	956
-2.885	21.890	16384	15670	0	956
-1.262	22.755	16384	15581	0	956
2.633	26.722	16384	15492	0	956
7.789	28.273	16384	15402	0	956
9.124	27.479	16384	15402	0	956
9.196	29.210	16384	15402	0	956
10.133	30.617	16384	15492	0	956
13.163	33.393	16384	15670	0	956
11.612	34.511	16384	15759	0	956
9.556	33.610	16384	16027	0	956
9.592	31.843	16384	16384	0	956
11.828	30.436	16384	16651	0	956
15.579	32.564	16384	16741	0	956
23.909	35.413	16384	16830	0	956
27.263	38.839	16384	17098	0	956
28.417	39.957	16384	17276	0	956
26.217	37.721	16384	17276	0	956
24.378	34.006	16384	17187	0	956
18.969	29.607	16384	17098	0	956
15.398	26.289	16384	17009	0	956
9.520	23.476	16384	16830	0	956
5.085	19.942	16384	16562	0	956
2.164	18.969	16384	16384	0	956
3.173	16.444	16384	16384	0	956
6.203	18.067	16384	16295	0	956
12.333	18.824	16384	15849	0	956
17.057	21.637	16384	15402	0	956
19.726	22.142	16384	15045	0	956
16.661	22.178	16384	14688	0	956
12.045	24.739	16384	14509	0	956
5.229	24.594	16384	14420	0	956
2.308	24.811	16384	14420	0	956
4.039	26.073	16384	14420	0	956
8.979	28.705	16384	14688	0	956
13.668	31.518	16384	15045	0	956
13.343	34.656	16384	15492	0	956
14.172	35.954	16384	16117	0	956
13.307	33.826	16384	16741	0	956
16.336	35.629	16384	17544	0	956
23.693	39.740	16384	18348	0	956
30.545	45.402	16384	18794	0	956
33.466	50.631	16384	19062	0	956
35.629	48.828	16384	19419	0	956
33.502	44.212	16384	19866	0	956
30.977	38.622	16385	20134	0	956
24.775	31.951	16384	20044	0	956
16.913	27.010	16384	19598	0	956
4.580	21.926	16384	19062	0	956
-6.635	15.579	16384	18437	0	956
-13.812	9.376	16384	17991	1	1088
-15.038	5.878	16384	17455	0	1088
-15.110	4.147	16384	16919	0	1088
-13.054	3.606	16384	16473	0	1088
-10.855	6.888	16384	16295	0	1088
-11.432	7.248	16384	16027	0	1088
-10.206	9.845	16384	15759	0	1088
-6.816	11.540	16384	15313	0	1088
-3.714	13.668	16384	14867	0	1088
1.695	21.241	16384	14509	0	1088
8.222	27.371	16384	14331	0	1088
14.281	34.872	16384	14152	0	1088
15.795	39.704	16384	13884	0	1088
17.670	42.409	16384	13706	0	1088
18.392	41.832	16384	13974	0	1088
23.621	41.868	16384	14509	0	1088
25.099	40.426	16384	15224	0	1088
24.847	38.514	16384	15849	0	1088
19.185	36.495	16384	16384	0	1088
10.350	33.826	16384	16741	0	1088
6.167	33.321	16384	16919	0	1088
7.321	30.364	16384	17009	0	1088
9.232	27.768	16384	17098	0	1088
8.619	23.945	16384	16919	0	1088
5.554	18.933	16384	16830	0	1088
-0.865	15.759	16384	16651	0	1088
-3.823	13.271	16384	16473	0	1088
-5.409	11.468	16384	16206	0	1088
-5.265	12.297	16384	16027	0	1088
-3.967	11.612	16384	15759	0	1088
-1.226	12.946	16384	15670	0	1088
0.613	16.264	16384	15670	0	1088
2.669	17.274	16384	15581	0	1088
4.616	20.014	16384	15492	0	1088
3.173	20.375	16384	15313	0	1088
2.633	22.250	16384	15313	0	1088
2.596	24.811	16384	15492	0	1088
4.039	27.479	16384	15759	0	1088
3.101	30.689	16384	15938	0	1088
6.960	33.718	16384	16117	0	1088
10.386	36.242	16384	16295	0	1088
13.559	37.108	16384	16562	0	1088
18.247	36.531	16384	17009	0	1088
18.031	33.069	16384	17366	0	1088
14.785	27.515	16384	17544	0	1088
7.212	25.929	16384	17634	0	1088
0.793	22.863	16384	17634	0	1088
-2.993	23.044	16384	17634	0	1088
-0.829	23.260	16384	17544	0	1088
4.652	22.142	16384	17366	0	1088
10.278	21.024	16384	17187	0	1088
9.665	20.844	16384	17009	0	1088
7.753	15.759	16384	16651	0	1088
1.190	12.081	16384	16295	0	1088
-4.327	8.763	16384	15670	0	1088
-6.599	7.212	16384	15045	0	1088
-6.816	6.455	16384	14599	0	1088
-4.436	7.717	16384	14242	0	1088
-0.288	9.268	16384	14152	0	1088
5.013	10.206	16384	14242	0	1088
10.891	14.894	16384	14420	0	1088
15.867	20.123	16384	14599	0	1088
19.726	21.890	16384	14867	0	1088
21.385	24.270	16384	15134	0	1088
18.752	26.866	16384	15313	0	1088
14.569	28.922	16384	15492	0	1088
13.415	31.085	16384	16027	0	1088
17.129	34.764	16384	16562	0	1088
21.673	36.134	16384	17009	0	1088
27.047	37.324	16384	17098	0	1088
29.102	36.459	16384	17098	0	1088
24.486	34.872	16384	17455	0	1088
17.166	30.617	16384	17812	0	1088
13.415	26.650	16384	18259	0	1088
11.432	25.604	16384	18884	0	1088
12.009	24.486	16384	19509	0	1088
12.550	21.421	16384	19776	0	1088
9.412	19.329	16384	19509	0	1088
5.193	14.533	16384	19062	0	1088
3.282	14.858	16384	18348	0	1088
4.003	15.182	16384	17634	0	1088
10.169	18.897	16384	17009	0	1088
11.828	20.700	16384	16473	0	1088
11.684	23.080	16384	15938	0	1088
10.602	24.702	16384	15402	0	1088
10.386	25.965	16384	15134	0	1088
10.999	27.804	16384	14956	0	1088
14.281	29.895	16384	14867	0	1088
15.939	31.482	16384	14956	0	1088
14.569	33.898	16384	15313	0	1088
16.264	34.800	16384	15759	0	1088
16.264	36.134	16384	15849	0	1088
19.942	40.317	16384	15670	0	1088
21.854	45.041	16384	15224	0	1088
23.260	48.071	16384	14956	0	1088
23.044	47.097	16384	14867	0	1088
18.247	41.327	16384	14956	0	1088
15.435	32.059	16384	15134	0	1088
11.792	24.089	16384	15313	0	1088
4.940	16.913	16384	15581	0	1088
-1.082	13.704	16384	15938	0	1088
-8.979	8.835	16384	16384	0	1088
-15.795	6.058	16384	16562	0	1088
-14.461	3.714	16384	16562	0	1088
-9.845	1.731	16384	16473	0	1088
-3.859	1.334	16384	16473	0	1088
0.974	3.534	16384	16473	0	1088
-0.108	5.770	16384	16473	0	1088
-1.515	6.383	16384	16384	0	1088
-0.902	8.835	16384	16295	0	1088
1.803	11.143	16384	16117	0	1088
9.196	17.057	16384	15849	0	1088
17.202	24.306	16383	15670	0	1088
24.775	30.148	16383	15581	0	1088
28.092	33.033	16383	15581	0	1088
23.044	30.977	16383	15492	0	1088
14.245	27.083	16383	15402	0	1088
4.904	21.709	16383	15313	0	1088
2.669	21.313	16383	15224	0	1088
9.737	24.775	16383	15224	0	1088
18.283	29.859	16383	15402	0	1088
23.657	34.547	16383	15849	0	1088
19.978	33.285	16383	16384	0	1088
13.235	28.092	16384	17009	0	1088
5.770	21.998	16383	17366	0	1088
6.347	17.634	16384	17634	0	1088
10.422	17.887	16384	17812	0	1088
15.867	20.844	16384	17723	0	1088
15.290	20.700	16384	17544	0	1088
10.891	20.844	16383	17187	0	1088
4.400	17.129	16383	16919	0	1088
3.101	14.930	16383	16651	0	1088
8.222	14.353	16383	16562	0	1088
17.057	20.700	16383	16741	0	1088
22.647	25.027	16383	17098	0	1088
15.831	27.624	16383	17455	0	1088
11.143	27.804	16384	17634	0	1088
5.734	25.929	16384	17723	0	1088
10.386	28.489	16384	17812	0	1088
21.854	34.439	16384	17991	0	1088
31.662	42.517	16384	18259	0	1088
34.908	47.458	16384	18437	0	1088
33.105	47.890	16384	18705	0	1088
30.581	45.438	16384	18884	0	1088
29.607	43.022	16384	18884	0	1088
30.472	39.776	16384	18794	0	1088
28.453	39.560	16384	18616	0	1088
26.938	35.990	16384	18437	0	1088
22.322	32.239	16384	18169	0	1088
22.286	28.922	16384	17723	0	1088
22.575	25.568	16384	17276	0	1088
21.673	21.926	16384	16830	0	1088
19.654	18.500	16384	16384	0	1088
11.576	13.307	16384	16206	0	1088
5.193	12.658	16384	16027	0	1088
-0.144	15.002	16384	15938	0	1088
0.144	19.221	16384	16027	0	1088
3.750	22.791	16384	16027	0	1088
7.609	23.080	16384	16117	0	1088
9.196	19.546	16384	16384	0	1088
8.511	18.139	16384	16562	0	1088
6.383	18.572	16384	16651	0	1088
5.770	22.503	16384	16473	0	1088
5.301	26.109	16384	16206	0	1088
4.796	27.299	16384	15849	0	1088
4.183	26.938	16384	15670	0	1088
4.508	26.181	16384	15670	0	1088
4.832	24.306	16384	15849	0	1088
6.563	26.650	16384	15849	0	1088
7.429	27.047	16384	15759	0	1088
7.248	28.525	16384	15849	0	1088
10.458	28.237	16384	15938	0	1088
12.369	28.056	16384	15849	0	1088
17.021	25.316	16384	15759	0	1088
15.903	23.693	16384	15492	0	1088
17.706	20.700	16384	15402	0	1088
17.274	20.627	16384	15224	0	1088
20.700	24.486	16384	15224	0	1088
20.159	24.666	16384	15224	0	1088
19.113	22.322	16384	15224	0	1088
13.704	19.401	16384	15313	0	1088
10.206	13.848	16384	15492	0	1088
6.960	14.677	16384	15849	0	1088
6.599	16.625	16384	16117	0	1088
6.058	20.087	16384	16117	0	1088
4.255	15.903	16384	15938	0	1088
0.649	10.746	16384	15759	0	1088
-3.787	2.921	16384	15670	0	1088
-7.032	-1.551	16384	15581	0	1088
-11.035	-2.236	16384	15402	0	1088
-9.953	-0.108	16384	15134	0	1088
-4.255	3.498	16384	15045	0	1088
-1.046	5.950	16384	14956	0	1088
1.983	7.285	16384	15045	0	1088
2.813	8.547	16384	15134	0	1088
2.560	8.655	16384	15402	0	1088
4.796	8.799	16384	15849	0	1088
6.888	10.566	16384	16384	0	1088
8.366	11.360	16384	16741	0	1088
8.078	13.199	16384	17098	0	1088
5.049	14.677	16384	17276	0	1088
4.183	15.254	16384	17366	0	1088
4.219	17.093	16384	17455	0	1088
8.691	16.733	16384	17544	0	1088
11.612	17.562	16384	17634	0	1088
15.398	16.769	16384	17544	0	1088
14.497	18.031	16384	17187	0	1088
14.858	18.572	16384	16830	0	1088
15.362	21.673	16384	16562	0	1088
19.762	20.375	16384	16473	0	1088
25.279	18.283	16384	16384	0	1088
27.335	15.326	16384	16384	0	1088
22.827	11.828	16384	16473	0	1088
12.730	9.845	16384	16651	0	1088
2.019	9.340	16384	16741	0	1088
-3.931	6.888	16384	16830	0	1088
-2.633	2.452	16384	16651	0	1088
1.442	-0.721	16384	16473	0	1088
3.714	-2.705	16384	16384	0	1088
1.226	-4.544	16384	16473	0	1088
-7.104	-5.914	16384	16562	0	1088
-11.468	-6.455	16384	16473	0	1088
-10.963	-7.609	16384	16384	0	1088
-6.094	-6.455	16384	16473	0	1088
-1.334	-3.642	16384	16919	0	1088
0.505	1.551	16384	17366	0	1088
-1.839	4.400	16384	17634	0	1088
-3.282	9.556	16384	17901	0	1088
1.118	13.487	16384	18080	0	1088
9.773	18.716	16384	18348	0	1088
21.349	22.827	16384	18348	0	1088
24.414	24.089	16384	18169	0	1088
20.772	26.253	16385	17991	0	1088
13.920	24.414	16385	17812	0	1088
11.035	25.748	16385	17455	0	1088
15.182	30.797	16385	17098	1	940
27.047	35.629	16385	16830	0	940
35.341	41.075	16385	16741	0	940
36.206	41.868	16385	16651	0	940
29.535	39.127	16385	16562	0	940
18.175	31.699	16385	16384	0	940
9.088	24.811	16385	16206	0	940
2.092	21.096	16385	16027	0	940
2.308	16.913	16385	15938	0	940
3.210	16.552	16385	15849	0	940
2.308	12.766	16385	15670	0	940
-2.921	10.206	16385	15492	0	940
-10.097	4.904	16385	15402	0	940
-14.569	-0.216	16384	15402	0	940
-16.661	-1.406	16384	15313	0	940
-13.523	-2.777	16384	15224	0	940
-7.068	-0.144	16384	14956	0	940
-2.524	2.777	16384	14956	0	940
3.787	6.888	16384	15134	0	940
9.520	12.694	16384	15313	0	940
12.045	20.447	16384	15581	0	940
10.097	24.162	16384	15759	0	940
8.475	26.938	16384	16117	0	940
8.691	27.515	16384	16384	0	940
13.379	25.316	16385	16651	0	940
21.926	28.561	16385	16741	0	940
30.617	34.980	16385	16919	0	940
34.728	40.642	16385	17098	0	940
33.646	43.202	16385	17366	0	940
26.902	41.363	16385	17634	0	940
21.818	35.737	16385	17901	0	940
17.598	32.059	16385	17991	0	940
20.808	32.744	16386	18080	0	940
25.568	34.151	16385	18080	0	940
26.506	33.934	16385	17991	0	940
23.693	29.463	16386	17991	0	940
12.369	19.870	16386	17901	0	940
3.282	12.874	16386	17634	0	940
-1.839	9.520	16386	17187	0	940
-1.479	8.547	16386	16741	0	940
3.101	10.061	16386	16384	0	940
7.753	10.710	16386	16117	0	940
9.520	11.504	16386	15849	0	940
9.412	13.018	16386	15492	0	940
9.160	16.408	16385	15313	0	940
10.025	18.247	16385	15045	0	940
11.973	21.745	16385	14867	0	940
17.382	19.618	16385	14777	0	940
18.103	19.293	16385	14777	0	940
17.346	17.743	16385	14777	0	940
11.071	14.858	16385	14867	0	940
4.832	15.038	16385	14867	0	940
0.252	14.245	16384	14688	0	940
3.282	12.081	16384	14242	0	940
8.186	13.523	16384	13884	0	940
18.031	15.939	16384	13617	0	940
19.798	16.877	16384	13438	0	940
20.952	19.293	16384	13349	0	940
18.608	20.591	16384	13349	0	940
17.634	17.887	16384	13438	0	940
15.362	18.969	16384	13706	0	940
18.139	18.897	16384	13974	0	940
18.608	24.811	16384	14063	0	940
20.483	29.607	16384	13884	0	940
23.224	33.502	16384	13527	0	940
23.008	33.429	16383	13259	0	940
22.106	28.850	16383	13259	0	940
17.346	21.890	16383	13527	0	940
16.048	19.077	16383	13884	0	940
9.520	15.074	16383	14331	0	940
4.616	14.172	16383	14777	0	940
-0.541	13.091	16383	15313	0	940
-3.137	9.737	16383	15849	0	940
0.180	11.468	16383	16295	0	940
5.770	12.730	16383	16384	0	940
10.494	12.441	16383	16473	0	940
9.917	15.651	16383	16562	0	940
7.681	15.831	16383	16830	0	940
6.780	17.382	16383	17187	0	940
10.963	17.274	16383	17544	0	940
14.569	18.320	16383	17812	0	940
19.834	17.418	16383	18169	0	940
20.339	18.500	16383	18616	0	940
18.464	18.103	16383	18884	0	940
12.333	19.437	16383	18884	0	940
6.058	16.913	16383	18794	0	940
1.442	16.877	16383	18616	0	940
0.505	17.490	16383	18437	0	940
5.445	20.375	16383	18437	0	940
11.215	22.034	16383	18705	1	356
12.982	22.142	16384	19062	0	356
13.920	19.041	16384	19419	0	356
10.530	16.949	16384	19687	0	356
7.898	14.136	16384	19776	0	356
7.465	16.516	16384	19687	0	356
6.311	16.480	16384	19509	0	356
7.429	17.815	16384	19151	0	356
9.196	15.074	16384	18705	0	356
11.468	14.172	16384	18348	0	356
10.314	10.061	16384	17991	0	356
5.878	7.753	16384	17634	0	356
1.839	7.753	16384	17366	0	356
-1.082	8.294	16384	17187	0	356
1.479	11.071	16384	17098	0	356
7.285	14.641	16384	16741	0	356
11.540	19.690	16384	16206	0	356
16.552	21.132	16384	15670	0	356
14.569	22.503	16384	15134	0	356
13.920	21.565	16384	14688	0	356
10.458	16.805	16384	14331	0	356
8.006	14.533	16384	14152	0	356
6.491	12.766	16384	14152	0	356
6.058	14.136	16384	14242	0	356
8.078	17.418	16384	14331	0	356
8.475	17.598	16384	14331	0	356
7.212	17.382	16384	14420	0	356
5.986	15.218	16383	14509	0	356
3.787	15.254	16383	14509	0	356
3.606	14.785	16383	14420	0	356
5.157	17.743	16383	14420	0	356
7.212	17.093	16383	14599	0	356
10.061	18.969	16383	14867	0	356
12.514	17.490	16383	15313	0	356
13.559	20.050	16383	15849	0	356
13.848	20.050	16383	16384	0	356
14.100	20.231	16383	17009	0	356
11.864	16.552	16384	17634	0	356
8.835	14.497	16384	18169	0	356
8.511	10.999	16384	18526	0	356
6.563	8.366	16384	18705	0	356
4.760	8.042	16384	18884	0	356
7.212	6.022	16384	19062	0	356
5.554	5.157	16384	19241	0	356
6.708	7.429	16384	19330	0	356
5.914	9.953	16384	19330	0	356
6.094	14.317	16384	19241	0	356
8.619	16.552	16384	19151	0	356
10.278	17.418	16384	18794	0	356
10.566	13.992	16384	18348	0	356
9.629	12.514	16384	17634	0	356
7.537	12.802	16384	17009	0	356
5.986	14.533	16384	16473	0	356
9.196	20.231	16384	16206	0	356
12.297	22.178	16384	15938	0	356
13.199	23.260	16384	15849	0	356
12.225	20.880	16384	15849	0	356
9.520	18.067	16384	15849	0	356
9.989	18.752	16384	15581	0	356
13.740	17.706	16384	15313	0	356
16.372	19.185	16384	15134	0	356
15.975	16.120	16384	14956	0	356
14.317	14.208	16384	14867	0	356
7.609	9.484	16384	14777	0	356
1.839	7.681	16384	14599	0	356
-1.298	5.085	16384	14420	0	356
-4.183	2.524	16384	14152	0	356
-5.049	-0.433	16384	13795	0	356
-4.003	-3.642	16384	13706	0	356
-5.301	-3.714	16384	13884	0	356
-5.878	-3.462	16384	14152	0	356
-6.022	-0.397	16384	14420	0	356
-0.974	5.265	16384	14688	0	356
6.744	12.730	16384	15045	0	356
17.021	20.483	16384	15402	0	356
22.683	26.289	16384	15670	0	356
26.433	28.958	16384	15938	0	356
27.335	26.830	16384	16384	0	356
27.515	24.919	16384	16919	0	356
28.886	25.352	16384	17455	1	316
31.735	28.525	16384	17901	0	316
32.672	33.033	16384	18259	0	316
31.699	37.757	16384	18705	0	316
31.230	39.668	16384	19151	0	316
27.984	38.442	16384	19687	0	316
24.270	35.124	16384	19955	0	316
18.752	29.138	16384	20134	0	316
12.694	22.683	16385	20223	0	316
5.770	18.031	16385	20134	0	316
1.947	14.533	16385	19955	0	316
2.669	14.713	16385	19866	0	316
3.354	13.307	16385	19687	0	316
3.101	8.547	16385	19419	0	316
-1.118	2.777	16385	19151	0	316
-6.852	-2.849	16385	18794	0	316
-9.989	-3.101	16385	18259	0	316
-7.176	-0.252	16385	17723	0	316
-0.216	7.862	16385	17276	0	316
6.708	11.828	16386	17009	0	316
9.016	12.189	16386	16919	0	316
10.278	11.540	16386	16741	0	316
9.448	12.153	16386	16562	0	316
11.215	12.333	16385	16384	0	316
11.864	16.805	16386	16117	0	316
13.848	21.745	16385	15759	0	316
15.362	27.371	16385	15402	0	316
16.589	30.689	16385	14956	0	316
23.296	33.718	16385	14599	0	316
24.594	34.547	16385	14420	0	316
24.089	33.429	16385	14420	0	316
20.339	31.699	16385	14242	0	316
14.605	30.545	16385	14242	0	316
12.225	27.912	16385	14420	0	316
12.297	25.856	16385	14599	0	316
13.920	21.709	16385	14688	0	316
15.795	18.211	16385	14688	0	316
13.812	17.238	16385	14599	0	316
12.658	14.713	16385	14420	0	316
9.124	11.468	16385	14152	0	316
6.780	7.501	16384	13974	0	316
2.452	1.046	16384	13884	0	316
0.361	-3.137	16384	13795	0	316
-3.534	-1.839	16384	13884	0	316
-6.167	3.787	16384	13974	0	316
-4.508	12.730	16384	14152	0	316
-1.659	16.877	16384	14509	0	316
1.082	17.743	16384	14867	0	316
2.128	12.946	16384	15134	0	316
1.334	9.304	16384	15313	0	316
0.577	8.547	16384	15492	0	316
2.921	9.953	16384	15492	0	316
6.167	14.461	16384	15402	0	316
10.566	17.526	16384	15045	0	316
10.530	15.435	16384	14867	0	316
8.547	15.326	16384	14867	0	316
7.393	12.802	16384	15045	0	316
8.547	11.756	16384	15313	0	316
8.402	12.586	16384	15670	0	316
5.950	12.369	16384	16027	0	316
4.219	15.687	16384	16295	0	316
4.616	16.733	16384	16384	0	316
6.455	20.267	16384	16651	0	316
10.350	19.690	16384	16919	0	316
10.422	18.320	16384	17009	0	316
5.806	11.937	16384	16919	0	316
2.596	6.960	16384	16830	0	316
0.721	5.409	16384	16741	0	316
2.957	4.760	16384	16830	0	316
3.426	3.967	16384	16830	0	316
2.921	4.688	16384	16741	0	316
2.596	7.068	16384	16830	0	316
1.839	9.196	16384	16830	0	316
1.082	13.415	16384	16562	0	316
0.721	13.307	16384	16384	0	316
1.298	12.477	16384	16384	0	316
3.318	11.287	16384	16295	0	316
5.734	10.602	16384	16206	0	316
8.402	12.622	16384	16206	0	316
10.783	14.317	16384	16384	1	316
14.641	14.713	16384	16384	0	316
17.670	19.185	16384	16295	0	316
23.873	22.791	16384	16295	0	316
24.955	25.784	16384	16384	0	316
19.834	25.424	16384	16384	0	316
11.360	20.375	16383	16295	0	316
0.180	13.776	16383	16384	0	316
-7.753	5.626	16383	16562	0	316
-9.016	0.361	16384	16741	0	316
-7.609	-1.046	16384	17009	0	316
-5.626	-0.505	16384	17187	0	316
-6.275	-0.325	16384	17455	0	316
-10.458	-0.433	16384	17634	0	316
-13.163	-3.534	16384	17812	0	316
-14.389	-5.626	16384	18080	0	316
-11.540	-7.393	16384	18259	0	316
-9.556	-5.842	16384	18259	0	316
-5.662	-2.741	16384	18348	0	316
-0.361	2.849	16384	18526	0	316
5.626	10.458	16384	18705	0	316
9.917	14.569	16384	18616	0	316
10.891	16.372	16384	18526	0	316
6.094	14.497	16384	18437	0	316
-2.452	9.232	16384	18348	0	316
-6.058	8.547	16384	18169	0	316
-5.301	10.133	16384	17991	0	316
-0.108	11.432	16384	17723	0	316
5.409	13.451	16384	17455	0	316
7.068	13.740	16384	17366	0	316
4.364	11.287	16384	17276	0	316
1.082	10.963	16384	17009	0	316
-2.128	11.612	16384	16830	0	316
-2.741	9.989	16384	16651	0	316
-1.406	7.753	16384	16473	0	316
-1.082	5.914	16384	16384	0	316
-0.108	3.354	16384	16384	0	316
0.757	1.659	16384	16384	0	316
0.144	1.659	16384	16295	0	316
2.416	2.813	16384	15938	0	316
4.616	1.659	16384	15670	0	316
10.855	2.885	16384	15402	0	316
11.396	3.823	16384	15134	0	316
10.242	4.868	16384	14688	0	316
4.111	5.049	16384	14242	0	316
-0.144	8.294	16384	13974	0	316
-1.046	8.222	16384	13974	0	316
1.803	6.058	16384	14152	0	316
3.570	0.325	16384	14242	0	316
-0.036	-7.862	16384	14242	0	316
-6.996	-12.766	16384	14331	0	316
-12.514	-18.067	16384	14420	0	316
-11.973	-15.723	16384	14599	0	316
-10.242	-12.009	16384	14777	0	316
-7.357	-10.674	16384	15134	0	316
-5.373	-8.222	16384	15402	0	316
-6.599	-9.124	16384	15581	0	316
-10.097	-10.891	16384	15581	0	316
-10.963	-12.225	16384	15581	0	316
-12.369	-11.035	16384	15759	0	316
-16.841	-11.179	16384	15849	0	316
-16.877	-12.874	16384	15938	0	316
-14.713	-13.559	16384	15849	0	316
-15.723	-18.283	16384	15759	0	316
-14.245	-18.969	16384	15581	0	316
-17.310	-19.654	16383	15492	0	316
-19.293	-17.202	16383	15581	0	316
-23.116	-15.687	16383	15581	0	316
-20.916	-13.523	16384	15759	0	316
-18.356	-11.648	16384	16027	0	316
-14.930	-11.143	16384	16117	0	316
-13.559	-10.458	16384	16206	0	316
-12.009	-9.845	16384	16384	0	316
-14.064	-12.333	16384	16384	0	316
-15.146	-14.569	16383	16384	0	316
-21.349	-19.582	16383	16384	0	316
-26.361	-22.070	16383	16206	0	316
-33.934	-25.568	16383	16206	0	316
-36.495	-24.847	16383	16295	0	316
-34.295	-21.349	16383	16384	0	316
-26.722	-19.077	16383	16473	0	316
-21.421	-13.668	16383	16562	0	316
-20.519	-13.163	16383	16651	0	316
-25.784	-14.785	16383	16741	0	316
-31.338	-15.110	16383	16830	0	316
-32.095	-16.228	16383	16830	0	316
-21.818	-11.251	16383	16741	0	316
-11.432	-6.455	16383	16741	0	316
-5.373	-1.983	16383	16830	0	316
-8.186	-1.298	16383	16830	0	316
-19.293	-3.426	16383	16830	0	316
-24.522	-5.806	16383	16830	0	316
-24.053	-6.419	16383	17009	0	316
-17.634	-4.940	16383	17098	0	316
-10.819	-0.613	16383	17098	0	316
-6.203	2.380	16383	17009	0	316
-6.058	5.373	16383	17009	0	316
-6.491	6.167	16383	17187	0	316
-5.626	6.022	16383	17455	0	316
-6.239	4.544	16384	17812	0	316
-5.806	1.803	16384	18348	0	316
-6.419	-0.144	16384	18884	0	316
-6.744	-2.272	16384	19151	0	316
-8.186	-3.823	16384	19062	0	316
-10.819	-6.167	16384	18884	0	316
-11.828	-7.970	16384	18705	0	316
-15.002	-9.412	16384	18437	0	316
-17.202	-9.232	16384	18169	0	316
-18.752	-7.212	16384	17901	0	316
-17.382	-1.479	16384	17723	0	316
-14.605	0.938	16384	17544	0	316
-10.638	0.036	16384	17455	0	316
-7.393	-1.334	16384	17276	0	316
-8.078	-4.724	16384	17009	0	316
-10.458	-6.094	16384	16830	0	316
-11.973	-3.787	16384	16741	0	316
-9.412	-0.685	16384	16651	0	316
-7.465	3.642	16384	16562	0	316
-3.390	7.212	16384	16384	0	316
1.262	12.874	16384	16117	0	316
5.229	17.382	16384	15938	0	316
9.737	20.447	16384	15670	0	316
13.812	20.267	16384	15402	0	316
12.838	18.139	16384	15313	0	316
6.347	11.504	16384	15313	0	316
-0.721	5.265	16384	15581	0	316
-7.285	0.938	16384	16027	0	316
-7.573	-1.875	16384	16473	0	316
-8.799	-0.829	16384	16651	0	316
-8.294	0.325	16384	16651	0	316
-9.340	0.649	16384	16741	0	316
-9.953	0.757	16384	17009	0	316
-8.366	1.406	16384	17276	0	316
-3.931	2.380	16384	17634	0	316
-2.957	2.957	16385	17901	0	316
-4.039	2.308	16385	18080	0	316
-6.599	2.849	16385	18259	0	316
-8.835	1.334	16385	18169	0	316
-9.196	0.938	16385	17901	0	316
-4.796	0.108	16385	17455	0	316
-2.596	-0.649	16385	17187	0	316
0.433	0.829	16385	16830	0	316
3.823	4.219	16385	16384	0	316
8.366	9.989	16385	15849	0	316
11.720	14.569	16385	15492	0	316
15.687	15.579	16384	15134	0	316
17.454	16.444	16384	14509	0	316
15.543	13.668	16384	13884	0	316
13.271	9.124	16384	13349	0	316
5.950	5.301	16384	13081	0	316
-2.957	1.659	16384	12902	0	316
-8.763	0.144	16384	12813	0	316
-7.970	2.560	16384	12724	0	316
-0.361	3.678	16384	12813	0	316
11.071	3.210	16384	12902	0	316
17.887	-0.361	16384	13259	0	316
17.959	-4.075	16384	13884	0	316
9.340	-6.635	16384	14688	0	316
-0.397	-6.058	16384	15313	0	316
-10.133	-3.282	16384	15581	0	316
-12.477	0.180	16384	15849	0	316
-8.006	4.111	16384	16206	0	316
0.433	8.583	16384	16473	0	316
8.366	12.730	16384	16830	0	316
12.514	14.533	16384	17187	0	316
10.927	16.625	16384	17455	0	316
8.006	16.372	16384	17723	0	316
6.167	17.779	16384	17901	0	316
3.210	16.913	16384	17901	0	316
1.587	16.048	16384	17991	0	316
1.731	14.785	16384	17812	0	316
3.714	13.343	16384	17634	0	316
7.393	15.975	16384	17455	0	316
9.989	16.949	16384	17544	0	316
8.691	16.336	16384	17723	0	316
0.252	9.088	16384	17901	0	316
-9.592	0.757	16384	17991	0	316
-18.608	-8.150	16384	17901	0	316
-19.870	-11.360	16384	17812	0	316
-17.634	-7.248	16384	17634	0	316
-12.802	-3.101	16384	17455	0	316
-12.117	0.072	16384	17276	0	316
-16.264	0.397	16384	17187	0	316
-16.769	-0.829	16385	17187	0	316
-16.300	-0.361	16385	17098	0	316
-8.330	3.246	16385	17098	0	316
-0.649	7.934	16385	17098	0	316
3.931	11.468	16385	16919	0	316
6.491	15.074	16385	16562	0	316
9.881	19.257	16384	16206	0	316
11.864	20.664	16384	15670	0	316
14.605	20.952	16384	15134	0	316
12.550	15.290	16384	14867	0	316
8.655	13.018	16384	14599	0	316
5.013	8.799	16384	14509	0	316
7.537	10.350	16384	14509	0	316
9.052	11.504	16384	14599	0	316
8.439	9.556	16384	14599	0	316
3.823	4.868	16384	14599	0	316
-1.623	1.334	16384	14688	0	316
-4.652	-3.354	16384	14777	0	316
-2.128	-1.983	16384	14777	0	316
3.029	0.216	16384	14867	0	316
6.419	1.262	16384	15045	0	316
3.967	0.974	16384	15492	0	316
0.613	-2.633	16384	16117	0	316
-1.731	-6.419	16384	16741	0	316
-0.541	-8.006	16384	17455	0	316
10.674	-2.560	16384	18169	0	316
23.332	5.265	16384	18705	0	316
32.348	12.261	16384	19241	0	316
33.934	14.028	16385	19509	0	316
28.922	14.317	16385	19419	0	316
22.575	9.953	16385	19151	0	316
25.532	9.448	16385	18794	0	316
31.735	16.372	16385	18616	0	316
38.839	20.591	16385	18526	1	864
40.786	24.739	16385	18526	0	864
36.855	24.017	16385	18348	0	864
29.499	18.247	16385	18080	0	864
22.431	13.812	16385	17723	0	864
15.831	8.799	16385	17455	0	864
10.891	5.986	16385	17098	0	864
3.678	0.829	16385	16651	0	864
-0.613	-5.842	16385	16117	0	864
-2.452	-12.117	16385	15402	0	864
-1.695	-14.605	16385	15045	0	864
-0.469	-15.254	16384	14956	0	864
-0.721	-15.326	16385	15045	0	864
-3.282	-13.704	16385	15313	0	864
-7.176	-15.759	16385	15759	0	864
-7.645	-13.091	16385	15849	0	864
-5.986	-11.648	16385	15759	0	864
-3.534	-9.484	16385	15670	0	864
-1.623	-6.527	16385	15492	0	864
0.469	-4.255	16385	15402	0	864
3.895	-0.505	16385	15224	0	864
9.268	6.744	16385	14867	0	864
15.759	12.910	16384	14777	0	864
17.959	17.670	16384	14777	0	864
21.385	22.358	16384	14777	0	864
19.834	23.008	16384	14688	0	864
20.375	23.585	16384	14509	0	864
18.500	25.063	16384	14420	0	864
19.113	23.693	16384	14420	0	864
15.543	20.844	16384	14599	0	864
13.199	18.933	16384	14688	0	864
8.871	12.946	16384	14777	0	864
4.580	10.314	16384	14777	0	864
2.669	8.655	16384	14688	0	864
0.685	5.554	16384	14509	0	864
2.957	4.760	16384	14420	0	864
0.505	2.056	16384	14599	0	864
-2.885	-2.236	16384	14688	0	864
-5.950	-4.219	16384	14777	0	864
-7.789	-3.390	16384	14777	0	864
-6.852	-1.226	16384	14867	0	864
-1.623	2.200	16384	14956	0	864
1.803	2.921	16384	15224	0	864
3.101	1.587	16384	15849	0	864
1.731	-1.010	16384	16651	0	864
-1.082	-3.137	16384	17455	0	864
-3.101	-2.236	16384	18169	0	864
-1.262	0.180	16384	18884	0	864
1.911	3.390	16384	19419	0	864
7.537	7.573	16384	19955	0	864
11.396	11.323	16384	20312	0	864
14.353	15.290	16384	20669	0	864
13.595	14.605	16384	20669	0	864
12.550	14.858	16385	20401	0	864
13.127	13.451	16385	19955	0	864
13.704	13.127	16385	19419	0	864
19.978	16.877	16384	18973	0	864
24.486	20.952	16384	18616	0	864
28.128	24.378	16384	18169	0	864
26.253	24.702	16384	17812	0	864
20.772	19.437	16384	17544	0	864
16.120	14.317	16384	17366	0	864
10.963	8.114	16384	17098	0	864
13.163	5.698	16384	16830	0	864
14.713	5.013	16384	16562	0	864
19.041	5.734	16384	16295	0	864
17.202	5.337	16384	15670	0	864
16.336	4.904	16384	15134	0	864
12.658	7.032	16384	14867	0	864
8.150	8.150	16384	14688	0	864
9.737	12.586	16384	14599	0	864
11.900	12.982	16384	14688	0	864
12.658	12.910	16384	15045	0	864
12.297	10.602	16384	15492	0	864
9.052	8.619	16384	15849	0	864
3.390	8.258	16384	16206	0	864
1.551	9.629	16384	16384	0	864
3.318	11.756	16384	16384	0	864
6.527	12.802	16384	16384	0	864
9.448	13.415	16384	16295	1	316
9.304	13.704	16384	16295	0	316
8.186	12.153	16384	16206	0	316
8.186	13.884	16384	16117	0	316
12.730	15.939	16384	15938	0	316
19.510	15.759	16384	15849	0	316
21.313	15.398	16384	15670	0	316
20.880	11.720	16384	15670	0	316
14.930	9.953	16384	15849	0	316
8.114	9.412	16384	16027	0	316
6.131	9.556	16384	16027	0	316
5.914	8.150	16384	15849	0	316
4.580	5.337	16384	15402	0	316
1.010	2.308	16384	14777	0	316
-2.993	1.046	16384	14152	0	316
-5.626	2.128	16384	13527	0	316
-5.878	3.210	16384	13170	0	316
-3.967	1.623	16384	12992	0	316
-0.793	0.793	16383	12992	0	316
-0.252	0.757	16384	13081	0	316
-1.406	1.262	16384	13349	0	316
-6.491	1.479	16383	13527	0	316
-11.468	1.190	16383	13795	0	316
-16.949	-1.947	16383	14152	0	316
-19.510	-4.724	16383	14509	0	316
-18.608	-6.383	16383	14867	0	316
-14.858	-4.580	16383	15224	0	316
-8.727	0.288	16383	15670	0	316
-2.633	5.842	16383	16117	0	316
3.029	10.494	16383	16473	0	316
3.895	10.783	16383	16741	0	316
1.046	8.511	16383	17009	0	316
-4.508	5.265	16383	17366	0	316
-10.422	1.911	16383	17634	0	316
-13.451	1.298	16383	17991	0	316
-12.405	1.587	16383	18169	0	316
-12.333	1.911	16383	18437	0	316
-10.999	2.777	16384	18705	0	316
-9.881	0.721	16384	18884	0	316
-11.900	-2.741	16384	19062	0	316
-12.730	-7.248	16384	19151	0	316
-11.323	-8.835	16384	19241	0	316
-12.694	-8.763	16384	19419	0	316
-14.569	-6.671	16384	19598	0	316
-15.507	-5.662	16384	19598	0	316
-18.211	-3.137	16384	19509	0	316
-14.749	-0.036	16384	19241	0	316
-11.035	2.957	16384	18973	0	316
-7.501	3.859	16384	18705	0	316
-5.914	3.065	16384	18348	0	316
-5.373	2.380	16384	18080	0	316
-3.787	2.596	16384	17901	0	316
-1.406	4.904	16384	17812	0	316
-4.255	5.085	16384	17723	0	316
-13.235	-1.082	16384	17544	0	316
-23.837	-9.052	16384	17366	0	316
-32.780	-15.795	16384	17098	0	316
-32.708	-16.408	16384	16830	0	316
-24.522	-14.677	16384	16562	0	316
-18.464	-11.143	16384	16384	0	316
-16.084	-9.304	16384	16295	0	316
-18.211	-11.756	16384	16027	0	316
-21.926	-13.956	16384	15670	0	316
-25.460	-14.245	16384	15402	0	316
-23.981	-15.831	16384	15224	0	316
-21.529	-15.579	16384	15045	0	316
-21.565	-18.211	16384	14956	0	316
-20.123	-18.356	16384	14688	0	316
-22.070	-19.690	16384	14509	0	316
-24.162	-15.831	16384	14420	0	316
-20.916	-14.785	16384	14242	0	316
-19.510	-12.369	16384	14242	0	316
-14.930	-11.143	16384	14331	0	316
-14.785	-9.160	16384	14599	0	316
-16.841	-6.131	16384	14777	0	316
-22.755	-3.426	16384	14956	0	316
-23.404	-4.400	16384	14956	0	316
-21.565	-5.337	16384	14777	0	316
-15.398	-8.655	16384	14509	0	316
-11.504	-9.989	16384	14242	0	316
-11.576	-10.566	16384	13974	0	316
-19.077	-11.648	16384	13974	0	316
-23.080	-13.163	16384	14152	0	316
-24.991	-11.432	16384	14420	0	316
-21.421	-9.520	16383	14688	0	316
-16.048	-7.862	16383	15045	0	316
-17.310	-8.006	16383	15402	0	316
-17.887	-10.927	16383	15849	0	316
-23.044	-13.812	16383	16206	0	316
-21.926	-15.038	16383	16384	0	316
-21.349	-12.117	16383	16562	0	316
-19.978	-12.117	16384	16830	0	316
-23.080	-14.821	16384	17366	0	316
-28.922	-19.654	16384	17901	0	316
-34.692	-25.784	16384	18169	0	316
-37.613	-28.453	16384	18259	0	316
-34.692	-28.128	16384	18348	0	316
-29.859	-22.395	16384	18437	0	316
-23.044	-18.824	16384	18526	0	316
-20.339	-12.946	16384	18259	0	316
-19.041	-10.350	16384	17901	0	316
-18.067	-7.573	16384	17455	0	316
-18.211	-5.590	16384	17276	0	316
-14.930	-3.642	16384	17098	0	316
-15.651	-4.868	16384	16919	0	316
-15.867	-7.970	16384	16741	0	316
-21.277	-14.966	16384	16562	0	316
-19.257	-17.851	16384	16562	0	316
-20.555	-19.077	16384	16651	0	316
-16.120	-14.208	16384	16830	0	316
-17.959	-12.297	16384	17009	0	316
-20.844	-11.540	16384	17009	0	316
-26.361	-13.704	16384	17009	0	316
-27.587	-15.362	16384	16830	0	316
-24.017	-15.074	16384	16473	0	316
-22.142	-14.894	16384	16384	0	316
-22.250	-12.910	16384	16117	0	316
-25.316	-13.992	16384	15849	0	316
-27.515	-12.586	16384	15670	0	316
-26.722	-9.016	16384	15581	0	316
-24.089	-9.917	16384	15402	0	316
-20.411	-9.196	16384	15313	0	316
-23.188	-9.556	16384	15313	0	316
-21.962	-9.448	16384	15224	0	316
-20.195	-6.311	16383	15134	0	316
-18.139	-3.246	16383	15134	0	316
-15.290	-2.344	16383	15224	0	316
-16.589	-4.508	16383	15581	0	316
-16.661	-6.167	16383	16027	0	316
-14.966	-3.750	16384	16562	0	316
-9.232	-1.731	16384	16919	0	316
-5.445	1.479	16384	17098	0	316
-7.140	2.272	16384	17098	0	316
-18.211	-0.829	16384	17098	0	316
-24.883	-4.364	16384	17098	0	316
-30.508	-5.337	16384	17009	0	316
-27.227	-5.950	16384	16919	0	316
-19.149	-5.121	16384	16830	0	316
-18.139	-7.465	16384	16830	0	316
-21.601	-10.963	16384	16919	0	316
-27.227	-14.317	16384	17098	0	316
-30.004	-15.903	16384	17366	0	316
-26.361	-12.658	16384	17812	0	316
-18.608	-10.602	16384	18169	0	316
-16.048	-10.783	16384	18348	0	316
-18.067	-10.999	16384	18437	0	316
-24.594	-13.884	16384	18348	0	316
-28.453	-13.992	16384	18080	0	316
-30.148	-9.124	16384	17723	0	316
-25.460	-8.006	16384	17366	0	316
-23.044	-6.275	16384	17098	0	316
-23.260	-5.049	16384	17098	0	316
-20.159	-4.580	16384	17187	0	316
-18.247	-2.560	16384	17187	0	316
-12.622	-0.721	16384	16919	0	316
-10.819	-0.036	16384	16562	0	316
-11.612	-1.406	16384	16384	0	316
-13.812	-2.957	16384	16206	0	316
-18.320	-1.947	16384	16206	0	316
-17.851	-3.823	16384	16117	0	316
-18.608	-5.445	16384	16117	0	316
-18.860	-7.032	16384	16206	0	316
-25.063	-10.819	16384	16295	0	316
-33.538	-13.668	16384	16384	0	316
-42.914	-19.762	16384	16295	0	316
-47.061	-21.637	16384	16027	0	316
-45.799	-24.414	16384	15759	0	316
-41.003	-22.322	16384	15670	0	316
-39.596	-20.375	16384	15670	0	316
-44.501	-22.539	16384	15670	0	316
-50.343	-26.578	16384	15670	0	316
-54.201	-30.112	16384	15670	0	316
-51.424	-28.705	16384	15759	0	316
-46.664	-25.388	16384	15759	0	316
-43.383	-20.195	16384	15849	0	316
-41.724	-17.382	16384	16117	0	316
-39.344	-18.175	16384	16384	0	316
-34.836	-15.398	16384	16562	0	316
-28.597	-12.910	16384	16651	0	316
-23.693	-7.934	16384	16830	0	316
-24.053	-4.760	16384	16919	0	316
-28.345	-3.318	16384	16919	0	316
-33.934	-5.373	16384	17009	0	316
-35.954	-7.321	16384	17187	0	316
-33.393	-8.943	16384	17366	0	316
-28.164	-7.789	16385	17544	0	316
-25.748	-4.688	16385	17366	0	316
-28.020	-3.390	16385	17098	0	316
-30.689	-3.462	16385	16741	0	316
-33.466	-2.488	16385	16473	0	316
-32.744	-4.508	16384	16295	0	316
-30.545	-6.131	16384	16117	0	316
-28.922	-6.491	16384	15938	0	316
-30.581	-6.491	16384	15849	0	316
-30.833	-6.455	16384	15581	0	316
-31.518	-4.400	16384	15134	0	316
-32.312	-5.193	16384	14777	0	316
-31.879	-6.563	16384	14420	0	316
-30.472	-9.088	16384	14152	0	316
-27.840	-8.222	16384	13974	0	316
-25.784	-3.606	16384	13795	0	316
-22.683	3.534	16384	13706	0	316
-19.329	10.133	16384	13617	0	316
-16.661	12.189	16384	13438	0	316
-13.018	9.881	16384	13527	0	316
-11.864	6.455	16384	13884	0	316
-11.432	4.832	16384	14509	0	316
-11.323	7.934	16384	15134	0	316
-13.559	13.054	16384	15849	0	316
-16.480	18.933	16384	16384	0	316
-17.815	17.382	16384	16830	0	316
-18.933	16.336	16384	17187	0	316
-16.192	13.451	16384	17276	0	316
-11.468	14.966	16384	17276	0	316
-6.419	18.752	16384	17187	0	316
-4.760	21.709	16384	17098	0	316
-5.265	21.349	16384	17098	0	316
-6.347	18.464	16384	17098	0	316
-8.042	13.631	16384	16919	0	316
-10.278	10.530	16384	16651	0	316
-11.973	10.061	16384	16384	0	316
-15.218	8.402	16384	16117	0	316
-16.048	5.806	16384	16027	0	316
-19.798	3.029	16384	16027	0	316
-18.211	2.849	16384	16295	0	316
-17.526	4.616	16384	16384	0	316
-12.874	8.583	16384	16473	0	316
-10.494	11.360	16384	16562	0	316
-6.744	14.641	16384	16651	0	316
-2.416	17.526	16384	17009	0	316
0.685	18.031	16384	17276	0	316
3.462	20.988	16384	17544	0	316
4.436	18.897	16384	17634	0	316
3.678	18.824	16384	17634	0	316
0.938	17.129	16384	17544	0	316
-0.685	19.041	16384	17366	0	316
0.216	18.392	16384	17009	0	316
-0.469	15.326	16384	16651	0	316
-2.957	9.989	16384	16384	1	952
-5.409	6.058	16384	16384	0	952
-7.717	5.626	16384	16384	0	952
-8.078	6.383	16384	16473	0	952
-5.481	10.710	16384	16741	0	952
-3.282	11.215	16384	17009	0	952
-0.144	12.117	16384	17276	0	952
2.272	10.819	16384	17544	0	952
3.029	8.258	16384	17723	0	952
0.433	6.275	16384	17901	0	952
-4.796	1.190	16384	17991	0	952
-11.756	-4.219	16384	18080	0	952
-14.208	-6.563	16384	18080	0	952
-13.595	-7.862	16384	17901	0	952
-11.900	-7.357	16384	17366	0	952
-10.025	-7.248	16384	16830	0	952
-14.930	-6.455	16384	16384	0	952
-17.346	-7.645	16384	16027	0	952
-15.218	-9.304	16384	15759	0	952
-11.792	-10.314	16384	15492	0	952
-5.229	-10.025	16384	15402	0	952
-2.452	-8.547	16384	15402	0	952
-4.075	-5.013	16384	15492	0	952
-5.049	-1.046	16384	15670	0	952
-6.996	1.623	16384	15849	0	952
-5.337	2.777	16384	16117	0	952
-3.065	2.741	16384	16473	0	952
-2.236	4.832	16384	16562	0	952
-0.757	7.825	16384	16562	0	952
-0.361	9.304	16384	16384	0	952
2.416	11.179	16384	16562	0	952
4.977	10.206	16384	16919	0	952
8.006	9.917	16384	17276	0	952
8.366	8.583	16384	17544	0	952
6.311	8.691	16384	17634	0	952
4.039	6.744	16384	17723	0	952
4.364	6.780	16384	17723	0	952
5.842	6.094	16384	17634	0	952
8.583	6.888	16384	17544	0	952
6.780	6.455	16385	17455	0	952
3.065	4.147	16385	17366	0	952
-3.498	-2.272	16385	17276	0	952
-5.085	-6.671	16385	17098	0	952
-3.678	-8.294	16385	17098	0	952
0.361	-5.373	16385	17009	0	952
2.560	1.659	16385	16830	0	952
2.885	8.475	16385	16562	0	952
0.288	10.530	16385	16295	0	952
-0.072	10.891	16385	16027	0	952
4.544	8.511	16385	15670	0	952
7.681	6.094	16385	15402	0	952
9.520	6.671	16385	15224	0	952
5.698	6.455	16384	15045	0	952
2.488	7.140	16384	14867	0	952
-0.108	6.311	16384	14688	0	952
0.902	6.708	16384	14599	0	952
3.859	6.311	16384	14509	0	952
6.347	8.042	16384	14331	0	952
8.114	11.215	16384	14331	0	952
9.124	14.749	16384	14242	0	952
8.943	14.605	16384	14152	0	952
6.563	12.477	16384	14152	0	952
3.787	5.842	16384	14242	0	952
1.262	1.226	16384	14063	0	952
2.056	-0.288	16384	13974	0	952
2.993	0.938	16384	14152	0	952
0.685	4.111	16384	14599	0	952
-3.823	4.291	16384	15134	0	952
-8.186	3.065	16384	15670	0	952
-9.160	1.010	16384	15849	0	952
-7.212	-0.144	16384	15849	0	952
-2.596	1.190	16384	15759	0	952
0.072	1.911	16384	15849	0	952
-0.036	2.092	16384	16027	0	952
-4.760	-1.118	16384	16206	0	952
-8.583	-5.193	16384	16384	0	952
-11.323	-8.943	16384	16562	0	952
-13.704	-8.258	16384	16919	0	952
-8.835	-5.662	16384	17276	0	952
-3.354	-0.252	16384	17455	1	316
2.957	1.947	16384	17455	0	316
7.140	-0.685	16384	17187	0	316
7.898	-2.056	16384	16919	0	316
4.039	-5.337	16384	16651	0	316
1.442	-4.652	16384	16651	0	316
1.010	-1.370	16384	17009	0	316
4.688	3.173	16384	17366	0	316
9.881	6.780	16384	17634	0	316
14.281	9.448	16384	17812	0	316
10.855	8.006	16384	18080	0	316
4.147	5.409	16384	18437	0	316
-1.370	1.479	16384	18794	0	316
-2.056	0.108	16384	18973	0	316
2.416	4.580	16384	19062	0	316
11.937	9.448	16384	19062	0	316
16.949	12.441	16384	18794	0	316
15.362	12.225	16384	18616	0	316
12.874	10.097	16384	18348	0	316
8.979	7.140	16384	17901	0	316
7.609	4.652	16384	17455	0	316
10.278	4.868	16384	17009	0	316
13.163	3.642	16384	16473	0	316
13.379	0.505	16384	16117	0	316
15.435	-0.505	16384	15670	0	316
13.235	-0.288	16384	15224	0	316
11.720	0.252	16384	14956	0	316
9.448	0.108	16384	14599	0	316
7.609	5.734	16384	14420	0	316
10.025	9.629	16384	14242	0	316
18.788	15.290	16384	14242	0	316
26.830	20.591	16384	14420	0	316
31.879	22.755	16384	14777	0	316
31.626	24.955	16384	15134	0	316
27.047	23.224	16384	15224	0	316
21.962	22.719	16384	15224	0	316
24.089	24.053	16384	15134	0	316
28.597	22.395	16384	15134	0	316
30.076	22.322	16384	15134	0	316
30.112	23.549	16384	15313	0	316
26.289	20.736	16384	15492	0	316
20.339	19.942	16384	15759	0	316
15.975	15.975	16384	15938	0	316
10.314	14.497	16384	16295	0	316
5.698	9.484	16384	16473	0	316
2.777	7.681	16384	16562	0	316
1.803	5.193	16384	16651	0	316
7.573	6.275	16384	16741	0	316
13.163	7.970	16384	16830	0	316
16.264	11.251	16384	16741	0	316
19.365	14.028	16384	16562	0	316
19.041	14.605	16384	16384	0	316
20.627	13.740	16384	16384	0	316
19.978	13.451	16384	16384	0	316
21.962	12.982	16384	16473	0	316
22.322	16.877	16384	16473	0	316
23.693	20.087	16384	16473	0	316
26.433	24.414	16384	16384	0	316
27.587	23.332	16384	16384	0	316
25.748	21.349	16384	16384	0	316
23.981	20.952	16384	16562	0	316
26.109	21.204	16384	16651	0	316
31.951	25.352	16384	16651	0	316
39.199	29.210	16384	16830	0	316
41.327	29.318	16384	17098	0	316
33.826	24.847	16384	17455	0	316
20.772	19.041	16384	17723	0	316
7.104	10.314	16384	17901	0	316
2.056	5.409	16384	18169	0	316
2.560	3.534	16384	18259	0	316
8.150	5.878	16384	18348	0	316
13.848	9.124	16384	18437	0	316
14.858	11.504	16384	18616	0	316
15.867	13.271	16384	18794	0	316
15.182	11.648	16384	18794	0	316
14.389	11.323	16384	18616	0	316
18.716	12.405	16384	18437	0	316
19.185	13.559	16385	18259	0	316
25.099	16.733	16385	18080	0	316
28.705	19.870	16385	17812	1	316
30.364	20.591	16385	17366	0	316
28.056	18.536	16385	17009	0	316
26.109	19.113	16385	16830	0	316
24.630	18.356	16385	16741	0	316
26.578	22.647	16385	16562	0	316
30.508	24.234	16385	16384	0	316
33.393	24.486	16385	16206	0	316
31.843	23.476	16385	15938	0	316
27.804	18.211	16385	15581	0	316
23.837	14.930	16385	15402	0	316
18.860	9.052	16384	15313	0	316
14.894	4.544	16385	15224	0	316
10.494	0.613	16385	15045	0	316
10.133	-1.334	16385	14867	0	316
10.133	-1.442	16384	14688	0	316
10.494	-0.902	16384	14599	0	316
9.737	-3.823	16384	14420	0	316
7.537	-5.229	16384	14242	0	316
4.940	-7.068	16384	14063	0	316
5.445	-8.078	16384	13884	0	316
8.222	-5.878	16384	13527	0	316
12.730	-1.406	16384	13170	0	316
16.661	5.806	16384	12813	0	316
22.358	12.550	16384	12634	0	316
27.479	14.533	16384	12813	0	316
32.239	17.815	16384	13170	0	316
39.488	17.310	16384	13438	0	316
42.048	19.726	16384	13795	0	316
41.111	21.096	16384	14152	0	316
34.692	22.503	16384	14599	0	316
27.515	18.752	16384	15045	0	316
23.837	16.769	16384	15581	0	316
28.417	15.290	16384	16206	0	316
32.925	16.516	16384	16651	0	316
32.167	12.838	16384	17009	0	316
24.666	10.314	16384	17009	0	316
16.228	5.986	16384	16741	0	316
12.009	2.488	16384	16651	0	316
17.562	4.436	16384	16651	0	316
19.798	4.147	16384	16830	0	316
18.464	0.072	16384	16919	0	316
9.268	-6.491	16384	17098	0	316
-0.865	-14.533	16384	17276	0	316
-6.527	-17.021	16384	17366	0	316
-7.357	-18.428	16384	17276	0	316
-2.416	-11.828	16384	17009	0	316
2.993	-9.809	16384	16741	0	316
7.393	-7.429	16383	16651	0	316
11.612	-5.770	16383	16562	0	316
14.497	-2.741	16383	16562	0	316
15.362	2.741	16383	16562	0	316
22.034	10.458	16383	16473	0	316
27.263	14.677	16383	16473	0	316
32.456	18.283	16383	16473	0	316
34.944	18.211	16384	16651	0	316
35.305	20.447	16384	17098	0	316
33.466	21.493	16384	17455	0	316
33.105	22.935	16384	17723	0	316
32.492	21.349	16384	17812	0	316
30.869	16.480	16384	17901	0	316
27.407	13.668	16384	18080	0	316
25.568	12.982	16384	18348	0	316
21.998	11.828	16384	18705	0	316
21.349	13.451	16384	18973	0	316
18.031	10.530	16384	19330	0	316
17.526	7.429	16384	19509	0	316
15.831	4.436	16384	19509	0	316
17.093	3.534	16384	19419	0	316
17.310	5.626	16384	19419	0	316
19.437	6.311	16384	19151	0	316
17.310	4.904	16384	18884	0	316
16.877	1.659	16385	18705	0	316
13.487	-3.246	16385	18794	0	316
14.713	-5.049	16384	18794	0	316
14.966	-0.902	16385	18705	0	316
15.110	3.173	16385	18437	0	316
12.261	6.455	16385	17991	0	316
8.366	7.789	16385	17634	0	316
9.088	6.419	16385	17187	1	316
14.281	9.088	16385	16830	0	316
21.601	12.874	16385	16473	0	316
26.289	16.120	16385	16117	0	316
27.371	18.572	16385	15938	0	316
21.962	15.326	16385	15849	0	316
17.166	13.523	16385	15581	0	316
17.057	11.864	16385	15134	0	316
16.408	13.992	16385	14509	0	316
17.346	17.021	16385	14063	0	316
17.923	17.526	16384	13884	0	316
18.356	19.618	16384	13884	0	316
18.860	16.336	16384	14063	0	316
19.401	15.723	16384	14152	0	316
19.113	12.081	16384	13974	0	316
17.995	10.674	16384	13617	0	316
14.281	9.340	16384	13438	0	316
10.999	8.186	16384	13170	0	316
12.477	9.016	16384	12992	0	316
11.792	8.979	16384	12813	0	316
12.874	6.599	16384	12634	0	316
13.415	1.767	16384	12545	0	316
10.602	-2.524	16384	12724	0	316
9.268	-3.210	16384	12902	0	316
8.330	1.551	16384	13081	0	316
6.275	6.816	16384	13438	0	316
7.862	12.514	16384	13795	0	316
10.242	14.028	16384	14063	0	316
12.045	10.097	16384	14420	0	316
13.415	6.996	16383	14688	0	316
13.235	3.750	16383	15045	0	316
12.261	4.832	16383	15313	0	316
11.287	7.068	16383	15492	0	316
13.884	11.179	16383	15670	0	316
19.365	13.595	16383	16027	0	316
22.431	14.785	16383	16384	0	316
23.729	13.163	16383	16651	0	316
22.755	10.350	16383	17098	0	316
18.860	8.475	16383	17634	0	316
17.382	6.527	16383	18080	0	316
15.182	5.842	16383	18348	0	316
15.326	7.176	16384	18616	0	316
12.045	9.520	16384	18884	0	316
9.953	11.540	16384	19241	0	316
9.232	10.061	16384	19598	0	316
10.566	8.799	16384	19866	0	316
13.992	8.727	16384	19955	0	316
16.084	9.304	16384	19955	0	316
13.848	9.448	16384	19866	0	316
14.425	11.287	16384	19687	0	316
12.838	12.153	16384	19687	0	316
13.271	12.514	16384	19598	0	316
15.507	13.884	16384	19419	0	316
12.441	14.894	16384	19062	0	316
11.864	11.107	16384	18705	0	316
10.891	9.304	16384	18348	0	316
13.054	9.773	16384	17901	0	316
18.680	11.900	16384	17366	0	316
21.168	15.615	16384	16830	0	316
22.286	18.175	16384	16295	0	316
15.795	16.552	16384	15581	0	316
13.127	17.743	16384	15045	0	316
9.556	16.841	16384	14688	0	316
10.206	18.897	16384	14420	0	316
14.713	18.572	16384	14242	0	316
13.487	19.221	16384	14063	0	316
12.477	17.490	16384	14152	0	316
11.287	17.923	16384	14331	0	316
10.710	17.093	16384	14420	0	316
16.372	19.762	16384	14599	0	316
21.745	24.234	16384	14867	0	316
27.660	26.181	16384	15313	0	316
27.912	26.181	16384	15849	0	316
23.044	23.152	16384	16384	0	316
17.129	16.336	16384	16741	0	316
11.504	14.245	16384	17187	0	316
12.333	12.874	16384	17544	0	316
16.120	17.346	16384	17901	0	316
24.522	18.464	16384	18259	0	316
27.912	20.303	16384	18526	1	316
27.047	18.500	16384	18526	0	316
24.811	18.175	16384	18526	0	316
18.536	16.516	16384	18437	0	316
16.048	18.644	16384	18169	0	316
15.398	20.627	16384	17812	0	316
19.005	23.080	16384	17455	0	316
21.457	24.811	16384	17098	0	316
21.060	22.250	16384	16830	0	316
20.483	20.988	16384	16651	0	316
14.821	16.805	16384	16562	0	316
15.074	16.697	16384	16473	0	316
15.002	16.661	16384	16473	0	316
13.884	18.608	16385	16473	0	316
15.146	17.706	16385	16562	0	316
12.009	18.464	16385	16562	0	316
14.821	18.103	16385	16473	0	316
19.726	21.277	16385	16384	0	316
25.640	23.368	16385	16206	0	316
25.496	25.316	16385	16117	0	316
19.762	24.089	16384	15938	0	316
14.894	20.700	16385	15670	0	316
12.550	16.516	16385	15492	0	316
15.651	17.851	16384	15224	0	316
22.395	17.815	16384	14867	0	316
26.361	21.745	16384	14420	0	316
24.666	20.844	16384	14331	0	316
22.863	20.231	16384	14420	0	316
22.972	16.985	16384	14599	0	316
22.106	16.264	16384	14867	0	316
21.132	15.398	16384	15134	0	316
17.129	17.959	16384	15224	0	316
12.946	14.821	16384	15313	0	316
8.655	15.074	16384	15492	0	316
12.297	14.136	16384	15670	0	316
18.139	16.697	16384	15670	0	316
21.637	20.339	16384	15581	0	316
22.755	24.594	16384	15492	0	316
21.385	23.080	16384	15492	0	316
16.480	21.204	16384	15492	0	316
14.461	15.435	16384	15581	0	316
13.054	14.677	16384	15670	0	316
9.556	11.648	16384	15849	0	316
8.583	11.251	16384	16027	0	316
4.147	9.665	16384	16117	0	316
1.911	6.022	16384	16206	0	316
2.056	5.013	16384	16206	0	316
4.400	8.330	16384	16295	0	316
6.167	10.963	16384	16473	0	316
7.753	9.881	16384	16830	0	316
6.671	6.419	16384	17187	0	316
2.560	1.226	16384	17455	0	316
0.216	-0.649	16384	17544	0	316
4.003	1.767	16384	17544	0	316
8.402	10.025	16384	17455	0	316
13.631	15.290	16384	17276	0	316
16.697	14.569	16384	17366	0	316
18.067	15.975	16384	17366	0	316
19.690	16.300	16384	17276	0	316
21.457	19.906	16384	17009	0	316
23.368	20.736	16384	16741	0	316
25.316	20.627	16384	16562	0	316
21.060	13.379	16384	16384	0	316
17.670	7.357	16384	16473	0	316
12.838	4.291	16384	16562	0	316
13.199	5.445	16384	16830	0	316
12.477	9.665	16384	17098	0	316
18.031	12.802	16384	17276	0	316
20.555	14.749	16384	17276	0	316
24.666	14.605	16384	17187	0	316
24.883	17.202	16384	17187	0	316
23.945	17.129	16384	17276	0	316
23.837	20.195	16385	17455	0	316
19.618	20.375	16385	17544	0	316
18.752	21.277	16385	17544	0	316
17.634	20.123	16385	17455	0	316
21.024	23.224	16385	17276	0	316
26.650	25.929	16384	17098	0	316
29.282	28.777	16384	16741	0	316
30.508	29.030	16384	16295	0	316
27.804	28.056	16384	15849	0	316
23.909	27.768	16384	15492	0	316
22.683	27.335	16384	15313	0	316
22.431	28.597	16384	15134	0	316
23.332	27.047	16384	15045	0	316
21.673	24.270	16384	15045	0	316
20.087	23.332	16384	15134	0	316
21.132	22.142	16384	15045	0	316
19.149	22.791	16384	14867	0	316
18.572	25.712	16384	14777	0	316
16.264	25.243	16384	14777	0	316
19.401	25.135	16384	15045	0	316
22.575	26.506	16384	15313	0	316
26.325	25.532	16384	15492	0	316
28.561	24.630	16384	15670	0	316
21.241	24.378	16384	15670	0	316
16.552	24.919	16384	15849	0	316
14.461	24.053	16384	15938	0	316
15.615	23.765	16384	16206	0	316
18.283	24.486	16384	16384	0	316
21.529	24.522	16384	16651	0	316
24.414	26.830	16384	16830	0	316
26.902	32.708	16384	17009	0	316
27.984	36.026	16384	17187	0	316
27.479	35.016	16384	17366	0	316
20.880	29.066	16384	17544	0	316
12.369	19.113	16384	17455	0	316
5.229	10.350	16384	17187	0	316
2.236	7.140	16384	16830	0	316
3.967	9.160	16384	16473	0	316
8.871	13.415	16384	16206	0	316
15.687	14.208	16384	16027	0	316
17.382	15.290	16384	15849	0	316
16.625	13.631	16384	15849	0	316
11.540	12.766	16384	15938	0	316
6.167	12.045	16384	16206	0	316
3.787	9.845	16384	16562	0	316
3.426	7.393	16384	16919	0	316
7.898	6.852	16384	17187	0	316
13.091	7.465	16384	17187	0	316
16.949	11.756	16384	17276	0	316
16.444	15.290	16384	17187	0	316
17.670	18.175	16384	17009	0	316
16.877	18.752	16384	16741	0	316
20.772	20.664	16384	16562	0	316
23.332	21.168	16384	16473	0	316
24.702	20.772	16384	16384	0	316
24.053	21.565	16384	16295	0	316
21.060	17.959	16384	16206	0	316
19.473	15.435	16384	16027	0	316
16.661	11.035	16384	15581	0	316
17.815	10.819	16384	14956	0	316
18.680	12.766	16384	14331	0	316
21.673	15.759	16384	14063	0	316
26.974	20.339	16384	14152	0	316
27.010	20.411	16384	14331	0	316
26.397	21.204	16384	14509	0	316
26.361	21.024	16384	14777	0	316
26.506	23.224	16384	14956	0	316
28.417	26.361	16384	15224	0	316
28.561	25.965	16384	15402	0	316
28.381	24.919	16384	15581	0	316
27.119	23.116	16384	15670	0	316
28.020	21.709	16384	15759	0	316
29.895	22.935	16384	15759	0	316
30.472	24.991	16384	15849	0	316
28.273	24.162	16384	16027	0	316
24.883	19.906	16384	16027	0	316
24.342	18.608	16384	15849	0	316
26.578	17.454	16384	15759	0	316
30.797	20.050	16383	15670	0	316
31.374	20.952	16383	15670	0	316
24.847	18.572	16383	15581	0	316
13.920	13.199	16383	15759	0	316
7.465	9.665	16383	16027	0	316
8.547	10.097	16383	16206	0	316
15.687	13.559	16383	16206	0	316
25.135	17.454	16383	16295	0	316
25.568	17.129	16383	16384	0	316
20.087	15.326	16383	16384	0	316
15.651	11.612	16383	16384	0	316
14.208	10.927	16383	16206	0	316
20.123	13.379	16383	16117	0	316
26.109	15.615	16383	16117	0	316
29.066	20.880	16383	16295	0	316
31.879	22.467	16383	16473	0	316
29.715	23.729	16383	16741	0	316
30.617	26.361	16383	16830	0	316
32.095	29.282	16383	16741	0	316
36.351	35.305	16383	16741	0	316
39.163	40.245	16382	16741	0	316
43.130	41.940	16382	16741	0	316
44.212	43.455	16382	16919	0	316
42.517	42.337	16382	17098	0	316
40.786	39.272	16383	17187	0	316
38.911	38.118	16383	17276	0	316
36.170	35.305	16383	17276	0	316
32.708	30.292	16383	17455	0	316
27.876	26.506	16383	17544	0	316
24.306	24.017	16383	17634	0	316
23.549	19.654	16383	17723	0	316
23.044	18.500	16383	17812	0	316
19.906	13.920	16383	17991	0	316
16.589	10.783	16383	17991	0	316
9.809	6.960	16383	17901	0	316
6.022	6.094	16383	17544	0	316
8.691	6.852	16383	17276	0	316
13.199	10.386	16383	17276	0	316
15.290	12.730	16383	17366	0	316
18.283	14.245	16383	17544	0	316
15.939	16.661	16383	17634	0	316
15.687	16.552	16384	17634	0	316
16.156	20.555	16384	17723	0	316
19.293	23.512	16384	17901	0	316
26.830	29.607	16384	18259	0	316
35.269	36.387	16384	18705	0	316
40.750	40.858	16384	18884	0	316
43.022	43.094	16384	18794	0	316
39.560	41.255	16384	18794	0	316
30.076	35.882	16384	18794	0	316
21.529	28.201	16384	18794	0	316
15.326	22.070	16384	18616	1	804
11.504	18.608	16384	18437	0	804
8.907	13.091	16384	18348	0	804
7.645	9.665	16384	18348	0	804
4.580	3.750	16384	18437	0	804
-0.252	-4.580	16385	18348	0	804
-3.967	-7.321	16385	18259	0	804
-4.760	-7.681	16385	17901	0	804
-3.354	-3.101	16385	17366	0	804
-0.757	2.200	16385	16830	0	804
0.505	3.246	16385	16384	0	804
-0.325	0.721	16385	15670	0	804
0.577	-1.190	16385	14867	0	804
1.983	-4.544	16384	14152	0	804
5.373	-1.226	16384	13706	0	804
9.376	3.101	16384	13438	0	804
11.864	7.537	16384	13259	0	804
16.841	14.317	16384	13259	0	804
20.014	20.087	16384	13438	0	804
26.361	25.171	16384	13527	0	804
29.066	27.083	16384	13438	0	804
30.581	26.578	16384	13259	0	804
30.761	24.378	16384	13259	0	804
31.626	24.594	16384	13259	0	804
30.364	23.945	16384	13349	0	804
29.823	24.883	16384	13527	0	804
27.010	24.594	16384	13795	0	804
20.555	19.077	16384	13974	0	804
16.552	13.379	16384	14331	0	804
12.117	7.393	16384	14688	0	804
10.927	2.524	16384	15045	0	804
12.117	0.721	16384	15492	0	804
9.953	1.082	16384	16117	0	804
12.153	4.255	16384	16651	0	804
12.622	7.970	16384	17276	0	804
12.009	8.763	16384	17812	0	804
13.704	9.196	16384	18348	0	804
11.323	6.744	16384	18705	0	804
7.212	5.409	16384	19062	0	804
4.977	6.022	16384	19241	0	804
7.609	11.684	16385	19419	0	804
13.776	17.093	16385	19419	0	804
18.897	22.106	16385	19330	0	804
23.801	24.450	16385	18973	0	804
24.270	23.873	16385	18526	0	804
22.575	24.089	16384	17991	0	804
24.089	23.440	16384	17366	0	804
26.289	22.431	16384	16741	0	804
28.237	23.873	16384	16295	0	804
28.705	25.424	16384	16027	0	804
30.292	26.253	16384	15849	0	804
28.922	28.309	16384	15670	0	804
29.823	28.850	16384	15402	0	804
27.840	27.299	16384	15134	0	804
23.404	23.945	16384	14867	0	804
20.916	22.250	16384	14599	0	804
18.969	24.486	16384	14331	0	804
21.457	27.299	16384	14063	0	804
25.712	31.590	16384	13974	0	804
26.181	31.049	16384	14063	0	804
21.529	25.424	16384	14242	0	804
15.398	16.877	16384	14242	0	804
6.671	10.674	16384	14420	0	804
2.921	8.691	16384	14599	0	804
2.164	9.160	16384	14867	0	804
2.813	8.655	16384	15134	0	804
1.406	6.419	16384	15492	0	804
-0.829	1.947	16384	15938	0	804
-2.777	-1.370	16384	16384	0	804
-3.354	-3.318	16384	16741	0	804
0.721	-2.128	16384	17276	0	804
4.111	-0.757	16384	17634	0	804
7.357	1.515	16384	17723	0	804
9.016	3.498	16384	17634	0	804
10.494	7.609	16384	17544	0	804
12.153	11.071	16384	17366	0	804
19.005	18.103	16384	17098	0	804
23.729	20.664	16384	16741	0	804
27.768	23.585	16384	16295	0	804
30.472	27.696	16384	15938	1	316
31.662	27.551	16384	15581	0	316
30.653	29.643	16384	15402	0	316
29.823	29.823	16384	15402	0	316
28.633	30.256	16384	15313	0	316
27.263	28.128	16384	15313	0	316
25.099	27.948	16384	15402	0	316
24.053	25.532	16384	15581	0	316
23.657	20.736	16384	15849	0	316
23.368	15.687	16384	16295	0	316
19.762	10.206	16384	16562	0	316
16.192	5.806	16384	16830	0	316
8.979	2.633	16384	16919	0	316
3.570	-0.108	16384	16830	0	316
0.577	0.180	16384	16741	0	316
3.173	-0.938	16384	16741	0	316
6.239	-1.190	16384	16741	0	316
6.599	-0.288	16384	16830	0	316
6.635	-0.108	16384	16651	0	316
5.301	2.092	16384	16384	0	316
6.960	6.744	16384	16117	0	316
9.809	11.107	16384	15938	0	316
12.766	13.884	16384	15670	0	316
14.821	14.894	16383	15581	0	316
16.552	16.769	16383	15581	0	316
16.949	16.913	16383	15759	0	316
20.736	21.493	16383	15938	0	316
24.414	25.352	16383	16117	0	316
31.374	32.853	16383	16384	0	316
39.452	40.822	16383	16830	0	316
45.474	46.412	16384	17276	0	316
47.025	49.946	16384	17723	0	316
42.084	44.320	16384	18080	0	316
33.105	37.000	16384	18348	0	316
26.614	28.092	16384	18437	0	316
24.811	24.125	16384	18348	0	316
26.253	24.342	16384	18080	0	316
25.676	24.162	16384	17812	0	316
24.017	19.437	16384	17634	0	316
17.670	14.894	16384	17634	0	316
13.704	8.186	16384	17455	0	316
10.097	4.183	16384	17366	0	316
11.900	3.029	16384	17366	0	316
11.576	1.118	16384	17276	0	316
9.376	-0.974	16384	17009	0	316
7.717	-2.741	16384	16919	0	316
6.239	-2.380	16384	16830	0	316
6.275	-1.082	16384	16741	0	316
8.258	0.685	16384	16562	0	316
10.278	2.669	16384	16295	0	316
12.874	5.301	16384	16117	0	316
14.317	9.737	16384	16117	0	316
15.435	13.812	16384	16206	0	316
19.365	14.713	16384	16117	0	316
19.546	16.913	16384	15938	0	316
22.719	17.202	16384	15581	0	316
28.381	24.234	16384	15224	0	316
33.862	31.699	16384	14867	0	316
37.829	38.658	16384	14599	0	316
42.120	43.635	16384	14420	0	316
41.327	41.796	16384	14509	0	316
38.226	36.278	16384	14688	0	316
32.997	29.787	16384	14956	0	316
25.532	22.935	16384	15045	0	316
17.418	16.552	16384	15045	0	316
17.418	14.353	16384	15224	0	316
14.966	11.864	16384	15402	0	316
15.182	5.770	16384	15670	0	316
8.583	-0.036	16384	16027	0	316
1.623	-7.717	16384	16473	0	316
-4.003	-12.766	16384	17009	0	316
-6.311	-12.405	16384	17455	0	316
-4.147	-8.799	16384	17812	0	316
-2.344	-4.219	16384	17991	0	316
-1.983	1.082	16384	18169	0	316
1.479	4.796	16384	18348	0	316
7.032	8.078	16384	18616	0	316
13.487	13.271	16384	18884	0	316
19.473	18.572	16384	18884	0	316
22.863	25.748	16384	18794	0	316
24.630	29.102	16384	18616	0	316
27.155	30.220	16384	18526	0	316
29.715	29.751	16384	18437	0	316
34.764	30.725	16384	18437	0	316
39.849	37.757	16384	18348	0	316
43.310	44.861	16384	18169	0	316
46.628	52.831	16385	17901	0	316
47.169	56.870	16385	17544	0	316
46.809	52.470	16385	17187	0	316
45.546	47.818	16384	16651	0	316
41.868	41.976	16384	16295	0	316
37.901	37.108	16384	16027	0	316
32.636	34.367	16384	15670	0	316
27.551	30.076	16384	15492	0	316
23.368	24.270	16384	15313	0	316
18.031	18.356	16384	15224	0	316
11.287	9.592	16384	15134	0	316
4.327	4.977	16384	14956	0	316
-3.750	0.288	16384	14599	0	316
-8.871	-3.498	16384	14063	0	316
-9.196	-4.183	16384	13438	0	316
-6.708	-4.400	16384	12902	0	316
-3.534	-2.993	16384	12724	0	316
1.695	0.036	16384	12724	0	316
4.400	3.895	16383	12724	0	316
6.599	7.717	16384	12634	0	316
9.629	11.973	16383	12456	0	316
10.999	14.172	16383	12277	0	316
11.900	14.172	16383	12277	0	316
11.973	13.740	16383	12367	0	316
11.323	11.792	16382	12634	0	316
11.215	9.052	16382	12992	0	316
13.559	10.350	16382	13527	0	316
14.605	11.215	16382	14152	0	316
18.860	13.271	16382	14777	0	316
19.149	15.651	16382	15581	0	316
20.159	16.228	16382	16473	0	316
17.129	16.516	16383	17544	0	316
17.382	13.235	16383	18437	0	316
15.435	11.143	16384	19241	0	316
16.192	7.537	16384	19866	0	316
14.749	4.003	16384	20312	0	316
14.281	5.517	16384	20491	0	316
15.146	6.888	16384	20491	0	316
14.353	8.763	16384	20223	0	316
13.920	7.032	16384	19866	0	316
9.845	2.993	16384	19509	0	316
5.229	-3.678	16384	19419	0	316
3.859	-6.960	16384	19330	1	512
5.878	-7.357	16384	19419	0	512
11.792	-4.111	16384	19598	0	512
15.435	0.144	16384	19955	0	512
17.310	3.787	16384	20223	0	512
15.759	2.849	16384	20312	0	512
16.372	3.390	16385	20312	0	512
17.310	3.931	16385	20223	0	512
23.621	7.212	16385	20044	0	512
26.902	11.684	16385	19776	0	512
28.597	15.507	16385	19509	0	512
27.515	17.454	16385	19241	0	512
26.181	15.687	16385	18794	0	512
23.801	17.166	16385	18169	0	512
24.739	16.444	16385	17544	0	512
25.568	16.480	16385	16919	0	512
23.909	14.136	16385	16562	0	512
21.385	13.091	16385	16295	0	512
20.627	12.622	16385	16027	0	512
17.454	12.333	16385	15759	0	512
18.860	17.598	16386	15759	0	512
18.139	18.716	16386	15759	0	512
19.149	20.988	16386	15849	0	512
16.841	17.418	16385	15759	0	512
16.120	15.975	16385	15670	0	512
13.740	11.432	16386	15581	0	512
14.172	13.199	16386	15492	0	512
14.894	17.274	16385	15224	0	512
15.543	20.014	16385	14867	0	512
16.084	20.375	16385	14688	0	512
14.677	18.572	16385	14688	0	512
13.379	14.317	16386	14777	0	512
13.307	13.415	16386	14956	0	512
13.127	15.362	16385	15134	0	512
18.031	15.038	16386	15402	0	512
19.149	16.769	16386	15759	0	512
19.762	14.100	16386	16027	0	512
20.087	11.864	16386	15938	0	512
14.713	7.862	16386	15670	0	512
9.629	4.580	16385	15313	0	512
5.590	2.416	16385	14777	0	512
5.049	2.596	16385	14420	0	512
4.688	3.065	16385	14242	0	512
7.140	2.128	16385	14242	0	512
7.609	0.036	16385	14152	0	512
6.888	-1.370	16385	14063	0	512
5.445	-1.154	16385	13884	0	512
4.904	2.669	16384	13706	0	512
5.049	4.652	16384	13438	0	512
5.409	8.979	16384	13170	0	512
5.265	8.475	16384	12813	0	512
5.986	7.393	16384	12634	0	512
9.989	8.871	16384	12724	0	512
16.228	12.441	16384	12902	0	512
21.132	16.048	16384	13170	0	512
26.830	22.431	16384	13349	0	512
27.515	24.125	16384	13617	0	512
23.585	22.791	16384	13884	0	512
19.149	17.634	16384	14152	0	512
15.939	15.471	16384	14509	0	512
14.064	13.127	16384	14956	0	512
16.192	16.552	16384	15581	0	512
19.437	18.139	16384	16027	0	512
24.811	21.673	16384	16295	0	512
25.568	20.700	16384	16651	0	512
23.981	20.303	16384	17098	0	512
21.565	17.959	16384	17455	0	512
14.713	15.182	16384	17723	0	512
12.405	13.956	16384	17901	0	512
11.287	13.018	16384	18169	0	512
11.828	11.792	16384	18437	0	512
14.569	11.432	16384	18526	0	512
13.307	14.281	16384	18437	0	512
13.487	13.523	16384	18080	0	512
13.343	15.471	16384	17723	0	512
12.009	15.074	16384	17366	0	512
14.136	14.713	16384	17276	0	512
14.172	14.028	16384	17366	0	512
16.625	11.323	16384	17544	0	512
16.444	11.828	16384	17634	0	512
17.743	11.684	16384	17455	0	512
18.933	9.340	16384	17187	0	512
19.005	12.441	16384	16919	0	512
19.041	14.966	16384	16919	0	512
21.962	16.589	16384	16830	0	512
20.952	19.870	16383	16741	0	512
21.962	18.933	16383	16651	0	512
19.762	17.598	16384	16741	0	512
16.120	13.271	16384	16830	0	512
11.828	10.314	16384	17098	0	512
7.501	6.527	16384	17276	0	512
4.508	4.652	16384	17276	0	512
3.534	4.219	16384	17187	0	512
5.590	5.445	16384	17009	0	512
8.222	9.701	16384	16919	0	512
11.684	13.704	16384	16830	0	512
11.900	14.677	16384	16919	0	512
9.629	16.949	16384	17009	0	512
7.573	15.326	16384	17098	0	512
8.907	15.615	16384	17098	0	512
11.071	13.740	16384	17009	0	512
11.323	14.605	16384	16919	0	512
12.153	14.930	16384	16830	0	512
11.864	16.156	16384	16741	0	512
10.855	19.798	16384	16651	0	512
16.913	20.952	16384	16562	0	512
18.860	20.555	16384	16473	0	512
20.627	18.860	16384	16562	0	512
19.257	16.084	16384	16830	0	512
19.834	16.156	16384	17098	0	512
17.851	17.093	16384	17455	0	512
19.510	17.129	16384	17812	0	512
18.897	19.473	16384	18080	0	512
20.591	18.392	16384	18169	0	512
20.050	19.690	16384	17991	0	512
18.067	20.447	16384	17812	0	512
15.615	18.608	16384	17723	0	512
11.973	15.254	16384	17812	0	512
10.602	11.684	16384	17812	0	512
13.091	8.979	16384	17455	0	512
15.038	11.251	16384	16830	0	512
17.274	13.091	16384	16295	0	512
17.995	15.615	16384	15849	0	512
17.418	18.392	16384	15313	0	512
20.700	19.401	16384	14956	0	512
24.847	24.162	16384	14867	0	512
29.427	27.443	16384	14956	0	512
31.662	30.184	16384	15134	0	512
31.590	29.931	16384	15224	0	512
30.869	28.958	16384	15313	0	512
30.725	28.056	16384	15402	0	512
32.239	27.804	16384	15581	0	512
34.403	27.443	16384	15581	0	512
32.420	25.712	16384	15581	0	512
29.030	21.132	16384	15670	0	512
23.621	17.526	16384	15849	0	512
20.050	14.713	16384	16117	0	512
14.858	14.100	16384	16206	0	512
13.451	14.100	16384	16295	0	512
10.278	10.855	16384	16295	0	512
6.383	9.052	16384	16027	0	512
7.537	8.114	16384	15670	0	512
7.140	8.114	16384	15402	0	512
5.409	8.943	16384	15313	0	512
5.049	10.206	16384	15313	0	512
1.334	7.609	16384	15492	0	512
-0.649	5.517	16384	15759	0	512
-2.019	3.498	16384	16206	0	512
-1.479	1.190	16384	16562	0	512
-2.416	-0.361	16384	16741	0	512
0.000	0.036	16384	16919	0	512
4.364	5.878	16384	17009	0	512
9.556	12.441	16384	17098	0	512
14.569	20.231	16384	17009	0	512
15.939	20.700	16384	16830	0	512
16.336	18.428	16384	16562	0	512
17.238	13.271	16384	16295	0	512
15.975	8.763	16384	16027	0	512
18.356	6.275	16384	15938	0	512
14.389	6.563	16384	15938	0	512
15.651	7.429	16384	15849	0	512
13.451	9.088	16384	15938	0	512
12.514	10.350	16384	16027	0	512
10.278	8.330	16384	16206	0	512
8.078	5.770	16384	16206	0	512
5.590	1.262	16384	16384	0	512
5.049	-1.154	16384	16384	0	512
3.895	-1.046	16384	16384	0	512
1.515	-1.154	16384	16117	0	512
-0.577	-1.082	16384	15759	0	512
-2.056	-2.092	16384	15313	0	512
1.190	-0.361	16384	14867	0	512
5.157	2.308	16384	14688	0	512
6.996	5.085	16384	14777	0	512
7.357	7.212	16384	14956	0	512
3.101	7.248	16384	15045	0	512
2.741	4.832	16384	15224	0	512
2.633	3.895	16384	15402	0	512
6.708	4.472	16384	15581	0	512
9.809	5.914	16384	15849	0	512
10.061	9.484	16384	16117	0	512
9.953	12.514	16384	16206	0	512
9.665	12.045	16384	16295	0	512
9.556	14.785	16384	16473	0	512
12.730	14.064	16384	16830	0	512
15.831	15.110	16384	17276	0	512
15.579	16.661	16384	17544	0	512
15.471	15.903	16384	17634	0	512
12.766	15.795	16384	17634	0	512
9.881	12.514	16384	17544	0	512
8.727	11.612	16384	17544	0	512
8.691	10.855	16384	17455	0	512
7.609	9.412	16384	17276	0	512
6.780	8.150	16384	17187	0	512
7.501	10.242	16384	17098	0	512
7.862	9.881	16384	17187	0	512
8.330	10.314	16384	17366	0	512
8.366	11.792	16384	17455	0	512
5.157	10.602	16384	17366	0	512
4.977	9.412	16384	17276	0	512
7.934	12.045	16384	17187	0	512
10.963	14.821	16384	17187	0	512
15.038	17.021	16384	17187	0	512
16.949	19.113	16384	17187	0	512
14.966	16.589	16384	17098	0	512
15.579	15.146	16384	16919	0	512
16.012	12.982	16384	16562	0	512
18.428	12.910	16384	16206	0	512
17.166	14.317	16384	15938	0	512
14.713	13.487	16384	15759	0	512
9.881	12.658	16384	15492	0	512
4.580	11.323	16384	15224	0	512
2.813	9.701	16384	15134	0	512
3.498	10.602	16384	15134	0	512
2.921	10.855	16384	15224	0	512
3.570	9.376	16384	15492	0	512
2.885	9.160	16384	15849	0	512
2.308	7.140	16384	16384	0	512
0.902	5.337	16384	16741	0	512
-0.469	2.019	16384	17098	0	512
-2.488	-0.613	16384	17455	0	512
-4.616	-2.380	16384	17634	0	512
-4.219	-2.669	16384	17723	0	512
-2.669	1.551	16384	17723	0	512
0.902	5.698	16384	17812	0	512
5.590	9.556	16384	17991	0	512
12.874	14.569	16384	18080	0	512
17.526	16.769	16384	17901	0	512
21.385	16.336	16384	17723	0	512
20.195	17.779	16384	17455	0	512
21.421	16.985	16384	17187	0	512
22.070	20.736	16384	16830	1	924
25.965	26.145	16384	16651	0	924
31.446	27.551	16384	16562	0	924
34.728	26.974	16384	16562	0	924
35.918	27.047	16384	16741	0	924
36.567	27.083	16384	17009	0	924
37.613	27.876	16384	17366	0	924
38.082	27.191	16384	17723	0	924
36.495	25.965	16384	18080	0	924
32.420	22.286	16385	18259	0	924
25.748	19.906	16385	18348	0	924
16.733	20.627	16385	18259	0	924
9.629	18.572	16385	18348	0	924
2.200	15.182	16386	18437	0	924
-2.705	10.638	16386	18526	0	924
-5.409	7.068	16386	18259	0	924
-6.022	5.373	16386	17812	0	924
-4.147	5.806	16386	17187	0	924
-1.731	7.862	16385	16651	0	924
1.839	12.441	16386	16295	0	924
5.049	16.949	16385	15759	0	924
9.376	17.743	16385	15224	0	924
12.081	19.582	16385	14688	0	924
13.054	18.067	16385	14063	0	924
15.146	18.644	16385	13617	0	924
15.326	18.680	16384	13170	0	924
19.618	22.178	16384	12813	0	924
20.555	23.152	16384	12634	0	924
22.611	21.781	16384	12724	0	924
24.919	23.152	16384	12992	0	924
26.217	22.935	16384	13349	0	924
26.542	23.837	16384	13617	0	924
25.929	25.099	16384	13795	0	924
21.926	22.719	16384	14063	0	924
17.274	19.870	16384	14331	0	924
15.975	19.401	16384	14688	0	924
13.343	14.461	16384	15045	0	924
9.556	11.107	16384	15313	0	924
4.688	5.914	16384	15402	0	924
-0.649	1.154	16384	15402	0	924
-2.380	-0.361	16384	15224	0	924
0.288	3.895	16384	14777	0	924
5.409	9.917	16384	14242	0	924
9.484	13.776	16384	13974	0	924
11.900	16.589	16384	13795	0	924
12.081	15.975	16384	13795	0	924
14.245	18.824	16383	13974	0	924
15.903	19.978	16383	14509	0	924
20.231	24.847	16384	15402	0	924
20.267	26.217	16384	16206	0	924
21.313	25.929	16384	16830	0	924
21.168	24.883	16384	17187	0	924
22.178	25.856	16384	17455	0	924
27.155	27.515	16384	17544	0	924
26.614	27.047	16384	17634	0	924
26.289	25.099	16384	17544	0	924
22.755	22.431	16384	17455	0	924
16.985	16.769	16384	17544	0	924
15.507	15.723	16384	17455	0	924
15.579	12.874	16384	17276	0	924
16.480	11.612	16384	17098	0	924
12.622	7.681	16384	16830	0	924
10.350	4.760	16384	16741	0	924
4.183	2.596	16384	16830	0	924
-1.334	0.577	16384	16919	0	924
-2.993	-1.911	16384	16830	0	924
-2.957	-2.272	16384	16473	0	924
-1.875	-2.488	16384	16295	0	924
0.000	-1.479	16383	16117	0	924
2.200	0.577	16383	16117	0	924
3.895	2.957	16383	16117	0	924
3.426	3.606	16383	16117	0	924
5.121	4.796	16383	16117	0	924
7.285	8.078	16383	16027	0	924
10.927	14.064	16383	16027	0	924
15.398	17.743	16383	16295	0	924
17.815	23.512	16383	16562	0	924
21.565	24.847	16383	16919	0	924
24.666	27.624	16383	17276	0	924
28.850	31.554	16383	17544	1	316
33.610	35.449	16383	17544	0	316
35.665	37.649	16384	17366	0	316
33.466	37.072	16384	17366	0	316
32.095	33.718	16384	17544	0	316
29.607	30.112	16384	17634	0	316
29.391	27.371	16384	17901	0	316
26.325	24.991	16384	18259	0	316
21.854	20.231	16384	18348	0	316
18.175	16.156	16384	18348	0	316
11.179	9.520	16384	18259	0	316
7.825	4.400	16384	18080	0	316
5.049	1.262	16384	17723	0	316
2.524	-0.072	16384	17366	0	316
1.334	-0.938	16384	17009	0	316
2.019	-0.036	16384	16741	0	316
4.868	0.649	16384	16562	0	316
6.419	0.108	16384	16473	0	316
6.383	-0.397	16384	16473	0	316
5.373	-1.082	16384	16562	0	316
4.436	0.252	16384	16741	0	316
6.022	3.606	16384	17009	0	316
11.360	10.386	16384	17276	0	316
19.942	16.805	16384	17634	0	316
26.145	20.087	16384	17901	0	316
30.220	20.808	16384	17812	0	316
28.958	20.447	16384	17634	0	316
24.089	16.769	16384	17455	0	316
18.175	15.074	16384	17276	0	316
14.677	10.061	16384	16919	0	316
12.766	4.436	16384	16562	0	316
9.232	-2.019	16384	16384	0	316
7.862	-6.058	16384	16384	0	316
3.606	-7.429	16384	16384	0	316
-1.479	-8.475	16384	16206	0	316
-4.472	-9.520	16384	15849	0	316
-4.832	-13.595	16384	15670	0	316
-6.671	-14.749	16384	15581	0	316
-5.445	-15.975	16384	15492	0	316
-4.219	-14.389	16384	15313	0	316
-3.137	-9.592	16384	15313	0	316
-1.947	-7.609	16384	15402	0	316
1.226	-6.924	16384	15492	0	316
3.173	-6.383	16384	15670	0	316
7.789	-4.075	16384	15938	0	316
10.458	0.325	16384	16206	0	316
13.199	5.626	16384	16384	0	316
15.218	8.583	16384	16473	0	316
17.129	9.881	16384	16473	0	316
18.716	8.799	16384	16473	0	316
20.375	9.737	16384	16473	0	316
22.214	12.333	16384	16562	0	316
23.873	15.579	16384	16741	0	316
21.709	18.788	16384	16919	0	316
18.824	15.687	16384	16830	0	316
17.382	15.471	16384	16384	0	316
14.208	10.674	16384	15670	0	316
12.225	7.789	16384	14777	0	316
7.934	4.400	16384	14242	0	316
1.659	0.577	16384	13884	0	316
-4.400	-2.993	16384	13706	0	316
-7.176	-6.275	16384	13527	0	316
-3.967	-6.744	16384	13438	0	316
-0.974	-6.419	16384	13527	0	316
-0.180	-4.219	16384	13617	0	316
0.793	-2.452	16384	13617	0	316
1.118	0.938	16383	13527	0	316
4.183	6.527	16383	13527	0	316
9.773	10.891	16383	13706	0	316
14.569	15.867	16383	13974	0	316
17.706	17.959	16383	14331	0	316
19.293	19.401	16383	14688	0	316
17.995	18.788	16383	15045	0	316
17.887	20.664	16383	15402	0	316
16.877	21.168	16383	15849	0	316
18.860	23.801	16383	16206	0	316
21.349	26.289	16383	16562	0	316
22.935	29.246	16383	17187	0	316
24.378	30.581	16383	17901	0	316
21.421	30.653	16383	18348	0	316
18.356	28.741	16384	18616	0	316
18.320	25.640	16384	18616	0	316
14.533	20.195	16384	18794	0	316
12.802	14.677	16384	19151	0	316
9.665	9.629	16384	19330	0	316
5.770	5.373	16384	19241	0	316
4.940	2.957	16384	19241	0	316
4.760	1.226	16384	19419	0	316
3.462	0.036	16384	19598	0	316
3.606	1.046	16384	19598	0	316
4.400	5.590	16384	19687	0	316
9.052	12.730	16384	19866	0	316
16.264	21.421	16384	20223	0	316
23.837	24.342	16384	20401	0	316
23.909	24.342	16385	20312	0	316
21.890	20.483	16385	20223	0	316
19.798	17.454	16385	20134	1	384
20.772	20.808	16385	19776	0	384
26.866	25.604	16385	19330	0	384
32.348	32.312	16385	18794	0	384
34.331	35.160	16385	18259	0	384
31.554	34.475	16385	17901	0	384
28.994	32.312	16385	17723	0	384
27.840	31.735	16385	17276	0	384
28.705	30.364	16385	16651	0	384
27.624	27.912	16385	15938	0	384
24.198	21.132	16385	15224	0	384
15.254	15.038	16385	14509	0	384
8.871	6.022	16384	13795	0	384
5.085	2.308	16384	13170	0	384
5.301	2.560	16384	12634	0	384
10.891	6.960	16384	12188	0	384
15.795	11.720	16384	12099	0	384
18.860	14.713	16384	12188	0	384
18.392	12.586	16384	12367	0	384
17.274	14.353	16384	12724	0	384
17.598	14.533	16384	12992	0	384
21.096	21.962	16384	13259	0	384
26.614	27.876	16384	13617	0	384
32.095	28.850	16384	13884	0	384
33.466	26.902	16384	14242	0	384
33.646	24.125	16384	14599	0	384
32.492	22.250	16384	14867	0	384
33.177	24.162	16384	15045	0	384
32.131	27.551	16384	15134	0	384
30.905	26.253	16384	15224	0	384
25.784	24.991	16384	15224	0	384
21.601	21.024	16384	15045	0	384
15.398	14.064	16384	14956	0	384
9.592	10.927	16384	14867	0	384
8.042	7.825	16384	14956	0	384
5.914	5.986	16384	15045	0	384
6.924	5.337	16383	15134	0	384
8.619	3.750	16383	15492	0	384
9.016	1.262	16383	15849	0	384
7.717	-0.649	16384	16295	0	384
6.419	-2.813	16384	16562	0	384
6.419	-1.515	16384	16830	0	384
6.311	1.803	16384	17009	0	384
8.186	6.671	16384	17187	0	384
10.169	9.412	16384	17455	0	384
12.874	10.206	16384	17634	0	384
13.523	10.278	16384	17812	0	384
19.401	11.396	16384	17901	0	384
19.762	14.136	16384	17812	0	384
23.621	20.339	16384	17634	0	384
26.470	23.440	16384	17366	0	384
26.614	25.929	16384	17098	0	384
26.506	26.722	16384	17098	0	384
26.542	24.089	16384	17366	0	384
24.702	20.736	16384	17634	0	384
19.798	18.608	16384	17812	0	384
14.245	13.884	16384	17812	0	384
7.970	9.592	16384	17812	0	384
3.895	7.176	16384	17991	0	384
2.164	4.183	16384	18169	0	384
4.940	3.642	16384	18526	0	384
6.239	6.708	16384	18705	0	384
6.419	8.222	16384	18884	0	384
6.563	10.097	16384	18973	0	384
7.212	9.953	16384	18973	0	384
10.891	10.530	16384	18794	0	384
13.451	13.559	16384	18884	0	384
12.081	16.048	16384	19241	0	384
10.458	16.913	16384	19509	0	384
8.294	18.283	16385	19419	0	384
8.186	15.759	16385	18973	0	384
10.674	15.687	16385	18348	0	384
13.884	13.451	16385	17812	0	384
13.199	16.444	16385	17276	0	384
12.874	17.995	16385	16741	0	384
18.139	24.594	16385	16295	0	384
22.034	30.292	16384	15670	0	384
26.325	34.620	16384	15045	0	384
27.876	34.836	16384	14688	0	384
25.965	30.004	16384	14420	0	384
19.798	25.820	16384	14063	0	384
18.175	23.116	16384	13706	0	384
15.615	22.034	16384	13438	0	384
16.697	23.044	16384	13081	0	384
14.497	21.926	16384	12724	0	384
12.910	17.346	16384	12456	0	384
7.753	13.271	16384	12367	0	384
6.780	10.530	16384	12545	0	384
8.078	11.179	16384	12902	0	384
14.461	15.903	16384	13438	0	384
15.795	18.500	16384	14063	0	384
15.687	20.375	16384	14688	0	384
11.828	16.697	16384	15402	0	384
7.609	16.228	16384	16027	0	384
10.169	16.625	16384	16384	0	384
15.074	22.683	16384	16651	0	384
18.247	27.407	16384	16919	0	384
19.870	27.299	16384	17098	0	384
16.841	24.306	16384	17276	0	384
13.740	15.543	16384	17544	0	384
10.819	12.514	16384	17812	0	384
9.881	9.592	16384	17991	0	384
10.999	9.773	16384	17901	0	384
7.862	9.124	16384	17544	0	384
5.229	5.121	16384	17098	0	384
0.541	1.587	16384	16473	0	384
-3.606	-2.560	16384	16117	0	384
-6.239	-4.003	16384	15581	0	384
-5.301	-3.137	16384	15045	0	384
-1.695	0.685	16384	14599	0	384
2.488	3.931	16384	14420	0	384
4.075	7.357	16384	14509	0	384
6.275	8.150	16384	14777	0	384
6.058	9.592	16384	15134	0	384
7.212	9.881	16384	15492	0	384
10.314	10.855	16383	15670	0	384
11.648	12.766	16383	15759	0	384
13.451	13.956	16383	15759	0	384
15.326	13.523	16383	15670	0	384
13.992	13.776	16383	15581	0	384
16.769	14.208	16383	15849	0	384
16.769	12.910	16384	16295	0	384
18.572	16.408	16384	16651	0	384
18.572	16.372	16384	17009	0	384
19.437	16.048	16384	17366	0	384
13.704	13.307	16384	17455	0	384
6.311	8.511	16384	17544	0	384
0.469	4.472	16384	17634	0	384
-4.400	-0.974	16384	17723	0	384
-8.258	-4.904	16384	17634	0	384
-11.504	-9.989	16384	17276	0	384
-14.569	-13.235	16384	16830	0	384
-20.303	-13.631	16384	16384	0	384
-18.320	-11.432	16383	15938	0	384
-15.471	-11.143	16383	15670	0	384
-10.927	-10.602	16383	15492	0	384
-6.852	-11.648	16383	15492	0	384
-6.022	-11.215	16383	15492	0	384
-3.101	-4.868	16383	15492	0	384
1.082	3.498	16383	15581	0	384
7.789	11.973	16383	15759	0	384
15.687	17.202	16383	16027	0	384
19.942	18.247	16383	16473	0	384
21.457	16.444	16383	17009	0	384
19.546	16.661	16384	17634	0	384
21.349	16.877	16384	18348	0	384
23.368	21.565	16384	19062	0	384
27.948	22.358	16384	19598	0	384
30.725	21.241	16384	19866	0	384
28.705	18.969	16384	19776	0	384
25.784	11.792	16384	19598	0	384
20.159	6.383	16384	19509	0	384
15.398	3.570	16384	19330	0	384
8.655	0.469	16384	19062	1	612
4.183	-1.479	16384	18705	0	612
-0.180	-3.246	16384	18437	0	612
-1.082	-3.823	16384	18080	0	612
1.010	-6.527	16384	17723	0	612
1.695	-7.104	16384	17634	0	612
2.236	-8.150	16384	17634	0	612
-0.144	-7.825	16384	17544	0	612
-2.416	-8.078	16384	17098	0	612
-3.750	-6.311	16384	16651	0	612
0.541	-3.246	16384	16295	0	612
7.176	2.272	16384	16117	0	612
15.975	8.871	16384	16027	0	612
24.306	19.726	16384	16027	0	612
29.968	25.929	16384	15849	0	612
31.013	31.230	16384	15670	0	612
30.112	30.076	16384	15492	0	612
30.436	30.292	16384	15402	0	612
31.807	30.869	16384	15492	0	612
37.216	35.377	16384	15670	0	612
42.229	39.993	16384	15759	0	612
44.645	42.950	16384	15670	0	612
40.353	40.858	16384	15581	0	612
31.843	35.810	16384	15313	0	612
24.955	29.463	16384	15045	0	612
21.854	25.099	16384	14688	0	612
21.565	20.627	16384	14509	0	612
24.739	18.716	16384	14420	0	612
25.135	16.012	16384	14242	0	612
21.132	12.514	16384	14152	0	612
15.038	5.662	16384	14242	0	612
6.022	1.262	16384	14420	0	612
-0.541	-2.885	16384	14599	0	612
-6.094	-3.895	16384	14777	0	612
-7.501	-2.993	16384	14956	0	612
-6.635	-3.137	16384	15224	0	612
-4.688	-5.626	16384	15670	0	612
-4.183	-6.491	16384	15938	0	612
0.361	-4.039	16384	16295	0	612
2.741	2.200	16384	16473	0	612
7.357	7.429	16384	16741	0	612
9.845	11.287	16384	16741	0	612
10.674	10.710	16384	16651	0	612
12.766	13.631	16384	16295	0	612
16.805	17.670	16384	15849	0	612
22.178	24.486	16384	15581	0	612
27.407	28.850	16384	15402	0	612
29.679	32.023	16384	15402	0	612
30.869	32.744	16384	15402	0	612
30.148	32.384	16384	15492	0	612
29.427	30.148	16384	15492	0	612
26.109	26.650	16384	15402	0	612
21.781	20.267	16384	15224	0	612
13.271	17.634	16384	15313	0	612
8.511	14.208	16383	15581	0	612
5.481	15.146	16383	15849	0	612
4.688	13.631	16383	16027	0	612
4.868	11.973	16384	16027	0	612
3.714	11.143	16384	16117	0	612
0.721	9.340	16384	16027	0	612
-2.524	8.871	16383	15849	0	612
-3.534	8.150	16383	15759	0	612
-4.183	7.537	16383	15938	0	612
-2.416	8.078	16383	16295	0	612
-1.983	6.491	16383	16651	0	612
-0.361	8.042	16384	17009	0	612
1.334	10.133	16384	17455	0	612
4.147	11.900	16384	17991	0	612
5.878	12.477	16384	18616	0	612
5.878	13.343	16384	18973	0	612
5.806	10.963	16384	19241	0	612
4.796	11.251	16384	19241	0	612
