neuroNicle FX2
D3F25R12
Bluetooth SPP
2023년 11월 17일 금요일
오후 1:57
time interval = 4msec
EEG1	EEG2	PPG	sdPPG	pulse	peak_interval(msec)
18.644	-14.930	16696	18817	0	416
17.995	-13.631	17165	19017	0	416
19.293	-14.966	17165	18884	0	416
14.930	-14.064	17165	18650	0	416
15.146	-15.110	17165	18383	0	416
11.215	-16.589	17165	18050	0	416
7.970	-18.644	17165	17684	0	416
5.049	-24.558	17165	17283	0	416
3.426	-27.119	16696	16784	0	416
5.193	-26.001	16384	16251	0	416
9.953	-22.431	16072	15718	0	416
13.812	-21.204	16072	15318	0	416
12.910	-18.536	15603	15051	0	416
9.340	-18.356	15291	14851	0	416
8.619	-17.526	14822	14685	0	416
14.605	-12.910	14822	14651	0	416
18.103	-7.537	14822	14951	0	416
26.109	-3.750	15291	15451	0	416
27.696	-2.524	15291	15818	0	416
30.653	-1.262	15291	16018	0	416
35.305	-0.288	15603	16417	0	416
42.120	2.705	16072	16984	0	416
46.809	3.065	16072	17283	0	416
44.176	0.216	16384	17283	0	416
33.393	-4.796	16384	17450	0	416
24.594	-12.658	16696	17850	0	416
15.975	-15.254	17165	18117	0	416
15.759	-15.795	17165	18117	0	416
16.048	-15.903	17165	17917	0	416
15.651	-15.326	17165	17517	0	416
10.710	-18.139	17165	17017	0	416
7.753	-18.680	16696	16450	0	416
7.970	-20.736	16384	15951	0	416
11.035	-18.356	16072	15451	0	416
16.913	-17.887	15603	15051	0	416
20.627	-12.730	15291	14718	0	416
21.421	-10.242	14822	14451	0	416
21.926	-5.914	14509	14184	0	416
26.253	-3.570	14041	13918	0	416
29.499	-2.705	13728	13651	0	416
32.348	-3.390	14041	13451	0	416
32.492	-4.940	13259	13418	0	416
30.689	-5.373	12947	13451	0	416
29.246	-5.373	12478	13551	0	416
30.184	-6.131	12166	13684	0	416
30.436	-6.022	11697	13918	0	416
29.174	-8.294	12478	14518	0	416
25.063	-11.360	12478	15318	0	416
19.762	-14.749	12947	16084	0	416
19.654	-15.579	13259	16850	0	416
20.447	-19.077	13728	17784	0	416
24.414	-19.401	14041	18550	0	416
23.801	-19.978	14509	18984	0	416
24.198	-16.985	15291	19184	0	416
21.818	-15.615	15603	19250	0	416
17.454	-13.631	16072	19217	0	416
14.136	-18.283	15603	19084	0	416
9.484	-23.549	15603	18884	0	416
6.960	-27.299	15603	18584	0	416
10.927	-25.893	15603	18183	1	844
16.192	-18.536	15603	17717	0	844
23.404	-12.550	15291	17250	0	844
25.135	-7.609	15291	16850	0	844
23.224	-10.602	14822	16517	0	844
17.815	-14.100	14509	16251	0	844
14.100	-16.084	14509	16051	0	844
13.091	-15.795	14509	16151	0	844
15.651	-11.504	14822	16384	0	844
19.041	-7.681	14822	16584	0	844
22.142	-10.530	14822	16684	0	844
20.195	-14.894	15291	16984	0	844
16.336	-18.860	16072	17450	0	844
10.602	-22.034	16384	17684	0	844
8.006	-20.411	16384	17750	0	844
7.176	-18.933	16696	18017	0	844
9.196	-21.818	17477	18417	0	844
11.648	-23.801	17165	18484	0	844
14.894	-25.965	17165	18250	0	844
13.343	-28.597	17477	17917	0	844
11.468	-29.823	17477	17584	0	844
5.734	-31.735	17165	17184	0	844
-2.092	-35.016	17165	16684	0	844
-5.013	-36.711	16696	16151	0	844
-7.285	-36.314	16384	15651	0	844
-5.337	-35.088	16384	15218	0	844
-1.983	-31.590	16072	14851	0	844
2.524	-26.686	15603	14551	0	844
9.160	-22.178	15291	14251	0	844
17.743	-20.519	14822	13918	0	844
23.657	-19.654	14509	13551	0	844
25.712	-23.837	14041	13284	0	844
24.991	-23.512	14041	13218	0	844
16.733	-22.611	13728	13251	0	844
13.018	-20.988	13259	13251	0	844
9.701	-15.687	12947	13351	0	844
14.281	-14.785	12947	13751	0	844
18.572	-13.487	12947	14451	0	844
18.320	-16.985	13259	15118	0	844
15.651	-20.808	14041	15718	0	844
9.160	-26.217	14041	16417	0	844
5.878	-27.551	14822	17317	0	844
9.881	-26.902	15291	18017	0	844
14.028	-27.948	15603	18550	0	844
16.661	-30.040	16384	19150	0	844
14.208	-34.043	17165	19883	0	844
11.107	-36.783	17477	20383	0	844
8.439	-36.278	17946	20484	0	844
4.868	-33.321	18259	20383	0	844
5.229	-30.472	18259	20150	0	844
6.491	-29.535	18727	19783	0	844
10.566	-25.856	18259	19284	0	844
14.641	-23.729	18259	18650	0	844
14.461	-22.142	18259	18017	0	844
10.891	-22.395	17946	17417	0	844
13.379	-20.700	17946	16850	0	844
21.060	-16.012	17477	16351	0	844
36.062	-6.563	17477	15851	0	844
46.953	1.190	17165	15284	0	844
49.549	1.803	16696	14818	0	844
43.887	-4.364	16384	14518	0	844
35.233	-10.746	16696	14618	0	844
32.239	-14.641	16696	14951	0	844
33.033	-12.405	16696	15218	0	844
34.944	-8.619	16696	15351	0	844
35.737	-8.907	17165	15684	0	844
29.931	-17.129	17477	16184	0	844
20.555	-24.702	17477	16450	0	844
11.576	-32.023	17946	16550	0	844
6.203	-35.846	17946	16750	0	844
5.590	-35.521	18259	17050	0	844
5.409	-37.577	18259	17217	0	844
3.931	-38.731	18259	17150	0	844
0.288	-40.389	18259	17017	0	844
1.334	-38.731	18259	16784	0	844
2.524	-34.656	18259	16484	0	844
6.527	-30.869	17946	16184	0	844
7.068	-29.715	17946	15851	0	844
4.652	-30.256	17477	15518	0	844
3.101	-29.138	17477	15151	1	316
5.229	-28.994	17165	14718	0	316
10.169	-22.972	16384	14284	0	316
13.018	-18.139	16072	13884	0	316
16.697	-16.336	15603	13551	0	316
13.415	-16.589	15291	13284	0	316
8.835	-23.657	14822	13151	0	316
1.731	-30.292	14509	13418	0	316
-6.671	-38.190	14509	13918	0	316
-15.759	-42.481	14509	14385	0	316
-20.014	-43.960	14509	14718	0	316
-20.411	-39.091	14822	15351	0	316
-13.523	-33.285	15603	16450	0	316
-6.671	-28.777	16072	17584	0	316
-1.695	-33.393	16696	18383	0	316
-3.931	-39.127	17477	19084	0	316
-9.953	-48.864	17946	19817	0	316
-14.677	-50.270	18727	20317	0	316
-16.012	-47.602	19040	20484	0	316
-12.658	-41.507	19509	20317	0	316
-9.232	-40.137	19509	19917	0	316
-8.583	-39.488	19509	19450	0	316
-7.429	-38.658	19821	18950	0	316
-2.128	-33.429	19040	18383	0	316
3.065	-23.296	19040	17784	0	316
8.330	-13.235	18727	17117	0	316
7.717	-6.419	18727	16450	0	316
3.137	-8.186	18259	15885	0	316
-3.101	-16.589	17946	15385	0	316
-5.013	-21.385	17477	14884	0	316
-0.144	-22.935	17165	14451	0	316
5.914	-16.949	17165	14184	0	316
9.845	-14.533	16696	14251	0	316
7.104	-16.192	16696	14551	0	316
0.361	-25.604	16696	14718	0	316
-7.862	-34.547	16696	14751	0	316
-11.071	-36.134	16696	14951	0	316
-11.179	-35.918	17165	15318	0	316
-9.989	-31.699	17165	15551	0	316
-7.032	-30.725	17165	15651	0	316
-5.842	-31.662	17165	15951	0	316
-3.859	-31.446	17477	16351	0	316
-0.865	-31.843	17165	16550	0	316
-1.370	-33.898	17165	16650	0	316
-4.219	-36.351	17477	16850	0	316
-7.501	-40.786	17946	17150	0	316
-8.691	-39.344	17946	17217	0	316
-5.878	-35.521	17477	16950	0	316
-2.128	-28.705	17477	16517	0	316
3.210	-22.286	17165	16151	0	316
2.669	-19.113	16696	15784	0	316
5.554	-15.831	16696	15518	0	316
6.708	-16.156	16384	15318	0	316
9.701	-16.300	16072	15118	0	316
13.091	-15.038	16072	14884	0	316
13.812	-17.057	15603	14685	0	316
10.422	-15.110	15291	14551	0	316
7.212	-14.533	14822	14385	0	316
3.787	-12.910	14509	14251	0	316
-1.118	-16.264	14041	14184	0	316
-4.688	-20.231	14041	14284	0	316
-9.845	-26.578	14509	14751	0	316
-14.064	-33.682	14509	15451	0	316
-14.677	-33.393	14822	16051	0	316
-14.028	-31.662	14822	16384	0	316
-5.698	-26.902	15291	16784	0	316
2.813	-23.909	15603	17350	0	316
9.665	-23.188	15603	17717	0	316
11.648	-24.450	16072	17950	0	316
12.081	-24.053	16384	18383	0	316
12.658	-22.178	16696	18917	0	316
12.910	-17.598	17165	19250	0	316
16.300	-15.038	17477	19250	0	316
16.480	-10.350	17477	19150	0	316
17.346	-7.140	17946	18917	0	316
15.939	-5.554	17946	18584	0	316
17.021	-4.832	17477	18117	0	316
19.113	-6.816	17477	17617	0	316
15.795	-11.143	17165	17050	0	316
14.353	-16.625	16696	16484	0	316
6.635	-24.414	16384	15918	0	316
-1.154	-30.364	16072	15351	0	316
-6.239	-34.764	15603	14851	0	316
-9.845	-36.639	15291	14485	0	316
-8.727	-35.665	14822	14184	0	316
-8.114	-34.259	14509	14018	0	316
-9.340	-34.800	14509	14184	0	316
-12.514	-38.622	14509	14585	0	316
-12.153	-41.219	14509	14918	0	316
-11.323	-43.599	14509	15118	0	316
-9.268	-44.789	14822	15584	0	316
-7.393	-43.058	14822	16184	0	316
-7.140	-42.229	15291	16584	0	316
-3.065	-39.560	15291	16784	0	316
1.695	-35.305	15603	17184	0	316
12.910	-26.470	16072	17650	0	316
22.214	-16.841	16072	17950	0	316
29.751	-8.222	16384	17984	0	316
35.305	-2.921	16384	17917	0	316
35.413	-2.885	16384	17684	0	316
34.439	-3.714	16384	17383	0	316
31.987	-6.852	16072	17084	0	316
34.511	-5.265	16072	16750	0	316
39.344	-3.137	15603	16450	0	316
41.543	0.577	15603	16151	0	316
43.058	1.118	15603	15818	0	316
36.783	-3.137	15291	15518	0	316
30.112	-12.081	15603	15284	0	316
23.621	-20.014	14822	15118	0	316
19.978	-25.929	14509	14984	0	316
17.598	-27.371	14509	14918	0	316
12.730	-29.859	14509	15151	0	316
7.789	-28.705	14509	15584	0	316
2.957	-28.201	14509	15885	0	316
0.180	-26.325	14822	16118	0	316
3.678	-21.565	15291	16584	0	316
8.691	-16.841	15603	17484	0	316
11.973	-18.283	16384	18350	0	316
13.379	-18.572	16696	18850	0	316
13.343	-23.296	17477	19284	0	316
17.274	-21.204	18259	19750	0	316
26.506	-16.372	18727	19983	0	316
39.127	-5.373	19040	19817	0	316
45.943	1.370	19040	19517	0	316
46.700	2.092	19040	19150	0	316
42.878	-3.426	19040	18717	0	316
39.704	-10.133	19509	18183	1	504
38.298	-15.398	18727	17617	0	504
38.082	-17.418	18727	17050	0	504
35.413	-20.447	18259	16450	0	504
30.292	-23.008	18259	15851	0	504
26.109	-25.929	17946	15284	0	504
27.876	-28.056	17477	14818	0	504
30.725	-27.876	17165	14418	0	504
37.072	-28.417	16696	14018	0	504
39.993	-25.712	16384	13718	0	504
45.763	-25.352	16384	13751	0	504
50.523	-24.125	16384	14118	0	504
53.949	-21.421	16384	14518	0	504
56.581	-21.457	16384	14751	0	504
56.653	-20.411	16696	15151	0	504
52.975	-20.195	17165	15718	0	504
52.506	-21.854	17165	16118	0	504
51.857	-21.168	17477	16351	0	504
53.444	-20.159	17477	16650	0	504
53.228	-14.785	17946	17050	0	504
52.903	-11.504	18259	17217	0	504
49.874	-9.304	18259	17117	0	504
45.474	-8.547	17946	16917	0	504
45.871	-9.160	17477	16650	0	504
42.697	-8.763	17477	16318	0	504
42.120	-9.340	17165	15951	0	504
35.990	-14.353	16696	15518	0	504
27.083	-21.565	16384	15118	0	504
16.480	-29.823	16072	14685	0	504
7.393	-34.908	15603	14351	0	504
3.029	-36.206	15291	14151	0	504
-1.983	-37.432	14822	14051	0	504
-6.708	-37.288	14822	14018	0	504
-12.297	-42.265	14509	14018	0	504
-16.949	-47.386	14509	14018	0	504
-18.716	-46.881	14041	14018	0	504
-16.516	-42.589	13728	14051	0	504
-7.898	-35.305	13259	14084	0	504
-2.705	-29.282	13259	14251	0	504
2.633	-27.119	13259	14685	0	504
3.282	-29.246	13259	15318	0	504
4.075	-31.987	13259	15818	0	504
6.094	-31.662	14041	16184	0	504
8.691	-25.856	14041	16717	0	504
8.763	-22.142	14509	17484	0	504
5.013	-17.310	14822	18050	0	504
-4.075	-19.726	14822	18383	0	504
-13.127	-21.962	15291	18750	0	504
-18.392	-27.191	15603	19150	0	504
-23.152	-27.840	16072	19417	0	504
-21.745	-25.316	16384	19417	0	504
-22.214	-21.854	16384	19284	0	504
-19.906	-20.483	16384	19050	0	504
-15.795	-18.897	16384	18750	0	504
-15.831	-20.952	16384	18383	0	504
-16.480	-23.044	16384	17950	0	504
-20.808	-26.361	16384	17450	0	504
-29.210	-31.699	16072	17017	0	504
-38.370	-37.324	15603	16617	0	504
-40.426	-41.471	15603	16318	0	504
-38.911	-40.606	15603	16051	0	504
-31.771	-35.954	15291	15851	0	504
-22.250	-28.814	14822	15618	0	504
-18.247	-23.080	14822	15451	0	504
-14.569	-19.942	14822	15485	0	504
-12.514	-16.156	14822	15751	0	504
-6.852	-11.792	15291	15984	0	504
1.298	-5.734	15603	16084	0	504
3.787	-2.596	15603	16318	0	504
6.419	-1.623	16072	16717	0	504
7.285	-1.983	16384	17217	0	504
9.701	0.938	16696	17584	0	504
16.156	8.871	17165	17984	0	504
20.808	15.759	17946	18717	0	504
22.214	22.214	18727	19417	0	504
13.884	19.510	18727	19750	0	504
4.400	13.199	19040	19750	0	504
-7.140	4.364	19509	19550	0	504
-12.694	0.721	19821	19184	0	504
-12.153	3.498	19821	18684	0	504
-8.258	8.871	19509	18117	0	504
-4.111	14.100	19821	17517	1	324
-3.714	12.730	19040	16917	0	324
-7.934	6.167	19040	16318	0	324
-8.258	-2.777	18727	15718	0	324
-8.150	-6.203	18259	15151	0	324
-4.039	-6.022	17946	14618	0	324
-0.433	-1.803	17477	14184	0	324
2.633	4.039	17477	13884	0	324
9.196	10.963	17477	13951	0	324
18.572	20.519	17477	14284	0	324
34.043	30.184	17477	14618	0	324
43.274	37.324	17946	14951	0	324
41.255	38.875	18259	15584	0	324
30.617	33.177	19040	16484	0	324
15.831	25.099	19040	17383	0	324
4.832	20.952	19821	17917	0	324
1.442	18.536	20290	18317	0	324
1.731	21.565	21071	18650	0	324
0.108	18.464	21071	18717	0	324
-9.088	12.622	21384	18450	0	324
-18.356	2.236	21071	17984	0	324
-30.292	-6.563	21071	17350	0	324
-35.052	-10.422	20602	16617	0	324
-36.170	-8.475	20290	15951	0	324
-36.603	-6.671	19821	15284	0	324
-37.036	-7.645	19040	14718	0	324
-40.642	-11.684	18727	14184	0	324
-41.003	-13.199	18259	13651	0	324
-37.757	-12.730	17477	13184	0	324
-32.203	-7.717	17165	12751	0	324
-27.335	0.000	16384	12385	0	324
-26.542	3.354	16072	12084	0	324
-23.260	4.868	15603	11951	0	324
-22.647	5.590	15291	12151	0	324
-19.906	6.455	15291	12685	0	324
-17.562	8.727	14822	13218	0	324
-17.634	10.963	14822	13651	0	324
-14.208	13.487	14822	14251	0	324
-10.169	14.966	15291	15018	0	324
-2.128	19.906	15291	15618	0	324
3.750	22.539	15291	15951	0	324
3.498	24.234	15603	16384	0	324
-1.046	21.818	16072	16950	0	324
-9.881	12.874	16384	17450	0	324
-16.985	5.517	16384	17684	0	324
-16.805	2.705	16384	17684	0	324
-13.668	3.787	16384	17550	0	324
-6.094	5.806	16384	17283	0	324
-2.488	6.239	16072	16984	0	324
-2.596	2.056	15603	16617	0	324
-4.724	-3.137	15291	16251	0	324
-6.816	-7.248	14822	15885	0	324
-5.842	-8.691	14509	15551	0	324
-1.479	-5.842	14041	15318	0	324
4.075	-3.823	13728	15051	0	324
9.881	-0.865	13259	14851	0	324
13.559	-1.226	12947	14784	0	324
14.461	-3.210	12478	14751	0	324
12.333	-5.842	12947	14751	0	324
10.819	-7.501	12166	14718	0	324
9.881	-6.816	11697	14685	0	324
10.674	-4.688	11384	14685	0	324
10.783	-4.075	11384	14984	0	324
13.451	-5.409	11697	15451	0	324
9.124	-8.763	11697	15918	0	324
3.246	-15.687	11697	16318	0	324
-4.039	-21.132	11697	16883	0	324
-12.514	-26.145	12166	17584	0	324
-15.831	-28.417	13259	18183	0	324
-15.254	-27.948	13259	18650	0	324
-8.835	-26.289	13728	19250	0	324
-1.046	-22.647	14509	19883	0	324
5.049	-19.942	14822	20283	0	324
9.268	-16.661	14822	20283	0	324
9.232	-17.418	15291	20050	0	324
7.645	-15.651	15291	19717	0	324
7.429	-15.290	15291	19350	0	324
8.943	-12.838	15291	18850	0	324
10.206	-9.088	14822	18317	0	324
6.852	-11.504	14822	17784	1	316
-2.596	-17.815	14822	17283	0	316
-12.369	-23.981	14509	16750	0	316
-19.834	-29.715	14509	16318	0	316
-15.038	-29.499	14041	15984	0	316
-7.032	-24.522	14041	15784	0	316
2.236	-22.611	13728	15651	0	316
4.832	-22.972	13728	15584	0	316
1.875	-28.994	13728	15718	0	316
-0.072	-30.761	14041	16051	0	316
4.183	-29.895	14041	16284	0	316
12.982	-24.053	14822	16384	0	316
19.437	-19.473	14822	16617	0	316
17.923	-19.221	15291	17017	0	316
15.290	-22.322	15291	17283	0	316
12.730	-26.722	15603	17417	0	316
18.211	-25.748	16072	17684	0	316
24.270	-19.762	16384	18117	0	316
28.561	-16.480	16696	18417	0	316
25.316	-14.605	16696	18417	0	316
14.605	-20.555	17165	18217	0	316
10.169	-23.765	17165	17884	0	316
11.323	-24.883	17165	17484	0	316
19.654	-19.113	16696	17017	0	316
29.715	-9.484	16696	16584	0	316
37.396	-3.390	16696	16218	0	316
38.406	-2.957	16384	15885	0	316
35.665	-5.265	16384	15584	0	316
34.728	-9.629	16072	15351	0	316
34.908	-12.982	16072	15151	0	316
34.656	-11.864	15603	15018	0	316
32.492	-15.435	15603	14851	0	316
27.768	-19.077	15603	14718	0	316
25.532	-24.198	15603	14818	0	316
23.801	-24.775	15603	15084	0	316
24.125	-22.611	15603	15284	0	316
24.378	-19.329	15603	15385	0	316
19.654	-16.480	15603	15751	0	316
13.776	-22.358	16384	16517	0	316
17.202	-0.505	1	0	0	516
19.546	1.226	1	3185	0	516
22.142	3.101	1	7218	0	516
20.844	6.960	1	11684	0	516
21.024	7.681	1	16118	0	516
16.697	3.029	1	20283	0	516
13.668	-1.226	2322	24250	0	516
10.133	-9.665	5134	27950	0	516
6.347	-16.625	7478	31250	0	516
5.554	-19.726	10603	32767	0	516
8.006	-20.844	13728	32767	0	516
11.684	-15.759	16384	32767	0	516
16.012	-13.018	19509	32767	0	516
19.221	-8.691	22634	32767	0	516
17.129	-8.475	25290	32767	0	516
15.146	-10.458	26852	32767	0	516
13.776	-9.665	26852	32767	0	516
18.644	-6.599	26540	32767	0	516
25.063	-0.469	26540	30783	0	516
33.718	6.383	26540	28584	1	648
39.524	10.169	26540	27150	0	648
38.406	11.287	28102	25984	0	648
36.098	12.477	28415	25017	0	648
33.934	14.533	29665	24450	0	648
33.646	14.713	30446	24117	0	648
30.256	15.435	32009	23783	0	648
23.657	8.547	32768	23450	0	648
11.648	-1.623	32768	23350	0	648
1.623	-11.468	32768	23417	0	648
-5.121	-17.382	32768	23317	0	648
-4.472	-18.680	32768	22384	0	648
1.262	-13.631	32768	19484	0	648
7.970	-9.592	32768	15218	0	648
11.864	-7.068	32768	11851	0	648
11.035	-6.924	32768	10084	0	648
7.501	-7.789	32768	9085	0	648
6.275	-8.871	32009	8418	0	648
7.429	-6.311	32321	8151	0	648
12.802	-0.829	32768	8285	0	648
22.863	5.085	32321	8718	0	648
26.361	9.268	32768	9318	0	648
29.318	13.271	32768	10051	0	648
30.617	15.182	32768	10851	0	648
34.151	16.985	32768	11718	0	648
37.216	22.503	32768	12551	0	648
41.868	27.263	32768	13351	0	648
43.635	28.381	32768	14051	0	648
40.317	27.119	32768	14718	0	648
34.439	24.414	32768	15485	0	648
25.207	20.375	32768	15718	0	648
18.356	14.389	32768	13751	0	648
9.773	8.511	32768	10118	0	648
3.859	5.806	32009	7518	0	648
0.325	2.813	29977	6784	0	648
-2.596	1.659	29665	6684	0	648
-5.301	0.072	28884	6884	0	648
-9.953	-3.823	28415	7584	0	648
-16.444	-9.665	28102	8651	0	648
-22.106	-12.045	28415	9818	0	648
-25.893	-12.009	28102	10251	0	648
-27.010	-9.340	25290	8651	0	648
-24.955	-6.383	22634	5618	0	648
-21.168	-4.291	20290	3618	0	648
-18.103	-2.416	18727	3451	0	648
-10.097	-0.938	17477	4218	0	648
-2.236	1.659	17165	5484	0	648
5.085	6.383	16696	7151	0	648
10.278	12.333	16696	9051	0	648
11.035	15.002	17165	11084	0	648
8.691	14.064	17477	13184	0	648
7.321	17.166	18259	15284	0	648
12.405	21.277	19509	17283	0	648
19.726	30.545	20290	19217	0	648
28.164	36.819	21852	21184	0	648
24.847	33.898	22946	23150	0	648
16.372	24.919	23415	24150	0	648
3.606	13.848	21384	22150	0	648
0.144	10.855	17165	16684	0	648
4.904	14.461	14041	10918	0	648
12.333	20.591	10916	7751	0	648
14.208	22.286	8572	6851	0	648
12.297	21.132	7478	7118	0	648
7.970	15.975	7009	8285	0	648
4.111	13.704	7009	10051	0	648
5.986	11.287	7791	12118	0	648
7.825	10.025	7791	14284	0	648
8.619	9.845	8572	16450	0	648
7.357	6.744	10134	18684	0	648
1.911	1.010	10134	20250	0	648
-5.878	-2.524	9041	19683	0	648
-9.881	-2.596	8259	17484	0	648
-9.737	3.354	5916	15451	0	648
1.406	12.009	2791	13018	0	648
12.117	20.988	447	9818	0	648
21.493	20.303	1	7884	0	648
22.250	16.084	1	7984	0	648
18.572	12.369	1	9218	0	648
15.831	13.018	1	11118	0	648
13.415	17.526	1	13085	0	648
13.451	20.231	1	12785	0	648
15.146	19.293	1	9118	0	648
12.117	15.507	1	4851	0	648
8.150	7.285	1	3518	0	648
5.517	-2.777	1	4851	0	648
6.058	-9.665	1	6584	0	648
7.537	-15.579	1	6951	0	648
10.314	-18.860	1	6551	0	648
11.648	-14.749	1	7551	0	648
9.665	-10.494	1	10384	0	648
6.527	-6.491	1	13918	0	648
5.914	-5.409	1	17750	0	648
6.275	-5.157	1	21784	0	648
12.441	-6.924	1	25850	0	648
14.894	-6.275	1	29750	0	648
18.608	-5.085	1	32767	0	648
17.346	-2.560	1	32767	0	648
14.749	1.551	1	32767	0	648
14.245	1.695	2791	32767	0	648
11.035	0.902	6697	32767	0	648
10.783	-1.010	9822	32767	0	648
8.294	-3.462	13259	32767	0	648
8.114	-1.406	16384	32767	0	648
10.494	4.075	19509	32767	0	648
15.687	9.556	22946	32767	0	648
18.247	14.785	25759	32767	0	648
19.510	16.913	28102	32767	0	648
16.625	14.208	28415	32767	0	648
13.884	13.776	28415	32767	1	432
10.133	12.694	28102	31283	0	432
8.042	14.785	27634	27784	0	432
9.412	20.303	26071	22917	0	432
9.881	23.801	24196	17117	0	432
9.196	25.099	22634	12885	0	432
4.219	23.801	21852	10651	0	432
-4.183	18.860	21384	9418	0	432
-10.638	17.670	21852	9018	0	432
-10.855	20.050	22634	9385	0	432
-1.767	27.551	23415	10118	0	432
9.953	34.692	23727	10284	0	432
15.651	35.593	22165	8551	0	432
16.012	34.944	20602	5418	0	432
11.143	30.328	18259	2585	0	432
5.481	28.381	14041	0	0	432
3.678	31.446	8259	0	0	432
4.977	30.112	2322	0	0	432
5.445	27.371	1	0	0	432
5.337	17.562	1	0	0	432
2.957	9.484	1	0	0	432
-1.623	3.426	1	0	0	432
-3.678	3.137	1	0	0	432
-5.734	6.275	1	0	0	432
-3.642	9.376	1	0	0	432
-0.108	10.278	1	0	0	432
0.757	7.393	1	0	0	432
-1.659	1.911	1	0	0	432
-5.373	-3.101	1	0	0	432
-8.655	-6.275	1	0	0	432
-8.006	-5.698	1	2185	0	432
-2.921	-4.472	1	9485	0	432
4.219	-1.010	1	16684	0	432
9.629	2.993	1	23883	0	432
12.874	4.544	1	30850	0	432
14.100	5.806	1	32767	0	432
13.451	4.796	1	32767	0	432
12.550	2.849	1	32767	0	432
14.208	2.524	1	32767	0	432
12.946	1.911	4353	32767	0	432
12.550	0.216	9041	32767	0	432
8.583	-2.164	13728	32767	0	432
2.272	-6.852	17946	32767	0	432
-4.580	-10.169	22634	32767	0	432
-8.402	-13.812	26540	32767	0	432
-7.898	-15.435	30446	32767	0	432
-2.272	-13.884	32768	32767	0	432
1.587	-12.874	32768	32767	0	432
8.475	-9.088	32768	32767	0	432
9.520	-7.681	32768	32767	0	432
8.727	-9.196	32768	32767	0	432
8.330	-10.169	32768	32767	0	432
8.727	-10.278	32768	32767	0	432
9.592	-6.852	32768	32767	0	432
12.297	-4.724	32768	32767	0	432
14.028	-1.046	32768	32767	0	432
19.005	1.406	32768	32767	0	432
19.329	3.498	32768	30083	0	432
21.781	4.796	32768	27217	0	432
25.856	6.455	32768	24450	0	432
25.099	7.537	32768	21517	0	432
24.919	10.061	32768	18484	0	432
28.381	12.153	32768	15551	0	432
29.607	14.533	32768	12718	0	432
28.237	13.271	32768	9984	0	432
26.506	8.619	32768	7284	0	432
22.539	4.544	32768	4818	0	432
20.736	1.839	32768	2618	0	432
18.536	1.659	32768	685	0	432
18.824	-0.397	32768	0	0	432
12.658	-3.967	32768	0	0	432
7.753	-9.232	32768	0	0	432
5.085	-14.677	32768	0	0	432
7.032	-15.218	32768	0	0	432
9.773	-16.408	32768	0	0	432
7.970	-17.706	32768	0	0	432
1.623	-23.440	32768	0	0	432
-4.255	-28.525	32768	0	0	432
-4.400	-27.876	32768	0	0	432
3.426	-21.673	32768	0	1	316
14.569	-10.350	29196	0	0	316
24.017	-1.695	21852	0	0	316
27.010	0.433	16072	0	0	316
23.549	-3.462	10603	0	0	316
18.788	-7.862	4666	0	0	316
16.120	-9.376	1	0	0	316
15.038	-5.626	1	0	0	316
16.877	1.334	1	0	0	316
20.952	5.842	1	0	0	316
24.558	6.094	1	0	0	316
25.316	2.993	1	0	0	316
25.856	-0.252	1	0	0	316
25.676	-2.128	1	0	0	316
22.358	-0.865	1	0	0	316
20.195	-0.541	1	5551	0	316
19.546	-3.246	1	11984	0	316
13.487	-8.150	1	18383	0	316
5.409	-15.110	1	24483	0	316
0.685	-20.664	1	29483	0	316
-2.056	-20.916	1	31983	0	316
1.118	-18.067	1	32483	0	316
8.186	-13.992	1	32767	0	316
12.910	-9.953	1	32767	0	316
11.864	-8.799	1	32767	0	316
8.799	-9.629	1	32767	0	316
5.698	-13.343	1	32767	0	316
6.563	-11.828	1	32767	0	316
11.251	-8.511	2791	32767	0	316
19.582	-3.823	6228	32767	0	316
24.486	0.938	9353	32767	0	316
25.712	2.813	13259	32767	0	316
23.188	-0.469	15291	32767	0	316
17.418	-3.859	16072	32767	0	316
14.389	-5.517	15603	32767	0	316
13.379	-3.282	13728	32767	0	316
15.182	-0.252	11384	32450	0	316
18.824	2.164	9822	27484	0	316
20.772	2.272	9041	24483	0	316
23.260	2.560	9041	22550	0	316
26.542	1.298	9041	21317	0	316
29.535	2.921	9822	20750	0	316
28.489	3.967	9353	20050	0	316
23.909	2.019	8259	17684	0	316
18.680	-0.613	6228	14118	0	316
12.622	-4.291	4666	10984	0	316
14.172	-6.455	2009	7751	0	316
18.500	-5.842	1	4051	0	316
25.243	-3.426	1	1885	0	316
26.109	-2.885	1	1418	0	316
23.657	-1.515	1	385	0	316
22.322	-1.803	1	0	0	316
20.700	-0.902	1	0	0	316
23.224	1.082	1	0	0	316
28.417	4.400	1	0	0	316
30.941	6.094	1	0	0	316
28.381	4.868	1	0	0	316
24.558	2.705	1	0	0	316
21.385	0.541	1	0	0	316
19.149	0.974	1	0	0	316
23.224	3.390	1	0	0	316
29.463	6.996	1	885	0	316
34.439	11.251	1	5284	0	316
38.298	11.756	1	9885	0	316
39.885	11.828	1	12685	0	316
36.964	10.494	1	14051	0	316
30.977	6.491	1	16318	0	316
22.575	1.623	1	20117	0	316
13.163	-4.291	1	24550	0	316
8.799	-7.862	1	28384	0	316
11.937	-7.898	1	30217	0	316
17.959	-3.642	1	30350	0	316
27.840	1.406	1	31150	0	316
31.590	4.508	1	32767	0	316
31.482	4.039	1	32767	0	316
29.030	0.902	1	32767	0	316
28.164	0.144	1	32767	0	316
29.607	2.200	1	32767	0	316
30.977	5.554	1	32767	0	316
33.177	10.097	1	32767	0	316
34.475	12.838	2009	32767	0	316
31.771	12.622	5916	32767	0	316
32.636	8.763	8572	32767	0	316
30.653	5.085	10134	32767	0	316
28.381	0.902	11384	32767	0	316
25.820	-0.649	12478	32767	0	316
22.286	1.154	12166	32383	0	316
17.202	1.298	10603	27284	0	316
16.012	0.288	8259	21350	0	316
12.622	-2.633	6697	15885	0	316
15.074	-6.022	4666	12284	0	316
16.408	-7.104	4666	11018	0	316
18.897	-6.635	5134	11184	0	316
16.228	-7.717	6697	12251	0	316
12.441	-9.917	8259	13951	0	316
6.347	-14.064	10134	16018	0	316
1.226	-14.605	12947	18250	0	316
-2.308	-16.697	15603	20617	0	316
-2.849	-15.326	18727	22983	0	316
-0.577	-14.785	21071	24617	0	316
1.839	-14.749	22165	24217	0	316
7.285	-11.287	22165	22184	0	316
12.369	-8.511	23415	20717	0	316
16.228	-3.065	23415	19983	0	316
19.726	0.000	22946	18017	0	316
20.195	3.137	22165	15018	0	316
19.690	4.868	22165	12985	0	316
19.149	5.590	21852	12118	0	316
16.552	5.481	19821	10284	0	316
18.103	5.049	18727	7518	0	316
18.824	4.039	17946	5918	0	316
20.447	4.255	17946	6218	0	316
17.166	0.144	18727	7651	0	316
12.586	-4.652	19821	9651	0	316
3.137	-10.566	21071	11918	0	316
-4.796	-19.221	22946	14218	0	316
-10.133	-22.034	24196	15951	0	316
-14.245	-25.712	24196	15751	0	316
-17.202	-25.748	23415	13984	0	316
-14.569	-24.270	23415	12918	0	316
-10.891	-22.358	23727	13351	0	316
-2.885	-16.444	24509	14451	0	316
6.563	-10.963	26071	15851	0	316
12.730	-3.426	27634	17450	0	316
16.841	1.551	28884	19217	0	316
18.536	4.400	31227	20884	0	316
22.647	4.977	32768	22484	0	316
25.171	3.823	32768	23917	0	316
26.109	4.255	32768	24650	0	316
25.640	2.200	32768	23450	0	316
19.365	-0.829	32768	20750	0	316
12.730	-4.219	32768	18650	0	316
9.953	-4.400	32768	18017	0	316
13.343	-0.325	32768	18283	0	316
19.221	7.645	32768	18917	0	316
28.705	11.900	32768	18984	0	316
30.617	12.441	32768	17050	0	316
29.102	5.698	32768	13851	0	316
22.142	-1.551	32768	11684	0	316
20.050	-5.842	32768	11118	0	316
17.634	-5.950	32768	11251	0	316
20.014	-4.977	32768	11684	0	316
19.149	-3.642	32768	12418	0	316
19.618	-4.183	32768	13418	0	316
16.012	-6.203	32768	14551	0	316
14.569	-7.934	32768	15751	0	316
12.405	-8.402	32768	16883	0	316
13.523	-7.140	32768	17917	0	316
13.740	-5.986	32768	18884	0	316
16.733	-4.940	32768	19750	0	316
21.673	-3.642	32768	20550	0	316
24.630	-2.344	32768	20517	0	316
26.974	-2.380	32768	18350	0	316
25.856	-0.469	32768	14018	0	316
23.440	-0.288	32768	8751	0	316
18.500	-2.488	31540	3884	0	316
17.021	-3.570	29196	718	0	316
15.290	-7.104	26540	0	0	316
13.523	-9.304	22634	0	0	316
9.232	-13.523	19040	0	0	316
4.616	-15.867	15603	0	0	316
-0.577	-19.942	11384	0	0	316
-0.469	-17.490	7478	0	0	316
1.334	-16.589	4666	0	0	316
1.370	-14.281	3572	0	0	316
-0.829	-14.785	2791	0	0	316
-6.635	-19.293	2322	0	0	316
-10.963	-21.854	3103	3051	0	316
-10.061	-21.818	4666	7651	0	316
-6.419	-22.178	5916	12251	0	316
-2.092	-18.175	7478	16717	0	316
-3.173	-18.716	10134	21050	0	316
-4.039	-16.625	12478	25184	0	316
-3.714	-15.471	14822	28950	0	316
0.361	-9.232	17477	32283	0	316
7.212	-3.137	20290	32767	0	316
13.595	5.337	22946	32767	0	316
18.536	11.828	24977	32767	0	316
21.601	15.759	25290	32767	0	316
26.037	18.247	24977	32767	0	316
31.013	16.589	25759	32683	0	316
30.869	11.900	26071	31917	0	316
29.318	9.124	26540	30983	0	316
24.666	6.419	24509	27650	0	316
19.942	7.248	20290	21184	0	316
20.050	11.035	16696	14218	0	316
20.087	14.389	14509	9918	0	316
21.132	11.937	12478	8451	0	316
16.661	6.960	11697	8585	0	316
11.179	0.793	11384	9518	0	316
4.147	-4.868	11697	10984	0	316
0.865	-4.652	12947	12818	0	316
0.974	-4.508	14041	14984	0	316
3.354	-1.623	15603	17283	0	316
5.085	0.180	17165	19683	0	316
7.321	2.921	19040	21950	0	316
8.222	4.688	21384	24083	0	316
9.701	6.816	23415	26050	0	316
11.828	8.511	25759	27784	0	316
16.480	11.756	27634	29283	0	316
20.952	14.461	30446	30517	0	316
27.660	21.132	32768	31483	0	316
31.338	24.125	32768	32183	0	316
32.528	25.388	32768	32683	0	316
30.184	26.361	32768	32450	0	316
25.604	20.664	32768	30117	0	316
22.178	19.005	32768	25917	0	316
19.221	17.887	32768	22317	0	316
17.743	16.913	32768	19850	1	832
15.182	16.877	32768	16351	0	832
12.297	12.910	31227	11551	0	832
7.068	6.131	28884	8084	0	832
3.210	-1.983	28102	6884	0	832
0.144	-4.219	28102	6884	0	832
-0.216	-4.652	27634	7251	0	832
-2.200	-5.049	27634	7984	0	832
-6.671	-7.393	28415	9285	0	832
-12.730	-11.828	29665	10918	0	832
-16.589	-18.175	29977	12618	0	832
-16.841	-18.320	32009	14184	0	832
-9.520	-15.002	32768	15684	0	832
-0.252	-8.979	32768	17050	0	832
8.583	-1.406	32768	18283	0	832
13.812	2.272	32768	19350	0	832
13.487	2.957	32768	20283	0	832
13.091	3.462	32768	21017	0	832
11.396	1.947	32768	20950	0	832
13.271	5.265	32768	18784	0	832
20.050	10.133	32768	15051	0	832
26.722	16.697	32768	12118	0	832
33.105	21.313	32768	10918	0	832
33.393	24.594	32768	10584	0	832
29.895	22.395	32768	10751	0	832
23.909	18.283	32768	11451	0	832
14.713	13.054	32768	12451	0	832
11.900	7.934	32768	13551	0	832
7.212	2.596	32768	14618	0	832
2.380	-3.462	32768	15851	0	832
-3.642	-9.304	32768	17150	0	832
-11.035	-15.038	32768	18317	0	832
-14.172	-16.156	32768	19350	0	832
-13.271	-13.307	32768	20484	0	832
-9.881	-10.386	32768	21584	0	832
-5.301	-8.258	32768	22384	0	832
-2.885	-5.445	32768	22750	0	832
-0.433	-4.183	32768	22784	0	832
3.859	-1.262	32768	21950	0	832
9.124	2.921	32768	18917	0	832
12.910	4.760	32768	14284	0	832
18.933	7.681	32768	10484	0	832
20.303	8.366	32768	7818	0	832
22.178	9.412	30446	4118	0	832
18.356	9.881	25290	0	0	832
15.002	10.999	19509	0	0	832
10.783	9.665	14041	0	0	832
10.097	10.999	9353	0	0	832
11.973	10.963	5916	0	0	832
11.432	9.881	3103	0	0	832
11.360	9.953	1	0	0	832
8.907	7.934	1	0	0	832
4.868	4.940	1	0	0	832
-0.361	-3.426	1	0	0	832
-8.078	-9.088	1	0	0	832
-14.064	-16.012	1	0	0	832
-17.815	-19.149	1	5918	0	832
-14.064	-14.497	1	11084	0	832
-7.537	-10.458	1	14251	0	832
-1.046	-6.635	1	15818	0	832
3.426	-5.265	1	17217	0	832
4.616	-6.022	1	17750	0	832
6.311	-6.239	1	17050	0	832
7.537	-4.760	1	17217	0	832
9.340	-1.587	1	19150	0	832
11.323	2.308	1	21817	0	832
13.920	5.842	1	24684	0	832
15.543	10.963	1	27750	0	832
18.752	17.346	1	30783	0	832
21.421	19.690	1	32767	0	832
23.981	22.214	1	32767	0	832
22.286	18.752	1	31583	0	832
19.798	14.100	1	30583	0	832
14.064	8.655	1	31050	0	832
9.701	2.957	447	32117	0	832
4.832	-0.108	2791	32767	0	832
5.049	-1.046	5134	32767	0	832
4.472	-2.921	7478	32767	0	832
0.325	-6.094	10603	32767	0	832
-3.895	-12.405	13728	32767	0	832
-13.523	-17.995	17165	32767	0	832
-19.546	-24.594	20290	32767	0	832
-23.981	-24.811	23727	32767	0	832
-18.969	-22.178	27321	32767	0	832
-13.848	-20.014	29665	32767	0	832
-4.544	-15.903	29977	32767	0	832
0.721	-13.523	30446	32767	0	832
2.164	-11.504	30446	31717	0	832
3.606	-9.196	31227	29184	1	352
7.357	-5.698	32321	27484	0	352
12.802	-1.587	32768	25950	0	352
21.890	3.787	32768	24617	0	352
29.210	7.862	32768	23417	0	352
35.737	13.018	32768	22350	0	352
38.298	16.949	32768	21317	0	352
37.649	17.238	32768	20317	0	352
33.249	17.670	32768	19450	0	352
26.109	11.756	32768	18684	0	352
21.024	7.465	32768	18083	0	352
15.867	2.596	32768	17517	0	352
15.615	-1.334	32768	17017	0	352
14.569	-4.616	32768	16584	0	352
13.668	-7.717	32768	16151	0	352
9.340	-10.458	32768	15618	0	352
5.265	-15.218	32768	15251	0	352
0.649	-17.995	32768	14984	0	352
-2.596	-23.440	32768	14651	0	352
-3.606	-27.515	32768	14184	0	352
-3.246	-29.715	32768	13118	0	352
-1.262	-26.938	32768	10151	0	352
3.246	-23.512	32768	4918	0	352
8.366	-14.713	32768	0	0	352
15.975	-10.278	31227	0	0	352
22.575	-3.498	24196	0	0	352
28.092	0.325	18259	0	0	352
34.006	5.265	14822	0	0	352
39.812	10.350	10916	0	0	352
45.727	15.759	8259	0	0	352
49.693	22.106	6228	0	0	352
52.326	24.198	5447	0	0	352
53.336	23.765	5134	0	0	352
48.792	22.503	4666	0	0	352
42.553	15.939	4353	0	0	352
32.925	11.828	2791	0	0	352
24.234	6.563	1228	485	0	352
17.166	2.596	1	1185	0	352
16.480	-1.515	1	1451	0	352
13.487	-4.652	1	885	0	352
10.025	-9.665	1	1585	0	352
3.570	-14.245	1	4484	0	352
-3.642	-22.395	1	8451	0	352
-7.285	-26.109	1	12651	0	352
-6.599	-26.578	1	17017	0	352
-3.065	-24.234	1	21617	0	352
-1.226	-17.887	1	26250	0	352
1.370	-14.425	1	29950	0	352
3.678	-9.088	1	31217	0	352
8.475	-6.744	1	30750	0	352
15.867	-1.659	759	30950	0	352
22.467	1.731	2322	32350	0	352
26.073	3.137	3572	32767	0	352
27.371	3.714	5447	32767	0	352
27.912	5.626	7478	32767	0	352
28.994	10.927	10134	32767	0	352
30.364	14.425	12166	32767	0	352
29.607	17.779	13728	32767	0	352
27.010	16.589	13728	32767	0	352
22.791	14.208	12947	32767	0	352
19.401	15.759	12947	30483	0	352
21.096	16.264	12947	29017	0	352
20.555	19.293	14041	28184	0	352
21.709	17.274	14822	27650	0	352
22.106	16.084	16072	27417	0	352
19.041	12.405	16384	26784	0	352
17.815	10.278	15603	24483	0	352
11.468	6.203	14509	20850	0	352
5.590	-2.921	14041	18117	0	352
-1.010	-9.917	14041	17150	0	352
-4.039	-16.516	14509	17450	0	352
-3.318	-17.706	16072	18550	0	352
1.803	-12.189	16696	19417	0	352
6.058	-6.527	16072	18250	0	352
9.340	-2.380	15291	15651	0	352
11.504	-0.252	14041	13351	0	352
12.225	-1.118	10603	9918	0	352
11.540	-0.829	6228	3618	0	352
9.016	-0.361	759	0	0	352
8.727	2.452	1	0	0	352
9.448	6.094	1	0	0	352
14.245	10.891	1	0	0	352
19.473	18.031	1	0	0	352
25.243	20.664	1	0	0	352
21.962	21.854	1	2851	0	352
17.959	15.290	1	6851	0	352
10.314	9.484	1	11051	0	352
6.058	3.101	1	15184	0	352
4.580	2.128	2009	19184	0	352
3.570	1.695	4666	23050	0	352
1.731	0.505	6228	26050	0	352
-2.344	-2.957	7478	26917	0	352
-5.878	-6.996	7791	26084	0	352
-6.203	-8.691	8259	25050	0	352
-6.888	-7.068	6697	23217	0	352
-4.580	-5.878	5134	20550	0	352
-4.832	-5.770	5134	19017	0	352
-6.491	-9.376	5447	19184	0	352
-8.402	-11.540	5916	20117	0	352
-7.285	-15.110	7478	21650	0	352
-4.977	-13.595	9353	23617	0	352
1.983	-7.140	10603	24984	0	352
10.025	-2.560	10603	24250	0	352
15.074	1.839	9822	21850	0	352
16.661	5.806	9822	20283	0	352
18.139	4.760	10134	20250	0	352
15.723	3.787	10603	20183	0	352
16.516	5.409	8259	17684	0	352
15.543	8.006	4353	12018	0	352
17.057	10.855	447	6118	0	352
15.579	12.982	1	3118	0	352
12.477	12.045	1	2851	0	352
6.058	6.780	1	3918	0	352
-2.344	0.685	1	5884	0	352
-9.917	-6.491	1	8551	0	352
-10.386	-12.225	1	11651	0	352
-8.114	-12.153	1	14984	0	352
-3.570	-10.206	2322	18317	0	352
0.829	-6.419	5134	21617	0	352
2.416	-2.777	7478	24817	0	352
0.325	-3.282	10603	28017	0	352
-2.416	-5.698	13728	31083	0	352
-5.806	-9.304	16696	32767	0	352
-7.212	-9.809	20290	32767	0	352
-6.022	-8.366	23727	32767	0	352
-1.911	-6.960	26852	32767	0	352
1.334	-3.931	30446	32767	0	352
4.255	-2.019	32768	32767	0	352
5.770	0.649	32768	32767	0	352
6.816	3.246	32768	32767	0	352
7.862	5.445	32768	32767	0	352
8.943	6.599	32768	32767	0	352
10.999	8.907	32768	32767	0	352
14.208	9.989	32768	32767	1	532
17.779	12.369	32768	32767	0	532
19.473	12.694	32768	32217	0	532
17.959	11.035	32768	27317	0	532
14.028	8.871	32768	20917	0	532
8.330	5.085	32768	15518	0	532
1.154	0.757	32768	11851	0	532
-5.770	-7.285	32768	9251	0	532
-12.405	-13.992	32768	7318	0	532
-13.451	-19.293	32768	6051	0	532
-10.169	-16.877	32768	5151	0	532
-3.823	-11.432	32768	4518	0	532
3.931	-4.147	32768	3518	0	532
6.744	-0.757	32768	785	0	532
9.196	0.144	32768	0	0	532
10.783	-2.344	32768	0	0	532
10.999	-3.065	31540	0	0	532
13.163	-4.219	30446	0	0	532
15.038	-4.652	29196	0	0	532
15.146	-3.931	28884	0	0	532
19.618	-0.793	28884	0	0	532
23.657	2.560	29196	985	0	532
28.453	11.179	28884	3451	0	532
32.312	16.661	29977	5718	0	532
32.925	16.625	30446	7884	0	532
31.482	17.057	30759	10084	0	532
29.246	13.127	31540	12251	0	532
27.010	13.451	32768	14318	0	532
26.397	13.127	32321	15551	0	532
26.217	16.048	31227	14485	0	532
23.945	13.595	28884	11718	0	532
16.228	6.635	26852	9718	0	532
8.943	0.541	25759	9351	0	532
1.587	-5.481	24977	9685	0	532
-2.236	-9.196	24509	10384	0	532
0.685	-8.006	23415	10784	0	532
6.094	-4.544	20602	9418	0	532
11.071	-3.354	18259	6918	0	532
11.612	-2.633	16384	5651	0	532
9.232	-6.275	15291	6118	0	532
3.750	-6.888	13728	6784	0	532
1.370	-6.563	10916	6151	0	532
2.236	-2.308	9041	4784	0	532
6.744	1.551	7478	4718	0	532
12.874	3.606	7009	6251	0	532
18.608	5.842	6697	8651	0	532
21.421	7.176	6228	10818	0	532
23.368	11.432	4666	11184	0	532
26.145	15.471	2791	9984	0	532
23.693	15.579	1541	9818	0	532
22.070	15.795	759	11384	0	532
20.988	12.730	759	13018	0	532
16.877	10.530	1	12985	0	532
16.480	6.852	1	11684	0	532
12.802	4.544	1	11484	0	532
12.297	0.216	1	13085	0	532
10.674	-1.226	1	15518	0	532
7.825	-5.049	1	18250	0	532
6.347	-7.825	1	21250	0	532
3.714	-10.999	1	24317	0	532
-0.397	-15.074	2322	27350	0	532
-2.777	-14.894	5134	30317	0	532
-1.731	-16.949	7791	32767	0	532
0.036	-14.064	10603	32767	0	532
4.075	-9.845	14041	32767	0	532
10.422	-5.157	17165	32767	0	532
15.543	0.829	20290	32767	0	532
17.310	3.642	22946	32767	0	532
17.815	5.409	26071	32767	0	532
16.336	5.265	28415	32767	0	532
17.779	5.950	31540	32767	0	532
18.897	8.078	32768	32767	0	532
21.926	9.520	32768	32767	0	532
25.929	13.848	32768	32767	0	532
26.614	16.697	30446	28684	0	532
27.948	15.795	26852	19683	0	532
27.660	14.064	24196	13284	0	532
22.719	7.825	21071	8785	0	532
15.110	0.072	16384	3751	0	532
9.881	-4.364	12478	0	1	316
6.239	-7.825	9353	0	0	316
6.563	-8.763	6697	0	0	316
8.114	-8.330	2791	0	0	316
9.232	-8.583	1	0	0	316
7.357	-8.763	1	0	0	316
7.285	-5.770	1	0	0	316
9.304	-3.895	1	0	0	316
10.422	-1.046	1	0	0	316
14.208	-0.072	1	0	0	316
13.379	-0.072	1	2318	0	316
14.461	0.000	1	4284	0	316
14.100	2.777	1	5018	0	316
15.471	6.744	1	6784	0	316
18.572	9.809	1	10018	0	316
20.339	10.025	1	13684	0	316
23.152	12.730	1	17517	0	316
28.020	15.435	1	21584	0	316
29.823	17.382	2009	25417	0	316
33.141	20.555	4353	28984	0	316
34.006	19.329	7791	32350	0	316
30.977	18.067	10916	32767	0	316
27.479	13.992	14041	32767	0	316
24.414	9.989	16384	32767	0	316
20.880	5.085	16696	32767	0	316
17.382	0.036	16696	32767	0	316
13.163	-2.560	17165	32283	0	316
12.405	-3.065	17946	31050	0	316
8.222	-4.147	19040	30417	0	316
5.121	-3.642	20290	29983	0	316
7.321	-2.921	21852	29750	0	316
10.963	-0.577	23727	29683	0	316
18.716	5.698	24977	29683	0	316
28.273	11.035	26540	29683	0	316
33.213	11.720	28884	29617	0	316
31.482	13.054	30759	29417	0	316
28.777	10.494	32009	29250	0	316
26.938	7.501	32768	29217	0	316
27.948	8.402	32768	29283	0	316
28.237	9.448	32768	29084	0	316
28.453	10.638	32768	28617	0	316
24.450	8.078	32768	28117	0	316
19.618	6.563	32768	27650	0	316
19.329	5.301	32768	27017	0	316
24.162	7.862	32768	25484	0	316
30.076	12.586	32768	21884	0	316
33.105	17.959	32768	16850	0	316
29.499	17.887	32768	12651	0	316
19.437	11.215	32768	10018	0	316
11.792	6.311	32768	7518	0	316
8.835	0.108	32768	3518	0	316
7.357	-2.452	32321	0	0	316
9.520	-5.986	29665	0	0	316
6.671	-7.032	27634	0	0	316
4.219	-10.422	25759	0	0	316
5.229	-10.746	24509	0	0	316
9.556	-6.599	23727	0	0	316
17.454	-1.623	23415	0	0	316
21.565	3.462	23415	0	0	316
23.332	4.219	23415	1351	0	316
21.493	2.705	23727	3884	0	316
15.038	-1.875	24196	6484	0	316
13.415	-5.806	25290	9251	0	316
13.091	-5.517	26852	12051	0	316
15.038	-1.947	26852	13918	0	316
23.837	7.393	24509	12751	0	316
29.318	19.510	20602	8051	0	316
35.269	26.001	16384	2818	0	316
33.682	25.820	13259	51	0	316
28.525	19.582	11697	0	0	316
20.736	8.691	9041	218	0	316
17.418	2.056	5447	0	0	316
14.858	-0.252	2791	0	0	316
15.146	-0.541	759	0	0	316
13.163	-0.829	1	0	0	316
10.242	-1.515	1	2618	0	316
10.530	-3.246	1	6284	0	316
14.100	-1.911	1	10184	0	316
19.654	1.118	1228	14018	0	316
27.299	4.111	3572	17717	0	316
29.535	6.094	4666	21284	0	316
30.941	5.121	5916	24017	0	316
28.309	3.678	5447	24483	0	316
26.506	7.068	4666	23183	0	316
28.381	11.828	4353	22517	0	316
32.203	22.178	4666	23317	0	316
39.488	26.866	5916	24584	0	316
45.943	27.732	6697	26084	0	316
48.071	27.551	8259	27817	0	316
49.405	24.739	10134	29617	0	316
48.612	24.702	12166	31350	0	316
45.763	26.722	14509	32767	0	316
41.796	26.902	17165	32767	0	316
36.026	23.585	19509	32767	0	316
28.669	18.644	22165	32767	0	316
25.712	14.100	24977	32767	0	316
22.178	8.583	27634	32767	0	316
22.358	3.895	29977	32767	0	316
19.762	0.974	32768	32767	0	316
17.670	-2.633	32768	32767	0	316
16.697	-2.669	32768	32767	0	316
18.103	1.623	32768	30350	0	316
19.437	7.429	31227	25217	0	316
23.404	10.494	28415	19683	0	316
24.702	10.674	25290	13451	0	316
24.017	8.583	22634	8651	0	316
26.830	8.186	20602	6084	0	316
32.853	12.333	19509	4884	0	316
38.731	19.473	17946	3884	0	316
43.707	24.630	15291	1518	0	316
44.717	26.650	12166	0	0	316
42.084	25.099	9822	0	0	316
38.370	20.700	8572	0	0	316
39.235	18.824	7791	0	0	316
43.671	20.736	7791	0	0	316
46.736	21.890	8259	2485	0	316
51.713	22.683	9041	5618	0	316
51.785	22.178	10603	9051	0	316
50.307	18.644	12166	12485	0	316
49.080	18.752	14041	15684	0	316
46.123	22.034	16384	18850	0	316
47.133	27.876	18259	21950	0	316
48.179	31.590	19821	24050	0	316
47.277	30.617	19509	23717	0	316
47.674	28.128	19040	21717	0	316
48.467	26.722	19040	20517	0	316
49.044	32.023	19509	20650	0	316
54.093	44.501	20290	21084	0	316
55.680	57.483	20602	21550	0	316
58.384	62.964	21852	22150	0	316
56.401	63.181	22634	22850	0	316
56.221	61.197	24196	23550	0	316
57.411	61.450	25759	24250	0	316
58.601	68.518	26540	24917	0	316
62.856	77.353	28102	25517	0	316
67.724	79.589	29665	26017	0	316
69.492	77.533	31227	26317	0	316
68.374	73.026	32009	26384	0	316
66.571	69.347	32768	26250	0	316
64.118	69.419	32768	25950	0	316
67.797	69.059	32768	25617	0	316
75.261	69.203	32768	25384	0	316
81.933	68.518	32768	25284	0	316
88.677	68.229	32768	25017	0	316
87.811	69.600	32768	24550	0	316
86.008	69.888	32768	24183	0	316
81.031	69.131	32768	24050	0	316
76.451	65.020	32768	23850	0	316
69.852	58.673	32768	23450	0	316
64.190	51.785	32768	22250	0	316
58.240	43.563	32768	19017	0	316
55.391	38.478	32768	13451	0	316
60.043	35.197	32768	6618	0	316
64.623	39.560	31540	0	0	316
69.564	40.894	27634	0	0	316
68.987	41.003	24196	0	0	316
63.541	37.432	21384	0	0	316
59.574	31.374	19509	0	0	316
61.197	28.741	17946	0	0	316
64.082	28.850	16696	0	0	316
64.190	31.735	16384	0	0	316
60.332	28.922	16072	0	0	316
54.382	24.198	16072	985	0	316
52.001	22.142	15291	3118	0	316
54.886	20.123	12166	2685	0	316
56.473	21.493	7478	0	0	316
55.824	22.286	1	0	0	316
50.198	17.634	1	0	0	316
45.546	15.975	1	0	0	316
44.068	14.930	1	0	0	316
44.320	17.995	1	0	0	316
45.763	17.995	1	0	0	316
41.904	16.120	1	0	0	316
36.783	10.206	1	2485	0	316
32.456	4.472	1	8151	0	316
32.095	0.721	1	14018	0	316
33.141	0.793	1	19650	0	316
34.295	1.370	1	24850	0	316
32.708	1.298	1	29550	0	316
28.237	-0.829	1	32767	0	316
19.618	-3.606	447	32767	0	316
14.713	-7.176	3103	32767	0	316
10.710	-7.393	6228	32767	0	316
15.002	-3.029	9353	32767	0	316
20.700	2.056	12478	32767	0	316
28.453	4.940	16072	32767	0	316
31.482	5.517	18259	32767	0	316
29.354	4.544	21384	32767	0	316
26.361	4.003	23727	32767	0	316
27.479	6.419	26540	32767	0	316
29.174	9.773	28884	32767	0	316
30.617	8.294	30759	32767	0	316
24.198	4.291	32768	32767	1	768
15.471	-2.560	32768	32767	0	768
4.796	-7.862	32768	32767	0	768
-0.216	-10.061	32768	32767	0	768
-0.469	-10.242	32768	32767	0	768
-4.616	-13.451	32768	32767	0	768
-10.206	-19.077	32768	32767	0	768
-20.952	-29.463	32768	30783	0	768
-28.850	-37.324	32768	28784	0	768
-35.269	-44.032	32768	26717	0	768
-32.961	-45.582	32768	24550	0	768
-31.518	-45.799	32768	22517	0	768
-29.931	-46.484	32768	20017	0	768
-29.715	-49.189	32768	15485	0	768
-30.941	-47.854	32768	9318	0	768
-28.453	-48.143	32768	4118	0	768
-24.702	-43.202	32768	818	0	768
-17.490	-37.036	32768	0	0	768
-13.199	-32.672	32768	0	0	768
-9.412	-29.138	32768	0	0	768
-7.465	-26.145	32768	0	0	768
-5.157	-23.765	32768	0	0	768
-0.757	-20.087	32768	0	0	768
3.390	-16.913	32321	0	0	768
3.390	-13.451	32009	0	0	768
4.724	-15.507	31227	185	0	768
1.695	-17.851	31540	1585	0	768
-0.433	-21.385	31540	3051	0	768
-3.173	-24.775	31227	4584	0	768
-4.436	-29.102	31540	6084	0	768
-6.491	-30.545	32009	7551	0	768
-7.789	-33.538	31227	8918	0	768
-9.268	-33.646	32009	10184	0	768
-8.186	-35.449	32321	11584	0	768
-7.212	-32.312	32321	13051	0	768
-3.318	-31.158	32768	14351	0	768
0.902	-29.571	32768	15618	0	768
7.176	-24.378	32768	16817	0	768
11.143	-19.582	32768	17884	0	768
18.320	-11.612	32768	18550	0	768
21.385	-7.176	32768	18984	0	768
21.529	-5.554	32768	19217	0	768
19.726	-8.366	32768	19250	0	768
13.559	-11.576	32768	19117	0	768
9.701	-13.920	32768	18850	0	768
9.088	-10.783	32768	18584	0	768
9.881	-6.058	32768	18350	0	768
12.189	-4.219	32768	18050	0	768
14.569	-3.570	32768	17784	0	768
13.018	-4.832	32768	17517	0	768
13.523	-4.327	32768	17217	0	768
17.346	-2.596	32768	16784	0	768
19.582	0.865	32768	16384	0	768
22.972	3.678	32768	16284	0	768
23.837	1.479	32768	16384	0	768
16.625	-5.193	32768	15885	0	768
9.016	-12.477	30759	13351	0	768
1.262	-17.851	28415	9618	0	768
-4.183	-22.755	26540	7218	0	768
-6.708	-21.854	24509	6584	0	768
-5.049	-21.349	23727	6618	0	768
-3.354	-21.060	21852	6384	0	768
2.488	-17.526	19040	4551	0	768
8.150	-13.812	15603	1385	0	768
14.677	-10.422	12478	0	0	768
16.697	-8.979	10134	0	0	768
19.329	-10.206	8572	0	0	768
18.897	-10.242	7791	1051	0	768
24.486	-5.770	6228	2785	0	768
29.463	-0.108	5916	4818	0	768
35.665	6.744	5916	7051	0	768
34.583	8.078	5916	9451	0	768
29.354	4.400	6228	11951	0	768
23.981	1.370	6697	14485	0	768
23.476	1.659	7478	16883	0	768
27.119	5.626	8259	19150	0	768
34.295	9.448	9822	21217	0	768
36.819	10.855	10134	23217	0	768
33.105	5.373	11697	25217	0	768
24.739	-2.380	12947	27184	0	768
17.382	-10.386	14509	28884	0	768
10.061	-13.992	15603	29617	0	768
8.330	-16.408	14822	28217	0	768
6.780	-14.821	12478	24550	0	768
6.996	-15.939	9041	19517	0	768
7.862	-16.985	5916	14485	0	768
8.655	-19.185	3103	11184	0	768
9.268	-19.510	1228	10051	0	768
9.773	-20.952	447	9918	0	768
9.160	-18.716	1	10351	0	768
7.753	-17.743	1	11351	0	768
10.314	-12.550	1	12785	0	768
13.199	-6.455	1	14485	0	768
19.942	1.659	447	16351	0	768
25.748	6.347	1541	18350	0	768
31.122	9.665	2791	20484	0	768
33.141	10.350	4353	22550	0	768
33.177	8.907	6228	24517	0	768
31.626	7.501	7791	26250	0	768
26.938	4.688	9353	27750	0	768
22.358	0.793	10916	28950	0	768
18.572	-3.173	12947	29883	0	768
14.605	-6.419	14509	30550	0	768
14.389	-9.484	16072	30950	0	768
12.514	-11.143	17477	31150	0	768
12.586	-10.061	19040	31150	0	768
14.605	-10.025	20602	31050	0	768
15.471	-9.665	22634	31050	0	768
20.231	-9.520	24196	31050	0	768
21.637	-8.871	25290	30783	0	768
23.008	-9.196	27321	30183	0	768
22.070	-9.556	28415	29583	0	768
17.454	-10.999	30446	28950	0	768
15.290	-12.766	30759	28017	0	768
11.323	-14.930	32009	26750	0	768
11.612	-12.802	32768	25550	0	768
14.569	-11.179	32768	24550	0	768
20.303	-7.681	32768	23517	0	768
30.689	0.757	32768	22317	0	768
42.120	8.835	32768	21017	0	768
50.775	15.867	32768	19617	0	768
50.234	17.562	32768	18150	0	768
45.438	10.927	32768	16684	0	768
35.701	3.714	32768	15284	0	768
29.931	-2.705	32768	13984	0	768
28.886	-3.678	32768	12785	0	768
29.066	-5.013	32768	11651	0	768
24.955	-6.167	32768	10618	0	768
22.034	-9.088	32768	9751	0	768
20.952	-10.350	32768	8985	0	768
18.752	-11.396	32768	8385	0	768
18.572	-13.415	32768	7251	0	768
13.595	-14.389	29665	4451	0	768
8.042	-18.897	26071	385	0	768
4.327	-19.365	23415	0	0	768
6.780	-19.293	21384	0	0	768
12.297	-13.091	18727	0	0	768
19.690	-10.169	14822	0	0	768
19.942	-9.484	10916	0	0	768
19.654	-9.412	7478	0	0	768
13.631	-11.864	5447	0	0	768
9.989	-15.002	3572	0	0	768
8.186	-11.396	2322	0	0	768
9.484	-9.268	2009	0	0	768
11.684	-2.993	1228	0	0	768
18.824	2.452	1228	2951	0	768
24.089	7.862	2009	6251	0	768
29.715	12.874	2009	9485	0	768
33.033	15.038	2791	12718	0	768
32.384	12.658	3884	15918	0	768
30.112	11.287	5134	18850	0	768
30.256	8.871	6228	21584	0	768
32.564	6.671	7478	24050	0	768
31.699	4.616	9041	26250	0	768
31.482	4.364	10134	28117	0	768
28.092	2.705	12166	29617	0	768
23.008	2.669	13728	30917	0	768
18.572	1.010	15291	32183	0	768
11.720	-3.570	16696	32767	0	768
5.986	-7.248	18259	32767	0	768
3.498	-11.251	19821	32767	0	768
4.327	-9.881	21852	32767	0	768
9.160	-4.075	23415	32767	0	768
12.730	0.902	25290	32767	0	768
16.120	3.750	27321	32767	0	768
16.480	4.291	28415	32767	0	768
15.218	4.364	30759	32767	0	768
17.093	3.859	32009	32767	0	768
15.795	5.626	32321	31983	1	672
19.185	9.881	32768	30450	0	672
22.178	12.658	32768	28750	0	672
28.705	11.756	32768	26917	0	672
33.357	8.042	32768	24950	0	672
30.797	-1.046	32768	22950	0	672
24.125	-11.179	32768	21084	0	672
13.415	-20.591	32768	19350	0	672
7.789	-24.486	32768	17684	0	672
8.763	-25.965	32768	16184	0	672
12.730	-28.056	32768	14718	0	672
14.641	-30.653	32768	13384	0	672
12.153	-35.016	32768	12184	0	672
5.590	-36.423	32768	11251	0	672
3.137	-35.593	32768	10684	0	672
3.859	-31.590	32321	10384	0	672
3.714	-28.994	32321	10084	0	672
4.183	-29.787	32768	9818	0	672
2.344	-30.617	32009	9851	0	672
2.019	-30.184	32321	10051	0	672
5.193	-23.873	32321	10084	0	672
9.124	-13.595	32009	10018	0	672
14.785	-4.291	32009	10151	0	672
18.103	1.623	32009	10451	0	672
19.185	3.246	31540	10651	0	672
21.637	1.010	31540	10651	0	672
21.709	0.577	31227	10651	0	672
24.991	4.039	30446	10618	0	672
29.895	9.232	30446	10584	0	672
33.321	15.651	29665	10518	0	672
36.747	17.021	28884	10518	0	672
36.603	16.625	28884	10518	0	672
33.393	11.900	28415	10451	0	672
30.436	6.203	27634	10451	0	672
23.693	2.488	26852	10518	0	672
20.014	2.452	26540	10618	0	672
18.933	4.039	25759	10618	0	672
16.300	4.075	24977	10651	0	672
16.949	1.262	24196	10751	0	672
14.172	-4.508	24196	10951	0	672
8.114	-10.458	22946	11151	0	672
5.049	-15.471	22634	11418	0	672
2.957	-14.389	22165	11818	0	672
4.039	-10.891	21852	12518	0	672
7.753	-8.691	21852	13418	0	672
11.937	-5.157	21852	14218	0	672
17.815	-1.767	21384	14818	0	672
21.709	0.541	21852	15518	0	672
25.820	3.101	21852	16351	0	672
25.279	4.544	22165	16917	0	672
22.250	3.823	21384	16650	0	672
20.483	1.803	18727	14485	0	672
19.726	1.262	16072	10918	0	672
21.962	3.570	13259	8218	0	672
27.191	7.717	11384	7151	0	672
27.515	10.133	10134	6918	0	672
26.217	7.501	9041	7151	0	672
22.395	3.101	8259	7751	0	672
15.182	-2.092	7478	8685	0	672
15.543	-4.291	6697	9885	0	672
15.651	-4.580	6697	11251	0	672
19.510	-4.796	6697	12685	0	672
19.546	-6.383	6697	14118	0	672
17.779	-8.366	7009	15551	0	672
16.805	-10.314	7009	16883	0	672
14.100	-10.819	7478	18183	0	672
11.828	-10.350	7791	19417	0	672
13.668	-10.133	8572	20584	0	672
14.172	-9.556	9353	21917	0	672
16.805	-6.708	10134	23283	0	672
21.385	-5.085	10916	24350	0	672
24.450	-4.183	12478	25084	0	672
23.260	-2.344	13259	25784	0	672
23.296	-0.072	14041	26484	0	672
25.965	4.472	15291	26884	0	672
28.489	7.681	16072	27084	0	672
30.617	10.530	17165	27350	0	672
31.302	9.484	18259	27584	0	672
29.859	7.501	19040	27550	0	672
29.968	8.078	19821	27184	0	672
30.725	9.232	20602	26650	0	672
31.987	9.953	21384	25984	0	672
26.938	7.501	21852	25150	0	672
20.123	1.226	22165	24250	0	672
13.595	-5.085	22165	23317	0	672
8.439	-9.701	22946	22317	0	672
7.212	-11.179	22634	21284	0	672
5.914	-11.828	22946	20250	0	672
5.662	-11.792	22946	19250	0	672
5.626	-11.360	22634	18317	0	672
8.763	-7.537	22634	17450	0	672
14.533	-2.056	22165	16584	0	672
23.873	4.039	22946	15885	0	672
31.662	8.222	22634	15485	0	672
37.216	9.052	22946	15351	0	672
39.812	7.140	22946	15184	0	672
38.731	6.419	22946	14951	0	672
33.934	6.635	23415	14984	0	672
30.040	9.124	23727	15385	0	672
25.532	8.114	24509	15951	0	672
21.168	5.554	25290	16384	0	672
18.320	-1.479	26071	16850	0	672
15.723	-6.635	26540	17283	0	672
18.680	-8.763	26852	17450	0	672
23.981	-4.472	27321	17283	0	672
31.518	1.875	27634	16950	0	672
34.151	5.950	27634	16517	0	672
30.436	5.734	27321	15951	0	672
24.630	2.957	26852	15184	0	672
20.772	-0.072	26852	14485	0	672
23.549	0.721	26071	13784	0	672
30.364	2.849	25290	13085	0	672
32.600	4.400	24977	12451	0	672
29.931	2.056	24509	11918	0	672
23.549	-2.849	24509	11518	0	672
22.358	-5.229	23727	11251	0	672
23.476	-5.950	23415	11051	0	672
29.066	-0.541	22634	10984	0	672
33.466	5.878	22634	11184	0	672
34.800	10.097	22165	11651	0	672
33.610	12.658	22165	12118	0	672
33.393	12.622	22165	12551	0	672
35.160	10.783	22165	13151	0	672
37.432	11.792	22634	13918	0	672
38.190	12.045	22165	14518	0	672
36.603	12.297	21852	14284	0	672
33.213	12.189	19509	12184	0	672
30.472	11.107	16696	8685	0	672
26.866	9.196	14509	5984	0	672
26.650	7.934	12478	4918	0	672
24.306	7.285	11384	4784	0	672
23.657	6.239	9822	5218	0	672
23.296	6.671	9041	5984	0	672
22.539	6.383	8259	6918	0	672
20.880	4.147	7791	8051	0	672
16.841	-0.361	7478	9318	0	672
12.189	-4.580	7478	10684	0	672
9.773	-4.652	7009	12084	0	672
13.704	-2.019	7009	13451	0	672
16.408	2.019	7478	14784	0	672
18.969	2.560	7478	16084	0	672
20.087	-0.072	8259	17217	0	672
20.014	-3.642	8259	18317	0	672
18.139	-5.950	8572	19384	0	672
20.411	-4.436	9353	20317	0	672
19.798	-2.669	9822	21150	0	672
20.916	-0.865	10134	21850	0	672
20.339	0.793	10916	22617	0	672
21.709	3.462	11697	23483	0	672
25.063	6.275	12478	24217	0	672
27.732	8.294	13259	24717	0	672
33.177	13.163	14041	25084	0	672
38.406	15.615	14822	25484	0	672
39.596	16.264	15603	25850	0	672
35.990	13.776	16384	25950	0	672
27.479	5.626	17165	25817	0	672
16.480	-2.488	18259	25750	0	672
8.547	-8.691	19040	25717	0	672
6.960	-11.107	19821	25517	0	672
10.278	-7.825	20602	25017	0	672
12.658	-4.183	21384	24383	0	672
15.615	-1.442	21384	23583	0	672
15.795	-0.938	21852	22684	0	672
13.415	-2.777	22165	21784	0	672
14.425	-4.183	22165	20850	0	672
12.369	-4.977	22634	19950	0	672
13.523	-2.092	22165	19117	0	672
15.615	0.397	22634	18383	0	672
16.769	2.380	22165	17684	0	672
21.529	1.767	22946	17017	0	672
22.683	0.433	22634	16384	0	672
23.080	-2.164	22634	15918	0	672
24.270	-2.308	22946	15618	0	672
23.188	1.406	22634	15451	0	672
25.279	4.364	22946	15151	0	672
24.811	6.780	22634	14751	0	672
24.342	4.977	23415	14618	0	672
22.106	2.380	23415	14751	0	672
22.431	-0.469	23415	14851	0	672
21.637	3.029	23727	14784	0	672
22.286	4.977	23727	14784	0	672
25.171	6.744	23727	14884	0	672
22.863	6.563	24196	14851	0	672
21.637	2.272	23727	14551	0	672
19.221	0.288	23727	14184	0	672
13.415	-3.534	23727	13884	0	672
7.537	-5.914	22946	13618	0	672
2.596	-6.275	22634	13384	0	672
1.370	-7.789	22946	13151	0	672
3.787	-6.491	22165	12951	0	672
7.825	-5.265	21852	12751	0	672
12.081	-5.193	21852	12551	0	672
16.949	-2.308	21071	12284	0	672
18.788	3.390	20290	12018	0	672
26.361	11.143	19821	11818	0	672
31.879	17.057	19509	11684	0	672
35.233	19.690	19040	11651	0	672
36.495	17.670	18727	11918	0	672
32.528	10.999	18259	12451	0	672
25.784	7.429	18727	12985	0	672
20.447	5.013	18259	13518	0	672
18.103	6.383	18727	14184	0	672
17.021	8.186	18727	14951	0	672
15.867	6.455	19040	15518	0	672
18.536	5.265	19040	15918	0	672
17.166	3.390	19509	16384	0	672
16.408	0.144	19509	16917	0	672
12.766	-1.298	19821	17383	0	672
8.402	-4.796	19821	17617	0	672
0.938	-9.737	19821	17717	0	672
-1.947	-11.360	19821	17684	0	672
1.298	-9.989	19821	17584	0	672
6.924	-5.986	19821	17350	0	672
13.415	-1.983	19040	17050	0	672
21.529	2.200	19509	16717	0	672
24.053	4.327	18727	16417	0	672
26.109	5.301	18259	16151	0	672
26.217	7.717	17946	15818	0	672
27.804	10.927	17946	15485	0	672
29.751	13.091	17477	15251	0	672
30.472	15.831	17165	15084	0	672
31.085	16.372	16696	15018	0	672
28.814	11.612	16696	15218	0	672
24.594	7.429	16696	15651	0	672
21.168	2.849	16696	15984	0	672
19.942	0.649	17165	16218	0	672
15.507	-0.144	17165	16517	0	672
13.740	0.541	17477	17017	0	672
9.989	0.180	17477	17383	0	672
8.907	-1.334	17946	17684	0	672
10.422	-3.065	18259	18017	0	672
12.333	-2.957	18727	18450	0	672
13.415	-1.803	19040	18717	0	672
14.930	-1.983	18727	18750	0	672
11.107	-3.606	19040	18817	0	672
10.278	-6.203	19509	18950	0	672
9.124	-9.088	19821	18950	0	672
11.323	-6.599	19821	18717	0	672
18.716	2.019	19509	18350	0	672
28.958	13.018	19821	17884	0	672
42.589	21.962	19040	17350	0	672
48.179	25.279	19040	16784	1	964
49.657	24.053	18727	16218	0	964
42.229	17.815	18259	15684	0	964
33.429	13.740	17946	15251	0	964
30.328	9.160	17477	14884	0	964
30.112	8.979	17477	14685	0	964
32.456	7.248	17165	14518	0	964
32.203	4.616	16696	14351	0	964
29.607	2.019	16696	14318	0	964
25.460	-2.128	16696	14451	0	964
22.286	-4.400	16696	14918	0	964
22.539	-5.409	17165	15518	0	964
21.818	-5.734	17165	16018	0	964
24.270	-5.049	17477	16318	0	964
27.587	-2.957	17946	16684	0	964
29.102	-2.452	17477	17117	0	964
28.020	-2.777	17946	17317	0	964
24.955	-5.914	17946	17350	0	964
22.503	-10.638	18259	17517	0	964
20.736	-11.540	18727	17817	0	964
21.565	-10.386	18727	18017	0	964
24.702	-6.816	19040	18050	0	964
24.919	-3.570	19040	17984	0	964
25.820	-2.019	19040	17884	0	964
28.814	-2.344	19509	17584	0	964
31.843	0.397	18727	17217	0	964
36.387	3.426	18727	16817	0	964
39.380	6.419	18727	16417	0	964
41.471	8.402	18259	16018	0	964
41.255	8.366	17946	15584	0	964
41.435	7.862	17477	15151	0	964
42.589	7.789	17477	14784	0	964
40.786	7.212	17165	14485	0	964
35.269	6.419	16696	14151	0	964
30.545	3.895	16384	13951	0	964
24.378	-0.469	16072	14051	0	964
23.729	-2.633	16072	14385	0	964
27.010	-2.596	16072	14651	0	964
28.345	-1.226	16072	14918	0	964
30.076	0.685	16384	15451	0	964
29.391	3.823	16696	16351	0	964
31.987	3.498	17477	17184	0	964
34.079	4.183	17946	17817	0	964
35.233	4.364	18259	18350	0	964
32.348	3.931	19040	18950	0	964
26.830	3.859	19509	19250	0	964
21.601	1.262	19509	19250	0	964
21.132	-0.685	19509	19084	0	964
27.768	0.108	19509	18784	0	964
32.203	3.282	19509	18383	0	964
38.370	8.475	19509	17950	0	964
40.173	13.235	19040	17484	0	964
38.875	14.749	19509	16950	0	964
35.882	11.540	18727	16417	0	964
32.816	6.563	18259	15918	0	964
30.725	4.724	17946	15451	0	964
30.833	6.058	17946	15051	0	964
30.508	9.196	17477	14651	0	964
30.508	8.511	17165	14318	0	964
29.679	6.635	16696	14018	0	964
27.624	2.164	16384	13818	0	964
28.309	0.216	16072	13651	0	964
31.626	5.049	15603	13551	0	964
32.925	9.412	15291	13584	0	964
32.708	11.179	15291	13851	0	964
30.220	7.465	15291	14218	0	964
26.397	4.183	15291	14485	0	964
24.847	-0.325	14822	14685	0	964
23.476	-2.056	14822	15018	0	964
21.926	-3.606	15291	15451	0	964
21.132	-2.344	14822	15751	0	964
18.969	-2.488	15291	15918	0	964
19.293	1.406	15603	16018	0	964
24.847	2.669	15291	16151	0	964
27.660	6.960	15291	16251	0	964
31.590	7.898	14822	16251	0	964
34.475	9.665	14822	16218	0	964
33.790	10.169	14509	16084	0	964
33.862	11.035	14509	15984	0	964
31.374	9.629	14041	15851	1	316
28.273	7.898	13728	15784	0	316
25.207	7.032	13728	15751	0	316
22.539	7.357	13259	15718	0	316
24.486	8.727	13259	15618	0	316
28.056	12.261	12947	15485	0	316
28.777	13.379	12947	15418	0	316
26.758	13.199	12478	15418	0	316
22.467	8.547	12166	15485	0	316
17.598	5.554	12166	15618	0	316
16.408	5.662	12947	16018	0	316
19.942	6.744	12947	16584	0	316
20.916	7.789	12947	17084	0	316
23.296	7.176	12947	17450	0	316
21.637	6.383	13259	17917	0	316
21.024	4.760	13728	18484	0	316
23.188	6.239	14041	18950	0	316
23.368	7.393	14822	19284	0	316
21.926	4.472	15603	19717	0	316
18.283	0.938	16072	20217	0	316
15.398	-2.921	16384	20450	0	316
15.507	-3.678	16696	20417	0	316
20.123	-0.216	17165	20217	0	316
26.217	3.354	17477	19917	0	316
28.273	4.147	17477	19550	0	316
28.922	5.698	17477	19184	0	316
31.085	4.868	17477	18884	0	316
32.456	7.573	17477	18584	0	316
36.098	10.242	17477	18217	0	316
36.314	10.458	17477	17784	0	316
32.708	7.717	17477	17250	0	316
26.722	1.695	17165	16684	0	316
21.493	0.613	17165	16184	0	316
22.575	-1.262	16696	15684	0	316
26.758	0.397	16696	15284	0	316
28.958	2.813	16696	15151	0	316
27.660	-1.118	16696	15284	0	316
20.591	-6.599	16696	15451	0	316
11.323	-12.694	16696	15584	0	316
10.855	-13.992	17165	15918	0	316
13.271	-10.097	17477	16384	0	316
22.611	-2.344	17946	16650	0	316
27.876	5.878	18259	16750	0	316
30.184	7.609	18727	16984	0	316
31.590	9.773	18727	17350	0	316
32.889	11.323	19040	17517	0	316
34.656	13.487	19040	17417	0	316
36.639	17.454	19040	17217	0	316
37.577	18.103	19040	16917	0	316
37.324	17.346	19040	16517	0	316
37.468	12.874	19040	16151	0	316
35.521	10.494	18727	15784	0	316
33.682	7.753	18727	15518	0	316
30.364	3.498	18259	15251	0	316
27.515	1.479	18259	14984	0	316
24.702	1.515	17477	14718	0	316
25.784	-0.144	17477	14551	0	316
26.902	0.865	17165	14385	0	316
27.047	2.092	17165	14251	0	316
27.191	0.361	16696	14218	0	316
24.306	-3.318	17165	14451	0	316
21.421	-5.950	17165	14918	0	316
19.401	-6.455	17165	15284	0	316
21.060	-4.904	17165	15385	0	316
24.414	-2.560	17477	15618	0	316
25.460	-0.397	17946	16218	0	316
25.316	-0.036	18259	16817	0	316
26.361	0.216	18259	17184	0	316
27.119	0.829	18727	17417	0	316
26.542	2.777	18727	17717	0	316
26.397	3.426	19509	17817	0	316
28.669	4.904	19040	17684	0	316
29.282	5.337	19040	17450	0	316
33.574	7.285	19040	17150	0	316
36.495	8.114	18727	16784	0	316
32.708	7.681	18727	16384	0	316
24.739	5.157	18259	15885	0	316
16.552	0.649	17946	15351	0	316
11.287	-3.354	17477	14918	0	316
12.802	-5.301	17165	14551	1	316
14.317	-3.750	16696	14251	0	316
19.329	-1.406	16384	14084	0	316
20.519	-0.252	16072	13984	0	316
23.801	0.216	15603	13918	0	316
26.578	0.180	15603	13951	0	316
29.174	1.623	15603	14251	0	316
31.518	3.678	15603	14784	0	316
30.797	3.895	15603	15151	0	316
27.010	0.541	15603	15351	0	316
24.558	-2.596	15603	15718	0	316
22.395	-4.291	16072	16251	0	316
23.080	-3.173	16072	16650	0	316
23.368	-2.019	16072	16883	0	316
24.919	1.226	16384	17217	0	316
24.955	0.469	16696	17650	0	316
25.856	3.101	16696	17950	0	316
29.463	4.508	17165	17984	0	316
34.475	8.475	17165	17884	0	316
40.029	11.468	17165	17717	0	316
41.724	12.730	17165	17517	0	316
42.734	13.595	16696	17317	0	316
40.389	11.684	16696	17084	0	316
39.704	9.160	16696	16817	0	316
37.577	8.583	16384	16584	0	316
38.009	9.232	16384	16351	0	316
37.324	9.484	16072	16051	0	316
37.072	10.169	16072	15851	0	316
37.757	11.143	15603	15684	0	316
38.839	9.592	15603	15551	0	316
37.216	8.763	15291	15485	0	316
35.593	8.006	15291	15451	0	316
29.210	5.770	15291	15485	0	316
24.450	2.380	14822	15485	0	316
21.673	-1.046	14822	15584	0	316
22.791	-2.633	15291	15984	0	316
24.919	-3.210	15291	16584	0	316
29.282	-3.101	15603	17050	0	316
31.554	0.180	16072	17317	0	316
33.249	4.003	16384	17750	0	316
35.737	6.599	16696	18350	0	316
36.675	8.006	17165	18784	0	316
35.810	7.285	17477	18917	0	316
34.115	4.291	17946	18917	0	316
31.879	1.803	18259	19050	0	316
32.131	1.875	18727	19217	0	316
31.554	2.560	19040	19217	0	316
31.302	2.524	19040	18917	0	316
31.951	3.173	19040	18517	0	316
34.079	4.147	19040	17984	0	316
37.252	4.508	18727	17450	0	316
40.570	7.753	18727	16950	0	316
39.704	5.698	18259	16450	0	316
32.889	4.616	18259	16018	0	316
27.515	2.993	17946	15651	0	316
23.909	4.436	17946	15318	0	316
25.532	5.517	17477	14951	0	316
26.397	4.832	17165	14518	0	316
23.621	0.433	16696	14051	0	316
20.988	-8.006	16384	13718	0	316
12.874	-13.920	16384	13751	0	316
13.776	-17.959	16384	14051	0	316
12.586	-17.743	16072	14284	0	316
15.723	-16.949	16072	14418	0	316
16.589	-17.057	16072	14751	0	316
15.543	-17.490	16384	15251	0	316
19.906	-19.329	16384	15651	0	316
23.188	-18.175	16384	15885	0	316
31.699	-14.172	16696	16218	0	316
36.567	-10.097	16696	16584	0	316
36.928	-8.727	17165	16750	0	316
31.662	-12.261	17165	16650	0	316
25.279	-18.103	16696	16517	0	316
23.909	-24.666	16696	16384	0	316
26.253	-27.587	16696	16218	0	316
30.148	-26.938	16384	16018	0	316
33.538	-25.893	16384	15818	0	316
32.023	-25.352	16072	15651	0	316
30.689	-23.080	16072	15551	0	316
29.571	-20.591	15603	15485	0	316
28.381	-22.214	15603	15418	0	316
21.601	-25.640	15291	15351	0	316
15.975	-33.069	14822	15284	0	316
9.701	-41.580	14822	15118	0	316
9.124	-45.510	14509	14951	0	316
12.405	-47.566	14041	14984	0	316
16.156	-46.628	14041	15284	0	316
17.057	-47.025	14041	15551	0	316
12.333	-49.657	14041	15751	0	316
9.665	-49.477	14509	16151	0	316
9.052	-49.657	15291	16817	0	316
10.819	-48.792	15603	17584	0	316
15.002	-44.717	16072	18083	0	316
19.726	-45.366	16384	18517	0	316
17.057	-45.186	16696	19050	0	316
17.887	-44.609	17165	19317	0	316
13.631	-45.871	17477	19350	0	316
13.776	-46.340	17477	19250	0	316
12.009	-46.304	17946	19084	0	316
10.206	-44.969	17477	18784	0	316
11.360	-46.123	17477	18317	0	316
8.366	-46.051	17165	17784	0	316
5.734	-44.176	17165	17184	0	316
3.318	-45.222	16696	16584	0	316
0.144	-44.681	16384	16084	0	316
-1.551	-45.799	16072	15651	0	316
-1.298	-46.123	15603	15218	0	316
-0.721	-50.234	15603	14818	0	316
1.046	-50.054	15291	14518	0	316
1.298	-48.323	14822	14385	0	316
4.868	-45.582	14822	14551	0	316
6.924	-41.796	15291	14918	0	316
8.511	-41.580	15291	15218	0	316
7.898	-42.229	15291	15418	0	316
7.681	-44.392	15603	15718	0	316
7.248	-44.068	15603	16151	0	316
7.465	-39.704	15603	16417	0	316
7.645	-33.213	16072	16650	0	316
9.340	-26.397	16384	17050	0	316
10.314	-23.873	16696	17550	0	316
13.127	-23.512	17165	17884	0	316
13.343	-23.404	17165	17984	0	316
15.254	-22.935	17477	18117	0	316
18.103	-18.175	17946	18250	0	316
21.601	-11.576	17946	18250	0	316
28.309	-6.022	17946	18017	0	316
30.761	-3.750	17477	17617	0	316
30.328	-5.481	17477	17150	0	316
24.955	-6.960	17165	16750	0	316
17.310	-10.819	17165	16384	0	316
13.884	-11.900	16696	16018	0	316
10.314	-14.966	16696	15651	0	316
9.917	-16.949	16384	15284	0	316
14.389	-18.788	16072	14951	0	316
13.415	-18.680	15603	14651	0	316
13.379	-19.365	15603	14418	0	316
8.619	-17.238	15291	14218	0	316
6.635	-19.618	14822	14018	0	316
4.580	-18.356	14509	13918	0	316
8.691	-17.815	14822	14118	0	316
12.405	-13.740	14822	14585	0	316
14.677	-10.097	14822	15051	0	316
15.903	-5.193	14822	15418	0	316
15.074	-1.947	15291	15885	0	316
14.353	-0.325	15603	16450	0	316
16.120	-1.406	15603	16984	0	316
18.320	-1.587	16072	17417	0	316
22.719	-1.118	16384	17884	0	316
29.102	3.787	16696	18383	0	316
32.203	7.501	17165	18617	0	316
32.708	9.196	17477	18517	0	316
31.446	7.681	17477	18283	0	316
26.181	2.560	17477	17950	0	316
24.270	-1.334	17165	17617	0	316
16.192	-6.599	17165	17250	0	316
9.665	-13.631	17165	16950	0	316
-1.226	-20.627	16696	16650	0	316
-8.439	-29.427	16696	16384	0	316
-9.917	-34.511	16696	16084	0	316
-7.248	-33.466	16384	15784	0	316
1.659	-27.191	16072	15485	0	316
8.871	-18.139	16072	15218	0	316
16.480	-11.540	15603	15018	0	316
18.175	-8.799	15603	14984	0	316
22.719	-8.402	15603	15284	0	316
23.585	-9.520	15603	15784	0	316
27.227	-7.970	16072	16151	0	316
30.400	-4.255	16072	16351	0	316
30.833	-2.344	16384	16684	0	316
29.895	-1.875	17165	17450	0	316
28.669	-0.252	17477	18250	0	316
28.994	-0.721	18259	18717	0	316
29.643	1.082	18727	19050	0	316
28.777	-0.433	19040	19384	0	316
26.686	0.361	19040	19484	0	316
22.214	-2.596	19509	19284	0	316
19.437	-5.157	19509	18917	0	316
20.627	-5.950	19509	18417	0	316
21.709	-3.246	19509	17817	0	316
23.837	-1.010	19040	17150	1	716
22.972	2.092	19040	16517	0	716
15.831	-1.046	18259	15951	0	716
8.907	-7.862	17946	15351	0	716
2.957	-15.651	17477	14784	0	716
1.334	-16.228	17165	14251	0	716
7.285	-13.956	16696	13818	0	716
12.622	-7.501	16384	13418	0	716
17.562	-3.931	16072	13085	0	716
16.733	-3.498	15291	12818	0	716
15.218	-5.049	14822	12618	0	716
13.848	-7.285	14509	12518	0	716
11.973	-7.176	14041	12451	0	716
14.749	-5.770	14041	12385	0	716
15.002	-4.940	13259	12518	0	716
19.041	-3.787	13259	12918	0	716
21.890	-2.308	13259	13584	0	716
27.732	-1.298	13259	14318	0	716
29.571	0.433	13728	15151	0	716
27.768	0.902	14041	16018	0	716
20.952	-1.082	14041	16650	0	716
14.281	-6.275	14822	17117	0	716
8.799	-10.891	15291	17750	0	716
9.376	-12.333	15603	18383	0	716
15.290	-10.169	16072	18750	0	716
17.887	-9.196	16072	18817	0	716
17.743	-10.494	16072	18717	0	716
13.235	-11.937	16072	18517	0	716
9.448	-15.110	16072	18217	0	716
11.251	-9.520	16072	17950	0	716
16.408	-0.685	16072	17717	0	716
22.178	8.258	16072	17450	0	716
23.080	10.386	15603	17150	0	716
21.168	8.330	15291	16817	0	716
15.290	2.777	15291	16517	0	716
15.398	0.938	15291	16484	0	716
19.582	2.741	15291	16684	0	716
26.325	9.953	15291	16817	0	716
32.167	15.543	15603	16817	0	716
34.475	20.339	15603	16883	0	716
28.814	18.644	15603	17050	0	716
20.555	15.507	15603	17050	0	716
13.415	8.799	15603	16950	0	716
8.006	4.868	16072	17084	0	716
7.176	3.570	16072	17350	0	716
7.285	4.364	16384	17484	0	716
10.710	7.285	16384	17517	0	716
11.323	9.592	16696	17717	0	716
12.982	8.583	17165	18017	0	716
14.858	8.150	17477	18150	0	716
11.648	6.888	17477	18017	0	716
11.143	5.013	17477	17750	0	716
9.448	4.868	17477	17417	0	716
8.943	4.400	17477	17084	0	716
10.133	6.455	17477	16717	0	716
15.110	9.520	17165	16351	0	716
19.041	15.723	17165	15918	0	716
23.693	19.654	16696	15551	0	716
21.241	21.493	16384	15251	0	716
16.084	16.877	16384	14951	0	716
7.898	14.533	16072	14685	0	716
5.481	12.658	15603	14485	0	716
8.006	16.120	15291	14284	0	716
12.514	18.464	15291	14184	0	716
11.973	19.149	15291	14284	0	716
9.340	14.785	15291	14618	0	716
3.787	9.448	14822	14884	0	716
1.190	7.357	14822	15018	0	716
3.859	9.809	15291	15284	0	716
8.835	12.225	15291	15751	0	716
10.169	13.812	15291	16184	0	716
9.629	9.412	15603	16450	0	716
6.671	2.380	16384	16917	0	716
5.085	2.272	16696	17484	0	716
7.104	8.727	16696	17850	0	716
11.900	19.401	16696	17950	0	716
17.274	26.001	16696	17850	0	716
17.166	24.053	16696	17650	0	716
15.759	18.644	16696	17450	0	716
13.668	11.720	16696	17250	0	716
16.120	12.117	16696	17017	0	716
18.464	18.969	16696	16784	0	716
24.053	21.854	16384	16550	0	716
21.637	21.241	16384	16351	0	716
17.634	20.231	16072	16084	0	716
9.484	14.605	16072	15751	0	716
4.580	12.333	15603	15351	0	716
2.308	10.458	15291	14984	0	716
4.400	9.088	14822	14751	0	716
6.924	8.366	15291	14818	0	716
10.674	11.215	15603	15084	0	716
8.150	15.579	15291	15251	0	716
5.409	17.490	14822	15284	0	716
1.190	18.608	15291	15518	0	716
0.144	17.418	15603	16151	0	716
4.003	17.418	15603	16784	0	716
12.297	19.942	16072	17250	0	716
20.267	23.873	16384	17750	0	716
24.666	27.263	17165	18317	0	716
24.414	22.719	17477	18717	0	716
20.267	20.411	17946	18784	0	716
17.202	20.411	17946	18750	0	716
14.172	21.709	17946	18684	0	716
15.507	26.686	18259	18484	0	716
16.589	29.968	18259	18217	0	716
20.303	30.472	17946	17850	0	716
19.618	26.181	17946	17450	0	716
20.339	22.935	17946	17084	0	716
15.975	21.998	17477	16684	0	716
13.235	20.159	17477	16351	0	716
9.304	18.860	17477	16018	0	716
6.527	16.444	17165	15651	0	716
7.393	13.523	16696	15218	0	716
5.121	8.150	16696	14884	0	716
3.534	6.203	16384	14818	0	716
1.551	5.085	16384	14984	0	716
-0.252	4.508	16384	15084	0	716
-0.216	5.229	16384	15118	0	716
1.803	4.652	16384	15318	0	716
5.013	8.078	16696	15651	0	716
7.717	10.386	16696	15885	0	716
11.143	15.723	16696	16018	0	716
15.831	18.103	16696	16251	0	716
17.562	20.411	17165	16584	0	716
18.608	17.887	17165	16817	0	716
14.461	17.166	17477	16850	0	716
11.504	13.956	17477	16784	0	716
7.465	13.487	17477	16717	0	716
5.806	11.900	17477	16650	0	716
3.750	9.268	17477	16517	0	716
2.741	6.455	17165	16351	0	716
3.137	3.426	17165	16151	0	716
4.904	2.380	17165	15951	0	716
8.583	3.390	16384	15718	0	716
9.196	5.049	16072	15451	0	716
7.753	5.445	15603	15118	0	716
3.678	2.560	16072	14818	0	716
-0.252	-0.649	15603	14551	0	716
-1.695	-3.750	15291	14385	0	716
-1.046	-3.606	14822	14251	0	716
2.092	-1.406	14509	14118	0	716
5.698	2.452	14041	14018	0	716
7.248	4.832	13728	14051	0	716
9.592	6.094	13728	14451	0	716
11.612	5.554	14041	15118	0	716
15.867	6.599	14041	15718	0	716
17.202	6.816	14041	16151	0	716
19.185	7.970	14509	16717	0	716
13.704	7.068	15291	17417	0	716
8.583	6.383	15603	17950	0	716
5.229	5.842	16384	18350	0	716
6.383	7.104	16384	18817	0	716
9.773	9.484	16696	19284	0	716
10.386	8.871	17477	19617	0	716
5.301	4.400	17946	19717	0	716
-5.950	-3.967	17477	19650	0	716
-16.192	-9.737	17946	19450	0	716
-20.195	-14.821	17946	19150	0	716
-17.346	-11.973	17946	18750	0	716
-9.917	-8.511	17946	18350	1	636
-2.813	-3.570	17946	17917	0	636
1.226	0.108	17946	17383	0	636
4.075	3.498	17477	16784	0	636
8.691	7.609	17165	16284	0	636
14.389	12.045	17165	15818	0	636
20.303	15.218	16696	15485	0	636
22.467	13.307	16696	15218	0	636
23.116	13.091	16384	15051	0	636
23.368	13.199	16696	15151	0	636
24.919	17.995	16696	15485	0	636
27.768	22.899	16696	15718	0	636
27.660	27.624	16696	15818	0	636
21.854	23.404	17165	15951	0	636
15.362	16.300	17165	16218	0	636
5.698	7.501	17165	16351	0	636
-1.839	-0.469	17477	16384	0	636
-6.960	-5.229	17477	16517	0	636
-11.360	-7.501	17946	16817	0	636
-13.559	-10.999	17946	16984	0	636
-16.589	-14.208	17946	16984	0	636
-18.067	-20.591	17946	16883	0	636
-16.841	-22.286	17946	16717	0	636
-16.733	-23.909	17477	16484	0	636
-9.953	-17.995	17477	16184	0	636
-3.390	-12.946	17165	15751	0	636
2.777	-7.140	16696	15385	0	636
6.419	-3.642	16696	15084	0	636
8.979	0.072	16384	14918	0	636
11.035	2.380	16384	14784	0	636
13.091	5.734	16072	14651	0	636
18.716	10.097	15603	14485	0	636
23.188	12.586	15291	14351	0	636
28.814	19.221	15291	14385	0	636
32.564	23.332	15291	14651	0	636
35.774	29.607	15291	15084	0	636
37.180	31.735	15291	15385	0	636
36.711	32.276	15291	15584	0	636
31.807	26.001	15603	16084	0	636
24.702	18.969	16384	17017	0	636
15.507	13.487	16696	18017	0	636
12.225	10.169	17477	18784	0	636
11.287	8.006	18259	19350	0	636
10.855	6.744	18727	19883	0	636
13.018	1.623	19509	20117	0	636
11.251	-4.508	19821	20117	0	636
7.393	-8.042	20290	19917	0	636
1.947	-11.612	19821	19617	0	636
-4.652	-14.821	20290	19150	0	636
-12.730	-20.087	19821	18584	0	636
-14.533	-21.926	19821	17950	0	636
-10.206	-21.457	19821	17283	0	636
-1.875	-15.362	19509	16650	0	636
7.068	-7.789	19040	16018	0	636
11.071	-2.128	18727	15418	0	636
15.543	1.515	18259	14851	0	636
17.743	3.498	17477	14318	0	636
21.457	5.770	17165	13851	0	636
22.791	7.248	16696	13518	0	636
22.250	8.691	16696	13484	0	636
20.519	7.789	16384	13718	0	636
15.038	3.859	16384	13918	0	636
12.189	1.515	16384	14051	0	636
10.061	-1.695	16384	14418	0	636
10.061	-3.029	16696	14951	0	636
12.550	-1.767	16696	15351	0	636
18.283	0.072	16696	15551	0	636
17.526	1.118	17165	15918	0	636
15.867	-0.938	17165	16384	0	636
10.746	-6.383	17165	16584	0	636
7.609	-9.881	17165	16584	0	636
7.862	-13.271	17165	16450	0	636
10.133	-10.963	17165	16318	0	636
12.297	-4.616	16696	16084	0	636
14.605	-1.298	16696	15851	0	636
13.776	0.288	16384	15618	0	636
17.093	0.072	16072	15318	0	636
18.824	-1.082	15603	15084	0	636
22.395	-0.144	15291	14884	0	636
21.024	1.587	15291	14751	1	316
20.664	2.056	14509	14585	0	316
17.887	0.072	14041	14385	0	316
17.021	-2.236	13728	14284	0	316
16.733	-3.029	14041	14251	0	316
17.382	-4.436	13728	14251	0	316
13.992	-7.573	13259	14218	0	316
11.720	-12.225	12947	14184	0	316
9.809	-16.084	12478	14351	0	316
10.133	-20.014	12478	14818	0	316
12.658	-19.257	12478	15518	0	316
12.658	-22.178	13259	16118	0	316
9.917	-25.496	13259	16517	0	316
5.914	-29.463	13728	17117	0	316
2.921	-32.239	14041	17850	0	316
3.750	-30.508	14041	18417	0	316
10.458	-27.551	14509	18750	0	316
16.552	-23.873	14822	19117	0	316
22.935	-23.909	15291	19517	0	316
21.998	-25.316	15603	19750	0	316
18.608	-28.201	16072	19683	0	316
16.985	-29.354	16072	19484	0	316
16.156	-27.551	16072	19217	0	316
22.250	-23.801	16072	18917	0	316
24.919	-20.988	16072	18584	0	316
26.614	-21.493	16384	18250	0	316
21.962	-26.325	16384	17850	0	316
16.985	-29.895	16072	17417	0	316
14.208	-32.564	16072	16984	0	316
12.477	-32.203	15603	16584	0	316
12.477	-29.354	15603	16284	0	316
12.009	-27.515	15291	15984	0	316
10.133	-28.417	15291	15718	0	316
8.258	-29.643	14822	15551	0	316
7.501	-32.023	15291	15651	0	316
7.970	-34.187	15291	15951	0	316
8.547	-33.466	15291	16118	0	316
8.114	-31.085	15291	16151	0	316
8.655	-29.679	15291	16251	0	316
7.104	-28.309	15603	16484	0	316
7.789	-29.102	15603	16684	0	316
8.691	-28.164	15603	16750	0	316
8.150	-28.814	16072	16917	0	316
13.487	-26.506	16384	17217	0	316
14.858	-23.945	16384	17383	0	316
18.860	-22.647	16696	17383	0	316
17.995	-20.591	16696	17350	0	316
14.497	-20.519	16696	17283	0	316
9.340	-21.781	16696	17117	0	316
7.537	-22.755	16696	16850	0	316
8.835	-24.017	16696	16550	0	316
11.179	-25.388	16384	16284	0	316
10.674	-23.404	16384	16051	0	316
8.186	-23.368	16384	15918	0	316
6.275	-22.899	16384	15818	0	316
4.868	-19.077	16384	15751	0	316
6.347	-17.454	16072	15684	0	316
6.527	-16.084	16072	15618	0	316
5.445	-19.005	16072	15584	0	316
2.272	-18.969	16384	15818	0	316
1.190	-21.096	16384	16218	0	316
2.344	-16.372	16384	16450	0	316
3.895	-12.910	16696	16450	0	316
7.970	-9.196	16696	16384	0	316
10.963	-5.626	16696	16550	0	316
13.127	-4.436	17165	16950	0	316
17.743	-1.118	17477	17250	0	316
17.093	1.082	17946	17584	0	316
18.067	0.829	18727	18250	0	316
16.733	2.272	19509	18984	0	316
17.779	3.246	19821	19384	0	316
20.339	7.970	20602	19584	0	316
24.594	12.261	20602	19717	0	316
24.162	11.143	21071	19650	0	316
22.322	11.287	21384	19217	0	316
19.473	9.917	21071	18584	0	316
14.677	7.609	20602	17884	0	316
12.946	6.780	20602	17217	0	316
9.556	4.724	20602	16584	0	316
2.849	-0.649	20290	15984	0	316
-0.721	-4.255	19821	15318	0	316
-0.036	-4.508	19509	14618	0	316
4.183	-2.993	18727	13951	0	316
9.484	-1.839	18259	13451	0	316
11.756	-1.803	17946	13351	0	316
11.323	-2.524	17946	13551	0	316
11.540	-3.606	17946	13718	0	316
15.290	-3.246	17946	13851	0	316
18.969	-2.488	17946	14084	0	316
21.745	-1.623	17946	14385	0	316
18.500	-1.154	17946	14585	0	316
16.336	3.967	17946	14651	0	316
17.202	14.100	17477	14851	0	316
25.424	26.109	17946	15184	0	316
34.764	37.901	17946	15451	0	316
40.930	41.616	17946	15651	0	316
40.498	35.593	17946	15984	0	316
32.528	26.253	18259	16384	0	316
25.063	18.536	18259	16717	0	316
19.473	17.743	18259	16817	0	316
17.526	17.093	18259	16717	0	316
12.802	18.031	18259	16550	0	316
6.852	11.035	18259	16284	0	316
1.262	3.462	17946	15918	0	316
-2.019	-1.839	17477	15551	0	316
-0.325	-1.731	17165	15151	0	316
4.291	1.118	16696	14751	0	316
7.248	3.210	16384	14318	0	316
7.753	2.236	15603	13984	0	316
4.652	1.731	15291	13818	0	316
5.517	2.308	14822	13751	0	316
4.688	3.570	14509	13684	0	316
5.770	7.140	14041	13718	0	316
8.294	7.285	14041	14051	0	316
10.674	8.799	14041	14585	0	316
14.858	10.566	14041	15018	0	316
17.815	15.182	14041	15418	0	316
22.683	18.824	14041	15984	0	316
22.863	23.657	14509	16650	0	316
22.647	21.277	15291	17150	0	316
20.375	18.933	15291	17450	0	316
19.293	17.526	15291	17784	0	316
20.952	16.048	15603	18217	0	316
19.906	17.057	16072	18484	0	316
19.798	17.238	16072	18517	0	316
15.507	14.641	16072	18417	0	316
10.783	10.638	16072	18283	0	316
5.085	3.642	16072	18050	0	316
3.354	1.551	15603	17717	0	316
5.049	0.325	15603	17350	0	316
6.203	1.659	15291	16950	0	316
9.304	3.642	14822	16517	0	316
9.592	3.859	14509	16151	0	316
6.239	2.488	14041	15751	0	316
5.013	1.226	13728	15318	0	316
3.570	1.154	13259	15051	0	316
4.364	2.056	13728	14951	0	316
8.114	2.128	13259	15018	0	316
13.343	3.462	13259	15251	0	316
15.831	5.301	13259	15618	0	316
22.142	9.196	13259	15851	0	316
25.099	14.749	13259	15951	0	316
27.371	18.933	13259	16351	0	316
27.624	19.149	13728	17050	0	316
27.227	20.267	15291	17817	0	316
25.856	19.005	15291	18417	0	316
26.758	19.041	15603	19017	0	316
28.850	20.952	16384	19584	0	316
29.463	19.113	16696	19917	0	316
25.135	14.966	17165	19917	0	316
14.930	7.501	17477	19717	0	316
6.311	0.541	17165	19417	0	316
-2.308	-4.183	17477	19017	0	316
-2.560	-5.373	17477	18584	0	316
3.137	-2.164	17165	18050	1	616
9.304	0.685	16696	17484	0	616
12.586	2.452	16696	16950	0	616
13.379	0.649	16384	16417	0	616
13.740	0.361	16384	15951	0	616
12.946	-1.479	16072	15418	0	616
14.894	-0.397	15603	14984	0	616
14.641	0.974	15291	14685	0	616
12.225	1.298	15603	14551	0	616
9.376	0.361	15603	14718	0	616
10.133	2.056	15603	15084	0	616
13.920	5.481	16072	15418	0	616
21.998	9.124	16072	15618	0	616
24.306	11.828	16072	15984	0	616
21.204	10.458	16384	16450	0	616
15.975	6.671	16696	16817	0	616
8.835	4.508	17165	17084	0	616
7.104	2.128	17165	17383	0	616
10.278	2.705	17946	17717	0	616
14.713	3.462	17946	17850	0	616
15.398	3.967	17946	17784	0	616
17.093	3.390	17946	17550	0	616
14.749	2.164	17946	17283	0	616
14.713	1.659	17946	17017	0	616
14.245	1.406	17946	16850	0	616
12.117	-0.325	17946	16650	0	616
11.648	-0.902	17946	16450	0	616
8.439	-1.551	17946	16218	0	616
8.619	-3.282	17477	16018	0	616
7.609	-2.957	17477	15784	0	616
11.432	-1.659	17477	15551	0	616
10.458	-1.767	17165	15318	0	616
9.845	-1.731	17165	15118	0	616
10.350	-1.731	17165	15051	0	616
11.540	0.144	17165	15184	0	616
11.287	0.216	17165	15485	0	616
16.589	2.849	17165	15651	0	616
19.473	4.688	17165	15718	0	616
24.342	6.671	17477	15885	0	616
24.522	5.554	17165	16218	0	616
20.627	1.479	17165	16384	0	616
13.704	-5.554	17477	16450	0	616
3.318	-14.569	17477	16650	0	616
-3.678	-20.519	17946	16950	0	616
-2.236	-20.231	17946	17050	0	616
0.433	-18.247	17946	17050	0	616
4.147	-13.559	18259	17117	0	616
5.554	-10.783	18727	17317	0	616
6.239	-11.900	18727	17283	0	616
6.960	-11.973	18727	17017	0	616
8.979	-8.511	17946	16684	0	616
15.435	-3.750	18259	16384	0	616
17.346	1.875	17946	16018	0	616
19.798	4.688	17477	15684	0	616
20.159	2.777	17477	15451	0	616
23.152	0.721	17165	15284	0	616
27.948	0.000	16696	15118	0	616
30.869	-1.515	16696	14884	0	616
32.384	0.974	16384	14585	0	616
31.374	0.072	16072	14218	0	616
28.453	0.288	15291	13884	0	616
27.227	-0.974	14822	13618	0	616
26.109	-5.950	14509	13584	0	616
24.017	-10.855	14509	13851	0	616
21.132	-15.254	14822	14418	0	616
18.788	-18.897	15291	14884	0	616
14.641	-17.887	14822	15218	0	616
13.199	-20.159	15291	15718	0	616
13.307	-20.700	15291	16284	0	616
12.441	-24.955	15603	16650	0	616
15.146	-25.712	15603	16917	0	616
14.641	-25.784	16072	17283	0	616
14.930	-28.128	16072	17717	0	616
13.523	-27.876	16384	17950	0	616
11.215	-29.246	16384	17984	0	616
11.937	-28.705	16384	17884	0	616
12.622	-26.794	16384	17650	0	616
13.271	-25.965	16384	17417	0	616
17.706	-24.270	16072	17150	0	616
23.765	-20.195	16072	16950	0	616
33.213	-15.723	16072	16717	0	616
41.039	-7.681	15603	16450	0	616
44.537	-4.652	15291	16151	0	616
41.183	-9.124	15291	15818	0	616
32.816	-16.949	14822	15485	0	616
23.476	-24.702	14509	15118	0	616
17.454	-29.318	14041	14784	0	616
15.867	-30.977	13728	14685	0	616
15.975	-29.571	14041	14951	0	616
14.425	-31.158	14041	15385	0	616
14.605	-33.105	14041	15684	0	616
13.523	-35.052	14041	15851	0	616
14.028	-34.800	14509	16351	0	616
12.982	-34.367	14822	17184	0	616
11.107	-35.413	15603	18083	0	616
6.924	-35.665	16072	18684	0	616
3.931	-36.026	16384	19150	0	616
5.698	-34.043	17165	19584	0	616
10.819	-30.833	17477	19850	0	616
14.569	-25.316	17946	19783	0	616
17.887	-22.647	17946	19584	0	616
17.274	-20.591	18259	19250	0	616
20.880	-14.569	18259	18850	0	616
25.965	-8.402	18259	18383	1	412
31.122	-0.974	17946	17817	0	412
33.718	3.823	17946	17150	0	412
32.528	4.832	17477	16484	0	412
29.643	2.452	17165	15885	0	412
28.092	0.541	16384	15351	0	412
26.109	0.144	16072	14884	0	412
22.719	-0.361	15603	14485	0	412
20.411	-0.938	15603	14118	0	412
16.480	0.252	15291	13851	0	412
19.690	2.416	15291	13818	0	412
25.496	6.491	14822	14018	0	412
26.470	9.088	14822	14151	0	412
23.621	5.445	14822	14284	0	412
19.005	-0.180	14822	14618	0	412
11.035	-9.412	14822	15151	0	412
6.383	-14.461	14822	15551	0	412
6.058	-17.021	15291	15784	0	412
6.203	-14.569	15291	16118	0	412
7.357	-9.845	15603	16584	0	412
11.360	-5.626	15603	16984	0	412
17.310	-0.072	16072	17217	0	412
22.178	2.849	16072	17283	0	412
26.938	5.878	16072	17283	0	412
31.662	7.825	16072	17117	0	412
33.177	13.451	15603	16817	0	412
35.557	18.788	15603	16450	0	412
37.468	25.640	15291	16151	0	412
39.885	28.056	14822	15818	0	412
42.445	29.318	15291	15518	0	412
42.589	28.525	14822	15251	0	412
41.868	29.354	14822	14984	0	412
41.976	29.931	14041	14784	0	412
38.478	30.508	13728	14651	0	412
35.341	26.325	13259	14618	0	412
30.076	18.139	13259	14585	0	412
18.824	11.251	12947	14651	0	412
11.756	7.032	12478	14751	0	412
5.481	4.724	12947	14984	0	412
6.167	7.681	13259	15551	0	412
9.701	10.386	13259	16318	0	412
15.326	13.235	13728	16883	0	412
17.706	13.307	14041	17283	0	412
18.608	15.290	14509	17750	0	412
15.218	16.192	14509	18250	0	412
12.766	15.723	14822	18550	0	412
11.973	20.014	15291	18684	0	412
15.218	21.241	16072	18950	0	412
22.647	23.188	16384	19284	0	412
27.515	26.325	16696	19417	0	412
30.364	26.902	16696	19217	0	412
30.797	28.597	16696	18917	0	412
30.653	31.158	16384	18484	0	412
35.233	37.721	16384	18050	0	412
43.058	45.510	16384	17550	0	412
47.602	52.723	16072	17084	0	412
48.359	55.463	16072	16584	0	412
41.688	48.828	16072	16084	0	412
30.436	40.137	15603	15618	0	412
21.962	31.735	15291	15184	0	412
16.805	27.696	15291	14784	0	412
17.851	27.696	14509	14451	0	412
19.582	26.758	14041	14251	0	412
21.781	25.893	13728	14151	0	412
19.618	23.512	13728	14318	0	412
14.425	18.211	13728	14751	0	412
10.133	17.021	14041	15218	0	412
7.573	13.848	14041	15551	0	412
9.268	12.550	14509	16018	0	412
11.179	11.864	14822	16550	0	412
15.218	11.864	15291	16950	0	412
15.759	14.281	15603	17217	0	412
16.661	15.110	16072	17617	0	412
18.283	18.320	16384	18117	0	412
19.762	19.870	16384	18350	0	412
22.503	23.476	16696	18250	0	412
27.155	23.260	16696	18083	0	412
25.279	23.765	16696	17884	0	412
26.361	26.001	16696	17650	0	412
25.712	28.417	16696	17417	0	412
25.496	29.607	16696	17184	0	412
25.893	32.059	16696	16917	0	412
26.433	29.535	16696	16684	0	412
25.352	24.883	16384	16384	0	412
21.709	19.654	16384	16051	0	412
17.490	13.992	16072	15684	0	412
14.425	8.979	15603	15418	0	412
10.602	6.058	15603	15151	0	412
8.475	3.462	15291	14984	0	412
8.078	2.488	15291	15051	0	412
8.763	1.551	15291	15351	0	412
5.373	0.397	15603	15651	0	412
3.859	-2.019	14822	15251	0	412
2.056	-1.334	12478	12951	0	412
2.056	0.361	9822	9285	0	412
5.409	1.875	7478	6451	0	412
7.357	4.652	5447	5284	0	412
12.730	7.429	4353	5251	0	412
14.317	9.376	3572	6084	0	412
17.598	14.353	3572	7484	0	412
18.536	16.877	3103	8885	0	412
21.926	22.178	3572	10318	0	412
24.089	24.378	3884	11884	0	412
29.643	26.650	3884	13618	0	412
33.105	27.119	4353	15184	0	412
33.177	26.470	5134	16450	0	412
29.931	22.286	5916	17617	0	412
23.188	17.995	5916	18684	0	412
20.447	12.081	6228	19683	0	412
19.906	9.989	7478	20484	0	412
18.752	9.052	7791	21184	0	412
20.519	7.645	9041	21717	0	412
16.589	5.662	9041	22117	0	412
14.136	2.705	9353	22550	0	412
9.881	-1.983	10603	23117	0	412
5.878	-3.859	11384	23717	0	412
5.085	-4.436	12166	24150	0	412
5.626	-3.173	12947	24417	0	412
7.825	-0.974	13728	24684	0	412
11.612	2.092	15291	24984	0	412
17.202	5.554	16072	25117	0	412
19.257	7.393	16696	24917	0	412
23.008	9.809	17477	24717	0	412
22.791	10.458	18727	24584	0	412
22.431	9.845	18727	24283	0	412
18.572	10.458	19509	23717	1	500
18.500	12.658	19821	22983	0	500
23.044	15.002	20602	22217	0	500
28.056	21.349	21071	21417	0	500
32.853	22.863	21071	20550	0	500
32.420	20.519	21071	19617	0	500
27.263	13.740	21071	18650	0	500
16.949	5.554	21071	17684	0	500
9.701	-0.649	20602	16817	0	500
6.708	-2.993	21071	16051	0	500
7.609	-2.633	20602	15318	0	500
8.907	-2.849	20602	14685	0	500
9.592	-2.921	20290	14084	0	500
7.681	-3.823	20290	13484	0	500
5.013	-4.868	19821	12951	0	500
4.364	-4.255	19040	12485	0	500
5.337	-5.373	19040	12118	0	500
4.796	-7.717	18727	11918	0	500
3.137	-10.855	18727	11984	0	500
2.633	-12.225	19040	12318	0	500
7.573	-11.143	19040	12618	0	500
16.336	-4.436	19040	12818	0	500
24.594	2.560	18727	13218	0	500
30.725	5.914	19509	13751	0	500
28.309	4.327	19509	14218	0	500
21.962	-1.767	19509	14618	0	500
18.428	-8.727	20290	15184	0	500
17.815	-9.665	20602	15918	0	500
25.135	-4.003	21071	16417	0	500
32.384	2.488	21384	16650	0	500
38.045	6.635	21384	16650	0	500
36.314	3.426	21384	16484	0	500
29.787	-4.183	21071	16218	0	500
24.919	-9.989	21071	15851	0	500
23.044	-11.937	20602	15485	0	500
26.289	-9.953	20290	15151	0	500
29.931	-6.419	20290	14918	0	500
30.869	-4.688	19821	14751	0	500
32.059	-6.275	19821	14551	0	500
32.131	-7.501	19821	14418	0	500
32.420	-8.294	19040	14351	0	500
31.699	-9.412	19040	14318	0	500
29.463	-11.828	18727	14351	0	500
26.830	-14.894	18727	14551	0	500
24.450	-17.057	19040	14918	0	500
23.549	-18.969	19040	15218	0	500
25.099	-14.749	18727	15351	0	500
26.470	-10.530	19040	15551	0	500
30.256	-4.544	18727	15885	0	500
35.413	0.505	19040	16118	0	500
39.596	3.101	19040	16284	0	500
38.875	3.498	19040	16484	0	500
38.118	2.849	19509	16784	0	500
33.898	-0.288	19509	16883	0	500
32.276	-0.974	19509	16784	0	500
29.102	-0.938	19509	16584	0	500
29.354	-0.433	19040	16417	0	500
24.991	-3.101	18727	16284	0	500
23.801	-7.248	18727	16151	0	500
19.726	-9.520	18727	15984	0	500
17.562	-9.845	18259	15818	0	500
17.706	-8.258	17946	15584	0	500
15.254	-7.753	17946	15318	0	500
14.028	-7.789	17477	15084	0	500
13.776	-8.330	17165	14851	0	500
12.802	-9.412	16696	14651	0	500
15.867	-7.898	16384	14551	0	500
16.372	-5.121	16384	14585	0	500
19.185	-4.400	16384	14884	0	500
18.103	-0.505	16384	15351	0	500
20.087	4.940	16384	15751	0	500
21.493	9.052	16384	16051	0	500
24.883	10.206	16696	16550	0	500
25.171	8.511	16696	17250	0	500
23.152	5.842	17477	17817	0	500
23.693	5.806	17946	18250	0	500
23.693	9.340	18259	18750	0	500
28.237	14.245	18727	19217	0	500
28.633	17.057	19040	19384	0	500
26.650	12.874	19040	19150	0	500
20.339	6.058	19040	18817	0	500
14.749	-0.036	19040	18383	0	500
12.333	-1.370	19040	17884	0	500
17.021	-0.180	18727	17350	0	500
19.437	2.777	18259	16784	0	500
21.277	2.164	17946	16284	0	500
19.149	0.216	17477	15818	0	500
12.946	-3.354	17165	15485	0	500
8.186	-4.111	16696	15218	0	500
7.393	-3.678	16696	14951	0	500
7.934	-3.065	16384	14718	0	500
6.708	-2.272	16072	14518	0	500
7.285	-1.767	16072	14418	0	500
6.960	-0.469	16072	14618	0	500
9.448	1.154	16072	15051	0	500
14.641	5.193	16072	15351	0	500
17.815	6.960	16072	15551	0	500
22.034	9.052	16072	15851	0	500
18.969	9.845	16384	16351	0	500
20.087	9.412	16384	16684	0	500
21.998	8.835	16696	16984	0	500
22.863	9.052	17165	17417	0	500
25.712	9.484	17477	17884	0	500
25.424	8.402	17477	18117	0	500
22.431	6.239	17946	18183	0	500
17.490	4.075	18259	18350	0	500
12.838	0.577	18727	18550	0	500
11.504	0.072	18727	18617	0	500
11.576	1.515	19040	18417	0	500
15.182	3.750	19040	18117	0	500
18.175	4.760	18727	17717	0	500
16.084	4.327	18727	17217	0	500
14.136	2.705	18259	16650	0	500
9.376	2.849	17946	16118	0	500
7.573	4.796	17477	15651	0	500
11.035	5.698	17165	15218	0	500
13.271	6.563	16696	14851	0	500
16.661	5.013	16384	14485	0	500
19.041	3.282	16072	14184	0	500
18.824	3.246	15603	13951	0	500
21.096	3.534	15291	13718	0	500
23.008	4.616	14822	13518	0	500
24.234	3.426	14509	13318	0	500
24.198	4.580	14041	13184	0	500
24.486	5.373	14509	13151	0	500
23.260	8.475	13728	13218	0	500
21.890	8.943	13259	13551	0	500
22.034	4.977	13259	14118	0	500
19.257	2.849	13259	14651	0	500
20.880	1.479	13259	15084	0	500
21.529	1.623	13728	15651	0	500
23.440	6.599	13728	16318	0	500
25.352	9.665	14509	16817	0	500
23.945	9.196	14509	17150	0	500
23.332	5.121	14509	17350	0	500
23.332	1.587	14509	17484	0	500
21.060	-2.452	14509	17484	0	500
20.159	-4.075	14509	17450	0	500
15.687	-5.229	14509	17383	0	500
17.202	-6.924	14509	17317	0	500
15.435	-7.934	14041	17184	0	500
19.329	-9.809	14041	17017	0	500
20.483	-11.215	13728	16817	0	500
20.700	-10.819	14509	16650	0	500
23.008	-9.737	13728	16517	0	500
22.791	-11.071	13728	16484	0	500
25.929	-10.855	13728	16450	0	500
25.135	-9.917	13728	16650	0	500
22.250	-11.973	13728	17017	0	500
20.952	-13.559	14041	17283	0	500
20.627	-11.179	14041	17450	0	500
24.162	-10.314	14822	17784	0	500
26.614	-9.016	15291	18450	0	500
26.506	-9.304	16072	19150	0	500
21.890	-12.081	16384	19617	0	500
18.752	-16.949	17165	20050	0	500
15.002	-16.120	17946	20450	0	500
15.326	-16.733	18259	20617	0	500
14.100	-13.307	18259	20484	0	500
13.776	-14.749	18727	20217	0	500
12.658	-16.084	19040	19850	0	500
12.946	-16.084	19040	19450	0	500
16.625	-14.389	19509	18984	0	500
17.238	-9.629	19509	18417	0	500
18.716	-7.681	18727	17750	0	500
15.615	-4.904	19040	17117	0	500
17.454	-4.364	19040	16517	0	500
18.247	-1.659	18259	15951	0	500
23.693	0.865	17946	15385	0	500
25.460	3.173	17946	14884	0	500
26.830	2.488	17477	14418	0	500
24.450	0.793	17165	14084	0	500
22.286	0.144	17165	14051	0	500
19.221	1.334	17165	14251	0	500
19.906	1.839	17165	14351	0	500
17.923	2.993	17165	14385	0	500
19.221	3.642	17165	14585	0	500
18.788	4.724	17165	14884	0	500
21.024	6.239	17477	15118	0	500
23.116	10.350	17477	15318	0	500
25.207	11.215	17946	15684	0	500
24.955	11.432	17946	16151	0	500
21.926	9.016	18259	16384	0	500
13.307	3.931	18259	16417	0	500
9.268	0.649	17946	16384	0	500
8.150	-0.793	17946	16351	0	500
10.963	1.406	17946	16184	0	500
17.743	6.239	17946	15951	0	500
22.611	10.602	17477	15651	0	500
23.765	14.245	17165	15318	0	500
23.549	14.245	17165	15084	0	500
23.765	13.668	16696	14884	0	500
21.673	12.586	16384	14618	0	500
19.582	10.061	16072	14351	0	500
17.382	9.917	15603	14084	0	500
14.028	8.691	15291	13884	0	500
12.333	7.717	14822	13751	0	500
12.550	7.645	14509	13718	0	500
13.884	5.481	14041	13818	0	500
17.779	6.491	14041	14018	0	500
19.582	7.825	14041	14351	0	500
23.621	9.953	14509	14851	0	500
22.575	10.242	14509	15451	0	500
21.024	8.943	14509	15885	0	500
18.716	5.734	14822	16284	0	500
13.631	-0.361	15291	16850	0	500
12.369	-1.947	15291	17517	0	500
13.163	-2.633	15603	17917	0	500
13.812	-1.731	16072	18183	0	500
17.021	-0.288	16384	18550	0	500
14.821	-2.596	16696	18984	0	500
12.009	-8.258	16696	19184	0	500
6.635	-14.569	17165	19117	0	500
2.308	-16.841	17165	18917	0	500
3.967	-16.516	17165	18617	0	500
7.104	-13.812	17165	18250	0	500
11.900	-8.042	17165	17917	1	864
18.392	-4.219	17165	17584	0	864
20.880	-0.505	17165	17317	0	864
21.529	0.036	16696	17084	0	864
21.962	-2.308	16696	16883	0	864
19.257	-6.708	16696	16617	0	864
19.762	-8.258	16384	16318	0	864
18.860	-7.285	16384	15984	0	864
18.680	-6.058	16072	15618	0	864
15.362	-6.563	16072	15385	0	864
15.326	-8.330	16072	15351	0	864
14.677	-10.097	16072	15551	0	864
19.618	-8.006	15603	15651	0	864
21.962	-7.789	15603	15651	0	864
23.476	-6.131	16072	15818	0	864
21.132	-8.114	16072	16118	0	864
16.264	-9.376	16072	16284	0	864
14.713	-8.150	16072	16251	0	864
13.884	-7.321	16072	16384	0	864
12.153	-7.032	16384	16584	0	864
12.117	-7.429	16384	16684	0	864
11.287	-8.763	16384	16584	0	864
13.812	-6.708	16072	16450	0	864
16.300	-5.806	16072	16284	0	864
15.939	-5.049	16072	16084	0	864
14.497	-5.590	15603	15951	0	864
9.556	-6.275	15603	15851	0	864
6.347	-6.996	15291	15684	0	864
7.970	-4.508	15291	15418	0	864
9.304	-1.983	14822	15151	0	864
10.999	1.082	14509	14851	0	864
12.982	3.210	14041	14618	0	864
16.769	2.236	13728	14485	0	864
20.267	4.760	14041	14518	0	864
26.325	6.203	13728	14651	0	864
30.725	9.088	13728	15051	0	864
27.768	11.287	13728	15584	0	864
24.053	9.592	14041	16018	0	864
19.113	7.032	14041	16351	0	864
14.389	5.986	14509	16717	0	864
15.867	7.573	14509	17184	0	864
15.471	11.396	14822	17484	0	864
14.533	12.405	15291	17684	0	864
7.934	7.862	15603	17984	0	864
0.829	1.406	16072	18383	0	864
-2.380	-3.318	16384	18617	0	864
0.216	-4.003	16384	18650	0	864
6.996	0.000	16696	18717	0	864
11.323	3.570	17165	18950	0	864
13.091	4.111	17477	19317	0	864
8.186	0.757	17946	19517	0	864
5.517	-1.803	17946	19350	0	864
5.770	0.216	17946	19017	0	864
11.648	3.931	17946	18550	0	864
15.507	6.671	17946	18083	0	864
17.310	9.160	17946	17584	0	864
19.546	11.035	17946	17017	0	864
20.267	12.045	17477	16450	0	864
22.503	15.723	17165	16018	0	864
26.866	19.077	17165	15718	0	864
29.246	19.401	17165	15718	0	864
27.407	17.093	17477	15885	0	864
23.008	15.038	17477	15918	0	864
18.320	10.746	17477	15784	0	864
9.448	5.265	17477	15818	0	864
4.977	2.380	17477	16051	0	864
3.354	2.236	17946	16218	0	864
7.068	5.986	17946	16251	0	864
13.812	13.776	17946	16417	0	864
19.329	20.087	18259	16717	0	864
20.988	23.765	18259	16850	0	864
15.254	20.519	18727	16750	0	864
12.874	15.975	18727	16550	0	864
8.835	10.278	18259	16351	0	864
8.583	10.350	18259	16084	0	864
13.487	12.261	18259	15818	0	864
13.451	15.110	17946	15451	0	864
16.913	20.808	17477	15051	0	864
19.077	23.693	17477	14718	0	864
25.388	26.506	17165	14385	1	316
27.515	29.427	16696	14018	0	316
27.263	28.561	16072	13718	0	316
26.253	26.650	16072	13551	0	316
25.279	25.243	15603	13451	0	316
26.397	28.309	15291	13384	0	316
28.994	32.023	14509	13318	0	316
27.840	34.043	14509	13318	0	316
22.431	32.780	14041	13451	0	316
15.038	25.568	13728	13651	0	316
15.435	21.313	13728	14084	0	316
15.651	20.195	13728	14618	0	316
18.680	20.195	13728	15051	0	316
17.670	20.231	13728	15451	0	316
16.372	17.490	14509	15984	0	316
13.054	15.362	14509	16617	0	316
13.127	13.163	14822	17217	0	316
15.398	17.526	15291	17684	0	316
18.067	20.087	15603	18250	0	316
21.385	22.034	16072	18817	0	316
20.808	21.349	16072	19084	0	316
20.591	20.014	16384	19017	0	316
19.798	20.375	16384	18817	0	316
19.690	21.168	16384	18650	0	316
24.270	25.820	16384	18484	0	316
29.318	30.220	16384	18217	0	316
33.862	33.790	16384	17984	0	316
32.384	30.869	16384	17750	0	316
29.571	26.686	16384	17484	0	316
24.775	21.854	16384	17217	0	316
23.368	21.421	16072	16950	0	316
24.486	24.522	16072	16717	0	316
25.712	29.895	16072	16484	0	316
26.289	32.997	15603	16251	0	316
21.457	31.230	15603	16084	0	316
17.887	27.010	15603	16118	0	316
17.310	22.395	15603	16284	0	316
16.877	17.562	15603	16417	0	316
20.195	12.910	16072	16484	0	316
19.473	10.278	16072	16684	0	316
19.293	8.583	16384	17050	0	316
15.975	7.537	16696	17283	0	316
16.949	10.674	16696	17417	0	316
17.021	14.136	17165	17617	0	316
20.303	15.867	17477	17884	0	316
19.582	17.670	17946	18017	0	316
19.329	13.704	17946	17850	0	316
15.759	12.261	17946	17550	0	316
16.769	13.776	17946	17184	0	316
19.257	17.598	17477	16750	0	316
25.352	24.558	17477	16351	0	316
31.410	27.876	17165	15951	0	316
32.167	26.974	16696	15651	0	316
32.203	23.801	16696	15351	0	316
29.715	22.467	16384	15018	0	316
27.407	18.608	16384	14718	0	316
28.092	19.473	16072	14518	0	316
29.859	23.224	16072	14385	0	316
29.463	23.549	15603	14251	0	316
30.112	22.972	15291	14251	0	316
25.496	20.988	15291	14518	0	316
19.365	15.507	15603	15018	0	316
10.061	8.006	15603	15518	0	316
5.265	4.003	16072	15918	0	316
3.534	1.298	16072	16384	0	316
5.806	1.046	16696	17117	0	316
11.215	4.832	17165	17884	0	316
16.516	8.943	17946	18417	0	316
19.401	12.189	18259	18884	0	316
18.788	15.326	18727	19317	0	316
19.041	15.038	19509	19550	0	316
16.480	13.812	19509	19517	0	316
15.975	15.002	19509	19217	0	316
14.785	11.864	19509	18784	0	316
14.461	12.081	19509	18250	0	316
10.494	10.386	19509	17584	0	316
10.494	9.196	19040	16950	0	316
10.097	8.402	19040	16384	0	316
11.179	7.321	18259	15918	0	316
11.720	5.950	17946	15485	1	316
9.016	1.839	17946	15018	0	316
2.669	-2.993	17165	14518	0	316
-1.226	-6.996	16696	14051	0	316
-0.829	-7.717	16384	13718	0	316
3.498	-5.157	16384	13651	0	316
8.979	-0.721	16384	13951	0	316
13.235	0.649	16384	14385	0	316
12.658	-0.288	16384	14685	0	316
9.556	-1.334	16384	14918	0	316
9.629	-1.875	16696	15284	0	316
14.605	1.695	16696	15818	0	316
17.598	4.183	17165	16184	0	316
19.257	5.698	17165	16384	0	316
13.487	1.154	17477	16617	0	316
3.570	-3.750	17477	17017	0	316
1.551	-6.527	17946	17317	0	316
4.977	-3.462	18259	17450	0	316
13.920	3.137	18259	17650	0	316
19.870	9.989	18727	17850	0	316
21.096	11.684	18727	17917	0	316
16.877	7.068	19040	17750	0	316
15.507	2.813	18259	17417	0	316
14.389	-1.082	18259	17050	0	316
17.634	-1.118	18259	16650	0	316
16.589	0.757	17946	16318	0	316
16.120	0.793	17946	15885	0	316
12.838	-1.442	17477	15485	0	316
8.511	-5.265	17165	15151	0	316
7.970	-7.645	16696	14951	0	316
9.592	-6.203	16696	14851	0	316
11.648	-2.813	16384	14751	0	316
18.680	2.200	16384	14585	0	316
18.536	3.065	16072	14418	0	316
19.401	-0.288	15603	14318	0	316
14.461	-6.816	15291	14284	0	316
11.071	-11.432	15291	14318	0	316
8.763	-11.937	14822	14351	0	316
7.898	-6.960	14509	14385	0	316
10.242	-1.803	14509	14485	0	316
15.831	3.787	14509	14784	0	316
19.329	6.275	14509	15284	0	316
25.171	6.239	14509	15784	0	316
28.453	9.232	15291	16351	0	316
29.354	9.196	15603	16984	0	316
28.381	12.189	16072	17484	0	316
27.732	11.323	16072	17650	0	316
28.994	12.081	16072	17584	0	316
29.318	13.523	15603	17417	0	316
30.797	13.054	15603	17283	0	316
29.787	15.110	15603	17084	0	316
27.515	13.487	15291	16883	0	316
25.099	10.025	15291	16650	0	316
23.008	6.419	14822	16417	0	316
19.005	2.957	14822	16251	0	316
18.320	1.406	14509	16051	0	316
13.992	1.695	14041	15918	0	316
12.658	0.938	14041	15818	0	316
11.071	-0.974	13728	15751	0	316
8.871	-5.337	13728	15784	0	316
6.816	-8.114	14041	16084	0	316
7.501	-10.097	14509	16550	0	316
7.104	-9.088	14509	17017	0	316
7.537	-4.760	14822	17317	0	316
11.540	1.226	15291	17750	0	316
19.906	9.845	15603	18383	0	316
29.823	16.589	16384	18884	0	316
39.740	22.539	16696	19184	0	316
45.727	23.765	17165	19450	0	316
46.845	24.414	17946	19783	0	316
45.655	26.506	18259	19883	0	316
43.779	27.948	18259	19717	0	316
41.580	25.604	18259	19317	0	316
36.170	19.005	18727	18817	0	316
29.138	10.999	18259	18283	0	316
22.034	4.544	17946	17750	0	316
17.815	4.796	17946	17217	0	316
17.706	7.285	17946	16717	0	316
17.887	9.412	17477	16318	0	316
19.077	7.934	17477	15885	1	316
18.933	3.426	17165	15485	0	316
17.959	-0.649	16696	15018	0	316
14.281	-1.406	16384	14551	0	316
13.163	-0.541	16072	14218	0	316
14.533	1.875	16072	14018	0	316
13.054	5.157	16072	14151	0	316
15.254	7.465	16072	14485	0	316
16.552	9.196	15603	14651	0	316
17.779	8.547	15603	14618	0	316
19.510	11.179	15603	14751	0	316
25.640	13.523	15603	15018	0	316
30.436	17.490	15603	15151	0	316
37.865	22.791	15603	15118	0	316
43.166	28.814	15603	15218	0	316
46.917	30.977	15603	15551	0	316
44.537	29.931	15603	15851	0	316
40.101	25.712	15603	15951	0	316
30.833	20.519	15603	16018	0	316
23.044	14.389	16072	16084	0	316
20.736	13.091	15603	16051	0	316
19.149	11.504	15603	15984	0	316
21.565	10.530	15603	15885	0	316
18.933	9.629	15291	15818	0	316
15.651	4.472	15291	15751	0	316
8.691	-0.649	14822	15751	0	316
2.849	-8.727	14822	15718	0	316
-1.262	-13.127	14822	15751	0	316
-2.885	-17.526	14509	15784	0	316
-1.983	-15.471	14509	15718	0	316
-1.046	-11.396	14509	15751	0	316
1.154	-6.022	14509	15984	0	316
7.573	1.875	14509	16384	0	316
15.723	9.845	14822	16750	0	316
23.693	17.166	14822	17017	0	316
31.879	20.519	15603	17383	0	316
36.459	22.431	16072	17884	0	316
36.747	23.945	16384	18217	0	316
38.190	28.273	16384	18450	0	316
43.635	33.934	16696	18717	0	316
47.530	40.822	17165	18984	0	316
51.893	44.897	17477	19017	0	316
52.218	45.041	17477	18884	0	316
49.080	39.344	17946	18917	0	316
41.111	35.413	18259	19084	0	316
32.708	28.561	18259	19017	0	316
24.522	22.322	18259	18684	0	316
18.283	19.329	18259	18250	0	316
11.215	11.973	18259	17717	0	316
5.121	8.258	18259	17050	0	316
4.219	4.436	17946	16384	0	316
4.003	1.983	17477	15818	0	316
6.419	1.767	17165	15284	0	316
8.042	0.649	16696	14851	0	316
9.592	1.731	16384	14451	0	316
8.114	4.291	16384	14118	0	316
13.487	9.304	16072	13884	0	316
16.625	15.471	15603	13684	0	316
22.070	17.959	15291	13518	0	316
24.775	23.512	14822	13484	0	316
27.515	26.506	14822	13751	0	316
33.393	32.348	14822	14218	0	316
39.488	37.216	14822	14685	0	316
43.274	39.163	14822	15018	0	316
41.075	35.918	15291	15485	0	316
35.701	30.725	15603	16118	0	316
27.551	25.099	15603	16550	0	316
24.162	24.558	16072	16817	0	316
25.568	24.414	16072	17150	0	316
28.814	21.998	16384	17550	0	316
27.335	19.546	16696	17817	0	316
21.529	10.422	16696	17950	0	316
13.631	4.075	17165	17984	0	316
4.544	0.541	17165	17884	0	316
2.164	0.036	17165	17650	0	316
5.626	1.515	16696	17283	0	316
7.104	3.823	16696	16917	0	316
7.717	2.813	16696	16584	0	316
6.058	1.370	16384	16384	0	316
3.678	-1.803	16384	16218	0	316
4.472	-0.974	16384	16018	0	316
7.825	1.983	16072	15784	0	316
12.369	6.347	15603	15551	0	316
17.202	9.412	15603	15351	0	316
18.788	12.369	15291	15284	0	316
23.080	15.831	15603	15451	0	316
25.893	21.421	15603	15818	0	316
33.826	27.912	15603	16084	0	316
37.649	31.122	15603	16251	0	316
38.947	31.626	16072	16584	0	316
36.639	29.318	16696	17317	0	316
31.987	26.938	17165	18050	0	316
28.417	24.666	17477	18450	0	316
26.433	22.431	18259	18784	0	316
26.109	17.202	18727	19117	0	316
25.856	14.821	19040	19250	0	316
23.080	10.602	19509	19150	0	316
21.060	9.232	19509	18884	0	316
18.139	7.321	19509	18517	0	316
14.894	5.373	19509	18083	0	316
11.071	1.875	19040	17617	0	316
11.107	-0.721	19040	17184	0	316
10.674	-2.272	19040	16784	0	316
11.828	-1.551	18727	16351	0	316
13.307	1.479	18727	15885	0	316
14.245	3.931	18259	15351	0	316
17.887	6.780	17946	14851	0	316
18.356	8.042	17165	14351	0	316
20.988	9.917	17165	13918	0	316
19.654	11.937	16696	13618	0	316
21.493	12.622	16696	13651	0	316
23.332	17.129	16384	13884	0	316
28.056	20.483	16384	14051	0	316
35.557	26.974	16384	14118	0	316
40.894	32.564	16384	14385	0	316
41.688	33.141	16384	14818	0	316
40.353	30.472	16384	15184	0	316
34.006	23.188	16384	15485	0	316
24.847	18.031	16696	15951	0	316
19.437	12.225	17165	16484	0	316
14.136	9.989	17165	16817	0	316
14.894	9.160	16696	16850	0	316
14.425	6.708	16696	16784	0	316
16.877	4.400	16696	16717	0	316
15.507	3.282	16696	16650	0	316
14.894	0.902	16696	16550	0	316
13.668	-1.370	16696	16417	0	316
11.973	-2.560	16384	16284	0	316
13.992	-4.796	16384	16118	0	316
14.281	-5.986	16384	16018	0	316
16.589	-4.580	16072	15918	0	316
21.168	-0.902	16072	15784	0	316
26.433	4.003	15603	15651	0	316
28.309	7.465	15603	15518	0	316
29.679	8.006	15291	15418	0	316
26.397	8.583	15603	15385	0	316
24.414	7.140	15291	15385	0	316
24.666	9.592	15603	15318	0	316
29.787	15.398	14822	15351	0	316
34.403	22.395	14822	15551	0	316
38.875	27.299	14822	15885	0	316
38.875	28.597	14822	15984	0	316
37.685	26.289	14822	15951	0	316
32.672	22.286	14822	16084	0	316
25.712	15.975	14822	16384	0	316
19.654	12.009	14822	16650	0	316
12.622	7.681	14822	16817	0	316
8.727	4.364	15291	17184	0	316
6.744	2.416	15603	17684	0	316
7.645	3.787	15603	18017	0	316
7.104	3.246	16072	18050	0	316
5.409	1.298	16072	17917	0	316
1.983	-0.180	16072	17717	0	316
-1.587	-2.777	15603	17484	0	316
-1.334	-2.849	15603	17217	0	316
2.777	-1.118	16072	16984	0	316
9.340	0.902	16072	16784	0	316
12.730	1.767	15603	16584	0	316
15.290	2.416	15603	16384	0	316
16.625	2.669	15603	16284	0	316
16.480	5.049	15291	16118	0	316
20.591	8.763	15291	16018	0	316
21.926	11.107	15291	15951	0	316
21.926	14.461	15291	15984	0	316
22.827	16.697	15291	16218	0	316
20.880	16.300	15291	16484	0	316
21.421	16.805	15603	16717	0	316
17.887	13.271	15603	16850	0	316
15.471	9.917	16072	17184	0	316
9.160	2.596	16384	17650	0	316
5.121	-1.839	16696	17984	0	316
3.498	-3.678	17165	18217	0	316
3.065	-5.734	17477	18484	0	316
4.255	-5.373	17946	18750	0	316
3.859	-4.724	18259	18917	0	316
1.190	-8.835	18727	18917	0	316
-3.606	-13.271	18727	18817	0	316
-7.681	-16.264	19040	18650	0	316
-8.186	-20.087	18727	18417	0	316
-5.481	-18.103	19040	18117	0	316
-3.354	-16.516	19040	17750	1	720
2.705	-12.009	19040	17317	0	720
4.364	-10.061	19040	16883	0	720
10.855	-8.186	18727	16450	0	720
16.264	-4.760	18727	15951	0	720
24.378	-0.397	17946	15418	0	720
28.777	5.085	17946	14918	0	720
31.194	10.999	17477	14518	0	720
33.826	13.127	17165	14251	0	720
35.774	18.716	17165	14251	0	720
39.885	21.024	17165	14418	0	720
45.618	26.001	16696	14585	0	720
47.566	27.479	17165	14685	0	720
43.563	22.214	17165	15084	0	720
33.790	13.523	17946	15818	0	720
23.152	3.498	18259	16550	0	720
12.874	-3.462	18727	17017	0	720
11.900	-5.554	19040	17450	0	720
12.225	-2.669	19509	17884	0	720
14.353	-1.082	19821	18083	0	720
12.333	-1.947	20290	17984	0	720
7.681	-4.003	19821	17750	0	720
4.075	-8.366	19821	17383	0	720
5.445	-8.006	19509	16917	0	720
8.799	-6.058	19509	16450	0	720
14.497	-1.479	19509	16118	0	720
18.175	2.164	18727	15751	0	720
20.411	3.065	19040	15418	0	720
17.923	3.534	18259	15084	0	720
19.005	3.714	17946	14784	0	720
23.476	8.114	17477	14451	0	720
27.624	14.785	17165	14051	0	720
31.662	18.680	16696	13684	0	720
32.780	22.070	16384	13418	0	720
29.895	18.500	16384	13484	0	720
25.207	15.146	16072	13718	0	720
20.483	8.763	16072	13918	0	720
19.726	7.104	15603	13984	0	720
17.851	5.626	15603	14251	0	720
15.543	3.787	15603	14784	0	720
12.297	2.056	15603	15284	0	720
9.989	1.406	16072	15718	0	720
5.986	-1.479	16072	16251	0	720
3.642	-3.967	16384	16784	0	720
0.938	-5.698	16384	17084	0	720
-1.298	-7.898	16384	17117	0	720
-2.705	-10.746	16384	17050	0	720
-0.361	-11.179	16384	16950	0	720
3.714	-10.133	16384	16817	0	720
7.176	-8.871	16072	16617	0	720
11.107	-7.717	16072	16384	0	720
13.415	-7.537	15603	16151	0	720
15.687	-6.275	15291	15918	0	720
21.060	-4.580	15603	15684	0	720
23.224	-1.731	15291	15451	0	720
24.342	2.056	15291	15218	0	720
25.027	5.157	14509	15018	0	720
22.431	5.481	14041	14851	0	720
21.745	5.229	13728	14751	0	720
23.332	6.924	13259	14685	0	720
21.926	6.094	12947	14751	0	720
22.106	5.049	12478	14751	0	720
15.326	1.767	12478	14818	0	720
12.117	-2.380	12478	15084	0	720
7.862	-5.121	12478	15551	0	720
7.176	-7.176	12478	15951	0	720
8.258	-7.248	12478	16151	0	720
8.655	-8.655	12478	16318	0	720
6.960	-8.583	13259	16617	0	720
6.816	-9.629	13259	17084	0	720
5.986	-9.737	13259	17484	0	720
8.799	-8.943	13259	17717	0	720
9.340	-9.809	13728	18083	0	720
10.566	-11.323	14041	18584	0	720
12.261	-11.720	14509	18984	0	720
13.091	-9.809	14509	19150	0	720
12.802	-7.645	14822	19217	0	720
15.435	-6.960	15603	19250	0	720
14.749	-7.248	15603	19150	0	720
14.641	-7.753	15603	18917	0	720
16.985	-7.789	15603	18584	0	720
17.129	-5.590	15603	18183	0	720
19.582	-0.541	15603	17850	1	328
20.375	1.911	15291	17550	0	328
18.536	0.433	15291	17250	0	328
18.175	-4.075	15291	16950	0	328
15.651	-7.862	14822	16584	0	328
11.864	-10.855	14822	16284	0	328
9.629	-10.386	14822	16218	0	328
6.491	-11.143	14822	16384	0	328
4.183	-11.179	14822	16517	0	328
2.380	-14.569	15291	16550	0	328
1.875	-19.618	15603	16817	0	328
-0.685	-21.168	15603	17217	0	328
0.757	-21.565	16072	17450	0	328
1.442	-21.529	16384	17484	0	328
2.164	-18.392	16384	17550	0	328
6.744	-16.444	16696	17784	0	328
9.304	-13.668	17165	17850	0	328
10.927	-12.045	17165	17717	0	328
12.045	-12.045	17165	17383	0	328
12.009	-11.179	17165	17017	0	328
11.323	-10.206	17165	16684	0	328
13.163	-6.960	16696	16384	0	328
20.231	-1.911	16696	16084	0	328
22.827	3.678	16696	15784	0	328
23.260	5.229	16384	15584	0	328
20.772	3.498	16384	15451	0	328
14.281	-1.442	16384	15318	0	328
9.845	-8.222	16072	15118	0	328
6.708	-13.595	16072	14918	0	328
5.085	-14.785	15603	14751	0	328
5.121	-16.048	15603	14751	0	328
4.075	-13.343	15603	15018	0	328
2.308	-13.307	16072	15485	0	328
1.406	-16.048	16072	15851	0	328
-1.479	-16.949	16384	16084	0	328
-1.190	-21.132	16384	16384	0	328
-2.056	-20.591	16696	16817	0	328
-0.938	-19.582	17165	17117	0	328
-1.334	-18.933	17165	17250	0	328
0.469	-16.733	17477	17417	0	328
3.606	-16.228	17946	17650	0	328
10.386	-11.900	17946	17717	0	328
17.959	-6.455	18259	17584	0	328
21.890	0.216	18259	17383	0	328
25.568	5.337	18259	17117	0	328
28.020	7.753	18259	16817	0	328
27.299	8.186	17946	16484	0	328
30.256	7.321	17946	16151	0	328
32.672	8.871	17477	15818	0	328
33.790	12.405	17477	15584	0	328
33.213	13.343	17165	15485	0	328
30.400	12.982	16696	15418	0	328
27.732	12.369	16696	15284	0	328
23.909	9.592	16696	15151	0	328
19.041	8.943	16384	15018	0	328
18.680	8.979	16384	14951	0	328
15.975	7.501	16384	15151	0	328
15.290	3.678	16384	15485	0	328
13.523	0.793	16384	15718	0	328
13.956	-0.577	16696	15885	0	328
12.946	-1.695	16696	16284	0	328
11.684	-1.587	17165	16817	0	328
10.783	-2.596	17477	17184	0	328
9.701	-1.767	17477	17350	0	328
9.016	-0.325	17946	17517	0	328
9.665	2.957	18259	17717	0	328
15.254	5.121	18259	17784	0	328
15.795	4.940	18727	17650	0	328
17.706	4.327	18727	17650	0	328
16.408	3.318	18727	17784	0	328
17.129	2.813	19040	17784	0	328
16.949	7.501	19040	17584	0	328
20.195	9.665	18727	17217	0	328
19.401	9.304	18727	16717	0	328
20.339	8.186	18259	16218	0	328
17.995	5.554	17946	15684	0	328
19.005	3.065	17477	15251	0	328
18.608	3.714	17477	14851	0	328
17.166	4.652	17165	14551	0	328
10.891	-0.361	16696	14318	0	328
4.977	-6.816	16384	14084	0	328
-0.757	-12.333	16072	13818	0	328
-4.544	-17.887	15603	13584	0	328
-4.291	-19.798	15291	13384	0	328
-5.554	-22.611	14822	13351	0	328
-6.852	-22.358	14509	13618	0	328
-6.888	-21.637	14509	14084	0	328
-3.065	-18.897	14509	14451	0	328
3.570	-14.317	14509	14651	0	328
10.602	-12.261	14509	15018	0	328
16.012	-10.638	14509	15584	0	328
19.257	-9.124	14822	16118	0	328
17.346	-5.373	15603	16550	0	328
17.851	-3.534	15603	17150	0	328
14.317	-0.252	16072	17817	0	328
15.146	1.479	16384	18183	0	328
13.595	1.190	16384	18217	0	328
17.634	1.947	16384	18117	0	328
19.654	3.029	16384	17950	0	328
24.919	5.373	16384	17750	0	328
25.568	7.573	16384	17584	0	328
25.712	8.042	16072	17383	0	328
23.296	6.599	16072	17117	0	328
16.516	3.354	16072	16817	0	328
12.477	1.334	15603	16517	0	328
9.088	-0.397	15291	16318	0	328
8.655	-1.911	15291	16118	0	328
10.206	-5.481	14822	15918	0	328
9.773	-10.206	14822	15751	0	328
7.753	-13.704	14509	15618	0	328
3.967	-14.497	14509	15751	0	328
1.442	-14.100	14822	16151	0	328
3.137	-11.468	14822	16484	0	328
5.734	-11.648	15291	16750	0	328
10.314	-13.487	15603	17150	0	328
12.586	-11.432	16072	17750	0	328
18.392	-9.376	16384	18383	0	328
25.352	-2.092	17165	18884	0	328
34.692	6.275	17477	19350	0	328
40.822	11.143	18259	19750	0	328
41.724	12.369	18727	19883	0	328
37.613	9.124	19040	19717	0	328
31.699	8.150	19040	19350	0	328
29.391	10.133	19040	18917	0	328
30.689	13.595	19040	18383	0	328
33.393	16.372	18727	17750	1	500
31.446	14.281	18727	17050	0	500
26.794	5.554	17946	16351	0	500
15.687	-2.849	17477	15651	0	500
8.186	-8.691	17165	15018	0	500
2.705	-9.881	16696	14451	0	500
1.767	-8.799	16384	13884	0	500
2.921	-9.773	16072	13418	0	500
0.974	-13.235	15291	13051	0	500
-1.839	-17.418	14822	12751	0	500
-2.741	-22.106	14509	12618	0	500
-0.902	-22.250	14509	12551	0	500
3.750	-16.084	14509	12551	0	500
9.376	-11.179	13728	12651	0	500
12.910	-7.537	13259	12918	0	500
13.992	-3.859	13259	13484	0	500
14.641	-4.436	13728	14318	0	500
18.680	-2.308	14041	15151	0	500
22.755	0.938	14509	16084	0	500
26.866	5.373	14822	16984	0	500
30.292	8.150	15603	17750	0	500
29.499	8.078	16072	18250	0	500
24.919	6.131	16696	18817	0	500
19.618	3.282	17165	19484	0	500
15.182	0.685	17946	19917	0	500
11.937	-1.298	17946	20050	0	500
8.871	-2.452	18259	20017	0	500
8.222	-5.914	18259	19883	0	500
7.645	-10.819	18727	19617	0	500
5.157	-15.254	18727	19284	0	500
3.462	-20.808	18727	18884	0	500
2.236	-19.834	18727	18417	0	500
-0.361	-19.906	18727	17917	0	500
-3.354	-17.562	18259	17383	0	500
-1.695	-17.418	18259	16883	0	500
1.082	-15.182	17946	16384	0	500
7.753	-13.415	17477	15984	0	500
16.769	-5.301	17477	15618	0	500
26.758	4.147	17165	15351	0	500
34.043	12.225	17165	15284	0	500
38.045	16.697	17477	15451	0	500
37.252	17.166	17477	15584	0	500
32.528	11.071	17477	15651	0	500
27.010	7.717	17946	15851	0	500
22.358	4.039	17946	16151	0	500
20.411	4.327	17946	16284	0	500
21.673	5.878	18259	16318	0	500
21.854	6.671	18259	16384	0	500
22.034	5.770	18727	16584	0	500
21.168	1.406	18727	16650	0	500
17.166	-2.849	18259	16517	0	500
13.668	-4.904	18259	16318	0	500
6.708	-7.898	17946	16018	0	500
2.416	-9.268	17946	15651	0	500
1.334	-9.989	17477	15284	0	500
2.921	-12.153	17165	14918	0	500
5.590	-13.704	16696	14618	0	500
8.799	-12.081	16384	14351	0	500
10.061	-9.088	16072	14084	0	500
12.369	-5.481	15603	13851	0	500
18.067	1.226	15291	13718	0	500
25.424	6.671	15291	13651	0	500
36.314	10.891	14822	13651	0	500
46.664	16.841	14509	13784	0	500
52.651	21.565	14509	14184	0	500
56.617	27.263	14509	14784	0	500
51.857	28.092	15291	15284	0	500
45.114	26.253	15291	15718	0	500
38.298	20.808	15603	16284	0	500
35.052	16.048	15603	16883	0	500
35.016	10.963	16072	17350	0	500
35.305	10.386	16072	17617	0	500
34.295	8.979	16384	17917	0	500
31.266	7.429	16696	18317	0	500
27.263	8.475	17165	18584	0	500
24.342	7.573	17165	18650	0	500
21.998	7.753	17477	18617	0	500
21.132	5.554	17477	18517	0	500
18.103	0.649	17477	18383	0	500
17.779	-1.695	17477	18183	1	316
17.598	-3.462	17165	17884	0	316
17.706	-2.957	17165	17584	0	316
19.113	-1.551	17165	17283	0	316
18.211	0.252	17165	16917	0	316
21.890	1.082	16696	16550	0	316
25.099	4.508	16696	16218	0	316
29.571	9.845	16384	15918	0	316
36.459	16.336	16384	15651	0	316
42.950	23.368	16072	15518	0	316
46.664	25.676	16072	15618	0	316
50.234	27.804	16384	15918	0	316
49.080	25.388	16384	16084	0	316
42.661	22.827	16384	16151	0	316
37.324	18.500	16696	16450	0	316
30.004	13.523	17477	17250	0	316
24.125	5.986	17946	18117	0	316
16.589	-4.219	18727	18717	0	316
6.852	-13.776	19509	19217	0	316
-2.596	-19.546	20290	19717	0	316
-7.501	-22.755	20290	19917	0	316
-8.042	-22.683	21071	19750	0	316
-2.019	-18.500	20602	19317	0	316
4.255	-16.661	20602	18717	0	316
6.383	-13.595	20602	18083	0	316
7.176	-16.661	20602	17417	0	316
5.409	-16.769	20290	16784	0	316
7.465	-14.894	19821	16118	0	316
13.631	-9.268	19509	15418	0	316
20.159	1.190	18727	14718	0	316
27.624	10.242	18259	14118	0	316
30.833	14.858	17946	13584	0	316
31.699	16.444	17477	13118	0	316
30.617	14.172	16696	12685	0	316
29.895	15.038	16384	12418	0	316
30.364	14.533	16384	12451	0	316
31.879	17.779	16072	12718	0	316
33.718	19.149	15603	12985	0	316
33.718	20.916	15603	13184	0	316
30.364	17.129	15603	13584	0	316
24.594	11.107	15603	14151	0	316
16.372	3.029	15603	14618	0	316
11.504	-2.705	15603	14984	0	316
6.131	-7.032	16072	15418	0	316
1.659	-8.979	16072	15984	0	316
-2.056	-11.648	16072	16351	0	316
-5.770	-15.110	16072	16484	0	316
-6.491	-17.238	16072	16517	0	316
-4.147	-19.906	16072	16450	0	316
3.390	-14.533	15603	16284	0	316
11.648	-7.898	15291	16018	0	316
17.995	1.983	14822	15751	0	316
24.991	10.169	14509	15485	0	316
30.508	15.290	14041	15251	0	316
33.538	17.526	13728	15051	0	316
36.459	14.858	14041	14951	0	316
35.341	14.245	13728	14918	0	316
32.492	13.163	13259	14951	0	316
30.436	14.497	12947	14984	0	316
31.122	17.129	12947	15084	0	316
33.285	18.175	12478	15184	0	316
34.006	18.500	12478	15218	0	316
31.987	13.018	12166	15284	0	316
24.630	7.898	12166	15485	0	316
13.127	-0.144	12166	15918	0	316
7.465	-5.409	12478	16517	0	316
1.731	-9.592	12478	17050	0	316
-1.334	-11.864	13259	17517	0	316
-1.262	-14.894	13728	18017	0	316
-2.957	-15.182	13728	18517	0	316
-6.816	-19.870	14041	18750	0	316
-9.520	-22.611	14041	18850	0	316
-10.927	-25.243	14509	19084	0	316
-11.143	-27.371	14822	19450	0	316
-7.176	-25.532	15291	19683	0	316
-2.128	-20.231	15291	19584	0	316
4.796	-14.785	15603	19284	0	316
11.071	-7.645	15603	18917	0	316
14.245	-2.452	15603	18517	0	316
18.824	0.433	15603	18117	0	316
21.349	3.606	15603	17717	0	316
24.847	6.419	15603	17283	0	316
26.181	8.186	15291	16817	0	316
25.965	10.242	14822	16384	0	316
25.965	9.989	14822	16084	0	316
24.883	11.432	14509	15851	0	316
22.935	9.665	14509	15684	0	316
24.919	8.763	14041	15518	0	316
25.207	7.104	14041	15451	0	316
22.647	2.741	14041	15618	0	316
18.752	-1.947	14041	15918	0	316
13.992	-4.688	14509	16184	0	316
11.576	-5.481	14822	16384	0	316
8.547	-4.796	15291	16784	0	316
8.439	-4.111	15603	17283	0	316
8.979	-5.301	16072	17617	0	316
7.032	-9.592	16072	17784	0	316
7.285	-9.989	16384	17984	0	316
9.556	-9.232	16696	18283	0	316
12.550	-4.039	17165	18450	0	316
13.992	-0.433	17477	18383	0	316
12.766	0.938	17477	18183	0	316
13.704	0.361	17477	17884	0	316
14.605	-0.613	17477	17517	0	316
17.779	0.721	17165	17117	0	316
22.899	4.219	17165	16717	0	316
28.525	7.176	17165	16417	0	316
31.987	11.684	16696	16184	0	316
32.131	13.631	16696	15885	0	316
31.662	12.477	16696	15584	0	316
28.561	12.117	16384	15351	0	316
24.017	9.016	16384	15151	0	316
23.332	6.311	16072	14951	0	316
19.473	3.570	16072	14784	0	316
18.897	-0.433	16072	14884	0	316
12.982	-3.390	16072	15284	0	316
8.691	-6.491	16384	15584	0	316
6.744	-7.465	16384	15684	0	316
6.383	-6.347	16696	15984	0	316
9.737	-5.662	17165	16550	0	316
15.182	-3.426	17477	17117	0	316
15.795	-1.947	17946	17450	0	316
17.743	-3.534	18259	17684	0	316
16.372	-6.383	18259	17884	0	316
16.120	-8.078	18727	17950	0	316
19.942	-6.383	18727	17750	0	316
25.604	-1.587	18727	17383	0	316
27.876	6.094	18259	16984	0	316
28.417	8.042	18259	16517	0	316
25.099	5.878	18259	16118	0	316
23.296	3.390	17477	15651	0	316
24.198	1.623	17165	15218	0	316
28.597	3.282	16696	14751	0	316
34.187	7.645	16384	14351	0	316
34.908	10.422	16072	14051	0	316
33.826	12.225	15603	13818	0	316
31.590	11.323	15291	13618	0	316
29.535	11.215	14822	13484	0	316
24.991	6.924	14822	13384	0	316
19.510	1.082	15291	13551	0	316
14.136	-4.616	14822	13984	0	316
7.285	-9.376	14822	14418	0	316
1.947	-9.556	14822	14751	0	316
3.534	-5.517	14822	15251	0	316
7.212	0.541	15291	15918	0	316
12.117	2.885	15291	16417	0	316
17.490	4.724	15603	16784	0	316
18.897	3.931	16072	17250	0	316
18.175	3.426	16384	17784	0	316
16.408	4.075	16384	18183	0	316
16.769	3.606	16696	18317	0	316
18.680	5.986	17165	18484	0	316
22.322	9.052	17477	18750	0	316
27.119	14.172	17477	18917	0	316
29.535	16.192	17946	18884	0	316
31.915	17.743	17946	18717	0	316
30.256	13.343	18259	18517	0	316
25.965	8.294	17946	18283	0	316
22.322	4.544	18259	17950	1	632
14.281	1.154	18259	17617	0	632
10.819	-1.262	17477	17184	0	632
5.842	-1.839	17477	16717	0	632
5.337	-2.056	17165	16251	0	632
7.537	-1.659	16696	15784	0	632
12.550	-2.524	16696	15418	0	632
16.156	-2.741	16384	15084	0	632
16.949	-2.128	16072	14818	0	632
16.372	-3.029	16072	14685	0	632
10.674	-5.373	16072	14818	0	632
7.212	-8.475	16072	15118	0	632
5.517	-9.809	16072	15318	0	632
7.645	-10.855	16072	15418	0	632
11.432	-7.140	16072	15718	0	632
18.860	-1.370	16384	16184	0	632
22.467	3.931	16384	16450	0	632
27.119	5.806	16696	16617	0	632
30.184	7.068	17165	16950	0	632
