neuroNicle FX2
D3F25R12
Bluetooth SPP
2023년 11월 23일 목요일
오후 7:50
time interval = 4msec
EEG1	EEG2	PPG	sdPPG	pulse	peak_interval(msec)
-14.064	5.049	16371	15654	0	320
-19.473	0.902	16371	16047	0	320
-23.801	-2.452	16379	16496	0	320
-27.984	-4.544	16379	16721	0	320
-28.525	-4.688	16379	16777	0	320
-27.587	-5.662	16379	17058	0	320
-25.676	-4.508	16384	17507	0	320
-23.368	-2.416	16384	17788	0	320
-21.313	-0.433	16384	17788	0	320
-20.483	1.118	16384	17563	0	320
-18.897	0.433	16384	17226	0	320
-17.526	-1.551	16384	16777	0	320
-15.795	-2.741	16379	16384	0	320
-12.874	-2.019	16379	15823	0	320
-8.186	1.262	16371	15429	0	320
-6.744	4.796	16371	15205	0	320
-6.960	5.950	16366	15149	0	320
-8.366	6.455	16366	15092	0	320
-7.825	8.114	16366	15036	0	320
-3.678	12.514	16357	14924	0	320
0.757	18.067	16357	14868	0	320
5.445	22.431	16357	14868	0	320
4.111	24.234	16357	15092	0	320
-1.118	19.870	16357	15373	0	320
-6.635	14.641	16357	15542	0	320
-9.016	9.232	16357	15654	0	320
-6.311	8.835	16366	16047	0	320
-0.361	10.566	16366	16496	0	320
5.193	13.271	16366	16833	0	320
6.167	15.110	16366	17114	0	320
1.623	14.858	16371	17507	0	320
-4.977	12.117	16371	18013	0	320
-8.439	11.215	16379	18237	0	320
-7.068	12.514	16379	18181	0	320
-4.652	13.091	16379	18237	0	320
-2.344	15.290	16379	18350	0	320
-2.921	16.408	16379	18237	0	320
-6.131	15.759	16384	17957	0	320
-12.117	12.586	16379	17676	0	320
-17.562	7.357	16379	17339	0	320
-23.116	0.361	16379	17001	0	320
-23.549	-3.101	16379	16664	0	320
-19.510	-0.505	16371	16384	0	320
-13.776	5.698	16371	15991	0	320
-12.297	9.989	16366	15598	0	320
-14.028	10.927	16366	15205	0	320
-17.706	7.501	16357	14868	0	320
-17.815	4.652	16357	14587	0	320
-15.831	3.931	16352	14474	0	320
-14.028	4.977	16357	14418	0	320
-18.103	4.183	16366	14474	0	320
-23.693	3.534	16357	14811	0	320
-28.417	1.983	16357	15373	0	320
-26.758	2.813	16357	15935	0	320
-21.168	5.373	16366	16384	0	320
-14.389	6.816	16366	16889	0	320
-12.622	7.537	16371	17507	0	320
-16.589	5.590	16371	17900	0	320
-25.135	2.200	16379	18125	0	320
-33.249	-1.334	16379	18462	0	320
-36.351	-2.452	16384	18968	0	320
-34.800	-1.659	16389	19192	0	320
-30.220	1.551	16389	19136	0	320
-27.227	4.039	16389	18968	0	320
-27.263	2.957	16397	18687	0	320
-31.266	-0.649	16397	18406	0	320
-35.233	-3.859	16397	18181	0	320
-37.937	-6.888	16397	17900	0	320
-37.216	-5.265	16397	17676	0	320
-36.314	-3.606	16397	17339	0	320
-34.800	-1.767	16397	16889	0	320
-33.393	-1.803	16389	16384	0	320
-33.033	-3.570	16389	15767	0	320
-32.564	-3.101	16384	15261	0	320
-31.338	-2.019	16384	14980	0	320
-31.626	0.541	16384	14924	0	320
-31.987	3.318	16384	15205	0	320
-31.771	4.544	16389	15654	0	320
-33.069	4.544	16389	15935	0	320
-33.177	2.705	16389	16104	0	320
-36.098	-0.613	16397	16384	0	320
-38.911	-3.678	16389	16833	0	320
-41.796	-4.436	16402	17058	0	320
-40.029	-3.498	16402	17170	0	320
-34.295	0.938	16411	17451	0	320
-29.174	4.796	16402	17844	0	320
-27.479	6.239	16411	18013	0	320
-31.194	3.606	16411	17900	0	320
-39.740	-1.695	16411	17563	0	320
-44.284	-6.239	16411	17226	0	320
-45.438	-7.645	16411	16721	0	320
-44.753	-6.671	16411	16216	0	320
-44.609	-3.173	16402	15710	0	320
-48.359	-0.685	16402	15317	0	320
-49.549	-0.613	16402	15036	0	320
-48.720	-0.469	16397	14868	0	320
-45.041	-0.144	16397	14811	0	320
-40.534	0.793	16397	14755	0	320
-39.488	2.056	16397	14699	0	320
-41.147	3.823	16397	14643	0	320
-42.445	5.337	16389	14699	0	320
-43.310	6.563	16397	14924	0	320
-41.471	7.104	16397	15317	0	320
-37.000	7.717	16397	15486	0	320
-34.439	8.222	16397	15654	0	320
-31.518	9.701	16397	16047	0	320
-33.141	9.953	16402	16889	0	320
-38.514	7.537	16411	17900	0	320
-43.779	4.977	16416	18518	0	320
-47.494	2.164	16424	18968	0	320
-48.900	-0.108	16429	19417	0	320
-46.304	-0.072	16429	19642	0	320
-45.763	-0.865	16438	19473	0	320
-47.422	-0.902	16429	19024	0	320
-49.153	-0.397	16438	18518	0	320
-52.074	1.046	16429	17900	0	320
-51.533	2.669	16424	17114	1	612
-48.539	3.210	16424	16272	0	612
-46.412	3.101	16416	15429	0	612
-44.933	4.111	16411	14755	0	612
-45.402	6.527	16411	14193	0	612
-44.573	9.232	16402	13744	0	612
-44.320	12.045	16397	13295	0	612
-43.887	11.287	16389	12901	0	612
-46.340	8.366	16389	12564	0	612
-50.956	4.508	16384	12340	0	612
-55.175	1.551	16379	12396	0	612
-55.608	1.190	16379	12733	0	612
-52.362	5.121	16379	13014	0	612
-48.107	7.789	16379	13295	0	612
-44.753	9.160	16379	13856	0	612
-45.655	8.475	16379	14587	0	612
-47.999	5.517	16379	15261	0	612
-49.441	4.832	16379	15710	0	612
-50.343	4.364	16384	16272	0	612
-49.802	4.940	16384	16889	0	612
-48.648	5.373	16389	17451	0	612
-48.035	5.373	16389	17676	0	612
-46.917	5.481	16389	17619	0	612
-47.782	5.049	16389	17339	0	612
-49.441	4.111	16384	17001	0	612
-49.333	0.505	16384	16721	0	612
-47.386	-0.865	16379	16384	0	612
-42.301	1.983	16379	15991	0	612
-34.764	8.150	16371	15598	0	612
-27.876	16.408	16371	15373	0	612
-25.712	22.611	16366	15149	0	612
-25.532	23.440	16357	14980	0	612
-28.922	21.673	16357	14755	0	612
-32.023	18.031	16352	14699	0	612
-35.629	15.723	16352	14699	0	612
-36.964	14.821	16344	14811	0	612
-36.891	11.648	16344	14811	0	612
-37.432	8.907	16344	14755	0	612
-37.432	5.698	16352	14755	0	612
-37.036	5.481	16344	15149	0	612
-35.160	9.052	16344	15767	0	612
-34.006	12.153	16344	16216	0	612
-33.754	13.776	16344	16496	0	612
-35.846	11.828	16344	17001	0	612
-39.452	6.275	16352	17507	0	612
-42.986	3.101	16352	17900	0	612
-44.032	0.469	16352	18237	0	612
-44.969	-0.757	16366	18799	0	612
-44.681	-1.731	16371	19473	0	612
-46.412	-2.813	16379	19979	0	612
-47.638	-3.714	16379	20204	0	612
-49.369	-2.993	16384	20204	0	612
-50.018	-0.902	16384	19979	0	612
-50.270	1.046	16384	19698	0	612
-49.874	1.082	16384	19305	0	612
-50.162	-0.649	16384	18912	0	612
-48.467	-3.065	16384	18462	0	612
-47.818	-4.904	16384	18013	0	612
-46.087	-2.921	16384	17507	0	612
-42.625	1.695	16384	17001	0	612
-39.452	6.744	16379	16608	0	612
-35.990	11.035	16379	16328	0	612
-34.223	11.973	16379	16047	0	612
-35.521	11.468	16379	15823	0	612
-39.596	7.898	16379	15879	0	612
-43.599	4.868	16379	16160	0	612
-46.809	2.885	16379	16328	0	612
-46.087	3.859	16379	16328	0	612
-43.887	5.157	16384	16384	0	612
-40.894	7.573	16384	16552	0	612
-39.416	8.258	16384	16664	0	612
-39.019	7.501	16384	16721	0	612
-39.560	8.402	16389	17058	0	612
-38.406	8.871	16397	17844	0	612
-38.118	10.278	16402	18575	0	612
-35.954	11.468	16411	18855	0	612
-34.151	10.963	16411	18631	0	612
-34.187	12.081	16411	18237	0	612
-35.377	11.432	16402	17788	0	612
-37.252	11.684	16402	17282	1	316
-38.911	12.622	16402	16664	0	316
-39.704	13.812	16397	16104	0	316
-38.586	15.579	16397	15486	0	316
-37.505	17.274	16389	14924	0	316
-37.216	17.562	16389	14362	0	316
-38.442	16.913	16384	13688	0	316
-38.658	17.598	16379	13070	0	316
-39.344	18.500	16371	12508	0	316
-40.173	19.005	16366	12115	0	316
-42.986	17.526	16357	12115	0	316
-49.153	13.379	16357	12452	0	316
-56.437	7.537	16357	12845	0	316
-61.089	2.524	16357	13182	0	316
-61.666	-0.361	16366	13800	0	316
-55.139	1.082	16366	14868	0	316
-46.448	4.472	16371	15935	0	316
-41.003	8.871	16379	16721	0	316
-40.389	10.097	16384	17451	0	316
-44.537	10.602	16384	18181	0	316
-50.487	8.763	16389	18631	0	316
-53.191	8.222	16389	18687	0	316
-51.172	8.511	16389	18575	0	316
-46.845	10.422	16389	18350	0	316
-41.832	12.189	16389	18013	0	316
-42.229	11.792	16389	17619	0	316
-43.599	11.143	16389	17395	0	316
-43.851	10.963	16389	17170	0	316
-42.265	10.350	16389	16833	0	316
-36.351	11.792	16384	16440	0	316
-32.816	11.360	16384	16216	0	316
-35.629	9.556	16384	16047	0	316
-41.832	5.049	16384	15935	0	316
-48.900	1.262	16379	15879	0	316
-51.749	0.325	16379	15935	0	316
-47.422	3.354	16384	16272	0	316
-42.986	6.491	16384	16664	0	316
-38.009	8.907	16389	17058	0	316
-36.567	8.330	16389	17282	0	316
-39.993	3.750	16397	17619	0	316
-43.851	-0.252	16397	18013	0	316
-48.864	-3.065	16402	18237	0	316
-53.119	-4.796	16397	18237	0	316
-55.536	-3.787	16402	18237	0	316
-56.978	-3.967	16402	18406	0	316
-55.788	-3.678	16411	18462	0	316
-54.886	-5.554	16411	18237	0	316
-53.228	-6.203	16411	17844	0	316
-52.290	-5.914	16411	17395	0	316
-50.992	-6.527	16411	17001	0	316
-48.792	-4.760	16402	16552	0	316
-47.349	-3.787	16402	16160	0	316
-45.799	-2.092	16402	15710	0	316
-46.664	-0.865	16397	15261	0	316
-47.313	2.380	16397	14811	0	316
-45.402	5.409	16389	14418	0	316
-40.714	7.573	16389	14081	0	316
-34.187	9.448	16384	13632	0	316
-31.879	11.864	16379	13126	0	316
-33.285	12.946	16371	12620	0	316
-36.783	12.730	16366	12227	0	316
-37.973	13.559	16357	11890	0	316
-33.393	14.172	16352	11609	0	316
-27.263	15.398	16344	11553	0	316
-22.827	16.444	16344	11946	0	316
-24.306	16.264	16339	12620	0	316
-31.735	12.730	16339	13238	0	316
-39.632	8.402	16339	13744	0	316
-43.491	5.842	16344	14474	0	316
-44.501	4.796	16344	15373	0	316
-45.186	4.219	16352	16047	0	316
-48.143	1.659	16352	16552	0	316
-51.929	-2.236	16352	17170	0	316
-55.932	-5.481	16357	17900	0	316
-57.447	-6.852	16357	18518	0	316
-55.139	-4.183	16366	18799	0	316
-53.985	-2.669	16366	18912	0	316
-54.995	-2.416	16366	18912	0	316
-56.762	-5.301	16366	18855	0	316
-57.122	-8.439	16366	18631	0	316
-58.457	-10.963	16366	18237	0	316
-58.132	-9.412	16357	17844	0	316
-58.096	-6.708	16366	17507	0	316
-57.375	-2.849	16371	17170	0	316
-56.545	-0.721	16357	16833	0	316
-54.129	-0.902	16357	16608	0	316
-53.588	-1.370	16357	16496	0	316
-55.680	-4.219	16357	16440	0	316
-59.863	-3.931	16352	16440	0	316
-62.423	-1.046	16357	16552	0	316
-60.692	4.436	16357	16945	0	316
-56.185	10.314	16357	17282	0	316
-50.920	12.081	16366	17451	0	316
-49.369	9.268	16366	17844	0	316
-54.309	2.164	16371	18350	0	316
-62.676	-4.364	16371	18743	0	316
-70.141	-7.429	16379	18968	0	316
-72.845	-7.357	16384	19192	0	316
-70.790	-5.698	16384	19249	0	316
-67.905	-4.183	16384	18968	0	316
-67.111	-7.212	16384	18462	0	316
-69.888	-10.602	16384	17900	0	316
-72.485	-12.946	16384	17395	0	316
-70.429	-12.333	16384	16889	0	316
-65.849	-6.455	16379	16384	0	316
-61.738	-0.938	16379	15879	0	316
-64.010	1.623	16371	15373	0	316
-69.167	0.902	16371	14924	0	316
-72.773	-0.036	16371	14418	0	316
-71.042	1.190	16366	13969	0	316
-64.731	4.183	16366	13688	0	316
-57.339	7.934	16357	13576	0	316
-54.201	9.881	16357	13463	0	316
-53.949	8.222	16352	13463	0	316
-56.653	6.383	16352	13800	0	316
-61.197	2.200	16352	14418	0	316
-64.623	-1.839	16352	14980	0	316
-66.931	-4.400	16357	15486	0	316
-65.777	-2.272	16357	16216	0	316
-63.217	2.777	16366	17170	0	316
-60.909	8.222	16371	18069	0	316
-63.469	8.439	16379	18631	0	316
-67.472	4.400	16384	19024	0	316
-73.134	-3.606	16389	19473	0	316
-73.927	-8.402	16389	19810	0	316
-72.557	-10.350	16397	19698	0	316
-68.590	-8.979	16397	19305	0	316
-62.640	-6.996	16397	18743	0	316
-60.440	-4.508	16397	18181	0	316
-60.079	-4.003	16397	17676	1	516
-64.407	-2.272	16397	17282	0	516
-69.023	-3.534	16397	17001	0	516
-72.052	-6.131	16389	16664	0	516
-71.042	-9.629	16389	16384	0	516
-65.597	-9.917	16389	16216	0	516
-59.358	-7.176	16389	16047	0	516
-56.149	-2.164	16389	15879	0	516
-57.880	2.452	16389	15654	0	516
-59.538	4.039	16389	15429	0	516
-59.070	3.823	16389	15261	0	516
-55.247	3.534	16389	15373	0	516
-49.225	6.996	16384	15429	0	516
-43.779	9.592	16384	15261	0	516
-43.419	11.756	16384	15036	0	516
-46.700	9.160	16384	15036	0	516
-53.300	3.787	16384	15149	0	516
-60.224	-3.246	16384	15317	0	516
-66.931	-8.439	16384	15710	0	516
-71.583	-11.937	16389	16440	0	516
-70.465	-11.287	16397	17282	0	516
-67.797	-9.448	16402	17957	0	516
-64.118	-7.393	16411	18462	0	516
-62.856	-5.662	16416	18799	0	516
-63.866	-5.049	16416	18799	0	516
-64.299	-7.753	16416	18406	0	516
-65.705	-8.655	16416	17900	0	516
-65.417	-10.710	16411	17395	0	516
-65.777	-11.612	16411	16833	0	516
-68.374	-12.622	16402	16272	0	516
-70.105	-13.920	16402	15654	0	516
-67.977	-11.251	16397	15092	0	516
-62.532	-7.609	16389	14643	0	516
-55.247	-1.262	16389	14193	0	516
-50.018	4.183	16384	13800	0	516
-48.972	5.878	16379	13463	0	516
-49.189	5.085	16379	13238	0	516
-49.621	5.229	16371	13182	0	516
-46.195	7.537	16371	13182	0	516
-44.392	10.350	16366	13351	0	516
-44.573	11.900	16366	13744	0	516
-50.523	9.629	16366	13969	0	516
-58.240	3.642	16366	14193	0	516
-63.577	-1.659	16366	14699	0	516
-65.777	-4.940	16366	15429	0	516
-65.994	-5.301	16371	15991	0	516
-64.299	-5.445	16379	16384	0	516
-65.056	-4.147	16379	16833	0	516
-65.813	-4.436	16384	17339	0	516
-66.751	-4.940	16384	17676	0	516
-68.193	-6.708	16384	17732	0	516
-70.862	-8.222	16384	17619	0	516
-72.340	-9.917	16384	17451	0	516
-73.999	-10.927	16384	17170	0	516
-73.530	-9.845	16379	17001	0	516
-72.340	-6.203	16379	16889	0	516
-68.734	-2.560	16379	16721	0	516
-66.679	0.325	16379	16384	0	516
-62.820	1.298	16371	16160	0	516
-61.738	1.334	16371	15991	0	516
-60.909	-0.829	16371	15935	0	516
-61.197	-3.354	16366	15767	0	516
-58.961	-3.282	16366	15598	0	516
-56.906	-3.101	16366	15542	0	516
-51.569	-1.731	16366	15767	0	516
-48.035	0.649	16366	16272	0	516
-44.897	1.695	16366	16664	0	516
-46.772	-0.865	16371	17058	0	516
-51.244	-6.383	16371	17619	0	516
-57.194	-14.281	16379	18294	0	516
-64.046	-19.365	16384	18743	0	516
-65.453	-23.909	16384	18968	0	516
-64.695	-22.395	16389	19305	0	516
-61.233	-19.690	16397	19698	0	516
-57.771	-17.238	16402	19867	0	516
-57.194	-17.129	16402	19586	0	516
-55.644	-19.185	16402	19080	0	516
-54.129	-20.267	16402	18575	0	516
-50.487	-20.447	16402	18013	0	516
-45.222	-17.418	16402	17507	1	316
-40.822	-13.343	16397	17058	0	316
-38.947	-10.891	16397	16496	0	316
-40.462	-12.622	16397	15991	0	316
-43.238	-16.697	16389	15373	0	316
-43.743	-19.473	16384	14811	0	316
-42.445	-18.320	16384	14306	0	316
-37.252	-14.136	16379	13969	0	316
-31.771	-7.032	16379	13744	0	316
-27.443	-2.921	16371	13632	0	316
-25.784	-1.839	16371	13913	0	316
-24.378	-3.246	16379	14531	0	316
-25.135	-4.580	16379	14980	0	316
-26.109	-7.537	16379	15317	0	316
-27.443	-9.448	16379	15710	0	316
-30.184	-12.730	16384	16328	0	316
-32.239	-14.425	16384	16833	0	316
-34.800	-17.129	16389	17226	0	316
-37.685	-18.824	16397	17788	0	316
-41.219	-20.736	16397	18237	0	316
-43.671	-22.575	16402	18462	0	316
-44.753	-23.765	16402	18350	0	316
-42.661	-22.503	16402	18013	0	316
-39.416	-20.700	16402	17507	0	316
-37.396	-18.644	16402	16945	0	316
-35.629	-17.454	16397	16384	0	316
-36.062	-17.815	16384	15767	0	316
-37.793	-20.988	16384	15205	0	316
-38.947	-23.693	16379	14755	0	316
-39.235	-24.522	16384	14418	0	316
-37.577	-22.827	16379	14137	0	316
-35.449	-18.356	16371	13856	0	316
-31.194	-13.559	16371	13632	0	316
-26.758	-9.268	16366	13463	0	316
-24.378	-6.275	16366	13519	0	316
-22.503	-2.416	16357	13800	0	316
-21.601	0.361	16357	14306	0	316
-23.909	2.633	16357	14699	0	316
-26.001	1.298	16357	14980	0	316
-28.814	-2.164	16357	15486	0	316
-32.239	-6.131	16366	16104	0	316
-35.665	-10.710	16366	16496	0	316
-38.154	-11.900	16366	16833	0	316
-39.776	-13.127	16371	17282	0	316
-41.976	-14.208	16371	17732	0	316
-43.238	-16.228	16371	17844	0	316
-44.104	-18.428	16371	17788	0	316
-46.268	-20.014	16379	17900	0	316
-47.133	-21.457	16379	18294	0	316
-48.972	-23.260	16379	18575	0	316
-51.280	-24.594	16384	18575	0	316
-52.470	-27.768	16384	18406	0	316
-50.992	-27.912	16384	18237	0	316
-47.818	-27.732	16384	18069	0	316
-43.887	-25.676	16384	17732	0	316
-41.543	-24.739	16384	17339	0	316
-38.875	-21.745	16379	17001	0	316
-36.711	-18.103	16379	16608	0	316
-32.816	-12.982	16379	16216	0	316
-30.328	-9.520	16371	15654	0	316
-31.374	-8.943	16366	15261	0	316
-47.277	-56.437	16384	18575	0	316
-49.838	-57.447	16384	18968	0	316
-48.323	-56.545	16389	19192	0	316
-45.691	-54.021	16389	19136	0	316
-39.993	-48.936	16397	18799	0	316
-32.961	-41.904	16389	18237	0	316
-28.525	-35.990	16389	17676	0	316
-24.991	-32.456	16389	17170	0	316
-23.657	-31.662	16389	16777	0	316
-22.755	-31.699	16389	16496	0	316
-21.277	-29.859	16389	16328	0	316
-19.942	-27.948	16389	16216	0	316
-19.437	-26.289	16389	16104	0	316
-18.860	-25.027	16389	15935	0	316
-18.283	-27.119	16389	15710	0	316
-16.805	-28.958	16384	15373	0	316
-15.723	-30.040	16384	15092	0	316
-15.687	-31.266	16384	15092	0	316
-16.336	-29.499	16384	15373	0	316
-17.923	-29.138	16384	15486	0	316
-19.473	-30.833	16384	15429	0	316
-20.303	-31.951	16384	15598	0	316
-21.637	-35.665	16389	16104	0	316
-22.070	-36.928	16397	16777	0	316
-22.647	-38.334	16397	17339	0	316
-23.801	-39.380	16402	17788	0	316
-28.633	-44.140	16411	18237	0	316
-34.547	-50.126	16416	18406	0	316
-41.507	-57.158	16416	18406	0	316
-44.464	-61.991	16424	18350	0	316
-43.238	-61.630	16416	18237	0	316
-40.678	-59.286	16424	18013	0	316
-38.875	-57.014	16416	17619	0	316
-39.055	-57.988	16416	17058	0	316
-43.274	-60.873	16416	16440	0	316
-46.628	-66.138	16411	15935	0	316
-48.612	-68.662	16411	15429	0	316
-48.792	-67.580	16402	14980	0	316
-44.140	-62.495	16402	14531	0	316
-38.190	-56.906	16397	13969	0	316
-31.626	-52.001	16389	13407	0	316
-27.227	-47.926	16389	12958	0	316
-25.388	-47.458	16384	12845	0	316
-26.001	-46.881	16384	13070	0	316
-28.777	-50.090	16384	13351	0	316
-32.636	-53.805	16384	13688	0	316
-36.062	-58.384	16384	14250	0	316
-38.406	-59.466	16384	15036	0	316
-37.685	-58.889	16389	15654	0	316
-36.026	-54.670	16389	16104	0	316
-34.944	-52.939	16397	16496	0	316
-35.016	-52.867	16397	17114	0	316
-36.314	-55.031	16402	17507	0	316
-37.288	-58.060	16402	17619	0	316
-38.803	-60.945	16402	17507	0	316
-39.055	-64.695	16402	17282	0	316
-39.524	-66.643	16397	17001	0	316
-37.000	-67.039	16397	16608	0	316
-34.764	-65.308	16397	16272	0	316
-32.528	-64.515	16384	15823	0	316
-33.898	-65.056	16384	15486	0	316
-37.360	-68.410	16379	15261	0	316
-43.743	-73.927	16384	14980	0	316
-47.782	-79.517	16379	14868	0	316
-49.802	-79.661	16379	14811	0	316
-48.107	-79.336	16371	14643	0	316
-46.700	-76.343	16371	14418	0	316
-45.294	-73.999	16366	14081	0	316
-45.655	-73.530	16357	13744	0	316
-46.700	-75.153	16352	13463	0	316
-47.530	-76.488	16344	13407	0	316
-46.809	-75.911	16344	13744	0	316
-45.222	-75.550	16344	14306	0	316
-47.169	-73.927	16344	14755	0	316
-49.153	-75.081	16344	15205	0	316
-52.651	-76.632	16344	15823	0	316
-54.345	-79.769	16352	16608	0	316
-52.074	-79.300	16357	17339	0	316
-47.566	-78.182	16366	17732	0	316
-44.609	-76.560	16366	18125	0	316
-43.599	-76.163	16366	18575	0	316
-46.087	-78.651	16366	18799	0	316
-47.890	-80.454	16371	18855	0	316
-46.340	-82.294	16371	18912	0	316
-45.114	-80.130	16371	19024	0	316
-43.599	-80.274	16371	19024	0	316
-47.169	-80.671	16379	18912	0	316
-52.614	-84.385	16379	18631	0	316
-56.581	-86.621	16371	18181	0	316
-56.473	-86.188	16371	17732	0	316
-51.424	-82.330	16371	17226	0	316
-44.609	-76.740	16366	16721	0	316
-40.101	-74.324	16366	16328	0	316
-40.281	-73.170	16357	15879	0	316
-41.868	-75.370	16357	15598	0	316
-43.383	-75.838	16352	15429	0	316
-43.887	-76.307	16352	15598	0	316
-41.363	-75.442	16366	15935	0	316
-41.363	-76.488	16366	16216	0	316
-43.996	-78.543	16366	16384	0	316
-49.297	-82.654	16366	16552	0	316
-55.788	-86.116	16366	17001	0	316
-61.017	-88.713	16371	17282	0	316
-60.043	-87.919	16371	17451	0	316
-54.201	-84.746	16379	17732	0	316
-46.628	-79.409	16379	18069	0	316
-41.652	-76.632	16384	18294	0	316
-41.652	-75.298	16384	18237	0	316
-46.556	-74.288	16384	18013	0	316
-49.225	-74.360	16384	17619	0	316
-46.628	-71.259	16379	17114	0	316
-41.435	-68.229	16379	16608	0	316
-36.170	-65.921	16379	16216	0	316
-33.682	-63.072	16371	15935	0	316
-35.377	-63.722	16371	15598	0	316
-38.658	-63.722	16366	15205	0	316
-41.399	-66.102	16366	14811	0	316
-43.996	-68.085	16357	14418	0	316
-43.130	-68.013	16357	14137	0	316
-40.966	-66.282	16352	14025	0	316
-38.154	-61.955	16352	14081	0	316
-38.947	-62.027	16352	14474	0	316
-43.130	-64.803	16357	15092	0	316
-50.884	-70.537	16366	15710	0	316
-56.509	-74.684	16366	16160	0	316
-57.663	-74.360	16366	16552	0	316
-55.788	-72.052	16371	17058	0	316
-52.939	-69.131	16371	17451	0	316
-51.641	-67.652	16379	17676	0	316
-52.110	-68.265	16379	18181	0	316
-54.057	-69.888	16389	18968	0	316
-54.237	-69.888	16397	19754	0	316
-54.418	-69.708	16402	20204	0	316
-52.795	-68.338	16411	20372	0	316
-49.297	-63.686	16411	20541	0	316
-45.114	-56.870	16416	20709	0	316
-42.120	-52.723	16424	20485	0	316
-40.498	-50.884	16416	19979	0	316
-40.029	-50.234	16416	19361	0	316
-40.786	-50.703	16424	18799	0	316
-38.298	-49.874	16424	18237	1	844
-37.288	-47.962	16424	17619	0	844
-38.839	-49.838	16424	17114	0	844
-43.743	-54.922	16424	16664	0	844
-51.929	-60.981	16424	16384	0	844
-58.493	-65.453	16424	16272	0	844
-61.774	-68.193	16424	16384	0	844
-63.613	-68.013	16424	16496	0	844
-64.154	-69.419	16424	16496	0	844
-66.679	-73.386	16429	16384	0	844
-69.744	-77.714	16429	16384	0	844
-72.449	-81.897	16429	16440	0	844
-75.261	-85.864	16438	16384	0	844
-77.245	-87.847	16429	16104	0	844
-81.103	-89.434	16438	15991	0	844
-82.690	-90.011	16429	15991	0	844
-82.546	-88.063	16429	15823	0	844
-79.661	-83.844	16429	15486	0	844
-74.324	-78.327	16429	15429	0	844
-68.446	-72.845	16438	15429	0	844
-64.299	-68.338	16429	15261	0	844
-60.512	-63.866	16429	14811	0	844
-58.024	-60.692	16429	14306	0	844
-55.752	-55.932	16416	13913	0	844
-55.499	-53.696	16411	13463	0	844
-57.988	-53.552	16411	13182	0	844
-60.512	-54.995	16402	12958	0	844
-62.315	-56.545	16402	12845	0	844
-61.774	-58.132	16397	12733	0	844
-57.627	-56.185	16397	12620	0	844
-54.959	-55.536	16389	12620	0	844
-53.264	-55.788	16384	12677	0	844
-54.598	-57.591	16384	12845	0	844
-56.329	-61.378	16379	12901	0	844
-58.889	-64.118	16379	13070	0	844
-62.495	-68.301	16379	13519	0	844
-68.446	-74.107	16379	14250	0	844
-73.747	-78.976	16379	14811	0	844
-75.658	-82.438	16379	15205	0	844
-76.091	-82.690	16379	15654	0	844
-72.773	-80.779	16379	16216	0	844
-70.321	-78.471	16379	16440	0	844
-69.636	-78.759	16379	16608	0	844
-70.393	-78.435	16384	16945	0	844
-69.960	-78.796	16384	17507	0	844
-68.951	-76.632	16384	17900	0	844
-67.328	-72.917	16389	18069	0	844
-64.118	-70.573	16389	18125	0	844
-61.810	-67.184	16389	18181	0	844
-60.115	-63.938	16389	18013	0	844
-57.266	-62.892	16389	17788	0	844
-55.067	-60.260	16384	17451	0	844
-50.811	-58.024	16384	17170	0	844
-46.448	-55.499	16384	17001	0	844
-43.455	-52.687	16384	16833	0	844
-42.950	-51.929	16379	16552	0	844
-44.501	-54.237	16379	16272	0	844
-47.818	-59.034	16371	16047	0	844
-50.198	-65.813	16371	15879	0	844
-51.857	-69.419	16371	15879	0	844
-53.155	-72.196	16371	16104	0	844
-56.834	-75.478	16371	16440	0	844
-62.135	-80.671	16371	16664	0	844
-66.895	-86.621	16371	16721	0	844
-68.338	-91.057	16379	16945	0	844
-64.803	-91.561	16379	17507	0	844
-60.368	-89.001	16384	18181	0	844
-59.034	-87.955	16389	18575	0	844
-63.361	-90.516	16389	18855	0	844
-68.229	-94.663	16397	19024	0	844
-72.413	-97.440	16397	19080	0	844
-70.177	-98.666	16397	18799	0	844
-65.777	-95.745	16397	18350	0	844
-60.837	-93.329	16397	17788	0	844
-57.952	-90.948	16397	17114	0	844
-58.420	-90.155	16389	16440	0	844
-61.774	-90.804	16389	15879	0	844
-64.371	-92.752	16384	15429	0	844
-66.102	-93.292	16384	15036	0	844
-63.036	-92.102	16379	14699	0	844
-54.598	-86.982	16379	14474	0	844
-44.501	-79.517	16371	14193	0	844
-36.567	-70.285	16366	13913	0	844
-33.069	-63.217	16366	13632	0	844
-35.016	-61.197	16357	13407	0	844
-39.885	-61.522	16357	13576	0	844
-43.094	-64.840	16357	14081	0	844
-43.310	-67.761	16357	14531	0	844
-43.058	-66.571	16357	14699	0	844
-43.707	-65.056	16357	14924	0	844
-48.071	-65.705	16357	15429	0	844
-54.959	-68.518	16357	15935	0	844
-59.394	-70.537	16366	16216	0	844
-60.692	-70.862	16366	16608	0	844
-60.115	-69.059	16366	17226	0	844
-59.538	-67.184	16371	17619	0	844
-61.702	-69.167	16371	17676	0	844
-67.003	-74.829	16371	17451	0	844
-72.413	-80.418	16366	17170	0	844
-76.127	-82.474	16366	16833	0	844
-77.353	-82.149	16366	16608	0	844
-79.192	-78.759	16357	16440	0	844
-78.723	-76.956	16357	16384	0	844
-81.825	-77.209	16357	16104	0	844
-84.061	-80.346	16352	15823	0	844
-84.926	-81.680	16366	15767	0	844
-82.041	-80.707	16357	15935	0	844
-75.730	-74.576	16357	16160	0	844
-71.295	-67.400	16357	16272	0	844
-69.996	-61.702	16352	16272	0	844
-73.855	-61.089	16352	16272	0	844
-78.759	-61.089	16352	16272	0	844
-80.779	-62.171	16352	16272	0	844
-79.481	-59.899	16352	16328	0	844
-75.550	-57.663	16352	16552	0	844
-74.324	-55.175	16357	17226	0	844
-74.504	-55.211	16357	17788	0	844
-75.911	-55.031	16371	18125	0	844
-74.432	-53.624	16379	18631	0	844
-73.567	-50.379	16379	19192	0	844
-72.052	-48.864	16384	19530	0	844
-75.370	-50.956	16389	19642	0	844
-81.212	-55.752	16397	19867	0	844
-86.801	-59.755	16397	20148	0	844
-88.388	-60.151	16397	20148	0	844
-86.152	-57.555	16397	19754	0	844
-83.484	-52.687	16397	19192	0	844
-81.861	-51.316	16397	18575	0	844
-84.565	-52.218	16397	17900	0	844
-86.801	-53.300	16397	17170	1	516
-87.486	-52.795	16389	16384	0	516
-85.539	-50.126	16384	15654	0	516
-82.546	-47.494	16384	14980	0	516
-78.002	-42.986	16379	14531	0	516
-75.225	-39.452	16379	14250	0	516
-72.521	-34.800	16371	14081	0	516
-71.439	-32.276	16371	13856	0	516
-71.295	-28.597	16371	13744	0	516
-71.114	-26.470	16366	13632	0	516
-69.852	-25.171	16366	13519	0	516
-68.049	-23.657	16366	13463	0	516
-67.364	-23.044	16366	13463	0	516
-68.013	-24.594	16357	13519	0	516
-69.455	-24.558	16357	13688	0	516
-71.078	-23.044	16357	14137	0	516
-71.583	-23.621	16357	14755	0	516
-72.340	-22.611	16357	15261	0	516
-75.334	-23.549	16366	15823	0	516
-78.182	-25.784	16366	16384	0	516
-80.094	-24.739	16371	16889	0	516
-81.680	-22.286	16371	17282	0	516
-79.841	-18.175	16371	17563	0	516
-78.687	-15.867	16371	17676	0	516
-78.002	-16.120	16371	17563	0	516
-78.291	-18.175	16371	17339	0	516
-77.786	-20.050	16371	17058	0	516
-77.173	-19.762	16371	16833	0	516
-75.117	-17.021	16366	16552	0	516
-72.593	-13.740	16366	16328	0	516
-70.069	-10.674	16366	16047	0	516
-66.931	-8.078	16366	15823	0	516
-63.866	-4.868	16366	15542	0	516
-60.692	-0.865	16366	15261	0	516
-58.348	2.813	16357	15149	0	516
-57.050	4.508	16357	15373	0	516
-59.647	5.445	16357	15935	0	516
-61.450	3.787	16357	16440	0	516
-65.056	2.128	16366	16833	0	516
-67.761	-0.613	16371	17507	0	516
-73.062	-4.327	16379	18462	0	516
-76.956	-7.753	16384	19305	0	516
-82.077	-11.143	16389	19698	0	516
-83.952	-11.287	16389	19754	0	516
-82.979	-9.016	16397	19754	0	516
-81.176	-5.517	16397	19586	0	516
-80.671	-4.039	16397	19249	0	516
-83.736	-4.832	16402	18799	0	516
-86.549	-6.816	16402	18350	0	516
-87.559	-8.366	16397	17900	0	516
-86.729	-7.140	16397	17451	0	516
-84.493	-4.111	16397	17001	0	516
-81.500	-2.885	16397	16440	0	516
-80.635	0.000	16389	15935	0	516
-77.425	1.983	16389	15373	0	516
-74.612	5.698	16384	14811	0	516
-70.934	9.737	16384	14306	0	516
-68.446	12.658	16379	14025	0	516
-66.571	14.317	16379	13800	0	516
-66.390	15.615	16371	13800	0	516
-64.226	18.283	16371	14193	0	516
-62.964	22.286	16379	14643	0	516
-62.495	24.883	16379	14980	0	516
-61.810	26.109	16379	15261	0	516
-64.515	23.909	16379	15654	0	516
-65.525	22.539	16379	16104	0	516
-67.652	21.024	16384	16384	0	516
-68.446	19.942	16384	16496	0	516
-69.816	19.618	16384	16777	0	516
-72.629	18.031	16389	17170	0	516
-75.117	16.264	16389	17395	0	516
-76.163	14.821	16389	17339	0	516
-74.071	15.074	16389	17114	0	516
-70.465	17.021	16389	16777	0	516
-65.489	19.257	16389	16440	0	516
-60.115	22.791	16384	16160	0	516
-57.699	26.145	16384	15710	0	516
-56.004	28.633	16379	15261	0	516
-56.149	28.309	16371	14811	0	516
-57.339	28.597	16371	14474	0	516
-58.276	28.273	16366	14193	0	516
-59.430	28.453	16357	13969	0	516
-59.250	30.148	16357	13856	0	516
-57.483	32.997	16352	13856	0	516
-57.194	33.285	16352	13913	0	516
-54.490	34.764	16344	13913	0	516
-51.713	37.000	16344	13913	0	516
-49.730	38.803	16339	13856	0	516
-49.693	41.183	16339	13856	0	516
-50.884	40.101	16339	14250	0	516
-54.309	36.639	16339	14924	0	516
-58.925	32.961	16339	15598	0	516
-59.574	31.230	16344	16216	0	516
-57.952	32.636	16344	17001	0	516
-56.545	34.439	16352	17900	0	516
-55.536	33.141	16357	18518	0	516
-56.401	29.138	16357	18855	0	516
-58.637	24.558	16366	19249	0	516
-59.142	23.693	16371	19698	0	516
-59.106	25.243	16379	20035	0	516
-57.699	28.850	16384	20148	0	516
-56.221	32.816	16384	20091	0	516
-54.814	34.728	16389	19979	0	516
-54.382	37.757	16389	19698	0	516
-54.273	40.786	16389	19305	0	516
-56.004	42.661	16384	18799	1	420
-57.591	45.546	16384	18294	0	420
-56.509	47.097	16384	17844	0	420
-53.552	49.405	16379	17395	0	420
-49.874	51.785	16384	16833	0	420
-46.917	52.254	16379	16328	0	420
-46.412	49.693	16379	15767	0	420
-47.999	46.484	16371	15317	0	420
-50.811	40.858	16371	14980	0	420
-54.093	37.216	16379	14980	0	420
-56.545	34.692	16371	15317	0	420
-59.214	33.249	16371	15598	0	420
-61.918	30.148	16379	15823	0	420
-62.964	26.433	16379	16272	0	420
-65.020	21.313	16384	16833	0	420
-66.282	18.824	16384	17226	0	420
-63.902	18.788	16389	17282	0	420
-62.135	20.014	16389	17395	0	420
-57.916	21.241	16397	17788	0	420
-56.113	19.978	16397	18069	0	420
-55.499	18.536	16397	18181	0	420
-56.257	19.293	16402	18125	0	420
-56.293	21.204	16411	18069	0	420
-55.355	25.604	16402	18013	0	420
-53.841	26.794	16402	17900	0	420
-52.939	28.237	16402	17676	0	420
-50.559	28.381	16411	17451	0	420
-46.448	31.158	16411	17170	0	420
-42.842	35.305	16411	16889	0	420
-40.137	37.865	16411	16608	0	420
-41.904	35.774	16411	16384	0	420
-43.310	31.735	16411	16047	0	420
-42.842	29.535	16402	15654	0	420
-36.747	30.472	16402	15373	0	420
-30.148	36.351	16402	15205	0	420
-26.758	39.452	16402	15261	0	420
-29.607	36.603	16402	15261	0	420
-36.855	29.643	16402	15317	0	420
-43.815	22.647	16411	15598	0	420
-47.746	18.933	16411	16216	0	420
-47.890	18.320	16411	16721	0	420
-46.628	18.572	16416	17058	0	420
-46.917	17.670	16424	17451	0	420
-46.700	14.136	16424	17900	0	420
-49.477	12.225	16429	18125	0	420
-52.110	12.622	16438	18069	0	420
-54.057	15.759	16438	18125	0	420
-53.732	18.969	16438	18294	0	420
-53.011	21.818	16443	18237	0	420
-50.307	21.637	16443	17900	0	420
-49.225	20.591	16443	17507	0	420
-49.044	19.690	16443	17001	0	420
-50.307	20.339	16443	16552	0	420
-50.090	23.404	16438	16216	0	420
-48.251	25.856	16438	15879	0	420
-47.422	27.227	16429	15542	0	420
-46.592	28.092	16429	15205	0	420
-48.612	27.587	16429	14924	0	420
-51.641	27.840	16429	14643	0	420
-54.670	30.112	16424	14362	0	420
-55.536	31.446	16424	14081	0	420
-55.499	33.357	16416	13800	0	420
-52.939	34.403	16411	13576	0	420
-50.487	34.980	16416	13576	0	420
-50.234	35.701	16416	13744	0	420
-52.326	35.846	16402	13913	0	420
-55.860	34.872	16402	13969	0	420
-59.394	33.826	16402	14193	0	420
-60.512	32.997	16402	14531	0	420
-61.053	32.239	16402	14699	0	420
-61.594	29.895	16402	14643	0	420
-64.515	25.676	16402	14755	0	420
-68.049	20.483	16402	15036	0	420
-70.573	15.975	16402	15317	0	420
-70.177	14.533	16402	15486	0	420
-67.003	15.651	16402	15542	0	420
-64.767	19.149	16397	15542	0	420
-64.407	21.349	16397	15317	0	420
-63.902	23.332	16389	14924	0	420
-65.705	22.827	16384	14474	0	420
-66.174	21.998	16384	14193	0	420
-62.459	22.791	16379	14193	0	420
-59.286	24.198	16371	14250	0	420
-56.942	27.047	16371	14193	0	420
-54.598	29.607	16366	14081	0	420
-55.211	31.626	16357	13969	0	420
-55.463	31.735	16357	13969	0	420
-54.129	34.187	16352	14137	0	420
-53.011	35.557	16352	14474	0	420
-50.920	36.387	16352	14980	0	420
-50.162	35.990	16344	15205	0	420
-48.251	34.439	16344	15317	0	420
-47.854	32.708	16352	15542	0	420
-48.648	29.391	16357	16047	0	420
-51.172	26.758	16352	16496	0	420
-55.968	22.250	16352	17001	0	420
-59.719	18.644	16352	17676	0	420
-62.856	15.831	16357	18518	0	420
-65.597	15.362	16366	19192	0	420
-68.662	15.362	16366	19586	0	420
-71.150	14.749	16371	19754	0	420
-70.213	15.290	16371	19698	0	420
-66.210	15.687	16371	19361	0	420
-59.502	17.129	16371	18968	0	420
-55.752	19.834	16371	18631	0	420
-55.319	21.313	16366	18237	1	420
-55.499	21.493	16366	17732	0	420
-55.499	21.890	16357	17114	0	420
-52.578	22.683	16357	16608	0	420
-48.612	26.686	16357	16160	0	420
-46.556	30.040	16352	15654	0	420
-46.304	33.718	16344	15261	0	420
-47.277	35.413	16344	14980	0	420
-47.061	35.305	16344	15149	0	420
-44.969	35.521	16344	15710	0	420
-44.609	36.062	16344	16328	0	420
-44.464	36.423	16352	16889	0	420
-46.592	35.124	16357	17844	0	420
-49.225	32.997	16371	19024	0	420
-49.297	31.410	16379	20035	0	420
-48.539	30.797	16384	20597	0	420
-47.458	29.931	16389	20990	0	420
-48.359	28.994	16397	21384	0	420
-50.487	27.263	16402	21440	0	420
-54.345	22.935	16411	21103	0	420
-56.329	20.195	16411	20485	0	420
-58.601	18.320	16411	19642	0	420
-59.611	16.769	16411	18799	0	420
-60.945	15.615	16402	18013	0	420
-63.686	13.343	16402	17226	0	420
-64.695	12.694	16402	16552	0	420
-65.272	12.225	16397	15935	0	420
-64.190	14.497	16397	15261	0	420
-60.873	16.805	16389	14755	0	420
-57.699	19.257	16389	14418	0	420
-55.031	21.132	16389	14137	0	420
-53.300	22.755	16384	13913	0	420
-53.155	23.837	16384	14025	0	420
-53.913	24.306	16389	14474	0	420
-53.949	26.073	16389	15036	0	420
-53.516	26.578	16389	15429	0	420
-51.100	30.112	16397	15598	0	420
-46.556	33.718	16397	15879	0	420
-42.337	36.278	16402	16272	0	420
-40.498	37.252	16402	16440	0	420
-39.416	36.459	16402	16552	0	420
-41.688	35.269	16402	16777	0	420
-42.986	32.925	16402	17170	0	420
-44.861	29.859	16411	17339	0	420
-47.349	26.614	16411	17226	0	420
-50.343	23.801	16411	17001	0	420
-53.552	20.159	16411	16721	0	420
-54.995	18.716	16411	16440	0	420
-54.345	17.779	16411	16160	0	420
-50.920	18.716	16402	15823	0	420
-48.864	20.772	16402	15486	0	420
-46.268	21.673	16397	15092	0	420
-46.195	23.765	16397	14755	0	420
-45.582	24.558	16389	14418	0	420
-42.770	25.460	16389	14025	0	420
-40.822	28.345	16384	13519	0	420
-37.829	31.158	16379	13014	0	420
-38.550	30.653	16371	12620	0	420
-39.560	28.814	16366	12452	0	420
-41.616	25.820	16357	12452	0	420
-39.127	22.575	16357	12508	0	420
-33.898	22.539	16352	12677	0	420
-29.246	25.748	16352	13070	0	420
-26.758	28.237	16352	13744	0	420
-28.381	30.545	16352	14418	0	420
-32.095	31.302	16352	14811	0	420
-32.636	30.148	16352	15205	0	420
-32.131	29.102	16357	15710	0	420
-30.256	27.984	16357	16216	0	420
-29.427	24.811	16357	16496	0	420
-31.158	22.719	16357	16889	0	420
-31.374	20.447	16366	17451	0	420
-33.177	18.428	16366	17788	0	420
-33.970	17.562	16366	17844	0	420
-36.459	16.084	16366	17900	0	420
-38.875	14.749	16366	17844	0	420
-39.272	15.218	16357	17788	0	420
-37.216	16.552	16357	17676	0	420
-34.439	18.680	16357	17563	0	420
-32.780	19.798	16357	17507	1	316
-32.672	21.313	16357	17451	0	316
-32.456	22.863	16357	17451	0	316
-30.220	27.083	16357	17563	0	316
-27.948	31.374	16366	17507	0	316
-25.496	34.439	16371	17226	0	316
-27.407	33.574	16357	16833	0	316
-31.013	29.535	16357	16552	0	316
-36.062	26.181	16357	16552	0	316
-36.639	26.830	16357	16889	0	316
-32.348	29.931	16357	17226	0	316
-26.686	34.944	16366	17339	0	316
-22.106	35.016	16366	17395	0	316
-24.739	28.381	16366	17563	0	316
-31.662	18.139	16366	17844	0	316
-38.803	8.871	16371	18069	0	316
-40.245	5.409	16379	18350	0	316
-36.459	5.337	16384	19024	0	316
-31.410	7.393	16389	19754	0	316
-29.354	8.619	16397	20035	0	316
-30.256	10.097	16397	19979	0	316
-31.843	14.858	16402	19642	0	316
-29.030	21.998	16402	19249	0	316
-26.037	26.686	16402	18743	0	316
-22.899	27.948	16402	18013	0	316
-24.234	24.306	16397	17226	0	316
-26.433	20.772	16397	16496	0	316
-26.722	23.512	16389	15879	0	316
-22.972	26.830	16389	15205	0	316
-16.408	30.508	16384	14699	0	316
-12.946	28.994	16384	14362	0	316
-15.290	25.027	16379	14137	0	316
-19.546	20.014	16379	13969	0	316
-23.981	17.743	16379	13913	0	316
-22.791	19.257	16379	14137	0	316
-18.356	23.296	16371	14306	0	316
-14.100	25.604	16379	14587	0	316
-11.071	26.830	16379	15205	0	316
-13.054	26.866	16384	16216	0	316
-15.723	23.044	16389	17282	0	316
-18.247	19.041	16402	18125	0	316
-20.808	14.894	16411	18912	0	316
-22.503	10.350	16416	19698	0	316
-21.745	9.268	16424	20035	0	316
-21.132	11.251	16424	19923	0	316
-18.211	15.290	16429	19530	0	316
-16.625	19.942	16424	18968	0	316
-17.634	20.772	16424	18237	0	316
-20.591	18.139	16416	17395	0	316
-25.676	13.595	16416	16496	0	316
-29.607	10.927	16411	15767	0	316
-30.617	11.973	16411	14980	0	316
-28.489	16.156	16402	14306	0	316
-24.342	20.844	16397	13913	0	316
-21.818	26.361	16397	13576	0	316
-19.726	27.624	16389	13407	0	316
-18.572	28.164	16389	13295	0	316
-18.608	28.273	16389	13238	0	316
-18.897	28.309	16389	13519	0	316
-19.726	27.263	16389	14081	0	316
-21.998	24.919	16389	14699	0	316
-26.794	22.286	16389	15205	0	316
-31.049	19.437	16397	15710	0	316
-36.495	16.733	16397	16216	0	316
-40.966	16.805	16402	16496	0	316
-44.104	16.264	16402	16664	0	316
-43.960	16.697	16397	16945	0	316
-43.274	17.021	16402	17451	0	316
-41.399	18.211	16402	17732	0	316
-39.380	18.464	16411	17732	0	316
-38.695	16.733	16411	17507	0	316
-40.570	14.677	16411	17226	0	316
-42.409	10.458	16402	16889	0	316
-44.104	8.439	16402	16664	0	316
-46.340	5.914	16402	16384	0	316
-46.159	6.816	16402	16104	0	316
-44.068	7.104	16397	15654	0	316
-42.806	9.376	16397	15149	0	316
-41.796	9.701	16389	14699	0	316
-42.084	10.602	16384	14306	0	316
-43.671	10.386	16384	13969	0	316
-41.652	12.153	16379	13744	0	316
-36.891	16.120	16371	13576	0	316
-28.597	22.142	16366	13351	0	316
-21.926	26.325	16366	13182	0	316
-21.998	25.279	16357	13014	0	316
-28.417	20.664	16352	13070	0	316
-33.790	13.992	16352	13407	0	316
-37.072	8.619	16352	14137	0	316
-35.990	7.753	16352	14811	0	316
-33.538	6.671	16352	15373	0	316
-33.033	4.977	16357	16104	0	316
-35.197	2.849	16366	16833	0	316
-37.180	1.911	16371	17395	0	316
-36.278	2.272	16371	17788	0	316
-33.934	2.524	16371	18181	0	316
-30.581	3.895	16379	18575	0	316
-28.273	4.652	16379	18799	0	316
-26.686	6.419	16379	18855	0	316
-25.820	7.898	16384	18968	0	316
-24.955	9.773	16384	19080	0	316
-24.630	10.278	16389	19136	0	316
-21.818	9.809	16389	19136	0	316
-19.149	12.333	16389	19024	0	316
-15.254	14.136	16389	18743	0	316
-11.215	17.815	16389	18350	0	316
-8.511	19.473	16389	17844	0	316
-6.383	20.375	16389	17395	0	316
-7.753	21.241	16384	17001	0	316
-8.655	20.591	16384	16608	0	316
-11.648	20.411	16384	16328	0	316
-13.992	20.880	16384	16104	0	316
-17.310	20.050	16384	16160	0	316
-21.457	15.435	16384	16440	0	316
-27.912	10.278	16389	16833	0	316
-33.321	3.678	16389	17058	0	316
-36.351	-0.757	16397	17451	0	316
-35.197	-1.695	16397	17900	0	316
-32.636	0.397	16402	18069	0	316
-29.354	2.560	16397	17957	0	316
-28.561	3.642	16402	17957	0	316
-26.974	3.642	16402	17957	0	316
-26.217	3.859	16402	17732	0	316
-23.873	2.308	16402	17339	0	316
-23.332	3.678	16402	16889	0	316
-21.457	4.724	16402	16440	0	316
-19.546	8.583	16397	16047	0	316
-15.110	14.136	16397	15542	0	316
-10.530	18.356	16389	14924	0	316
-7.573	20.519	16384	14137	0	316
-7.717	19.690	16379	13351	0	316
-7.357	17.634	16371	12677	0	316
-7.898	18.067	16366	12171	0	316
-6.239	19.365	16357	11778	0	316
-5.770	20.627	16352	11497	0	316
-7.321	19.401	16339	11328	0	316
-11.468	14.713	16339	11328	0	316
-17.274	10.133	16339	11609	0	316
-21.277	9.304	16339	12171	0	316
-23.224	9.412	16330	12677	0	316
-25.893	11.540	16330	13070	0	316
-25.856	9.737	16330	13688	0	316
-28.345	7.357	16330	14643	0	316
-29.895	4.544	16330	15542	0	316
-32.131	2.596	16339	16272	0	316
-32.492	3.606	16352	17001	0	316
-32.420	5.517	16352	17788	0	316
-26.902	8.186	16352	18350	0	316
-20.303	13.595	16352	18799	0	316
-12.369	17.129	16357	19305	0	316
-6.924	20.880	16366	19810	0	316
-7.825	20.483	16366	20091	0	316
-10.638	18.356	16371	20204	0	316
-13.559	17.562	16371	20148	0	316
-11.323	19.906	16371	19923	0	316
-4.544	24.234	16371	19642	0	316
1.731	30.508	16371	19361	0	316
7.032	32.997	16371	19024	1	628
4.868	31.302	16371	18743	0	628
-0.216	27.191	16371	18350	0	628
-4.688	22.863	16371	17957	0	628
-5.806	22.106	16371	17563	0	628
-3.787	22.575	16379	17226	0	628
-1.911	24.702	16379	16945	0	628
0.288	27.371	16379	16664	0	628
0.433	27.768	16379	16552	0	628
-1.226	28.850	16379	16721	0	628
-2.705	25.748	16384	17114	0	628
-7.285	22.719	16384	17395	0	628
-12.117	16.516	16389	17563	0	628
-17.346	11.648	16389	17957	0	628
-19.978	9.052	16397	18462	0	628
-20.736	7.068	16402	18687	0	628
-21.818	5.950	16397	18687	0	628
-20.772	6.852	16402	18743	0	628
-20.087	6.563	16411	18743	0	628
-19.401	7.429	16411	18518	0	628
-18.320	8.655	16411	18069	0	628
-16.769	9.989	16411	17619	0	628
-13.740	12.946	16411	17282	0	628
-9.088	17.346	16411	16889	0	628
-3.823	20.231	16411	16440	0	628
-1.010	21.241	16411	16047	0	628
-0.613	19.834	16411	15598	0	628
-0.216	18.067	16402	15205	0	628
1.767	19.401	16402	14811	0	628
6.744	21.962	16397	14362	0	628
9.881	27.948	16397	14025	0	628
11.035	29.210	16397	13688	0	628
7.501	28.633	16389	13238	0	628
2.741	26.361	16384	12901	0	628
-0.793	23.657	16384	12845	0	628
-2.452	22.178	16384	13126	0	628
-4.364	23.116	16379	13351	0	628
-5.554	21.781	16379	13632	0	628
-7.140	19.726	16379	14081	0	628
-8.402	18.211	16384	14699	0	628
-6.888	17.057	16384	15261	0	628
-4.544	17.562	16384	15598	0	628
-4.039	17.959	16389	16160	0	628
-2.669	17.670	16389	16721	0	628
-2.524	16.444	16397	17114	0	628
-2.633	14.641	16397	17170	0	628
-2.669	13.523	16389	17114	0	628
-4.436	13.812	16389	17058	0	628
-6.347	13.559	16389	16945	0	628
-6.671	14.821	16389	16889	0	628
-3.606	15.975	16389	16777	0	628
-0.433	16.552	16384	16496	0	628
1.046	16.300	16384	16216	0	628
-0.938	14.461	16384	15935	0	628
-4.436	13.704	16379	15935	0	628
-4.291	12.910	16379	15935	0	628
0.829	16.264	16379	15991	0	628
6.599	19.726	16379	15935	0	628
11.143	20.916	16379	15935	0	628
10.314	21.637	16379	16216	0	628
9.052	20.808	16384	16664	0	628
7.934	20.087	16384	17058	0	628
9.196	21.132	16384	17226	0	628
9.160	21.745	16389	17395	0	628
7.970	19.185	16397	17957	0	628
4.544	16.336	16397	18575	0	628
1.803	11.215	16402	18968	0	628
0.685	8.258	16411	19361	0	628
1.190	5.914	16416	19754	0	628
0.505	5.950	16424	19867	0	628
0.180	4.147	16424	19586	0	628
-2.272	2.308	16424	19080	0	628
-3.967	0.685	16424	18575	0	628
-3.787	0.829	16424	18125	0	628
-1.298	4.652	16424	17507	0	628
2.921	8.511	16424	16833	0	628
6.671	10.494	16416	16328	0	628
9.304	11.432	16411	15767	0	628
9.124	12.766	16411	15373	0	628
11.107	15.759	16411	15149	0	628
13.595	21.709	16411	14924	0	628
17.057	28.128	16411	14868	0	628
18.897	29.895	16402	14811	0	628
18.067	28.453	16411	14868	0	628
14.389	25.856	16411	15092	0	628
10.530	20.988	16411	15486	0	628
8.114	18.716	16411	15710	0	628
10.169	20.014	16402	15710	0	628
13.740	22.034	16416	15879	0	628
14.821	24.162	16416	16216	0	628
13.631	23.404	16411	16328	0	628
8.583	21.493	16416	16384	0	628
3.859	18.031	16416	16608	0	628
0.288	15.867	16416	16889	0	628
0.649	14.389	16416	16833	0	628
-0.180	11.973	16416	16440	0	628
-3.750	9.160	16416	15935	0	628
-7.537	5.950	16411	15373	0	628
-9.052	5.842	16411	14924	0	628
-9.088	8.402	16402	14531	0	628
-5.626	12.838	16402	14193	0	628
-3.498	16.084	16397	13913	0	628
-3.787	15.182	16389	13688	0	628
-7.176	11.035	16389	13576	0	628
-9.520	6.708	16384	13407	0	628
-9.737	4.508	16379	13295	0	628
-5.337	6.419	16379	13182	0	628
-0.757	10.386	16371	13238	0	628
3.137	13.091	16371	13351	0	628
3.606	13.884	16366	13407	0	628
4.291	14.497	16357	13407	0	628
3.787	16.192	16357	13407	0	628
4.724	17.129	16352	13576	0	628
4.219	19.041	16352	14081	0	628
2.272	18.067	16352	14755	0	628
-1.839	15.254	16352	15261	0	628
-4.508	12.874	16352	15486	0	628
-6.094	12.333	16352	15823	0	628
-7.140	12.514	16352	16328	0	628
-6.960	12.910	16352	16833	0	628
-7.753	12.369	16357	17226	0	628
-6.455	10.674	16371	17844	0	628
-5.914	10.061	16366	18518	0	628
-3.859	8.691	16371	18968	0	628
-2.777	10.530	16371	19136	0	628
-1.731	12.477	16371	19080	0	628
-1.479	15.579	16371	18912	0	628
-0.721	18.644	16371	18743	0	628
-0.469	20.916	16371	18518	0	628
-0.036	20.339	16371	18350	0	628
-0.649	17.887	16371	18125	0	628
-2.813	14.858	16371	17844	0	628
-5.337	13.451	16366	17563	0	628
-6.816	14.461	16366	17226	0	628
-6.167	17.418	16366	16833	0	628
-2.741	19.257	16357	16440	0	628
2.200	21.204	16357	16216	0	628
5.734	21.349	16357	16104	0	628
8.294	21.926	16357	16272	0	628
6.888	20.375	16357	16440	0	628
2.705	20.050	16366	16496	0	628
-0.721	16.733	16366	16440	0	628
-5.229	13.487	16366	16608	0	628
-7.357	10.458	16366	16945	0	628
-7.609	9.232	16366	17170	0	628
-8.583	7.825	16371	17339	0	628
-9.809	7.248	16371	17732	0	628
-12.045	5.409	16379	18462	0	628
-14.136	3.895	16384	19249	0	628
-13.668	3.101	16389	19698	0	628
-12.802	3.065	16397	19867	0	628
-11.612	4.652	16397	19698	0	628
-10.602	4.291	16402	19417	0	628
-11.900	4.183	16402	18968	0	628
-12.658	3.859	16402	18350	0	628
-10.855	4.832	16397	17676	1	620
-8.907	6.058	16397	16945	0	620
-5.734	9.340	16397	16328	0	620
-4.075	10.422	16389	15598	0	620
-2.344	12.045	16384	14868	0	620
0.325	15.723	16379	14137	0	620
4.868	17.923	16379	13632	0	620
9.376	22.178	16371	13351	0	620
12.730	23.693	16371	13407	0	620
13.631	23.801	16366	13632	0	620
12.261	22.286	16366	13744	0	620
10.602	21.132	16366	13800	0	620
10.061	20.159	16366	14137	0	620
7.789	20.014	16366	14868	0	620
5.806	17.851	16371	15654	0	620
2.993	16.012	16371	16216	0	620
1.875	14.966	16379	16664	0	620
1.731	15.182	16379	17114	0	620
2.056	15.435	16384	17226	0	620
1.298	14.461	16384	17114	0	620
-0.288	9.989	16379	16945	0	620
-1.334	7.212	16379	16777	0	620
-0.397	4.760	16379	16608	0	620
1.298	5.590	16379	16384	0	620
-0.144	5.914	16379	16384	0	620
-4.075	3.570	16379	16384	0	620
-8.943	-0.469	16379	16440	0	620
-12.369	-3.859	16379	16496	0	620
-9.124	-3.246	16379	16496	0	620
-4.364	0.469	16379	16384	0	620
1.334	5.517	16371	16160	0	620
6.924	8.979	16371	15823	0	620
11.720	11.864	16371	15486	0	620
14.100	14.713	16366	15429	0	620
17.743	17.995	16366	15654	0	620
18.139	21.962	16366	15823	0	620
17.093	23.693	16366	15935	0	620
15.326	23.440	16371	16328	0	620
14.533	22.719	16379	16833	0	620
14.749	21.349	16384	17226	0	620
16.697	21.349	16384	17395	0	620
18.500	21.818	16389	17619	0	620
19.185	21.313	16389	17957	0	620
17.562	21.060	16384	18125	0	620
13.235	17.526	16389	18013	0	620
8.475	13.884	16389	17844	0	620
4.544	11.396	16384	17507	0	620
2.885	9.376	16384	17058	0	620
1.190	8.619	16384	16664	0	620
-0.974	6.744	16384	16384	0	620
-3.606	4.436	16379	16160	0	620
-7.068	2.705	16379	15879	0	620
-7.789	3.606	16379	15767	0	620
-7.898	6.744	16384	15767	0	620
-7.825	9.665	16384	15823	0	620
-9.556	8.619	16384	15823	0	620
-11.540	7.140	16384	15598	0	620
-11.937	5.301	16379	15429	0	620
-9.268	7.104	16379	15261	0	620
-4.616	13.199	16371	14980	0	620
-0.469	20.267	16371	14587	0	620
0.361	25.929	16371	14193	0	620
-2.452	26.578	16366	14193	0	620
-5.481	24.702	16366	14531	0	620
-8.547	21.277	16366	14811	0	620
-7.032	19.942	16366	15092	0	620
-5.950	19.329	16366	15710	0	620
-4.436	19.870	16371	16384	0	620
-6.022	18.428	16371	17001	0	620
-11.864	15.146	16379	17451	0	620
-15.687	11.720	16379	18069	0	620
-16.733	10.999	16384	18855	0	620
-14.281	11.323	16389	19473	0	620
-10.097	10.386	16397	19698	0	620
-6.203	9.845	16397	19586	0	620
-6.563	7.645	16402	19249	0	620
-7.357	5.373	16402	18799	0	620
-9.629	5.337	16397	18237	0	620
-8.583	7.465	16397	17619	0	620
-8.042	8.979	16397	17001	0	620
-5.373	10.458	16389	16440	0	620
-1.803	10.891	16389	15991	0	620
0.721	10.855	16384	15486	0	620
3.210	9.592	16384	15036	0	620
4.400	10.061	16379	14699	0	620
6.094	11.828	16379	14418	0	620
7.176	16.300	16371	14306	0	620
10.855	20.952	16371	14362	0	620
13.523	24.306	16371	14699	0	620
16.372	28.020	16371	14924	0	620
18.031	26.614	16371	15036	0	620
17.057	25.568	16371	15373	0	620
15.435	22.683	16379	15935	0	620
13.631	19.978	16379	16384	0	620
12.261	18.428	16384	16777	0	620
12.477	17.851	16384	17395	0	620
11.504	17.021	16389	18181	0	620
9.484	14.605	16397	18631	0	620
4.904	9.376	16397	18687	0	620
0.397	4.219	16397	18462	0	620
-2.885	0.397	16397	18069	0	620
-2.849	-0.072	16397	17507	0	620
1.370	2.488	16397	16833	0	620
4.291	5.806	16389	16216	0	620
7.357	8.042	16384	15542	0	620
6.419	7.789	16379	14868	0	620
3.354	6.708	16379	14306	0	620
0.036	4.400	16371	13856	0	620
-2.813	3.173	16366	13519	0	620
-4.940	2.344	16357	13295	0	620
-3.895	2.200	16357	13070	0	620
-2.019	5.157	16352	13070	0	620
4.472	9.556	16352	13351	0	620
11.900	15.759	16352	13856	0	620
19.690	20.627	16344	14250	0	620
24.486	23.801	16344	14587	0	620
26.506	21.962	16352	15149	0	620
25.604	20.231	16357	15991	0	620
23.188	19.005	16357	16608	0	620
22.395	20.519	16366	17114	0	620
21.024	24.739	16371	17788	0	620
21.060	28.164	16371	18575	0	620
21.565	30.761	16379	19136	0	620
22.034	28.958	16384	19305	0	620
19.293	26.181	16384	19249	0	620
14.172	20.555	16384	18912	0	620
6.924	15.182	16379	18406	0	620
-1.803	7.393	16379	17900	0	620
-5.265	3.282	16379	17395	1	512
-4.832	0.216	16371	16777	0	512
-0.036	1.442	16371	16216	0	512
3.246	3.137	16366	15823	0	512
1.659	2.957	16366	15598	0	512
-2.452	-1.479	16357	15429	0	512
-5.914	-5.770	16357	15261	0	512
-5.806	-7.753	16352	15036	0	512
-0.577	-6.022	16352	14699	0	512
5.337	1.226	16344	14474	0	512
8.258	6.960	16344	14418	0	512
9.629	10.386	16352	14531	0	512
8.979	10.458	16344	14699	0	512
12.261	10.963	16344	14868	0	512
15.579	13.127	16339	15036	0	512
19.221	16.589	16339	15261	0	512
18.608	19.654	16339	15654	0	512
16.661	19.437	16344	16328	0	512
15.507	19.257	16352	17226	0	512
17.093	21.132	16357	18294	0	512
21.241	24.955	16371	19136	0	512
25.712	28.705	16379	19867	0	512
25.424	28.814	16384	20541	0	512
20.483	24.811	16389	20878	0	512
13.379	18.283	16397	20822	0	512
7.934	13.127	16397	20541	0	512
3.859	10.783	16397	20316	0	512
3.678	8.475	16397	20148	0	512
2.669	7.645	16402	19867	0	512
1.479	5.409	16402	19473	0	512
-1.262	4.075	16402	18912	0	512
-3.462	3.101	16402	18294	0	512
-4.544	3.462	16402	17732	0	512
-3.029	5.121	16402	17282	0	512
-1.298	6.888	16402	16833	0	512
2.019	8.655	16397	16328	0	512
6.203	8.871	16397	15823	0	512
7.357	9.160	16397	15373	0	512
6.527	8.078	16397	15261	0	512
6.311	9.304	16397	15317	0	512
5.229	10.891	16397	15317	0	512
5.265	13.920	16397	15317	0	512
7.104	15.903	16397	15486	0	512
7.681	15.831	16402	15823	0	512
6.852	14.930	16402	15935	0	512
7.357	15.831	16397	15935	0	512
5.481	15.903	16411	16216	0	512
3.750	15.398	16411	16552	0	512
1.695	14.064	16411	16777	0	512
1.767	12.874	16411	16721	0	512
3.534	11.648	16411	16496	0	512
6.924	13.415	16411	16272	0	512
8.330	13.884	16402	15879	0	512
5.157	12.766	16402	15429	0	512
-0.180	6.635	16402	14924	0	512
-6.852	1.587	16397	14531	0	512
-11.576	-3.029	16397	14193	0	512
-13.848	-5.590	16389	14025	0	512
-13.559	-4.364	16389	14025	0	512
-10.999	-2.524	16389	14081	0	512
-9.268	-1.370	16384	14137	0	512
-8.511	-2.128	16384	14250	0	512
-8.619	-3.823	16384	14306	0	512
-9.665	-6.275	16384	14531	0	512
-8.258	-6.635	16384	15036	0	512
-5.662	-4.580	16384	15542	0	512
-1.226	-2.380	16389	15991	0	512
2.921	1.659	16397	16496	0	512
5.229	4.111	16402	17451	0	512
9.196	8.042	16411	18350	0	512
9.989	11.179	16411	18912	0	512
11.684	14.389	16416	19361	0	512
11.215	16.264	16424	19810	0	512
10.025	15.975	16424	20035	0	512
9.340	15.110	16429	19923	0	512
8.186	15.290	16429	19586	0	512
10.133	17.310	16429	19136	0	512
12.333	20.988	16429	18631	0	512
16.300	24.486	16429	18013	0	512
18.716	27.912	16429	17226	1	316
18.572	25.640	16416	16440	0	316
13.595	21.854	16424	15654	0	316
8.366	16.120	16411	14924	0	316
3.823	11.287	16402	14250	0	316
2.380	9.809	16397	13632	0	316
5.013	8.727	16389	13070	0	316
6.563	9.773	16384	12620	0	316
7.321	8.655	16384	12508	0	316
6.780	7.934	16384	12789	0	316
4.724	5.734	16384	13351	0	316
2.164	3.318	16384	13913	0	316
-0.757	1.947	16384	14418	0	316
-3.354	0.649	16389	15036	0	316
-3.390	2.488	16389	15767	0	316
1.118	7.681	16389	16216	0	316
8.402	13.235	16389	16384	0	316
15.651	18.536	16397	16664	0	316
18.644	20.231	16397	17170	0	316
18.175	19.510	16402	17507	0	316
16.012	18.788	16402	17507	0	316
15.182	18.175	16402	17339	0	316
18.536	21.060	16402	17114	0	316
22.539	24.919	16397	16777	0	316
28.092	27.804	16397	16440	0	316
28.850	29.174	16397	16160	0	316
27.551	28.237	16389	15767	0	316
23.657	26.289	16389	15373	0	316
18.644	24.414	16384	15149	0	316
15.362	22.791	16384	14924	0	316
14.389	21.204	16379	14755	0	316
13.235	19.437	16371	14531	0	316
14.461	18.536	16371	14306	0	316
14.749	18.211	16366	14081	0	316
15.326	19.329	16357	13913	0	316
15.651	19.618	16357	13856	0	316
13.848	17.959	16352	13969	0	316
9.304	14.858	16352	14306	0	316
5.698	9.665	16352	15036	0	316
1.875	6.852	16357	15879	0	316
-0.144	3.534	16357	16384	0	316
0.613	3.029	16357	16608	0	316
3.498	3.390	16371	17170	0	316
6.780	3.246	16371	17957	0	316
11.612	4.472	16379	18631	0	316
14.317	4.111	16384	19136	0	316
11.143	4.724	16389	19810	0	316
7.934	5.445	16397	20653	0	316
4.111	7.393	16402	21159	0	316
5.049	10.278	16411	21215	0	316
7.645	9.989	16402	20934	0	316
11.143	8.150	16402	20372	0	316
10.025	4.039	16402	19642	0	316
9.052	0.288	16402	18799	0	316
7.681	0.036	16402	17957	0	316
11.143	2.092	16397	17282	0	316
14.569	5.265	16397	16608	0	316
16.192	4.940	16389	16047	0	316
14.028	2.849	16389	15429	0	316
9.989	0.144	16384	14811	0	316
5.013	-0.072	16379	14306	0	316
4.724	2.633	16371	13800	0	316
7.104	5.734	16371	13519	0	316
11.215	8.006	16371	13576	0	316
14.569	6.419	16371	14025	0	316
16.697	3.354	16371	14418	0	316
16.336	0.938	16371	14643	0	316
13.884	-1.839	16371	14980	0	316
9.304	-2.596	16371	15373	0	316
5.698	-4.075	16371	15598	0	316
4.291	-1.659	16371	15767	0	316
5.626	1.695	16371	16160	0	316
10.963	5.373	16379	16608	0	316
15.543	9.556	16379	17058	0	316
18.788	10.025	16384	17339	0	316
20.988	10.530	16389	17507	0	316
20.664	10.133	16384	17563	0	316
18.716	9.773	16384	17507	0	316
14.677	9.629	16384	17226	0	316
11.612	7.465	16384	17001	1	316
9.809	4.652	16384	16777	0	316
12.261	5.121	16379	16496	0	316
16.012	4.508	16384	16160	0	316
16.913	5.157	16379	15654	0	316
14.497	4.796	16379	15205	0	316
9.016	1.947	16371	14811	0	316
6.635	-0.325	16366	14587	0	316
6.780	-1.370	16371	14474	0	316
12.225	1.082	16366	14643	0	316
16.192	2.813	16366	14868	0	316
17.526	5.085	16357	14924	0	316
15.362	4.472	16357	14755	0	316
12.405	4.364	16357	14811	0	316
11.756	2.272	16352	15149	0	316
10.819	2.813	16352	15542	0	316
12.405	4.724	16357	15991	0	316
13.559	6.744	16357	16608	0	316
14.785	10.783	16366	17563	0	316
17.346	13.848	16371	18350	0	316
19.978	14.497	16379	18855	0	316
21.204	15.867	16379	19080	0	316
22.322	15.867	16379	19024	0	316
20.952	15.795	16384	18799	0	316
18.283	13.920	16379	18406	0	316
14.461	11.215	16379	17900	0	316
10.386	6.635	16379	17395	0	316
7.068	2.993	16379	16889	0	316
6.419	2.669	16379	16552	0	316
5.337	1.262	16379	16384	0	316
3.426	-0.325	16371	16047	0	316
2.272	-4.111	16371	15654	0	316
0.072	-6.996	16366	15149	0	316
0.288	-8.475	16366	14811	0	316
4.255	-5.085	16366	14924	0	316
8.439	-0.144	16366	15429	0	316
13.992	4.868	16366	15879	0	316
14.208	7.934	16366	16216	0	316
12.477	7.429	16371	16664	0	316
8.475	7.321	16379	17339	0	316
5.986	7.537	16379	17900	0	316
8.583	10.891	16384	18462	0	316
13.199	14.136	16397	19136	0	316
18.392	17.382	16402	19923	0	316
22.611	19.113	16411	20372	0	316
23.909	20.195	16416	20541	0	316
25.820	21.818	16424	20709	0	316
25.460	24.017	16429	20934	0	316
23.693	23.044	16438	20822	0	316
18.175	17.743	16429	20372	0	316
11.143	9.232	16429	19642	0	316
4.652	2.560	16429	18855	0	316
2.957	-0.613	16429	17957	0	316
4.832	0.902	16429	17001	0	316
9.448	5.157	16424	16160	0	316
11.792	6.744	16411	15261	0	316
11.215	4.904	16416	14474	0	316
7.140	2.308	16411	13856	0	316
2.560	-0.469	16402	13519	0	316
0.433	-2.633	16397	13295	0	316
-1.334	-3.570	16397	12958	0	316
-3.246	-5.914	16389	12677	0	316
-3.390	-7.248	16389	12620	0	316
-2.128	-4.760	16389	13014	0	316
2.633	-0.072	16389	13576	0	316
9.989	6.022	16389	14025	0	316
18.031	13.199	16389	14362	0	316
22.899	15.867	16397	14868	0	316
23.729	16.300	16397	15429	0	316
23.296	16.408	16397	15654	0	316
22.647	17.526	16397	15654	0	316
23.837	20.231	16402	15935	0	316
26.686	24.811	16402	16496	0	316
28.345	26.974	16411	16945	0	316
27.479	24.955	16411	17170	0	316
21.601	17.743	16411	17058	0	316
14.930	10.783	16411	16833	0	316
11.468	5.770	16411	16721	0	316
11.900	5.986	16411	16664	0	316
14.749	8.006	16411	16552	0	316
15.723	10.494	16402	16384	0	316
13.487	8.258	16397	16160	0	316
7.862	4.616	16397	15823	0	316
2.885	0.721	16397	15486	0	316
0.361	-1.767	16389	15261	0	316
1.875	-1.587	16389	14980	0	316
4.039	0.180	16384	14699	0	316
6.888	2.019	16384	14587	0	316
7.970	2.813	16379	14531	0	316
7.068	2.560	16379	14755	0	316
3.390	1.551	16379	14924	0	316
1.479	0.721	16379	15092	0	316
1.983	1.803	16384	15654	0	316
5.626	5.734	16384	16608	0	316
11.648	11.251	16389	17676	0	316
14.569	13.018	16397	18462	0	316
13.559	11.900	16402	19080	0	316
7.789	8.366	16416	19754	0	316
2.524	5.481	16424	20204	0	316
4.255	7.176	16424	20316	0	316
10.494	15.435	16429	20091	0	316
19.654	24.089	16429	19642	0	316
24.053	28.309	16424	19024	0	316
22.358	28.453	16429	18350	0	316
16.805	24.125	16416	17619	0	316
12.838	19.473	16416	16777	0	316
11.648	14.966	16411	15879	0	316
12.514	13.848	16402	14924	0	316
10.566	9.737	16397	13969	0	316
8.583	7.140	16389	13070	0	316
4.508	4.508	16379	12340	0	316
3.787	5.193	16371	11722	0	316
4.111	6.022	16366	11272	0	316
6.094	6.635	16357	11272	0	316
7.429	8.150	16357	11665	0	316
9.448	8.547	16352	12115	0	316
9.953	10.819	16352	12452	0	316
8.583	11.107	16357	13070	0	316
4.977	9.737	16366	13800	0	316
0.144	5.698	16357	14531	0	316
-1.947	5.013	16357	15205	0	316
0.649	6.094	16366	16047	0	316
5.950	9.989	16371	17114	0	316
8.763	12.874	16371	17957	0	316
7.862	11.323	16379	18462	0	316
3.498	6.888	16379	18743	0	316
1.406	5.878	16379	18799	0	316
4.183	8.222	16379	18575	0	316
8.547	14.172	16379	18350	0	316
11.287	20.014	16379	18181	0	316
8.979	22.539	16379	18069	0	316
2.236	18.572	16379	17900	0	316
-4.616	12.946	16379	17563	0	316
-8.871	7.248	16371	17114	0	316
-12.009	4.183	16371	16664	0	316
-12.910	3.173	16366	16384	0	316
-15.074	2.452	16366	15991	0	316
-15.903	1.298	16357	15598	0	316
-16.444	-1.118	16357	15261	0	316
-15.435	-3.282	16352	15149	0	316
-13.054	-3.678	16352	15092	0	316
-9.376	-2.669	16357	15149	0	316
-6.167	0.036	16357	15598	0	316
-2.380	0.829	16357	16328	0	316
-1.587	0.541	16366	16833	0	316
-2.633	-2.380	16366	17001	0	316
-6.563	-5.626	16366	17114	0	316
-8.366	-8.583	16366	17451	0	316
-8.258	-6.924	16371	17957	0	316
-4.652	-2.993	16371	18294	0	316
0.685	2.669	16379	18462	0	316
5.626	9.773	16379	18631	0	316
8.330	13.271	16384	18912	0	316
10.783	15.254	16384	19080	0	316
12.297	16.300	16389	18968	0	316
14.930	17.743	16389	18687	0	316
15.362	17.887	16389	18294	0	316
13.163	16.552	16389	17676	0	316
8.655	13.235	16384	17058	0	316
1.803	6.780	16384	16384	0	316
-2.524	4.544	16379	15767	0	316
-4.291	3.931	16371	15092	0	316
-3.246	5.013	16366	14474	0	316
-3.895	5.157	16357	13856	0	316
-4.472	3.029	16352	13351	0	316
-6.960	-0.072	16352	13070	0	316
-10.061	-2.596	16344	13014	0	316
-10.819	-3.895	16344	13407	0	316
-11.107	-3.570	16357	14193	0	316
-9.160	-3.678	16357	14924	0	316
-8.006	-1.479	16357	15542	0	316
-4.904	0.036	16366	16384	0	316
-3.750	1.479	16371	17226	0	316
-1.479	1.983	16371	17900	0	316
0.613	2.452	16379	18294	0	316
2.921	2.019	16384	18687	0	316
3.967	4.580	16384	19080	0	316
6.311	6.816	16389	19361	0	316
7.032	9.448	16389	19361	0	316
8.258	12.369	16397	19192	0	316
11.215	15.867	16397	18968	0	316
12.333	19.149	16397	18575	0	316
10.314	20.700	16397	18013	0	316
7.285	19.582	16389	17339	1	732
3.282	16.156	16389	16608	0	732
1.262	13.379	16384	16047	0	732
2.416	11.179	16379	15373	0	732
6.311	12.117	16379	14811	0	732
5.662	11.828	16371	14306	0	732
0.757	9.773	16366	13913	0	732
-6.022	7.068	16366	13632	0	732
-13.091	3.534	16357	13576	0	732
-15.975	2.921	16357	13800	0	732
-16.012	2.849	16357	14193	0	732
-16.264	2.308	16357	14587	0	732
-18.572	2.488	16357	15036	0	732
-20.808	1.406	16366	15823	0	732
-23.332	0.685	16371	17001	0	732
-23.260	1.406	16379	18237	0	732
-23.404	1.479	16389	19136	0	732
-22.395	1.515	16397	19867	0	732
-20.916	1.947	16402	20485	0	732
-17.815	5.193	16411	20766	0	732
-13.956	8.222	16416	20653	0	732
-11.107	10.494	16416	20260	0	732
-9.304	12.009	16416	19642	0	732
-6.455	12.838	16416	18855	0	732
-4.904	13.054	16416	18069	0	732
-2.416	16.877	16411	17226	0	732
-2.849	19.257	16402	16440	0	732
-6.455	18.644	16402	15767	0	732
-12.009	15.146	16402	15149	0	732
-16.444	9.268	16397	14474	0	732
-20.483	2.813	16384	13913	0	732
-21.854	-1.046	16384	13519	0	732
-22.431	-2.056	16379	13295	0	732
-21.998	-0.361	16384	13238	0	732
-22.070	1.334	16379	13351	0	732
-20.916	2.705	16379	13688	0	732
-22.286	2.560	16379	13856	0	732
-23.549	1.587	16379	13913	0	732
-24.522	1.659	16379	14137	0	732
-25.243	3.210	16379	14643	0	732
-22.178	5.590	16379	15317	0	732
-17.346	8.943	16384	15935	0	732
-14.533	8.835	16384	16608	0	732
-13.812	7.609	16389	17170	0	732
-18.031	3.282	16389	17451	0	732
-25.352	-1.262	16389	17507	0	732
-32.312	-4.688	16397	17451	0	732
-35.665	-4.544	16397	17339	0	732
-34.908	-1.298	16397	17226	0	732
-31.158	2.993	16384	17001	0	732
-27.696	6.708	16384	16664	0	732
-25.748	6.816	16384	16272	0	732
-26.614	6.239	16379	15767	0	732
-27.515	3.137	16371	15205	0	732
-28.958	1.046	16371	14643	0	732
-28.345	-0.649	16366	14081	0	732
-26.361	-1.659	16366	13519	0	732
-25.352	-0.577	16352	13014	0	732
-23.296	1.515	16344	12677	0	732
-22.935	3.714	16339	12620	0	732
-23.873	4.364	16339	12789	0	732
-24.594	3.895	16330	13014	0	732
-25.929	2.849	16325	13238	0	732
-25.496	2.596	16325	13744	0	732
-24.558	4.291	16330	14474	0	732
-22.935	6.924	16330	15149	0	732
-20.123	10.133	16330	15710	0	732
-18.356	11.720	16339	16272	0	732
-18.788	12.081	16339	16889	0	732
-20.844	11.540	16339	17451	0	732
-23.476	10.242	16344	17957	0	732
-23.657	10.494	16344	18631	0	732
-21.060	12.838	16357	19417	0	732
-19.906	13.199	16371	20035	0	732
-20.411	11.215	16366	20148	0	732
-24.017	9.592	16371	19979	0	732
-25.388	7.393	16371	19642	0	732
-22.719	9.304	16371	19249	0	732
-15.939	12.766	16366	18855	0	732
-13.127	15.002	16366	18406	1	316
-13.595	14.749	16366	17957	0	316
-18.464	10.783	16366	17563	0	316
-21.818	8.439	16357	17226	0	316
-23.981	7.609	16357	16833	0	316
-22.575	8.186	16357	16552	0	316
-21.926	8.907	16357	16384	0	316
-21.457	9.088	16352	16328	0	316
-22.431	8.547	16352	16384	0	316
-21.277	9.737	16366	16552	0	316
-21.096	11.540	16366	16833	0	316
-20.483	11.792	16366	16945	0	316
-20.050	10.206	16366	16945	0	316
-20.447	8.078	16371	17114	0	316
-17.851	8.511	16371	17451	0	316
-15.759	10.314	16371	17732	0	316
-14.605	12.550	16379	17957	0	316
-14.858	12.514	16384	18462	0	316
-20.375	6.671	16389	19192	0	316
-28.092	0.793	16397	19642	0	316
-32.203	-3.606	16402	19642	0	316
-32.420	-4.580	16402	19361	0	316
-28.741	-0.144	16411	19024	0	316
-22.142	5.445	16411	18687	0	316
-18.211	11.215	16411	18406	0	316
-17.743	12.369	16402	18069	0	316
-19.942	10.963	16402	17788	0	316
-21.818	9.160	16411	17395	0	316
-23.368	6.996	16402	16889	0	316
-22.106	7.176	16402	16440	0	316
-22.431	8.799	16402	15991	0	316
-21.745	9.232	16402	15486	0	316
-22.503	9.556	16397	14980	0	316
-20.664	9.196	16397	14587	0	316
-20.159	9.520	16397	14250	0	316
-18.933	10.242	16389	13969	0	316
-19.149	9.016	16389	13800	0	316
-21.024	9.052	16389	13800	0	316
-20.952	8.439	16389	13969	0	316
-18.752	9.340	16389	14193	0	316
-15.435	10.169	16384	14193	0	316
-12.477	12.045	16384	14137	0	316
-12.694	10.602	16384	14250	0	316
-14.641	8.871	16384	14587	0	316
-17.490	5.445	16384	14868	0	316
-18.716	4.580	16384	15036	0	316
-18.283	4.940	16384	15149	0	316
-16.372	6.058	16384	15205	0	316
-15.182	8.294	16384	15317	0	316
-14.497	9.484	16384	15429	0	316
-14.389	11.287	16379	15429	0	316
-14.353	10.999	16379	15429	0	316
-15.398	12.261	16379	15429	0	316
-16.372	12.910	16379	15429	0	316
-17.129	12.441	16371	15317	0	316
-17.995	13.487	16371	15205	0	316
-17.959	12.441	16371	15205	0	316
-17.815	12.658	16366	15261	0	316
-17.815	10.891	16366	15486	0	316
-17.454	10.746	16371	15879	0	316
-17.490	11.035	16371	16496	0	316
-18.175	7.717	16379	17001	0	316
-19.582	5.626	16379	17395	0	316
-21.998	2.128	16384	17900	0	316
-23.044	0.036	16384	18406	0	316
-22.899	-0.108	16389	18687	0	316
-21.241	1.370	16389	18799	0	316
-19.798	3.462	16397	19080	0	316
-16.048	4.940	16402	19361	0	316
-13.704	6.383	16402	19361	0	316
-9.989	6.816	16402	19080	0	316
-10.999	4.904	16411	18912	0	316
-14.821	1.298	16411	18799	0	316
-18.969	-2.741	16411	18687	0	316
-21.998	-4.832	16416	18518	0	316
-18.392	-3.137	16416	18294	0	316
-12.369	0.721	16411	18013	0	316
-6.852	3.570	16416	17619	0	316
-5.950	4.977	16411	17226	0	316
-7.753	3.029	16411	16889	0	316
-10.458	2.957	16411	16552	0	316
-10.314	3.678	16411	16272	0	316
-9.989	4.652	16411	15879	0	316
-8.511	3.859	16402	15429	0	316
-10.530	0.902	16402	14980	0	316
-12.982	-4.472	16397	14531	0	316
-16.084	-8.402	16397	14025	0	316
-18.392	-8.691	16389	13576	0	316
-18.644	-8.439	16389	13407	0	316
-18.500	-6.239	16384	13632	0	316
-17.887	-4.904	16384	13856	0	316
-15.579	-3.498	16384	13969	0	316
-14.064	-2.957	16384	14362	0	316
-12.153	-2.452	16389	15092	0	316
-11.251	-1.839	16389	15710	0	316
-7.717	-0.757	16397	16160	0	316
-5.049	0.721	16397	16664	0	316
-1.118	3.390	16402	17395	0	316
0.108	4.832	16411	17844	0	316
-0.577	5.013	16411	18013	0	316
-2.452	3.570	16411	18069	0	316
-5.481	1.947	16416	18013	0	316
-7.104	0.433	16411	17900	0	316
-9.845	0.072	16411	17619	0	316
-13.091	-0.288	16411	17282	0	316
-14.641	0.469	16402	16777	0	316
-16.841	1.154	16402	16384	0	316
-16.300	3.029	16402	16047	0	316
-15.218	4.544	16397	15710	0	316
-14.641	4.760	16397	15261	0	316
-14.858	3.787	16389	14755	0	316
-16.156	2.128	16384	14193	0	316
-16.985	0.325	16384	13744	0	316
-17.634	-0.505	16379	13519	0	316
-15.687	0.721	16371	13576	0	316
-12.766	2.705	16371	13576	0	316
-10.206	5.734	16366	13519	0	316
-9.196	7.862	16366	13856	0	316
-8.006	10.206	16371	14699	0	316
-7.789	10.206	16371	15654	0	316
-8.150	10.999	16379	16216	0	316
-6.780	12.441	16379	16664	0	316
-6.058	13.343	16384	17282	0	316
-5.121	17.670	16384	17732	0	316
-2.705	20.952	16384	17900	0	316
-1.839	22.827	16384	17900	0	316
-3.462	23.188	16384	17844	0	316
-6.383	19.041	16384	17619	0	316
-9.196	13.884	16384	17282	0	316
-12.225	10.314	16384	16945	0	316
-11.287	8.366	16379	16664	0	316
-10.133	10.314	16379	16384	0	316
-10.242	10.242	16379	16160	0	316
-10.963	10.494	16371	15823	0	316
-13.812	8.655	16371	15429	0	316
-16.300	5.950	16366	15092	0	316
-18.283	4.255	16366	14811	0	316
-18.536	4.183	16366	14643	0	316
-18.139	4.832	16366	14755	0	316
-16.985	5.337	16366	15092	0	316
-14.785	6.419	16366	15429	0	316
-14.136	8.042	16366	15710	0	316
-12.694	7.717	16366	16216	0	316
-14.100	8.583	16366	16833	0	316
-15.543	7.862	16371	17170	0	316
-17.526	7.285	16371	17282	0	316
-19.041	4.832	16371	17507	0	316
-19.149	3.787	16379	18069	0	316
-19.546	2.056	16379	18518	0	316
-20.880	1.298	16384	18799	0	316
-21.529	0.505	16384	18912	0	316
-24.089	2.019	16389	18968	0	316
-24.666	5.914	16389	18743	0	316
-24.342	10.638	16389	18350	0	316
-25.424	14.821	16389	17957	0	316
-24.630	17.598	16384	17451	0	316
-24.342	16.228	16384	17001	0	316
-23.044	12.802	16384	16833	0	316
-21.781	8.835	16384	16777	0	316
-20.664	6.311	16384	16664	0	316
-22.899	3.642	16384	16384	0	316
-26.073	1.479	16384	16104	0	316
-28.489	-0.974	16379	15710	0	316
-29.859	-2.416	16371	15205	0	316
-28.273	-2.777	16371	14643	0	316
-24.342	-1.839	16366	14250	0	316
-22.972	-0.577	16366	14137	0	316
-22.178	-0.613	16366	14418	0	316
-23.549	-2.416	16366	14924	0	316
-25.604	-4.400	16366	15542	0	316
-26.686	-7.573	16371	16160	0	316
-25.784	-8.150	16379	16833	0	316
-25.027	-9.881	16379	17619	0	316
-23.152	-9.520	16384	18181	0	316
-23.152	-9.304	16389	18462	0	316
-22.539	-7.104	16389	18687	0	316
-22.070	-5.337	16397	19080	0	316
-22.034	-1.983	16402	19417	0	316
-22.322	-0.252	16411	19586	0	316
-22.755	-0.036	16411	19473	0	316
-21.673	-2.633	16416	19192	0	316
-21.926	-5.229	16416	18799	0	316
-20.195	-5.517	16416	18181	0	316
-20.411	-3.895	16411	17451	1	732
-22.070	-1.190	16411	16721	0	732
-24.883	0.288	16402	16160	0	732
-29.571	-1.947	16402	15710	0	732
-32.456	-6.383	16402	15373	0	732
-34.187	-10.783	16402	15092	0	732
-33.790	-12.658	16397	14811	0	732
-31.626	-14.569	16397	14531	0	732
-30.292	-15.146	16384	14250	0	732
-32.672	-18.139	16384	14193	0	732
-37.901	-21.132	16384	14306	0	732
-44.104	-25.460	16384	14418	0	732
-48.395	-26.902	16384	14474	0	732
-49.153	-26.361	16384	14587	0	732
-45.799	-23.512	16384	14755	0	732
-40.353	-20.916	16384	14924	0	732
-37.685	-19.834	16384	15092	0	732
-35.918	-19.113	16384	15429	0	732
-34.836	-17.526	16384	15767	0	732
-31.879	-13.343	16384	15879	0	732
-27.371	-8.583	16384	15710	0	732
-22.467	-5.409	16379	15598	0	732
-19.077	-2.669	16379	15598	0	732
-17.562	-2.596	16384	15598	0	732
-15.182	0.252	16384	15542	0	732
-12.369	2.164	16379	15373	0	732
-12.009	2.344	16379	15261	0	732
-14.208	0.144	16379	15149	0	732
-19.257	-3.931	16371	15149	0	732
-24.739	-7.393	16371	15036	0	732
-24.342	-8.511	16366	14980	0	732
-19.762	-8.114	16366	14868	0	732
-14.641	-6.383	16357	14811	0	732
-12.189	-4.688	16357	14868	0	732
-13.054	-6.275	16357	15149	0	732
-16.300	-7.357	16357	15598	0	732
-17.418	-7.321	16357	15879	0	732
-14.281	-7.285	16357	16047	0	732
-12.009	-4.832	16357	16384	0	732
-12.477	-6.131	16366	17226	0	732
-16.805	-8.619	16371	18181	0	732
-20.952	-12.730	16371	18855	0	732
-23.585	-15.543	16379	19361	0	732
-21.854	-15.218	16384	19867	0	732
-18.933	-12.730	16389	20091	0	732
-17.526	-10.999	16389	20035	0	732
-17.526	-8.294	16389	19754	0	732
-17.634	-7.501	16389	19305	0	732
-15.326	-5.950	16397	18855	0	732
-10.927	-3.137	16389	18462	0	732
-8.042	-1.839	16389	18013	0	732
-6.058	0.180	16389	17451	0	732
-7.465	-0.108	16389	17001	0	732
-7.970	-0.541	16389	16608	0	732
-8.547	0.974	16384	16328	0	732
-6.311	2.669	16384	16047	0	732
-4.364	5.590	16384	15935	0	732
-5.373	5.085	16384	15767	0	732
-8.042	1.190	16384	15654	0	732
-11.251	-3.354	16384	15710	0	732
-14.930	-7.140	16384	16047	0	732
-15.723	-9.016	16384	16272	0	732
-15.110	-7.357	16389	16328	0	732
-14.533	-4.075	16389	16272	0	732
-12.982	-1.839	16389	16216	0	732
-13.884	-0.613	16384	16104	0	732
-15.867	-0.577	16384	15935	0	732
-18.572	-2.921	16384	15935	0	732
-19.257	-3.967	16389	16160	0	732
-16.625	-2.921	16389	16328	0	732
-10.891	-0.325	16389	16384	0	732
-4.255	1.947	16389	16496	0	732
-1.190	2.236	16397	16777	0	732
-0.325	0.252	16397	16889	0	732
-0.577	-2.416	16397	16889	0	732
0.180	-4.580	16397	16833	0	732
2.741	-4.255	16397	16777	0	732
5.193	-4.183	16397	16608	0	732
8.366	-3.390	16397	16440	0	732
8.619	-3.426	16397	16272	1	316
8.402	-1.587	16397	16104	0	316
6.347	-0.180	16389	15767	0	316
4.508	1.046	16389	15429	0	316
2.957	-0.288	16384	15036	0	316
2.200	-2.524	16384	14699	0	316
1.370	-6.563	16379	14474	0	316
0.000	-8.547	16379	14306	0	316
-3.318	-9.629	16379	14250	0	316
-6.780	-11.179	16379	14531	0	316
-8.907	-12.802	16379	14980	0	316
-8.547	-11.756	16379	15373	0	316
-7.645	-10.819	16379	15542	0	316
-5.373	-8.583	16379	15879	0	316
-3.967	-6.635	16379	16384	0	316
-5.013	-6.635	16384	16664	0	316
-6.022	-9.989	16384	16664	0	316
-6.744	-12.441	16384	16777	0	316
-6.131	-14.028	16384	17001	0	316
-3.246	-13.920	16384	17226	0	316
1.659	-10.458	16384	17339	0	316
6.022	-5.662	16389	17395	0	316
9.556	-2.596	16389	17507	0	316
9.556	-0.397	16389	17563	0	316
9.592	-0.577	16389	17563	0	316
9.016	-0.216	16389	17451	0	316
10.819	1.767	16389	17282	0	316
12.694	3.462	16389	17058	0	316
15.435	6.094	16389	16777	0	316
15.651	6.419	16389	16496	0	316
14.281	5.121	16384	16272	0	316
12.189	3.426	16384	15991	0	316
6.816	0.902	16384	15654	0	316
1.479	-3.787	16379	15317	0	316
-3.606	-8.799	16379	15317	0	316
-7.357	-15.254	16379	15542	0	316
-6.888	-19.221	16379	15542	0	316
-4.327	-20.303	16379	15486	0	316
-3.606	-17.634	16379	15654	0	316
-2.777	-14.858	16384	16384	0	316
-5.193	-14.100	16384	17170	0	316
-5.878	-15.903	16389	17788	0	316
-7.717	-19.906	16397	18350	0	316
-6.708	-23.116	16402	18855	0	316
-6.816	-23.368	16402	19024	0	316
-8.547	-24.125	16411	18968	0	316
-9.376	-21.926	16411	18799	0	316
-10.169	-19.437	16411	18462	0	316
-9.160	-15.182	16402	18013	0	316
-4.327	-10.638	16402	17507	0	316
1.262	-6.167	16402	16945	0	316
6.275	-4.760	16397	16384	0	316
8.006	-5.373	16397	15823	0	316
8.006	-7.393	16389	15317	0	316
5.770	-7.537	16389	14868	0	316
3.678	-7.176	16384	14418	0	316
1.406	-8.979	16379	14025	0	316
-2.921	-10.999	16379	13744	0	316
-6.203	-14.605	16371	13632	0	316
-7.753	-16.300	16371	13632	0	316
-5.626	-16.372	16371	13744	0	316
-3.570	-16.120	16366	13744	0	316
-1.911	-16.877	16366	13800	0	316
-3.714	-20.880	16357	13913	0	316
-7.357	-24.847	16357	14081	0	316
-12.045	-28.489	16366	14531	0	316
-14.425	-31.122	16366	15036	0	316
-15.110	-32.492	16371	15823	0	316
-12.586	-32.636	16379	16721	0	316
-9.737	-30.328	16379	17507	0	316
-7.934	-30.256	16384	18013	0	316
-10.169	-31.158	16389	18518	0	316
-12.838	-34.475	16389	19024	0	316
-14.425	-36.423	16397	19361	0	316
-11.864	-33.934	16397	19417	0	316
-6.347	-28.814	16402	19136	0	316
-3.534	-23.476	16397	18575	0	316
-2.777	-21.421	16397	17957	0	316
-5.193	-24.089	16397	17282	0	316
-5.914	-27.083	16384	16664	0	316
-5.806	-29.715	16384	16104	0	316
-4.291	-30.581	16379	15598	0	316
-3.246	-31.662	16371	15092	0	316
-3.823	-32.492	16379	14755	0	316
-5.517	-33.718	16371	14587	0	316
-6.131	-34.151	16371	14531	0	316
-6.924	-34.800	16366	14531	0	316
-8.943	-35.918	16366	14531	0	316
-10.783	-38.298	16366	14755	0	316
-12.766	-42.409	16366	15149	0	316
-14.028	-45.186	16366	15429	0	316
-11.756	-48.287	16366	15654	0	316
-10.422	-48.828	16371	16160	0	316
-9.917	-49.585	16371	16833	0	316
-10.674	-51.136	16379	17282	0	316
-14.028	-52.506	16379	17451	0	316
-16.048	-53.408	16379	17676	0	316
-15.254	-52.578	16384	18013	0	316
-10.999	-49.080	16384	18237	0	316
-7.681	-44.789	16389	18294	0	316
-2.705	-41.724	16389	18237	0	316
-0.505	-41.652	16389	18013	0	316
-1.479	-42.734	16389	17676	0	316
-2.524	-42.914	16384	17226	0	316
-2.849	-43.274	16384	16833	0	316
-1.767	-40.678	16384	16384	0	316
0.865	-40.317	16379	16047	0	316
2.633	-40.606	16379	15598	0	316
2.921	-43.274	16371	15261	0	316
-0.721	-47.494	16371	15036	0	316
-3.859	-50.018	16366	14868	0	316
-8.258	-53.011	16366	14699	0	316
-9.556	-54.778	16366	14531	0	316
-9.953	-55.572	16366	14755	0	316
-10.999	-57.230	16366	15261	0	316
-10.169	-61.053	16366	15767	0	316
-12.369	-64.731	16366	16160	0	316
-12.946	-67.977	16371	16608	0	316
-11.973	-69.455	16371	17226	0	316
-9.232	-68.265	16384	17619	0	316
-4.580	-66.246	16384	17900	0	316
-1.983	-62.604	16389	18350	0	316
0.793	-60.584	16389	18799	0	316
1.911	-58.240	16389	19024	0	316
3.750	-58.132	16397	18912	0	316
4.940	-58.204	16397	18687	0	316
4.796	-59.791	16397	18406	0	316
4.075	-61.233	16397	18013	0	316
2.596	-59.250	16397	17507	0	316
5.842	-55.860	16397	17114	0	316
8.763	-51.424	16397	16777	0	316
12.982	-47.313	16389	16440	0	316
13.091	-46.845	16389	16104	0	316
12.153	-49.116	16389	15654	0	316
10.025	-51.929	16384	15317	0	316
6.708	-53.877	16384	14980	0	316
5.806	-55.427	16379	14418	0	316
3.714	-55.932	16371	13969	0	316
1.803	-58.673	16371	13856	0	316
-1.118	-62.243	16371	14081	0	316
-5.517	-68.662	16371	14306	0	316
-10.278	-74.432	16371	14418	0	316
-15.615	-79.300	16371	14811	0	316
-17.346	-83.231	16379	15654	0	316
-17.093	-82.402	16379	16440	0	316
-15.903	-81.644	16384	16945	0	316
-14.028	-79.697	16384	17282	0	316
-10.494	-76.740	16389	17619	0	316
-7.032	-73.314	16389	17844	0	316
-1.190	-69.095	16389	17788	0	316
3.318	-65.489	16389	17563	0	316
3.823	-64.876	16389	17170	0	316
1.298	-66.318	16384	16721	0	316
-1.983	-68.770	16384	16384	0	316
-2.416	-67.436	16384	16104	0	316
2.560	-63.397	16379	15879	0	316
11.107	-57.519	16379	15542	0	316
18.103	-51.388	16371	15149	0	316
21.241	-48.503	16371	14699	0	316
18.969	-48.828	16366	14418	0	316
14.749	-49.802	16357	14193	0	316
11.323	-52.578	16366	13969	0	316
11.179	-53.372	16366	13856	0	316
12.550	-52.506	16357	14137	0	316
15.146	-49.585	16357	14699	0	316
15.254	-47.241	16357	15149	0	316
14.028	-47.169	16357	15429	0	316
9.592	-49.621	16366	15879	0	316
6.960	-54.093	16366	16552	0	316
4.580	-56.473	16366	17114	0	316
3.859	-57.843	16371	17451	0	316
5.121	-57.627	16371	17788	0	316
5.626	-57.555	16379	18294	0	316
4.760	-57.230	16379	18687	0	316
4.472	-58.348	16384	18855	0	316
2.128	-59.971	16384	18912	0	316
0.865	-60.584	16384	18912	0	316
1.442	-61.450	16389	18799	0	316
2.236	-60.692	16389	18575	0	316
3.787	-58.132	16389	18181	0	316
4.832	-56.617	16389	17788	0	316
8.150	-53.444	16384	17451	1	724
12.622	-49.730	16384	17001	0	724
19.473	-44.248	16384	16440	0	724
24.342	-40.389	16379	16047	0	724
25.712	-37.649	16379	15654	0	724
22.935	-41.147	16371	15205	0	724
19.401	-44.104	16371	14755	0	724
18.247	-48.612	16366	14418	0	724
19.149	-49.116	16357	14193	0	724
21.493	-49.405	16357	13969	0	724
21.926	-48.539	16352	13856	0	724
19.401	-49.730	16357	13913	0	724
15.759	-50.775	16357	14193	0	724
10.602	-54.850	16352	14362	0	724
6.203	-59.466	16352	14474	0	724
4.364	-64.912	16352	14811	0	724
2.993	-70.537	16352	15429	0	724
4.255	-73.206	16357	15991	0	724
7.140	-73.350	16357	16384	0	724
13.018	-70.537	16357	16777	0	724
18.788	-66.967	16366	17339	0	724
22.178	-65.417	16366	17844	0	724
21.818	-66.318	16371	18125	0	724
17.598	-71.223	16371	18350	0	724
12.369	-75.983	16371	18406	0	724
9.268	-82.438	16371	18350	0	724
7.934	-86.044	16371	18125	0	724
9.665	-88.424	16379	17900	0	724
10.566	-88.857	16379	17788	0	724
12.297	-88.713	16379	17676	0	724
13.631	-87.919	16379	17395	0	724
15.398	-87.486	16379	17001	0	724
16.408	-87.523	16379	16440	0	724
19.113	-87.847	16371	15935	0	724
20.339	-88.316	16366	15429	0	724
21.926	-88.100	16366	15092	0	724
21.601	-88.244	16357	15149	0	724
20.519	-88.893	16357	15373	0	724
18.752	-89.722	16357	15486	0	724
17.057	-91.237	16357	15654	0	724
16.805	-94.050	16366	16104	0	724
17.923	-94.987	16366	16721	0	724
20.988	-95.997	16371	17226	0	724
23.116	-97.367	16371	17563	0	724
23.585	-98.017	16379	17957	0	724
20.303	-101.442	16384	18462	0	724
13.668	-104.868	16384	18631	0	724
6.599	-108.402	16384	18406	0	724
1.803	-111.432	16384	18013	0	724
0.216	-112.910	16384	17563	0	724
1.046	-114.713	16384	17170	0	724
3.210	-114.677	16384	16889	0	724
6.599	-116.372	16384	16608	0	724
8.943	-115.398	16379	16384	0	724
11.937	-114.281	16379	15991	0	724
12.333	-112.550	16379	15767	0	724
10.422	-110.350	16379	15654	0	724
6.780	-110.025	16379	15654	0	724
7.465	-109.052	16371	15598	0	724
10.674	-106.960	16371	15429	0	724
19.401	-101.911	16371	15261	0	724
28.092	-95.564	16371	15317	0	724
33.429	-88.713	16371	15654	0	724
35.341	-84.205	16379	15991	0	724
34.079	-82.077	16384	16216	0	724
32.708	-82.762	16384	16552	0	724
29.643	-83.231	16389	17114	0	724
27.191	-86.188	16389	17563	0	724
23.512	-90.732	16389	17788	0	724
17.887	-95.925	16397	18181	0	724
12.153	-103.029	16402	18687	0	724
8.691	-106.852	16402	19024	0	724
6.167	-109.412	16411	19136	0	724
6.563	-107.789	16411	19080	0	724
9.340	-105.481	16416	18799	0	724
9.592	-105.049	16416	18350	0	724
8.727	-107.501	16416	17788	0	724
5.698	-111.612	16411	17170	0	724
2.849	-114.425	16411	16496	0	724
1.875	-115.687	16411	15879	1	316
2.777	-112.838	16402	15261	0	316
4.472	-112.333	16397	14699	0	316
5.445	-111.684	16389	14137	0	316
6.239	-112.045	16389	13632	0	316
8.402	-112.189	16384	13182	0	316
11.648	-109.556	16379	12901	0	316
17.490	-105.013	16379	12958	0	316
22.142	-101.442	16384	13351	0	316
26.902	-96.790	16379	13800	0	316
29.066	-92.896	16379	14193	0	316
31.158	-89.290	16379	14643	0	316
29.246	-88.496	16384	15317	0	316
28.309	-87.523	16384	15991	0	316
27.660	-86.621	16389	16440	0	316
25.712	-87.414	16389	17001	0	316
25.279	-89.434	16389	17563	0	316
22.863	-92.102	16397	17900	0	316
20.195	-96.610	16402	17957	0	316
20.772	-97.872	16402	18125	0	316
23.873	-95.889	16402	18294	0	316
26.470	-91.093	16402	18406	0	316
28.453	-86.008	16402	18237	0	316
24.883	-85.323	16402	17957	0	316
19.510	-87.270	16402	17563	0	316
12.622	-91.598	16402	17170	0	316
6.094	-96.682	16402	16608	0	316
2.092	-101.082	16397	16160	0	316
0.144	-100.072	16397	15710	0	316
1.803	-98.089	16389	15261	0	316
3.642	-96.863	16389	14868	0	316
4.183	-96.033	16384	14474	0	316
2.056	-99.675	16379	14081	0	316
0.144	-100.865	16371	13800	0	316
0.902	-100.541	16371	13519	0	316
3.606	-95.456	16366	13351	0	316
9.520	-88.713	16366	13519	0	316
12.153	-83.844	16366	13969	0	316
14.425	-81.103	16366	14418	0	316
16.985	-78.146	16366	14811	0	316
20.159	-74.757	16366	15429	0	316
23.260	-70.069	16371	16160	0	316
24.630	-68.410	16371	16608	0	316
22.178	-68.518	16371	16721	0	316
16.372	-72.521	16379	16945	0	316
12.117	-77.461	16384	17395	0	316
10.097	-78.255	16384	17788	0	316
12.441	-74.937	16384	17844	0	316
14.858	-72.953	16384	17788	0	316
15.831	-70.609	16384	17676	0	316
15.723	-71.367	16384	17451	0	316
13.523	-73.567	16384	17226	0	316
13.956	-75.117	16379	16945	0	316
15.435	-74.107	16379	16664	0	316
15.687	-72.990	16379	16496	0	316
14.353	-74.144	16379	16440	0	316
10.314	-74.829	16379	16384	0	316
7.248	-75.045	16384	16384	0	316
6.455	-72.340	16379	16384	0	316
10.422	-67.400	16379	16440	0	316
13.451	-61.378	16379	16496	0	316
17.670	-57.807	16379	16721	0	316
18.608	-56.040	16379	16889	0	316
15.687	-57.591	16379	16945	0	316
12.153	-58.817	16379	16945	0	316
10.746	-60.151	16384	17282	0	316
10.999	-55.536	16389	18125	0	316
17.202	-48.503	16397	19080	0	316
22.431	-40.966	16402	19810	0	316
23.296	-37.685	16411	20372	0	316
20.916	-40.570	16424	20766	0	316
16.336	-45.402	16424	20878	0	316
15.182	-48.179	16424	20709	0	316
18.680	-46.015	16429	20372	0	316
23.008	-41.976	16429	19867	0	316
23.801	-41.291	16429	19136	0	316
19.005	-44.933	16429	18462	0	316
11.612	-50.775	16429	17788	0	316
6.924	-55.716	16429	17170	0	316
5.481	-55.752	16429	16496	1	316
9.629	-51.497	16424	15935	0	316
12.694	-46.592	16416	15429	0	316
12.441	-42.950	16416	14924	0	316
10.025	-42.770	16416	14531	0	316
6.635	-41.940	16411	14137	0	316
8.078	-40.822	16411	13913	0	316
11.720	-36.098	16411	13913	0	316
15.290	-33.790	16411	14193	0	316
15.975	-33.934	16411	14362	0	316
14.064	-35.485	16402	14474	0	316
12.405	-35.088	16416	14868	0	316
16.913	-30.869	16416	15373	0	316
23.837	-22.863	16416	15654	0	316
30.581	-15.867	16416	15710	0	316
30.977	-13.848	16416	15879	0	316
27.479	-16.625	16424	16328	0	316
21.241	-19.041	16424	16664	0	316
19.473	-19.329	16424	16777	0	316
21.168	-15.903	16429	16721	0	316
24.450	-11.215	16429	16833	0	316
24.522	-8.006	16438	17114	0	316
22.863	-7.717	16429	17339	0	316
18.752	-10.494	16438	17395	0	316
17.310	-11.720	16438	17339	0	316
17.202	-13.235	16438	17114	0	316
16.805	-14.389	16438	16777	0	316
16.949	-15.687	16438	16384	0	316
15.723	-15.867	16429	16047	0	316
13.631	-16.985	16429	15710	0	316
12.117	-17.851	16424	15373	0	316
9.196	-17.995	16424	15036	0	316
9.232	-17.382	16416	14643	0	316
9.629	-16.913	16416	14193	0	316
12.045	-15.398	16411	13800	0	316
14.281	-15.579	16402	13576	0	316
13.704	-16.589	16402	13688	0	316
14.100	-17.490	16402	14025	0	316
13.415	-15.975	16402	14137	0	316
14.533	-13.920	16402	14193	0	316
14.605	-14.353	16402	14418	0	316
13.451	-14.569	16402	14811	0	316
13.415	-16.805	16402	15092	0	316
14.533	-15.939	16402	15261	0	316
18.824	-13.451	16397	15598	0	316
22.034	-10.025	16397	16160	0	316
23.693	-8.186	16397	16384	0	316
21.529	-8.619	16397	16272	0	316
20.772	-8.475	16397	15935	0	316
18.680	-10.133	16389	15654	0	316
15.867	-13.127	16384	15205	0	316
12.189	-18.175	16384	14811	0	316
6.816	-23.476	16379	14531	0	316
4.724	-26.938	16371	14418	0	316
6.275	-25.893	16371	14362	0	316
9.737	-23.044	16366	14250	0	316
12.766	-19.257	16357	14193	0	316
13.884	-16.697	16357	14137	0	316
12.189	-15.939	16357	14025	0	316
10.891	-15.326	16352	13800	0	316
10.169	-15.831	16344	13744	0	316
8.583	-16.697	16344	14081	0	316
9.556	-16.805	16344	14699	0	316
10.097	-15.362	16344	15317	0	316
13.343	-10.999	16344	15935	0	316
15.867	-8.042	16344	16608	0	316
18.067	-5.517	16352	17339	0	316
18.356	-7.934	16352	17900	0	316
15.939	-11.684	16357	18181	0	316
12.802	-14.966	16371	18462	0	316
10.025	-16.372	16366	18687	0	316
9.124	-15.615	16366	18799	0	316
8.150	-12.658	16366	18799	0	316
8.330	-9.773	16366	18687	0	316
6.635	-9.340	16366	18518	0	316
6.455	-9.268	16357	18181	0	316
5.590	-10.999	16357	17788	0	316
5.734	-12.622	16357	17339	0	316
6.383	-13.415	16352	16889	0	316
5.806	-12.297	16344	16440	0	316
5.337	-12.189	16344	16047	0	316
4.760	-11.504	16339	15710	0	316
3.642	-12.514	16344	15486	0	316
3.534	-13.487	16339	15317	0	316
3.787	-11.360	16339	15205	0	316
5.301	-8.871	16330	15149	0	316
8.511	-4.544	16330	15429	0	316
9.484	0.252	16330	15991	0	316
9.304	1.731	16339	16608	0	316
7.753	0.397	16339	17114	0	316
8.258	-1.082	16352	17732	0	316
10.566	-0.757	16366	18631	0	316
16.516	2.560	16366	19642	0	316
21.421	8.078	16371	20428	0	316
21.385	12.297	16384	21103	0	316
16.192	12.622	16389	21777	0	316
10.350	7.357	16397	22114	0	316
5.914	2.705	16402	22114	0	316
6.275	-0.252	16402	21777	0	316
9.845	1.334	16411	21103	0	316
14.605	5.842	16411	20316	0	316
16.156	9.737	16402	19473	0	316
16.300	13.054	16402	18631	1	408
17.166	14.749	16402	17788	0	408
18.897	15.831	16397	16945	0	408
20.231	16.625	16397	16160	0	408
22.070	16.444	16389	15373	0	408
22.214	15.867	16389	14699	0	408
20.375	15.002	16384	14137	0	408
20.267	12.910	16379	13688	0	408
20.519	12.117	16379	13407	0	408
21.096	12.550	16379	13463	0	408
22.395	12.982	16379	13744	0	408
22.034	14.641	16379	14025	0	408
22.106	14.966	16379	14250	0	408
18.969	13.920	16379	14755	0	408
16.048	9.737	16384	15317	0	408
13.343	8.475	16384	15767	0	408
12.297	6.419	16389	16047	0	408
12.117	7.248	16389	16440	0	408
13.884	6.744	16397	17001	0	408
15.074	7.717	16397	17339	0	408
14.785	8.511	16402	17395	0	408
13.487	8.763	16402	17395	0	408
13.235	10.169	16402	17451	0	408
11.179	11.540	16402	17339	0	408
10.350	10.061	16411	17058	0	408
8.366	9.160	16402	16777	0	408
8.475	6.780	16402	16384	0	408
7.393	6.347	16402	15935	0	408
7.248	6.491	16397	15373	0	408
8.547	7.717	16397	14924	0	408
8.150	9.665	16389	14587	0	408
7.753	8.835	16389	14306	0	408
6.131	8.511	16384	14137	0	408
5.914	7.573	16384	14025	0	408
5.950	9.665	16384	14025	0	408
7.537	10.710	16379	14025	0	408
9.520	13.271	16371	13856	0	408
9.484	14.605	16371	13688	0	408
9.592	14.749	16371	13800	0	408
9.556	15.218	16371	14362	0	408
10.819	17.093	16371	14811	0	408
12.802	19.185	16371	15205	0	408
12.514	19.401	16371	15767	0	408
10.783	20.916	16379	16384	0	408
9.016	20.772	16379	16889	0	408
7.609	20.159	16379	17170	0	408
7.789	20.772	16384	17619	0	408
8.871	22.178	16389	18237	0	408
7.393	22.683	16389	18687	0	408
5.662	23.693	16397	18855	0	408
3.714	22.935	16397	18687	0	408
1.911	20.808	16397	18350	0	408
0.361	18.860	16397	17957	0	408
-1.262	16.336	16389	17507	0	408
-3.606	14.785	16389	17114	0	408
-6.924	13.127	16389	16777	0	408
-8.186	13.235	16384	16384	0	408
-9.845	12.333	16384	16047	0	408
-9.016	11.792	16384	15767	0	408
-7.429	11.071	16379	15429	0	408
-4.580	11.396	16379	15092	0	408
-2.236	11.287	16371	14811	0	408
-1.226	13.487	16366	14474	0	408
-0.361	15.615	16366	14306	0	408
0.361	18.500	16357	14137	0	408
0.685	19.401	16357	14081	0	408
1.659	21.313	16357	14193	0	408
1.515	21.745	16357	14643	0	408
2.308	20.447	16357	15261	0	408
3.787	22.539	16357	15823	0	408
7.537	24.775	16357	16160	0	408
11.900	29.607	16366	16496	0	408
16.228	35.016	16366	17058	0	408
18.139	38.586	16371	17339	0	408
20.050	41.688	16371	17451	0	408
21.132	44.537	16379	17451	0	408
23.657	46.268	16371	17507	0	408
24.378	46.809	16371	17451	0	408
22.250	45.222	16371	17451	0	408
17.057	39.993	16379	17451	0	408
8.294	34.259	16379	17451	0	408
3.426	29.499	16379	17395	0	408
0.505	27.515	16379	17282	0	408
1.839	26.794	16371	17170	0	408
3.534	26.794	16371	17001	0	408
2.741	25.460	16371	16721	0	408
-0.829	24.017	16371	16384	0	408
-3.246	21.890	16366	16104	0	408
-4.327	22.358	16371	16216	0	408
-3.750	26.253	16371	16608	0	408
-1.479	27.371	16371	16945	0	408
-0.288	29.174	16371	17114	0	408
-0.397	27.119	16379	17339	0	408
0.216	26.758	16379	17732	0	408
3.137	26.542	16384	17900	0	408
7.501	31.518	16384	17844	0	408
12.369	37.613	16384	17844	0	408
15.795	42.048	16389	17957	0	408
15.939	44.320	16389	17957	0	408
15.074	46.159	16389	17619	0	408
14.389	48.359	16389	17114	0	408
15.362	51.388	16384	16552	0	408
17.274	54.345	16384	16047	0	408
18.175	54.345	16379	15598	0	408
15.507	50.956	16379	15149	0	408
10.566	46.484	16371	14699	0	408
5.986	42.878	16366	14306	0	408
3.390	41.940	16366	13969	0	408
3.029	41.543	16357	13688	0	408
1.046	38.875	16352	13519	0	408
-0.469	33.466	16352	13576	0	408
-6.419	27.047	16352	13632	0	408
-8.439	21.313	16352	13856	0	408
-8.871	21.673	16352	14193	0	408
-6.527	22.142	16352	14587	0	408
-5.626	22.575	16352	14924	0	408
-8.006	18.608	16352	15261	0	408
-10.097	13.415	16352	15935	0	408
-11.071	10.566	16357	16721	0	408
-7.429	13.379	16357	17339	0	408
-2.813	17.310	16366	17676	0	408
1.262	22.431	16366	18069	0	408
2.092	23.296	16371	18462	0	408
1.154	22.142	16371	18799	0	408
1.911	20.483	16379	19080	0	408
5.409	21.277	16384	19361	0	408
8.294	22.827	16384	19642	0	408
10.891	24.270	16389	19586	0	408
11.432	25.207	16389	19361	0	408
10.097	26.253	16389	18968	0	408
9.160	26.470	16389	18631	0	408
10.530	29.066	16389	18237	0	408
11.143	33.321	16389	17844	0	408
12.225	32.564	16389	17451	0	408
10.891	29.859	16389	17058	0	408
5.373	22.683	16389	16664	0	408
0.938	14.641	16389	16384	0	408
-4.616	8.691	16384	16160	0	408
-9.484	4.436	16384	15991	0	408
-11.432	2.308	16384	15823	0	408
-13.884	-0.577	16384	15710	0	408
-15.975	-2.524	16384	15598	0	408
-15.795	-3.029	16384	15710	0	408
-15.362	1.154	16389	15935	0	408
-11.107	5.337	16389	16047	0	408
-7.537	11.756	16389	16047	0	408
-2.669	14.894	16389	16160	0	408
0.325	15.903	16389	16440	0	408
2.849	16.625	16397	16664	0	408
5.626	17.743	16397	16721	0	408
6.239	20.087	16397	16833	0	408
6.383	21.854	16402	17058	0	408
4.147	23.260	16402	17058	0	408
0.144	22.972	16402	16777	0	408
-0.433	23.873	16402	16440	0	408
4.111	28.417	16402	16272	0	408
12.658	34.043	16402	16104	0	408
19.906	38.767	16397	15823	0	408
23.080	41.904	16397	15542	0	408
19.726	39.740	16397	15317	0	408
12.117	34.656	16389	15092	0	408
4.003	28.777	16389	14980	0	408
-2.019	23.440	16389	15036	0	408
-6.167	18.211	16389	15092	0	408
-8.835	14.100	16389	15205	0	408
-12.297	10.422	16389	15317	0	408
-13.848	7.321	16389	15429	0	408
-14.894	7.393	16389	15767	0	408
-14.425	8.511	16397	16216	0	408
-11.756	9.448	16397	16496	0	408
-11.071	10.278	16389	16608	0	408
-10.314	9.665	16397	16945	0	408
-11.756	8.547	16402	17676	0	408
-12.369	10.314	16411	18406	0	408
-10.999	12.045	16411	18743	0	408
-8.150	13.307	16416	18968	0	408
-5.157	15.182	16424	19136	0	408
-2.669	16.192	16424	19024	0	408
-0.793	19.149	16424	18575	0	408
1.803	24.270	16424	17900	0	408
5.806	29.571	16416	17114	0	408
9.376	34.439	16416	16384	0	408
12.081	37.144	16411	15654	0	408
13.127	38.190	16402	14980	0	408
11.720	38.298	16397	14362	0	408
10.927	38.514	16389	13800	0	408
8.943	37.432	16384	13351	0	408
7.140	37.793	16384	13070	0	408
3.173	36.603	16379	12901	0	408
-2.380	33.466	16371	12789	0	408
-8.402	28.994	16371	12789	0	408
-14.858	22.899	16366	12845	0	408
-19.510	17.634	16371	13238	0	408
-22.935	14.389	16371	13856	0	408
-24.125	12.117	16371	14193	0	408
-26.109	10.061	16379	14362	0	408
-28.633	5.409	16371	14699	0	408
-32.095	0.505	16371	15317	0	408
-33.357	-3.678	16371	15710	0	408
-32.600	-4.832	16371	15991	0	408
-28.381	-1.010	16371	16384	0	408
-21.998	5.590	16379	16945	0	408
-16.084	11.251	16379	17507	0	408
-13.595	15.651	16379	17844	0	408
-11.251	16.264	16384	18013	0	408
-10.566	15.146	16384	18406	0	408
-8.402	16.048	16389	18855	0	408
-3.606	20.591	16389	19024	0	408
2.705	25.784	16389	18968	0	408
8.727	32.997	16397	18855	0	408
14.208	36.855	16397	18631	0	408
15.939	40.642	16397	18406	0	408
16.589	40.894	16397	18125	1	848
16.877	41.219	16397	17844	0	848
14.858	41.075	16384	17451	0	848
12.766	38.370	16389	16945	0	848
9.376	34.583	16384	16328	0	848
4.472	29.751	16384	15654	0	848
0.397	25.965	16379	15149	0	848
-1.659	23.765	16379	14755	0	848
-2.777	23.404	16371	14474	0	848
-4.219	24.522	16371	14418	0	848
-6.275	23.440	16371	14643	0	848
-7.753	21.673	16366	14755	0	848
-9.845	20.916	16366	14755	0	848
-11.287	19.618	16366	14868	0	848
-11.684	18.211	16366	15205	0	848
-11.684	17.274	16366	15542	0	848
-11.973	16.228	16366	15823	0	848
-9.088	16.769	16366	16160	0	848
-6.888	18.428	16366	16496	0	848
-4.977	21.060	16371	16833	0	848
-3.498	22.899	16371	16945	0	848
-2.416	25.929	16371	16889	0	848
-0.072	30.400	16366	16664	0	848
3.029	36.567	16366	16440	0	848
7.753	41.363	16366	16328	0	848
8.619	42.157	16357	16216	0	848
9.376	40.930	16366	16216	0	848
9.268	41.219	16366	16272	0	848
11.468	43.238	16366	16216	0	848
14.821	48.828	16366	16160	0	848
18.824	51.569	16357	15991	0	848
17.202	50.884	16357	15823	0	848
12.153	47.025	16357	15654	0	848
4.436	42.914	16352	15710	0	848
-0.072	42.048	16357	16104	0	848
-2.236	42.445	16357	16608	0	848
-2.488	41.688	16357	17001	0	848
-4.255	38.118	16366	17226	0	848
-8.330	33.321	16366	17676	0	848
-13.523	28.886	16371	18237	0	848
-16.697	26.181	16371	18518	0	848
-18.572	24.342	16379	18575	0	848
-21.168	22.972	16384	18855	0	848
-25.532	17.454	16384	19417	0	848
-31.013	12.117	16389	19586	0	848
-33.538	9.448	16389	19305	0	848
-33.393	8.078	16389	18799	0	848
-29.210	11.360	16389	18350	0	848
-24.306	15.795	16389	17900	0	848
-18.356	20.880	16389	17395	0	848
-11.143	25.568	16389	17058	0	848
-4.616	30.400	16389	16833	0	848
0.325	32.564	16389	16608	0	848
0.433	31.302	16389	16384	0	848
-3.895	27.948	16384	16104	0	848
-7.501	24.847	16384	15823	0	848
-9.124	24.991	16384	15542	0	848
-6.708	29.427	16384	15149	0	848
-3.065	34.259	16379	14980	0	848
-2.669	36.783	16384	15092	0	848
-2.596	36.062	16384	15542	0	848
-4.400	32.780	16384	15823	0	848
-5.085	30.689	16384	15823	0	848
-2.921	29.499	16384	15991	0	848
-2.380	30.941	16389	16328	0	848
-1.370	30.833	16389	16552	0	848
-1.695	31.771	16389	16777	0	848
-2.019	30.905	16397	17001	0	848
-2.777	29.282	16397	17282	0	848
-4.904	25.568	16402	17339	0	848
-6.239	23.765	16402	17170	0	848
-7.825	22.322	16402	16945	0	848
-6.563	23.440	16402	16664	0	848
-6.888	25.965	16397	16384	0	848
-8.042	24.306	16397	16160	0	848
-13.523	20.808	16397	15879	0	848
-17.706	16.552	16397	15654	0	848
-18.067	15.795	16397	15429	0	848
-12.946	21.421	16389	15317	0	848
-6.311	28.777	16389	15261	1	316
0.144	35.882	16389	15205	0	316
2.056	38.803	16389	15149	0	316
1.947	37.793	16389	15149	0	316
2.488	37.108	16389	15261	0	316
3.895	35.810	16389	15710	0	316
3.101	33.393	16397	16328	0	316
0.865	29.571	16397	16608	0	316
-2.921	26.361	16397	16721	0	316
-4.508	25.388	16402	16833	0	316
-1.659	27.912	16397	17058	0	316
3.318	33.033	16397	17114	0	316
5.049	34.872	16397	17001	0	316
3.823	32.997	16397	17001	0	316
-0.829	29.282	16402	17170	0	316
-3.173	24.558	16402	17170	0	316
-4.003	24.089	16402	17058	0	316
-2.272	22.935	16402	17001	0	316
-2.524	21.457	16402	17170	0	316
-4.688	20.880	16411	17170	0	316
-6.996	18.356	16402	16889	0	316
-9.448	17.202	16402	16384	0	316
-8.871	18.500	16397	15879	0	316
-8.655	18.860	16397	15261	0	316
-6.635	17.959	16389	14643	0	316
-7.176	15.831	16384	14250	0	316
-6.563	13.559	16384	14025	0	316
-5.770	12.982	16379	13913	0	316
-3.895	15.326	16379	13744	0	316
-1.010	20.087	16371	13632	0	316
1.226	23.008	16371	13576	0	316
1.731	25.748	16366	13463	0	316
2.092	24.198	16357	13351	0	316
2.164	24.630	16357	13407	0	316
2.416	23.693	16357	13744	0	316
3.390	22.503	16352	14250	0	316
2.236	19.365	16352	14699	0	316
1.587	16.769	16352	15149	0	316
1.406	14.894	16357	15935	0	316
2.272	18.500	16366	16777	0	316
5.734	25.604	16371	17339	0	316
11.432	34.800	16371	17732	0	316
14.966	40.750	16379	18294	0	316
16.552	41.003	16384	18968	0	316
13.271	37.505	16384	19361	0	316
8.294	31.374	16389	19305	0	316
3.570	25.748	16389	19136	0	316
-0.397	24.594	16389	19024	0	316
-1.515	22.683	16389	18912	0	316
-2.633	22.070	16389	18743	0	316
-3.823	20.952	16389	18575	0	316
-5.013	20.375	16389	18294	0	316
-5.662	20.123	16389	17900	0	316
-8.222	19.113	16389	17507	0	316
-10.674	16.408	16389	17226	0	316
-13.235	13.776	16384	17058	0	316
-15.074	11.143	16384	16889	0	316
-14.353	11.396	16384	16664	0	316
-11.648	13.163	16384	16496	0	316
-10.638	15.975	16384	16384	0	316
-8.979	17.743	16384	16272	0	316
-9.160	19.221	16384	16047	0	316
-9.448	19.906	16379	15823	0	316
-8.366	20.844	16384	15654	0	316
-8.619	19.906	16384	15767	0	316
-9.304	19.329	16384	15991	0	316
-12.946	17.021	16389	16160	0	316
-14.461	16.408	16384	16384	0	316
-15.975	16.480	16384	16664	0	316
-15.002	18.824	16389	16889	0	316
-12.910	21.204	16389	16945	0	316
-12.550	24.522	16389	17058	0	316
-10.061	24.883	16389	17114	0	316
-9.448	25.063	16389	17001	0	316
-6.311	23.368	16389	16889	0	316
-4.219	21.709	16389	16608	0	316
-2.921	20.916	16389	16328	0	316
-2.885	20.591	16389	15879	0	316
-2.849	21.601	16384	15429	0	316
-2.885	23.801	16379	14868	0	316
-2.921	25.965	16371	14306	0	316
-1.875	27.912	16371	13744	0	316
-1.875	27.948	16366	13295	0	316
-3.065	25.712	16357	13014	0	316
-3.967	23.729	16357	12958	0	316
-3.210	23.188	16357	13126	0	316
-2.272	25.893	16352	13238	0	316
-0.361	30.148	16352	13238	0	316
-0.829	31.843	16344	13463	0	316
-5.373	30.545	16344	13969	0	316
-12.874	25.063	16344	14474	0	316
-19.582	19.005	16344	14924	0	316
-23.801	13.920	16344	15654	0	316
-24.162	11.215	16352	16552	0	316
-22.683	11.792	16357	17451	0	316
-19.005	12.658	16366	18013	0	316
-13.668	16.625	16371	18406	0	316
-7.032	20.916	16371	18575	0	316
-1.479	24.017	16371	18631	0	316
1.479	27.984	16371	18518	0	316
-0.721	25.893	16371	18181	0	316
-5.157	24.702	16366	17788	0	316
-10.674	21.241	16366	17339	0	316
-10.169	19.005	16366	16945	0	316
-9.376	18.428	16357	16664	0	316
-7.176	19.041	16357	16384	0	316
-8.511	18.969	16352	16272	0	316
-10.927	19.077	16352	16104	0	316
-15.002	17.670	16352	15879	0	316
-17.382	15.651	16344	15710	0	316
-17.995	14.208	16344	15542	0	316
-17.779	12.586	16344	15542	0	316
-17.346	14.028	16344	15710	0	316
-16.048	17.057	16352	16216	0	316
-14.425	21.385	16357	17058	0	316
-9.953	26.181	16357	17957	0	316
-5.734	31.518	16366	18631	0	316
-1.046	34.547	16371	19192	0	316
1.046	35.774	16379	19754	0	316
-2.560	34.800	16384	20035	0	316
-9.701	28.633	16389	20035	0	316
-19.437	23.476	16389	20035	0	316
-24.017	18.824	16397	20148	0	316
-24.378	18.283	16402	20148	0	316
-19.329	19.978	16402	19923	0	316
-15.471	20.988	16402	19586	0	316
-14.821	20.952	16411	19249	0	316
-18.356	17.346	16411	18799	0	316
-22.322	13.884	16411	18350	1	512
-25.388	11.432	16411	17844	0	512
-24.666	10.855	16411	17339	0	512
-22.539	12.009	16411	16777	0	512
-21.529	11.468	16402	16216	0	512
-22.395	10.783	16397	15654	0	512
-27.876	8.330	16397	15149	0	512
-32.131	4.796	16397	14699	0	512
-34.872	3.967	16389	14418	0	512
-33.646	6.852	16389	14306	0	512
-27.335	10.242	16389	14362	0	512
-19.834	15.651	16389	14474	0	512
-15.795	19.726	16389	14587	0	512
-12.081	20.447	16389	14587	0	512
-12.874	18.644	16389	14811	0	512
-13.559	17.202	16389	15149	0	512
-15.471	16.841	16397	15486	0	512
-14.569	19.185	16397	15767	0	512
-12.802	22.358	16402	16272	0	512
-10.061	26.253	16402	16721	0	512
-6.816	29.463	16411	17058	0	512
-3.750	32.059	16411	17170	0	512
-2.596	33.718	16416	17170	0	512
-3.246	34.006	16416	17170	0	512
-5.914	30.508	16411	17114	0	512
-12.225	24.017	16416	16945	0	512
-19.149	18.067	16411	16721	0	512
-24.162	13.668	16411	16328	0	512
-26.397	12.297	16402	15710	0	512
-25.424	13.379	16402	15205	0	512
-23.296	12.946	16397	14924	0	512
-20.952	13.271	16397	14755	0	512
-20.014	13.054	16397	14587	0	512
-20.664	13.163	16389	14362	0	512
-21.241	12.405	16389	14306	0	512
-23.693	10.530	16389	14531	0	512
-24.811	7.717	16389	14868	0	512
-25.135	5.409	16389	15092	0	512
-22.467	5.770	16389	15092	0	512
-18.824	9.773	16389	15149	0	512
-12.874	13.487	16389	15542	0	512
-8.078	18.067	16389	16104	0	512
-5.265	21.385	16397	16496	0	512
-4.075	24.089	16397	16945	0	512
-5.517	26.217	16402	17395	0	512
-5.481	27.263	16402	17676	0	512
-5.049	29.210	16411	17732	0	512
-2.164	29.427	16411	17676	0	512
2.452	31.518	16411	17507	0	512
8.186	33.790	16402	17114	0	512
13.740	36.675	16402	16608	0	512
17.238	38.550	16397	16272	0	512
16.985	37.180	16389	15879	0	512
11.720	32.600	16389	15486	0	512
5.049	26.217	16384	15036	0	512
-1.659	20.014	16379	14587	0	512
-6.419	17.923	16379	14193	0	512
-7.176	18.247	16371	13856	0	512
-7.357	21.637	16366	13688	0	512
-7.248	22.467	16371	13744	0	512
-10.422	20.772	16371	14137	0	512
-15.254	15.903	16371	14699	0	512
-19.978	10.674	16371	15149	0	512
-21.709	8.943	16371	15261	0	512
-20.555	10.458	16371	15486	0	512
-16.336	15.579	16371	15823	0	512
-13.631	19.546	16371	16160	0	512
-11.576	21.493	16371	16384	0	512
-11.540	21.709	16371	16608	0	512
-11.504	21.277	16371	17114	0	512
-9.124	21.529	16379	17619	0	512
-8.222	22.322	16379	17957	0	512
-6.419	22.683	16384	18406	0	512
-4.977	23.152	16389	18912	0	512
-2.849	24.306	16389	19192	0	512
-0.108	25.388	16389	19249	0	512
5.229	28.020	16397	19080	0	512
7.825	28.814	16397	18855	0	512
8.186	28.489	16397	18518	0	512
3.606	25.063	16397	18125	0	512
0.361	22.863	16397	17676	0	512
-2.524	20.736	16389	17282	0	512
-1.875	21.168	16389	17058	0	512
0.180	21.673	16389	16833	0	512
-0.613	21.024	16389	16552	0	512
-4.832	17.382	16389	16272	0	512
-10.097	12.910	16384	15935	0	512
-13.199	7.537	16384	15486	0	512
-14.172	6.671	16379	15092	0	512
-10.566	5.950	16379	15092	0	512
-8.294	7.501	16384	15373	0	512
-6.780	10.025	16384	15710	0	512
-8.330	10.891	16384	15991	0	512
-8.943	11.143	16389	16384	0	512
-9.412	11.540	16389	16833	0	512
-7.573	10.855	16389	17001	0	512
-5.770	12.477	16389	16945	0	512
-1.623	13.920	16397	17114	0	512
1.010	16.697	16397	17451	0	512
4.472	20.123	16402	17676	0	512
6.599	23.549	16397	17619	0	512
8.619	25.568	16397	17563	0	512
7.645	26.217	16397	17451	0	512
4.832	23.945	16397	17282	0	512
-0.252	20.555	16397	17058	0	512
-4.652	18.139	16397	16721	0	512
-6.203	18.860	16397	16328	0	512
-4.796	22.431	16389	15879	0	512
-1.731	24.414	16389	15429	0	512
-0.541	24.125	16389	15092	0	512
-2.524	20.447	16384	14924	0	512
-6.311	15.651	16384	14755	0	512
-10.422	12.189	16379	14643	0	512
-10.783	11.035	16379	14531	0	512
-10.422	12.045	16379	14699	0	512
-8.258	14.749	16379	15149	0	512
-6.960	16.444	16384	15542	0	512
-5.481	19.005	16384	15654	0	512
-6.383	18.933	16384	15935	0	512
-5.481	19.149	16384	16440	0	512
-5.373	18.139	16389	17001	0	512
-7.898	17.454	16389	17282	0	512
-11.251	16.769	16397	17563	0	512
-15.326	15.326	16397	17900	0	512
-18.572	12.838	16402	17957	0	512
-18.320	11.864	16402	17788	0	512
-15.579	12.081	16402	17451	0	512
-12.261	11.756	16397	17058	0	512
-7.825	14.100	16397	16552	0	512
-7.176	14.785	16397	16104	0	512
-6.744	15.615	16389	15654	0	512
-8.547	14.677	16389	15261	0	512
-11.396	14.641	16384	14924	0	512
-14.100	14.245	16379	14643	0	512
-15.543	12.730	16379	14362	0	512
-18.031	11.648	16371	14193	0	512
-19.942	8.871	16371	14081	0	512
-20.700	7.609	16366	13969	0	512
-19.473	6.960	16366	13913	0	512
-17.057	10.206	16366	14137	0	512
-14.425	11.720	16366	14699	0	512
-13.559	13.487	16366	15149	0	512
-12.874	13.451	16366	15542	0	512
-14.533	13.595	16366	15991	0	512
-15.038	13.091	16366	16384	0	512
-14.353	14.028	16366	16608	0	512
-15.002	12.982	16366	16721	0	512
-14.028	11.323	16371	16945	0	512
-14.533	10.097	16379	17451	0	512
-14.208	10.674	16379	17788	0	512
-12.874	12.910	16384	17957	0	512
-11.251	16.877	16384	17957	0	512
-7.285	20.303	16384	17732	0	512
-4.977	21.060	16379	17451	0	512
-4.652	20.736	16379	17114	0	512
-7.140	18.680	16379	16777	0	512
-11.287	17.382	16371	16440	0	512
-14.064	16.336	16371	16216	0	512
-14.713	16.300	16371	15935	0	512
-14.317	16.048	16366	15654	0	512
-14.208	14.569	16366	15429	0	512
-13.451	14.317	16357	15429	0	512
-14.064	13.379	16357	15429	0	512
-14.208	12.514	16357	15373	0	512
-12.730	13.668	16352	15317	0	512
-13.595	13.271	16352	15317	0	512
-14.064	13.487	16352	15261	0	512
-15.471	12.838	16344	15317	0	512
-15.182	14.100	16344	15542	0	512
-13.776	14.966	16352	15935	0	512
-13.487	16.552	16357	16160	0	512
-12.874	16.084	16352	16160	0	512
-15.939	13.091	16352	16216	0	512
-18.824	10.494	16352	16384	0	512
-20.664	7.032	16352	16608	0	512
-20.736	7.825	16352	16889	0	512
-19.005	8.727	16357	17451	0	512
-16.913	11.612	16366	18181	0	512
-14.677	12.477	16366	18799	0	512
-13.704	13.451	16371	19024	0	512
-14.281	12.405	16371	18968	0	512
-16.300	11.215	16371	18855	0	512
-20.736	9.016	16379	18743	0	512
-24.234	7.898	16379	18631	0	512
-24.270	6.960	16379	18518	1	736
-22.467	8.150	16379	18350	0	736
-19.437	9.268	16379	18069	0	736
-17.562	11.396	16379	17732	0	736
-17.670	11.684	16379	17339	0	736
-17.598	12.658	16384	16945	0	736
-16.192	15.290	16384	16552	0	736
-13.307	17.923	16379	16272	0	736
-12.261	19.618	16379	15991	0	736
-12.189	19.473	16379	15935	0	736
-15.326	17.346	16379	16104	0	736
-18.824	14.858	16379	16160	0	736
-21.565	15.687	16379	16047	0	736
-20.700	16.949	16379	16047	0	736
-19.401	18.897	16384	16216	0	736
-17.959	20.050	16384	16328	0	736
-18.680	18.680	16384	16384	0	736
-21.565	16.480	16389	16721	0	736
-24.594	14.533	16389	17226	0	736
-23.729	12.550	16397	17507	0	736
-21.241	13.776	16397	17563	0	736
-16.877	16.084	16397	17451	0	736
-14.569	18.211	16389	17339	0	736
-15.543	18.716	16397	17226	0	736
-17.598	15.831	16397	17058	0	736
-23.296	12.081	16389	16777	0	736
-27.263	6.239	16389	16384	0	736
-30.184	3.426	16389	15991	0	736
-31.951	0.072	16389	15710	0	736
-32.384	-0.433	16389	15598	0	736
-31.085	0.902	16384	15486	0	736
-28.850	4.111	16384	15261	0	736
-24.522	8.042	16384	14924	0	736
-21.204	12.189	16379	14699	0	736
-18.175	13.523	16379	14699	0	736
-16.444	13.631	16379	14980	0	736
-15.723	13.163	16379	15092	0	736
-13.631	14.425	16379	15036	0	736
-8.763	17.129	16379	15149	0	736
-7.681	19.726	16379	15373	0	736
-8.475	20.916	16379	15486	0	736
-11.576	20.123	16379	15598	0	736
-13.595	19.257	16379	15879	0	736
-15.074	19.221	16384	16496	0	736
-13.163	19.293	16384	17114	0	736
-13.451	18.933	16389	17507	0	736
-15.651	16.552	16397	17788	0	736
-19.329	13.848	16397	18181	0	736
-23.296	11.504	16402	18743	0	736
-23.765	11.828	16411	19080	0	736
-22.539	11.035	16411	19136	0	736
-21.241	9.953	16416	18968	0	736
-21.926	6.203	16416	18687	0	736
-23.693	3.967	16416	18237	0	736
-25.712	1.515	16416	17619	0	736
-26.181	2.524	16411	16889	0	736
-22.395	5.229	16411	16104	0	736
-17.634	8.439	16402	15317	0	736
-13.379	11.432	16397	14643	0	736
-9.737	16.084	16389	14362	0	736
-7.825	19.834	16397	14418	0	736
-6.455	21.998	16397	14474	0	736
-6.275	22.935	16389	14531	0	736
-8.186	21.024	16397	14755	0	736
-8.258	20.339	16389	15036	0	736
-8.511	20.988	16389	15205	0	736
-6.167	23.368	16389	15261	0	736
-4.436	25.929	16389	15486	0	736
-3.029	26.866	16389	15823	0	736
-4.616	24.630	16389	15991	0	736
-6.635	22.467	16389	15935	0	736
-10.458	19.582	16384	15654	0	736
-12.441	16.697	16384	15373	0	736
-16.120	12.874	16379	15092	0	736
-19.654	8.583	16379	14811	0	736
-23.909	1.947	16371	14587	0	736
-27.299	-3.859	16371	14362	0	736
-31.230	-7.609	16366	14137	0	736
-32.348	-11.035	16371	14081	0	736
-31.662	-9.917	16366	14081	1	316
-28.489	-8.547	16366	14025	0	316
-26.037	-5.878	16357	13969	0	316
-23.729	-5.842	16352	14025	0	316
-24.847	-5.590	16352	14250	0	316
-24.991	-6.635	16352	14587	0	316
-26.253	-7.393	16344	14868	0	316
-24.306	-6.239	16344	15092	0	316
-21.926	-3.750	16344	15429	0	316
-19.365	-3.029	16344	16047	0	316
-17.526	-0.829	16352	16945	0	316
-14.425	0.613	16366	17732	0	316
-11.396	3.390	16366	18406	0	316
-7.212	4.868	16371	19024	0	316
-5.337	7.898	16379	19642	0	316
-5.157	7.898	16379	19867	0	316
-6.924	8.691	16384	19867	0	316
-8.114	8.691	16384	19867	0	316
-6.527	11.035	16389	20091	0	316
-3.318	12.946	16397	20204	0	316
-2.344	14.749	16397	20204	0	316
-3.426	14.064	16397	20035	0	316
-6.455	11.937	16402	19810	0	316
-10.278	6.996	16402	19417	0	316
-12.225	3.498	16397	18855	0	316
-13.415	0.072	16397	18181	0	316
-13.451	-1.911	16389	17395	0	316
-16.552	-2.957	16389	16608	0	316
-19.437	-3.570	16384	15935	0	316
-21.168	-1.406	16384	15429	0	316
-23.657	0.902	16379	14980	0	316
-22.539	3.318	16371	14587	0	316
-20.808	6.671	16371	14250	0	316
-18.175	7.465	16366	13969	0	316
-17.310	7.104	16366	14025	0	316
-17.634	9.016	16371	14250	0	316
-17.706	9.665	16371	14362	0	316
-16.661	11.720	16366	14362	0	316
-13.740	15.254	16371	14587	0	316
-10.061	17.238	16371	15205	0	316
-5.626	19.185	16371	15879	0	316
-2.813	21.745	16379	16272	0	316
0.433	23.296	16379	16552	0	316
4.291	25.424	16379	16945	0	316
7.934	28.741	16384	17114	0	316
7.753	29.715	16384	17114	0	316
2.993	27.984	16384	17058	0	316
-4.075	24.558	16384	17001	0	316
-12.622	18.860	16384	16833	0	316
-18.716	15.218	16384	16833	0	316
-20.159	13.704	16384	16945	0	316
-21.277	11.864	16384	17170	0	316
-22.142	11.107	16384	17226	0	316
-22.791	9.448	16389	17170	0	316
-26.145	6.924	16389	17001	0	316
-27.660	6.131	16389	16889	0	316
-30.184	4.544	16384	16721	0	316
-30.653	2.669	16384	16384	0	316
-28.994	0.793	16384	16216	0	316
-25.316	1.551	16384	16160	0	316
-19.149	4.688	16384	16384	0	316
-12.874	10.927	16384	16440	0	316
-8.294	17.093	16384	16440	0	316
-4.760	21.204	16389	16552	0	316
-6.383	21.998	16389	16889	0	316
-8.763	18.211	16389	17114	0	316
-13.018	12.766	16397	17282	0	316
-16.841	8.511	16397	17563	0	316
-18.356	5.806	16402	17900	0	316
-18.175	5.734	16411	18069	0	316
-16.661	8.114	16411	18013	0	316
-14.821	7.753	16402	17900	0	316
-14.821	6.708	16402	17676	0	316
-15.543	3.570	16402	17282	0	316
-17.454	0.757	16402	16889	0	316
-19.510	0.397	16402	16608	0	316
-20.627	1.334	16402	16384	0	316
-21.168	2.596	16402	16216	0	316
-20.844	1.082	16402	15991	0	316
-21.962	0.288	16397	15710	1	316
-21.673	-3.137	16397	15429	0	316
-21.385	-2.669	16397	15205	0	316
-20.700	-0.361	16397	14980	0	316
-17.959	3.173	16397	14924	0	316
-15.038	5.590	16397	15149	0	316
-12.514	7.645	16397	15486	0	316
-10.566	6.455	16397	15598	0	316
-8.907	6.455	16397	15486	0	316
-8.330	7.212	16397	15486	0	316
-4.652	11.035	16397	15710	0	316
-0.721	16.805	16389	15823	0	316
4.508	23.440	16397	15823	0	316
10.674	28.345	16397	15991	0	316
11.504	30.220	16397	16272	0	316
8.871	27.876	16397	16384	0	316
2.092	21.709	16397	16272	0	316
-6.419	14.569	16397	16328	0	316
-14.100	9.016	16397	16552	0	316
-17.562	6.455	16397	16721	0	316
-17.670	6.780	16397	16552	0	316
-16.264	7.681	16397	16328	0	316
-15.146	9.052	16397	16047	0	316
-15.038	7.429	16389	15823	0	316
-16.264	5.950	16389	15542	0	316
-18.860	2.705	16384	15261	0	316
-19.510	-0.108	16384	15036	0	316
-19.690	-2.777	16379	14811	0	316
-17.310	-1.947	16379	14474	0	316
-14.785	1.262	16371	14193	0	316
-11.504	5.121	16371	14025	0	316
-10.278	6.491	16366	14025	0	316
-10.963	8.330	16366	14193	0	316
-10.386	7.248	16366	14474	0	316
-10.999	7.825	16357	14755	0	316
-9.989	8.150	16366	14980	0	316
-9.917	8.799	16371	15149	0	316
-10.566	8.078	16366	15317	0	316
-9.232	8.511	16366	15767	0	316
-6.058	11.432	16366	16384	0	316
-0.180	14.966	16371	16777	0	316
4.111	18.356	16371	17170	0	316
4.147	20.411	16379	17844	0	316
2.272	20.087	16379	18575	0	316
-1.334	18.644	16384	19024	0	316
-3.101	17.346	16389	19249	0	316
-4.508	15.903	16389	19249	0	316
-4.616	13.920	16389	19080	0	316
-5.590	12.045	16389	18855	0	316
-6.094	10.891	16389	18687	0	316
-6.419	11.612	16397	18575	0	316
-6.022	12.369	16397	18350	0	316
-8.186	10.566	16397	17957	0	316
-10.891	6.780	16389	17395	0	316
-13.776	1.695	16389	16664	0	316
-13.956	-0.361	16384	16047	0	316
-12.081	2.524	16379	15373	0	316
-9.052	6.852	16371	14811	0	316
-5.337	10.458	16371	14474	0	316
-6.347	8.619	16371	14587	0	316
-7.393	6.167	16371	15036	0	316
-9.701	4.291	16371	15429	0	316
-8.619	4.364	16371	15710	0	316
-6.131	9.592	16379	16216	0	316
-1.010	13.523	16384	17001	0	316
1.767	17.238	16389	17957	0	316
2.200	18.969	16397	18687	0	316
-0.072	19.365	16402	19249	0	316
-2.416	19.618	16411	19642	0	316
-3.390	19.762	16411	19754	0	316
-2.380	20.087	16411	19473	0	316
-1.118	20.988	16416	19080	0	316
-1.226	19.834	16416	18518	0	316
-2.524	19.690	16411	17844	0	316
-4.508	19.942	16411	17226	0	316
-7.068	19.005	16402	16721	0	316
-8.078	16.985	16402	16216	0	316
-10.206	13.379	16397	15710	0	316
-10.530	9.376	16397	15149	0	316
-10.566	5.842	16389	14643	0	316
-9.845	5.626	16389	14193	0	316
-10.710	4.688	16384	13800	0	316
-13.091	3.967	16379	13407	0	316
-13.956	1.262	16379	13182	0	316
-14.930	2.164	16379	13463	0	316
-12.441	4.832	16379	14025	0	316
-9.773	10.458	16379	14474	0	316
-6.022	17.526	16379	14868	0	316
-2.524	22.539	16384	15486	0	316
-1.298	24.522	16384	16272	0	316
0.793	23.512	16389	16721	0	316
1.947	23.657	16389	17001	0	316
3.823	22.755	16397	17339	0	316
6.311	24.522	16397	17732	0	316
10.422	29.030	16402	17957	0	316
12.225	30.292	16402	17900	0	316
12.874	29.787	16402	17676	0	316
10.169	25.135	16402	17282	0	316
6.816	19.113	16397	16777	0	316
3.318	13.379	16397	16272	0	316
-0.757	9.701	16389	15542	0	316
-4.724	6.852	16384	14811	0	316
-7.212	5.049	16379	14250	0	316
-10.350	2.128	16371	13800	0	316
-12.081	-0.541	16371	13407	0	316
-13.343	-3.390	16366	13126	0	316
-15.543	-6.383	16357	12958	0	316
-16.084	-9.340	16352	12958	0	316
-16.120	-12.153	16344	13014	0	316
-12.441	-12.081	16344	13014	0	316
-6.635	-8.799	16339	13014	0	316
-0.793	-5.049	16330	13182	0	316
1.695	-1.803	16344	13463	0	316
1.190	-0.252	16339	14025	0	316
0.902	-1.515	16339	14755	0	316
2.488	-0.829	16339	15373	0	316
5.986	2.813	16339	15935	0	316
11.828	8.222	16344	16777	0	316
15.398	12.153	16352	17844	0	316
17.743	15.398	16352	18631	0	316
20.555	16.516	16357	19192	0	316
22.286	17.634	16366	19754	0	316
25.748	18.283	16379	20372	0	316
24.162	17.634	16379	20822	0	316
19.437	15.759	16384	20822	0	316
14.749	12.297	16384	20597	0	316
10.025	11.071	16384	20204	0	316
8.691	9.484	16389	19810	0	316
9.052	10.819	16389	19417	0	316
9.160	10.025	16384	18968	1	516
7.032	9.160	16384	18406	0	516
4.940	7.285	16384	17732	0	516
1.479	6.383	16379	17058	0	516
0.000	4.183	16379	16440	0	516
-0.974	3.426	16371	15991	0	516
-1.515	1.587	16371	15486	0	516
-0.829	1.551	16366	15036	0	516
0.036	1.262	16366	14755	0	516
0.577	0.829	16366	14811	0	516
0.000	-0.757	16366	15205	0	516
-2.308	-3.859	16366	15542	0	516
-4.291	-6.744	16366	15823	0	516
-8.583	-5.229	16371	16272	0	516
-7.753	0.541	16371	16833	0	516
-5.445	7.285	16379	17282	0	516
0.252	12.225	16384	17619	0	516
5.121	14.172	16384	18181	0	516
8.186	12.694	16389	18687	0	516
8.799	14.569	16397	18968	0	516
10.927	17.815	16397	18968	0	516
12.802	25.784	16402	18743	0	516
14.317	30.581	16402	18406	0	516
13.271	30.112	16402	17957	0	516
8.402	26.470	16402	17395	0	516
1.731	18.933	16397	16833	0	516
-3.318	12.982	16397	16328	0	516
-4.652	10.314	16397	15879	0	516
-5.121	8.979	16389	15373	0	516
-3.678	8.943	16389	14868	0	516
-3.750	7.032	16384	14474	0	516
-5.193	4.652	16384	14250	0	516
-10.494	1.046	16379	14081	0	516
-14.317	-2.705	16379	13969	0	516
-18.536	-5.085	16379	14025	0	516
-20.411	-8.366	16379	14306	0	516
-19.005	-9.160	16379	14643	0	516
-16.697	-9.376	16379	15036	0	516
-14.713	-6.924	16379	15710	0	516
-13.812	-5.806	16384	16384	0	516
-13.704	-4.003	16384	16777	0	516
-14.353	-4.219	16389	17001	0	516
-12.514	-4.544	16389	17282	0	516
-9.701	-3.967	16397	17619	0	516
-5.626	0.577	16397	17732	0	516
-0.685	5.481	16397	17507	0	516
3.390	10.710	16397	17282	0	516
4.832	12.838	16397	17395	0	516
6.491	12.261	16402	17563	0	516
5.013	10.746	16397	17619	0	516
3.390	8.547	16397	17451	0	516
0.974	9.088	16397	17170	0	516
0.613	10.169	16397	16833	0	516
0.721	11.251	16397	16384	0	516
2.416	13.451	16389	15935	0	516
3.859	15.110	16389	15486	0	516
4.219	17.021	16384	15036	0	516
4.688	18.356	16384	14699	0	516
3.895	19.005	16379	14531	0	516
5.013	17.598	16379	14474	0	516
3.642	14.749	16379	14474	0	516
1.947	10.891	16371	14531	0	516
-1.406	7.934	16371	14587	0	516
-4.724	6.058	16371	14924	0	516
-6.852	4.688	16379	15429	0	516
-10.422	4.616	16379	15935	0	516
-11.756	-0.216	16379	16384	0	516
-13.704	-4.508	16384	16945	0	516
-11.973	-5.157	16389	17732	0	516
-5.409	-1.983	16397	18294	0	516
1.659	6.599	16397	18518	0	516
9.484	16.300	16402	18799	0	516
12.586	21.818	16411	19136	0	516
14.028	21.132	16411	19192	0	516
14.245	17.346	16411	19024	0	516
14.136	12.802	16416	18687	0	516
12.117	10.422	16416	18294	0	516
9.881	9.124	16416	17900	0	516
6.383	8.907	16416	17507	0	516
5.301	8.402	16411	17001	0	516
6.635	8.006	16411	16440	0	516
8.907	5.878	16402	15991	0	516
8.150	5.265	16402	15429	0	516
7.176	3.823	16402	14924	0	516
4.183	3.173	16389	14418	0	516
2.777	3.642	16384	13913	0	516
1.442	2.669	16379	13351	0	516
-0.397	2.452	16379	13014	0	516
-1.370	0.685	16371	13126	0	516
-1.731	-0.288	16379	13632	0	516
0.325	0.938	16379	14081	0	516
3.029	2.596	16379	14306	0	516
4.219	3.246	16379	14587	0	516
5.806	4.111	16379	15092	0	516
5.373	3.642	16379	15486	0	516
6.167	4.940	16384	15935	0	516
8.006	5.193	16389	16552	0	516
7.465	6.816	16389	17339	0	516
7.681	8.150	16397	17844	0	516
7.068	7.970	16397	18013	0	516
5.878	7.537	16397	17900	0	516
7.321	8.655	16389	17732	0	516
7.609	8.402	16389	17563	0	516
9.520	9.088	16389	17226	0	516
10.855	8.835	16384	16721	0	516
12.910	8.907	16384	16216	0	516
12.477	6.599	16379	15767	0	516
11.107	6.058	16379	15373	0	516
9.052	3.750	16371	15092	0	516
5.085	1.226	16371	14755	0	516
1.551	-1.551	16371	14418	0	516
-0.072	-4.688	16366	14081	0	516
-2.524	-5.301	16366	13969	0	516
-4.832	-1.298	16357	14250	0	516
-3.570	5.842	16357	14811	0	516
-1.154	12.369	16357	15261	0	516
2.272	15.543	16366	15598	0	516
4.652	13.704	16366	16216	0	516
3.967	8.042	16371	17114	0	516
3.282	6.635	16379	18125	0	516
2.524	7.393	16384	18912	0	516
4.364	11.792	16389	19473	0	516
6.960	13.451	16397	19979	0	516
9.268	14.461	16402	20316	0	516
9.340	12.766	16402	20316	0	516
11.612	13.848	16411	20148	0	516
13.451	15.435	16411	19810	0	516
15.362	17.706	16411	19305	0	516
15.146	17.706	16402	18743	0	516
13.379	15.687	16411	18125	1	516
11.576	13.199	16402	17451	0	516
8.294	11.143	16402	17001	0	516
6.635	10.819	16397	16721	0	516
3.570	10.314	16397	16384	0	516
0.829	9.592	16397	15991	0	516
-2.416	7.573	16389	15542	0	516
-5.445	5.626	16389	15205	0	516
-6.599	3.065	16389	15092	0	516
-7.465	0.974	16389	15205	0	516
-6.708	-0.144	16389	15486	0	516
-5.626	-1.154	16389	15654	0	516
-3.210	-1.406	16389	15654	0	516
-1.046	-0.721	16397	15879	0	516
1.190	0.938	16397	16272	0	516
4.111	3.354	16397	16384	0	516
5.517	4.147	16397	16328	0	516
7.429	4.544	16402	16384	0	516
6.960	2.596	16402	16664	0	516
6.131	-0.108	16402	16889	0	516
6.491	-0.361	16411	17001	0	516
7.898	2.849	16411	17001	0	516
11.937	7.825	16411	16889	0	516
14.425	13.992	16411	16552	0	516
16.697	15.615	16411	16272	0	516
14.569	14.894	16402	15935	0	516
12.441	11.323	16402	15654	0	516
13.307	10.710	16397	15317	0	516
14.641	11.540	16389	15036	0	516
17.526	13.920	16389	14811	0	516
17.743	15.002	16384	14531	0	516
16.336	13.956	16384	14193	0	516
13.668	9.232	16379	13856	0	516
13.054	7.501	16371	13744	0	516
13.884	5.301	16371	13800	0	516
15.795	4.039	16371	13969	0	516
14.821	2.741	16379	14137	0	516
14.100	0.721	16371	14418	0	516
11.287	-0.865	16379	14980	0	516
10.242	-1.046	16379	15710	0	516
10.169	0.505	16379	16272	0	516
11.900	3.101	16384	16608	0	516
11.973	5.481	16384	16945	0	516
13.271	6.131	16384	17282	0	516
13.199	6.960	16384	17339	0	516
13.271	4.580	16384	17339	0	516
10.927	1.623	16389	17507	0	516
9.484	-0.649	16389	17676	0	516
9.088	-1.154	16389	17619	0	516
10.386	1.731	16389	17395	0	516
15.002	7.465	16389	17058	0	516
18.608	11.396	16384	16777	0	516
19.005	13.920	16384	16496	0	516
15.146	11.287	16384	16216	0	516
10.963	9.052	16379	15991	0	516
8.078	7.321	16379	15767	0	516
8.366	7.285	16379	15710	0	516
11.828	8.042	16371	15710	0	516
15.615	8.691	16371	15710	0	516
17.202	5.770	16371	15767	0	516
16.589	2.849	16371	15823	0	516
14.569	-0.036	16371	15879	0	516
10.061	-2.957	16371	15935	0	516
7.573	-4.364	16371	15935	0	516
4.760	-4.796	16366	15879	0	516
4.472	-5.337	16366	15654	0	516
4.977	-4.508	16357	15486	0	516
5.157	-6.058	16357	15486	0	516
3.462	-7.068	16357	15823	0	516
2.380	-8.439	16366	16440	0	516
0.072	-9.809	16366	17114	0	516
-0.252	-8.366	16379	17957	0	516
1.334	-5.986	16384	19080	0	516
3.029	-3.101	16397	20372	0	516
3.462	-0.793	16402	21271	0	516
3.823	0.721	16411	21608	0	516
3.498	2.019	16416	21496	0	516
5.590	2.885	16416	20990	0	516
7.681	4.400	16416	20316	0	516
9.737	3.895	16416	19530	0	516
11.360	2.921	16416	18631	1	320
11.864	1.767	16416	17619	0	320
12.081	2.308	16411	16721	0	320
12.225	3.029	16402	15879	0	320
12.189	4.724	16389	14980	0	320
9.701	3.859	16384	14081	0	320
7.212	4.111	16379	13182	0	320
5.986	4.111	16371	12564	0	320
6.167	4.364	16379	12283	0	320
6.527	5.481	16371	12396	0	320
6.960	5.842	16371	12508	0	320
7.753	4.508	16366	12677	0	320
6.888	4.724	16371	13238	0	320
6.347	4.688	16371	14081	0	320
7.429	6.960	16371	14811	0	320
7.321	6.924	16371	15261	0	320
7.032	6.924	16379	15654	0	320
6.203	5.121	16379	16216	0	320
4.508	2.164	16379	16664	0	320
5.950	0.361	16384	16889	0	320
7.465	1.839	16384	17001	0	320
10.855	3.534	16384	17001	0	320
13.884	6.996	16379	16833	0	320
14.533	7.789	16379	16496	0	320
14.821	8.871	16379	16104	0	320
16.264	9.268	16371	15767	0	320
