neuroNicle FX2
D3F25R12
Bluetooth SPP
2023년 6월 5일 월요일
오후 1:22
time interval = 4msec
EEG1	EEG2	PPG	sdPPG	pulse	peak_interval(msec)
27.371	15.471	9468	16881	0	700
26.037	15.687	9428	16780	0	700
23.260	15.651	9381	16683	0	700
16.372	13.740	9329	16590	0	700
12.297	8.835	9301	16499	0	700
11.035	8.078	9242	16408	0	700
11.828	10.314	9163	16295	0	700
14.785	12.766	9104	16159	0	700
15.290	15.326	9033	16043	0	700
13.271	13.812	8973	15971	0	700
10.025	7.176	8914	15927	0	700
7.501	2.308	8855	15893	0	700
6.708	-1.046	8815	15870	0	700
8.330	1.190	8788	15910	0	700
10.855	4.400	8788	16035	0	700
12.766	9.845	8796	16221	0	700
14.028	12.622	8835	16420	0	700
16.516	10.855	8886	16615	0	700
18.428	10.891	8934	16850	0	700
22.647	11.035	9033	17141	0	700
20.519	8.943	9143	17456	0	700
17.779	7.068	9282	17769	0	700
11.396	4.796	9408	18055	0	700
10.133	2.957	9558	18323	0	700
10.458	5.229	9744	18600	0	700
15.254	10.422	9934	18903	0	700
19.113	11.973	10132	19207	0	700
17.815	9.629	10357	19467	0	700
15.290	1.767	10566	19680	0	700
11.251	-4.580	10792	19862	0	700
9.881	-7.176	11021	20010	0	700
10.602	-3.931	11238	20108	0	700
10.638	0.829	11456	20154	0	700
10.386	6.563	11673	20150	0	700
8.402	7.321	11871	20097	0	700
5.481	6.311	12049	19970	0	700
6.816	4.796	12226	19791	0	700
8.799	5.337	12424	19651	1	728
11.828	7.285	12602	19545	0	728
13.379	9.881	12780	19399	0	728
14.317	11.576	12958	19213	0	728
12.297	7.934	13124	19025	0	728
5.842	2.921	13301	18850	0	728
2.416	0.505	13471	18691	0	728
2.813	-0.216	13630	18522	0	728
8.691	7.140	13768	18308	0	728
19.113	15.507	13906	18055	0	728
26.109	19.401	14013	17793	0	728
25.171	17.851	14132	17545	0	728
19.473	9.412	14242	17321	0	728
11.071	1.551	14341	17116	0	728
10.783	2.128	14428	16884	0	728
15.471	9.196	14468	16569	0	728
18.644	17.634	14487	16193	0	728
20.664	21.096	14499	15846	0	728
16.697	14.677	14519	15572	0	728
14.136	5.337	14539	15337	0	728
11.720	-0.397	14539	15132	0	728
14.425	0.829	14547	14952	0	728
14.389	6.816	14539	14791	0	728
11.648	13.054	14539	14663	0	728
5.878	11.973	14558	14608	0	728
-1.118	9.737	14558	14599	0	728
-5.986	5.517	14547	14551	0	728
-9.016	2.957	14527	14447	0	728
-12.477	3.859	14468	14326	0	728
-13.235	2.777	14428	14229	0	728
-13.776	1.370	14388	14164	0	728
-13.379	-1.767	14321	14115	0	728
-8.150	-1.947	14262	14062	0	728
-4.544	0.036	14203	14016	0	728
-1.226	4.111	14132	13999	0	728
-2.560	7.789	14084	14033	0	728
-2.885	7.032	14033	14115	0	728
-4.075	6.419	13973	14212	0	728
-1.118	5.914	13914	14288	0	728
1.695	5.229	13847	14312	0	728
3.750	5.662	13728	14244	0	728
3.823	7.176	13598	14123	0	728
3.282	10.710	13499	14068	0	728
6.996	16.264	13381	14098	0	728
11.179	20.700	13313	14174	0	728
13.631	24.955	13222	14284	0	728
16.841	23.945	13143	14417	0	728
15.074	17.995	13076	14561	0	728
12.730	15.723	13005	14711	0	728
12.045	11.973	12938	14853	0	728
12.694	13.415	12859	14958	0	728
14.028	15.038	12768	15009	0	728
16.480	16.048	12669	15032	0	728
15.687	17.021	12551	15037	0	728
13.199	14.389	12464	15049	0	728
7.898	12.658	12373	15136	0	728
3.570	11.504	12313	15288	0	728
2.236	11.720	12254	15455	0	728
1.370	12.514	12226	15644	0	728
-0.541	10.458	12207	15874	0	728
-0.829	8.042	12195	16119	0	728
-0.649	4.652	12195	16354	0	728
1.334	3.210	12195	16556	0	728
3.282	2.488	12207	16740	0	728
1.154	4.544	12207	16917	0	728
-2.957	5.157	12246	17099	0	728
-8.475	4.724	12274	17268	0	728
-6.852	6.167	12274	17393	0	728
-1.298	8.330	12305	17475	0	728
6.419	11.215	12333	17533	0	728
8.763	11.828	12345	17583	0	728
6.635	10.927	12365	17617	0	728
1.046	7.537	12373	17623	0	728
-2.669	5.157	12384	17594	0	728
-3.859	0.649	12404	17550	0	728
-2.128	0.397	12392	17499	0	728
-0.216	0.541	12424	17459	0	728
1.442	3.462	12444	17478	0	728
4.904	7.285	12503	17541	0	728
8.655	9.340	12523	17569	0	728
10.242	10.710	12543	17513	0	728
9.737	12.117	12543	17389	0	728
9.629	11.973	12531	17256	0	728
7.862	13.054	12531	17129	0	728
2.092	9.448	12503	16976	0	728
-1.262	5.842	12464	16772	0	728
-2.236	3.246	12392	16545	0	728
0.577	6.455	12353	16350	0	728
6.924	13.054	12305	16218	0	728
12.261	16.877	12286	16138	0	728
14.100	18.500	12254	16077	0	728
11.215	13.956	12207	15996	0	728
7.717	9.737	12147	15891	0	728
5.878	7.825	12088	15768	0	728
3.606	7.789	12009	15610	0	728
0.902	8.222	11918	15430	0	728
0.361	8.366	11819	15274	0	728
2.164	8.979	11732	15168	0	728
3.606	8.799	11641	15102	0	728
3.462	8.402	11562	15056	0	728
1.551	7.681	11475	15022	0	728
1.551	7.934	11416	15011	0	728
0.757	10.169	11325	15026	0	728
1.767	12.874	11258	15049	0	728
2.452	16.372	11159	15052	0	728
0.829	15.651	11080	15043	0	728
-1.623	11.287	11001	15064	0	728
-3.498	6.852	10930	15130	0	728
-2.813	3.931	10871	15225	0	728
0.325	2.019	10811	15328	0	728
2.777	3.065	10752	15424	0	728
4.652	7.357	10732	15540	0	728
4.075	8.511	10693	15688	0	728
2.741	10.530	10665	15855	0	728
2.019	8.907	10645	16014	0	728
1.911	6.527	10626	16149	0	728
4.472	5.554	10606	16267	0	728
3.606	3.173	10606	16389	0	728
1.875	2.019	10594	16530	0	728
-2.344	-1.046	10614	16668	0	728
-4.111	-3.246	10614	16797	0	728
-3.354	-3.318	10626	16915	0	728
-1.298	1.046	10634	17002	0	728
2.236	3.137	10634	17057	0	728
4.904	2.308	10645	17086	0	728
3.426	-0.902	10634	17082	0	728
3.426	-5.409	10614	17053	0	728
1.551	-6.311	10606	17010	0	728
-0.361	-5.193	10574	16938	0	728
-3.895	-3.462	10535	16839	0	728
-6.491	-3.137	10515	16782	0	728
-6.131	-5.337	10527	16805	0	728
-5.445	-6.563	10527	16837	0	728
-6.527	-6.094	10495	16805	0	728
-7.753	-5.301	10456	16708	0	728
-8.042	-1.695	10428	16592	0	728
-5.590	3.606	10388	16488	0	728
2.236	7.862	10337	16389	0	728
8.583	11.107	10298	16297	0	728
7.429	10.278	10238	16208	0	728
-1.587	5.265	10199	16134	0	728
-9.665	-0.108	10159	16092	0	728
-11.720	-2.705	10151	16115	0	728
-7.501	-1.118	10132	16187	0	728
-0.974	0.721	10139	16263	0	728
0.541	2.777	10132	16341	0	728
-5.698	3.534	10159	16437	0	728
-13.776	2.921	10179	16554	0	728
-19.546	2.344	10218	16681	0	728
-16.048	0.000	10250	16812	0	728
-14.064	-2.416	10317	16955	0	728
-8.475	-5.770	10369	17097	0	728
-4.832	-5.301	10416	17194	0	728
-3.931	-2.993	10487	17283	0	728
-4.508	0.649	10594	17469	0	728
-5.950	2.092	10713	17742	0	728
-9.448	1.587	10843	17985	0	728
-13.379	-1.370	10969	18160	0	728
-13.054	-6.852	11100	18302	0	728
-12.333	-8.691	11246	18442	0	728
-8.655	-9.016	11396	18598	0	728
-2.272	-5.950	11582	18763	0	728
3.895	1.190	11740	18911	0	728
7.248	5.986	11910	19010	0	728
6.239	7.032	12088	19078	0	728
0.252	4.832	12266	19146	0	728
-6.996	-0.757	12471	19226	0	728
-10.999	-5.193	12661	19304	0	728
-9.088	-6.383	12859	19351	0	728
-5.265	-3.426	13056	19363	0	728
-1.515	-0.613	13254	19357	0	728
-0.180	2.380	13460	19349	0	728
-1.839	1.551	13657	19342	0	728
-4.688	-1.551	13867	19317	0	728
-5.481	-4.904	14064	19264	1	696
-2.705	-6.708	14262	19167	0	696
1.551	-7.429	14440	19031	0	696
4.652	-5.193	14598	18869	0	696
3.065	-4.688	14764	18685	0	696
0.036	-4.183	14894	18467	0	696
-2.128	-4.472	15013	18184	0	696
0.613	-4.940	15100	17835	0	696
6.094	-1.875	15191	17492	0	696
9.412	3.246	15278	17218	0	696
10.638	9.917	15349	16960	0	696
10.133	18.139	15388	16661	0	696
9.124	19.473	15428	16347	0	696
9.556	18.860	15456	16045	0	696
9.376	11.251	15487	15783	0	696
9.052	3.750	15515	15580	0	696
9.052	0.974	15535	15424	0	696
8.366	2.993	15566	15288	0	696
8.439	7.825	15594	15159	0	696
7.934	10.638	15614	15056	0	696
6.780	10.458	15634	14990	0	696
8.114	8.439	15665	14952	0	696
10.891	8.294	15673	14918	0	696
11.864	11.540	15665	14853	0	696
11.035	11.756	15665	14773	0	696
11.468	11.720	15645	14711	0	696
10.927	7.681	15645	14675	0	696
11.432	5.554	15626	14646	0	696
15.759	8.150	15594	14620	0	696
17.490	15.435	15554	14589	0	696
18.428	23.404	15507	14521	0	696
17.238	33.141	15428	14383	0	696
20.411	39.416	15317	14206	0	696
27.876	46.340	15211	14054	0	696
44.933	51.713	15100	13944	0	696
65.056	59.574	14981	13849	0	696
85.683	66.571	14855	13741	0	696
98.485	72.881	14705	13625	0	696
102.993	81.789	14578	13553	0	696
102.921	89.037	14440	13544	0	696
98.666	90.660	14341	13601	0	696
94.807	87.991	14222	13707	0	696
104.508	81.248	14124	13829	0	696
128.994	78.832	14033	13965	0	696
165.525	84.854	13954	14144	0	696
188.136	89.362	13914	14379	0	696
172.557	82.149	13847	14648	0	696
117.562	54.598	13788	14874	0	696
52.759	19.618	13709	14992	0	696
20.014	-4.364	13610	15049	0	696
28.561	-5.698	13558	15166	0	696
51.641	8.763	13499	15364	0	696
49.297	17.382	13460	15565	0	696
8.907	7.501	13412	15751	0	696
-43.815	-14.749	13381	15935	0	696
-71.980	-38.911	13361	16113	0	696
-67.292	-48.792	13333	16278	0	696
-49.946	-43.996	13313	16435	0	696
-55.175	-33.934	13313	16596	0	696
-86.549	-30.040	13301	16742	0	696
-123.621	-36.675	13274	16828	0	696
-141.616	-51.857	13242	16860	0	696
-131.590	-65.957	13222	16894	0	696
-106.131	-72.557	13222	16962	0	696
-92.535	-66.210	13215	17053	0	696
-102.380	-54.850	13215	17131	0	696
-130.004	-43.130	13203	17169	0	696
-160.728	-40.858	13203	17196	0	696
-171.872	-43.058	13215	17234	0	696
-160.224	-44.861	13222	17270	0	696
-140.894	-48.467	13215	17287	0	696
-131.338	-55.788	13222	17283	0	696
-146.412	-63.649	13222	17281	0	696
-172.304	-66.571	13242	17304	0	696
-182.582	-54.165	13282	17357	0	696
-162.423	-31.266	13301	17410	0	696
-127.443	-6.203	13321	17433	0	696
-109.556	-0.433	13361	17431	0	696
-127.660	-14.136	13392	17421	0	696
-167.941	-34.944	13400	17393	0	696
-198.197	-44.032	13420	17347	0	696
-191.021	-37.252	13452	17308	0	696
-157.735	-21.096	13440	17241	0	696
-131.013	-10.350	13432	17097	0	696
-128.850	-11.179	13392	16902	0	696
-149.982	-17.743	13353	16706	0	696
-164.299	-25.460	13321	16543	0	696
-156.942	-25.063	13301	16423	0	696
-125.027	-17.706	13274	16341	0	696
-94.302	-10.206	13242	16273	0	696
-83.015	-4.472	13222	16221	0	696
-98.521	-4.544	13222	16210	0	696
-121.096	-9.268	13222	16244	0	696
-127.119	-19.041	13234	16288	0	696
-109.881	-22.827	13222	16295	0	696
-79.445	-23.188	13215	16259	0	696
-61.774	-15.795	13203	16208	0	696
-66.823	-10.530	13195	16178	0	696
-83.916	-4.652	13175	16174	0	696
-94.410	-1.406	13155	16166	0	696
-85.575	1.190	13124	16113	0	696
-68.338	5.662	13084	16035	0	696
-56.834	7.934	13056	15977	0	696
-57.447	5.013	13025	15950	0	696
-65.705	-1.262	13005	15948	0	696
-67.797	-6.203	12985	15963	0	696
-61.414	-4.219	12966	15984	0	696
-49.116	2.849	12946	15967	0	696
-41.580	7.537	12886	15908	0	696
-40.966	4.219	12847	15849	0	696
-46.953	-8.439	12788	15798	0	696
-59.214	-24.955	12740	15743	0	696
-69.888	-38.082	12681	15675	0	696
-78.074	-43.419	12590	15569	0	696
-79.589	-45.041	12483	15428	0	696
-75.081	-44.176	12404	15299	0	696
-62.495	-43.058	12313	15200	0	696
-52.831	-41.724	12215	15157	0	696
-47.494	-39.560	12155	15176	0	696
-48.936	-36.567	12096	15229	0	696
-53.732	-32.276	12029	15292	0	696
-50.270	-26.578	11977	15360	0	696
-43.383	-22.683	11930	15428	0	696
-31.951	-17.743	11871	15498	0	696
-21.709	-15.507	11819	15565	0	696
-12.009	-10.242	11772	15631	0	696
-8.619	-6.996	11713	15698	0	696
-10.278	-3.714	11661	15747	0	696
-16.012	-3.787	11602	15789	0	696
-27.551	-6.022	11562	15829	0	696
-27.984	-5.157	11464	15821	0	696
-16.769	-1.911	11396	15756	0	696
-3.859	4.291	11317	15720	0	696
2.885	6.203	11258	15747	0	696
-5.265	1.262	11179	15787	0	696
-16.913	-6.816	11128	15825	0	696
-20.988	-9.592	11080	15868	0	696
-14.533	-9.340	11009	15914	0	696
-1.551	-0.613	10962	15959	0	696
5.373	5.445	10902	15997	0	696
3.462	8.402	10851	16033	0	696
-1.587	7.104	10811	16087	0	696
-6.347	4.940	10764	16138	0	696
-8.727	3.859	10705	16161	0	696
-11.143	4.364	10653	16172	0	696
-8.583	5.085	10594	16187	0	696
-4.219	2.813	10535	16174	0	696
0.721	1.515	10456	16117	0	696
4.868	-2.777	10377	16068	0	696
2.705	-1.082	10349	16085	0	696
-2.128	1.659	10309	16176	0	696
-8.655	7.357	10298	16314	0	696
-9.340	11.576	10298	16465	0	696
-2.957	10.674	10290	16604	0	696
6.094	7.753	10317	16735	0	696
17.346	7.321	10337	16902	0	696
22.142	6.239	10396	17124	0	696
18.608	8.475	10475	17380	0	696
7.609	9.376	10566	17636	0	696
-2.849	7.898	10665	17888	0	696
-3.462	6.311	10784	18129	0	696
3.390	5.265	10890	18321	0	696
12.694	6.275	11009	18471	0	696
22.106	8.943	11139	18642	0	696
21.781	8.366	11305	18846	0	696
15.182	6.635	11456	19053	0	696
10.458	3.173	11622	19217	0	696
6.094	0.325	11811	19344	0	696
3.390	-2.272	12009	19501	0	696
2.596	-1.226	12226	19693	0	696
4.544	2.524	12452	19856	0	696
5.914	8.439	12661	19964	0	696
8.439	13.668	12879	20027	0	696
13.451	15.651	13116	20070	0	696
13.704	9.448	13341	20127	0	696
13.199	1.262	13598	20207	0	696
10.169	-3.534	13855	20275	0	696
4.652	-1.226	14112	20298	0	696
0.865	7.825	14369	20275	0	696
-3.210	13.415	14626	20230	0	696
-10.350	12.441	14875	20169	0	696
-18.031	2.921	15132	20105	0	696
-26.686	-5.409	15369	20002	1	728
-28.525	-8.042	15586	19809	0	728
-20.087	-6.419	15764	19528	0	728
-6.275	-3.354	15962	19237	0	728
5.842	-3.137	16139	18970	0	728
8.583	-7.176	16305	18691	0	728
3.282	-9.556	16463	18399	0	728
-4.760	-6.924	16609	18097	0	728
-3.426	-2.416	16727	17782	0	728
0.938	1.803	16838	17454	0	728
5.085	1.803	16945	17137	0	728
3.570	-0.072	17044	16856	0	728
-4.003	-4.111	17142	16609	0	728
-12.982	-5.842	17233	16366	0	728
-12.081	-5.049	17293	16096	0	728
-2.236	-2.885	17340	15829	0	728
8.871	-0.469	17391	15580	0	728
14.245	2.921	17431	15348	0	728
10.927	5.193	17459	15140	0	728
5.229	8.655	17478	14948	0	728
3.065	12.946	17498	14781	0	728
9.520	13.451	17518	14648	0	728
16.084	14.569	17538	14561	0	728
21.890	12.333	17550	14498	0	728
16.552	6.599	17530	14390	0	728
9.484	2.308	17470	14181	0	728
2.272	0.397	17391	13931	0	728
2.128	0.252	17332	13756	0	728
5.986	4.400	17273	13677	0	728
9.989	10.422	17214	13633	0	728
11.540	13.487	17142	13612	0	728
9.016	12.441	17095	13607	0	728
6.852	9.448	16996	13570	0	728
12.045	5.193	16905	13529	0	728
24.955	3.137	16866	13595	0	728
33.249	5.049	16838	13785	0	728
31.879	7.465	16787	13988	0	728
19.798	10.169	16747	14123	0	728
9.665	10.494	16688	14200	0	728
7.357	8.655	16621	14284	0	728
14.028	4.580	16581	14403	0	728
21.132	2.885	16530	14555	0	728
19.113	0.685	16482	14699	0	728
12.261	1.767	16423	14804	0	728
6.275	3.390	16357	14859	0	728
7.753	2.705	16266	14874	0	728
12.982	0.721	16159	14849	0	728
17.129	-1.767	16049	14804	0	728
17.526	-0.541	15922	14758	0	728
16.552	3.931	15803	14705	0	728
13.271	9.881	15673	14663	0	728
10.061	10.927	15586	14717	0	728
7.537	8.150	15527	14872	0	728
6.708	1.551	15456	15054	0	728
8.294	-2.705	15396	15236	0	728
12.766	0.613	15349	15419	0	728
17.634	9.340	15309	15599	0	728
23.368	15.002	15290	15804	0	728
23.873	16.156	15309	16083	0	728
20.050	8.583	15349	16416	0	728
13.127	-3.967	15369	16698	0	728
3.029	-10.710	15369	16852	0	728
-3.210	-8.258	15357	16924	0	728
-0.361	1.947	15337	16983	0	728
10.566	15.074	15337	17050	0	728
19.221	8.475	12384	18824	0	780
16.264	5.734	12610	19180	0	780
13.163	4.868	12827	19507	0	780
12.117	4.868	13064	19807	0	780
13.235	4.400	13313	20101	0	780
15.939	2.452	13598	20397	0	780
16.228	3.823	13886	20680	0	780
15.435	2.236	14191	20919	0	780
14.245	2.164	14487	21103	0	780
11.756	2.344	14784	21235	0	780
13.487	3.390	15080	21308	0	780
14.245	5.157	15377	21330	0	780
14.064	6.347	15685	21328	0	780
15.651	8.114	15981	21317	0	780
14.677	10.278	16286	21270	0	780
18.356	11.900	16569	21146	0	780
21.890	11.360	16846	20955	1	792
26.289	14.281	17115	20759	0	792
27.876	15.579	17399	20596	0	792
26.830	14.425	17688	20452	0	792
25.712	16.589	17965	20277	0	792
25.352	15.507	18210	20042	0	792
26.037	15.867	18459	19772	0	792
28.273	16.552	18684	19492	0	792
30.761	19.221	18921	19209	0	792
31.194	20.736	19131	18932	0	792
30.472	20.916	19348	18659	0	792
28.309	19.906	19546	18384	0	792
27.768	20.700	19743	18116	0	792
29.138	17.418	19941	17869	0	792
31.374	17.923	20127	17638	0	792
32.528	16.336	20316	17404	0	792
31.194	14.930	20474	17169	0	792
28.417	12.117	20633	16919	0	792
25.243	13.163	20759	16642	0	792
22.250	13.054	20870	16354	0	792
22.611	14.208	20957	16051	0	792
23.693	17.274	21016	15718	0	792
25.207	17.526	21055	15362	0	792
27.443	20.303	21075	14990	0	792
29.463	20.014	21075	14622	0	792
28.958	20.087	21067	14301	0	792
27.443	20.411	21055	14049	0	792
27.768	17.382	21036	13847	0	792
26.866	17.093	21008	13644	0	792
25.712	16.228	20957	13424	0	792
23.476	17.418	20897	13236	0	792
20.375	15.146	20850	13121	0	792
18.933	15.362	20799	13060	0	792
16.120	13.992	20739	13018	0	792
17.166	10.783	20680	12980	0	792
16.156	11.828	20613	12965	0	792
18.356	12.045	20542	12996	0	792
18.031	11.251	20502	13071	0	792
18.536	12.189	20435	13172	0	792
15.939	10.855	20364	13273	0	792
12.694	7.248	20316	13383	0	792
8.583	4.291	20245	13515	0	792
4.868	2.849	20198	13660	0	792
5.770	1.839	20158	13808	0	792
6.275	3.787	20087	13961	0	792
9.556	7.429	20048	14132	0	792
13.163	10.963	19988	14276	0	792
13.884	13.343	19889	14352	0	792
16.336	14.894	19802	14373	0	792
14.821	15.218	19712	14409	0	792
18.933	17.057	19633	14498	0	792
21.818	17.670	19546	14608	0	792
26.758	22.286	19455	14686	0	792
30.761	23.873	19376	14736	0	792
29.391	24.630	19297	14838	0	792
27.732	24.594	19249	15018	0	792
23.693	23.008	19210	15219	0	792
22.755	21.060	19158	15407	0	792
20.591	19.293	19131	15572	0	792
19.437	15.795	19091	15730	0	792
20.050	12.117	19051	15893	0	792
18.680	13.487	19040	16071	0	792
22.070	11.973	19012	16242	0	792
24.089	14.028	18992	16377	0	792
26.722	12.369	18972	16476	0	792
26.361	8.042	18953	16562	0	792
22.539	4.255	18901	16609	0	792
19.978	1.262	18862	16606	0	792
18.644	0.865	18802	16554	0	792
16.300	1.046	18723	16440	0	792
18.247	2.344	18617	16290	0	792
18.031	2.236	18546	16168	0	792
17.706	3.246	18459	16100	0	792
14.894	4.291	18380	16062	0	792
16.048	5.554	18320	16037	0	792
16.949	9.665	18241	16018	0	792
19.041	10.710	18150	15973	0	792
19.510	15.687	18071	15904	0	792
22.070	16.012	17992	15857	0	792
20.664	16.516	17913	15855	0	792
21.781	14.389	17866	15889	0	792
21.818	15.939	17795	15929	0	792
23.044	16.264	17735	15956	0	792
26.830	21.998	17688	16001	0	792
27.840	25.748	17648	16075	0	792
30.220	27.732	17609	16145	0	792
28.741	27.227	17557	16193	0	792
27.047	25.820	17510	16221	0	792
24.017	23.152	17459	16240	0	792
21.241	22.142	17419	16265	0	792
20.591	20.123	17380	16303	0	792
19.510	17.959	17332	16335	0	792
18.860	17.346	17281	16335	0	792
21.529	15.831	17202	16278	0	792
20.159	16.264	17095	16130	0	792
20.339	16.408	16984	15925	0	792
17.418	14.172	16858	15747	0	792
17.129	13.091	16747	15614	0	792
15.218	12.658	16629	15508	0	792
15.507	10.386	16510	15415	0	792
13.956	12.730	16384	15305	0	792
14.641	12.333	16258	15204	0	792
16.589	13.595	16167	15212	0	792
17.093	15.867	16088	15324	0	792
18.860	14.966	16029	15440	0	792
18.536	15.435	15950	15512	0	792
15.254	12.189	15863	15555	0	792
13.559	10.855	15792	15591	0	792
12.946	10.097	15705	15643	0	792
12.045	11.900	15634	15701	0	792
15.326	12.441	15566	15749	0	792
16.949	17.166	15475	15777	0	792
16.769	15.795	15408	15810	0	792
15.759	14.497	15329	15861	0	792
10.025	11.720	15270	15933	0	792
7.681	7.645	15211	16018	0	792
4.760	4.580	15159	16081	0	792
5.373	3.426	15080	16113	0	792
6.383	5.590	15021	16142	0	792
8.943	5.373	14962	16197	0	792
11.143	6.888	14922	16257	0	792
11.360	6.131	14855	16290	0	792
8.979	5.049	14776	16286	0	792
6.960	4.580	14717	16269	0	792
6.491	6.203	14637	16244	0	792
7.681	8.439	14578	16229	0	792
10.963	11.251	14539	16263	0	792
13.307	14.677	14460	16307	0	792
14.028	14.641	14381	16269	0	792
12.297	13.343	14290	16159	0	792
10.783	14.389	14191	16041	0	792
13.992	11.251	14084	15946	0	792
14.858	13.415	13993	15878	0	792
19.437	16.552	13906	15840	0	792
23.837	18.933	13815	15810	0	792
28.525	20.736	13709	15764	0	792
30.328	24.089	13618	15724	0	792
32.961	23.693	13519	15701	0	792
33.718	25.243	13432	15671	0	792
30.941	25.604	13301	15614	0	792
24.666	21.673	13195	15546	0	792
17.887	18.572	13096	15500	0	792
10.422	13.415	12997	15500	0	792
9.989	11.504	12918	15557	0	792
12.045	12.081	12847	15654	0	792
17.274	17.274	12788	15762	0	792
21.926	19.834	12720	15855	0	792
23.296	24.162	12641	15903	0	792
21.962	23.476	12582	15918	0	792
22.935	22.431	12503	15950	0	792
22.827	21.854	12444	15999	0	792
21.204	19.546	12365	16047	0	792
19.473	20.014	12305	16083	0	792
15.759	16.805	12207	16079	0	792
14.821	16.480	12116	16026	0	792
14.353	13.740	11997	15935	0	792
16.012	13.920	11890	15840	0	792
15.543	13.920	11800	15794	0	792
12.514	12.838	11701	15800	0	792
10.819	12.874	11614	15804	0	792
7.898	10.674	11523	15810	0	792
8.042	8.691	11456	15849	0	792
9.160	8.294	11396	15918	0	792
9.052	7.609	11317	15992	0	792
7.357	5.914	11266	16051	0	792
6.527	5.554	11199	16104	0	792
3.750	3.823	11147	16178	0	792
3.282	2.957	11128	16292	0	792
5.121	5.049	11088	16421	0	792
5.445	7.609	11060	16526	0	792
7.212	10.133	11029	16585	0	792
7.032	12.333	10989	16628	0	792
8.655	15.398	10962	16680	0	792
11.576	16.733	10942	16750	0	792
15.326	19.546	10930	16845	0	792
15.435	18.752	10930	16953	0	792
15.939	20.700	10930	17032	0	792
12.874	20.159	10910	17044	0	792
14.245	21.673	10890	17013	0	792
16.300	22.214	10871	17008	0	792
20.303	21.204	10871	17063	0	792
20.014	20.808	10910	17173	0	792
19.293	18.464	10950	17327	0	792
15.543	18.788	11009	17503	0	792
14.930	16.552	11100	17689	0	792
12.622	17.310	11199	17902	0	792
11.179	13.884	11325	18154	0	792
8.979	12.477	11464	18421	0	792
7.934	9.052	11634	18685	0	792
7.321	7.068	11819	18964	0	792
8.114	4.400	12017	19256	0	792
7.681	2.885	12215	19509	0	792
6.239	0.938	12432	19704	0	792
3.498	-1.911	12641	19875	0	792
1.515	-2.596	12879	20038	0	792
1.515	-0.757	13116	20175	0	792
1.839	-0.288	13361	20298	0	792
2.813	0.577	13630	20448	0	792
5.517	0.325	13914	20606	0	792
7.789	-0.397	14211	20740	0	792
10.783	-0.361	14499	20839	0	792
13.091	1.226	14803	20898	0	792
15.939	2.236	15100	20939	0	792
18.247	4.039	15448	21032	0	792
18.247	6.167	15792	21161	0	792
20.591	9.809	16120	21213	0	792
20.555	10.386	16423	21116	0	792
20.880	11.864	16708	20921	0	792
20.952	12.369	16984	20706	0	792
17.851	10.278	17281	20507	0	792
17.815	11.937	17538	20306	1	840
15.939	12.477	17787	20051	0	840
15.903	11.215	18024	19738	0	840
14.389	12.838	18249	19431	0	840
14.497	12.766	18486	19156	0	840
12.514	10.638	18704	18873	0	840
9.448	11.720	18901	18566	0	840
9.953	11.179	19091	18230	0	840
10.097	11.323	19249	17883	0	840
10.566	9.881	19415	17550	0	840
11.504	12.766	19573	17243	0	840
13.271	10.674	19712	16955	0	840
11.648	10.602	19850	16676	0	840
10.350	10.314	19968	16410	0	840
10.494	5.517	20079	16149	0	840
8.475	2.705	20186	15882	0	840
8.366	1.046	20257	15616	0	840
5.914	1.911	20324	15343	0	840
6.888	4.075	20356	15060	0	840
8.511	4.544	20384	14768	0	840
9.737	5.085	20376	14466	0	840
10.710	3.750	20364	14161	0	840
10.025	2.308	20324	13878	0	840
5.373	1.298	20304	13643	0	840
1.911	1.370	20257	13464	0	840
-0.757	0.072	20206	13307	0	840
-1.370	0.036	20127	13140	0	840
0.397	0.938	20059	12986	0	840
1.803	1.875	19980	12878	0	840
2.669	1.262	19901	12829	0	840
1.803	0.721	19830	12825	0	840
0.180	-1.731	19751	12846	0	840
-0.288	-3.390	19684	12891	0	840
1.731	-1.803	19613	12975	0	840
4.039	0.252	19553	13104	0	840
3.678	3.137	19494	13257	0	840
2.236	3.787	19435	13400	0	840
0.505	2.813	19368	13531	0	840
1.298	1.334	19289	13667	0	840
6.203	0.938	19237	13813	0	840
14.497	2.921	19170	13975	0	840
20.014	5.121	19111	14132	0	840
24.198	4.796	19020	14250	0	840
24.342	4.400	18933	14303	0	840
21.385	1.695	18814	14314	0	840
21.313	-1.082	18704	14324	0	840
19.365	-1.190	18605	14369	0	840
17.418	-1.226	18506	14470	0	840
17.923	-1.118	18419	14597	0	840
14.353	-2.993	18320	14690	0	840
10.133	-4.977	18221	14756	0	840
7.753	-7.645	18131	14887	0	840
5.698	-10.242	18091	15094	0	840
4.291	-9.376	18032	15316	0	840
5.770	-7.645	17992	15517	0	840
7.789	-6.311	17953	15699	0	840
11.540	-4.472	17913	15878	0	840
15.903	-2.416	17893	16064	0	840
18.283	-1.839	17866	16225	0	840
20.339	0.613	17814	16335	0	840
16.769	-1.659	17787	16418	0	840
15.254	-2.200	17767	16514	0	840
12.766	-5.554	17735	16634	0	840
12.802	-7.357	17727	16771	0	840
12.658	-6.960	17727	16902	0	840
13.595	-4.688	17727	16995	0	840
15.615	-3.029	17708	17032	0	840
16.877	0.252	17648	16993	0	840
19.437	2.019	17597	16894	0	840
17.670	2.777	17550	16810	0	840
18.860	0.685	17510	16765	0	840
15.110	-1.803	17459	16725	0	840
14.281	-3.390	17399	16668	0	840
12.045	-4.688	17332	16558	0	840
12.586	-2.596	17253	16423	0	840
14.966	-0.685	17214	16360	0	840
17.454	1.731	17182	16384	0	840
21.818	4.327	17142	16429	0	840
21.204	3.678	17103	16442	0	840
19.185	3.931	17075	16421	0	840
17.634	4.327	17024	16395	0	840
16.913	4.940	16996	16384	0	840
20.844	7.609	16957	16384	0	840
24.270	10.242	16925	16381	0	840
27.515	9.412	16866	16354	0	840
27.263	7.645	16826	16322	0	840
25.027	8.186	16779	16297	0	840
22.214	8.258	16739	16278	0	840
21.673	8.871	16708	16263	0	840
21.637	10.927	16660	16242	0	840
22.070	11.540	16601	16210	0	840
26.073	12.838	16550	16178	0	840
27.587	13.379	16510	16157	0	840
29.679	15.543	16470	16153	0	840
30.797	13.307	16431	16149	0	840
29.391	11.792	16357	16102	0	840
25.604	9.376	16278	15984	0	840
22.647	5.517	16167	15813	0	840
19.437	3.390	16068	15639	0	840
18.536	1.118	15950	15500	0	840
16.769	0.505	15843	15411	0	840
19.329	1.082	15752	15354	0	840
18.644	2.560	15653	15282	0	840
18.897	2.236	15507	15172	0	840
16.480	1.190	15388	15062	0	840
16.264	4.291	15278	15011	0	840
15.831	4.904	15179	15028	0	840
17.923	7.681	15092	15071	0	840
18.320	7.465	14993	15113	0	840
18.897	6.563	14902	15162	0	840
16.697	3.642	14815	15219	0	840
16.228	1.298	14736	15269	0	840
16.697	0.433	14626	15314	0	840
18.933	-1.839	14547	15377	0	840
19.654	-2.236	14468	15455	0	840
19.185	-5.590	14388	15529	0	840
15.867	-7.176	14309	15610	0	840
13.163	-8.727	14242	15690	0	840
12.405	-9.737	14163	15751	0	840
11.287	-8.727	14084	15798	0	840
11.900	-8.907	14005	15834	0	840
11.828	-10.458	13914	15849	0	840
9.340	-10.314	13827	15863	0	840
11.323	-10.458	13748	15878	0	840
13.920	-9.629	13669	15904	0	840
15.471	-6.419	13570	15927	0	840
18.716	-6.924	13479	15912	0	840
19.654	-5.337	13392	15882	0	840
21.168	-3.137	13313	15912	0	840
21.457	-1.298	13262	16009	0	840
22.467	0.252	13203	16109	0	840
21.385	-0.938	13135	16180	0	840
17.706	-3.029	13076	16225	0	840
16.480	-6.167	13025	16265	0	840
15.038	-7.645	12977	16322	0	840
15.867	-7.465	12926	16395	0	840
15.903	-7.501	12879	16461	0	840
19.293	-3.678	12819	16473	0	840
19.221	-3.642	12728	16391	0	840
21.745	-3.246	12641	16274	0	840
19.942	-5.157	12562	16227	0	840
19.221	-7.429	12523	16261	0	840
14.641	-9.124	12452	16303	0	840
14.064	-10.494	12412	16331	0	840
13.235	-10.278	12365	16377	0	840
15.543	-9.340	12333	16433	0	840
17.166	-9.556	12294	16509	0	840
17.598	-9.196	12294	16628	0	840
17.490	-8.943	12294	16759	0	840
18.067	-7.321	12254	16809	0	840
18.067	-5.662	12215	16763	0	840
20.627	-4.796	12167	16678	0	840
20.700	-3.787	12108	16607	0	840
23.801	-4.400	12068	16583	0	840
22.719	-5.229	12037	16600	0	840
22.611	-2.921	12009	16619	0	840
21.493	-2.272	11977	16613	0	840
17.634	-3.750	11950	16611	0	840
15.398	-5.085	11938	16643	0	840
13.199	-9.088	11930	16702	0	840
11.792	-10.206	11930	16761	0	840
11.360	-9.376	11918	16801	0	840
10.386	-9.592	11930	16852	0	840
8.763	-10.061	11958	16951	0	840
6.599	-11.792	11997	17108	0	840
5.698	-11.540	12076	17309	0	840
5.121	-12.441	12155	17528	0	840
7.681	-10.674	12266	17759	0	840
9.088	-7.970	12392	17993	0	840
11.323	-6.311	12511	18222	0	840
11.287	-6.275	12669	18461	0	840
11.684	-5.373	12847	18714	0	840
13.631	-5.373	13025	18977	0	840
15.254	-4.147	13203	19207	0	840
16.841	-3.246	13392	19357	0	840
20.700	-0.108	13578	19458	0	840
23.440	2.272	13776	19569	0	840
24.594	2.993	13973	19695	0	840
25.784	5.229	14183	19772	0	840
27.984	4.760	14381	19767	0	840
26.037	4.255	14539	19691	0	840
25.496	1.695	14697	19549	0	840
24.053	0.036	14835	19366	0	840
20.555	-0.216	15021	19234	1	732
16.589	-1.082	15199	19186	0	732
16.012	-0.793	15396	19177	0	732
16.733	-0.180	15614	19190	0	732
21.962	0.505	15863	19239	0	732
24.414	1.947	16108	19327	0	732
26.830	2.560	16377	19429	0	732
25.279	0.721	16621	19480	0	732
20.627	-2.596	16826	19402	0	732
18.680	-5.301	17044	19230	0	732
16.877	-7.032	17253	19086	0	732
18.211	-5.193	17470	18998	0	732
18.572	-2.993	17688	18909	0	732
18.716	-0.361	17893	18795	0	732
17.490	2.056	18111	18670	0	732
18.283	4.147	18308	18539	0	732
21.962	6.347	18506	18393	0	732
24.270	6.888	18684	18211	0	732
27.768	7.393	18862	18004	0	732
29.210	7.970	19012	17772	0	732
25.748	8.511	19119	17486	0	732
23.801	9.052	19229	17152	0	732
22.250	9.773	19316	16841	0	732
18.644	10.422	19407	16577	0	732
18.788	9.809	19486	16322	0	732
18.356	8.402	19534	16032	0	732
17.238	6.022	19573	15734	0	732
17.562	3.137	19633	15496	0	732
15.471	0.721	19672	15312	0	732
14.245	-0.325	19704	15134	0	732
13.704	0.433	19723	14939	0	732
12.514	0.252	19723	14743	0	732
13.920	-0.252	19723	14576	0	732
14.749	-1.154	19731	14455	0	732
16.697	-0.829	19731	14381	0	732
19.005	-1.154	19731	14337	0	732
19.654	-0.433	19712	14269	0	732
18.175	-0.180	19652	14113	0	732
16.805	1.262	19585	13882	0	732
13.776	2.019	19494	13684	0	732
13.668	2.993	19395	13559	0	732
17.706	5.445	19316	13455	0	732
19.690	6.671	19210	13362	0	732
21.890	6.960	19111	13293	0	732
20.700	8.114	18992	13252	0	732
17.238	5.986	18893	13240	0	732
13.091	6.131	18783	13255	0	732
16.300	6.563	18676	13303	0	732
18.031	5.445	18577	13386	0	732
20.808	6.239	18478	13474	0	732
17.057	4.147	18368	13544	0	732
15.254	2.560	18269	13633	0	732
10.638	1.983	18182	13777	0	732
14.497	4.003	18103	13969	0	732
19.762	5.373	18032	14168	0	732
24.125	6.022	17965	14362	0	732
22.647	3.246	17905	14582	0	732
18.680	1.839	17874	14842	0	732
14.713	-1.262	17846	15126	0	732
16.264	-1.370	17826	15413	0	732
15.939	-2.056	17814	15669	0	732
18.969	-2.849	17806	15901	0	732
16.516	-2.416	17806	16130	0	732
13.415	-2.993	17814	16369	0	732
10.999	-2.308	17834	16607	0	732
12.045	0.144	17854	16835	0	732
17.598	1.587	17885	17036	0	732
18.897	2.705	17913	17205	0	732
19.149	3.787	17945	17344	0	732
15.507	3.101	17972	17459	0	732
11.287	0.433	18004	17535	0	732
8.727	-1.154	18012	17579	0	732
7.681	-1.334	18044	17594	0	732
10.530	-0.288	18024	17550	0	732
12.225	-0.108	18012	17444	0	732
11.179	0.252	17984	17319	0	732
13.054	0.108	17953	17192	0	732
12.802	-0.216	17913	17031	0	732
13.343	1.803	17846	16826	0	732
15.435	3.029	17775	16609	0	732
17.093	5.590	17716	16429	0	732
19.582	6.671	17656	16307	0	732
19.401	4.940	17617	16236	0	732
22.539	5.265	17569	16189	0	732
23.621	5.409	17530	16134	0	732
24.378	5.986	17490	16088	0	732
24.739	6.924	17451	16064	0	732
23.224	6.708	17419	16064	0	732
20.952	4.147	17380	16070	0	732
21.998	2.200	17340	16052	0	732
20.591	1.911	17300	16013	0	732
21.854	1.334	17253	15965	0	732
21.926	0.685	17202	15922	0	732
20.988	-0.793	17123	15853	0	732
20.988	-2.416	17024	15701	0	732
18.680	-2.452	16897	15453	0	732
20.664	-2.272	16747	15183	0	732
20.195	-0.252	16589	14944	0	732
21.745	-0.397	16431	14749	0	732
25.063	0.144	16305	14625	0	732
24.955	1.262	16179	14593	0	732
24.630	1.839	16068	14620	0	732
25.784	2.957	15962	14660	0	732
25.893	4.580	15863	14694	0	732
25.027	4.796	15764	14768	0	732
24.125	4.688	15693	14910	0	732
22.899	1.623	15634	15081	0	732
19.437	0.757	15566	15246	0	732
20.195	-0.144	15507	15388	0	732
20.627	0.325	15448	15514	0	732
22.142	1.983	15377	15614	0	732
24.775	3.714	15298	15675	0	732
24.630	4.508	15211	15709	0	732
24.811	3.282	15139	15760	0	732
25.027	3.750	15080	15840	0	732
22.899	3.642	15013	15920	0	732
20.736	3.246	14954	15982	0	732
23.224	4.291	14875	16037	0	732
23.657	7.501	14815	16077	0	732
24.847	8.655	14744	16107	0	732
26.650	10.422	14665	16136	0	732
26.830	10.674	14606	16161	0	732
24.522	9.448	14547	16178	0	732
23.476	7.248	14460	16183	0	732
23.116	7.140	14400	16193	0	732
23.729	8.583	14329	16216	0	732
27.768	10.566	14262	16214	0	732
30.292	11.576	14171	16181	0	732
32.528	13.307	14104	16164	0	732
31.879	11.612	14033	16181	0	732
28.345	8.402	13966	16197	0	732
23.873	7.681	13906	16191	0	732
21.457	5.950	13827	16164	0	732
17.670	4.400	13748	16136	0	732
16.372	3.714	13677	16134	0	732
15.110	3.823	13630	16166	0	732
17.923	3.282	13558	16204	0	732
18.716	4.111	13511	16212	0	732
21.709	4.544	13440	16202	0	732
23.224	5.986	13373	16208	0	732
23.116	5.626	13333	16236	0	732
22.972	6.563	13274	16276	0	732
23.044	5.842	13222	16303	0	732
22.178	7.176	13163	16310	0	732
24.089	5.698	13116	16309	0	732
24.630	6.708	13056	16305	0	732
25.243	7.753	13017	16328	0	732
27.912	8.943	12997	16410	0	732
28.417	10.242	12966	16511	0	732
26.542	12.369	12918	16520	0	732
26.289	13.379	12847	16425	0	732
24.666	10.963	12760	16297	0	732
22.755	9.448	12669	16183	0	732
22.899	8.150	12602	16107	0	732
24.270	6.058	12531	16060	0	732
25.135	6.924	12432	15997	0	732
24.198	6.635	12345	15889	0	732
21.781	4.111	12246	15772	0	732
21.493	2.308	12135	15696	0	732
19.041	1.010	12056	15669	0	732
21.096	1.226	11977	15660	0	732
22.863	2.236	11890	15643	0	732
25.460	4.039	11811	15631	0	732
26.145	4.291	11740	15660	0	732
27.263	5.013	11693	15737	0	732
25.856	4.904	11641	15842	0	732
24.198	2.452	11594	15950	0	732
23.224	2.524	11562	16068	0	732
22.214	4.111	11554	16208	0	732
23.837	5.914	11543	16373	0	732
27.515	8.799	11554	16547	0	732
29.354	10.638	11562	16714	0	732
30.725	10.566	11574	16850	0	732
30.508	10.206	11574	16955	0	732
29.607	9.268	11594	17051	0	732
27.732	8.619	11622	17160	0	732
26.361	6.347	11661	17317	0	732
24.739	4.796	11740	17545	0	732
22.827	2.452	11871	17843	0	732
21.962	1.587	12017	18196	0	732
19.329	0.288	12187	18569	0	732
18.969	-1.082	12384	18958	0	732
16.949	-3.101	12622	19355	0	732
15.218	-5.049	12859	19729	0	732
10.783	-8.511	13104	20063	0	732
9.088	-12.081	13361	20351	0	732
8.186	-13.595	13637	20607	0	732
7.248	-13.163	13926	20850	0	732
8.907	-12.225	14242	21089	0	732
12.586	-8.511	14547	21298	0	732
14.281	-7.176	14843	21429	0	732
14.641	-5.806	15120	21439	0	732
16.552	-5.770	15396	21351	0	732
15.326	-5.734	15673	21270	0	732
14.858	-5.770	15962	21222	0	732
13.776	-4.832	16246	21152	0	732
15.110	-3.859	16530	21036	1	784
16.805	-1.587	16787	20848	0	784
17.743	-1.262	17036	20602	0	784
20.555	-0.793	17293	20355	0	784
19.978	-1.010	17538	20135	0	784
18.103	-1.442	17795	19930	0	784
15.543	-0.325	18032	19727	0	784
16.733	0.938	18269	19495	0	784
17.382	3.137	18498	19232	0	784
21.493	6.131	18723	18983	0	784
26.073	9.448	18941	18778	0	784
28.056	12.297	19190	18592	0	784
29.787	13.992	19387	18378	0	784
29.463	15.002	19573	18118	0	784
28.309	11.828	19763	17843	0	784
25.568	10.206	19941	17602	0	784
23.368	6.563	20138	17410	0	784
23.332	2.741	20297	17234	0	784
21.854	1.334	20474	17025	0	784
20.952	-0.938	20601	16786	0	784
21.060	-1.911	20731	16513	0	784
17.743	-3.210	20810	16199	0	784
16.697	-2.596	20889	15866	0	784
14.136	-2.741	20949	15551	0	784
14.785	-2.164	20996	15259	0	784
14.533	-2.921	21036	14996	0	784
17.995	-3.318	21055	14768	0	784
20.159	-2.885	21087	14563	0	784
23.621	-1.767	21095	14371	0	784
23.152	0.000	21107	14200	0	784
23.765	0.325	21107	14051	0	784
24.053	0.072	21087	13895	0	784
23.512	-1.190	21048	13728	0	784
24.270	-0.108	21008	13584	0	784
24.811	0.793	20949	13474	0	784
22.322	1.983	20897	13396	0	784
20.952	3.354	20838	13339	0	784
21.637	4.472	20779	13286	0	784
22.467	5.445	20712	13242	0	784
24.017	6.635	20640	13242	0	784
25.532	6.960	20581	13299	0	784
23.512	7.140	20522	13394	0	784
22.431	7.862	20482	13491	0	784
22.791	7.717	20395	13570	0	784
23.440	9.160	20344	13656	0	784
25.171	9.340	20277	13785	0	784
26.794	8.330	20237	13952	0	784
26.542	8.258	20178	14111	0	784
26.397	8.871	20127	14242	0	784
27.479	7.898	20067	14358	0	784
28.561	8.511	19988	14459	0	784
29.751	10.242	19929	14567	0	784
30.040	10.602	19901	14726	0	784
29.282	10.422	19850	14929	0	784
28.056	11.287	19810	15104	0	784
28.525	11.432	19751	15199	0	784
29.318	9.665	19684	15242	0	784
29.030	10.566	19613	15292	0	784
29.607	10.927	19553	15369	0	784
27.840	7.393	19506	15470	0	784
25.388	7.176	19447	15569	0	784
24.702	5.626	19387	15648	0	784
22.503	5.698	19336	15718	0	784
20.050	4.868	19277	15798	0	784
14.785	2.056	19249	15897	0	784
12.622	-0.288	19198	15990	0	784
10.278	-2.380	19158	16066	0	784
11.612	-2.849	19111	16134	0	784
15.182	-0.361	19091	16210	0	784
17.310	1.983	19051	16309	0	784
19.834	2.200	19040	16418	0	784
17.346	1.587	19020	16501	0	784
15.651	-1.406	18980	16554	0	784
12.477	-2.957	18961	16600	0	784
13.595	-4.904	18953	16642	0	784
15.579	-3.895	18913	16666	0	784
18.716	-1.551	18874	16655	0	784
22.431	-0.252	18822	16590	0	784
23.296	0.108	18755	16478	0	784
22.539	0.216	18664	16329	0	784
22.899	-0.072	18565	16157	0	784
26.325	0.757	18467	16007	0	784
27.010	0.036	18380	15899	0	784
27.660	-0.469	18289	15817	0	784
28.273	-0.902	18182	15720	0	784
26.794	-0.721	18103	15616	0	784
26.253	-0.469	18004	15572	0	784
24.378	0.505	17945	15595	0	784
21.998	-0.541	17854	15627	0	784
17.454	-2.236	17795	15641	0	784
14.136	-2.596	17708	15629	0	784
14.172	-1.442	17629	15610	0	784
18.356	0.721	17530	15584	0	784
22.214	2.921	17411	15500	0	784
24.414	3.390	17281	15350	0	784
25.784	2.921	17134	15183	0	784
21.277	1.623	16957	15003	0	784
18.356	-1.010	16799	14813	0	784
17.562	-1.118	16609	14673	0	784
17.454	-1.298	16451	14584	0	784
18.969	-0.288	16305	14551	0	784
22.070	0.865	16187	14605	0	784
24.017	2.164	16080	14717	0	784
22.791	4.255	15969	14849	0	784
23.476	6.239	15890	15001	0	784
26.217	8.691	15803	15168	0	784
26.578	10.350	15732	15333	0	784
28.633	11.612	15634	15477	0	784
28.633	11.396	15574	15599	0	784
28.164	9.556	15487	15705	0	784
26.037	7.825	15408	15811	0	784
24.378	5.193	15337	15925	0	784
22.106	2.380	15270	16051	0	784
20.375	1.262	15199	16155	0	784
16.877	0.288	15139	16229	0	784
18.031	-1.803	15072	16284	0	784
17.562	-3.065	14962	16273	0	784
17.815	-4.580	14863	16191	0	784
15.290	-4.760	14756	16123	0	784
15.038	-5.662	14657	16094	0	784
12.838	-5.445	14547	16079	0	784
12.009	-6.780	14479	16087	0	784
13.631	-6.960	14408	16140	0	784
14.064	-7.068	14349	16229	0	784
16.805	-5.950	14282	16297	0	784
17.562	-5.842	14171	16261	0	784
18.716	-4.652	14072	16138	0	784
18.139	-3.787	13966	16047	0	784
22.106	0.216	13867	16033	0	784
26.289	3.462	13776	16049	0	784
32.384	8.547	13709	16064	0	784
37.468	12.261	13618	16079	0	784
38.190	15.543	13539	16075	0	784
35.701	13.956	13440	16056	0	784
30.364	12.802	13392	16092	0	784
23.332	10.999	13353	16216	0	784
19.113	7.681	13294	16341	0	784
16.012	6.960	13234	16381	0	784
15.939	8.366	13175	16364	0	784
19.149	9.809	13135	16387	0	784
20.159	8.763	13084	16480	0	784
18.969	8.907	13064	16585	0	784
18.428	7.753	13025	16659	0	784
15.254	6.527	12997	16695	0	784
15.507	4.327	12946	16700	0	784
16.625	5.301	12906	16698	0	784
19.437	5.842	12879	16710	0	784
20.736	4.075	12839	16723	0	784
20.772	4.724	12800	16716	0	784
18.897	4.075	12748	16687	0	784
17.887	2.596	12701	16647	0	784
16.228	2.056	12641	16581	0	784
19.762	4.003	12570	16480	0	784
21.818	5.337	12491	16379	0	784
25.279	7.934	12444	16307	0	784
27.948	8.042	12365	16257	0	784
28.453	9.232	12305	16199	0	784
29.427	10.025	12226	16119	0	784
31.013	9.160	12147	16052	0	784
31.374	10.674	12088	16016	0	784
31.338	10.314	12017	15984	0	784
29.138	7.285	11930	15914	0	784
27.191	6.599	11839	15819	0	784
23.801	3.823	11752	15756	0	784
20.303	2.272	11681	15755	0	784
19.726	2.236	11634	15792	0	784
16.156	1.334	11562	15827	0	784
14.641	0.433	11503	15834	0	784
13.343	-1.803	11456	15868	0	784
9.448	-2.200	11404	15958	0	784
7.393	-3.678	11396	16077	0	784
6.167	-2.452	11377	16219	0	784
5.590	-3.282	11384	16377	0	784
5.445	-3.137	11384	16549	0	784
7.825	-3.534	11416	16755	0	784
9.845	-1.839	11495	17015	0	784
12.045	-0.577	11574	17321	0	784
13.704	1.262	11681	17630	0	784
13.235	2.416	11760	17877	0	784
15.002	3.029	11859	18061	0	784
14.172	5.085	11989	18273	0	784
17.815	6.635	12147	18556	0	784
19.437	8.222	12325	18864	0	784
22.791	8.150	12511	19169	0	784
23.621	6.058	12728	19480	0	784
24.234	5.157	12958	19772	0	784
24.739	2.669	13203	20042	0	784
23.296	0.361	13499	20344	0	784
19.041	-0.829	13796	20698	0	784
18.139	-3.173	14132	21038	0	784
15.182	-3.354	14460	21298	0	784
15.651	-3.678	14776	21475	0	784
15.795	-1.659	15112	21604	0	784
19.401	1.515	15436	21702	0	784
20.303	2.993	15772	21757	0	784
21.673	4.832	16088	21744	0	784
21.168	2.921	16411	21664	0	784
20.231	0.649	16719	21545	0	784
16.661	-1.983	17016	21402	0	784
14.353	-4.364	17332	21241	1	796
9.989	-5.445	17636	21076	0	796
8.691	-5.734	17945	20911	0	796
7.717	-4.075	18241	20744	0	796
8.511	-2.957	18557	20568	0	796
9.268	-2.056	18862	20378	0	796
10.746	-1.731	19158	20169	0	796
9.268	-4.364	19427	19924	0	796
7.212	-5.626	19692	19647	0	796
6.347	-6.780	19941	19340	0	796
5.734	-6.888	20146	18972	0	796
8.186	-6.058	20344	18560	0	796
11.504	-3.101	20534	18163	0	796
13.776	-1.767	20719	17810	0	796
17.490	1.154	20889	17478	0	796
16.841	1.262	21036	17127	0	796
20.050	3.137	21174	16767	0	796
21.457	4.904	21304	16459	0	796
25.135	7.465	21451	16210	0	796
24.234	10.242	21569	15961	0	796
25.676	13.415	21680	15709	0	796
26.217	14.353	21767	15460	0	796
26.037	14.100	21846	15221	0	796
26.758	15.543	21925	15009	0	796
27.948	14.677	22004	14846	0	796
28.345	15.543	22075	14715	0	796
28.381	15.182	22103	14542	0	796
26.289	14.713	22083	14259	0	796
22.575	13.992	22055	13918	0	796
18.139	10.314	22036	13660	0	796
14.605	11.792	22004	13506	0	796
15.615	11.360	21965	13383	0	796
17.129	10.350	21925	13267	0	796
19.473	9.809	21866	13153	0	796
18.464	9.520	21779	13011	0	796
17.815	6.852	21700	12876	0	796
15.579	6.058	21640	12840	0	796
14.064	4.147	21581	12927	0	796
12.658	3.678	21530	13022	0	796
10.783	2.921	21443	13045	0	796
12.730	4.183	21352	13039	0	796
11.973	5.770	21265	13075	0	796
14.533	6.888	21194	13180	0	796
17.093	7.717	21115	13326	0	796
17.238	8.835	21036	13462	0	796
20.375	10.278	20957	13572	0	796
19.293	11.468	20889	13690	0	796
21.060	11.468	20810	13838	0	796
24.739	14.497	20739	14001	0	796
26.253	14.425	20660	14166	0	796
28.705	18.211	20593	14324	0	796
29.787	17.382	20534	14487	0	796
30.040	18.680	20482	14665	0	796
29.066	17.310	20423	14861	0	796
27.948	17.310	20384	15058	0	796
29.787	17.310	20336	15235	0	796
28.525	16.372	20304	15398	0	796
29.102	17.346	20257	15569	0	796
30.004	14.064	20237	15749	0	796
30.689	13.451	20198	15918	0	796
29.102	12.802	20178	16052	0	796
29.571	14.028	20127	16151	0	796
28.633	15.398	20067	16183	0	796
28.345	14.713	19988	16132	0	796
25.207	12.982	19901	16043	0	796
20.591	7.573	19822	15992	0	796
18.788	4.652	19743	15992	0	796
16.877	6.383	19684	16028	0	796
18.103	8.330	19625	16064	0	796
21.493	11.143	19565	16077	0	796
21.673	10.963	19506	16090	0	796
24.162	11.937	19447	16119	0	796
23.044	10.927	19387	16159	0	796
21.385	10.206	19336	16199	0	796
22.250	12.045	19297	16223	0	796
20.303	12.514	19229	16242	0	796
21.601	11.143	19190	16278	0	796
20.123	12.802	19150	16341	0	796
20.339	12.838	19119	16397	0	796
20.267	10.674	19071	16420	0	796
18.969	10.710	19020	16418	0	796
22.034	12.117	18980	16420	0	796
23.044	11.973	18941	16437	0	796
23.801	14.966	18893	16446	0	796
25.027	15.218	18842	16427	0	796
23.549	14.100	18795	16389	0	796
21.818	13.920	18723	16339	0	796
21.854	12.658	18636	16242	0	796
21.890	14.749	18557	16128	0	796
24.702	17.526	18518	16106	0	796
28.741	19.005	18478	16172	0	796
26.902	19.149	18419	16202	0	796
26.145	19.221	18340	16121	0	796
22.503	16.084	18241	15978	0	796
21.890	15.939	18150	15851	0	796
21.457	16.156	18071	15777	0	796
22.899	16.300	17984	15737	0	796
23.260	17.166	17885	15690	0	796
23.224	16.084	17775	15601	0	796
24.847	16.444	17668	15489	0	796
21.962	14.281	17550	15392	0	796
21.962	15.002	17439	15326	0	796
21.998	13.523	17332	15292	0	796
18.860	15.903	17221	15267	0	796
19.870	15.975	17123	15246	0	796
18.283	15.362	17016	15240	0	796
18.536	16.408	16925	15257	0	796
18.500	14.749	16818	15297	0	796
20.231	16.877	16739	15356	0	796
24.270	18.031	16648	15424	0	796
26.001	22.467	16550	15477	0	796
26.145	22.611	16463	15506	0	796
26.974	22.575	16377	15527	0	796
25.893	23.512	16278	15542	0	796
24.270	20.519	16187	15553	0	796
25.027	21.745	16080	15561	0	796
27.083	23.837	15962	15561	0	796
28.453	23.909	15883	15576	0	796
29.102	25.496	15792	15644	0	796
27.299	25.496	15724	15737	0	796
24.919	23.368	15634	15796	0	796
23.080	21.457	15535	15808	0	796
20.736	20.014	15428	15777	0	796
23.080	17.382	15317	15730	0	796
21.781	18.320	15211	15690	0	796
21.132	17.202	15100	15669	0	796
22.070	18.536	14993	15658	0	796
20.483	17.418	14875	15633	0	796
22.755	17.454	14744	15597	0	796
20.952	16.264	14645	15589	0	796
22.395	16.228	14547	15627	0	796
21.637	15.110	14448	15684	0	796
20.591	16.120	14361	15728	0	796
22.142	16.841	14270	15758	0	796
23.801	19.005	14171	15791	0	796
23.657	19.582	14072	15823	0	796
25.496	22.034	13985	15846	0	796
25.676	20.664	13886	15855	0	796
22.395	20.844	13796	15866	0	796
19.437	18.933	13677	15870	0	796
14.894	19.762	13570	15823	0	796
12.946	18.103	13432	15730	0	796
10.097	18.500	13313	15656	0	796
10.494	17.779	13183	15627	0	796
10.638	17.526	13064	15614	0	796
11.287	16.985	12938	15572	0	796
11.143	17.129	12819	15533	0	796
12.658	18.500	12728	15576	0	796
11.864	18.428	12661	15707	0	796
10.819	17.490	12590	15859	0	796
11.360	17.562	12511	15990	0	796
10.025	16.228	12464	16098	0	796
10.638	18.031	12392	16200	0	796
12.622	17.021	12365	16318	0	796
13.091	18.788	12345	16469	0	796
14.605	16.589	12305	16632	0	796
16.336	17.274	12286	16759	0	796
15.326	14.858	12254	16850	0	796
15.110	16.336	12226	16928	0	796
13.812	15.110	12207	17002	0	796
13.920	16.012	12187	17065	0	796
13.848	14.894	12147	17101	0	796
11.864	15.290	12135	17110	0	796
12.009	14.136	12088	17089	0	796
11.323	12.874	12037	17021	0	796
11.107	12.694	11997	16939	0	796
12.658	11.576	11969	16921	0	796
10.927	10.746	11938	16941	0	796
8.943	10.566	11890	16900	0	796
7.140	9.160	11819	16772	0	796
6.419	9.268	11740	16619	0	796
8.619	11.179	11681	16486	0	796
11.107	13.992	11614	16399	0	796
11.612	15.579	11562	16350	0	796
12.910	18.680	11495	16297	0	796
10.530	18.572	11436	16227	0	796
9.629	19.293	11384	16199	0	796
9.304	18.356	11357	16244	0	796
9.881	19.870	11357	16345	0	796
12.009	21.457	11345	16467	0	796
15.543	22.286	11377	16606	0	796
17.995	25.135	11396	16761	0	796
20.483	25.640	11456	16947	0	796
19.798	23.657	11515	17171	0	796
21.024	22.395	11602	17427	0	796
17.562	19.798	11713	17687	0	796
15.759	18.644	11831	17960	0	796
12.369	17.526	11989	18266	0	796
10.602	15.471	12167	18596	0	796
9.917	12.369	12365	18922	0	796
9.160	9.881	12551	19218	0	796
9.773	6.094	12768	19478	0	796
9.340	5.842	12966	19685	0	796
7.862	4.544	13183	19845	0	796
9.124	4.724	13420	20012	0	796
7.248	4.652	13669	20205	0	796
7.429	4.544	13946	20412	0	796
7.717	5.554	14230	20624	0	796
6.491	6.599	14539	20816	0	796
7.357	7.825	14835	20951	0	796
5.373	6.203	15139	21044	0	796
4.760	6.419	15456	21129	0	796
4.075	5.481	15784	21203	0	796
6.347	6.167	16100	21245	0	796
8.799	10.710	16423	21249	0	796
11.215	14.172	16759	21228	0	796
13.451	18.897	17083	21199	0	796
14.641	19.473	17439	21177	0	796
14.100	18.283	17787	21150	0	796
17.238	17.923	18123	21097	1	836
15.615	15.651	18478	21004	0	836
16.372	15.795	18802	20869	0	836
13.704	17.490	19131	20698	0	836
12.225	16.444	19435	20494	0	836
11.035	16.264	19731	20237	0	836
10.963	14.064	20008	19934	0	836
14.713	15.110	20265	19590	0	836
15.831	12.694	20463	19180	0	836
16.192	13.018	20660	18735	0	836
18.428	12.766	20889	18359	0	836
17.057	10.494	21107	18065	0	836
18.428	10.710	21285	17754	0	836
17.526	10.314	21443	17374	0	836
17.598	10.133	21581	16955	0	836
19.077	10.422	21708	16550	0	836
17.959	11.540	21818	16199	0	836
19.041	12.297	21925	15889	0	836
16.048	11.540	22024	15608	0	836
14.281	12.045	22115	15326	0	836
12.261	10.638	22182	15035	0	836
10.530	10.169	22233	14768	0	836
13.018	11.143	22293	14548	0	836
14.172	13.379	22332	14348	0	836
14.281	14.677	22340	14123	0	836
17.526	18.067	22332	13878	0	836
18.464	19.113	22320	13646	0	836
20.050	21.637	22293	13453	0	836
18.428	21.926	22253	13290	0	836
16.516	20.231	22202	13134	0	836
10.891	18.175	22142	12980	0	836
5.301	12.477	22075	12847	0	836
2.200	8.006	21996	12739	0	836
0.144	4.111	21917	12682	0	836
0.397	2.236	21866	12732	0	836
-1.046	1.947	21826	12870	0	836
-2.164	2.308	21767	12992	0	836
-2.200	4.508	21688	13041	0	836
-1.515	4.255	21589	13054	0	836
0.469	6.599	21510	13081	0	836
3.931	7.753	21411	13144	0	836
9.376	10.999	21332	13236	0	836
13.704	14.064	21233	13333	0	836
18.788	16.733	21127	13421	0	836
20.808	19.546	21036	13527	0	836
22.250	18.716	20957	13663	0	836
18.824	18.752	20870	13810	0	836
18.788	18.320	20771	13940	0	836
18.211	17.238	20660	14049	0	836
20.087	20.483	20573	14151	0	836
20.519	19.257	20474	14274	0	836
21.277	20.988	20395	14441	0	836
21.060	18.969	20324	14635	0	836
19.437	18.716	20237	14806	0	836
19.546	18.103	20146	14903	0	836
18.752	19.185	20028	14933	0	836
18.716	17.743	19929	14984	0	836
14.425	17.093	19850	15107	0	836
12.514	12.261	19771	15267	0	836
8.655	10.674	19712	15441	0	836
6.924	10.025	19664	15629	0	836
5.698	8.150	19613	15817	0	836
4.977	5.878	19585	16009	0	836
1.983	3.354	19585	16242	0	836
-0.433	-1.082	19585	16509	0	836
-2.308	-1.479	19585	16746	0	836
-2.741	-0.325	19585	16900	0	836
0.505	1.947	19553	16972	0	836
3.750	5.085	19526	16995	0	836
7.393	7.357	19486	16995	0	836
9.124	8.150	19447	16964	0	836
9.592	8.655	19387	16903	0	836
9.340	8.114	19316	16833	0	836
9.953	8.619	19269	16755	0	836
9.088	8.943	19198	16687	0	836
11.684	10.638	19158	16649	0	836
17.057	13.379	19099	16628	0	836
22.899	15.002	19051	16573	0	836
31.879	15.074	18972	16482	0	836
35.882	16.084	18901	16384	0	836
34.764	12.153	18834	16297	0	836
28.164	11.360	18763	16223	0	836
22.972	10.061	18684	16151	0	836
18.536	10.602	18605	16077	0	836
20.050	9.665	18518	15990	0	836
20.267	12.261	18399	15853	0	836
21.349	10.783	18300	15696	0	836
19.293	11.937	18210	15627	0	836
17.490	11.179	18123	15644	0	836
15.903	9.412	18032	15625	0	836
18.103	7.898	17913	15519	0	836
16.300	8.078	17787	15373	0	836
17.815	6.203	17656	15254	0	836
14.208	5.265	17550	15187	0	836
14.064	3.606	17431	15161	0	836
11.648	5.085	17300	15132	0	836
13.631	6.094	17194	15090	0	836
14.353	9.124	17063	15070	0	836
12.982	9.556	16965	15092	0	836
13.631	7.465	16858	15151	0	836
11.576	6.094	16779	15229	0	836
10.025	3.606	16668	15299	0	836
11.468	3.606	16569	15348	0	836
13.523	5.301	16482	15398	0	836
16.372	7.140	16391	15464	0	836
19.834	8.907	16298	15538	0	836
17.995	9.773	16207	15582	0	836
17.743	8.583	16108	15599	0	836
12.117	5.986	16001	15616	0	836
9.196	3.823	15910	15643	0	836
8.186	1.731	15823	15705	0	836
10.169	2.272	15784	15851	0	836
13.776	2.633	15724	16037	0	836
15.290	3.210	15645	16119	0	836
16.913	4.075	15527	16041	0	836
16.877	2.777	15396	15904	0	836
14.677	1.118	15278	15811	0	836
17.526	0.036	15171	15775	0	836
19.005	2.092	15072	15773	0	836
21.998	3.787	14954	15768	0	836
21.096	4.327	14835	15741	0	836
18.139	4.327	14736	15711	0	836
17.706	2.993	14618	15703	0	836
15.651	0.902	14519	15711	0	836
16.877	1.767	14420	15720	0	836
18.464	2.236	14309	15722	0	836
16.697	1.731	14211	15739	0	836
16.589	0.505	14124	15781	0	836
13.812	-2.128	14045	15849	0	836
14.858	-2.308	13966	15918	0	836
14.821	-0.577	13867	15954	0	836
17.021	1.479	13776	15963	0	836
17.057	3.318	13697	15980	0	836
18.500	3.967	13610	16018	0	836
18.500	3.642	13539	16071	0	836
20.339	2.128	13471	16145	0	836
20.339	2.344	13420	16236	0	836
22.034	2.452	13353	16295	0	836
22.106	2.272	13262	16280	0	836
21.854	2.200	13155	16214	0	836
23.693	3.318	13064	16159	0	836
25.784	5.265	12977	16140	0	836
27.443	5.445	12898	16144	0	836
27.119	6.131	12827	16138	0	836
25.099	3.210	12728	16123	0	836
19.437	-1.190	12661	16145	0	836
17.851	-4.075	12610	16204	0	836
13.848	-5.085	12543	16269	0	836
15.903	-4.147	12491	16322	0	836
15.759	-2.380	12444	16354	0	836
20.195	-0.974	12384	16371	0	836
22.214	-0.252	12294	16367	0	836
26.938	1.587	12207	16295	0	836
29.499	4.003	12096	16161	0	836
32.095	5.698	11997	16045	0	836
30.400	8.042	11898	15977	0	836
30.581	7.789	11800	15918	0	836
28.777	8.078	11693	15853	0	836
30.472	9.232	11602	15823	0	836
34.620	9.989	11535	15857	0	836
39.308	10.169	11483	15942	0	836
39.488	11.648	11416	16030	0	836
38.442	10.566	11365	16090	0	836
34.367	9.520	11305	16138	0	836
30.977	8.366	11266	16195	0	836
30.761	8.078	11207	16261	0	836
31.194	6.852	11159	16312	0	836
29.535	6.131	11100	16318	0	836
28.345	4.147	11029	16295	0	836
24.522	3.642	10969	16293	0	836
23.332	2.921	10930	16333	0	836
24.955	3.246	10902	16408	0	836
24.775	4.832	10871	16488	0	836
28.597	4.616	10831	16539	0	836
28.741	6.383	10784	16560	0	836
30.004	6.491	10732	16549	0	836
28.958	8.258	10685	16518	0	836
28.092	7.285	10653	16513	0	836
25.893	6.094	10614	16533	0	836
23.549	3.787	10586	16569	0	836
25.027	4.544	10586	16643	0	836
24.594	4.147	10594	16774	0	836
24.594	4.616	10626	16951	0	836
26.037	4.039	10665	17127	0	836
23.044	2.741	10693	17249	0	836
22.935	1.082	10732	17328	0	836
23.080	0.974	10784	17452	0	836
22.178	1.190	10863	17636	0	836
22.142	0.288	10962	17841	0	836
24.702	0.216	11068	18055	0	836
25.532	-1.154	11187	18272	0	836
27.732	-0.180	11325	18478	0	836
28.309	-0.216	11495	18716	0	836
26.830	0.108	11713	19042	0	836
21.457	-0.757	11958	19444	0	836
19.582	-1.983	12226	19845	0	836
18.356	-2.416	12471	20167	0	836
16.589	-2.596	12760	20404	0	836
18.500	-2.272	13025	20602	0	836
16.913	-1.082	13313	20795	0	836
17.526	-2.344	13630	20983	0	836
15.615	-1.190	13926	21148	0	836
19.041	-1.334	14242	21275	0	836
20.339	-0.180	14566	21372	0	836
23.873	0.902	14902	21448	0	836
24.017	3.029	15230	21486	0	836
24.558	2.272	15554	21467	0	836
26.361	4.796	15883	21404	0	836
23.909	4.291	16207	21321	0	836
23.801	4.472	16522	21215	0	836
23.621	3.895	16838	21072	1	840
20.627	3.823	17123	20892	0	840
22.611	4.111	17419	20691	0	840
25.676	5.085	17727	20476	0	840
29.174	5.878	17992	20251	0	840
31.049	7.285	18269	19981	0	840
31.662	6.708	18518	19668	0	840
30.364	4.688	18763	19357	0	840
28.886	5.193	19000	19078	0	840
28.741	4.580	19249	18805	0	840
29.751	3.210	19447	18482	0	840
29.859	1.767	19633	18110	0	840
29.246	2.777	19822	17754	0	840
29.210	1.659	20000	17459	0	840
28.561	0.902	20178	17211	0	840
28.525	2.849	20344	16972	0	840
30.977	3.318	20514	16721	0	840
31.013	3.787	20652	16450	0	840
31.302	3.498	20751	16136	0	840
29.354	4.327	20838	15798	0	840
26.253	2.524	20929	15515	0	840
24.666	-0.072	21016	15282	0	840
20.844	-0.757	21075	15060	0	840
19.077	-1.839	21154	14868	0	840
20.772	-3.390	21233	14734	0	840
19.906	-2.633	21293	14637	0	840
22.611	-2.560	21344	14525	0	840
23.368	-2.092	21391	14383	0	840
21.529	-2.092	21391	14231	0	840
20.050	-3.390	21411	14081	0	840
16.372	-5.337	21391	13929	0	840
15.398	-5.445	21372	13791	0	840
15.038	-7.068	21332	13673	0	840
14.677	-6.996	21304	13569	0	840
17.887	-4.868	21245	13453	0	840
18.067	-4.003	21174	13333	0	840
19.834	-2.560	21107	13244	0	840
17.851	-2.056	21048	13206	0	840
18.572	-1.082	20976	13227	0	840
19.798	-1.515	20917	13282	0	840
20.159	0.685	20858	13337	0	840
23.404	1.983	20799	13409	0	840
21.313	3.462	20739	13525	0	840
20.014	2.596	20700	13660	0	840
16.516	1.587	20633	13779	0	840
18.320	0.216	20573	13882	0	840
18.716	-0.144	20502	13988	0	840
20.411	0.793	20455	14117	0	840
23.188	1.983	20415	14286	0	840
22.972	2.380	20364	14481	0	840
23.945	1.623	20344	14681	0	840
25.099	1.334	20297	14868	0	840
26.361	0.829	20277	15041	0	840
26.578	1.911	20237	15200	0	840
26.686	2.344	20217	15362	0	840
25.604	2.633	20178	15504	0	840
22.575	1.370	20138	15616	0	840
22.358	0.144	20099	15692	0	840
22.431	0.000	20028	15715	0	840
22.467	-1.118	19949	15688	0	840
24.522	-0.974	19882	15665	0	840
23.585	-1.154	19810	15675	0	840
22.142	-2.272	19743	15705	0	840
22.719	-2.128	19684	15736	0	840
20.736	-3.282	19605	15749	0	840
18.500	-4.364	19553	15762	0	840
17.093	-4.544	19486	15800	0	840
14.569	-5.806	19427	15865	0	840
15.362	-4.688	19387	15929	0	840
18.103	-2.849	19336	15980	0	840
19.618	-1.731	19277	16039	0	840
20.736	0.974	19257	16117	0	840
20.627	2.164	19217	16200	0	840
17.851	1.298	19190	16274	0	840
17.021	0.505	19138	16320	0	840
14.100	0.144	19111	16348	0	840
13.595	-1.370	19059	16379	0	840
14.569	-1.082	19032	16401	0	840
14.930	0.000	18992	16412	0	840
16.336	0.721	18933	16401	0	840
15.146	0.938	18862	16339	0	840
16.048	1.479	18775	16200	0	840
14.821	2.344	18664	16020	0	840
17.166	2.849	18546	15834	0	840
18.067	3.173	18427	15675	0	840
21.277	3.931	18320	15565	0	840
22.575	4.688	18210	15493	0	840
25.279	4.075	18111	15421	0	840
28.345	6.455	17984	15341	0	840
29.318	7.862	17893	15297	0	840
30.148	8.222	17795	15329	0	840
27.660	7.321	17735	15405	0	840
25.207	3.210	17648	15474	0	840
19.978	0.902	17569	15515	0	840
18.680	-1.262	17490	15555	0	840
19.293	-1.695	17419	15624	0	840
20.159	-0.180	17360	15715	0	840
21.781	-0.757	17300	15792	0	840
19.329	-0.793	17221	15829	0	840
18.247	-2.380	17123	15815	0	840
14.966	-3.354	17024	15749	0	840
14.641	-3.246	16905	15663	0	840
14.028	-3.534	16806	15610	0	840
14.317	-2.669	16680	15580	0	840
14.749	-4.400	16581	15550	0	840
13.487	-2.019	16482	15538	0	840
16.156	-1.911	16384	15550	0	840
17.959	0.288	16298	15576	0	840
20.952	3.210	16199	15603	0	840
21.709	3.714	16100	15618	0	840
22.719	3.678	15989	15607	0	840
22.178	3.318	15863	15546	0	840
20.375	4.255	15732	15453	0	840
20.772	4.472	15614	15388	0	840
20.123	5.842	15487	15371	0	840
19.834	4.760	15369	15388	0	840
20.231	4.796	15258	15411	0	840
20.375	4.472	15151	15419	0	840
22.106	2.488	15041	15443	0	840
21.060	3.787	14934	15498	0	840
19.906	2.200	14835	15553	0	840
17.706	2.200	14724	15578	0	840
16.516	0.433	14598	15565	0	840
13.127	-0.469	14487	15529	0	840
13.018	-2.164	14369	15514	0	840
10.494	-3.606	14270	15559	0	840
9.520	-3.426	14171	15646	0	840
9.340	-4.327	14072	15724	0	840
11.900	-3.462	13985	15787	0	840
13.920	-2.885	13906	15859	0	840
19.978	-0.649	13815	15916	0	840
21.565	0.974	13697	15906	0	840
21.385	1.479	13570	15847	0	840
18.464	0.433	13460	15800	0	840
14.641	-1.947	13353	15781	0	840
11.576	-4.183	13222	15745	0	840
11.251	-5.481	13084	15690	0	840
11.468	-4.940	12977	15667	0	840
12.730	-4.075	12886	15694	0	840
15.471	-2.524	12780	15745	0	840
16.444	-1.082	12661	15772	0	840
19.510	-1.154	12562	15772	0	840
18.933	-1.190	12464	15802	0	840
18.788	-1.154	12392	15889	0	840
15.254	-3.101	12325	16016	0	840
16.264	-3.029	12266	16144	0	840
15.759	-4.652	12187	16216	0	840
17.923	-4.760	12076	16199	0	840
18.356	-4.616	11977	16134	0	840
19.870	-2.560	11898	16128	0	840
19.510	-0.757	11819	16191	0	840
20.375	1.695	11760	16261	0	840
21.601	3.426	11701	16337	0	840
21.998	3.750	11661	16439	0	840
25.099	4.508	11622	16566	0	840
25.712	6.167	11602	16691	0	840
27.479	7.501	11582	16795	0	840
30.076	11.323	11554	16892	0	840
30.761	13.379	11535	16977	0	840
31.843	13.631	11515	17019	0	840
33.357	13.235	11475	17021	0	840
31.662	12.117	11444	17029	0	840
29.715	9.412	11424	17057	0	840
26.037	8.222	11396	17084	0	840
22.431	6.203	11377	17065	0	840
19.077	3.137	11317	16995	0	840
15.759	0.685	11286	16919	0	840
14.172	-1.154	11246	16879	0	840
15.398	-1.515	11226	16871	0	840
14.425	-0.288	11187	16856	0	840
16.661	1.010	11147	16807	0	840
14.533	0.252	11108	16733	0	840
12.982	-1.587	11060	16649	0	840
13.343	-4.977	11009	16568	0	840
12.369	-6.708	10969	16503	0	840
15.146	-8.330	10922	16452	0	840
13.956	-6.167	10883	16410	0	840
14.930	-5.049	10851	16399	0	840
16.625	-3.570	10843	16433	0	840
17.851	-1.370	10823	16492	0	840
20.700	-1.442	10811	16541	0	840
20.916	-1.046	10792	16560	0	840
18.933	-2.849	10764	16535	0	840
16.841	-3.101	10744	16499	0	840
14.281	-4.868	10724	16509	0	840
12.766	-3.787	10724	16569	0	840
15.435	-1.587	10744	16659	0	840
16.408	0.613	10764	16769	0	840
19.510	2.056	10792	16871	0	840
18.031	1.587	10843	16985	0	840
16.913	-0.361	10930	17192	0	840
13.920	-1.046	11041	17482	0	840
14.569	-1.767	11167	17763	0	840
13.704	-1.334	11286	17991	0	840
14.389	-0.721	11416	18203	0	840
14.028	-2.921	11582	18446	0	840
11.540	-3.354	11772	18733	0	840
12.730	-3.895	11989	19046	0	840
13.451	-2.669	12215	19361	0	840
15.543	-2.236	12464	19659	0	840
17.995	-1.983	12720	19947	0	840
17.562	-3.282	12997	20230	0	840
16.949	-2.560	13301	20503	0	840
12.369	-3.678	13610	20763	0	840
11.756	-3.101	13934	20987	0	840
10.891	-3.210	14250	21156	0	840
12.189	-2.777	14586	21285	0	840
14.894	-3.714	14914	21389	0	840
16.012	-1.983	15258	21467	0	840
18.969	-2.236	15594	21499	0	840
19.113	-2.524	15922	21476	0	840
21.024	-2.380	16238	21401	0	840
20.087	-2.164	16542	21253	0	840
21.601	-2.236	16838	21040	0	840
20.195	-1.442	17115	20816	1	856
22.106	1.479	17411	20604	0	856
24.125	2.813	17696	20395	0	856
24.702	5.770	17984	20182	0	856
25.243	5.950	18261	19966	0	856
26.866	4.868	18526	19748	0	856
27.443	3.714	18814	19526	0	856
26.289	2.488	19059	19275	0	856
24.053	1.334	19289	18977	0	856
22.972	0.252	19494	18640	0	856
18.536	0.072	19704	18287	0	856
19.185	-0.216	19870	17917	0	856
19.329	0.865	20008	17476	0	856
21.818	2.092	20099	16972	0	856
21.745	3.282	20166	16456	0	856
19.149	2.452	20217	15927	0	856
18.320	2.633	20217	15392	0	856
14.136	2.236	20257	14946	0	856
13.631	2.019	20285	14631	0	856
13.595	3.318	20344	14413	0	856
15.939	5.409	20364	14227	0	856
17.851	5.481	20356	13973	0	856
18.211	8.943	20316	13654	0	856
20.880	9.845	20297	13392	0	856
20.627	9.376	20257	13223	0	856
20.664	9.881	20237	13107	0	856
24.739	10.169	20186	13016	0	856
25.604	10.602	20127	12914	0	856
27.732	12.405	20059	12798	0	856
29.210	14.172	19980	12709	0	856
27.732	12.982	19901	12665	0	856
24.702	10.783	19830	12667	0	856
21.926	7.681	19751	12711	0	856
19.113	5.301	19672	12773	0	856
14.136	1.551	19605	12868	0	856
12.189	0.288	19534	13009	0	856
8.835	-1.046	19486	13191	0	856
8.186	-2.164	19447	13400	0	856
7.465	-2.200	19395	13601	0	856
8.907	-1.406	19316	13749	0	856
10.422	-1.442	19269	13866	0	856
9.484	-1.010	19198	14028	0	856
10.422	-0.902	19170	14250	0	856
11.973	-0.252	19131	14495	0	856
14.136	1.551	19119	14734	0	856
19.906	4.940	19079	14952	0	856
23.368	7.645	19059	15157	0	856
27.191	10.278	19040	15356	0	856
28.777	12.333	19020	15544	0	856
29.030	12.369	19012	15718	0	856
27.984	11.973	18980	15868	0	856
28.741	12.982	18933	15956	0	856
29.391	12.225	18901	16007	0	856
30.761	12.405	18901	16115	0	856
31.410	14.966	18882	16273	0	856
32.492	13.848	18862	16395	0	856
31.951	16.048	18854	16461	0	856
31.158	16.769	18822	16492	0	856
30.653	17.129	18802	16511	0	856
28.345	17.706	18775	16545	0	856
27.660	15.579	18755	16581	0	856
26.217	14.208	18723	16581	0	856
24.775	10.710	18676	16541	0	856
22.972	9.701	18636	16492	0	856
21.060	8.222	18617	16463	0	856
17.274	5.986	18577	16473	0	856
17.598	5.085	18546	16497	0	856
16.336	4.652	18518	16499	0	856
17.093	3.246	18478	16475	0	856
16.012	4.580	18439	16448	0	856
16.480	4.580	18407	16416	0	856
14.317	4.616	18340	16343	0	856
13.054	3.678	18289	16214	0	856
12.586	3.678	18202	16092	0	856
11.432	4.291	18131	16001	0	856
12.730	6.131	18032	15887	0	856
14.533	5.734	17953	15745	0	856
14.569	8.547	17846	15635	0	856
16.300	7.789	17767	15572	0	856
16.300	5.770	17688	15519	0	856
16.985	6.383	17589	15445	0	856
16.048	4.868	17490	15367	0	856
16.589	5.301	17399	15329	0	856
15.290	6.311	17320	15347	0	856
14.858	7.032	17253	15403	0	856
15.759	5.445	17194	15464	0	856
14.100	4.075	17115	15504	0	856
14.533	1.154	17055	15551	0	856
11.792	-0.902	17004	15627	0	856
10.458	-1.767	16937	15722	0	856
10.386	-3.246	16885	15802	0	856
9.304	-2.669	16838	15849	0	856
8.475	-1.731	16767	15878	0	856
9.232	1.731	16719	15916	0	856
10.674	4.075	16660	15973	0	856
11.035	4.688	16609	16035	0	856
11.179	5.085	16542	16068	0	856
13.992	4.616	16463	16024	0	856
13.668	6.131	16357	15904	0	856
17.454	9.376	16258	15787	0	856
19.798	11.323	16159	15713	0	856
23.152	12.117	16049	15658	0	856
24.378	14.677	15930	15593	0	856
26.794	13.956	15803	15472	0	856
29.895	17.057	15653	15295	0	856
30.292	16.733	15507	15144	0	856
30.184	16.589	15369	15058	0	856
26.974	13.848	15250	15028	0	856
25.027	13.884	15132	15043	0	856
23.332	13.776	15021	15075	0	856
21.709	10.891	14902	15107	0	856
19.041	10.133	14796	15157	0	856
18.283	8.186	14705	15246	0	856
14.208	4.616	14618	15356	0	856
10.783	2.164	14527	15453	0	856
11.720	0.865	14448	15523	0	856
10.999	-0.505	14361	15597	0	856
11.287	0.216	14282	15705	0	856
12.946	2.200	14222	15851	0	856
13.740	5.734	14171	16005	0	856
18.283	6.311	14112	16128	0	856
21.493	8.655	14052	16212	0	856
24.378	8.294	13985	16252	0	856
21.493	6.780	13914	16265	0	856
14.713	4.183	13835	16286	0	856
8.691	2.200	13768	16314	0	856
7.248	1.875	13709	16345	0	856
11.287	4.219	13630	16366	0	856
15.326	7.429	13551	16337	0	856
20.519	9.773	13460	16288	0	856
20.700	10.494	13412	16309	0	856
21.926	11.828	13361	16399	0	856
19.834	12.261	13301	16469	0	856
19.041	10.350	13254	16476	0	856
16.625	11.107	13183	16446	0	856
17.093	9.520	13124	16418	0	856
15.723	8.835	13056	16421	0	856
19.365	9.016	13005	16444	0	856
20.339	10.494	12938	16444	0	856
21.745	12.297	12879	16404	0	856
24.017	11.251	12807	16358	0	856
22.034	12.081	12748	16333	0	856
21.529	10.891	12689	16341	0	856
20.952	9.196	12630	16366	0	856
19.221	7.104	12590	16371	0	856
20.555	7.357	12531	16360	0	856
19.906	8.727	12464	16348	0	856
21.926	9.412	12424	16354	0	856
21.349	13.379	12392	16383	0	856
23.801	15.975	12333	16402	0	856
25.207	15.146	12274	16373	0	856
26.506	16.372	12195	16276	0	856
25.568	13.956	12096	16159	0	856
24.702	15.038	12017	16052	0	856
25.279	15.687	11930	15967	0	856
23.837	14.930	11831	15887	0	856
22.539	16.552	11713	15768	0	856
23.693	15.110	11582	15589	0	856
21.493	16.841	11456	15428	0	856
21.565	16.805	11377	15381	0	856
23.224	18.608	11286	15443	0	856
22.214	16.769	11238	15540	0	856
21.096	15.543	11159	15624	0	856
18.860	13.812	11100	15694	0	856
16.697	13.595	11068	15802	0	856
16.228	14.785	11049	15982	0	856
16.697	13.054	11049	16227	0	856
15.074	13.307	11088	16511	0	856
16.841	10.530	11139	16803	0	856
14.064	9.304	11179	17074	0	856
14.677	10.242	11226	17275	0	856
14.641	11.107	11266	17435	0	856
16.156	11.432	11365	17659	0	856
19.149	11.900	11456	17945	0	856
21.926	13.595	11602	18239	0	856
23.765	13.163	11752	18549	0	856
25.893	15.903	11930	18890	0	856
25.604	15.326	12135	19275	0	856
23.116	15.398	12404	19721	0	856
22.358	14.821	12681	20171	0	856
22.070	12.730	12938	20513	0	856
21.565	13.199	13195	20723	0	856
23.729	12.694	13460	20869	0	856
22.178	12.297	13728	21012	0	856
22.719	13.631	14025	21173	0	856
23.729	13.920	14341	21338	0	856
24.162	15.939	14665	21482	0	856
23.549	14.749	14973	21581	0	856
23.512	14.389	15290	21623	0	856
18.031	12.333	15614	21624	0	856
15.002	7.681	15930	21600	0	856
10.927	5.193	16246	21539	0	856
10.169	3.498	16561	21427	0	856
9.052	4.111	16858	21279	0	856
8.547	5.265	17174	21112	1	776
10.314	7.862	17470	20938	0	776
13.559	9.052	17755	20742	0	776
13.307	10.169	18032	20499	0	776
16.012	10.314	18300	20220	0	776
16.264	9.592	18546	19921	0	776
14.281	9.556	18795	19592	0	776
15.146	8.006	19000	19239	0	776
13.559	9.917	19217	18898	0	776
13.920	9.989	19435	18581	0	776
14.064	10.710	19613	18241	0	776
13.776	10.746	19763	17837	0	776
15.651	12.117	19889	17389	0	776
16.769	11.973	19988	16924	0	776
21.313	15.975	20040	16401	0	776
22.467	18.067	20067	15832	0	776
24.342	20.159	20087	15320	0	776
26.506	19.690	20099	14908	0	776
24.125	20.303	20127	14578	0	776
22.683	16.697	20166	14328	0	776
21.493	16.264	20178	14144	0	776
19.510	12.838	20206	13984	0	776
20.159	14.136	20217	13830	0	776
20.591	15.471	20225	13711	0	776
22.178	15.507	20245	13648	0	776
22.899	17.634	20245	13633	0	776
19.798	15.759	20265	13627	0	776
19.365	15.182	20245	13605	0	776
17.598	12.514	20237	13574	0	776
18.752	14.821	20206	13561	0	776
18.933	15.651	20186	13570	0	776
19.257	16.985	20178	13595	0	776
20.231	16.552	20138	13641	0	776
16.949	13.776	20119	13707	0	776
16.228	12.081	20079	13764	0	776
15.651	8.006	20020	13779	0	776
11.287	6.275	19941	13762	0	776
9.809	5.265	19870	13741	0	776
6.888	4.436	19783	13734	0	776
6.816	5.049	19692	13737	0	776
7.825	7.573	19585	13713	0	776
10.855	9.196	19467	13662	0	776
13.091	10.422	19348	13627	0	776
15.867	11.251	19229	13635	0	776
17.274	10.350	19131	13688	0	776
17.346	9.809	19020	13773	0	776
18.356	10.458	18913	13880	0	776
18.247	12.658	18822	14018	0	776
21.385	13.127	18755	14197	0	776
20.519	16.625	18696	14413	0	776
23.332	15.435	18636	14620	0	776
24.919	14.894	18557	14783	0	776
23.765	14.677	18486	14927	0	776
23.801	14.028	18427	15094	0	776
24.702	15.218	18399	15299	0	776
21.601	13.740	18360	15521	0	776
21.890	15.831	18320	15722	0	776
25.027	14.821	18281	15872	0	776
24.775	16.336	18202	15927	0	776
23.693	16.156	18103	15893	0	776
23.080	12.189	18024	15861	0	776
18.824	10.458	17953	15904	0	776
16.192	6.275	17925	16032	0	776
14.317	3.462	17885	16166	0	776
15.182	3.462	17814	16231	0	776
14.461	2.452	17747	16227	0	776
14.821	2.488	17676	16223	0	776
14.461	1.226	17617	16233	0	776
13.271	-0.685	17538	16214	0	776
13.415	0.144	17439	16140	0	776
13.163	0.361	17352	16062	0	776
16.012	-0.216	17273	16035	0	776
15.326	2.741	17202	16056	0	776
14.389	2.164	17142	16104	0	776
12.910	1.947	17095	16166	0	776
9.556	1.442	17044	16233	0	776
9.592	1.659	16996	16305	0	776
8.979	1.947	16976	16384	0	776
8.943	2.633	16945	16490	0	776
9.412	3.498	16945	16617	0	776
10.422	3.137	16937	16736	0	776
11.973	3.534	16937	16828	0	776
13.199	4.580	16905	16884	0	776
17.057	6.167	16897	16915	0	776
18.175	8.511	16866	16930	0	776
19.401	9.520	16858	16926	0	776
18.716	8.763	16826	16902	0	776
19.798	9.016	16779	16846	0	776
19.221	11.432	16719	16723	0	776
22.322	12.261	16648	16564	0	776
22.755	10.638	16601	16476	0	776
21.745	9.268	16569	16476	0	776
21.493	6.419	16522	16465	0	776
17.202	3.282	16463	16385	0	776
17.274	1.406	16391	16276	0	776
15.435	1.695	16337	16183	0	776
16.372	0.974	16278	16125	0	776
15.651	0.685	16199	16054	0	776
16.913	1.262	16120	15931	0	776
15.507	2.524	16021	15792	0	776
15.723	2.993	15942	15711	0	776
13.740	3.065	15883	15707	0	776
11.540	2.849	15831	15766	0	776
12.946	3.823	15792	15836	0	776
14.389	2.885	15732	15872	0	776
17.274	3.137	15685	15872	0	776
20.231	5.806	15626	15851	0	776
25.171	5.662	15527	15808	0	776
25.027	7.645	15456	15745	0	776
24.594	7.789	15369	15679	0	776
24.811	8.366	15258	15588	0	776
21.096	8.330	15112	15413	0	776
19.906	6.924	14973	15191	0	776
16.697	5.986	14823	15037	0	776
16.552	5.013	14705	14977	0	776
14.785	4.652	14598	14959	0	776
15.795	3.354	14479	14956	0	776
14.172	1.695	14341	14937	0	776
16.516	0.721	14222	14903	0	776
14.605	-0.216	14104	14906	0	776
17.779	-0.577	13993	14969	0	776
17.166	0.108	13906	15077	0	776
19.005	-0.505	13815	15197	0	776
16.552	-1.947	13736	15299	0	776
16.192	-3.534	13657	15405	0	776
13.920	-3.570	13590	15533	0	776
13.199	-3.462	13519	15671	0	776
11.900	-2.452	13460	15781	0	776
10.422	-2.488	13361	15840	0	776
9.304	-2.200	13274	15863	0	776
10.350	-1.190	13203	15903	0	776
11.071	-0.505	13143	16001	0	776
13.307	2.705	13096	16138	0	776
17.670	5.157	13045	16257	0	776
19.978	7.825	12997	16354	0	776
24.811	11.071	12958	16444	0	776
29.102	13.091	12918	16535	0	776
31.590	13.812	12879	16624	0	776
31.626	15.435	12867	16717	0	776
31.013	12.946	12839	16810	0	776
27.047	12.802	12800	16862	0	776
25.424	11.540	12740	16828	0	776
22.250	8.727	12669	16736	0	776
22.467	7.717	12610	16649	0	776
21.709	4.760	12551	16596	0	776
19.582	3.426	12483	16564	0	776
21.132	2.524	12432	16537	0	776
17.706	0.577	12365	16507	0	776
18.608	-0.685	12333	16494	0	776
16.084	-2.308	12294	16511	0	776
15.435	-3.498	12246	16528	0	776
14.281	-4.291	12207	16520	0	776
12.766	-5.337	12147	16475	0	776
12.550	-3.823	12088	16416	0	776
12.622	-4.219	12029	16384	0	776
14.677	-3.282	11997	16389	0	776
13.668	-2.849	11950	16397	0	776
15.290	-3.498	11898	16379	0	776
14.028	-4.868	11839	16335	0	776
15.759	-2.524	11792	16293	0	776
16.552	-2.524	11752	16265	0	776
16.408	-1.190	11693	16252	0	776
16.985	-0.144	11634	16235	0	776
15.074	-0.180	11594	16218	0	776
14.533	0.072	11554	16223	0	776
12.946	0.144	11523	16271	0	776
14.425	-0.974	11503	16350	0	776
15.435	-0.108	11515	16448	0	776
14.317	0.577	11515	16583	0	776
18.608	1.911	11535	16744	0	776
18.428	4.472	11574	16894	0	776
21.241	6.491	11622	17042	0	776
24.270	9.484	11701	17268	0	776
27.155	12.009	11811	17575	0	776
29.102	14.894	11950	17909	0	776
29.138	13.235	12108	18239	0	776
27.768	13.235	12266	18560	0	776
25.748	11.360	12464	18883	0	776
25.676	9.340	12681	19234	0	776
27.047	8.799	12938	19615	0	776
28.020	8.258	13195	19989	0	776
27.191	5.626	13460	20285	0	776
22.791	3.101	13689	20458	0	776
18.500	0.144	13954	20568	0	776
12.550	-3.029	14242	20731	0	776
10.530	-5.049	14547	20949	0	776
10.783	-4.832	14855	21146	0	776
10.278	-4.364	15191	21311	0	776
12.045	-5.409	15535	21465	0	776
15.254	-3.787	15883	21596	0	776
16.913	-3.173	16258	21685	0	776
18.716	-1.406	16609	21772	0	776
17.706	0.252	17016	21892	0	776
16.444	0.108	17380	21949	0	776
14.064	-0.144	17727	21864	0	776
15.903	0.865	18063	21672	0	776
17.526	2.921	18387	21456	0	776
23.044	4.255	18723	21245	0	776
25.856	5.842	19032	21012	1	792
27.984	7.825	19316	20712	0	792
28.128	8.547	19593	20359	0	792
27.587	9.160	19850	20006	0	792
24.450	9.773	20138	19687	0	792
24.847	9.340	20403	19393	0	792
24.125	8.799	20652	19103	0	792
23.765	8.114	20889	18795	0	792
24.306	8.619	21127	18484	0	792
25.532	8.114	21344	18180	0	792
25.135	7.645	21561	17898	0	792
22.395	6.094	21787	17628	0	792
19.870	5.517	21965	17344	0	792
17.815	2.705	22134	17038	0	792
15.435	1.046	22293	16725	0	792
14.930	0.036	22439	16423	0	792
14.785	-1.695	22569	16144	0	792
11.287	-1.911	22696	15876	0	792
10.314	-4.652	22787	15591	0	792
9.701	-5.517	22854	15261	0	792
9.376	-5.554	22913	14904	0	792
10.891	-5.986	22933	14563	0	792
12.117	-4.003	22933	14240	0	792
12.874	-1.767	22925	13931	0	792
15.939	0.721	22913	13648	0	792
19.401	3.137	22866	13377	0	792
19.221	4.400	22806	13092	0	792
19.834	4.688	22708	12802	0	792
20.952	4.796	22617	12525	0	792
19.401	4.544	22498	12297	0	792
19.654	4.472	22391	12130	0	792
16.949	3.714	22273	12009	0	792
17.779	2.813	22154	11933	0	792
16.480	2.344	22036	11920	0	792
20.700	2.885	21937	11973	0	792
22.683	4.147	21838	12071	0	792
22.863	3.859	21708	12149	0	792
22.539	2.128	21550	12159	0	792
18.392	0.397	21411	12142	0	792
17.562	-0.505	21265	12206	0	792
16.589	-1.370	21146	12375	0	792
16.156	-0.613	21028	12572	0	792
15.831	-1.875	20917	12775	0	792
18.067	-2.452	20810	12999	0	792
17.274	-3.642	20712	13242	0	792
16.805	-5.157	20613	13487	0	792
14.533	-6.167	20522	13741	0	792
9.917	-9.052	20435	14011	0	792
10.458	-11.360	20376	14278	0	792
8.619	-11.360	20277	14502	0	792
10.278	-9.773	20186	14679	0	792
13.595	-8.835	20099	14863	0	792
14.317	-5.914	20040	15087	0	792
15.903	-3.642	19988	15339	0	792
18.428	-1.803	19941	15593	0	792
17.346	-1.406	19901	15819	0	792
19.473	0.361	19862	16020	0	792
19.221	1.010	19822	16212	0	792
20.627	2.596	19791	16397	0	792
23.801	5.049	19763	16568	0	792
24.702	6.996	19731	16700	0	792
25.496	6.347	19723	16809	0	792
25.965	5.986	19684	16915	0	792
24.414	4.400	19672	17034	0	792
23.044	4.616	19664	17146	0	792
23.116	4.760	19644	17213	0	792
21.168	4.652	19613	17239	0	792
18.247	1.659	19585	17234	0	792
16.733	-0.144	19534	17167	0	792
14.713	-3.029	19455	17012	0	792
11.756	-4.832	19368	16810	0	792
12.333	-5.734	19269	16640	0	792
10.494	-5.409	19198	16514	0	792
9.016	-5.770	19119	16420	0	792
11.251	-6.058	19059	16371	0	792
13.199	-5.770	19040	16393	0	792
14.605	-3.642	19000	16480	0	792
16.300	-2.921	18992	16562	0	792
15.362	-1.442	18961	16577	0	792
16.048	-0.865	18893	16524	0	792
15.651	-0.902	18834	16446	0	792
20.050	-0.397	18783	16384	0	792
22.286	-0.433	18723	16331	0	792
25.099	1.226	18644	16244	0	792
24.666	2.272	18557	16113	0	792
23.765	4.003	18467	15975	0	792
23.008	6.167	18368	15866	0	792
20.591	6.960	18300	15806	0	792
21.168	7.537	18210	15772	0	792
23.873	7.934	18131	15720	0	792
23.332	8.366	18032	15650	0	792
24.450	9.052	17945	15582	0	792
25.929	9.845	17834	15512	0	792
23.152	9.448	17727	15432	0	792
20.159	7.862	17617	15352	0	792
18.247	6.131	17518	15301	0	792
13.451	4.400	17399	15259	0	792
11.792	2.633	17261	15180	0	792
12.117	0.865	17134	15064	0	792
12.225	1.046	16996	14978	0	792
15.002	0.361	16878	14952	0	792
15.939	0.288	16739	14944	0	792
16.012	-2.128	16601	14904	0	792
15.362	-3.065	16451	14840	0	792
11.468	-4.400	16317	14804	0	792
9.989	-4.760	16187	14829	0	792
8.655	-4.796	16080	14899	0	792
8.547	-3.534	15950	14973	0	792
9.556	-4.508	15851	15033	0	792
8.799	-6.347	15724	15088	0	792
7.140	-9.448	15606	15134	0	792
3.678	-11.143	15487	15176	0	792
3.823	-11.143	15377	15252	0	792
5.193	-8.114	15270	15347	0	792
6.996	-4.147	15159	15422	0	792
10.025	-2.164	15060	15502	0	792
13.740	-1.911	14973	15616	0	792
14.497	-1.406	14902	15756	0	792
16.805	-0.721	14823	15885	0	792
18.283	1.875	14736	15980	0	792
20.555	4.400	14657	16047	0	792
20.483	5.554	14558	16092	0	792
21.890	5.770	14479	16128	0	792
23.945	7.862	14400	16168	0	792
25.748	9.592	14309	16210	0	792
28.237	12.009	14230	16242	0	792
30.977	13.848	14132	16233	0	792
30.328	13.235	14033	16202	0	792
28.453	10.025	13954	16221	0	792
23.080	6.563	13894	16309	0	792
19.473	3.823	13835	16397	0	792
14.353	2.236	13776	16446	0	792
12.838	1.190	13697	16458	0	792
9.556	2.344	13637	16454	0	792
9.701	1.118	13551	16446	0	792
9.989	1.298	13491	16437	0	792
9.773	0.216	13400	16425	0	792
10.638	-0.865	13321	16401	0	792
12.802	-1.118	13254	16369	0	792
12.153	-1.370	13175	16352	0	792
12.586	-2.200	13116	16375	0	792
13.127	-2.885	13064	16416	0	792
11.828	-3.318	13005	16440	0	792
11.432	-3.895	12946	16452	0	792
15.182	-0.757	12898	16467	0	792
16.336	0.649	12827	16475	0	792
21.637	4.400	12748	16423	0	792
21.962	5.445	12661	16316	0	792
23.188	6.708	12582	16214	0	792
23.873	6.960	12471	16142	0	792
24.847	8.042	12373	16039	0	792
26.397	7.862	12266	15910	0	792
29.715	9.052	12167	15817	0	792
30.508	10.169	12049	15741	0	792
30.184	9.340	11898	15572	0	792
31.662	10.602	11713	15301	0	792
31.879	12.081	11554	15064	0	792
31.699	13.054	11396	14954	0	792
33.574	15.975	11286	14946	0	792
33.754	17.382	11167	15003	0	792
33.429	16.336	11068	15098	0	792
31.338	16.336	10989	15214	0	792
30.617	13.127	10922	15367	0	792
28.128	12.153	10871	15563	0	792
25.676	10.494	10851	15798	0	792
21.601	8.150	10831	16064	0	792
19.437	8.366	10831	16339	0	792
16.300	8.006	10851	16613	0	792
17.670	7.825	10902	16917	0	792
19.834	9.088	10981	17262	0	792
23.801	12.117	11060	17604	0	792
23.404	13.127	11088	17829	0	792
22.719	11.143	11128	17911	0	792
21.024	7.789	11167	17958	0	792
16.480	3.246	11226	18078	0	792
16.697	-0.577	11337	18298	0	792
14.966	-0.469	11475	18602	0	792
16.697	1.334	11661	18968	0	792
16.913	1.334	11871	19357	0	792
19.654	2.056	12096	19717	0	792
18.608	1.010	12345	20057	0	792
19.654	0.541	12630	20448	0	792
17.418	0.361	12958	20902	0	792
17.634	-0.361	13313	21346	0	792
16.264	-0.288	13669	21733	0	792
17.057	0.216	14052	22055	0	792
15.110	0.216	14428	22336	0	792
14.605	-0.108	14843	22596	0	792
13.054	-0.144	15258	22833	0	792
10.422	0.072	15665	23010	0	792
10.494	0.072	16088	23095	0	792
10.350	-0.036	16490	23112	0	792
9.304	0.938	16917	23103	0	792
10.458	1.911	17340	23074	0	792
11.143	3.173	17755	22998	0	792
11.251	6.455	18142	22845	0	792
15.651	7.537	18538	22619	1	784
18.500	9.196	18901	22330	0	784
19.365	8.475	19269	21993	0	784
19.546	6.419	19593	21623	0	784
18.969	5.950	19921	21232	0	784
15.723	4.291	20225	20828	0	784
17.057	5.554	20522	20408	0	784
18.356	6.744	20799	19936	0	784
22.286	8.835	21016	19402	0	784
23.332	8.979	21225	18852	0	784
25.604	8.547	21431	18313	0	784
24.991	8.511	21609	17809	0	784
21.421	5.842	21767	17340	0	784
19.870	3.895	21937	16886	0	784
16.444	1.875	22083	16465	0	784
15.543	0.252	22233	16100	0	784
12.081	-0.361	22360	15779	0	784
12.730	-1.190	22478	15477	0	784
12.081	-1.659	22597	15176	0	784
11.576	-2.056	22676	14870	0	784
12.189	-3.750	22755	14580	0	784
9.665	-2.524	22826	14341	0	784
7.248	-2.308	22885	14138	0	784
8.907	-1.190	22925	13935	0	784
12.369	1.587	22953	13730	0	784
16.084	5.590	22972	13553	0	784
21.709	7.537	22984	13411	0	784
21.204	8.871	22992	13288	0	784
20.231	7.645	22965	13151	0	784
15.687	5.662	22913	12978	0	784
14.389	4.400	22834	12773	0	784
12.550	4.796	22747	12567	0	784
13.379	4.796	22648	12379	0	784
13.704	4.544	22530	12254	0	784
14.208	3.534	22439	12208	0	784
14.966	1.767	22352	12208	0	784
12.586	1.515	22241	12223	0	784
12.117	0.757	22134	12255	0	784
11.864	-0.108	22024	12322	0	784
9.160	-0.505	21925	12430	0	784
7.429	-1.803	21846	12584	0	784
9.340	-2.560	21747	12751	0	784
10.386	-2.705	21660	12918	0	784
10.963	-1.226	21581	13115	0	784
13.379	-1.082	21510	13354	0	784
14.028	-1.046	21443	13618	0	784
12.153	-2.092	21391	13880	0	784
13.668	-2.200	21332	14119	0	784
14.028	-1.551	21273	14345	0	784
16.877	0.469	21233	14576	0	784
17.526	3.967	21186	14813	0	784
23.368	6.455	21134	15039	0	784
25.856	7.970	21087	15236	0	784
29.643	11.143	21048	15407	0	784
30.004	11.035	20988	15548	0	784
28.381	11.792	20909	15631	0	784
25.243	11.937	20838	15673	0	784
21.421	8.475	20771	15730	0	784
21.565	8.402	20719	15825	0	784
21.168	6.816	20660	15923	0	784
24.053	7.753	20593	15975	0	784
27.299	9.845	20502	15969	0	784
27.263	11.179	20395	15914	0	784
27.047	10.783	20297	15838	0	784
25.171	11.864	20198	15794	0	784
21.385	9.124	20107	15800	0	784
16.805	7.429	20028	15821	0	784
15.543	5.517	19949	15861	0	784
12.766	2.741	19901	15946	0	784
12.622	0.072	19862	16068	0	784
12.622	-0.902	19810	16187	0	784
11.792	-1.010	19743	16246	0	784
11.792	-2.308	19664	16202	0	784
11.360	-2.200	19565	16104	0	784
11.323	-2.272	19494	16068	0	784
10.710	-0.469	19427	16121	0	784
14.641	0.505	19376	16178	0	784
15.867	5.121	19308	16208	0	784
20.952	8.402	19237	16231	0	784
24.162	11.973	19190	16252	0	784
24.630	11.756	19138	16295	0	784
24.378	11.360	19138	16423	0	784
20.087	8.583	19138	16609	0	784
18.356	3.859	19111	16723	0	784
14.497	1.911	19059	16706	0	784
12.694	0.288	18992	16617	0	784
11.432	-0.397	18921	16526	0	784
12.658	2.633	18862	16450	0	784
13.523	4.075	18783	16375	0	784
13.668	6.960	18696	16271	0	784
15.110	7.970	18597	16132	0	784
14.966	6.924	18498	15996	0	784
12.982	5.265	18399	15895	0	784
14.100	5.013	18308	15829	0	784
11.576	4.111	18221	15770	0	784
11.684	5.229	18111	15698	0	784
13.451	6.888	18012	15620	0	784
13.307	7.140	17905	15557	0	784
16.048	6.022	17814	15523	0	784
14.281	4.868	17727	15508	0	784
14.353	3.642	17609	15481	0	784
12.586	3.426	17510	15447	0	784
10.530	4.255	17411	15434	0	784
12.766	6.383	17320	15447	0	784
16.048	9.701	17233	15468	0	784
18.283	10.169	17134	15470	0	784
20.123	12.874	17024	15459	0	784
21.709	13.523	16917	15430	0	784
17.382	11.576	16767	15350	0	784
16.192	12.189	16648	15259	0	784
14.353	10.602	16561	15273	0	784
12.261	7.212	16470	15384	0	784
10.638	4.472	16384	15487	0	784
8.150	2.921	16278	15514	0	784
7.285	0.757	16159	15485	0	784
5.121	0.829	16041	15443	0	784
6.671	0.469	15930	15428	0	784
7.140	0.505	15811	15440	0	784
8.006	0.649	15693	15441	0	784
9.773	1.515	15566	15411	0	784
12.081	4.364	15448	15383	0	784
13.631	6.744	15329	15392	0	784
15.002	6.744	15218	15443	0	784
16.048	7.104	15139	15512	0	784
13.199	6.131	15021	15555	0	784
13.307	5.806	14902	15580	0	784
14.208	6.455	14815	15620	0	784
16.012	8.619	14717	15686	0	784
18.500	9.160	14645	15775	0	784
16.336	7.789	14558	15878	0	784
15.615	7.465	14487	15986	0	784
11.179	4.400	14408	16073	0	784
8.727	1.623	14321	16109	0	784
6.960	0.938	14230	16100	0	784
7.573	-0.108	14132	16085	0	784
8.727	-0.721	14033	16077	0	784
9.340	1.947	13954	16079	0	784
10.638	2.416	13847	16083	0	784
8.258	2.596	13748	16081	0	784
8.258	0.361	13669	16071	0	784
6.924	-0.757	13570	16068	0	784
7.934	-2.236	13491	16090	0	784
9.845	-2.488	13400	16121	0	784
11.035	-0.433	13321	16134	0	784
11.720	1.659	13242	16144	0	784
13.884	3.137	13163	16164	0	784
10.494	4.688	13084	16193	0	784
9.016	3.750	13017	16219	0	784
6.527	1.731	12938	16231	0	784
3.498	-1.551	12859	16235	0	784
2.308	-2.164	12788	16252	0	784
1.479	-4.832	12740	16305	0	784
1.370	-4.400	12701	16387	0	784
-0.072	-2.488	12641	16458	0	784
0.036	0.000	12590	16499	0	784
1.983	3.534	12543	16516	0	784
4.724	7.789	12464	16507	0	784
6.311	8.366	12404	16469	0	784
7.537	8.366	12313	16406	0	784
6.527	6.960	12234	16318	0	784
4.580	5.914	12128	16195	0	784
4.183	6.888	12009	16037	0	784
7.465	7.573	11879	15872	0	784
8.727	9.809	11760	15753	0	784
12.369	11.323	11673	15701	0	784
13.487	11.756	11574	15699	0	784
14.858	12.694	11495	15696	0	784
16.048	11.396	11384	15675	0	784
13.163	10.746	11325	15707	0	784
11.504	9.737	11266	15834	0	784
7.609	6.275	11246	16018	0	784
5.698	3.101	11238	16219	0	784
5.373	2.560	11238	16420	0	784
6.744	2.633	11266	16643	0	784
8.943	3.931	11305	16926	0	784
9.953	4.075	11404	17281	0	784
9.412	4.291	11523	17695	0	784
7.862	3.065	11653	18105	0	784
8.222	2.741	11780	18433	0	784
7.176	3.678	11918	18691	0	784
5.950	4.039	12096	18993	0	784
6.888	0.469	12313	19363	0	784
3.823	-1.731	12531	19740	0	784
4.977	-1.298	12780	20103	0	784
6.960	-1.875	13045	20446	0	784
9.124	-0.144	13333	20767	0	784
9.917	1.370	13637	21072	0	784
8.475	1.118	13954	21353	0	784
8.799	0.974	14282	21606	0	784
7.645	2.128	14637	21826	0	784
8.511	1.298	14962	21981	0	784
7.501	2.488	15309	22080	0	784
7.862	2.019	15673	22180	0	784
9.304	2.128	16029	22266	0	784
10.963	3.462	16365	22228	0	784
13.091	4.364	16680	22044	0	784
15.975	5.373	16976	21826	0	784
15.290	6.708	17312	21651	0	784
16.192	7.032	17636	21513	1	792
13.920	6.131	17992	21391	0	792
13.379	5.914	18328	21270	0	792
11.864	4.544	18664	21116	0	792
10.097	2.741	19000	20924	0	792
12.297	0.829	19316	20717	0	792
12.622	-1.803	19644	20511	0	792
10.999	-3.498	19961	20289	0	792
12.730	-4.688	20265	20038	0	792
12.874	-3.462	20553	19755	0	792
12.622	-1.695	20818	19437	0	792
13.595	0.361	21067	19072	0	792
14.677	3.065	21293	18670	0	792
14.930	4.616	21482	18249	0	792
18.103	3.787	21660	17822	0	792
16.048	4.688	21826	17391	0	792
15.903	4.183	21965	16958	0	792
12.441	4.472	22095	16552	0	792
10.494	3.967	22241	16219	0	792
9.881	2.885	22380	15954	0	792
9.304	2.200	22490	15701	0	792
8.835	2.813	22597	15415	0	792
11.179	6.167	22656	15087	0	792
13.271	9.701	22716	14755	0	792
16.480	14.245	22755	14460	0	792
21.096	14.749	22787	14202	0	792
22.827	15.579	22795	13937	0	792
20.555	14.281	22767	13643	0	792
19.473	10.746	22727	13356	0	792
15.182	9.665	22708	13123	0	792
11.973	8.186	22656	12963	0	792
9.953	6.924	22617	12846	0	792
9.232	6.058	22550	12732	0	792
9.701	3.101	22490	12620	0	792
9.232	2.705	22399	12527	0	792
6.996	1.695	22312	12445	0	792
6.383	0.938	22202	12358	0	792
2.056	1.803	22055	12231	0	792
1.479	0.433	21878	12056	0	792
0.505	-1.262	21680	11857	0	792
2.777	-1.298	21482	11675	0	792
7.321	-0.144	21285	11589	0	792
11.612	1.803	21127	11629	0	792
13.451	4.904	20976	11772	0	792
17.454	6.491	20838	11996	0	792
17.057	7.357	20719	12259	0	792
19.077	6.347	20613	12525	0	792
19.401	5.698	20502	12800	0	792
21.998	7.248	20384	13068	0	792
22.683	11.504	20297	13324	0	792
23.765	15.326	20186	13608	0	792
27.227	20.339	20119	13918	0	792
26.506	22.611	20040	14233	0	792
27.083	23.008	19980	14557	0	792
26.650	24.378	19941	14903	0	792
26.109	25.063	19909	15254	0	792
27.371	25.063	19889	15584	0	792
26.830	25.604	19862	15880	0	792
24.125	21.781	19830	16144	0	792
21.637	17.562	19822	16384	0	792
15.579	13.379	19810	16607	0	792
13.343	12.189	19791	16791	0	792
11.648	11.071	19783	16943	0	792
13.127	13.018	19763	17076	0	792
16.228	12.946	19751	17194	0	792
16.228	9.629	19751	17298	0	792
17.202	7.717	19763	17427	0	792
11.432	5.121	19783	17560	0	792
8.691	3.426	19771	17609	0	792
6.708	2.308	19743	17554	0	792
7.501	0.577	19692	17433	0	792
8.943	0.397	19633	17289	0	792
10.494	-0.433	19565	17131	0	792
11.432	-0.361	19474	16928	0	792
10.278	0.288	19376	16672	0	792
9.665	0.288	19257	16414	0	792
10.530	0.757	19150	16223	0	792
11.828	2.669	19091	16111	0	792
12.117	6.203	19012	16060	0	792
15.254	6.888	18933	16035	0	792
17.057	8.475	18882	16009	0	792
17.706	8.006	18814	15984	0	792
19.365	6.780	18755	15973	0	792
22.899	9.016	18696	15973	0	792
22.647	9.881	18625	15967	0	792
22.250	12.261	18538	15899	0	792
22.503	11.756	18419	15741	0	792
19.762	12.081	18289	15555	0	792
22.395	12.405	18190	15426	0	792
24.270	13.018	18063	15356	0	792
27.371	14.785	17965	15310	0	792
31.049	19.293	17866	15276	0	792
30.869	19.942	17747	15257	0	792
31.230	20.808	17648	15248	0	792
28.525	22.431	17557	15257	0	792
27.299	20.772	17490	15337	0	792
21.313	19.582	17439	15489	0	792
18.283	16.913	17380	15633	0	792
14.641	14.894	17312	15717	0	792
10.746	9.845	17233	15745	0	792
13.235	8.258	17142	15753	0	792
13.884	5.878	17075	15762	0	792
17.093	3.101	16984	15781	0	792
15.867	-1.983	16905	15794	0	792
12.766	-5.878	16806	15787	0	792
9.665	-8.402	16719	15768	0	792
7.681	-9.773	16621	15753	0	792
9.737	-7.934	16530	15760	0	792
12.153	-5.878	16443	15770	0	792
13.776	-4.291	16325	15726	0	792
14.136	-3.823	16159	15550	0	792
14.894	-2.849	15942	15225	0	792
13.595	-3.137	15732	14870	0	792
16.012	-2.885	15535	14650	0	792
15.975	-1.839	15388	14603	0	792
19.149	0.938	15238	14656	0	792
19.149	4.147	15112	14722	0	792
21.890	6.131	14962	14756	0	792
21.962	8.835	14803	14770	0	792
23.909	11.360	14685	14806	0	792
24.775	9.484	14539	14870	0	792
25.388	9.845	14388	14916	0	792
25.893	10.097	14242	14906	0	792
26.397	8.691	14084	14887	0	792
23.080	8.583	13934	14929	0	792
21.818	8.763	13827	15041	0	792
23.188	8.763	13717	15202	0	792
22.827	8.475	13610	15386	0	792
24.811	10.458	13539	15567	0	792
27.227	10.783	13432	15709	0	792
24.955	9.448	13313	15768	0	792
20.339	6.275	13203	15787	0	792
17.021	4.255	13116	15868	0	792
12.333	0.577	13037	16007	0	792
8.727	-2.885	12958	16149	0	792
8.078	-6.131	12898	16293	0	792
7.573	-8.691	12847	16448	0	792
8.943	-7.537	12807	16619	0	792
11.287	-6.852	12780	16797	0	792
12.333	-2.669	12748	16964	0	792
11.756	-1.082	12728	17084	0	792
9.124	0.865	12681	17127	0	792
9.520	0.721	12622	17120	0	792
8.222	2.308	12562	17106	0	792
8.907	3.426	12523	17105	0	792
12.874	5.157	12464	17089	0	792
16.228	8.294	12404	17031	0	792
19.221	11.973	12325	16951	0	792
22.863	14.713	12286	16915	0	792
24.883	15.182	12254	16932	0	792
23.296	13.379	12207	16943	0	792
22.827	13.018	12167	16926	0	792
22.899	11.215	12128	16892	0	792
22.250	10.422	12088	16858	0	792
22.250	11.828	12037	16831	0	792
21.745	12.333	11997	16816	0	792
20.700	12.225	11969	16803	0	792
22.972	13.884	11918	16776	0	792
20.772	12.081	11890	16735	0	792
20.303	9.052	11851	16704	0	792
15.110	6.419	11819	16698	0	792
14.353	3.498	11792	16700	0	792
9.953	2.344	11752	16672	0	792
10.494	2.452	11713	16628	0	792
10.746	2.308	11681	16596	0	792
9.376	2.200	11641	16571	0	792
9.124	3.246	11602	16539	0	792
10.097	6.203	11543	16473	0	792
11.215	7.429	11464	16339	0	792
12.514	10.350	11384	16155	0	792
13.740	10.530	11278	15978	0	792
12.838	8.511	11199	15855	0	792
11.071	8.402	11139	15823	0	792
12.622	7.753	11120	15904	0	792
13.704	9.701	11128	16075	0	792
17.418	9.196	11159	16292	0	792
21.709	11.900	11187	16535	0	792
24.089	13.163	11286	16846	0	792
23.080	12.153	11396	17226	0	792
22.431	13.343	11543	17626	0	792
23.116	13.199	11693	18019	0	792
21.493	9.340	11871	18401	0	792
21.096	9.448	12076	18790	0	792
17.526	9.160	12294	19199	0	792
16.805	8.042	12570	19630	0	792
12.225	8.330	12839	20053	0	792
12.694	8.186	13124	20421	0	792
10.133	6.888	13361	20649	0	792
7.934	6.022	13590	20693	0	792
3.787	5.049	13815	20670	0	792
2.308	4.652	14084	20729	0	792
1.226	3.318	14369	20854	0	792
2.272	3.570	14677	20989	0	792
4.977	2.596	14973	21105	0	792
7.104	3.426	15270	21165	0	792
9.196	4.977	15586	21196	0	792
11.720	8.222	15950	21277	0	792
12.225	10.133	16298	21395	0	792
12.369	11.973	16640	21452	0	792
14.966	11.648	16976	21421	0	792
16.769	10.278	17312	21332	0	792
17.887	11.432	17648	21217	0	792
19.654	12.369	17972	21080	1	808
21.854	12.586	18281	20907	0	808
21.457	12.982	18585	20681	0	808
21.962	13.776	18874	20420	0	808
21.349	11.468	19150	20143	0	808
19.077	11.973	19427	19877	0	808
14.533	10.674	19704	19630	0	808
13.235	8.330	19968	19380	0	808
9.484	6.311	20217	19093	0	808
10.350	6.960	20455	18774	0	808
11.900	8.222	20672	18452	0	808
12.261	9.665	20889	18144	0	808
15.218	11.900	21087	17843	0	808
15.002	11.973	21253	17505	0	808
11.937	11.323	21411	17125	0	808
10.242	9.268	21522	16723	0	808
7.465	8.799	21629	16299	0	808
7.501	8.294	21700	15857	0	808
8.366	8.511	21747	15430	0	808
12.297	9.809	21779	15018	0	808
14.713	12.622	21779	14586	0	808
15.903	13.704	21739	14115	0	808
16.228	11.828	21700	13681	0	808
13.451	13.054	21668	13381	0	808
14.245	12.297	21668	13200	0	808
14.064	12.297	21629	13062	0	808
17.310	14.894	21581	12912	0	808
18.536	14.966	21542	12756	0	808
20.339	16.048	21463	12620	0	808
18.536	15.002	21403	12534	0	808
18.139	12.369	21332	12504	0	808
16.408	11.251	21265	12506	0	808
16.769	9.989	21174	12495	0	808
15.038	9.629	21048	12426	0	808
15.723	11.576	20929	12339	0	808
15.867	11.937	20818	12339	0	808
17.382	10.638	20731	12440	0	808
20.231	11.287	20621	12569	0	808
20.159	13.054	20522	12699	0	808
23.080	13.559	20435	12842	0	808
25.063	16.408	20324	12986	0	808
23.044	15.110	20237	13125	0	808
21.818	15.038	20127	13282	0	808
20.375	13.920	20040	13472	0	808
17.057	13.018	19949	13667	0	808
17.021	12.874	19842	13830	0	808
16.516	12.441	19743	13969	0	808
17.562	10.602	19652	14126	0	808
15.903	11.900	19565	14322	0	808
18.031	11.215	19506	14553	0	808
18.247	12.189	19435	14798	0	808
21.673	14.641	19395	15028	0	808
20.555	13.992	19336	15261	0	808
19.221	13.379	19316	15519	0	808
14.281	9.016	19277	15772	0	808
10.278	4.508	19249	15986	0	808
6.708	2.560	19229	16174	0	808
6.419	0.685	19198	16348	0	808
6.058	0.108	19190	16518	0	808
5.409	-1.334	19178	16695	0	808
1.803	-2.885	19178	16860	0	808
-0.757	-5.914	19158	16981	0	808
-1.298	-5.878	19158	17061	0	808
0.361	-4.724	19158	17129	0	808
2.741	-3.787	19150	17198	0	808
6.563	-2.596	19138	17241	0	808
7.898	-2.236	19111	17228	0	808
9.124	-1.118	19079	17167	0	808
10.169	0.505	19020	17072	0	808
12.225	1.659	18972	16962	0	808
12.441	4.508	18921	16841	0	808
13.018	6.671	18822	16661	0	808
12.946	8.547	18716	16420	0	808
9.556	9.953	18605	16176	0	808
10.602	10.710	18467	15929	0	808
9.917	12.694	18328	15681	0	808
10.133	11.071	18202	15483	0	808
10.746	11.720	18091	15364	0	808
10.638	11.900	17972	15309	0	808
9.160	9.484	17893	15292	0	808
9.232	7.429	17806	15290	0	808
5.409	6.203	17716	15314	0	808
6.419	4.616	17636	15364	0	808
6.960	3.462	17577	15438	0	808
9.953	1.731	17510	15529	0	808
15.543	-0.325	17439	15603	0	808
19.510	-3.065	17372	15648	0	808
18.608	-5.662	17293	15677	0	808
16.877	-7.645	17194	15671	0	808
13.595	-8.727	17103	15639	0	808
11.756	-11.287	17016	15614	0	808
10.999	-11.540	16885	15574	0	808
11.323	-10.783	16779	15483	0	808
12.910	-9.665	16660	15392	0	808
13.631	-8.186	16530	15350	0	808
15.435	-3.065	16431	15354	0	808
19.762	-0.361	16337	15392	0	808
20.483	3.931	16246	15441	0	808
23.440	7.104	16128	15462	0	808
23.981	8.114	16029	15457	0	808
22.791	6.816	15950	15493	0	808
21.493	6.131	15863	15591	0	808
19.473	4.111	15803	15701	0	808
14.497	1.695	15705	15764	0	808
13.920	0.144	15626	15787	0	808
13.307	0.757	15547	15823	0	808
14.641	0.793	15468	15891	0	808
17.129	1.406	15396	15963	0	808
17.238	0.541	15309	16009	0	808
18.428	1.046	15250	16024	0	808
18.283	1.479	15159	16030	0	808
20.375	2.092	15072	16049	0	808
21.493	4.904	15001	16087	0	808
21.060	4.472	14922	16125	0	808
21.349	4.400	14855	16136	0	808
16.733	1.803	14764	16130	0	808
13.631	0.974	14697	16132	0	808
9.052	-3.101	14606	16144	0	808
6.203	-3.606	14527	16142	0	808
4.436	-3.787	14440	16121	0	808
6.347	-2.452	14349	16096	0	808
9.520	0.649	14262	16066	0	808
12.117	2.633	14151	15996	0	808
13.920	5.337	14052	15910	0	808
16.084	6.960	13973	15910	0	808
14.785	8.042	13934	16011	0	808
16.156	8.871	13875	16121	0	808
13.235	8.078	13796	16174	0	808
9.448	6.599	13736	16170	0	808
7.609	4.291	13657	16151	0	808
6.094	2.344	13578	16144	0	808
7.212	1.875	13519	16142	0	808
9.412	2.200	13432	16128	0	808
12.658	3.570	13333	16094	0	808
12.982	3.426	13254	16049	0	808
11.684	3.426	13175	16013	0	808
12.586	2.524	13096	16013	0	808
10.530	2.524	13025	16035	0	808
9.773	1.190	12938	16049	0	808
11.179	1.226	12879	16052	0	808
12.694	2.092	12800	16062	0	808
12.766	3.931	12740	16075	0	808
14.677	4.364	12661	16090	0	808
15.543	7.104	12590	16115	0	808
16.120	7.753	12543	16149	0	808
16.589	7.681	12464	16151	0	808
15.326	8.294	12373	16077	0	808
14.930	8.402	12254	15959	0	808
14.713	9.881	12155	15861	0	808
19.798	10.638	12056	15808	0	808
23.837	12.622	11958	15762	0	808
27.227	12.225	11839	15679	0	808
28.525	8.979	11720	15580	0	808
24.306	5.301	11634	15563	0	808
19.437	1.623	11574	15654	0	808
18.392	-0.757	11503	15777	0	808
18.608	-2.092	11444	15872	0	808
21.241	-3.354	11396	15946	0	808
23.260	-3.426	11345	16054	0	808
23.512	-4.544	11337	16229	0	808
25.893	-4.472	11345	16461	0	808
25.532	-2.705	11384	16727	0	808
30.797	-1.875	11416	16998	0	808
33.105	0.829	11495	17279	0	808
34.367	3.246	11574	17583	0	808
34.728	4.291	11681	17913	0	808
33.862	3.642	11831	18268	0	808
33.610	3.931	11977	18623	0	808
34.151	3.354	12167	18972	0	808
34.259	3.101	12345	19328	0	808
35.918	3.534	12582	19685	0	808
35.846	4.724	12788	19995	0	808
34.728	4.364	12997	20177	0	808
32.853	5.481	13195	20260	0	808
29.715	6.708	13412	20357	0	808
28.092	6.924	13630	20480	0	808
25.279	6.094	13867	20585	0	808
22.539	5.049	14132	20695	0	808
21.637	2.669	14420	20841	0	808
18.608	0.433	14705	21012	0	808
18.175	-2.777	15033	21161	0	808
17.382	-3.173	15337	21253	0	808
18.680	-5.914	15645	21292	0	808
18.247	-4.688	15962	21304	0	808
19.293	-4.724	16266	21285	0	808
15.723	-4.580	16569	21217	0	808
15.110	-4.508	16846	21084	0	808
10.674	-5.590	17123	20894	0	808
10.963	-5.662	17411	20680	1	752
12.982	-4.940	17676	20488	0	752
13.776	-4.904	17965	20321	0	752
17.418	-3.426	18229	20131	0	752
18.788	-1.479	18486	19903	0	752
22.972	2.272	18755	19666	0	752
27.840	6.708	18992	19427	0	752
31.879	12.009	19237	19179	0	752
33.538	14.894	19474	18928	0	752
32.744	13.271	19692	18681	0	752
30.545	11.323	19882	18382	0	752
28.092	9.448	20028	17985	0	752
26.722	8.655	20158	17518	0	752
26.433	9.953	20277	17057	0	752
25.424	12.550	20364	16636	0	752
24.666	11.684	20443	16240	0	752
22.503	9.953	20502	15825	0	752
19.149	8.583	20514	15379	0	752
18.644	7.753	20534	14956	0	752
17.887	7.609	20542	14599	0	752
21.132	6.347	20553	14316	0	752
21.745	6.599	20561	14087	0	752
21.601	3.462	20561	13884	0	752
22.178	3.210	20542	13696	0	752
21.096	4.364	20522	13538	0	752
22.611	5.554	20514	13413	0	752
23.476	6.744	20463	13305	0	752
22.539	6.924	20415	13195	0	752
21.890	6.094	20364	13098	0	752
20.483	5.950	20297	13037	0	752
21.890	6.491	20245	13009	0	752
24.811	6.563	20166	13001	0	752
24.811	8.186	20099	12990	0	752
24.847	6.239	20008	12967	0	752
24.955	4.183	19889	12927	0	752
20.880	1.623	19763	12849	0	752
17.887	-0.938	19625	12762	0	752
16.913	-2.128	19486	12728	0	752
13.992	-4.219	19356	12758	0	752
12.658	-5.265	19237	12819	0	752
11.828	-7.753	19091	12876	0	752
10.819	-10.025	18953	12948	0	752
10.386	-10.242	18854	13106	0	752
11.973	-9.701	18783	13371	0	752
14.172	-8.619	18704	13682	0	752
17.057	-6.996	18644	13971	0	752
20.447	-4.760	18565	14214	0	752
18.464	-3.967	18498	14438	0	752
19.113	-1.623	18447	14671	0	752
20.447	-0.216	18387	14903	0	752
19.798	1.118	18328	15113	0	752
23.837	1.154	18269	15305	0	752
23.440	1.190	18221	15485	0	752
23.657	1.154	18170	15671	0	752
23.837	1.082	18142	15876	0	752
23.549	2.092	18123	16088	0	752
25.424	3.137	18091	16276	0	752
27.660	5.337	18071	16431	0	752
28.273	5.590	18044	16571	0	752
26.722	6.094	18024	16685	0	752
24.486	5.013	18004	16793	0	752
23.621	5.554	18024	16949	0	752
21.060	5.229	18032	17152	0	752
21.601	7.789	18044	17289	0	752
25.460	8.114	18012	17291	0	752
25.027	6.383	17984	17205	0	752
24.378	5.265	17933	17105	0	752
23.801	2.452	17874	17010	0	752
20.303	-0.721	17826	16913	0	752
17.706	-2.596	17755	16786	0	752
17.202	-5.265	17676	16615	0	752
15.074	-6.996	17589	16444	0	752
14.461	-7.140	17510	16318	0	752
14.966	-6.888	17451	16223	0	752
16.264	-3.859	17360	16145	0	752
20.736	-2.128	17293	16075	0	752
23.801	0.613	17221	16024	0	752
24.739	1.515	17162	16001	0	752
25.676	1.623	17115	16013	0	752
23.909	2.885	17063	16037	0	752
25.099	4.616	17016	16045	0	752
27.299	8.583	16945	16032	0	752
29.427	10.458	16905	16020	0	752
30.905	11.720	16838	16022	0	752
30.436	10.386	16799	16028	0	752
30.400	8.475	16727	16030	0	752
29.679	7.465	16660	15996	0	752
31.626	7.789	16561	15897	0	752
31.122	7.465	16451	15736	0	752
29.931	7.285	16325	15555	0	752
27.443	5.662	16207	15409	0	752
23.296	2.885	16108	15328	0	752
21.998	1.947	16001	15303	0	752
20.916	2.741	15902	15310	0	752
20.880	4.400	15823	15322	0	752
21.673	5.914	15724	15352	0	752
19.726	5.842	15665	15422	0	752
20.159	4.724	15594	15508	0	752
16.661	3.750	15515	15569	0	752
18.283	4.508	15436	15603	0	752
17.670	4.219	15357	15624	0	752
18.464	5.662	15270	15641	0	752
19.041	5.878	15179	15641	0	752
15.651	2.921	15092	15637	0	752
11.360	-0.974	15001	15644	0	752
7.825	-3.823	14902	15663	0	752
6.744	-6.203	14823	15682	0	752
7.140	-5.373	14744	15717	0	752
10.855	-1.659	14657	15756	0	752
14.533	-0.180	14578	15777	0	752
14.930	1.190	14487	15772	0	752
18.283	2.092	14381	15747	0	752
18.969	4.003	14270	15707	0	752
24.306	6.275	14171	15667	0	752
26.758	7.934	14064	15648	0	752
29.030	7.465	13973	15648	0	752
29.463	6.311	13867	15648	0	752
27.804	1.731	13748	15618	0	752
26.397	1.515	13637	15561	0	752
25.640	-0.252	13519	15523	0	752
23.765	-0.144	13420	15527	0	752
23.368	-1.731	13321	15557	0	752
18.716	-2.705	13215	15593	0	752
18.031	-4.616	13124	15618	0	752
15.435	-5.986	13025	15648	0	752
16.769	-5.626	12938	15699	0	752
16.552	-4.616	12859	15775	0	752
19.582	-4.904	12800	15861	0	752
17.887	-5.590	12709	15925	0	752
17.815	-5.337	12622	15965	0	752
14.028	-5.878	12551	16001	0	752
14.028	-5.157	12471	16056	0	752
11.720	-4.760	12424	16128	0	752
11.792	-3.246	12345	16183	0	752
12.405	-3.534	12274	16225	0	752
14.208	-2.669	12226	16269	0	752
17.634	-1.515	12155	16328	0	752
21.313	0.829	12116	16421	0	752
23.945	1.983	12108	16566	0	752
23.368	1.406	12088	16698	0	752
21.601	0.721	12029	16736	0	752
20.988	1.010	11958	16683	0	752
18.175	1.334	11898	16609	0	752
20.591	4.075	11839	16573	0	752
19.618	4.977	11800	16596	0	752
20.916	4.147	11772	16666	0	752
18.716	2.488	11740	16740	0	752
19.726	1.983	11740	16812	0	752
17.310	2.092	11760	16957	0	752
17.562	2.524	11819	17205	0	752
16.372	2.524	11898	17495	0	752
18.103	2.200	11997	17786	0	752
16.877	3.101	12116	18074	0	752
19.654	4.255	12266	18376	0	752
18.608	5.626	12404	18685	0	752
20.591	4.940	12582	18979	0	752
22.214	4.003	12760	19256	0	752
21.745	3.462	12966	19528	0	752
22.791	2.056	13183	19801	0	752
21.204	3.462	13420	20080	0	752
20.339	1.551	13697	20374	0	752
22.286	3.498	13985	20678	0	752
22.899	3.750	14309	20977	0	752
23.657	5.265	14618	21249	0	752
24.306	7.176	14942	21450	0	752
22.647	7.176	15238	21539	0	752
21.204	5.806	15527	21539	0	752
21.493	3.859	15843	21511	0	752
17.634	1.911	16139	21482	0	752
18.320	0.288	16443	21431	0	752
17.021	-0.361	16727	21308	0	752
18.464	0.685	16984	21110	1	684
17.526	2.128	17261	20892	0	684
19.510	4.364	17530	20676	0	684
18.103	4.364	17787	20456	0	684
19.618	4.832	18051	20228	0	684
19.726	3.859	18289	19983	0	684
21.601	4.472	18546	19731	0	684
24.378	6.058	18783	19490	0	684
26.902	9.484	19040	19272	0	684
28.994	12.333	19257	19048	0	684
30.328	12.982	19467	18757	0	684
28.814	13.992	19613	18346	0	684
26.866	15.398	19743	17867	0	684
26.938	15.543	19882	17448	0	684
27.299	18.572	20028	17131	0	684
30.076	18.608	20166	16850	0	684
31.771	18.428	20277	16575	0	684
32.889	16.444	20403	16312	0	684
32.816	15.579	20482	16035	0	684
30.977	13.054	20573	15749	0	684
29.030	12.658	20672	15529	0	684
27.407	11.432	20771	15402	0	684
25.856	10.746	20838	15252	0	684
24.017	9.701	20858	14990	0	684
23.080	9.232	20858	14648	0	684
24.378	8.871	20838	14314	0	684
24.991	8.222	20799	14020	0	684
22.178	8.511	20731	13724	0	684
20.952	7.068	20633	13384	0	684
14.100	3.895	20534	13037	0	684
12.874	2.993	20415	12747	0	684
9.665	1.190	20285	12529	0	684
11.504	1.767	20178	12383	0	684
12.838	3.029	20059	12293	0	684
12.514	4.616	19929	12246	0	684
15.507	7.645	19822	12231	0	684
16.625	10.386	19704	12261	0	684
17.526	12.189	19613	12348	0	684
17.851	14.353	19494	12474	0	684
16.264	15.074	19387	12599	0	684
18.860	12.514	19289	12724	0	684
18.824	13.992	19178	12876	0	684
22.034	13.776	19091	13066	0	684
25.135	14.641	19000	13297	0	684
24.775	15.831	18953	13584	0	684
25.532	14.317	18901	13908	0	684
25.856	15.507	18834	14180	0	684
24.342	12.550	18755	14352	0	684
22.178	13.631	18656	14470	0	684
23.224	13.776	18597	14601	0	684
21.673	13.018	18506	14773	0	684
23.909	12.982	18447	14978	0	684
26.001	12.477	18380	15180	0	684
27.371	11.504	18328	15358	0	684
26.938	11.864	18289	15551	0	684
25.099	11.576	18249	15772	0	684
24.450	10.350	18210	15975	0	684
20.664	10.566	18190	16134	0	684
16.300	8.475	18142	16261	0	684
13.235	6.419	18111	16369	0	684
11.251	4.940	18083	16482	0	684
11.143	3.390	18083	16630	0	684
13.487	4.327	18063	16799	0	684
16.733	4.436	18063	16930	0	684
13.271	5.806	18004	16945	0	684
12.946	4.796	17965	16867	0	684
11.287	4.796	17905	16810	0	684
13.343	4.472	17874	16810	0	684
15.507	4.436	17834	16807	0	684
17.166	5.698	17767	16752	0	684
19.582	7.645	17668	16592	0	684
19.329	8.691	17550	16341	0	684
21.529	9.340	17419	16092	0	684
20.808	8.727	17320	15912	0	684
19.401	7.285	17214	15804	0	684
18.897	5.662	17115	15743	0	684
15.831	4.652	17016	15679	0	684
18.103	5.842	16905	15599	0	684
19.293	6.491	16826	15559	0	684
21.601	6.635	16739	15588	0	684
19.870	9.160	16688	15662	0	684
18.392	9.052	16629	15737	0	684
14.713	8.294	16561	15792	0	684
13.595	8.475	16502	15846	0	684
14.064	8.907	16463	15927	0	684
16.841	9.665	16423	16039	0	684
17.598	10.350	16391	16161	0	684
17.743	11.937	16357	16257	0	684
16.192	12.405	16325	16329	0	684
15.038	11.179	16298	16397	0	684
16.120	12.910	16266	16476	0	684
14.930	11.828	16238	16547	0	684
16.228	9.665	16199	16581	0	684
16.048	10.422	16167	16579	0	684
17.995	12.730	16128	16562	0	684
20.050	15.038	16080	16541	0	684
24.558	20.411	16021	16513	0	684
27.083	22.863	15981	16469	0	684
30.833	24.919	15910	16408	0	684
32.023	26.109	15831	16328	0	684
34.295	27.624	15752	16204	0	684
35.413	27.840	15673	16070	0	684
34.836	28.741	15586	15986	0	684
33.177	27.587	15515	15956	0	684
30.689	26.974	15436	15920	0	684
27.840	24.919	15349	15851	0	684
27.515	23.404	15250	15758	0	684
28.489	23.729	15151	15665	0	684
30.689	24.702	15060	15588	0	684
33.934	27.407	14942	15508	0	684
35.341	28.814	14835	15419	0	684
35.124	28.922	14705	15322	0	684
31.338	26.001	14586	15216	0	684
24.739	22.070	14460	15130	0	684
17.526	19.221	14361	15132	0	684
13.163	14.028	14282	15214	0	684
13.127	14.966	14203	15312	0	684
17.021	14.641	14112	15377	0	684
20.087	14.966	13993	15362	0	684
22.467	18.211	13875	15276	0	684
22.358	17.923	13748	15210	0	684
20.627	18.572	13649	15231	0	684
21.565	18.897	13570	15345	0	684
22.755	17.454	13491	15479	0	684
23.116	17.202	13400	15555	0	684
24.342	16.192	13313	15578	0	684
23.080	15.435	13215	15608	0	684
22.214	15.182	13143	15681	0	684
22.106	12.766	13076	15781	0	684
19.798	11.973	13005	15889	0	684
18.933	9.737	12938	15973	0	684
14.677	8.330	12859	16014	0	684
14.317	8.871	12780	16037	0	684
13.199	10.710	12720	16088	0	684
13.415	13.271	12661	16168	0	684
17.202	15.002	12602	16248	0	684
16.084	16.300	12543	16329	0	684
17.418	15.038	12523	16433	0	684
17.238	16.048	12491	16568	0	684
21.060	15.903	12483	16706	0	684
24.017	19.113	12444	16791	0	684
28.273	20.195	12384	16763	0	684
31.302	22.863	12294	16655	0	684
31.266	25.063	12246	16577	0	684
31.085	26.109	12195	16562	0	684
31.049	28.525	12135	16564	0	684
33.141	30.725	12076	16566	0	684
33.141	30.977	12056	16581	0	684
33.718	32.456	12009	16609	0	684
32.816	31.338	11969	16613	0	684
31.374	29.318	11879	16520	0	684
28.056	27.191	11792	16354	0	684
24.234	23.693	11713	16235	0	684
19.798	20.303	11653	16195	0	684
14.569	14.930	11614	16221	0	684
9.737	12.405	11614	16367	0	684
10.422	8.222	11673	16649	0	684
9.737	6.022	11752	17010	0	684
8.366	4.111	11871	17399	0	684
7.104	2.741	12009	17795	0	684
5.121	0.072	12167	18203	0	684
3.787	0.072	12365	18632	0	684
4.111	-1.046	12562	19051	0	684
6.167	-1.010	12780	19431	0	684
6.022	-0.252	13017	19782	0	684
4.544	-0.288	13282	20135	0	684
4.616	0.180	13578	20503	0	684
6.563	0.252	13886	20883	0	684
10.314	0.865	14211	21245	0	684
12.910	2.705	14558	21562	0	684
19.221	4.183	14914	21826	0	684
20.339	7.862	15278	22055	0	684
23.765	9.773	15653	22254	0	684
23.044	10.133	16041	22402	0	684
22.683	10.855	16403	22478	0	684
23.188	12.550	16767	22492	0	684
21.313	13.848	17142	22452	0	684
20.988	15.615	17490	22327	0	684
22.431	18.752	17806	22120	0	684
20.627	16.589	18142	21879	0	684
22.467	16.372	18459	21628	1	720
23.729	13.920	18775	21368	0	720
23.476	15.002	19059	21067	0	720
24.666	13.740	19348	20721	0	720
21.854	15.002	19633	20397	0	720
20.050	13.992	19921	20114	0	720
21.024	12.117	20198	19826	0	720
20.231	11.864	20463	19497	0	720
22.467	11.107	20692	19131	0	720
23.116	12.225	20917	18755	0	720
24.522	14.713	21134	18391	0	720
25.027	13.992	21352	18059	0	720
23.981	14.281	21561	17755	0	720
23.729	12.874	21747	17448	0	720
22.539	9.629	21917	17120	0	720
20.664	9.665	22075	16788	0	720
17.598	8.943	22214	16459	0	720
17.021	7.898	22332	16140	0	720
15.218	6.563	22451	15825	0	720
12.586	5.373	22518	15493	0	720
11.937	3.282	22577	15113	0	720
8.943	2.056	22597	14711	0	720
6.455	1.623	22617	14331	0	720
4.544	0.577	22609	14007	0	720
6.203	-1.082	22617	13753	0	720
8.439	-1.370	22617	13561	0	720
11.251	-1.226	22629	13428	0	720
13.740	0.902	22617	13316	0	720
14.713	2.741	22617	13227	0	720
13.920	5.193	22609	13191	0	720
14.245	5.914	22597	13197	0	720
13.812	7.176	22589	13200	0	720
13.559	7.609	22530	13178	0	720
16.733	10.566	22498	13138	0	720
16.877	14.136	22451	13106	0	720
19.654	15.074	22372	13102	0	720
18.644	16.697	22320	13123	0	720
17.706	14.100	22241	13140	0	720
14.461	12.874	22142	13126	0	720
13.163	11.684	22055	13104	0	720
12.441	10.602	21957	13119	0	720
12.297	11.468	21858	13176	0	720
16.697	13.127	21759	13242	0	720
16.805	12.477	21660	13316	0	720
19.690	14.353	21561	13396	0	720
19.690	13.920	21431	13457	0	720
23.440	14.461	21324	13498	0	720
28.128	16.625	21206	13565	0	720
32.384	16.300	21087	13675	0	720
35.269	16.913	20976	13800	0	720
32.492	11.360	20870	13906	0	720
26.578	7.970	20739	13996	0	720
20.555	4.832	20640	14106	0	720
18.716	3.173	20542	14267	0	720
16.913	3.426	20455	14479	0	720
19.185	4.688	20384	14699	0	720
19.546	5.409	20304	14891	0	720
20.916	4.508	20245	15079	0	720
18.716	5.085	20178	15295	0	720
18.752	4.760	20138	15525	0	720
16.372	4.255	20107	15745	0	720
16.300	4.472	20048	15942	0	720
15.038	3.931	20020	16117	0	720
16.048	4.796	19988	16278	0	720
14.966	5.049	19961	16427	0	720
16.228	4.400	19921	16556	0	720
14.064	4.364	19870	16623	0	720
11.287	1.010	19791	16581	0	720
9.917	-1.947	19704	16475	0	720
8.763	-1.731	19613	16401	0	720
9.556	0.216	19534	16384	0	720
12.405	3.967	19455	16373	0	720
15.831	7.681	19387	16354	0	720
14.858	8.042	19336	16339	0	720
17.382	10.350	19237	16324	0	720
18.031	10.025	19190	16318	0	720
21.024	13.271	19131	16360	0	720
22.575	12.586	19111	16442	0	720
22.611	14.317	19059	16505	0	720
23.549	13.776	18992	16495	0	720
22.395	12.514	18921	16425	0	720
23.585	13.884	18862	16373	0	720
28.381	14.749	18802	16367	0	720
27.587	13.776	18743	16371	0	720
28.273	15.182	18664	16339	0	720
26.938	12.009	18597	16269	0	720
28.201	12.009	18518	16176	0	720
30.004	11.215	18399	16041	0	720
34.043	10.169	18281	15884	0	720
33.970	11.792	18182	15758	0	720
34.187	10.566	18063	15669	0	720
29.282	8.475	17965	15599	0	720
26.145	6.419	17854	15553	0	720
24.702	5.878	17767	15529	0	720
24.811	5.229	17676	15523	0	720
24.775	5.590	17577	15540	0	720
25.784	4.255	17478	15546	0	720
26.902	3.101	17352	15481	0	720
24.125	0.974	17221	15354	0	720
24.342	-0.252	17103	15263	0	720
24.306	-0.685	16996	15276	0	720
23.152	-1.695	16925	15367	0	720
21.277	-2.416	16826	15449	0	720
22.142	-2.777	16719	15462	0	720
21.349	-2.308	16601	15430	0	720
21.637	-1.010	16490	15403	0	720
24.306	-0.361	16384	15405	0	720
24.089	0.649	16278	15422	0	720
24.198	1.190	16159	15426	0	720
26.253	3.426	16029	15407	0	720
29.030	5.013	15930	15396	0	720
30.508	6.347	15811	15426	0	720
32.672	8.258	15732	15495	0	720
31.735	8.330	15626	15576	0	720
30.184	7.970	15535	15637	0	720
29.787	7.898	15428	15660	0	720
27.912	7.176	15298	15620	0	720
26.325	6.275	15159	15525	0	720
21.854	3.895	15013	15428	0	720
17.995	1.587	14863	15345	0	720
14.172	-0.685	14685	15233	0	720
13.848	-1.118	14519	15088	0	720
14.497	-0.577	14329	14961	0	720
15.759	0.721	14163	14887	0	720
18.283	2.344	14005	14868	0	720
17.418	2.452	13855	14889	0	720
17.670	0.361	13709	14922	0	720
16.300	-1.587	13551	14931	0	720
16.084	-3.101	13392	14927	0	720
14.064	-5.770	13242	14961	0	720
14.281	-5.698	13124	15064	0	720
11.792	-7.681	13017	15227	0	720
12.586	-5.770	12918	15411	0	720
15.182	-6.491	12839	15580	0	720
18.464	-3.895	12760	15758	0	720
22.611	-2.344	12681	15950	0	720
24.378	-2.128	12622	16134	0	720
22.539	-2.236	12562	16288	0	720
21.277	-1.442	12483	16401	0	720
18.572	-1.442	12432	16503	0	720
19.401	0.000	12365	16619	0	720
18.320	1.010	12333	16754	0	720
21.709	0.974	12294	16883	0	720
24.342	2.200	12246	16974	0	720
25.856	3.210	12195	17017	0	720
27.119	4.291	12147	17031	0	720
27.155	6.527	12088	17044	0	720
25.207	6.780	12049	17069	0	720
24.089	7.212	11997	17082	0	720
23.585	8.042	11950	17082	0	720
27.263	9.592	11898	17067	0	720
27.479	10.927	11839	17012	0	720
29.859	13.812	11780	16945	0	720
28.958	15.903	11780	16962	0	720
26.361	13.848	11772	17082	0	720
22.972	14.461	11792	17235	0	720
19.798	10.999	11819	17385	0	720
20.231	8.583	11851	17524	0	720
18.536	6.094	11890	17643	0	720
20.159	5.806	11950	17778	0	720
20.339	4.508	12029	17953	0	720
23.116	3.787	12128	18158	0	720
23.981	4.760	12234	18363	0	720
23.080	4.183	12373	18564	0	720
22.575	3.462	12511	18790	0	720
23.116	2.056	12709	19069	0	720
20.411	-1.298	12906	19378	0	720
21.096	-3.282	13124	19666	0	720
20.159	-5.049	13353	19913	0	720
18.644	-5.626	13598	20131	0	720
19.185	-6.203	13835	20330	0	720
18.283	-6.744	14104	20532	0	720
20.916	-8.402	14400	20733	0	720
19.582	-9.052	14685	20917	0	720
19.690	-9.773	14993	21067	0	720
16.769	-10.278	15278	21144	0	720
15.759	-10.819	15554	21150	0	720
13.812	-11.504	15851	21129	0	720
15.326	-9.124	16139	21103	0	720
15.723	-7.717	16411	21029	0	720
17.706	-7.429	16668	20865	0	720
15.579	-7.285	16925	20653	1	724
14.172	-8.402	17182	20456	0	724
13.631	-8.619	17431	20254	0	724
12.550	-8.943	17629	19955	0	724
14.966	-7.753	17814	19564	0	724
14.749	-7.393	18024	19201	0	724
15.038	-8.258	18221	18941	0	724
15.182	-9.520	18447	18765	0	724
14.966	-9.881	18684	18653	0	724
17.743	-9.989	18933	18571	0	724
19.798	-7.825	19170	18482	0	724
24.739	-4.940	19407	18363	0	724
27.263	-0.541	19625	18205	0	724
27.840	0.505	19830	18021	0	724
27.155	0.505	20040	17860	0	724
27.660	1.659	20245	17729	0	724
27.010	2.416	20463	17615	0	724
26.686	5.517	20660	17492	0	724
27.335	7.140	20850	17340	0	724
25.568	5.121	21028	17175	0	724
24.991	3.029	21214	17055	0	724
23.260	0.361	21411	17002	0	724
20.880	-2.164	21581	16928	0	724
20.159	-2.200	21739	16774	0	724
18.680	-2.380	21878	16581	0	724
20.050	-0.505	22004	16393	0	724
21.204	-0.433	22115	16204	0	724
21.385	0.361	22202	15978	0	724
20.555	-0.541	22273	15705	0	724
18.356	-2.164	22300	15402	0	724
20.880	-1.659	22320	15100	0	724
20.447	-1.515	22332	14817	0	724
23.585	-0.793	22340	14553	0	724
25.856	0.144	22293	14292	0	724
25.604	-0.469	22253	13994	0	724
25.135	-1.154	22154	13648	0	724
22.431	-2.560	22063	13309	0	724
17.815	-3.967	21965	13064	0	724
16.697	-5.085	21878	12920	0	724
13.992	-4.219	21787	12817	0	724
15.723	-2.416	21680	12707	0	724
16.625	-0.974	21530	12551	0	724
20.303	0.757	21384	12364	0	724
21.637	1.587	21206	12218	0	724
24.053	3.318	21075	12185	0	724
23.152	2.813	20968	12284	0	724
21.529	2.705	20858	12443	0	724
21.132	1.983	20731	12578	0	724
20.195	1.947	20613	12701	0	724
21.421	3.426	20522	12870	0	724
24.053	5.481	20415	13092	0	724
24.198	6.419	20356	13356	0	724
25.352	7.898	20277	13644	0	724
25.243	7.285	20217	13923	0	724
24.450	7.285	20138	14185	0	724
23.549	7.681	20087	14451	0	724
26.037	8.547	20048	14730	0	724
26.542	11.179	20000	14997	0	724
28.741	13.559	19961	15238	0	724
30.508	14.749	19941	15474	0	724
30.941	14.100	19901	15717	0	724
28.669	12.333	19901	15967	0	724
28.417	8.871	19889	16214	0	724
25.171	5.193	19882	16423	0	724
20.447	2.705	19870	16592	0	724
18.788	0.288	19850	16725	0	724
15.146	-1.875	19842	16833	0	724
17.166	-1.154	19822	16924	0	724
16.805	-1.659	19810	16979	0	724
16.444	-2.200	19771	16993	0	724
16.841	-2.705	19731	16976	0	724
13.091	-6.167	19684	16934	0	724
11.792	-7.825	19644	16839	0	724
11.468	-9.412	19553	16698	0	724
10.350	-10.278	19474	16560	0	724
10.602	-11.973	19395	16444	0	724
9.448	-13.235	19308	16314	0	724
8.330	-14.136	19198	16157	0	724
9.088	-14.389	19099	15990	0	724
10.746	-10.819	18961	15800	0	724
13.091	-8.619	18834	15607	0	724
16.949	-6.203	18716	15466	0	724
19.257	-3.787	18597	15377	0	724
21.421	-2.596	18486	15316	0	724
20.844	-1.298	18399	15299	0	724
21.349	-0.144	18308	15335	0	724
18.860	-0.072	18221	15396	0	724
19.365	0.072	18142	15428	0	724
17.129	-0.902	18024	15400	0	724
18.788	-1.010	17885	15278	0	724
18.428	-0.361	17727	15104	0	724
19.185	0.577	17589	14992	0	724
20.375	3.101	17470	14986	0	724
19.906	5.445	17352	15047	0	724
21.096	4.688	17253	15119	0	724
19.437	5.085	17154	15183	0	724
20.519	4.580	17036	15219	0	724
19.690	3.246	16905	15223	0	724
19.978	4.616	16806	15236	0	724
18.644	5.554	16680	15271	0	724
19.365	6.527	16542	15269	0	724
22.142	7.825	16423	15223	0	724
23.549	10.133	16286	15187	0	724
24.739	11.143	16139	15174	0	724
24.883	12.477	16001	15176	0	724
22.972	11.864	15883	15195	0	724
23.657	12.910	15744	15221	0	724
25.027	12.261	15634	15261	0	724
24.630	11.504	15515	15331	0	724
24.811	12.045	15416	15436	0	724
25.929	10.638	15317	15553	0	724
25.640	10.206	15218	15654	0	724
26.902	10.169	15139	15741	0	724
24.414	10.494	15052	15838	0	724
21.601	8.619	14973	15954	0	724
16.336	5.554	14902	16073	0	724
15.254	3.895	14835	16170	0	724
15.002	3.895	14744	16236	0	724
18.644	4.940	14677	16290	0	724
19.762	7.032	14598	16343	0	724
22.214	6.491	14527	16389	0	724
21.601	5.013	14460	16446	0	724
21.781	3.318	14400	16514	0	724
20.159	1.370	14329	16558	0	724
21.962	3.570	14262	16554	0	724
23.152	4.868	14163	16494	0	724
20.952	6.203	14052	16389	0	724
19.257	6.419	13934	16269	0	724
14.930	5.626	13827	16157	0	724
13.054	1.515	13709	16066	0	724
10.097	0.000	13598	15975	0	724
11.432	-0.144	13471	15895	0	724
14.461	1.839	13373	15836	0	724
15.398	3.931	13242	15773	0	724
19.221	7.501	13116	15703	0	724
20.627	9.953	13005	15650	0	724
21.854	9.448	12906	15629	0	724
21.818	7.862	12800	15643	0	724
19.077	5.337	12709	15711	0	724
18.211	4.327	12641	15810	0	724
15.182	3.967	12570	15897	0	724
14.641	5.734	12491	15973	0	724
15.759	7.104	12432	16045	0	724
18.103	7.789	12365	16119	0	724
19.329	8.691	12313	16204	0	724
19.690	9.196	12266	16280	0	724
18.897	8.691	12187	16337	0	724
18.644	8.402	12128	16366	0	724
17.166	6.708	12049	16339	0	724
20.267	8.763	11969	16288	0	724
21.241	9.917	11910	16318	0	724
23.981	9.556	11871	16437	0	724
22.467	7.934	11839	16532	0	724
19.690	5.229	11772	16532	0	724
16.805	2.272	11701	16478	0	724
12.730	1.190	11653	16461	0	724
12.730	1.370	11594	16482	0	724
15.543	2.092	11535	16495	0	724
15.507	1.947	11483	16492	0	724
17.562	3.390	11424	16467	0	724
16.697	3.534	11357	16435	0	724
16.228	3.534	11305	16418	0	724
14.749	2.452	11258	16440	0	724
15.110	1.479	11238	16503	0	724
15.182	1.262	11218	16569	0	724
13.956	-0.072	11179	16624	0	724
15.867	1.082	11179	16693	0	724
16.625	2.957	11187	16812	0	724
19.185	5.013	11207	16979	0	724
20.700	7.645	11258	17156	0	724
21.926	7.321	11298	17325	0	724
21.818	7.501	11365	17499	0	724
21.926	4.760	11436	17695	0	724
23.909	5.517	11554	17939	0	724
22.863	5.445	11720	18281	0	724
20.627	6.888	11910	18689	0	724
20.483	5.085	12088	19051	0	724
16.012	5.085	12274	19298	0	724
17.959	5.265	12464	19471	0	724
18.139	5.121	12661	19643	0	724
22.683	7.068	12867	19845	0	724
22.539	8.222	13104	20067	0	724
22.395	5.878	13361	20281	0	724
21.637	4.111	13618	20461	0	724
17.743	2.813	13886	20598	0	724
17.238	1.046	14151	20710	0	724
15.038	1.875	14448	20820	0	724
17.346	1.190	14736	20913	0	724
17.851	3.606	15021	20966	0	724
20.123	4.003	15317	20985	0	724
20.808	5.229	15606	20983	0	724
23.224	6.996	15922	20976	0	724
22.683	7.140	16218	20945	0	724
21.962	6.924	16502	20862	0	724
23.440	7.753	16787	20733	1	776
21.890	9.809	17083	20592	0	776
21.818	10.169	17372	20456	0	776
23.909	10.819	17656	20317	0	776
24.847	12.586	17945	20177	0	776
26.361	11.973	18229	20025	0	776
26.758	12.694	18486	19816	0	776
26.722	14.208	18723	19533	0	776
24.450	12.766	18941	19213	0	776
23.512	12.622	19158	18862	0	776
23.116	13.595	19328	18480	0	776
21.781	12.658	19506	18103	0	776
22.070	13.091	19664	17757	0	776
23.981	13.776	19810	17423	0	776
23.693	12.369	19941	17084	0	776
