neuroNicle FX2
D3F0R0
UART
2023년 11월 4일 토요일
오전 10:24
time interval = 4msec
EEG1	EEG2	PPG	sdPPG	pulse	peak_interval(msec)
-16.516	-5.265	16207	200	0	332
-21.204	-0.433	16131	0	0	332
-25.243	-9.052	16088	0	0	332
-33.862	-26.073	16025	0	0	332
-51.352	-45.041	15995	0	0	332
-75.117	-63.217	15974	0	0	332
-99.207	-79.553	15953	0	0	332
-115.723	-93.761	15953	0	0	332
-120.014	-105.806	15953	1056	0	332
-112.838	-115.110	15953	4937	0	332
-105.806	-119.221	15974	8884	0	332
-105.698	-111.973	15995	12634	0	332
-112.081	-101.983	15974	14937	0	332
-119.870	-89.794	15932	12766	0	332
-123.404	-87.523	15868	7240	0	332
-127.263	-96.935	15813	3687	0	332
-135.846	-114.461	15784	3687	0	332
-149.874	-128.345	15750	5200	0	332
-157.158	-130.076	15771	7306	0	332
-144.537	-116.985	15750	9937	0	332
-111.287	-98.089	15771	12766	0	332
-78.687	-82.726	15784	15792	0	332
-67.256	-79.264	15784	18949	0	332
-86.621	-88.208	15805	22173	0	332
-120.772	-101.370	15835	25265	0	332
-142.301	-111.576	15856	28357	0	332
-137.324	-114.605	15890	31449	0	332
-112.477	-111.071	15919	32767	0	332
-89.434	-101.515	15974	32767	0	332
-83.952	-90.696	15974	32767	0	332
-92.932	-80.346	15932	32767	0	332
-104.760	-73.603	15898	26318	0	332
-105.950	-71.655	15856	21120	0	332
-98.305	-79.517	15856	19476	0	332
-87.523	-87.703	15835	19410	1	664
-80.418	-94.302	15847	19936	0	664
-77.461	-91.922	15877	21252	0	664
-76.992	-81.608	15877	23489	0	664
-76.740	-69.996	15919	25923	0	664
-75.694	-65.561	15953	28160	0	664
-78.723	-71.186	15983	30397	0	664
-83.051	-80.490	16038	32634	0	664
-88.280	-85.395	16067	32767	0	664
-87.126	-77.678	16110	32767	0	664
-78.507	-64.154	16152	32767	0	664
-65.633	-50.920	16194	32767	0	664
-58.529	-46.989	16249	32767	0	664
-59.647	-52.218	16270	32767	0	664
-66.426	-60.043	16313	32767	0	664
-68.013	-63.000	16342	32767	0	664
-56.149	-61.161	16376	32767	0	664
-36.783	-51.893	16405	32767	0	664
-23.044	-42.409	16434	32767	0	664
-26.686	-38.839	16455	32767	0	664
-45.438	-42.048	16489	32173	0	664
-64.371	-50.270	16510	30791	0	664
-69.528	-57.627	16532	29476	0	664
-56.509	-57.266	16553	28094	0	664
-39.452	-47.458	16574	26712	0	664
-30.581	-37.360	16603	25265	0	664
-36.928	-33.069	16616	23884	0	664
-49.513	-38.154	16625	22568	0	664
-56.942	-46.448	16658	21449	0	664
-53.624	-51.172	16646	18949	0	664
-45.078	-46.917	16595	12503	0	664
-38.586	-34.908	16519	3095	0	664
-38.731	-25.820	16468	0	0	664
-44.284	-24.414	16413	0	0	664
-45.474	-31.013	16384	0	0	664
-39.957	-38.442	16355	0	0	664
-26.109	-42.084	16321	0	0	664
-12.730	-37.216	16300	0	0	664
-9.773	-31.699	16291	0	0	664
-18.897	-26.938	16279	0	0	664
-34.439	-24.198	16291	0	0	664
-39.993	-19.942	16291	0	0	664
-29.282	-13.884	16291	266	0	664
-6.167	-7.465	16300	3292	0	664
14.966	-2.452	16313	6253	0	664
20.880	-1.479	16321	9082	0	664
9.448	-2.236	16334	11713	0	664
-8.078	-5.409	16363	14016	0	664
-23.512	-15.290	16376	16253	0	664
-26.794	-25.965	16392	18226	0	664
-15.903	-35.521	16405	19936	0	664
2.236	-37.541	16426	21252	0	664
18.824	-32.492	16426	22370	0	664
22.106	-26.866	16447	23620	0	664
8.330	-25.604	16468	24541	0	664
-16.841	-26.109	16477	25199	0	664
-37.108	-23.404	16498	25660	0	664
-39.993	-13.091	16519	26120	0	664
-25.532	-1.839	16532	26384	0	664
-3.859	2.669	16540	26515	0	664
10.710	-5.986	16561	26515	0	664
12.009	-24.486	16574	26515	0	664
1.010	-40.822	16582	26186	0	664
-12.910	-44.861	16595	25462	0	664
-21.204	-36.891	16603	24344	0	664
-20.555	-19.762	16603	23291	0	664
-12.045	-3.895	16603	22173	0	664
-4.183	2.488	16616	20989	0	664
-3.318	-0.938	16603	19739	0	664
-11.648	-12.441	16603	18423	0	664
-23.981	-26.217	16616	17305	0	664
-28.561	-34.764	16603	16515	0	664
-23.585	-35.882	16595	15924	0	664
-12.550	-33.862	16574	14082	0	664
-8.511	-32.708	16510	8490	0	664
-15.146	-33.862	16434	69	0	664
-30.076	-36.819	16342	0	0	664
-43.527	-38.226	16215	0	0	664
-47.746	-38.082	16088	0	0	664
-44.464	-40.822	16004	0	1	316
-39.416	-48.071	15911	0	0	316
-36.026	-54.021	15868	0	0	316
-32.600	-51.785	15813	0	0	316
-29.391	-40.822	15792	0	0	316
-24.089	-24.378	15771	0	0	316
-22.647	-13.379	15784	0	0	316
-23.549	-13.920	15784	0	0	316
-27.984	-23.837	15813	2042	0	316
-29.679	-36.459	15826	8687	0	316
-27.732	-44.140	15856	14871	0	316
-23.549	-43.815	15911	20594	0	316
-22.250	-39.019	15919	25989	0	316
-23.585	-32.853	15974	30923	0	316
-26.470	-29.174	16016	32767	0	316
-25.207	-27.912	16059	32767	0	316
-17.598	-28.994	16101	32767	0	316
-8.366	-30.004	16165	32767	0	316
-5.481	-28.814	16194	32767	0	316
-16.589	-31.482	16228	32767	0	316
-33.393	-38.406	16270	32767	0	316
-46.268	-46.628	16321	32767	0	316
-44.861	-51.857	16363	32767	0	316
-30.869	-51.028	16405	32767	0	316
-20.050	-44.140	16447	32767	0	316
-19.582	-33.682	16477	32767	0	316
-24.991	-25.568	16519	32767	0	316
-21.204	-15.326	16553	32767	0	316
-4.724	-5.554	16582	32767	0	316
17.598	0.108	16616	32767	0	316
22.467	-8.006	16646	32767	0	316
6.203	-28.417	16680	32767	0	316
-20.123	-48.323	16688	32767	0	316
-36.495	-57.158	16701	32767	0	316
-33.502	-48.071	16722	31384	0	316
-15.182	-25.712	16743	28423	0	316
4.472	-0.180	16730	25462	0	316
19.473	16.733	16752	22502	0	316
29.030	20.159	16752	19607	0	316
32.708	10.855	16743	16778	0	316
25.099	-10.169	16730	14082	0	316
10.891	-30.797	16730	11713	0	316
-4.616	-39.019	16730	9740	0	316
-7.357	-35.088	16722	8161	0	316
5.193	-20.483	16722	6845	0	316
24.378	-5.085	16722	5727	0	316
34.944	1.551	16709	4937	0	316
28.705	4.111	16701	4345	0	316
11.287	1.515	16701	4016	0	316
-7.248	-2.705	16709	3950	0	316
-14.821	-6.311	16701	3950	0	316
-11.612	-10.819	16688	3753	0	316
-0.397	-11.251	16688	3621	0	316
11.756	-8.691	16688	3753	0	316
19.762	-2.669	16667	3950	0	316
19.762	2.849	16680	4148	0	316
13.956	1.911	16667	4542	0	316
5.734	-4.472	16658	4937	0	316
-1.262	-14.100	16646	5266	0	316
-1.767	-18.428	16637	5398	0	316
2.056	-15.543	16625	5463	0	316
7.934	-5.229	16616	5529	0	316
12.730	4.255	16616	5727	0	316
13.091	8.078	16574	4674	0	316
5.013	0.793	16489	0	0	316
-4.219	-12.405	16392	0	0	316
-12.441	-24.089	16313	0	0	316
-10.061	-25.279	16249	0	0	316
3.931	-14.785	16186	0	0	316
18.103	1.226	16131	0	0	316
21.385	9.737	16101	0	0	316
6.419	7.537	16088	0	0	316
-19.185	-5.157	16067	0	0	316
-37.793	-17.202	16046	0	0	316
-35.124	-20.087	16059	266	0	316
-14.569	-16.805	16059	4674	0	316
8.330	-15.110	16067	8950	0	316
18.175	-16.408	16067	13227	0	316
9.412	-23.296	16101	17436	0	316
-5.013	-30.040	16122	21449	1	316
-16.408	-31.446	16143	25002	0	316
-14.677	-27.299	16165	28423	0	316
-3.642	-20.375	16173	30397	0	316
6.599	-13.920	16131	27897	0	316
8.835	-11.792	16080	21844	0	316
1.623	-14.605	16038	17502	0	316
-12.802	-22.719	16025	16581	0	316
-19.798	-29.679	16016	16976	0	316
-13.631	-28.345	15995	17634	0	316
1.442	-21.962	15961	17502	0	316
8.619	-12.477	15911	13950	0	316
-1.479	-9.556	15835	7832	0	316
-26.073	-14.317	15771	2503	0	316
-46.448	-23.296	15657	0	0	316
-43.815	-32.059	15560	0	0	316
-23.765	-32.816	15488	0	0	316
-1.046	-30.256	15433	0	0	316
9.953	-25.748	15412	0	0	316
5.842	-16.733	15412	0	0	316
-1.190	-4.364	15424	1713	0	316
-1.839	10.169	15445	8227	0	316
8.078	17.887	15475	15200	0	316
27.155	15.326	15530	22239	0	316
47.277	6.455	15593	29541	0	316
61.522	0.865	15644	32767	0	316
62.135	6.599	15720	32767	0	316
50.884	19.582	15784	32767	0	316
36.819	34.836	15868	32767	0	316
34.980	37.108	15932	32767	0	316
47.710	30.977	16025	32767	0	316
65.164	18.500	16088	32767	0	316
73.098	12.874	16165	32767	0	316
67.184	23.044	16236	32767	0	316
59.286	48.179	16300	32767	0	316
58.925	80.490	16334	32767	0	316
70.862	98.666	16321	32767	0	316
81.969	91.742	16300	32767	0	316
79.336	63.072	16279	32767	0	316
66.102	31.013	16279	32699	0	316
50.487	12.694	16270	28884	0	316
41.471	11.973	16270	25989	0	316
39.344	21.024	16279	23949	0	316
40.029	27.371	16300	22634	0	316
38.406	32.059	16321	21844	0	316
40.750	38.622	16342	21515	0	316
48.215	47.205	16376	21515	0	316
55.211	51.533	16384	20331	0	316
51.713	42.481	16321	14148	0	316
37.468	19.113	16194	1253	0	316
18.752	-3.714	16080	0	0	316
9.989	-12.045	15995	0	0	316
16.408	-1.947	15919	0	0	316
29.571	15.831	15890	0	0	316
36.134	24.414	15847	0	0	316
29.931	16.228	15847	0	0	316
12.153	-5.373	15856	0	0	316
-10.999	-27.912	15856	0	0	316
-32.456	-43.599	15898	0	0	316
-45.907	-49.693	15932	3490	0	316
-43.238	-48.648	15974	9411	0	316
-28.128	-46.304	16025	15069	0	316
-8.907	-44.428	16059	20265	0	316
-4.868	-49.297	16110	25199	0	316
-24.450	-59.719	16165	29541	0	316
-59.106	-72.376	16215	32767	0	316
-87.919	-84.385	16270	32767	0	316
-95.961	-92.030	16321	32767	0	316
-89.181	-95.492	16376	32767	0	316
-81.789	-97.872	16426	32767	0	316
-89.758	-104.580	16477	32767	0	316
-109.340	-112.622	16519	32767	0	316
-129.895	-123.152	16582	32767	0	316
-135.088	-129.931	16625	32767	0	316
-122.142	-126.758	16667	32767	0	316
-101.983	-112.730	16701	32767	0	316
-88.604	-95.528	16730	32767	0	316
-94.374	-86.693	16773	32767	0	316
-119.546	-95.709	16815	32767	0	316
-149.405	-122.395	16836	32767	1	316
-172.990	-154.057	16870	32767	0	316
-188.100	-182.654	16857	31844	0	316
-198.125	-201.983	16828	24344	0	316
-214.281	-213.776	16764	13819	0	316
-229.823	-222.286	16701	5069	0	316
-235.052	-228.417	16658	0	0	316
-225.496	-228.020	16616	0	0	316
-203.282	-221.457	16595	0	0	316
-180.130	-209.160	16561	0	0	316
-162.459	-192.752	16553	0	0	316
-146.772	-170.465	16540	0	0	316
-128.561	-141.435	16532	0	0	316
-104.039	-107.825	16532	0	0	316
-78.579	-72.737	16540	0	0	316
-57.122	-46.268	16553	398	0	316
-42.157	-31.446	16561	2766	0	316
-33.105	-24.739	16574	5332	0	316
-20.772	-20.700	16561	6582	0	316
-4.868	-11.540	16510	4082	0	316
13.884	0.288	16447	0	0	316
30.941	10.278	16405	0	0	316
36.351	16.516	16376	0	0	316
29.787	20.844	16342	0	0	316
19.834	27.010	16334	0	0	316
18.031	34.547	16342	0	0	316
29.931	40.714	16355	3095	0	316
50.018	40.750	16355	6582	0	316
63.036	36.170	16355	9082	0	316
63.758	33.898	16300	7437	0	316
55.247	42.409	16236	2503	0	316
52.470	58.817	16186	0	0	316
61.053	77.065	16152	0	0	316
73.386	86.765	16143	1384	0	316
78.471	83.375	16143	3950	0	316
73.386	70.862	16131	6977	0	316
68.121	59.250	16143	10332	0	316
71.331	60.079	16152	13884	0	316
88.677	72.990	16173	17370	0	316
106.780	91.453	16194	20857	0	316
114.497	104.580	16236	24147	0	316
109.881	108.006	16249	27239	0	316
98.017	104.327	16279	30199	0	316
90.876	100.000	16313	32767	0	316
93.797	100.829	16342	32767	0	316
101.659	104.400	16376	32767	0	316
106.347	105.986	16413	32767	0	316
108.114	102.200	16447	32767	0	316
108.691	97.728	16468	32767	0	316
115.759	96.250	16434	32767	0	316
125.820	99.026	16392	28357	0	316
133.466	103.426	16363	22239	0	316
129.138	102.380	16342	19344	0	316
117.779	98.269	16334	18094	0	316
105.698	95.384	16334	17502	0	316
104.111	98.558	16334	17568	0	316
108.402	104.291	16342	18226	0	316
112.369	104.183	16363	19410	0	316
107.465	90.191	16384	20726	0	316
96.069	69.347	16405	22173	0	316
82.113	51.569	16426	23555	0	316
70.682	43.887	16455	24805	0	316
66.643	48.323	16477	25791	0	316
70.069	59.214	16510	26712	0	316
76.560	70.357	16532	27436	0	316
79.156	75.081	16561	28028	0	316
71.836	71.619	16582	28555	0	316
51.028	55.572	16616	28884	0	316
21.890	30.292	16646	28884	0	316
-3.714	6.960	16658	28423	0	316
-18.716	-8.763	16667	27831	0	316
-22.178	-18.320	16701	27239	0	316
-25.316	-27.155	16722	26449	0	316
-35.160	-43.383	16722	25791	0	316
-59.322	-72.160	16764	25199	0	316
-96.213	-105.445	16773	24541	0	316
-137.216	-132.708	16785	23620	0	316
-169.708	-154.995	16794	22699	0	316
-185.900	-169.419	16807	21712	0	316
-184.385	-178.219	16807	20528	0	316
-166.895	-181.428	16828	19147	0	316
-144.356	-174.252	16828	17831	0	316
-126.397	-152.470	16828	16778	0	316
-117.706	-122.935	16836	15924	0	316
-117.166	-93.256	16815	13490	0	316
-111.684	-74.035	16730	6911	0	316
-96.177	-65.453	16658	0	0	316
-67.328	-60.837	16582	0	0	316
-36.747	-54.526	16519	0	0	316
-18.283	-40.858	16477	0	0	316
-12.009	-24.666	16434	0	0	316
-8.943	-6.599	16413	0	0	316
6.311	13.920	16392	0	0	316
36.278	38.767	16384	0	0	316
69.852	67.328	16376	0	0	316
93.906	92.752	16376	0	0	316
97.259	107.681	16363	0	0	316
86.116	109.592	16300	0	0	316
76.560	106.563	16228	0	0	316
77.209	104.724	16173	0	0	316
90.732	108.871	16143	0	0	316
108.042	115.651	16101	0	0	316
119.329	115.182	16016	0	0	316
120.880	110.783	15932	0	0	316
114.497	104.580	15890	0	0	316
105.373	102.777	15847	0	0	316
97.043	105.950	15835	0	0	316
91.706	106.491	15826	0	0	316
84.674	100.325	15835	3621	0	316
75.730	84.529	15856	9608	0	316
62.279	63.830	15868	15595	0	316
44.248	44.284	15919	21384	0	316
25.640	31.085	15940	26910	0	316
13.884	26.325	15995	32041	0	316
9.340	28.020	16038	32767	0	316
12.045	28.453	16080	32767	0	316
15.867	26.686	16122	32767	0	316
15.687	18.283	16173	32767	0	316
9.773	10.097	16228	32767	0	316
5.517	8.222	16291	32767	0	316
2.921	9.232	16334	32767	0	316
1.298	9.809	16376	32767	0	316
-1.515	3.246	16392	32767	0	316
-7.825	-7.212	16376	32767	0	316
-12.333	-9.484	16342	32767	0	316
-8.078	-0.072	16321	32305	0	316
7.789	22.214	16300	28489	0	316
26.938	43.491	16300	26252	0	316
43.347	56.076	16300	25068	0	316
50.451	55.319	16313	24739	0	316
51.244	47.422	16342	24739	0	316
49.585	42.337	16363	25068	0	316
54.742	44.104	16363	24476	0	316
66.390	56.653	16321	20068	0	316
84.061	75.334	16270	12569	0	316
98.125	95.060	16228	6911	0	316
100.180	104.544	16207	4674	0	316
89.073	101.118	16207	4082	0	316
72.449	90.876	16186	4213	0	316
67.184	83.520	16173	5069	0	316
77.425	85.034	16186	6516	0	316
94.627	91.958	16194	8358	0	316
99.675	93.473	16186	9345	0	316
82.546	78.687	16122	5266	0	316
49.585	55.391	15983	0	0	316
19.113	32.889	15868	0	0	316
9.592	24.811	15784	0	0	316
21.349	28.345	15708	0	0	316
41.435	39.560	15687	0	0	316
56.437	47.277	15665	0	0	316
61.522	49.441	15657	0	0	316
59.358	46.989	15678	0	0	316
51.172	42.048	15699	1713	0	316
41.075	36.891	15750	9279	0	316
32.312	33.466	15805	16778	0	316
29.787	32.961	15868	24081	0	316
37.649	35.701	15911	30923	0	316
49.910	38.045	15995	32767	0	316
57.771	36.891	16059	32767	0	316
52.038	31.590	16122	32767	0	316
35.521	25.460	16194	32767	0	316
19.437	22.034	16270	32767	0	316
9.340	16.877	16334	32767	0	316
8.258	11.756	16392	32767	0	316
16.372	6.275	16455	32767	0	316
28.633	8.475	16519	32767	0	316
40.389	15.543	16553	32767	0	316
42.589	24.847	16540	32767	0	316
31.843	26.614	16498	32767	0	316
14.894	18.211	16477	32568	0	316
1.046	8.835	16468	27634	1	680
-0.180	6.599	16455	24410	0	680
9.412	14.281	16455	21844	0	680
18.067	22.503	16447	18949	0	680
21.096	24.053	16392	12963	0	680
17.995	20.014	16334	4477	0	680
8.006	11.864	16279	0	0	680
-1.010	2.236	16258	0	0	680
-7.285	-7.104	16236	0	0	680
-8.727	-14.425	16207	0	0	680
-0.757	-14.136	16152	0	0	680
10.963	-0.902	16088	0	0	680
21.349	19.149	16067	0	0	680
20.916	33.466	16025	0	0	680
8.222	26.001	16016	0	0	680
-12.297	1.082	16025	0	0	680
-31.626	-27.840	16038	0	0	680
-38.947	-40.966	16046	2766	0	680
-31.951	-35.918	16088	7898	0	680
-15.218	-20.736	16143	13029	0	680
-2.560	-9.773	16165	17897	0	680
-2.308	-14.858	16186	21318	0	680
-14.533	-27.299	16165	20397	0	680
-33.466	-38.803	16131	16121	0	680
-44.537	-43.347	16122	13292	0	680
-44.140	-40.894	16080	12306	0	680
-38.550	-37.000	15983	7437	0	680
-35.413	-37.937	15868	0	0	680
-39.235	-42.481	15729	0	0	680
-44.897	-47.313	15657	0	0	680
-46.232	-52.182	15581	0	0	680
-37.865	-53.228	15572	0	0	680
-27.515	-52.723	15572	0	0	680
-25.929	-52.038	15572	3	0	16376
1.479	-23.116	16376	16976	0	316
0.180	-17.418	16384	17041	0	316
-10.025	-12.333	16384	17173	0	316
-15.182	-13.631	16384	17502	0	316
-9.340	-18.536	16392	17897	0	316
1.983	-24.125	16392	18028	0	316
8.439	-31.085	16392	17962	0	316
-2.633	-36.459	16392	17831	0	316
-24.017	-41.760	16392	17568	0	316
-47.494	-47.422	16392	17173	0	316
-63.000	-53.588	16392	16712	0	316
-69.419	-60.296	16392	16384	0	316
-65.957	-67.184	16392	16187	0	316
-58.565	-70.465	16384	16056	0	316
-45.474	-66.534	16384	15924	0	316
-34.043	-57.158	16384	15727	0	316
-24.306	-48.467	16384	15529	0	316
-27.443	-48.107	16384	15463	0	316
-39.740	-55.247	16384	15463	0	316
-58.060	-68.301	16384	15398	0	316
-72.340	-76.415	16376	15332	0	316
-74.324	-76.956	16376	15266	0	316
-63.830	-71.439	16376	15266	0	316
-45.835	-65.525	16376	15332	0	316
-29.823	-59.358	16376	15529	0	316
-19.401	-51.316	16376	15792	0	316
-15.795	-40.786	16376	15924	0	316
-15.326	-30.797	16376	16187	0	316
-15.002	-27.371	16384	16712	0	316
-14.317	-31.843	16384	17239	0	316
-14.966	-39.668	16392	17568	0	316
-16.408	-44.969	16392	17765	0	316
-20.303	-42.265	16405	18160	0	316
-27.083	-37.468	16405	18357	0	316
-34.547	-38.478	16405	18226	0	316
-41.147	-45.438	16405	17962	0	316
-46.917	-58.420	16392	17634	0	316
-45.835	-68.915	16405	17370	0	316
-43.851	-72.449	16405	17107	0	316
-42.589	-68.338	16405	16844	0	316
-47.133	-60.548	16405	16581	0	316
-55.536	-53.841	16392	16384	0	316
-59.899	-51.172	16392	16121	0	316
-55.644	-51.929	16384	15792	0	316
-42.301	-54.850	16384	15332	0	316
-25.929	-57.771	16376	14871	0	316
-19.401	-58.637	16376	14542	0	316
-23.981	-56.726	16376	14411	0	316
-34.908	-53.336	16376	14477	0	316
-42.878	-47.818	16384	14740	0	316
-38.658	-40.245	16384	15003	0	316
-22.719	-29.066	16384	15266	0	316
-6.058	-17.923	16384	15595	0	316
-0.397	-13.776	16384	16187	0	316
-11.107	-16.949	16384	16515	0	316
-27.083	-25.929	16392	16712	0	316
-33.790	-31.626	16384	16844	0	316
-22.791	-27.047	16384	16976	0	316
-4.508	-21.168	16384	17041	0	316
5.085	-21.601	16384	16910	0	316
-3.173	-32.384	16384	16712	0	316
-23.080	-47.458	16384	16449	0	316
-38.226	-55.860	16384	16319	0	316
-39.740	-50.703	16376	16056	0	316
-31.699	-39.452	16384	15661	0	316
-20.988	-25.604	16376	15200	0	316
-11.648	-13.271	16376	14871	0	316
-3.137	-4.400	16363	14542	0	316
5.337	0.757	16355	14213	0	316
12.225	0.757	16363	13950	0	316
13.559	-3.606	16342	13884	0	316
8.979	-8.655	16342	14082	0	316
1.082	-9.376	16342	14279	0	316
-0.397	-7.970	16334	14411	0	316
7.681	-7.681	16334	14608	0	316
21.168	-5.986	16334	14806	0	316
29.499	-2.488	16334	14937	0	316
24.342	4.688	16334	15200	0	316
5.950	11.612	16321	15595	0	316
-15.651	9.196	16321	15924	0	316
-25.279	-0.974	16334	16253	0	316
-18.320	-14.677	16334	16449	0	316
3.534	-17.093	16334	16778	0	316
25.929	-3.787	16334	16976	0	316
40.462	14.461	16334	16976	0	316
43.310	25.893	16334	17107	0	316
36.423	21.421	16342	17502	0	316
25.568	6.852	16342	17765	0	316
23.621	-4.291	16342	17897	0	316
30.581	1.947	16342	17831	0	316
42.553	23.404	16342	17634	0	316
53.372	50.667	16334	17436	0	316
62.640	70.609	16334	17239	0	316
73.350	80.454	16355	16910	1	1016
90.227	83.628	16334	16581	0	1016
103.354	84.349	16334	16384	0	1016
105.734	86.008	16334	16384	0	1016
91.598	80.815	16334	16319	0	1016
69.708	71.259	16321	16187	0	1016
50.415	56.329	16321	16187	0	1016
40.750	44.609	16321	16319	0	1016
35.341	39.885	16321	16449	0	1016
29.643	41.543	16321	16844	0	1016
27.010	42.084	16342	17370	0	1016
29.030	36.459	16355	18028	0	1016
36.964	25.532	16355	18489	0	1016
42.661	13.631	16363	18949	0	1016
44.032	6.203	16376	19476	0	1016
39.704	8.835	16376	19805	0	1016
34.980	16.336	16384	20002	0	1016
33.321	23.909	16384	20134	0	1016
33.285	27.335	16392	20265	0	1016
33.682	26.181	16405	20265	0	1016
34.656	25.640	16405	20002	0	1016
39.452	29.968	16405	19673	0	1016
52.254	44.248	16413	19278	0	1016
75.658	66.066	16413	18818	0	1016
100.865	93.797	16413	18160	0	1016
120.014	117.346	16405	17436	0	1016
123.801	130.761	16392	16844	0	1016
110.674	130.617	16392	16384	0	1016
87.523	116.228	16392	15858	0	1016
68.157	95.168	16384	15266	0	1016
56.798	74.107	16384	14740	0	1016
54.562	57.771	16384	14411	0	1016
58.276	47.349	16384	14279	0	1016
67.544	44.861	16376	14213	0	1016
77.389	48.972	16376	14213	0	1016
82.330	55.031	16376	14279	0	1016
73.350	63.145	16376	14279	0	1016
52.434	60.656	16376	14345	0	1016
26.181	48.503	16376	14477	0	1016
7.645	25.135	16384	14674	0	1016
-0.469	0.288	16384	14806	0	1016
-4.039	-16.733	16384	14740	0	1016
-9.629	-21.637	16384	14674	0	1016
-19.257	-18.247	16376	14674	0	1016
-22.539	-16.841	16376	14608	0	1016
-13.523	-21.096	16363	14411	0	1016
4.039	-26.037	16363	14082	0	1016
18.680	-25.135	16355	13621	0	1016
17.166	-15.795	16342	13227	0	1016
-0.649	-6.419	16334	12963	0	1016
-23.260	-6.816	16334	12766	0	1016
-33.321	-17.743	16321	12700	0	1016
-27.732	-30.400	16313	12898	0	1016
-14.281	-35.774	16313	13227	0	1016
-9.520	-33.213	16313	13621	0	1016
-17.598	-33.502	16300	13950	0	1016
-35.629	-45.222	16321	14345	0	1016
-51.136	-65.200	16313	15003	0	1016
-60.548	-83.015	16313	15661	0	1016
-62.892	-87.595	16313	16253	0	1016
-60.079	-76.091	16321	16712	0	1016
-49.441	-59.502	16321	17239	0	1016
-33.718	-46.989	16321	17568	0	1016
-20.519	-45.907	16321	18028	0	1016
-19.834	-52.001	16334	18686	0	1016
-31.230	-59.286	16342	19476	0	1016
-47.602	-60.765	16355	20068	0	1016
-54.778	-57.952	16363	20660	0	1016
-50.270	-51.893	16376	21252	0	1016
-40.606	-46.268	16384	21647	0	1016
-33.898	-42.157	16384	21647	0	1016
-30.689	-40.822	16392	21384	0	1016
-25.929	-39.704	16392	20923	0	1016
-16.769	-40.930	16392	20462	0	1016
-8.258	-42.193	16392	19870	0	1016
-3.390	-43.491	16392	19147	0	1016
-6.131	-42.661	16392	18291	0	1016
-13.018	-41.219	16384	17436	0	1016
-18.211	-37.829	16384	16712	0	1016
-26.650	-37.468	16384	16253	1	316
-37.396	-40.209	16376	15924	0	316
-46.520	-48.467	16376	15858	0	316
-46.845	-55.247	16384	15924	0	316
-31.085	-57.807	16384	16056	0	316
-4.291	-50.162	16384	16056	0	316
16.625	-40.065	16384	16121	0	316
15.759	-35.557	16384	16253	0	316
-7.753	-37.649	16392	16515	0	316
-41.039	-40.966	16392	16778	0	316
-57.952	-38.695	16405	17107	0	316
-42.986	-26.974	16405	17305	0	316
-1.226	-11.720	16413	17502	0	316
43.527	1.046	16405	17765	0	316
63.505	4.364	16413	18094	0	316
48.107	0.469	16413	18291	0	316
10.061	-7.104	16426	18094	0	316
-24.847	-14.749	16426	17765	0	316
-36.423	-19.978	16426	17436	0	316
-23.512	-25.063	16426	17107	0	316
-4.327	-29.535	16426	16647	0	316
9.016	-37.036	16426	16253	0	316
6.022	-41.868	16426	15727	0	316
-7.609	-39.957	16413	15398	0	316
-22.358	-33.033	16413	15069	0	316
-32.780	-24.378	16413	14806	0	316
-33.069	-22.863	16405	14608	0	316
-21.637	-23.224	16413	14477	0	316
-0.216	-19.798	16413	14477	0	316
24.053	-8.943	16405	14477	0	316
36.531	4.255	16392	14345	0	316
33.754	11.612	16392	14279	0	316
15.759	5.517	16392	14213	0	316
-1.839	-5.013	16392	14148	0	316
-9.773	-13.127	16392	14279	0	316
-0.938	-11.143	16392	14608	0	316
16.480	-1.551	16392	14937	0	316
32.636	6.599	16392	15069	0	316
42.806	7.068	16392	15200	0	316
42.048	3.101	16392	15463	0	316
31.807	-2.705	16384	15529	0	316
17.274	-3.714	16384	15463	0	316
4.147	-0.938	16384	15529	0	316
0.072	5.265	16384	15661	0	316
4.003	5.626	16384	15792	0	316
8.402	-0.902	16384	15727	0	316
8.186	-13.271	16384	15529	0	316
0.541	-26.433	16376	15200	0	316
-3.931	-35.197	16376	14871	0	316
2.633	-32.708	16363	14542	0	316
14.605	-21.096	16355	14411	0	316
21.818	-7.645	16355	14411	0	316
16.480	-0.072	16355	14542	0	316
4.364	0.397	16363	14871	0	316
-1.623	-3.967	16363	15134	0	316
4.400	-7.681	16363	15332	0	316
13.631	-5.842	16355	15398	0	316
17.310	-2.128	16355	15595	0	316
13.307	2.596	16355	15858	0	316
8.655	4.364	16355	16319	0	316
8.294	7.393	16355	16778	0	316
12.730	8.655	16363	17436	0	316
16.949	11.504	16363	18094	0	316
18.283	12.550	16376	18884	0	316
23.188	14.461	16392	19936	0	316
28.922	14.749	16405	20923	0	316
33.682	13.992	16413	21581	0	316
33.538	9.412	16426	21976	0	316
26.794	3.210	16434	22107	0	316
18.356	-4.868	16434	21844	0	316
7.898	-10.891	16434	21252	0	316
-3.642	-14.281	16447	20594	0	316
-11.540	-13.091	16434	19870	0	316
-12.225	-10.278	16434	19081	0	316
-6.708	-8.078	16426	18226	0	316
1.262	-8.439	16426	17305	0	316
3.859	-10.386	16426	16449	0	316
2.524	-14.533	16413	15792	0	316
-1.587	-17.202	16413	15266	0	316
-3.462	-19.726	16413	14871	1	316
-1.479	-20.808	16405	14477	0	316
3.426	-18.067	16405	14016	0	316
10.674	-11.179	16392	13556	0	316
17.779	-0.577	16392	13095	0	316
15.002	4.580	16384	12963	0	316
-0.325	-0.685	16384	13161	0	316
-22.467	-17.995	16384	13490	0	316
-34.187	-37.432	16384	13556	0	316
-23.549	-45.258	16384	13753	0	316
1.262	-32.997	16376	14082	0	316
21.241	-7.789	16376	14148	0	316
19.077	17.346	16376	14279	0	316
-1.659	25.171	16376	14608	0	316
-24.847	15.254	16376	15200	0	316
-31.482	-6.311	16376	15595	0	316
-21.313	-21.565	16376	15792	0	316
-2.741	-24.919	16376	15858	0	316
11.251	-17.923	16376	15924	0	316
15.362	-10.278	16376	15792	0	316
13.487	-6.852	16376	15595	0	316
8.979	-8.258	16363	15398	0	316
8.186	-6.527	16363	15332	0	316
7.357	-0.469	16355	15266	0	316
8.006	9.088	16355	15200	0	316
6.671	14.425	16355	15266	0	316
7.681	10.602	16355	15266	0	316
9.917	1.262	16342	15332	0	316
18.320	-3.173	16342	15595	0	316
28.453	4.039	16342	15924	0	316
37.901	24.198	16342	16253	0	316
43.815	43.419	16355	16581	0	316
46.664	50.847	16376	16976	0	316
48.792	43.527	16363	17436	0	316
47.674	26.974	16376	17962	0	316
39.127	11.900	16376	18555	0	316
25.207	2.633	16384	19081	0	316
8.186	-4.327	16384	19344	0	316
-3.714	-11.360	16392	19607	0	316
-2.705	-16.841	16405	20002	0	316
7.393	-13.776	16392	20265	0	316
19.149	-3.498	16413	20397	0	316
25.712	7.140	16426	20462	0	316
24.125	11.323	16426	20331	0	316
16.697	4.472	16413	20002	0	316
8.402	-6.852	16413	19278	0	316
2.633	-13.848	16413	18423	0	316
2.849	-12.297	16413	17568	0	316
4.796	-5.914	16405	16844	0	316
8.655	1.154	16405	16384	0	316
13.776	3.714	16405	15924	0	316
16.877	4.652	16392	15463	0	316
23.044	5.662	16392	15200	0	316
30.112	6.960	16392	15134	0	316
36.639	8.727	16392	15003	0	316
38.695	10.350	16392	15003	0	316
36.855	13.920	16392	15134	0	316
30.617	19.041	16392	15266	0	316
25.856	27.227	16392	15463	0	316
25.063	30.653	16405	15661	0	316
31.590	29.210	16405	15990	0	316
38.514	22.647	16405	16121	0	316
43.960	15.651	16405	15990	0	316
40.966	15.398	16405	15792	0	316
31.987	23.404	16405	15595	0	316
25.135	34.331	16392	15266	0	316
22.142	40.353	16392	14937	0	316
27.551	36.170	16392	14806	0	316
33.718	23.440	16392	14806	0	316
36.206	10.025	16384	14740	0	316
32.636	3.678	16384	14542	0	316
25.929	5.301	16376	14279	0	316
20.880	12.261	16376	14148	0	316
21.962	17.310	16363	14016	0	316
28.273	21.926	16363	13884	0	316
36.242	24.558	16363	13950	0	316
39.416	28.092	16355	14082	0	316
35.774	29.823	16355	14345	0	316
24.955	26.181	16355	14608	0	316
11.684	20.195	16342	14674	0	316
3.246	12.802	16342	14674	0	316
5.373	6.491	16342	14806	0	316
16.841	5.734	16342	15200	0	316
31.374	3.282	16342	15727	0	316
37.505	0.469	16342	16384	0	316
28.669	-2.596	16355	17239	0	316
6.311	-2.236	16355	17962	0	316
-11.937	2.993	16376	18357	0	316
-14.569	10.927	16376	18752	0	316
-1.623	17.815	16384	19410	0	316
20.123	20.952	16392	20134	0	316
35.377	20.555	16405	20397	0	316
43.058	18.175	16405	20397	0	316
45.366	16.012	16405	20265	0	316
44.248	15.362	16405	19870	0	316
40.462	17.274	16405	19278	0	316
32.780	23.296	16392	18620	0	316
28.417	31.626	16392	17897	0	316
29.715	36.531	16392	17173	0	316
36.855	34.079	16384	16449	0	316
40.353	24.017	16384	15727	0	316
31.194	9.953	16376	15134	0	316
16.336	-3.750	16376	14806	0	316
2.092	-10.746	16363	14674	0	316
-4.868	-13.631	16363	14477	0	316
-7.609	-13.271	16355	14279	0	316
-7.645	-14.028	16355	14213	0	316
-9.088	-14.569	16363	14411	0	316
-9.520	-17.021	16363	14674	0	316
-9.160	-18.320	16363	15069	0	316
-9.917	-16.156	16384	15595	0	316
-13.307	-14.208	16376	16121	0	316
-13.523	-13.704	16376	16515	0	316
-11.215	-17.382	16384	16910	0	316
-8.042	-24.450	16384	17370	0	316
-8.114	-33.574	16392	17962	0	316
-13.956	-42.986	16392	18357	0	316
-18.175	-48.035	16392	18752	0	316
-18.031	-44.573	16405	19015	0	316
-15.543	-29.679	16413	18949	0	316
-15.218	-9.412	16413	18555	0	316
-19.113	3.498	16405	17962	0	316
-21.998	2.128	16392	17502	0	316
-20.231	-14.028	16392	16976	0	316
-13.487	-31.626	16392	16515	0	316
-6.635	-35.629	16392	16121	0	316
-5.626	-25.929	16384	15727	0	316
-6.383	-14.389	16384	15398	0	316
-4.940	-6.167	16376	14937	0	316
0.613	-4.760	16376	14345	0	316
4.111	-4.147	16363	13884	0	316
2.741	-4.364	16363	13556	0	316
-4.760	-5.806	16355	13424	0	316
-11.432	-11.648	16355	13292	0	316
-6.852	-15.759	16355	13292	0	316
4.796	-12.802	16363	13490	0	316
17.995	-2.885	16355	13819	0	316
23.729	5.193	16355	14213	0	316
17.346	4.796	16355	14806	0	316
5.013	-5.445	16355	15463	0	316
-5.950	-16.661	16355	16121	0	316
-8.006	-19.798	16363	16515	0	316
-1.154	-11.432	16363	16976	0	316
11.937	3.426	16363	17502	0	316
20.591	19.834	16376	17831	0	316
22.719	26.938	16376	18160	0	316
14.064	21.781	16384	18620	0	316
1.767	4.472	16384	19081	0	316
-6.239	-17.815	16392	19344	0	316
-5.914	-35.052	16392	19344	0	316
0.974	-35.846	16392	19147	0	316
7.789	-21.962	16392	18752	0	316
11.684	0.613	16392	18226	0	316
10.963	21.745	16392	17634	0	316
7.609	30.004	16384	17041	0	316
4.616	25.460	16384	16581	0	316
5.481	13.415	16384	16187	0	316
11.323	3.642	16384	15924	0	316
17.851	0.252	16376	15727	0	316
29.463	5.842	16376	15595	0	316
37.865	14.641	16376	15595	0	316
43.094	21.818	16376	15661	0	316
42.697	24.630	16376	15661	0	316
34.836	24.053	16376	15727	0	316
24.089	24.955	16376	15924	0	316
14.749	29.571	16376	16121	0	316
15.831	34.692	16376	16319	0	316
28.164	39.452	16384	16581	0	316
46.484	41.543	16392	17173	0	316
58.493	40.245	16392	17634	0	316
56.653	36.206	16392	17831	0	316
41.291	31.266	16405	17831	0	316
22.358	24.450	16405	17897	0	316
8.619	16.192	16405	17765	0	316
8.078	12.441	16405	17502	0	316
16.949	13.920	16405	17239	0	316
30.653	19.834	16405	17107	0	316
40.426	25.856	16405	17041	0	316
42.914	28.381	16405	16778	0	316
33.393	24.306	16405	16384	0	316
16.264	12.369	16405	16121	0	316
2.741	0.613	16405	15924	0	316
2.236	-3.029	16405	15727	0	316
21.493	5.878	16392	15398	0	316
45.186	23.621	16384	15069	0	316
57.266	38.947	16392	14937	0	316
48.431	41.255	16392	15003	0	316
30.833	30.545	16392	15134	0	316
21.601	19.690	16392	15266	0	316
29.751	16.552	16392	15727	0	316
41.327	21.926	16392	16253	0	316
38.983	26.037	16405	16581	0	316
21.060	21.890	16405	17041	0	316
2.560	10.855	16405	17634	0	316
2.308	1.623	16413	18094	0	316
16.949	-1.406	16413	18226	0	316
32.095	1.479	16426	18357	0	316
29.571	3.859	16426	18555	0	316
14.064	4.544	16434	18686	0	316
-1.118	2.380	16434	18489	0	316
-3.029	2.128	16434	18226	0	316
5.914	4.544	16434	17897	0	316
16.120	6.744	16434	17568	0	316
20.627	10.566	16434	17107	1	812
15.471	10.494	16434	16515	0	812
8.799	8.835	16434	15990	0	812
4.039	4.616	16426	15595	0	812
7.501	0.902	16413	15332	0	812
21.096	-0.757	16413	15134	0	812
36.603	2.560	16413	14871	0	812
49.621	10.999	16413	14740	0	812
49.333	22.431	16413	14740	0	812
39.560	32.744	16413	14871	0	812
28.164	41.039	16413	15069	0	812
28.994	46.232	16413	15332	0	812
43.779	50.270	16413	15463	0	812
67.508	52.398	16413	15463	0	812
82.618	53.985	16413	15595	0	812
80.202	51.208	16426	16056	0	812
57.735	45.402	16426	16449	0	812
30.869	39.488	16413	16712	0	812
18.103	37.829	16434	16712	0	812
26.433	46.989	16434	16647	0	812
48.864	61.630	16413	16384	0	812
69.239	78.868	16413	15990	0	812
75.514	89.578	16413	15661	0	812
69.888	88.749	16413	15463	0	812
64.623	78.615	16405	15266	0	812
65.020	64.443	16405	15134	0	812
72.449	53.083	16405	15069	0	812
75.947	48.467	16392	14871	0	812
72.773	50.884	16392	14674	0	812
63.613	59.935	16392	14411	0	812
55.211	68.518	16384	14213	0	812
52.903	72.196	16384	14148	0	812
53.805	67.147	16384	14279	0	812
54.706	56.545	16376	14542	0	812
54.706	43.202	16376	14806	0	812
54.454	35.016	16376	15069	0	812
54.706	28.994	16376	15529	0	812
49.189	20.808	16376	15924	0	812
33.898	7.248	16376	16187	0	812
11.756	-6.599	16384	16384	0	812
-12.153	-17.670	16384	16712	0	812
-27.732	-21.132	16384	17107	0	812
-31.518	-21.204	16384	17502	0	812
-27.948	-24.775	16392	17831	0	812
-24.125	-34.223	16392	18160	0	812
-22.106	-46.412	16392	18291	0	812
-26.614	-55.319	16405	18357	0	812
-35.701	-55.968	16405	18620	0	812
-44.176	-50.415	16413	18884	0	812
-45.078	-40.606	16413	18949	0	812
-36.387	-31.590	16413	18752	0	812
-23.188	-30.941	16413	18423	0	812
-15.903	-34.944	16413	17897	0	812
-19.437	-42.157	16413	17305	0	812
-30.364	-46.051	16405	16712	0	812
-39.704	-44.392	16405	16121	0	812
-44.248	-40.714	16392	15529	0	812
-45.366	-41.435	16392	15069	0	812
-45.330	-49.946	16384	14674	0	812
-46.123	-60.728	16384	14345	0	812
-44.501	-65.561	16376	14148	0	812
-37.685	-60.476	16376	14082	0	812
-28.922	-47.926	16363	14016	0	812
-22.358	-35.521	16363	13950	0	812
-18.536	-30.184	16363	14082	0	812
-20.988	-32.203	16363	14411	0	812
-24.991	-40.822	16363	14806	0	812
-27.804	-50.739	16363	15069	0	812
-23.909	-58.529	16363	15463	0	812
-16.805	-60.620	16363	15924	0	812
-14.353	-54.490	16363	16187	0	812
-20.627	-43.924	16363	16253	0	812
-33.285	-35.305	16363	16384	0	812
-43.563	-32.853	16363	16647	0	812
-40.894	-36.134	16363	16712	0	812
-29.679	-37.685	16363	16581	0	812
-19.329	-33.466	16355	16384	0	812
-18.608	-25.676	16355	16056	0	812
-23.621	-19.365	16342	15858	0	812
-23.729	-22.395	16342	15661	1	316
-12.658	-29.643	16334	15463	0	316
8.763	-32.744	16334	15200	0	316
26.506	-23.873	16355	15134	0	316
30.400	-4.472	16334	15266	0	316
17.057	13.523	16334	15463	0	316
-7.537	16.480	16334	15727	0	316
-32.780	1.911	16334	15990	0	316
-45.005	-21.637	16334	16121	0	316
-39.416	-38.262	16334	16187	0	316
-19.582	-40.353	16334	16449	0	316
1.695	-33.754	16334	17041	0	316
9.773	-27.263	16342	17634	0	316
-1.767	-27.948	16342	17962	0	316
-23.368	-32.600	16342	18423	0	316
-40.462	-34.944	16363	19015	0	316
-41.507	-32.853	16376	19344	0	316
-30.472	-27.696	16376	19410	0	316
-19.942	-22.178	16376	19410	0	316
-15.146	-16.048	16384	19476	0	316
-13.595	-11.179	16384	19541	0	316
-9.304	-7.032	16384	19476	0	316
0.433	-8.727	16392	19410	0	316
6.708	-11.937	16392	19410	0	316
8.943	-14.353	16405	19410	0	316
3.137	-13.920	16405	19212	0	316
-4.760	-12.297	16405	18949	0	316
-15.435	-17.562	16405	18620	0	316
-26.073	-29.463	16405	18226	0	316
-29.895	-40.101	16405	17831	0	316
-19.510	-37.468	16392	17305	0	316
6.239	-18.680	16392	16778	0	316
29.210	7.862	16392	16319	0	316
30.905	24.486	16392	15990	0	316
9.196	17.310	16392	15661	0	316
-24.125	-7.934	16392	15463	0	316
-47.458	-38.983	16392	15463	0	316
-52.398	-56.545	16392	15463	0	316
-39.524	-54.273	16392	15463	0	316
-21.168	-34.980	16392	15529	0	316
1.118	-8.943	16392	15792	0	316
24.378	11.792	16405	15990	0	316
37.000	22.899	16405	16056	0	316
34.295	20.014	16405	16187	0	316
13.559	8.583	16405	16187	0	316
-10.638	-2.705	16405	16056	0	316
-24.558	-10.386	16405	15792	0	316
-20.375	-7.789	16405	15595	0	316
-1.406	-1.010	16405	15661	0	316
15.759	3.859	16405	15792	0	316
23.657	2.416	16405	15792	0	316
18.788	-3.787	16405	15595	0	316
6.996	-9.340	16405	15332	0	316
-4.436	-11.648	16392	15134	0	316
-7.825	-9.881	16392	15003	0	316
-4.183	-7.140	16392	14937	0	316
0.649	-9.160	16392	14871	0	316
1.082	-13.379	16392	14871	0	316
-10.097	-19.834	16384	14871	0	316
-24.125	-28.777	16384	14740	0	316
-36.819	-38.334	16384	14477	0	316
-39.704	-45.258	16376	14411	0	316
-30.545	-44.284	16376	14411	0	316
-16.408	-31.771	16376	14411	0	316
-3.101	-15.507	16376	14674	0	316
2.128	-3.606	16376	15332	0	316
-1.298	-4.796	16376	15924	0	316
-12.261	-13.920	16384	16319	0	316
-20.916	-23.404	16384	16647	0	316
-24.378	-26.866	16384	17107	0	316
-22.899	-27.010	16384	17370	0	316
-18.860	-28.092	16392	17436	0	316
-16.336	-34.187	16392	17436	0	316
-18.103	-36.603	16392	17305	0	316
-21.277	-31.302	16384	16910	0	316
-24.486	-18.680	16384	16319	0	316
-23.404	-6.527	16376	15727	0	316
-18.933	-2.524	16363	15266	0	316
-13.343	-9.052	16363	14937	0	316
-8.871	-19.726	16355	14674	1	316
-10.566	-26.938	16355	14477	0	316
-17.995	-29.607	16342	14345	0	316
-28.056	-31.266	16342	14213	0	316
-38.154	-37.757	16334	14082	0	316
-40.642	-46.736	16321	13950	0	316
-37.829	-50.920	16321	13950	0	316
-28.886	-45.222	16321	14082	0	316
-19.437	-31.302	16313	14411	0	316
-13.163	-17.815	16321	14937	0	316
-10.350	-9.881	16334	15727	0	316
-7.934	-4.977	16334	16647	0	316
-4.219	-1.082	16342	17634	0	316
1.875	5.013	16342	18291	0	316
5.265	6.996	16355	18884	0	316
2.777	-0.108	16363	19344	0	316
-3.282	-12.477	16363	19673	0	316
-11.937	-25.099	16376	19936	0	316
-11.973	-28.741	16376	20199	0	316
-1.010	-23.080	16384	20331	0	316
18.788	-11.648	16384	20331	0	316
33.934	-1.767	16384	20068	0	316
33.177	1.226	16392	19607	0	316
11.323	-6.275	16384	19081	0	316
-20.339	-21.241	16384	18555	0	316
-43.130	-37.649	16384	18094	0	316
-48.143	-46.376	16384	17634	0	316
-37.000	-45.186	16384	17239	0	316
-25.604	-38.622	16384	16844	0	316
-27.119	-31.735	16384	16647	0	316
-42.517	-32.095	16384	16515	0	316
-64.623	-40.714	16384	16449	0	316
-78.796	-51.641	16384	16515	0	316
-75.766	-60.476	16392	16647	0	316
-60.043	-63.938	16392	16712	0	316
-40.065	-60.043	16392	16778	0	316
-30.689	-56.076	16392	16976	0	316
-36.928	-54.526	16405	17107	0	316
-54.093	-57.050	16405	17173	0	316
-67.905	-61.702	16413	17239	0	316
-69.383	-63.109	16413	17568	0	316
-57.158	-56.185	16426	17765	0	316
-41.327	-44.573	16426	17634	0	316
-32.239	-36.134	16426	17370	0	316
-36.855	-35.413	16426	17239	0	316
-52.182	-47.097	16426	16910	0	316
-68.229	-64.659	16426	16384	0	316
-76.235	-78.507	16426	15792	0	316
-73.855	-80.563	16405	15200	0	316
-63.397	-74.612	16405	14542	0	316
-52.506	-66.030	16392	13950	0	316
-47.818	-61.486	16384	13490	0	316
-49.369	-63.361	16384	13227	0	316
-53.552	-65.705	16376	13161	0	316
-56.545	-65.092	16376	13161	0	316
-53.444	-63.109	16376	13292	0	316
-45.222	-62.387	16363	13292	0	316
-36.026	-65.417	16363	13358	0	316
-29.715	-67.400	16363	13424	0	316
-28.092	-61.342	16363	13490	0	316
-28.597	-46.809	16363	13884	0	316
-29.427	-29.931	16363	14477	0	316
-31.518	-19.834	16376	15069	0	316
-37.072	-22.647	16376	15661	0	316
-45.691	-35.016	16384	16384	0	316
-51.244	-47.566	16384	17305	0	316
-49.657	-55.427	16392	17962	0	316
-41.255	-58.997	16392	18291	0	316
-33.321	-63.613	16405	18489	0	316
-33.141	-69.708	16405	18752	0	316
-42.734	-74.865	16405	18949	0	316
-56.221	-75.875	16413	18949	0	316
-65.597	-69.636	16405	18752	0	316
-71.583	-61.089	16405	18357	0	316
-73.242	-54.814	16392	17699	0	316
-71.475	-55.139	16392	16910	0	316
-66.138	-60.404	16384	16187	0	316
-56.870	-65.164	16376	15463	0	316
-44.861	-64.226	16376	14806	0	316
-36.387	-57.266	16363	14279	1	316
-35.665	-50.126	16355	13950	0	316
-42.337	-48.648	16355	13819	0	316
-51.136	-52.687	16363	13950	0	316
-56.545	-57.303	16363	14279	0	316
-55.211	-55.103	16363	14542	0	316
-47.674	-46.845	16363	15003	0	316
-36.711	-39.704	16363	15595	0	316
-24.234	-38.478	16363	16187	0	316
-14.317	-41.904	16376	16581	0	316
-12.117	-46.123	16376	17173	0	316
-22.395	-48.395	16384	17831	0	316
-41.976	-52.506	16384	18423	0	316
-60.043	-59.358	16392	18686	0	316
-70.285	-67.797	16392	18884	0	316
-68.013	-69.852	16405	19212	0	316
-61.486	-62.892	16405	19344	0	316
-55.752	-54.598	16413	19344	0	316
-53.444	-51.605	16413	19410	0	316
-51.424	-58.312	16426	19541	0	316
-50.090	-68.698	16413	19476	0	316
-49.730	-74.360	16426	19212	0	316
-50.018	-69.131	16426	18818	0	316
-48.143	-54.526	16426	18423	0	316
-39.488	-42.734	16426	18094	0	316
-31.482	-37.288	16426	17634	0	316
-27.768	-42.734	16426	16976	0	316
-30.472	-51.424	16413	16253	0	316
-34.692	-56.762	16413	15792	0	316
-35.233	-54.562	16413	15595	0	316
-29.174	-45.618	16413	15398	0	316
-27.010	-40.065	16413	15266	0	316
-31.662	-41.832	16413	15200	0	316
-45.114	-49.874	16405	14937	0	316
-54.454	-58.673	16392	14542	0	316
-53.588	-62.820	16405	14279	0	316
-42.625	-64.118	16405	14279	0	316
-31.626	-61.955	16392	14213	0	316
-30.256	-59.971	16392	14213	0	316
-37.973	-53.949	16392	14345	0	316
-44.645	-47.205	16392	14740	0	316
-43.924	-43.851	16384	15134	0	316
-36.134	-48.467	16392	15463	0	316
-33.177	-62.243	16392	15792	0	316
-40.750	-77.858	16392	16253	0	316
-54.382	-82.474	16392	16384	0	316
-61.053	-76.019	16392	16384	0	316
-53.913	-64.118	16392	16384	0	316
-37.649	-54.886	16392	16253	0	316
-23.404	-56.257	16392	16253	0	316
-19.906	-60.656	16392	16319	0	316
-25.316	-61.197	16392	16384	0	316
-32.456	-57.158	16392	16384	0	316
-34.367	-48.792	16392	16384	0	316
-31.446	-45.691	16392	16384	0	316
-28.597	-46.412	16392	16056	0	316
-25.063	-48.864	16384	15529	0	316
-23.116	-48.648	16384	15134	0	316
-17.454	-46.412	16376	14937	0	316
-11.648	-49.225	16376	14740	0	316
-9.520	-54.922	16376	14740	0	316
-17.923	-59.935	16376	14937	0	316
-33.213	-57.375	16376	15134	0	316
-47.205	-49.874	16363	15266	0	316
-50.559	-42.120	16376	15463	0	316
-39.812	-45.727	16376	15990	0	316
-22.719	-57.014	16376	16384	0	316
-9.665	-69.960	16376	16449	0	316
-5.481	-72.124	16376	16384	0	316
-12.946	-62.135	16376	16384	0	316
-23.693	-47.746	16363	16319	0	316
-32.853	-39.452	16376	16253	0	316
-37.396	-42.625	16376	15990	0	316
-35.124	-54.165	16363	15595	0	316
-26.614	-67.364	16363	15200	0	316
-16.444	-72.881	16363	14806	0	316
-10.530	-69.888	16342	14674	0	316
-12.333	-62.243	16342	14674	0	316
-21.493	-52.867	16342	14806	0	316
-32.528	-47.169	16342	15003	0	316
-39.380	-46.772	16334	15266	0	316
-36.928	-49.261	16334	15595	0	316
-28.273	-55.860	16334	15924	0	316
-20.952	-64.299	16334	16253	0	316
-16.949	-74.360	16334	16449	0	316
-21.385	-82.294	16342	16844	0	316
-28.489	-85.251	16342	17568	0	316
-35.305	-80.490	16355	18094	0	316
-38.911	-68.338	16363	18226	0	316
-39.704	-54.057	16363	18489	0	316
-40.462	-43.166	16376	18949	0	316
-41.183	-39.055	16376	19410	0	316
-36.891	-41.543	16384	19739	0	316
-25.640	-44.104	16384	19870	0	316
-8.330	-45.078	16392	20002	0	316
6.671	-42.445	16392	19870	0	316
6.563	-41.111	16392	19541	0	316
-9.160	-47.061	16392	19212	0	316
-31.049	-57.988	16392	18818	0	316
-45.258	-64.263	16392	18291	1	396
-35.377	-58.312	16392	17634	0	396
-5.121	-37.541	16392	17041	0	396
25.893	-13.199	16392	16581	0	396
39.308	1.551	16384	16253	0	396
24.378	-5.193	16384	15727	0	396
-6.744	-26.938	16376	15266	0	396
-33.970	-50.992	16376	14871	0	396
-43.310	-64.443	16376	14674	0	396
-35.449	-64.803	16376	14674	0	396
-25.027	-58.384	16376	14740	0	396
-21.060	-52.831	16376	14937	0	396
-21.313	-52.542	16376	15134	0	396
-20.159	-53.552	16376	15332	0	396
-11.612	-52.614	16376	15463	0	396
-2.560	-48.684	16376	15661	0	396
-2.560	-48.107	16376	16056	0	396
-12.694	-49.982	16376	16384	0	396
-26.938	-55.752	16376	16515	0	396
-31.807	-59.647	16384	16712	0	396
-20.195	-59.286	16384	16976	0	396
1.587	-55.536	16384	17107	0	396
22.827	-50.811	16384	17041	0	396
28.489	-46.051	16392	17173	0	396
20.555	-40.137	16392	17370	0	396
5.806	-31.771	16392	17436	0	396
-6.347	-25.640	16392	17239	0	396
-9.701	-24.378	16392	16910	0	396
-7.104	-31.194	16392	16515	0	396
-3.606	-43.635	16384	16187	0	396
-5.698	-53.841	16384	15924	0	396
-10.963	-57.880	16384	15858	0	396
-17.815	-57.303	16384	15727	0	396
-20.700	-55.680	16384	15661	0	396
-18.175	-58.673	16384	15595	0	396
-13.812	-61.305	16376	15463	0	396
-15.723	-63.938	16376	15398	0	396
-24.594	-61.305	16376	15398	0	396
-34.475	-57.411	16376	15463	0	396
-33.393	-53.732	16376	15529	0	396
-16.625	-53.444	16376	15727	0	396
9.412	-55.031	16376	16121	0	396
28.309	-55.211	16376	16253	0	396
28.273	-51.352	16376	16121	0	396
13.091	-45.582	16376	15990	0	396
-2.452	-41.291	16376	16056	0	396
-9.845	-45.366	16376	16121	0	396
-5.770	-52.398	16376	16056	0	396
-2.164	-61.089	16376	15990	0	396
-3.426	-61.161	16376	15990	0	396
-12.622	-52.470	16363	15924	0	396
-18.031	-43.419	16363	15727	0	396
-17.959	-41.652	16363	15463	0	396
-13.271	-46.592	16355	15134	0	396
-9.052	-54.778	16342	14806	0	396
-8.619	-57.699	16342	14345	0	396
-9.232	-54.742	16334	13950	0	396
-10.242	-50.595	16321	13687	0	396
-5.986	-49.802	16321	13753	0	396
2.056	-50.126	16334	14148	0	396
14.100	-45.186	16334	14477	0	396
25.063	-31.338	16321	14937	0	396
29.715	-15.723	16321	15398	0	396
25.532	-8.619	16321	15792	0	396
13.235	-16.697	16321	16121	0	396
0.180	-33.249	16334	16581	0	396
-5.373	-45.835	16334	17173	0	396
-3.895	-47.313	16334	17699	0	396
4.904	-36.314	16342	17962	0	396
14.245	-22.683	16342	18291	0	396
21.890	-13.848	16363	18949	0	396
25.784	-9.520	16376	19739	0	396
23.549	-12.297	16376	20265	0	396
15.651	-20.555	16384	20594	0	396
2.128	-31.590	16392	20726	0	396
-9.088	-43.527	16392	20726	0	396
-9.376	-51.388	16405	20594	0	396
0.793	-55.031	16405	20331	0	396
17.959	-53.877	16392	20068	0	396
28.092	-48.792	16405	19739	0	396
23.801	-39.596	16405	19278	1	320
10.674	-25.784	16405	18949	0	320
1.839	-15.398	16405	18620	0	320
7.573	-7.393	16413	18291	0	320
25.604	-8.042	16413	17831	0	320
39.272	-9.881	16405	17239	0	320
42.337	-9.701	16405	16647	0	320
31.699	-6.527	16405	16187	0	320
18.860	-6.022	16405	15792	0	320
8.619	-10.891	16405	15463	0	320
2.921	-25.171	16405	15463	0	320
-0.397	-36.928	16405	15595	0	320
0.541	-39.740	16405	15661	0	320
10.133	-24.522	16405	15529	0	320
26.686	-1.839	16405	15398	0	320
42.842	12.261	16405	15398	0	320
45.763	8.439	16413	15595	0	320
36.026	-11.684	16413	15727	0	320
16.805	-31.230	16413	15858	0	320
3.065	-35.882	16405	16056	0	320
1.226	-22.719	16426	16187	0	320
9.052	-3.101	16426	16056	0	320
20.231	9.340	16405	15792	0	320
21.673	7.465	16405	15595	0	320
13.884	-6.780	16405	15332	0	320
-1.190	-22.719	16405	15134	0	320
-12.405	-33.826	16405	14871	0	320
-13.163	-34.439	16392	14542	0	320
-3.678	-27.263	16392	14213	0	320
11.143	-18.824	16384	13950	0	320
20.988	-14.749	16384	13687	0	320
18.897	-16.516	16376	13490	0	320
8.547	-18.860	16376	13424	0	320
-0.433	-19.834	16363	13424	0	320
0.180	-17.454	16363	13424	0	320
11.684	-15.254	16363	13687	0	320
25.676	-17.995	16363	14148	0	320
27.840	-22.755	16363	14674	0	320
17.202	-28.886	16363	15003	0	320
-2.488	-31.771	16376	15332	0	320
-17.166	-33.357	16376	15727	0	320
-22.972	-36.459	16376	16121	0	320
-20.664	-43.491	16376	16384	0	320
-16.949	-50.739	16376	16778	0	320
-14.930	-57.266	16384	17239	0	320
-14.533	-58.709	16384	17502	0	320
-14.569	-54.201	16384	17699	0	320
-13.487	-47.494	16392	17962	0	320
-12.405	-39.380	16392	18291	0	320
-8.222	-34.980	16392	18423	0	320
-5.662	-34.079	16392	18160	0	320
-4.219	-35.665	16392	17831	0	320
-9.592	-37.468	16392	17370	0	320
-19.546	-39.344	16384	16844	0	320
-27.191	-38.009	16384	16319	0	320
-24.378	-37.216	16376	15858	0	320
-8.871	-35.810	16376	15727	0	320
10.819	-33.862	16376	15727	0	320
24.666	-29.427	16376	15792	0	320
25.207	-22.575	16363	15792	0	320
12.730	-14.136	16376	15792	0	320
-7.212	-10.422	16363	15858	0	320
-27.948	-16.264	16363	16056	0	320
-35.846	-29.210	16363	16253	0	320
-23.729	-40.570	16376	16449	0	320
4.472	-42.120	16376	16844	0	320
32.961	-36.531	16376	17041	0	320
39.235	-30.653	16376	17041	0	320
18.283	-30.869	16376	17107	0	320
-14.461	-36.423	16376	17239	0	320
-35.052	-36.819	16376	17239	0	320
-30.725	-28.092	16384	17370	0	320
-10.097	-16.048	16384	17634	0	320
10.314	-9.304	16384	17962	0	320
19.654	-10.386	16392	18160	0	320
18.103	-18.067	16392	18160	0	320
11.828	-27.912	16392	18028	0	320
2.705	-36.747	16392	17765	0	320
-6.347	-43.455	16392	17436	0	320
-14.821	-45.727	16392	17173	0	320
-17.743	-43.419	16392	16976	0	320
-14.028	-32.276	16392	16778	0	320
-4.580	-17.166	16392	16515	0	320
9.052	-4.688	16392	16384	0	320
21.926	1.659	16392	16253	0	320
30.617	-1.370	16392	16253	0	320
30.436	-9.520	16392	16253	0	320
22.358	-18.788	16384	16187	0	320
8.222	-22.791	16392	16253	0	320
-5.121	-22.431	16392	16384	0	320
-12.586	-22.431	16405	16712	0	320
-14.136	-23.296	16405	16778	0	320
-9.520	-26.217	16405	16647	0	320
0.649	-24.955	16392	16515	0	320
10.638	-19.329	16392	16515	0	320
19.473	-12.297	16392	16449	0	320
23.080	-5.626	16392	16319	0	320
21.385	-5.013	16392	16187	0	320
18.752	-6.744	16392	16253	0	320
19.365	-9.196	16392	16187	0	320
23.440	-14.317	16392	15924	0	320
29.823	-20.339	16384	15661	0	320
32.528	-24.558	16384	15398	0	320
25.063	-20.700	16384	15200	0	320
14.208	-7.970	16384	15069	0	320
2.993	11.684	16376	14871	0	320
1.587	25.748	16376	14806	0	320
12.441	25.532	16376	14740	0	320
24.775	12.766	16363	14740	0	320
32.456	-3.462	16363	14608	0	320
31.626	-15.254	16363	14542	0	320
26.217	-18.464	16376	14674	0	320
21.493	-16.949	16363	14937	0	320
16.372	-16.408	16363	14937	0	320
8.258	-15.002	16363	15003	0	320
1.334	-9.773	16376	15134	0	320
2.633	0.216	16363	15266	0	320
16.841	8.871	16355	15332	0	320
34.331	10.242	16355	15529	0	320
43.022	2.705	16355	15858	0	320
35.305	-6.167	16355	16121	0	320
22.827	-5.950	16355	16187	0	320
17.779	4.977	16355	16253	0	320
25.207	18.680	16355	16449	0	320
37.973	25.965	16355	16712	0	320
41.471	23.801	16363	16976	0	320
39.235	17.057	16363	17370	0	320
37.721	13.163	16363	17897	0	320
43.058	15.218	16376	18291	0	320
52.001	19.582	16376	18423	0	320
55.752	22.250	16376	18423	0	320
50.920	25.063	16376	18423	0	320
41.868	26.506	16384	18489	0	320
38.875	28.922	16384	18357	0	320
38.983	26.650	16384	18094	0	320
37.901	17.887	16384	17962	0	320
31.049	5.445	16384	17699	0	320
24.089	-4.327	16384	17502	0	320
21.854	-4.508	16384	17239	0	320
28.056	8.222	16384	17107	0	320
38.154	24.450	16384	17107	0	320
40.353	36.170	16384	17107	0	320
36.134	34.259	16384	16910	0	320
28.020	21.529	16384	16647	0	320
23.657	9.412	16384	16515	0	320
27.227	4.904	16384	16319	0	320
37.577	9.520	16384	16056	0	320
46.809	14.858	16384	16056	0	320
51.064	16.625	16384	16319	0	320
47.999	12.117	16384	16384	0	320
41.291	10.025	16384	16384	0	320
35.197	9.809	16384	16384	0	320
33.141	11.900	16384	16515	0	320
32.564	12.910	16392	16647	0	320
29.535	11.035	16392	16581	0	320
23.693	10.025	16392	16449	0	320
19.690	7.321	16392	16384	0	320
21.421	3.931	16384	16253	0	320
26.073	-1.298	16384	16056	0	320
30.040	-3.137	16384	15924	0	320
28.561	-0.902	16384	15727	0	320
21.493	3.282	16384	15595	0	320
13.127	2.236	16384	15661	0	320
7.609	-3.210	16384	15661	0	320
11.720	-8.114	16384	15595	0	320
22.142	-7.357	16384	15463	0	320
31.482	1.154	16376	15463	0	320
33.574	7.825	16376	15463	0	320
24.270	4.400	16376	15529	0	320
5.301	-8.691	16376	15858	0	320
-11.179	-23.585	16384	16056	0	320
-18.031	-30.184	16376	15990	0	320
-13.235	-24.270	16376	15661	0	320
2.272	-10.458	16376	15463	0	320
23.332	4.327	16363	15332	0	320
39.993	14.136	16363	15332	0	320
42.986	11.864	16363	15463	0	320
26.397	0.361	16363	15792	0	320
-4.580	-15.939	16363	16121	0	320
-29.787	-26.794	16384	16384	0	320
-35.413	-26.902	16384	16449	0	320
-18.752	-14.461	16384	16581	0	320
9.376	-1.406	16384	16712	0	320
29.499	4.364	16384	16581	0	320
33.574	0.577	16376	16384	0	320
26.073	-3.714	16376	16187	0	320
15.074	-3.173	16376	16253	0	320
9.232	1.154	16376	16319	0	320
6.491	2.236	16376	16187	0	320
7.248	-3.678	16363	15924	0	320
8.727	-11.864	16363	15858	0	320
12.477	-13.235	16363	15990	0	320
15.723	-8.475	16363	16187	0	320
18.608	-2.380	16376	16449	0	320
20.988	-2.596	16376	16844	0	320
22.791	-7.609	16376	17173	0	320
24.342	-13.740	16376	17173	0	320
23.188	-15.038	16376	17305	0	320
18.067	-11.251	16384	17502	0	320
8.330	-9.556	16384	17568	0	320
6.131	-7.212	16384	17436	0	320
12.297	-2.705	16384	17370	0	320
24.342	0.793	16384	17502	0	320
32.853	-0.613	16384	17634	0	320
25.712	-8.835	16392	17831	0	320
10.314	-19.005	16392	17897	0	320
-6.167	-22.250	16392	17831	0	320
-7.501	-11.035	16392	17699	0	320
2.524	4.364	16392	17502	0	320
16.372	13.487	16392	17173	0	320
22.358	9.917	16392	16844	1	840
21.926	0.072	16392	16712	0	840
23.729	-3.101	16392	16712	0	840
34.006	3.642	16392	16581	0	840
49.189	12.874	16392	16384	0	840
55.968	17.706	16392	16056	0	840
48.756	16.949	16392	15858	0	840
33.393	15.146	16392	15727	0	840
24.414	18.644	16392	15727	0	840
29.859	27.732	16392	15924	0	840
48.179	40.209	16392	15924	0	840
66.859	50.992	16392	15858	0	840
76.163	59.863	16392	15990	0	840
74.684	67.147	16384	16384	0	840
73.026	72.881	16392	16712	0	840
79.445	81.392	16392	16910	0	840
96.646	87.414	16392	17107	0	840
117.093	90.480	16405	17370	0	840
128.309	87.270	16405	17370	0	840
126.109	82.366	16405	17173	0	840
115.939	84.493	16405	16844	0	840
108.979	97.981	16405	16449	0	840
108.619	113.595	16392	16056	0	840
111.215	117.815	16392	15792	0	840
110.133	104.940	16392	15595	0	840
103.642	81.536	16392	15332	0	840
96.718	66.679	16384	15003	0	840
94.519	64.912	16384	14674	0	840
90.588	71.763	16376	14411	0	840
77.966	72.340	16376	14148	0	840
58.673	57.122	16376	14148	0	840
36.459	32.384	16363	14279	0	840
23.260	11.071	16363	14411	0	840
29.354	1.695	16363	14608	0	840
46.087	3.534	16363	14937	0	840
62.640	12.730	16363	15200	0	840
62.099	18.969	16363	15463	0	840
40.209	20.555	16363	15858	0	840
6.635	13.956	16376	16384	0	840
-17.598	1.803	16384	16910	0	840
-21.926	-13.127	16384	17239	0	840
-8.547	-25.965	16392	17568	0	840
6.419	-33.466	16384	17962	0	840
8.871	-37.829	16384	18226	0	840
1.695	-41.255	16392	18423	0	840
-9.845	-45.871	16392	18489	0	840
-16.589	-48.467	16405	18620	0	840
-20.627	-46.989	16405	18686	0	840
-26.830	-44.392	16405	18620	0	840
-37.613	-45.114	16405	18291	0	840
-47.638	-54.742	16405	17831	0	840
-53.083	-68.265	16405	17305	0	840
-51.677	-81.031	16405	16844	0	840
-47.962	-88.713	16392	16384	0	840
-47.277	-91.057	16392	15924	0	840
-53.372	-93.220	16384	15398	0	840
-61.053	-94.483	16384	14871	0	840
-64.515	-91.778	16376	14345	0	840
-57.339	-80.995	16376	13884	0	840
-39.524	-64.407	16363	13621	0	840
-19.834	-50.667	16355	13556	0	840
-6.888	-44.140	16355	13556	0	840
-9.340	-52.795	16355	13819	0	840
-24.847	-66.931	16355	14213	0	840
-46.989	-76.415	16355	14542	0	840
-60.151	-73.711	16363	14806	0	840
-56.870	-61.197	16363	15134	0	840
-38.478	-50.415	16363	15595	0	840
-16.985	-47.530	16363	15858	0	840
-6.888	-54.778	16363	15924	0	840
-12.405	-61.666	16363	16121	0	840
-28.237	-63.505	16363	16319	0	840
-41.507	-57.266	16363	16515	0	840
-44.681	-49.405	16363	16647	0	840
-34.728	-39.993	16355	16647	0	840
-17.454	-34.800	16355	16515	0	840
-3.642	-30.472	16355	16449	0	840
-0.974	-31.410	16355	16384	0	840
-8.042	-37.685	16355	16515	0	840
-18.320	-45.871	16355	16778	1	316
-20.447	-51.461	16355	17173	0	316
-11.973	-48.972	16355	17305	0	316
-0.036	-37.577	16355	17173	0	316
2.128	-21.781	16355	17041	0	316
-7.501	-13.740	16355	16910	0	316
-22.358	-14.749	16355	16844	0	316
-29.030	-23.512	16355	16647	0	316
-20.844	-31.085	16363	16581	0	316
-1.659	-29.535	16363	16778	0	316
15.002	-20.519	16363	16910	0	316
17.526	-15.795	16376	16910	0	316
3.606	-22.899	16363	17173	0	316
-15.218	-37.613	16376	17765	0	316
-24.883	-50.198	16376	18357	0	316
-17.598	-48.143	16384	18620	0	316
-2.272	-28.705	16384	18752	0	316
9.592	-4.580	16392	19015	0	316
11.468	10.963	16392	19081	0	316
6.058	10.133	16392	19081	0	316
3.606	-5.842	16392	18949	0	316
8.979	-22.178	16405	18752	0	316
14.353	-32.672	16405	18555	0	316
16.444	-33.862	16405	18160	0	316
10.458	-30.833	16405	17634	0	316
3.462	-25.820	16392	17107	0	316
1.515	-14.821	16392	16778	0	316
8.979	2.200	16392	16449	0	316
21.890	20.736	16384	16056	0	316
32.997	30.581	16384	15463	0	316
36.278	23.512	16384	14871	0	316
31.843	6.671	16376	14477	0	316
25.460	-7.717	16376	14213	0	316
23.188	-9.088	16376	14148	0	316
25.965	2.200	16376	14345	0	316
33.574	18.680	16376	14608	0	316
43.996	31.158	16376	14674	0	316
52.182	38.839	16376	14806	0	316
56.293	37.108	16384	15332	0	316
51.064	28.164	16384	15924	0	316
31.122	15.398	16384	16253	0	316
8.439	2.741	16392	16384	0	316
-6.671	-4.940	16392	16647	0	316
-2.092	-7.501	16392	16647	0	316
19.149	-7.357	16384	16384	0	316
42.229	-8.366	16384	15990	0	316
53.805	-7.104	16384	15661	0	316
48.215	-0.757	16376	15332	0	316
33.249	11.323	16376	14937	0	316
20.916	25.063	16363	14674	0	316
19.113	32.600	16363	14542	0	316
24.666	31.338	16376	14477	0	316
33.429	24.775	16355	14477	0	316
43.924	18.969	16355	14477	0	316
50.487	20.627	16355	14542	0	316
54.922	26.001	16355	14871	0	316
52.110	28.597	16355	15332	0	316
41.976	21.457	16355	15858	0	316
27.407	8.619	16363	16515	0	316
17.526	1.010	16363	17502	0	316
19.257	7.681	16376	18423	0	316
30.184	26.650	16384	19212	0	316
45.763	47.746	16392	19936	0	316
57.699	57.411	16405	20660	0	316
58.889	50.198	16413	21252	0	316
52.146	34.656	16426	21449	0	316
41.111	17.706	16434	21581	0	316
28.092	7.176	16447	21647	0	316
19.978	2.813	16447	21581	0	316
18.969	5.698	16455	21318	0	316
27.263	15.831	16455	21055	0	316
41.075	30.689	16468	20660	0	316
54.057	45.294	16468	20134	0	316
60.007	51.605	16468	19476	0	316
58.637	47.746	16468	18818	0	316
51.064	38.009	16468	18094	0	316
43.960	30.977	16468	17173	0	316
38.298	30.508	16455	16384	0	316
35.449	34.367	16455	15529	0	316
35.521	34.547	16447	14871	1	316
39.812	30.761	16447	14411	0	316
49.261	26.181	16447	14148	0	316
55.139	24.919	16447	13819	0	316
51.533	26.902	16434	13424	0	316
39.272	27.587	16434	13095	0	316
26.397	21.781	16426	12963	0	316
22.358	10.638	16426	12832	0	316
26.397	-0.721	16413	12898	0	316
32.131	-4.075	16413	13161	0	316
30.040	0.180	16413	13424	0	316
19.365	7.357	16413	13556	0	316
10.097	13.451	16413	13753	0	316
6.816	13.163	16413	14082	0	316
9.773	10.963	16413	14411	0	316
14.245	9.448	16413	14477	0	316
16.733	8.294	16413	14740	0	316
17.526	9.989	16413	15069	0	316
22.972	10.999	16413	15200	0	316
34.872	16.516	16413	15200	0	316
48.503	24.234	16413	15003	0	316
54.778	33.105	16405	14740	0	316
48.972	35.052	16405	14542	0	316
34.692	26.938	16392	14345	0	316
20.159	16.769	16392	14213	0	316
16.625	8.186	16384	14082	0	316
20.159	6.094	16384	14082	0	316
24.522	6.852	16376	14148	0	316
26.433	6.239	16376	14345	0	316
31.013	3.318	16376	14674	0	316
39.344	3.462	16376	15003	0	316
50.667	9.592	16376	15200	0	316
49.044	20.627	16363	15332	0	316
32.312	27.371	16363	15595	0	316
7.681	26.470	16376	16121	0	316
-5.157	17.706	16376	16581	0	316
4.868	6.924	16376	16910	0	316
27.191	0.865	16376	17173	0	316
43.202	-0.685	16376	17568	0	316
42.120	3.173	16376	17831	0	316
26.758	8.258	16376	17897	0	316
12.514	14.785	16384	17962	0	316
8.330	20.411	16384	18291	0	316
10.458	24.342	16384	18555	0	316
13.379	19.798	16384	18620	0	316
14.497	9.484	16384	18357	0	316
17.021	-2.092	16384	17897	0	316
19.906	-9.016	16384	17305	0	316
18.464	-10.097	16376	16778	0	316
10.674	-6.203	16376	16384	0	316
-0.505	-1.803	16363	15990	0	316
-5.950	-0.036	16363	15727	0	316
-2.669	-0.685	16355	15463	0	316
5.121	-3.354	16355	15134	0	316
7.357	-9.592	16355	15003	0	316
3.823	-13.091	16342	14937	0	316
-0.938	-14.858	16342	14806	0	316
-0.505	-13.199	16334	14608	0	316
1.695	-12.297	16334	14608	0	316
-1.010	-12.117	16342	14806	0	316
-10.783	-15.651	16342	15134	0	316
-21.277	-16.084	16334	15266	0	316
-22.575	-11.900	16334	15529	0	316
-8.042	-4.291	16334	16056	0	316
12.910	0.325	16342	16581	0	316
26.866	2.128	16342	16910	0	316
27.191	-2.452	16342	17107	0	316
15.326	-10.566	16342	17370	0	316
5.409	-12.838	16342	17436	0	316
2.741	-9.520	16342	17305	0	316
10.783	0.072	16342	17305	0	316
20.267	8.222	16342	17502	0	316
23.476	9.448	16355	17699	0	316
20.014	2.669	16355	17765	0	316
12.802	-8.186	16355	17699	0	316
8.114	-17.490	16355	17568	0	316
10.025	-19.834	16355	17370	0	316
17.057	-15.362	16355	17305	0	316
26.938	-4.147	16355	17107	0	316
35.413	10.169	16355	16910	0	316
37.577	23.080	16342	16581	0	316
32.420	26.289	16342	16319	0	316
22.683	19.690	16334	15924	0	316
12.910	8.150	16334	15529	0	316
9.629	0.144	16334	15332	0	316
13.199	3.750	16321	15332	0	316
21.313	14.461	16321	15398	0	316
26.902	24.919	16342	15661	0	316
29.859	30.220	16342	16384	0	316
33.285	27.587	16342	17107	0	316
42.986	24.162	16355	17765	0	316
59.322	23.693	16355	18160	0	316
76.668	30.833	16363	18423	0	316
84.493	42.878	16363	18489	0	316
81.212	56.473	16363	18423	0	316
71.908	68.734	16363	18357	0	316
64.912	74.648	16376	18423	0	316
69.455	74.721	16376	18555	0	316
79.048	71.619	16376	18555	0	316
82.618	67.905	16384	18489	0	316
77.605	63.613	16384	18423	0	316
67.508	58.060	16384	18357	0	316
63.469	53.913	16392	18291	0	316
71.150	51.136	16392	18094	0	316
80.851	53.660	16392	17831	0	316
83.267	60.945	16392	17502	0	316
74.288	64.803	16392	17239	0	316
61.991	64.948	16392	16910	0	316
56.653	62.315	16392	16515	0	316
61.918	62.892	16392	16253	0	316
71.836	69.780	16392	16121	0	316
75.875	78.110	16392	16056	0	316
73.567	81.067	16392	16253	0	316
67.328	74.324	16405	16581	0	316
63.361	62.604	16405	16910	0	316
64.551	53.155	16413	17173	0	316
72.485	54.418	16413	17370	0	316
83.375	64.731	16426	17634	0	316
93.184	78.651	16413	17765	0	316
96.141	88.893	16434	17634	0	316
92.030	88.785	16426	17568	0	316
81.753	79.986	16426	17436	0	316
69.383	65.020	16426	17107	0	316
60.151	52.795	16426	16515	0	316
56.365	49.044	16426	15990	0	316
58.745	52.831	16413	15529	0	316
65.705	60.440	16413	15134	0	316
69.492	64.551	16413	14740	0	316
68.878	62.423	16413	14411	0	316
59.250	57.122	16405	14082	0	316
48.936	54.490	16405	13687	0	316
47.313	55.932	16392	13358	0	316
58.673	61.125	16392	13161	0	316
77.750	60.837	16384	13029	0	316
93.833	55.680	16384	12963	0	316
97.944	46.700	16384	13161	0	316
87.018	39.163	16376	13424	0	316
67.003	37.216	16384	13884	0	316
44.645	37.613	16384	14674	0	316
27.587	41.183	16384	15463	0	316
20.303	40.930	16392	15990	0	316
25.352	38.839	16392	16384	0	316
40.498	34.259	16392	16778	0	316
55.716	29.463	16392	17041	0	316
65.236	26.686	16392	17041	0	316
59.971	28.669	16392	17041	0	316
47.205	34.872	16392	16910	0	316
32.600	39.560	16392	16515	0	316
26.794	39.524	16384	16056	0	316
28.741	36.855	16384	15529	0	316
34.800	33.249	16376	15134	0	316
39.235	31.446	16376	14740	0	316
40.570	32.564	16363	14542	0	316
39.776	31.049	16363	14345	0	316
37.685	27.912	16355	14213	0	316
34.547	24.522	16355	14345	0	316
30.797	27.443	16355	14608	0	316
26.001	32.961	16342	14871	0	316
22.034	40.281	16342	15134	0	316
18.103	43.166	16342	15463	0	316
15.687	37.901	16342	15661	0	316
18.283	30.040	16342	15727	0	316
25.856	25.099	16342	15924	0	316
38.045	23.873	16342	16384	0	316
46.376	26.830	16342	16976	0	316
48.684	30.328	16363	17568	0	316
42.012	30.364	16363	18094	0	316
34.295	27.443	16376	18686	0	316
26.073	26.397	16384	19278	0	316
21.709	27.335	16384	19739	0	316
20.087	28.886	16392	20068	0	316
21.457	32.276	16405	20397	0	316
25.893	36.170	16405	20528	0	316
31.374	38.658	16405	20265	0	316
34.331	38.334	16392	19607	0	316
35.521	36.819	16392	18949	0	316
37.288	33.754	16392	18226	0	316
37.288	31.158	16392	17502	1	708
33.754	31.158	16384	16712	0	708
22.431	30.545	16384	16121	0	708
5.590	25.496	16376	15529	0	708
-7.825	19.762	16376	15069	0	708
-9.556	13.704	16363	14674	0	708
2.236	8.114	16363	14477	0	708
11.937	4.183	16376	14411	0	708
7.609	-3.859	16363	14477	0	708
-12.946	-12.333	16363	14674	0	708
-33.682	-16.841	16376	15069	0	708
-35.341	-12.802	16384	15595	0	708
-14.785	-2.957	16376	16056	0	708
12.550	4.255	16376	16384	0	708
23.657	4.255	16384	16581	0	708
12.189	-3.426	16384	17107	0	708
-5.626	-12.874	16392	17502	0	708
-17.526	-13.415	16392	17634	0	708
-16.048	-6.744	16392	17897	0	708
-10.566	3.498	16405	18291	0	708
-7.465	8.619	16413	18620	0	708
-6.599	8.186	16413	18818	0	708
-5.986	5.481	16413	18949	0	708
-5.986	3.462	16426	19147	0	708
-12.514	2.344	16426	19278	0	708
-23.440	-0.793	16434	19344	0	708
-27.840	-10.025	16434	19278	0	708
-22.575	-18.680	16447	18949	0	708
-7.825	-22.395	16447	18489	0	708
5.301	-14.858	16447	18028	0	708
6.780	-0.685	16447	17568	0	708
0.180	11.937	16447	17107	0	708
-6.455	17.238	16447	16778	0	708
-6.131	12.225	16434	16581	0	708
4.508	2.596	16434	16384	0	708
16.444	-6.383	16434	15990	0	708
20.736	-7.789	16434	15463	0	708
11.215	-0.757	16426	14937	0	708
-6.671	11.792	16426	14345	0	708
-19.654	22.178	16426	14016	0	708
-18.392	26.578	16413	13819	0	708
-7.285	20.267	16413	13556	0	708
4.147	10.350	16413	13227	0	708
2.128	1.226	16405	13227	0	708
-7.970	-2.019	16405	13556	0	708
-12.982	-0.072	16405	13884	0	708
-3.967	3.246	16392	14016	0	708
18.211	6.888	16405	14213	0	708
37.901	8.475	16405	14674	0	708
41.507	13.235	16405	15003	0	708
31.338	18.897	16405	15200	0	708
16.733	25.316	16392	15200	0	708
13.199	30.761	16392	15003	0	708
22.322	33.826	16384	14674	0	708
33.790	35.413	16384	14477	0	708
35.521	36.603	16384	14411	0	708
23.801	37.396	16376	14345	0	708
6.852	36.242	16376	14345	0	708
-5.698	31.410	16363	14477	0	708
-7.140	24.450	16376	14542	0	708
-2.308	15.975	16376	14542	0	708
2.019	10.927	16376	14740	0	708
1.803	8.402	16376	15200	0	708
-3.642	8.439	16376	15792	0	708
-10.891	5.878	16376	16384	0	708
-18.788	3.137	16384	16778	0	708
-21.168	1.947	16376	17041	0	708
-17.959	5.409	16376	17173	0	708
-10.206	13.812	16376	17239	0	708
-3.426	20.411	16384	17436	0	708
-3.426	19.510	16384	17568	0	708
-5.986	12.730	16384	17634	0	708
-4.940	5.770	16384	17831	0	708
3.101	2.164	16384	18226	0	708
11.179	1.118	16392	18423	0	708
11.720	-2.813	16392	18489	0	708
0.397	-9.629	16392	18357	0	708
-11.468	-15.903	16384	18028	0	708
-11.792	-11.215	16392	17568	0	708
0.180	-0.865	16384	17107	0	708
11.504	6.960	16384	16712	0	708
7.248	2.993	16384	16384	0	708
-14.064	-14.136	16376	16121	0	708
-40.281	-32.239	16384	15792	0	708
-55.824	-40.678	16363	15332	0	708
-52.470	-38.370	16363	14740	0	708
-35.774	-31.266	16355	14345	0	708
-17.706	-24.522	16342	14213	0	708
-4.544	-23.585	16342	14148	0	708
-3.210	-23.116	16342	14279	0	708
-8.691	-21.890	16342	14542	0	708
-17.887	-23.512	16334	14871	0	708
-27.047	-25.640	16334	15069	0	708
-28.777	-29.931	16334	15463	0	708
-22.575	-28.237	16342	16056	0	708
-12.189	-21.601	16342	16515	0	708
-3.137	-12.550	16342	16910	0	708
-6.527	-7.104	16355	17173	0	708
-20.087	-12.441	16355	17370	0	708
-36.711	-23.801	16355	17370	0	708
-39.849	-33.538	16355	17305	0	708
-25.893	-36.495	16355	17239	0	708
-4.760	-33.898	16355	17239	0	708
4.724	-31.951	16355	17173	0	708
-6.311	-35.233	16355	17107	0	708
-29.931	-42.445	16355	16844	0	708
-47.710	-48.359	16342	16581	0	708
-48.864	-48.035	16342	16253	0	708
-39.957	-45.330	16334	15924	0	708
-32.095	-39.524	16334	15529	0	708
-32.384	-36.964	16321	15266	0	708
-38.947	-34.187	16321	15069	0	708
-44.032	-34.439	16321	15003	0	708
-44.537	-36.278	16334	15069	0	708
-39.957	-38.983	16321	15266	0	708
-33.249	-41.255	16321	15661	0	708
-26.253	-39.524	16321	16121	0	708
-17.202	-35.593	16321	16449	0	708
-10.710	-27.479	16334	16910	0	708
-7.609	-20.411	16334	17634	0	708
-3.714	-11.864	16342	18226	0	708
-1.623	-4.544	16342	18620	0	708
0.000	0.325	16355	18818	0	708
0.685	-1.659	16363	18949	0	708
-3.678	-7.681	16363	18884	0	708
-7.573	-15.615	16363	18620	0	708
-7.717	-21.060	16363	18423	0	708
-6.275	-21.168	16363	18423	0	708
-2.633	-16.877	16363	18226	0	708
-5.229	-15.146	16363	17831	0	708
-12.910	-17.454	16363	17370	0	708
-20.050	-24.378	16363	16976	0	708
-22.467	-30.184	16355	16581	0	708
-16.336	-31.518	16355	16319	0	708
-8.222	-25.820	16355	15990	0	708
-1.911	-14.208	16355	15792	0	708
1.010	-4.291	16355	15727	0	708
1.406	1.587	16355	15727	0	708
2.128	1.262	16342	15727	0	708
2.380	-3.823	16342	15727	0	708
4.472	-8.547	16355	15924	0	708
10.061	-9.592	16355	16121	0	708
18.067	-6.996	16355	16253	0	708
29.715	1.479	16355	16515	0	708
37.685	10.494	16363	17107	0	708
39.235	18.897	16376	17634	0	708
33.321	23.512	16384	18028	0	708
20.952	24.630	16392	18489	0	708
11.828	21.962	16392	18818	0	708
6.527	19.690	16392	18949	0	708
9.592	17.526	16392	18686	0	708
22.322	18.500	16392	18489	0	708
37.324	20.988	16405	18489	0	708
46.881	24.702	16405	18291	0	708
49.621	29.823	16405	17831	0	708
44.609	34.043	16392	17173	0	708
42.409	38.839	16392	16515	0	708
45.005	39.921	16392	15990	0	708
52.687	39.596	16384	15398	0	708
59.034	35.485	16384	14937	0	708
58.024	31.266	16384	14608	0	708
51.821	30.148	16376	14411	0	708
45.907	31.410	16376	14279	0	708
43.058	36.964	16376	14148	0	708
42.229	41.111	16376	14148	0	708
43.491	45.727	16363	14279	0	708
43.635	46.304	16363	14345	0	708
45.943	47.890	16363	14279	0	708
46.736	46.989	16363	14411	0	708
46.340	43.094	16363	14806	0	708
39.272	40.462	16376	15266	0	708
31.266	36.134	16384	15792	0	708
22.683	31.446	16384	16384	0	708
19.221	22.935	16392	17041	0	708
15.975	9.953	16392	17634	0	708
8.835	-3.678	16392	17765	0	708
0.541	-10.314	16392	17831	0	708
-4.940	-6.744	16392	17897	0	708
-1.190	6.094	16392	17765	0	708
13.992	21.962	16392	17436	0	708
32.961	35.233	16392	17041	0	708
42.950	41.868	16392	16778	0	708
39.199	40.678	16392	16581	0	708
25.207	28.561	16392	16449	0	708
8.402	10.566	16392	16384	0	708
1.911	-5.662	16392	16449	0	708
8.294	-10.422	16392	16647	0	708
23.945	-2.128	16392	16778	0	708
39.776	12.405	16392	16712	0	708
44.537	25.784	16405	16778	0	708
39.380	32.203	16405	16844	0	708
26.397	33.574	16405	16910	0	708
15.398	30.869	16405	16844	0	708
12.694	24.198	16405	16844	0	708
16.769	15.146	16413	16976	0	708
23.224	9.448	16413	17107	0	708
24.125	12.622	16413	16976	0	708
21.781	23.476	16413	16844	0	708
17.634	31.915	16413	16910	0	708
18.031	32.059	16413	16976	0	708
21.673	23.512	16426	17041	0	708
24.450	15.074	16426	17173	0	708
23.765	14.569	16434	17370	0	708
20.014	19.437	16434	17436	0	708
20.700	23.116	16426	17305	0	708
26.722	18.139	16426	17041	0	708
33.574	7.357	16426	16712	0	708
31.446	-6.419	16426	16384	0	708
15.651	-14.281	16426	16121	0	708
-6.780	-13.812	16426	15792	0	708
-23.801	-7.104	16413	15529	0	708
-23.657	3.859	16413	15266	0	708
-11.179	9.268	16413	14937	0	708
-0.649	7.357	16405	14411	0	708
-3.534	-3.534	16405	13884	0	708
-20.050	-17.887	16392	13490	0	708
-40.822	-29.138	16384	13227	0	708
-48.756	-35.593	16384	13095	0	708
-38.947	-38.118	16384	13095	0	708
-19.798	-39.308	16376	13358	0	708
-2.128	-38.911	16376	13753	0	708
3.282	-36.314	16376	14148	0	708
-1.442	-26.614	16376	14674	0	708
-12.694	-13.379	16384	15200	0	708
-19.437	-5.193	16384	15595	0	708
-24.522	-5.121	16384	15924	0	708
-28.561	-15.831	16384	16384	0	708
-37.937	-32.131	16384	16844	0	708
-50.559	-48.900	16392	17239	0	708
-59.863	-61.666	16392	17370	0	708
-58.529	-67.184	16392	17370	0	708
-43.274	-63.902	16392	17305	0	708
-22.214	-47.782	16392	17107	0	708
-8.799	-26.361	16384	16712	0	708
-8.042	-7.393	16384	16384	0	708
-17.129	-2.957	16384	16253	1	940
-24.991	-10.710	16376	16187	0	940
-21.781	-24.270	16376	16056	0	940
-14.569	-34.656	16376	15858	0	940
-12.297	-40.137	16376	15727	0	940
-23.837	-43.851	16363	15858	0	940
-43.310	-48.071	16363	15990	0	940
-55.536	-48.648	16363	16121	0	940
-55.608	-45.691	16363	16187	0	940
-42.409	-38.478	16363	16384	0	940
-32.528	-35.233	16363	16515	0	940
-30.256	-37.901	16376	16778	0	940
-35.593	-44.609	16376	17173	0	940
-40.029	-48.467	16376	17699	0	940
-39.163	-45.582	16384	18094	0	940
-34.079	-37.577	16384	18094	0	940
-31.446	-30.617	16384	17962	0	940
-28.958	-27.119	16384	17831	0	940
-27.047	-28.850	16384	17699	0	940
-26.073	-34.259	16384	17568	0	940
-29.102	-41.435	16392	17634	0	940
-41.003	-48.900	16392	17765	0	940
-54.382	-57.591	16392	17831	0	940
-61.342	-63.181	16392	17699	0	940
-52.867	-64.190	16392	17502	0	940
-35.088	-55.716	16392	17239	0	940
-20.339	-41.039	16392	16976	0	940
-21.096	-24.378	16392	16778	0	940
-33.898	-14.641	16392	16515	0	940
-47.458	-17.887	16392	16319	0	940
-47.674	-28.777	16392	16121	0	940
-31.987	-42.409	16384	15924	0	940
-14.569	-50.956	16384	15661	0	940
-9.953	-52.939	16384	15266	0	940
-19.221	-48.359	16376	15069	0	940
-31.410	-36.711	16376	15069	0	940
-29.066	-18.752	16376	15200	0	940
-9.304	-0.144	16376	15398	0	940
14.785	8.439	16376	15727	0	940
24.306	2.272	16384	16056	0	940
11.396	-15.110	16384	16319	0	940
-13.379	-32.961	16384	16581	0	940
-36.495	-38.731	16392	16976	0	940
-44.753	-32.925	16392	17239	0	940
-35.810	-23.260	16392	17370	0	940
-16.012	-16.697	16405	17568	0	940
7.573	-13.992	16405	17765	0	940
26.397	-14.281	16405	17831	0	940
29.679	-14.785	16405	17699	0	940
14.713	-14.064	16405	17370	0	940
-7.898	-15.615	16405	16910	0	940
-26.902	-18.969	16405	16515	0	940
-31.122	-23.224	16405	16187	0	940
-20.772	-29.246	16392	15924	0	940
-11.576	-31.735	16392	15595	0	940
-12.550	-33.033	16384	15398	0	940
-24.847	-31.879	16392	15266	0	940
-33.862	-29.931	16384	15069	0	940
-31.158	-26.758	16384	14806	0	940
-16.552	-25.207	16384	14740	0	940
-1.803	-23.981	16384	14871	0	940
0.649	-27.876	16384	15069	0	940
-12.586	-33.898	16384	15398	0	940
-29.174	-39.993	16384	15924	0	940
-35.269	-39.127	16384	16384	0	940
-26.902	-26.073	16392	16712	0	940
-8.114	-9.737	16392	16976	0	940
11.900	4.616	16405	17436	0	940
22.358	7.609	16405	18028	0	940
20.447	-0.180	16413	18291	0	940
9.845	-11.756	16405	18423	0	940
-5.950	-24.702	16413	18620	0	940
-22.611	-32.312	16413	18686	0	940
-33.826	-33.646	16413	18620	0	940
-34.800	-25.279	16426	18752	0	940
-21.060	-7.681	16434	19081	0	940
4.219	12.946	16434	19147	0	940
30.941	23.296	16447	18884	0	940
43.851	16.120	16447	18423	0	940
35.521	-2.921	16447	17897	0	940
12.333	-22.358	16447	17370	0	940
-10.314	-28.561	16447	16910	1	324
-19.654	-23.837	16426	16449	0	324
-13.704	-14.317	16426	16187	0	324
-1.947	-10.097	16426	15924	0	324
5.265	-6.852	16426	15661	0	324
8.943	-1.479	16426	15200	0	324
13.848	10.458	16413	14608	0	324
22.647	24.558	16413	14213	0	324
30.617	28.056	16413	14082	0	324
30.400	16.336	16413	14148	0	324
17.526	-3.498	16413	14279	0	324
2.993	-23.116	16413	14542	0	324
-3.823	-29.535	16413	14674	0	324
1.623	-21.313	16413	14674	0	324
13.704	-1.731	16413	14740	0	324
19.401	16.805	16405	14871	0	324
16.048	26.181	16392	14871	0	324
9.520	20.087	16405	14674	0	324
5.301	4.544	16405	14542	0	324
7.140	-10.494	16392	14411	0	324
7.537	-14.533	16392	14345	0	324
8.114	-2.777	16392	14345	0	324
9.556	15.146	16376	14411	0	324
16.372	26.686	16384	14411	0	324
25.568	27.191	16376	14345	0	324
31.194	22.106	16376	14148	0	324
32.528	17.202	16363	14016	0	324
31.302	17.959	16363	13819	0	324
31.843	20.664	16363	13884	0	324
36.134	22.467	16355	14148	0	324
41.471	24.378	16342	14345	0	324
47.782	32.456	16342	14477	0	324
56.473	46.051	16342	14740	0	324
67.075	60.188	16342	15134	0	324
75.983	67.797	16342	15529	0	324
77.822	67.075	16342	15990	0	324
71.295	63.217	16342	16515	0	324
55.824	57.555	16342	16844	0	324
36.026	51.388	16342	16976	0	324
16.012	40.930	16342	17107	0	324
7.465	24.522	16342	17305	0	324
11.323	9.701	16342	17305	0	324
24.739	2.957	16342	17173	0	324
34.836	10.278	16342	17239	0	324
35.665	26.073	16342	17436	0	324
31.194	41.399	16342	17568	0	324
31.338	47.530	16342	17634	0	324
40.101	43.058	16342	17699	0	324
49.116	33.898	16342	17634	0	324
47.818	27.876	16342	17436	0	324
32.816	27.515	16342	17107	0	324
15.290	31.662	16334	16712	0	324
4.508	32.203	16334	16384	0	324
7.934	27.732	16321	16253	0	324
19.365	21.998	16321	16187	0	324
36.711	18.860	16342	16056	0	324
51.785	24.919	16321	15924	0	324
63.253	33.429	16321	15792	0	324
68.698	42.229	16321	15792	0	324
64.443	45.871	16313	15792	0	324
53.480	42.734	16321	16121	0	324
41.652	37.721	16321	16647	0	324
36.206	36.855	16321	17305	0	324
37.685	39.127	16334	18028	0	324
41.507	39.163	16342	18686	0	324
42.337	33.646	16355	19278	0	324
34.223	19.473	16363	19607	0	324
21.457	1.226	16376	19805	0	324
12.117	-10.963	16376	20068	0	324
13.199	-11.504	16384	20265	0	324
22.286	-0.757	16384	20134	0	324
31.987	15.362	16384	19739	0	324
31.158	23.296	16384	19212	0	324
17.670	17.057	16384	18620	0	324
-4.219	-2.524	16384	18094	0	324
-21.745	-26.109	16384	17568	0	324
-31.518	-41.652	16384	17107	0	324
-25.388	-40.209	16384	16581	0	324
-9.881	-28.525	16376	16253	0	324
10.206	-14.894	16376	15990	1	316
23.080	-9.340	16376	15792	0	316
18.680	-12.333	16376	15661	0	316
-3.606	-20.159	16376	15595	0	316
-31.410	-29.391	16376	15792	0	316
-48.179	-38.190	16384	16121	0	316
-49.441	-43.058	16384	16449	0	316
-39.632	-46.376	16392	16778	0	316
-31.122	-46.953	16392	17041	0	316
-28.741	-47.999	16392	17107	0	316
-29.607	-47.494	16405	17370	0	316
-27.263	-47.313	16413	17831	0	316
-24.162	-46.340	16413	18226	0	316
-20.555	-43.527	16426	18357	0	316
-16.841	-41.147	16426	18489	0	316
-12.802	-40.642	16426	18620	0	316
-9.160	-40.317	16426	18423	0	316
-9.592	-41.183	16426	18028	0	316
-20.014	-41.435	16426	17502	0	316
-36.711	-43.202	16426	16976	0	316
-52.723	-47.386	16426	16384	0	316
-60.620	-51.929	16426	15792	0	316
-57.591	-59.322	16413	15134	0	316
-47.313	-65.957	16413	14411	0	316
-34.151	-68.698	16405	13819	0	316
-21.565	-63.866	16405	13424	0	316
-11.107	-52.506	16392	13161	0	316
-5.157	-39.740	16392	12898	0	316
-5.409	-31.518	16384	12634	0	316
-14.136	-30.689	16384	12503	0	316
-28.417	-35.449	16376	12503	0	316
-40.642	-40.245	16376	12832	0	316
-41.075	-41.976	16376	13424	0	316
-25.352	-38.622	16376	13950	0	316
0.649	-34.511	16376	14345	0	316
23.873	-25.712	16376	14740	0	316
32.997	-20.267	16384	15266	0	316
20.916	-17.851	16384	15727	0	316
-2.885	-21.313	16384	16121	0	316
-24.702	-26.397	16384	16581	0	316
-34.367	-28.741	16392	17173	0	316
-28.020	-24.522	16392	17699	0	316
-11.035	-19.473	16405	18094	0	316
4.940	-15.687	16405	18423	0	316
15.507	-15.038	16413	18686	0	316
19.221	-13.487	16413	18686	0	316
17.202	-11.828	16405	18555	0	316
10.710	-11.323	16413	18226	0	316
0.072	-13.018	16413	17765	0	316
-9.016	-16.697	16405	17239	0	316
-12.261	-15.507	16392	16778	0	316
-4.003	-7.032	16392	16384	0	316
14.605	3.967	16392	16121	0	316
36.928	11.756	16392	15924	0	316
50.811	14.641	16384	15792	0	316
50.451	15.398	16384	15529	0	316
34.872	11.684	16384	15200	0	316
14.136	6.527	16384	15069	0	316
-0.938	-3.246	16376	15003	0	316
0.000	-9.592	16376	14806	0	316
14.425	-8.799	16376	14674	0	316
34.547	3.029	16363	14608	0	316
49.044	17.310	16363	14608	0	316
49.189	27.227	16376	14674	0	316
38.839	26.470	16376	14871	0	316
22.106	22.503	16376	15200	0	316
9.953	20.736	16363	15398	0	316
11.323	26.073	16363	15398	0	316
26.506	35.052	16376	15332	0	316
52.831	41.435	16355	15200	0	316
76.343	42.373	16355	15200	0	316
86.621	38.514	16355	15398	0	316
78.651	34.187	16355	15661	0	316
58.529	28.417	16355	15858	0	316
36.855	26.181	16355	16056	0	316
24.378	23.404	16355	16121	0	316
20.952	22.358	16342	16187	0	316
25.279	21.277	16342	16187	0	316
27.984	19.690	16342	16384	0	316
32.420	19.149	16342	16515	0	316
37.649	19.077	16342	16647	0	316
41.219	21.673	16342	16844	0	316
40.822	24.702	16342	17041	0	316
34.439	25.604	16363	17305	0	316
27.335	25.099	16363	17568	0	316
26.758	22.358	16363	17831	0	316
33.646	20.627	16376	18226	0	316
42.625	20.664	16376	18686	0	316
47.205	21.854	16376	19015	0	316
45.114	21.781	16384	19278	0	316
39.668	22.899	16392	19805	0	316
36.531	22.106	16405	20068	0	316
31.085	19.870	16405	19936	0	316
24.306	14.605	16405	19673	0	316
17.346	11.251	16413	19607	0	316
17.779	11.396	16413	19607	0	316
28.417	18.752	16405	19344	1	384
44.645	29.246	16413	18949	0	384
57.735	38.045	16413	18423	0	384
60.260	39.091	16413	17831	0	384
54.273	31.266	16405	17107	0	384
40.570	19.654	16405	16319	0	384
27.515	9.701	16392	15463	0	384
13.163	3.426	16392	14806	0	384
4.147	-0.397	16384	14477	0	384
4.436	0.072	16384	14279	0	384
14.100	1.659	16384	14148	0	384
26.109	4.183	16376	14016	0	384
28.417	6.635	16376	14016	0	384
16.913	5.013	16376	14082	0	384
-2.705	0.505	16376	14411	0	384
-16.444	-5.229	16384	14937	0	384
-13.848	-8.619	16384	15463	0	384
2.741	-9.196	16384	15924	0	384
22.719	-6.852	16392	16384	0	384
38.118	-4.868	16405	17173	0	384
42.625	-6.383	16405	17765	0	384
36.891	-7.717	16413	17962	0	384
25.027	-9.701	16413	18094	0	384
9.520	-11.323	16426	18226	0	384
-10.638	-13.307	16426	18160	0	384
-31.626	-17.418	16426	17897	0	384
-51.352	-28.128	16426	17568	0	384
-61.450	-42.265	16426	17107	0	384
-52.290	-56.329	16413	16581	0	384
-25.965	-61.522	16413	15990	0	384
6.239	-56.185	16413	15463	0	384
24.162	-39.632	16405	15003	0	384
15.759	-20.159	16392	14674	0	384
-9.953	-5.373	16384	14345	0	384
-34.259	0.000	16384	13950	0	384
-42.048	-4.291	16376	13621	0	384
-31.951	-12.838	16376	13490	0	384
-17.238	-19.798	16376	13556	0	384
-9.412	-21.529	16376	13621	0	384
-8.186	-18.860	16376	14016	0	384
-7.104	-15.038	16384	14871	0	384
-2.488	-14.136	16384	15727	0	384
5.590	-15.254	16392	16384	0	384
12.946	-15.579	16392	16778	0	384
14.353	-11.648	16405	17239	0	384
13.631	-4.111	16392	17634	0	384
12.045	0.613	16392	17765	0	384
10.530	0.072	16405	17962	0	384
7.789	-7.862	16405	18094	0	384
6.996	-17.779	16405	18028	0	384
3.895	-20.916	16405	17765	0	384
0.974	-15.471	16405	17305	0	384
1.262	-4.652	16392	16647	0	384
7.068	5.193	16392	16121	0	384
19.690	6.924	16384	15727	0	384
35.052	3.137	16384	15398	0	384
41.868	0.685	16384	15134	0	384
37.360	1.479	16376	14937	0	384
24.053	5.121	16376	14871	0	384
14.821	11.179	16376	14937	0	384
20.339	19.437	16376	15003	0	384
36.711	32.456	16363	15069	0	384
52.903	47.962	16363	15134	0	384
60.765	60.260	16363	15134	0	384
54.706	60.404	16363	15200	0	384
44.248	50.775	16363	15398	0	384
36.423	36.242	16363	15595	0	384
33.610	26.325	16363	15595	0	384
35.124	21.060	16363	15595	0	384
37.216	17.887	16363	15792	0	384
38.731	15.398	16376	16121	0	384
39.668	15.507	16363	16319	0	384
39.488	17.382	16363	16515	0	384
37.505	20.772	16363	16712	0	384
34.367	24.162	16376	16976	0	384
32.744	26.325	16376	17239	0	384
35.088	30.040	16376	17634	0	384
39.957	37.108	16384	18028	0	384
43.455	44.392	16384	18226	0	384
44.825	49.549	16384	18160	0	384
46.232	50.487	16384	18028	0	384
54.598	48.756	16384	17831	0	384
70.862	49.477	16384	17634	0	384
86.657	56.870	16384	17370	0	384
93.112	69.347	16384	17107	0	384
86.657	83.700	16384	16844	0	384
71.403	95.384	16376	16647	0	384
61.738	96.105	16376	16515	0	384
62.928	86.801	16376	16449	0	384
68.013	71.655	16376	16515	0	384
70.682	53.949	16384	16647	0	384
62.892	42.265	16384	16910	0	384
47.386	37.288	16384	17041	0	384
29.931	35.918	16392	17305	0	384
20.844	34.620	16392	17765	0	384
19.113	30.508	16392	17962	0	384
20.988	17.923	16405	17962	0	384
18.464	2.236	16405	18094	0	384
4.940	-14.028	16413	18357	0	384
-19.221	-26.325	16413	18555	0	384
-42.734	-32.348	16413	18818	0	384
-53.624	-33.718	16434	19212	0	384
-44.537	-30.941	16434	19607	0	384
-25.352	-27.010	16434	19673	0	384
-10.927	-24.991	16447	19344	0	384
-13.559	-28.128	16447	18686	0	384
-27.191	-34.151	16447	17962	0	384
-41.543	-41.724	16434	17239	0	384
-47.458	-46.159	16434	16449	1	432
-49.802	-46.556	16434	15858	0	432
-54.814	-44.861	16426	15266	0	432
-63.000	-46.700	16426	14740	0	432
-61.053	-47.277	16426	14148	0	432
-37.973	-45.366	16413	13687	0	432
-4.688	-37.072	16405	13490	0	432
17.923	-25.135	16405	13424	0	432
9.845	-19.762	16392	13358	0	432
-23.657	-22.250	16392	13227	0	432
-59.538	-31.266	16392	13424	0	432
-74.504	-41.543	16392	13884	0	432
-63.541	-46.340	16392	14411	0	432
-40.065	-43.238	16392	14674	0	432
-21.962	-38.478	16392	14871	0	432
-19.257	-35.557	16392	15134	0	432
-31.122	-40.462	16405	15529	0	432
-50.523	-52.038	16405	15990	0	432
-65.453	-62.423	16405	16384	0	432
-64.371	-64.659	16413	16712	0	432
-45.979	-55.536	16413	16844	0	432
-20.483	-39.812	16413	16910	0	432
-5.445	-31.987	16413	17041	0	432
-10.314	-32.961	16413	17173	0	432
-26.361	-38.334	16413	17107	0	432
-35.665	-39.776	16413	16844	0	432
-29.535	-30.761	16413	16515	0	432
-14.821	-20.808	16413	16319	0	432
-8.258	-18.031	16413	16121	0	432
-17.093	-24.955	16392	15792	0	432
-34.944	-35.918	16405	15463	0	432
-44.320	-40.498	16405	15332	0	432
-38.514	-35.160	16405	15398	0	432
-22.791	-25.532	16405	15595	0	432
-7.248	-20.123	16392	15661	0	432
-4.472	-20.123	16392	15727	0	432
-10.097	-24.342	16392	15858	0	432
-20.952	-27.551	16384	15924	0	432
-26.217	-28.741	16384	15858	0	432
-22.935	-30.292	16392	16056	0	432
-13.523	-29.715	16392	16449	0	432
-0.541	-27.299	16392	16910	0	432
8.799	-16.949	16392	17041	0	432
12.153	-2.200	16405	17107	0	432
12.153	6.131	16405	17239	0	432
10.746	4.940	16405	17239	0	432
9.088	-3.534	16392	16844	0	432
10.025	-10.097	16392	16253	0	432
9.809	-7.321	16384	15529	0	432
12.622	4.472	16376	14806	0	432
18.933	18.031	16376	14345	0	432
26.506	25.316	16363	14082	0	432
32.095	23.368	16355	13819	0	432
26.397	16.012	16355	13424	0	432
15.543	8.511	16342	13029	0	432
3.570	2.596	16334	12634	0	432
3.065	4.616	16334	12371	0	432
11.035	9.629	16334	12437	0	432
22.395	16.192	16321	12898	0	432
27.696	20.195	16321	13490	0	432
28.814	21.096	16313	14082	0	432
30.653	21.709	16313	14608	0	432
38.226	23.404	16313	15069	0	432
50.090	27.768	16313	15463	0	432
56.473	32.456	16313	16056	0	432
54.093	35.449	16334	16844	0	432
43.960	36.711	16334	17765	0	432
34.079	38.478	16342	18555	0	432
29.968	38.911	16342	19212	0	432
31.771	40.642	16355	19805	0	432
38.154	38.586	16355	20199	0	432
41.435	36.026	16363	20397	0	432
42.517	33.898	16363	20528	0	432
41.724	33.033	16376	20791	0	432
40.894	32.600	16376	20923	0	432
42.301	31.446	16384	20660	0	432
39.957	24.522	16384	20134	0	432
31.482	17.490	16384	19541	0	432
22.178	11.900	16384	18949	0	432
17.454	10.242	16376	18423	1	316
24.594	13.018	16376	17831	0	316
38.839	18.139	16376	17107	0	316
48.179	20.231	16363	16515	0	316
44.537	18.824	16363	16253	0	316
27.587	14.533	16363	15990	0	316
11.035	10.530	16363	15727	0	316
4.111	9.845	16363	15661	0	316
11.828	14.425	16363	15727	0	316
29.318	22.719	16363	15990	0	316
45.618	27.479	16363	16187	0	316
52.939	29.318	16363	16384	0	316
48.503	26.181	16363	16515	0	316
35.269	24.739	16376	16647	0	316
22.863	23.224	16376	16712	0	316
14.966	22.755	16384	16844	0	316
16.552	23.116	16384	16778	0	316
24.558	21.998	16384	16581	0	316
35.665	20.555	16384	16581	0	316
46.195	21.277	16384	16647	0	316
51.388	21.421	16384	16581	0	316
48.395	16.192	16384	16384	0	316
35.737	8.402	16384	16121	0	316
21.637	1.731	16384	15727	0	316
13.379	3.823	16376	15266	0	316
16.841	17.238	16363	14740	0	316
29.679	35.665	16363	14345	0	316
41.688	44.501	16363	14082	0	316
45.041	37.036	16355	14082	0	316
39.091	17.129	16355	14148	0	316
26.866	-2.741	16342	14082	0	316
15.471	-8.871	16342	13819	0	316
7.212	-6.131	16334	13687	0	316
1.551	-1.839	16334	13819	0	316
-0.505	-4.580	16334	14082	0	316
2.200	-14.353	16334	14477	0	316
12.622	-22.142	16334	15134	0	316
23.440	-21.601	16334	15924	0	316
29.282	-13.379	16342	16449	0	316
24.270	-2.452	16342	17107	0	316
8.186	5.301	16355	17699	0	316
-9.016	7.212	16363	17962	0	316
-20.772	1.983	16363	17831	0	316
-21.926	-8.619	16363	17831	0	316
-18.211	-19.618	16363	17897	0	316
-15.651	-30.004	16363	17897	0	316
-18.320	-32.853	16363	17765	0	316
-24.955	-30.256	16363	17502	0	316
-29.210	-26.830	16355	17107	0	316
-23.080	-24.883	16355	16712	0	316
-9.160	-29.931	16355	16515	0	316
3.787	-38.118	16355	16384	0	316
9.376	-41.219	16342	16384	0	316
1.911	-35.449	16342	16384	0	316
-8.366	-22.827	16342	16449	0	316
-10.674	-9.052	16342	16449	0	316
-2.236	-2.633	16342	16384	0	316
7.789	-5.517	16342	16384	0	316
9.124	-14.894	16342	16384	0	316
-2.560	-22.935	16355	16384	0	316
-16.444	-26.902	16363	16384	0	316
-23.837	-23.837	16355	16449	0	316
-16.625	-13.379	16355	16581	0	316
-5.481	-1.479	16355	16647	0	316
0.829	4.183	16355	16844	0	316
-6.455	-5.337	16363	17173	0	316
-19.510	-25.316	16363	17568	0	316
-35.737	-46.376	16376	17962	0	316
-43.166	-56.473	16376	18423	0	316
-41.940	-51.208	16384	18949	0	316
-34.908	-38.082	16392	19212	0	316
-26.794	-28.020	16392	19212	0	316
-21.204	-26.073	16405	19344	0	316
-16.985	-32.600	16413	19607	0	316
-13.704	-40.786	16413	19805	0	316
-12.297	-45.150	16426	19739	0	316
-12.946	-44.212	16426	19476	0	316
-19.005	-35.052	16426	19278	0	316
-24.919	-25.424	16434	19147	0	316
-27.407	-19.654	16434	18949	0	316
-21.204	-16.805	16434	18489	0	316
-8.330	-14.136	16434	17765	0	316
4.147	-6.311	16434	17173	0	316
13.091	2.957	16434	16647	0	316
12.946	6.780	16434	16253	0	316
3.931	-1.983	16434	15924	0	316
-6.599	-16.156	16434	15727	0	316
-12.838	-24.342	16434	15595	0	316
-10.891	-16.336	16434	15463	0	316
1.442	4.111	16434	15398	0	316
17.382	25.929	16434	15398	0	316
30.148	34.006	16426	15200	0	316
33.538	25.243	16426	14740	0	316
23.945	5.013	16413	14279	0	316
3.787	-15.615	16413	13950	0	316
-14.930	-27.371	16413	13819	0	316
-21.168	-25.676	16413	13687	0	316
-7.681	-14.821	16405	13753	0	316
20.772	2.200	16405	13884	0	316
45.258	16.913	16405	14016	0	316
51.497	26.325	16405	14082	0	316
39.524	28.453	16405	14148	0	316
20.231	23.512	16405	14082	0	316
10.169	18.175	16392	13753	0	316
15.615	17.923	16384	13292	0	316
30.869	23.621	16376	12898	0	316
46.520	34.439	16376	12569	0	316
55.427	41.652	16363	12306	0	316
57.843	42.373	16355	12174	0	316
59.827	42.734	16342	12042	0	316
66.174	47.097	16334	11977	0	316
75.875	60.584	16334	12108	0	316
87.198	78.687	16321	12503	0	316
90.516	89.290	16321	13161	0	316
81.608	86.549	16321	14016	0	316
66.895	76.560	16334	15069	0	316
58.096	66.354	16342	15990	0	316
66.859	65.308	16342	16778	0	316
93.256	71.619	16355	17634	0	316
118.320	73.747	16355	18357	0	316
122.322	65.705	16355	18752	0	316
100.252	50.307	16363	18949	0	316
65.597	39.199	16363	19278	0	316
39.668	37.901	16376	19739	0	316
34.331	46.917	16376	20199	0	316
43.491	52.723	16384	20397	0	316
51.785	50.956	16384	20397	0	316
52.831	41.652	16384	20134	0	316
49.441	30.328	16384	19673	0	316
46.772	24.739	16384	19212	0	316
43.166	20.844	16384	18620	0	316
37.144	19.041	16376	18028	1	524
22.972	14.064	16376	17568	0	524
5.049	6.491	16376	17239	0	524
-11.360	0.649	16376	16976	0	524
-22.575	-6.383	16376	16712	0	524
-25.856	-13.091	16376	16515	0	524
-21.132	-18.897	16376	16515	0	524
-11.360	-23.549	16376	16581	0	524
-3.823	-28.453	16376	16778	0	524
-8.006	-33.970	16384	17173	0	524
-25.748	-43.058	16384	17502	0	524
-47.313	-53.264	16384	17699	0	524
-59.322	-64.695	16392	17831	0	524
-53.011	-67.652	16392	18160	0	524
-37.901	-64.407	16405	18423	0	524
-28.345	-57.050	16405	18555	0	524
-32.131	-49.766	16413	18489	0	524
-44.537	-46.809	16413	18291	0	524
-51.893	-44.501	16413	17831	0	524
-46.953	-44.320	16413	17436	0	524
-33.610	-42.553	16413	17041	0	524
-25.712	-42.517	16413	16515	0	524
-26.506	-42.625	16405	15990	0	524
-32.456	-43.274	16405	15332	0	524
-36.891	-40.462	16392	14871	0	524
-34.115	-38.082	16392	14477	0	524
-25.027	-36.891	16392	14213	0	524
-16.480	-38.839	16384	14016	0	524
-12.441	-42.661	16384	13950	0	524
-14.353	-41.507	16384	14016	0	524
-20.411	-35.701	16384	14148	0	524
-27.371	-29.210	16384	14279	0	524
-32.744	-27.010	16376	14345	0	524
-34.944	-31.122	16376	14477	0	524
-33.105	-37.541	16384	14871	0	524
-29.030	-40.534	16384	15266	0	524
-24.089	-36.891	16384	15595	0	524
-19.654	-34.187	16384	15924	0	524
-18.969	-37.180	16384	16384	0	524
-25.135	-43.166	16392	16910	0	524
-34.800	-49.802	16392	17107	0	524
-41.507	-49.044	16392	17305	0	524
-40.642	-45.005	16405	17568	0	524
-34.223	-39.272	16405	17962	0	524
-23.368	-32.672	16413	18357	0	524
-17.310	-25.207	16413	18620	0	524
-14.461	-15.398	16413	18752	0	524
-9.953	-6.167	16413	18620	0	524
-4.400	-1.370	16413	18423	0	524
2.669	-3.282	16413	18028	0	524
5.481	-6.239	16413	17502	0	524
3.354	-8.042	16413	16910	0	524
0.397	-6.996	16405	16319	0	524
-2.921	-6.708	16405	15792	0	524
-7.753	-10.674	16405	15398	0	524
-13.343	-15.579	16392	15200	0	524
-17.634	-21.241	16392	15134	0	524
-12.405	-23.512	16392	15003	0	524
1.587	-20.664	16392	14674	0	524
15.254	-15.146	16384	14477	0	524
14.930	-8.727	16384	14345	0	524
-0.180	-2.308	16384	14411	0	524
-17.923	1.046	16384	14740	0	524
-24.198	-0.288	16384	15266	0	524
-12.982	-3.354	16392	15858	0	524
5.842	-6.960	16392	16253	0	524
23.080	-4.688	16392	16581	0	524
30.797	1.010	16405	16910	0	524
31.013	7.934	16405	17041	0	524
28.597	11.612	16405	16844	0	524
22.647	12.261	16405	16778	0	524
16.048	11.973	16405	16844	0	524
11.287	14.821	16405	16844	0	524
10.278	18.392	16392	16581	0	524
13.451	26.758	16392	16187	0	524
20.519	32.528	16392	15661	0	524
26.217	35.088	16384	15200	0	524
25.893	30.905	16376	14806	0	524
20.700	18.680	16376	14411	0	524
19.942	3.462	16363	14016	0	524
29.282	0.288	16363	13884	0	524
49.189	13.018	16355	13884	0	524
68.806	37.721	16355	13753	0	524
72.196	58.745	16342	13621	0	524
57.519	63.722	16342	13687	0	524
35.413	50.234	16334	14016	0	524
21.601	33.177	16334	14542	0	524
26.902	22.611	16334	15069	0	524
39.524	27.155	16334	15595	0	524
52.074	35.233	16334	15990	0	524
54.021	39.849	16334	16187	0	524
46.340	37.973	16342	16449	0	524
35.593	29.823	16355	16976	0	524
30.040	25.063	16355	17305	0	524
32.239	28.994	16355	17568	0	524
39.272	34.475	16355	17897	0	524
42.409	39.308	16363	18226	0	524
38.190	32.672	16363	18357	0	524
27.479	15.074	16363	18160	0	524
17.706	-2.019	16355	17831	0	524
16.264	-5.734	16355	17502	0	524
20.988	4.904	16355	17107	0	524
24.811	25.099	16342	16778	0	524
26.253	38.478	16342	16384	0	524
26.397	37.865	16334	15858	0	524
29.427	27.227	16334	15463	0	524
35.088	16.480	16321	15200	0	524
36.711	13.091	16313	15003	0	524
33.177	14.605	16334	14937	0	524
26.722	17.274	16321	15003	0	524
24.811	18.392	16313	15134	0	524
27.948	17.887	16313	15332	0	524
33.790	18.860	16321	15858	0	524
36.423	24.089	16321	16647	0	524
34.547	30.761	16334	17436	0	524
31.987	37.865	16334	18028	0	524
27.227	41.111	16342	18620	0	524
23.765	37.901	16363	19344	0	524
19.978	30.508	16363	19936	0	524
21.168	21.385	16376	20331	0	524
28.705	15.903	16384	20660	0	524
40.930	10.891	16392	20923	0	524
47.854	8.114	16392	20857	0	524
43.419	4.436	16405	20462	0	524
29.571	4.652	16405	20002	0	524
16.192	9.268	16392	19476	0	524
11.035	16.913	16392	18818	1	504
13.235	20.916	16392	18094	0	504
15.615	17.418	16384	17305	0	504
13.163	10.783	16384	16581	0	504
8.150	5.554	16376	15924	0	504
8.402	7.393	16376	15266	0	504
19.618	15.795	16363	14608	0	504
34.079	25.893	16376	14148	0	504
45.871	32.961	16363	13819	0	504
43.274	34.439	16363	13753	0	504
29.427	28.201	16363	13884	0	504
13.956	20.880	16363	14213	0	504
5.481	13.848	16363	14806	0	504
11.792	13.235	16376	15529	0	504
28.669	16.444	16376	16253	0	504
42.157	19.510	16384	16844	0	504
42.950	19.077	16392	17568	0	504
28.381	16.084	16405	18028	0	504
9.124	13.668	16405	18357	0	504
-5.481	12.081	16413	18686	0	504
-3.462	11.504	16426	18949	0	504
12.910	9.917	16426	19015	0	504
35.016	8.294	16413	18752	0	504
51.280	12.946	16413	18357	0	504
56.004	22.142	16426	17962	0	504
50.054	35.593	16426	17634	0	504
42.229	47.061	16426	17370	0	504
39.849	52.074	16426	17041	0	504
41.507	49.153	16426	16712	0	504
40.209	40.462	16426	16253	0	504
26.145	27.335	16413	15661	0	504
5.265	14.677	16413	15003	0	504
-12.405	6.491	16405	14477	0	504
-19.690	1.479	16405	14016	0	504
-17.815	-0.685	16392	13621	0	504
-16.661	-3.895	16392	13358	0	504
-18.500	-9.124	16384	13161	0	504
-20.447	-14.208	16384	13161	0	504
-15.831	-16.156	16376	13161	0	504
-5.950	-14.785	16376	13095	0	504
-1.875	-13.379	16376	13292	0	504
-11.864	-18.392	16376	13753	0	504
-33.826	-27.840	16376	14082	0	504
-53.732	-40.101	16363	14082	0	504
-58.961	-48.107	16363	14279	0	504
-44.789	-51.100	16363	14608	0	504
-22.503	-46.953	16363	14871	0	504
-8.186	-40.426	16363	15069	0	504
-9.737	-33.610	16363	15266	0	504
-22.322	-31.662	16363	15529	0	504
-32.997	-32.672	16355	15727	0	504
-31.879	-36.351	16355	15858	0	504
-20.880	-38.406	16355	15792	0	504
-11.900	-33.754	16342	15661	0	504
-11.937	-23.585	16342	15463	0	504
-18.933	-17.346	16334	15266	0	504
-25.316	-15.687	16334	15134	0	504
-27.335	-21.313	16334	15069	0	504
-28.092	-27.984	16334	15003	0	504
-30.581	-33.177	16334	15069	0	504
-35.810	-32.564	16321	15266	0	504
-36.062	-31.338	16321	15463	0	504
-27.984	-29.679	16321	15792	0	504
-19.437	-29.499	16321	16056	0	504
-20.014	-28.273	16321	16384	0	504
-32.636	-29.427	16321	16712	0	504
-46.989	-31.626	16321	17370	0	504
-45.474	-30.256	16342	18028	0	504
-23.368	-27.551	16355	18620	0	504
5.806	-22.395	16355	19212	0	504
20.988	-19.149	16363	19739	0	504
11.900	-23.224	16363	20002	0	504
-11.251	-33.105	16376	20068	0	504
-29.066	-40.822	16376	20068	0	504
-32.600	-39.849	16376	20002	0	504
-24.017	-27.984	16376	19739	0	504
-15.435	-12.441	16376	19410	0	504
-13.307	-2.705	16384	19015	0	504
-15.146	-3.714	16384	18752	0	504
-17.274	-13.199	16384	18555	0	504
-17.815	-23.476	16384	18291	0	504
-14.821	-30.040	16384	17962	0	504
-5.986	-30.869	16384	17568	0	504
6.780	-29.571	16384	17173	0	504
15.507	-26.397	16384	16778	0	504
10.819	-18.247	16376	16384	0	504
-7.825	-6.094	16376	15990	0	504
-29.679	5.842	16376	15661	0	504
-40.065	8.727	16376	15529	0	504
-31.085	0.974	16376	15398	0	504
-9.340	-12.730	16376	15398	0	504
9.448	-21.637	16376	15792	0	504
17.526	-18.031	16376	16319	0	504
12.586	-3.246	16384	16581	0	504
3.787	9.196	16384	16844	0	504
-1.442	12.694	16392	17370	0	504
-0.433	8.871	16405	17897	0	504
4.688	0.325	16405	18226	0	504
7.537	-3.859	16413	18226	0	504
8.619	-2.488	16413	18291	0	504
11.973	3.534	16426	18357	0	504
20.159	11.432	16426	18291	0	504
31.194	19.329	16413	17962	0	504
37.577	25.099	16426	17699	0	504
34.547	26.289	16434	17436	0	504
26.397	22.034	16426	17239	0	504
21.060	17.202	16426	16910	0	504
24.125	16.841	16413	16449	0	504
29.391	22.358	16413	15924	0	504
29.931	30.040	16413	15332	0	504
23.224	32.889	16405	14806	0	504
17.598	30.292	16405	14411	0	504
20.123	24.414	16405	14279	0	504
30.184	20.555	16405	14213	0	504
38.550	19.510	16392	14016	0	504
41.435	18.860	16392	13753	0	504
33.790	16.949	16384	13556	0	504
23.801	13.054	16384	13358	0	504
15.218	13.631	16384	13292	0	504
14.713	18.464	16384	13556	0	504
22.863	23.981	16384	14279	0	504
32.312	26.361	16384	15134	0	504
38.190	26.217	16392	15924	0	504
32.780	24.306	16405	16449	0	504
20.700	27.010	16405	16976	0	504
12.694	31.735	16405	17370	0	504
18.752	37.865	16413	17634	0	504
33.249	39.632	16413	17962	0	504
45.330	41.219	16426	18423	0	504
45.907	41.363	16434	18752	0	504
35.737	40.714	16434	18752	0	504
27.479	39.776	16434	18555	0	504
28.525	36.387	16426	18357	0	504
38.550	34.079	16434	18226	0	504
49.333	36.711	16434	18028	0	504
49.189	41.543	16434	17699	0	504
38.658	43.274	16434	17107	0	504
20.772	40.389	16426	16515	0	504
7.681	31.590	16426	16056	0	504
7.248	23.981	16426	15529	0	504
20.339	20.880	16413	15134	0	504
36.351	22.178	16413	15003	0	504
45.510	20.736	16405	15003	0	504
37.937	17.202	16413	15069	0	504
19.618	11.251	16413	15200	0	504
3.029	12.369	16413	15463	0	504
0.793	21.565	16413	15858	0	504
14.100	33.429	16413	16121	0	504
33.357	38.695	16413	16384	0	504
43.924	34.475	16426	16515	0	504
42.012	23.152	16413	16449	0	504
31.230	15.326	16413	16187	0	504
21.745	18.680	16413	15858	0	504
16.661	27.335	16413	15858	0	504
14.136	34.800	16413	15792	0	504
10.206	32.744	16413	15792	0	504
5.085	25.243	16413	15792	0	504
5.554	18.428	16413	15792	0	504
14.100	17.887	16413	15661	0	504
26.397	21.601	16405	15463	0	504
31.158	24.234	16405	15200	0	504
22.322	20.447	16405	14937	0	504
1.803	13.343	16405	14937	0	504
-17.815	7.465	16392	15003	0	504
-24.955	3.787	16392	15134	0	504
-16.769	2.019	16392	15266	0	504
1.983	-1.046	16392	15529	0	504
20.159	-2.633	16405	15858	0	504
28.489	-2.741	16405	16253	0	504
24.450	1.010	16405	16647	0	504
9.160	5.121	16405	17173	0	504
-8.042	3.895	16405	17634	0	504
-14.064	0.216	16405	17831	0	504
-6.852	-1.623	16413	17962	0	504
8.835	3.859	16413	18226	0	504
19.690	15.723	16426	18357	0	504
13.631	24.414	16426	18291	0	504
-4.868	25.027	16426	18160	0	504
-17.851	19.257	16426	18094	0	504
-14.317	11.684	16426	17831	0	504
7.285	9.845	16426	17436	0	504
30.148	12.081	16426	16844	0	504
36.242	12.225	16413	16253	0	504
18.860	3.246	16413	15661	0	504
-9.268	-10.350	16392	15003	0	504
-29.859	-21.529	16392	14279	0	504
-29.463	-22.395	16392	13687	0	504
-14.533	-13.054	16384	13358	0	504
2.380	-0.577	16384	13292	0	504
5.085	6.167	16376	13227	0	504
-6.239	-1.046	16376	13161	0	504
-24.450	-15.362	16363	13095	0	504
-34.692	-30.148	16355	13029	0	504
-33.790	-34.944	16355	13029	0	504
-23.404	-31.843	16355	13358	0	504
-10.097	-24.017	16355	13950	0	504
-0.433	-16.985	16355	14674	0	504
1.262	-15.435	16355	15200	0	504
-2.885	-18.897	16355	15727	0	504
-13.271	-23.368	16355	16384	0	504
-20.664	-23.945	16363	17173	0	504
-21.168	-18.175	16363	17634	0	504
-13.054	-11.215	16363	17831	0	504
-0.505	-6.635	16363	17962	0	504
10.891	-10.819	16363	17831	0	504
12.333	-19.726	16363	17568	0	504
4.075	-25.604	16355	17305	0	504
-9.124	-24.919	16355	17173	0	504
-21.096	-18.824	16355	17041	0	504
-24.017	-14.894	16355	16778	0	504
-18.572	-16.408	16355	16515	0	504
-10.674	-19.329	16355	16319	0	504
-8.078	-19.041	16355	15990	0	504
-11.612	-19.546	16342	15792	0	504
-18.933	-23.332	16342	15661	0	504
-18.536	-31.410	16334	15661	0	504
-9.412	-38.695	16334	15661	0	504
2.128	-35.629	16334	15858	0	504
10.458	-20.339	16334	16121	0	504
11.540	-0.433	16334	16449	0	504
10.061	12.045	16342	17041	0	504
9.989	14.497	16342	17502	0	504
15.218	12.117	16342	17831	0	504
22.178	11.287	16355	18160	0	504
26.542	19.437	16363	18686	0	504
29.679	29.931	16376	19147	0	504
31.951	38.767	16376	19410	0	504
32.528	41.940	16384	19476	0	504
35.918	41.616	16384	19476	0	504
41.904	39.849	16384	19278	0	504
54.454	38.586	16384	18884	0	504
70.032	42.661	16392	18620	0	504
82.510	50.162	16392	18489	0	504
86.044	59.935	16392	18291	1	932
79.264	68.590	16392	17765	0	932
70.177	69.023	16384	17041	0	932
63.577	62.279	16384	16384	0	932
60.512	53.155	16376	15661	0	932
55.716	45.294	16376	15069	0	932
52.723	42.120	16363	14608	0	932
54.670	43.202	16363	14345	0	932
62.495	45.510	16363	14279	0	932
71.042	45.763	16355	14477	0	932
68.374	40.317	16355	14674	0	932
51.857	28.741	16355	14871	0	932
28.164	13.163	16355	15200	0	932
12.514	-2.019	16363	15661	0	932
4.940	-9.232	16363	16121	0	932
2.777	-8.727	16363	16449	0	932
-6.491	-6.058	16376	16976	0	932
-21.745	-5.085	16376	17502	0	932
-31.771	-7.285	16384	17831	0	932
-27.443	-13.920	16384	18094	0	932
-6.383	-22.683	16392	18291	0	932
15.326	-32.095	16392	18423	0	932
19.798	-43.563	16405	18423	0	932
-0.108	-54.742	16405	18357	0	932
-35.774	-64.479	16405	18226	0	932
-62.856	-68.482	16405	17962	0	932
-67.688	-64.876	16405	17568	0	932
-51.497	-53.624	16405	17239	0	932
-28.128	-38.118	16405	16976	0	932
-14.461	-25.099	16405	16712	0	932
-10.710	-19.798	16405	16384	0	932
-13.199	-24.234	16392	15990	0	932
-13.848	-34.295	16392	15595	0	932
-14.461	-43.094	16392	15200	0	932
-17.995	-47.602	16392	15003	0	932
-28.597	-46.556	16392	14806	0	932
-39.993	-47.277	16384	14674	0	932
-47.097	-49.116	16384	14806	0	932
-42.914	-53.372	16392	15134	0	932
-34.728	-57.230	16392	15595	0	932
-24.306	-55.103	16392	15990	0	932
-20.267	-49.513	16405	16384	0	932
-20.916	-42.517	16392	16515	0	932
-24.342	-38.442	16392	16515	0	932
-29.535	-37.865	16392	16647	0	932
-32.456	-42.084	16392	16778	0	932
-35.052	-48.756	16405	16844	0	932
-33.177	-53.696	16405	16844	0	932
-25.424	-52.290	16405	17041	0	932
-13.668	-42.373	16413	17305	0	932
-6.960	-28.741	16413	17370	0	932
-5.337	-14.317	16413	17173	0	932
-8.943	-5.878	16405	16712	0	932
-7.609	-4.580	16405	16384	0	932
-1.623	-6.022	16405	16056	0	932
6.852	-10.891	16405	15727	0	932
9.088	-15.759	16405	15463	0	932
-1.262	-21.601	16392	15200	0	932
-19.834	-29.968	16392	14937	0	932
-37.757	-34.692	16384	14740	0	932
-47.313	-36.891	16384	14411	0	932
-40.714	-34.331	16376	14082	0	932
-24.089	-25.532	16376	13884	0	932
-8.475	-18.933	16376	13884	0	932
-6.058	-17.454	16363	14016	0	932
-19.113	-23.152	16376	14411	0	932
-35.990	-32.420	16376	14937	0	932
-38.695	-37.577	16376	15463	0	932
-22.647	-35.052	16376	15792	0	932
-1.659	-28.633	16376	16187	0	932
3.173	-25.099	16376	16581	0	932
-14.028	-27.624	16384	16976	0	932
-38.586	-34.511	16384	17239	0	932
-46.700	-35.629	16384	17502	0	932
-27.047	-26.902	16384	17699	0	932
9.881	-10.133	16392	17699	0	932
38.370	6.996	16392	17568	0	932
41.724	13.415	16384	17305	0	932
20.555	8.330	16384	17041	0	932
-8.439	-2.344	16384	16647	0	932
-24.378	-11.973	16376	16319	0	932
-21.313	-13.848	16376	15792	0	932
-7.032	-12.550	16363	15200	0	932
2.344	-8.439	16355	14608	0	932
-1.731	-9.196	16355	14082	0	932
-14.461	-9.737	16342	13687	0	932
-22.647	-12.261	16334	13556	0	932
-19.473	-16.156	16334	13490	0	932
-11.756	-20.087	16334	13490	0	932
-8.330	-22.431	16342	13556	0	932
-11.287	-22.431	16334	13950	0	932
-15.471	-19.870	16334	14674	0	932
-13.091	-17.166	16334	15463	0	932
-6.383	-16.408	16334	15990	0	932
-4.111	-16.913	16334	16581	0	932
-11.107	-18.500	16342	17436	0	932
-23.909	-19.005	16342	18226	0	932
-31.302	-19.834	16355	18818	0	932
-25.460	-19.582	16363	19278	0	932
-13.199	-18.572	16363	19739	0	932
1.226	-15.795	16376	20068	0	932
6.888	-11.576	16384	20331	0	932
2.957	-10.602	16392	20726	0	932
-5.914	-13.379	16392	21055	0	932
-13.163	-18.716	16405	21055	0	932
-16.480	-26.109	16405	20660	0	932
-15.038	-27.624	16405	20134	0	932
-11.684	-23.765	16405	19607	0	932
-8.186	-17.779	16405	19147	0	932
-9.881	-14.749	16413	18620	1	436
-13.704	-18.608	16405	18028	0	436
-19.329	-27.047	16405	17370	0	436
-22.683	-33.826	16405	16778	0	436
-21.457	-33.682	16405	16319	0	436
-16.300	-26.289	16392	15727	0	436
-13.127	-18.536	16392	14937	0	436
-15.398	-14.966	16384	14279	0	436
-23.188	-17.057	16376	13819	0	436
-30.581	-22.106	16376	13424	0	436
-25.171	-24.919	16363	13095	0	436
-9.412	-22.539	16363	13029	0	436
10.783	-19.041	16355	13029	0	436
22.575	-15.146	16355	13029	0	436
17.166	-11.720	16355	13292	0	436
1.334	-10.097	16355	13687	0	436
-9.160	-8.042	16355	14082	0	436
-7.357	-4.219	16355	14345	0	436
6.022	0.108	16355	14740	0	436
20.880	5.157	16355	15398	0	436
26.397	12.477	16355	15990	0	436
23.585	19.293	16376	16384	0	436
17.562	25.893	16376	16581	0	436
14.317	33.357	16376	16712	0	436
19.365	41.976	16376	16778	0	436
32.239	52.398	16376	16712	0	436
50.054	62.027	16376	16778	0	436
69.023	68.590	16376	16778	0	436
83.844	69.023	16376	16778	0	436
90.083	66.571	16376	16910	0	436
86.765	60.728	16376	17041	0	436
72.268	57.375	16376	17239	0	436
53.732	52.182	16376	17568	0	436
38.298	45.438	16384	17831	0	436
34.439	37.432	16384	17962	0	436
43.058	32.600	16384	18094	0	436
56.545	35.341	16392	18423	0	436
63.505	42.409	16405	18818	0	436
58.673	49.549	16405	19081	0	436
48.359	50.415	16413	19278	0	436
40.894	41.832	16413	19410	0	436
37.432	32.348	16426	19344	0	436
33.646	23.332	16413	19147	0	436
23.873	17.021	16413	18949	0	436
9.016	6.888	16426	18818	0	436
-4.580	-9.304	16426	18489	0	436
-8.907	-27.083	16426	17831	0	436
-8.871	-38.839	16413	17041	0	436
-6.635	-38.839	16413	16384	0	436
-6.852	-29.859	16413	15727	0	436
-11.323	-21.637	16413	15332	0	436
-15.723	-21.998	16405	15003	0	436
-16.120	-32.348	16405	14740	0	436
-13.668	-45.907	16405	14477	0	436
-9.556	-52.723	16392	14279	0	436
-10.566	-50.126	16392	14016	0	436
-19.401	-43.094	16392	13884	0	436
-33.574	-38.154	16392	13884	0	436
-45.330	-42.986	16384	14082	0	436
-46.881	-56.473	16384	14148	0	436
-41.976	-69.996	16384	14345	0	436
-39.019	-78.651	16384	14608	0	436
-41.255	-81.680	16384	14740	0	436
-45.727	-78.940	16384	14871	0	436
-43.960	-73.855	16384	15134	0	436
-34.980	-63.253	16384	15595	0	436
-21.745	-48.936	16392	16121	0	436
-18.031	-36.206	16392	16515	0	436
-21.060	-31.915	16405	17107	0	436
-22.972	-34.475	16405	17502	0	436
-15.615	-36.639	16405	17765	0	436
-2.885	-31.735	16405	17765	0	436
5.193	-21.241	16413	17568	0	436
-4.688	-16.264	16413	17239	0	436
-27.840	-24.125	16392	16778	0	436
-50.270	-42.986	16392	16253	0	436
-54.850	-61.053	16384	15661	0	436
-40.065	-67.220	16384	15200	0	436
-18.067	-62.748	16376	15069	0	436
-6.816	-53.841	16376	15003	0	436
-10.602	-47.349	16376	14937	0	436
-23.909	-45.582	16384	14937	0	436
-33.141	-42.842	16376	15069	0	436
-33.213	-35.557	16376	15134	0	436
-25.784	-25.424	16376	15200	0	436
-21.962	-18.572	16376	15398	0	436
-20.952	-19.221	16376	15595	0	436
-19.762	-26.145	16376	15595	0	436
-12.622	-35.774	16376	15529	0	436
-0.072	-40.137	16384	15792	0	436
11.360	-38.478	16376	16319	0	436
14.461	-34.331	16376	16712	0	436
8.799	-24.702	16376	16910	0	436
-0.433	-16.985	16384	17107	0	436
-5.193	-12.874	16384	17436	0	436
-4.868	-12.441	16384	17634	0	436
-0.469	-15.615	16384	17634	0	436
2.380	-16.264	16384	17634	0	436
2.849	-13.487	16392	17765	0	436
0.433	-11.937	16392	17831	0	436
-3.354	-14.749	16392	17765	0	436
-7.537	-23.909	16384	17502	0	436
-13.704	-32.528	16384	17173	0	436
-20.519	-35.449	16384	16712	0	436
-24.522	-33.934	16384	16319	0	436
-22.539	-31.122	16384	15990	0	436
-15.651	-32.456	16376	15727	0	436
-4.291	-32.997	16376	15661	0	436
2.488	-28.958	16376	15727	0	436
0.325	-21.024	16376	15924	0	436
-5.229	-12.441	16376	16187	0	436
-11.287	-9.737	16376	16253	0	436
-10.314	-11.540	16376	16187	0	436
-4.291	-10.710	16376	16187	0	436
4.472	-6.058	16376	16187	0	436
9.845	3.534	16376	16384	0	436
10.710	8.547	16376	16712	0	436
6.960	4.327	16384	16976	0	436
1.515	-6.852	16384	17239	0	436
-0.325	-17.923	16384	17634	0	436
2.705	-19.870	16392	17765	0	436
7.140	-12.477	16392	17699	0	436
8.763	-3.246	16392	17699	0	436
3.318	1.334	16392	17831	0	436
-5.049	-2.200	16405	17765	0	436
-8.150	-9.773	16405	17568	0	436
-3.931	-15.074	16405	17305	0	436
5.193	-11.143	16392	17107	0	436
12.081	-2.669	16405	16976	0	436
13.776	7.032	16405	16976	0	436
12.694	11.648	16405	16976	0	436
10.819	7.104	16405	17107	0	436
8.330	-0.397	16405	17173	0	436
8.330	-7.609	16405	17173	0	436
12.694	-3.390	16405	16976	0	436
21.601	11.432	16405	16647	0	436
33.249	31.879	16392	16253	0	436
41.688	47.999	16392	15661	0	436
45.582	51.533	16384	15069	0	436
43.996	43.491	16384	14740	0	436
38.731	31.626	16384	14740	0	436
28.345	24.558	16384	14871	0	436
13.235	24.198	16384	14937	0	436
0.325	25.712	16384	15069	0	436
-3.931	24.378	16384	15266	0	436
5.445	16.300	16384	15529	0	436
20.123	7.393	16384	15661	0	436
33.177	2.344	16384	15924	0	436
33.790	2.380	16392	16384	0	436
24.883	7.898	16392	16647	0	436
17.923	11.504	16392	16647	0	436
16.264	14.136	16392	16515	0	436
20.808	16.480	16392	16319	0	436
25.676	17.959	16384	16056	0	436
26.361	19.762	16384	15727	0	436
24.522	20.844	16384	15463	0	436
25.135	19.618	16376	15266	0	436
31.915	20.736	16376	15266	0	436
39.380	23.873	16376	15332	0	436
41.003	28.381	16376	15332	0	436
34.728	29.318	16376	15266	0	436
26.686	26.506	16363	15200	0	436
22.250	21.493	16363	15266	0	436
24.558	18.752	16363	15463	0	436
27.335	21.421	16363	15727	0	436
28.092	27.768	16376	16121	0	436
25.316	31.013	16376	16515	0	436
22.539	28.850	16376	16910	0	436
19.870	20.844	16392	17239	0	436
16.625	11.540	16384	17568	0	436
11.468	7.068	16384	17831	0	436
5.806	11.756	16392	18028	0	436
6.563	21.962	16392	18226	0	436
14.100	31.590	16392	18357	0	436
27.768	37.180	16392	18423	0	436
39.849	36.062	16405	18226	0	436
43.347	32.023	16405	17962	0	436
38.190	28.669	16405	17699	0	436
30.977	24.666	16405	17436	0	436
27.768	23.224	16405	17107	0	436
33.213	21.060	16392	16778	0	436
38.406	20.916	16392	16319	0	436
36.278	24.342	16392	15792	0	436
26.938	32.239	16384	15463	0	436
18.247	40.534	16384	15332	0	436
19.906	45.366	16384	15266	0	436
29.030	43.924	16384	15069	0	436
34.403	34.006	16376	14871	0	436
24.594	19.834	16376	14871	0	436
4.003	7.357	16376	15134	0	436
-15.182	-0.613	16384	15727	0	436
-24.125	-4.688	16384	16187	0	436
-19.329	-6.383	16384	16449	0	436
-10.927	-8.907	16392	16778	0	436
-4.147	-9.232	16392	17239	0	436
0.361	-8.547	16392	17568	0	436
2.849	-7.429	16405	17699	0	436
2.596	-8.727	16405	17765	0	436
-3.750	-12.225	16405	17962	0	436
-14.966	-18.608	16413	18028	0	436
-26.794	-21.781	16413	17897	0	436
-26.902	-20.519	16413	17897	0	436
-16.336	-15.471	16413	17831	0	436
-0.613	-11.287	16426	17699	0	436
8.366	-10.169	16426	17436	0	436
3.498	-13.487	16426	17107	0	436
-9.989	-20.591	16413	16647	0	436
-20.303	-25.207	16413	16187	0	436
-23.224	-25.820	16405	15529	0	436
-15.254	-21.421	16405	14937	0	436
-3.714	-15.615	16392	14411	0	436
9.448	-12.514	16384	13884	0	436
20.916	-11.900	16376	13424	0	436
26.001	-14.172	16376	13095	0	436
24.775	-10.963	16376	13029	0	436
18.608	-3.714	16363	13095	0	436
15.254	9.196	16363	13161	0	436
21.781	22.322	16355	13227	0	436
32.167	28.669	16355	13490	0	436
36.567	26.289	16355	13819	0	436
27.768	15.831	16355	14148	0	436
12.189	5.626	16355	14477	0	436
-0.072	1.118	16355	14806	0	436
1.695	5.409	16355	15266	0	436
11.143	11.143	16342	15595	0	436
19.257	11.576	16342	15924	0	436
17.093	3.029	16355	16384	0	436
9.592	-9.989	16355	16910	0	436
0.036	-19.582	16355	17370	0	436
-6.239	-19.690	16355	17568	0	436
-11.287	-13.740	16355	17634	0	436
-16.012	-7.104	16363	17765	0	436
-18.428	-4.508	16363	17962	0	436
-15.939	-7.934	16363	17962	0	436
-6.744	-13.307	16363	17897	0	436
-0.505	-18.933	16376	17831	0	436
-2.885	-23.476	16376	17831	0	436
-16.480	-26.325	16376	17765	0	436
-35.449	-30.545	16376	17568	1	952
-44.681	-33.033	16363	17239	0	952
-36.134	-30.653	16376	17107	0	952
-9.160	-20.808	16363	17041	0	952
24.089	-6.167	16363	16910	0	952
47.025	7.609	16363	16976	0	952
50.775	10.746	16376	17370	0	952
36.747	3.210	16376	17831	0	952
14.389	-7.825	16376	18028	0	952
-2.885	-12.622	16384	18160	0	952
-9.737	-4.508	16392	18423	0	952
-7.104	11.071	16392	18752	0	952
5.950	25.893	16405	18949	0	952
22.034	30.581	16405	19147	0	952
35.990	25.893	16413	19410	0	952
38.045	12.477	16405	19476	0	952
25.640	-3.859	16426	19344	0	952
5.806	-14.317	16426	19015	0	952
-8.727	-17.057	16413	18686	0	952
-7.068	-10.566	16426	18291	0	952
6.167	1.623	16426	17831	0	952
21.601	10.133	16413	17173	0	952
26.758	12.730	16413	16449	0	952
22.214	6.058	16413	15924	0	952
12.550	-0.685	16405	15398	0	952
4.147	-7.104	16405	14937	0	952
-0.433	-8.006	16405	14542	0	952
1.983	-3.570	16405	14411	0	952
8.871	2.452	16405	14411	0	952
18.247	11.107	16405	14477	0	952
23.476	14.749	16405	14674	0	952
21.890	16.336	16405	15003	0	952
20.339	14.930	16405	15266	0	952
23.729	14.605	16405	15200	0	952
35.413	18.211	16405	15332	0	952
45.582	22.322	16413	15792	0	952
46.664	23.080	16413	16121	0	952
33.754	18.608	16413	16187	0	952
18.933	11.648	16413	16253	0	952
13.018	8.547	16413	16384	0	952
18.969	7.789	16405	16384	0	952
30.076	10.566	16405	16319	0	952
37.613	11.323	16405	16121	0	952
35.160	8.475	16405	15924	0	952
28.056	7.357	16405	15661	0	952
19.293	9.160	16392	15332	0	952
15.146	13.704	16392	15003	0	952
11.396	16.949	16392	14674	0	952
6.203	13.163	16384	14345	0	952
-2.164	4.364	16384	14082	0	952
-7.501	-5.373	16376	13950	0	952
-8.475	-8.511	16376	14016	0	952
-1.587	-5.013	16376	14279	0	952
7.537	0.216	16376	14542	0	952
11.396	-1.226	16363	14740	0	952
9.232	-7.465	16363	15003	0	952
2.669	-14.497	16363	15332	0	952
0.974	-14.136	16363	15529	0	952
8.547	-6.599	16363	15529	0	952
19.726	3.606	16363	15529	0	952
26.109	9.520	16376	15661	0	952
19.113	8.511	16376	15792	0	952
0.433	0.938	16363	15990	0	952
-18.572	-9.088	16376	16187	0	952
-22.539	-19.473	16376	16449	0	952
-7.104	-23.404	16376	16647	0	952
18.536	-17.129	16376	16844	0	952
37.252	-4.472	16376	17041	0	952
40.389	8.006	16376	17173	0	952
28.345	10.674	16376	17305	0	952
12.550	5.337	16376	17436	0	952
6.527	-1.695	16376	17436	0	952
9.304	-3.029	16376	17370	0	952
16.156	2.633	16376	17239	0	952
19.113	8.294	16376	17173	0	952
15.507	7.212	16376	17041	0	952
11.323	-1.911	16363	16647	0	952
7.285	-10.566	16363	16384	0	952
4.291	-17.238	16363	16121	0	952
-0.505	-19.257	16355	15792	1	316
-5.157	-20.844	16342	15398	0	316
-6.455	-22.611	16342	15003	0	316
1.262	-23.044	16334	14674	0	316
12.189	-17.743	16334	14477	0	316
17.021	-9.412	16321	14477	0	316
5.373	-4.508	16321	14806	0	316
-17.526	-9.665	16321	15134	0	316
-38.262	-24.450	16342	15463	0	316
-46.845	-38.298	16334	15858	0	316
-38.334	-42.373	16334	16384	0	316
-24.198	-34.187	16342	16844	0	316
-13.884	-23.837	16342	17305	0	316
-14.172	-19.654	16342	17831	0	316
-23.260	-23.945	16355	18357	0	316
-37.685	-30.977	16363	18884	0	316
-51.388	-30.977	16363	19212	0	316
-56.329	-22.106	16363	19278	0	316
-48.900	-12.622	16376	19147	0	316
-33.538	-7.032	16376	18949	0	316
-19.257	-11.323	16376	18818	0	316
-17.418	-20.664	16376	18620	0	316
-25.965	-32.528	16376	18489	0	316
-36.387	-39.308	16384	18489	0	316
-38.442	-39.524	16384	18555	0	316
-32.528	-34.620	16384	18489	0	316
-29.715	-28.164	16384	18094	0	316
-35.557	-23.873	16384	17765	0	316
-46.556	-28.020	16384	17370	0	316
-54.850	-35.846	16384	17041	0	316
-54.237	-41.039	16384	16844	0	316
-49.405	-39.416	16384	16976	0	316
-44.825	-32.059	16392	17173	0	316
-46.953	-24.234	16392	17239	0	316
-50.379	-23.585	16405	17370	0	316
-51.641	-31.626	16413	17897	0	316
-47.818	-43.274	16413	18489	0	316
-41.507	-48.359	16426	18884	0	316
-30.545	-41.796	16434	19081	0	316
-18.464	-24.414	16447	19278	0	316
-8.402	-4.291	16447	19212	0	316
-4.688	7.573	16455	18752	0	316
-7.465	6.816	16447	18226	0	316
-9.701	0.613	16455	17634	0	316
-6.816	-3.606	16447	16976	0	316
2.741	0.108	16434	16121	0	316
9.809	8.330	16426	15069	0	316
7.753	9.665	16426	14148	0	316
-2.200	0.721	16413	13424	0	316
-8.511	-14.281	16405	12963	0	316
-3.895	-20.916	16405	12569	0	316
8.475	-16.156	16392	12371	0	316
18.103	-3.354	16392	12306	0	316
13.776	11.071	16392	12371	0	316
0.505	16.733	16384	12371	0	316
-9.304	15.002	16384	12503	0	316
-9.196	9.484	16376	12569	0	316
3.318	4.400	16376	12569	0	316
15.362	2.777	16363	12503	0	316
19.401	4.111	16363	12634	0	316
13.740	9.484	16363	13095	0	316
5.445	16.516	16355	13424	0	316
3.606	21.745	16355	13621	0	316
13.343	27.155	16355	14016	0	316
31.951	36.531	16355	14542	0	316
51.785	48.684	16355	15003	0	316
61.378	62.207	16355	15332	0	316
58.384	70.249	16355	15661	0	316
46.989	71.944	16355	15990	0	316
38.875	69.816	16342	16121	0	316
45.114	71.223	16355	16187	0	316
60.115	77.714	16355	16187	0	316
74.721	85.575	16355	16056	0	316
76.415	85.467	16342	15858	0	316
66.787	76.560	16334	15595	0	316
50.595	61.017	16334	15266	0	316
41.507	47.746	16321	15069	0	316
41.724	42.986	16321	15069	0	316
54.418	46.195	16313	15134	0	316
73.675	57.339	16313	15332	0	316
96.971	71.223	16313	15792	0	316
113.127	84.493	16321	16384	0	316
110.927	92.175	16321	16976	0	316
88.821	91.670	16321	17370	0	316
56.690	79.264	16334	17831	0	316
34.511	62.063	16334	18357	0	316
35.160	46.989	16334	18818	0	316
55.427	41.832	16342	19081	0	316
79.913	45.582	16342	19410	0	316
91.201	53.155	16355	19739	0	316
83.664	58.781	16355	19870	0	316
66.498	55.788	16355	19870	0	316
53.588	48.972	16363	19936	0	316
48.323	42.553	16363	20068	0	316
48.431	37.793	16363	19936	0	316
45.294	35.413	16376	19476	0	316
34.872	29.607	16376	18949	0	316
16.516	19.257	16376	18555	0	316
3.426	5.770	16376	18226	1	392
-0.865	-6.275	16376	17699	0	392
5.445	-9.953	16376	16976	0	392
17.202	-2.416	16363	16384	0	392
27.804	13.631	16376	15858	0	392
34.583	31.482	16355	15529	0	392
35.088	41.255	16355	15200	0	392
34.187	38.658	16355	14740	0	392
27.083	25.316	16342	14477	0	392
18.103	11.251	16342	14477	0	392
8.943	3.390	16342	14674	0	392
4.039	4.472	16342	15134	0	392
3.714	5.229	16342	15727	0	392
4.327	1.118	16355	16319	0	392
-3.246	-8.907	16355	16647	0	392
-15.038	-18.572	16363	16976	0	392
-26.217	-18.536	16363	17239	0	392
-25.063	-9.196	16363	17305	0	392
-11.432	1.226	16363	17239	0	392
1.190	0.216	16363	17239	0	392
2.813	-14.245	16363	17239	0	392
-11.576	-36.423	16363	17107	0	392
-36.747	-53.336	16376	16844	0	392
-56.185	-57.735	16376	16449	0	392
-60.837	-53.011	16376	16121	0	392
-53.047	-45.150	16363	15858	0	392
-38.442	-44.573	16363	15661	0	392
-28.309	-50.451	16363	15332	0	392
-26.361	-58.781	16355	15069	0	392
-27.912	-63.649	16355	15003	0	392
-30.545	-64.876	16355	15200	0	392
-30.220	-57.230	16355	15463	0	392
-27.840	-43.815	16355	15595	0	392
-25.388	-28.669	16355	15727	0	392
-23.116	-14.785	16355	15792	0	392
-21.601	-10.783	16355	15858	0	392
-22.647	-15.723	16355	16056	0	392
-25.856	-26.758	16355	16384	0	392
-30.400	-33.862	16363	16778	0	392
-28.994	-34.475	16363	16976	0	392
-19.041	-29.715	16363	17239	0	392
-7.825	-26.506	16376	17699	0	392
-2.416	-29.859	16376	18226	0	392
-13.415	-40.245	16384	18489	0	392
-35.052	-51.821	16384	18686	0	392
-57.591	-58.096	16392	18884	0	392
-66.679	-55.175	16392	18949	0	392
-59.899	-41.291	16392	18818	0	392
-40.065	-24.883	16405	18620	0	392
-22.935	-14.136	16405	18489	0	392
-12.658	-15.074	16405	18226	0	392
-14.389	-26.073	16405	17831	0	392
-19.726	-39.452	16405	17305	0	392
-24.234	-47.061	16405	16844	0	392
-27.515	-45.330	16405	16449	0	392
-30.040	-42.301	16405	16319	0	392
-34.872	-41.760	16405	16121	0	392
-39.596	-47.097	16405	15858	0	392
-38.478	-48.539	16405	15792	0	392
-29.138	-43.310	16405	15792	0	392
-15.831	-30.508	16405	15858	0	392
-5.914	-13.956	16405	16056	0	392
-5.878	-8.619	16413	16515	0	392
-17.274	-15.110	16413	16910	0	392
-32.492	-31.879	16426	17107	0	392
-42.625	-47.782	16426	17305	0	392
-37.468	-52.326	16434	17699	0	392
-18.644	-40.750	16434	18226	0	392
1.334	-18.283	16447	18620	0	392
10.458	1.298	16455	18884	0	392
-0.541	7.970	16455	19081	0	392
-19.870	-2.488	16468	18818	0	392
-33.538	-17.887	16468	18291	0	392
-26.614	-26.145	16455	17765	0	392
-7.717	-20.591	16468	17239	0	392
9.268	-6.996	16455	16778	0	392
10.386	3.462	16455	16319	0	392
-3.029	2.380	16447	15727	0	392
-18.969	-6.816	16447	15069	0	392
-25.496	-17.526	16447	14477	0	392
-22.503	-22.214	16434	14016	0	392
-12.441	-19.365	16434	13753	0	392
-1.118	-12.261	16426	13490	0	392
10.386	-4.832	16426	13161	0	392
21.024	3.137	16426	12898	0	392
26.866	9.629	16413	12700	0	392
23.801	17.670	16405	12634	0	392
13.199	23.404	16392	12569	0	392
2.957	21.565	16392	12503	0	392
-0.036	15.002	16384	12437	0	392
5.698	4.544	16384	12569	0	392
15.759	-1.623	16384	12898	0	392
20.050	-0.072	16376	13292	0	392
15.362	6.635	16376	13556	0	392
4.616	15.074	16376	13819	0	392
-2.633	22.286	16376	14213	0	392
2.380	28.092	16376	14740	0	392
19.618	30.833	16384	15069	0	392
41.543	29.463	16376	15266	0	392
52.218	21.493	16376	15398	0	392
43.779	11.720	16376	15463	0	392
25.965	8.619	16376	15595	0	392
15.867	13.379	16363	15727	0	392
26.001	24.739	16363	15661	0	392
