neuroNicle FX2
D3F25R12
Bluetooth SPP
2023년 11월 1일 수요일
오후 4:18
time interval = 4msec
EEG1	EEG2	PPG	sdPPG	pulse	peak_interval(msec)
-61.558	-68.626	16401	13774	0	316
-61.125	-69.023	16397	13266	0	316
-62.892	-68.806	16394	12866	0	316
-62.207	-67.941	16392	12753	0	316
-62.820	-67.544	16390	12880	0	316
-63.325	-68.662	16387	12937	0	316
-65.344	-69.455	16385	12814	0	316
-67.941	-69.636	16382	12622	0	316
-67.003	-69.564	16380	12537	0	316
-66.823	-68.518	16379	12894	0	316
-63.145	-66.607	16380	13783	0	316
-60.728	-65.849	16381	14734	0	316
-61.161	-64.190	16381	15298	0	316
-63.722	-66.643	16380	15505	0	316
-68.338	-68.734	16379	15613	0	316
-70.141	-70.465	16379	15881	0	316
-67.075	-67.724	16381	16393	0	316
-64.479	-62.351	16383	17127	0	316
-60.079	-59.250	16385	18044	0	316
-63.577	-61.089	16387	18862	0	316
-68.446	-68.374	16389	19201	0	316
-72.990	-76.596	16389	19177	0	316
-72.917	-78.327	16391	19201	0	316
-68.915	-74.757	16392	19290	0	316
-63.902	-69.960	16391	19121	0	316
-63.974	-69.203	16391	18726	0	316
-66.823	-71.403	16392	18585	0	316
-70.826	-73.567	16394	18895	1	872
-71.980	-73.783	16396	19220	0	872
-70.285	-70.321	16396	19112	0	872
-67.941	-68.085	16396	18641	0	872
-64.587	-66.895	16394	18025	0	872
-62.351	-66.102	16392	17310	0	872
-56.978	-60.765	16390	16553	0	872
-52.723	-57.050	16387	15839	0	872
-50.415	-53.696	16384	15138	0	872
-51.172	-56.401	16382	14531	0	872
-55.680	-63.109	16381	14367	0	872
-62.135	-69.239	16382	14804	0	872
-64.912	-72.124	16383	15369	0	872
-68.770	-72.809	16383	15571	0	872
-70.285	-72.593	16382	15467	0	872
-70.501	-73.999	16381	15256	0	872
-69.564	-73.711	16378	14959	0	872
-67.472	-72.413	16377	14668	0	872
-63.722	-68.770	16376	14625	0	872
-61.233	-64.695	16375	14799	0	872
-62.748	-67.039	16374	14936	0	872
-67.256	-73.062	16375	15133	0	872
-74.432	-81.176	16374	15458	0	872
-77.858	-85.106	16374	15613	0	872
-75.658	-82.294	16372	15486	0	872
-67.111	-71.367	16371	15321	0	872
-58.709	-60.981	16371	15491	0	872
-54.526	-56.509	16373	16145	0	872
-58.637	-60.909	16375	16887	0	872
-67.833	-69.816	16376	17258	0	872
-75.406	-78.723	16376	17249	0	872
-79.084	-81.717	16375	17089	0	872
-74.540	-79.048	16374	16877	0	872
-68.554	-74.901	16374	16685	0	872
-62.748	-71.691	16374	16699	0	872
-62.243	-70.609	16374	16901	0	872
-64.731	-71.439	16374	17004	0	872
-68.626	-74.107	16375	16953	0	872
-70.429	-75.442	16375	17042	0	872
-69.780	-77.533	16376	17301	0	872
-67.039	-77.245	16376	17381	0	872
-63.072	-76.740	16375	17155	0	872
-62.532	-76.379	16374	16859	0	872
-64.118	-77.605	16375	16868	0	872
-66.823	-78.399	16378	17334	0	872
-69.311	-76.704	16379	17856	0	872
-70.069	-71.872	16380	17987	0	872
-68.338	-67.220	16380	17757	0	872
-67.652	-65.921	16379	17357	0	872
-70.682	-69.888	16378	16854	0	872
-73.134	-76.127	16376	16384	0	872
-73.134	-78.074	16376	16173	0	872
-68.734	-75.081	16375	16187	0	872
-62.423	-66.426	16375	16210	0	872
-56.473	-61.378	16377	16421	0	872
-52.362	-59.250	16380	17028	0	872
-50.703	-58.853	16383	17762	0	872
-48.792	-60.115	16385	18378	0	872
-47.962	-58.529	16388	18839	0	872
-49.621	-56.509	16390	19050	0	872
-50.559	-57.519	16393	19206	0	872
-51.100	-57.483	16395	19408	0	872
-48.215	-56.870	16396	19337	0	872
-42.445	-55.067	16397	18872	0	872
-39.885	-52.470	16397	18303	0	872
-40.750	-51.677	16398	18039	0	872
-45.402	-52.903	16400	18190	0	872
-49.802	-54.959	16401	18354	0	872
-49.693	-55.644	16403	18237	0	872
-48.287	-56.257	16404	18072	0	872
-45.294	-55.247	16405	17950	0	872
-44.573	-56.726	16406	17663	0	872
-47.061	-58.817	16406	17343	0	872
-50.126	-60.260	16406	17089	0	872
-49.008	-62.351	16406	16628	0	872
-46.520	-60.873	16403	15891	0	872
-45.294	-60.404	16401	15025	0	872
-45.763	-59.863	16397	14141	0	872
-50.884	-64.010	16394	13388	0	872
-57.014	-67.724	16392	12993	1	316
-58.997	-72.268	16391	12951	0	316
-59.322	-73.314	16390	13125	0	316
-55.463	-72.665	16390	13374	0	316
-51.713	-68.951	16388	13464	0	316
-50.451	-64.948	16387	13402	0	316
-50.090	-60.765	16388	13638	0	316
-51.893	-59.611	16389	14390	0	316
-54.093	-60.332	16391	15204	0	316
-55.824	-63.000	16391	15575	0	316
-54.382	-64.623	16391	15660	0	316
-51.352	-62.063	16392	15862	0	316
-46.953	-56.076	16393	16149	0	316
-44.537	-50.415	16392	16187	0	316
-45.510	-47.530	16391	15938	0	316
-48.107	-50.379	16390	15660	0	316
-50.956	-55.283	16390	15674	0	316
-52.687	-60.656	16391	16116	0	316
-50.739	-62.351	16392	16605	0	316
-47.602	-62.171	16392	16699	0	316
-47.458	-59.466	16390	16407	0	316
-47.025	-60.404	16388	15947	0	316
-49.513	-61.197	16386	15397	0	316
-51.388	-63.072	16384	14804	0	316
-50.775	-61.269	16381	14334	0	316
-49.008	-58.529	16379	14193	0	316
-45.943	-54.814	16378	14277	0	316
-45.618	-53.155	16376	14254	0	316
-45.727	-53.264	16373	14047	0	316
-46.448	-54.490	16371	13797	0	316
-47.458	-54.922	16368	13548	0	316
-47.926	-55.067	16364	13327	0	316
-48.648	-55.247	16362	13177	0	316
-49.766	-56.076	16359	13068	0	316
-51.244	-58.348	16356	13073	0	316
-51.497	-58.781	16355	13407	0	316
-50.018	-59.250	16355	14009	0	316
-48.395	-60.440	16355	14578	0	316
-47.926	-60.007	16356	15194	0	316
-50.379	-60.115	16357	16036	0	316
-54.490	-62.027	16360	16995	0	316
-58.745	-62.856	16362	17851	0	316
-61.414	-64.371	16364	18368	0	316
-61.955	-67.220	16364	18519	0	316
-60.043	-70.141	16364	18444	0	316
-61.558	-73.026	16363	18241	0	316
-61.882	-74.432	16362	17931	0	316
-63.758	-72.521	16361	17559	0	316
-63.613	-69.275	16359	17254	0	316
-64.803	-66.138	16360	17244	0	316
-65.777	-67.147	16360	17475	0	316
-65.380	-70.105	16360	17574	0	316
-67.256	-74.973	16359	17451	0	316
-69.059	-79.950	16359	17244	0	316
-70.501	-80.418	16358	16986	0	316
-72.196	-81.320	16357	16764	0	316
-72.304	-78.651	16357	16844	0	316
-68.374	-74.721	16358	17174	0	316
-64.840	-71.186	16359	17362	0	316
-62.027	-68.806	16358	17296	0	316
-62.856	-68.734	16358	17150	0	316
-65.813	-69.023	16358	17004	0	316
-67.797	-69.672	16357	16826	0	316
-69.239	-69.888	16356	16605	0	316
-69.311	-70.790	16355	16375	0	316
-68.265	-71.186	16354	16243	0	316
-65.344	-68.734	16355	16384	0	316
-63.722	-65.164	16356	16713	0	316
-62.207	-60.440	16356	16896	0	316
-64.118	-59.791	16357	16929	0	316
-68.049	-62.459	16358	17155	0	316
-74.144	-68.734	16360	17550	0	316
-74.468	-72.881	16361	17762	0	316
-73.819	-73.603	16362	17780	0	316
-68.265	-69.888	16364	18044	0	316
-64.695	-66.390	16368	18754	0	316
-61.089	-62.423	16372	19483	0	316
-60.584	-62.315	16375	19780	0	316
-61.197	-64.118	16376	19695	0	316
-63.505	-65.200	16378	19521	0	316
-62.063	-64.515	16380	19497	0	316
-58.673	-60.945	16383	19606	0	316
-53.516	-56.113	16384	19558	1	328
-49.369	-53.083	16385	19304	0	328
-49.657	-53.300	16388	19243	0	328
-52.434	-55.824	16392	19615	0	328
-55.391	-56.798	16395	20052	0	328
-53.768	-56.726	16398	20057	0	328
-51.677	-55.536	16399	19615	0	328
-50.126	-55.355	16399	18961	0	328
-48.972	-58.060	16398	18204	0	328
-48.828	-59.250	16398	17343	0	328
-46.340	-59.034	16396	16426	0	328
-45.835	-55.824	16393	15538	0	328
-47.782	-56.293	16390	14696	0	328
-55.355	-59.286	16387	13873	0	328
-61.955	-64.731	16385	13172	0	328
-65.200	-69.744	16384	12810	0	328
-64.731	-69.600	16383	12749	0	328
-64.840	-70.032	16381	12640	0	328
-69.239	-72.809	16378	12391	0	328
-74.829	-78.110	16376	12114	0	328
-76.019	-78.832	16373	11878	0	328
-63.938	-73.242	16370	11709	0	328
-43.924	-58.348	16368	11695	0	328
-26.037	-47.277	16367	12005	0	328
-19.546	-43.779	16367	12560	0	328
-23.765	-51.605	16367	13134	0	328
-29.643	-60.620	16369	13892	0	328
-28.345	-63.072	16372	15049	0	328
-19.582	-57.158	16376	16342	0	328
-11.792	-47.999	16381	17512	0	328
-12.009	-43.383	16384	18585	0	328
-19.185	-46.484	16388	19540	0	328
-30.508	-54.093	16393	20396	0	328
-38.478	-60.007	16399	21148	0	328
-41.471	-61.305	16402	21652	0	328
-42.301	-59.250	16406	21797	0	328
-42.625	-57.194	16410	21812	0	328
-43.383	-56.978	16412	21783	0	328
-46.087	-61.774	16413	21416	0	328
-48.503	-64.443	16414	20734	0	328
-49.153	-65.669	16415	20132	0	328
-50.487	-65.417	16416	19737	0	328
-51.424	-62.532	16418	19422	0	328
-52.831	-62.063	16418	19036	0	328
-55.139	-62.099	16418	18401	0	328
-58.168	-65.344	16416	17489	0	328
-62.351	-69.203	16415	16576	0	328
-69.383	-72.773	16415	16051	0	328
-77.642	-77.497	16416	16008	0	328
-81.248	-79.986	16416	16055	0	328
-80.274	-83.051	16416	15872	0	328
-70.609	-83.736	16417	15674	0	328
-62.351	-84.602	16417	15665	0	328
-59.430	-83.700	16419	15877	0	328
-63.361	-83.087	16422	16361	0	328
-71.763	-80.202	16424	16793	0	328
-75.261	-77.281	16425	16741	0	328
-70.790	-70.609	16424	16276	0	328
-62.135	-63.397	16422	15613	0	328
-55.139	-59.574	16419	14818	0	328
-54.850	-59.899	16416	13929	0	328
-62.027	-63.433	16412	13153	0	328
-67.292	-68.770	16410	12805	0	328
-68.085	-70.898	16411	13083	0	328
-64.587	-69.672	16412	13746	0	328
-57.519	-66.210	16412	14296	0	328
-57.735	-65.128	16411	14400	0	328
-62.423	-64.912	16410	14131	0	328
-69.564	-68.013	16408	13774	0	328
-72.953	-69.708	16407	13703	0	328
-70.285	-68.734	16407	14099	0	328
-62.640	-65.741	16408	14686	0	328
-57.411	-62.856	16409	15204	0	328
-58.420	-65.128	16409	15557	0	328
-65.344	-70.934	16409	15594	0	328
-69.708	-76.271	16407	15321	0	328
-69.744	-77.966	16404	14889	0	328
-65.417	-74.396	16401	14367	0	328
-57.807	-67.797	16397	13807	0	328
-54.706	-61.305	16394	13289	1	316
-53.624	-59.466	16390	12885	0	316
-52.939	-59.466	16387	12777	0	316
-51.821	-62.712	16386	12941	0	316
-52.218	-67.580	16384	13083	0	316
-53.805	-71.727	16382	13125	0	316
-56.473	-73.314	16382	13454	0	316
-56.004	-69.636	16383	14282	0	316
-53.913	-64.263	16384	15194	0	316
-50.234	-59.827	16383	15679	0	316
-47.566	-58.853	16383	15834	0	316
-49.549	-62.315	16383	16088	0	316
-50.920	-64.154	16384	16539	0	316
-50.703	-63.000	16384	17155	0	316
-48.395	-56.437	16387	17969	0	316
-45.078	-50.270	16389	18693	0	316
-46.015	-49.225	16390	18952	0	316
-52.470	-53.264	16390	18801	0	316
-60.584	-59.827	16389	18444	0	316
-63.686	-64.623	16387	17936	0	316
-59.971	-61.846	16385	17334	0	316
-50.631	-57.627	16383	16694	0	316
-42.120	-51.533	16381	16116	0	316
-38.442	-48.828	16379	15811	0	316
-39.452	-50.631	16378	15768	0	316
-44.609	-51.569	16376	15655	0	316
-46.881	-53.805	16374	15312	0	316
-48.648	-55.572	16371	14889	0	316
-50.054	-57.880	16368	14522	0	316
-48.395	-59.106	16365	14249	0	316
-46.953	-60.043	16364	14108	0	316
-47.061	-59.719	16362	14249	0	316
-48.431	-59.502	16363	14734	0	316
-52.687	-60.620	16364	15416	0	316
-56.221	-63.181	16365	16159	0	316
-55.860	-61.522	16367	16915	0	316
-51.641	-56.076	16369	17630	0	316
-44.104	-47.133	16371	18105	0	316
-37.613	-38.514	16372	18241	0	316
-35.305	-37.036	16371	18114	0	316
-36.278	-40.822	16371	17926	0	316
-37.937	-46.845	16372	17950	0	316
-40.353	-50.884	16374	18237	0	316
-43.563	-53.191	16376	18618	0	316
-49.477	-55.572	16377	18905	0	316
-58.384	-59.142	16378	18914	0	316
-60.801	-59.070	16378	18641	0	316
-55.608	-51.172	16377	18223	0	316
-40.606	-35.413	16376	17691	0	316
-25.424	-21.168	16374	17075	0	316
-18.139	-16.769	16373	16543	0	316
-22.395	-21.818	16372	16319	0	316
-33.321	-32.384	16371	16319	0	316
-42.986	-38.731	16371	16234	0	316
-47.890	-41.832	16370	16004	0	316
-49.946	-45.907	16368	15717	0	316
-52.687	-53.119	16367	15373	0	316
-56.040	-60.188	16365	15110	0	316
-60.115	-64.443	16366	15162	0	316
-63.325	-64.587	16366	15416	0	316
-67.256	-65.236	16365	15618	0	316
-70.249	-68.229	16367	15909	0	316
-72.449	-72.809	16367	16352	0	316
-73.567	-75.911	16368	16600	0	316
-73.026	-75.261	16367	16539	0	316
-73.999	-74.901	16367	16333	0	316
-75.694	-75.225	16365	16051	0	316
-77.605	-76.956	16365	15801	0	316
-76.163	-75.911	16364	15811	0	316
-68.590	-70.934	16365	16036	0	316
-63.649	-65.849	16364	16145	0	316
-61.378	-62.748	16364	16051	0	316
-64.010	-64.515	16364	15971	0	316
-70.032	-71.006	16364	16131	0	316
-74.757	-74.829	16364	16449	0	316
-74.684	-77.930	16364	16652	0	316
-72.917	-76.271	16365	16708	0	316
-71.367	-74.468	16367	17023	0	316
-69.996	-74.576	16371	17813	0	316
-70.646	-76.307	16375	18782	0	316
-69.275	-76.235	16379	19615	0	316
-66.426	-75.153	16383	20203	0	316
-65.849	-74.288	16385	20410	0	316
-66.174	-71.980	16386	20226	0	316
-67.508	-71.006	16387	19770	0	316
-67.977	-69.780	16387	19140	0	316
-63.794	-66.679	16387	18524	0	316
-61.522	-62.640	16387	18152	0	316
-58.312	-60.296	16388	18034	0	316
-59.755	-59.538	16390	18124	0	316
-59.647	-61.666	16393	18566	0	316
-56.942	-62.279	16399	19370	0	316
-51.749	-61.846	16404	20255	0	316
-46.628	-59.034	16409	20805	0	316
-42.229	-55.896	16412	20758	0	316
-42.842	-52.434	16414	20316	0	316
-42.517	-52.578	16417	20015	0	316
-41.147	-53.913	16421	20170	0	316
-40.966	-55.752	16425	20542	0	316
-42.301	-59.322	16429	20626	0	316
-50.018	-66.318	16431	20175	0	316
-64.984	-76.271	16430	19300	0	316
-79.156	-83.628	16430	18199	0	316
-83.411	-82.582	16427	17009	0	316
-76.199	-72.196	16424	15801	0	316
-64.082	-62.027	16421	14578	0	316
-58.096	-60.115	16417	13346	0	316
-63.794	-70.934	16412	12269	0	316
-75.334	-83.808	16409	11620	0	316
-83.808	-89.758	16407	11305	0	316
-80.202	-85.647	16403	10924	0	316
-75.153	-80.202	16399	10406	0	316
-73.711	-80.022	16395	9908	0	316
-75.911	-85.611	16390	9447	0	316
-81.608	-88.063	16385	9004	0	316
-78.579	-83.736	16381	8619	0	316
-73.783	-74.757	16376	8407	0	316
-68.265	-69.023	16373	8576	0	316
-69.744	-70.898	16371	9051	0	316
-75.442	-79.228	16367	9465	0	316
-79.048	-85.070	16364	9724	0	316
-80.815	-86.477	16361	9983	0	316
-75.838	-82.474	16357	10289	0	316
-71.078	-76.920	16354	10580	0	316
-67.580	-73.711	16350	10872	0	316
-64.046	-72.160	16347	11210	0	316
-62.135	-71.511	16344	11591	0	316
-61.125	-70.646	16341	12001	0	316
-62.351	-70.141	16339	12452	0	316
-64.948	-70.682	16337	12974	0	316
-66.607	-72.449	16335	13511	0	316
-67.905	-74.035	16333	14009	0	316
-64.371	-73.891	16332	14498	0	316
-62.928	-73.855	16330	15035	0	316
-61.378	-71.439	16330	15651	0	316
-60.801	-68.951	16331	16487	0	316
-61.991	-68.734	16332	17508	0	316
-60.981	-67.508	16334	18364	0	316
-59.178	-69.528	16335	18895	0	316
-59.358	-71.331	16336	19225	0	316
-58.565	-72.413	16336	19526	0	316
-58.457	-71.331	16339	20019	0	316
-57.663	-69.600	16341	20640	0	316
-58.240	-68.265	16343	21045	0	316
-59.106	-68.374	16344	21125	0	316
-63.000	-71.295	16344	21035	0	316
-67.364	-73.242	16345	20843	0	316
-69.167	-74.648	16345	20565	0	316
-70.646	-78.182	16345	20217	0	316
-71.259	-79.553	16346	19939	1	596
-70.141	-81.536	16348	20062	0	596
-68.842	-78.291	16352	20701	0	596
-65.849	-73.206	16356	21407	0	596
-64.263	-68.518	16360	21736	0	596
-65.597	-67.833	16363	21727	0	596
-71.908	-73.783	16364	21529	0	596
-75.009	-80.202	16367	21261	0	596
-75.370	-80.346	16370	21271	0	596
-68.085	-74.793	16376	21746	0	596
-61.810	-67.292	16381	22334	0	596
-58.709	-63.361	16386	22818	0	596
-58.961	-62.928	16394	23481	0	596
-64.695	-67.292	16403	24399	0	596
-64.695	-70.285	16412	25349	0	596
-65.200	-69.672	16421	26120	0	596
-65.128	-68.049	16429	26449	0	596
-63.145	-66.571	16435	26111	0	596
-61.846	-63.289	16439	25273	0	596
-57.519	-58.457	16444	24431	0	596
-51.136	-53.480	16449	23923	0	596
-45.222	-49.946	16455	23641	0	596
-46.051	-50.270	16458	23110	0	596
-51.388	-54.021	16461	22094	0	596
-57.663	-59.719	16463	20880	0	596
-63.505	-64.154	16464	19662	0	596
-66.715	-67.147	16463	18227	0	596
-65.453	-68.842	16461	16529	0	596
-65.561	-70.105	16457	14719	0	596
-65.020	-71.475	16452	12904	0	596
-65.489	-71.150	16448	11267	0	596
-62.423	-69.708	16444	10138	0	596
-60.188	-66.498	16443	9724	0	596
-56.004	-61.233	16443	9922	0	596
-52.146	-57.627	16443	10401	0	596
-50.090	-54.778	16443	10717	0	596
-49.766	-53.696	16443	10679	0	596
-50.198	-52.362	16441	10608	0	596
-50.523	-50.884	16440	10623	0	596
-53.155	-49.802	16438	10514	0	596
-56.690	-52.001	16437	10486	0	596
-60.620	-55.572	16438	10961	0	596
-62.784	-59.142	16439	11883	0	596
-61.738	-59.358	16442	12876	0	596
-56.834	-59.791	16443	13539	0	596
-52.038	-59.358	16441	13633	0	596
-51.388	-60.512	16439	13266	0	596
-51.713	-63.397	16436	12758	0	596
-52.218	-63.145	16434	12509	0	596
-51.208	-62.568	16433	12678	0	596
-47.999	-61.269	16432	12894	0	596
-47.097	-60.224	16428	12749	0	596
-47.638	-61.089	16424	12292	0	596
-52.651	-64.623	16420	11695	0	596
-55.788	-68.842	15625	5	0	16415
-26.397	-30.761	16419	21412	0	812
-23.368	-29.895	16421	20946	0	812
-19.942	-26.325	16421	20156	0	812
-18.103	-20.555	16420	19168	0	812
-18.283	-17.382	16419	18147	0	812
-21.890	-18.247	16418	17334	0	812
-23.368	-20.050	16418	16793	0	812
-22.142	-20.159	16418	16407	0	812
-17.274	-17.562	16418	16041	0	812
-12.586	-15.435	16417	15575	0	812
-10.422	-15.074	16417	15157	0	812
-11.179	-16.985	16416	14856	0	812
-15.651	-23.188	16414	14508	0	812
-21.926	-29.174	16414	14211	0	812
-27.047	-35.052	16413	14028	0	812
-31.662	-37.865	16411	13708	0	812
-33.141	-37.432	16408	13172	0	812
-32.384	-34.547	16405	12556	0	812
-30.761	-31.735	16402	12010	0	812
-29.318	-31.122	16399	11756	0	812
-28.056	-29.679	16398	11855	0	812
-26.145	-28.381	16397	12142	0	812
-25.532	-26.470	16395	12448	0	812
-23.873	-24.702	16394	12598	0	812
-24.775	-24.991	16392	12631	0	812
-22.539	-25.352	16391	12843	0	812
-17.634	-20.952	16391	13299	0	812
-10.530	-13.956	16392	13948	0	812
-4.111	-7.681	16394	14828	0	812
-2.380	-6.383	16395	15655	0	812
-8.042	-10.963	16395	16022	0	812
-17.995	-21.096	16395	16055	0	812
-25.532	-27.912	16395	16173	0	812
-25.784	-28.525	16395	16398	0	812
-21.781	-22.575	16395	16501	0	812
-17.021	-16.156	16395	16572	0	812
-16.480	-15.975	16396	16802	0	812
-23.008	-21.096	16397	17127	0	812
-29.859	-27.191	16398	17470	0	812
-33.429	-30.941	16400	17813	0	812
-33.285	-30.761	16401	18152	0	812
-32.131	-28.886	16403	18486	0	812
-32.023	-28.814	16404	18684	0	812
-31.338	-29.246	16405	18622	0	812
-28.741	-25.640	16406	18500	0	812
-22.539	-20.050	16407	18510	0	812
-16.408	-15.110	16408	18557	0	812
-16.012	-16.228	16409	18590	0	812
-22.972	-24.342	16410	18622	0	812
-32.492	-34.764	16411	18561	0	812
-40.606	-42.120	16411	18180	0	812
-41.688	-43.527	16409	17461	0	812
-38.586	-39.957	16407	16567	0	812
-34.728	-34.403	16402	15608	0	812
-35.124	-32.816	16399	14705	0	812
-37.721	-34.620	16397	14211	0	812
-41.039	-36.711	16397	14282	0	812
-41.399	-39.488	16397	14592	0	812
-41.039	-39.091	16397	14983	0	812
-40.642	-38.658	16400	15688	0	812
-42.734	-39.308	16403	16642	0	812
-47.422	-43.851	16406	17367	0	812
-52.795	-50.162	16407	17541	0	812
-54.490	-54.959	16406	17268	0	812
-53.408	-54.273	16406	16840	0	812
-48.467	-50.162	16405	16562	0	812
-42.301	-43.671	16405	16515	0	812
-40.137	-40.426	16405	16548	0	812
-39.380	-40.389	16405	16501	0	812
-40.498	-44.140	16404	16215	0	812
-41.183	-46.664	16402	15735	0	812
-41.363	-48.035	16401	15397	0	812
-40.786	-46.881	16400	15218	0	812
-42.589	-45.438	16397	14893	0	812
-43.996	-44.681	16393	14353	0	812
-45.691	-45.114	16390	13713	0	812
-48.576	-48.071	16387	13144	0	812
-50.307	-50.739	16385	12956	0	812
-51.280	-51.677	16384	13294	0	812
-50.234	-51.352	16384	13755	0	812
-47.133	-50.739	16382	13877	0	812
-45.835	-50.343	16381	13788	0	812
-47.782	-53.119	16379	13887	0	812
-49.585	-55.319	16379	14268	0	812
-49.441	-55.031	16380	14781	0	812
-45.078	-49.333	16380	15331	0	812
-37.829	-44.212	16381	15999	0	812
-34.692	-40.065	16384	16877	0	812
-36.026	-41.399	16386	17780	0	812
-40.642	-43.347	16390	18580	0	812
-42.445	-45.150	16393	19436	0	812
-40.930	-44.428	16397	20156	0	812
-39.127	-43.924	16398	20320	0	812
-36.964	-44.753	16399	19963	0	812
-36.711	-46.628	16398	19342	0	812
-35.485	-43.815	16397	18674	0	812
-32.889	-40.714	16397	18270	0	812
-30.689	-35.701	16398	18288	0	812
-30.292	-34.656	16399	18444	0	812
-32.780	-36.134	16401	18495	0	812
-34.187	-37.468	16402	18495	0	812
-32.600	-36.603	16403	18481	0	812
-29.715	-34.295	16404	18453	0	812
-27.263	-31.338	16406	18406	0	812
-25.712	-29.427	16407	18345	0	812
-24.991	-28.092	16408	18260	0	812
-23.296	-27.047	16408	18053	0	812
-22.322	-27.443	16408	17630	0	812
-22.395	-28.525	16409	17272	0	812
-25.856	-32.131	16410	17282	0	812
-29.715	-37.288	16410	17404	0	812
-34.331	-41.147	16413	17484	0	812
-36.567	-44.933	16415	17691	0	812
-37.757	-46.700	16416	17818	0	812
-38.118	-46.087	16416	17569	0	812
-36.891	-44.428	16417	17291	0	812
-35.197	-40.426	16419	17348	0	812
-31.662	-37.180	16420	17475	0	812
-28.381	-33.574	16421	17423	0	812
-25.496	-31.879	16421	17197	0	812
-23.801	-29.463	16420	16675	0	812
-22.358	-28.705	16418	15820	0	812
-21.601	-27.948	16414	14776	0	812
-20.664	-26.506	16410	13774	0	812
-18.320	-27.010	16407	13064	0	812
-16.012	-26.073	16404	12673	0	812
-15.651	-26.217	16402	12476	0	812
-17.129	-27.335	16399	12306	0	812
-21.204	-31.049	16396	12071	0	812
-24.630	-35.088	16394	12015	0	812
-25.424	-36.062	16394	12396	0	812
-20.736	-33.069	16393	12857	0	812
-15.362	-27.587	16391	13026	0	812
-11.576	-22.106	16390	13144	0	812
-12.622	-20.772	16390	13435	0	812
-14.713	-23.585	16390	13910	0	812
-17.634	-25.604	16391	14701	0	812
-16.372	-24.775	16394	15745	0	812
-13.812	-23.440	16396	16661	0	812
-12.586	-21.926	16398	17305	0	812
-14.713	-23.152	16399	17710	0	812
-16.048	-25.676	16400	17832	0	812
-14.281	-25.460	16401	17842	0	812
-8.727	-20.087	16401	17818	0	812
0.325	-13.920	16399	17531	0	812
3.570	-9.592	16398	17014	0	812
-0.397	-11.576	16397	16708	0	812
-8.366	-18.897	16398	16910	0	812
-16.625	-25.027	16400	17447	0	812
-18.356	-26.109	16401	17907	0	812
-14.677	-23.981	16404	18241	0	812
-10.386	-19.654	16407	18749	0	812
-8.294	-17.490	16411	19521	0	812
-10.206	-17.526	16416	20382	0	812
-12.730	-18.644	16422	21209	0	812
-16.877	-19.654	16427	21882	0	812
-21.385	-22.683	16430	22094	0	812
-25.279	-25.784	16432	21614	0	812
-28.092	-28.633	16431	20570	0	812
-25.171	-27.696	16428	19314	0	812
-17.995	-21.457	16427	18180	0	812
-10.638	-14.749	16425	17263	1	708
-5.590	-12.477	16423	16492	0	708
-8.006	-15.831	16421	15815	0	708
-13.487	-23.224	16420	15312	0	708
-19.690	-30.905	16420	15171	0	708
-22.935	-33.357	16421	15430	0	708
-21.168	-30.581	16423	15801	0	708
-18.500	-25.893	16423	15900	0	708
-17.598	-24.270	16421	15496	0	708
-23.080	-26.325	16418	14691	0	708
-29.895	-32.708	16414	13680	0	708
-34.656	-39.199	16409	12579	0	708
-32.816	-41.363	16403	11474	0	708
-22.358	-36.098	16396	10430	0	708
-13.668	-27.876	16389	9461	0	708
-9.809	-21.565	16383	8581	0	708
-14.569	-21.493	16376	7918	0	708
-23.152	-25.712	16371	7687	0	708
-28.922	-30.869	16366	7810	0	708
-29.102	-31.699	16360	7908	0	708
-24.234	-26.758	16355	7970	0	708
-21.457	-24.053	16351	8308	0	708
-22.070	-24.270	16348	8920	0	708
-24.919	-28.922	16344	9531	0	708
-28.128	-32.348	16343	10331	0	708
-27.371	-34.295	16344	11667	0	708
-26.542	-32.456	16345	13379	0	708
-24.919	-30.472	16347	15016	0	708
-27.371	-32.564	16350	16402	0	708
-29.571	-35.377	16352	17541	0	708
-31.807	-39.885	16353	18274	0	708
-31.807	-41.435	16353	18571	0	708
-30.761	-40.822	16352	18590	0	708
-26.433	-37.324	16350	18444	0	708
-23.260	-35.305	16349	18190	0	708
-21.781	-32.239	16347	17940	0	708
-21.349	-33.105	16346	17912	0	708
-24.342	-35.701	16346	18171	0	708
-25.243	-37.036	16348	18674	0	708
-22.791	-36.855	16351	19526	0	708
-20.303	-35.557	16356	20716	0	708
-18.428	-35.088	16362	21957	0	708
-19.942	-35.774	16366	22842	0	708
-24.125	-37.541	16370	23166	0	708
-23.765	-36.819	16374	23223	0	708
-21.168	-32.348	16376	23171	0	708
-14.605	-26.001	16378	22870	0	708
-13.668	-25.424	16380	22451	0	708
-16.408	-28.092	16381	22023	0	708
-23.404	-35.810	16382	21431	0	708
-30.112	-42.012	16382	20800	0	708
-33.682	-45.618	16383	20335	0	708
-33.898	-45.222	16384	20066	0	708
-35.233	-45.582	16387	20104	0	708
-36.567	-44.320	16390	20377	0	708
-37.072	-44.140	16393	20443	0	708
-36.278	-42.157	16394	19982	0	708
-33.069	-38.875	16393	19102	0	708
-26.794	-34.367	16392	18039	0	708
-23.116	-31.266	16390	16896	0	708
-21.926	-29.427	16387	15797	0	708
-24.306	-32.420	16384	14959	0	708
-29.066	-37.505	16384	14480	0	708
-33.429	-42.806	16383	14240	0	708
-31.230	-45.330	16383	14146	0	708
-26.433	-41.868	16384	14263	0	708
-19.654	-34.295	16384	14668	0	708
-14.930	-25.424	16386	15157	0	708
-15.002	-20.231	16387	15510	0	708
-18.752	-17.923	16389	15773	0	708
-24.162	-20.952	16390	16008	0	708
-27.047	-24.594	16391	16112	0	708
-26.289	-25.027	16390	15905	0	708
-23.440	-23.188	16388	15350	0	708
-20.519	-21.421	16385	14611	0	708
-20.339	-22.935	16382	13797	0	708
-25.568	-30.220	16379	13050	0	708
-32.528	-38.478	16377	12697	0	708
-36.423	-42.553	16376	12894	0	708
-35.810	-41.543	16375	13242	1	316
-31.699	-36.711	16374	13379	0	316
-28.958	-34.656	16373	13515	0	316
-29.138	-36.351	16373	13755	0	316
-32.961	-40.281	16371	13830	0	316
-35.449	-40.317	16370	13760	0	316
-34.908	-37.757	16369	13948	0	316
-32.744	-33.790	16370	14574	0	316
-30.040	-31.879	16371	15242	0	316
-26.578	-29.679	16370	15524	0	316
-24.630	-28.741	16369	15439	0	316
-21.745	-26.506	16367	15171	0	316
-20.555	-26.506	16364	14809	0	316
-23.837	-29.715	16362	14484	0	316
-27.047	-36.062	16360	14409	0	316
-30.797	-41.363	16359	14545	0	316
-31.230	-42.553	16357	14574	0	316
-32.492	-44.248	16354	14404	0	316
-34.367	-45.618	16352	14244	0	316
-38.767	-50.667	16352	14432	0	316
-41.075	-55.211	16352	15119	0	316
-42.157	-56.293	16354	15980	0	316
-37.649	-52.831	16357	16835	0	316
-32.889	-47.674	16360	17832	0	316
-29.174	-42.084	16364	18825	0	316
-26.542	-40.173	16367	19610	0	316
-26.614	-39.632	16370	20151	0	316
-26.974	-40.029	16373	20405	0	316
-25.532	-38.550	16375	20607	0	316
-22.034	-35.846	16380	21045	0	316
-21.529	-33.934	16383	21501	0	316
-22.683	-35.665	16386	21741	0	316
-28.705	-40.714	16389	21826	0	316
-35.846	-47.313	16393	21943	0	316
-39.740	-51.388	16397	22202	0	316
-36.423	-50.451	16400	22296	0	316
-29.859	-44.753	16401	21835	0	316
-22.827	-38.442	16402	20913	0	316
-18.824	-36.351	16400	19780	0	316
-20.123	-38.118	16398	18510	0	316
-24.342	-42.481	16395	17164	0	316
-30.869	-48.215	16391	15829	0	316
-36.314	-53.119	16387	14630	0	316
-40.570	-55.932	16384	13769	0	316
-42.734	-56.473	16383	13289	0	316
-42.301	-58.024	16382	13158	0	316
-41.327	-57.122	16382	13388	0	316
-40.065	-56.473	16382	13793	0	316
-39.199	-56.149	16384	14244	0	316
-40.606	-55.175	16385	14889	0	316
-40.245	-53.444	16387	15491	0	316
-38.334	-49.730	16388	15740	0	316
-34.764	-43.707	16389	15862	0	316
-28.309	-38.009	16390	16093	0	316
-21.998	-31.843	16392	16426	0	316
-16.589	-27.840	16394	16929	0	316
-13.091	-26.253	16397	17428	0	316
-10.963	-25.640	16399	17729	0	316
-7.573	-23.837	16401	17832	0	316
-5.698	-21.349	16401	17696	0	316
-5.013	-21.637	16402	17461	0	316
-8.114	-23.188	16401	17221	0	316
-15.326	-27.768	16400	16764	0	316
-24.919	-34.547	16398	16135	0	316
-32.708	-40.786	16397	15660	0	316
-37.937	-43.924	16397	15416	0	316
-38.009	-44.573	16396	15289	0	316
-36.351	-42.445	16395	15227	0	316
-33.321	-40.065	16395	15227	0	316
-31.446	-37.505	16395	15260	0	316
-30.112	-36.639	16395	15317	0	316
-29.499	-36.495	16395	15303	0	316
-27.047	-36.675	16392	15035	0	316
-25.568	-37.252	16391	14569	0	316
-22.322	-38.009	16390	14357	0	316
-20.375	-35.701	16390	14611	0	316
-15.831	-29.066	16390	15025	0	316
-10.927	-19.618	16390	15336	0	316
-4.832	-11.360	16391	15510	0	316
-0.793	-9.196	16389	15397	0	316
-1.875	-15.182	16387	15058	0	316
-7.032	-23.585	16386	14842	0	316
-10.710	-28.056	16384	14771	0	316
-12.333	-27.371	16383	14545	0	316
-7.032	-19.942	16381	14188	0	316
-1.479	-15.362	16379	14028	0	316
1.947	-13.884	16377	14051	0	316
-0.216	-19.329	16375	13943	0	316
-7.898	-25.784	16371	13628	0	316
-13.848	-29.066	16368	13219	0	316
-17.021	-28.273	16364	12791	0	316
-15.507	-22.106	16361	12476	0	316
-11.828	-15.687	16358	12485	0	316
-7.825	-11.576	16355	12749	0	316
-6.888	-11.504	16353	12908	0	316
-7.681	-13.307	16350	12871	0	316
-9.809	-16.372	16347	12861	0	316
-9.304	-16.228	16346	13134	0	316
-10.386	-15.182	16345	13718	0	316
-10.674	-14.713	16345	14456	0	316
-12.225	-16.697	16345	15185	0	316
-13.487	-18.428	16345	15674	0	316
-13.559	-19.726	16344	15862	0	316
-11.828	-18.680	16343	15989	0	316
-11.143	-18.139	16343	16407	0	316
-13.127	-19.113	16346	17381	0	316
-15.038	-22.395	16350	18684	0	316
-18.247	-26.794	16354	19784	0	316
-19.473	-30.905	16357	20447	0	316
-20.519	-33.141	16361	20951	0	316
-23.476	-34.223	16364	21492	0	316
-25.712	-33.321	16368	22070	0	316
-26.758	-29.210	16374	22738	0	316
-27.696	-26.830	16378	23265	0	316
-25.424	-26.073	16381	23246	0	316
-22.791	-24.739	16382	22715	0	316
-19.149	-22.070	16382	21924	0	316
-16.084	-18.788	16382	21068	0	316
-15.507	-15.074	16383	20372	1	472
-18.428	-14.641	16383	19812	0	472
-23.729	-18.644	16382	19116	0	472
-26.758	-22.503	16380	18190	0	472
-27.155	-24.702	16378	17169	0	472
-24.125	-23.585	16375	16225	0	472
-18.428	-19.618	16374	15665	0	472
-14.136	-17.490	16376	15750	0	472
-13.127	-15.182	16378	16253	0	472
-14.461	-18.500	16379	16642	0	472
-21.890	-24.919	16380	16595	0	472
-29.318	-33.357	16379	16206	0	472
-35.052	-39.272	16378	15660	0	472
-36.964	-41.940	16376	15133	0	472
-35.485	-41.363	16375	14837	0	472
-33.574	-38.442	16374	14734	0	472
-33.429	-36.278	16374	14611	0	472
-33.790	-36.314	16374	14658	0	472
-33.033	-36.855	16376	15213	0	472
-29.535	-35.882	16380	16126	0	472
-25.171	-32.672	16383	16971	0	472
-20.591	-28.561	16385	17611	0	472
-17.706	-24.847	16388	18020	0	472
-16.012	-22.142	16389	18067	0	472
-13.668	-21.781	16389	17724	0	472
-9.989	-18.897	16387	17131	0	472
-4.327	-14.425	16385	16402	0	472
1.370	-7.645	16384	15608	0	472
3.426	-4.688	16381	14804	0	472
2.164	-5.770	16378	14099	0	472
-3.065	-11.612	16376	13779	0	472
-9.665	-19.257	16376	14009	0	472
-15.939	-25.604	16377	14480	0	472
-21.096	-31.085	16378	15011	0	472
-25.460	-32.528	16381	15834	0	472
-28.309	-34.620	16384	16896	0	472
-31.771	-37.541	16387	17724	0	472
-34.583	-41.796	16389	17992	0	472
-38.370	-48.503	16389	17790	0	472
-39.885	-52.470	16388	17329	0	472
-35.629	-50.559	16387	16708	0	472
-26.506	-42.193	16384	15999	0	472
-18.103	-31.266	16382	15227	0	472
-15.182	-25.496	16378	14437	0	472
-21.168	-28.273	16375	13774	0	472
-29.174	-36.098	16373	13473	0	472
-34.656	-41.796	16371	13548	0	472
-33.790	-43.635	16371	13835	0	472
-28.958	-39.740	16371	14258	0	472
-27.371	-37.649	16373	14884	0	472
-29.499	-36.747	16376	15754	0	472
-32.095	-37.793	16378	16562	0	472
-33.826	-36.206	16378	16929	0	472
-29.318	-31.662	16378	16877	0	472
-23.188	-26.794	16377	16605	0	472
-16.877	-23.476	16375	16201	0	472
-15.110	-25.279	16373	15693	0	472
-18.933	-29.931	16371	15227	0	472
-25.424	-37.937	16369	15030	0	472
-33.069	-45.979	16369	15147	0	472
-38.514	-51.316	16370	15533	0	472
-41.183	-53.696	16372	16309	0	472
-39.344	-51.497	16377	17475	0	472
-36.495	-47.458	16382	18839	0	472
-31.446	-40.642	16388	20161	0	472
-27.083	-36.098	16393	21172	0	472
-24.630	-34.367	16399	21910	0	472
-26.506	-35.377	16405	22597	0	472
-30.076	-39.993	16410	23030	0	472
-32.348	-41.868	16412	22860	0	472
-30.617	-40.822	16414	22268	0	472
-22.827	-36.206	16416	21642	0	472
-17.093	-31.915	16417	21021	0	472
-13.884	-31.013	16416	20137	0	472
-15.687	-33.321	16414	18971	0	472
-19.978	-37.000	16412	17757	0	472
-22.863	-38.009	16410	16755	0	472
-21.457	-37.036	16408	15956	0	472
-20.880	-34.331	16405	15053	0	472
-22.683	-34.836	16401	13967	0	472
-27.299	-37.613	16397	12847	0	472
-33.898	-40.642	16391	11780	0	472
-36.747	-41.868	16386	10797	0	472
-33.393	-37.973	16382	10025	0	472
-26.181	-30.833	16378	9654	0	472
-18.103	-26.073	16375	9621	0	472
-15.002	-25.856	16371	9578	0	472
-16.985	-29.968	16366	9423	0	472
-20.664	-35.629	16362	9268	0	472
-22.935	-37.432	16358	9160	0	472
-24.414	-35.124	16353	9094	0	472
-24.162	-32.312	16349	9197	0	472
-25.424	-31.266	16347	9762	0	472
-29.102	-35.485	16347	10891	0	472
-34.583	-43.058	16347	12161	0	472
-41.219	-51.893	16347	13092	0	472
-46.664	-57.988	16346	13694	0	472
-48.612	-58.384	16346	14216	0	472
-45.114	-54.345	16346	14922	0	472
-35.990	-44.356	16347	15759	0	472
-27.551	-36.278	16347	16463	0	472
-21.457	-31.302	16349	17145	0	472
-19.834	-31.771	16350	17884	0	472
-18.247	-31.879	16351	18401	0	472
-14.208	-30.364	16352	18660	0	472
-6.239	-24.630	16354	18994	0	472
-0.180	-16.805	16356	19511	0	472
3.426	-10.278	16358	20062	0	472
2.849	-9.268	16360	20499	0	472
0.144	-10.314	16362	20622	0	472
-2.092	-13.956	16363	20480	0	472
-3.065	-19.618	16365	20527	0	472
-6.708	-22.467	16369	20965	0	472
-8.475	-24.053	16371	21384	0	472
-9.556	-23.152	16373	21346	0	472
-9.484	-23.945	16374	20904	0	472
-11.432	-27.732	16373	20269	0	472
-14.641	-32.925	16372	19530	0	472
-19.726	-38.298	16371	18698	0	472
-22.178	-39.380	16368	17828	0	472
-24.594	-38.118	16366	16957	0	472
-25.604	-37.685	16364	16229	0	472
-29.643	-38.370	16363	15834	0	472
-30.545	-40.714	16363	15731	0	472
-28.525	-37.000	16361	15571	0	472
-21.673	-29.751	16361	15326	0	472
-14.136	-22.034	16362	15416	0	472
-10.350	-17.454	16364	16112	0	472
-12.477	-20.555	16369	17183	0	472
-17.995	-27.660	16373	18166	0	472
-22.972	-35.449	16377	18919	0	472
-25.207	-39.993	16381	19464	0	472
-27.227	-41.435	16383	19638	0	472
-27.443	-41.688	16384	19483	0	472
-29.354	-43.563	16386	19342	0	472
-32.203	-43.310	16387	19262	0	472
-33.429	-44.068	16388	18928	0	472
-33.898	-42.842	16387	18274	0	472
-32.059	-40.353	16386	17465	0	472
-29.787	-38.695	16384	16680	0	472
-27.227	-38.911	16384	16163	0	472
-24.342	-39.524	16384	15877	0	472
-21.204	-39.452	16383	15500	0	472
-19.798	-39.091	16381	15016	0	472
-16.625	-34.295	16381	14748	0	472
-13.668	-30.184	16381	14813	0	472
-11.035	-24.198	16382	15058	0	472
-10.566	-22.575	16382	15303	0	472
-10.350	-22.178	16383	15430	0	472
-11.179	-22.791	16384	15693	0	472
-12.405	-24.234	16387	16416	0	472
-13.307	-23.873	16392	17517	0	472
-17.202	-25.676	16399	18768	0	472
-23.260	-30.653	16405	19972	0	472
-32.312	-38.586	16410	20861	0	472
-38.947	-45.510	16416	21360	0	472
-43.094	-50.956	16420	21633	0	472
-44.428	-52.578	16425	21830	0	472
-46.340	-54.598	16430	22042	0	472
-46.268	-56.257	16433	22023	0	472
-45.546	-59.250	16436	21525	0	472
-43.310	-58.240	16438	20908	0	472
-37.036	-51.965	16441	20542	0	472
-31.122	-43.527	16442	20104	1	652
-26.650	-35.954	16441	19177	0	652
-22.863	-31.230	16439	17842	0	652
-21.096	-31.085	16437	16449	0	652
-17.887	-31.122	16434	15298	0	652
-14.749	-28.417	16432	14442	0	652
-10.169	-23.044	16430	13765	0	652
-8.871	-19.005	16428	13228	0	652
-8.006	-17.202	16427	12913	0	652
-10.314	-19.365	16427	12899	0	652
-13.920	-23.549	16427	13021	0	652
-15.326	-27.551	16426	13087	0	652
-17.238	-28.705	16425	13045	0	652
-19.185	-28.381	16424	12819	0	652
-22.611	-30.400	16422	12603	0	652
-27.587	-34.367	16421	12584	0	652
-32.095	-40.714	16420	12678	0	652
-36.567	-46.412	16419	12796	0	652
-38.803	-50.451	16419	13040	0	652
-42.517	-52.362	16420	13511	0	652
-43.383	-50.992	16419	13915	0	652
-43.347	-49.261	16418	13957	0	652
-42.878	-46.845	16417	13882	0	652
-41.327	-46.484	16415	13854	0	652
-41.507	-46.989	16412	13600	0	652
-40.173	-46.340	16408	13035	0	652
-37.324	-46.195	16404	12438	0	652
-32.456	-41.832	16401	12104	0	652
-26.037	-37.396	16397	11996	0	652
-20.988	-33.538	16393	11874	0	652
-16.661	-29.823	16391	11827	0	652
-14.858	-25.243	16388	12029	0	652
-15.254	-23.873	16387	12410	0	652
-19.798	-24.414	16385	12796	0	652
-23.404	-27.696	16384	13064	0	652
-24.919	-30.833	16382	13374	0	652
-23.116	-31.735	16381	13892	0	652
-20.014	-32.961	16381	14512	0	652
-20.988	-35.052	16381	15039	0	652
-24.919	-40.389	16380	15387	0	652
-29.751	-43.924	16380	15731	0	652
-31.194	-44.933	16380	16116	0	652
-27.984	-40.642	16378	16356	0	652
-22.539	-34.944	16378	16567	0	652
-20.664	-32.384	16378	16849	0	652
-21.818	-33.754	16376	16901	0	652
-25.027	-37.468	16374	16628	0	652
-28.309	-41.471	16371	16295	0	652
-30.112	-44.897	16370	16182	0	652
-30.220	-45.510	16369	16239	0	652
-31.807	-46.087	16367	16239	0	652
-30.761	-44.681	16367	16286	0	652
-28.381	-41.904	16366	16539	0	652
-24.306	-36.603	16367	17009	0	652
-19.510	-31.194	16370	17795	0	652
-19.690	-27.912	16374	18914	0	652
-22.899	-27.587	16379	20090	0	652
-27.191	-30.292	16383	21031	0	652
-31.518	-34.980	16387	21755	0	652
-33.466	-39.524	16392	22461	0	652
-35.774	-44.537	16396	22926	0	652
-38.226	-49.189	16399	22799	0	652
-40.065	-50.667	16399	22141	0	652
-39.524	-50.523	16399	21280	0	652
-36.891	-48.107	16400	20636	0	652
-33.285	-45.114	16401	20382	0	652
-30.581	-43.274	16403	20226	0	652
-31.085	-43.924	16404	19935	0	652
-31.987	-42.301	16405	19601	0	652
-32.167	-41.435	16407	19286	0	652
-33.069	-39.127	16407	18858	0	652
-32.420	-40.137	16406	18223	0	652
-34.656	-43.058	16406	17569	0	652
-37.973	-47.674	16406	17084	0	652
-39.849	-50.703	16406	16802	0	652
-40.209	-51.100	16407	16760	0	652
-37.541	-47.097	16408	16689	0	652
-33.790	-43.310	16406	16201	0	652
-30.617	-40.606	16404	15331	0	652
-29.282	-38.298	16401	14320	1	316
-28.128	-38.298	16396	13275	0	316
-29.066	-38.911	16391	12325	0	316
-32.167	-40.317	16388	11817	0	316
-34.872	-44.212	16387	11888	0	316
-39.668	-48.648	16385	12118	0	316
-42.806	-53.768	16384	12142	0	316
-45.258	-58.529	16383	12179	0	316
-45.979	-61.342	16381	12344	0	316
-41.507	-58.673	16379	12358	0	316
-34.403	-50.090	16377	12245	0	316
-24.811	-39.885	16375	12325	0	316
-18.680	-31.374	16373	12584	0	316
-19.690	-29.751	16371	12772	0	316
-24.847	-34.547	16371	13115	0	316
-31.122	-38.803	16372	13981	0	316
-32.203	-39.235	16375	15176	0	316
-30.436	-35.918	16377	16243	0	316
-26.686	-33.466	16380	17066	0	316
-23.332	-33.538	16381	17668	0	316
-22.935	-36.675	16383	17969	0	316
-20.952	-37.829	16384	18232	0	316
-17.923	-35.341	16387	18844	0	316
-14.930	-29.715	16391	19761	0	316
-15.831	-27.335	16396	20777	0	316
-21.601	-29.535	16402	21802	0	316
-30.184	-37.360	16408	22696	0	316
-37.649	-45.727	16413	23133	0	316
-40.245	-49.369	16415	22879	0	316
-36.170	-48.179	16416	22061	0	316
-31.879	-43.202	16414	20904	0	316
-28.201	-39.885	16412	19634	0	316
-26.614	-37.324	16411	18637	0	316
-23.909	-33.393	16412	18204	0	316
-18.428	-27.155	16413	18133	0	316
-10.602	-19.185	16414	18020	0	316
-4.940	-12.009	16414	17771	0	316
-1.298	-9.520	16414	17385	0	316
-0.361	-10.097	16412	16694	0	316
0.325	-10.963	16409	15702	0	316
3.029	-9.196	16406	14686	0	316
7.068	-5.265	16404	13910	0	316
8.619	-2.056	16401	13426	0	316
9.773	-0.252	16399	13144	0	316
8.727	-0.397	16398	13012	0	316
7.429	-1.226	16397	13068	0	316
5.229	-2.236	16398	13487	0	316
5.590	-1.659	16400	14282	0	316
4.616	-1.839	16403	15270	0	316
3.462	-3.678	16407	16342	0	316
0.829	-5.986	16411	17352	0	316
-2.741	-9.592	16414	18072	0	316
-6.383	-12.405	16417	18448	0	316
-8.871	-14.785	16418	18514	0	316
-9.268	-14.894	16418	18138	0	316
-7.104	-12.333	16416	17310	0	316
-4.940	-7.898	16413	16248	0	316
-1.551	-4.760	16408	15072	0	316
0.036	-3.750	16403	13948	0	316
0.180	-5.806	16400	13106	0	316
-1.406	-8.511	16395	12523	0	316
-2.524	-12.081	16390	11902	0	316
-2.452	-15.110	16385	11220	0	316
-2.200	-16.913	16383	10905	0	316
-2.236	-18.752	16381	11163	0	316
-3.750	-20.087	16380	11695	0	316
-4.724	-18.356	16379	12203	0	316
-6.203	-16.913	16377	12617	0	316
-6.094	-17.562	16375	12800	0	316
-7.429	-18.933	16372	12706	0	316
-6.419	-19.005	16369	12565	0	316
-6.094	-18.247	16366	12645	0	316
-4.508	-15.831	16365	12998	0	316
-4.616	-15.182	16364	13478	0	316
-6.960	-18.608	16363	14014	0	316
-12.189	-24.847	16364	14701	0	316
-16.589	-29.499	16364	15613	0	316
-16.589	-29.318	16367	16553	0	316
-11.179	-25.243	16368	17324	0	316
-5.337	-18.428	16371	17969	0	316
-1.082	-15.218	16372	18627	0	316
-1.479	-15.903	16376	19389	0	316
-6.780	-19.510	16379	20095	0	316
-12.477	-22.575	16381	20574	0	316
-15.326	-24.630	16383	20791	0	316
-13.992	-23.549	16384	20603	0	316
-12.477	-22.539	16383	20005	0	316
-13.199	-22.214	16381	19281	0	316
-16.516	-21.962	16380	18726	0	316
-20.447	-24.630	16379	18321	0	316
-22.827	-25.279	16377	17762	0	316
-21.168	-25.856	16375	17037	0	316
-16.552	-26.506	16374	16595	0	316
-13.704	-24.666	16375	16661	0	316
-13.415	-24.162	16375	16830	0	316
-14.317	-24.883	16373	16623	0	316
-16.048	-27.587	16371	16079	0	316
-17.490	-28.597	16369	15514	0	316
-17.743	-27.840	16367	15209	0	316
-18.139	-24.342	16367	15185	0	316
-19.401	-22.322	16367	15392	0	316
-21.565	-22.070	16368	15872	0	316
-24.125	-25.820	16369	16342	0	316
-25.063	-30.004	16369	16412	0	316
-24.378	-31.482	16367	16116	0	316
-21.385	-27.732	16365	15646	0	316
-18.897	-24.270	16362	15091	0	316
-19.798	-23.296	16359	14503	0	316
-25.243	-27.840	16356	14000	0	316
-34.331	-38.658	16354	13797	0	316
-42.409	-47.854	16352	13835	0	316
-48.503	-51.929	16349	13783	0	316
-47.890	-49.730	16347	13642	0	316
-45.186	-43.419	16346	13732	0	316
-40.245	-38.370	16346	14155	0	316
-34.187	-36.206	16346	14766	0	316
-29.823	-34.908	16347	15448	0	316
-25.712	-33.105	16349	16173	0	316
-24.775	-31.122	16351	16915	0	316
-23.152	-29.318	16354	17658	0	316
-19.942	-28.633	16356	18364	0	316
-13.992	-25.604	16360	19013	0	316
-6.491	-21.385	16361	19511	0	316
0.361	-15.218	16363	19662	0	316
1.731	-11.071	16364	19413	0	316
-0.036	-10.314	16363	19008	0	316
-2.092	-12.694	16364	18754	0	316
-2.957	-15.290	16364	18726	0	316
-2.560	-14.713	16367	18891	0	316
-0.397	-12.477	16370	19276	0	316
-1.154	-11.900	16372	19615	0	316
-4.544	-13.704	16373	19511	0	316
-9.737	-16.913	16372	19008	0	316
-15.723	-21.204	16372	18411	0	316
-20.555	-24.522	16372	17987	0	316
-23.368	-25.388	16372	17701	0	316
-24.342	-27.840	16371	17338	0	316
-26.758	-30.653	16371	17014	0	316
-27.010	-34.367	16372	16901	0	316
-26.433	-35.918	16374	17037	0	316
-24.414	-35.305	16376	17437	0	316
-21.349	-33.826	16378	17799	0	316
-18.247	-31.771	16380	17823	0	316
-16.949	-29.787	16382	17846	0	316
-15.218	-25.856	16384	18227	0	316
-11.287	-21.529	16387	18688	0	316
-5.734	-15.038	16390	19055	0	316
0.325	-10.061	16395	19488	0	316
3.931	-6.599	16398	19794	0	316
5.301	-7.104	16399	19568	0	316
6.203	-4.724	16399	18858	0	316
9.881	-0.108	16398	18006	0	316
15.435	6.419	16398	17320	0	316
21.313	11.179	16397	16769	0	316
20.700	12.766	16396	16149	0	316
14.894	7.645	16395	15571	0	316
2.128	-0.757	16393	15143	0	316
-7.681	-7.104	16391	14592	0	316
-11.756	-8.835	16388	13910	0	316
-10.638	-4.147	16387	13449	0	316
-2.921	2.416	16386	13313	0	316
1.406	7.212	16386	13449	0	316
3.606	5.409	16387	13868	0	316
1.190	-0.757	16387	14296	0	316
-2.416	-7.934	16386	14362	0	316
-2.344	-11.756	16385	14193	0	316
-1.875	-8.402	16385	14254	0	316
1.983	0.036	16386	14715	0	316
8.042	9.448	16387	15303	0	316
13.127	16.012	16389	15782	0	316
18.716	19.942	16390	16182	0	316
24.089	19.798	16393	16628	0	316
27.551	20.808	16396	17329	0	316
32.564	25.207	16400	18223	0	316
38.406	33.682	16404	18919	0	316
43.202	41.399	16408	19380	0	316
45.186	44.068	16412	19944	0	316
41.580	41.940	16418	20687	0	316
36.351	34.295	16423	21459	0	316
31.338	29.174	16429	22084	0	316
30.797	26.361	16433	22254	0	316
30.869	28.453	16434	21722	0	316
30.472	27.624	16434	20622	0	316
28.164	25.893	16431	19210	0	316
28.741	22.539	16427	17635	0	316
34.872	24.450	16422	15985	1	740
45.078	29.968	16417	14320	0	740
55.211	40.353	16410	12702	0	740
62.640	49.405	16403	11178	0	740
64.443	56.545	16397	9889	0	740
65.489	59.574	16391	9150	0	740
69.528	62.387	16388	9080	0	740
74.107	65.164	16384	9254	0	740
79.661	69.996	16381	9216	0	740
84.421	74.865	16377	9000	0	740
88.388	80.346	16372	8854	0	740
91.381	83.375	16369	9000	0	740
93.978	84.565	16367	9484	0	740
93.978	83.952	16365	10176	0	740
91.814	80.635	16363	10867	0	740
87.919	79.156	16361	11356	0	740
85.395	76.019	16358	11606	0	740
85.972	76.055	16354	11747	0	740
87.234	75.694	16351	11925	0	740
86.946	75.225	16349	12339	0	740
82.871	71.727	16348	13040	0	740
74.360	65.308	16348	13873	0	740
66.354	58.457	16348	14668	0	740
58.420	51.965	16347	15209	0	740
52.651	47.854	16345	15448	0	740
46.556	43.130	16343	15538	0	740
39.416	35.882	16341	15566	0	740
28.994	27.515	16338	15524	0	740
17.851	19.726	16335	15430	0	740
7.465	16.048	16333	15397	0	740
0.433	17.382	16333	15754	0	740
-2.849	20.447	16335	16717	0	740
-3.390	20.195	16338	18058	0	740
-8.258	14.425	16342	19356	0	740
-17.779	4.003	16347	20551	0	740
-32.853	-9.232	16353	21793	0	740
-47.962	-22.142	16358	22832	0	740
-60.224	-32.095	16361	23392	0	740
-67.905	-39.272	16366	23698	0	740
-72.016	-44.681	16369	23886	0	740
-77.461	-48.539	16372	23693	0	740
-83.339	-54.418	16372	23091	0	740
-89.722	-61.882	16373	22263	0	740
-94.050	-70.934	16372	21388	0	740
-92.788	-76.704	16373	20786	0	740
-89.975	-79.409	16375	20640	0	740
-85.792	-78.868	16377	20546	0	740
-86.909	-77.353	16377	20062	0	740
-89.722	-77.605	16377	19333	0	740
-95.997	-82.546	16377	18759	0	740
-98.558	-88.640	16378	18345	0	740
-100.541	-93.040	16377	17875	0	740
-97.800	-93.978	16378	17461	0	740
-94.086	-92.102	16378	17174	0	740
-88.749	-89.326	16378	16840	0	740
-84.313	-89.867	16378	16548	0	740
-82.979	-91.706	16378	16388	0	740
-83.087	-92.102	16377	16069	0	740
-81.248	-88.604	16376	15496	0	740
-78.399	-82.474	16375	14936	0	740
-71.872	-78.327	16374	14738	0	740
-64.948	-73.675	16375	15011	0	740
-58.709	-69.852	16376	15387	0	740
-55.175	-63.000	16376	15420	0	740
-53.047	-56.834	16375	15124	0	740
-52.542	-53.011	16373	14686	0	740
-52.110	-53.696	16372	14296	0	740
-50.595	-55.896	16371	14169	0	740
-47.999	-58.096	16371	14343	0	740
-47.025	-58.096	16372	14663	0	740
-46.268	-57.447	16372	14955	0	740
-48.900	-59.791	16371	15006	0	740
-51.388	-61.630	16370	14781	0	740
-51.605	-62.568	16367	14418	0	740
-49.982	-60.476	16365	14009	0	740
-44.537	-56.942	16363	13670	0	740
-38.298	-50.956	16362	13623	0	740
-30.797	-47.494	16361	13816	0	740
-25.784	-43.851	16360	14004	0	740
-22.611	-42.806	16360	14357	1	316
-21.637	-41.399	16362	15152	0	316
-23.332	-41.111	16364	16008	0	316
-23.549	-40.714	16365	16449	0	316
-23.440	-40.894	16366	16614	0	316
-23.332	-40.642	16367	16901	0	316
-22.827	-41.003	16369	17367	0	316
-23.801	-42.193	16371	17870	0	316
-25.640	-42.878	16373	18279	0	316
-29.391	-46.881	16374	18401	0	316
-34.872	-55.067	16374	18185	0	316
-40.966	-62.928	16372	17766	0	316
-46.051	-69.167	16371	17249	0	316
-47.890	-69.419	16370	16755	0	316
-44.032	-61.378	16370	16506	0	316
-36.891	-53.300	16369	16445	0	316
-31.194	-46.881	16368	16267	0	316
-30.545	-44.933	16367	15961	0	316
-32.816	-46.989	16366	15867	0	316
-38.190	-49.441	16367	16074	0	316
-42.229	-47.602	16368	16431	0	316
-40.570	-45.474	16370	16779	0	316
-34.908	-41.868	16369	16882	0	316
-29.246	-39.308	16370	16769	0	316
-26.614	-39.740	16371	16882	0	316
-26.433	-40.534	16374	17437	0	316
-30.184	-43.238	16376	18030	0	316
-31.987	-43.238	16377	18199	0	316
-33.898	-44.789	16377	17964	0	316
-35.485	-47.169	16377	17545	0	316
-37.396	-50.884	16376	17117	0	316
-38.839	-53.660	16377	17004	0	316
-38.695	-53.228	16379	17432	0	316
-35.305	-50.956	16383	18204	0	316
-33.790	-48.720	16385	18815	0	316
-33.538	-47.602	16387	18928	0	316
-34.115	-50.559	16387	18594	0	316
-33.970	-51.965	16387	18025	0	316
-30.256	-49.585	16386	17437	0	316
-26.397	-43.851	16387	17141	0	316
-19.149	-37.144	16389	17395	0	316
-13.559	-31.662	16393	18100	0	316
-7.862	-28.886	16398	19032	0	316
-5.770	-29.751	16404	19977	0	316
-7.537	-30.256	16408	20560	0	316
-11.396	-31.626	16411	20612	0	316
-15.687	-30.833	16414	20429	0	316
-16.625	-30.905	16416	20156	0	316
-17.562	-31.879	16416	19554	0	316
-21.096	-37.036	16415	18566	0	316
-28.994	-44.537	16413	17399	0	316
-38.298	-52.759	16410	16182	0	316
-43.851	-58.493	16406	14940	0	316
-45.005	-59.791	16402	13802	0	316
-42.120	-61.161	16400	13106	0	316
-41.075	-61.558	16399	13017	0	316
-42.409	-63.469	16398	13205	0	316
-44.176	-63.325	16399	13487	0	316
-45.402	-62.171	16401	14103	0	316
-42.806	-57.843	16404	15016	0	316
-39.452	-53.660	16407	15721	0	316
-34.872	-47.890	16407	15891	0	316
-29.895	-42.084	16406	15623	0	316
-25.784	-35.882	16405	15227	0	316
-20.411	-31.915	16405	15053	0	316
-16.841	-30.725	16406	15279	0	316
-13.704	-30.040	16406	15543	0	316
-12.766	-28.128	16405	15505	0	316
-13.415	-23.837	16405	15387	0	316
-13.054	-21.637	16405	15317	0	316
-13.668	-20.447	16403	15129	0	316
-12.550	-21.926	16404	15025	0	316
-12.045	-22.972	16405	15397	0	316
-11.287	-21.601	16407	16088	0	316
-13.091	-21.781	16409	16652	0	316
-16.552	-22.503	16411	17089	0	316
-20.123	-27.191	16414	17710	0	316
-24.594	-34.115	16418	18500	0	316
-29.499	-39.668	16421	18980	0	316
-31.302	-41.760	16421	18844	0	316
-31.879	-40.029	16421	18317	0	316
-30.184	-34.331	16422	17912	0	316
-27.371	-30.545	16423	17851	0	316
-25.965	-28.345	16423	17771	0	316
-25.424	-31.338	16422	17277	0	316
-25.388	-33.033	16419	16398	0	316
-23.008	-33.141	16415	15336	0	316
-18.752	-28.597	16411	14207	0	316
-13.054	-25.496	16406	13177	0	316
-9.520	-22.611	16403	12560	0	316
-6.996	-22.791	16401	12518	0	316
-8.006	-23.368	16400	12749	0	316
-7.825	-22.827	16399	12974	0	316
-8.150	-21.962	16398	13219	0	316
-7.321	-19.870	16398	13600	0	316
-9.016	-19.942	16399	14296	0	316
-9.484	-21.313	16402	15223	0	316
-12.730	-23.188	16403	15919	0	316
-14.894	-27.155	16403	16069	0	316
-18.031	-28.850	16401	15872	0	316
-20.880	-31.951	16401	15731	0	316
-24.017	-32.744	16399	15674	0	316
-24.594	-33.538	16398	15496	0	316
-23.044	-34.475	16397	15397	0	316
-22.178	-35.341	16398	15674	0	316
-22.034	-39.019	16398	16093	0	316
-23.044	-41.327	16399	16482	0	316
-24.270	-41.832	16401	17004	0	316
-21.818	-39.452	16402	17447	0	316
-18.536	-35.701	16402	17517	0	316
-15.651	-33.213	16402	17432	0	316
-14.389	-34.187	16402	17334	0	316
-13.523	-34.475	16401	17084	0	316
-10.638	-31.158	16401	16826	0	316
-4.977	-23.368	16400	16628	0	316
-0.108	-14.821	16397	16220	0	316
-0.397	-12.586	16394	15604	0	316
-5.481	-17.166	16393	15256	0	316
-14.497	-25.568	16393	15369	0	316
-22.467	-34.403	16392	15543	0	316
-25.712	-36.134	16390	15345	0	316
-25.135	-35.918	16387	14917	0	316
-25.712	-34.115	16386	14748	0	316
-26.397	-32.167	16387	15039	0	316
-28.922	-32.528	16387	15477	0	316
-32.023	-34.367	16387	15820	0	316
-31.771	-36.459	16387	16022	0	316
-32.059	-40.029	16385	15947	0	316
-29.787	-42.553	16384	15547	0	316
-27.155	-41.219	16381	14973	0	316
-22.503	-35.701	16377	14343	0	316
-16.985	-28.345	16372	13699	0	316
-14.281	-24.198	16368	13068	0	316
-13.992	-23.188	16363	12480	0	316
-16.300	-25.496	16358	11968	0	316
-18.103	-27.371	16354	11615	0	316
-15.254	-24.522	16350	11620	0	316
-9.701	-18.428	16348	11940	0	316
-2.777	-12.441	16345	12236	0	316
0.865	-9.160	16342	12368	0	316
0.144	-12.189	16339	12542	0	316
-5.265	-18.788	16338	13007	0	316
-13.054	-26.037	16338	13793	0	316
-19.654	-31.879	16339	14818	0	316
-26.578	-35.774	16342	16088	0	316
-29.391	-36.062	16345	17399	0	316
-31.410	-35.774	16349	18538	0	316
-33.393	-35.124	16352	19441	0	316
-33.898	-35.305	16354	19963	0	316
-32.528	-35.197	16355	20146	0	316
-31.807	-35.557	16358	20429	0	316
-27.840	-35.701	16361	21139	0	316
-24.414	-35.016	16367	22075	0	316
-21.277	-33.393	16371	22832	0	316
-20.195	-31.915	16377	23378	0	316
-19.401	-28.705	16382	23938	0	316
-17.706	-24.919	16386	24309	0	316
-13.091	-18.824	16388	24093	0	316
-6.058	-13.127	16390	23350	0	316
2.019	-9.484	16390	22329	0	316
8.547	-6.491	16390	21238	0	316
11.360	-4.616	16389	20325	1	644
9.773	-5.770	16389	19577	0	644
6.924	-6.058	16387	18693	0	644
2.128	-6.203	16386	17668	0	644
-2.777	-9.484	16384	16849	0	644
-7.285	-10.314	16384	16286	0	644
-10.242	-11.937	16382	15637	0	644
-10.602	-12.910	16380	14795	0	644
-9.629	-13.740	16376	13896	0	644
-9.340	-16.877	16373	13106	0	644
-11.287	-21.060	16371	12654	0	644
-13.812	-23.332	16368	12495	0	644
-16.084	-24.594	16366	12283	0	644
-15.038	-22.611	16362	11907	0	644
-11.973	-20.627	16359	11507	0	644
-10.061	-20.375	16355	11149	0	644
-8.691	-22.250	16351	10839	0	644
-8.619	-22.034	16347	10594	0	644
-6.780	-19.401	16344	10514	0	644
-4.364	-15.218	16343	10881	0	644
-0.685	-11.071	16344	11902	0	644
1.515	-10.386	16347	13351	0	644
1.442	-11.215	16349	14686	0	644
0.974	-12.766	16351	15655	0	644
0.072	-13.307	16354	16487	0	644
0.721	-8.871	16356	17305	0	644
5.626	-5.085	16358	17945	0	644
11.035	-0.325	16361	18500	0	644
17.490	4.472	16363	19041	0	644
20.700	6.058	16364	19281	0	644
19.221	7.176	16365	19257	0	644
13.235	2.741	16368	19422	0	644
4.544	-3.750	16372	20057	0	644
-4.580	-11.432	16378	21035	0	644
-10.963	-15.903	16384	22051	0	644
-9.665	-14.785	16388	22733	0	644
-6.816	-8.799	16391	22780	0	644
-1.803	-1.659	16393	22277	0	644
0.865	1.262	16394	21558	0	644
0.902	0.361	16395	20937	0	644
0.938	-2.164	16396	20490	0	644
3.606	-4.652	16398	20208	0	644
7.934	-4.977	16402	20236	0	644
13.018	-5.121	16406	20499	0	644
16.048	-0.938	16409	20645	0	644
19.329	4.400	16413	20546	0	644
23.909	11.071	16415	20330	0	644
25.496	16.372	16418	20128	0	644
21.637	13.559	16422	20161	0	644
13.595	2.813	16427	20466	0	644
1.046	-10.891	16432	20786	0	644
-6.960	-20.411	16436	20847	0	644
-7.789	-21.529	16440	20612	0	644
-6.671	-17.995	16442	20184	0	644
-5.806	-15.471	16444	19629	0	644
-9.304	-18.031	16445	18905	0	644
-16.733	-24.089	16444	17870	0	644
-23.729	-31.374	16442	16595	0	644
-29.391	-37.613	16440	15434	0	644
-36.278	-41.688	16438	14442	0	644
-41.507	-47.025	16433	13308	0	644
-45.546	-49.657	16429	12057	0	644
-43.166	-49.153	16425	11051	0	644
-37.685	-44.969	16421	10416	0	644
-32.348	-42.229	16418	10011	0	644
-30.364	-41.471	16415	9677	0	644
-32.961	-44.284	16410	9305	0	644
-37.000	-46.448	16408	9141	0	644
-37.396	-47.061	16407	9447	0	644
-35.088	-46.556	16404	9879	0	644
-32.276	-44.068	16401	9992	0	644
-29.391	-41.507	16397	9799	0	644
-25.532	-36.026	16393	9597	0	644
-20.808	-28.633	16390	9658	0	644
-14.713	-19.690	16388	10016	0	644
-11.035	-15.867	16386	10618	0	644
-11.179	-15.975	16387	11516	0	644
-15.074	-22.395	16387	12527	0	644
-21.385	-31.194	16388	13529	0	644
-28.525	-38.082	16390	14625	0	644
-30.581	-39.488	16391	15613	0	644
-28.705	-36.351	16391	16102	0	644
-22.106	-28.092	16389	16121	0	644
-12.658	-18.464	16388	15966	0	644
-3.859	-10.927	16387	15938	0	644
-0.469	-8.655	16385	16018	0	644
-2.524	-9.340	16384	15975	0	644
-5.806	-13.848	16383	15924	0	644
-7.501	-17.382	16381	15961	0	644
-6.419	-16.877	16378	15811	0	644
-0.433	-12.117	16376	15383	0	644
6.744	-4.183	16371	14856	0	644
13.415	1.406	16368	14404	0	644
15.795	5.409	16365	14235	0	644
14.749	3.101	16363	14296	0	644
11.251	-1.154	16360	14254	0	644
5.085	-6.419	16356	14009	0	644
0.541	-9.917	16352	13713	0	644
-1.587	-8.799	16348	13440	0	644
0.036	-4.580	16344	13289	0	644
4.364	2.452	16344	13543	0	644
9.556	6.022	16343	14343	0	644
12.550	4.832	16344	15274	0	644
11.612	-1.875	16344	15952	0	644
5.734	-9.448	16346	16661	0	644
-1.010	-13.379	16349	17828	0	644
-3.462	-12.730	16354	19290	0	644
-1.479	-8.511	16359	20579	0	644
3.101	-5.878	16364	21553	0	644
7.321	-4.724	16367	22225	0	644
11.143	-4.147	16371	22555	0	644
12.045	-3.173	16375	22776	0	644
13.631	-2.596	16380	23284	0	644
13.595	-2.164	16385	24065	0	644
13.127	-4.868	16392	24902	0	644
10.242	-5.265	16399	25598	0	644
9.448	-5.049	16405	25937	0	644
7.970	-1.406	16411	25974	0	644
5.698	-0.938	16417	25941	0	644
0.577	-5.626	16421	25650	0	644
-7.609	-15.074	16423	24742	0	644
-15.398	-25.604	16423	23307	0	644
-21.096	-32.023	16421	21614	1	488
-24.522	-32.780	16418	19808	0	488
-24.486	-28.814	16414	17950	0	488
-24.089	-27.660	16410	16098	0	488
-25.568	-30.148	16404	14282	0	488
-27.155	-34.764	16398	12579	0	488
-30.508	-39.091	16391	11027	0	488
-32.925	-42.012	16385	9630	0	488
-34.151	-41.868	16379	8520	0	488
-33.393	-40.678	16376	8021	0	488
-31.049	-41.291	16373	8224	0	488
-26.758	-40.245	16371	8685	0	488
-21.637	-36.928	16368	8924	0	488
-17.706	-33.790	16365	9056	0	488
-16.661	-31.626	16363	9418	0	488
-18.283	-31.699	16362	9997	0	488
-23.512	-34.115	16360	10543	0	488
-27.335	-38.983	16360	11145	0	488
-32.492	-42.734	16359	11850	0	488
-35.197	-46.700	16358	12363	0	488
-36.098	-47.530	16356	12687	0	488
-33.393	-46.845	16355	13162	0	488
-27.010	-42.914	16355	13783	0	488
-22.431	-37.541	16354	14296	0	488
-22.214	-34.800	16355	14912	0	488
-26.145	-36.351	16358	15909	0	488
-34.620	-41.075	16360	17009	0	488
-41.399	-47.386	16364	18039	0	488
-43.960	-52.146	16368	19130	0	488
-44.681	-54.670	16372	20165	0	488
-43.347	-54.273	16377	21045	0	488
-43.707	-53.480	16382	21910	0	488
-43.635	-52.795	16386	22663	0	488
-43.960	-50.415	16390	23143	0	488
-40.173	-46.989	16395	23425	0	488
-34.223	-41.904	16399	23557	0	488
-28.525	-38.406	16402	23411	0	488
-25.135	-35.413	16403	22837	0	488
-23.044	-34.331	16403	21868	0	488
-20.195	-31.626	16401	20673	0	488
-14.100	-26.253	16399	19347	0	488
-5.409	-19.365	16395	17950	0	488
-1.046	-16.516	16391	16548	0	488
-1.334	-18.067	16387	15270	0	488
-4.364	-20.519	16384	14334	0	488
-5.445	-20.772	16383	13812	0	488
-2.669	-14.966	16382	13670	0	488
2.596	-7.393	16383	13915	0	488
5.806	-4.219	16383	14324	0	488
6.167	-5.806	16384	14663	0	488
4.327	-8.078	16384	14889	0	488
4.472	-9.304	16383	14856	0	488
4.255	-5.914	16382	14607	0	488
4.688	-2.921	16381	14494	0	488
4.436	-0.649	16381	14541	0	488
5.554	0.613	16379	14428	0	488
7.068	3.246	16377	14066	0	488
11.648	7.176	16374	13694	0	488
14.569	12.333	16374	13661	0	488
17.815	16.516	16375	14216	0	488
20.195	19.726	16377	15143	0	488
22.719	22.647	16379	16004	0	488
26.902	24.414	16382	16680	0	488
27.191	22.972	16384	17287	0	488
25.460	20.808	16387	17931	0	488
20.483	16.408	16390	18684	0	488
15.687	13.920	16393	19276	0	488
12.117	10.133	16395	19436	0	488
12.946	8.475	16397	19370	0	488
13.992	8.150	16398	19347	0	488
17.851	9.196	16401	19408	0	488
20.988	12.297	16403	19620	0	488
25.135	16.012	16406	19718	0	488
25.027	17.887	16405	19337	0	488
22.322	17.310	16405	18608	0	488
19.510	15.074	16405	17964	0	488
17.238	12.982	16404	17437	0	488
17.526	12.009	16402	16812	0	488
16.336	8.078	16401	16215	0	488
10.602	3.570	16400	15825	0	488
0.325	-5.301	16399	15585	0	488
-9.592	-15.435	16398	15340	0	488
-15.903	-23.585	16397	14969	0	488
-16.985	-28.417	16396	14719	0	488
-16.408	-30.617	16398	14969	0	488
-15.543	-29.679	16400	15665	0	488
-18.824	-32.023	16404	16562	0	488
-24.702	-35.485	16408	17494	0	488
-31.662	-41.543	16411	18119	0	488
-37.468	-48.539	16412	18143	0	488
-41.147	-55.175	16412	17733	0	488
-42.517	-56.726	16413	17437	0	488
-43.274	-57.591	16414	17494	0	488
-43.238	-54.093	16415	17503	0	488
-42.806	-50.559	16414	17042	0	488
-42.445	-50.451	16411	16201	0	488
-42.120	-51.713	16408	15307	0	488
-43.707	-54.706	16406	14621	0	488
-42.517	-56.473	16403	14103	0	488
-40.209	-53.624	16400	13543	0	488
-35.737	-48.972	16397	13059	0	488
-31.771	-44.501	16395	12833	0	488
-31.230	-43.166	16393	12791	0	488
-33.033	-42.806	16390	12758	0	488
-33.538	-44.284	16388	12527	0	488
-32.420	-43.671	16384	12085	0	488
-30.581	-43.599	16380	11568	0	488
-28.309	-41.075	16376	11140	0	488
-26.145	-40.137	16372	11004	0	488
-24.883	-36.098	16370	11234	0	488
-22.503	-33.357	16368	11690	0	488
-19.870	-32.167	16367	12175	0	488
-20.519	-32.925	16365	12575	0	488
-20.339	-34.223	16365	13130	0	488
-20.916	-34.872	16366	14164	0	488
-20.159	-31.194	16369	15496	0	488
-15.903	-25.820	16372	16689	0	488
-11.071	-19.510	16375	17733	0	488
-4.760	-14.858	16379	18801	0	488
0.757	-12.874	16382	19671	0	488
2.777	-13.559	16383	19982	0	488
1.551	-14.894	16384	19883	0	488
-1.731	-16.949	16385	19874	0	488
-4.904	-17.093	16388	20264	0	488
-5.734	-16.156	16392	20960	0	488
-4.075	-13.559	16397	21764	0	488
-0.505	-11.323	16403	22578	0	488
1.334	-9.232	16409	23279	0	488
2.813	-7.789	16413	23547	0	488
2.019	-8.691	16415	23138	0	488
2.957	-8.691	16415	22282	0	488
4.868	-8.186	16417	21510	0	488
6.599	-6.816	16418	21054	0	488
7.825	-7.068	16419	20546	0	488
6.311	-8.330	16418	19596	0	488
2.092	-10.566	16415	18373	0	488
-1.839	-14.749	16414	17390	0	488
-6.816	-17.598	16415	16971	0	488
-8.943	-19.978	16416	16943	0	488
-11.828	-22.431	16417	16859	0	488
-12.874	-22.827	16417	16590	0	488
-12.838	-23.116	16416	16196	0	488
-14.064	-23.729	16414	15538	0	488
-13.018	-23.440	16411	14583	0	488
-13.199	-25.063	16407	13468	0	488
-13.992	-25.820	16402	12415	0	488
-15.723	-28.525	16399	11761	0	488
-19.942	-32.239	16397	11742	0	488
-25.063	-38.658	16397	12161	0	488
-28.164	-42.048	16397	12593	0	488
-29.643	-44.573	16397	12918	0	488
-30.869	-44.248	16396	13125	0	488
-32.095	-45.763	16393	13045	0	488
-35.593	-48.792	16390	12640	0	488
-37.793	-52.614	16387	12184	0	488
-36.495	-54.129	16384	12071	0	488
-34.547	-52.146	16384	12448	0	488
-31.915	-48.648	16383	12904	0	488
-33.538	-46.881	16381	13097	0	488
-36.783	-48.179	16380	13252	0	488
-38.226	-49.910	16379	13586	0	488
-37.216	-50.198	16379	14004	0	488
-32.853	-48.143	16378	14367	0	488
-27.047	-43.022	16376	14494	0	488
-25.063	-39.488	16374	14423	0	488
-25.604	-38.082	16373	14564	0	488
-29.859	-41.399	16374	15143	0	488
-32.420	-44.248	16374	15773	0	488
-34.043	-46.953	16374	16083	0	488
-30.977	-43.779	16374	16380	0	488
-27.876	-39.055	16376	16981	0	488
-26.866	-36.170	16377	17574	0	488
-30.725	-39.091	16377	17776	0	488
-36.314	-46.845	16378	17940	0	488
-40.678	-53.805	16380	18411	0	488
-39.957	-56.113	16382	18952	0	488
-37.468	-51.893	16384	19389	0	488
-32.961	-45.835	16387	19977	0	488
-28.705	-40.245	16392	20800	0	488
-27.515	-39.452	16398	21703	0	488
-27.010	-38.911	16404	22606	0	488
-25.316	-39.091	16410	23444	0	488
-25.712	-37.613	16418	24187	0	488
-25.496	-35.521	16424	24723	0	488
-24.666	-33.538	16429	24855	0	488
-24.811	-31.518	16433	24544	0	488
-25.388	-30.545	16435	23844	0	488
-26.253	-29.463	16435	22668	0	488
-26.830	-30.581	16434	21144	0	488
-28.669	-30.761	16432	19685	1	756
-29.751	-32.528	16429	18345	0	756
-31.374	-32.492	16426	16835	0	756
-31.158	-32.672	16420	15129	0	756
-31.085	-34.079	16414	13384	0	756
-30.220	-37.288	16407	11690	0	756
-32.131	-40.750	16400	10100	0	756
-34.079	-42.517	16392	8746	0	756
-34.800	-41.255	16386	7833	0	756
-32.708	-39.560	16382	7410	0	756
-28.381	-36.891	16378	7344	0	756
-21.854	-34.079	16373	7448	0	756
-15.507	-30.184	16368	7466	0	756
-8.907	-23.512	16363	7335	0	756
-0.685	-14.497	16357	7179	0	756
6.491	-7.285	16351	7156	0	756
12.189	-4.075	16348	7560	0	756
17.021	-2.164	16346	8529	0	756
21.277	0.865	16345	9649	0	756
26.614	7.068	16342	10444	0	756
32.023	13.776	16340	11027	0	756
32.384	18.031	16339	11780	0	756
29.318	17.093	16338	12758	0	756
23.260	14.100	16339	13826	0	756
19.798	12.514	16340	14917	0	756
19.329	14.894	16341	16008	0	756
20.736	16.589	16343	17056	0	756
18.428	14.749	16345	18077	0	756
12.369	8.366	16348	19046	0	756
6.527	3.642	16351	20024	0	756
4.472	2.813	16355	21078	0	756
9.737	6.383	16360	22047	0	756
11.828	10.602	16365	22846	0	756
10.566	7.970	16370	23632	0	756
2.524	0.865	16375	24286	0	756
-5.157	-7.717	16379	24634	0	756
-6.347	-9.484	16383	24657	0	756
-0.757	-5.770	16384	24215	0	756
8.006	1.839	16384	23303	0	756
12.261	5.950	16383	22113	0	756
11.792	6.780	16381	20781	0	756
7.862	1.442	16378	19469	0	756
4.075	-5.085	16377	18528	0	756
0.829	-11.612	16377	18110	0	756
-1.803	-17.851	16377	17823	0	756
-4.364	-20.267	16376	17329	0	756
-7.465	-19.041	16376	16939	0	756
-8.294	-16.949	16378	17061	0	756
-9.520	-16.120	16380	17522	0	756
-11.792	-18.788	16383	17828	0	756
-14.713	-23.296	16383	17743	0	756
-18.608	-29.931	16384	17550	0	756
-21.565	-31.735	16384	17390	0	756
-20.375	-31.085	16384	17009	0	756
-17.887	-27.010	16383	16319	0	756
-11.468	-22.142	16380	15458	0	756
-9.232	-21.349	16376	14555	0	756
-10.999	-24.450	16373	13670	0	756
-15.687	-31.266	16368	12829	0	756
-21.024	-36.206	16364	12024	0	756
-21.565	-35.197	16359	11300	0	756
-17.995	-30.400	16354	10665	0	756
-13.487	-25.063	16349	10115	0	756
-11.323	-23.260	16344	9748	0	756
-14.894	-25.893	16341	9785	0	756
-18.392	-29.643	16339	10147	0	756
-21.349	-33.826	16335	10481	0	756
-21.998	-37.577	16333	10750	0	756
-20.014	-39.019	16332	11366	0	756
-18.067	-40.353	16334	12499	0	756
-16.408	-38.045	16335	13826	0	756
-13.848	-32.780	16338	15067	0	756
-12.153	-26.578	16341	16243	0	756
-11.035	-24.198	16344	17362	0	756
-11.504	-24.378	16347	18420	0	756
-15.110	-28.922	16352	19493	0	756
-17.310	-31.374	16358	20744	0	756
-17.959	-31.374	16365	22188	0	756
-17.454	-29.246	16373	23566	0	756
-18.283	-27.155	16379	24488	0	756
-21.854	-28.453	16383	24671	0	756
-24.270	-32.276	16385	24352	0	756
-25.027	-33.934	16389	23975	0	756
-21.060	-33.429	16391	23669	0	756
-15.543	-29.463	16394	23321	0	756
-14.208	-24.775	16397	22818	1	340
-15.903	-23.512	16397	21990	0	340
-21.204	-24.198	16396	20805	0	340
-25.532	-28.056	16394	19535	0	340
-27.840	-31.518	16393	18495	0	340
-27.335	-32.348	16392	17644	0	340
-27.624	-33.429	16390	16670	0	340
-27.407	-33.321	16387	15608	0	340
-28.164	-33.429	16386	14893	0	340
-29.354	-33.033	16387	14823	0	340
-27.407	-31.626	16388	15171	0	340
-25.640	-29.030	16390	15519	0	340
-23.080	-26.001	16391	15721	0	340
-21.313	-25.748	16393	15881	0	340
-22.034	-26.361	16394	16041	0	340
-21.818	-28.489	16395	16093	0	340
-21.385	-28.633	16395	15928	0	340
-17.743	-26.722	16395	15735	0	340
-13.163	-22.322	16396	15707	0	340
-9.737	-17.779	16397	15750	0	340
-6.924	-14.821	16396	15688	0	340
-5.878	-12.982	16395	15359	0	340
-4.039	-11.684	16394	14851	0	340
0.541	-9.196	16393	14494	0	340
5.554	-4.760	16392	14282	0	340
10.278	-2.452	16390	14004	0	340
14.245	-1.515	16389	13873	0	340
15.362	-3.534	16390	14240	0	340
13.595	-5.265	16392	14950	0	340
10.963	-6.852	16394	15594	0	340
7.789	-8.583	16397	16145	0	340
4.616	-9.340	16399	16769	0	340
2.344	-12.045	16401	17249	0	340
0.721	-12.081	16401	17202	0	340
-1.046	-10.819	16401	16793	0	340
-0.974	-7.429	16400	16435	0	340
1.082	-3.354	16400	16267	0	340
3.462	-3.606	16399	16159	0	340
4.652	-4.364	16399	15989	0	340
2.669	-7.609	16397	15660	0	340
0.829	-7.753	16396	15350	0	340
2.921	-5.626	16395	15124	0	340
7.898	-2.596	16392	14724	0	340
17.238	2.416	16389	14070	0	340
25.171	6.167	16384	13322	0	340
29.102	12.369	16381	12570	0	340
31.482	19.906	16376	11836	0	340
34.079	28.345	16370	11159	0	340
39.055	35.449	16364	10528	0	340
44.501	40.930	16359	9969	0	340
46.159	41.868	16353	9527	0	340
41.255	40.101	16347	9216	0	340
32.420	35.665	16342	9113	0	340
22.395	27.587	16338	9409	0	340
16.012	20.880	16337	10119	0	340
13.235	16.084	16336	11173	0	340
12.369	14.749	16338	12650	0	340
12.369	15.615	16342	14428	0	340
13.343	16.589	16344	16013	0	340
14.317	16.120	16347	17127	0	340
13.740	13.523	16349	18058	0	340
10.746	8.943	16352	18914	0	340
6.275	6.311	16353	19427	0	340
4.760	5.481	16353	19516	0	340
5.734	6.239	16353	19361	0	340
8.691	8.799	16352	19060	0	340
11.648	7.934	16350	18632	0	340
13.595	6.744	16349	18246	0	340
13.920	4.868	16349	18124	0	340
17.310	5.013	16349	18284	0	340
20.483	7.681	16350	18585	0	340
19.726	9.160	16351	18881	0	340
15.362	7.970	16351	18947	0	340
7.176	1.226	16351	18717	0	340
0.216	-6.275	16350	18331	0	340
-5.554	-12.982	16349	17992	0	340
-7.537	-13.848	16350	17922	0	340
-9.268	-12.694	16350	18044	0	340
-11.792	-11.504	16350	18006	0	340
-16.480	-13.018	16350	17724	0	340
-21.998	-21.060	16348	17348	0	340
-27.479	-30.761	16347	16915	0	340
-32.564	-38.983	16345	16440	0	340
-32.348	-44.176	16343	16055	0	340
-29.895	-42.986	16343	15971	0	340
-26.578	-40.389	16344	16225	0	340
-23.693	-38.154	16346	16736	0	340
-24.955	-39.272	16349	17531	0	340
-25.027	-40.786	16352	18321	0	340
-22.358	-41.652	16355	18801	0	340
-17.598	-37.901	16358	19168	0	340
-10.133	-30.977	16361	19549	0	340
-3.967	-25.135	16362	19653	0	340
-0.757	-20.988	16364	19408	0	340
-1.082	-21.060	16364	18985	0	340
-0.865	-22.034	16364	18542	0	340
-1.190	-24.955	16365	18397	0	340
-0.433	-25.243	16368	18726	0	340
-0.180	-25.712	16371	19112	0	340
-2.056	-25.063	16372	19083	0	340
-5.085	-23.260	16373	18684	0	340
-7.753	-23.188	16373	18223	0	340
-7.321	-22.935	16374	17950	0	340
-6.996	-23.945	16375	17828	0	340
-6.635	-28.489	16376	17649	0	340
-9.124	-29.210	16378	17602	0	340
-11.396	-29.571	16381	17940	0	340
-12.333	-27.371	16383	18303	0	340
-11.323	-23.116	16384	18326	0	340
-9.556	-20.087	16387	18251	0	340
-9.629	-21.457	16389	18298	0	340
-8.006	-22.106	16391	18392	0	340
-7.609	-21.781	16394	18458	0	340
-3.859	-18.103	16396	18510	0	340
-0.613	-14.894	16398	18538	0	340
-0.252	-13.307	16401	18542	0	340
-1.442	-16.300	16403	18430	0	340
-4.580	-21.818	16403	18006	0	340
-8.222	-25.279	16402	17249	0	340
-7.609	-25.063	16401	16333	0	340
-6.203	-21.241	16397	15345	0	340
-4.111	-16.949	16394	14338	0	340
-4.904	-15.038	16391	13365	0	340
-8.619	-17.887	16386	12443	0	340
-15.471	-24.486	16383	11582	0	340
-22.250	-30.869	16378	10825	0	340
-26.325	-35.774	16373	10190	0	340
-28.561	-34.944	16369	9672	0	340
-25.820	-32.059	16364	9353	0	340
-21.890	-28.128	16362	9531	0	340
-17.382	-24.630	16362	10331	0	340
-14.100	-25.424	16362	11309	0	340
-14.245	-26.794	16361	11977	0	340
-16.985	-30.112	16360	12363	0	340
-19.329	-32.636	16358	12631	0	340
-19.005	-30.977	16357	12908	0	340
-15.110	-27.407	16357	13388	0	340
-11.468	-23.657	16358	14136	0	340
-8.078	-20.988	16360	15100	0	340
-10.386	-21.565	16363	16295	0	340
-14.713	-23.512	16367	17508	0	340
-21.529	-28.525	16371	18627	0	340
-29.751	-34.836	16377	19897	0	340
-39.560	-46.809	16383	21299	0	340
-49.910	-57.122	16388	22442	0	340
-56.978	-64.695	16394	23190	0	340
-57.880	-62.784	16398	23571	0	340
-54.093	-55.211	16402	23561	0	340
-47.025	-45.655	16405	23359	0	340
-43.094	-39.885	16408	23161	0	340
-41.543	-41.399	16412	22936	0	340
-40.858	-42.950	16414	22653	1	604
-40.642	-44.104	16417	22310	0	604
-37.252	-41.327	16419	21901	0	604
-34.944	-38.478	16422	21463	0	604
-35.665	-38.658	16423	20908	0	604
-40.534	-46.268	16424	20118	0	604
-46.809	-53.516	16424	19356	0	604
-51.929	-58.276	16426	18952	0	604
-51.713	-56.509	16427	18585	0	604
-46.340	-50.775	16426	17804	0	604
-42.012	-47.349	16424	16666	0	604
-39.596	-47.133	16421	15486	0	604
-40.498	-50.487	16419	14550	0	604
-40.894	-49.910	16417	13929	0	604
-37.613	-45.438	16415	13506	0	604
-33.970	-40.426	16414	13210	0	604
-32.997	-38.298	16413	13031	0	604
-35.737	-41.471	16413	12960	0	604
-39.416	-44.068	16413	13092	0	604
-40.353	-44.212	16414	13581	0	604
-37.432	-38.190	16416	14329	0	604
-32.239	-32.528	16418	14875	0	604
-29.679	-31.049	16418	14988	0	604
-28.886	-33.826	16419	15058	0	604
-28.741	-36.495	16422	15524	0	604
-29.354	-36.278	16424	16262	0	604
-30.364	-33.105	16426	16732	0	604
-30.364	-31.590	16426	16628	0	604
-32.203	-31.554	16425	16159	0	604
-31.735	-35.052	16425	15834	0	604
-30.472	-36.747	16426	15961	0	604
-27.407	-34.944	16428	16445	0	604
-26.830	-32.816	16431	17028	0	604
-27.335	-32.889	16432	17423	0	604
-29.607	-35.665	16435	17621	0	604
-31.302	-39.091	16438	17940	0	604
-31.879	-38.875	16441	18383	0	604
-28.273	-37.144	16443	18618	0	604
-25.856	-34.223	16444	18528	0	604
-23.873	-34.187	16444	18157	0	604
-23.512	-37.108	16442	17385	0	604
-21.096	-37.829	16438	16229	0	604
-16.589	-32.131	16435	14983	0	604
-9.088	-22.575	16431	14066	0	604
-0.433	-14.605	16430	13736	0	604
6.239	-6.744	16430	13906	0	604
11.035	-4.868	16430	14263	0	604
16.156	-0.793	16430	14508	0	604
20.519	4.580	16430	14564	0	604
23.873	10.133	16428	14465	0	604
26.361	14.930	16426	14160	0	604
28.020	16.516	16425	13892	0	604
28.561	18.464	16424	13962	0	604
30.797	20.664	16423	14169	0	604
31.013	23.765	16423	14376	0	604
30.076	25.243	16424	14818	0	604
26.037	26.578	16426	15543	0	604
23.188	25.496	16428	16295	0	604
20.050	24.089	16429	16788	0	604
17.129	21.493	16431	16981	0	604
15.002	17.129	16430	16906	0	604
14.569	15.975	16427	16449	0	604
15.867	19.257	16425	15731	0	604
20.483	24.739	16422	15091	0	604
27.443	33.321	16420	14658	0	604
33.105	40.029	16418	14414	0	604
39.560	44.356	16417	14432	0	604
47.277	48.900	16414	14456	0	604
53.949	55.067	16411	14089	0	604
62.315	61.197	16407	13459	0	604
66.643	64.876	16404	12984	0	604
69.239	66.607	16400	12706	0	604
71.547	66.498	16395	12297	0	604
74.973	66.607	16390	11667	0	604
77.714	67.147	16384	10975	0	604
79.913	70.537	16378	10321	0	604
77.714	71.150	16371	9719	0	604
72.773	71.295	16364	9277	0	604
66.931	68.987	16360	9226	0	604
60.981	64.551	16355	9527	0	604
56.726	58.781	16351	9898	0	604
49.153	49.657	16348	10387	0	604
41.471	41.039	16345	11074	0	604
30.653	31.230	16342	11667	0	604
19.329	22.431	16338	12015	0	604
8.222	15.038	16334	12259	0	604
-1.046	7.501	16332	12565	0	604
-7.068	0.505	16329	13139	0	604
-11.504	-4.111	16328	13906	0	604
-12.730	-9.196	16326	14527	0	604
-15.471	-11.360	16323	14903	0	604
-18.392	-14.533	16321	15166	0	604
-20.447	-17.418	16318	15373	0	604
-20.050	-18.283	16316	15524	0	604
-18.788	-18.320	16313	15646	0	604
-18.860	-21.060	16310	15759	0	604
-25.784	-27.083	16307	15881	0	604
-34.367	-36.783	16305	16107	0	604
-40.606	-43.130	16306	16694	0	604
-42.409	-41.688	16308	17790	0	604
-36.675	-37.468	16310	18971	0	604
-31.771	-31.302	16312	19860	0	604
-31.590	-31.879	16316	20650	0	604
-33.898	-37.577	16319	21553	0	604
-36.603	-41.760	16324	22489	0	604
-37.685	-43.491	16329	23350	0	604
-39.199	-43.022	16334	24196	0	604
-43.563	-45.510	16341	25137	0	604
-53.985	-51.424	16347	25890	0	604
-64.226	-60.981	16352	26148	0	604
-72.917	-69.275	16357	26148	0	604
-74.396	-73.062	16362	26148	0	604
-71.763	-73.242	16367	26106	0	604
-67.724	-72.052	16371	25951	0	604
-65.525	-71.836	16376	25687	0	604
-61.955	-70.141	16380	25325	0	604
-57.266	-65.561	16384	24897	1	464
-48.684	-56.257	16387	24403	0	464
-37.793	-42.878	16391	23952	0	464
-29.427	-32.528	16396	23641	0	464
-25.496	-28.273	16400	23312	0	464
-28.201	-31.338	16404	22799	0	464
-30.977	-35.846	16407	22183	0	464
-34.187	-40.353	16410	21520	0	464
-34.367	-41.724	16412	20824	0	464
-32.059	-40.462	16415	20208	0	464
-28.489	-37.541	16419	19883	0	464
-24.270	-35.088	16423	19775	0	464
-21.890	-31.266	16426	19554	0	464
-21.709	-29.895	16430	19196	0	464
-25.604	-30.472	16434	19013	0	464
-30.653	-34.331	16439	19065	0	464
-33.033	-35.954	16443	19135	0	464
-30.761	-34.908	16446	18858	0	464
-27.660	-31.951	16447	18072	0	464
-27.984	-29.138	16449	17193	0	464
-32.744	-31.915	16450	16600	0	464
-39.416	-37.613	16450	15985	0	464
-42.806	-43.635	16448	14912	0	464
-38.947	-46.845	16445	13548	0	464
-34.151	-44.248	16442	12429	0	464
-31.590	-43.851	16441	11874	0	464
-34.620	-43.419	16441	11718	0	464
-38.442	-46.592	16438	11474	0	464
-38.622	-46.087	16436	10905	0	464
-32.816	-42.697	16433	10312	0	464
-22.395	-33.790	16430	9837	0	464
-10.133	-23.837	16425	9226	0	464
1.226	-13.812	16420	8487	0	464
9.773	-7.970	16415	7979	0	464
17.166	-2.633	16410	7730	0	464
22.575	0.180	16406	7504	0	464
27.155	2.777	16402	7490	0	464
30.148	6.131	16400	7979	0	464
33.862	7.285	16397	8628	0	464
34.836	7.537	16393	8934	0	464
33.754	6.311	16389	9009	0	464
31.626	6.996	16387	9263	0	464
29.859	10.566	16384	9719	0	464
26.433	13.018	16381	10115	0	464
23.332	14.713	16379	10623	0	464
18.464	12.225	16378	11526	0	464
13.740	9.448	16378	12575	0	464
11.143	7.537	16378	13501	0	464
9.448	9.412	16377	14258	0	464
9.304	9.412	16376	14682	0	464
6.708	8.727	16373	14729	0	464
4.436	5.337	16370	14658	0	464
3.210	2.777	16369	14861	0	464
4.580	2.596	16368	15491	0	464
9.304	5.734	16368	16163	0	464
12.838	8.799	16366	16426	0	464
15.110	12.117	16365	16421	0	464
16.589	12.081	16364	16525	0	464
18.283	11.251	16363	16849	0	464
21.565	10.710	16364	17367	0	464
24.847	10.206	16365	18110	0	464
26.145	10.638	16367	18792	0	464
27.804	11.035	16367	19018	0	464
29.210	15.074	16367	18938	0	464
32.348	20.447	16367	18942	0	464
34.367	26.433	16367	19107	0	464
34.836	32.239	16368	19328	0	464
32.997	33.105	16370	19563	0	464
30.112	31.987	16371	19789	0	464
28.381	28.381	16372	19888	0	464
24.594	22.395	16372	19770	0	464
19.113	15.254	16374	19695	0	464
13.487	10.061	16376	19939	0	464
9.737	7.898	16379	20255	0	464
10.494	11.287	16381	20415	0	464
12.081	13.884	16383	20504	0	464
12.802	12.838	16385	20650	0	464
8.943	5.409	16388	20904	0	464
1.623	-4.183	16391	21106	0	464
-3.642	-9.088	16394	21101	0	464
-4.616	-8.150	16395	20871	0	464
-1.154	-2.344	16396	20368	0	464
2.993	2.596	16398	19860	0	464
5.229	3.246	16400	19643	0	464
5.914	0.361	16401	19511	0	464
6.167	-2.200	16402	19234	0	464
7.429	-2.813	16403	18876	0	464
10.242	-1.082	16405	18590	0	464
14.425	3.354	16407	18491	0	464
18.752	8.006	16408	18415	0	464
26.397	16.048	16410	18274	0	464
37.000	25.460	16412	18241	0	464
45.005	33.610	16414	18133	0	464
47.241	36.603	16414	17644	0	464
44.356	33.646	16414	17004	0	464
36.387	28.164	16412	16402	0	464
31.843	24.089	16410	15585	0	464
32.239	26.650	16407	14550	0	464
37.721	30.905	16404	13685	0	464
42.409	35.665	16401	13130	0	464
44.753	35.918	16400	12772	0	464
41.688	33.105	16397	12433	0	464
36.567	28.453	16394	12010	0	464
31.699	23.981	16391	11667	0	464
27.371	20.411	16389	11577	0	464
26.902	19.546	16387	11653	0	464
25.929	20.916	16385	11704	0	464
25.748	20.988	16383	11634	0	464
22.611	20.736	16381	11620	0	464
20.447	16.985	16379	11841	0	464
19.077	13.595	16378	12208	0	464
20.772	12.550	16377	12640	0	464
25.099	15.759	16378	13205	0	464
26.145	19.005	16379	14004	0	464
25.352	21.349	16379	14743	0	464
21.637	21.601	16379	15129	0	464
22.395	22.791	16380	15491	0	464
26.253	23.512	16381	16178	0	464
31.158	24.666	16382	16816	0	464
34.620	23.873	16381	16957	0	464
31.338	20.664	16380	16666	0	464
26.542	17.743	16378	16267	0	464
22.322	16.877	16377	16013	0	464
23.476	17.851	16375	15891	0	464
24.811	18.536	16373	15702	0	464
23.296	16.048	16371	15557	0	464
18.356	10.350	16370	15514	0	464
8.655	5.193	16368	15392	0	464
4.400	3.029	16367	15401	0	464
6.383	5.914	16368	15820	0	464
12.694	10.855	16368	16286	0	464
16.516	14.425	16367	16356	0	464
15.903	13.163	16365	16163	0	464
11.792	10.242	16365	16107	0	464
8.511	7.032	16364	16206	0	464
10.169	6.960	16363	16215	0	464
16.805	11.071	16364	16323	0	464
22.106	15.074	16365	16887	0	464
22.575	15.290	16369	17870	0	464
19.149	11.287	16374	19018	0	464
13.415	5.842	16379	20137	0	464
9.196	1.479	16383	21003	0	464
11.973	3.029	16387	21539	0	464
18.247	8.439	16390	21844	0	464
28.597	16.805	16394	22061	0	464
35.593	23.368	16398	22315	0	464
38.334	25.929	16401	22395	0	464
35.160	25.424	16402	21924	0	464
24.558	17.490	16402	20946	0	464
15.507	8.619	16400	19718	0	464
7.970	2.669	16397	18364	0	464
8.547	2.596	16393	16929	0	464
11.792	6.094	16388	15467	0	464
14.497	8.871	16383	14028	0	464
12.117	9.232	16378	12753	0	464
9.268	6.744	16375	11972	0	464
6.744	7.645	16372	11827	0	464
9.412	11.179	16370	11907	0	464
11.756	14.100	16367	11761	0	464
10.242	12.946	16364	11493	0	464
3.967	5.229	16362	11474	0	464
-2.957	-2.849	16360	11671	0	464
-4.327	-5.121	16357	11747	0	464
1.190	-0.325	16354	11704	0	464
9.520	7.032	16353	11892	0	464
14.281	13.848	16351	12302	0	464
15.651	13.451	16349	12593	0	464
10.819	10.206	16347	12669	0	464
7.789	6.347	16344	12650	0	464
5.121	4.039	16341	12584	0	464
6.744	5.337	16337	12518	0	464
7.609	6.491	16334	12485	0	464
10.422	8.943	16330	12462	0	464
9.845	8.619	16327	12452	0	464
8.511	6.094	16324	12575	0	464
5.049	0.649	16324	13125	0	464
1.983	-4.544	16325	14211	0	464
1.803	-6.383	16326	15481	0	464
3.354	-5.373	16329	16647	0	464
5.013	-1.551	16331	17653	0	464
6.527	1.334	16333	18439	0	464
5.878	1.118	16336	19135	0	464
2.344	-1.334	16340	19907	0	464
-1.046	-5.986	16344	20772	0	464
-4.436	-10.638	16349	21849	0	464
-4.688	-13.884	16356	23053	0	464
-4.436	-14.245	16361	23933	0	464
-2.236	-11.973	16365	24168	0	464
-0.757	-9.737	16367	23881	0	464
-0.361	-10.674	16369	23373	0	464
-0.505	-13.127	16372	23025	0	464
-2.236	-18.788	16377	23096	0	464
-4.868	-23.044	16382	23533	1	768
-11.432	-27.984	16387	24022	0	768
-16.012	-31.374	16392	24177	0	768
-19.942	-35.701	16395	23745	0	768
-21.709	-41.147	16396	22837	0	768
-23.765	-45.510	16396	21661	0	768
-26.325	-49.116	16395	20320	0	768
-31.266	-48.612	16393	18980	0	768
-33.466	-46.700	16393	17907	0	768
-34.547	-41.688	16392	17136	0	768
-33.105	-39.993	16392	16548	0	768
-32.744	-41.327	16391	16013	0	768
-35.557	-47.710	16390	15317	0	768
-41.543	-54.634	16387	14404	0	768
-46.015	-58.276	16384	13426	0	768
-47.494	-55.644	16381	12476	0	768
-43.130	-48.359	16376	11568	0	768
-37.180	-40.750	16371	10735	0	768
-32.167	-36.278	16367	9988	0	768
-30.292	-37.000	16362	9338	0	768
-31.338	-40.137	16357	8802	0	768
-32.239	-41.255	16351	8398	0	768
-31.085	-41.219	16347	8224	0	768
-30.508	-42.337	16345	8548	0	768
-30.220	-43.094	16345	9569	0	768
-33.429	-45.691	16347	11074	0	768
-37.000	-48.792	16349	12589	0	768
-43.166	-49.513	16353	14028	0	768
-46.628	-51.136	16358	15575	0	768
-48.251	-52.506	16362	17089	0	768
-49.802	-54.382	16367	18336	0	768
-49.153	-54.995	16371	19267	0	768
-49.477	-54.706	16374	19860	0	768
-48.503	-53.696	16378	20372	0	768
-48.287	-52.903	16383	21162	0	768
-46.520	-51.713	16387	22113	0	768
-47.133	-51.280	16392	22743	0	768
-48.756	-51.100	16395	22757	0	768
-47.349	-51.316	16397	22320	0	768
-45.005	-51.533	16399	21840	0	768
-39.740	-49.008	16400	21374	0	768
-32.456	-45.041	16400	20636	0	768
-28.128	-40.426	16399	19671	0	768
-24.847	-35.269	16399	18942	0	768
-23.044	-33.033	16400	18669	0	768
-23.837	-33.646	16401	18467	0	768
-25.929	-34.151	16400	17889	0	768
-29.715	-34.764	16398	16971	0	768
-33.249	-35.521	16396	16046	0	768
-36.603	-35.521	16395	15472	0	768
-37.541	-36.351	16397	15491	0	768
-39.055	-38.767	16399	15985	0	768
-38.947	-40.714	16402	16623	0	768
-39.416	-42.012	16405	17145	0	768
-39.957	-43.599	16408	17465	0	768
-40.498	-44.104	16409	17569	0	768
-41.616	-45.438	16409	17287	0	768
-40.353	-44.212	16408	16633	0	768
-36.783	-42.373	16406	15801	0	768
-32.744	-37.865	16404	14964	0	768
-29.715	-32.744	16402	14343	0	768
-27.515	-26.614	16400	14033	0	768
-24.342	-20.880	16399	13906	0	768
-20.700	-16.300	16397	13769	0	768
-15.543	-13.812	16396	13520	0	768
-12.982	-13.523	16394	13318	0	768
-12.982	-14.785	16393	13318	0	768
-16.733	-16.985	16393	13548	0	768
-21.709	-19.978	16394	14037	0	768
-23.476	-22.322	16395	14597	0	768
-24.089	-22.755	16397	15124	0	768
-21.998	-23.224	16400	15891	0	768
-20.050	-23.368	16404	16859	0	768
-20.339	-27.227	16405	17550	0	768
-23.981	-32.384	16406	17635	0	768
-26.325	-36.711	16406	17334	0	768
-26.938	-35.377	16407	17160	0	768
-24.486	-31.518	16409	17414	0	768
-21.457	-25.460	16411	17931	0	768
-21.998	-24.919	16412	18237	0	768
-24.522	-28.525	16413	18096	0	768
-28.597	-35.233	16413	17795	0	768
-31.843	-39.740	16414	17597	0	768
-30.545	-38.731	16414	17536	0	768
-25.965	-31.879	16416	17649	0	768
-18.644	-23.296	16418	17762	0	768
-13.415	-16.552	16418	17710	0	768
-12.369	-15.435	16418	17470	0	768
-12.910	-19.041	16417	16995	0	768
-14.821	-21.421	16417	16543	0	768
-12.766	-21.601	16418	16520	0	768
-8.042	-15.687	16420	16891	0	768
-3.426	-10.169	16422	17343	0	768
-2.669	-6.239	16423	17498	0	768
-5.265	-8.366	16422	17113	0	768
-11.648	-14.966	16420	16295	0	768
-14.281	-20.411	16416	15265	0	768
-13.523	-22.431	16411	14141	0	768
-8.979	-19.329	16406	12970	0	768
-2.560	-13.992	16400	11897	0	768
-1.515	-12.477	16396	11187	0	768
-8.150	-15.471	16392	10877	0	768
-16.625	-22.791	16388	10811	0	768
-21.132	-26.794	16386	10905	0	768
-18.608	-25.460	16384	11154	0	768
-8.799	-18.464	16382	11436	0	768
0.974	-11.360	16380	11521	0	768
6.708	-7.140	16375	11389	0	768
9.304	-5.121	16371	11182	0	768
7.068	-4.364	16366	10956	0	768
4.796	-4.904	16362	10801	0	768
-1.803	-7.176	16359	10952	0	768
-6.960	-9.520	16356	11370	0	768
-8.511	-10.602	16353	11690	0	768
-3.390	-6.924	16350	11897	0	768
5.950	-0.793	16348	12429	0	768
11.071	4.291	16349	13567	0	768
11.828	5.662	16352	15147	0	768
7.789	2.056	16357	16896	0	768
5.445	-1.442	16361	18627	0	768
6.094	-4.796	16366	19968	0	768
11.720	-4.832	16369	20744	0	768
18.175	-2.164	16373	21336	0	768
23.008	5.986	16378	22188	0	768
25.460	12.946	16383	23161	0	768
19.906	13.451	16386	23773	0	768
8.222	4.219	16389	23825	0	768
-6.455	-12.081	16392	23627	0	768
-16.805	-27.479	16394	23430	0	768
-19.221	-33.321	16398	23270	0	768
-13.199	-29.787	16401	23223	0	768
-3.534	-19.293	16404	23044	1	524
5.157	-10.710	16404	22470	0	524
11.215	-4.652	16406	21750	0	524
16.444	-3.750	16407	21040	0	524
19.041	-3.570	16406	20170	0	524
18.933	-2.741	16406	19375	0	524
18.716	-0.036	16408	19050	0	524
19.654	5.626	16410	19041	0	524
22.467	11.071	16411	18839	0	524
27.155	14.172	16410	18166	0	524
28.381	12.550	16409	17221	0	524
25.893	8.475	16408	16473	0	524
18.211	3.606	16409	16229	0	524
11.468	0.469	16410	16319	0	524
8.366	-0.613	16411	16253	0	524
7.068	-0.325	16410	15825	0	524
7.825	-1.551	16409	15317	0	524
6.888	-3.606	16408	14861	0	524
6.383	-5.193	16405	14211	0	524
4.508	-7.753	16402	13384	0	524
3.823	-6.744	16400	12843	0	524
1.767	-5.950	16398	12791	0	524
0.397	-8.006	16397	12819	0	524
-3.570	-9.845	16394	12523	0	524
-3.678	-11.900	16390	11954	0	524
-1.046	-10.422	16386	11295	0	524
5.229	-4.291	16381	10632	0	524
13.199	4.544	16376	10002	0	524
20.195	11.179	16370	9418	0	524
22.647	13.559	16364	8901	0	524
21.349	12.910	16358	8487	0	524
19.149	10.242	16352	8210	0	524
18.392	10.097	16347	8130	0	524
20.736	12.297	16343	8426	0	524
22.755	15.795	16339	9023	0	524
25.243	18.283	16336	9592	0	524
23.909	17.959	16332	9988	0	524
20.664	14.821	16329	10425	0	524
18.644	10.602	16327	11154	0	524
17.418	9.737	16327	12175	0	524
17.310	9.629	16327	13421	0	524
19.113	13.163	16330	14922	0	524
20.231	13.812	16333	16478	0	524
16.625	12.009	16336	17879	0	524
12.117	6.275	16339	19055	0	524
6.275	0.180	16341	19827	0	524
3.787	-4.327	16341	20156	0	524
6.635	-3.678	16342	20297	0	524
12.730	1.803	16344	20546	0	524
19.690	7.212	16346	20946	0	524
22.935	10.458	16349	21369	0	524
21.637	11.287	16350	21680	0	524
18.969	6.599	16352	21774	0	524
14.894	2.524	16355	21915	0	524
12.225	-0.613	16360	22447	0	524
10.638	-0.325	16366	23321	0	524
11.540	2.705	16372	24229	0	524
12.586	6.888	16378	24855	0	524
15.362	11.251	16384	25137	0	524
19.041	13.343	16388	25198	0	524
23.981	15.687	16393	25198	0	524
30.148	17.526	16399	25217	0	524
31.158	18.356	16403	25015	0	524
28.092	15.795	16406	24366	0	524
19.401	10.025	16408	23538	0	524
12.081	4.436	16410	22672	0	524
12.225	2.741	16410	21609	0	524
22.791	8.330	16412	20579	0	524
36.928	15.362	16413	19911	0	524
45.691	20.555	16414	19281	0	524
45.618	19.870	16414	18340	0	524
40.534	16.805	16413	17348	0	524
37.288	14.064	16413	16558	0	524
38.983	15.507	16413	15909	0	524
45.655	18.897	16412	15340	0	524
50.126	21.962	16413	14945	0	524
51.569	22.178	16414	14809	0	524
52.326	23.909	16414	14686	0	524
55.463	25.063	16413	14282	0	524
61.125	29.174	16412	13807	1	316
66.426	33.357	16411	13431	0	316
68.121	37.396	16409	12988	0	316
63.613	37.937	16408	12664	0	316
57.519	37.180	16408	12725	0	316
50.775	33.466	16407	12861	0	316
47.530	29.571	16406	12725	0	316
46.809	27.155	16406	12612	0	316
48.503	26.325	16406	12960	0	316
49.080	26.073	16408	13647	0	316
48.972	27.227	16409	14244	0	316
46.195	25.929	16411	14696	0	316
40.894	21.241	16413	15209	0	316
33.105	15.939	16413	15590	0	316
27.047	8.006	16413	15458	0	316
24.450	3.210	16411	14973	0	316
24.991	2.633	16410	14654	0	316
26.325	4.400	16410	14734	0	316
23.873	3.534	16408	14828	0	316
14.425	0.144	16407	14611	0	316
2.416	-8.943	16407	14423	0	316
-5.013	-15.110	16407	14691	0	316
-3.426	-14.461	16408	15270	0	316
2.524	-8.475	16409	15745	0	316
8.078	-3.426	16410	16093	0	316
0.541	-7.068	16412	16539	0	316
-18.464	-21.818	16413	16873	0	316
-39.704	-39.380	16412	16717	0	316
-54.021	-51.244	16410	16201	0	316
-55.572	-52.326	16408	15740	0	316
-50.487	-48.467	16406	15383	0	316
-49.838	-47.674	16404	14926	0	316
-58.673	-55.319	16402	14569	0	316
-72.809	-67.111	16401	14602	0	316
-85.683	-76.379	16400	14710	0	316
-89.470	-79.697	16397	14447	0	316
-86.982	-78.182	16393	13939	0	316
-83.700	-77.642	16391	13581	0	316
-87.090	-82.366	16388	13388	0	316
-95.925	-89.975	16385	13134	0	316
-107.285	-96.105	16383	12932	0	316
-113.235	-97.512	16381	12960	0	316
-112.081	-95.384	16380	13247	0	316
-106.058	-90.335	16380	13816	0	316
-95.384	-85.251	16380	14484	0	316
-88.713	-82.474	16380	15044	0	316
-85.828	-81.176	16379	15425	0	316
-87.342	-81.031	16378	15491	0	316
-95.023	-86.657	16376	15326	0	316
-103.246	-93.545	16375	15279	0	316
-110.386	-97.584	16373	15359	0	316
-112.730	-99.964	16370	15265	0	316
-115.110	-99.135	16368	15025	0	316
-117.598	-103.065	16366	14955	0	316
-124.594	-111.612	16364	15049	0	316
-130.761	-121.096	16363	15086	0	316
-132.059	-124.919	16361	15199	0	316
-125.135	-120.700	16361	15444	0	316
-114.569	-110.242	16359	15510	0	316
-105.445	-102.056	16356	15303	0	316
-104.039	-103.101	16353	14978	0	316
-109.196	-109.592	16350	14691	0	316
-116.661	-116.805	16348	14658	0	316
-121.204	-120.483	16347	14931	0	316
-119.618	-117.166	16347	15364	0	316
-115.002	-110.169	16347	15881	0	316
-108.186	-104.003	16347	16459	0	316
-101.587	-99.459	16348	16986	0	316
-95.096	-95.925	16348	17240	0	316
-89.398	-90.444	16347	17277	0	316
-85.070	-84.674	16349	17531	0	316
-83.051	-79.589	16352	18293	0	316
-81.644	-77.497	16356	19342	0	316
-80.671	-77.569	16359	20273	0	316
-80.274	-78.615	16363	20951	0	316
-77.930	-79.661	16367	21374	0	316
-76.235	-77.425	16369	21506	0	316
-72.557	-74.288	16372	21525	0	316
-67.003	-70.537	16374	21501	0	316
-63.181	-67.292	16375	21266	0	316
-61.450	-67.292	16377	20946	0	316
-64.876	-68.915	16378	20664	0	316
-70.501	-72.917	16378	20137	0	316
-74.648	-77.750	16377	19366	0	316
-76.271	-79.336	16378	18844	0	316
-73.927	-79.481	16380	18867	0	316
-68.374	-75.117	16383	19210	0	316
-60.801	-66.823	16384	19361	0	316
-53.913	-58.096	16384	19022	0	316
-47.818	-52.867	16384	18279	0	316
-42.193	-51.388	16384	17437	0	316
-39.668	-52.074	16383	16783	0	316
-35.810	-52.326	16381	16286	0	316
-34.547	-51.497	16381	15731	0	316
-35.665	-51.208	16380	15336	0	316
-39.344	-54.490	16381	15477	0	316
-42.084	-57.591	16383	15999	0	316
-43.130	-59.466	16384	16375	0	316
-40.858	-55.608	16384	16295	0	316
-40.498	-52.831	16384	15839	0	316
-45.727	-51.244	16381	15204	0	316
-54.526	-57.303	16380	14592	0	316
-60.404	-65.777	16379	14329	0	316
-58.240	-71.078	16380	14644	0	316
-45.727	-69.419	16383	15411	0	316
-30.472	-62.964	16386	16416	0	316
-22.034	-55.175	16390	17465	0	316
-21.457	-51.533	16394	18190	0	316
-26.866	-51.424	16396	18401	0	316
-29.066	-53.047	16398	18406	0	316
-26.614	-52.398	16400	18354	0	316
-21.637	-49.369	16399	17973	0	316
-17.670	-46.809	16398	17301	0	316
-17.057	-44.356	16397	16727	0	316
-16.985	-43.707	16396	16305	0	316
-13.271	-42.589	16395	15782	0	316
-8.042	-42.048	16394	15378	0	316
-3.137	-42.734	16395	15477	0	316
-4.977	-44.501	16397	16032	0	316
-9.701	-47.962	16401	16797	0	316
-14.930	-50.703	16404	17569	0	316
-16.372	-53.191	16408	18105	0	316
-12.405	-52.290	16410	18345	0	316
-7.393	-49.225	16412	18420	0	316
-5.049	-44.573	16414	18392	0	316
-7.862	-42.661	16414	18161	0	316
-12.405	-41.724	16413	17559	0	316
-15.002	-43.527	16411	16605	0	316
-14.533	-43.924	16408	15580	0	316
-8.402	-43.743	16405	14771	0	316
-4.219	-42.373	16403	14258	0	316
-2.416	-40.894	16401	13924	0	316
-4.183	-41.940	16399	13595	0	316
-6.527	-41.075	16395	13073	0	316
-7.934	-37.432	16392	12433	0	316
-3.967	-33.682	16390	12123	0	316
1.406	-26.974	16389	12325	0	316
6.527	-22.647	16388	12720	0	316
6.888	-22.286	16388	13172	0	316
2.560	-25.568	16390	13915	0	316
-2.524	-32.672	16392	14884	0	316
-10.494	-38.839	16393	15608	0	316
-13.451	-41.868	16393	15872	0	316
-13.776	-40.173	16394	16055	0	316
-11.287	-37.072	16396	16501	0	316
-7.212	-33.790	16397	16981	0	316
-3.029	-33.321	16398	17268	0	316
-1.334	-36.026	16398	17348	0	316
-3.606	-40.281	16397	17094	0	316
-6.239	-42.878	16395	16478	0	316
-8.222	-42.012	16391	15655	0	316
-6.094	-39.812	16387	14832	0	316
-2.308	-35.485	16384	14268	0	316
-2.633	-33.934	16382	13939	0	316
-6.924	-34.872	16378	13501	0	316
-10.566	-35.485	16375	12979	0	316
-8.547	-31.590	16372	12734	0	316
2.308	-23.621	16369	12744	0	316
14.172	-15.543	16366	12749	0	316
18.067	-15.290	16364	12847	0	316
10.891	-20.952	16362	13115	0	316
-0.757	-30.004	16360	13242	0	316
-3.750	-33.970	16356	13120	0	316
1.839	-26.578	16353	12908	0	316
10.927	-18.933	16349	12683	0	316
13.091	-16.192	16345	12438	0	316
5.770	-22.972	16340	12194	0	316
-4.255	-33.682	16335	11982	0	316
-7.573	-39.776	16331	11827	0	316
-2.921	-39.091	16327	11817	0	316
4.400	-33.790	16325	12165	0	316
6.563	-29.968	16323	12800	0	316
3.678	-32.023	16321	13360	0	316
0.505	-35.269	16319	13826	0	316
1.118	-36.928	16319	14503	0	316
4.688	-37.252	16319	15364	0	316
5.590	-36.495	16319	16140	0	316
3.895	-37.144	16321	16934	0	316
-2.200	-41.003	16323	17813	0	316
-5.698	-45.438	16324	18467	0	316
-8.366	-50.126	16324	18787	0	316
-7.285	-51.064	16324	18938	0	316
-7.825	-49.910	16324	19074	0	316
-8.150	-48.251	16327	19483	0	316
-8.727	-48.395	16330	20325	0	316
-10.422	-52.795	16334	21209	0	316
-11.937	-59.034	16337	21750	0	316
-11.360	-64.912	16341	22235	0	316
-11.864	-68.554	16347	23086	0	316
-12.189	-69.852	16354	24145	0	316
-11.179	-69.708	16361	24972	0	316
-11.071	-69.780	16367	25457	0	316
-10.927	-70.357	16372	25640	0	316
-9.448	-71.295	16375	25368	0	316
-10.891	-72.304	16378	24718	0	316
-11.900	-73.170	16381	24065	0	316
-13.956	-72.990	16384	23453	0	316
-15.254	-72.449	16384	22583	1	788
-17.634	-72.990	16384	21487	0	788
-21.024	-75.225	16385	20537	0	788
-25.748	-79.192	16386	19855	0	788
-30.797	-83.556	16388	19403	0	788
-32.925	-85.287	16391	19328	0	788
-33.862	-84.818	16396	19549	0	788
-32.456	-80.707	16398	19587	0	788
-30.328	-77.605	16400	19130	0	788
-29.282	-74.973	16400	18279	0	788
-29.210	-76.488	16399	17230	0	788
-31.410	-78.327	16397	16173	0	788
-34.367	-78.832	16397	15453	0	788
-34.367	-76.307	16398	15256	0	788
-31.482	-69.672	16399	15270	0	788
-24.811	-62.063	16400	15213	0	788
-20.844	-55.824	16401	15162	0	788
-20.267	-52.687	16404	15260	0	788
-24.270	-51.569	16407	15660	0	788
-28.309	-49.405	16410	16272	0	788
-26.361	-45.474	16413	16652	0	788
-22.250	-39.740	16413	16501	0	788
-17.959	-35.016	16413	15895	0	788
-19.041	-35.810	16410	15049	0	788
-21.962	-38.478	16407	14070	0	788
-23.909	-40.029	16403	13017	0	788
-20.231	-36.603	16399	12038	0	788
-15.939	-32.203	16396	11380	0	788
-13.776	-32.239	16393	11102	0	788
-19.401	-37.793	16391	11083	0	788
-27.191	-45.618	16389	11154	0	788
-32.889	-48.648	16386	11088	0	788
-31.266	-43.130	16384	10811	0	788
-25.460	-32.131	16380	10543	0	788
-19.978	-25.856	16378	10679	0	788
-18.320	-24.378	16379	11441	0	788
-19.654	-27.732	16380	12593	0	788
-20.014	-29.463	16381	13609	0	788
-19.798	-29.787	16381	14169	0	788
-19.401	-29.030	16381	14428	0	788
-21.781	-28.092	16381	14738	0	788
-22.503	-26.217	16381	15124	0	788
-18.788	-17.887	16380	15270	0	788
-8.835	-5.806	16378	15180	0	788
2.344	6.167	16378	15218	0	788
7.176	10.530	16377	15500	0	788
4.183	7.429	16377	15900	0	788
-2.633	1.767	16378	16328	0	788
-5.878	0.541	16379	16750	0	788
-4.832	3.787	16380	17174	0	788
-1.479	9.737	16382	17668	0	788
-1.875	12.117	16384	18434	0	788
-5.049	12.946	16388	19380	0	788
-8.366	14.533	16391	20043	0	788
-8.871	15.759	16393	20128	0	788
-8.547	18.175	16393	19733	0	788
-5.554	18.464	16391	19074	0	788
-4.760	17.815	16390	18340	0	788
-3.065	17.454	16390	17879	0	788
-0.252	19.762	16390	17875	0	788
2.524	24.883	16392	18034	0	788
4.580	28.201	16392	18105	0	788
6.094	32.095	16393	18053	0	788
10.891	35.160	16393	17743	0	788
16.048	38.731	16391	17207	0	788
22.070	42.878	16390	16793	0	788
27.479	45.871	16390	16534	0	788
26.325	47.025	16389	16225	0	788
23.585	46.448	16389	16027	0	788
18.536	43.166	16391	16319	0	788
14.966	41.616	16393	17042	0	788
14.425	39.488	16398	17983	0	788
15.831	37.577	16403	19003	0	788
15.831	33.249	16410	20043	0	788
12.622	29.787	16415	20960	0	788
8.835	26.397	16420	21520	0	788
4.977	25.171	16424	21769	0	788
4.904	27.948	16429	21953	0	788
6.671	30.328	16433	21990	0	788
9.809	31.951	16435	21717	0	788
10.097	29.895	16438	21247	0	788
10.783	25.856	16440	20763	0	788
8.655	24.306	16442	20377	0	788
9.196	24.486	16443	19864	0	788
10.602	27.407	16442	18872	0	788
12.514	28.381	16439	17442	0	788
14.028	25.676	16435	15834	0	788
8.619	18.752	16430	14249	0	788
1.442	11.684	16426	13059	0	788
-4.796	9.376	16424	12419	0	788
-6.599	11.215	16421	12043	0	788
-3.390	14.821	16419	11798	0	788
-0.361	16.697	16419	11850	0	788
-0.361	17.238	16418	12043	0	788
-2.019	16.805	16417	12137	0	788
-1.803	16.805	16415	12203	0	788
2.164	18.067	16415	12415	0	788
6.924	15.759	16415	12824	0	788
8.799	12.117	16414	13148	0	788
7.104	4.904	16412	13031	0	788
2.380	0.000	16409	12622	0	788
-2.416	-1.983	16407	12433	0	788
-4.147	-1.623	16407	12767	0	788
-4.760	-0.649	16408	13525	0	788
-4.977	-1.262	16409	14475	0	788
-9.304	-2.849	16412	15425	0	788
-14.858	-5.914	16413	16140	0	788
-23.116	-8.294	16414	16553	0	788
-30.184	-11.973	16416	16793	0	788
-31.879	-15.615	16416	16920	0	788
-31.013	-18.933	16416	16953	0	788
-26.433	-19.978	16416	17000	0	788
-21.601	-17.310	16418	17296	0	788
-18.320	-14.641	16419	17790	0	788
-18.680	-15.795	16420	18016	0	788
-25.207	-19.834	16419	17653	0	788
-34.115	-28.814	16416	16844	0	788
-41.399	-34.006	16412	15839	0	788
-43.419	-35.846	16406	14710	0	788
-36.675	-31.843	16401	13609	0	788
-26.938	-25.640	16397	12908	0	788
-19.113	-20.014	16395	12866	0	788
-17.743	-17.382	16394	13266	0	788
-21.168	-18.247	16392	13567	0	788
-27.587	-20.519	16390	13468	0	788
-28.814	-22.467	16386	13040	0	788
-26.974	-22.972	16382	12466	0	788
-21.349	-20.700	16376	11831	0	788
-17.562	-20.267	16371	11187	0	788
-15.867	-19.293	16364	10660	0	788
-17.923	-19.582	16360	10477	0	788
-21.204	-21.818	16356	10594	0	788
-22.755	-24.017	16352	10764	0	788
-23.440	-26.758	16350	11163	0	788
-23.801	-29.210	16349	12048	0	788
-27.660	-30.833	16348	13026	0	788
-31.699	-33.538	16346	13633	0	788
-37.793	-35.160	16344	13981	0	788
-40.534	-38.190	16344	14480	0	788
-41.363	-38.658	16343	15115	0	788
-37.973	-35.269	16341	15543	0	788
-35.377	-31.049	16340	15782	0	788
-32.276	-28.814	16340	16192	0	788
-29.715	-26.686	16339	16736	0	788
-28.020	-27.335	16339	17169	0	788
-26.325	-25.568	16339	17588	0	788
-26.433	-23.188	16340	18077	0	788
-25.207	-20.880	16339	18336	0	788
-25.676	-20.952	16338	18260	0	788
-25.063	-22.539	16337	18124	0	788
-24.666	-26.433	16338	18303	0	788
-26.037	-29.246	16340	18905	0	788
-26.830	-31.446	16342	19526	0	788
-28.309	-32.997	16343	19817	0	788
-27.804	-30.076	16345	20109	0	788
-25.856	-27.083	16350	20810	0	788
-20.952	-23.729	16355	21849	0	788
-17.887	-20.772	16361	22907	0	788
-17.670	-22.070	16367	23698	0	788
-21.060	-25.532	16372	24159	0	788
-27.587	-30.941	16376	24300	0	788
-32.239	-35.413	16378	23980	0	788
-32.780	-35.737	16379	23190	0	788
-30.112	-32.853	16380	22221	0	788
-26.722	-29.174	16381	21492	0	788
-24.522	-26.542	16384	21261	1	660
-24.847	-26.470	16387	21445	0	660
-22.539	-24.558	16393	21840	0	660
-17.670	-20.483	16398	22230	0	660
-12.982	-14.497	16403	22371	0	660
-9.268	-6.852	16407	22211	0	660
-7.393	-3.570	16410	21873	0	660
-7.681	-0.144	16413	21407	0	660
-5.806	1.442	16414	20734	0	660
-5.085	0.613	16415	19808	0	660
-4.652	-1.839	16415	18829	0	660
-7.032	-5.626	16414	17889	0	660
-9.448	-8.475	16412	16727	0	660
-8.439	-9.412	16410	15397	0	660
-7.753	-6.419	16408	14362	0	660
-5.373	-3.823	16407	13845	0	660
-4.327	-0.505	16405	13459	0	660
-5.554	-0.252	16403	12857	0	660
-7.212	-2.957	16401	12377	0	660
-10.206	-6.960	16402	12452	0	660
-14.425	-10.566	16404	13003	0	660
-17.779	-13.343	16406	13680	0	660
-19.329	-14.245	16407	14197	0	660
-19.005	-15.615	16409	14602	0	660
-16.985	-16.408	16412	15180	0	660
-14.245	-17.526	16415	15895	0	660
-13.631	-14.641	16417	16319	0	660
-12.081	-11.468	16418	16253	0	660
-11.540	-8.979	16418	15985	0	660
-11.215	-7.104	16417	15655	0	660
-10.097	-7.357	16415	15166	0	660
-10.746	-6.816	16415	14752	0	660
-12.477	-7.176	16415	14785	0	660
-13.992	-7.934	16417	15213	0	660
-16.697	-9.052	16418	15745	0	660
-17.166	-11.071	16420	16088	0	660
-16.300	-12.333	16421	16173	0	660
-13.127	-10.458	16420	16018	0	660
-10.783	-10.530	16419	15585	0	660
-9.917	-12.261	16418	15162	0	660
-14.317	-15.507	16417	15049	0	660
-20.700	-22.106	16416	14945	0	660
-26.542	-26.758	16413	14423	0	660
-28.237	-27.227	16409	13638	0	660
-23.368	-21.781	16406	13003	0	660
-15.435	-13.235	16403	12640	0	660
-9.340	-5.121	16401	12523	0	660
-7.753	-4.400	16400	12706	0	660
-8.439	-6.852	16398	13017	0	660
-11.684	-11.900	16397	13247	0	660
-11.360	-13.920	16396	13440	0	660
-11.071	-11.540	16395	13755	0	660
-9.701	-7.104	16397	14371	0	660
-10.350	-5.662	16397	15190	0	660
-10.819	-5.698	16398	15750	0	660
-7.537	-4.291	16398	15872	0	660
-2.957	-3.065	16397	15867	0	660
3.065	0.361	16397	15952	0	660
7.862	0.216	16397	16131	0	660
4.868	-3.390	16398	16558	0	660
-0.757	-8.222	16401	17291	0	660
-7.032	-11.828	16403	18049	0	660
-8.835	-9.665	16404	18448	0	660
-7.609	-4.724	16404	18364	0	660
-2.813	1.190	16404	18105	0	660
-1.010	3.282	16404	17804	0	660
-2.777	0.325	16401	17193	0	660
-7.934	-5.878	16397	16229	0	660
-11.143	-12.225	16392	15115	0	660
-12.586	-15.038	16386	13967	0	660
-11.973	-13.740	16381	12810	0	660
-7.970	-8.330	16374	11690	0	660
-3.967	-4.219	16366	10655	0	660
0.108	-2.019	16359	9743	0	660
2.669	-0.902	16352	8981	0	660
3.390	-1.010	16344	8379	0	660
2.200	-0.865	16337	7941	0	660
-1.731	-1.262	16330	7664	0	660
-4.868	-3.246	16323	7537	0	660
-7.104	-8.258	16317	7645	0	660
-6.419	-11.287	16313	8181	0	660
-1.551	-10.963	16310	9089	0	660
5.193	-5.193	16307	9983	0	660
10.674	-0.505	16304	10702	0	660
10.674	1.731	16301	11460	0	660
3.750	-3.642	16302	12598	0	660
-7.032	-13.091	16303	14202	0	660
-15.651	-20.808	16304	15844	0	660
-19.690	-22.322	16306	17160	0	660
-19.149	-19.546	16310	18364	0	660
-16.733	-14.533	16313	19634	0	660
-15.038	-11.360	16316	20857	0	660
-17.166	-13.199	16320	21882	0	660
-20.700	-16.336	16323	22508	0	660
-25.063	-20.555	16325	22790	0	660
-28.561	-24.378	16328	23072	0	660
-30.545	-27.227	16330	23383	0	660
-27.660	-28.922	16333	23495	0	660
-26.325	-30.941	16336	23637	0	660
-24.811	-32.276	16341	24173	0	660
-27.515	-34.692	16348	25034	0	660
-29.499	-36.603	16355	25899	0	660
-31.699	-38.911	16362	26492	0	660
-28.597	-38.226	16368	26741	0	660
-22.214	-34.259	16373	26656	0	660
-16.949	-29.823	16376	26130	0	660
-10.963	-26.109	16378	25165	0	660
-9.701	-23.260	16380	24022	0	660
-12.874	-22.899	16381	22983	1	432
-17.959	-26.325	16382	22150	0	432
-24.522	-30.364	16384	21529	0	432
-27.587	-35.269	16388	21247	0	432
-23.332	-37.577	16392	21238	0	432
-16.408	-35.846	16395	21054	0	432
-12.297	-32.780	16396	20372	0	432
-15.651	-32.276	16397	19370	0	432
-25.640	-34.692	16398	18448	0	432
-34.800	-38.478	16398	17729	0	432
-34.692	-38.082	16399	17207	0	432
-24.342	-30.833	16401	16939	0	432
-11.612	-23.296	16402	16670	0	432
-4.616	-19.185	16402	16121	0	432
-9.016	-21.601	16402	15510	0	432
-16.300	-27.371	16402	15082	0	432
-21.096	-30.472	16403	14771	0	432
-19.437	-28.705	16402	14409	0	432
-14.028	-23.585	16401	13896	0	432
-10.819	-22.070	16400	13421	0	432
-14.425	-24.919	16400	13153	0	432
-20.123	-31.302	16399	13017	0	432
-24.666	-37.829	16398	12866	0	432
-27.155	-40.858	16395	12523	0	432
-27.912	-42.229	16393	12024	0	432
-31.446	-42.517	16392	11803	0	432
-33.754	-42.986	16393	12175	0	432
-33.862	-41.363	16394	13031	0	432
-26.722	-36.314	16398	14122	0	432
-16.589	-28.309	16402	15312	0	432
-5.662	-20.952	16408	16558	0	432
-5.878	-17.454	16414	17804	0	432
-12.189	-19.870	16419	18881	0	432
-20.952	-25.748	16423	19455	0	432
-23.945	-29.607	16424	19408	0	432
-19.149	-26.794	16427	19182	0	432
-8.691	-21.818	16429	19135	0	432
-3.390	-15.326	16430	19055	0	432
-4.472	-12.622	16432	18829	0	432
-10.458	-16.012	16435	18754	0	432
-17.743	-18.933	16437	18844	0	432
-20.700	-23.116	16438	18749	0	432
-20.591	-24.558	16439	18359	0	432
-19.906	-25.460	16438	17729	0	432
-21.277	-28.309	16437	16849	0	432
-22.214	-29.643	16435	15919	0	432
-20.952	-28.777	16433	15133	0	432
-16.589	-24.594	16431	14555	0	432
-9.629	-18.392	16430	14258	0	432
-5.157	-13.343	16429	14061	0	432
-2.957	-13.523	16427	13760	0	432
-4.616	-15.939	16425	13337	0	432
-6.671	-19.329	16422	12781	0	432
-9.484	-20.339	16420	12330	0	432
-10.458	-19.005	16418	12269	0	432
-11.468	-17.202	16415	12278	0	432
-11.360	-16.552	16412	11925	0	432
-11.143	-18.752	16407	11239	0	432
-12.622	-20.700	16401	10528	0	432
-17.526	-23.585	16397	10077	0	432
-22.791	-23.729	16392	9870	0	432
-25.893	-24.270	16386	9569	0	432
-25.893	-22.214	16382	9178	0	432
-24.270	-21.313	16378	9146	0	432
-21.601	-21.204	16376	9762	0	432
-19.221	-21.781	16375	10797	0	432
-17.815	-19.978	16375	11817	0	432
-15.146	-17.274	16374	12678	0	432
-12.586	-13.668	16374	13487	0	432
-12.369	-12.441	16375	14371	0	432
-13.631	-11.828	16376	15397	0	432
-11.937	-11.828	16378	16384	0	432
-9.268	-9.556	16378	17145	0	432
-4.147	-4.219	16379	17663	0	432
0.505	1.154	16378	17799	0	432
1.479	2.993	16377	17625	0	432
-1.190	1.298	16377	17616	0	432
-4.760	-3.354	16378	18105	0	432
-8.871	-8.078	16381	18966	0	432
-11.864	-12.766	16384	19949	0	432
-10.494	-13.956	16389	20974	0	432
-8.511	-10.314	16393	21906	0	432
-4.616	-8.114	16397	22399	0	432
-3.426	-5.626	16399	22305	0	432
-3.498	-7.862	16400	21953	0	432
-3.859	-10.530	16401	21506	0	432
-4.003	-12.153	16400	20814	0	432
-0.938	-12.441	16399	20010	0	432
0.288	-9.737	16397	19239	0	432
-1.623	-11.287	16396	18378	0	432
-6.780	-15.038	16395	17625	0	432
-14.317	-20.375	16394	17268	0	432
-20.627	-25.676	16393	16967	0	432
-23.260	-27.407	16390	16305	0	432
-21.962	-28.669	16386	15336	0	432
-19.221	-28.453	16384	14371	0	432
-15.182	-27.984	16380	13670	0	432
-12.514	-26.217	16377	13205	0	432
-12.369	-23.693	16374	12767	0	432
-12.802	-19.618	16371	12560	0	432
-13.884	-16.372	16371	12908	0	432
-14.533	-16.625	16372	13661	0	432
-16.733	-20.664	16373	14381	0	432
-19.654	-25.388	16374	15006	0	432
-21.998	-30.076	16376	15745	0	432
-26.361	-31.338	16378	16388	0	432
-26.253	-27.660	16378	16652	0	432
-24.342	-24.847	16378	16746	0	432
-20.555	-22.863	16378	16807	0	432
-17.382	-22.683	16377	16600	0	432
-15.939	-26.001	16374	16060	0	432
-15.218	-27.227	16371	15439	0	432
-14.894	-28.453	16369	15016	0	432
-14.461	-28.056	16367	14771	0	432
-13.127	-28.597	16364	14494	0	432
-13.343	-30.292	16362	14291	0	432
-12.874	-30.436	16360	14235	0	432
-14.245	-31.302	16358	14146	0	432
-14.966	-31.230	16357	14221	0	432
-17.382	-31.987	16357	14738	0	432
-20.808	-33.934	16358	15326	0	432
-25.027	-36.891	16357	15514	0	432
-27.047	-38.983	16355	15434	0	432
-29.066	-39.416	16355	15590	0	432
-28.237	-39.957	16357	16168	0	432
-28.741	-40.065	16357	16755	0	432
-29.715	-41.616	16358	17028	0	432
-29.318	-41.039	16359	17235	0	432
-28.309	-38.658	16359	17484	0	432
-24.847	-34.764	16359	17569	0	432
-20.555	-29.499	16360	17715	0	432
-15.507	-25.207	16364	18321	0	432
-10.710	-21.096	16368	19314	0	432
-6.022	-17.779	16373	20433	0	432
-4.868	-15.759	16380	21487	0	432
-5.878	-15.903	16384	22235	0	432
-10.025	-19.654	16388	22597	0	432
-13.956	-23.512	16391	22696	0	432
-15.651	-26.433	16395	22705	0	432
-14.353	-24.847	16399	22743	0	432
-12.117	-23.332	16403	22672	0	432
-10.602	-19.437	16405	22348	0	432
-8.727	-17.526	16408	21849	0	432
-6.816	-15.362	16410	21365	0	432
-4.724	-13.776	16413	21101	0	432
-4.580	-13.776	16417	21106	0	432
-4.977	-14.281	16421	21134	0	432
-7.429	-16.228	16423	20904	0	432
-9.665	-17.923	16425	20396	0	432
-9.556	-15.687	16427	19747	0	432
-7.140	-12.153	16427	19022	0	432
-4.255	-7.862	16427	18152	0	432
-1.875	-4.760	16425	16990	0	432
-1.370	-5.193	16421	15528	0	432
-2.092	-7.789	16417	13920	0	432
-0.541	-7.573	16411	12396	0	432
2.777	-4.544	16407	11319	0	432
8.475	0.577	16404	10834	0	432
11.143	2.128	16401	10538	0	432
10.386	-0.108	16396	9992	0	432
5.301	-6.960	16391	9324	0	432
-0.180	-11.576	16388	9004	0	432
-2.308	-11.973	16386	9211	0	432
-1.046	-6.888	16384	9649	0	432
0.036	-2.560	16384	10157	0	432
-0.144	-1.983	16384	10881	0	432
-2.813	-5.806	16384	11681	0	432
-6.203	-12.550	16384	12339	0	432
-6.419	-17.851	16383	12810	0	432
-5.554	-18.283	16381	12951	0	432
-2.019	-14.749	16377	12744	0	432
-1.551	-11.432	16373	12358	0	432
-3.859	-11.179	16368	11911	0	432
-7.032	-12.838	16363	11446	0	432
-9.953	-15.615	16358	10999	0	432
-8.979	-14.713	16352	10670	0	432
-6.960	-11.864	16349	10773	0	432
-4.544	-9.376	16347	11469	0	432
-5.770	-11.648	16346	12321	0	432
-10.350	-18.139	16344	12852	0	432
-15.903	-26.361	16341	13078	0	432
-22.503	-34.223	16339	13294	0	432
-24.594	-37.937	16338	13835	0	432
-24.053	-38.406	16339	14809	0	432
-21.745	-36.351	16340	15834	0	432
-20.014	-35.449	16339	16449	0	432
-21.854	-38.190	16339	16760	0	432
-27.371	-41.616	16340	17249	0	432
-30.653	-42.806	16343	18237	0	432
-30.977	-39.812	16347	19507	0	432
-24.955	-32.276	16350	20509	0	432
-21.673	-26.253	16352	21007	0	432
-19.221	-24.342	16355	21393	0	432
-20.375	-27.443	16360	22098	0	432
-20.375	-28.994	16365	22973	0	432
-17.382	-27.083	16370	23613	0	432
-13.451	-23.152	16374	23905	0	432
-11.828	-21.349	16378	23999	0	432
-15.795	-24.234	16382	24065	0	432
-20.880	-28.886	16387	24300	0	432
-23.729	-32.023	16392	24714	0	432
-24.306	-31.049	16398	25076	0	432
-21.781	-25.929	16403	25024	0	432
-23.116	-25.352	16405	24427	0	432
-25.748	-28.669	16408	23684	0	432
-29.751	-35.341	16412	23265	0	432
-30.076	-38.190	16417	23063	1	824
-28.453	-36.351	16419	22668	0	824
-24.702	-31.951	16422	21986	0	824
-23.693	-28.561	16423	21092	0	824
-24.739	-30.833	16423	19958	0	824
-26.470	-33.249	16422	18759	0	824
-24.450	-33.934	16421	17597	0	824
-20.952	-28.092	16418	16366	0	824
-16.408	-20.267	16417	15279	0	824
-12.333	-14.785	16416	14621	0	824
-12.477	-12.658	16414	14042	0	824
-12.874	-14.497	16411	13125	0	824
-13.812	-16.120	16407	11930	0	824
-12.622	-15.903	16401	10773	0	824
-13.920	-17.202	16398	10020	0	824
-16.552	-20.123	16396	9931	0	824
-20.880	-24.486	16396	10397	0	824
-24.558	-30.364	16397	11107	0	824
-26.650	-33.393	16396	11638	0	824
-25.640	-34.692	16394	11700	0	824
-23.044	-33.574	16392	11474	0	824
-20.844	-30.689	16390	11464	0	824
-17.779	-27.155	16390	11878	0	824
-14.497	-23.801	16390	12419	0	824
-14.064	-23.152	16390	12960	0	824
-14.245	-24.847	16392	13750	0	824
-17.454	-28.741	16394	14837	0	824
-19.401	-31.590	16398	16022	0	824
-18.283	-30.004	16402	17131	0	824
-14.064	-26.145	16404	17860	0	824
-8.042	-18.933	16405	18025	0	824
-2.560	-12.297	16407	18016	0	824
0.685	-5.517	16409	18213	0	824
2.344	-2.741	16410	18406	0	824
2.452	-1.515	16410	18354	0	824
4.183	-2.380	16410	18157	0	824
5.049	-3.318	16410	17893	0	824
7.321	-1.839	16410	17564	0	824
11.612	2.128	16410	17287	0	824
15.759	7.465	16410	17174	0	824
20.123	13.091	16410	17084	0	824
23.765	15.326	16410	16962	0	824
20.844	14.461	16411	16967	0	824
14.064	10.061	16411	16971	0	824
4.904	2.885	16411	16891	0	824
-4.183	-3.895	16412	16910	0	824
-9.268	-8.330	16412	16844	0	824
-8.006	-9.592	16410	16398	0	824
-3.570	-7.068	16409	15919	0	824
0.036	-2.741	16409	15858	0	824
3.029	0.433	16410	16083	0	824
5.914	4.327	16409	16102	0	824
7.537	6.058	16407	15618	0	824
10.386	6.744	16404	14762	0	824
13.812	7.068	16399	13863	0	824
15.795	7.104	16397	13289	0	824
18.211	8.294	16394	13177	0	824
22.611	13.487	16392	13167	0	824
27.768	21.349	16389	12918	0	824
30.184	26.578	16386	12650	0	824
29.246	27.804	16384	12499	0	824
23.296	22.972	16380	12189	0	824
15.615	15.651	16375	11629	0	824
9.845	10.927	16369	10975	0	824
6.671	9.953	16363	10420	0	824
5.770	9.917	16359	10284	0	824
5.157	10.746	16358	10820	0	824
5.337	9.340	16358	11897	0	824
3.282	7.681	16359	13158	0	824
1.190	3.823	16359	14193	0	824
-1.190	0.685	16359	14832	0	824
-3.642	-3.967	16359	15336	0	824
-4.580	-7.321	16359	15834	0	824
-2.957	-6.599	16357	16036	0	824
0.108	-3.390	16355	15971	0	824
2.993	-0.938	16354	16018	0	824
2.380	-0.541	16354	16286	0	824
-1.406	-5.481	16354	16727	0	824
-5.373	-12.045	16356	17508	0	824
-8.727	-17.598	16360	18632	0	824
-7.212	-18.644	16364	19897	0	824
-4.400	-16.336	16370	21078	0	824
-4.760	-13.054	16374	21953	0	824
-6.924	-13.054	16378	22465	0	824
-13.559	-14.713	16381	22719	0	824
-17.166	-19.654	16384	22865	0	824
-20.519	-23.909	16389	23157	0	824
-23.260	-30.256	16393	23632	0	824
-27.587	-34.115	16399	24050	0	824
-33.502	-39.488	16403	24126	0	824
-36.531	-42.770	16407	23928	0	824
-38.947	-44.428	16410	23702	0	824
-37.288	-46.556	16413	23265	0	824
-36.495	-47.313	16414	22357	0	824
-36.639	-48.756	16414	21355	1	376
-37.180	-48.323	16415	20622	0	376
-37.108	-47.386	16416	19860	0	376
-35.810	-43.779	16414	18764	0	376
-33.934	-41.940	16413	17677	0	376
-31.374	-39.019	16413	16967	0	376
-29.246	-36.891	16412	16412	0	376
-26.145	-35.990	16411	15792	0	376
-23.801	-35.016	16410	15072	0	376
-20.519	-34.115	16407	14230	0	376
-17.743	-33.862	16405	13534	0	376
-16.552	-33.538	16404	13257	0	376
-16.516	-33.646	16402	13050	0	376
-18.716	-34.800	16400	12579	0	376
-20.195	-35.737	16397	12104	0	376
-24.125	-35.485	16395	11836	0	376
-27.010	-33.934	16393	11789	0	376
-28.633	-32.131	16393	12123	0	376
-29.174	-31.662	16394	12852	0	376
-27.191	-30.400	16396	13689	0	376
-23.404	-30.833	16397	14320	0	376
-20.772	-29.787	16399	14776	0	376
-18.897	-29.463	16401	15364	0	376
-17.779	-27.191	16403	16088	0	376
-16.769	-27.479	16404	16496	0	376
-15.110	-25.171	16404	16393	0	376
-14.749	-23.981	16404	16192	0	376
-14.858	-24.089	16405	16347	0	376
-16.589	-24.342	16406	16750	0	376
-17.057	-25.748	16407	16995	0	376
-16.877	-25.171	16407	16967	0	376
-17.021	-25.712	16406	16717	0	376
-18.067	-26.506	16404	16225	0	376
-19.365	-27.948	16402	15651	0	376
-19.221	-27.010	16400	15129	0	376
-15.074	-24.775	16396	14428	0	376
-9.917	-21.060	16390	13459	0	376
-9.124	-19.906	16385	12382	0	376
-14.281	-26.614	16380	11417	0	376
-23.945	-35.160	16375	10909	0	376
-31.987	-41.507	16372	10989	0	376
-31.554	-43.743	16370	11314	0	376
-26.109	-38.947	16368	11728	0	376
-17.887	-33.321	16369	12480	0	376
-12.586	-29.643	16370	13614	0	376
-11.432	-28.128	16372	14832	0	376
-10.278	-25.352	16374	15820	0	376
-6.816	-23.621	16376	16510	0	376
-2.813	-19.185	16377	17028	0	376
2.164	-16.841	16378	17432	0	376
3.967	-15.002	16378	17630	0	376
3.498	-13.235	16376	17451	0	376
1.731	-11.684	16373	16901	0	376
0.469	-8.979	16370	16163	0	376
-0.252	-8.006	16366	15416	0	376
0.180	-7.862	16363	14903	0	376
0.685	-8.547	16360	14616	0	376
1.298	-8.258	16357	14338	0	376
1.442	-7.825	16355	14249	0	376
1.082	-6.058	16355	14719	0	376
1.010	-4.832	16357	15590	0	376
1.659	-4.616	16358	16393	0	376
2.128	-4.940	16360	17084	0	376
4.219	-5.554	16362	17879	0	376
3.426	-5.373	16364	18561	0	376
1.046	-7.898	16364	18721	0	376
-1.298	-9.881	16364	18491	0	376
-2.669	-11.973	16365	18401	0	376
1.226	-10.783	16367	18764	0	376
10.314	-4.688	16370	19370	0	376
22.719	5.662	16372	19714	0	376
30.761	14.281	16372	19587	0	376
32.312	15.759	16373	19300	0	376
29.354	10.999	16374	19107	0	376
24.666	3.570	16375	19032	0	376
25.856	2.596	16377	19225	0	376
32.853	7.825	16380	19629	0	376
38.983	16.336	16382	19897	0	376
38.406	20.483	16384	19888	0	376
31.085	17.887	16385	19747	0	376
23.080	9.592	16386	19535	0	376
20.808	6.671	16387	19257	0	376
27.912	9.629	16388	18919	0	376
38.370	16.480	16388	18547	0	376
44.176	20.627	16389	18171	0	376
39.740	18.175	16388	17710	0	376
30.436	9.556	16387	17066	0	376
22.467	0.793	16386	16402	0	376
20.700	-1.839	16384	15933	0	376
24.630	0.144	16384	15594	0	376
29.499	2.092	16383	15237	0	376
26.578	1.046	16381	14748	0	376
20.483	-4.039	16380	14301	0	376
13.559	-7.934	16378	14080	0	376
12.009	-6.708	16377	13986	0	376
15.146	-1.695	16376	13943	0	376
20.808	6.419	16375	13967	0	376
24.270	9.989	16375	14047	0	376
25.279	11.287	16374	14169	0	376
22.286	8.330	16373	14221	0	376
18.211	4.977	16372	14103	0	376
15.002	2.128	16370	13981	0	376
14.245	1.875	16369	13939	0	376
15.723	4.255	16366	13703	0	376
19.690	7.321	16363	13304	0	376
22.827	11.215	16361	13186	0	376
21.673	11.107	16361	13567	0	376
19.473	9.448	16360	14023	0	376
15.326	8.511	16358	14113	0	376
10.999	7.104	16356	13957	0	376
6.131	5.265	16356	14066	0	376
-0.144	2.993	16356	14635	0	376
-7.537	-3.426	16357	15331	0	376
-14.425	-9.232	16358	15909	0	376
-20.087	-13.235	16359	16435	0	376
-21.313	-13.271	16361	17042	0	376
-19.005	-12.477	16364	17804	0	376
-15.218	-10.350	16366	18453	0	376
-11.792	-11.287	16367	18604	0	376
-13.235	-15.218	16366	18279	0	376
-18.464	-20.844	16364	17710	0	376
-23.837	-26.902	16361	17018	0	376
-26.253	-27.083	16358	16262	0	376
-25.207	-24.630	16354	15453	0	376
-21.060	-19.654	16350	14625	0	376
-18.211	-17.093	16346	13920	0	376
-19.437	-19.293	16344	13647	0	376
-22.395	-23.585	16344	14047	0	376
-25.532	-30.076	16346	14983	0	376
-26.578	-31.554	16349	16206	0	376
-25.893	-33.357	16354	17588	0	376
-24.630	-33.826	16360	19079	0	376
-24.522	-32.600	16367	20490	0	376
-25.352	-30.833	16372	21553	0	376
-25.496	-29.246	16377	22202	0	376
-25.460	-27.479	16381	22489	0	376
-23.909	-28.525	16383	22291	0	376
-25.316	-30.689	16384	21689	0	376
-26.758	-34.836	16385	21177	0	376
-28.777	-36.783	16387	21003	0	376
-26.974	-35.521	16389	20791	1	560
-24.739	-32.348	16388	20123	0	560
-21.457	-28.741	16387	19163	0	560
-18.428	-25.856	16387	18350	0	560
-17.815	-23.476	16387	17776	0	560
-17.562	-21.745	16387	17399	0	560
-16.985	-20.483	16388	17287	0	560
-16.120	-19.077	16389	17268	0	560
-13.668	-18.897	16390	17131	0	560
-9.520	-18.067	16391	16934	0	560
-3.426	-14.425	16391	16727	0	560
0.649	-10.602	16392	16510	0	560
1.479	-8.078	16392	16290	0	560
-1.262	-10.097	16391	15980	0	560
-7.212	-12.802	16390	15401	0	560
-9.809	-16.408	16387	14541	0	560
-10.242	-17.093	16384	13647	0	560
-8.042	-15.110	16382	13120	0	560
-7.140	-14.100	16381	13092	0	560
-11.323	-16.336	16380	13280	0	560
-20.087	-22.719	16380	13445	0	560
-28.056	-29.931	16379	13534	0	560
-33.033	-35.485	16378	13487	0	560
-30.148	-36.603	16377	13454	0	560
-25.243	-33.249	16375	13539	0	560
-19.726	-29.931	16374	13543	0	560
-18.572	-25.784	16373	13548	0	560
-19.401	-26.145	16371	13661	0	560
-19.834	-25.099	16370	13713	0	560
-19.870	-27.732	16369	13783	0	560
-19.077	-29.895	16368	14033	0	560
-19.870	-32.456	16369	14498	0	560
-20.844	-32.528	16371	15298	0	560
-19.473	-29.895	16374	16323	0	560
-15.110	-23.080	16376	17183	0	560
-9.232	-16.589	16379	17776	0	560
-6.131	-13.343	16380	18114	0	560
-6.094	-14.208	16381	18152	0	560
-8.294	-17.851	16382	18152	0	560
-10.458	-19.437	16384	18406	0	560
-12.405	-19.113	16384	18613	0	560
-13.668	-17.454	16384	18444	0	560
-18.103	-18.392	16385	18246	0	560
-22.647	-21.349	16387	18359	0	560
-25.027	-26.217	16387	18458	0	560
-25.929	-28.273	16387	18213	0	560
-24.775	-30.256	16387	17875	0	560
-26.470	-30.653	16387	17658	0	560
-28.092	-32.672	16387	17489	0	560
-29.895	-32.961	16388	17334	0	560
-29.499	-31.662	16388	17202	0	560
-25.388	-29.535	16388	16990	0	560
-21.673	-24.017	16386	16506	0	560
-19.473	-23.080	16384	15848	0	560
-20.050	-23.368	16383	15340	0	560
-20.664	-25.820	16382	15086	0	560
-18.897	-27.660	16382	15067	0	560
-14.172	-24.739	16382	15336	0	560
-10.530	-21.673	16383	15684	0	560
-8.691	-18.572	16384	16008	0	560
-12.477	-20.844	16385	16482	0	560
-17.166	-25.424	16386	16896	0	560
-20.159	-28.994	16386	16830	0	560
-18.608	-27.515	16384	16323	0	560
-14.569	-25.532	16383	15599	0	560
-12.514	-24.342	16379	14771	0	560
-14.136	-26.542	16375	13877	0	560
-15.579	-28.417	16370	13068	0	560
-16.661	-28.633	16367	12593	0	560
-15.795	-24.955	16364	12405	0	560
-13.415	-22.755	16361	12255	0	560
-13.379	-21.168	16359	12325	0	560
-15.975	-22.683	16359	12861	0	560
-17.057	-22.935	16359	13600	0	560
-17.310	-20.555	16360	14282	0	560
-16.156	-17.959	16361	14945	0	560
-15.362	-17.021	16361	15608	0	560
-17.057	-18.175	16363	16173	0	560
-18.067	-19.834	16362	16431	0	560
-16.589	-20.195	16361	16431	0	560
-12.153	-15.759	16362	16492	0	560
-3.426	-8.691	16362	16670	0	560
5.842	-1.947	16361	16741	0	560
10.602	0.144	16361	16793	0	560
8.799	-2.344	16361	16915	0	560
2.308	-10.061	16360	16943	0	560
-5.770	-16.264	16361	16981	0	560
-11.360	-20.447	16360	17084	0	560
-9.917	-19.690	16360	17066	0	560
-5.049	-17.706	16360	17028	0	560
-0.036	-12.730	16360	17070	0	560
2.092	-11.251	16358	16929	0	560
-0.325	-12.189	16356	16515	0	560
-6.167	-16.408	16354	16088	0	560
-11.792	-22.539	16354	15905	0	560
-16.192	-26.650	16353	15928	0	560
-16.372	-26.109	16351	15834	0	560
-13.379	-21.854	16349	15505	0	560
-9.268	-16.192	16347	15176	0	560
-5.409	-12.189	16347	15209	0	560
-0.938	-10.746	16349	15839	0	560
2.669	-8.655	16352	16939	0	560
4.940	-8.222	16357	18185	0	560
4.111	-8.150	16361	19257	0	560
2.128	-8.907	16366	20128	0	560
-0.325	-8.943	16372	21101	0	560
1.298	-8.547	16379	22277	0	560
4.868	-6.131	16386	23373	0	560
10.206	-2.957	16391	23994	0	560
9.881	-1.623	16394	23900	0	560
8.294	-3.246	16397	23336	0	560
5.013	-4.580	16400	22729	0	560
3.967	-5.554	16401	22094	0	560
6.599	-2.849	16401	21228	1	452
7.429	0.252	16401	20302	0	452
6.780	1.479	16401	19441	0	452
2.416	-1.406	16401	18500	0	452
-1.154	-5.193	16400	17588	0	452
-2.272	-7.825	16399	16891	0	452
-0.361	-4.940	16398	16356	0	452
1.983	-1.154	16397	15815	0	452
1.334	1.479	16396	15176	0	452
-1.190	1.479	16394	14592	0	452
-3.750	-0.902	16393	14141	0	452
-2.705	-2.524	16391	13666	0	452
0.433	-2.885	16390	13355	0	452
3.246	-1.695	16390	13482	0	452
2.777	-1.911	16391	13797	0	452
0.902	-1.767	16392	14141	0	452
-0.902	-2.560	16394	14654	0	452
-0.325	-3.137	16395	15100	0	452
2.921	-2.128	16394	15100	0	452
5.590	-2.272	16393	14715	0	452
3.931	-1.947	16391	14226	0	452
1.190	-3.210	16390	13915	0	452
