neuroNicle FX2
D3F25R12
Bluetooth SPP
2023년 6월 5일 월요일
오후 5:20
time interval = 4msec
EEG1	EEG2	PPG	sdPPG	pulse	peak_interval(msec)
26.830	25.893	15040	19399	0	696
24.270	24.450	15255	19542	0	696
19.654	21.313	15508	19669	0	696
11.684	18.464	15753	19812	0	696
11.828	14.497	16043	19971	0	696
11.251	13.379	16332	20130	0	696
15.939	18.211	16621	20263	0	696
20.483	19.005	16941	20361	0	696
24.198	22.503	17238	20425	0	696
24.883	24.919	17520	20434	0	696
25.171	24.450	17803	20374	0	696
24.775	22.899	18033	20222	0	696
21.745	22.286	18278	20003	0	696
20.050	18.320	18508	19793	0	696
19.077	20.627	18761	19622	1	740
19.185	20.447	18999	19479	0	740
20.916	20.844	19251	19320	0	740
17.093	18.175	19467	19126	0	740
14.028	16.949	19704	18939	0	740
8.799	12.802	19920	18774	0	740
7.789	15.543	20150	18584	0	740
10.314	17.382	20321	18336	0	740
16.877	23.296	20492	18044	0	740
20.087	24.053	20641	17730	0	740
22.575	25.965	20782	17434	0	740
21.421	25.424	20930	17174	0	740
17.634	23.981	21042	16930	0	740
18.356	22.395	21146	16650	0	740
17.959	22.539	21183	16286	0	740
21.349	22.611	21220	15858	0	740
19.798	21.385	21227	15477	0	740
17.598	22.431	21250	15175	0	740
9.989	17.562	21257	14892	0	740
4.580	13.956	21227	14635	0	740
0.865	7.501	21235	14423	0	740
2.524	3.967	21213	14242	0	740
7.032	3.570	21183	14077	0	740
10.855	6.888	21153	13921	0	740
11.792	10.061	21116	13816	0	740
12.153	11.792	21086	13769	0	740
11.396	14.677	21042	13731	0	740
9.088	12.405	20975	13664	0	740
10.674	10.314	20923	13613	0	740
12.297	11.937	20878	13613	0	740
13.018	10.386	20811	13654	0	740
16.805	10.242	20767	13699	0	740
17.346	10.422	20693	13724	0	740
19.654	11.468	20626	13759	0	740
18.247	13.199	20566	13838	0	740
19.582	14.425	20522	13975	0	740
19.582	18.211	20492	14146	0	740
23.512	18.356	20455	14302	0	740
25.388	18.608	20373	14378	0	740
26.650	14.713	20232	14327	0	740
27.479	12.658	20106	14194	0	740
25.604	9.412	19964	14118	0	740
21.998	6.744	19838	14111	0	740
20.411	9.052	19712	14127	0	740
22.899	11.864	19578	14156	0	740
23.765	14.136	19430	14159	0	740
26.974	17.166	19318	14178	0	740
27.587	14.713	19229	14337	0	740
22.575	11.756	19192	14629	0	740
15.326	5.590	19132	14908	0	740
11.792	3.606	19080	15111	0	740
13.631	6.708	19006	15258	0	740
16.877	10.891	18954	15394	0	740
22.683	16.733	18880	15540	0	740
24.594	16.048	18843	15702	0	740
22.503	16.012	18798	15858	0	740
20.123	11.396	18731	15975	0	740
13.740	9.340	18694	16070	0	740
9.665	9.701	18649	16191	0	740
6.239	9.160	18649	16362	0	740
4.904	8.871	18649	16561	0	740
8.150	8.294	18635	16733	0	740
11.143	8.547	18627	16866	0	740
12.946	5.013	18649	16987	0	740
9.989	0.072	18664	17101	0	740
6.780	-4.255	18664	17196	0	740
6.780	-4.904	18664	17247	0	740
9.737	-3.210	18657	17253	0	740
14.569	3.101	18635	17237	0	740
19.582	9.016	18612	17206	0	740
18.392	9.665	18590	17155	0	740
14.966	6.599	18560	17088	0	740
8.871	2.236	18538	17009	0	740
6.239	-0.613	18486	16926	0	740
4.544	-0.685	18427	16806	0	740
6.347	1.226	18367	16653	0	740
8.511	7.212	18337	16568	0	740
9.268	7.898	18315	16580	0	740
7.862	4.904	18293	16612	0	740
3.534	-0.252	18256	16571	0	740
0.541	-7.104	18189	16450	0	740
-0.541	-9.665	18137	16324	0	740
-1.515	-8.979	18070	16232	0	740
0.361	-6.131	18040	16200	0	740
0.180	-3.498	17996	16216	0	740
-1.190	-2.560	17966	16223	0	740
-3.065	-1.515	17921	16204	0	740
-6.888	-3.137	17907	16197	0	740
-11.396	-5.662	17877	16223	0	740
-15.615	-10.314	17855	16258	0	740
-20.447	-17.454	17817	16261	0	740
-21.457	-20.159	17773	16213	0	740
-22.935	-24.089	17706	16121	0	740
-23.224	-21.277	17617	15988	0	740
-22.214	-18.572	17520	15842	0	740
-22.070	-15.687	17431	15731	0	740
-19.798	-13.451	17349	15651	0	740
-18.933	-13.415	17238	15565	0	740
-19.473	-17.923	17112	15426	0	740
-19.077	-17.959	16993	15273	0	740
-22.575	-19.834	16889	15216	0	740
-24.811	-17.959	16814	15254	0	740
-27.263	-18.536	16733	15315	0	740
-31.626	-17.743	16666	15359	0	740
-31.879	-19.329	16584	15397	0	740
-30.905	-17.057	16517	15448	0	740
-25.027	-15.110	16465	15527	0	740
-16.012	-11.720	16398	15619	0	740
-12.117	-13.812	16332	15686	0	740
-13.091	-18.969	16258	15702	0	740
-19.473	-26.325	16176	15686	0	740
-29.751	-29.823	16102	15702	0	740
-34.403	-30.761	16050	15778	0	740
-33.321	-29.318	15991	15880	0	740
-29.138	-28.453	15939	15962	0	740
-25.856	-30.328	15850	15969	0	740
-26.542	-34.872	15753	15905	0	740
-33.574	-39.452	15656	15845	0	740
-41.868	-42.193	15582	15826	0	740
-46.989	-43.996	15486	15816	0	740
-50.270	-44.104	15396	15804	0	740
-49.657	-43.779	15292	15781	0	740
-46.232	-43.635	15181	15724	0	740
-46.664	-42.914	15040	15610	0	740
-46.123	-42.084	14921	15492	0	740
-44.789	-40.678	14787	15451	0	740
-46.195	-44.032	14713	15511	0	740
-47.097	-46.809	14631	15604	0	740
-47.025	-50.415	14549	15661	0	740
-48.467	-53.624	14453	15702	0	740
-50.451	-52.146	14393	15765	0	740
-50.343	-52.723	14327	15858	0	740
-54.814	-53.624	14260	15940	0	740
-57.807	-58.096	14185	15991	0	740
-58.673	-61.414	14119	16042	0	740
-60.656	-61.342	14067	16127	0	740
-56.185	-61.161	14059	16267	0	740
-52.831	-56.293	14022	16422	0	740
-48.107	-55.319	14000	16545	0	740
-47.386	-56.617	13970	16628	0	740
-46.628	-59.178	13963	16698	0	740
-48.143	-61.342	13925	16771	0	740
-51.677	-63.613	13911	16841	0	740
-52.578	-63.000	13911	16901	0	740
-55.932	-66.210	13881	16952	0	740
-58.276	-69.492	13881	17006	0	740
-59.863	-73.206	13881	17037	0	740
-63.181	-77.858	13873	17069	0	740
-63.974	-78.219	13896	17149	0	740
-63.649	-79.877	13918	17260	0	740
-60.332	-77.714	13933	17317	0	740
-56.726	-75.622	13933	17304	0	740
-52.038	-74.180	13918	17241	0	740
-54.309	-73.567	13911	17171	0	740
-56.509	-77.389	13911	17130	0	740
-59.935	-80.743	13911	17110	0	740
-63.505	-85.034	13896	17072	0	740
-64.948	-85.755	13873	16977	0	740
-65.272	-87.667	13821	16841	0	740
-65.380	-85.106	13799	16704	0	740
-62.387	-84.818	13762	16612	0	740
-61.305	-83.736	13740	16564	0	740
-61.197	-85.792	13702	16510	0	740
-62.784	-88.316	13688	16457	0	740
-65.020	-95.673	13650	16409	0	740
-64.082	-97.981	13621	16353	0	740
-59.611	-96.971	13584	16289	0	740
-56.293	-93.545	13584	16277	0	740
-51.497	-89.181	13576	16324	0	740
-52.795	-89.362	13554	16337	0	740
-54.057	-90.408	13480	16238	0	740
-57.014	-95.276	13413	16067	0	740
-58.276	-99.495	13338	15915	0	740
-59.286	-102.849	13286	15842	0	740
-59.286	-104.868	13257	15858	0	740
-59.430	-105.626	13249	15940	0	740
-62.387	-104.255	13249	16045	0	740
-61.414	-102.669	13264	16165	0	740
-60.404	-102.524	13301	16346	0	740
-57.194	-102.669	13390	16590	0	740
-55.824	-104.760	13472	16872	0	740
-53.119	-104.652	13591	17155	0	740
-53.119	-105.193	13732	17447	0	740
-53.119	-106.275	13911	17774	0	740
-57.843	-108.763	14104	18136	0	740
-61.594	-111.828	14327	18517	0	740
-64.299	-114.064	14564	18885	0	740
-61.125	-112.153	14809	19228	0	740
-52.578	-103.931	15099	19558	0	740
-40.966	-94.555	15396	19879	0	740
-34.872	-85.395	15708	20184	0	740
-36.855	-84.782	16035	20476	0	740
-43.851	-86.080	16377	20739	0	740
-52.362	-93.437	16696	20917	0	740
-57.519	-96.646	16985	20952	0	740
-60.620	-97.512	17275	20866	0	740
-57.916	-95.312	17520	20758	0	740
-54.742	-91.742	17817	20666	0	740
-53.732	-90.263	18092	20561	0	740
-51.965	-92.643	18352	20387	1	796
-54.490	-94.519	18575	20145	0	796
-55.680	-97.872	18820	19930	0	796
-58.925	-99.675	19103	19793	0	796
-57.230	-97.331	19355	19669	0	796
-55.031	-95.096	19600	19485	0	796
-54.165	-92.788	19823	19228	0	796
-49.693	-89.434	20024	18936	0	796
-48.467	-88.136	20217	18647	0	796
-45.799	-85.539	20418	18374	0	796
-41.688	-85.431	20581	18091	0	796
-40.534	-85.251	20715	17755	0	796
-43.310	-87.270	20826	17384	0	796
-45.005	-87.414	20953	17028	0	796
-46.123	-90.948	21049	16710	0	796
-46.159	-91.778	21146	16434	0	796
-43.419	-91.273	21250	16200	0	796
-39.344	-90.840	21339	15978	0	796
-37.324	-86.332	21384	15724	0	796
-34.367	-82.690	21398	15394	0	796
-32.816	-82.762	21384	15013	0	796
-33.790	-84.169	21361	14654	0	796
-35.701	-88.965	21324	14346	0	796
-39.957	-92.066	21265	14061	0	796
-40.750	-92.752	21161	13756	0	796
-38.875	-89.722	21071	13445	0	796
-34.475	-87.234	20967	13213	0	796
-29.823	-82.438	20893	13111	0	796
-27.876	-84.097	20841	13099	0	796
-27.119	-84.421	20767	13102	0	796
-28.453	-86.188	20678	13096	0	796
-29.102	-88.063	20618	13124	0	796
-28.201	-84.962	20559	13223	0	796
-27.768	-82.690	20529	13375	0	796
-28.309	-80.851	20477	13543	0	796
-30.472	-79.373	20418	13686	0	796
-31.122	-81.608	20373	13816	0	796
-29.787	-80.743	20321	13965	0	796
-24.594	-81.248	20291	14140	0	796
-22.503	-77.966	20247	14327	0	796
-19.005	-78.543	20210	14511	0	796
-21.349	-77.786	20187	14689	0	796
-25.856	-79.300	20120	14842	0	796
-25.207	-78.976	20076	14943	0	796
-22.286	-78.976	20031	15045	0	796
-17.959	-77.173	20031	15232	0	796
-12.982	-76.127	20024	15480	0	796
-12.802	-75.478	19994	15635	0	796
-17.129	-74.288	19935	15664	0	796
-19.329	-71.799	19883	15692	0	796
-21.457	-70.682	19853	15791	0	796
-19.978	-69.419	19823	15911	0	796
-17.382	-70.141	19771	15984	0	796
-17.346	-71.006	19712	15984	0	796
-15.254	-69.600	19638	15924	0	796
-14.425	-69.095	19541	15835	0	796
-12.009	-66.174	19444	15769	0	796
-9.556	-65.380	19370	15743	0	796
-12.153	-68.338	19288	15721	0	796
-15.651	-71.763	19177	15664	0	796
-17.815	-73.711	19080	15604	0	796
-19.546	-72.521	18984	15581	0	796
-13.307	-68.338	18917	15610	0	796
-8.186	-63.181	18835	15667	0	796
-1.587	-61.017	18768	15699	0	796
1.803	-61.594	18664	15677	0	796
3.065	-62.135	18523	15562	0	796
3.642	-60.007	18375	15397	0	796
1.839	-56.798	18219	15254	0	796
-0.469	-52.326	18018	15064	0	796
-3.137	-52.362	17780	14778	0	796
-4.580	-54.382	17587	14537	0	796
-4.760	-58.348	17401	14454	0	796
-3.714	-60.007	17245	14492	0	796
-2.560	-57.375	17141	14610	0	796
-1.334	-57.194	17037	14797	0	796
0.757	-53.011	16985	15048	0	796
2.813	-54.057	16918	15308	0	796
4.327	-52.146	16881	15546	0	796
4.940	-51.497	16844	15804	0	796
4.868	-49.910	16844	16092	0	796
5.337	-50.234	16837	16378	0	796
5.337	-51.280	16844	16628	0	796
8.006	-54.995	16852	16834	0	796
8.979	-52.398	16866	17015	0	796
9.088	-50.018	16874	17190	0	796
9.448	-44.032	16926	17390	0	796
11.287	-40.606	16978	17618	0	796
13.848	-39.704	17060	17847	0	796
16.444	-43.022	17112	18037	0	796
21.637	-45.691	17178	18168	0	796
23.801	-43.527	17238	18237	0	796
25.965	-40.858	17297	18263	0	796
31.302	-35.449	17320	18237	0	796
36.531	-34.151	17334	18149	0	796
41.616	-36.747	17320	17993	0	796
43.094	-39.668	17282	17749	0	796
42.661	-42.914	17238	17479	0	796
42.517	-42.012	17223	17314	0	796
43.527	-39.704	17245	17276	0	796
46.484	-39.272	17245	17250	0	796
47.061	-39.776	17238	17155	0	796
46.159	-40.101	17208	16996	0	796
41.760	-42.806	17149	16806	0	796
40.245	-40.642	17126	16622	0	796
43.202	-38.767	17060	16460	0	796
47.169	-37.360	17015	16318	0	796
52.939	-35.629	16941	16153	0	796
54.273	-34.620	16874	15981	0	796
55.247	-32.961	16770	15813	0	796
50.451	-30.833	16666	15613	0	796
48.720	-28.994	16540	15375	0	796
46.087	-29.354	16398	15153	0	796
48.215	-27.660	16288	14994	0	796
50.018	-28.561	16184	14915	0	796
48.648	-27.840	16087	14905	0	796
48.576	-27.047	16013	14924	0	796
45.546	-28.489	15916	14946	0	796
43.455	-26.181	15842	14972	0	796
46.448	-24.414	15731	14988	0	796
49.874	-21.060	15619	14962	0	796
50.775	-17.238	15493	14896	0	796
51.533	-17.562	15382	14858	0	796
47.061	-16.372	15270	14886	0	796
44.501	-19.113	15188	14962	0	796
44.501	-17.887	15084	15026	0	796
47.097	-19.942	14988	15067	0	796
51.028	-17.923	14884	15118	0	796
54.309	-19.437	14802	15210	0	796
51.677	-20.700	14735	15318	0	796
50.451	-21.529	14631	15397	0	796
47.241	-23.765	14520	15426	0	796
48.936	-22.358	14445	15470	0	796
49.189	-20.736	14379	15581	0	796
48.179	-21.601	14341	15756	0	796
47.205	-18.752	14304	15953	0	796
43.851	-18.320	14267	16115	0	796
43.383	-13.595	14245	16248	0	796
45.691	-12.766	14223	16393	0	796
48.035	-10.963	14223	16568	0	796
47.494	-11.540	14230	16749	0	796
46.953	-13.956	14223	16898	0	796
44.356	-14.497	14208	16955	0	796
41.688	-12.730	14148	16898	0	796
42.517	-13.451	14067	16758	0	796
43.310	-10.819	13955	16584	0	796
46.628	-8.330	13858	16444	0	796
47.097	-11.071	13799	16362	0	796
45.907	-14.533	13695	16286	0	796
45.691	-16.552	13584	16153	0	796
44.356	-18.392	13465	15984	0	796
43.419	-14.208	13390	15905	0	796
44.501	-9.881	13324	15956	0	796
45.222	-5.734	13286	16058	0	796
46.268	-3.859	13227	16137	0	796
51.497	-1.947	13205	16188	0	796
59.538	0.613	13153	16238	0	796
66.715	4.219	13116	16308	0	796
68.157	7.357	13108	16406	0	796
67.328	6.816	13108	16539	0	796
61.450	5.770	13108	16660	0	796
54.021	1.334	13108	16755	0	796
46.376	-3.895	13116	16844	0	796
43.779	-5.806	13138	16939	0	796
40.101	-5.229	13138	17012	0	796
40.822	-3.931	13138	17025	0	796
43.419	-1.262	13130	17003	0	796
44.969	-0.144	13108	16974	0	796
45.150	-1.046	13078	16926	0	796
43.166	-1.839	13034	16847	0	796
43.960	-1.190	13004	16752	0	796
46.195	0.216	12960	16663	0	796
50.379	3.606	12922	16568	0	796
52.903	5.626	12833	16431	0	796
55.103	6.347	12759	16270	0	796
52.398	5.986	12700	16143	0	796
53.624	6.311	12648	16083	0	796
54.382	12.261	12588	16070	0	796
57.483	15.867	12543	16064	0	796
60.043	17.887	12477	16019	0	796
59.863	18.608	12432	15972	0	796
59.034	13.163	12387	15965	0	796
60.115	11.504	12358	15991	0	796
60.620	11.287	12313	16016	0	796
60.837	8.619	12246	15991	0	796
59.683	8.907	12142	15870	0	796
56.653	6.780	12038	15711	0	796
51.569	6.419	11964	15642	0	796
50.595	8.871	11919	15680	0	796
53.011	15.002	11867	15734	0	796
55.572	17.129	11838	15788	0	796
58.961	20.844	11778	15864	0	796
60.296	16.625	11771	15969	0	796
57.880	13.163	11801	16134	0	796
55.932	10.025	11867	16412	0	796
56.581	12.117	11949	16771	0	796
54.959	20.050	12053	17091	0	796
57.447	24.630	12165	17384	0	796
57.663	26.289	12328	17733	0	796
56.906	23.296	12543	18196	0	796
56.834	15.146	12811	18742	0	796
51.497	9.340	13101	19279	0	796
47.710	6.131	13390	19720	0	796
41.652	5.193	13665	20057	0	796
39.235	6.383	13948	20304	0	796
39.380	9.052	14171	20406	0	796
41.976	11.215	14364	20339	0	796
43.996	12.297	14564	20225	0	796
43.310	12.766	14780	20161	0	796
39.993	13.018	15003	20114	0	796
38.442	13.631	15174	19990	1	840
40.534	14.389	15396	19834	0	840
43.419	19.762	15627	19768	0	840
48.972	24.053	15864	19771	0	840
49.116	30.112	16147	19796	0	840
48.287	35.088	16421	19841	0	840
47.097	37.757	16725	19891	0	840
45.546	38.226	17022	19920	0	840
48.359	39.308	17312	19907	0	840
51.424	38.947	17609	19863	0	840
49.513	38.190	17884	19790	0	840
49.477	41.399	18167	19679	0	840
46.917	40.858	18427	19539	0	840
44.825	43.527	18687	19384	0	840
47.458	43.996	18947	19215	0	840
47.962	41.219	19177	19028	0	840
46.304	38.983	19392	18793	0	840
42.265	34.980	19586	18504	0	840
36.495	32.564	19771	18212	0	840
34.151	32.384	19920	17898	0	840
35.088	35.016	20046	17523	0	840
36.783	37.973	20135	17107	0	840
38.262	40.137	20225	16701	0	840
35.197	39.235	20284	16321	0	840
33.177	35.882	20329	15969	0	840
33.213	31.518	20410	15686	0	840
34.475	31.699	20455	15467	0	840
40.317	32.672	20507	15261	0	840
44.428	36.531	20559	15054	0	840
45.366	38.911	20589	14870	0	840
44.573	41.147	20626	14721	0	840
41.003	41.363	20663	14626	0	840
61.630	17.598	14304	15492	0	816
61.450	15.435	14245	15559	0	816
58.060	12.333	14178	15635	0	816
54.021	8.943	14119	15705	0	816
53.480	6.131	14059	15762	0	816
50.559	4.508	13963	15775	0	816
47.061	3.534	13858	15711	0	816
43.166	2.777	13732	15584	0	816
42.553	0.541	13621	15492	0	816
45.150	1.010	13509	15470	0	816
49.441	3.426	13398	15473	0	816
53.624	9.809	13286	15454	0	816
57.591	15.002	13168	15416	0	816
56.653	20.555	13056	15400	0	816
54.922	20.014	12960	15445	0	816
49.766	18.139	12893	15556	0	816
46.087	13.595	12841	15686	0	816
41.724	10.927	12766	15794	0	816
41.219	9.124	12722	15889	0	816
43.274	9.953	12662	16007	0	816
43.635	11.179	12655	16172	0	816
41.399	13.595	12625	16362	0	816
36.423	11.828	12618	16517	0	816
30.112	7.357	12588	16628	0	816
24.594	4.724	12588	16720	0	816
22.034	3.642	12581	16815	0	816
20.050	7.140	12543	16888	0	816
21.890	11.900	12521	16904	0	816
21.204	11.756	12484	16872	0	816
21.890	9.665	12410	16809	0	816
24.414	4.688	12358	16707	0	816
21.962	1.010	12261	16584	0	816
20.267	1.551	12187	16469	0	816
16.192	1.262	12113	16387	0	816
14.389	1.875	12031	16315	0	816
12.153	3.967	11927	16210	0	816
17.238	6.383	11845	16067	0	816
20.700	10.819	11726	15943	0	816
24.125	13.127	11645	15867	0	816
24.847	14.028	11548	15835	0	816
22.503	15.398	11474	15829	0	816
22.863	13.704	11399	15810	0	816
24.306	17.598	11310	15797	0	816
26.974	17.779	11273	15838	0	816
29.102	20.988	11221	15940	0	816
30.292	19.005	11206	16073	0	816
29.643	18.752	11176	16191	0	816
27.804	17.129	11169	16296	0	816
28.345	19.149	11162	16415	0	816
28.633	20.231	11176	16571	0	816
28.128	21.890	11214	16758	0	816
27.984	21.241	11251	16955	0	816
25.568	21.060	11295	17152	0	816
25.676	21.349	11392	17368	0	816
27.083	21.457	11496	17612	0	816
31.735	26.217	11622	17904	0	816
38.695	29.030	11830	18279	0	816
43.491	34.439	12023	18682	0	816
44.537	34.511	12224	18999	0	816
44.176	36.855	12410	19222	0	816
41.507	32.925	12633	19409	0	816
35.954	30.148	12856	19618	0	816
31.013	29.895	13138	19872	0	816
28.886	29.823	13442	20177	0	816
26.253	30.040	13762	20495	0	816
26.794	28.237	14096	20777	0	816
26.830	27.155	14468	21044	0	816
27.407	25.352	14847	21320	0	816
29.174	25.063	15255	21584	0	816
31.626	26.325	15656	21784	0	816
35.413	28.525	16043	21882	0	816
35.774	28.597	16421	21901	0	816
33.213	27.155	16814	21895	0	816
27.155	25.279	17208	21869	0	816
22.106	23.260	17572	21771	0	816
19.293	22.467	17907	21564	0	816
21.601	23.801	18256	21317	1	768
25.460	29.318	18583	21079	0	768
27.010	31.266	18910	20837	0	768
25.568	33.393	19222	20580	0	768
25.424	35.088	19526	20282	0	768
23.152	35.521	19786	19930	0	768
27.119	35.197	20046	19536	0	768
29.859	36.891	20269	19114	0	768
29.174	37.180	20470	18676	0	768
26.361	37.937	20655	18222	0	768
22.899	35.737	20826	17790	0	768
21.745	36.278	20997	17390	0	768
22.106	35.810	21116	16990	0	768
23.909	34.367	21235	16558	0	768
24.775	34.764	21331	16150	0	768
24.558	34.836	21421	15788	0	768
22.899	35.485	21488	15438	0	768
23.981	34.403	21517	15070	0	768
24.125	35.052	21532	14673	0	768
24.378	33.862	21525	14286	0	768
24.378	33.357	21495	13950	0	768
28.020	35.052	21488	13702	0	768
31.735	37.360	21473	13511	0	768
35.052	38.190	21421	13311	0	768
36.747	38.695	21369	13096	0	768
33.610	36.170	21287	12908	0	768
31.302	33.790	21213	12772	0	768
28.381	33.538	21146	12680	0	768
28.020	31.230	21049	12629	0	768
29.246	29.571	20975	12616	0	768
28.489	29.246	20893	12635	0	768
30.436	29.282	20804	12658	0	768
31.951	30.364	20707	12692	0	768
30.689	33.393	20633	12804	0	768
28.850	33.754	20581	12972	0	768
26.722	32.636	20447	13058	0	768
25.784	32.348	20284	12988	0	768
25.279	29.138	20106	12867	0	768
22.286	28.453	19957	12842	0	768
16.012	24.847	19808	12934	0	768
9.232	21.385	19675	13061	0	768
8.330	18.031	19519	13169	0	768
16.625	18.392	19363	13251	0	768
25.063	17.670	19214	13331	0	768
29.463	20.375	19066	13435	0	768
28.020	20.988	18924	13600	0	768
20.952	20.123	18805	13810	0	768
17.634	20.700	18687	14004	0	768
22.250	20.195	18553	14169	0	768
26.542	23.657	18427	14334	0	768
29.571	23.080	18315	14511	0	768
29.751	23.765	18204	14689	0	768
27.479	26.073	18092	14854	0	768
28.056	28.309	17966	15004	0	768
27.732	29.571	17847	15121	0	768
25.640	32.276	17706	15210	0	768
24.991	30.508	17594	15289	0	768
24.162	29.391	17476	15384	0	768
28.273	29.535	17364	15502	0	768
33.862	29.391	17282	15658	0	768
35.197	28.489	17186	15800	0	768
30.545	23.729	17089	15921	0	768
23.765	21.349	17030	16070	0	768
16.048	20.591	16985	16264	0	768
14.713	19.257	16926	16444	0	768
15.074	20.916	16889	16596	0	768
18.969	18.031	16844	16730	0	768
18.860	17.815	16814	16863	0	768
20.195	16.769	16807	17018	0	768
20.159	20.700	16807	17206	0	768
24.883	24.378	16837	17406	0	768
31.662	26.650	16852	17596	0	768
38.262	28.128	16911	17768	0	768
41.616	29.463	16941	17895	0	768
41.075	30.184	16978	17987	0	768
38.695	35.124	17000	18063	0	768
39.885	38.586	17052	18110	0	768
40.426	40.137	17067	18114	0	768
44.537	44.609	17089	18076	0	768
46.268	45.366	17097	18012	0	768
45.402	46.159	17126	17949	0	768
43.238	47.782	17171	17939	0	768
41.868	45.294	17216	17977	0	768
39.380	42.157	17245	17968	0	768
37.396	37.108	17260	17837	0	768
34.367	32.492	17223	17615	0	768
30.869	26.181	17186	17371	0	768
27.047	22.467	17134	17130	0	768
21.637	20.916	17089	16891	0	768
17.526	17.598	16985	16628	0	768
11.540	17.815	16889	16337	0	768
9.376	16.192	16777	16048	0	768
6.563	15.939	16688	15819	0	768
8.078	16.084	16614	15677	0	768
9.124	15.362	16532	15588	0	768
10.999	17.238	16443	15499	0	768
13.163	16.661	16370	15394	0	768
16.733	20.159	16266	15292	0	768
19.149	21.601	16154	15175	0	768
18.716	27.010	16043	15045	0	768
19.077	31.807	15924	14931	0	768
21.241	37.721	15790	14858	0	768
23.657	42.373	15679	14800	0	768
29.066	42.373	15530	14702	0	768
31.518	39.235	15367	14562	0	768
29.859	34.295	15218	14467	0	768
23.296	29.463	15069	14445	0	768
16.589	25.099	14936	14458	0	768
10.350	23.621	14787	14448	0	768
8.006	22.647	14639	14416	0	768
10.242	22.611	14483	14426	0	768
14.749	24.306	14371	14508	0	768
19.149	23.476	14260	14645	0	768
17.238	17.490	14156	14807	0	768
12.441	13.307	14059	14921	0	768
4.904	9.448	13881	14927	0	768
0.180	9.124	13725	14867	0	768
0.325	14.713	13613	14892	0	768
4.544	18.933	13487	15035	0	768
8.475	20.123	13390	15181	0	768
13.451	19.293	13286	15305	0	768
13.668	17.382	13205	15454	0	768
14.172	15.867	13138	15645	0	768
14.028	20.050	13093	15877	0	768
12.658	23.044	13056	16096	0	768
15.615	28.020	12967	16223	0	768
18.464	31.879	12878	16226	0	768
22.250	34.295	12744	16156	0	768
23.368	35.521	12633	16092	0	768
24.775	38.731	12506	16058	0	768
25.820	42.697	12402	16048	0	768
27.587	46.268	12283	16016	0	768
29.859	45.655	12142	15946	0	768
27.912	38.622	12023	15889	0	768
22.575	27.443	11927	15924	0	768
13.163	17.418	11905	16080	0	768
8.871	13.992	11853	16296	0	768
8.330	15.903	11838	16491	0	768
8.258	20.411	11801	16644	0	768
8.907	18.428	11801	16774	0	768
7.212	15.435	11793	16923	0	768
4.652	10.819	11808	17110	0	768
3.642	8.691	11830	17301	0	768
5.409	11.864	11853	17447	0	768
9.196	15.362	11875	17555	0	768
9.917	18.139	11919	17657	0	768
11.215	22.575	11949	17761	0	768
13.631	27.371	11994	17844	0	768
15.615	29.102	12016	17869	0	768
18.788	29.968	11994	17793	0	768
21.385	28.922	11949	17580	0	768
22.178	28.128	11845	17272	0	768
26.217	31.482	11778	17012	0	768
27.479	37.865	11719	16847	0	768
31.518	40.678	11652	16720	0	768
31.807	38.478	11593	16590	0	768
29.138	32.708	11503	16431	0	768
24.089	25.243	11422	16248	0	768
18.933	22.214	11325	16073	0	768
16.516	20.519	11243	15937	0	768
16.120	20.700	11176	15873	0	768
13.920	19.077	11110	15854	0	768
9.484	17.959	11058	15835	0	768
3.318	16.120	10991	15823	0	768
-1.551	16.805	10946	15842	0	768
-0.505	19.041	10924	15896	0	768
5.590	23.404	10879	15956	0	768
14.749	26.758	10842	15988	0	768
16.661	25.784	10805	16016	0	768
17.418	24.666	10790	16080	0	768
13.091	23.296	10790	16194	0	768
12.261	20.844	10798	16324	0	768
13.235	24.702	10760	16384	0	768
11.973	28.489	10694	16315	0	768
11.576	28.777	10627	16175	0	768
8.475	28.237	10552	16086	0	768
4.616	27.083	10515	16073	0	768
4.832	27.299	10478	16096	0	768
5.590	30.869	10441	16146	0	768
6.383	32.708	10434	16226	0	768
5.878	33.429	10426	16315	0	768
4.436	30.364	10441	16422	0	768
0.974	25.820	10463	16564	0	768
0.865	23.837	10441	16660	0	768
2.092	25.929	10463	16679	0	768
5.049	25.388	10478	16739	0	768
5.409	24.162	10508	16869	0	768
2.633	20.736	10575	17025	0	768
-0.649	15.579	10656	17218	0	768
-3.859	14.858	10768	17466	0	768
-5.554	12.550	10924	17761	0	768
-8.006	10.278	11102	18091	0	768
-7.681	11.035	11310	18469	0	768
-7.248	12.333	11585	18907	0	768
-1.839	19.365	11890	19403	0	768
4.832	28.309	12224	19901	0	768
7.176	32.492	12581	20345	0	768
3.750	31.446	12952	20768	0	768
-2.741	26.614	13368	21199	0	768
-5.445	22.214	13814	21631	0	768
-5.193	20.519	14282	22053	0	768
-2.344	22.575	14802	22488	0	768
-1.226	21.890	15344	22923	0	768
-2.019	22.539	15857	23257	0	768
-6.852	24.919	16384	23447	0	768
-8.439	24.234	16889	23533	0	768
-6.131	24.702	17394	23536	0	768
-5.013	24.414	17877	23476	0	768
-6.455	21.132	18367	23364	0	768
-9.016	21.096	18805	23164	0	768
-15.831	19.401	19229	22841	0	768
-19.113	18.680	19593	22399	1	844
-22.322	16.048	19957	21891	0	844
-21.024	11.576	20269	21361	0	844
-19.726	8.366	20589	20831	0	844
-20.627	11.468	20863	20269	0	844
-18.536	13.559	21116	19685	0	844
-17.995	18.247	21346	19114	0	844
-13.668	23.765	21584	18587	0	844
-10.169	27.407	21792	18095	0	844
-9.088	26.506	21978	17596	0	844
-8.439	26.073	22089	17006	0	844
-9.232	24.775	22186	16340	0	844
-11.828	21.962	22253	15727	0	844
-14.100	20.880	22327	15219	0	844
-14.100	20.988	22349	14743	0	844
-16.589	21.673	22379	14283	0	844
-12.838	25.388	22386	13858	0	844
-8.258	29.715	22364	13461	0	844
-5.842	30.220	22364	13134	0	844
-7.753	28.525	22379	12965	0	844
-10.314	22.358	22438	12950	0	844
-15.110	19.365	22446	12953	0	844
-17.418	18.464	22438	12880	0	844
-16.913	21.565	22409	12750	0	844
-20.087	18.536	22349	12623	0	844
-24.270	14.677	22305	12540	0	844
-26.037	8.871	22260	12502	0	844
-26.289	6.311	22149	12451	0	844
-22.250	9.232	22037	12350	0	844
-17.093	12.081	21918	12229	0	844
-15.795	12.261	21785	12169	0	844
-14.389	12.369	21673	12191	0	844
-15.362	12.009	21562	12270	0	844
-12.622	14.641	21436	12346	0	844
-8.078	21.745	21302	12404	0	844
-5.986	23.008	21161	12473	0	844
-6.960	22.250	21027	12565	0	844
-11.215	20.447	20893	12683	0	844
-13.631	16.805	20767	12823	0	844
-14.894	18.860	20641	12984	0	844
-13.199	18.572	20492	13134	0	844
-14.028	19.257	20329	13216	0	844
-16.012	15.615	20173	13283	0	844
-19.473	15.002	20061	13477	0	844
-20.267	13.487	19987	13800	0	844
-19.870	14.894	19883	14111	0	844
-18.175	15.110	19786	14327	0	844
-21.277	11.251	19660	14470	0	844
-21.457	11.143	19548	14616	0	844
-23.368	10.710	19467	14810	0	844
-21.421	12.550	19392	15054	0	844
-17.129	16.913	19318	15311	0	844
-16.480	15.795	19259	15527	0	844
-17.310	13.884	19177	15702	0	844
-18.680	9.701	19110	15861	0	844
-21.204	6.960	19066	16026	0	844
-23.332	6.888	19006	16207	0	844
-19.510	10.710	18969	16369	0	844
-18.067	13.668	18917	16485	0	844
-14.930	15.002	18857	16587	0	844
-15.795	15.110	18820	16691	0	844
-14.894	10.314	18798	16799	0	844
-18.247	9.124	18746	16904	0	844
-16.156	10.314	18724	16977	0	844
-14.894	12.982	18649	16949	0	844
-13.271	12.405	18560	16834	0	844
-13.956	10.819	18508	16787	0	844
-18.969	5.301	18508	16901	0	844
-20.555	2.200	18538	17110	0	844
-21.168	3.967	18538	17260	0	844
-21.060	4.219	18508	17266	0	844
-18.536	6.094	18471	17193	0	844
-19.510	2.128	18412	17101	0	844
-20.339	-2.128	18330	16964	0	844
-22.611	-5.301	18241	16784	0	844
-21.060	-6.419	18144	16587	0	844
-18.644	-2.344	18018	16384	0	844
-15.867	2.308	17921	16204	0	844
-12.514	4.508	17817	16102	0	844
-8.475	8.294	17773	16083	0	844
-7.032	8.655	17699	16089	0	844
-5.950	9.773	17632	16086	0	844
-5.806	8.655	17572	16083	0	844
-10.350	7.068	17535	16111	0	844
-15.362	2.993	17498	16165	0	844
-18.175	1.911	17446	16223	0	844
-15.867	4.580	17401	16248	0	844
-15.975	7.248	17364	16248	0	844
-12.441	6.635	17312	16238	0	844
-14.136	3.101	17238	16188	0	844
-14.749	-1.479	17149	16121	0	844
-13.776	-1.298	17134	16153	0	844
-12.405	1.659	17126	16283	0	844
-10.963	2.777	17074	16359	0	844
-12.694	3.065	17015	16305	0	844
-16.697	-0.685	16926	16181	0	844
-18.536	-5.121	16837	16083	0	844
-19.798	-4.544	16777	16029	0	844
-20.411	-4.291	16703	15997	0	844
-21.385	-3.678	16592	15940	0	844
-21.926	-4.832	16502	15829	0	844
-20.447	-4.291	16391	15696	0	844
-20.123	-4.472	16288	15594	0	844
-18.067	-2.957	16199	15553	0	844
-19.113	-0.865	16087	15556	0	844
-15.795	2.957	16006	15556	0	844
-10.458	6.383	15916	15543	0	844
-0.216	11.540	15820	15559	0	844
8.042	14.064	15768	15604	0	844
10.061	18.356	15694	15664	0	844
6.491	16.661	15627	15721	0	844
1.082	15.723	15552	15775	0	844
-2.596	12.982	15471	15794	0	844
-1.911	8.691	15367	15753	0	844
-1.226	7.645	15263	15692	0	844
-1.515	3.787	15159	15651	0	844
-7.753	-1.298	15062	15648	0	844
-16.264	-7.285	14965	15648	0	844
-23.729	-11.648	14824	15594	0	844
-27.804	-16.516	14705	15502	0	844
-28.705	-15.507	14579	15442	0	844
-27.732	-16.913	14490	15458	0	844
-26.902	-19.437	14401	15531	0	844
-29.499	-25.207	14297	15591	0	844
-30.148	-27.443	14193	15610	0	844
-28.525	-24.739	14104	15619	0	844
-23.260	-19.473	14007	15645	0	844
-17.562	-10.422	13888	15645	0	844
-15.146	-5.986	13762	15594	0	844
-14.064	-4.364	13628	15524	0	844
-16.697	-3.606	13509	15486	0	844
-16.661	-4.868	13398	15511	0	844
-16.877	-3.390	13324	15610	0	844
-13.920	-1.515	13249	15746	0	844
-10.783	0.288	13190	15870	0	844
-8.006	3.859	13130	15978	0	844
-4.364	6.563	13071	16099	0	844
-2.272	6.167	13026	16223	0	844
-2.777	3.426	12989	16337	0	844
-7.032	-1.154	12945	16437	0	844
-10.638	-3.318	12915	16523	0	844
-11.720	-1.298	12841	16561	0	844
-8.511	3.967	12744	16517	0	844
-4.832	7.609	12655	16403	0	844
-2.885	10.061	12551	16299	0	844
-5.193	4.724	12432	16204	0	844
-14.353	-4.796	12350	16134	0	844
-21.637	-12.802	12246	16108	0	844
-27.119	-21.024	12165	16102	0	844
-27.155	-21.529	12090	16111	0	844
-22.467	-19.870	12038	16169	0	844
-17.526	-13.559	12016	16283	0	844
-11.828	-10.710	12001	16425	0	844
-11.215	-8.114	11957	16536	0	844
-11.251	-5.265	11919	16568	0	844
-8.835	-3.282	11867	16555	0	844
-5.121	1.551	11845	16587	0	844
1.983	7.104	11815	16679	0	844
10.278	14.461	11801	16755	0	844
16.156	18.356	11801	16806	0	844
15.398	23.188	11756	16837	0	844
14.425	20.627	11704	16793	0	844
9.088	19.293	11615	16647	0	844
7.573	15.074	11570	16517	0	844
9.124	17.743	11511	16495	0	844
16.012	19.654	11444	16472	0	844
17.959	22.791	11355	16337	0	844
17.382	23.621	11243	16140	0	844
10.386	18.572	11139	15988	0	844
5.770	14.064	11058	15911	0	844
2.452	8.727	10961	15873	0	844
2.596	3.931	10864	15804	0	844
4.183	1.803	10753	15683	0	844
4.219	-0.721	10649	15588	0	844
1.082	-3.173	10552	15572	0	844
-0.036	-5.301	10478	15597	0	844
-0.757	-5.590	10396	15619	0	844
-2.885	-5.193	10322	15632	0	844
-4.291	-2.128	10248	15667	0	844
-5.770	1.551	10203	15746	0	844
-4.904	3.390	10166	15864	0	844
-3.931	4.868	10136	16010	0	844
-0.541	4.544	10107	16140	0	844
-0.216	5.409	10084	16242	0	844
0.433	6.563	10062	16343	0	844
1.154	11.792	10055	16457	0	844
1.587	14.858	10025	16542	0	844
5.950	19.077	9951	16504	0	844
9.520	18.103	9869	16381	0	844
10.494	17.238	9795	16267	0	844
10.133	14.858	9691	16165	0	844
8.511	13.379	9587	16054	0	844
4.688	15.002	9512	15997	0	844
1.911	10.314	9475	16026	0	844
-1.190	6.455	9438	16115	0	844
-3.173	1.839	9401	16226	0	844
-2.200	-0.685	9416	16350	0	844
0.974	0.469	9431	16526	0	844
3.354	-0.541	9497	16768	0	844
0.469	-3.967	9564	17044	0	844
-4.904	-7.176	9676	17345	0	844
-8.979	-10.025	9795	17669	0	844
-9.556	-6.996	9973	18044	0	844
-3.895	-0.072	10196	18488	0	844
0.649	1.875	10463	18990	0	844
2.813	2.128	10753	19501	0	844
1.659	-0.108	11065	19971	0	844
1.010	0.469	11407	20409	0	844
2.633	4.688	11771	20866	0	844
5.986	11.107	12202	21345	0	844
10.819	19.185	12648	21822	0	844
13.415	20.700	13101	22257	0	844
13.054	20.988	13576	22625	0	844
14.245	19.906	14059	22901	0	844
14.389	22.503	14483	23034	0	844
14.425	23.152	14928	23037	0	844
17.346	24.414	15344	22996	0	844
15.471	24.198	15783	22958	0	844
13.487	23.224	16236	22907	0	844
9.917	20.267	16688	22822	0	844
5.373	22.899	17104	22676	1	880
1.947	21.132	17535	22466	0	880
-1.695	18.428	17951	22218	0	880
-3.282	11.937	18352	21955	0	880
-6.635	7.934	18724	21634	0	880
-6.491	6.311	19058	21231	0	880
-6.131	7.934	19392	20796	0	880
-5.373	9.196	19734	20384	0	880
-4.580	8.366	20061	20012	0	880
-4.039	3.642	20366	19657	0	880
-4.580	0.144	20663	19263	0	880
-2.128	0.252	20930	18834	0	880
2.993	5.517	21161	18399	0	880
6.167	10.386	21406	17977	0	880
8.727	16.661	21621	17564	0	880
8.619	17.274	21814	17139	0	880
7.645	21.709	21963	16688	0	880
10.458	24.053	22089	16216	0	880
15.002	26.794	22156	15702	0	880
17.093	29.246	22223	15194	0	880
19.077	27.515	22312	14788	0	880
14.677	24.775	22349	14461	0	880
13.235	24.883	22372	14086	0	880
10.314	25.640	22334	13642	0	880
6.455	24.702	22275	13200	0	880
3.750	21.529	22223	12826	0	880
2.452	18.320	22156	12540	0	880
2.128	14.353	22089	12327	0	880
4.940	15.398	22000	12140	0	880
8.294	17.310	21881	11934	0	880
7.429	15.795	21777	11762	0	880
5.121	14.569	21666	11696	0	880
2.741	10.602	21599	11762	0	880
1.298	8.402	21554	11927	0	880
0.974	6.347	21510	12118	0	880
0.072	4.039	21450	12311	0	880
-0.577	3.462	21406	12531	0	880
-0.974	4.904	21376	12772	0	880
0.325	8.150	21339	13016	0	880
2.488	12.153	21287	13238	0	880
4.616	12.982	21250	13448	0	880
6.167	11.251	21198	13645	0	880
6.599	11.576	21116	13804	0	880
7.357	10.638	21064	13950	0	880
10.025	12.369	21027	14165	0	880
14.353	15.110	20990	14404	0	880
17.382	14.894	20893	14515	0	880
19.293	14.930	20767	14477	0	880
19.329	17.021	20603	14388	0	880
17.995	16.913	20470	14340	0	880
13.018	17.490	20343	14375	0	880
8.114	14.749	20232	14461	0	880
3.859	11.504	20135	14550	0	880
2.200	7.429	20002	14616	0	880
2.993	4.688	19898	14696	0	880
8.979	5.554	19801	14819	0	880
12.477	6.455	19727	14969	0	880
16.300	10.710	19630	15127	0	880
18.752	14.966	19548	15267	0	880
19.834	17.851	19474	15391	0	880
25.965	20.916	19400	15534	0	880
30.112	23.801	19355	15721	0	880
30.797	22.539	19326	15931	0	880
32.059	24.522	19266	16089	0	880
31.554	27.371	19192	16143	0	880
32.384	30.725	19073	16099	0	880
35.557	35.521	18991	16054	0	880
40.029	38.262	18887	16058	0	880
36.026	36.134	18820	16086	0	880
32.167	29.427	18739	16124	0	880
20.267	22.070	18657	16159	0	880
13.018	17.706	18560	16156	0	880
7.465	12.946	18479	16143	0	880
3.570	10.206	18434	16223	0	880
2.669	7.825	18404	16384	0	880
0.541	3.714	18389	16549	0	880
-1.803	3.318	18375	16672	0	880
-4.255	2.236	18352	16755	0	880
-4.616	2.633	18315	16809	0	880
-3.931	1.479	18285	16857	0	880
-1.803	0.180	18263	16888	0	880
-1.262	0.902	18219	16888	0	880
-1.587	1.767	18181	16869	0	880
-3.859	3.246	18144	16857	0	880
-4.724	2.741	18115	16857	0	880
-5.265	0.793	18107	16898	0	880
-1.731	-0.829	18100	16958	0	880
4.508	-0.613	18077	16993	0	880
8.835	3.354	18063	16974	0	880
9.520	7.068	18025	16910	0	880
8.763	10.350	17966	16812	0	880
8.258	11.828	17921	16710	0	880
12.261	14.317	17877	16625	0	880
18.247	15.110	17810	16545	0	880
24.594	16.372	17743	16444	0	880
19.942	14.136	17647	16277	0	880
10.819	9.412	17520	16048	0	880
-0.829	5.914	17401	15845	0	880
-6.635	4.075	17290	15696	0	880
-7.465	3.570	17178	15591	0	880
-6.275	2.128	17067	15499	0	880
-3.570	0.613	16963	15400	0	880
-3.462	-2.452	16844	15318	0	880
-4.400	-2.488	16755	15289	0	880
-5.373	-2.272	16658	15302	0	880
-5.662	-0.216	16554	15321	0	880
-4.147	0.577	16465	15337	0	880
-4.039	1.082	16391	15365	0	880
-2.993	2.524	16325	15413	0	880
-1.947	3.173	16251	15489	0	880
-1.839	5.049	16176	15578	0	880
-1.731	7.501	16110	15651	0	880
-2.633	8.186	16028	15699	0	880
-6.383	8.547	15968	15743	0	880
-10.674	7.140	15894	15797	0	880
-10.278	6.780	15850	15880	0	880
-3.714	8.619	15805	16007	0	880
1.875	11.756	15768	16115	0	880
4.616	10.602	15671	16108	0	880
-0.865	6.744	15530	15969	0	880
-12.586	-1.154	15396	15772	0	880
-23.657	-9.412	15248	15588	0	880
-31.338	-14.894	15114	15477	0	880
-32.528	-15.074	14973	15429	0	880
-32.167	-17.093	14847	15378	0	880
-32.276	-17.815	14698	15292	0	880
-34.223	-22.214	14579	15261	0	880
-38.947	-26.614	14475	15311	0	880
-40.714	-26.614	14364	15372	0	880
-38.695	-24.739	14252	15410	0	880
-32.672	-20.880	14141	15429	0	880
-27.010	-17.057	14007	15419	0	880
-27.047	-20.519	13836	15315	0	880
-30.833	-24.089	13650	15115	0	880
-33.862	-28.669	13450	14937	0	880
-33.502	-26.433	13264	14858	0	880
-28.633	-20.483	13116	14877	0	880
-21.926	-12.225	13004	14975	0	880
-19.185	-5.373	12908	15143	0	880
-21.709	-4.111	12841	15343	0	880
-20.736	-1.983	12744	15540	0	880
-18.356	-0.144	12685	15715	0	880
-10.458	2.128	12595	15851	0	880
-6.960	1.082	12521	15950	0	880
-9.989	-3.101	12447	16048	0	880
-19.041	-9.232	12373	16172	0	880
-31.915	-13.559	12350	16324	0	880
-39.596	-13.415	12298	16488	0	880
-45.366	-18.969	12261	16641	0	880
-46.736	-24.486	12224	16736	0	880
-47.674	-35.305	12172	16784	0	880
-49.730	-41.652	12075	16749	0	880
-50.018	-41.291	11986	16647	0	880
-55.247	-41.652	11890	16577	0	880
-57.952	-41.543	11838	16568	0	880
-60.368	-43.166	11771	16596	0	880
-58.709	-44.501	11756	16682	0	880
-51.208	-40.714	11741	16828	0	880
-47.386	-36.747	11756	17003	0	880
-44.573	-32.312	11793	17168	0	880
-44.140	-30.112	11801	17317	0	880
-47.205	-28.453	11838	17453	0	880
-47.602	-25.171	11890	17574	0	880
-45.474	-21.385	11919	17676	0	880
-42.337	-18.680	11957	17739	0	880
-42.770	-21.241	11986	17761	0	880
-41.868	-26.866	11986	17739	0	880
-40.570	-28.994	11979	17622	0	880
-39.560	-30.328	11927	17434	0	880
-38.478	-28.092	11927	17330	0	880
-39.849	-25.929	11964	17355	0	880
-48.179	-29.102	11986	17396	0	880
-57.050	-34.475	12001	17361	0	880
-64.263	-40.353	11994	17250	0	880
-66.138	-47.494	11964	17114	0	880
-67.905	-52.001	11949	16974	0	880
-70.285	-58.637	11890	16799	0	880
-73.819	-63.541	11815	16568	0	880
-76.271	-64.010	11726	16324	0	880
-76.019	-61.666	11659	16137	0	880
-72.340	-59.250	11615	16035	0	880
-69.455	-56.834	11578	15997	0	880
-68.951	-58.493	11541	15997	0	880
-69.996	-57.303	11511	15981	0	880
-70.393	-59.142	11466	15946	0	880
-69.780	-58.961	11437	15918	0	880
-68.518	-58.601	11384	15886	0	880
-67.905	-59.755	11347	15858	0	880
-69.636	-60.007	11310	15870	0	880
-67.184	-58.240	11295	15931	0	880
-64.263	-51.352	11273	15972	0	880
-57.303	-46.881	11206	15934	0	880
-52.290	-42.661	11147	15848	0	880
-50.018	-43.455	11102	15810	0	880
-55.355	-47.313	11065	15842	0	880
-61.846	-52.867	11035	15899	0	880
-70.898	-55.211	11020	15965	0	880
-80.094	-60.043	11020	16070	0	880
-87.486	-64.082	11058	16226	0	880
-90.984	-69.564	11110	16437	0	880
-86.116	-71.872	11199	16717	0	880
-79.012	-70.213	11295	17022	0	880
-70.501	-66.607	11422	17314	0	880
-68.157	-62.748	11555	17612	0	880
-70.934	-62.207	11756	17955	0	880
-73.747	-63.902	11964	18364	0	880
-76.055	-68.121	12224	18818	0	880
-76.055	-69.924	12514	19263	0	880
-75.153	-72.016	12811	19701	0	880
-76.127	-70.826	13168	20152	0	880
-75.947	-70.285	13546	20609	0	880
-73.422	-69.059	13925	21037	0	880
-70.537	-65.597	14319	21374	0	880
-67.292	-62.712	14668	21552	0	880
-64.443	-56.329	15003	21596	0	880
-60.909	-50.379	15337	21577	0	880
-56.113	-46.953	15671	21542	0	880
-57.447	-46.159	16013	21517	0	880
-57.627	-49.405	16384	21517	0	880
-58.709	-49.910	16755	21498	1	876
-59.863	-51.785	17074	21396	0	876
-60.115	-50.595	17424	21228	0	876
-59.971	-49.153	17795	21107	0	876
-63.613	-50.775	18174	21072	0	876
-66.823	-52.723	18575	21041	0	876
-67.364	-56.617	18932	20933	0	876
-66.138	-57.303	19288	20726	0	876
-65.669	-59.430	19600	20453	0	876
-66.390	-63.758	19898	20145	0	876
-69.636	-66.102	20210	19837	0	876
-72.124	-70.069	20470	19501	0	876
-74.829	-72.485	20700	19098	0	876
-76.019	-73.530	20901	18653	0	876
-75.153	-75.694	21123	18225	0	876
-75.334	-75.983	21324	17847	0	876
-74.937	-75.586	21495	17485	0	876
-76.668	-73.530	21658	17104	0	876
-76.920	-70.718	21792	16707	0	876
-74.901	-68.193	21896	16315	0	876
-69.095	-67.220	21993	15902	0	876
-61.666	-68.987	22037	15477	0	876
-58.637	-71.475	22074	15045	0	876
-62.459	-76.055	22082	14626	0	876
-69.383	-79.336	22037	14200	0	876
-73.855	-78.291	21970	13737	0	876
-72.376	-75.153	21881	13264	0	876
-67.400	-69.924	21770	12858	0	876
-61.233	-68.049	21673	12556	0	876
-59.611	-67.652	21584	12359	0	876
-61.955	-70.934	21480	12216	0	876
-63.181	-71.259	21361	12067	0	876
-60.692	-69.131	21213	11889	0	876
-57.988	-66.102	20990	11642	0	876
-56.690	-61.594	20774	11369	0	876
-56.329	-61.558	20566	11204	0	876
-59.178	-64.587	20381	11172	0	876
-59.647	-68.554	20210	11232	0	876
-55.896	-69.564	20046	11378	0	876
-51.677	-67.003	19927	11616	0	876
-46.268	-62.387	19823	11921	0	876
-46.159	-59.106	19712	12248	0	876
-47.926	-59.178	19638	12581	0	876
-49.008	-59.502	19548	12921	0	876
-52.759	-60.620	19474	13264	0	876
-54.922	-61.450	19430	13626	0	876
-58.096	-61.486	19415	14067	0	876
-57.627	-59.863	19415	14565	0	876
-55.644	-61.017	19400	14984	0	876
-52.110	-60.224	19355	15238	0	876
-47.422	-58.276	19281	15372	0	876
-44.861	-62.712	19207	15467	0	876
-48.143	-66.895	19103	15559	0	876
-51.821	-71.655	19028	15642	0	876
-54.382	-72.845	18910	15677	0	876
-55.968	-70.718	18798	15658	0	876
-57.230	-65.994	18687	15635	0	876
-54.057	-63.325	18575	15667	0	876
-53.083	-63.505	18486	15756	0	876
-49.549	-63.433	18404	15858	0	876
-45.438	-63.541	18323	15937	0	876
-41.003	-58.817	18226	15981	0	876
-37.829	-54.742	18100	15940	0	876
-36.928	-50.090	17981	15842	0	876
-37.252	-46.087	17869	15807	0	876
-35.016	-46.412	17758	15854	0	876
-31.951	-46.123	17684	15931	0	876
-28.597	-45.835	17617	16023	0	876
-25.748	-47.205	17572	16150	0	876
-23.116	-46.520	17520	16308	0	876
-22.250	-43.491	17505	16479	0	876
-23.080	-43.960	17498	16641	0	876
-23.585	-44.068	17461	16758	0	876
-26.866	-44.681	17401	16790	0	876
-32.420	-45.618	17357	16768	0	876
-35.990	-49.116	17320	16790	0	876
-36.134	-51.316	17297	16876	0	876
-34.836	-52.795	17297	16987	0	876
-31.807	-53.408	17290	17079	0	876
-30.508	-55.319	17290	17158	0	876
-33.429	-55.680	17312	17260	0	876
-36.351	-58.204	17357	17399	0	876
-38.406	-58.132	17394	17530	0	876
-37.505	-57.555	17431	17615	0	876
-35.016	-56.509	17446	17647	0	876
-31.662	-52.831	17476	17653	0	876
-27.551	-51.713	17513	17663	0	876
-21.204	-46.628	17557	17695	0	876
-15.290	-40.570	17587	17717	0	876
-9.809	-37.108	17594	17669	0	876
-7.862	-35.233	17557	17495	0	876
-8.727	-34.728	17505	17215	0	876
-10.133	-34.259	17438	16952	0	876
-11.540	-33.682	17372	16755	0	876
-14.461	-34.800	17320	16561	0	876
-15.326	-36.026	17245	16375	0	876
-17.274	-39.308	17171	16213	0	876
-16.805	-39.596	17112	16077	0	876
-17.418	-41.219	17052	15969	0	876
-16.625	-43.743	17015	15940	0	876
-20.014	-45.510	17015	15981	0	876
-21.601	-48.828	16978	16016	0	876
-24.234	-46.772	16941	15984	0	876
-24.162	-43.491	16852	15896	0	876
-19.437	-38.009	16800	15791	0	876
-15.687	-35.377	16718	15692	0	876
-9.160	-33.249	16614	15584	0	876
-5.734	-34.006	16517	15464	0	876
-6.239	-36.459	16406	15350	0	876
-9.520	-37.901	16310	15258	0	876
-14.100	-41.147	16221	15191	0	876
-15.867	-40.137	16147	15178	0	876
-17.670	-39.921	16035	15191	0	876
-12.550	-37.721	15939	15175	0	876
-8.439	-35.882	15850	15146	0	876
-5.085	-34.403	15753	15150	0	876
-4.796	-35.665	15664	15188	0	876
-8.907	-36.675	15582	15232	0	876
-15.038	-37.757	15493	15273	0	876
-19.185	-39.091	15419	15315	0	876
-16.120	-37.360	15307	15337	0	876
-8.547	-32.600	15181	15286	0	876
4.940	-26.109	15062	15207	0	876
14.497	-20.555	14988	15235	0	876
20.087	-17.021	14913	15384	0	876
16.625	-20.700	14847	15534	0	876
10.783	-24.125	14772	15594	0	876
6.131	-29.535	14661	15591	0	876
2.164	-34.151	14549	15578	0	876
2.488	-34.187	14453	15588	0	876
4.400	-33.970	14371	15629	0	876
5.049	-32.131	14282	15667	0	876
5.662	-32.203	14178	15686	0	876
5.337	-34.259	14096	15715	0	876
2.056	-39.921	14022	15784	0	876
-0.649	-43.563	13955	15880	0	876
-2.416	-42.842	13881	15959	0	876
-1.623	-37.541	13799	15991	0	876
0.577	-31.085	13688	15969	0	876
3.065	-25.712	13584	15915	0	876
6.419	-26.217	13480	15858	0	876
8.547	-27.010	13353	15819	0	876
10.133	-27.696	13249	15784	0	876
14.605	-22.467	13145	15746	0	876
17.346	-17.238	13004	15699	0	876
18.103	-9.989	12848	15594	0	876
18.356	-11.360	12722	15480	0	876
15.002	-16.156	12618	15492	0	876
13.740	-22.142	12551	15642	0	876
13.884	-22.178	12462	15762	0	876
19.546	-15.398	12328	15753	0	876
23.476	-4.544	12217	15680	0	876
27.479	2.813	12127	15677	0	876
27.804	5.301	12038	15769	0	876
27.876	1.226	11979	15886	0	876
25.676	-4.508	11890	15975	0	876
21.781	-13.415	11815	16029	0	876
17.598	-21.096	11756	16092	0	876
12.369	-29.607	11697	16200	0	876
8.294	-34.187	11682	16356	0	876
7.970	-35.269	11645	16510	0	876
6.888	-34.115	11622	16634	0	876
4.291	-30.292	11593	16733	0	876
1.262	-29.102	11585	16844	0	876
-2.885	-30.725	11578	16955	0	876
-4.796	-30.508	11570	17044	0	876
-3.029	-31.446	11541	17082	0	876
2.200	-27.840	11533	17085	0	876
9.701	-21.385	11496	17072	0	876
15.903	-14.100	11429	17012	0	876
20.627	-7.717	11399	16955	0	876
18.428	-6.780	11429	17015	0	876
15.254	-8.150	11444	17184	0	876
9.809	-12.694	11481	17298	0	876
11.792	-11.937	11481	17307	0	876
18.247	-5.157	11481	17295	0	876
26.614	3.895	11511	17317	0	876
32.239	11.251	11533	17361	0	876
33.574	12.261	11555	17374	0	876
28.705	4.364	11555	17339	0	876
26.578	-0.469	11533	17247	0	876
25.893	-2.200	11518	17123	0	876
27.335	-0.938	11503	17022	0	876
27.010	1.515	11503	16958	0	876
26.145	0.865	11474	16895	0	876
22.395	-1.875	11407	16752	0	876
18.067	-6.491	11325	16482	0	876
15.795	-8.439	11206	16169	0	876
10.999	-11.071	11132	15962	0	876
7.681	-12.694	11072	15899	0	876
4.183	-13.848	11028	15886	0	876
0.577	-14.677	10998	15892	0	876
-0.938	-11.864	10991	15940	0	876
1.515	-12.369	11013	16045	0	876
7.248	-10.386	11035	16226	0	876
13.343	-8.979	11147	16536	0	876
17.418	-9.412	11295	16971	0	876
19.293	-7.501	11466	17390	0	876
19.293	-2.380	11607	17688	0	876
21.637	3.967	11741	17917	0	876
27.407	11.215	11927	18177	0	876
34.656	16.769	12135	18495	0	876
38.622	18.716	12365	18822	0	876
39.560	15.867	12618	19145	0	876
37.865	12.550	12893	19488	0	876
34.223	10.566	13212	19850	0	876
31.446	8.799	13554	20222	0	876
30.977	12.081	13918	20606	0	876
30.905	13.343	14304	20964	0	876
31.230	12.153	14698	21250	0	876
29.463	11.468	15077	21466	0	876
28.309	8.258	15493	21644	0	876
27.479	7.609	15894	21809	0	876
27.155	9.773	16310	21939	0	876
27.804	14.172	16703	21977	0	876
28.164	15.615	17089	21920	0	876
28.669	18.536	17461	21803	0	876
30.220	15.651	17840	21657	0	876
31.771	16.552	18219	21514	0	876
32.816	15.507	18620	21425	1	876
32.816	16.733	19021	21349	0	876
31.049	19.510	19378	21152	0	876
29.968	21.637	19652	20758	0	876
29.282	20.664	19912	20231	0	876
29.102	22.178	20135	19682	0	876
28.561	21.854	20329	19164	0	876
28.633	23.621	20529	18676	0	876
29.968	25.820	20693	18177	0	876
31.879	24.666	20841	17647	0	876
33.862	23.296	20953	17136	0	876
37.432	22.106	21079	16682	0	876
39.957	19.870	21161	16248	0	876
39.488	19.726	21227	15784	0	876
36.928	19.510	21250	15299	0	876
34.367	16.733	21257	14826	0	876
33.970	12.910	21265	14400	0	876
32.636	13.812	21250	14045	0	876
33.105	11.468	21220	13727	0	876
27.479	12.874	21146	13378	0	876
18.392	10.710	21027	12937	0	876
13.343	9.701	20856	12454	0	876
12.441	8.222	20700	12058	0	876
14.858	10.746	20566	11810	0	876
18.680	12.730	20477	11740	0	876
18.247	13.992	20381	11813	0	876
18.464	16.697	20291	11899	0	876
19.473	16.661	20173	11902	0	876
25.027	20.519	20024	11870	0	876
31.302	24.450	19890	11889	0	876
35.413	29.679	19771	11991	0	876
38.009	31.915	19652	12150	0	876
38.009	33.213	19519	12286	0	876
37.144	32.636	19378	12375	0	876
36.242	30.761	19229	12492	0	876
35.846	31.158	19118	12689	0	876
35.413	29.427	19021	12927	0	876
34.692	29.174	18895	13159	0	876
34.115	28.525	18783	13359	0	876
33.682	27.696	18672	13572	0	876
32.997	27.083	18583	13819	0	876
31.302	26.686	18508	14102	0	876
28.020	27.191	18434	14391	0	876
22.539	24.522	18360	14635	0	876
17.851	24.198	18263	14835	0	876
13.631	21.096	18204	15029	0	876
15.831	19.437	18115	15226	0	876
16.841	16.697	18040	15413	0	876
22.214	18.752	17981	15562	0	876
24.414	20.483	17892	15692	0	876
26.578	26.830	17832	15823	0	876
28.092	30.689	17758	15950	0	876
29.499	34.187	17691	16089	0	876
33.177	36.387	17684	16292	0	876
38.947	38.767	17661	16514	0	876
43.274	39.163	17632	16679	0	876
44.428	40.606	17594	16764	0	876
42.517	39.380	17542	16809	0	876
41.616	41.183	17505	16850	0	876
40.714	41.940	17468	16901	0	876
44.248	46.556	17431	16933	0	876
46.015	49.044	17386	16942	0	876
45.618	47.890	17349	16958	0	876
45.402	46.268	17320	16990	0	876
47.422	40.245	17297	17031	0	876
46.484	33.502	17297	17098	0	876
44.392	26.974	17312	17180	0	876
36.567	21.818	17297	17237	0	876
27.227	18.428	17290	17253	0	876
21.529	20.880	17290	17237	0	876
22.827	26.109	17253	17190	0	876
26.830	27.371	17223	17123	0	876
29.102	26.073	17223	17095	0	876
26.578	20.483	17223	17120	0	876
24.955	13.343	17223	17117	0	876
25.424	13.956	17171	17022	0	876
28.309	18.716	17112	16860	0	876
34.043	28.128	17060	16701	0	876
36.170	33.826	17000	16561	0	876
35.160	37.288	16904	16387	0	876
33.610	35.305	16792	16146	0	876
34.187	33.826	16666	15889	0	876
38.118	34.115	16554	15711	0	876
43.527	37.937	16465	15635	0	876
47.710	43.563	16406	15632	0	876
49.044	44.933	16362	15648	0	876
45.294	42.337	16303	15658	0	876
42.373	37.577	16236	15683	0	876
40.858	33.249	16199	15756	0	876
41.724	33.285	16191	15877	0	876
41.003	35.377	16176	16007	0	876
38.695	35.629	16147	16096	0	876
33.393	31.410	16139	16156	0	876
30.797	28.237	16102	16219	0	876
33.285	26.974	16102	16305	0	876
37.973	30.004	16087	16393	0	876
42.337	31.987	16072	16457	0	876
42.229	33.069	16050	16476	0	876
41.183	31.735	16013	16472	0	876
40.101	28.850	15998	16466	0	876
39.704	28.741	15961	16453	0	876
40.534	26.902	15916	16412	0	876
38.082	25.135	15850	16353	0	876
35.557	21.529	15805	16286	0	876
35.160	23.621	15716	16191	0	876
36.675	28.741	15656	16077	0	876
40.894	34.115	15597	16026	0	876
42.986	38.695	15560	16042	0	876
45.041	40.101	15493	16061	0	876
45.438	38.695	15448	16035	0	876
46.809	39.452	15367	15953	0	876
48.576	42.409	15270	15832	0	876
48.684	44.933	15174	15708	0	876
44.609	41.039	15040	15569	0	876
38.731	38.442	14913	15416	0	876
35.665	33.249	14765	15254	0	876
32.672	27.047	14564	15035	0	876
32.744	24.847	14393	14781	0	876
30.148	23.332	14230	14635	0	876
23.512	18.897	14104	14626	0	876
15.579	13.235	13963	14661	0	876
9.124	7.681	13844	14705	0	876
14.353	10.386	13725	14769	0	876
25.424	16.625	13628	14873	0	876
38.442	32.239	13546	15013	0	876
46.845	39.127	13465	15156	0	876
45.005	40.606	13376	15277	0	876
39.272	32.023	13279	15378	0	876
33.357	25.676	13168	15419	0	876
33.105	24.450	13056	15426	0	876
36.206	29.751	12982	15508	0	876
39.560	35.665	12915	15680	0	876
37.577	38.009	12870	15851	0	876
34.331	35.052	12781	15975	0	876
31.662	31.518	12729	16058	0	876
33.718	29.463	12655	16137	0	876
37.396	32.636	12618	16245	0	876
44.861	39.849	12581	16390	0	876
50.270	46.592	12558	16539	0	876
50.018	48.684	12536	16650	0	876
48.359	47.061	12484	16723	0	876
43.671	41.652	12462	16771	0	876
38.839	34.872	12425	16812	0	876
35.160	30.797	12395	16869	0	876
32.672	30.508	12365	16936	0	876
29.391	31.230	12365	16996	0	876
25.316	31.482	12328	17031	0	876
21.745	26.433	12298	17018	0	876
18.608	21.529	12276	16993	0	876
20.988	19.834	12283	17037	0	876
25.965	20.808	12261	17104	0	876
30.184	26.974	12224	17069	0	876
31.879	29.643	12150	16917	0	876
31.122	29.427	12090	16749	0	876
29.751	28.345	12016	16612	0	876
30.040	31.158	11949	16523	0	876
31.951	36.783	11912	16482	0	876
33.934	39.885	11845	16447	0	876
30.761	41.111	11793	16365	0	876
26.470	38.009	11726	16277	0	876
21.745	36.026	11689	16251	0	876
18.788	34.151	11652	16286	0	876
17.093	34.547	11645	16346	0	876
20.159	36.928	11622	16406	0	876
24.162	40.426	11630	16479	0	876
29.823	42.625	11652	16606	0	876
32.997	43.310	11719	16809	0	876
34.187	40.065	11808	17079	0	876
31.987	34.728	11949	17406	0	876
29.138	29.895	12113	17790	0	876
25.676	29.535	12313	18199	0	876
21.890	30.941	12543	18609	0	876
19.473	31.266	12774	19009	0	876
16.120	30.472	13041	19387	0	876
20.555	27.299	13324	19726	0	876
25.640	26.794	13598	20031	0	876
31.446	26.866	13888	20285	0	876
34.115	28.201	14185	20491	0	876
32.167	31.194	14505	20682	0	876
29.246	30.328	14839	20879	0	876
27.479	29.210	15188	21088	0	876
29.427	29.823	15545	21269	0	876
31.662	31.446	15916	21390	0	876
32.348	32.925	16273	21453	0	876
31.879	33.898	16629	21482	0	876
28.489	33.033	16993	21482	0	876
27.768	32.276	17334	21431	0	876
28.056	34.620	17691	21317	0	876
29.463	40.858	18018	21145	0	876
28.453	46.123	18330	20945	0	876
22.791	46.953	18657	20739	1	760
15.759	45.510	18954	20517	0	760
10.674	39.921	19229	20231	0	760
10.350	36.783	19482	19863	0	760
16.733	36.711	19704	19441	0	760
21.962	38.911	19920	19022	0	760
25.568	40.930	20098	18618	0	760
25.027	39.452	20284	18206	0	760
20.519	38.190	20410	17774	0	760
17.887	35.305	20529	17310	0	760
11.215	33.069	20603	16796	0	760
5.337	33.069	20663	16273	0	760
-0.721	32.744	20745	15854	0	760
-4.616	30.905	20819	15553	0	760
-0.721	29.210	20856	15267	0	760
8.655	30.328	20893	14946	0	760
18.716	35.197	20893	14591	0	760
21.385	42.193	20878	14235	0	760
18.716	46.845	20804	13886	0	760
11.937	47.133	20693	13461	0	760
7.501	43.996	20522	12959	0	760
8.042	36.819	20381	12505	0	760
12.225	31.122	20210	12188	0	760
14.966	28.273	20068	11997	0	760
15.074	29.138	19964	11931	0	760
15.074	30.977	19860	11972	0	760
18.788	35.341	19764	12054	0	760
20.591	39.127	19660	12165	0	760
22.106	37.108	19593	12321	0	760
21.096	32.600	19519	12518	0	760
14.245	26.325	19467	12740	0	760
7.970	21.493	19407	13004	0	760
5.770	20.700	19370	13308	0	760
5.085	20.050	19326	13572	0	760
7.573	20.844	19229	13724	0	760
8.222	14.713	19132	13781	0	760
10.458	14.064	18991	13823	0	760
11.864	15.002	18880	13889	0	760
13.127	23.945	18739	13937	0	760
15.218	29.427	18560	13921	0	760
15.435	30.545	18404	13883	0	760
14.930	24.991	18263	13937	0	760
17.562	20.014	18152	14102	0	760
16.877	15.687	18040	14289	0	760
19.113	17.238	17921	14445	0	760
16.805	17.526	17810	14572	0	760
17.093	21.313	17706	14711	0	760
17.526	23.837	17609	14877	0	760
20.231	28.958	17542	15086	0	760
23.008	32.312	17476	15327	0	760
23.152	32.816	17394	15524	0	760
24.162	29.535	17275	15594	0	760
26.830	28.092	17171	15581	0	760
28.994	26.397	17067	15638	0	760
29.246	25.424	16993	15784	0	760
27.047	25.712	16926	15934	0	760
21.962	20.591	16852	16061	0	760
15.507	17.490	16800	16184	0	760
15.002	13.199	16755	16321	0	760
13.595	12.261	16718	16485	0	760
13.018	13.199	16740	16726	0	760
12.153	17.779	16762	16996	0	760
8.655	20.087	16755	17193	0	760
9.160	23.801	16762	17279	0	760
12.405	24.198	16733	17310	0	760
16.841	26.506	16703	17333	0	760
24.486	28.128	16718	17377	0	760
25.460	29.427	16725	17437	0	760
24.234	31.302	16718	17498	0	760
22.575	28.525	16740	17542	0	760
19.329	26.325	16762	17587	0	760
20.375	24.234	16777	17647	0	760
20.736	26.578	16837	17714	0	760
20.123	27.912	16874	17777	0	760
18.969	30.400	16918	17822	0	760
15.398	29.679	16941	17812	0	760
14.245	24.991	16963	17752	0	760
15.651	24.414	16978	17672	0	760
18.320	23.585	16985	17590	0	760
23.188	26.902	16978	17488	0	760
25.352	30.472	16985	17364	0	760
22.178	31.194	16956	17231	0	760
16.913	25.929	16926	17066	0	760
6.347	18.788	16889	16872	0	760
2.056	13.523	16852	16695	0	760
2.308	12.189	16800	16545	0	760
7.032	14.677	16755	16396	0	760
13.812	21.709	16681	16213	0	760
17.634	24.089	16584	16000	0	760
19.870	25.063	16532	15848	0	760
19.041	26.289	16465	15778	0	760
19.365	26.506	16406	15711	0	760
18.067	25.748	16332	15610	0	760
17.959	24.739	16236	15470	0	760
14.894	25.207	16154	15340	0	760
15.867	24.739	16050	15261	0	760
15.002	25.424	15998	15254	0	760
16.336	27.876	15939	15302	0	760
15.038	29.282	15864	15331	0	760
16.048	32.312	15805	15327	0	760
14.930	32.348	15716	15331	0	760
15.218	30.545	15679	15378	0	760
14.136	25.748	15627	15451	0	760
11.035	20.952	15545	15496	0	760
10.783	20.087	15486	15505	0	760
9.845	19.510	15411	15505	0	760
9.016	21.277	15330	15505	0	760
9.845	20.772	15248	15505	0	760
12.369	21.349	15181	15502	0	760
12.550	18.752	15084	15505	0	760
10.891	19.473	14988	15496	0	760
8.186	16.444	14861	15423	0	760
2.524	15.795	14735	15292	0	760
-1.803	15.867	14601	15191	0	760
2.849	19.221	14483	15165	0	760
7.789	20.231	14379	15213	0	760
11.612	22.827	14289	15270	0	760
14.353	25.063	14193	15296	0	760
14.497	26.109	14081	15318	0	760
15.290	29.463	14000	15381	0	760
20.050	32.672	13933	15505	0	760
22.575	34.259	13888	15645	0	760
21.349	35.016	13799	15743	0	760
19.726	33.033	13732	15804	0	760
12.694	30.545	13665	15880	0	760
8.871	27.948	13628	16007	0	760
7.825	24.702	13591	16159	0	760
8.366	23.657	13561	16277	0	760
10.061	22.972	13502	16334	0	760
11.792	19.726	13413	16308	0	760
8.763	18.356	13324	16235	0	760
4.688	12.838	13257	16210	0	760
0.865	10.855	13227	16308	0	760
-1.334	9.592	13212	16469	0	760
-0.721	8.943	13168	16564	0	760
1.803	13.812	13093	16526	0	760
3.426	15.254	12997	16409	0	760
4.652	16.733	12922	16321	0	760
5.481	19.726	12870	16302	0	760
7.465	20.627	12811	16343	0	760
10.746	18.572	12766	16390	0	760
12.333	19.005	12722	16406	0	760
15.038	17.490	12655	16390	0	760
14.966	18.969	12610	16384	0	760
12.045	19.005	12558	16399	0	760
10.242	22.034	12514	16447	0	760
7.357	22.070	12484	16485	0	760
7.501	22.791	12447	16501	0	760
8.439	23.729	12410	16526	0	760
13.235	23.260	12402	16580	0	760
12.694	20.772	12395	16666	0	760
10.530	17.274	12402	16764	0	760
6.094	13.018	12410	16857	0	760
1.587	10.458	12402	16920	0	760
-0.433	13.379	12410	16939	0	760
-0.216	14.100	12410	16955	0	760
0.325	12.225	12432	17003	0	760
-0.757	9.088	12439	17082	0	760
-4.039	3.498	12499	17177	0	760
-7.212	0.469	12514	17237	0	760
-6.924	2.236	12551	17295	0	760
-4.940	8.258	12692	17485	0	760
-2.236	12.045	12848	17847	0	760
1.479	14.821	13056	18272	0	760
2.669	13.271	13286	18672	0	760
3.859	14.245	13517	19031	0	760
5.842	15.146	13784	19390	0	760
8.943	18.247	14104	19780	0	760
11.576	24.558	14408	20177	0	760
10.494	28.345	14765	20545	0	760
12.550	30.833	15084	20812	0	760
14.136	28.309	15382	20945	0	760
16.516	28.633	15679	20980	0	760
20.447	29.210	15968	20964	0	760
23.765	31.662	16258	20920	0	760
23.909	36.242	16577	20907	0	760
24.558	37.721	16911	20952	0	760
19.690	36.603	17245	21003	0	760
14.461	32.564	17617	21031	0	760
9.953	30.292	17951	21022	1	716
6.491	29.174	18293	20958	0	716
5.662	26.866	18627	20837	0	716
3.390	24.775	18924	20631	0	716
-0.757	20.591	19155	20295	0	716
-2.200	15.182	19378	19879	0	716
-0.685	13.163	19600	19479	0	716
4.111	11.864	19816	19123	0	716
8.186	16.120	20024	18793	0	716
9.088	19.942	20195	18453	0	716
7.176	23.008	20366	18076	0	716
4.436	22.431	20507	17672	0	716
4.688	19.401	20633	17272	0	716
4.724	13.884	20752	16895	0	716
5.554	12.982	20856	16552	0	716
5.517	11.756	20960	16232	0	716
5.878	16.264	21042	15946	0	716
7.898	20.087	21146	15721	0	716
11.468	24.811	21235	15553	0	716
13.956	26.145	21331	15404	0	716
20.303	27.768	21406	15216	0	716
21.565	28.814	21398	14934	0	716
22.106	28.561	21376	14575	0	716
18.428	27.912	21361	14273	0	716
15.146	24.306	21361	14089	0	716
9.737	21.854	21324	13946	0	716
9.953	21.241	21272	13772	0	716
12.658	20.772	21190	13524	0	716
13.451	24.270	21071	13242	0	716
15.723	21.854	20990	13038	0	716
12.333	17.598	20923	13000	0	716
7.789	12.369	20863	13089	0	716
6.167	9.304	20826	13204	0	716
6.203	9.845	20752	13267	0	716
8.258	11.035	20670	13277	0	716
10.314	13.704	20581	13273	0	716
11.973	12.946	20485	13292	0	716
10.458	13.992	20381	13337	0	716
8.330	13.451	20299	13404	0	716
6.491	11.792	20187	13489	0	716
4.075	11.287	20106	13604	0	716
2.344	10.458	20024	13746	0	716
3.931	9.665	19957	13931	0	716
7.032	14.100	19883	14124	0	716
12.730	18.572	19808	14273	0	716
17.490	22.358	19712	14381	0	716
16.589	25.243	19638	14496	0	716
10.638	26.578	19556	14632	0	716
1.587	25.532	19474	14759	0	716
-6.239	22.647	19370	14845	0	716
-8.150	20.519	19259	14889	0	716
-6.708	17.598	19147	14908	0	716
-4.183	16.012	18999	14883	0	716
-6.888	12.225	18872	14845	0	716
-11.504	10.530	18776	14921	0	716
-17.598	5.337	18694	15115	0	716
-20.375	2.488	18583	15245	0	716
-24.017	2.092	18449	15235	0	716
-23.945	3.065	18323	15184	0	716
-25.316	3.390	18181	15191	0	716
-25.460	0.938	18092	15277	0	716
-23.549	-0.216	18018	15423	0	716
-18.608	-2.596	17929	15588	0	716
-14.136	0.000	17884	15743	0	716
-10.638	3.570	17817	15915	0	716
-9.629	9.701	17803	16124	0	716
-12.009	10.206	17795	16353	0	716
-14.713	8.042	17780	16580	0	716
-13.235	6.816	17780	16774	0	716
-10.530	4.183	17780	16930	0	716
-4.688	6.780	17795	17085	0	716
0.397	11.576	17817	17250	0	716
5.193	16.697	17832	17390	0	716
7.501	23.224	17803	17441	0	716
9.088	25.460	17773	17368	0	716
8.547	26.902	17691	17196	0	716
4.580	22.611	17594	16984	0	716
-2.813	14.894	17483	16768	0	716
-10.783	5.085	17394	16590	0	716
-18.428	-1.442	17312	16469	0	716
-19.942	-3.642	17238	16381	0	716
-18.716	-2.092	17126	16254	0	716
-12.802	1.406	17022	16092	0	716
-8.583	4.364	16911	15969	0	716
-5.734	4.940	16852	15943	0	716
-5.698	5.806	16792	15997	0	716
-4.832	6.347	16755	16051	0	716
-4.904	5.698	16688	16067	0	716
-3.534	7.357	16621	16073	0	716
-2.452	7.825	16584	16105	0	716
-0.505	9.484	16532	16127	0	716
-0.325	13.054	16465	16124	0	716
0.361	17.779	16406	16127	0	716
1.262	19.221	16370	16156	0	716
1.659	21.926	16332	16207	0	716
1.947	20.952	16303	16280	0	716
2.777	22.899	16288	16378	0	716
1.659	26.397	16273	16463	0	716
2.019	28.886	16258	16504	0	716
3.642	33.466	16199	16498	0	716
6.275	33.790	16147	16463	0	716
6.275	31.554	16102	16428	0	716
5.626	28.453	16050	16390	0	716
0.721	25.099	15998	16359	0	716
-4.796	21.349	15931	16311	0	716
-9.196	14.894	15857	16216	0	716
-13.199	9.809	15768	16102	0	716
-17.021	0.649	15716	16058	0	716
-20.123	-5.698	15671	16096	0	716
-20.411	-5.373	15619	16143	0	716
-17.418	-2.236	15582	16153	0	716
-15.398	3.462	15515	16115	0	716
-12.405	7.465	15448	16067	0	716
-13.559	2.741	15404	16061	0	716
-20.483	-4.832	15359	16096	0	716
-24.630	-9.556	15322	16134	0	716
-24.955	-11.468	15255	16127	0	716
-22.322	-6.383	15188	16086	0	716
-15.182	0.938	15121	16048	0	716
-11.900	5.373	15069	16038	0	716
-9.845	7.285	15010	16048	0	716
-10.206	6.167	14951	16042	0	716
-10.819	7.681	14884	16013	0	716
-7.645	14.100	14809	15981	0	716
-3.354	20.700	14743	15956	0	716
0.288	26.253	14691	15959	0	716
0.397	27.876	14676	16054	0	716
-2.921	21.204	14668	16216	0	716
-6.852	14.064	14631	16308	0	716
-12.622	8.835	14557	16248	0	716
-15.831	5.806	14468	16105	0	716
-16.625	7.465	14364	15975	0	716
-21.168	7.645	14260	15867	0	716
-23.549	7.573	14141	15740	0	716
-24.378	7.537	13992	15559	0	716
-22.899	6.491	13851	15365	0	716
-16.516	9.304	13740	15258	0	716
-12.586	11.973	13636	15261	0	716
-9.016	12.117	13539	15321	0	716
-9.665	12.405	13450	15381	0	716
-13.163	8.330	13368	15416	0	716
-16.661	7.032	13249	15397	0	716
-21.096	5.878	13071	15251	0	716
-22.611	7.789	12893	15045	0	716
-24.486	7.609	12759	14924	0	716
-23.476	9.268	12595	14911	0	716
-21.204	8.439	12484	14953	0	716
-22.827	5.373	12387	15042	0	716
-22.322	5.013	12291	15172	0	716
-23.188	3.101	12239	15359	0	716
-24.666	4.219	12239	15667	0	716
-23.080	4.616	12254	16054	0	716
-22.935	5.914	12261	16356	0	716
-24.991	5.626	12224	16491	0	716
-26.974	3.714	12187	16542	0	716
-30.472	4.904	12113	16545	0	716
-34.980	2.308	12016	16453	0	716
-42.229	-2.344	11882	16296	0	716
-47.818	-7.212	11771	16194	0	716
-52.687	-12.874	11697	16172	0	716
-49.153	-12.694	11615	16188	0	716
-43.996	-7.032	11570	16245	0	716
-35.521	-0.288	11518	16334	0	716
-30.977	0.072	11474	16412	0	716
-31.879	-6.167	11437	16457	0	716
-33.141	-16.192	11370	16488	0	716
-32.636	-18.211	11355	16542	0	716
-30.905	-15.687	11347	16644	0	716
-25.388	-6.383	11347	16777	0	716
-22.611	-0.793	11325	16891	0	716
-25.279	-3.065	11332	16964	0	716
-26.073	-5.049	11332	17031	0	716
-27.371	-8.727	11355	17114	0	716
-26.181	-4.544	11384	17222	0	716
-20.339	0.974	11399	17330	0	716
-17.021	3.101	11466	17437	0	716
-20.880	1.442	11511	17549	0	716
-26.974	-4.760	11570	17669	0	716
-36.062	-11.540	11667	17812	0	716
-42.770	-16.264	11771	17990	0	716
-45.402	-19.473	11919	18215	0	716
-45.691	-19.978	12105	18523	0	716
-45.727	-20.627	12328	18888	0	716
-44.428	-23.296	12588	19257	0	716
-45.474	-20.880	12870	19634	0	716
-43.527	-19.113	13182	20031	0	716
-38.947	-13.992	13517	20403	0	716
-35.449	-10.314	13858	20723	0	716
-32.636	-5.914	14208	20999	0	716
-31.013	-2.596	14587	21263	0	716
-28.164	0.108	14988	21536	0	716
-24.594	4.616	15434	21825	0	716
-18.824	8.619	15864	22101	0	716
-15.218	10.458	16325	22323	0	716
-11.251	13.595	16733	22437	0	716
-10.927	16.156	17134	22368	0	716
-9.881	17.779	17483	22155	0	716
-6.167	21.024	17847	21942	0	716
-2.993	23.873	18219	21758	0	716
-0.685	24.450	18575	21558	1	796
-0.829	25.424	18932	21330	0	796
-2.308	26.109	19244	21025	0	796
-9.016	20.591	19563	20666	0	796
-12.946	17.238	19875	20330	0	796
-16.228	11.287	20113	19942	0	796
-21.385	7.573	20343	19434	0	796
-25.748	2.921	20522	18895	0	796
-30.833	-0.288	20715	18393	0	796
-35.846	-2.885	20886	17939	0	796
-37.396	-6.671	21079	17545	0	796
-35.846	-7.789	21250	17199	0	796
-34.656	-9.989	21421	16869	0	796
-33.754	-9.196	21547	16530	0	796
-28.777	-5.878	21666	16178	0	796
-24.702	-2.669	21755	15813	0	796
-18.356	1.046	21829	15448	0	796
-16.048	2.957	21904	15115	0	796
-14.461	3.282	21941	14807	0	796
-14.245	5.626	21941	14451	0	796
-11.648	10.206	21896	14045	0	796
-6.924	14.533	21889	13705	0	796
-5.626	18.392	21866	13486	0	796
-6.708	17.346	21844	13324	0	796
-9.592	18.572	21829	13204	0	796
-10.061	16.264	21807	13146	0	796
-8.258	19.329	21785	13134	0	796
-4.904	18.933	21792	13165	0	796
-2.019	21.709	21814	13292	0	796
-3.354	22.034	21866	13518	0	796
-4.400	19.185	21918	13756	0	796
-6.455	17.129	21918	13915	0	796
-5.734	13.163	21926	13997	0	796
-7.285	12.514	21904	14038	0	796
-6.780	11.287	21866	14051	0	796
-8.583	8.943	21792	14026	0	796
-9.917	8.006	21710	13962	0	796
-16.444	4.616	21621	13892	0	796
-19.329	2.164	21525	13858	0	796
-21.745	2.669	21450	13880	0	796
-20.988	4.364	21384	13965	0	796
-18.392	6.852	21331	14077	0	796
-12.838	8.583	21250	14165	0	796
-11.648	12.838	21153	14213	0	796
-13.523	12.658	21042	14194	0	796
-13.307	12.622	20915	14146	0	796
-14.064	14.677	20789	14140	0	796
-10.458	15.579	20670	14188	0	796
-6.094	19.041	20566	14258	0	796
-0.649	19.473	20455	14315	0	796
3.246	20.123	20299	14311	0	796
4.400	17.851	20143	14270	0	796
5.554	19.257	20009	14264	0	796
6.708	19.726	19875	14311	0	796
4.940	22.683	19712	14369	0	796
3.246	20.591	19578	14416	0	796
0.649	18.680	19444	14458	0	796
-0.325	16.120	19303	14543	0	796
0.397	14.281	19207	14705	0	796
0.144	12.189	19118	14924	0	796
-2.092	10.783	19043	15134	0	796
-8.619	5.409	18947	15289	0	796
-14.028	-1.515	18880	15435	0	796
-21.385	-7.573	18820	15632	0	796
-22.539	-10.566	18805	15896	0	796
-26.181	-13.379	18776	16191	0	796
-28.273	-11.360	18776	16447	0	796
-29.643	-8.439	18768	16650	0	796
-30.256	-6.816	18739	16812	0	796
-30.328	-8.727	18731	16933	0	796
-29.823	-8.799	18709	17022	0	796
-27.768	-8.619	18709	17130	0	796
-26.289	-6.816	18724	17263	0	796
-22.899	-2.921	18694	17355	0	796
-20.916	-1.082	18672	17352	0	796
-20.195	0.180	18635	17288	0	796
-21.529	-0.252	18597	17234	0	796
-24.089	-0.180	18575	17206	0	796
-22.250	1.154	18523	17152	0	796
-19.618	2.092	18449	17022	0	796
-14.100	4.977	18367	16834	0	796
-7.032	7.212	18293	16672	0	796
-2.056	10.169	18226	16577	0	796
1.911	11.648	18174	16533	0	796
-0.469	9.629	18129	16504	0	796
-4.039	7.645	18092	16476	0	796
-9.232	3.210	18033	16457	0	796
-12.838	-0.325	17966	16412	0	796
-15.218	-1.226	17921	16334	0	796
-12.622	0.108	17855	16270	0	796
-12.910	1.659	17780	16216	0	796
-15.651	-0.036	17728	16159	0	796
-16.300	-4.760	17669	16127	0	796
-18.392	-9.520	17632	16137	0	796
-15.218	-9.520	17580	16184	0	796
-11.900	-7.429	17557	16226	0	796
-9.052	-2.344	17498	16197	0	796
-10.097	-0.541	17409	16089	0	796
-14.966	-3.101	17320	15962	0	796
-17.346	-5.445	17238	15867	0	796
-20.050	-6.671	17134	15804	0	796
-16.444	-6.058	17060	15769	0	796
-15.471	-5.193	16963	15727	0	796
-12.045	-1.695	16837	15623	0	796
-10.783	1.551	16725	15464	0	796
-11.215	4.003	16584	15324	0	796
-12.946	3.859	16458	15235	0	796
-15.543	5.193	16347	15204	0	796
-17.382	3.210	16251	15213	0	796
-14.785	3.101	16154	15238	0	796
-13.559	3.642	16050	15273	0	796
-10.278	6.671	15991	15337	0	796
-9.052	8.114	15916	15464	0	796
-7.537	9.917	15879	15635	0	796
-5.590	11.035	15820	15788	0	796
-3.642	8.907	15783	15902	0	796
-3.823	5.157	15746	16007	0	796
-7.068	2.669	15731	16146	0	796
-11.864	0.325	15701	16292	0	796
-13.668	-0.865	15656	16387	0	796
-12.405	-2.128	15619	16428	0	796
-12.189	-2.308	15560	16441	0	796
-10.891	-2.452	15515	16447	0	796
-9.016	-3.318	15478	16479	0	796
-12.009	-6.022	15471	16596	0	796
-10.422	-7.321	15493	16784	0	796
-9.232	-7.573	15486	16888	0	796
-7.465	-5.878	15411	16828	0	796
-6.347	-0.793	15337	16666	0	796
-4.580	4.075	15255	16517	0	796
-4.327	4.472	15174	16406	0	796
-5.590	5.085	15114	16327	0	796
-4.796	4.796	15025	16264	0	796
-2.056	5.193	14936	16169	0	796
2.164	8.294	14817	16013	0	796
8.114	10.963	14676	15816	0	796
10.206	12.838	14564	15654	0	796
9.196	13.956	14438	15537	0	796
6.780	11.648	14304	15426	0	796
4.400	13.776	14185	15340	0	796
3.931	12.369	14074	15305	0	796
4.688	12.874	13985	15337	0	796
4.183	12.045	13925	15423	0	796
1.767	8.763	13851	15540	0	796
0.072	7.357	13806	15664	0	796
0.685	9.484	13740	15769	0	796
2.741	11.287	13695	15848	0	796
4.364	13.848	13621	15911	0	796
5.013	13.812	13561	15959	0	796
3.931	11.107	13509	15997	0	796
1.442	6.094	13413	16026	0	796
-1.731	3.065	13331	15991	0	796
-4.796	2.633	13220	15902	0	796
-7.501	0.721	13116	15823	0	796
-10.350	0.108	13019	15781	0	796
-11.468	-1.406	12915	15772	0	796
-8.475	-0.974	12818	15775	0	796
-5.878	0.829	12737	15775	0	796
-3.065	5.337	12633	15784	0	796
-1.767	9.088	12581	15826	0	796
-2.633	12.009	12506	15896	0	796
-3.606	11.360	12425	15943	0	796
-2.200	13.127	12335	15931	0	796
2.308	14.461	12224	15873	0	796
4.364	16.228	12135	15845	0	796
4.400	15.435	12068	15899	0	796
2.092	10.422	12023	16019	0	796
-1.983	8.979	11994	16143	0	796
-2.524	7.321	11949	16258	0	796
-1.659	7.212	11912	16369	0	796
-0.252	8.619	11875	16444	0	796
-0.757	8.835	11853	16507	0	796
-3.606	3.859	11867	16657	0	796
-6.203	-1.154	11905	16888	0	796
-5.337	-4.472	11912	17066	0	796
-3.714	-6.022	11905	17104	0	796
0.613	-4.940	11853	17053	0	796
1.659	-1.875	11838	16999	0	796
-1.226	-0.433	11808	16974	0	796
-4.868	-2.416	11771	16942	0	796
-8.871	-3.498	11726	16882	0	796
-7.465	-3.318	11697	16806	0	796
-4.760	1.226	11630	16739	0	796
0.180	3.173	11615	16698	0	796
0.397	4.147	11578	16688	0	796
-1.875	1.911	11578	16695	0	796
-7.862	-1.839	11548	16701	0	796
-12.297	-2.344	11548	16707	0	796
-15.146	-1.767	11541	16720	0	796
-12.117	0.577	11533	16761	0	796
-9.196	3.137	11548	16825	0	796
-6.311	3.498	11570	16879	0	796
-6.239	2.777	11593	16923	0	796
-8.150	1.587	11593	16958	0	796
-10.242	3.931	11630	16987	0	796
-10.061	6.491	11645	17022	0	796
-4.796	10.783	11667	17037	0	796
2.813	13.127	11667	17015	0	796
6.094	14.172	11689	16974	0	796
5.049	10.458	11682	16936	0	796
-1.839	4.904	11704	16907	0	796
-11.035	-1.154	11726	16939	0	796
-15.362	-6.131	11793	17031	0	796
-14.100	-6.167	11830	17101	0	796
-8.150	-1.947	11845	17085	0	796
-2.056	4.075	11838	16984	0	796
0.793	5.373	11845	16857	0	796
1.515	3.282	11808	16739	0	796
2.452	0.325	11801	16641	0	796
5.662	-0.433	11793	16545	0	796
9.773	2.488	11763	16447	0	796
15.471	4.111	11756	16375	0	796
17.706	5.193	11756	16365	0	796
17.743	5.085	11778	16412	0	796
18.067	5.121	11830	16482	0	796
18.860	7.068	11838	16539	0	796
20.591	11.035	11882	16599	0	796
21.132	13.631	11942	16685	0	796
17.129	12.910	12023	16806	0	796
13.884	12.153	12105	16961	0	796
9.665	12.622	12224	17168	0	796
6.924	11.973	12365	17434	0	796
7.898	12.658	12581	17771	0	796
9.809	14.245	12811	18177	0	796
12.982	15.687	13093	18625	0	796
17.490	17.346	13398	19085	0	796
21.204	21.241	13740	19552	0	796
22.106	23.116	14096	20012	0	796
17.706	20.555	14445	20380	0	796
11.360	16.444	14787	20647	0	796
3.570	9.376	15174	20885	0	796
-2.019	8.150	15545	21139	0	796
-3.534	7.970	15968	21380	0	796
-4.544	9.809	16362	21574	0	796
-5.337	8.258	16755	21704	0	796
-11.360	5.229	17186	21790	0	796
-16.589	-0.685	17594	21866	0	796
-21.313	-2.705	18063	21955	0	796
-23.801	-2.596	18508	22025	0	796
-22.503	-0.144	18932	22015	0	796
-17.779	0.829	19363	21914	0	796
-16.697	1.118	19742	21752	0	796
-14.064	2.380	20150	21542	0	796
-13.776	4.039	20514	21288	1	972
-13.668	6.058	20856	20971	0	972
-9.052	9.845	21146	20561	0	972
-5.373	11.432	21384	20034	0	972
-0.721	13.668	21592	19415	0	972
1.875	14.533	21755	18758	0	972
0.685	14.930	21904	18120	0	972
-1.226	18.283	22037	17530	0	972
1.406	19.834	22149	16990	0	972
6.455	26.253	22253	16472	0	972
16.336	32.023	22312	15969	0	972
22.719	37.396	22386	15505	0	972
28.777	38.406	22476	15140	0	972
31.266	37.757	22528	14842	0	972
32.780	36.026	22572	14540	0	972
34.908	36.278	22594	14204	0	972
38.767	38.370	22587	13877	0	972
41.219	40.245	22587	13607	0	972
41.543	40.894	22594	13410	0	972
40.894	37.721	22557	13245	0	972
39.704	35.233	22513	13067	0	972
39.055	32.492	22476	12896	0	972
38.839	30.256	22416	12791	0	972
37.432	28.345	22401	12765	0	972
33.826	25.027	22334	12778	0	972
28.958	22.431	22275	12778	0	972
24.486	19.762	22201	12743	0	972
23.801	20.555	22074	12642	0	972
23.945	21.385	21926	12505	0	972
24.522	22.827	21792	12426	0	972
25.496	24.270	21673	12451	0	972
24.053	21.385	21569	12543	0	972
22.395	20.411	21450	12648	0	972
22.467	15.543	21324	12708	0	972
22.575	16.120	21183	12765	0	972
23.404	15.507	21101	12931	0	972
24.342	18.031	21005	13197	0	972
21.024	15.651	20915	13416	0	972
13.668	13.127	20782	13531	0	972
5.265	7.898	20655	13610	0	972
0.361	5.554	20529	13731	0	972
0.036	6.058	20433	13908	0	972
2.416	9.665	20336	14127	0	972
5.806	11.396	20269	14375	0	972
6.275	10.025	20187	14626	0	972
3.859	5.986	20135	14873	0	972
2.488	3.931	20098	15137	0	972
1.226	1.623	20046	15407	0	972
0.216	2.056	20031	15664	0	972
0.180	4.760	19994	15883	0	972
1.767	4.472	19950	16067	0	972
3.678	6.455	19920	16232	0	972
6.491	8.547	19890	16365	0	972
11.143	13.018	19808	16418	0	972
14.966	19.329	19690	16321	0	972
17.562	24.053	19504	16058	0	972
21.854	26.650	19318	15775	0	972
20.123	25.532	19147	15553	0	972
20.159	24.666	18969	15397	0	972
21.241	24.234	18850	15359	0	972
22.972	29.535	18746	15451	0	972
26.181	34.764	18687	15616	0	972
28.092	37.180	18612	15788	0	972
24.053	33.790	18575	15943	0	972
18.824	26.325	18545	16121	0	972
14.713	18.788	18538	16346	0	972
10.350	12.009	18545	16584	0	972
9.268	7.465	18545	16803	0	972
10.422	7.357	18545	16964	0	972
12.081	8.439	18545	17066	0	972
13.163	12.261	18523	17126	0	972
17.959	16.444	18501	17142	0	972
19.149	19.870	18471	17142	0	972
19.798	19.005	18479	17196	0	972
15.182	16.625	18501	17304	0	972
10.927	11.323	18516	17406	0	972
8.114	11.035	18538	17472	0	972
7.825	9.665	18560	17523	0	972
10.746	10.746	18575	17542	0	972
14.100	12.838	18590	17530	0	972
12.225	13.127	18597	17498	0	972
11.864	12.658	18590	17450	0	972
12.946	18.175	18583	17380	0	972
16.949	23.188	18560	17288	0	972
24.017	31.122	18560	17196	0	972
28.273	37.649	18545	17110	0	972
30.328	39.091	18516	16996	0	972
27.443	35.593	18471	16834	0	972
24.017	30.761	18427	16682	0	972
18.211	25.316	18389	16571	0	972
16.625	22.611	18352	16469	0	972
13.704	20.411	18285	16356	0	972
11.864	18.536	18219	16207	0	972
9.160	13.415	18129	16032	0	972
6.563	6.924	18055	15867	0	972
1.515	1.515	17966	15753	0	972
0.325	-1.947	17877	15632	0	972
-2.019	-3.065	17706	15372	0	972
-6.996	-3.498	17505	14991	0	972
-11.107	-2.777	17320	14670	0	972
-12.622	-0.577	17149	14496	0	972
-12.081	1.803	17000	14413	0	972
-9.088	3.318	16874	14378	0	972
-4.327	4.724	16733	14372	0	972
0.541	6.527	16584	14384	0	972
3.823	9.268	16465	14407	0	972
7.248	11.937	16362	14467	0	972
11.071	16.048	16273	14626	0	972
13.631	17.202	16221	14848	0	972
13.776	20.087	16139	15042	0	972
15.867	21.204	16065	15191	0	972
17.815	22.214	15976	15305	0	972
15.471	20.627	15894	15410	0	972
14.136	17.959	15812	15496	0	972
11.828	16.949	15656	15461	0	972
11.648	16.733	15478	15286	0	972
11.251	15.579	15300	15105	0	972
7.609	13.018	15121	15016	0	972
3.210	6.058	14973	14984	0	972
-4.075	0.865	14802	14959	0	972
-10.999	-2.272	14668	14978	0	972
-13.812	-2.705	14579	15105	0	972
-14.894	-3.354	14483	15315	0	972
-15.831	-4.868	14438	15540	0	972
-15.074	-8.258	14379	15769	0	972
-14.461	-8.330	14334	15984	0	972
-10.169	-8.114	14289	16156	0	972
-4.832	-3.173	14245	16292	0	972
1.010	1.659	14185	16415	0	972
4.291	6.058	14141	16520	0	972
9.160	8.583	14081	16612	0	972
8.727	11.432	14059	16691	0	972
6.347	11.684	14000	16771	0	972
4.904	9.701	13985	16869	0	972
3.534	10.566	13933	16942	0	972
6.167	13.704	13911	16961	0	972
12.838	16.841	13873	16987	0	972
17.057	21.637	13851	17047	0	972
19.654	23.621	13821	17104	0	972
13.848	19.365	13806	17123	0	972
10.927	17.923	13762	17101	0	972
8.871	12.946	13732	17060	0	972
6.924	11.973	13695	17037	0	972
6.635	7.681	13695	17060	0	972
2.236	2.596	13650	17057	0	972
-1.551	-2.236	13561	16917	0	972
-8.366	-7.645	13472	16666	0	972
-13.487	-10.242	13376	16466	0	972
-16.516	-14.245	13294	16375	0	972
-20.952	-16.228	13242	16327	0	972
-18.969	-17.454	13175	16286	0	972
-17.815	-18.175	13130	16251	0	972
-13.307	-14.425	13056	16216	0	972
-11.143	-13.812	12982	16165	0	972
-10.350	-11.432	12930	16131	0	972
-8.835	-12.874	12915	16188	0	972
-9.412	-10.674	12922	16331	0	972
-8.583	-7.789	12908	16453	0	972
-6.239	-6.419	12885	16495	0	972
-4.868	-3.354	12856	16472	0	972
-4.472	-3.282	12796	16428	0	972
-1.479	-2.560	12766	16393	0	972
-1.839	-0.757	12707	16375	0	972
-0.036	1.695	12662	16327	0	972
-0.613	1.515	12581	16238	0	972
-1.803	0.938	12514	16146	0	972
-1.479	-0.938	12469	16099	0	972
2.092	0.252	12410	16118	0	972
7.609	4.364	12395	16169	0	972
14.064	8.439	12358	16207	0	972
14.353	12.622	12298	16184	0	972
12.982	12.802	12187	16045	0	972
7.825	8.943	12075	15842	0	972
0.829	5.914	11994	15731	0	972
-4.327	-1.190	11919	15731	0	972
-9.232	-7.898	11838	15718	0	972
-15.507	-11.756	11741	15658	0	972
-20.916	-17.021	11659	15613	0	972
-25.279	-17.310	11593	15610	0	972
-24.558	-16.589	11518	15635	0	972
-21.818	-12.514	11459	15696	0	972
-17.454	-11.071	11407	15772	0	972
-13.199	-8.907	11347	15807	0	972
-11.179	-8.799	11280	15813	0	972
-13.307	-7.501	11236	15880	0	972
-11.864	-8.655	11236	16032	0	972
-11.323	-8.475	11236	16207	0	972
-13.235	-10.422	11221	16359	0	972
-14.461	-10.638	11214	16476	0	972
-18.067	-9.520	11214	16568	0	972
-14.461	-4.580	11214	16660	0	972
-11.179	1.587	11251	16806	0	972
-6.780	5.121	11295	17003	0	972
-4.832	4.832	11347	17193	0	972
-5.806	3.426	11422	17364	0	972
-8.366	1.623	11511	17549	0	972
-10.746	0.469	11615	17774	0	972
-12.730	0.721	11763	18034	0	972
-15.831	-0.288	11912	18304	0	972
-24.234	-5.229	12090	18580	0	972
-28.958	-10.314	12298	18869	0	972
-32.023	-13.920	12506	19158	0	972
-31.879	-15.471	12766	19441	0	972
-30.689	-13.956	13026	19723	0	972
-28.669	-12.730	13301	19993	0	972
-29.427	-15.651	13591	20237	0	972
-34.728	-19.329	13881	20447	0	972
-35.197	-23.224	14208	20631	0	972
-35.557	-21.854	14549	20831	0	972
-34.439	-18.392	14913	21076	0	972
-30.148	-10.494	15322	21345	0	972
-29.787	-8.763	15738	21596	0	972
-30.797	-7.176	16147	21784	0	972
-31.049	-7.501	16577	21917	0	972
-31.482	-5.950	17015	22025	0	972
-30.328	-3.787	17461	22120	0	972
-30.905	-3.642	17907	22180	0	972
-33.538	-5.914	18330	22155	0	972
-34.115	-9.088	18761	22047	0	972
-37.396	-9.701	19147	21888	0	972
-37.000	-8.547	19526	21666	0	972
-37.541	-8.907	19860	21330	1	884
-39.704	-10.494	20143	20866	0	884
-40.353	-12.261	20418	20361	0	884
-40.930	-15.290	20678	19882	0	884
-40.498	-15.038	20915	19406	0	884
-40.966	-15.723	21123	18926	0	884
-41.183	-16.841	21346	18453	0	884
-43.851	-18.392	21532	17999	0	884
-44.717	-19.618	21681	17530	0	884
-43.851	-20.447	21792	16996	0	884
-43.310	-17.634	21866	16418	0	884
-40.966	-17.202	21926	15880	0	884
-38.406	-15.218	22000	15413	0	884
-39.019	-12.441	22045	15010	0	884
-41.652	-15.759	22045	14610	0	884
-45.041	-17.634	22045	14194	0	884
-47.277	-21.204	22045	13816	0	884
-47.097	-20.988	22015	13524	0	884
-42.661	-18.680	22015	13315	0	884
-40.714	-15.903	22015	13181	0	884
-42.589	-13.379	21978	13073	0	884
-46.736	-13.271	21941	12950	0	884
-51.424	-16.048	21904	12826	0	884
-48.864	-14.281	21859	12769	0	884
-47.710	-14.389	21814	12778	0	884
-45.294	-14.569	21777	12797	0	884
-48.648	-16.228	21718	12813	0	884
-55.247	-20.014	21666	12854	0	884
-57.122	-23.873	21599	12924	0	884
-55.788	-24.270	21532	12997	0	884
-54.418	-28.417	21473	13061	0	884
-54.922	-34.764	21361	13086	0	884
-60.584	-42.445	21235	13061	0	884
-64.407	-49.044	21079	12994	0	884
-63.722	-48.972	20915	12927	0	884
-60.224	-44.537	20782	12927	0	884
-57.447	-39.452	20663	13019	0	884
-55.752	-37.360	20544	13172	0	884
-56.798	-37.937	20433	13331	0	884
-57.230	-37.649	20321	13464	0	884
-52.578	-35.413	20195	13607	0	884
-49.333	-31.662	20113	13813	0	884
-45.691	-30.148	20009	14038	0	884
-43.960	-30.689	19920	14232	0	884
-41.580	-31.771	19823	14391	0	884
-37.973	-32.492	19697	14508	0	884
-33.898	-29.859	19548	14543	0	884
-29.463	-27.443	19378	14499	0	884
-29.210	-27.155	19192	14458	0	884
-32.095	-31.590	19043	14483	0	884
-36.242	-36.567	18910	14565	0	884
-38.334	-39.632	18776	14696	0	884
-37.541	-37.432	18672	14873	0	884
-35.088	-33.393	18583	15089	0	884
-34.511	-31.662	18516	15324	0	884
-36.098	-35.160	18449	15546	0	884
-38.478	-42.229	18397	15756	0	884
-44.284	-48.828	18337	15969	0	884
-47.494	-52.867	18300	16197	0	884
-47.386	-51.244	18315	16466	0	884
-47.349	-50.379	18330	16787	0	884
-44.501	-47.602	18360	17085	0	884
-42.409	-45.186	18367	17288	0	884
-42.301	-46.159	18367	17396	0	884
-43.815	-46.772	18352	17463	0	884
-43.960	-47.061	18352	17526	0	884
-41.039	-48.720	18360	17596	0	884
-39.993	-47.566	18360	17650	0	884
-38.983	-47.313	18352	17666	0	884
-40.498	-49.044	18337	17660	0	884
-43.202	-50.126	18352	17653	0	884
-44.248	-50.018	18375	17663	0	884
-39.596	-45.546	18367	17676	0	884
-32.131	-39.849	18367	17650	0	884
-26.506	-34.006	18375	17580	0	884
-21.637	-31.879	18367	17517	0	884
-21.493	-31.951	18367	17469	0	884
-25.965	-35.485	18360	17409	0	884
-28.958	-37.432	18337	17285	0	884
-33.682	-40.786	18278	17079	0	884
-37.505	-44.320	18174	16803	0	884
-41.075	-49.766	18070	16504	0	884
-43.347	-51.280	17959	16213	0	884
-42.878	-55.427	17840	15969	0	884
-41.399	-53.444	17758	15804	0	884
-36.855	-52.506	17684	15731	0	884
-33.898	-49.982	17617	15711	0	884
-32.059	-45.727	17550	15683	0	884
-32.095	-44.573	17468	15635	0	884
-31.482	-43.527	17401	15591	0	884
-31.554	-44.176	17334	15578	0	884
-31.951	-48.864	17275	15588	0	884
-30.797	-50.379	17208	15600	0	884
-30.581	-49.225	17134	15591	0	884
-30.545	-48.323	17052	15546	0	884
-27.696	-46.051	16963	15502	0	884
-25.748	-43.599	16889	15505	0	884
-22.863	-43.274	16800	15521	0	884
-18.392	-40.245	16740	15518	0	884
-14.533	-36.567	16658	15527	0	884
-11.720	-35.629	16584	15562	0	884
-13.271	-36.026	16517	15623	0	884
-12.261	-37.685	16480	15699	0	884
-14.281	-37.613	16406	15743	0	884
-13.163	-37.541	16310	15696	0	884
-9.701	-35.521	16199	15588	0	884
-8.475	-37.324	16065	15470	0	884
-6.960	-39.740	15954	15404	0	884
-5.806	-40.534	15850	15394	0	884
-3.029	-40.966	15746	15404	0	884
-0.974	-38.406	15642	15404	0	884
1.082	-37.036	15552	15419	0	884
-0.216	-39.740	15478	15496	0	884
-5.445	-42.553	15411	15619	0	884
-11.396	-46.592	15344	15734	0	884
-17.634	-51.605	15285	15819	0	884
-19.510	-52.723	15211	15873	0	884
-23.008	-55.067	15151	15921	0	884
-21.637	-55.319	15099	16004	0	884
-21.132	-55.608	15062	16127	0	884
-21.241	-53.552	15040	16264	0	884
-17.634	-50.451	14973	16343	0	884
-14.641	-46.051	14884	16286	0	884
-10.350	-40.353	14750	16118	0	884
-6.563	-39.452	14639	15972	0	884
-4.544	-39.308	14520	15896	0	884
-5.121	-40.858	14408	15816	0	884
-7.465	-41.183	14289	15718	0	884
-8.150	-39.272	14171	15648	0	884
-6.671	-34.151	14044	15597	0	884
-4.291	-30.472	13925	15562	0	884
-1.262	-27.119	13873	15638	0	884
-1.803	-27.732	13851	15838	0	884
-4.832	-28.020	13784	16026	0	884
-7.429	-30.508	13732	16099	0	884
-6.455	-32.312	13650	16092	0	884
-5.770	-34.547	13584	16077	0	884
-3.426	-34.259	13502	16077	0	884
-2.705	-35.665	13413	16099	0	884
-6.275	-37.793	13324	16099	0	884
-10.710	-40.606	13249	16064	0	884
-13.163	-44.032	13168	16045	0	884
-17.959	-49.946	13108	16086	0	884
-20.159	-53.408	13056	16181	0	884
-24.558	-58.096	13019	16296	0	884
-26.974	-58.709	12967	16369	0	884
-28.886	-56.581	12915	16396	0	884
-27.335	-53.300	12885	16437	0	884
-23.116	-46.845	12848	16504	0	884
-17.346	-43.166	12833	16587	0	884
-15.326	-40.822	12796	16644	0	884
-13.271	-42.337	12766	16679	0	884
-13.668	-42.878	12729	16682	0	884
-11.396	-39.993	12648	16612	0	884
-4.436	-35.052	12573	16491	0	884
0.793	-27.335	12484	16387	0	884
4.075	-22.611	12387	16299	0	884
2.705	-23.765	12298	16188	0	884
-1.659	-27.083	12202	16058	0	884
-2.921	-29.463	12090	15931	0	884
-0.072	-26.397	12001	15851	0	884
5.734	-22.755	11919	15854	0	884
11.684	-17.851	11875	15924	0	884
13.631	-18.320	11830	16013	0	884
15.435	-17.815	11793	16073	0	884
13.091	-21.457	11741	16137	0	884
7.934	-22.827	11726	16232	0	884
6.708	-23.188	11719	16365	0	884
4.255	-23.332	11726	16514	0	884
3.967	-22.106	11734	16637	0	884
5.770	-21.962	11704	16717	0	884
7.068	-25.604	11704	16758	0	884
5.806	-26.614	11659	16739	0	884
5.878	-28.164	11630	16685	0	884
4.796	-27.660	11585	16653	0	884
2.777	-26.470	11541	16599	0	884
0.685	-23.693	11459	16482	0	884
2.019	-21.709	11399	16372	0	884
6.167	-19.906	11355	16331	0	884
11.973	-13.415	11347	16375	0	884
19.041	-10.674	11332	16488	0	884
20.159	-10.206	11370	16637	0	884
20.195	-9.124	11422	16809	0	884
17.346	-8.583	11518	17053	0	884
18.175	-7.501	11645	17387	0	884
17.202	-5.842	11815	17787	0	884
18.680	-5.445	12031	18237	0	884
16.480	-9.520	12276	18701	0	884
16.372	-12.694	12551	19149	0	884
12.045	-19.690	12848	19609	0	884
9.232	-21.421	13190	20091	0	884
5.481	-23.512	13561	20577	0	884
2.416	-23.368	13933	21022	0	884
1.983	-22.791	14341	21396	0	884
2.164	-24.739	14750	21720	0	884
-1.298	-28.994	15181	22022	0	884
-6.131	-30.617	15627	22304	0	884
-9.629	-31.771	16072	22539	0	884
-11.504	-30.725	16510	22679	0	884
-8.258	-29.787	16941	22717	0	884
-3.859	-29.391	17357	22666	0	884
-3.967	-32.997	17743	22523	0	884
-7.825	-34.295	18129	22310	0	884
-12.694	-31.879	18479	22053	0	884
-16.048	-28.237	18820	21761	1	816
-12.874	-21.096	19155	21415	0	816
-9.629	-16.625	19430	20971	0	816
-3.859	-13.631	19660	20425	0	816
1.839	-14.749	19823	19793	0	816
6.491	-13.018	19994	19101	0	816
12.189	-11.396	20113	18441	0	816
17.887	-8.691	20247	17844	0	816
17.021	-7.717	20329	17272	0	816
11.360	-8.475	20418	16739	0	816
1.262	-14.064	20514	16289	0	816
-7.681	-16.516	20603	15911	0	816
-10.710	-19.582	20678	15562	0	816
-10.566	-19.906	20715	15172	0	816
-5.445	-21.637	20707	14708	0	816
-2.416	-22.250	20678	14238	0	816
-2.019	-24.991	20670	13883	0	816
-4.075	-30.472	20663	13654	0	816
-9.232	-31.446	20641	13477	0	816
-13.631	-33.574	20633	13331	0	816
-16.985	-34.980	20618	13226	0	816
-15.110	-34.367	20581	13140	0	816
-13.848	-35.269	20566	13105	0	816
-12.009	-37.685	20603	13210	0	816
-14.569	-37.072	20655	13432	0	816
-17.851	-35.521	20663	13597	0	816
-19.257	-31.122	20626	13600	0	816
-17.166	-27.263	20559	13518	0	816
-12.225	-25.279	20485	13451	0	816
-11.540	-25.929	20418	13442	0	816
-9.953	-25.388	20358	13467	0	816
-9.556	-24.162	20262	13473	0	816
-6.022	-21.673	20173	13445	0	816
0.505	-15.543	20061	13429	0	816
5.986	-15.290	19964	13461	0	816
5.626	-16.480	19860	13524	0	816
0.072	-21.421	19749	13588	0	816
-11.360	-25.532	19638	13638	0	816
-19.401	-31.085	19541	13696	0	816
-21.529	-35.088	19444	13788	0	816
-21.096	-37.937	19333	13921	0	816
-20.339	-41.039	19244	14067	0	816
-21.277	-43.094	19140	14191	0	816
-25.676	-46.845	19058	14302	0	816
-30.220	-48.143	18954	14432	0	816
-31.158	-50.451	18880	14584	0	816
-32.780	-53.624	18805	14759	0	816
-35.882	-51.064	18768	14988	0	816
-37.721	-50.811	18724	15261	0	816
-38.695	-48.648	18687	15473	0	816
-36.567	-48.756	18583	15546	0	816
-34.836	-48.323	18471	15515	0	816
-37.036	-48.251	18360	15486	0	816
-39.127	-48.612	18256	15508	0	816
-42.661	-48.612	18174	15562	0	816
-40.462	-45.438	18040	15591	0	816
-32.276	-44.573	17944	15581	0	816
-24.955	-40.894	17840	15607	0	816
-20.664	-40.389	17780	15708	0	816
-21.493	-41.868	17728	15854	0	816
-26.433	-43.202	17661	16000	0	816
-29.030	-47.169	17617	16118	0	816
-25.856	-46.304	17572	16216	0	816
-17.346	-41.652	17535	16334	0	816
-12.550	-35.593	17513	16482	0	816
-8.330	-31.879	17505	16644	0	816
-9.592	-31.807	17483	16761	0	816
-11.792	-36.134	17461	16837	0	816
-12.982	-41.291	17446	16907	0	816
-12.369	-40.606	17438	16996	0	816
-13.379	-40.029	17438	17085	0	816
-14.785	-36.351	17446	17177	0	816
-12.225	-37.541	17468	17272	0	816
-10.458	-39.199	17468	17336	0	816
-7.285	-40.462	17468	17339	0	816
-5.373	-41.291	17446	17310	0	816
-6.563	-40.317	17431	17276	0	816
-7.970	-38.803	17431	17241	0	816
-7.248	-35.665	17409	17209	0	816
-3.426	-30.905	17394	17133	0	816
1.911	-26.181	17349	16996	0	816
6.167	-24.486	17275	16818	0	816
7.537	-25.676	17141	16552	0	816
6.671	-25.893	17022	16216	0	816
7.537	-25.243	16874	15924	0	816
9.845	-22.322	16762	15715	0	816
14.100	-17.779	16651	15569	0	816
17.598	-16.697	16554	15499	0	816
14.858	-20.700	16495	15521	0	816
13.379	-22.431	16443	15578	0	816
11.179	-23.801	16398	15642	0	816
12.982	-18.897	16370	15724	0	816
17.490	-15.002	16340	15835	0	816
18.320	-11.287	16325	15956	0	816
19.257	-13.776	16310	16067	0	816
12.838	-18.356	16266	16134	0	816
5.409	-28.417	16228	16159	0	816
-3.787	-34.006	16176	16159	0	816
-7.537	-37.865	16139	16159	0	816
-8.330	-40.101	16102	16181	0	816
-3.895	-37.396	16102	16270	0	816
0.757	-34.764	16072	16378	0	816
0.865	-35.593	16043	16422	0	816
-4.183	-38.298	16013	16399	0	816
-8.222	-41.616	15939	16334	0	816
-10.819	-43.779	15879	16245	0	816
-10.133	-43.599	15805	16169	0	816
-6.275	-39.199	15746	16124	0	816
-1.767	-36.314	15671	16067	0	816
1.370	-33.393	15582	15959	0	816
4.075	-28.525	15486	15848	0	816
8.799	-24.883	15411	15791	0	816
11.756	-19.510	15359	15800	0	816
15.290	-15.002	15300	15848	0	816
16.264	-12.766	15233	15880	0	816
18.788	-10.097	15174	15877	0	816
19.005	-8.835	15099	15854	0	816
21.060	-5.770	15032	15829	0	816
20.014	-5.554	14951	15800	0	816
17.815	-8.583	14876	15775	0	816
10.783	-10.674	14787	15769	0	816
6.347	-14.533	14705	15740	0	816
5.121	-15.146	14564	15626	0	816
8.042	-14.425	14438	15454	0	816
10.963	-11.071	14289	15308	0	816
15.975	-6.744	14156	15223	0	816
16.877	-2.236	14037	15165	0	816
20.123	2.633	13873	15073	0	816
18.536	6.419	13710	14950	0	816
18.428	6.960	13546	14858	0	816
14.713	7.321	13428	14848	0	816
12.658	5.986	13316	14918	0	816
16.985	5.662	13212	15019	0	816
22.178	9.448	13108	15124	0	816
28.128	14.425	13026	15248	0	816
32.600	17.743	12945	15391	0	816
31.446	21.385	12870	15511	0	816
29.246	21.096	12766	15594	0	816
29.030	20.339	12685	15664	0	816
30.472	21.457	12595	15759	0	816
34.403	21.998	12551	15883	0	816
39.308	22.322	12506	16042	0	816
43.491	23.873	12447	16204	0	816
45.078	22.575	12410	16331	0	816
44.176	22.503	12365	16415	0	816
44.032	24.486	12313	16482	0	816
46.484	25.352	12246	16510	0	816
52.290	29.715	12179	16514	0	816
55.463	34.079	12127	16539	0	816
58.637	36.062	12090	16606	0	816
54.634	34.187	12053	16669	0	816
50.415	31.843	11986	16682	0	816
44.212	31.013	11927	16657	0	816
43.202	28.597	11919	16698	0	816
42.589	29.282	11912	16831	0	816
43.274	29.138	11927	16984	0	816
47.566	28.561	11927	17098	0	816
51.929	28.561	11919	17152	0	816
51.929	29.030	11927	17177	0	816
52.110	27.191	11919	17209	0	816
47.313	25.893	11949	17282	0	816
41.147	22.214	11979	17371	0	816
37.541	20.123	12001	17428	0	816
35.918	16.913	12031	17437	0	816
35.485	16.408	12053	17453	0	816
37.577	16.552	12090	17507	0	816
39.812	17.779	12150	17596	0	816
40.353	20.736	12224	17695	0	816
39.885	23.837	12321	17815	0	816
37.649	22.755	12425	17971	0	816
35.882	23.585	12573	18139	0	816
37.324	27.263	12722	18336	0	816
40.389	30.364	12960	18653	0	816
43.419	37.541	13220	19088	0	816
45.330	40.462	13480	19482	0	816
42.337	38.658	13747	19736	0	816
34.223	31.879	14007	19910	0	816
26.614	23.224	14289	20085	0	816
23.296	19.942	14579	20269	0	816
22.286	23.729	14876	20425	0	816
28.453	29.787	15159	20510	0	816
36.206	39.055	15441	20539	0	816
38.911	41.976	15738	20549	0	816
35.629	40.570	16035	20561	0	816
29.030	33.646	16340	20568	0	816
21.493	29.679	16644	20552	0	816
15.038	24.522	16941	20501	0	816
16.192	26.217	17245	20431	0	816
18.680	27.840	17542	20349	0	816
21.926	28.633	17847	20253	1	756
19.437	26.758	18152	20139	0	756
16.336	23.368	18434	19984	0	756
10.133	19.618	18657	19726	0	756
8.186	15.975	18880	19361	0	756
8.475	17.634	19073	18974	0	756
11.792	16.300	19251	18622	0	756
15.543	19.041	19430	18276	0	756
18.175	18.933	19556	17901	0	756
16.625	20.952	19652	17441	0	756
16.841	21.096	19704	16910	0	756
14.930	22.611	19771	16444	0	756
14.605	25.352	19846	16121	0	756
12.117	26.217	19935	15883	0	756
7.645	26.433	20009	15661	0	756
1.659	22.106	20076	15423	0	756
-4.255	17.021	20106	15172	0	756
-6.167	11.107	20158	14940	0	756
-5.013	7.717	20195	14781	0	756
-4.544	4.039	20247	14683	0	756
-6.167	4.472	20269	14607	0	756
-8.402	2.019	20306	14518	0	756
-10.350	-0.180	20329	14438	0	756
-11.864	-2.236	20381	14416	0	756
-10.458	-4.652	20418	14470	0	756
-9.376	-4.400	20470	14553	0	756
-10.350	-5.698	20507	14597	0	756
-14.930	-6.635	20529	14613	0	756
-19.942	-11.432	20551	14635	0	756
-25.640	-14.821	20566	14658	0	756
-28.273	-17.562	20566	14680	0	756
-24.486	-12.369	20566	14686	0	756
-16.805	-7.573	20551	14677	0	756
-8.655	-1.334	20522	14651	0	756
-4.003	3.282	20470	14569	0	756
-3.606	3.895	20403	14442	0	756
-6.744	1.695	20343	14400	0	756
-10.097	1.298	20329	14486	0	756
-10.061	1.695	20291	14597	0	756
-6.888	7.645	20254	14632	0	756
-1.947	13.235	20173	14591	0	756
1.803	16.156	20098	14546	0	756
2.380	17.454	20009	14546	0	756
0.829	11.468	19950	14572	0	756
-4.436	4.616	19860	14578	0	756
-9.232	1.911	19764	14572	0	756
-10.566	-1.262	19697	14594	0	756
-11.360	0.505	19623	14664	0	756
-10.422	1.767	19556	14756	0	756
-8.655	2.596	19482	14851	0	756
-9.304	0.865	19407	14931	0	756
-9.629	-0.721	19355	14997	0	756
-7.321	0.325	19281	15077	0	756
-2.236	4.183	19222	15184	0	756
1.010	8.366	19177	15327	0	756
4.472	11.792	19155	15492	0	756
2.380	9.989	19095	15604	0	756
1.010	10.530	18999	15600	0	756
0.288	10.566	18857	15499	0	756
3.967	13.992	18746	15369	0	756
8.366	19.942	18612	15273	0	756
11.900	19.618	18501	15245	0	756
10.025	19.546	18404	15280	0	756
6.599	13.956	18315	15346	0	756
5.770	12.874	18241	15410	0	756
8.907	13.631	18137	15461	0	756
15.218	19.149	18055	15508	0	756
20.087	24.594	17988	15578	0	756
23.765	27.804	17907	15677	0	756
23.332	28.994	17847	15781	0	756
19.690	28.633	17795	15889	0	756
18.103	25.784	17728	16000	0	756
12.874	23.224	17691	16089	0	756
10.025	19.437	17647	16172	0	756
6.708	15.218	17617	16286	0	756
5.662	15.759	17587	16434	0	756
9.917	17.634	17580	16590	0	756
12.514	22.142	17594	16749	0	756
15.471	22.935	17609	16898	0	756
12.946	22.899	17609	17009	0	756
8.150	22.322	17594	17066	0	756
1.947	18.283	17587	17085	0	756
0.108	20.627	17557	17079	0	756
3.246	20.519	17520	17060	0	756
6.599	21.781	17513	17028	0	756
8.547	20.014	17498	17003	0	756
7.321	20.159	17476	16996	0	756
5.842	20.339	17438	16955	0	756
4.616	17.166	17401	16860	0	756
4.688	17.238	17372	16793	0	756
3.678	15.615	17327	16739	0	756
6.599	17.274	17208	16542	0	756
9.989	23.080	17052	16181	0	756
15.651	30.689	16911	15838	0	756
19.401	34.800	16770	15626	0	756
20.591	31.735	16666	15511	0	756
13.199	23.152	16592	15486	0	756
6.455	13.415	16510	15521	0	756
0.721	5.445	16443	15556	0	756
0.288	5.229	16377	15565	0	756
5.085	6.780	16310	15584	0	756
12.261	10.891	16251	15629	0	756
16.913	12.910	16191	15692	0	756
19.978	15.975	16139	15746	0	756
19.654	17.382	16080	15797	0	756
19.365	21.998	16035	15845	0	756
20.519	24.991	15939	15832	0	756
21.709	26.794	15857	15781	0	756
23.873	26.758	15812	15829	0	756
24.017	27.371	15783	15962	0	756
23.512	28.237	15701	15988	0	756
23.476	32.672	15567	15858	0	756
21.818	35.088	15471	15705	0	756
18.897	35.990	15344	15619	0	756
18.175	34.439	15255	15591	0	756
17.202	30.833	15159	15594	0	756
23.368	30.869	15084	15613	0	756
34.547	38.009	14988	15629	0	756
47.854	48.503	14899	15648	0	756
60.873	58.312	14847	15692	0	756
63.649	65.164	14772	15778	0	756
64.587	63.433	14728	15880	0	756
63.469	60.512	14653	15934	0	756
65.417	58.529	14542	15911	0	756
71.006	61.414	14445	15826	0	756
77.642	65.741	14327	15746	0	756
79.805	67.761	14245	15734	0	756
82.077	68.842	14148	15765	0	756
86.296	68.410	14074	15807	0	756
92.283	69.455	14000	15832	0	756
102.092	70.646	13873	15800	0	756
110.819	76.848	13769	15724	0	756
115.831	78.002	13650	15677	0	756
117.670	79.625	13561	15689	0	756
120.988	78.904	13472	15708	0	756
122.539	78.723	13324	15664	0	756
124.089	80.058	13212	15562	0	756
124.198	81.103	13078	15499	0	756
123.224	81.284	12967	15508	0	756
121.060	81.680	12885	15578	0	756
119.654	80.454	12811	15670	0	756
123.152	79.048	12729	15762	0	756
123.116	78.074	12685	15873	0	756
125.640	77.209	12633	16032	0	756
123.801	74.901	12618	16216	0	756
123.044	74.360	12588	16387	0	756
119.437	75.009	12573	16520	0	756
117.923	77.389	12543	16612	0	756
116.516	75.983	12506	16691	0	756
113.631	74.432	12499	16784	0	756
109.881	72.521	12499	16898	0	756
103.137	67.652	12477	16993	0	756
98.846	61.161	12439	16990	0	756
95.492	58.781	12365	16872	0	756
95.456	59.178	12283	16720	0	756
94.951	59.574	12202	16593	0	756
90.299	62.423	12127	16504	0	756
86.837	63.433	12061	16450	0	756
80.130	61.450	12001	16412	0	756
78.471	57.591	11927	16378	0	756
76.307	57.988	11853	16327	0	756
75.586	57.771	11801	16270	0	756
73.242	57.483	11726	16219	0	756
71.691	56.690	11667	16200	0	756
68.410	56.942	11615	16223	0	756
65.633	52.542	11578	16251	0	756
64.082	50.523	11555	16305	0	756
62.928	49.621	11555	16406	0	756
62.928	49.874	11555	16536	0	756
67.688	53.336	11555	16657	0	756
70.609	55.247	11585	16787	0	756
73.170	56.906	11615	16933	0	756
75.153	56.545	11689	17120	0	756
72.485	53.336	11793	17377	0	756
67.256	50.739	11927	17701	0	756
59.394	45.258	12090	18050	0	756
53.191	40.173	12276	18406	0	756
48.684	38.947	12499	18761	0	756
48.972	38.406	12737	19130	0	756
47.241	38.370	13019	19526	0	756
46.304	36.098	13316	19923	0	756
42.697	31.302	13636	20295	0	756
36.387	28.777	13955	20625	0	756
34.908	27.948	14282	20872	0	756
32.384	30.689	14624	21063	0	756
31.482	30.508	15003	21310	0	756
27.479	29.679	15396	21571	0	756
24.270	26.830	15708	21644	0	756
19.149	26.253	15991	21479	0	756
15.398	24.306	16288	21279	0	756
11.179	22.899	16606	21171	0	756
7.032	20.447	16948	21136	0	756
5.049	17.382	17297	21133	1	768
6.744	18.933	17669	21126	0	768
8.907	21.024	18033	21079	0	768
13.812	24.883	18397	20984	0	768
16.408	27.479	18739	20847	0	768
15.903	25.784	19095	20695	0	768
16.949	25.027	19430	20530	0	768
13.415	23.224	19749	20314	0	768
7.970	17.815	20061	20060	0	768
1.767	17.238	20358	19799	0	768
-0.613	14.100	20655	19530	0	768
2.344	16.264	20923	19231	0	768
7.862	19.329	21138	18876	0	768
10.133	22.791	21331	18437	0	768
5.698	20.916	21488	17920	0	768
-1.803	16.733	21569	17336	0	768
-4.940	12.045	21644	16736	0	768
-2.993	13.631	21710	16197	0	768
4.111	17.670	21770	15750	0	768
7.898	23.585	21829	15362	0	768
7.140	24.053	21859	14969	0	768
1.623	20.123	21852	14546	0	768
-4.796	14.749	21844	14159	0	768
-6.058	11.396	21822	13851	0	768
-5.662	11.107	21807	13623	0	768
-3.787	11.576	21792	13435	0	768
-3.823	11.900	21770	13267	0	768
-4.039	8.655	21696	13080	0	768
-5.193	9.376	21592	12832	0	768
-3.210	10.530	21480	12578	0	768
0.541	13.812	21413	12458	0	768
5.121	19.942	21339	12492	0	768
6.455	21.673	21294	12600	0	768
4.327	23.368	21265	12734	0	768
-0.325	21.204	21213	12892	0	768
-4.760	20.014	21183	13067	0	768
-6.671	21.421	21138	13229	0	768
-3.787	22.142	21086	13372	0	768
-0.469	25.135	21012	13489	0	768
-0.216	25.748	20953	13581	0	768
-3.318	21.781	20878	13664	0	768
-9.412	19.437	20774	13759	0	768
-11.396	16.228	20715	13877	0	768
-10.278	17.634	20655	14029	0	768
-6.960	17.923	20566	14172	0	768
-6.563	18.103	20485	14273	0	768
-7.645	15.146	20433	14391	0	768
-8.979	14.930	20343	14556	0	768
-7.573	14.713	20291	14715	0	768
-2.849	18.752	20210	14829	0	768
0.252	20.087	20113	14896	0	768
-1.695	19.437	20031	14950	0	768
-8.619	13.631	19927	15023	0	768
-13.307	12.009	19860	15127	0	768
-10.855	12.910	19801	15254	0	768
-8.763	14.894	19704	15343	0	768
-5.229	17.382	19600	15384	0	768
-9.160	13.343	19526	15429	0	768
-14.569	8.763	19444	15486	0	768
-18.139	5.481	19340	15537	0	768
-12.730	8.294	19244	15569	0	768
-4.400	14.425	19155	15597	0	768
-0.036	21.493	19073	15642	0	768
-1.515	21.421	18984	15696	0	768
-5.481	19.546	18924	15772	0	768
-7.753	18.464	18887	15931	0	768
-4.364	19.473	18872	16159	0	768
6.022	26.001	18872	16378	0	768
10.710	32.276	18850	16530	0	768
13.595	34.764	18805	16599	0	768
10.422	33.466	18761	16622	0	768
7.285	29.823	18724	16634	0	768
7.321	28.597	18664	16628	0	768
8.439	28.020	18575	16568	0	768
6.671	27.948	18486	16466	0	768
0.325	21.781	18404	16381	0	768
-5.265	16.192	18337	16350	0	768
-9.052	9.448	18315	16406	0	768
-7.465	9.052	18293	16514	0	768
-5.626	9.773	18263	16612	0	768
-9.232	9.412	18263	16676	0	768
-15.218	4.327	18211	16691	0	768
-21.781	1.479	18152	16637	0	768
-21.962	-1.226	18077	16520	0	768
-20.339	2.596	17988	16403	0	768
-17.021	5.698	17929	16331	0	768
-18.897	7.104	17840	16270	0	768
-22.250	4.940	17743	16159	0	768
-24.955	3.895	17632	15991	0	768
-25.676	5.301	17520	15851	0	768
-23.801	7.898	17431	15781	0	768
-19.401	14.713	17334	15753	0	768
-15.867	17.851	17245	15727	0	768
-12.982	20.123	17149	15677	0	768
-10.458	17.093	17060	15629	0	768
-9.520	16.480	16963	15613	0	768
-9.412	14.461	16889	15638	0	768
-9.989	15.759	16807	15677	0	768
-14.858	15.398	16733	15692	0	768
-17.274	13.631	16629	15683	0	768
-19.978	13.884	16540	15670	0	768
-16.589	11.900	16473	15689	0	768
-13.740	13.704	16406	15753	0	768
-10.927	13.307	16347	15848	0	768
-11.720	11.179	16310	15956	0	768
-18.644	7.501	16273	16067	0	768
-22.034	5.950	16258	16181	0	768
-25.171	5.481	16214	16289	0	768
-23.909	8.475	16184	16384	0	768
-18.860	9.809	16162	16466	0	768
-15.831	14.605	16124	16539	0	768
-13.271	13.704	16110	16584	0	768
-15.218	17.238	16080	16637	0	768
-18.031	16.877	16102	16761	0	768
-20.700	19.257	16117	16930	0	768
-20.772	18.572	16139	17034	0	768
-21.818	18.969	16087	17009	0	768
-18.788	17.490	16043	16898	0	768
-17.166	20.988	15991	16755	0	768
-12.550	22.827	15894	16606	0	768
-11.612	28.309	15827	16476	0	768
-10.710	31.122	15731	16343	0	768
-10.350	32.239	15634	16169	0	768
-11.215	31.230	15515	15972	0	768
-9.556	32.384	15411	15826	0	768
-4.940	33.970	15330	15762	0	768
-1.262	36.062	15248	15737	0	768
-0.577	36.026	15151	15686	0	768
-3.895	30.869	15040	15604	0	768
-11.900	22.286	14951	15524	0	768
-22.358	14.966	14824	15470	0	768
-24.955	12.766	14735	15423	0	768
-21.060	18.536	14594	15356	0	768
-19.221	22.106	14490	15280	0	768
-20.339	20.555	14356	15213	0	768
-30.004	11.612	14208	15115	0	768
-37.396	2.741	14044	14994	0	768
-36.242	3.426	13918	14911	0	768
-25.568	11.107	13762	14880	0	768
-12.333	20.700	13613	14861	0	768
-7.537	25.748	13450	14804	0	768
-11.540	21.241	13294	14743	0	768
-15.002	17.454	13145	14746	0	768
-18.536	14.425	12982	14762	0	768
-14.353	17.995	12818	14731	0	768
-10.746	18.320	12685	14737	0	768
-9.448	20.844	12536	14807	0	768
-8.979	24.450	12425	14915	0	768
-9.124	28.273	12313	15061	0	768
-4.760	34.620	12239	15261	0	768
-0.649	39.993	12165	15483	0	768
1.370	41.543	12098	15686	0	768
0.649	38.803	12023	15842	0	768
-3.750	36.783	11905	15889	0	768
-8.186	32.780	11793	15864	0	768
-9.124	26.325	11697	15911	0	768
-11.035	25.243	11622	16045	0	768
-11.323	25.676	11533	16146	0	768
-8.907	30.076	11444	16175	0	768
-7.825	32.780	11355	16194	0	768
-8.583	34.043	11280	16245	0	768
-7.176	31.302	11206	16327	0	768
-5.662	30.148	11162	16437	0	768
-3.967	33.682	11110	16561	0	768
1.731	39.380	11050	16625	0	768
7.537	45.005	10991	16663	0	768
9.592	49.044	10991	16790	0	768
8.619	48.900	11020	17031	0	768
7.176	49.982	11065	17298	0	768
6.708	53.047	11102	17514	0	768
6.635	53.228	11139	17663	0	768
7.068	57.916	11184	17777	0	768
6.275	58.817	11236	17882	0	768
4.977	57.591	11288	17993	0	768
3.426	55.175	11332	18088	0	768
1.406	48.179	11399	18142	0	768
1.587	44.861	11444	18155	0	768
-0.902	40.822	11481	18152	0	768
-3.065	38.226	11555	18161	0	768
-6.131	35.269	11615	18177	0	768
-10.458	33.213	11682	18161	0	768
-13.199	33.141	11704	18085	0	768
-12.333	34.403	11741	17971	0	768
-13.523	36.495	11756	17834	0	768
-12.946	36.819	11793	17720	0	768
-12.874	32.528	11845	17663	0	768
-14.461	28.345	11845	17555	0	768
-11.756	28.237	11793	17276	0	768
-6.816	29.968	11726	16891	0	768
-4.616	34.944	11622	16523	0	768
-3.931	37.829	11578	16258	0	768
-5.445	37.468	11533	16124	0	768
-6.094	37.396	11496	16054	0	768
-5.157	35.557	11466	15984	0	768
-5.590	34.583	11437	15911	0	768
-4.111	35.954	11399	15861	0	768
-1.983	39.524	11392	15854	0	768
0.649	42.265	11384	15870	0	768
2.200	42.842	11355	15877	0	768
-0.216	41.291	11347	15861	0	768
-4.075	38.983	11325	15864	0	768
-8.583	37.721	11332	15915	0	768
-9.160	40.065	11370	16035	0	768
-5.950	44.104	11429	16245	0	768
-5.337	41.760	11548	16533	0	768
-7.429	35.197	11667	16872	0	768
-12.766	27.948	11845	17234	0	768
-16.228	23.440	12016	17606	0	768
-21.457	21.493	12224	17980	0	768
-21.962	23.729	12439	18358	0	768
-20.375	28.056	12722	18745	0	768
-16.228	29.391	12982	19120	0	768
-13.415	32.276	13249	19447	0	768
-11.179	32.456	13554	19752	0	768
-12.982	29.499	13881	20069	0	768
-18.500	25.496	14245	20425	0	768
-23.152	19.726	14631	20796	0	768
-27.191	12.694	15025	21126	0	768
-27.948	13.704	15434	21384	0	768
-23.332	17.310	15864	21628	0	768
-14.136	26.217	16310	21891	0	768
-6.599	35.665	16762	22123	0	768
-0.938	40.534	17238	22279	0	768
-1.983	39.019	17669	22330	0	768
-4.003	40.426	18063	22234	0	768
-2.669	42.157	18397	21964	0	768
3.390	48.828	18731	21615	0	768
7.465	53.696	19073	21323	0	768
9.556	53.264	19430	21085	1	912
3.029	48.107	19779	20844	0	912
0.397	46.268	20120	20603	0	912
-0.361	46.520	20470	20361	0	912
3.282	51.605	20819	20130	0	912
7.032	56.617	21183	19942	0	912
8.655	57.230	21517	19768	0	912
7.934	55.680	21844	19510	0	912
9.520	55.067	22104	19145	0	912
12.874	55.067	22364	18736	0	912
13.848	59.430	22572	18301	0	912
14.677	62.387	22773	17853	0	912
15.903	67.147	22936	17399	0	912
17.959	70.970	23085	16914	0	912
24.847	73.567	23189	16396	0	912
32.348	75.875	23271	15918	0	912
37.468	77.966	23352	15496	0	912
42.084	83.087	23404	15073	0	912
46.268	86.441	23419	14629	0	912
47.890	88.929	23412	14184	0	912
50.992	86.837	23382	13775	0	912
51.893	82.221	23352	13419	0	912
53.516	80.527	23337	13146	0	912
56.726	80.527	23278	12937	0	912
61.414	82.726	23226	12731	0	912
65.164	86.873	23085	12448	0	912
68.806	87.306	22966	12108	0	912
73.026	90.155	22825	11864	0	912
76.271	91.778	22699	11753	0	912
76.343	92.824	22565	11699	0	912
73.386	87.991	22438	11670	0	912
66.607	82.474	22312	11686	0	912
59.683	75.947	22186	11743	0	912
56.329	72.665	22067	11832	0	912
59.070	72.268	21926	11943	0	912
59.466	72.665	21807	12080	0	912
59.755	74.035	21696	12273	0	912
58.637	70.790	21569	12477	0	912
54.382	67.941	21436	12638	0	912
53.083	65.344	21302	12784	0	912
52.182	61.378	21183	12953	0	912
53.083	61.161	21049	13156	0	912
55.608	62.892	20938	13381	0	912
58.781	65.921	20826	13591	0	912
62.928	65.777	20700	13772	0	912
64.803	62.928	20589	13965	0	912
62.027	60.188	20492	14204	0	912
59.791	58.925	20403	14451	0	912
59.611	60.548	20299	14658	0	912
60.909	63.541	20195	14819	0	912
59.178	59.827	20076	14956	0	912
56.762	52.110	19972	15080	0	912
48.251	44.753	19853	15197	0	912
42.806	41.868	19749	15305	0	912
41.543	45.835	19638	15407	0	912
44.320	49.910	19519	15489	0	912
45.438	52.362	19363	15502	0	912
46.628	52.542	19244	15483	0	912
44.789	48.720	19147	15584	0	912
43.815	46.592	19080	15813	0	912
44.140	43.491	19028	16032	0	912
43.924	43.022	18932	16153	0	912
43.671	42.084	18850	16194	0	912
44.753	46.232	18761	16235	0	912
45.835	50.775	18694	16311	0	912
48.035	53.877	18620	16399	0	912
48.359	55.752	18538	16482	0	912
51.713	54.598	18479	16530	0	912
52.362	55.175	18412	16577	0	912
55.860	57.771	18367	16666	0	912
54.562	55.427	18337	16799	0	912
53.300	53.913	18330	16949	0	912
46.376	46.881	18315	17069	0	912
43.274	42.842	18293	17161	0	912
42.012	41.543	18300	17247	0	912
45.041	46.268	18293	17330	0	912
45.005	47.313	18285	17396	0	912
44.176	45.330	18278	17418	0	912
38.442	37.865	18248	17387	0	912
30.112	30.328	18204	17272	0	912
26.145	27.407	18115	17107	0	912
24.017	28.561	18055	16964	0	912
27.624	32.564	17996	16853	0	912
30.112	34.944	17921	16745	0	912
32.636	33.249	17855	16628	0	912
32.997	30.653	17758	16466	0	912
30.220	29.715	17632	16261	0	912
29.895	29.427	17513	16070	0	912
25.929	27.227	17424	15937	0	912
22.395	24.775	17334	15851	0	912
16.444	20.411	17216	15759	0	912
17.743	22.791	17097	15645	0	912
20.483	28.417	16993	15543	0	912
29.318	37.613	16889	15499	0	912
35.557	40.930	16829	15524	0	912
37.541	40.678	16755	15604	0	912
35.160	34.367	16696	15683	0	912
32.636	32.348	16644	15740	0	912
35.124	33.646	16569	15772	0	912
38.731	36.964	16495	15797	0	912
42.914	43.058	16436	15838	0	912
44.537	42.770	16377	15889	0	912
43.707	39.704	16310	15924	0	912
40.534	33.177	16236	15924	0	912
38.082	26.397	16117	15861	0	912
34.439	24.811	16006	15753	0	912
31.374	22.539	15887	15638	0	912
26.073	23.801	15731	15508	0	912
23.224	21.709	15590	15359	0	912
20.014	16.841	15419	15223	0	912
17.129	13.343	15285	15137	0	912
11.684	8.835	15159	15134	0	912
6.888	5.445	15062	15204	0	912
4.652	5.626	15003	15337	0	912
6.708	7.825	14928	15508	0	912
12.117	13.415	14891	15686	0	912
18.680	17.887	14847	15864	0	912
23.873	20.123	14824	16064	0	912
26.145	17.129	14839	16292	0	912
24.486	14.497	14839	16520	0	912
23.044	11.540	14839	16698	0	912
21.241	11.360	14817	16812	0	912
17.202	12.477	14809	16888	0	912
18.428	14.569	14772	16933	0	912
21.241	21.493	14750	16945	0	912
28.056	25.784	14728	16952	0	912
32.889	29.931	14639	16888	0	912
36.242	29.246	14549	16723	0	912
33.177	25.424	14468	16533	0	912
28.922	20.808	14379	16418	0	912
24.883	24.234	14341	16428	0	912
24.702	28.273	14327	16530	0	912
23.693	30.941	14282	16571	0	912
19.221	28.525	14193	16476	0	912
10.314	18.103	14104	16311	0	912
1.551	7.898	14007	16169	0	912
-6.203	-1.767	13918	16077	0	912
-10.927	-6.563	13821	15972	0	912
-12.261	-10.458	13673	15804	0	912
-17.779	-15.795	13546	15604	0	912
-20.700	-19.942	13413	15454	0	912
-28.597	-24.234	13294	15381	0	912
-35.341	-26.325	13190	15365	0	912
-43.491	-27.155	13101	15381	0	912
-48.684	-29.535	12997	15394	0	912
-50.992	-31.915	12893	15410	0	912
-53.300	-36.134	12833	15458	0	912
-54.490	-40.317	12759	15540	0	912
-58.601	-45.186	12692	15654	0	912
-61.774	-46.268	12625	15765	0	912
-61.089	-46.015	12588	15858	0	912
-56.149	-42.373	12521	15931	0	912
-49.730	-39.488	12447	15991	0	912
-46.087	-38.911	12402	16042	0	912
-46.412	-40.894	12321	16064	0	912
-50.884	-45.222	12246	16051	0	912
-51.785	-44.897	12165	16029	0	912
-51.821	-43.058	12053	15975	0	912
-49.261	-39.452	11942	15883	0	912
-46.123	-36.639	11838	15819	0	912
-47.782	-37.937	11741	15823	0	912
-51.893	-40.822	11682	15877	0	912
-54.670	-47.890	11607	15921	0	912
-58.817	-51.749	11518	15918	0	912
-61.810	-57.555	11444	15943	0	912
-63.686	-58.853	11407	16061	0	912
-64.551	-59.863	11399	16229	0	912
-64.407	-57.050	11370	16390	0	912
-63.830	-52.398	11370	16526	0	912
-60.873	-52.290	11355	16634	0	912
-59.286	-49.585	11355	16749	0	912
-51.749	-48.720	11355	16891	0	912
-45.222	-45.871	11392	17037	0	912
-35.665	-39.704	11422	17177	0	912
-30.184	-31.879	11474	17326	0	912
-28.886	-25.388	11503	17472	0	912
-28.814	-22.827	11555	17571	0	912
-28.850	-21.313	11578	17625	0	912
-27.984	-24.125	11607	17628	0	912
-24.017	-26.253	11622	17593	0	912
-20.772	-24.342	11630	17526	0	912
-13.776	-22.972	11615	17428	0	912
-12.081	-23.260	11607	17301	0	912
-15.723	-24.919	11570	17161	0	912
-23.404	-32.456	11555	17034	0	912
-34.656	-40.173	11533	16936	0	912
-41.399	-42.950	11481	16818	0	912
-45.582	-41.760	11444	16660	0	912
-43.671	-38.839	11407	16530	0	912
-42.625	-37.468	11362	16450	0	912
-42.012	-41.183	11355	16387	0	912
-39.885	-47.061	11318	16327	0	912
-40.281	-51.497	11280	16261	0	912
-41.616	-54.454	11258	16210	0	912
-47.097	-54.237	11243	16207	0	912
-53.011	-54.057	11251	16277	0	912
-53.336	-52.290	11295	16406	0	912
-49.513	-52.506	11332	16552	0	912
-40.606	-49.802	11407	16714	0	912
-34.187	-49.549	11496	16923	0	912
-32.239	-48.503	11630	17193	0	912
-36.567	-50.631	11778	17510	0	912
-41.976	-50.343	11957	17850	0	912
-44.068	-47.962	12179	18209	0	912
-42.409	-45.402	12402	18558	0	912
-38.009	-40.209	12625	18863	0	912
-30.328	-34.043	12856	19133	0	912
-24.594	-30.797	13145	19434	0	912
-21.060	-29.174	13472	19796	0	912
-19.978	-29.391	13814	20187	0	912
-26.217	-32.384	14171	20536	0	912
-30.869	-37.144	14542	20828	0	912
-35.521	-40.966	14928	21104	0	912
-36.423	-43.599	15337	21384	0	912
-36.098	-46.845	15753	21634	0	912
-37.216	-49.802	16184	21837	0	912
-43.130	-56.257	16614	21961	0	912
-51.136	-63.938	17030	22025	0	912
-54.021	-67.400	17446	22041	0	912
-57.555	-68.193	17847	21996	0	912
-58.420	-67.833	18248	21885	0	912
-61.486	-67.941	18657	21764	0	912
-69.600	-70.898	19058	21644	0	912
-73.494	-74.865	19444	21482	1	892
-70.213	-75.081	19838	21269	0	892
-60.945	-70.465	20187	21018	0	892
-50.343	-64.371	20522	20710	0	892
-47.494	-61.558	20826	20330	0	892
-47.710	-60.765	21071	19853	0	892
-51.893	-62.712	21309	19304	0	892
-48.287	-60.512	21488	18745	0	892
-38.731	-55.463	21673	18209	0	892
-28.381	-49.225	21844	17695	0	892
-21.024	-42.697	21970	17215	0	892
-22.106	-41.940	22104	16723	0	892
-25.243	-42.553	22178	16200	0	892
-27.587	-45.150	22238	15673	0	892
-27.624	-44.789	22268	15178	0	892
-26.938	-45.907	22275	14689	0	892
-27.660	-47.061	22230	14191	0	892
-32.853	-50.126	22193	13708	0	892
-39.235	-51.316	22119	13286	0	892
-44.609	-53.228	22082	12962	0	892
-43.238	-51.497	22045	12769	0	892
-40.606	-52.038	22015	12667	0	892
-39.524	-53.119	21978	12581	0	892
-41.976	-58.493	21933	12508	0	892
-45.546	-61.738	21881	12483	0	892
-48.071	-63.036	21852	12518	0	892
-46.881	-61.955	21807	12591	0	892
-45.979	-63.794	21770	12677	0	892
-53.155	-65.272	21718	12759	0	892
-65.200	-67.941	21644	12823	0	892
-75.153	-67.292	21532	12819	0	892
-75.334	-60.728	21413	12762	0	892
-67.761	-53.264	21287	12718	0	892
-54.598	-46.809	21123	12699	0	892
-48.648	-43.130	20997	12702	0	892
-44.969	-41.796	20841	12727	0	892
-42.517	-38.586	20678	12759	0	892
-39.416	-35.593	20544	12826	0	892
-37.072	-32.925	20418	12956	0	892
-38.875	-34.836	20284	13134	0	892
-44.320	-40.426	20150	13305	0	892
-48.179	-46.881	20031	13448	0	892
-51.497	-51.064	19920	13623	0	892
-49.766	-52.687	19816	13867	0	892
-46.340	-49.730	19771	14184	0	892
-46.628	-49.405	19704	14521	0	892
-44.104	-47.494	19652	14804	0	892
-42.914	-47.818	19586	15023	0	892
-39.849	-44.356	19504	15207	0	892
-36.783	-41.219	19415	15346	0	892
-34.006	-39.632	19318	15438	0	892
-32.095	-38.731	19222	15521	0	892
-33.970	-38.875	19132	15623	0	892
-31.410	-41.580	19028	15696	0	892
-29.354	-38.550	18910	15696	0	892
-24.378	-34.800	18776	15658	0	892
-19.762	-28.237	18657	15658	0	892
-16.228	-22.935	18553	15711	0	892
-16.516	-17.562	18449	15784	0	892
-13.199	-16.264	18330	15813	0	892
-12.081	-14.208	18211	15804	0	892
-9.448	-13.235	18129	15848	0	892
-5.265	-12.658	18070	15978	0	892
-3.282	-12.261	18018	16162	0	892
-3.246	-16.516	17988	16343	0	892
-4.436	-17.779	17944	16495	0	892
-8.294	-20.808	17929	16650	0	892
-13.451	-19.978	17914	16809	0	892
-15.759	-22.719	17929	16984	0	892
-20.952	-26.037	17944	17171	0	892
-23.152	-29.931	17959	17330	0	892
-24.486	-32.744	17966	17441	0	892
-25.135	-31.230	17996	17530	0	892
-22.286	-28.273	18003	17615	0	892
-21.637	-28.128	18033	17698	0	892
-23.512	-28.056	18040	17733	0	892
-21.998	-31.230	18033	17676	0	892
-20.050	-28.525	17966	17510	0	892
-14.389	-22.575	17907	17282	0	892
-9.665	-16.625	17810	17037	0	892
-7.465	-10.746	17728	16815	0	892
-9.737	-9.845	17661	16641	0	892
-11.396	-10.999	17572	16498	0	892
-9.953	-9.773	17476	16337	0	892
-4.039	-6.239	17394	16165	0	892
1.767	-1.262	17327	16083	0	892
6.635	0.397	17290	16118	0	892
7.717	0.108	17275	16181	0	892
5.337	-2.056	17223	16200	0	892
3.498	-2.128	17171	16172	0	892
4.003	0.216	17141	16140	0	892
6.203	3.354	17074	16127	0	892
8.871	4.832	17052	16146	0	892
10.386	4.616	17022	16181	0	892
11.468	4.436	16948	16150	0	892
12.297	4.544	16837	15975	0	892
11.540	5.698	16703	15731	0	892
9.160	6.635	16606	15588	0	892
10.710	8.727	16532	15572	0	892
14.966	10.927	16443	15591	0	892
19.510	11.504	16377	15594	0	892
24.702	13.018	16288	15569	0	892
21.024	8.763	16199	15518	0	892
12.622	5.734	16102	15467	0	892
5.121	4.724	15976	15416	0	892
3.750	5.662	15887	15378	0	892
6.888	11.143	15768	15350	0	892
9.052	14.533	15656	15292	0	892
7.176	12.910	15523	15204	0	892
4.760	11.720	15396	15153	0	892
3.787	10.638	15292	15172	0	892
7.104	12.081	15188	15229	0	892
13.740	17.815	15077	15258	0	892
15.651	19.041	14951	15235	0	892
14.172	19.149	14839	15207	0	892
9.881	14.281	14728	15232	0	892
6.780	14.064	14639	15308	0	892
5.734	13.451	14542	15404	0	892
2.164	10.746	14453	15489	0	892
-4.688	7.501	14371	15584	0	892
-11.900	0.649	14319	15718	0	892
-16.228	-7.068	14267	15880	0	892
-14.533	-10.206	14230	16048	0	892
-11.504	-11.792	14185	16188	0	892
-7.465	-9.629	14141	16289	0	892
-6.455	-7.537	14096	16362	0	892
-5.590	-4.147	14037	16422	0	892
-3.534	-1.659	13985	16463	0	892
1.767	0.902	13888	16444	0	892
4.400	1.118	13784	16337	0	892
4.688	1.406	13658	16172	0	892
1.947	0.252	13509	15978	0	892
-0.216	0.974	13353	15788	0	892
-0.397	1.695	13212	15645	0	892
1.911	4.111	13093	15591	0	892
4.003	4.688	12997	15629	0	892
3.642	2.128	12915	15705	0	892
-2.488	-2.092	12833	15762	0	892
-9.088	-6.239	12759	15832	0	892
-13.884	-8.366	12700	15946	0	892
-17.310	-9.484	12670	16086	0	892
-14.858	-8.871	12625	16216	0	892
-14.389	-8.979	12581	16324	0	892
-11.215	-8.511	12551	16409	0	892
-8.691	-11.396	12499	16479	0	892
-6.924	-11.612	12439	16498	0	892
-7.573	-11.540	12373	16479	0	892
-7.753	-10.638	12321	16466	0	892
-8.439	-5.878	12261	16479	0	892
-8.439	-1.515	12209	16510	0	892
-5.914	-0.757	12165	16539	0	892
-2.921	-1.695	12113	16555	0	892
0.108	-2.308	12068	16558	0	892
2.885	-0.902	12023	16549	0	892
4.796	2.380	11957	16517	0	892
2.993	4.472	11882	16469	0	892
-0.216	3.426	11838	16418	0	892
-2.993	1.010	11763	16384	0	892
-1.875	0.541	11726	16381	0	892
2.813	2.993	11667	16406	0	892
7.934	7.248	11645	16441	0	892
11.720	7.753	11607	16466	0	892
10.314	5.950	11607	16536	0	892
6.708	2.596	11607	16666	0	892
3.678	0.685	11622	16799	0	892
2.128	2.921	11622	16895	0	892
1.262	4.327	11630	16936	0	892
-0.433	3.895	11615	16942	0	892
-0.757	3.029	11615	16942	0	892
-1.695	1.262	11615	16968	0	892
0.361	2.669	11622	17003	0	892
2.056	1.947	11622	17018	0	892
2.741	3.101	11622	16999	0	892
-1.262	-2.128	11607	16971	0	892
-8.547	-5.914	11622	16949	0	892
-12.622	-9.232	11622	16942	0	892
-13.704	-6.780	11630	16936	0	892
-12.045	-2.633	11622	16914	0	892
-8.222	0.685	11622	16879	0	892
-4.255	-0.974	11607	16825	0	892
-5.950	-4.075	11593	16755	0	892
-5.842	-8.979	11593	16739	0	892
-7.573	-10.999	11630	16796	0	892
-7.645	-7.609	11652	16860	0	892
-5.517	-3.246	11667	16866	0	892
-0.721	1.262	11659	16809	0	892
4.580	4.147	11667	16742	0	892
8.294	5.986	11652	16688	0	892
7.717	5.013	11652	16631	0	892
8.114	3.714	11630	16574	0	892
7.248	2.416	11652	16545	0	892
6.924	1.334	11667	16596	0	892
0.974	-2.633	11763	16749	0	892
-8.222	-8.547	11875	17022	0	892
-17.887	-15.471	12038	17371	0	892
-25.640	-20.375	12217	17736	0	892
-24.053	-21.673	12439	18104	0	892
-18.572	-20.267	12685	18517	0	892
-13.704	-15.290	12982	18971	0	892
-8.619	-11.360	13316	19444	0	892
-5.157	-7.104	13665	19910	0	892
-3.859	-3.931	14000	20310	0	892
-5.157	-5.734	14341	20603	0	892
-9.809	-10.638	14691	20809	0	892
-17.670	-18.247	15032	20961	0	892
-22.395	-21.926	15396	21120	0	892
-23.044	-21.745	15775	21301	0	892
-21.854	-14.389	16139	21425	0	892
-14.425	-9.520	16495	21437	0	892
-10.314	-2.741	16844	21399	0	892
-8.619	0.793	17253	21431	0	892
-7.429	2.849	17669	21514	0	892
-7.573	6.239	18092	21564	0	892
-6.635	8.727	18501	21552	0	892
0.144	14.172	18880	21460	0	892
9.160	17.274	19259	21288	1	860
17.274	18.464	19623	21095	0	860
18.175	19.437	20009	20926	0	860
14.785	18.572	20366	20745	0	860
11.107	16.733	20693	20466	0	860
9.124	21.204	20990	20082	0	860
9.592	22.503	21257	19660	0	860
12.261	23.404	21495	19231	0	860
5.337	16.877	21733	18796	0	860
-2.308	10.494	21926	18336	0	860
-10.350	3.137	22104	17853	0	860
-12.189	0.361	22223	17333	0	860
-14.533	1.515	22297	16745	0	860
-14.966	0.685	22372	16137	0	860
-16.048	-1.803	22424	15638	0	860
-17.923	-5.157	22513	15280	0	860
-13.559	-5.662	22557	14946	0	860
-7.429	-1.587	22594	14559	0	860
-0.469	4.688	22557	14127	0	860
2.308	7.934	22513	13702	0	860
1.442	6.708	22453	13315	0	860
0.433	3.498	22372	12965	0	860
-1.010	0.288	22268	12626	0	860
