neuroNicle FX2
D3F25R12
Bluetooth SPP
2023년 11월 23일 목요일
오후 2:01
time interval = 4msec
EEG1	EEG2	PPG	sdPPG	pulse	peak_interval(msec)
-15.507	8.006	19784	16962	0	632
-10.710	12.694	20384	17268	0	632
-8.907	19.942	20784	17710	0	632
-13.776	22.178	20784	17914	0	632
-23.080	14.064	21384	17880	0	632
-31.699	0.649	21384	17676	0	632
-35.016	-7.681	20784	17336	0	632
-29.715	-6.094	21384	16894	0	632
-22.358	2.849	20384	16384	0	632
-15.579	15.038	19784	15840	0	632
-12.766	19.582	19784	15364	0	632
-7.321	17.346	19384	14922	0	632
-1.118	15.579	18784	14514	0	632
7.717	21.385	18384	14106	0	632
16.264	35.341	17784	13799	0	632
18.644	48.684	16784	13493	0	632
16.300	50.054	16384	13221	0	632
10.783	35.485	15984	13119	0	632
4.436	14.461	15984	13391	0	632
2.236	-1.479	15984	13833	0	632
1.659	-2.164	15384	14174	0	632
-0.613	9.629	15384	14310	0	632
-2.921	25.460	15384	14650	0	632
-3.354	36.242	15384	15160	0	632
5.157	41.688	15384	15568	0	632
17.310	45.330	15984	15908	0	632
25.893	45.655	15984	16384	0	632
22.683	44.717	16384	17030	0	632
12.225	38.045	16384	17404	0	632
2.596	26.181	16784	17506	0	632
3.678	16.408	16784	17472	0	632
13.668	16.300	16384	17370	0	632
19.365	26.145	16384	17166	0	632
19.329	37.541	16384	16928	0	632
15.290	45.402	15984	16656	0	632
15.723	42.301	15384	16384	0	632
24.991	33.429	14984	16010	0	632
37.072	28.417	14384	15636	0	632
43.743	31.230	13984	15296	0	632
43.058	42.806	13384	15024	0	632
36.459	53.696	12984	14820	0	632
31.771	57.375	12384	14650	0	632
32.672	51.208	11984	14582	0	632
38.226	36.495	12984	14854	0	632
43.635	26.289	12384	15398	0	632
44.428	25.279	12384	15840	0	632
39.921	32.023	12384	16112	0	632
32.492	43.166	12984	16588	0	632
27.587	51.569	13384	17370	0	632
27.119	51.857	13984	18050	0	632
30.941	45.582	14384	18594	0	632
33.862	34.223	15984	19207	0	632
33.393	22.935	16384	19921	0	632
30.508	15.939	17384	20363	0	632
29.210	17.057	17784	20397	0	632
33.357	27.551	17384	20227	0	632
42.878	42.445	17384	19853	0	632
52.326	52.506	17784	19411	0	632
55.355	50.451	17784	18935	0	632
52.542	38.514	17784	18492	1	636
43.058	23.296	17784	18084	0	636
37.937	16.733	17384	17642	0	636
35.918	22.791	17384	17166	0	636
37.000	34.620	16784	16588	0	636
38.154	39.885	16384	16044	0	636
37.036	33.321	16384	15500	0	636
34.223	21.385	15984	15058	0	636
30.472	10.206	15384	14718	0	636
26.181	5.842	14984	14446	0	636
22.034	9.809	14984	14276	0	636
19.077	14.461	14384	14174	0	636
20.736	19.510	14384	14242	0	636
26.542	21.601	14384	14582	0	636
33.285	23.152	14384	15160	0	636
37.288	23.729	15384	15534	0	636
36.242	24.486	15384	15772	0	636
30.581	28.777	15984	16214	0	636
25.820	31.699	16384	16758	0	636
27.083	30.905	16384	17132	0	636
29.643	24.306	16784	17166	0	636
28.958	12.658	16784	17200	0	636
23.801	3.354	17384	17472	0	636
16.120	1.334	17784	17914	0	636
11.792	6.094	18384	18152	0	636
16.661	13.415	17784	18152	0	636
21.709	16.805	18384	18050	0	636
22.395	13.018	18384	17846	0	636
15.326	5.806	18384	17506	0	636
7.717	-3.029	17784	17098	0	636
9.592	-4.616	17784	16724	0	636
18.933	-0.577	17784	16384	0	636
27.660	8.727	17384	15976	0	636
26.253	16.769	16784	15500	0	636
15.759	15.543	16384	14990	0	636
-0.613	4.075	15984	14480	0	636
-9.989	-12.514	15384	14072	0	636
-10.169	-24.125	14984	13799	0	636
-6.563	-22.070	14984	13936	0	636
-3.210	-9.917	14984	14344	0	636
-2.596	5.121	14984	14718	0	636
-4.544	12.405	14984	15024	0	636
-2.669	7.645	15384	15534	0	636
0.505	-2.777	15384	16146	0	636
3.678	-13.884	15984	16486	0	636
2.200	-21.529	15984	16724	0	636
-2.705	-21.277	16384	17166	0	636
-9.556	-14.136	16784	17812	0	636
-10.386	-0.793	17384	18186	0	636
-4.977	12.802	17784	18288	0	636
3.895	21.457	17784	18186	0	636
8.763	24.630	17784	18050	0	636
8.330	23.008	17784	17812	0	636
4.472	21.926	17784	17438	0	636
2.019	22.431	17784	16996	0	636
6.852	23.368	17384	16486	0	636
13.884	18.392	16784	16010	0	636
20.519	10.025	16384	15500	0	636
20.844	-0.793	15984	15058	0	636
15.398	-7.862	15384	14786	0	636
9.737	-6.924	15384	14582	0	636
7.357	1.623	14984	14412	0	636
10.097	18.933	14384	14344	0	636
14.713	33.646	14384	14582	0	636
16.012	40.606	14984	15160	0	636
13.992	35.305	14984	15738	0	636
8.186	21.349	15384	16146	0	636
0.649	6.167	15984	16690	0	636
-3.678	-4.075	16384	17404	0	636
-2.452	-5.013	16784	17880	0	636
1.803	-1.803	17384	18118	0	636
6.780	5.265	17784	18492	0	636
10.494	14.749	18784	19003	0	636
10.206	23.945	18784	19275	0	636
9.448	26.758	19384	19139	0	636
10.350	17.995	19384	18798	0	636
15.687	3.246	19384	18356	0	636
23.440	-4.760	19384	17812	0	636
31.482	4.832	18784	17200	0	636
40.750	28.309	18384	16622	0	636
48.828	52.614	18384	16112	0	636
55.211	60.981	17384	15568	0	636
59.502	55.319	16784	15058	0	636
60.476	43.599	16384	14548	0	636
63.794	40.930	15984	14106	0	636
70.718	49.369	15384	13731	0	636
83.844	65.489	14984	13459	0	636
99.495	81.753	14984	13289	0	636
112.622	92.643	14984	13187	0	636
121.132	94.410	13984	13187	0	636
122.899	89.145	13384	13221	0	636
122.755	82.438	12984	13391	0	636
122.395	81.212	12984	13902	0	636
123.909	90.804	13384	14616	0	636
126.109	105.806	13384	15194	0	636
132.348	120.483	13384	15602	0	636
136.134	126.073	13984	16180	0	636
140.209	125.856	13984	16792	0	636
143.130	121.421	14984	17268	0	636
145.618	116.913	15384	17642	0	636
148.287	117.021	15984	18220	0	636
152.939	118.175	16384	18935	0	636
154.634	115.254	17384	19411	0	636
153.985	110.783	17384	19513	0	636
148.972	102.633	17784	19343	0	636
142.553	93.869	17784	19003	0	636
135.737	86.621	17784	18560	0	636
128.417	82.438	16784	18084	0	636
121.457	79.697	16784	17574	0	636
115.326	75.766	16384	17098	0	636
111.251	73.278	16384	16690	0	636
111.432	70.646	15984	16350	0	636
113.668	69.347	15984	16010	0	636
116.589	73.098	15384	15738	0	636
123.440	85.467	14984	15500	0	636
139.199	111.792	15384	15296	0	636
169.960	150.703	15384	15194	0	636
211.432	193.509	15384	15398	0	636
252.470	230.076	15384	15840	0	636
275.442	246.087	15384	16180	0	636
272.268	238.911	15984	16350	0	636
249.405	213.415	16384	16724	0	636
222.863	183.015	16784	17472	0	636
199.892	155.716	17784	18254	0	636
184.782	136.351	18384	18662	0	636
167.941	119.257	19384	18969	0	636
145.727	102.741	19384	19309	0	636
123.116	84.890	19784	19411	0	636
105.193	70.105	19784	19173	0	636
93.617	58.781	19784	18662	0	636
83.411	49.116	19784	18016	0	636
68.987	37.252	19784	17302	0	636
48.756	23.512	19384	16622	0	636
31.590	8.583	18384	15976	0	636
21.818	-4.003	18384	15262	0	636
19.870	-14.136	17784	14616	0	636
18.933	-24.883	16784	14106	0	636
11.828	-36.891	16384	13765	0	636
-3.750	-52.290	15984	13561	0	636
-23.188	-65.921	15384	13425	0	636
-37.252	-75.947	15384	13289	0	636
-41.904	-79.553	15384	13289	0	636
-42.950	-80.959	14984	13595	0	636
-47.025	-81.572	15984	14106	0	636
-55.608	-85.251	15384	14548	0	636
-65.705	-90.335	15384	14922	0	636
-67.220	-94.338	15984	15568	0	636
-63.433	-94.771	16384	16316	0	636
-58.168	-93.869	16384	16792	0	636
-55.860	-87.306	16784	17064	0	636
-56.617	-78.832	17384	17438	0	636
-52.326	-70.249	17784	17948	0	636
-43.815	-66.967	17384	18186	0	636
-33.898	-71.583	18384	18186	0	636
-31.482	-80.130	18384	18084	0	636
-37.577	-86.585	17784	17880	0	636
-44.753	-87.342	17784	17608	0	636
-50.234	-81.933	17784	17336	0	636
-49.874	-76.812	17784	16962	0	636
-47.854	-72.557	17384	16588	0	636
-43.996	-68.842	17384	16248	0	636
-42.553	-64.154	16784	15942	0	636
-40.426	-59.466	16384	15670	0	636
-36.026	-53.264	16384	15364	0	636
-31.626	-46.232	15984	15126	0	636
-24.991	-39.019	15984	14990	0	636
-19.762	-33.177	15384	14990	0	636
-16.408	-31.987	15384	15024	0	636
-16.408	-32.816	14984	15024	0	636
-16.805	-32.925	14984	15024	0	636
-16.552	-27.948	14384	15058	0	636
-14.930	-22.539	14384	15058	0	636
-13.956	-20.087	14384	15092	0	636
-11.504	-22.972	14984	15024	0	636
-7.465	-23.044	13984	15024	0	636
1.767	-15.326	14384	15296	0	636
11.612	-0.865	14384	15772	0	636
17.310	8.943	14384	16044	0	636
14.317	5.517	14384	16180	0	636
7.970	-6.383	14384	16418	0	636
3.787	-15.723	14984	16826	0	636
7.753	-10.314	14984	17166	0	636
19.365	10.386	14984	17302	0	636
29.535	31.374	14984	17268	0	636
33.574	39.885	14984	17098	0	636
32.131	31.843	14384	16860	0	636
28.705	18.031	14384	16554	0	636
28.886	13.487	13984	16316	0	636
34.980	22.358	13984	16112	0	636
44.645	34.872	13984	16010	0	636
50.379	40.317	13984	16010	0	636
49.802	31.843	13984	16112	0	636
43.130	20.555	13384	16214	0	636
38.514	19.690	13384	16316	0	636
39.235	33.177	13384	16384	0	636
45.582	46.700	13984	16588	0	636
51.713	51.064	13984	16962	0	636
51.749	39.416	14384	17438	0	636
45.691	24.342	14384	17710	0	636
39.019	18.356	15384	17778	0	636
37.036	25.856	15984	17982	0	636
38.658	38.550	16384	18458	0	636
44.104	49.513	16784	18798	0	636
47.926	53.624	17384	18935	0	636
50.451	52.218	17784	19207	0	636
51.785	49.297	18384	19547	0	636
49.621	44.032	18784	19717	0	636
45.330	38.334	18784	19581	0	636
42.914	34.547	19384	19309	0	636
40.822	36.278	19384	19003	0	636
43.347	42.157	19784	18560	0	636
45.366	46.953	19384	17914	1	844
44.753	46.195	19384	17234	0	844
39.163	41.147	18784	16554	0	844
32.276	37.505	18384	15908	0	844
29.066	42.445	17784	15228	0	844
31.085	51.569	16784	14616	0	844
35.701	59.250	16384	14106	0	844
40.462	54.562	15984	13765	0	844
41.868	42.193	15984	13561	0	844
42.878	29.499	15984	13493	0	844
46.051	25.207	15984	13697	0	844
48.215	28.381	15984	14106	0	844
47.746	33.141	15984	14412	0	844
40.714	33.357	15984	14582	0	844
30.797	26.253	16384	14956	0	844
23.657	21.493	16384	15466	0	844
23.368	21.673	16384	15772	0	844
29.174	26.758	16384	15908	0	844
36.387	32.167	16784	16248	0	844
39.885	33.357	17384	16690	0	844
42.337	33.177	17384	17030	0	844
46.592	33.502	17784	17132	0	844
55.788	39.704	17384	17064	0	844
65.489	47.241	17384	16894	0	844
70.682	49.657	16784	16690	0	844
66.426	42.914	16784	16452	0	844
57.519	34.944	16384	16146	0	844
51.749	30.833	15984	15738	0	844
53.985	35.305	15984	15296	0	844
62.315	44.573	14984	14922	0	844
65.092	47.890	14384	14582	0	844
62.279	42.409	14384	14310	0	844
53.552	32.276	13984	14174	0	844
50.126	27.263	13384	14038	0	844
53.300	28.994	12984	13936	0	844
60.079	34.980	12984	13936	0	844
65.200	36.639	12384	14004	0	844
61.269	30.869	11984	14106	0	844
55.752	23.837	11384	14276	0	844
51.352	24.414	11984	14616	0	844
50.523	35.124	11984	15160	0	844
52.182	50.811	11984	15636	0	844
52.001	57.158	12384	16010	0	844
52.362	50.956	12384	16520	0	844
56.221	37.396	12984	17098	0	844
62.495	24.919	12984	17540	0	844
68.229	21.998	13984	17812	0	844
69.203	23.909	13984	18186	0	844
65.957	28.309	14384	18696	0	844
62.063	30.977	14984	19037	0	844
61.522	35.882	15384	19139	0	844
64.695	41.688	15384	19037	0	844
65.849	44.897	15384	18798	0	844
61.882	41.327	15384	18424	0	844
57.663	30.400	14984	18050	0	844
51.388	17.562	14984	17710	0	844
47.422	7.825	14984	17438	0	844
45.979	5.806	14984	17200	0	844
45.799	13.343	14384	16996	0	844
48.576	27.732	14384	16690	0	844
54.490	42.048	13984	16384	0	844
62.820	48.684	13984	16078	0	844
68.590	43.671	13384	15738	0	844
71.763	33.321	14384	15568	0	844
68.410	21.673	13984	15670	0	844
64.299	20.087	13984	16044	0	844
61.594	25.640	13984	16350	0	844
61.738	34.187	14384	16554	0	844
65.056	41.291	14984	17030	0	844
67.580	47.169	15984	17880	0	844
71.259	52.398	16384	18730	0	844
76.163	57.519	17384	19241	0	844
84.133	64.190	18384	19615	0	844
93.942	74.793	18784	19955	0	844
101.839	87.090	19784	20125	0	844
107.393	100.144	19784	19989	0	844
112.117	110.458	20384	19717	0	844
117.815	116.841	20384	19309	0	844
126.722	122.358	20384	18764	0	844
133.574	131.699	20384	18186	1	316
136.423	141.868	20384	17540	0	316
133.321	149.838	19784	16826	0	316
128.453	149.189	19384	16146	0	316
127.912	144.717	19384	15466	0	316
131.410	140.858	18784	14854	0	316
135.233	141.147	17784	14242	0	316
135.701	144.897	17384	13697	0	316
128.489	146.015	16384	13255	0	316
116.336	143.094	15984	12949	0	316
106.455	134.439	15984	12915	0	316
99.062	123.296	15984	13153	0	316
94.230	109.376	15384	13425	0	316
87.270	97.079	15384	13629	0	316
78.543	87.414	15984	14004	0	316
67.256	83.015	16384	14514	0	316
55.175	80.923	16384	14956	0	316
44.392	74.468	16384	15296	0	316
34.187	61.594	16784	15738	0	316
26.037	44.681	17384	16248	0	316
20.808	28.922	16784	16554	0	316
18.031	20.736	16784	16690	0	316
17.238	20.700	16784	16758	0	316
14.389	23.981	17384	16928	0	316
7.321	20.411	17384	17166	0	316
-0.865	7.825	17784	17268	0	316
-7.393	-12.910	17784	17166	0	316
-10.314	-30.833	17784	17030	0	316
-8.294	-37.613	17784	16928	0	316
-6.599	-29.607	17384	16758	0	316
-8.294	-14.136	17384	16486	0	316
-13.740	-4.544	17384	16180	0	316
-22.358	-6.347	16784	15806	0	316
-28.453	-18.644	16384	15398	0	316
-32.420	-35.233	15984	14922	0	316
-33.141	-46.123	14984	14514	0	316
-33.285	-50.487	14384	14140	0	316
-33.141	-52.182	13984	13867	0	316
-31.122	-54.345	13384	13799	0	316
-26.542	-58.348	13384	14004	0	316
-20.231	-63.794	13384	14378	0	316
-16.372	-65.597	13384	14684	0	316
-17.021	-63.902	13384	14854	0	316
-20.087	-59.719	13384	15228	0	316
-21.385	-53.949	13384	15772	0	316
-19.582	-46.123	13384	16214	0	316
-15.182	-39.019	13984	16452	0	316
-13.704	-33.177	13984	16826	0	316
-18.969	-35.341	14384	17370	0	316
-27.804	-43.491	14384	17778	0	316
-33.574	-52.759	14984	17948	0	316
-34.151	-58.312	14984	17914	0	316
-28.381	-57.627	15384	17778	0	316
-22.503	-52.614	15384	17642	0	316
-19.293	-50.847	15384	17540	0	316
-20.772	-49.802	15384	17404	0	316
-19.762	-42.012	14984	17166	0	316
-10.386	-27.155	14984	16894	0	316
3.787	-12.586	14384	16622	0	316
15.615	-8.943	14384	16384	0	316
13.848	-23.044	13984	16282	0	316
-1.659	-42.625	13984	16146	0	316
-16.228	-48.539	13384	15976	0	316
-15.759	-30.833	13384	15908	0	316
6.599	1.875	13384	16044	0	316
38.009	26.758	13384	16282	0	316
58.204	29.787	13984	16452	0	316
52.759	12.441	13984	16622	0	316
31.771	-8.330	14384	16928	0	316
11.828	-19.149	14984	17506	0	316
10.097	-15.326	15384	18084	0	316
21.096	-8.114	15984	18526	0	316
34.620	-5.373	16384	18832	0	316
37.613	-10.566	17384	19139	0	316
31.807	-15.002	17784	19275	0	316
25.820	-13.379	17784	19207	0	316
26.938	-0.505	18384	19003	0	316
35.918	17.454	18384	18628	0	316
47.061	33.321	18384	18118	0	316
57.555	38.406	17784	17574	0	316
63.505	32.997	17384	17132	0	316
67.111	22.178	17384	16690	0	316
65.056	10.097	16784	16316	0	316
60.692	2.236	16784	15908	0	316
53.732	-1.226	16384	15534	0	316
47.422	-0.649	16384	15228	0	316
43.383	3.678	15984	14922	0	316
43.779	9.556	15384	14480	0	316
47.890	14.353	14984	14072	0	316
55.860	12.982	14384	13902	0	316
62.387	6.563	14984	14004	0	316
66.354	1.118	14384	14106	0	316
64.912	4.508	14384	14106	0	316
64.046	19.473	13984	14174	0	316
66.787	39.632	13984	14412	0	316
71.511	51.857	13984	14582	0	316
79.012	50.270	13984	14718	0	316
79.986	39.019	13984	14956	0	316
75.983	26.506	13984	15432	0	316
69.419	20.627	13984	15874	0	316
66.498	22.358	14384	16214	0	316
68.338	26.109	14384	16656	0	316
71.872	27.083	14984	17166	0	316
76.235	28.922	15984	17540	0	316
75.875	30.004	15984	17710	0	316
74.252	32.997	15984	17812	0	316
72.485	35.305	16384	17880	0	316
73.062	32.492	16384	17812	0	316
71.836	25.640	16384	17608	0	316
70.537	18.752	16384	17336	0	316
68.554	17.346	15984	17064	0	316
-0.216	4.003	16384	15398	0	420
0.325	3.282	15984	15296	0	420
4.436	3.029	15984	15160	0	420
10.386	6.852	15384	15058	0	420
15.795	10.963	15384	14990	0	420
20.591	15.687	14984	14956	0	420
20.447	18.283	14384	14888	0	420
16.192	17.995	13984	14820	0	420
11.432	15.254	13984	14752	0	420
5.914	10.638	13384	14752	0	420
0.865	5.157	12984	14820	0	420
-0.144	4.364	12984	14956	0	420
-0.144	5.517	12384	15092	0	420
3.354	8.979	12984	15262	0	420
10.638	11.792	12984	15500	0	420
15.615	11.973	12984	15874	0	420
18.536	10.494	12984	16248	0	420
16.733	10.242	12984	16554	0	420
13.704	11.215	13384	16928	0	420
13.271	14.785	13384	17302	0	420
15.687	16.589	13384	17642	0	420
19.906	16.661	14384	17880	0	420
22.358	14.064	15384	18288	0	420
20.087	11.071	15384	18764	0	420
15.471	7.357	15984	19105	0	420
11.576	7.393	15984	19173	0	420
11.179	8.979	16384	19173	0	420
12.333	12.369	16784	19105	0	420
16.084	16.120	16784	19071	0	420
15.903	18.247	17384	18969	0	420
11.504	17.238	17384	18798	0	420
4.868	12.477	16784	18560	0	420
-1.442	7.285	17384	18254	0	420
-3.931	3.606	17384	17948	0	420
-2.128	0.685	17384	17608	0	420
4.508	0.397	17384	17234	0	420
12.550	1.046	16784	16962	0	420
16.300	4.039	16784	16724	0	420
17.274	11.251	16784	16486	0	420
14.389	17.418	16784	16452	0	420
10.638	22.935	16784	16588	0	420
9.484	20.880	17384	16690	0	420
9.088	14.208	17384	16690	0	420
9.088	7.212	17784	16792	0	420
7.068	3.318	18384	17132	0	420
4.508	2.633	18784	17506	0	420
1.875	3.462	19384	17710	0	420
0.288	5.554	19784	17880	0	420
-0.252	6.419	20384	18084	0	420
1.262	8.258	20784	18118	0	420
4.868	9.160	20784	17880	0	420
7.753	8.042	20384	17506	0	420
8.907	6.527	20384	17064	0	420
5.157	3.750	20384	16554	0	420
0.361	2.236	19784	16010	0	420
-3.570	-0.144	19784	15500	1	316
-4.291	-1.875	19384	14922	0	316
-2.019	-1.298	18384	14412	0	316
0.469	2.524	18384	13970	0	316
2.849	8.871	17384	13697	0	316
6.022	16.228	16784	13527	0	316
11.576	19.329	16784	13425	0	316
17.093	18.680	16384	13425	0	316
20.195	15.038	16384	13527	0	316
19.618	11.576	16384	13799	0	316
15.615	8.691	16384	14208	0	316
11.900	10.422	16384	14582	0	316
13.415	15.254	16384	14854	0	316
14.966	22.791	16384	15228	0	316
15.146	30.328	16784	15738	0	316
11.900	35.449	16784	16180	0	316
9.232	34.259	17384	16452	0	316
15.471	31.338	17384	16792	0	316
30.545	24.811	17784	17132	0	316
47.277	22.755	17784	17302	0	316
54.093	21.241	17784	17302	0	316
45.618	21.709	18384	17268	0	316
27.840	21.529	18384	17370	0	316
14.533	24.089	18784	17540	0	316
13.920	26.397	18784	17574	0	316
23.440	32.348	18784	17506	0	316
33.574	37.324	18784	17404	0	316
37.757	39.704	18784	17302	0	316
33.754	37.757	19384	17234	0	316
26.758	33.646	18784	17132	0	316
21.565	28.201	18784	16996	0	316
16.625	23.224	18384	16724	0	316
12.982	21.962	18384	16452	0	316
12.946	23.765	18384	16214	0	316
16.228	26.109	17784	15942	0	316
22.899	27.515	17784	15602	0	316
26.686	21.241	17384	15228	0	316
19.618	10.602	16784	14888	0	316
4.183	-2.164	16784	14752	0	316
-9.629	-6.311	16384	14752	0	316
-12.441	-0.397	15984	14752	0	316
-1.983	12.477	15984	14684	0	316
11.432	23.404	15984	14820	0	316
16.228	23.945	15984	15092	0	316
10.855	12.802	15984	15262	0	316
2.344	-0.036	15384	15330	0	316
1.479	-7.970	15384	15466	0	316
8.042	-4.760	15384	15738	0	316
14.858	4.616	15384	15942	0	316
12.369	11.900	15384	16010	0	316
2.056	13.559	15384	16010	0	316
-8.258	7.753	15384	16044	0	316
-10.458	-1.262	14984	16112	0	316
-4.580	-6.311	14984	16078	0	316
4.472	-6.167	14384	15976	0	316
8.655	0.144	14384	15840	0	316
6.960	5.085	14384	15704	0	316
1.046	6.347	14384	15636	0	316
-4.760	2.164	13984	15636	0	316
-7.104	-3.642	13984	15738	0	316
-6.563	-5.445	13984	15874	0	316
-3.534	-4.580	13384	15976	0	316
-0.938	-0.325	13384	16112	0	316
0.541	1.767	13984	16418	0	316
0.288	1.334	13984	16860	0	316
0.144	-0.685	13984	17200	0	316
0.685	-3.859	14384	17404	0	316
1.767	-7.753	14984	17744	0	316
2.019	-11.360	15384	18356	0	316
0.325	-10.746	16384	19003	0	316
-3.750	-7.537	17384	19513	0	316
-6.022	-2.596	17384	19955	0	316
-5.265	-1.082	18384	20363	0	316
-3.354	-2.813	18784	20567	0	316
-0.397	-7.357	19384	20499	0	316
-1.479	-9.845	19784	20363	0	316
-5.806	-10.206	20384	20057	0	316
-9.088	-8.871	20384	19547	0	316
-10.746	-9.953	20384	18866	0	316
-8.583	-12.802	20384	18152	1	316
-8.186	-15.002	20384	17472	0	316
-9.484	-16.552	19384	16758	0	316
-12.225	-16.084	18784	16078	0	316
-14.930	-15.903	18384	15432	0	316
-13.631	-16.156	18384	14922	0	316
-10.278	-14.821	17784	14514	0	316
-6.275	-12.369	17384	14242	0	316
-1.731	-9.917	17384	14038	0	316
0.902	-7.537	16784	14004	0	316
1.695	-9.556	16784	14140	0	316
-0.505	-12.694	16784	14344	0	316
-3.967	-15.326	16784	14446	0	316
-7.393	-15.218	16784	14616	0	316
-9.520	-10.999	16784	14854	0	316
-8.655	-6.708	16784	14990	0	316
-7.140	-3.642	16784	14990	0	316
-4.291	-4.039	16784	15160	0	316
0.000	-3.642	16784	15466	0	316
4.760	-3.137	16784	15636	0	316
8.655	1.803	16784	15636	0	316
11.864	7.862	16784	15704	0	316
12.658	9.052	16784	15874	0	316
12.297	8.475	16784	16044	0	316
13.163	6.599	16784	16044	0	316
12.946	7.681	16384	15976	0	316
15.759	15.146	16384	15806	0	316
19.257	23.693	16384	15568	0	316
23.549	27.083	15984	15330	0	316
26.614	23.945	15384	15126	0	316
26.289	17.779	14984	14956	0	316
25.207	14.677	14384	14820	0	316
23.765	20.952	13984	14718	0	316
23.909	31.302	13984	14616	0	316
28.345	40.534	13384	14548	0	316
33.646	42.084	12984	14582	0	316
38.803	38.226	12984	14718	0	316
42.048	31.518	12384	14922	0	316
38.731	29.138	12384	15296	0	316
33.213	29.787	12984	15738	0	316
29.030	34.836	12984	16112	0	316
29.968	40.714	13384	16384	0	316
36.603	45.078	13384	16792	0	316
43.022	47.025	13984	17302	0	316
45.618	46.556	13984	17744	0	316
44.212	43.671	14384	18050	0	316
40.750	42.445	14984	18322	0	316
39.632	43.419	14984	18628	0	316
40.570	46.664	15384	18730	0	316
41.399	48.467	15384	18662	0	316
41.760	48.323	15384	18492	0	316
42.625	46.700	15984	18254	0	316
43.274	43.779	15984	18016	0	316
43.671	43.238	15984	17778	0	316
44.753	42.373	15984	17540	0	316
44.501	42.373	15984	17336	0	316
43.202	39.163	15984	17132	0	316
38.082	36.170	15384	16928	0	316
33.285	32.961	15384	16724	0	316
28.489	31.085	15384	16520	0	316
29.535	30.400	15384	16384	0	316
35.557	28.273	14984	16350	0	316
38.875	25.424	15384	16384	0	316
36.170	18.680	15384	16554	0	316
29.282	12.874	15984	16860	0	316
23.440	8.583	15984	17064	0	316
23.765	6.563	16384	17234	0	316
26.325	4.724	16784	17438	0	316
26.650	2.416	16784	17710	0	316
20.808	-0.649	17384	17846	0	316
12.117	-0.757	17784	17846	0	316
8.439	1.659	17784	17846	0	316
10.855	5.229	17784	17778	0	316
15.939	8.691	18384	17608	0	316
19.329	6.780	17784	17234	0	316
17.959	2.885	17784	16860	0	316
12.694	0.757	17784	16452	0	316
6.311	-1.551	17384	16112	0	316
1.010	-2.092	16784	15840	0	316
0.469	-2.813	16784	15602	0	316
2.560	-2.380	16384	15398	0	316
6.347	-0.036	16384	15296	0	316
8.475	4.364	16384	15194	0	316
7.934	9.629	16384	15092	0	316
5.517	9.268	15984	14990	0	316
6.671	4.904	15984	14922	0	316
8.655	-2.705	15984	14922	0	316
12.297	-7.753	15384	14956	0	316
11.215	-9.052	15384	15024	0	316
6.924	-5.049	15984	15126	0	316
-1.190	-2.596	15984	15194	0	316
-6.708	-0.865	15384	15262	0	316
-9.484	-1.479	15384	15296	0	316
-8.619	-2.777	15984	15364	0	316
-4.760	-3.895	15384	15500	0	316
-0.505	-3.967	15384	15636	0	316
2.272	-8.475	15384	15840	0	316
1.911	-12.658	15384	16146	0	316
-0.865	-17.887	15384	16384	0	316
-2.200	-18.644	15984	16486	0	316
-1.010	-14.245	15984	16758	0	316
2.741	-6.419	16384	17166	0	316
6.960	0.469	16384	17472	0	316
9.881	4.977	16784	17574	0	316
10.855	5.157	16784	17540	0	316
11.648	5.409	16784	17472	0	316
12.910	4.219	16784	17302	0	316
13.415	4.508	16784	17098	0	316
14.533	5.409	16784	16826	0	316
15.110	7.573	16384	16486	0	316
17.670	9.809	16384	16214	0	316
19.726	12.730	15984	15976	0	316
22.431	15.687	15984	15874	0	316
24.450	16.589	15384	15806	0	316
27.371	19.401	15384	15704	0	316
31.302	24.522	15384	15568	0	316
33.682	27.876	14984	15432	0	316
33.574	31.338	14984	15432	0	316
30.581	30.653	14984	15602	0	316
26.217	27.768	14984	15704	0	316
23.260	22.791	14984	15772	0	316
22.286	18.428	14984	16010	0	316
24.847	17.454	14984	16316	0	316
26.470	20.808	14984	16486	0	316
27.696	25.207	15384	16690	0	316
26.650	28.453	15384	17064	0	316
23.909	25.784	15984	17472	0	316
20.195	19.257	16384	17744	0	316
20.050	13.523	16384	17812	0	316
22.503	12.802	16784	17812	0	316
25.929	17.670	16784	17778	0	316
30.292	22.250	16784	17710	0	316
29.499	23.512	16784	17540	0	316
27.047	19.005	16784	17336	0	316
24.125	13.235	16784	17098	0	316
24.162	9.340	16784	16860	0	316
23.693	7.285	16784	16622	0	316
21.385	8.078	16384	16384	0	316
18.067	9.124	16384	16078	0	316
12.730	8.619	15984	15840	0	316
8.907	8.799	15984	15602	0	316
9.629	7.681	15984	15466	0	316
11.360	7.609	15984	15500	0	316
14.785	6.455	15984	15636	0	316
16.480	7.429	15384	15738	0	316
16.120	8.114	15984	15806	0	316
14.605	9.448	15984	16010	0	316
9.016	7.140	15984	16316	0	316
5.121	1.947	15984	16452	0	316
2.524	-3.282	16384	16554	0	316
1.262	-6.744	16384	16724	0	316
1.659	-6.708	16784	16996	0	316
1.118	-2.849	16784	17132	0	316
3.246	-0.793	16784	17098	0	316
6.419	1.551	16784	16996	0	316
11.215	3.029	16784	16860	0	316
16.444	6.635	16784	16690	0	316
16.733	8.979	16784	16520	0	316
13.704	10.566	16784	16282	0	316
7.212	9.124	16384	15976	0	316
3.750	7.934	16384	15738	0	316
3.173	6.780	15984	15534	0	316
4.508	7.104	15984	15398	0	316
5.121	5.626	15384	15330	0	316
4.400	1.154	15384	15330	0	316
0.000	-5.193	15384	15398	0	316
-2.560	-10.494	15384	15534	0	316
-2.019	-12.081	15984	15636	0	316
0.649	-10.927	15384	15636	0	316
3.714	-7.393	15384	15602	0	316
4.940	-5.157	15384	15636	0	316
3.895	-6.491	15384	15806	0	316
1.118	-8.943	15384	16044	0	316
-1.731	-11.540	15384	16180	0	316
-3.246	-12.946	15384	16214	0	316
-2.741	-15.038	15384	16350	0	316
-1.226	-16.805	15384	16554	0	316
2.272	-18.247	15984	16758	0	316
7.068	-16.300	15984	16894	0	316
12.009	-10.133	16384	17200	0	316
14.136	-0.721	16784	17574	0	316
15.218	5.013	16784	17880	0	316
13.740	4.580	17384	18050	0	316
12.441	1.695	17384	18118	0	316
12.910	-0.180	17784	18152	0	316
15.687	2.957	17784	18084	0	316
16.841	9.052	18384	17948	0	316
16.048	11.107	18384	17778	0	316
12.009	5.842	18384	17540	0	316
7.609	-4.760	17784	17268	0	316
3.859	-15.074	17784	16962	0	316
3.390	-16.444	17384	16656	0	316
4.616	-10.494	17384	16384	0	316
8.366	0.288	17384	16112	0	316
10.855	9.088	16784	15874	0	316
13.631	14.064	16784	15704	0	316
15.471	13.379	16784	15772	0	316
13.595	9.448	17384	16010	0	316
12.802	7.429	17384	16214	0	316
12.550	4.688	17384	16316	0	316
14.930	5.517	17784	16486	0	316
18.536	6.960	18384	16826	0	316
22.286	8.835	18784	17166	0	316
23.332	9.845	18784	17404	0	316
21.781	8.078	19384	17642	0	316
20.591	7.429	19384	17812	0	316
19.546	6.635	20384	17846	0	316
19.329	8.402	19784	17710	0	316
20.123	10.422	19784	17438	0	316
19.906	11.756	19784	17098	0	316
19.293	12.441	19784	16690	0	316
18.897	9.989	19784	16350	1	844
16.444	8.511	19384	15976	0	844
14.858	7.285	19384	15636	0	844
12.153	7.285	18784	15364	0	844
12.117	7.140	18784	15160	0	844
11.973	7.140	17784	14956	0	844
14.533	9.737	17784	14752	0	844
16.625	13.487	17384	14582	0	844
19.654	20.375	17384	14480	0	844
23.981	28.525	16784	14412	0	844
27.335	33.213	16784	14446	0	844
30.761	34.115	16784	14582	0	844
32.853	31.879	16384	14616	0	844
32.853	29.174	16384	14616	0	844
31.013	24.775	16384	14786	0	844
25.748	21.854	16384	15126	0	844
19.293	16.228	16384	15466	0	844
14.461	11.864	16384	15772	0	844
11.937	9.268	16784	16112	0	844
12.766	10.674	16784	16486	0	844
11.756	12.477	17384	16724	0	844
8.402	9.737	17384	16792	0	844
2.849	4.868	17384	16792	0	844
-1.370	-1.118	17384	16962	0	844
-1.623	-2.993	17784	17234	0	844
0.721	1.406	17784	17472	0	844
3.967	7.681	18384	17540	0	844
4.472	11.756	18384	17506	0	844
2.272	11.973	18384	17370	0	844
-0.072	10.999	18384	17166	0	844
-2.056	9.232	17784	16996	0	844
-1.010	11.360	18384	16792	0	844
2.777	15.002	17784	16622	0	844
7.357	16.444	17384	16486	0	844
9.232	15.543	17384	16350	0	844
9.196	11.323	16784	16112	0	844
6.960	6.563	16784	15874	0	844
5.373	4.291	16384	15636	0	844
7.681	5.481	16384	15500	0	844
10.278	9.088	16384	15500	0	844
13.704	8.943	16384	15636	0	844
15.435	7.537	16384	15738	0	844
14.966	3.678	16384	15772	0	844
15.651	0.144	16384	15908	0	844
16.480	-1.587	16384	16146	0	844
18.392	-0.144	16384	16282	0	844
21.709	4.400	16384	16316	0	844
25.712	12.550	16384	16384	0	844
31.230	18.716	16384	16554	0	844
35.341	21.637	16784	16690	0	844
35.052	17.129	16784	16724	0	844
30.941	7.825	16784	16656	0	844
25.352	0.036	16384	16588	0	844
23.512	-0.216	16384	16486	0	844
26.578	5.445	16384	16452	0	844
32.708	12.514	16384	16384	0	844
37.252	17.310	16384	16350	0	844
35.233	16.516	16384	16384	0	844
31.590	12.586	16384	16452	0	844
25.460	10.025	16384	16554	0	844
24.450	7.825	16384	16554	0	844
23.801	9.160	16384	16486	0	844
24.053	9.232	16384	16384	0	844
22.647	10.674	16384	16282	0	844
21.024	10.674	16384	16316	0	844
19.473	11.215	16384	16418	0	844
19.546	11.179	16384	16486	0	844
22.070	13.163	16384	16554	0	844
23.044	15.579	16784	16758	0	844
23.801	18.644	16784	17166	0	844
24.162	19.510	17384	17574	0	844
24.522	19.401	17784	17744	0	844
25.676	18.752	18384	17914	0	844
28.850	18.752	18384	18050	0	844
32.456	19.654	18784	17982	0	844
34.151	19.726	18784	17744	0	844
36.134	18.680	18384	17336	0	844
36.964	18.644	18384	16894	0	844
37.432	18.716	18384	16452	0	844
39.272	20.159	17784	16112	1	316
39.452	20.231	17384	15772	0	316
38.803	18.897	17384	15466	0	316
36.278	14.461	16784	15194	0	316
33.249	11.360	16784	14922	0	316
32.492	9.016	15984	14718	0	316
33.502	11.107	15984	14514	0	316
35.016	15.074	15384	14378	0	316
35.882	17.057	15384	14310	0	316
33.970	16.985	14984	14344	0	316
32.889	15.795	14984	14548	0	316
35.485	17.057	14984	14820	0	316
39.921	22.863	14984	15058	0	316
43.599	31.266	14984	15194	0	316
44.825	35.449	14384	15398	0	316
41.363	33.393	14984	15670	0	316
36.928	27.047	14984	15942	0	316
34.259	23.260	14984	16146	0	316
32.492	20.627	14984	16384	0	316
31.518	20.447	14984	16758	0	316
29.787	19.077	15384	17030	0	316
30.364	15.759	15384	17132	0	316
30.545	13.668	15384	17268	0	316
32.636	13.884	15984	17472	0	316
34.043	15.831	15984	17506	0	316
33.538	18.175	15984	17404	0	316
31.662	17.887	15384	17234	0	316
29.607	16.336	15384	17030	0	316
28.417	15.543	15384	16826	0	316
31.122	16.444	15384	16656	0	316
36.242	20.772	14984	16486	0	316
41.291	26.037	15384	16384	0	316
43.779	29.535	15384	16282	0	316
43.815	29.931	15384	16180	0	316
42.012	27.551	14984	16112	0	316
40.894	25.748	14984	16044	0	316
45.005	29.643	14384	15908	0	316
48.179	34.620	14384	15806	0	316
51.244	40.317	14384	15806	0	316
50.775	41.111	14384	15976	0	316
46.772	37.324	14384	16248	0	316
41.147	32.239	14384	16486	0	316
36.026	27.299	14384	16656	0	316
31.554	23.512	14984	16792	0	316
28.814	17.887	14984	16928	0	316
24.558	9.845	14984	16996	0	316
21.601	0.505	14984	17030	0	316
17.706	-7.717	15384	17132	0	316
15.831	-11.576	15984	17370	0	316
15.507	-9.881	16384	17506	0	316
18.211	-2.056	16384	17574	0	316
22.791	8.907	16384	17574	0	316
28.309	19.762	16384	17506	0	316
33.466	25.135	16384	17336	0	316
37.505	26.109	16384	17166	0	316
42.734	24.270	16384	16996	0	316
46.700	24.847	16384	16758	0	316
51.352	28.886	16384	16520	0	316
55.031	33.862	15984	16316	0	316
55.319	36.170	15984	16112	0	316
54.273	35.341	15984	15976	0	316
52.578	32.744	15984	15908	0	316
50.270	28.741	15984	15908	0	316
47.566	27.083	15984	16010	0	316
43.419	25.099	15984	16248	0	316
38.514	22.322	16384	16520	0	316
33.466	20.267	16384	16758	0	316
29.463	16.264	16784	16894	0	316
26.614	12.405	16784	17132	0	316
24.089	6.960	17384	17506	0	316
22.142	4.183	17784	17846	0	316
23.801	4.327	18384	18016	0	316
26.974	10.530	18384	18186	0	316
34.079	18.211	18784	18424	0	316
39.776	25.784	19384	18458	0	316
42.337	30.869	19384	18220	0	316
40.498	30.581	19384	17778	0	316
36.314	26.614	19384	17302	0	316
32.564	20.555	19384	16860	0	316
30.436	14.425	18784	16452	1	316
32.023	12.586	18384	16146	0	316
34.511	14.677	18784	15806	0	316
38.298	20.339	18384	15466	0	316
40.498	25.388	17784	15194	0	316
38.947	24.125	17384	14922	0	316
36.134	19.329	16784	14650	0	316
30.833	15.254	16784	14344	0	316
24.342	13.343	16384	14106	0	316
20.195	13.595	15984	13970	0	316
14.966	12.730	15384	13833	0	316
6.671	7.537	15384	13731	0	316
-1.334	-1.190	14984	13663	0	316
-9.773	-5.662	14384	13697	0	316
-14.208	-5.770	14984	13765	0	316
-12.477	-0.252	14984	13867	0	316
-7.032	3.895	13984	14038	0	316
-0.325	4.219	13984	14310	0	316
2.452	3.354	13984	14718	0	316
3.318	1.515	13984	15194	0	316
3.750	0.938	13984	15568	0	316
5.373	4.219	13984	15840	0	316
7.032	7.140	14384	16180	0	316
8.042	11.648	14384	16520	0	316
7.032	14.966	14384	16792	0	316
5.229	19.221	14384	16894	0	316
6.744	21.890	14384	16928	0	316
10.350	24.775	14984	16928	0	316
14.281	24.342	14984	16928	0	316
10.999	19.546	14384	16894	0	316
4.147	12.297	14384	16894	0	316
-3.354	6.239	14384	16792	0	316
-6.852	4.508	13984	16690	0	316
-5.373	8.439	13984	16588	0	316
-1.298	11.360	13984	16588	0	316
-0.036	10.061	13984	16588	0	316
-2.777	5.193	13384	16520	0	316
-5.770	-0.072	13384	16384	0	316
-6.022	-0.361	12984	16316	0	316
-3.498	2.813	13384	16384	0	316
4.508	8.979	14384	16554	0	316
12.441	15.543	13984	16792	0	316
19.149	20.483	13984	17030	0	316
20.772	20.988	14384	17404	0	316
18.788	19.257	14984	17880	0	316
15.110	15.471	15384	18322	0	316
11.323	12.477	15984	18628	0	316
11.900	14.028	16384	18901	0	316
13.631	17.598	16784	19105	0	316
15.651	21.962	16784	19105	0	316
16.841	22.467	17384	18969	0	316
16.985	21.529	17384	18764	0	316
14.317	16.372	17384	18458	0	316
9.881	12.081	17384	18016	0	316
5.301	7.717	17384	17574	0	316
1.479	7.176	17384	17200	0	316
0.685	6.311	16784	16826	0	316
1.803	5.301	16784	16384	0	316
4.796	4.977	16384	15908	0	316
6.491	2.200	16384	15466	0	316
8.439	1.406	15984	15092	0	316
8.727	3.787	15384	14786	0	316
10.710	8.114	15384	14582	0	316
13.848	15.218	14984	14582	0	316
18.824	21.096	14984	14752	0	316
23.044	23.693	14984	14990	0	316
27.948	23.152	14984	15126	0	316
27.984	18.392	14984	15330	0	316
28.128	14.317	15384	15704	0	316
26.614	13.631	15984	16316	0	316
26.866	15.290	16384	16860	0	316
27.840	21.096	16784	17268	0	316
25.316	25.424	17384	17574	0	316
21.998	23.585	17784	17914	0	316
15.435	17.418	17784	18084	0	316
9.701	7.934	18384	18152	0	316
5.842	0.685	18384	18118	0	316
3.534	-0.325	18784	17982	0	316
1.875	0.757	18784	17710	0	316
2.921	1.659	18384	17302	1	316
4.868	0.180	18384	16928	0	316
8.583	-1.515	18384	16622	0	316
11.756	-0.721	17784	16418	0	316
10.746	1.298	17784	16316	0	316
9.556	2.921	17784	16180	0	316
8.222	2.236	17784	15976	0	316
10.819	0.541	17784	15738	0	316
16.552	1.262	17384	15534	0	316
22.575	5.229	17384	15432	0	316
27.119	10.710	17384	15398	0	316
29.391	15.903	17384	15364	0	316
29.607	17.021	16784	15330	0	316
27.984	14.461	16784	15296	0	316
24.991	10.855	16784	15398	0	316
24.234	8.619	17384	15636	0	316
23.657	11.323	17384	15840	0	316
25.496	16.156	17384	16010	0	316
25.532	19.870	17784	16316	0	316
21.637	18.392	18384	16724	0	316
16.336	13.415	18384	17064	0	316
11.432	6.888	18784	17268	0	316
10.963	1.839	19384	17540	0	316
13.884	-1.839	19784	17812	0	316
15.362	-3.606	19384	17846	0	316
13.956	-2.669	19384	17574	0	316
11.035	0.793	19384	17098	0	316
6.996	2.633	18784	16588	0	316
4.075	2.092	18784	16112	0	316
3.931	-1.983	18384	15636	0	316
6.888	-5.734	17784	15228	0	316
11.251	-1.334	17384	14922	0	316
17.490	6.960	17384	14718	0	316
23.873	14.858	16784	14582	0	316
26.470	18.283	16784	14480	0	316
27.010	14.966	16384	14378	0	316
23.765	9.953	15984	14344	0	316
19.978	5.734	15984	14378	0	316
19.221	3.282	15984	14514	0	316
21.168	4.832	15984	14786	0	316
25.496	7.898	15984	15160	0	316
27.299	13.018	15984	15500	0	316
23.621	16.841	15984	15772	0	316
16.156	16.048	15984	16146	0	316
10.133	12.117	16384	16520	0	316
9.592	6.167	16384	16758	0	316
12.189	3.246	16384	16894	0	316
14.785	3.390	16784	17098	0	316
15.218	3.606	16784	17404	0	316
11.396	3.101	17384	17574	0	316
9.016	0.541	17384	17540	0	316
9.629	-1.154	17384	17370	0	316
11.215	-0.433	16784	17132	0	316
16.192	3.101	16784	16894	0	316
20.447	6.022	16784	16656	0	316
20.988	8.619	16384	16486	0	316
18.247	7.212	16384	16350	0	316
13.595	6.347	16384	16214	0	316
10.386	4.724	16384	16044	0	316
11.360	3.354	15984	15772	0	316
17.418	3.137	15384	15534	0	316
22.755	2.633	14984	15330	0	316
24.162	4.111	14984	15194	0	316
20.627	7.753	14384	15160	0	316
16.661	11.215	14384	15296	0	316
14.497	9.845	14384	15534	0	316
15.579	7.140	14384	15704	0	316
16.228	3.101	14384	15874	0	316
16.661	3.246	14384	16112	0	316
14.317	5.878	14384	16418	0	316
13.343	9.845	14984	16656	0	316
12.405	10.206	14984	16758	0	316
13.668	8.042	14984	16928	0	316
13.920	5.698	14984	17200	0	316
16.408	7.970	15984	17370	0	316
19.978	10.494	15984	17404	0	316
21.709	11.035	15984	17336	0	316
21.926	8.619	15984	17370	0	316
17.959	3.354	16384	17506	0	316
13.271	0.361	16384	17506	0	316
11.432	1.839	16384	17370	0	316
12.622	5.914	16384	17234	0	316
16.372	8.943	16384	17098	0	316
19.546	7.789	15984	16894	0	316
21.385	5.229	15984	16622	0	316
20.700	3.462	15984	16418	0	316
18.500	5.481	15384	16282	0	316
16.048	10.566	15384	16180	0	316
15.507	16.084	15384	16044	0	316
18.067	19.113	15384	15942	0	316
21.781	19.726	14984	15806	0	316
27.443	18.572	14384	15568	0	316
27.912	16.120	14384	15432	0	316
25.604	12.117	14384	15534	0	316
21.421	7.537	14384	15874	0	316
16.048	1.983	14984	16146	0	316
14.425	0.144	14984	16282	0	316
15.146	2.380	14984	16418	0	316
17.743	6.996	14984	16656	0	316
20.195	11.900	15384	16826	0	316
20.952	13.307	15384	16962	0	316
20.736	10.025	15984	17234	0	316
18.752	6.563	15984	17608	0	316
17.851	3.318	16384	17846	0	316
16.300	2.669	16384	17846	0	316
15.471	2.524	16784	17710	0	316
15.615	4.544	16784	17506	0	316
15.110	6.491	16784	17268	0	316
15.038	8.907	16384	17030	0	316
14.966	11.071	16384	16792	0	316
15.975	11.504	16384	16520	0	316
18.356	10.999	16384	16282	0	316
22.935	11.540	15984	16112	0	316
26.722	11.323	15984	15908	0	316
29.571	13.487	15984	15738	0	316
29.931	13.235	15384	15636	0	316
27.912	9.773	15384	15534	0	316
25.712	4.183	15384	15432	0	316
22.755	-1.190	15984	15534	0	316
21.781	-4.327	15984	15840	0	316
22.250	-2.308	15984	16112	0	316
24.811	1.767	16384	16316	0	316
25.099	5.950	16384	16588	0	316
25.424	7.717	17384	17132	0	316
24.234	7.681	17784	17744	0	316
22.395	5.842	17784	18186	0	316
23.188	2.993	18784	18594	0	316
23.549	1.947	19384	18969	0	316
22.539	1.839	19784	19105	0	316
22.322	4.760	19784	18969	0	316
20.050	7.357	20384	18594	0	316
20.159	8.979	20384	18118	0	316
22.178	7.357	19784	17574	0	316
23.512	5.049	19784	17030	1	532
26.578	6.527	19384	16588	0	532
27.227	8.042	18784	16180	0	532
28.020	11.540	18784	15806	0	532
27.515	12.550	18384	15466	0	532
26.037	12.550	18384	15160	0	532
21.096	13.740	18384	14922	0	532
18.320	14.172	17784	14650	0	532
16.625	15.831	17384	14310	0	532
21.204	16.120	16784	14004	0	532
29.643	15.471	16784	13970	0	532
37.396	14.245	16784	14140	0	532
40.101	14.641	16384	14378	0	532
35.918	14.497	16384	14582	0	532
29.138	12.333	16784	14888	0	532
25.027	10.602	16784	15296	0	532
24.522	9.592	16784	15636	0	532
27.840	9.629	16784	15840	0	532
30.364	12.261	17384	16112	0	532
29.715	13.343	17384	16384	0	532
23.152	12.153	17384	16520	0	532
19.149	8.006	16784	16520	0	532
16.192	4.364	17384	16418	0	532
17.310	4.183	17384	16316	0	532
20.375	6.563	17384	16180	0	532
23.152	9.629	16784	16078	0	532
22.611	12.586	16784	15942	0	532
21.673	14.425	15984	15806	0	532
22.899	16.625	16384	15602	0	532
23.909	18.175	15984	15364	0	532
23.657	16.841	15384	15092	0	532
21.745	13.091	14984	14820	0	532
17.526	7.140	14984	14616	0	532
15.218	5.517	13984	14480	0	532
16.949	9.412	13384	14344	0	532
23.440	15.435	12984	14242	0	532
29.138	19.365	12384	14140	0	532
33.069	15.939	11984	14140	0	532
31.735	9.412	11984	14276	0	532
24.702	4.255	11384	14650	0	532
19.762	6.924	11984	15092	0	532
16.552	14.641	11984	15466	0	532
18.247	22.286	11984	15806	0	532
22.034	22.791	11984	16248	0	532
23.080	16.769	12384	16724	0	532
22.539	9.845	12384	17132	0	532
22.178	6.780	13384	17370	0	532
24.234	9.953	13384	17642	0	532
27.912	13.235	13384	17982	0	532
29.138	15.182	13984	18288	0	532
28.273	13.956	13984	18424	0	532
25.388	11.504	13984	18492	0	532
25.748	9.845	13984	18458	0	532
28.092	10.097	14384	18390	0	532
30.400	10.242	14384	18288	0	532
28.561	11.071	14384	18118	0	532
27.515	13.379	13984	17914	0	532
27.083	15.218	14384	17676	0	532
30.436	16.589	14384	17506	0	532
35.269	16.877	14384	17404	0	532
37.144	15.471	14384	17302	0	532
33.934	14.208	14384	17234	0	532
28.669	12.225	14384	17268	0	532
21.962	6.347	14984	17336	0	532
19.257	2.056	14984	17506	0	532
20.844	-2.308	15384	17778	0	532
22.575	-1.623	15984	17982	0	532
24.053	1.803	16384	18016	0	532
21.673	2.560	16784	18186	0	532
18.283	-0.938	17384	18594	0	532
15.254	-6.347	17784	18969	0	532
16.408	-8.691	18384	19105	0	532
17.166	-4.291	18784	19105	0	532
18.067	4.688	19384	19139	0	532
16.589	11.648	19784	19105	0	532
16.264	13.054	20384	19003	0	532
17.166	8.330	20384	18832	0	532
18.969	4.832	20784	18560	0	532
19.906	2.921	20784	18152	0	532
22.034	5.193	20784	17676	1	316
23.224	9.592	20784	17132	0	316
25.171	12.081	20384	16554	0	316
27.407	12.946	20384	16010	0	316
27.047	12.658	19784	15432	0	316
26.938	10.097	19384	14956	0	316
25.207	6.491	19384	14514	0	316
24.811	2.921	18784	14140	0	316
23.585	-1.046	18384	13765	0	316
22.358	-2.560	17784	13459	0	316
23.224	-1.262	17384	13221	0	316
24.017	3.137	17384	13085	0	316
23.873	8.511	16784	13017	0	316
23.476	12.333	16384	12983	0	316
19.762	13.740	16384	13051	0	316
17.526	9.268	15984	13289	0	316
17.490	5.301	15984	13697	0	316
20.880	1.875	15984	14072	0	316
23.873	1.551	16384	14480	0	316
26.145	3.967	16384	14922	0	316
26.073	7.645	16384	15330	0	316
26.361	13.271	16384	15636	0	316
28.201	18.933	16784	16010	0	316
31.915	21.962	16784	16384	0	316
35.557	23.621	16784	16520	0	316
37.000	19.654	16784	16452	0	316
35.521	16.012	16784	16384	0	316
33.069	11.792	16384	16282	0	316
31.122	12.297	16384	16214	0	316
30.256	14.172	15984	16044	0	316
30.617	15.795	15984	15874	0	316
31.302	14.172	15384	15704	0	316
28.669	10.783	14984	15534	0	316
25.820	5.013	14984	15432	0	316
23.224	0.829	14384	15398	0	316
23.080	2.272	14384	15398	0	316
28.633	8.475	13984	15398	0	316
35.016	16.697	13984	15398	0	316
39.668	21.818	13384	15432	0	316
37.000	20.880	13384	15602	0	316
29.102	14.100	13384	15840	0	316
19.582	6.311	13984	16010	0	316
13.992	4.291	14384	16146	0	316
16.913	8.943	13984	16384	0	316
27.515	18.175	13984	16826	0	316
38.695	23.512	14384	17268	0	316
46.772	24.702	14384	17608	0	316
46.700	21.601	14984	18016	0	316
43.635	20.519	15384	18492	0	316
40.966	22.395	15984	18866	0	316
42.265	27.047	16384	19037	0	316
45.114	28.922	16384	19003	0	316
47.458	27.407	16784	18866	0	316
44.176	23.152	16784	18696	0	316
42.950	20.555	16784	18526	0	316
42.048	20.447	17384	18322	0	316
45.727	22.286	17384	18152	0	316
48.431	23.945	17384	17982	0	316
48.503	25.099	17384	17778	0	316
47.205	24.919	17384	17506	0	316
43.599	24.125	17384	17200	0	316
42.950	23.801	17384	16894	0	316
42.986	22.358	17384	16622	0	316
43.996	22.539	17384	16486	0	316
45.438	27.371	17384	16588	0	316
47.133	32.023	17784	16826	0	316
49.008	34.583	17384	16928	0	316
46.484	31.266	18384	16826	0	316
43.924	24.342	18384	16860	0	316
40.245	19.041	18384	17132	0	316
39.308	19.942	18784	17472	0	316
39.308	23.981	19384	17642	0	316
39.199	26.722	19784	17744	0	316
37.000	23.332	20384	17812	0	316
33.538	17.418	20384	17778	0	316
31.915	14.028	20384	17540	0	316
32.312	14.064	20384	17166	0	316
31.626	14.136	20384	16724	0	316
30.508	13.415	19784	16282	0	316
26.578	13.307	19384	15874	0	316
23.332	13.018	19384	15466	0	316
21.168	15.471	18784	15058	0	316
21.890	18.824	18784	14616	0	316
24.775	20.591	18384	14310	0	316
30.076	20.664	17784	14038	0	316
34.475	19.401	17384	13799	0	316
35.377	17.057	16784	13595	0	316
32.023	13.091	16784	13459	0	316
25.099	8.294	16384	13527	0	316
20.916	6.563	16384	13765	0	316
18.644	7.789	16384	14072	0	316
20.483	10.422	15984	14276	0	316
22.683	13.559	15984	14378	0	316
23.008	14.317	15984	14582	0	316
23.909	12.694	15984	14854	0	316
23.044	8.258	15384	15024	0	316
21.024	4.508	15384	15160	0	316
19.329	0.685	15384	15432	0	316
15.867	0.252	15984	15874	0	316
12.441	1.839	15984	16248	0	316
11.900	5.554	15984	16452	0	316
11.864	8.439	16384	16826	0	316
15.615	10.855	16384	17302	0	316
19.906	12.225	16784	17676	0	316
27.551	12.477	17384	17880	0	316
32.023	13.487	17384	17982	0	316
34.728	14.821	17384	17914	0	316
34.620	16.012	17384	17744	0	316
32.636	16.552	17384	17438	0	316
29.282	12.441	16784	17166	0	316
24.414	7.862	16784	16894	0	316
17.526	0.397	16784	16622	0	316
12.550	-4.940	16384	16384	0	316
7.357	-8.150	16384	16248	0	316
7.321	-8.799	15984	16078	0	316
8.042	-9.016	15984	15840	0	316
9.052	-5.698	15384	15534	0	316
9.124	-2.236	14984	15296	0	316
11.828	2.849	14984	15296	0	316
14.569	6.419	14984	15432	0	316
19.437	7.862	14984	15534	0	316
23.080	8.763	14384	15602	0	316
25.676	11.612	14984	15840	0	316
28.489	15.723	14984	16248	0	316
31.879	19.654	14984	16588	0	316
34.800	20.411	15384	16826	0	316
35.124	17.418	15384	17132	0	316
33.285	14.389	15984	17506	0	316
32.384	13.740	16384	17778	0	316
33.393	17.129	16384	17880	0	316
36.928	18.680	16784	17982	0	316
40.353	17.634	16784	18050	0	316
39.055	14.677	17384	18084	0	316
37.613	12.189	17384	17982	0	316
36.459	14.497	17384	17812	0	316
38.262	20.123	17384	17574	0	316
39.560	22.647	17384	17336	0	316
39.488	21.385	17384	17132	0	316
33.393	15.831	17384	16894	0	316
26.650	11.684	17384	16588	0	316
21.385	11.828	16784	16316	0	316
19.942	15.074	16384	15942	0	316
20.159	16.625	16384	15636	0	316
22.827	14.713	16384	15534	0	316
23.693	10.278	16384	15602	0	316
24.666	7.393	16384	15636	0	316
26.001	7.753	15984	15568	0	316
24.450	11.828	16384	15636	0	316
21.241	12.730	16384	15908	0	316
18.356	10.530	16384	16112	0	316
16.985	6.996	16384	16180	0	316
17.382	2.993	16384	16316	0	316
20.411	0.974	16784	16452	0	316
22.178	1.298	16784	16656	0	316
22.503	2.705	17384	16826	0	316
21.781	4.436	17384	16996	0	316
23.476	8.294	17784	17234	0	316
24.414	12.946	17784	17472	0	316
26.109	17.093	18384	17472	0	316
27.551	17.923	17784	17200	0	316
25.460	14.245	17784	16894	0	316
21.565	6.455	17784	16656	0	316
13.307	-3.318	17784	16452	0	316
5.770	-10.242	17384	16248	0	316
0.685	-12.910	16784	15976	0	316
1.190	-8.763	16784	15670	0	316
7.465	-0.144	16384	15398	0	316
16.012	8.258	15984	15126	0	316
20.231	13.271	15984	14990	0	316
22.322	12.586	15384	14922	0	316
20.303	8.150	15384	14922	0	316
19.654	4.075	15384	14990	0	316
20.014	3.534	15984	15194	0	316
21.493	4.364	15984	15466	0	316
22.286	1.947	15984	15670	0	316
20.808	-5.121	15984	15840	0	316
19.329	-13.668	16384	16112	0	316
18.860	-14.497	16384	16384	0	316
20.700	-0.469	16384	16486	0	316
24.378	25.171	16384	16520	0	316
29.499	46.556	16384	16724	0	316
30.508	49.333	16784	17030	0	316
29.499	30.004	16784	17234	0	316
25.929	0.180	17384	17336	0	316
23.585	-17.202	17384	17336	0	316
22.972	-8.907	16784	17200	0	316
26.506	18.788	16384	16962	0	316
28.417	44.969	16384	16656	0	316
28.092	52.398	16384	16384	0	316
24.955	36.026	15984	16044	0	316
18.788	11.540	15384	15738	0	316
13.054	-7.321	15984	15500	0	316
9.953	-10.999	15384	15398	0	316
8.511	-5.662	15384	15330	0	316
12.514	2.669	15384	15296	0	316
17.815	6.455	14984	15228	0	316
24.811	9.881	14384	15228	0	316
27.660	10.097	14384	15398	0	316
27.912	10.746	14384	15670	0	316
24.955	9.737	14384	15874	0	316
22.214	8.258	14384	15976	0	316
24.089	10.278	14384	16146	0	316
24.991	13.127	14984	16418	0	316
25.784	14.281	14984	16656	0	316
22.935	12.586	14984	16792	0	316
19.942	6.996	14984	16962	0	316
19.690	5.517	15384	17166	0	316
23.981	6.094	15384	17302	0	316
28.128	8.114	15384	17302	0	316
28.886	7.140	15384	17234	0	316
23.332	0.144	15384	17098	0	316
14.966	-8.114	15984	16928	0	316
8.330	-11.432	15384	16758	0	316
5.157	-8.871	15384	16588	1	852
5.842	-0.180	15384	16486	0	852
9.052	7.934	15384	16384	0	852
12.009	11.828	14984	16282	0	852
17.562	11.756	14984	16146	0	852
25.712	7.176	14984	16010	0	852
35.918	5.590	14384	15874	0	852
43.996	8.042	14384	15772	0	852
47.458	15.290	14384	15806	0	852
45.041	22.539	14384	16044	0	852
39.199	25.135	14384	16384	0	852
36.206	22.286	14984	16588	0	852
37.108	17.959	14984	16758	0	852
39.199	16.733	15384	17030	0	852
41.724	21.926	15384	17370	0	852
38.947	29.102	15984	17574	0	852
33.285	33.105	15984	17642	0	852
27.371	26.073	16384	17778	0	852
21.421	13.307	16784	18016	0	852
18.644	-2.019	16784	18152	0	852
15.903	-9.268	17384	18118	0	852
12.514	-6.852	17384	17982	0	852
11.107	1.082	17384	17846	0	852
11.323	10.458	17384	17642	0	852
12.622	12.081	17384	17438	0	852
16.913	8.655	17784	17234	0	852
19.582	4.075	17784	17064	0	852
19.149	0.829	17784	16894	0	852
17.779	0.433	17784	16656	0	852
17.057	0.325	17384	16384	0	852
19.329	-0.649	17384	16146	0	852
23.152	-0.577	17384	15942	0	852
27.479	1.298	17384	15806	0	852
27.984	8.402	17384	15704	0	852
26.109	13.559	16784	15602	0	852
22.755	15.759	16784	15500	0	852
23.368	13.379	16784	15364	0	852
24.089	6.816	16784	15296	0	852
22.863	3.462	16784	15432	0	852
20.231	1.046	16784	15670	0	852
15.651	0.974	16784	15840	0	852
14.713	2.200	16784	15874	0	852
16.733	3.210	16784	15976	0	852
21.421	4.760	17384	16146	0	852
21.241	6.527	17384	16282	0	852
17.129	5.986	17384	16384	0	852
14.281	4.868	17784	16554	0	852
17.274	5.662	17384	16860	0	852
25.279	6.744	17784	17030	0	852
33.574	9.088	17784	17030	0	852
36.855	11.468	17784	17030	0	852
32.384	13.812	18384	16996	0	852
26.974	16.408	18384	16928	0	852
27.191	20.988	18384	16792	0	852
34.583	26.109	18384	16588	0	852
41.435	26.073	17784	16384	0	852
43.094	22.683	17784	16146	0	852
35.269	15.398	17784	15976	0	852
22.358	9.773	17384	15806	0	852
13.343	6.852	17384	15636	0	852
13.091	9.196	17384	15432	0	852
17.670	13.163	16784	15194	0	852
25.893	16.516	16384	15024	0	852
27.948	16.841	16384	15092	0	852
25.784	13.163	16384	15262	0	852
20.375	4.652	16384	15398	0	852
15.867	-1.587	16384	15466	0	852
12.225	-6.599	16384	15670	0	852
11.504	-4.003	16784	16146	0	852
11.504	2.308	17384	16588	0	852
13.451	8.439	17384	16928	0	852
16.841	11.684	17384	17166	0	852
19.437	9.520	17784	17370	0	852
22.034	6.708	18384	17438	0	852
23.657	5.554	17784	17336	0	852
22.358	4.508	17784	17200	0	852
21.277	4.940	17784	17030	0	852
19.257	3.354	17784	16826	0	852
18.464	3.931	17384	16622	0	852
20.736	6.816	17384	16384	1	316
24.630	14.100	16784	16078	0	316
29.931	20.988	16784	15738	0	316
32.239	22.034	16384	15466	0	316
32.131	18.536	15984	15228	0	316
30.076	11.432	15984	15024	0	316
27.587	5.770	15384	14854	0	316
23.585	1.731	14984	14718	0	316
21.493	-1.046	14984	14650	0	316
17.959	-3.462	14384	14650	0	316
14.894	-2.164	14384	14718	0	316
13.415	3.065	13984	14854	0	316
11.648	9.412	14384	14990	0	316
10.783	13.523	14984	15194	0	316
10.999	10.458	14384	15500	0	316
10.025	3.642	14384	15942	0	316
10.458	-1.839	14984	16384	0	316
10.710	-2.705	14984	16758	0	316
14.677	2.056	15384	17234	0	316
21.132	8.547	15984	17608	0	316
27.155	13.127	15984	17812	0	316
29.859	14.677	16384	18050	0	316
27.443	12.117	16784	18288	0	316
23.476	10.025	16784	18356	0	316
20.483	9.592	16784	18118	0	316
20.195	12.369	16784	17846	0	316
24.378	16.156	16784	17574	0	316
26.506	17.346	16384	17268	0	316
28.958	15.831	16384	16894	0	316
27.083	12.514	15984	16520	0	316
23.621	11.504	15984	16214	0	316
18.536	12.694	15384	15908	0	316
16.336	10.963	14984	15636	0	316
17.238	7.537	14984	15398	0	316
17.851	0.072	14384	15160	0	316
16.516	-6.527	13984	14990	0	316
13.776	-7.537	13984	14820	0	316
9.124	-2.633	13384	14786	0	316
11.323	5.481	13384	14990	0	316
17.346	12.946	13984	15296	0	316
25.099	15.759	13984	15466	0	316
29.463	11.720	13384	15534	0	316
28.273	3.606	13984	15738	0	316
22.395	-4.400	13984	16078	0	316
16.697	-6.491	13984	16316	0	316
14.172	0.180	13984	16452	0	316
13.199	9.917	13984	16690	0	316
15.074	16.408	14384	16962	0	316
15.831	16.877	14384	17132	0	316
15.435	10.927	14384	17132	0	316
13.487	3.065	14384	17166	0	316
8.511	-4.147	14984	17200	0	316
2.128	-6.960	15384	17268	0	316
0.541	-7.898	14984	17336	0	316
7.970	-3.173	14984	17302	0	316
23.837	4.219	14984	17200	0	316
38.406	10.819	14984	16996	0	316
43.707	12.802	14984	16860	0	316
35.629	6.996	14984	16758	0	316
22.106	0.757	14384	16622	0	316
12.441	-2.885	14384	16418	0	316
11.612	0.108	13984	16180	0	316
16.949	7.501	13984	15976	0	316
19.798	9.665	13984	16044	0	316
18.788	6.852	13984	16350	0	316
14.317	-0.902	14384	16554	0	316
11.432	-5.193	14984	16792	0	316
11.937	-4.544	15384	17200	0	316
14.858	2.777	15984	17744	0	316
19.005	8.402	16384	18152	0	316
21.926	9.917	16784	18390	0	316
20.591	7.609	17384	18526	0	316
17.670	2.056	17784	18662	0	316
13.740	-3.750	17784	18594	0	316
9.773	-7.212	17784	18356	0	316
6.563	-11.035	17784	18016	0	316
5.914	-11.143	17784	17676	0	316
8.619	-10.999	17784	17370	0	316
9.917	-10.891	17784	17098	0	316
12.477	-9.917	17784	16792	1	316
14.713	-9.484	17384	16452	0	316
13.884	-6.419	17384	16146	0	316
13.740	-2.885	17384	15840	0	316
12.838	1.911	16784	15500	0	316
13.451	4.003	16784	15228	0	316
14.064	5.085	16384	14990	0	316
13.127	4.075	16384	14820	0	316
13.740	2.849	16384	14820	0	316
14.894	1.623	16384	15024	0	316
17.706	2.452	16384	15398	0	316
21.745	3.642	16784	15670	0	316
23.332	6.491	16784	15874	0	316
21.745	7.248	16784	16112	0	316
19.221	6.383	17384	16384	0	316
17.129	5.337	17384	16588	0	316
20.159	5.301	17784	16690	0	316
25.027	6.419	18384	16894	0	316
28.020	9.953	18384	17234	0	316
27.263	14.100	18384	17472	0	316
23.296	18.392	19384	17642	0	316
20.772	20.880	19784	17846	0	316
20.844	21.998	19784	18050	0	316
23.476	17.959	19784	18118	0	316
26.037	13.776	20384	17948	0	316
27.299	9.592	20384	17574	0	316
24.558	9.881	20384	17132	0	316
23.621	11.756	19784	16656	0	316
21.529	11.179	19784	16248	0	316
20.267	9.629	18784	15874	0	316
17.887	6.131	18784	15534	0	316
15.831	5.013	18384	15194	0	316
14.461	5.301	18384	14854	0	316
14.353	6.239	17784	14582	0	316
14.821	7.212	17384	14310	0	316
15.471	3.606	16784	14140	0	316
14.172	-0.072	16784	14004	0	316
11.828	-2.452	16384	13970	0	316
12.694	-2.380	16384	14106	0	316
15.110	1.983	16384	14378	0	316
17.382	7.717	16384	14650	0	316
17.887	12.189	16384	14888	0	316
14.136	10.494	16384	15228	0	316
7.898	7.032	16384	15602	0	316
6.275	3.534	16384	15874	0	316
7.465	2.236	16784	16112	0	316
13.018	5.229	16784	16452	0	316
17.274	6.780	17384	16928	0	316
18.897	6.708	17784	17302	0	316
17.887	5.121	17784	17540	0	316
13.379	1.731	17784	17642	0	316
11.179	0.433	18384	17608	0	316
10.783	0.721	18384	17506	0	316
10.133	2.957	17784	17404	0	316
11.540	4.760	18384	17268	0	316
12.622	5.373	18384	17132	0	316
12.081	3.210	17784	16962	0	316
13.127	0.721	17784	16758	0	316
13.054	-1.298	17384	16588	0	316
11.504	-2.488	17384	16486	0	316
7.285	-1.983	17384	16384	0	316
5.337	-1.226	17384	16248	0	316
5.554	-0.649	17384	16044	0	316
8.763	-1.082	16784	15976	0	316
13.163	-5.265	17384	16078	0	316
13.559	-8.799	16784	16112	0	316
12.550	-10.025	16784	16078	0	316
9.737	-7.357	16784	16112	0	316
7.898	-0.180	17384	16282	0	316
9.773	6.924	17384	16418	0	316
12.982	10.422	17384	16486	0	316
14.605	10.458	17784	16622	0	316
14.028	6.563	17784	16894	0	316
10.133	3.101	17784	17030	0	316
5.121	-2.056	17784	16962	0	316
4.652	-4.075	17784	16826	0	316
8.402	-4.977	18384	16826	0	316
15.038	-1.695	18384	16860	0	316
19.041	2.308	18384	16792	0	316
17.166	4.039	18384	16622	0	316
9.124	3.931	17784	16452	0	316
2.019	-0.144	17384	16316	0	316
-2.452	-4.580	17384	16112	0	316
-0.685	-7.248	16784	15840	0	316
3.931	-6.671	16784	15568	0	316
7.248	-5.806	16384	15296	0	316
4.760	-6.599	16384	15126	0	316
-0.325	-9.484	15984	14956	0	316
-5.590	-12.333	15384	14820	0	316
-8.186	-10.602	15384	14650	0	316
-4.652	-5.950	14984	14548	0	316
0.108	0.216	14384	14514	0	316
6.094	1.334	14384	14650	0	316
11.143	-1.262	14984	14956	0	316
15.254	-3.210	14984	15194	0	316
16.661	0.108	14984	15398	0	316
15.903	7.176	14984	15670	0	316
11.612	12.009	14984	16078	0	316
9.124	10.494	14984	16384	0	316
8.943	4.760	14984	16588	0	316
13.451	0.108	15384	16792	0	316
19.005	2.741	15384	17030	0	316
21.962	8.366	15384	17132	0	316
20.700	12.658	15384	16996	0	316
17.238	13.992	14984	16758	0	316
16.444	12.405	14984	16588	0	316
17.166	10.278	14384	16452	0	316
18.716	9.845	14384	16384	0	316
17.526	8.114	14384	16384	0	316
14.641	4.580	14384	16384	0	316
10.891	3.282	14384	16554	0	316
10.206	4.940	14984	16758	0	316
12.297	11.107	14984	16928	0	316
15.362	15.939	15384	16996	0	316
16.913	13.451	14984	16962	0	316
16.264	5.517	14984	16860	0	316
14.749	-5.049	14984	16792	0	316
13.235	-10.206	14984	16894	0	316
11.287	-6.671	15384	17132	0	316
10.314	0.325	15384	17336	0	316
9.304	6.022	15984	17506	0	316
9.484	6.419	15984	17710	0	316
11.107	2.416	16384	17880	0	316
11.864	-0.974	16384	17880	0	316
11.360	-1.767	16384	17778	0	316
7.645	2.019	16784	17744	0	316
6.455	7.429	16784	17676	0	316
8.186	11.648	16784	17506	0	316
13.668	12.009	16784	17268	0	316
19.077	6.383	16784	17064	0	316
19.546	-2.092	16784	16826	0	316
16.372	-5.806	16384	16554	0	316
14.821	-5.193	16384	16316	0	316
16.264	1.190	16384	16010	0	316
18.356	7.393	15984	15738	0	316
20.555	10.530	15984	15534	0	316
17.779	8.222	15384	15432	0	316
13.740	5.013	15384	15330	0	316
12.081	4.580	15384	15262	0	316
16.697	5.698	14984	15194	0	316
23.080	10.783	14984	15160	0	316
29.282	12.081	14984	15228	0	316
28.633	11.251	14984	15466	0	316
24.053	8.511	14984	15806	0	316
17.057	4.940	15384	16146	0	316
13.523	3.246	15384	16384	0	316
14.353	5.301	15984	16724	0	316
15.939	5.085	16384	17132	0	316
15.074	5.157	16384	17404	0	316
14.028	5.301	16784	17540	0	316
15.398	8.547	16784	17676	0	316
20.267	13.235	17384	17880	0	316
25.676	19.293	17784	17982	0	316
27.551	21.601	17784	17880	0	316
24.053	21.493	17784	17710	0	316
21.168	18.428	17784	17438	0	316
21.709	15.867	17784	17166	0	316
25.965	15.002	17784	16860	1	628
30.761	15.326	17784	16520	0	628
29.607	15.038	17384	16248	0	628
26.361	16.733	17384	16010	0	628
22.503	19.762	16784	15772	0	628
24.053	22.431	16784	15534	0	628
27.155	27.299	16784	15364	0	628
31.626	27.479	16384	15262	0	628
32.059	26.614	16384	15194	0	628
27.587	22.611	16384	15160	0	628
23.909	18.320	15984	15126	0	628
21.962	15.182	15984	15092	0	628
22.755	14.605	15984	15092	0	628
28.525	15.254	15384	15126	0	628
30.076	17.634	15984	15296	0	628
29.246	19.221	15984	15602	0	628
24.342	19.041	15984	15874	0	628
17.959	16.552	15984	16010	0	628
14.894	13.307	15984	16248	0	628
15.759	12.045	16384	16520	0	628
17.346	12.153	16384	16758	0	628
18.356	14.425	16384	16894	0	628
18.428	16.480	16784	17030	0	628
19.582	16.949	16784	17234	0	628
23.152	16.012	17384	17370	0	628
27.660	13.163	17384	17404	0	628
29.391	10.458	17384	17302	0	628
26.073	5.662	17384	17166	0	628
19.005	2.596	17384	16962	0	628
14.208	1.875	17384	16758	0	628
14.028	4.364	16784	16554	0	628
14.389	6.383	16784	16384	0	628
13.307	7.321	16784	16214	0	628
11.756	7.465	16784	16078	0	628
10.386	6.671	16384	15908	0	628
12.117	8.366	16384	15704	0	628
17.454	11.396	15984	15534	0	628
20.375	11.792	15984	15398	0	628
18.428	6.960	15984	15364	0	628
13.992	4.291	15984	15500	0	628
12.658	4.904	15984	15772	0	628
15.435	12.189	15984	15976	0	628
19.726	22.034	15984	16078	0	628
21.096	27.696	15984	16282	0	628
18.897	26.614	16384	16588	0	628
13.920	19.726	16384	16860	0	628
12.694	13.848	16784	16996	0	628
12.622	10.638	16784	17098	0	628
15.074	10.855	16784	17302	0	628
14.821	8.763	17384	17404	0	628
12.586	8.691	17384	17336	0	628
12.694	6.671	17384	17132	0	628
14.100	8.042	16784	16860	0	628
18.392	9.412	16784	16622	0	628
22.358	11.937	16784	16418	0	628
24.378	10.133	16784	16248	0	628
23.693	7.501	16384	16078	0	628
20.339	3.354	16384	15874	0	628
15.939	1.623	15984	15636	0	628
12.333	1.479	15984	15398	0	628
10.927	3.210	15984	15228	0	628
13.307	5.337	15384	15160	0	628
14.749	7.537	14984	15194	0	628
17.166	9.448	14984	15296	0	628
16.805	11.360	14984	15398	0	628
15.038	12.982	14984	15534	0	628
12.802	14.605	14984	15602	0	628
12.045	12.982	14384	15636	0	628
9.268	10.963	14384	15636	0	628
9.304	8.727	14384	15772	0	628
9.196	8.006	14384	15976	0	628
13.415	12.297	14384	16180	0	628
17.887	15.723	14384	16384	0	628
19.942	17.382	14984	16724	0	628
18.572	12.369	14984	16962	0	628
15.254	5.878	14984	17064	0	628
12.586	2.200	15984	17268	0	628
11.251	5.373	15984	17438	0	628
11.720	14.172	15984	17540	0	628
10.891	20.050	16384	17574	0	628
6.203	18.247	16384	17574	0	628
3.318	10.530	16384	17574	0	628
1.983	1.803	16784	17608	0	628
1.983	-0.613	16784	17642	0	628
3.931	3.714	16784	17608	0	628
5.517	11.864	16784	17506	0	628
7.501	14.533	16784	17370	0	628
8.799	13.054	16784	17234	0	628
10.891	7.789	16384	17098	0	628
11.035	5.157	16384	16860	0	628
11.071	6.131	16384	16554	0	628
8.006	8.439	16384	16316	0	628
6.058	7.068	16384	16180	0	628
4.760	4.688	16384	16248	0	628
4.039	1.587	16384	16418	0	628
6.852	2.849	16384	16520	0	628
8.366	6.455	16784	16520	0	628
9.917	8.763	16784	16622	0	628
9.917	6.527	16784	16792	0	628
11.684	2.488	17384	16792	0	628
13.523	4.183	17384	16690	0	628
18.139	10.602	17384	16724	0	628
21.854	20.627	17784	16894	0	628
22.647	25.856	17784	17030	0	628
19.185	22.214	18384	17132	0	628
15.795	13.343	18384	17132	0	628
14.569	4.327	18384	17064	0	628
14.245	-0.108	18384	16894	0	628
16.625	0.216	18384	16690	0	628
17.093	2.488	18384	16384	0	628
15.975	4.796	17784	16044	0	628
13.091	8.943	17784	15670	0	628
11.828	11.179	17384	15364	0	628
13.848	13.776	16784	15058	0	628
17.093	13.415	16784	14786	0	628
21.493	12.550	16384	14548	0	628
26.181	11.143	15984	14310	0	628
25.243	10.783	15984	14140	0	628
23.116	9.917	15984	14140	0	628
21.709	10.206	15384	14310	0	628
23.368	13.054	14984	14446	0	628
28.128	17.093	14984	14616	0	628
33.502	23.008	15384	15058	0	628
36.278	27.263	15384	15772	0	628
36.964	27.587	15984	16418	0	628
36.387	25.640	16384	16894	0	628
35.413	20.555	16784	17302	0	628
35.377	16.589	17384	17676	0	628
35.088	14.100	17384	17914	0	628
34.043	15.687	17784	17914	0	628
32.816	19.293	17784	17880	0	628
29.751	22.286	17784	17778	0	628
26.253	20.483	17384	17642	0	628
23.404	17.995	17784	17472	0	628
25.171	16.625	17784	17336	1	536
33.321	19.978	17384	17132	0	536
41.796	26.758	17384	16826	0	536
45.222	28.561	16784	16520	0	536
41.760	25.279	16784	16282	0	536
32.672	17.274	16784	16010	0	536
24.919	10.891	16384	15840	0	536
23.476	11.684	16384	15704	0	536
26.397	16.048	16384	15636	0	536
27.660	20.627	16384	15738	0	536
26.397	22.755	16384	15942	0	536
23.008	20.014	16384	16112	0	536
20.700	16.985	16384	16180	0	536
23.945	14.497	16784	16316	0	536
25.568	12.658	16784	16554	0	536
24.017	9.520	16784	16622	0	536
21.168	8.871	16784	16588	0	536
17.202	8.547	16784	16656	0	536
18.356	10.350	17384	16860	0	536
25.316	13.956	17384	16962	0	536
32.456	14.785	17384	16928	0	536
34.800	16.336	17384	16792	0	536
31.049	16.661	17384	16588	0	536
23.585	17.851	16784	16350	0	536
17.166	18.139	16784	16010	0	536
15.290	16.589	16384	15704	0	536
19.149	12.586	16384	15500	0	536
24.847	10.566	15984	15262	0	536
27.660	10.638	15384	15024	0	536
26.433	12.045	14984	14752	0	536
22.611	13.199	14384	14514	0	536
18.392	9.917	13984	14242	0	536
16.444	8.078	13384	14072	0	536
15.975	7.717	12984	13970	0	536
16.985	11.756	13984	14004	0	536
19.690	15.975	12984	14072	0	536
21.745	18.247	12384	14208	0	536
23.837	15.038	12384	14446	0	536
23.657	8.114	12384	14854	0	536
20.339	5.337	12384	15398	0	536
18.356	6.852	12384	15874	0	536
19.473	10.602	12984	16316	0	536
23.188	13.740	13984	16894	0	536
25.532	12.009	13984	17608	0	536
25.604	6.383	14384	18118	0	536
19.654	3.426	14984	18390	0	536
11.287	2.669	15384	18696	0	536
5.554	4.796	15984	19071	0	536
2.849	4.580	15984	19241	0	536
4.219	2.705	16384	19207	0	536
9.556	-1.587	16384	19105	0	536
11.179	-5.301	16784	18969	0	536
11.071	-6.203	16784	18764	0	536
11.468	-3.714	16784	18424	0	536
12.730	4.075	16784	18118	0	536
18.644	12.009	16784	17846	0	536
24.162	17.093	16784	17574	0	536
25.279	13.487	16784	17268	0	536
18.788	4.760	16384	16894	0	536
11.179	-2.777	16384	16486	0	536
6.563	-3.570	15984	16112	0	536
9.484	2.921	15984	15806	0	536
15.110	11.540	15984	15636	0	536
19.257	13.235	15984	15738	0	536
18.139	10.422	15984	16010	0	536
11.360	4.760	15984	16214	0	536
5.121	0.108	16384	16316	0	536
3.318	0.469	16384	16486	0	536
6.491	4.183	16784	16690	0	536
14.028	7.898	16784	16690	0	536
18.788	10.746	16784	16520	0	536
18.247	10.242	16784	16384	0	536
14.713	9.268	16784	16384	0	536
8.078	5.193	16784	16316	0	536
6.780	2.885	16384	16146	0	536
8.330	2.741	16384	16044	0	536
12.297	6.167	16384	16044	0	536
15.254	10.566	16784	16180	0	536
14.497	12.261	16784	16248	0	536
13.415	9.989	16784	16146	1	316
11.504	3.065	16384	16044	0	316
9.268	-0.938	16384	16010	0	316
6.708	-1.370	16384	15908	0	316
5.842	1.839	16384	15806	0	316
8.475	4.832	15984	15636	0	316
12.802	5.265	15984	15432	0	316
19.293	3.137	15384	15296	0	316
22.395	0.721	15384	15228	0	316
22.972	0.721	15384	15330	0	316
19.329	2.380	15384	15636	0	316
16.336	3.823	15384	15942	0	316
15.398	5.157	15984	16180	0	316
17.923	8.114	15984	16452	0	316
20.916	8.619	16384	16792	0	316
22.647	8.979	16384	16996	0	316
21.313	7.285	16784	17132	0	316
16.336	6.599	17384	17404	0	316
12.225	6.167	17384	17812	0	316
11.035	6.996	17784	18050	0	316
14.713	7.898	18384	18118	0	316
16.661	5.554	18784	18220	0	316
16.805	1.587	19384	18458	0	316
12.153	-1.370	19384	18560	0	316
6.131	-4.147	19784	18458	0	316
0.433	-5.914	19384	18220	0	316
-2.308	-8.222	19784	17914	0	316
0.577	-10.422	19784	17574	0	316
5.770	-8.583	19384	17200	0	316
11.071	-4.760	19384	16826	0	316
11.684	-1.515	19384	16384	0	316
7.789	-2.380	18784	16044	0	316
2.921	-5.013	18384	15704	0	316
2.308	-7.104	18784	15432	0	316
10.710	-2.200	17784	15160	0	316
18.500	5.013	17784	14922	0	316
20.014	7.321	17384	14752	0	316
15.074	2.813	17384	14718	0	316
5.121	-5.049	17384	14922	0	316
1.154	-7.825	17784	15296	0	316
5.301	-1.479	17784	15636	0	316
11.576	7.357	17784	15806	0	316
14.966	11.396	18384	15976	0	316
11.828	5.265	18384	16214	0	316
7.465	-6.455	18384	16350	0	316
2.993	-15.326	18784	16350	0	316
4.436	-20.159	18784	16418	0	316
7.068	-21.241	18784	16656	0	316
8.619	-20.627	19384	16826	0	316
7.429	-19.942	19384	16826	0	316
3.498	-15.687	18784	16758	0	316
-0.144	-7.934	18784	16656	0	316
-0.036	-1.551	18784	16452	0	316
1.370	1.154	18784	16180	0	316
3.354	-2.056	18384	15874	0	316
4.039	-6.888	18384	15602	0	316
1.731	-9.809	17784	15432	0	316
0.180	-7.176	17784	15296	0	316
1.154	-3.210	17384	15160	0	316
3.642	-2.813	17384	15058	0	316
5.013	-7.248	16784	14990	0	316
4.436	-11.432	16784	14922	0	316
4.472	-10.746	16784	14990	0	316
6.599	-2.849	16784	15228	0	316
11.251	7.032	16784	15568	0	316
15.290	9.412	16784	15840	0	316
14.389	2.993	16784	16078	0	316
9.773	-7.032	16784	16384	0	316
4.832	-12.874	17784	16894	0	316
1.875	-10.710	18384	17438	0	316
3.318	-3.137	18784	17812	0	316
5.013	4.436	18784	18084	0	316
7.970	6.671	19384	18424	0	316
12.550	5.842	19384	18594	0	316
16.733	4.760	19784	18526	0	316
20.050	3.750	19784	18356	0	316
22.719	6.852	20384	18118	0	316
21.854	12.369	20384	17812	0	316
21.818	14.641	19784	17404	0	316
22.395	15.939	19384	16928	0	316
25.352	13.992	18784	16486	0	316
25.460	10.999	18784	16112	0	316
23.512	9.737	18384	15704	0	316
19.221	6.996	17784	15262	0	316
17.093	4.147	17384	14820	0	316
18.752	3.137	16784	14378	0	316
22.503	2.885	16384	13970	0	316
24.053	2.993	15984	13731	0	316
19.942	3.462	15984	13799	0	316
11.576	1.587	15984	14140	0	316
4.796	0.108	15984	14548	0	316
3.462	2.596	15984	14922	0	316
9.124	9.412	15984	15364	0	316
13.091	13.235	16384	15874	0	316
14.749	12.694	16384	16214	0	316
13.631	9.701	16784	16418	0	316
13.307	6.888	16784	16792	0	316
13.812	8.150	17384	17268	0	316
16.949	13.992	17784	17574	0	316
17.815	18.680	17784	17710	0	316
16.805	19.726	18384	17846	0	316
16.552	17.526	18384	17982	0	316
20.375	15.218	18784	17982	0	316
26.289	14.172	18384	17880	0	316
30.256	14.749	18784	17642	0	316
29.895	14.605	18384	17200	0	316
23.296	10.927	17384	16656	0	316
15.615	6.708	16784	16112	0	316
10.746	2.777	16384	15568	0	316
11.035	1.587	15984	15058	0	316
15.759	5.698	15384	14684	0	316
22.863	9.016	14984	14378	0	316
27.119	10.242	14984	14106	0	316
25.352	9.592	14984	13936	0	316
21.096	8.655	13984	13799	0	316
14.353	9.340	13384	13765	0	316
11.720	13.343	13384	13867	0	316
11.396	15.903	12984	14174	0	316
14.245	16.769	12984	14650	0	316
17.959	13.091	12984	15024	0	316
20.844	9.520	12984	15330	0	316
24.594	7.537	12984	15704	0	316
27.047	7.934	13384	16180	0	316
27.443	6.924	13984	16486	0	316
25.820	2.957	13984	16690	0	316
23.585	-0.577	13984	16996	0	316
23.585	0.865	13984	17370	0	316
25.496	9.196	14384	17676	0	316
27.010	21.313	14384	17812	0	316
28.814	28.741	14384	17846	0	316
28.777	28.164	14384	17880	0	316
29.823	20.050	14984	17914	0	316
30.725	12.802	14984	17846	0	316
28.669	10.350	14384	17676	0	316
26.325	9.520	14384	17438	0	316
21.349	9.953	14984	17098	0	316
19.293	8.186	14984	16826	0	316
19.221	5.409	14384	16554	0	316
21.241	5.554	13984	16384	0	316
23.332	9.304	13984	16214	0	316
22.431	15.939	13384	16112	0	316
21.457	19.798	13384	16078	0	316
18.752	18.897	13384	16044	0	316
16.949	13.523	12984	16044	0	316
16.769	8.583	12984	16010	0	316
16.949	6.599	12984	15976	0	316
17.166	8.907	12984	15908	0	316
16.192	9.556	13384	16044	0	316
15.074	7.753	13384	16384	0	316
13.163	1.947	13384	16656	0	316
12.946	-2.380	13984	16894	0	316
11.900	-1.479	13984	17200	0	316
11.107	2.885	13984	17438	0	316
9.845	8.186	14384	17608	0	316
12.261	12.658	14984	17880	0	316
15.002	12.982	15384	18186	0	316
18.247	11.323	15384	18424	0	316
18.464	7.681	15984	18492	0	316
15.398	3.462	15984	18390	0	316
12.261	1.587	16384	18118	0	316
12.694	5.301	16384	17846	0	316
18.536	13.668	16384	17506	0	316
26.073	23.801	16384	17166	1	648
30.581	27.155	16384	16860	0	648
31.518	23.981	15984	16520	0	648
28.345	14.353	15984	16146	0	648
24.594	6.924	15384	15704	0	648
23.296	3.498	14984	15330	0	648
22.972	5.265	15384	15024	0	648
21.962	8.763	14384	14786	0	648
22.683	10.061	13984	14650	0	648
20.916	12.477	13984	14718	0	648
18.969	12.550	13984	14990	0	648
16.408	13.343	13984	15160	0	648
14.785	11.900	13984	15296	0	648
14.930	11.828	13984	15568	0	648
17.923	9.809	14384	15908	0	648
18.860	8.402	14384	16180	0	648
19.942	5.013	14384	16350	0	648
20.267	2.633	14984	16656	0	648
22.683	4.796	15384	16996	0	648
25.748	11.035	15384	17132	0	648
27.696	19.257	15384	17064	0	648
25.388	23.116	15384	16996	0	648
19.185	20.231	15984	16928	0	648
14.713	12.189	15984	16894	0	648
13.920	6.563	15984	16860	0	648
17.418	5.986	15984	16860	0	648
24.378	9.340	15984	16826	0	648
29.318	12.910	15984	16758	0	648
31.446	13.163	15984	16690	0	648
29.174	11.251	15984	16588	0	648
22.899	8.979	15984	16520	0	648
15.615	9.232	15984	16452	0	648
11.540	8.330	15984	16418	0	648
11.035	9.268	15984	16452	0	648
14.281	8.979	15984	16656	0	648
19.582	11.107	16384	16894	0	648
23.260	14.605	16384	17064	0	648
21.673	18.536	16784	17166	0	648
17.310	20.231	16784	17370	0	648
12.550	17.634	17384	17642	0	648
9.953	12.045	17784	17744	0	648
10.133	7.429	17784	17642	0	648
13.487	4.832	18384	17642	0	648
17.887	7.898	18384	17676	0	648
20.375	11.576	18384	17608	0	648
20.772	14.461	18384	17336	0	648
19.185	14.136	17784	16962	0	648
15.146	8.294	17784	16554	0	648
11.215	5.481	17784	16248	0	648
9.484	5.337	17384	15942	0	648
12.081	10.061	17384	15636	0	648
16.264	16.625	16784	15398	0	648
17.923	20.375	16784	15262	0	648
16.697	19.401	16784	15228	0	648
12.225	12.982	16784	15262	0	648
6.635	7.285	16784	15296	0	648
4.183	3.714	16784	15228	0	648
4.544	4.508	16384	15126	0	648
7.248	10.350	16384	15058	0	648
10.494	15.290	16384	15160	0	648
13.523	16.300	16384	15432	0	648
14.172	12.586	16384	15670	0	648
14.136	4.616	16384	15874	0	648
11.792	-1.226	16784	16180	0	648
10.314	-0.397	17384	16554	0	648
10.314	6.780	17384	16860	0	648
8.871	16.012	17784	17064	0	648
10.494	20.700	18384	17302	0	648
11.973	19.041	18384	17540	0	648
16.480	13.307	18784	17642	0	648
22.214	8.799	18784	17506	0	648
25.135	10.097	18384	17268	0	648
24.883	12.730	18784	16962	0	648
19.473	14.966	17784	16588	0	648
14.100	11.900	17784	16282	0	648
11.360	6.996	17384	16010	0	648
14.028	2.596	17384	15738	0	648
16.841	3.318	16784	15432	0	648
21.926	5.770	16384	15160	0	648
21.601	9.340	16384	14888	0	648
16.769	7.393	15984	14616	0	648
10.746	3.065	15384	14446	0	648
6.527	-0.613	14984	14310	0	648
9.917	1.623	14984	14276	0	648
16.084	9.304	14384	14310	0	648
21.781	18.572	14984	14446	0	648
21.349	20.952	14984	14616	0	648
15.110	14.461	14384	14820	0	648
10.783	4.075	14384	15126	0	648
14.641	-1.154	14384	15534	0	648
24.234	1.118	14384	15840	0	648
32.059	8.619	14384	16044	0	648
31.879	11.973	14984	16350	0	648
24.306	11.071	14984	16792	0	648
16.264	5.662	14984	17132	0	648
14.641	3.931	15384	17302	0	648
17.129	5.121	15384	17472	0	648
18.175	6.527	15984	17778	0	648
12.946	4.977	15984	17948	0	648
3.931	-2.308	15984	17948	0	648
-1.623	-6.708	15984	17778	0	648
1.334	-7.753	16384	17642	0	648
9.484	-2.524	16384	17608	0	648
15.543	4.075	16384	17506	0	648
15.651	6.131	16384	17370	0	648
10.638	1.442	16384	17302	0	648
8.763	-2.921	16384	17268	0	648
11.323	-1.623	16384	17234	0	648
19.401	6.311	16384	17166	0	648
24.306	17.310	16384	17064	0	648
24.955	20.700	16384	16928	0	648
19.113	15.867	16384	16724	0	648
15.038	8.006	16384	16554	0	648
14.461	3.065	16384	16554	0	648
18.175	4.400	16384	16690	0	648
22.070	8.439	16784	16758	0	648
22.142	9.232	16784	16792	0	648
18.175	8.511	16784	16894	0	648
13.704	7.321	17384	17030	0	648
13.235	7.645	17384	16996	0	648
16.552	9.917	17384	16826	0	648
21.385	11.828	17384	16724	0	648
22.827	9.845	17384	16758	0	648
18.211	8.042	17384	16724	0	648
12.261	5.914	17384	16554	0	648
8.871	5.590	17384	16350	0	648
6.455	8.042	17384	16214	0	648
6.491	9.268	17384	16180	0	648
5.409	7.681	17384	16078	0	648
4.400	3.570	17384	15908	0	648
7.862	-1.695	16784	15772	0	648
12.766	-4.904	16784	15670	0	648
16.877	-5.337	16784	15534	0	648
16.264	-1.154	16384	15330	0	648
12.117	6.491	16384	15126	0	648
8.366	16.156	15984	14956	0	648
10.891	24.522	15384	14854	0	648
17.310	26.902	15384	14786	0	648
22.106	19.582	15384	14888	0	648
22.395	8.763	15384	15126	0	648
18.211	0.757	15384	15364	0	648
13.884	1.839	15384	15534	0	648
13.631	11.143	15384	15772	0	648
17.021	17.093	15384	16112	0	648
20.231	17.021	15384	16384	0	648
21.529	10.133	15984	16554	0	648
21.781	4.472	15984	16894	0	648
20.231	5.842	16384	17336	0	648
21.457	12.081	16784	17710	0	648
20.159	16.841	16784	17812	0	648
15.579	13.451	16784	17744	0	648
9.773	3.967	17384	17608	0	648
3.967	-6.599	16784	17370	0	648
2.380	-10.169	16784	17030	0	648
6.275	-5.085	16384	16622	1	616
13.271	5.193	16384	16316	0	616
19.437	14.533	15984	16044	0	616
20.627	19.473	15984	15806	0	616
18.500	17.995	15384	15602	0	616
14.281	13.091	15384	15432	0	616
12.081	7.645	14984	15296	0	616
12.369	4.147	14384	15126	0	616
16.408	3.931	14384	14956	0	616
20.700	10.638	13984	14854	0	616
22.322	16.949	13984	14888	0	616
23.765	18.897	13384	15024	0	616
20.303	13.091	13984	15228	0	616
16.408	2.200	14384	15602	0	616
13.415	-5.517	14384	16112	0	616
13.415	-3.426	14984	16588	0	616
15.867	5.698	14984	16928	0	616
19.906	14.425	15384	17302	0	616
22.755	17.815	15984	17744	0	616
22.395	16.120	16384	18084	0	616
20.916	13.559	16384	18254	0	616
18.752	10.710	16784	18492	0	616
18.752	9.701	17384	18696	0	616
19.654	8.330	17784	18764	0	616
22.503	5.986	17784	18628	0	616
22.539	4.940	17784	18424	0	616
20.700	7.573	18384	18220	0	616
16.805	9.160	18384	17982	0	616
13.018	9.809	18384	17744	0	616
10.746	6.491	18384	17472	0	616
9.989	0.829	17784	17200	0	616
7.753	-5.301	17784	16894	0	616
7.321	-6.058	17784	16622	0	616
6.816	-2.957	17384	16384	0	616
8.006	2.560	17384	16078	0	616
10.819	5.013	16784	15772	0	616
10.566	4.760	16784	15466	0	616
9.701	2.019	16384	15194	0	616
8.907	2.056	16384	15126	0	616
11.215	3.318	16384	15228	0	616
16.985	5.301	16384	15296	0	616
21.818	7.501	16384	15330	0	616
23.476	9.592	16784	15636	0	616
19.870	12.261	17384	16180	0	616
15.182	17.562	17384	16656	0	616
12.081	20.736	17784	17030	0	616
11.792	20.195	18384	17370	0	616
14.028	15.687	18784	17676	0	616
15.290	12.045	19384	17812	0	616
16.661	10.494	19384	17710	0	616
18.680	9.520	18784	17506	0	616
20.591	11.287	19384	17234	0	616
23.152	11.576	19384	16928	0	616
21.926	8.763	18784	16554	0	616
17.346	5.698	18384	16146	0	616
9.484	0.938	18384	15772	0	616
1.839	-2.344	17784	15466	0	616
-0.757	-2.200	17784	15262	0	616
3.823	2.777	17784	15126	0	616
16.697	9.556	17384	15024	0	616
28.705	15.615	17384	14990	0	616
35.774	16.949	16784	14888	0	616
32.276	13.740	16784	14820	0	616
21.168	11.360	16784	14922	0	616
11.107	9.016	16784	15228	0	616
5.698	7.176	16784	15534	0	616
5.698	7.898	17384	15738	0	616
9.629	9.701	17384	16044	0	616
14.641	13.920	17784	16384	0	616
21.024	18.428	17784	16588	0	616
27.696	21.529	17784	16656	0	616
32.203	18.211	17784	16758	0	616
29.895	11.792	18384	16928	0	616
20.591	3.678	18384	16962	0	616
11.360	1.515	17784	16962	0	616
7.645	3.570	18384	17132	0	616
10.278	8.042	18784	17404	0	616
18.283	10.242	18784	17506	0	616
21.673	9.268	18784	17370	0	616
20.808	2.885	18784	17132	1	316
15.543	-1.370	18784	16860	0	316
9.088	-4.940	18384	16486	0	316
6.275	-2.633	18384	16146	0	316
5.409	0.325	17784	15704	0	316
6.347	3.714	17384	15330	0	316
7.429	3.787	16784	15058	0	316
7.789	3.895	16384	14820	0	316
7.609	3.246	16384	14582	0	316
6.852	3.534	16384	14344	0	316
7.393	4.580	15384	14072	0	316
7.862	2.524	14984	13867	0	316
10.494	0.397	14384	13902	0	316
13.559	0.216	14384	14140	0	316
18.500	4.868	14384	14514	0	316
22.683	11.720	13984	14820	0	316
22.863	16.048	13984	15126	0	316
19.726	13.631	14384	15636	0	316
14.713	5.914	14384	16248	0	316
9.773	0.036	14984	16724	0	316
9.665	0.036	14984	16996	0	316
11.684	6.852	15384	17234	0	316
13.776	12.477	15384	17608	0	316
15.867	13.523	15984	17914	0	316
17.815	10.783	15984	18050	0	316
18.752	7.789	16384	18084	0	316
19.870	10.350	16384	18084	0	316
19.293	12.405	16384	18084	0	316
15.651	11.504	16384	18016	0	316
10.710	5.013	16384	17846	0	316
6.852	-0.397	16384	17608	0	316
3.787	-2.705	16384	17302	0	316
2.957	-1.551	16384	17030	0	316
2.272	0.397	15984	16758	0	316
2.416	-1.082	15984	16520	0	316
4.760	-2.596	15984	16384	0	316
7.429	-1.875	15984	16214	0	316
8.799	2.993	15984	15976	0	316
9.665	7.573	15384	15670	0	316
7.285	10.710	14984	15398	0	316
5.517	9.520	14984	15228	0	316
4.616	6.816	14384	15126	0	316
3.029	3.750	14384	15092	0	316
3.282	0.685	14384	15194	0	316
3.282	1.731	14384	15534	0	316
5.842	3.750	14384	15942	0	316
9.773	5.986	14984	16384	0	316
13.018	6.275	15384	16894	0	316
12.874	4.832	15384	17234	0	316
9.196	2.092	15984	17404	0	316
8.294	0.505	15984	17608	0	316
9.665	1.911	16384	17948	0	316
12.045	2.560	16784	18152	0	316
14.713	0.685	16784	18152	0	316
11.900	-2.560	17384	18050	0	316
9.124	-4.724	17384	17948	0	316
8.799	-1.298	17384	17744	0	316
13.812	6.275	17384	17506	0	316
18.536	13.307	17384	17234	0	316
19.401	16.300	17384	16996	0	316
14.894	12.189	17384	16758	0	316
10.169	3.606	16784	16520	0	316
8.511	-2.524	16784	16384	0	316
10.783	-5.986	17384	16350	0	316
15.038	-2.741	17384	16418	0	316
16.048	4.400	17384	16486	0	316
16.516	14.281	17384	16452	0	316
17.670	22.178	17784	16520	0	316
18.247	24.919	17784	16690	0	316
19.473	19.654	17784	16758	0	316
20.159	11.396	18384	16690	0	316
20.231	6.527	18384	16588	0	316
19.690	5.554	17784	16554	0	316
18.680	8.871	17784	16384	0	316
17.706	11.720	17784	16214	0	316
17.887	13.054	17784	16180	0	316
20.772	12.009	17784	16316	0	316
25.929	12.333	17784	16316	0	316
30.436	14.533	17784	16214	0	316
27.624	13.884	17784	16078	0	316
21.277	12.081	17784	15942	0	316
13.379	8.150	17784	15772	0	316
10.566	4.364	17384	15568	0	316
14.821	3.570	17384	15432	0	316
25.063	8.078	17384	15364	0	316
32.528	13.415	16784	15296	0	316
33.574	19.618	16784	15228	0	316
27.227	21.998	16384	15126	0	316
18.139	19.834	16384	14990	0	316
13.379	15.254	15984	14854	0	316
13.487	9.268	15984	14718	0	316
14.425	6.491	15384	14650	0	316
14.749	5.734	15384	14786	0	316
13.704	5.193	15384	15024	0	316
13.163	6.275	14984	15160	0	316
15.110	4.760	14984	15262	0	316
16.697	0.649	14984	15432	0	316
15.651	-2.164	14984	15704	0	316
15.002	-1.442	14984	15874	0	316
16.841	3.642	14984	15976	0	316
21.962	12.838	14984	16180	0	316
27.263	22.214	14984	16452	0	316
26.506	25.856	15384	16758	0	316
22.935	20.988	15384	16962	0	316
18.392	10.819	15384	17132	0	316
16.661	-0.036	15384	17200	0	316
16.444	-6.996	15384	17200	0	316
14.425	-9.016	15984	17200	0	316
8.907	-5.626	15984	17098	0	316
4.364	-2.092	15984	16928	0	316
3.029	2.416	15384	16656	0	316
5.481	7.681	15384	16384	0	316
10.927	10.855	14984	16078	0	316
13.307	11.792	14384	15840	0	316
15.002	7.393	14384	15670	0	316
14.245	1.370	13984	15602	0	316
14.966	-1.695	13984	15636	0	316
15.471	-0.216	13984	15738	0	316
15.038	4.327	13984	16044	0	316
15.218	6.960	13984	16350	0	316
15.471	5.517	14384	16622	0	316
15.759	3.210	14384	16962	0	316
16.589	1.983	14984	17336	0	316
15.543	3.895	14984	17574	0	316
13.992	8.258	15984	17744	0	316
12.694	12.441	16384	18016	0	316
14.605	13.343	16784	18356	0	316
19.329	15.326	17384	18594	0	316
21.962	15.651	16784	18594	0	316
20.916	14.785	17384	18526	0	316
16.336	11.251	17384	18424	0	316
9.160	3.642	17384	18220	0	316
6.203	-4.580	17384	17982	0	316
5.662	-8.294	17384	17676	1	532
7.285	-4.904	17384	17302	0	532
6.888	4.760	17384	16894	0	532
3.426	13.379	17384	16588	0	532
2.164	14.966	16784	16316	0	532
2.416	8.763	16784	15942	0	532
5.085	5.013	16384	15534	0	532
7.573	4.868	15984	15160	0	532
7.862	9.232	15984	14820	0	532
3.714	13.199	15384	14616	0	532
-0.938	10.097	14984	14446	0	532
-4.977	1.010	14984	14310	0	532
-4.724	-4.904	14384	14276	0	532
2.741	-2.416	14384	14446	0	532
14.064	6.311	14384	14752	0	532
24.630	14.533	14984	15058	0	532
27.984	18.247	14984	15262	0	532
26.397	16.697	15384	15602	0	532
22.827	14.317	15384	16044	0	532
23.440	15.507	15384	16384	0	532
25.856	18.175	15384	16588	0	532
25.856	17.202	15984	16894	0	532
21.565	12.694	16384	17302	0	532
15.074	6.347	16384	17608	0	532
12.261	4.291	16784	17812	0	532
11.792	5.121	17384	17914	0	532
15.398	8.186	17384	17880	0	532
17.743	11.648	17384	17778	0	532
18.103	11.937	17384	17540	0	532
16.985	9.052	16784	17268	0	532
13.018	6.563	17384	16996	0	532
8.943	3.642	16784	16724	0	532
4.688	3.173	16784	16418	0	532
3.462	3.642	16784	16180	0	532
6.383	5.590	16384	15942	0	532
9.232	4.436	16384	15704	0	532
12.586	2.596	15984	15432	0	532
11.720	0.361	15384	15194	0	532
10.458	-0.829	15384	15160	0	532
5.193	-1.695	15984	15228	0	532
3.029	-2.777	15384	15364	0	532
3.173	-3.173	15384	15500	0	532
6.996	-0.577	15384	15772	0	532
14.208	3.967	15384	16112	0	532
17.995	10.422	15984	16350	0	532
20.519	15.759	15984	16452	0	532
18.031	16.769	15984	16690	0	532
15.218	15.146	16384	16996	0	532
13.343	10.963	16384	17200	0	532
14.281	9.088	16784	17302	0	532
15.110	9.917	16784	17336	0	532
15.543	11.612	17384	17506	0	532
14.497	13.091	17384	17710	0	532
13.199	12.117	17784	17778	0	532
9.520	5.770	17384	17710	0	532
7.068	-1.334	17784	17676	0	532
4.724	-4.904	18384	17642	0	532
4.832	-3.173	18384	17506	0	532
10.710	4.003	17784	17234	0	532
17.851	12.658	17784	16928	0	532
27.047	18.247	17784	16758	0	532
31.085	18.752	17784	16622	0	532
29.823	16.841	17784	16520	0	532
26.578	15.795	17784	16486	0	532
23.332	17.490	17784	16554	0	532
21.962	20.159	17784	16452	0	532
23.765	21.601	17784	16282	0	532
23.873	20.844	17784	16180	0	532
22.214	18.356	17784	16214	0	532
21.132	16.336	18384	16248	0	532
19.293	13.163	18384	16180	0	532
18.536	14.569	18384	16146	0	532
20.808	18.644	18384	16214	0	532
23.693	24.739	18384	16248	0	532
25.496	30.833	18384	16146	0	532
26.109	30.364	17784	15976	0	532
22.106	23.981	17784	15874	0	532
17.779	13.018	17384	15772	0	532
13.523	3.967	17384	15636	0	532
11.504	1.118	17384	15432	0	532
11.107	4.327	16784	15228	0	532
11.612	10.206	16784	15024	0	532
12.802	16.408	16384	14888	0	532
17.202	19.798	16384	14854	0	532
25.063	21.926	15984	14888	0	532
31.807	23.873	15984	14956	0	532
36.351	29.066	15984	15024	0	532
37.252	35.990	15384	15092	0	532
37.937	40.786	15384	15092	0	532
37.577	40.642	15384	15126	0	532
35.160	34.115	14984	15126	0	532
31.374	25.424	14984	15160	0	532
23.837	18.428	14984	15364	0	532
21.313	16.913	15384	15636	0	532
22.719	17.779	15384	15840	0	532
27.876	18.572	14984	15942	0	532
32.131	19.077	15384	16112	0	532
31.699	19.401	15384	16384	0	532
30.112	22.719	15384	16554	0	532
27.804	24.486	15384	16690	0	532
26.938	24.414	15384	16928	0	532
25.748	19.005	15984	17200	0	532
24.414	12.622	15984	17370	0	532
21.277	7.321	15984	17404	0	532
19.257	8.222	15984	17404	0	532
17.562	10.855	15984	17370	0	532
15.038	13.271	15984	17268	0	532
12.297	12.586	15984	17064	0	532
7.753	5.229	15384	16792	0	532
3.354	-1.118	15384	16520	0	532
1.010	-5.517	14984	16282	0	532
3.895	-1.479	14984	16044	0	532
12.622	8.763	14384	15840	0	532
21.385	19.293	14384	15738	0	532
25.424	23.296	13984	15670	0	532
22.178	17.346	13984	15636	0	532
14.064	6.816	13984	15670	0	532
8.655	-2.056	14384	15806	0	532
9.484	-3.029	14984	16078	0	532
12.730	1.010	14384	16282	0	532
12.550	4.436	14384	16418	0	532
9.665	3.967	14984	16758	0	532
5.193	1.118	15384	17370	0	532
4.796	-0.865	15984	17982	0	532
11.179	1.875	16384	18458	0	532
15.074	5.806	16784	18730	0	532
15.398	8.006	17384	19003	0	532
11.360	7.357	17784	19105	0	532
6.563	5.770	17784	19037	0	532
4.219	4.652	18384	18832	0	532
6.527	7.645	17784	18560	0	532
10.638	8.871	18384	18220	0	532
12.045	9.845	18384	17880	1	528
12.730	6.744	17784	17540	0	528
14.208	5.049	17784	17166	0	528
16.949	5.517	17784	16758	0	528
21.673	7.465	17784	16418	0	528
23.837	9.773	17384	16214	0	528
21.818	7.248	17384	16010	0	528
14.136	0.865	17384	15806	0	528
7.068	-5.373	17384	15636	0	528
2.849	-8.475	17384	15568	0	528
6.599	-4.760	17384	15602	0	528
12.405	2.200	17384	15738	0	528
18.752	13.307	17384	15840	0	528
21.781	19.834	17384	15908	0	528
20.375	21.132	17784	16112	0	528
17.743	16.408	18384	16384	0	528
14.713	10.530	18384	16520	0	528
13.091	5.193	18384	16554	0	528
12.730	5.193	18784	16656	0	528
13.848	7.970	18784	16724	0	528
13.091	9.592	18384	16622	0	528
12.910	9.665	18384	16384	0	528
12.009	5.698	18384	16214	0	528
9.124	1.262	18384	16146	0	528
8.763	-2.380	18384	16146	0	528
7.825	-2.416	18384	16112	0	528
9.052	3.354	18384	16010	0	528
10.133	12.081	18384	15806	0	528
12.225	18.031	17784	15602	0	528
13.956	18.644	17784	15364	0	528
14.028	15.218	17384	15092	0	528
13.307	8.258	16784	14786	0	528
10.855	5.013	16384	14446	0	528
7.465	2.488	15984	14140	0	528
2.380	2.885	15384	13867	0	528
0.757	4.183	14984	13697	0	528
3.606	8.583	14384	13561	0	528
7.934	12.009	13984	13493	0	528
13.956	13.091	13384	13561	0	528
15.146	11.504	13384	13799	0	528
12.550	5.806	13384	14208	0	528
8.186	1.767	13384	14616	0	528
5.914	0.757	12984	14990	0	528
6.419	0.180	13984	15466	0	528
8.042	0.036	13984	16044	0	528
10.206	-0.577	13984	16486	0	528
11.540	0.433	14384	16894	0	528
13.920	2.705	14984	17370	0	528
16.336	6.924	15384	17914	0	528
18.608	10.746	15384	18322	0	528
18.031	12.802	15984	18526	0	528
15.110	12.622	15984	18594	0	528
13.018	8.835	16384	18560	0	528
10.458	5.085	16384	18492	0	528
11.828	0.793	16384	18322	0	528
14.677	-0.144	16384	18050	0	528
18.103	4.652	15984	17744	0	528
21.998	11.035	15984	17404	0	528
23.512	17.129	15984	17064	0	528
21.962	18.356	15384	16758	0	528
18.608	13.343	15384	16486	0	528
11.792	6.131	14984	16282	0	528
7.681	-1.334	14984	16044	0	528
4.508	-5.265	14384	15840	0	528
7.321	-4.508	14384	15636	0	528
12.297	-1.370	13984	15534	0	528
18.608	4.436	14384	15500	0	528
23.657	12.514	14984	15534	0	528
25.820	18.788	13984	15602	0	528
24.775	24.955	14384	15874	0	528
21.709	24.666	14384	16282	0	528
18.067	20.050	14984	16622	0	528
12.946	13.487	15384	17064	0	528
8.114	8.655	15384	17472	0	528
7.140	8.042	15984	17744	0	528
7.862	7.970	15984	17778	0	528
12.946	8.691	15984	17710	0	528
16.949	6.419	15984	17506	0	528
19.870	4.760	15984	17166	0	528
19.582	8.547	15984	16860	0	528
19.510	15.435	15384	16622	0	528
19.618	22.683	15384	16418	0	528
20.591	26.938	15384	16248	0	528
20.555	24.522	14984	16044	0	528
19.077	18.211	14984	15840	0	528
15.218	13.451	14384	15704	0	528
12.730	10.242	14384	15636	0	528
13.271	11.035	14384	15636	0	528
13.956	10.458	14984	15738	0	528
17.129	8.150	14984	16010	0	528
18.211	5.157	15384	16316	0	528
16.985	2.633	15384	16520	0	528
14.785	4.544	15384	16690	0	528
13.235	8.258	15984	16996	0	528
14.136	11.937	16384	17404	0	528
17.490	15.290	16784	17744	0	528
21.745	16.156	17384	18016	0	528
23.080	14.821	17784	18322	0	528
21.277	12.838	18384	18730	0	528
16.444	8.907	18784	19003	0	528
13.595	7.285	19384	19071	0	528
12.910	8.366	19784	19173	0	528
16.805	13.776	20384	19309	0	528
20.736	20.375	20784	19343	0	528
23.476	23.621	21384	19207	0	528
23.801	22.719	20784	18901	0	528
23.909	18.572	21784	18458	0	528
22.070	15.110	21384	17880	0	528
20.988	13.848	20784	17302	1	432
17.995	13.812	20784	16724	0	432
14.930	13.884	20784	16248	0	432
12.045	13.018	20384	15738	0	432
11.071	10.422	20384	15262	0	432
12.081	10.458	19784	14684	0	432
14.785	12.261	18784	14106	0	432
16.516	12.225	18384	13561	0	432
17.093	11.576	17384	13085	0	432
16.444	9.268	16784	12745	0	432
13.199	6.239	16784	12677	0	432
9.268	3.787	16384	12881	0	432
5.554	4.400	16384	13153	0	432
3.318	3.678	16384	13425	0	432
5.337	3.318	16384	13833	0	432
8.294	3.354	16384	14276	0	432
12.766	4.940	16384	14650	0	432
16.697	10.674	16384	14956	0	432
17.598	15.867	16384	15330	0	432
15.867	18.933	16784	15738	0	432
14.281	18.500	16784	16010	0	432
13.920	13.487	16784	16078	0	432
15.867	8.294	16384	16112	0	432
17.562	6.744	16384	16078	0	432
18.824	6.816	16384	16010	0	432
16.336	7.934	15984	15874	0	432
11.035	9.484	15984	15738	0	432
9.268	9.701	15384	15602	0	432
11.720	11.468	15384	15534	0	432
15.254	13.668	14984	15500	0	432
19.618	13.487	14384	15398	0	432
20.375	12.658	14384	15364	0	432
18.788	8.402	13984	15330	0	432
15.687	4.003	13984	15364	0	432
13.812	1.947	13984	15500	0	432
13.091	5.409	13984	15772	0	432
12.910	11.107	14384	16146	0	432
15.254	17.490	14384	16418	0	432
18.716	19.690	14384	16656	0	432
23.008	17.959	14384	16962	0	432
26.578	13.451	14984	17302	0	432
26.578	12.405	14984	17506	0	432
25.135	14.353	14984	17608	0	432
21.277	18.572	15384	17812	0	432
18.320	20.411	15384	18118	0	432
16.012	18.067	15984	18322	0	432
13.163	13.379	15984	18322	0	432
11.900	9.520	15984	18288	0	432
10.963	9.701	16384	18186	0	432
10.710	11.756	16384	18118	0	432
11.828	15.615	16384	17982	0	432
13.559	17.274	16384	17846	0	432
13.848	16.192	16384	17642	0	432
15.507	15.471	16384	17438	0	432
18.139	17.021	16384	17234	0	432
20.844	19.365	16384	17064	0	432
21.132	18.933	16384	16962	0	432
19.906	15.182	16384	16860	0	432
16.769	7.248	16384	16758	0	432
15.002	3.750	16384	16588	0	432
17.057	5.445	16384	16452	0	432
21.673	13.127	16384	16350	0	432
24.234	21.926	16384	16180	0	432
23.657	24.702	15984	16044	0	432
18.175	21.204	16384	16078	0	432
13.127	15.398	16384	16214	0	432
12.261	9.809	16384	16282	0	432
15.975	7.789	16384	16316	0	432
21.529	10.133	16784	16418	0	432
22.719	12.586	16784	16724	0	432
17.670	13.956	17384	16962	0	432
10.458	11.432	17384	17098	0	432
5.842	7.609	17784	17234	0	432
5.229	2.921	18384	17438	0	432
8.439	0.577	18384	17506	0	432
11.540	0.829	18384	17438	0	432
14.208	2.452	18784	17302	0	432
14.930	4.291	18784	17166	0	432
15.507	5.626	18784	16962	0	432
16.084	5.337	18784	16656	0	432
14.245	5.409	18384	16350	0	432
11.396	4.616	18384	16112	0	432
7.789	4.544	17784	15908	0	432
2.957	2.200	17384	15670	0	432
0.072	1.334	17384	15364	0	432
1.803	2.416	16784	15092	0	432
6.996	4.760	16784	14820	0	432
12.658	8.402	16384	14548	0	432
13.776	8.943	15984	14378	0	432
10.638	7.140	15984	14344	0	432
5.337	2.272	15384	14412	0	432
1.334	-1.515	15384	14480	0	432
2.452	-1.659	14984	14514	0	432
6.311	0.938	14984	14718	0	432
10.927	5.878	15384	15024	0	432
13.127	8.511	15384	15296	0	432
13.920	8.222	15984	15534	0	432
13.956	4.147	15984	15908	0	432
13.812	-0.144	16384	16384	0	432
14.605	-0.541	16384	16792	0	432
16.697	1.298	16784	17098	0	432
16.300	5.157	16784	17336	0	432
13.487	6.058	17384	17574	0	432
11.792	5.842	17384	17778	0	432
11.071	6.527	17784	17846	0	432
13.595	6.527	17384	17744	0	432
16.156	6.708	17384	17608	0	432
16.516	6.383	17384	17472	0	432
14.389	4.219	17384	17268	0	432
11.612	4.796	17384	17030	0	432
10.025	6.708	17384	16826	0	432
11.396	7.393	16784	16690	0	432
9.124	4.291	16784	16554	0	432
6.924	1.947	16784	16452	0	432
3.642	1.875	16784	16452	0	432
2.957	7.537	16784	16520	0	432
7.934	14.461	17384	16554	0	432
11.864	18.247	17384	16588	0	432
13.631	15.254	17384	16690	0	432
12.081	9.160	17784	16826	0	432
7.285	3.606	17784	16860	0	432
4.724	2.777	17784	16792	0	432
4.616	2.777	17784	16792	0	432
5.481	2.019	17784	16826	0	432
5.121	1.154	18384	16860	0	432
6.960	1.046	18384	16758	0	432
8.583	3.931	17784	16656	0	432
13.595	8.366	18384	16486	0	432
17.851	13.343	18384	16350	0	432
20.375	13.812	17384	16146	0	432
18.572	12.369	17384	15908	0	432
14.425	10.061	16784	15670	0	432
8.258	9.448	16784	15432	0	432
6.599	8.078	16384	15160	0	432
6.852	7.645	15984	14854	0	432
10.386	5.770	15984	14650	0	432
12.766	3.570	15384	14480	0	432
13.415	3.750	14984	14446	0	432
10.350	4.255	14984	14412	0	432
6.455	6.131	14984	14378	0	432
6.491	6.347	14984	14276	0	432
9.016	5.554	13984	14140	0	432
14.785	3.931	13384	14106	0	432
18.572	2.993	13384	14276	0	432
17.274	4.544	13384	14684	0	432
11.828	7.573	13384	15024	0	432
6.311	9.412	13384	15330	0	432
5.373	11.432	13384	15772	0	432
11.396	11.648	13384	16350	0	432
17.454	13.054	13984	16792	0	432
19.510	14.245	14384	17132	0	432
16.625	15.795	14984	17540	0	432
10.206	15.146	15384	17982	0	432
8.439	11.179	15384	18390	0	432
8.763	8.150	15984	18662	0	432
12.586	5.914	16384	18798	0	432
15.038	8.402	16384	18866	0	432
16.228	11.864	16784	18798	0	432
15.398	15.543	16784	18662	0	432
12.225	17.238	16784	18458	0	432
9.088	15.254	16784	18186	0	432
3.895	12.117	16784	17846	1	644
3.390	8.042	16784	17506	0	644
4.400	6.744	16784	17200	0	644
6.816	5.590	16384	16928	0	644
8.763	6.022	16384	16622	0	644
8.042	5.878	15984	16316	0	644
9.520	7.068	15984	16044	0	644
10.422	10.494	15984	16010	0	644
12.369	13.956	15984	16078	0	644
11.432	16.552	15984	16146	0	644
10.602	16.372	15984	16146	0	644
10.674	13.163	16384	16316	0	644
12.514	11.179	16784	16724	0	644
13.956	9.304	17384	17200	0	644
12.946	7.357	17384	17472	0	644
7.717	3.029	17784	17608	0	644
3.426	-1.442	18384	17744	0	644
1.875	-2.164	18384	17744	0	644
4.688	3.101	18384	17676	0	644
9.773	12.369	18384	17506	0	644
14.317	22.611	18384	17268	0	644
20.050	27.119	18384	16962	0	644
24.125	27.443	17784	16554	0	644
25.568	22.431	17784	16180	0	644
19.185	15.362	17384	15840	0	644
8.691	9.989	17384	15500	0	644
-0.288	7.357	16784	15194	0	644
-0.902	9.016	16784	14922	0	644
7.862	10.855	16384	14684	0	644
17.815	13.307	15984	14514	0	644
20.123	12.117	15984	14378	0	644
12.658	11.828	15384	14242	0	644
1.623	12.550	15384	14378	0	644
-4.400	12.658	15384	14684	0	644
-3.462	11.864	15384	15024	0	644
3.714	10.458	15384	15330	0	644
9.665	8.943	15984	15670	0	644
12.658	12.081	15984	16010	0	644
10.999	16.012	15984	16248	0	644
7.465	16.985	15984	16384	0	644
6.599	14.605	16384	16656	0	644
6.924	8.547	16384	17030	0	644
9.881	7.429	16784	17302	0	644
10.783	7.970	16784	17404	0	644
7.537	12.261	17384	17540	0	644
2.128	14.136	17384	17676	0	644
-2.200	14.605	17784	17778	0	644
-1.190	12.225	17784	17812	0	644
4.652	9.881	17784	17710	0	644
9.448	5.806	18384	17506	0	644
10.602	4.039	17784	17268	0	644
7.393	2.741	17784	16996	0	644
2.596	3.823	17784	16622	0	644
1.623	4.868	17384	16214	0	644
4.327	2.380	16784	15772	0	644
6.022	-0.685	16784	15432	0	644
7.357	-2.633	16384	15058	0	644
6.275	0.721	15984	14718	0	644
7.068	6.888	15384	14412	0	644
12.009	13.523	14984	14276	0	644
18.283	17.274	14984	14276	0	644
20.483	17.598	14984	14514	0	644
17.418	15.939	14984	14956	0	644
11.035	14.245	14984	15364	0	644
5.085	10.963	14984	15704	0	644
5.337	10.206	15384	16112	0	644
8.439	8.006	15384	16486	0	644
11.828	7.032	15384	16724	0	644
9.917	4.255	15984	16826	0	644
5.734	3.534	15984	16996	0	644
2.524	4.327	15984	17302	0	644
5.085	7.104	16384	17438	0	644
12.009	10.999	16384	17370	0	644
19.221	13.199	16384	17234	0	644
20.627	12.081	16384	17098	0	644
15.867	10.458	16384	16962	0	644
8.907	8.691	15984	16792	0	644
6.058	9.304	15984	16622	0	644
7.717	9.592	15984	16486	0	644
14.100	10.169	15984	16452	0	644
16.589	7.573	15984	16384	0	644
15.795	3.859	15384	16316	0	644
11.720	-0.216	15384	16180	0	644
6.708	-1.190	15384	16010	0	644
5.950	3.318	14984	15772	0	644
9.340	10.278	14384	15534	0	644
14.245	16.625	14984	15364	0	644
17.851	16.012	14384	15228	0	644
17.093	10.819	14384	15160	0	644
12.766	3.318	13984	15160	0	644
8.835	-0.216	13984	15194	0	644
6.671	1.370	13984	15330	0	644
8.330	4.327	13984	15602	0	644
12.333	7.862	13984	15874	0	644
15.254	7.393	13984	16248	0	644
15.398	5.842	13984	16588	0	644
14.425	4.147	14384	16894	0	644
10.927	0.829	14384	16996	0	644
8.186	-2.272	14384	17064	0	644
5.626	-3.426	14984	17064	0	644
5.517	-3.426	15384	16996	0	644
4.832	0.180	14984	16894	0	644
5.986	3.246	14384	16758	0	644
5.950	4.364	14384	16588	0	644
7.068	0.361	14384	16418	0	644
6.599	-3.823	13984	16282	0	644
8.330	-6.058	13984	16214	0	644
10.061	-5.806	13984	16248	0	644
13.631	-1.875	13984	16282	0	644
15.362	1.515	13384	16282	0	644
12.189	2.813	13384	16316	0	644
8.258	3.462	13984	16486	0	644
5.373	3.895	14384	16826	0	644
8.619	6.275	14984	17166	0	644
14.894	6.058	14984	17438	0	644
19.870	3.606	15384	17778	0	644
19.293	-0.505	15984	18186	0	644
12.910	-1.479	16384	18390	0	644
8.186	2.019	16384	18356	0	644
7.501	9.953	16784	18322	0	644
9.737	15.110	16784	18254	0	644
13.740	15.326	16784	18050	0	644
13.812	10.855	16784	17744	0	644
12.586	6.563	17384	17540	0	644
10.566	7.429	17384	17472	1	496
9.304	9.376	17384	17302	0	496
11.143	9.989	17384	17064	0	496
14.966	7.934	17384	16792	0	496
18.067	5.950	16784	16486	0	496
21.818	5.590	16784	16214	0	496
21.709	8.799	16784	15908	0	496
19.690	13.631	16384	15602	0	496
17.346	15.002	16384	15296	0	496
18.067	14.100	15984	14922	0	496
22.395	12.622	15384	14616	0	496
28.705	14.605	14984	14378	0	496
30.400	17.923	14384	14174	0	496
25.856	19.510	14384	14038	0	496
16.949	16.084	13984	13970	0	496
8.619	8.402	13384	14004	0	496
6.167	2.308	13384	14174	0	496
10.314	2.705	13384	14514	0	496
16.516	11.071	13384	14786	0	496
18.716	15.975	12984	14990	0	496
17.598	15.146	13384	15330	0	496
14.100	8.547	13384	15908	0	496
10.746	1.370	14984	16418	0	496
12.045	3.534	14384	16826	0	496
18.247	11.287	14984	17302	0	496
24.666	20.303	15384	17778	0	496
28.273	24.017	15984	18118	0	496
27.047	20.411	15984	18254	0	496
20.303	12.946	16384	18254	0	496
13.704	7.934	16384	18220	0	496
11.251	6.527	16384	18152	0	496
13.163	9.376	16784	18050	0	496
16.949	11.973	16784	17812	0	496
20.231	13.631	16384	17506	0	496
20.591	14.749	16384	17234	0	496
20.159	15.398	16384	16928	0	496
19.906	15.038	15984	16554	0	496
18.752	14.353	15984	16180	0	496
18.031	10.314	15384	15840	0	496
17.779	6.780	15384	15568	0	496
18.211	4.977	14984	15432	0	496
20.303	7.357	14984	15500	0	496
20.591	12.514	14984	15772	0	496
22.142	16.264	15384	15976	0	496
21.421	19.654	15384	16078	0	496
21.745	21.529	15384	16316	0	496
21.781	21.565	15984	16690	0	496
21.601	20.231	16384	17098	0	496
21.096	19.329	16384	17404	0	496
22.142	18.283	16784	17710	0	496
24.342	17.815	17384	18084	0	496
26.073	17.057	17784	18322	0	496
24.702	15.074	18384	18322	0	496
21.241	11.323	18384	18186	0	496
20.123	9.665	18784	17982	0	496
21.204	9.556	18784	17710	0	496
21.926	11.143	18784	17438	0	496
20.123	9.088	18384	17200	0	496
12.622	5.770	18784	16928	0	496
4.400	1.226	18784	16690	0	496
0.397	0.216	18384	16384	0	496
1.515	1.839	17784	16112	0	496
4.508	2.777	17784	15772	0	496
5.409	2.344	17384	15466	0	496
7.248	4.003	17384	15262	0	496
11.720	7.393	17384	15194	0	496
19.041	14.966	17384	15262	0	496
26.830	21.168	17384	15364	0	496
30.364	22.034	17384	15432	0	496
27.083	18.788	17384	15534	0	496
21.709	15.146	17784	15738	0	496
17.418	14.713	17784	16044	0	496
15.110	16.156	17784	16214	0	496
16.156	18.536	18384	16248	0	496
16.877	17.743	18384	16316	0	496
17.166	13.235	18384	16418	0	496
16.156	7.898	18384	16452	0	496
15.471	3.065	18784	16486	0	496
14.245	0.361	18384	16656	0	496
12.261	-0.721	18784	16860	1	316
11.179	-1.731	18784	16894	0	316
10.566	-1.911	18784	16724	0	316
9.809	-3.173	18384	16452	0	316
10.242	-3.065	18384	16146	0	316
9.845	-4.652	17784	15738	0	316
8.078	-7.104	17784	15330	0	316
3.534	-12.225	17384	15058	0	316
0.902	-14.966	16784	14922	0	316
-0.505	-14.569	16784	14854	0	316
0.180	-10.458	16384	14752	0	316
5.085	-4.255	16384	14616	0	316
9.592	1.370	15984	14514	0	316
12.550	3.498	15384	14480	0	316
15.831	4.436	15384	14446	0	316
16.697	4.904	14984	14446	0	316
16.877	5.734	14984	14616	0	316
16.336	7.321	14984	14956	0	316
15.218	10.097	14984	15296	0	316
14.100	9.989	14984	15568	0	316
14.821	8.727	14984	15908	0	316
13.631	5.013	14984	16282	0	316
13.704	3.282	14984	16520	0	316
12.586	3.210	14984	16622	0	316
13.451	6.816	15384	16826	0	316
13.631	8.475	15384	17098	0	316
14.569	7.645	15384	17336	0	316
11.684	3.606	16384	17438	0	316
7.681	-0.793	16384	17472	0	316
3.714	-1.082	16384	17438	0	316
4.327	2.777	16384	17404	0	316
6.960	11.684	16384	17336	0	316
12.982	18.392	16384	17166	0	316
18.103	23.693	15984	16996	0	316
20.772	23.585	15984	16826	0	316
21.673	18.933	15984	16724	0	316
19.401	13.091	15984	16622	0	316
15.903	8.006	15984	16520	0	316
13.018	4.616	15384	16452	0	316
11.396	3.173	15384	16384	0	316
10.927	4.075	15384	16418	0	316
12.117	6.563	15984	16622	0	316
12.982	11.251	15984	16928	0	316
13.559	17.706	16384	17132	0	316
12.009	24.270	16384	17336	0	316
10.746	27.768	16784	17608	0	316
9.845	25.856	17384	17846	0	316
8.114	19.149	17384	17914	0	316
8.258	11.612	17384	17846	0	316
7.609	5.337	17784	17778	0	316
6.599	4.039	17784	17812	0	316
8.366	8.330	17784	17676	0	316
10.386	12.153	17384	17438	0	316
15.543	15.687	17384	17166	0	316
18.680	17.129	17384	16860	0	316
20.050	16.552	17384	16588	0	316
17.923	14.497	17384	16316	0	316
14.064	11.540	16784	16078	0	316
10.674	8.186	16784	15908	0	316
6.888	4.327	16784	15806	0	316
5.265	3.534	16784	15738	0	316
5.445	6.094	16784	15670	0	316
7.537	12.514	16784	15636	0	316
13.163	19.546	16384	15602	0	316
19.437	21.565	16384	15500	0	316
21.565	18.428	16384	15364	0	316
18.536	8.439	15984	15262	0	316
10.422	-1.695	15984	15296	0	316
2.019	-4.940	15984	15330	0	316
1.875	-1.190	15984	15296	0	316
7.465	7.898	15984	15296	0	316
14.497	15.903	15384	15432	0	316
18.356	18.608	15384	15500	0	316
16.625	16.516	15384	15534	0	316
10.927	12.622	15384	15704	0	316
7.032	8.150	15384	16010	0	316
5.517	3.534	15984	16316	0	316
5.806	1.262	15984	16486	0	316
8.835	2.416	15984	16690	0	316
10.566	6.671	16384	16962	0	316
11.864	12.730	16784	17234	0	316
10.855	16.336	16784	17336	0	316
8.042	15.795	16784	17336	0	316
4.291	10.891	16784	17268	0	316
2.669	7.212	16784	17166	0	316
1.839	5.085	16784	16996	0	316
2.056	5.662	16784	16724	0	316
2.669	6.203	16384	16452	0	316
3.426	5.409	16384	16180	0	316
3.931	5.049	15984	15908	0	316
5.409	4.544	15984	15704	0	316
6.094	6.635	15384	15534	0	316
6.491	11.360	15384	15398	0	316
9.881	15.795	14984	15194	0	316
11.035	17.021	14984	14990	0	316
12.658	14.172	14984	14888	0	316
12.009	7.068	14384	14956	0	316
8.439	-0.325	14384	15024	0	316
7.862	-4.400	13984	15092	0	316
8.691	-1.911	13984	15262	0	316
13.379	4.724	13984	15500	0	316
16.805	10.891	13984	15738	0	316
16.733	12.946	13984	15908	0	316
10.133	7.898	13984	16180	0	316
3.354	1.118	14384	16452	0	316
-1.623	-4.436	14384	16656	0	316
-1.587	-3.931	14384	16792	0	316
2.344	-1.082	14384	16928	0	316
6.888	3.137	14984	17098	0	316
7.212	5.229	15384	17200	0	316
6.131	3.750	15384	17234	0	316
4.364	2.777	15384	17234	0	316
2.560	1.803	15384	17166	0	316
2.777	0.036	15384	17166	0	316
0.721	-4.111	15384	17166	0	316
-1.298	-9.556	15384	17132	0	316
-2.380	-14.569	15384	17064	0	316
-2.633	-16.372	14984	16928	0	316
-1.442	-13.127	14984	16826	0	316
-0.613	-8.871	14984	16792	0	316
0.613	-6.022	15384	16928	0	316
2.308	-5.409	15384	17132	0	316
5.265	-4.075	15384	17234	0	316
9.520	-0.361	15984	17268	0	316
11.071	6.960	15984	17438	0	316
9.629	11.360	16384	17642	0	316
7.609	10.963	16384	17778	0	316
6.527	5.662	16784	17744	0	316
8.763	0.902	16784	17778	0	316
11.432	-2.092	17384	17778	0	316
12.441	-0.829	17384	17608	0	316
8.402	-0.036	17384	17268	0	316
4.364	0.252	17384	16962	0	316
2.957	0.108	16784	16656	0	316
5.914	3.101	16784	16384	1	536
10.386	9.448	16784	16078	0	536
13.091	12.874	16384	15738	0	536
12.117	13.163	16384	15500	0	536
9.088	8.475	15984	15398	0	536
8.583	1.803	15984	15330	0	536
6.816	-1.983	15984	15296	0	536
5.878	-1.875	15984	15296	0	536
4.688	1.226	15984	15330	0	536
3.210	4.616	15984	15398	0	536
5.409	5.986	15384	15432	0	536
6.960	7.140	15384	15432	0	536
8.475	6.599	15384	15398	0	536
9.376	7.212	14984	15330	0	536
8.294	8.078	14984	15364	0	536
10.566	8.186	15384	15636	0	536
11.756	8.619	15384	16112	0	536
14.100	7.032	15984	16486	0	536
13.848	6.275	15984	16690	0	536
13.271	4.436	16384	16894	0	536
10.963	3.029	16384	17166	0	536
10.314	5.193	16784	17336	0	536
10.891	8.475	16784	17404	0	536
11.828	13.776	17384	17608	0	536
13.451	20.411	17384	17846	0	536
16.697	22.683	17784	17914	0	536
19.870	23.549	17784	17744	0	536
21.565	20.555	17784	17438	0	536
20.519	16.552	17784	17030	0	536
15.146	11.756	17384	16622	0	536
8.006	7.645	17384	16282	0	536
2.741	4.111	16784	15908	0	536
2.633	3.498	16384	15466	0	536
6.167	3.931	15984	15058	0	536
7.357	7.212	15384	14752	0	536
6.131	8.943	15384	14514	0	536
3.498	9.701	14984	14344	0	536
0.649	8.114	14384	14242	0	536
3.210	7.970	13984	14242	0	536
9.556	8.439	13984	14310	0	536
15.723	12.369	13384	14446	0	536
18.788	13.163	13384	14548	0	536
16.625	12.081	13984	14718	0	536
15.002	9.665	13384	14922	0	536
12.441	8.258	13384	15194	0	536
13.884	11.179	13384	15534	0	536
14.713	13.631	13984	15976	0	536
12.946	15.290	13984	16384	0	536
8.655	12.297	14384	16826	0	536
3.390	8.619	14384	17302	0	536
2.705	5.590	14984	17676	0	536
6.167	6.131	15384	17846	0	536
14.497	10.674	15384	18050	0	536
20.014	15.146	15984	18254	0	536
20.808	15.002	15984	18356	0	536
16.697	10.746	15984	18322	0	536
10.278	4.183	16384	18220	0	536
5.049	-0.036	16384	18084	0	536
6.383	4.544	16384	17914	0	536
8.475	13.199	16384	17676	0	536
12.117	21.637	16384	17438	0	536
12.802	20.916	16384	17200	0	536
11.720	15.687	16384	16996	0	536
10.206	5.734	15984	16724	0	536
7.501	0.829	16384	16452	0	536
7.140	-0.180	16384	16316	0	536
7.501	3.642	16384	16316	0	536
8.619	7.789	16384	16384	0	536
10.350	9.196	16784	16588	0	536
10.206	9.412	16384	16894	0	536
7.609	5.481	16784	17302	0	536
4.760	3.282	17384	17506	0	536
3.498	-0.397	17384	17540	0	536
4.868	-0.793	17784	17608	0	536
8.655	1.695	18384	17778	0	536
11.215	6.671	18784	17846	0	536
9.737	11.287	18784	17744	0	536
6.599	13.018	18784	17642	0	536
2.669	10.530	19384	17506	0	536
0.216	4.364	19384	17336	1	316
1.442	0.036	19384	17064	0	316
7.068	0.288	19384	16690	0	316
12.009	4.652	18784	16316	0	316
17.923	10.350	18784	15874	0	316
19.546	14.281	17784	15534	0	316
17.562	13.956	17784	15194	0	316
13.523	10.350	17384	14854	0	316
11.287	8.475	16784	14514	0	316
10.025	6.852	16384	14140	0	316
10.638	6.203	15984	13867	0	316
10.242	6.599	15984	13663	0	316
8.835	4.147	15384	13595	0	316
6.599	2.741	14984	13561	0	316
7.501	4.364	14384	13629	0	316
8.042	6.744	14384	13867	0	316
10.386	8.150	14984	14208	0	316
10.061	8.619	14984	14480	0	316
9.016	5.698	14984	14752	0	316
5.842	1.947	14984	15160	0	316
3.570	-0.974	14984	15636	0	316
2.777	-3.282	14984	16078	0	316
5.229	-3.714	15384	16384	0	316
9.160	-3.137	15384	16724	0	316
13.812	0.541	15984	17166	0	316
15.146	7.825	15984	17472	0	316
13.054	15.975	16384	17574	0	316
9.268	21.781	16384	17540	0	316
8.078	22.791	16384	17438	0	316
7.068	15.543	15984	17268	0	316
6.058	6.527	15984	17098	0	316
2.200	-0.865	15984	16894	0	316
-0.505	-1.298	15984	16724	0	316
0.757	3.678	15384	16520	0	316
7.176	9.953	15384	16350	0	316
14.821	12.658	14984	16078	0	316
16.192	12.369	14384	15840	0	316
11.648	7.970	14384	15704	0	316
5.590	4.147	13984	15636	0	316
2.560	1.803	13984	15636	0	316
4.652	1.515	13984	15874	0	316
11.251	4.977	14984	16282	0	316
14.785	8.042	15384	16656	0	316
15.687	10.638	15384	16962	0	316
10.963	7.321	15984	17438	0	316
5.013	1.731	16384	18084	0	316
-0.180	-3.931	16784	18696	0	316
-0.685	-4.255	17384	19071	0	316
1.839	1.442	18384	19343	0	316
6.239	9.520	18784	19581	0	316
9.989	16.516	18784	19683	0	316
12.802	17.454	19384	19581	0	316
15.471	13.235	19784	19377	0	316
15.975	8.150	19784	19037	0	316
13.812	5.013	19784	18594	0	316
10.169	5.373	19784	18186	0	316
7.140	10.494	20384	17846	0	316
5.986	12.297	20384	17472	0	316
7.104	12.874	20384	17064	0	316
6.635	8.763	19384	16588	0	316
5.013	4.868	19384	16078	0	316
2.308	2.669	18784	15534	0	316
2.777	2.380	18384	15092	0	316
2.633	2.488	18384	14786	0	316
2.993	2.344	18384	14650	0	316
1.731	2.741	18384	14650	0	316
1.875	4.147	18384	14786	0	316
3.498	5.770	18384	14888	0	316
8.763	10.278	17784	14956	0	316
13.595	12.586	18384	15126	0	316
16.913	14.317	18384	15296	0	316
16.516	14.245	17784	15296	0	316
13.307	12.189	17784	15262	0	316
10.169	8.366	17784	15398	0	316
7.898	6.239	17784	15704	0	316
6.527	4.400	18384	15942	0	316
6.203	1.010	18384	16112	0	316
5.806	0.072	18784	16384	0	316
3.606	-2.092	18784	16690	0	316
4.255	0.288	19384	16894	1	316
4.255	4.616	19384	16962	0	316
4.796	8.979	19384	16860	0	316
4.940	8.655	19384	16690	0	316
5.517	6.708	19384	16452	0	316
5.265	3.354	18784	16214	0	316
5.373	3.570	18384	15908	0	316
7.140	5.806	18384	15636	0	316
6.563	10.638	17784	15398	0	316
5.301	12.081	17384	15092	0	316
5.265	10.819	16784	14752	0	316
3.714	8.402	16784	14446	0	316
4.147	4.327	16384	14242	0	316
5.157	1.947	15984	14072	0	316
7.285	1.370	15384	13936	0	316
7.645	2.993	14984	13936	0	316
6.744	4.832	14984	14106	0	316
3.606	6.167	14384	14276	0	316
1.731	5.986	14384	14514	0	316
0.397	4.652	14384	14922	0	316
0.180	0.793	14384	15398	0	316
0.216	-1.731	14384	15840	0	316
-0.541	-4.400	15384	16248	0	316
-2.056	-5.157	15384	16690	0	316
-4.003	-3.354	15984	17132	0	316
-4.904	1.442	15984	17404	0	316
-4.039	6.563	15984	17506	0	316
-2.560	11.179	15984	17438	0	316
2.669	8.763	15984	17302	0	316
5.085	3.282	15984	17098	0	316
5.554	-5.301	15384	16928	0	316
1.118	-12.441	15384	16792	0	316
-4.111	-12.081	15384	16724	0	316
-5.698	-8.294	14984	16622	0	316
-5.229	-2.092	14984	16486	0	316
-1.623	0.397	14984	16452	0	316
-0.216	-1.731	14984	16452	0	316
-1.154	-5.914	14384	16486	0	316
-3.173	-9.989	14384	16486	0	316
-4.111	-11.143	14384	16554	0	316
-2.777	-10.242	14384	16690	0	316
-3.029	-10.350	14984	16894	0	316
-4.364	-9.917	14984	17064	0	316
-5.085	-11.360	14984	17234	0	316
-4.364	-10.242	15384	17506	0	316
-1.587	-6.888	16384	17880	0	316
2.380	-0.902	16784	18220	0	316
5.049	4.616	16784	18424	0	316
2.885	7.429	16784	18594	0	316
-1.911	5.770	17384	18662	0	316
-6.744	0.938	17784	18594	0	316
-10.819	-3.390	17784	18322	0	316
-10.061	-4.652	17784	18050	0	316
-4.436	1.154	17784	17744	0	316
1.334	7.357	17784	17336	0	316
4.039	12.766	17384	16826	0	316
3.246	14.605	17384	16384	0	316
1.803	11.864	16784	16044	0	316
1.983	9.520	16784	15840	0	316
4.832	7.825	16784	15704	0	316
5.914	7.970	16384	15568	0	316
4.255	7.285	16384	15432	0	316
0.505	6.780	16384	15296	0	316
-0.577	4.760	15984	15126	0	316
2.813	2.128	15984	14922	0	316
6.599	2.596	15384	14786	0	316
8.366	4.796	15384	14888	0	316
6.888	7.789	15384	14990	0	316
2.633	13.631	15384	15092	0	316
0.613	14.641	15384	15330	0	316
1.479	14.172	15384	15602	0	316
2.380	10.061	15384	15874	0	316
2.885	6.383	15384	16078	0	316
-0.036	3.750	15984	16384	0	316
-3.282	2.380	15984	16690	0	316
-6.780	0.829	16384	16894	0	316
-6.131	-0.108	16384	16962	0	316
-3.750	0.397	16384	17098	0	316
-1.226	2.885	16784	17336	0	316
1.623	4.940	16784	17438	0	316
4.291	6.816	16784	17370	0	316
5.157	5.986	17384	17268	0	316
5.301	3.678	17384	17166	0	316
1.947	4.111	17384	17030	0	316
-2.957	4.652	17384	16928	0	316
-5.193	6.383	17384	16758	0	316
-3.065	7.068	17384	16588	0	316
3.246	8.330	16784	16384	0	316
9.304	9.196	16784	16180	0	316
13.018	11.720	16384	15942	0	316
11.792	13.631	16384	15738	0	316
10.097	11.504	16384	15602	0	316
8.439	9.304	15984	15500	0	316
6.671	5.337	15984	15534	0	316
5.445	5.229	15984	15704	0	316
6.131	6.383	16384	15976	0	316
5.914	10.422	16384	16146	0	316
6.419	11.215	16384	16282	0	316
8.186	10.458	16784	16588	0	316
7.789	6.527	17384	17030	0	316
6.996	3.570	17384	17302	0	316
4.436	0.865	17784	17404	0	316
2.128	1.370	17784	17540	0	316
0.397	4.183	18384	17676	0	316
0.829	6.744	18384	17676	0	316
4.904	8.799	18384	17472	0	316
9.556	9.592	18384	17132	0	316
13.163	10.530	18384	16758	0	316
13.920	9.412	17784	16418	0	316
11.035	9.304	17784	16180	0	316
10.025	7.753	17784	15976	0	316
8.943	9.232	16784	15738	0	316
12.369	11.035	16784	15500	0	316
14.677	14.894	16384	15228	0	316
15.903	17.274	15984	15024	0	316
13.956	15.759	15984	14854	0	316
9.592	11.648	15384	14718	0	316
5.013	5.806	15384	14582	0	316
2.200	2.741	15384	14548	0	316
0.938	2.777	15384	14684	0	316
2.272	5.229	15384	14956	0	316
3.606	9.124	15384	15228	0	316
4.796	10.566	15384	15500	0	316
4.003	8.979	15384	15874	0	316
4.544	7.934	15984	16316	0	316
5.409	7.357	15984	16656	0	316
6.491	8.006	16384	16928	0	316
6.599	7.140	16384	17268	0	316
4.003	4.436	16784	17642	0	316
0.865	-0.397	17384	17880	0	316
-1.334	-3.065	17384	17948	0	316
-1.154	-2.777	17384	17880	0	316
1.839	2.957	17384	17710	0	316
6.527	11.432	17384	17506	0	316
12.694	17.274	17384	17234	0	316
16.408	18.536	17384	16962	0	316
17.202	13.307	17384	16724	0	316
12.333	3.642	16384	16486	0	316
5.409	-4.724	16384	16248	0	316
0.361	-6.563	16384	16078	0	316
0.036	-2.849	16384	16010	0	316
5.301	3.787	15984	16010	0	316
12.405	9.701	15984	15908	0	316
15.326	10.638	16384	15772	0	316
14.605	9.592	15984	15568	0	316
11.107	7.862	15984	15364	0	316
10.350	9.340	15384	15228	0	316
12.081	11.468	15384	15194	0	316
15.615	14.028	15384	15330	0	316
16.156	13.199	15384	15636	0	316
12.874	10.927	15384	15908	0	316
5.590	7.032	15384	16146	0	316
3.354	5.590	15984	16418	0	316
3.787	5.373	15984	16792	0	316
7.176	5.806	16384	17030	0	316
10.494	5.049	16384	17166	0	316
9.376	5.337	16784	17438	0	316
7.609	6.275	17384	17778	0	316
6.203	9.340	17384	17982	0	316
7.717	16.444	17784	18016	0	316
12.658	20.772	17784	17880	0	316
16.589	20.952	17784	17676	0	316
17.634	16.192	17784	17302	0	316
17.418	10.169	16784	16792	0	316
15.687	7.321	16384	16282	0	316
12.369	6.383	15984	15772	0	316
8.727	8.511	15384	15364	0	316
4.724	8.366	15984	15058	0	316
2.813	6.455	15384	14820	0	316
3.931	6.419	14984	14582	0	316
9.520	6.599	14384	14412	0	316
13.235	6.744	14384	14310	0	316
14.028	4.364	13984	14344	0	316
7.285	1.911	13384	14378	0	316
1.767	0.361	13384	14446	0	316
-2.633	1.875	12984	14480	0	316
-1.515	3.065	12984	14616	0	316
0.685	5.157	12984	14854	0	316
4.039	3.354	12984	15330	0	316
2.560	2.272	13984	15840	0	316
0.685	1.551	13984	16350	0	316
0.721	1.839	13984	16894	0	316
1.875	2.344	14384	17506	0	316
4.255	4.508	14984	17948	0	316
4.075	5.626	14984	18084	0	316
3.101	6.635	15384	18152	0	316
0.252	6.924	15384	18152	0	316
-0.721	7.140	15384	18118	0	316
2.560	8.294	15384	18016	0	316
7.176	12.045	15984	17880	0	316
10.350	16.625	15984	17744	0	316
10.278	19.906	15984	17608	1	764
7.645	19.798	15984	17438	0	764
4.219	15.254	15984	17302	0	764
4.400	12.405	15384	17132	0	764
7.609	10.855	15384	16894	0	764
11.900	14.533	15384	16588	0	764
14.281	19.618	14984	16350	0	764
10.963	20.772	14984	16248	0	764
8.402	17.418	14984	16248	0	764
4.616	11.251	14984	16214	0	764
5.734	7.501	15384	16146	0	764
7.393	6.239	15384	16180	0	764
8.258	6.888	15384	16384	0	764
8.186	9.376	15384	16418	0	764
6.094	9.448	15384	16418	0	764
7.429	11.071	15984	16520	0	764
9.304	13.884	15984	16758	0	764
12.838	16.156	16384	16996	0	764
13.127	15.831	16384	17064	0	764
13.199	12.946	16384	17064	0	764
10.999	11.648	16384	16996	0	764
8.907	10.458	16384	16860	0	764
6.094	12.225	16384	16690	0	764
4.183	12.802	16384	16554	0	764
5.554	11.251	16384	16418	0	764
9.088	10.783	16384	16350	0	764
14.461	12.550	16384	16282	0	764
19.582	16.697	16384	16146	0	764
20.844	21.024	15984	15942	0	764
21.673	21.313	15984	15704	0	764
21.637	18.824	15384	15432	0	764
22.503	17.057	14984	15160	0	764
20.231	17.129	14384	14820	0	764
17.310	17.851	13984	14514	0	764
10.602	17.959	13984	14344	0	764
7.609	15.182	13384	14378	0	764
6.744	13.559	13384	14752	0	764
10.638	12.333	13984	15262	0	764
15.218	15.326	13984	15738	0	764
19.942	19.185	14384	16078	0	764
24.162	22.070	14984	16418	0	764
25.207	21.421	15384	16792	0	764
22.863	18.536	15384	17064	0	764
18.933	14.136	15384	17268	0	764
13.668	9.232	15984	17540	0	764
9.809	9.196	16384	17846	0	764
9.881	9.592	16384	18050	0	764
9.268	10.638	16784	18118	0	764
8.402	10.566	16784	18118	0	764
6.419	8.402	17384	18152	0	764
5.842	8.294	17384	18118	0	764
4.724	7.717	16784	17982	0	764
3.318	8.835	17384	17812	0	764
3.750	8.402	17384	17574	0	764
4.508	8.114	17384	17336	0	764
6.455	7.825	17384	17064	0	764
10.458	8.943	16784	16724	0	764
10.314	11.648	16784	16486	0	764
9.052	13.307	16784	16316	0	764
5.626	10.530	16384	16112	0	764
2.524	8.547	16384	15942	0	764
2.488	6.022	16384	15942	0	764
2.633	8.583	16784	16078	0	764
3.065	11.648	16784	16214	0	764
3.065	14.966	16784	16214	0	764
1.875	15.615	16784	16350	0	764
0.865	13.235	17384	16622	0	764
1.551	9.160	17784	16962	0	764
4.147	8.871	18384	17200	0	764
7.140	8.330	18784	17438	0	764
7.429	9.917	18784	17642	0	764
6.419	11.215	19384	17642	0	764
3.750	12.117	19384	17472	0	764
1.442	8.943	19384	17166	0	764
-0.180	3.570	19384	16894	0	764
-0.974	-1.659	19384	16622	0	764
-1.767	-2.524	19384	16384	0	764
-1.262	0.397	18784	16180	0	764
0.180	7.862	18384	15908	0	764
1.767	16.192	18384	15670	1	316
1.875	20.375	18384	15466	0	316
0.361	18.211	18384	15364	0	316
-0.252	12.117	17784	15330	0	316
1.082	3.787	17784	15262	0	316
3.390	-0.072	17784	15194	0	316
3.173	0.505	17784	15194	0	316
0.829	4.688	17784	15330	0	316
-3.462	7.934	17784	15602	0	316
-6.455	8.114	18384	15874	0	316
-7.032	6.816	17784	15976	0	316
-4.868	4.147	18384	16146	0	316
-4.400	1.154	18784	16350	0	316
-4.436	0.180	18384	16486	0	316
-4.724	-1.262	18384	16588	0	316
-4.760	0.252	18784	16792	0	316
-6.996	3.173	18784	17030	0	316
-9.304	1.767	19384	17064	0	316
-11.612	-2.921	19384	16860	0	316
-12.117	-8.727	19384	16656	0	316
-10.242	-12.153	18784	16486	0	316
-6.419	-10.386	18784	16350	0	316
-2.200	-4.544	18784	16044	0	316
0.541	2.272	18384	15670	0	316
3.895	7.573	17384	15330	0	316
5.878	9.124	17384	15024	0	316
5.157	7.032	16784	14752	0	316
1.046	1.298	16384	14514	0	316
-3.390	-3.137	15984	14276	0	316
-4.183	-2.957	15384	14072	0	316
-2.344	3.173	14984	13970	0	316
1.767	9.088	14384	13970	0	316
6.527	12.117	14984	14038	0	316
7.645	8.727	14384	14106	0	316
6.708	5.409	13984	14174	0	316
7.465	5.013	13984	14242	0	316
7.104	9.665	13384	14446	0	316
7.970	14.966	13384	14786	0	316
7.248	16.769	13384	15126	0	316
4.364	13.740	13384	15466	0	316
1.010	7.212	13384	15942	0	316
-2.488	4.291	13384	16452	0	316
-4.219	5.554	13984	16860	0	316
-2.777	11.792	14384	17166	0	316
-0.036	17.923	15384	17540	0	316
2.344	17.887	14984	17914	0	316
4.868	12.838	15384	18186	0	316
6.203	8.330	15384	18322	0	316
6.924	8.979	15984	18390	0	316
8.366	13.848	15984	18356	0	316
9.773	18.031	15984	18254	0	316
9.304	16.084	15984	18118	0	316
7.068	9.412	15984	17982	0	316
2.056	1.262	15984	17914	0	316
-1.875	-2.272	15984	17812	0	316
-2.957	-2.019	15984	17642	0	316
-1.298	0.541	15984	17438	0	316
1.947	3.354	15984	17268	0	316
2.885	6.888	15984	17166	0	316
1.226	8.799	15984	17064	0	316
-1.370	10.891	15984	16962	0	316
-1.839	12.081	15984	16962	0	316
0.252	11.504	16384	17132	0	316
2.092	10.169	16384	17302	0	316
1.370	9.196	16784	17370	0	316
0.757	8.186	16784	17574	0	316
1.947	9.665	17384	17846	0	316
7.898	14.605	17784	17914	0	316
12.514	18.500	17784	17812	0	316
13.271	19.726	18384	17744	0	316
8.871	16.733	18384	17778	0	316
1.767	11.432	18784	17744	0	316
-2.380	5.517	18384	17540	0	316
-3.318	0.361	18784	17268	0	316
-2.236	-2.272	18384	16996	0	316
-3.967	-1.226	18384	16724	0	316
-3.318	1.839	18384	16384	0	316
-1.262	6.960	18384	16112	0	316
1.154	9.953	17784	15772	0	316
2.777	9.052	17384	15398	1	316
-0.108	3.065	17384	15024	0	316
-4.111	-2.741	16784	14684	0	316
-7.681	-5.049	16384	14276	0	316
-7.104	-4.616	15984	13867	0	316
-2.236	-0.144	15384	13527	0	316
1.875	5.013	14984	13357	0	316
3.570	8.366	14384	13459	0	316
2.272	10.746	14384	13765	0	316
1.046	8.402	14384	14038	0	316
1.298	6.816	13984	14174	0	316
3.498	5.481	13984	14446	0	316
6.347	6.419	14384	14922	0	316
5.950	10.638	14984	15296	0	316
4.544	12.550	14384	15500	0	316
-0.613	12.297	14984	15806	0	316
-3.137	7.717	14984	16214	0	316
-5.950	0.938	14984	16486	0	316
-6.167	-2.885	14984	16622	0	316
-1.839	-1.731	14984	16758	0	316
7.393	3.714	14984	16928	0	316
14.569	9.737	14984	16928	0	316
18.320	14.966	14984	16860	0	316
15.723	17.779	14984	16792	0	316
9.160	17.526	14984	16758	0	316
5.662	17.454	14984	16724	0	316
6.094	16.661	14384	16758	0	316
8.150	15.831	14384	16758	0	316
8.619	13.920	14384	16826	0	316
6.239	13.920	14984	16826	0	316
4.291	13.235	14984	16724	0	316
7.248	12.802	14984	16588	0	316
11.432	11.432	14384	16486	0	316
16.805	11.215	14384	16384	0	316
19.005	12.982	14384	16282	0	316
17.346	15.507	14384	16316	0	316
14.317	15.435	14384	16486	0	316
14.353	13.920	14384	16758	0	316
16.264	9.052	14384	16894	0	316
20.159	5.986	14984	16962	0	316
23.404	8.222	14984	17132	0	316
23.729	11.756	14984	17370	0	316
