neuroNicle FX2
D3F25R12
Bluetooth SPP
2023년 6월 2일 금요일
오전 10:18
time interval = 4msec
EEG1	EEG2	PPG	sdPPG	pulse	peak_interval(msec)
65.236	77.714	1	15514	0	316
56.581	62.387	1	15368	0	316
46.159	45.366	1	15329	0	316
37.937	36.783	1	15301	0	316
41.796	42.229	1	15262	0	316
51.388	57.880	1	15250	0	316
61.666	71.042	1	15289	0	316
64.154	77.245	1	15344	0	316
62.099	73.350	1	15321	0	316
56.365	64.984	1	15167	0	316
54.598	60.548	1	14935	0	316
52.578	58.276	1	14741	0	316
56.870	57.591	1	14623	0	316
58.312	57.483	1	14560	0	316
61.161	57.880	1	14556	0	316
61.125	61.558	1	14600	0	316
58.348	66.066	1	14663	0	316
51.677	64.840	1	14730	0	316
49.585	59.214	1	14816	0	316
51.857	53.119	1	14954	0	316
60.873	47.710	1	15139	0	316
68.338	51.713	1	15281	0	316
71.331	56.617	1	15329	0	316
66.354	60.945	1	15356	0	316
57.303	60.512	1	15443	0	316
52.723	58.457	1	15596	0	316
50.018	56.762	1	15723	0	316
51.244	50.379	1	15758	0	316
49.369	44.861	1	15793	0	316
44.825	36.675	1	15888	0	316
42.193	33.429	1	16006	0	316
43.058	36.855	1	16093	0	316
46.592	44.789	1	16085	0	316
54.959	52.398	1	15920	0	316
55.716	54.129	1	15691	0	316
52.975	50.956	1	15620	0	316
43.707	43.779	1	15699	0	316
35.774	37.000	1	15707	0	316
33.213	37.072	1	15478	0	316
35.449	38.658	1	15029	0	316
40.173	40.534	1	14627	0	316
40.930	37.757	1	14517	0	316
38.009	32.889	1	14604	0	316
33.393	22.972	1	14761	0	316
30.184	18.211	1	14998	0	316
35.197	20.014	1	15313	0	316
42.373	27.155	1	15683	0	316
51.605	34.728	1	16077	0	316
53.552	39.740	1	16462	0	316
52.398	40.570	1	16821	0	316
44.392	41.003	1	17116	0	316
39.091	41.147	1	17349	0	316
37.396	43.671	1	17550	0	316
41.904	42.770	1	17727	0	316
46.268	38.406	1	17877	0	316
47.277	35.124	1	17983	0	316
46.268	34.764	1	18054	0	316
46.376	38.767	1	18094	0	316
44.969	42.193	1	18129	0	316
45.005	40.858	1	18149	0	316
45.186	35.593	1	18097	0	316
45.041	30.364	1	17987	0	316
43.779	26.974	1	17944	0	316
43.996	26.758	1	17995	0	316
43.996	26.325	1	18046	0	316
41.832	24.486	1	18050	0	316
36.928	22.791	1	17991	0	316
35.593	25.027	1	17873	0	316
36.928	28.958	1	17739	0	316
38.550	32.276	1	17621	0	316
40.678	32.744	1	17483	0	316
41.868	27.768	1	17302	0	316
41.363	23.476	1	17116	0	316
46.051	25.532	1	16967	0	316
50.054	28.201	1	16856	0	316
55.896	32.023	1	16746	0	316
54.490	29.679	1	16569	0	316
52.398	24.089	1	16369	0	316
49.153	22.358	1	16223	0	316
46.556	24.919	1	16199	0	316
43.202	33.069	1	16282	0	316
35.521	37.432	1	16407	0	316
26.037	34.944	1	16549	0	316
23.260	30.040	1	16691	0	316
25.568	26.686	1	16817	0	316
34.295	25.856	1	16935	0	316
40.750	27.191	1	17034	0	316
43.815	28.092	1	17120	0	316
43.274	28.237	1	17231	0	316
44.825	28.381	1	17357	0	316
46.953	31.951	1	17479	0	316
47.962	35.882	1	17605	0	316
49.730	38.514	1	17751	0	316
46.989	41.652	1	17920	0	316
47.494	41.616	1	18101	0	316
50.270	39.452	1	18283	0	316
50.054	35.918	1	18440	0	316
48.359	33.466	1	18570	0	316
43.707	33.574	1	18661	0	316
38.839	37.000	1	18673	0	316
38.947	42.084	1	18621	0	316
42.229	42.914	1	18610	0	316
45.150	37.468	1	18602	0	316
45.041	32.925	1	18432	0	316
40.317	26.866	32768	18117	0	316
37.360	24.053	32768	17877	0	316
35.449	25.279	32768	17830	0	316
36.387	25.207	32768	17912	0	316
37.000	24.522	32768	18038	0	316
37.505	25.676	32768	18133	0	316
36.891	27.876	32768	18176	0	316
36.351	30.761	32768	18200	0	316
38.839	32.348	32768	18157	0	316
36.459	27.840	32768	17893	0	316
32.853	19.041	32768	17420	0	316
30.545	12.117	32768	16982	0	316
29.895	13.920	32768	16718	0	316
32.384	18.500	32768	16588	0	316
37.757	26.325	32768	16561	0	316
41.003	28.381	32768	16600	0	316
38.406	25.965	32768	16671	0	316
36.278	22.467	32768	16746	0	316
34.079	25.820	32768	16785	0	316
34.223	30.977	32768	16793	0	316
38.658	37.577	32768	16797	0	316
45.546	41.147	32768	16754	0	316
48.395	41.580	32768	16569	0	316
46.628	37.973	32768	16266	0	316
43.887	33.718	32768	16006	0	316
41.111	29.535	32768	15845	0	316
41.688	29.463	32768	15699	0	316
44.464	31.085	32768	15545	0	316
47.277	36.891	32768	15376	0	316
45.618	41.904	32768	15128	0	316
40.714	44.897	32768	14765	0	316
38.731	43.347	32768	14407	0	316
37.072	39.272	32768	14154	0	316
36.603	34.583	32768	13989	0	316
35.016	29.607	32768	13827	0	316
35.305	27.768	32768	13658	0	316
35.197	30.076	32768	13556	0	316
37.901	31.374	32768	13548	0	316
40.065	33.934	32768	13575	0	316
44.140	35.052	32768	13559	0	316
45.402	35.990	32768	13520	0	316
42.625	36.134	32768	13552	0	316
39.127	34.728	32768	13717	0	316
34.259	31.843	32768	13973	0	316
31.446	25.893	32768	14261	0	316
31.662	22.863	32768	14541	0	316
34.764	24.955	32768	14860	0	316
35.810	26.938	32768	15206	0	316
34.620	29.499	32768	15553	0	316
30.905	28.381	32768	15884	0	316
27.876	24.739	32768	16191	0	316
28.453	19.510	32768	16470	0	316
31.302	18.933	32768	16750	0	316
38.586	25.352	32768	17049	0	316
46.484	34.403	32768	17325	0	316
51.424	43.707	32768	17455	0	316
50.956	50.415	32768	17349	0	316
48.576	47.133	32768	17089	0	316
42.012	39.668	32768	16915	0	316
36.783	32.059	32768	16915	0	316
33.466	24.234	32768	17034	0	316
32.095	16.841	32768	17195	0	316
33.357	9.809	32768	17353	0	316
36.278	4.219	32768	17495	0	316
39.344	3.787	32768	17640	0	316
42.193	8.366	32768	17751	0	316
44.032	15.651	32768	17833	0	316
44.032	22.575	32768	17912	0	316
43.779	23.440	32768	17940	0	316
41.796	22.503	32768	17861	0	316
43.887	21.926	32768	17696	0	316
47.061	21.529	32768	17550	0	316
51.424	23.765	32768	17420	0	316
55.247	26.938	32768	17239	1	788
50.523	25.532	32768	17006	0	788
45.114	22.611	32768	16809	0	788
39.416	22.575	32768	16675	0	788
37.901	22.214	32768	16525	0	788
38.875	21.204	32768	16282	0	788
39.235	18.067	32768	15994	0	788
37.793	8.294	32768	15829	0	788
33.502	1.370	32768	15825	0	788
29.427	2.705	32768	15880	0	788
27.587	11.179	32768	15912	0	788
29.427	24.162	32768	15900	0	788
33.429	32.312	32768	15825	0	788
37.937	30.328	32768	15608	0	788
40.317	21.926	32768	15301	0	788
38.478	14.497	32768	15080	0	788
33.826	11.107	32768	14998	0	788
32.889	18.788	32768	15017	0	788
34.908	29.895	32768	15128	0	788
40.498	39.596	32768	15332	0	788
45.150	44.933	32768	15577	0	788
46.232	42.120	32768	15793	0	788
45.979	40.245	32768	15971	0	788
45.186	38.190	32768	16113	0	788
44.284	35.557	32768	16187	0	788
43.887	31.302	32768	16124	0	788
39.740	22.539	32768	15963	0	788
33.321	11.828	32768	15829	0	788
26.397	5.013	32768	15786	0	788
17.995	4.327	32768	15809	0	788
14.930	5.950	32768	15860	0	788
12.910	9.629	32768	15908	0	788
16.877	12.622	32768	15955	0	788
21.132	13.848	32768	15963	0	788
24.306	12.622	32768	15857	0	788
22.683	10.025	32768	15695	0	788
17.670	6.203	32768	15699	0	788
13.740	4.868	32768	15904	0	788
16.805	6.167	32768	16085	0	788
22.322	10.999	32768	16073	0	788
31.158	16.264	32768	15935	0	788
37.360	18.897	32768	15821	0	788
39.055	19.005	32768	15809	0	788
38.586	20.087	32768	15896	0	788
36.495	21.024	32768	16034	0	788
31.049	15.471	32768	16160	0	788
23.729	9.160	32768	16294	0	788
17.743	2.272	32768	16454	0	788
13.812	-1.515	32768	16616	0	788
18.752	1.046	32768	16714	0	788
23.332	6.635	32768	16722	0	788
27.948	8.114	32768	16671	0	788
25.135	3.534	32768	16608	0	788
16.228	-5.265	32768	16545	0	788
6.311	-15.975	32768	16462	0	788
-1.479	-21.745	32768	16337	0	788
-2.560	-23.224	32768	16199	0	788
2.777	-17.382	32768	16136	0	788
8.366	-10.602	32768	16172	0	788
8.799	-8.583	32768	16258	0	788
0.469	-18.608	32768	16310	0	788
-18.103	-36.242	32768	16262	0	788
-36.928	-56.870	32768	16038	0	788
-50.884	-70.646	32768	15703	0	788
-53.877	-72.304	1	15459	0	788
-43.310	-65.669	1	15336	0	788
-34.403	-58.529	1	15262	0	788
-26.758	-56.040	1	15222	0	788
-29.535	-60.728	1	15238	0	788
-39.596	-70.177	1	15301	0	788
-50.559	-75.947	1	15360	0	788
-56.617	-74.684	1	15396	0	788
-54.165	-69.924	1	15384	0	788
-49.946	-64.623	1	15293	0	788
-43.635	-65.525	1	15155	0	788
-40.534	-70.141	1	15084	0	788
-39.091	-74.684	1	15124	0	788
-38.370	-74.684	1	15195	0	788
-39.380	-74.432	1	15191	0	788
-43.599	-78.976	1	15147	0	788
-51.569	-87.667	1	15238	0	788
-59.394	-95.384	1	15482	0	788
-61.017	-99.639	1	15750	0	788
-57.880	-96.466	1	15967	0	788
-56.653	-92.283	1	16124	0	788
-55.355	-92.211	1	16251	0	788
-59.034	-94.050	1	16377	0	788
-62.243	-96.286	1	16514	0	788
-59.034	-97.151	1	16647	0	788
-51.893	-93.581	1	16730	0	788
-43.238	-85.142	1	16801	0	788
-37.360	-78.074	1	16939	0	788
-33.538	-72.088	1	17112	0	788
-34.583	-71.727	1	17223	0	788
-35.233	-75.658	1	17242	0	788
-33.682	-75.261	1	17219	0	788
-28.633	-70.141	1	17211	0	788
-20.952	-58.745	1	17262	0	788
-18.320	-51.136	1	17341	0	788
-19.401	-50.775	1	17380	0	788
-26.037	-59.863	1	17372	0	788
-32.384	-68.085	1	17369	0	788
-33.826	-72.845	1	17404	0	788
-30.508	-71.295	1	17471	0	788
-26.542	-65.994	1	17534	0	788
-20.880	-61.991	1	17589	0	788
-21.601	-62.532	1	17656	0	788
-22.503	-64.299	1	17743	0	788
-23.981	-67.003	1	17822	0	788
-26.433	-66.895	1	17873	0	788
-25.460	-63.109	1	17924	0	788
-19.870	-59.286	1	17987	0	788
-15.795	-56.942	1	18007	0	788
-10.783	-56.473	1	18034	0	788
-5.590	-57.122	1	18247	0	788
-2.272	-55.680	1	18606	0	788
3.714	-48.612	1	18866	0	788
6.275	-43.743	16384	18917	0	788
9.232	-42.445	32768	18878	0	788
6.635	-44.537	32768	18889	0	788
3.498	-46.592	32768	18988	0	788
3.173	-46.592	32768	19146	0	788
9.088	-37.432	32768	19311	0	788
21.854	-20.772	32768	19437	0	788
36.242	-1.875	32768	19536	0	788
48.107	11.035	32768	19626	0	788
53.191	13.199	32768	19681	0	788
47.133	5.806	32768	19685	0	788
39.668	-8.619	32768	19622	0	788
32.853	-14.858	32768	19504	0	788
33.826	-8.258	32768	19374	1	520
44.248	6.780	32768	19252	0	520
58.168	21.024	32768	19106	0	520
67.761	26.650	32768	18905	0	520
68.374	18.175	32768	18685	0	520
58.168	4.616	32768	18499	0	520
49.730	-7.429	32768	18377	0	520
45.438	-12.297	32768	18275	0	520
50.956	-8.006	32768	18105	0	520
58.096	-1.442	32768	17845	0	520
62.532	1.695	32768	17487	0	520
60.620	1.154	32768	17053	0	520
51.605	-2.993	32768	16596	0	520
43.202	-7.501	32768	16187	0	520
38.658	-9.592	32768	15864	0	520
36.351	-9.556	32768	15612	0	520
39.344	-7.176	32768	15415	0	520
42.120	-9.016	32768	15246	0	520
39.344	-10.422	32768	15069	0	520
32.672	-15.074	32768	14836	0	520
25.712	-16.264	32768	14521	0	520
17.418	-19.942	32768	14158	0	520
13.415	-20.844	32768	13867	0	520
13.343	-27.948	32768	13674	0	520
12.081	-35.160	32768	13540	0	520
13.163	-43.022	32768	13429	0	520
13.163	-47.890	32768	13292	0	520
14.353	-45.510	32768	13138	0	520
16.192	-38.442	32768	13063	0	520
14.353	-34.187	32768	13091	0	520
12.405	-28.958	32768	13177	0	520
7.898	-29.751	32768	13260	0	520
4.147	-31.662	32768	13327	0	520
5.085	-33.213	32768	13445	0	520
7.681	-32.780	32768	13662	0	520
10.133	-34.547	32768	13918	0	520
10.422	-36.783	32768	14107	0	520
8.691	-38.514	32768	14210	0	520
9.376	-36.134	32768	14340	0	520
11.432	-33.105	32768	14548	0	520
12.910	-31.735	32768	14769	0	520
14.605	-31.554	32768	14954	0	520
14.641	-36.351	32768	15088	0	520
12.333	-38.658	32768	15218	0	520
15.182	-35.593	32768	15384	0	520
14.785	-30.184	32768	15636	0	520
14.930	-27.191	32768	15943	0	520
11.432	-29.607	32768	16219	0	520
6.419	-36.495	32768	16391	0	520
1.911	-45.727	32768	16399	0	520
0.397	-52.867	32768	16310	0	520
1.515	-52.362	32768	16266	0	520
4.472	-48.576	32768	16302	0	520
6.708	-41.219	32768	16373	0	520
5.770	-37.757	32768	16510	0	520
2.380	-38.586	32768	16718	0	520
2.921	-38.045	32768	16951	0	520
6.888	-37.901	32768	17160	0	520
10.314	-35.557	32768	17309	0	520
12.874	-33.321	32768	17365	0	520
6.960	-37.505	32768	17361	0	520
-1.695	-42.084	32768	17388	0	520
-8.691	-46.376	32768	17463	0	520
-10.746	-46.268	32768	17530	0	520
-7.825	-44.140	32768	17542	0	520
-6.275	-44.068	32768	17459	0	520
-4.291	-42.625	32768	17353	0	520
-6.311	-39.885	32768	17412	0	520
-8.691	-39.993	32768	17605	0	520
-17.959	-46.448	32768	17743	0	520
-30.725	-62.495	32768	17763	0	520
-43.743	-81.392	32768	17699	0	520
-48.035	-88.460	32768	17617	0	520
-44.464	-80.202	32768	17566	0	520
-32.780	-62.784	32768	17550	0	520
-25.893	-47.205	32768	17483	0	520
-23.765	-49.621	32768	17329	0	520
-26.722	-59.322	32768	17164	0	520
-28.597	-71.872	32768	17073	0	520
-27.624	-76.415	32768	17018	0	520
-23.188	-73.567	32768	16951	0	520
-19.942	-67.292	32768	16848	0	520
-21.132	-63.361	32768	16726	0	520
-24.162	-61.810	32768	16632	0	520
-31.915	-62.495	32768	16588	0	520
-38.695	-64.479	32768	16553	0	520
-41.471	-68.013	32768	16411	0	520
-40.858	-71.511	32768	16065	0	520
-38.767	-75.875	32768	15624	0	520
-35.052	-76.379	32768	15329	0	520
-34.656	-74.540	32768	15214	0	520
-35.377	-71.403	32768	15128	0	520
-37.432	-68.554	32768	14994	0	520
-43.599	-67.544	32768	14797	0	520
-44.248	-64.767	32768	14580	0	520
-42.301	-60.909	32768	14434	0	520
-36.170	-56.978	32768	14375	0	520
-30.400	-55.355	32768	14363	0	520
-28.417	-57.880	32768	14379	0	520
-27.624	-61.125	32768	14387	0	520
-27.299	-59.719	32768	14387	0	520
-23.116	-51.749	32768	14411	0	520
-21.168	-48.684	32768	14438	0	520
-22.863	-49.874	32768	14442	0	520
-28.994	-53.696	32768	14454	0	520
-31.879	-57.158	32768	14513	0	520
-30.941	-54.093	32768	14674	0	520
-27.083	-45.799	32768	14966	0	520
-25.496	-42.625	32768	15258	0	520
-25.856	-47.926	32768	15431	0	520
-28.056	-52.110	32768	15506	0	520
-26.253	-51.929	32768	15585	0	520
-20.952	-41.724	32768	15711	0	520
-14.172	-30.905	32768	15876	0	520
-11.756	-25.640	32768	16038	0	520
-13.487	-30.761	32768	16152	0	520
-13.271	-39.488	32768	16282	0	520
-15.182	-48.035	32768	16454	0	520
-12.405	-47.097	32768	16632	0	520
-9.088	-45.041	32768	16762	0	520
-9.989	-44.573	32768	16825	0	520
-10.169	-47.674	32768	16848	0	520
-8.619	-47.061	32768	16876	0	520
-5.842	-43.383	32768	16971	0	520
-0.180	-34.367	32768	17077	0	520
1.118	-25.856	32768	17041	0	520
-1.515	-23.801	32768	16766	0	520
-8.258	-29.535	32768	16384	0	520
-11.648	-37.036	32768	16152	0	520
-10.133	-38.226	32768	16105	0	520
-8.763	-34.259	32768	16093	0	520
-4.616	-27.551	32768	16065	0	520
-4.544	-26.073	32768	16054	0	520
-4.616	-27.443	32768	16073	0	520
-2.813	-30.508	32768	16101	0	520
-1.731	-30.004	32768	16117	0	520
-3.859	-23.224	32768	16136	0	520
-8.330	-16.516	32768	16156	0	520
-14.713	-14.064	32768	16124	0	520
-17.670	-21.421	32768	16050	0	520
-20.267	-27.047	32768	15990	0	520
-20.050	-34.908	32768	15963	0	520
-20.050	-36.134	1	15951	0	520
-18.320	-33.574	1	15931	0	520
-16.589	-30.725	1	15939	0	520
-11.864	-26.542	1	16073	0	520
-9.016	-25.604	1	16325	0	520
-6.383	-17.815	1	16541	0	520
-2.596	-12.802	1	16616	0	520
0.325	-10.278	1	16565	0	520
0.793	-11.396	1	16498	0	520
-0.974	-16.913	1	16490	0	520
-4.255	-17.490	1	16521	0	614
20.664	15.939	1	19740	0	748
18.860	11.215	1	20012	0	748
16.913	6.527	1	20296	0	748
19.077	4.796	1	20584	0	748
20.411	9.124	1	20824	0	748
23.873	13.127	1	20993	0	748
23.981	18.860	1	21100	0	748
18.752	18.247	1	21127	0	748
12.009	9.809	1	21025	0	748
5.806	-0.361	1	20808	0	748
2.308	-10.566	1	20603	0	748
3.534	-9.881	1	20430	0	748
6.094	-2.921	1	20170	1	768
7.429	6.635	1	19851	0	768
10.494	17.634	32768	19670	0	768
10.314	19.762	32768	19634	0	768
9.304	17.202	32768	19512	0	768
6.780	8.222	32768	19205	0	768
2.596	-0.757	32768	18811	0	768
1.046	-3.823	32768	18444	0	768
4.760	-0.938	32768	18153	0	768
8.871	5.265	32768	17920	0	768
11.396	11.504	32768	17688	0	768
8.691	11.179	32768	17412	0	768
1.118	7.717	32768	17105	0	768
-6.780	3.101	32768	16699	0	768
-13.343	-0.288	32768	16195	0	768
-11.071	-2.128	32768	15727	0	768
-2.885	-0.938	32768	15340	0	768
6.311	2.308	32768	15021	0	768
10.819	2.633	32768	14805	0	768
5.842	-2.380	32768	14702	0	768
-10.855	-14.136	32768	14663	0	768
-29.931	-28.237	32768	14615	0	768
-45.943	-39.776	32768	14576	0	768
-49.730	-43.094	32768	14596	0	768
-42.950	-37.324	32768	14686	0	768
-29.643	-27.191	32768	14797	0	768
-17.310	-21.132	32768	14856	0	768
-14.425	-22.899	32768	14864	0	768
-16.949	-27.912	32768	14879	0	768
-25.929	-33.826	32768	14903	0	768
-34.079	-37.505	32768	14911	0	768
-42.481	-40.173	32768	14875	0	768
-50.487	-42.193	32768	14812	0	768
-55.427	-48.143	32768	14741	0	768
-56.906	-49.910	32768	14659	0	768
-56.545	-48.936	32768	14568	0	768
-54.418	-48.612	32768	14485	0	768
-58.348	-50.884	32768	14399	0	768
-62.604	-57.735	32768	14292	0	768
-66.895	-63.217	32768	14182	0	768
-67.184	-63.722	32768	14135	0	768
-64.263	-61.991	32768	14245	0	768
-63.830	-59.394	32768	14477	0	768
-63.686	-57.447	32768	14690	0	768
-67.003	-58.457	32768	14840	0	768
-65.417	-58.997	32768	14978	0	768
-62.243	-57.194	32768	15159	0	768
-59.322	-57.735	32768	15403	0	768
-56.401	-56.076	32768	15652	0	768
-48.756	-51.929	32768	15825	0	768
-38.478	-46.376	32768	15892	0	768
-23.440	-36.495	32768	15896	0	768
-13.559	-27.587	32768	15884	0	768
-15.579	-26.542	32768	15845	0	768
-26.109	-30.400	32768	15758	0	768
-35.774	-36.819	32768	15667	0	768
-36.928	-40.426	32768	15632	0	768
-30.508	-38.406	32768	15703	0	768
-24.450	-32.889	32768	15872	0	768
-21.529	-28.994	32768	16101	0	768
-24.739	-28.705	32768	16302	0	768
-27.119	-29.715	32768	16462	0	768
-22.178	-28.164	32768	16624	0	768
-13.776	-24.486	32768	16825	0	768
-4.364	-17.670	32768	17049	0	768
-1.190	-15.326	32768	17227	0	768
-4.508	-12.189	32768	17337	0	768
-11.468	-14.641	32768	17412	0	768
-16.300	-18.716	32768	17483	0	768
-18.644	-23.909	32768	17566	0	768
-16.264	-28.056	32768	17648	0	768
-15.362	-31.302	32768	17699	0	768
-15.903	-32.312	32768	17648	0	768
-12.802	-28.164	32768	17447	0	768
-10.710	-21.854	32768	17144	0	768
-7.898	-13.018	32768	16860	0	768
-6.058	-10.314	32768	16651	0	768
-8.979	-12.117	32768	16458	0	768
-17.202	-16.913	32768	16215	0	768
-20.988	-23.801	32768	15955	0	768
-22.214	-20.700	32768	15857	0	768
-14.100	-15.038	32768	15931	0	768
-1.803	-6.419	32768	16006	0	768
8.475	-4.255	32768	15994	0	768
14.208	-3.137	32768	15904	0	768
11.107	-5.662	32768	15782	0	768
6.888	-7.681	32768	15620	0	768
4.868	-5.986	32768	15281	0	768
9.701	-2.560	32768	14757	0	768
17.887	4.075	1	14312	0	768
27.155	14.208	1	14123	0	768
34.367	23.224	1	14107	0	768
37.000	32.059	1	14131	0	768
35.052	36.783	1	14182	0	768
34.043	38.442	1	14284	0	768
39.019	44.717	1	14434	0	768
49.261	54.129	1	14639	0	768
63.397	66.318	1	14927	0	768
75.081	75.658	1	15250	0	768
80.238	79.228	1	15533	0	768
79.120	75.838	1	15774	0	768
75.514	72.304	1	16026	0	768
71.186	68.518	1	16286	0	768
71.655	68.915	1	16517	0	768
68.806	68.734	1	16687	0	768
67.652	66.643	1	16813	0	768
66.715	66.787	1	16935	0	768
68.265	67.039	1	17077	0	768
71.691	70.718	1	17242	0	768
74.684	74.576	1	17455	0	768
73.567	75.117	1	17672	0	768
67.724	71.583	1	17763	0	768
55.752	62.459	1	17648	0	768
47.061	52.254	1	17408	0	768
41.507	45.763	1	17172	0	768
42.373	44.717	1	16975	0	768
48.107	47.061	1	16742	0	768
52.542	50.956	1	16411	0	768
50.847	52.542	1	16054	0	768
46.989	48.864	1	15829	0	768
40.173	46.700	1	15742	0	768
37.649	46.159	1	15660	0	768
40.317	43.743	1	15533	0	768
40.209	40.389	1	15392	0	768
42.517	35.413	1	15273	0	768
40.642	30.725	1	15218	0	768
39.849	30.004	1	15234	0	768
41.111	34.115	1	15246	0	768
38.803	37.685	1	15222	0	768
33.285	36.062	1	15246	0	768
25.207	30.869	1	15364	0	768
23.909	26.001	1	15526	0	768
28.994	24.378	1	15648	0	768
38.514	27.587	1	15699	0	768
50.090	30.833	1	15727	0	768
49.766	31.807	1	15797	0	768
39.019	28.669	1	15916	0	768
29.463	23.945	1	16046	0	768
22.791	24.053	1	16144	0	768
26.001	25.243	1	16187	0	768
33.574	28.092	1	16152	0	768
38.586	31.374	1	16065	0	768
37.613	29.463	1	16026	0	768
32.167	28.164	1	16034	0	768
27.660	24.558	1	16054	0	768
27.371	19.582	1	16085	0	768
27.587	16.300	1	16132	0	768
27.010	12.874	1	16128	0	768
24.991	12.045	1	15916	0	768
20.447	14.389	1	15478	0	768
15.903	15.975	1	15037	0	768
16.120	18.392	1	14706	0	768
18.139	17.310	1	14462	0	768
20.844	17.562	1	14344	0	768
24.486	15.362	1	14383	0	768
26.686	17.129	1	14529	0	768
25.063	15.687	1	14722	0	768
21.601	13.559	1	14950	0	768
18.897	13.704	1	15269	0	768
18.320	15.939	1	15711	0	768
23.765	25.279	1	16191	0	768
34.728	38.298	1	16581	0	768
46.664	48.684	1	16860	0	768
52.146	49.874	1	17105	0	768
52.001	41.976	1	17361	0	768
44.284	32.239	1	17597	0	768
33.502	20.772	1	17755	0	768
25.171	15.651	1	17806	0	768
19.834	15.831	1	17818	0	768
17.598	17.346	1	17826	0	768
22.214	18.211	1	17806	0	768
26.686	21.204	1	17735	0	768
30.436	21.637	1	17644	0	768
28.525	16.589	1	17581	0	768
22.178	8.691	1	17558	0	768
9.845	-3.246	1	17589	0	768
3.390	-11.648	1	17664	0	768
0.829	-15.543	1	17711	0	768
1.226	-11.864	1	17723	0	768
2.308	-6.960	1	17747	0	768
2.344	-3.390	1	17794	0	768
2.416	-0.938	1	17849	0	768
2.056	0.288	1	17897	0	768
3.101	0.577	1	17948	0	768
-1.190	-3.931	1	18015	0	768
-10.494	-12.694	1	18070	0	768
-20.411	-21.385	1	18109	0	768
-26.938	-29.318	1	18192	0	768
-29.030	-29.318	1	18326	0	768
-24.450	-25.784	1	18417	0	768
-22.972	-22.791	1	18385	0	768
-26.938	-29.859	1	18302	0	768
-38.298	-45.150	1	18298	0	768
-53.047	-63.541	1	18409	0	768
-62.171	-77.930	1	18618	0	768
-64.226	-80.454	1	18838	0	768
-58.961	-73.494	1	18992	0	768
-53.228	-64.587	1	19098	0	768
-51.713	-63.181	1	19220	0	768
-55.716	-62.423	1	19370	0	768
-54.959	-63.613	1	19473	0	768
-52.434	-61.522	1	19461	0	768
-45.258	-57.699	1	19417	0	768
-40.966	-55.968	1	19402	0	768
-38.803	-60.404	1	19382	0	768
-43.635	-65.489	32768	19315	1	820
-48.179	-69.455	32768	19181	0	820
-49.910	-69.095	32768	19008	0	820
-53.660	-67.328	32768	18862	0	820
-55.211	-65.417	32768	18771	0	820
-60.296	-64.587	32768	18673	0	820
-64.190	-65.020	32768	18417	0	820
-61.882	-62.820	32768	17916	0	820
-56.473	-59.574	32768	17298	0	820
-49.225	-55.211	32768	16813	0	820
-43.887	-54.454	32768	16514	0	820
-41.904	-54.418	32768	16262	0	820
-42.806	-56.906	32768	15959	0	820
-43.310	-57.014	32768	15526	0	820
-42.661	-55.463	32768	15005	0	820
-42.229	-53.408	32768	14608	0	820
-41.724	-46.592	32768	14426	0	820
-38.226	-40.281	32768	14379	0	820
-36.675	-36.351	32768	14367	0	820
-37.000	-36.495	32768	14355	0	820
-39.776	-43.743	32768	14347	0	820
-44.501	-50.523	32768	14344	0	820
-43.851	-50.920	32768	14347	0	820
-41.760	-45.691	32768	14324	0	820
-37.180	-39.272	32768	14213	0	820
-34.439	-37.396	32768	14036	0	820
-34.656	-43.671	32768	13918	0	820
-36.675	-50.126	32768	13898	0	820
-37.541	-53.877	32768	13957	0	820
-39.019	-51.388	32768	14024	0	820
-41.327	-50.667	32768	14060	0	820
-42.265	-49.297	32768	14099	0	820
-42.697	-50.739	32768	14202	0	820
-37.288	-49.838	32768	14367	0	820
-31.230	-46.087	32768	14537	0	820
-25.135	-39.019	32768	14592	0	820
-24.162	-34.583	32768	14434	0	820
-25.279	-33.357	32768	14150	0	820
-27.119	-36.314	32768	13985	0	820
-29.535	-40.281	1	14005	0	820
-32.023	-44.212	1	14099	0	820
-36.891	-44.392	1	14221	0	820
-42.986	-47.494	1	14407	0	820
-47.710	-49.261	1	14686	0	820
-51.461	-49.080	1	15041	0	820
-54.778	-51.893	1	15376	0	820
-57.880	-52.939	1	15557	0	820
-60.620	-57.663	1	15608	0	820
-61.666	-59.827	1	15723	0	820
-61.630	-63.613	1	15963	0	820
-59.719	-65.164	1	16219	0	820
-59.827	-64.335	1	16443	0	820
-61.269	-66.102	1	16659	0	820
-60.115	-68.662	1	16868	0	820
-59.106	-68.446	1	17124	0	820
-59.971	-65.849	1	17506	0	820
-59.683	-63.145	1	17967	0	820
-58.961	-59.899	32768	18298	0	820
-58.276	-55.824	32768	18377	0	820
-54.057	-51.388	32768	18287	0	820
-48.720	-49.441	32768	18172	0	820
-42.770	-50.270	32768	18094	0	820
-43.347	-52.290	32768	18034	0	820
-47.313	-57.771	32768	17967	0	820
-49.802	-61.558	32768	17900	0	820
-54.237	-62.604	32768	17849	0	820
-53.588	-63.722	32768	17822	0	820
-54.273	-66.895	32768	17830	0	820
-54.562	-68.157	32768	17798	0	820
-60.909	-70.898	32768	17680	0	820
-66.607	-73.855	32768	17569	0	820
-70.970	-76.740	32768	17538	0	820
-72.088	-80.599	32768	17506	0	820
-74.035	-84.565	32768	17396	0	820
-74.071	-88.640	32768	17199	0	820
-73.567	-88.785	32768	16978	0	820
-72.773	-88.100	32768	16785	0	820
-71.331	-84.277	32768	16667	0	820
-70.718	-82.618	32768	16577	0	820
-69.564	-80.166	32768	16435	0	820
-67.220	-78.435	32768	16243	0	820
-64.407	-75.550	32768	16042	0	820
-59.142	-73.819	32768	15896	0	820
-57.807	-72.521	32768	15809	0	820
-59.394	-75.586	32768	15742	0	820
-61.450	-76.668	32768	15656	0	820
-58.673	-74.829	32768	15577	0	820
-56.329	-72.124	32768	15541	0	820
-55.067	-71.186	32768	15510	0	820
-59.286	-74.793	32768	15407	0	820
-67.977	-78.435	32768	15183	0	820
-73.098	-81.103	32768	14875	0	820
-73.278	-77.750	1	14596	0	820
-69.816	-71.980	1	14387	0	820
-66.498	-71.186	1	14253	0	820
-65.705	-73.927	1	14170	0	820
-69.023	-79.264	1	14072	0	820
-74.576	-86.441	1	13965	0	820
-80.995	-88.785	1	13934	0	820
-86.801	-90.588	1	13993	0	820
-91.273	-88.893	1	14119	0	820
-89.506	-90.588	1	14312	0	820
-88.424	-92.715	1	14509	0	820
-86.441	-97.259	1	14663	0	820
-88.893	-101.623	1	14824	0	820
-89.398	-104.508	1	15049	0	820
-90.984	-102.669	1	15297	0	820
-88.640	-96.790	1	15474	0	820
-90.227	-92.138	1	15553	0	820
-94.591	-92.066	1	15628	0	820
-102.344	-94.122	1	15758	0	820
-109.232	-100.108	1	15912	0	820
-111.792	-104.724	1	16054	0	820
-113.920	-107.501	1	16152	0	820
-114.028	-112.009	1	16235	0	820
-117.274	-116.769	1	16333	0	820
-119.113	-119.546	1	16466	0	820
-117.057	-117.562	1	16636	0	820
-111.215	-109.052	1	16766	0	820
-101.875	-100.541	1	16837	0	820
-95.889	-93.401	1	16911	0	820
-95.240	-92.283	1	17034	0	820
-102.272	-94.410	1	17175	0	820
-112.477	-100.108	1	17266	0	820
-116.516	-103.426	1	17195	0	820
-115.723	-103.498	1	16986	0	820
-108.258	-101.479	1	16821	0	820
-99.820	-96.574	1	16762	0	820
-98.666	-94.735	1	16722	0	820
-103.318	-97.872	1	16663	0	820
-111.107	-102.128	1	16604	0	820
-117.923	-106.058	1	16561	0	820
-122.322	-106.203	1	16581	0	820
-119.546	-104.364	1	16762	0	820
-115.651	-103.210	1	17061	0	820
-107.970	-101.515	1	17250	0	820
-101.695	-100.433	1	17187	0	820
-98.954	-97.764	1	16971	0	820
-98.341	-95.564	1	16766	0	820
-102.344	-93.437	1	16636	0	820
-105.662	-92.968	1	16577	0	820
-109.665	-93.473	1	16553	0	820
-111.323	-91.886	1	16490	0	820
-111.684	-88.713	1	16395	0	820
-110.566	-89.794	1	16329	0	820
-111.107	-88.821	1	16318	0	820
-112.730	-91.922	1	16314	0	820
-117.274	-95.709	1	16266	0	820
-125.965	-102.344	1	16191	0	820
-131.446	-111.215	1	16124	0	820
-134.331	-114.389	1	16069	0	820
-132.853	-117.490	1	15998	0	820
-128.020	-112.622	1	15880	0	820
-125.784	-109.232	1	15758	0	820
-129.751	-109.268	1	15711	0	820
-136.206	-111.576	1	15762	0	820
-137.685	-111.900	1	15860	0	820
-133.610	-106.671	1	15931	0	820
-125.748	-101.479	1	15896	0	820
-121.349	-98.882	1	15675	0	820
-122.539	-103.210	1	15321	0	820
-129.535	-109.016	1	15033	0	820
-131.915	-110.206	1	14875	0	820
-130.292	-106.491	1	14797	0	820
-123.801	-97.836	1	14781	0	820
-115.939	-91.381	1	14840	0	820
-110.530	-86.441	1	14950	0	820
-103.354	-83.159	1	15061	0	820
-98.449	-78.976	1	15092	0	820
-96.466	-75.370	1	15033	0	820
-98.594	-76.091	1	14942	0	820
-104.724	-79.336	1	14899	0	820
-111.287	-83.844	1	14966	0	820
-116.048	-88.713	1	15159	0	820
-115.398	-87.559	1	15415	0	820
-112.117	-86.080	1	15624	0	820
-110.638	-83.952	1	15797	0	820
-110.819	-83.916	1	16046	0	820
-116.480	-89.181	1	16294	0	820
-122.214	-92.968	1	16466	0	820
-126.361	-93.473	1	16730	0	820
-120.772	-86.405	1	17152	0	820
-111.179	-73.530	1	17613	0	820
-101.226	-62.459	1	18090	0	820
-92.860	-59.214	1	18606	0	820
-90.876	-61.810	1	19106	0	820
-92.824	-66.246	1	19532	0	820
-89.398	-63.866	1	19878	0	820
-86.296	-56.076	1	20119	0	820
-80.923	-45.943	1	20300	0	820
-79.877	-43.130	1	20505	0	820
-84.277	-44.032	1	20710	0	820
-88.893	-48.936	1	20859	0	820
-94.987	-53.552	1	20997	0	820
-95.853	-56.076	1	21167	0	820
-96.394	-58.529	1	21313	0	820
-98.521	-61.594	1	21305	0	820
-101.082	-63.938	1	21056	0	820
-102.669	-66.823	1	20662	0	820
-104.904	-67.075	1	20339	0	820
-102.741	-67.869	1	20138	1	800
-105.049	-70.718	1	19973	0	800
-107.501	-74.035	1	19819	0	800
-108.799	-74.937	1	19654	0	800
-106.311	-72.809	32768	19425	0	800
-100.757	-65.597	32768	19126	0	800
-89.794	-58.312	32768	18815	0	800
-85.611	-52.218	32768	18519	0	800
-84.097	-54.057	32768	18235	0	800
-90.768	-57.339	32768	17948	0	800
-96.863	-62.171	32768	17652	0	800
-104.111	-65.849	32768	17361	0	800
-103.895	-68.229	32768	17097	0	800
-98.954	-68.590	32768	16825	0	800
-94.374	-69.059	32768	16470	0	800
-90.732	-64.984	32768	16042	0	800
-93.545	-63.577	32768	15600	0	800
-98.918	-63.325	32768	15135	0	800
-104.075	-66.102	32768	14663	0	800
-105.517	-70.285	32768	14245	0	800
-104.832	-75.298	32768	13890	0	800
-102.669	-77.281	32768	13615	0	800
-101.190	-74.865	32768	13469	0	800
-99.892	-71.691	32768	13425	0	800
-97.981	-67.472	32768	13402	0	800
-98.738	-66.498	32768	13362	0	800
-100.938	-70.213	32768	13358	0	800
-106.275	-74.829	32768	13445	0	800
-108.763	-79.300	32768	13634	0	800
-106.203	-74.360	32768	13886	0	800
-97.872	-66.534	32768	14123	0	800
-87.955	-53.372	32768	14324	0	800
-78.796	-45.871	32768	14525	0	800
-72.737	-41.039	32768	14741	0	800
-70.357	-42.229	32768	14978	0	800
-71.727	-47.674	32768	15163	0	800
-76.127	-54.598	32768	15285	0	800
-83.772	-57.663	32768	15407	0	800
-86.729	-56.978	32768	15549	0	800
-84.890	-52.254	32768	15683	0	800
-76.199	-43.815	32768	15742	0	800
-67.400	-34.151	32768	15652	0	800
-64.226	-30.184	32768	15384	0	800
-67.292	-30.040	32768	15072	0	800
-71.583	-31.626	32768	14871	0	800
-70.682	-34.692	32768	14801	0	800
-68.842	-36.711	32768	14808	0	800
-65.453	-35.701	16384	14844	0	800
-65.453	-34.223	1	14824	0	800
-69.672	-32.816	1	14797	0	800
-74.684	-32.889	1	14935	0	800
-74.865	-31.987	1	15230	0	800
-73.494	-33.898	1	15518	0	800
-70.357	-36.314	1	15746	0	800
-69.167	-41.724	1	15943	0	800
-70.321	-44.104	1	16156	0	800
-72.160	-42.553	1	16403	0	800
-72.449	-40.029	1	16671	0	800
-70.249	-35.990	1	16860	0	800
-69.095	-34.620	1	16967	0	800
-67.544	-35.557	1	17093	0	800
-67.256	-34.656	32768	17290	0	800
-68.446	-33.105	32768	17483	0	800
-67.724	-31.699	32768	17644	0	800
-66.895	-31.662	32768	17770	0	800
-69.239	-36.459	32768	17865	0	800
-70.718	-37.505	32768	17940	0	800
-70.177	-37.324	32768	18007	0	800
-68.446	-33.898	32768	18062	0	800
-66.823	-30.905	32768	18046	0	800
-68.626	-34.908	32768	17987	0	800
-72.521	-39.740	32768	17940	0	800
-75.442	-44.068	32768	17916	0	800
-72.160	-41.147	32768	17881	0	800
-64.335	-34.331	32768	17770	0	800
-56.653	-29.210	32768	17581	0	800
-54.922	-31.590	32768	17353	0	800
-57.194	-39.885	32768	17097	0	800
-59.502	-44.356	32768	16793	0	800
-61.125	-43.022	32768	16377	0	800
-56.653	-33.285	32768	15849	0	800
-55.391	-24.198	32768	15301	0	800
-54.418	-17.815	32768	14812	0	800
-52.326	-16.228	32768	14454	0	800
-48.431	-14.064	1	14241	0	800
-43.202	-11.432	1	14127	0	800
-37.829	-9.881	1	14056	0	800
-40.173	-9.448	1	13950	0	800
-44.789	-12.514	1	13851	0	800
-51.172	-15.939	1	13898	0	800
-51.136	-14.821	1	14091	0	800
-46.881	-12.514	1	14312	0	800
-38.082	-6.491	1	14501	0	800
-31.158	-3.173	1	14671	0	800
-30.184	-3.246	1	14856	0	800
-32.816	-6.311	1	15092	0	800
-37.468	-12.189	1	15340	0	800
-42.734	-15.182	1	15514	0	800
-45.402	-19.005	1	15600	0	800
-45.582	-16.805	1	15691	0	800
-45.691	-17.093	1	15853	0	800
-40.858	-13.884	1	16077	0	800
-35.954	-9.773	1	16302	0	800
-31.410	-8.042	1	16450	0	800
-31.590	-8.763	1	16553	0	800
-36.567	-9.881	1	16632	0	800
-44.284	-14.425	1	16707	0	800
-50.775	-20.483	1	16766	0	800
-52.398	-24.991	1	16758	0	800
-53.841	-32.492	1	16703	0	800
-53.588	-42.157	1	16663	0	800
-57.266	-48.612	1	16655	0	800
-59.430	-50.811	1	16663	0	800
-57.122	-45.727	1	16644	0	800
-54.886	-38.514	1	16588	0	800
-50.415	-32.925	1	16521	0	800
-52.542	-32.564	1	16454	0	800
-55.572	-36.423	1	16387	0	800
-58.312	-37.108	1	16318	0	800
-57.483	-36.603	1	16243	0	800
-50.667	-32.997	1	16156	0	800
-45.258	-29.174	1	15987	0	800
-41.111	-26.974	1	15734	0	800
-39.921	-24.883	1	15494	0	800
-39.812	-21.421	1	15336	0	800
-40.714	-18.824	1	15269	0	800
-41.796	-22.214	1	15210	0	800
-45.005	-25.893	1	15112	0	800
-48.071	-31.266	1	15033	0	800
-48.828	-32.816	1	15045	0	800
-46.015	-27.443	1	15143	0	800
-38.803	-17.779	1	15254	0	800
-28.886	-4.688	1	15301	0	800
-24.919	3.498	1	15332	0	800
-24.739	4.364	1	15396	0	800
-29.354	1.731	1	15490	0	800
-34.475	-3.787	1	15596	0	800
-34.439	-5.121	1	15703	0	800
-28.201	0.397	1	15821	0	800
-20.447	9.016	1	15943	0	800
-9.881	16.156	1	16050	0	800
-2.416	24.162	1	16105	0	800
3.823	26.938	1	16081	0	800
10.350	29.968	1	15916	0	800
11.937	34.006	1	15663	0	800
11.576	39.812	1	15490	0	800
15.326	47.566	1	15431	0	800
20.988	59.971	1	15427	0	800
32.780	72.196	1	15490	0	800
45.763	78.543	1	15640	0	800
52.578	84.061	1	15864	0	800
57.375	87.270	1	16136	0	800
54.454	89.975	1	16391	0	800
54.057	94.663	1	16604	0	800
54.165	98.918	1	16762	0	800
60.115	101.479	1	16888	0	800
65.669	104.219	1	17014	0	800
72.449	106.347	1	17144	0	800
73.855	107.573	1	17286	0	800
72.196	107.176	1	17408	0	800
69.996	105.229	1	17428	0	800
73.783	104.472	1	17388	0	800
83.015	104.832	1	17455	0	800
92.175	108.258	1	17613	0	800
99.712	113.776	1	17719	0	800
102.344	121.096	1	17739	0	800
101.010	125.207	1	17688	0	800
99.098	131.085	1	17601	0	800
98.954	132.095	1	17526	0	800
98.305	127.984	1	17467	0	800
97.512	125.532	1	17357	0	800
97.043	119.618	1	17175	0	800
99.459	119.077	1	17006	0	800
104.436	120.050	1	16935	0	800
109.592	123.404	1	16923	0	800
109.376	121.096	1	16915	0	800
102.272	114.100	1	16892	0	800
88.821	103.967	1	16896	0	800
76.848	95.889	1	16975	0	800
68.301	90.984	1	17144	0	800
62.856	87.811	1	17372	0	800
55.391	80.707	1	17550	0	800
48.612	73.314	1	17573	0	800
42.842	63.469	1	17491	0	800
40.353	59.502	1	17495	0	800
40.462	57.447	1	17648	0	800
37.613	55.463	1	17833	0	800
32.853	51.280	1	18019	0	800
27.804	48.684	1	18200	0	800
25.893	45.438	1	18357	0	800
29.354	45.186	1	18543	0	800
33.718	46.700	1	18858	0	800
32.456	44.969	1	19279	0	800
26.722	39.055	1	19603	0	800
16.985	32.528	1	19705	0	800
9.989	24.955	1	19666	0	800
8.547	21.421	1	19599	0	800
13.235	20.627	1	19524	0	800
21.241	24.991	1	19362	0	800
27.948	29.607	1	19043	1	796
31.194	31.518	1	18618	0	796
29.535	32.276	1	18243	0	796
24.522	30.040	1	17995	0	796
16.949	25.604	1	17853	0	796
11.432	24.198	1	17723	0	796
8.619	19.329	1	17542	0	796
8.511	17.418	1	17357	0	796
4.832	11.179	1	17211	0	796
-1.695	6.671	1	17089	0	796
-7.032	3.029	1	16963	0	796
-12.586	1.118	32768	16797	0	796
-15.795	1.731	32768	16628	0	796
-14.677	2.200	32768	16514	0	796
-17.274	-0.180	32768	16490	0	796
-19.113	-4.364	32768	16502	0	796
-19.293	-9.448	32768	16384	0	796
-18.067	-8.619	32768	16022	0	796
-17.021	-7.393	32768	15526	0	796
-16.805	-2.128	32768	15147	0	796
-23.188	-1.623	32768	14942	0	796
-30.040	-8.871	32768	14797	0	796
-37.468	-19.942	32768	14671	0	796
-42.770	-32.744	32768	14572	0	796
-42.553	-39.921	32768	14505	0	796
-41.724	-41.868	32768	14383	0	796
-39.885	-38.009	1	14028	0	796
-39.488	-29.859	1	13441	0	796
-37.829	-21.745	1	12870	0	796
-38.082	-16.480	1	12503	0	796
-37.288	-14.100	1	12314	0	796
-36.134	-16.769	1	12271	0	796
-36.711	-23.296	1	12354	0	796
-36.495	-28.237	1	12519	0	796
-36.026	-29.715	1	12712	0	796
-37.252	-28.561	1	12933	0	796
-37.541	-27.479	1	13272	0	796
-40.534	-27.912	1	13745	0	796
-42.229	-31.446	1	14198	0	796
-45.150	-35.305	1	14564	0	796
-45.041	-38.911	1	14852	0	796
-46.881	-38.045	1	15120	0	796
-40.101	-36.459	1	15396	0	796
-32.239	-33.357	1	15608	0	796
-22.467	-27.696	1	15703	0	796
-14.894	-22.899	1	15750	0	796
-15.362	-19.834	1	15884	0	796
-16.661	-13.415	1	16121	0	796
-19.690	-6.058	1	16399	0	796
-15.146	2.092	1	16671	0	796
-9.052	8.078	1	16919	0	796
-3.173	8.583	1	17164	0	796
0.469	6.347	1	17443	0	796
2.200	3.787	1	17770	0	796
2.560	4.255	1	18117	0	796
4.364	10.927	1	18397	0	796
7.934	19.293	1	18586	0	796
19.185	33.141	1	18752	0	796
34.980	47.818	1	18937	0	796
57.447	62.748	1	19102	0	796
76.992	73.242	1	19193	0	796
89.073	77.714	1	19212	0	796
91.489	78.399	1	19205	0	796
83.231	77.137	1	19185	0	796
76.596	76.524	1	19169	0	796
73.170	77.317	1	19114	0	796
75.478	77.894	1	18949	0	796
82.834	78.363	1	18602	0	796
88.316	78.868	1	18129	0	796
86.369	77.533	1	17640	0	796
83.628	77.245	1	17223	0	796
83.808	79.192	1	16900	0	796
90.155	84.962	1	16604	0	796
103.534	94.158	1	16270	0	796
115.002	104.940	1	15876	0	796
118.897	112.550	1	15522	0	796
117.057	113.992	1	15293	0	796
111.215	111.684	1	15183	0	796
106.347	105.770	1	15104	0	796
102.633	99.567	1	14986	0	796
99.351	95.781	1	14875	0	796
94.158	94.050	1	14824	0	796
86.549	92.752	1	14848	0	796
81.392	88.280	1	14931	0	796
74.937	81.608	1	15029	0	796
69.672	74.829	1	15128	0	796
69.203	69.383	1	15242	0	796
73.639	69.095	1	15376	0	796
78.723	70.032	1	15490	0	796
81.717	70.357	1	15553	0	796
79.589	66.823	1	15600	0	796
73.675	64.695	1	15667	0	796
67.039	61.197	1	15774	0	796
65.020	62.532	1	15904	0	796
65.741	62.964	1	16022	0	796
68.265	64.082	1	16093	0	796
70.682	64.912	1	16128	0	796
73.711	64.984	1	16164	0	796
78.868	66.282	1	16195	0	796
79.769	68.193	1	16184	0	796
79.300	69.383	1	16117	0	796
75.838	68.085	1	16030	0	796
70.177	63.397	1	15943	0	796
63.758	58.493	1	15868	0	796
58.961	51.929	1	15793	0	796
57.483	51.280	1	15723	0	796
55.716	49.802	1	15656	0	796
53.877	52.290	1	15612	0	796
53.408	48.648	1	15624	0	796
51.713	47.025	1	15750	0	796
50.775	46.412	1	15927	0	796
51.929	45.294	1	15983	0	796
50.847	47.854	1	15860	0	796
46.304	44.032	1	15663	0	796
38.262	34.583	1	15506	0	796
34.439	26.470	1	15419	0	796
35.846	21.926	1	15399	0	796
43.130	24.306	1	15411	0	796
50.090	30.400	1	15415	0	796
54.201	36.819	1	15470	0	796
50.631	36.747	1	15604	0	796
47.638	37.144	1	15754	0	796
45.871	35.088	1	15845	0	796
45.871	31.807	1	15868	0	796
46.376	29.571	1	15876	0	796
42.697	26.974	1	15916	0	796
40.281	28.237	1	16002	0	796
40.606	32.744	1	16085	0	796
45.041	39.776	1	16093	0	796
48.900	41.832	1	16061	0	796
49.982	42.012	1	16054	0	796
50.343	39.488	1	16101	0	796
49.333	40.173	1	16180	0	796
55.716	42.770	1	16231	0	796
64.154	50.162	1	16239	0	796
72.521	58.096	1	16227	0	796
74.793	60.837	1	16219	0	796
71.186	62.423	1	16203	0	796
65.669	62.604	1	16168	0	796
63.000	61.197	1	16132	0	796
65.597	60.981	1	16085	0	796
71.367	62.135	1	15975	0	796
78.543	66.246	1	15860	0	796
84.385	69.095	1	15939	0	796
86.188	73.963	1	16211	0	796
86.152	75.225	1	16415	0	796
81.140	72.124	1	16431	0	796
78.255	67.292	1	16333	0	796
74.648	65.236	1	16239	0	796
74.540	68.374	1	16227	0	796
78.110	74.721	1	16270	0	796
82.149	82.438	1	16278	0	796
85.467	85.936	1	16195	0	796
85.647	86.549	1	16081	0	796
84.529	83.267	1	15998	0	796
82.474	80.815	1	15987	0	796
80.094	79.012	1	16018	0	796
80.454	76.740	1	16034	0	796
85.070	74.288	1	16022	0	796
85.828	70.105	1	16050	0	796
85.647	65.849	1	16160	0	796
81.392	63.649	1	16325	0	796
77.605	64.659	1	16466	0	796
73.494	67.184	1	16588	0	796
75.009	70.393	1	16738	0	796
77.858	72.557	1	16978	0	796
81.789	71.403	1	17294	0	796
82.834	68.085	1	17597	0	796
84.025	64.010	1	17782	0	796
80.382	57.375	1	17782	0	796
73.783	53.372	1	17664	0	796
66.715	48.251	1	17581	0	796
58.420	46.123	1	17566	0	796
54.345	41.760	1	17629	0	796
48.323	39.380	1	17802	0	796
45.510	34.692	1	18050	0	796
43.851	32.420	1	18326	0	796
43.527	32.528	1	18590	0	796
47.494	34.944	1	18818	0	796
52.759	38.875	1	19008	0	796
51.172	39.344	1	19169	0	796
46.736	35.774	1	19327	0	796
39.055	30.581	1	19484	0	796
34.079	28.020	1	19614	0	796
35.269	30.364	1	19681	0	796
41.507	36.928	1	19622	0	796
45.727	41.291	1	19476	0	796
45.655	41.039	1	19410	0	796
43.887	36.206	1	19445	0	796
39.704	30.328	1	19453	1	756
35.846	26.578	1	19382	0	756
36.964	27.696	1	19244	0	756
36.783	29.391	1	19086	0	756
34.908	29.643	1	18929	0	756
33.141	26.650	1	18755	0	756
28.705	21.673	32768	18507	0	756
25.099	18.788	32768	18164	0	756
24.991	16.120	32768	17786	0	756
27.263	20.952	32768	17357	0	756
32.312	23.837	32768	16896	0	756
34.908	27.479	32768	16482	0	756
36.351	31.410	32768	16136	0	756
36.387	31.699	32768	15841	0	756
35.305	30.977	32768	15644	0	756
36.387	29.968	32768	15557	0	756
38.082	28.453	32768	15514	0	756
42.048	30.869	32768	15427	0	756
46.664	35.701	32768	15313	0	756
50.920	41.940	32768	15199	0	756
50.811	45.618	32768	15049	0	756
48.864	46.268	32768	14848	0	756
43.996	44.681	32768	14643	0	756
39.452	41.255	32768	14474	0	756
35.990	39.452	32768	14347	0	756
35.160	38.803	32768	14253	0	756
35.485	37.072	32768	14174	0	756
36.134	37.577	32768	14095	0	756
33.141	33.033	1	13997	0	756
26.037	24.955	1	13827	0	756
16.444	14.569	1	13607	0	756
6.563	2.524	1	13465	0	756
-1.587	-3.210	1	13528	0	756
-1.659	-2.957	1	13737	0	756
1.875	2.849	1	13894	0	756
8.655	12.586	1	13934	0	756
19.005	23.296	1	13906	0	756
22.286	28.273	1	13918	0	756
19.257	24.991	1	14016	0	756
13.307	16.120	1	14198	0	756
8.330	6.599	1	14414	0	756
10.025	7.176	1	14619	0	756
23.008	20.014	1	14868	0	756
36.567	39.235	1	15187	0	756
46.484	52.470	1	15526	0	756
48.179	51.424	1	15825	0	756
44.320	45.258	1	16057	0	756
38.045	38.731	1	16266	0	756
36.639	36.675	1	16498	0	756
39.849	42.229	1	16781	0	756
41.832	43.924	1	17069	0	756
41.796	40.317	1	17239	0	756
37.757	33.393	1	17187	0	756
32.744	23.044	1	17006	0	756
28.453	19.834	1	16927	0	756
25.063	20.952	1	16994	0	756
23.368	22.142	1	17077	0	756
23.765	26.506	1	17140	0	756
26.578	28.741	1	17215	0	756
33.970	32.348	1	17309	0	756
41.003	35.557	1	17396	0	756
46.845	40.966	1	17463	0	756
47.890	43.815	1	17514	0	756
46.700	44.933	1	17534	0	756
48.900	44.861	1	17479	0	756
54.418	46.953	1	17349	0	756
56.653	49.910	1	17231	0	756
59.971	48.467	1	17164	0	756
54.850	46.664	1	17105	0	756
43.815	42.878	1	16998	0	756
36.423	39.957	1	16844	0	756
32.059	40.426	1	16718	0	756
34.079	41.543	1	16667	0	756
36.278	42.409	1	16675	0	756
37.036	39.740	1	16671	0	756
35.629	34.223	1	16636	0	756
29.138	29.210	1	16616	0	756
23.296	27.155	1	16521	0	756
21.890	26.542	1	16290	0	756
19.870	28.850	1	16069	0	756
22.719	31.374	1	15924	0	756
25.243	32.853	1	15821	0	756
28.237	32.997	1	15770	0	756
33.249	36.747	1	15774	0	756
38.839	43.310	1	15782	0	756
45.150	48.539	1	15770	0	756
50.270	54.959	1	15770	0	756
49.910	58.276	1	15825	0	756
50.270	61.486	1	15943	0	756
49.405	64.010	1	16089	0	756
48.071	64.803	1	16195	0	756
50.739	63.253	1	16243	0	756
48.756	58.817	1	16286	0	756
48.864	54.886	1	16361	0	756
50.198	54.886	1	16435	0	756
50.018	57.519	1	16419	0	756
47.277	57.591	1	16223	0	756
37.937	54.129	1	15908	0	756
25.352	43.563	1	15679	0	756
14.966	35.088	1	15573	0	756
9.592	30.292	1	15510	0	756
11.756	30.040	1	15451	0	756
17.634	32.600	1	15403	0	756
19.185	32.095	1	15364	0	756
19.185	25.532	1	15336	0	756
14.208	19.942	1	15336	0	756
12.225	14.605	1	15380	0	756
10.566	16.336	1	15419	0	756
11.864	18.969	1	15368	0	756
15.074	24.666	1	15254	0	756
15.254	27.912	1	15175	0	756
16.949	27.948	1	15159	0	756
17.743	26.650	1	15187	0	756
20.375	25.604	1	15187	0	756
20.880	25.424	1	15120	0	756
24.017	27.119	1	15065	0	756
24.594	28.237	1	15116	0	756
25.279	29.102	1	15230	0	756
26.902	27.407	1	15344	0	756
27.443	24.883	1	15427	0	756
28.201	23.044	1	15522	0	756
28.777	24.702	1	15656	0	756
28.309	23.945	1	15845	0	756
29.931	23.945	1	16046	0	756
30.148	23.657	1	16187	0	756
31.915	20.555	1	16278	0	756
31.879	19.690	1	16391	0	756
33.646	22.827	1	16588	0	756
33.574	25.316	1	16848	0	756
32.276	26.109	1	17116	0	756
29.571	26.506	1	17365	0	756
23.801	21.204	1	17581	0	756
22.575	19.834	1	17759	0	756
22.322	19.401	1	17893	0	756
25.099	18.283	1	17952	0	756
27.587	18.897	1	17944	0	756
24.847	14.930	1	17904	0	756
22.034	12.369	1	17845	0	756
22.755	11.035	1	17818	0	756
21.637	9.881	1	17932	0	756
20.411	11.035	1	18160	0	756
20.411	9.845	1	18263	0	756
18.103	8.907	1	18101	0	756
21.745	10.710	1	17806	0	756
28.201	16.192	1	17522	0	756
38.514	22.611	1	17282	0	756
43.851	31.482	1	17038	0	756
47.566	37.000	1	16730	0	756
47.890	36.928	1	16365	0	756
44.320	35.160	1	16018	0	756
43.058	31.122	1	15778	0	756
40.570	28.309	1	15640	0	756
40.462	27.263	1	15549	0	756
39.308	24.414	1	15466	0	756
41.363	22.214	1	15419	0	756
43.022	25.063	1	15376	0	756
46.412	27.335	1	15301	0	756
50.234	31.266	1	15258	0	756
46.087	31.987	1	15281	0	756
40.714	27.443	1	15376	0	756
32.853	20.050	1	15561	0	756
29.354	13.271	1	15841	0	756
30.689	14.353	1	16176	0	756
35.088	17.887	1	16482	0	756
38.370	24.919	1	16778	0	756
39.308	32.456	1	17105	0	756
36.964	35.521	1	17495	0	756
36.278	34.295	1	17936	0	756
33.033	31.230	1	18361	0	756
30.617	28.128	1	18728	0	756
28.020	26.181	1	19047	0	756
27.587	27.299	1	19350	0	756
28.345	28.669	1	19622	0	756
30.617	30.905	1	19776	0	756
32.131	29.968	1	19752	0	756
28.705	27.515	1	19599	0	756
23.837	20.447	1	19386	0	756
21.313	14.353	1	19165	0	756
18.536	12.225	1	19000	1	712
23.116	15.146	1	18885	0	712
26.109	15.651	1	18795	0	712
23.152	15.110	1	18688	0	712
19.401	7.248	1	18531	0	712
14.461	-0.469	32768	18346	0	712
10.819	-4.219	32768	18231	0	712
11.287	-1.911	32768	18208	0	712
13.054	2.777	32768	18172	0	712
12.802	4.291	32768	18070	0	712
10.530	3.065	32768	17944	0	712
9.701	-0.865	32768	17849	0	712
5.445	-7.862	32768	17798	0	712
-1.659	-15.831	32768	17763	0	712
-8.402	-22.683	32768	17688	0	712
-12.441	-25.171	32768	17573	0	712
-12.982	-26.470	32768	17459	0	712
-11.179	-24.739	32768	17372	0	712
-14.353	-30.328	32768	17274	0	712
-29.823	-46.809	32768	17132	0	712
-50.847	-68.085	32768	16982	0	712
-68.770	-85.359	32768	16868	0	712
-76.379	-90.840	32768	16809	0	712
-75.045	-86.116	32768	16758	0	712
-67.508	-77.065	32768	16655	0	712
-64.082	-72.016	32768	16506	0	712
-65.344	-74.252	32768	16377	0	712
-65.921	-76.992	32768	16270	0	712
-64.263	-75.658	32768	16203	0	712
-60.007	-69.996	32768	16160	0	712
-54.237	-64.984	32768	16121	0	712
-53.155	-59.899	32768	16030	0	712
-53.155	-59.358	32768	15900	0	712
-54.850	-60.981	32768	15746	0	712
-56.004	-62.387	32768	15553	0	712
-52.975	-60.332	32768	15332	0	712
-51.208	-58.493	32768	15080	0	712
-49.225	-56.942	32768	14741	0	712
-50.343	-55.139	32768	14371	0	712
-54.670	-58.096	32768	14190	0	712
-53.949	-59.394	32768	14186	0	712
-53.119	-59.430	32768	14147	0	712
-47.854	-59.611	32768	13985	0	712
-43.383	-56.545	32768	13784	0	712
-41.003	-53.444	32768	13658	0	712
-39.199	-51.749	32768	13650	0	712
-38.045	-48.035	32768	13729	0	712
-35.521	-43.310	32768	13839	0	712
-33.249	-41.039	32768	13950	0	712
-31.987	-38.370	32768	14099	0	712
-30.653	-35.016	32768	14328	0	712
-27.768	-33.069	32768	14596	0	712
-23.873	-29.571	32768	14856	0	712
-16.985	-28.886	32768	15088	0	712
-14.785	-26.325	32768	15313	0	712
-14.533	-27.804	32768	15573	0	712
-20.772	-30.581	32768	15888	0	712
-25.784	-32.384	32768	16211	0	712
-30.508	-34.403	32768	16450	0	712
-32.167	-36.242	32768	16640	0	712
-29.787	-35.846	32768	16841	0	712
-26.542	-32.528	32768	17081	0	712
-21.457	-27.083	32768	17298	0	712
-15.038	-19.726	32768	17432	0	712
-9.737	-15.615	32768	17475	0	712
-8.042	-12.550	32768	17487	0	712
-9.592	-15.326	32768	17487	0	712
-10.927	-16.661	32768	17467	0	712
-14.966	-17.851	32768	17416	0	712
-13.920	-15.903	32768	17357	0	712
-11.071	-16.877	32768	17274	0	712
-8.078	-16.228	32768	17124	0	712
-3.318	-14.713	32768	16971	0	712
0.721	-14.317	32768	16986	0	712
1.442	-12.297	32768	17160	0	712
-0.397	-13.379	32768	17250	0	712
-1.947	-15.759	32768	17132	0	712
-1.695	-16.156	32768	16896	0	712
-1.659	-14.605	32768	16683	0	712
1.118	-7.573	32768	16557	0	712
5.950	0.144	32768	16458	0	712
9.809	8.006	32768	16282	0	712
9.520	10.674	32768	15975	0	712
5.193	6.419	32768	15675	0	712
-4.219	-1.154	32768	15463	0	712
-10.242	-5.265	32768	15317	0	712
-7.104	0.433	32768	15191	0	712
7.429	15.651	32768	15076	0	712
27.732	33.321	32768	15002	0	712
40.570	42.914	32768	15009	0	712
41.724	39.921	32768	15061	0	712
33.105	30.400	32768	15116	0	712
24.125	23.260	32768	15151	0	712
20.772	24.486	32768	15183	0	712
28.705	34.187	32768	15250	0	712
40.930	46.232	32768	15392	0	712
51.244	55.391	32768	15573	0	712
58.601	56.004	32768	15711	0	712
58.384	56.581	32768	15762	0	712
58.168	54.057	32768	15644	0	712
56.293	54.418	32768	15399	0	712
52.434	51.352	32768	15246	0	712
45.150	45.582	32768	15238	0	712
34.403	33.249	32768	15301	0	712
23.729	22.467	32768	15411	0	712
18.139	18.897	32768	15553	0	712
24.198	22.106	32768	15723	0	712
33.826	33.429	32768	15904	0	712
42.625	40.209	32768	16065	0	712
45.186	41.471	32768	16140	0	712
38.262	37.937	32768	16061	0	712
29.535	31.987	32768	15931	0	712
24.306	29.318	32768	15987	0	712
24.234	31.374	32768	16223	0	712
27.840	35.233	32768	16395	0	712
35.846	38.803	32768	16403	0	712
44.068	42.986	32768	16337	0	712
49.225	44.392	32768	16310	0	712
51.533	45.402	32768	16381	0	712
48.251	47.458	32768	16506	0	712
46.592	47.638	32768	16608	0	712
44.573	49.080	32768	16651	0	712
42.697	50.018	32768	16722	0	712
39.596	46.195	32768	16860	0	712
30.472	39.812	32768	17006	0	712
21.673	35.629	32768	17116	0	712
18.824	31.915	32768	17175	0	712
19.798	30.797	32768	17164	0	712
23.945	34.511	32768	17034	0	712
25.496	34.367	32768	16770	0	712
20.736	31.807	32768	16470	0	712
12.838	25.207	32768	16172	0	712
8.294	21.168	32768	15825	0	712
6.671	17.706	1	15510	0	712
11.504	20.195	1	15380	0	712
15.651	24.630	1	15407	0	712
20.447	27.047	1	15451	0	712
21.565	28.056	1	15482	0	712
24.847	31.085	1	15526	0	712
29.715	34.980	1	15604	0	712
35.341	40.714	1	15746	0	712
38.082	44.212	1	15908	0	712
36.278	42.337	1	16054	0	712
33.357	38.875	1	16187	0	712
29.571	34.151	1	16310	0	712
26.686	30.689	1	16411	0	712
24.486	27.191	1	16494	0	712
20.664	23.765	1	16573	0	712
13.451	21.241	1	16644	0	712
8.330	17.706	1	16699	0	712
3.462	14.641	1	16730	0	712
0.000	10.350	1	16742	0	712
-0.469	6.563	1	16762	0	712
0.000	7.429	1	16793	0	712
0.288	9.881	1	16785	0	712
2.849	13.235	1	16746	0	712
3.642	13.776	1	16774	0	712
3.931	14.461	1	16864	0	712
5.373	11.937	1	16935	0	712
6.960	14.245	1	16943	0	712
7.862	16.048	1	16888	0	712
12.730	21.385	1	16809	0	712
14.100	23.008	1	16750	0	712
17.490	27.119	1	16726	0	712
18.500	28.020	1	16734	0	712
21.132	27.191	1	16738	0	712
20.411	25.640	1	16742	0	712
19.582	23.188	1	16801	0	712
15.254	19.365	1	16923	0	712
12.009	16.264	1	17041	0	712
7.104	14.028	1	17089	0	712
7.248	15.038	1	17077	0	712
9.556	17.382	1	17065	0	712
14.353	22.683	1	17112	0	712
15.795	23.152	1	17199	0	712
15.579	20.627	1	17235	0	712
10.746	16.408	1	17112	0	712
6.888	10.206	1	16864	0	712
5.229	8.150	1	16679	0	712
8.691	11.360	1	16651	0	712
11.828	15.579	1	16695	0	712
12.550	18.356	1	16754	0	712
11.612	20.627	16384	16837	0	712
8.042	17.779	32768	16951	0	712
1.695	13.127	32768	17101	0	712
-0.613	8.258	32768	17278	0	712
-2.056	6.635	32768	17483	0	712
0.288	7.898	32768	17703	0	712
6.022	10.746	32768	17885	0	712
9.412	12.946	32768	18023	0	712
8.763	13.235	32768	18184	0	712
3.606	8.871	32768	18393	0	712
-1.046	3.606	32768	18625	0	712
-1.695	1.623	32768	18787	0	712
1.442	1.334	32768	18838	0	712
7.898	3.678	32768	18858	0	712
11.648	7.753	32768	18929	0	712
10.206	11.035	32768	19051	0	712
5.842	10.278	32768	19161	0	712
-4.796	4.364	32768	19201	0	712
-13.595	-3.823	32768	19201	0	712
-20.087	-11.648	32768	19224	0	712
-19.113	-14.100	32768	19272	0	712
-15.651	-10.746	32768	19279	0	712
-9.376	-7.032	32768	19197	0	712
-10.566	-9.052	32768	19043	0	712
-19.510	-17.202	32768	18885	0	712
-34.115	-33.285	32768	18767	0	712
-50.559	-48.323	32768	18657	1	832
-60.332	-57.014	32768	18480	0	832
-65.777	-61.486	32768	18255	0	832
-64.840	-60.332	32768	18042	0	832
-62.856	-55.103	32768	17865	0	832
-60.584	-53.047	32768	17715	0	832
-59.070	-48.864	32768	17542	0	832
-58.637	-48.215	32768	17298	0	832
-59.574	-50.054	32768	16963	0	832
-63.758	-54.309	32768	16592	0	832
-67.977	-57.050	32768	16318	0	832
-69.095	-58.168	32768	16219	0	832
-65.417	-53.480	32768	16239	0	832
-61.810	-50.703	32768	16203	0	832
-56.329	-47.890	32768	15987	0	832
-54.706	-49.657	32768	15660	0	832
-50.811	-48.756	32768	15368	0	832
-44.428	-42.986	32768	15139	0	832
-36.495	-36.964	32768	14875	0	832
-32.744	-32.816	32768	14525	0	832
-32.023	-28.777	32768	14158	0	832
-34.728	-29.895	32768	13883	0	832
-35.593	-28.164	32768	13705	0	832
-34.764	-26.361	32768	13607	0	832
-34.872	-26.253	32768	13556	0	832
-36.242	-29.318	32768	13520	0	832
-38.262	-32.528	32768	13457	0	832
-37.577	-33.538	32768	13288	0	832
-32.312	-29.391	32768	13051	0	832
-27.804	-24.775	32768	12933	0	832
-22.539	-17.887	32768	12964	0	832
-18.824	-11.287	32768	13079	0	832
-17.670	-7.248	32768	13295	0	832
-13.379	-6.780	32768	13634	0	832
-11.251	-6.527	32768	14020	0	832
-9.340	-6.022	32768	14367	0	832
-7.789	-5.409	32768	14686	0	832
-8.114	-5.698	32768	15049	0	832
-11.143	-6.780	32768	15490	0	832
-13.776	-10.494	32768	15975	0	832
-14.677	-11.937	32768	16407	0	832
-17.887	-10.530	32768	16746	0	832
-20.123	-10.422	32768	16967	0	832
-26.433	-15.903	32768	17101	0	832
-33.610	-23.585	32768	17246	0	832
-36.314	-28.850	32768	17412	0	832
-31.771	-28.922	32768	17581	0	832
-23.152	-20.483	32768	17727	0	832
-14.281	-10.422	32768	17802	0	832
-10.133	-2.416	32768	17857	0	832
-9.448	0.397	32768	18058	0	832
-3.823	7.537	32768	18401	0	832
3.246	13.235	32768	18633	0	832
15.002	19.906	32768	18633	0	832
22.142	27.876	32768	18484	0	832
25.893	32.167	32768	18318	0	832
28.741	35.377	32768	18192	0	832
34.620	43.058	32768	18109	0	832
48.035	57.158	32768	17991	0	832
63.469	74.144	32768	17802	0	832
76.884	89.939	32768	17668	0	832
83.123	97.223	32768	17652	0	832
82.762	96.322	32768	17644	0	832
76.451	90.227	32768	17538	0	832
66.895	77.930	32768	17337	0	832
58.601	69.528	32768	17132	0	832
52.398	59.574	32768	16990	0	832
49.153	52.506	32768	16892	0	832
48.539	49.477	32768	16778	0	832
49.946	53.300	32768	16612	0	832
48.467	56.365	32768	16407	0	832
50.415	59.719	32768	16128	0	832
50.343	61.666	32768	15801	0	832
51.929	61.233	32768	15573	0	832
54.057	60.765	32768	15439	0	832
54.886	61.053	32768	15340	0	832
55.319	63.397	32768	15281	0	832
56.726	65.056	32768	15297	0	832
57.375	66.354	32768	15372	0	832
59.322	68.229	32768	15482	0	832
57.880	66.462	32768	15612	0	832
58.601	64.154	32768	15719	0	832
57.627	62.423	32768	15793	0	832
55.067	62.928	32768	15849	0	832
54.850	64.046	32768	15857	0	832
52.759	63.830	32768	15797	0	832
50.920	63.217	32768	15671	0	832
50.379	61.378	32768	15435	0	832
51.605	58.709	32768	15151	0	832
49.080	56.113	32768	15041	0	832
50.307	57.086	32768	15143	0	832
50.054	56.834	32768	15234	0	832
50.956	57.014	32768	15155	0	832
49.261	57.339	32768	14982	0	832
43.094	53.480	32768	14836	0	832
36.603	50.307	32768	14777	0	832
32.708	46.953	32768	14816	0	832
31.915	47.061	32768	14911	0	832
32.816	47.494	32768	14986	0	832
31.879	44.645	32768	15076	0	832
26.433	40.570	32768	15242	0	832
22.899	34.656	32768	15423	0	832
22.503	33.393	32768	15529	0	832
25.965	34.367	32768	15537	0	832
30.292	37.252	32768	15470	0	832
28.958	35.846	32768	15293	0	832
26.073	33.069	32768	15057	0	832
20.231	26.145	32768	14887	0	832
18.139	22.972	32768	14781	0	832
17.057	24.739	32768	14722	0	832
21.421	26.866	32768	14753	0	832
22.322	29.715	32768	14911	0	832
23.368	32.276	32768	15143	0	832
22.719	31.230	32768	15364	0	832
22.791	32.312	32768	15514	0	832
26.145	33.970	32768	15612	0	832
32.925	38.045	32768	15719	0	832
38.370	41.760	32768	15845	0	832
40.642	41.976	32768	15959	0	832
39.091	39.632	32768	16038	0	832
34.620	33.682	32768	16093	0	832
28.633	29.282	32768	16136	0	832
26.722	26.397	32768	16184	0	832
26.001	26.506	32768	16223	0	832
21.601	26.650	32768	16247	0	832
16.408	22.791	32768	16247	0	832
10.674	19.798	32768	16168	0	832
7.176	14.605	32768	16014	0	832
9.953	15.543	32768	15912	0	832
15.290	17.995	32768	15927	0	832
24.234	21.277	32768	15998	0	832
26.506	21.781	32768	16026	0	832
24.414	16.769	32768	15990	0	832
20.014	13.451	32768	16022	0	832
10.638	10.746	32768	16180	0	832
6.671	10.963	32768	16381	0	832
5.229	14.966	32768	16529	0	832
7.898	16.877	32768	16612	0	832
10.891	15.038	32768	16663	0	832
15.074	13.812	32768	16738	0	832
18.788	12.153	32768	16852	0	832
18.788	15.723	32768	16975	0	832
20.231	20.591	32768	17061	0	832
18.392	26.974	32768	17105	0	832
11.504	25.929	32768	17156	0	832
5.013	20.808	32768	17274	0	832
0.974	12.622	32768	17400	0	832
-3.534	4.147	32768	17447	0	832
-1.803	0.000	32768	17424	0	832
3.318	1.046	32768	17392	0	832
7.934	3.750	32768	17388	0	832
14.208	6.852	32768	17384	0	832
12.153	11.035	32768	17349	0	832
10.927	12.009	32768	17302	0	832
4.508	9.052	32768	17258	0	832
0.252	5.445	32768	17211	0	832
-1.262	2.633	32768	17156	0	832
3.606	0.144	32768	17120	0	832
9.448	2.957	32768	17061	0	832
13.884	8.439	32768	16852	0	832
17.923	12.441	32768	16525	0	832
15.002	13.776	32768	16258	0	832
13.127	13.127	32768	16089	0	832
12.045	12.946	32768	15967	0	832
12.225	14.100	32768	15864	0	832
15.038	16.264	32768	15719	0	832
14.064	12.874	32768	15573	0	832
11.179	8.619	32768	15581	0	832
8.943	1.983	32768	15734	0	832
6.888	-1.226	32768	15892	0	832
8.330	-1.515	32768	16018	0	832
10.746	0.829	32768	16148	0	832
15.651	2.993	32768	16318	0	832
16.949	4.219	32768	16545	0	832
21.349	5.698	32768	16841	0	832
21.457	6.888	32768	17120	0	832
20.411	4.868	32768	17341	0	832
18.500	3.101	32768	17597	0	832
14.317	3.498	32768	17944	0	832
13.523	5.554	32768	18357	0	832
15.362	10.061	32768	18771	0	832
17.815	12.694	32768	19122	0	832
23.476	15.615	32768	19386	0	832
22.827	12.802	32768	19603	0	832
20.952	8.763	32768	19756	0	832
15.687	6.852	32768	19855	0	832
10.999	4.652	32768	19894	0	832
9.556	4.904	32768	19780	0	832
12.694	5.481	32768	19524	0	832
14.713	6.383	32768	19343	0	832
17.634	4.111	32768	19303	0	832
17.274	2.488	32768	19291	1	764
16.120	2.056	32768	19220	0	764
18.247	1.154	32768	19008	0	764
17.093	1.479	32768	18692	0	764
17.670	-0.721	32768	18409	0	764
15.651	-2.885	32768	18188	0	764
14.172	-3.390	32768	17979	0	764
13.523	-4.940	32768	17743	0	764
16.444	-2.596	32768	17412	0	764
17.887	-2.416	32768	17081	0	764
16.949	-4.003	32768	16939	0	764
11.287	-7.970	32768	16978	0	764
4.183	-10.746	32768	16998	0	764
-2.813	-14.966	32768	16892	0	764
-6.888	-17.959	32768	16711	0	764
-7.898	-16.949	32768	16557	0	764
-5.986	-17.887	32768	16474	0	764
-7.248	-16.661	32768	16431	0	764
-12.369	-21.745	32768	16377	0	764
-22.972	-31.085	32768	16278	0	764
-36.891	-47.926	32768	16176	0	764
-51.244	-62.099	32768	16089	0	764
-58.493	-74.216	32768	16018	0	764
-62.387	-79.264	32768	15983	0	764
-63.109	-79.553	32768	15983	0	764
-63.145	-77.966	32768	15983	0	764
-63.649	-77.786	32768	15963	0	764
-62.784	-76.884	32768	15963	0	764
-60.548	-75.983	32768	15994	0	764
-56.185	-72.809	32768	15987	0	764
-50.920	-68.662	32768	15931	0	764
-46.195	-62.063	32768	15892	0	764
-41.003	-56.040	32768	15892	0	764
-35.413	-46.953	32768	15900	0	764
-31.230	-42.445	32768	15849	0	764
-32.131	-41.724	32768	15746	0	764
-37.721	-48.323	32768	15636	0	764
-46.664	-58.493	32768	15553	0	764
-55.680	-67.941	32768	15474	0	764
-61.558	-73.963	32768	15372	0	764
-65.092	-75.117	32768	15250	0	764
-65.669	-75.622	32768	15147	0	764
-67.111	-75.838	32768	15084	0	764
-66.895	-75.658	32768	15037	0	764
-63.109	-74.540	32768	14970	0	764
-59.250	-73.567	32768	14891	0	764
-57.843	-73.314	32768	14836	0	764
-56.473	-72.124	32768	14789	0	764
-59.502	-72.340	32768	14734	0	764
-59.538	-73.062	32768	14710	0	764
-58.457	-73.783	32768	14718	0	764
-55.572	-72.449	32768	14702	0	764
-48.539	-64.407	32768	14663	0	764
-40.786	-53.768	32768	14663	0	764
-33.970	-43.527	32768	14710	0	764
-29.391	-36.855	32768	14801	0	764
-30.040	-37.937	32768	14942	0	764
-31.230	-43.635	32768	15096	0	764
-33.862	-45.907	32768	15199	0	764
-35.124	-50.884	32768	15246	0	764
-38.983	-52.218	32768	15309	0	764
-44.753	-56.437	32768	15439	0	764
-54.742	-63.289	32768	15620	0	764
-59.755	-70.105	32768	15786	0	764
-62.856	-74.252	32768	15943	0	764
-62.315	-74.648	32768	16140	0	764
-62.892	-72.809	32768	16384	0	764
-65.056	-71.403	32768	16663	0	764
-70.573	-74.360	32768	16872	0	764
-74.035	-77.281	32768	16892	0	764
-73.242	-78.435	32768	16789	0	764
-67.111	-73.747	32768	16778	0	764
-57.050	-65.128	32768	16896	0	764
-49.441	-61.305	32768	17014	0	764
-45.330	-62.063	32768	17097	0	764
-49.441	-66.607	32768	17179	0	764
-57.194	-72.160	32768	17239	0	764
-64.263	-75.117	32768	17235	0	764
-66.859	-72.196	32768	17242	0	764
-63.145	-66.282	32768	17325	0	764
-57.483	-60.548	32768	17321	0	764
-53.047	-57.699	32768	17172	0	764
-50.847	-55.536	32768	17065	0	764
-52.939	-59.466	32768	17132	0	764
-53.660	-63.036	32768	17262	0	764
-56.221	-68.157	32768	17262	0	764
-53.624	-68.590	32768	17105	0	764
-53.841	-69.059	32768	16884	0	764
-50.847	-67.905	32768	16699	0	764
-51.641	-68.374	32768	16549	0	764
-53.516	-72.881	32768	16361	0	764
-60.656	-77.389	32768	16065	0	764
-64.335	-81.356	32768	15730	0	764
-64.587	-80.418	32768	15466	0	764
-60.296	-74.721	32768	15309	0	764
-55.067	-69.419	32768	15226	0	764
-48.035	-64.515	32768	15175	0	764
-44.861	-62.243	32768	15120	0	764
-43.996	-63.649	32768	15108	0	764
-43.094	-65.164	32768	15171	0	764
-45.546	-67.220	32768	15309	0	764
-50.126	-69.167	32768	15466	0	764
-53.372	-71.619	32768	15577	0	764
-58.060	-73.062	32768	15636	0	764
-57.771	-72.449	32768	15695	0	764
-57.519	-69.708	32768	15797	0	764
-53.913	-65.272	32768	15924	0	764
-49.153	-60.151	32768	16030	0	764
-42.842	-58.240	32768	16109	0	764
-41.219	-56.978	32768	16148	0	764
-41.543	-59.286	32768	16156	0	764
-46.376	-64.912	32768	16148	0	764
-52.110	-69.996	32768	16097	0	764
-56.762	-73.134	32768	16014	0	764
-52.939	-69.996	32768	15900	0	764
-47.890	-64.948	32768	15750	0	764
-40.714	-61.918	32768	15632	0	764
-39.993	-62.135	32768	15691	0	764
-45.691	-69.167	32768	15904	0	764
-55.860	-76.055	32768	16030	0	764
-61.991	-79.048	32768	15967	0	764
-63.145	-80.202	32768	15801	0	764
-60.909	-79.156	32768	15652	0	764
-62.640	-81.176	32768	15553	0	764
-67.724	-83.664	32768	15490	0	764
-73.530	-88.100	32768	15403	0	764
-76.379	-88.604	32768	15250	0	764
-71.511	-86.693	32768	15088	0	764
-66.390	-80.454	32768	14990	0	764
-63.686	-74.793	32768	14962	0	764
-62.279	-73.170	32768	14958	0	764
-61.378	-71.186	32768	14938	0	764
-60.548	-71.367	32768	14927	0	764
-59.070	-73.783	32768	14962	0	764
-56.617	-75.514	32768	15053	0	764
-58.709	-78.651	32768	15155	0	764
-63.289	-80.490	32768	15234	0	764
-64.623	-81.392	32768	15301	0	764
-69.383	-82.005	32768	15415	0	764
-69.636	-82.221	32768	15612	0	764
-66.318	-80.851	32768	15849	0	764
-60.332	-78.940	32768	16034	0	764
-50.956	-71.223	32768	16168	0	764
-44.392	-63.686	32768	16290	0	764
-39.921	-58.168	32768	16399	0	764
-40.317	-55.391	32768	16502	0	764
-43.455	-57.266	32768	16581	0	764
-45.330	-58.240	32768	16636	0	764
-42.337	-60.945	32768	16675	0	764
-41.075	-63.181	32768	16718	0	764
-41.904	-66.102	32768	16762	0	764
-47.422	-69.383	32768	16817	0	764
-53.696	-71.367	32768	16805	0	764
-58.024	-71.186	32768	16624	0	764
-56.798	-68.878	32768	16302	0	764
-53.732	-64.082	32768	15935	0	764
-50.487	-63.686	32768	15648	0	764
-51.569	-64.912	32768	15470	0	764
-52.867	-68.013	32768	15352	0	764
-57.988	-72.124	32768	15234	0	764
-60.945	-76.019	32768	15120	0	764
-66.174	-77.966	32768	15112	0	764
-69.095	-78.182	32768	15269	0	764
-68.482	-77.858	32768	15482	0	764
-63.649	-71.042	32768	15644	0	764
-56.365	-64.515	32768	15723	0	764
-46.953	-56.437	32768	15782	0	764
-43.022	-52.903	32768	15876	0	764
-42.517	-53.516	32768	16014	0	764
-48.071	-55.031	32768	16160	0	764
-51.461	-58.673	32768	16266	0	764
-54.706	-57.627	32768	16353	0	764
-52.398	-58.024	32768	16454	0	764
-53.985	-57.771	32768	16600	0	764
-54.382	-57.411	32768	16742	0	764
-59.106	-61.486	32768	16809	0	764
-61.918	-66.534	32768	16805	0	764
-62.676	-71.475	32768	16789	0	764
-61.702	-76.920	32768	16825	0	764
-62.063	-80.454	32768	16896	0	764
-65.489	-81.500	32768	16939	0	764
-68.157	-82.943	32768	16967	0	764
-69.888	-82.257	32768	17026	0	764
-62.459	-78.399	32768	17132	0	764
-53.588	-74.107	32768	17286	0	764
-49.693	-68.878	32768	17502	0	764
-47.530	-61.991	32768	17739	0	764
-46.340	-55.932	32768	17928	0	764
-45.510	-49.080	32768	18027	0	764
-41.543	-48.251	32768	18070	0	764
-39.668	-50.667	32768	18125	0	764
-45.005	-60.873	32768	18204	0	764
-56.185	-70.141	32768	18306	0	764
-64.443	-78.976	32768	18424	0	764
-70.537	-81.392	32768	18551	0	764
-72.629	-80.130	32768	18645	0	764
-73.242	-77.569	32768	18700	0	764
-73.747	-74.504	32768	18744	0	764
-74.252	-73.206	32768	18779	0	764
-73.927	-74.216	32768	18787	0	764
-72.629	-76.163	32768	18783	0	764
-69.059	-76.560	32768	18826	0	764
-64.082	-74.324	32768	18929	0	764
-60.656	-71.114	32768	19043	0	764
-59.106	-66.751	32768	19094	0	764
-58.457	-62.135	32768	19082	0	764
-55.752	-60.296	32768	19071	0	764
-52.506	-55.608	32768	19082	0	764
-45.582	-52.038	32768	19067	1	832
-41.796	-47.566	32768	18996	0	832
-40.570	-43.166	32768	18901	0	832
-41.219	-39.308	32768	18795	0	832
-40.317	-37.468	32768	18696	0	832
-40.930	-37.216	32768	18594	0	832
-42.337	-41.363	32768	18440	0	832
-50.415	-47.241	32768	18235	0	832
-57.266	-56.076	32768	18023	0	832
-61.774	-58.060	32768	17826	0	832
-60.296	-56.185	32768	17636	0	832
-52.254	-50.956	32768	17400	0	832
-49.116	-44.140	32768	17124	0	832
-47.602	-41.724	32768	16833	0	832
-47.818	-40.678	32768	16490	0	832
-48.179	-41.471	32768	16124	0	832
-45.258	-41.183	32768	15833	0	832
-40.966	-41.543	32768	15660	0	832
-39.885	-40.822	32768	15474	0	832
-42.770	-39.668	32768	15175	0	832
-45.474	-37.252	32768	14812	0	832
-46.556	-34.079	32768	14525	0	832
-45.835	-32.816	32768	14340	0	832
-43.094	-32.059	32768	14182	0	832
-38.586	-30.941	32768	13953	0	832
-32.744	-26.722	32768	13697	0	832
-24.306	-21.781	32768	13587	0	832
-19.546	-14.894	32768	13662	0	832
-17.202	-13.199	32768	13768	0	832
-21.241	-13.884	32768	13784	0	832
-24.991	-17.995	32768	13713	0	832
-29.354	-17.779	32768	13658	0	832
-28.741	-17.995	32768	13697	0	832
-30.400	-15.146	32768	13823	0	832
-32.672	-17.670	32768	13961	0	832
-36.459	-20.555	32768	14087	0	832
-37.000	-24.739	32768	14237	0	832
-36.423	-24.955	32768	14403	0	832
-35.016	-22.106	32768	14501	0	832
-38.154	-21.854	32768	14517	0	832
-39.993	-22.575	32768	14509	0	832
-41.904	-25.640	32768	14544	0	832
-39.957	-27.371	32768	14671	0	832
-33.754	-25.424	32768	14911	0	832
-30.977	-24.162	32768	15210	0	832
-31.122	-25.207	32768	15490	0	832
-34.006	-27.948	32768	15734	0	832
-35.088	-28.417	32768	15963	0	832
-32.348	-24.883	32768	16203	0	832
-24.775	-18.716	32768	16447	0	832
-13.956	-7.285	32768	16671	0	832
-6.455	-1.767	32768	16856	0	832
-2.056	4.940	32768	17018	0	832
-2.164	8.078	32768	17148	0	832
-6.167	8.366	32768	17282	0	832
-10.169	5.301	32768	17542	0	832
-13.307	1.190	32768	17873	0	832
-16.372	-1.659	32768	18038	0	832
-14.172	-1.911	32768	17991	0	832
-12.225	2.885	32768	17900	0	832
-6.058	10.855	32768	17833	0	832
0.541	21.241	32768	17759	0	832
5.193	27.479	32768	17656	0	832
8.439	32.239	32768	17491	0	832
8.150	31.915	32768	17294	0	832
8.835	30.508	32768	17179	0	832
10.963	29.643	32768	17132	0	832
16.156	34.367	32768	17069	0	832
28.201	43.671	32768	16959	0	832
41.183	54.959	32768	16809	0	832
51.569	66.246	32768	16663	0	832
55.608	71.367	32768	16553	0	832
57.339	76.379	32768	16498	0	832
56.257	78.507	32768	16458	0	832
60.656	81.644	32768	16387	0	832
66.246	84.205	32768	16294	0	832
67.328	84.241	32768	16223	0	832
61.882	76.704	32768	16231	0	832
48.612	69.852	32768	16290	0	832
38.478	66.102	32768	16298	0	832
37.432	67.616	32768	16219	0	832
43.094	71.114	32768	16117	0	832
48.972	73.278	32768	16050	0	832
52.470	69.239	32768	15998	0	832
47.566	62.856	32768	15908	0	832
38.983	55.608	32768	15778	0	832
36.387	53.047	32768	15660	0	832
38.298	57.050	32768	15565	0	832
41.003	60.765	32768	15459	0	832
43.707	64.840	32768	15309	0	832
43.094	64.479	32768	15159	0	832
37.324	60.801	32768	15013	0	832
31.843	53.228	32768	14812	0	832
29.787	49.730	32768	14596	0	832
31.482	48.936	32768	14537	0	832
35.810	54.201	32768	14659	0	832
39.632	56.762	32768	14738	0	832
40.714	58.240	32768	14639	0	832
39.091	55.644	32768	14446	0	832
36.351	51.605	32768	14288	0	832
34.439	50.270	32768	14229	0	832
33.393	50.054	32768	14269	0	832
32.780	51.100	32768	14336	0	832
33.538	54.273	32768	14375	0	832
35.810	54.418	32768	14430	0	832
36.206	56.076	32768	14541	0	832
35.774	55.139	32768	14690	0	832
34.692	52.146	32768	14824	0	832
32.889	50.775	32768	14907	0	832
36.314	51.641	32768	14954	0	832
37.541	52.506	32768	15025	0	832
39.380	56.040	32768	15143	0	832
35.810	58.493	32768	15281	0	832
32.456	57.807	32768	15392	0	832
31.735	60.007	32768	15474	0	832
34.908	62.495	32768	15600	0	832
38.442	60.981	32768	15801	0	832
38.406	59.358	32768	16042	0	832
33.213	56.581	32768	16266	0	832
25.424	50.775	32768	16474	0	832
21.998	49.730	32768	16687	0	832
20.231	47.782	32768	16896	0	832
21.673	45.618	32768	17065	0	832
20.267	43.202	32768	17168	0	832
15.579	37.937	32768	17215	0	832
9.592	33.610	32768	17219	0	832
9.629	34.223	32768	17168	0	832
10.674	34.151	32768	17069	0	832
12.766	35.810	32768	16951	0	832
17.166	37.000	32768	16841	0	832
19.473	39.668	32768	16707	0	832
25.929	44.464	32768	16478	0	832
35.052	52.326	32768	16195	0	832
45.366	60.873	32768	15971	0	832
51.821	67.292	32768	15849	0	832
57.483	69.203	32768	15754	0	832
56.942	70.682	32768	15596	0	832
56.978	71.223	32768	15384	0	832
54.418	70.177	1	15230	0	832
53.336	67.905	1	15210	0	832
49.225	62.928	1	15289	0	832
45.222	55.716	1	15384	0	832
39.344	51.244	1	15463	0	832
33.249	48.215	1	15600	0	832
29.391	50.307	1	15817	0	832
28.669	51.497	1	16034	0	832
29.391	52.110	1	16199	0	832
27.984	53.300	1	16302	0	832
26.650	50.811	1	16384	0	832
25.676	52.903	1	16506	0	832
27.299	54.598	1	16707	0	832
31.771	56.040	1	16911	0	832
38.550	59.827	1	17010	0	832
42.481	60.765	1	17014	0	832
44.681	63.036	1	17022	0	832
46.772	70.141	1	17085	0	832
50.992	77.173	1	17172	0	832
57.230	83.988	1	17199	0	832
63.181	85.323	1	17175	0	832
64.876	82.834	1	17160	0	832
62.928	74.937	1	17160	0	832
59.755	71.511	1	17144	0	832
56.942	71.944	1	17120	0	832
54.165	74.324	1	17101	0	832
53.408	77.101	1	17014	0	832
50.559	79.445	1	16793	0	832
49.946	81.356	1	16498	0	832
49.802	79.661	1	16251	0	832
49.333	72.737	1	16054	0	832
46.772	64.407	1	15825	0	832
39.344	52.470	1	15541	0	832
33.177	46.159	1	15293	0	832
30.328	45.474	1	15163	0	832
30.545	48.936	1	15171	0	832
35.485	54.345	1	15289	0	832
40.245	55.932	1	15459	0	832
44.717	59.070	1	15640	0	832
50.198	60.909	1	15904	0	832
56.798	62.532	1	16274	0	832
60.728	64.190	1	16647	0	832
60.332	64.190	1	16963	0	832
54.021	59.214	1	17227	0	832
43.599	54.382	1	17499	0	832
38.803	54.706	1	17818	0	832
43.671	59.647	1	18164	0	832
52.687	67.147	1	18499	0	832
57.519	73.891	1	18811	0	832
56.726	72.917	1	19126	0	832
48.576	67.292	1	19445	0	832
37.000	59.971	1	19752	0	832
31.735	55.896	32768	20036	0	832
32.889	53.119	32768	20245	0	832
36.423	54.995	32768	20375	0	832
40.498	55.896	32768	20462	0	832
43.166	57.555	32768	20540	0	832
43.419	59.935	32768	20619	0	832
42.445	57.843	32768	20635	0	832
41.147	54.309	32768	20473	0	832
39.885	50.956	32768	20119	0	832
37.072	49.333	32768	19729	0	832
35.016	48.503	32768	19382	0	832
31.915	52.651	32768	19027	1	804
32.276	52.362	32768	18661	0	804
34.475	52.542	32768	18322	0	804
37.180	50.739	32768	17999	0	804
40.498	53.372	32768	17715	0	804
42.553	56.437	32768	17542	0	804
44.248	60.548	32768	17428	0	804
44.789	60.620	32768	17187	0	804
43.563	59.827	32768	16774	0	804
41.291	56.726	32768	16290	0	804
40.245	55.139	32768	15821	0	804
39.776	57.339	32768	15431	0	804
40.353	62.315	32768	15112	0	804
42.697	64.623	32768	14797	0	804
44.356	66.210	32768	14446	0	804
41.796	63.866	32768	14139	0	804
38.731	60.765	32768	13950	0	804
36.567	57.303	32768	13859	0	804
35.629	55.463	32768	13808	0	804
37.973	57.952	32768	13776	0	804
38.695	55.355	32768	13808	0	804
37.324	51.749	32768	13922	0	804
34.006	47.818	32768	14080	0	804
27.984	43.383	32768	14245	0	804
28.128	42.950	32768	14367	0	804
32.167	47.854	32768	14446	0	804
39.812	57.880	32768	14513	0	804
46.881	65.236	32768	14604	0	804
54.454	70.249	32768	14738	0	804
55.463	70.285	32768	14903	0	804
57.086	68.734	32768	15076	0	804
54.418	65.561	32768	15234	0	804
52.326	62.676	32768	15364	0	804
46.412	60.188	32768	15474	0	804
38.190	51.533	32768	15541	0	804
31.590	44.464	32768	15565	0	804
24.378	39.560	32768	15529	0	804
21.962	39.344	32768	15403	0	804
23.080	41.688	32768	15269	0	804
22.827	44.969	32768	15273	0	804
26.001	52.218	32768	15376	0	804
30.040	56.545	32768	15368	0	804
33.538	62.207	32768	15206	0	804
36.747	64.407	32768	15005	0	804
37.432	59.755	32768	14871	0	804
35.269	50.451	32768	14860	0	804
31.735	42.770	32768	14954	0	804
30.256	40.173	32768	15096	0	804
34.583	44.320	32768	15262	0	804
43.202	52.939	32768	15490	0	804
51.857	62.892	32768	15809	0	804
55.031	70.718	32768	16144	0	804
55.319	72.701	32768	16407	0	804
47.169	69.383	32768	16588	0	804
41.796	62.279	32768	16722	0	804
39.488	51.821	32768	16852	0	804
38.370	45.835	32768	16986	0	804
38.118	44.068	32768	17089	0	804
37.937	47.097	32768	17124	0	804
36.062	54.273	32768	17140	0	804
36.242	59.106	32768	17199	0	804
34.620	62.063	32768	17329	0	804
34.511	62.712	32768	17491	0	804
34.583	59.683	32768	17617	0	804
38.514	57.266	32768	17672	0	804
43.238	60.224	32768	17668	0	804
48.359	62.640	32768	17636	0	804
49.189	65.525	32768	17597	0	804
45.835	66.174	32768	17514	0	804
40.389	65.236	32768	17400	0	804
36.639	63.505	32768	17282	0	804
39.199	64.948	32768	17172	0	804
44.645	66.318	32768	17030	0	804
48.900	66.498	32768	16829	0	804
52.218	64.551	32768	16592	0	804
47.386	62.351	32768	16357	0	804
41.183	60.728	32768	16101	0	804
35.701	61.342	32768	15849	0	804
33.934	59.502	32768	15608	0	804
33.682	61.017	32768	15356	0	804
35.016	59.358	32768	15076	0	804
35.413	55.463	32768	14761	0	804
34.439	52.831	32768	14462	0	804
34.043	47.602	32768	14265	0	804
35.593	47.313	32768	14198	0	804
37.901	47.962	32768	14217	0	804
38.803	50.162	32768	14233	0	804
41.147	53.732	32768	14213	0	804
41.435	54.093	1	14277	0	804
42.770	57.483	1	14470	0	804
42.625	61.089	1	14710	0	804
42.697	63.577	1	14923	0	804
43.743	65.128	1	15084	0	804
43.599	63.577	1	15218	0	804
41.976	58.601	1	15372	0	804
38.370	52.759	1	15577	0	804
32.672	49.333	1	15790	0	804
26.253	46.448	1	15939	0	804
25.171	46.809	1	16057	0	804
26.578	47.854	1	16195	0	804
27.335	47.638	1	16365	0	804
27.551	48.936	1	16525	0	804
26.181	47.097	1	16624	0	804
22.935	44.248	1	16596	0	804
16.985	38.839	1	16384	0	804
14.533	35.016	1	16061	0	804
10.819	26.866	1	15829	0	804
8.402	26.506	1	15723	0	804
10.927	26.253	1	15660	0	804
15.543	31.302	1	15624	0	804
22.575	39.235	1	15593	0	804
30.040	50.343	1	15565	0	804
37.937	60.476	1	15581	0	804
42.625	67.616	1	15652	0	804
42.193	70.537	1	15730	0	804
41.940	68.554	1	15730	0	804
41.111	66.462	1	15656	0	804
42.084	61.918	1	15608	0	804
45.618	60.440	1	15640	0	804
48.972	58.709	1	15734	0	804
50.451	60.620	1	15809	0	804
46.232	63.686	1	15845	0	804
42.445	68.229	1	15939	0	804
36.531	71.114	1	16113	0	804
33.069	68.121	1	16294	0	804
32.203	60.440	1	16395	0	804
32.708	48.900	1	16427	0	804
30.508	40.353	1	16454	0	804
27.299	36.351	1	16529	0	804
23.873	35.305	1	16624	0	804
23.044	36.314	1	16667	0	804
23.368	38.190	1	16655	0	804
25.929	41.183	1	16659	0	804
29.715	43.599	1	16734	0	804
29.859	45.618	1	16880	0	804
31.194	46.195	1	17045	0	804
33.069	48.576	1	17160	0	804
34.980	50.739	1	17195	0	804
37.541	56.870	1	17207	0	804
38.298	60.620	1	17250	0	804
36.639	61.414	1	17325	0	804
36.134	60.656	1	17400	0	804
35.088	60.873	1	17463	0	804
37.324	62.387	1	17463	0	804
40.101	64.299	1	17376	0	804
40.606	63.289	1	17250	0	804
40.678	61.017	1	17215	0	804
40.245	58.817	1	17270	0	804
43.022	59.286	1	17282	0	804
46.195	58.745	1	17215	0	804
48.251	58.529	1	17105	0	804
46.268	57.158	1	16971	0	804
40.101	48.539	1	16817	0	804
29.715	41.652	1	16628	0	804
20.267	33.898	1	16349	0	804
14.605	27.840	1	16010	0	804
14.172	26.289	1	15790	0	804
19.870	26.506	1	15742	0	804
26.073	29.535	1	15742	0	804
33.069	35.269	1	15699	0	804
37.685	38.045	1	15596	0	804
42.481	41.940	1	15498	0	804
46.015	45.943	1	15439	0	804
49.621	49.008	1	15407	0	804
50.270	53.011	1	15399	0	804
46.881	56.798	1	15372	0	804
42.445	57.086	1	15317	0	804
37.937	53.588	1	15242	0	804
32.167	45.655	1	15187	0	804
30.436	38.298	1	15187	0	804
30.436	35.774	1	15210	0	804
32.456	33.790	1	15151	0	804
35.449	39.488	1	15053	0	804
39.091	43.924	1	15132	0	804
39.957	46.809	1	15415	0	804
39.344	44.861	1	15762	0	804
37.829	41.039	1	16128	0	804
35.377	37.468	1	16541	0	804
34.403	34.006	1	16998	0	804
34.006	34.439	1	17487	0	804
34.692	36.964	1	18003	0	804
36.026	40.570	1	18519	0	804
36.567	44.573	1	18984	0	804
36.531	46.989	1	19350	0	804
36.170	48.287	1	19646	0	804
36.278	47.710	1	19930	0	804
36.495	45.691	1	20198	0	804
37.324	46.015	1	20410	0	804
38.154	46.448	1	20540	0	804
37.685	46.304	1	20584	0	804
34.259	43.130	1	20568	0	804
28.741	41.327	1	20540	0	804
23.260	36.567	1	20517	0	804
21.132	32.925	1	20434	0	804
18.933	29.427	1	20280	1	776
20.447	26.109	1	20166	0	776
19.185	24.522	1	20131	0	776
20.087	27.696	32768	20071	0	776
16.985	33.538	32768	19910	0	776
18.283	40.173	32768	19642	0	776
17.526	42.229	32768	19327	0	776
18.572	37.901	32768	19039	0	776
18.139	33.574	32768	18787	0	776
18.392	29.391	32768	18511	0	776
18.716	28.237	32768	18184	0	776
17.562	29.354	32768	17849	0	776
18.320	28.453	32768	17554	0	776
19.077	30.545	32768	17305	0	776
22.395	31.879	32768	17077	0	776
22.827	35.269	32768	16805	0	776
24.594	38.550	32768	16490	0	776
27.227	39.199	32768	16184	0	776
29.715	38.767	32768	15896	0	776
31.735	37.216	32768	15632	0	776
32.239	32.816	32768	15392	0	776
26.181	26.253	32768	15167	0	776
20.880	18.536	32768	14919	0	776
16.048	16.913	32768	14655	0	776
18.500	16.192	32768	14411	0	776
20.916	21.313	32768	14182	0	776
23.332	23.044	32768	13965	0	776
21.854	24.378	32768	13756	0	776
17.202	24.089	32768	13556	0	776
17.093	26.974	32768	13441	0	776
18.175	30.076	32768	13504	0	776
22.106	30.112	32768	13674	0	776
22.611	28.201	32768	13772	0	776
20.087	21.385	32768	13760	0	776
11.937	15.795	32768	13741	0	776
9.629	12.477	32768	13729	0	776
7.176	15.254	32768	13729	0	776
10.710	18.500	32768	13749	0	776
16.444	22.575	32768	13760	0	776
17.959	21.457	32768	13725	0	776
21.854	16.805	32768	13686	0	776
22.719	12.658	32768	13701	0	776
23.873	11.720	32768	13764	0	776
25.279	12.441	32768	13816	0	776
23.549	18.103	32768	13831	0	776
21.673	18.752	32768	13867	0	776
20.880	17.887	1	13969	0	776
19.113	14.497	1	14150	0	776
23.512	12.081	1	14379	0	776
27.660	12.369	1	14600	0	776
31.446	13.018	1	14812	0	776
34.583	17.743	1	15049	0	776
34.980	19.257	1	15332	0	776
34.692	23.801	1	15640	0	776
33.393	23.729	1	15912	0	776
31.662	22.611	1	16148	0	776
30.689	23.729	1	16377	0	776
29.859	22.358	1	16600	0	776
31.374	22.467	1	16805	0	776
29.066	21.673	1	16927	0	776
27.263	15.903	1	16896	0	776
21.168	11.576	1	16734	0	776
17.310	8.475	1	16573	0	776
15.471	7.393	1	16482	0	776
16.192	6.780	1	16462	0	776
16.661	2.921	1	16502	0	776
16.264	0.397	1	16581	0	776
19.690	-0.180	1	16655	0	776
19.798	4.291	1	16691	0	776
22.431	7.789	1	16691	0	776
20.700	7.970	1	16742	0	776
13.992	4.688	1	16852	0	776
9.268	2.380	1	16923	0	776
6.888	2.416	1	16908	0	776
8.042	5.950	1	16880	0	776
12.658	10.999	1	16911	0	776
18.788	13.487	1	16971	0	776
22.431	13.848	1	16971	0	776
25.063	17.057	1	16856	0	776
27.479	18.644	1	16722	0	776
28.525	22.250	1	16675	0	776
26.830	22.214	1	16703	0	776
24.306	19.906	1	16742	0	776
21.637	15.110	1	16762	0	776
14.497	6.852	1	16778	0	776
8.547	-2.524	1	16829	0	776
4.796	-7.465	1	16935	0	776
3.823	-5.157	1	17045	0	776
8.114	2.705	1	17089	0	776
13.668	14.785	1	17073	0	776
17.815	18.680	1	17065	0	776
13.271	14.713	1	17089	0	776
5.590	0.288	1	17124	0	776
-4.075	-12.910	1	17057	0	776
-7.825	-17.851	1	16793	0	776
-6.203	-15.759	1	16415	0	776
0.252	-7.537	1	16128	0	776
4.183	0.000	1	15975	0	776
1.010	1.442	1	15864	0	776
-7.321	-4.544	1	15770	0	776
-18.897	-17.202	1	15691	0	776
-28.092	-25.929	1	15608	0	776
-29.066	-32.095	1	15561	0	776
-21.854	-28.273	1	15640	0	776
-14.425	-21.060	1	15790	0	776
-10.350	-16.697	1	15833	0	776
-15.975	-23.224	1	15723	0	776
-31.266	-35.629	1	15565	0	776
-44.176	-49.874	1	15455	0	776
-47.890	-57.483	1	15399	0	776
-44.212	-56.726	1	15325	0	776
-35.521	-51.244	1	15230	0	776
-28.814	-45.655	1	15155	0	776
-26.001	-41.616	1	15120	0	776
-23.116	-36.891	1	15112	0	776
-23.188	-34.800	1	15151	0	776
-24.883	-35.882	1	15210	0	776
-29.463	-39.055	1	15250	0	776
-35.341	-41.435	1	15317	0	776
-38.334	-42.517	1	15439	0	776
-39.127	-41.796	1	15593	0	776
-38.839	-41.724	1	15738	0	776
-43.058	-45.979	1	15837	0	776
-44.284	-49.116	1	15904	0	776
-42.553	-50.307	1	15987	0	776
-35.088	-44.320	1	16117	0	776
-25.568	-37.649	1	16294	0	776
-19.690	-32.889	1	16486	0	776
-14.317	-30.436	1	16616	0	776
-17.490	-33.682	1	16521	0	776
-20.339	-37.396	1	16254	0	776
-25.820	-42.084	1	16042	0	776
-30.653	-43.455	1	15935	0	776
-34.800	-43.166	1	15860	0	776
-31.699	-38.406	1	15797	0	776
-23.116	-29.931	1	15734	0	776
-16.444	-22.467	1	15711	0	776
-11.287	-14.497	1	15880	0	776
-13.668	-14.569	1	16223	0	776
-15.435	-16.120	1	16470	0	776
-17.995	-20.014	1	16482	0	776
-14.930	-20.159	1	16361	0	776
-12.045	-22.395	1	16262	0	776
-11.071	-22.142	1	16258	0	776
-13.018	-23.368	1	16310	0	776
-13.740	-24.702	1	16365	0	776
-13.523	-21.096	1	16377	0	776
-10.169	-18.247	1	16349	0	776
-10.206	-13.740	1	16314	0	776
-9.412	-14.569	1	16302	0	776
-12.297	-15.759	1	16318	0	776
-15.939	-20.123	1	16314	0	776
-17.851	-21.277	1	16306	0	776
-18.247	-22.214	1	16325	0	776
-18.933	-19.546	1	16384	0	776
-16.733	-16.985	1	16443	0	776
-16.264	-14.821	1	16466	0	776
-12.838	-16.444	1	16470	0	776
-11.251	-14.966	1	16521	0	776
-8.763	-16.985	1	16655	0	776
-7.862	-14.208	1	16821	0	776
-5.590	-10.746	1	16923	0	776
-2.416	-4.868	1	16943	0	776
3.678	3.318	1	16904	0	776
10.242	9.953	1	16848	0	776
14.028	13.307	1	16805	0	776
11.684	10.999	1	16750	0	776
8.150	4.760	1	16675	0	776
5.626	2.200	1	16616	0	776
10.674	6.167	1	16616	0	776
20.087	19.510	1	16667	0	776
36.242	36.314	1	16754	0	776
48.395	49.730	1	16860	0	776
55.896	58.925	1	16876	0	776
59.430	60.512	1	16714	0	776
61.053	59.899	1	16450	0	776
59.358	58.673	1	16239	0	776
58.276	56.149	1	16124	0	776
60.548	57.122	1	16046	0	776
59.250	60.692	1	15920	0	776
60.512	62.712	1	15778	0	776
61.486	66.282	1	15797	0	776
59.719	64.226	1	16002	0	776
54.237	58.889	1	16266	0	776
51.569	56.185	1	16506	0	776
50.270	57.591	1	16726	0	776
55.788	64.299	1	16955	0	776
61.558	70.321	1	17239	0	776
66.787	70.826	1	17581	0	776
65.994	65.885	1	17928	0	776
61.414	55.752	1	18227	0	776
54.021	46.340	1	18503	0	776
49.333	41.471	1	18822	0	776
44.645	38.082	1	19201	0	776
42.012	37.649	1	19579	0	776
39.416	35.269	1	19878	0	776
36.351	30.689	1	20099	0	776
30.436	24.558	1	20265	0	776
27.732	19.870	1	20414	0	776
24.811	20.087	1	20540	0	776
29.391	24.053	1	20595	0	776
36.242	32.672	1	20584	0	776
41.976	37.901	1	20528	0	776
43.419	39.091	1	20363	0	776
39.560	34.583	1	20020	0	776
31.699	28.777	1	19599	1	820
23.512	25.856	1	19209	0	820
17.202	24.847	1	18771	0	820
15.939	24.991	1	18271	0	820
15.290	28.705	1	17845	0	820
15.218	29.535	1	17518	0	820
18.788	31.771	1	17215	0	820
18.752	30.364	1	16888	0	820
20.050	28.958	1	16510	0	820
22.142	21.168	1	16128	0	820
19.401	17.166	1	15793	0	820
19.005	11.720	1	15490	0	820
13.956	11.504	1	15199	0	820
12.225	12.297	1	14935	0	820
9.881	11.504	1	14671	0	820
12.009	15.939	1	14462	0	820
18.356	21.204	1	14359	0	820
25.532	26.758	1	14336	0	820
33.069	30.148	1	14300	0	820
37.144	30.581	1	14217	0	820
36.819	26.289	1	14182	0	820
36.783	23.729	1	14245	0	820
35.954	23.585	1	14347	0	820
34.115	23.512	1	14446	0	820
31.879	23.837	1	14541	0	820
28.273	19.978	1	14647	0	820
24.775	18.680	1	14797	0	820
22.395	19.257	1	15005	0	820
21.926	20.123	1	15238	0	820
24.486	22.755	1	15368	0	820
24.702	22.250	1	15293	0	820
26.001	22.395	1	15100	0	820
26.001	22.647	1	15017	0	820
23.116	19.618	1	15076	0	820
20.087	20.555	1	15139	0	820
21.132	17.779	1	15124	0	820
21.168	17.959	1	14974	0	820
25.279	16.913	1	14757	0	820
28.201	17.851	1	14671	0	820
27.443	13.812	1	14793	0	820
26.578	13.127	1	15009	0	820
24.089	11.900	1	15183	0	820
21.565	11.251	1	15222	0	820
19.437	13.235	1	15167	0	820
18.392	12.802	1	15147	0	820
14.966	15.218	1	15210	0	820
16.480	18.320	1	15305	0	820
18.752	18.644	1	15411	0	820
23.585	19.690	1	15533	0	820
26.073	18.536	1	15679	0	820
25.784	14.641	1	15888	0	820
25.027	15.398	1	16144	0	820
23.188	17.202	1	16361	0	820
20.700	17.598	1	16498	0	820
20.159	19.329	1	16675	0	820
16.048	17.202	1	16927	0	820
15.398	16.048	1	17183	0	820
13.235	10.638	1	17400	0	820
13.668	7.501	1	17566	0	820
14.281	5.373	1	17680	0	820
13.018	1.623	1	17778	0	820
12.586	2.128	1	17893	0	820
12.441	3.714	1	17983	0	820
11.756	8.114	1	17975	0	820
14.821	10.963	1	17873	0	820
15.218	15.867	1	17759	0	820
18.969	15.939	1	17699	0	820
18.752	14.461	1	17668	0	820
20.123	10.566	1	17577	0	820
16.408	6.744	1	17428	0	820
16.372	4.436	1	17270	0	820
13.054	4.977	1	17140	0	820
13.054	7.501	1	17045	0	820
12.441	10.169	1	16978	0	820
12.405	11.468	1	16927	0	820
14.785	13.487	1	16852	0	820
16.733	13.451	1	16714	0	820
21.890	14.028	1	16541	0	820
22.539	13.235	1	16373	0	820
21.096	8.006	1	16215	0	820
10.133	-1.154	1	16065	0	820
-0.505	-9.196	1	15908	0	820
-7.862	-14.749	1	15742	0	820
-7.789	-12.441	1	15589	0	820
-0.865	-7.753	1	15474	0	820
6.239	-3.210	1	15407	0	820
4.724	-5.085	1	15321	0	820
-3.859	-15.903	1	15179	0	820
-20.375	-32.203	1	15072	0	820
-36.062	-47.241	1	15045	0	820
-46.340	-54.778	1	15065	0	820
-47.494	-55.499	1	15080	0	820
-41.580	-48.431	1	15049	0	820
-33.790	-41.832	1	14998	0	820
-28.814	-41.471	1	14982	0	820
-30.040	-46.881	1	14994	0	820
-33.538	-51.136	1	14986	0	820
-36.783	-55.536	1	14919	0	820
-34.547	-51.713	1	14864	0	820
-30.400	-47.638	1	14887	0	820
-28.886	-43.347	1	15009	0	820
-31.446	-43.130	1	15179	0	820
-38.226	-46.953	1	15317	0	820
-47.349	-51.028	1	15411	0	820
-52.651	-52.434	1	15506	0	820
-53.264	-54.706	1	15636	0	820
-55.427	-54.562	1	15782	0	820
-60.656	-58.601	1	15868	0	820
-64.767	-64.515	1	15805	0	820
-71.150	-71.583	1	15612	0	820
-71.547	-72.557	1	15455	0	820
-65.236	-68.806	1	15396	0	820
-55.175	-58.529	1	15364	0	820
-43.924	-44.501	1	15329	0	820
-31.302	-31.013	1	15309	0	820
-21.529	-21.998	1	15317	0	820
-14.497	-19.437	1	15388	0	820
-13.307	-19.690	1	15612	0	820
-16.120	-23.549	1	15975	0	820
-17.021	-23.549	1	16254	0	820
-18.283	-20.988	1	16318	0	820
-14.785	-18.031	1	16251	0	820
-10.855	-13.812	1	16176	0	820
-8.294	-13.812	1	16128	0	820
-8.042	-15.759	1	16093	0	820
-10.819	-19.582	1	15990	0	820
-16.733	-24.089	1	15797	0	820
-20.627	-29.318	1	15620	0	820
-23.585	-31.158	1	15561	0	820
-22.070	-33.466	1	15608	0	820
-17.093	-31.194	1	15675	0	820
-13.091	-27.696	1	15703	0	820
-11.540	-22.503	1	15715	0	820
-9.412	-19.005	1	15782	0	820
-10.602	-15.579	1	15916	0	820
-12.045	-17.959	1	16065	0	820
-12.045	-18.428	1	16176	0	820
-15.038	-19.834	1	16278	0	820
-16.120	-16.661	1	16423	0	820
-12.117	-12.802	1	16636	0	820
-7.609	-5.229	1	16904	0	820
-0.613	1.875	1	17199	0	820
5.193	6.455	1	17479	0	820
8.294	9.520	1	17696	0	820
5.301	8.366	1	17830	0	820
2.236	5.229	1	17881	0	820
-1.623	1.118	1	17818	0	820
0.325	0.325	1	17597	0	820
10.530	5.914	1	17286	0	820
27.551	18.824	1	16986	0	820
47.890	36.387	1	16742	0	820
62.748	50.162	1	16541	0	820
69.564	55.103	1	16384	0	820
72.088	57.447	1	16239	0	820
72.953	56.581	1	16113	0	820
76.776	60.440	1	16061	0	820
83.988	67.977	1	16164	0	820
89.362	73.350	1	16381	0	820
87.486	72.232	1	16557	0	820
86.801	67.616	1	16608	0	820
79.156	63.433	1	16553	0	820
75.622	61.522	1	16470	0	820
73.134	60.368	1	16427	0	820
69.708	61.882	1	16439	0	820
67.544	61.846	1	16447	0	820
67.003	58.745	1	16407	0	820
63.541	58.709	1	16361	0	820
63.974	58.889	1	16345	0	820
64.407	59.863	1	16369	0	820
67.869	61.738	1	16395	0	820
72.376	65.921	1	16387	0	820
74.035	65.561	1	16353	0	820
73.134	64.767	1	16321	0	820
70.069	61.269	1	16325	0	820
64.623	54.886	1	16341	0	820
62.748	52.290	1	16318	0	820
61.702	48.828	1	16251	0	820
61.053	50.667	1	16168	0	820
60.765	51.100	1	16132	0	820
59.286	49.838	1	16184	0	820
52.759	47.746	1	16270	0	820
45.222	38.983	1	16341	0	820
37.937	31.626	1	16435	0	820
34.980	26.794	1	16600	0	820
35.954	25.748	1	16833	0	820
38.154	26.181	1	17112	0	820
37.793	26.217	1	17337	0	820
34.331	23.152	1	17416	0	820
31.518	21.024	1	17388	0	820
31.771	19.978	1	17357	0	820
35.629	25.279	1	17400	0	820
39.416	29.968	1	17530	0	820
42.734	34.223	1	17684	0	820
45.041	34.980	1	17759	0	820
47.530	35.990	1	17798	0	820
48.792	33.393	1	17983	0	820
49.116	32.708	1	18338	0	820
45.510	28.705	1	18724	0	820
39.452	25.352	1	19039	0	820
34.980	24.125	1	19283	0	820
35.052	26.217	1	19496	0	820
39.957	29.931	1	19693	0	820
44.825	31.626	1	19878	0	820
44.681	28.381	1	20028	0	820
37.685	21.385	1	20091	0	820
29.030	15.615	1	20075	0	820
25.640	17.238	1	20040	0	820
27.299	22.034	1	20024	0	820
33.646	25.965	1	19985	0	820
33.934	26.938	1	19855	1	836
27.912	21.421	1	19650	0	836
20.772	16.625	1	19429	0	836
17.670	14.353	1	19224	0	836
19.437	19.510	1	19004	0	836
27.587	24.017	1	18720	0	836
32.420	27.443	1	18385	0	836
34.656	28.453	1	18050	0	836
33.321	27.984	1	17735	0	836
29.823	27.119	1	17439	0	836
27.768	27.407	32768	17160	0	836
28.092	28.128	32768	16884	0	836
29.427	27.010	32768	16545	0	836
33.213	25.496	32768	16105	0	836
33.357	24.270	32768	15616	0	836
35.665	22.395	32768	15151	0	836
33.538	22.322	32768	14730	0	836
30.004	18.716	1	14304	0	836
24.847	15.867	1	13823	0	836
18.500	9.665	1	13335	0	836
10.206	4.796	1	12933	0	836
4.796	0.180	1	12673	0	836
1.803	-0.469	1	12503	0	836
1.515	-1.226	1	12334	0	836
3.462	-1.587	1	12145	0	836
7.609	-2.921	1	12042	0	836
12.225	-0.865	1	12094	0	836
17.129	2.777	1	12224	0	836
16.841	8.150	1	12338	0	836
15.615	9.845	1	12425	0	836
9.124	5.409	1	12570	0	836
0.144	-1.623	1	12815	0	836
-4.327	-7.573	1	13114	0	836
-2.236	-5.950	1	13418	0	836
6.491	1.947	1	13697	0	836
15.831	14.497	1	13957	0	836
25.712	22.863	1	14241	0	836
25.352	23.296	1	14560	0	836
18.644	16.841	1	14868	0	836
8.186	5.734	1	15108	0	836
-0.036	-2.813	1	15305	0	836
-1.911	-4.183	1	15510	0	836
4.544	2.633	1	15754	0	836
14.641	12.333	1	16022	0	836
22.142	21.421	1	16254	0	836
23.260	23.765	1	16431	0	836
18.247	20.627	1	16600	0	836
10.458	10.242	1	16770	0	836
4.977	2.488	1	16931	0	836
5.301	-0.325	1	17073	0	836
10.025	4.760	1	17219	0	836
16.589	15.471	1	17341	0	836
26.145	24.775	1	17349	0	836
29.463	29.427	1	17250	0	836
27.948	28.056	1	17195	0	836
21.926	21.854	1	17219	0	836
15.110	14.858	1	17207	0	836
10.133	10.314	1	17057	0	836
6.960	8.258	1	16848	0	836
5.698	8.366	1	16730	0	836
4.147	10.746	1	16758	0	836
1.911	14.641	1	16868	0	836
1.875	14.028	1	16978	0	836
4.436	12.441	1	17034	0	836
9.376	13.848	1	17105	0	836
11.468	12.730	1	17239	0	836
15.939	16.552	1	17380	0	836
15.543	17.562	1	17479	0	836
15.435	19.906	1	17538	0	836
17.562	18.139	1	17566	0	836
19.401	19.329	1	17581	0	836
22.827	17.670	1	17613	0	836
23.729	17.959	1	17621	0	836
19.546	16.156	1	17483	0	836
17.923	18.752	1	17140	0	836
17.598	21.818	1	16703	0	836
22.431	27.876	1	16399	0	836
24.739	29.823	1	16266	0	836
25.640	30.617	1	16164	0	836
24.162	28.309	1	16042	0	836
23.224	25.676	1	15943	0	836
23.044	24.342	1	15888	0	836
23.945	20.339	1	15849	0	836
19.473	14.569	1	15786	0	836
13.018	9.592	1	15707	0	836
8.078	6.527	1	15624	0	836
8.366	8.727	1	15510	0	836
12.730	10.891	1	15368	0	836
14.605	15.471	1	15266	0	836
18.680	16.012	1	15218	0	836
15.362	12.730	1	15195	0	836
14.425	11.432	1	15167	0	836
10.891	9.809	1	15139	0	836
11.504	9.592	1	15147	0	836
12.910	13.559	1	15199	0	836
15.290	15.687	1	15293	0	836
17.382	18.933	1	15372	0	836
19.798	19.510	1	15384	0	836
21.168	21.060	1	15329	0	836
18.428	20.555	1	15155	0	836
16.697	20.591	1	14891	0	836
10.927	17.166	1	14710	0	836
8.078	18.067	1	14667	0	836
10.783	20.159	1	14738	0	836
16.480	26.217	1	14911	0	836
20.736	29.895	1	15151	0	836
22.034	29.931	1	15411	0	836
19.113	24.522	1	15656	0	836
15.002	22.322	1	15908	0	836
17.851	25.748	1	16180	0	836
22.611	31.987	1	16474	0	836
26.542	36.711	1	16762	0	836
28.381	36.747	1	16986	0	836
25.784	30.581	1	17140	0	836
22.503	26.397	1	17235	0	836
23.080	26.470	1	17262	0	836
25.207	31.266	1	17239	0	836
27.840	34.295	1	17183	0	836
30.508	34.151	1	17018	0	836
27.732	31.158	1	16734	0	836
24.811	27.227	1	16490	0	836
21.890	24.234	1	16384	0	836
20.916	25.027	1	16337	0	836
19.942	26.145	1	16302	0	836
18.680	24.630	1	16286	0	836
18.536	22.070	1	16290	0	836
15.471	20.195	1	16302	0	836
13.523	15.975	1	16310	0	836
13.668	15.254	1	16318	0	836
14.028	13.379	1	16318	0	836
17.815	13.920	1	16258	0	836
19.510	19.906	1	16148	0	836
24.702	24.198	1	16030	0	836
25.532	30.004	1	15805	0	836
23.981	29.391	1	15431	0	836
23.476	25.460	1	15025	0	836
20.519	21.709	1	14722	0	836
19.762	21.241	1	14615	0	836
23.801	26.722	1	14718	0	836
24.270	30.112	1	14938	0	836
23.549	31.338	1	15199	0	836
20.519	26.253	1	15463	0	836
13.199	18.608	1	15723	0	836
12.189	13.235	1	16014	0	836
17.887	18.139	1	16353	0	836
26.253	27.371	1	16703	0	836
32.384	36.891	1	16959	0	836
31.013	39.885	1	16982	0	836
24.919	36.495	1	16872	0	836
19.618	28.237	1	16860	0	836
17.634	22.467	1	16975	0	836
19.437	21.385	1	17093	0	836
17.238	17.706	1	17195	0	836
13.199	13.631	1	17298	0	836
6.780	7.429	1	17353	0	836
3.498	5.265	1	17282	0	836
2.993	6.383	1	17124	0	836
6.275	10.710	1	17010	0	836
11.504	16.913	1	16951	0	836
18.897	25.784	1	16868	0	836
27.948	30.112	1	16738	0	836
30.797	30.869	1	16565	0	836
26.830	25.352	1	16227	0	836
17.274	16.228	1	15687	0	836
7.104	6.094	1	15210	0	836
5.409	6.058	1	15021	0	836
10.242	12.910	1	15132	0	836
16.480	17.021	1	15470	0	836
21.385	19.618	1	15884	0	836
20.087	15.903	1	16235	0	836
21.349	16.697	1	16502	0	836
21.998	19.834	1	16781	0	836
24.162	27.155	1	17132	0	836
24.919	28.345	1	17530	0	836
20.591	25.532	1	17893	0	836
17.995	20.664	1	18172	0	836
17.887	16.372	1	18444	0	836
17.634	19.618	1	18783	0	836
17.887	22.755	1	19181	0	836
19.221	25.496	1	19547	0	836
19.834	28.237	1	19835	0	836
24.522	29.174	1	20071	0	836
29.030	30.184	1	20320	0	836
29.968	27.768	1	20595	0	836
28.056	23.260	1	20856	0	836
22.395	19.005	1	21033	0	836
17.670	11.251	1	21120	0	836
11.864	4.508	1	21171	0	836
7.465	-1.695	1	21226	0	836
4.616	-3.065	1	21230	0	836
3.462	-0.144	1	21088	0	836
6.347	8.583	1	20804	0	836
7.321	14.641	1	20481	0	836
6.491	12.874	1	20154	0	836
3.895	6.852	1	19811	1	776
0.397	-2.813	1	19437	0	776
-0.793	-7.717	1	19035	0	776
-0.288	-8.943	1	18621	0	776
0.505	-7.501	1	18196	0	776
1.154	-5.517	1	17759	0	776
1.587	-7.429	1	17305	0	776
-1.695	-9.737	1	16813	0	776
-7.753	-16.228	1	16298	0	776
-19.041	-21.421	1	15770	0	776
-28.489	-27.732	1	15254	0	776
-33.682	-28.164	1	14808	0	776
-30.436	-25.929	1	14481	0	776
-23.981	-20.808	1	14249	0	776
-21.926	-24.991	1	14036	0	776
-30.761	-34.872	1	13819	0	776
-44.681	-50.415	1	13693	0	776
-53.696	-57.771	1	13689	0	776
-54.490	-56.473	1	13729	0	776
-45.438	-45.582	1	13756	0	776
-39.560	-36.206	1	13764	0	776
-39.452	-39.344	1	13776	0	776
-46.412	-45.691	1	13819	0	776
-47.854	-50.739	1	13938	0	776
-45.402	-49.802	1	14119	0	776
-38.550	-42.481	1	14269	0	776
-32.961	-34.908	1	14300	0	776
-30.689	-31.951	1	14249	0	776
-30.833	-31.374	1	14202	0	776
-29.679	-30.689	1	14221	0	776
-26.578	-30.148	1	14245	0	776
-26.289	-29.499	1	14257	0	776
-28.345	-31.735	1	14292	0	776
-29.535	-35.124	1	14371	0	776
-33.141	-36.603	1	14489	0	776
-30.400	-36.314	1	14643	0	776
-27.984	-33.393	1	14765	0	776
-25.929	-30.617	1	14738	0	776
-25.460	-30.545	1	14552	0	776
-27.768	-32.348	1	14391	0	776
-26.253	-30.545	1	14430	0	776
-20.123	-25.712	1	14678	0	776
-14.425	-16.372	1	14903	0	776
-11.432	-11.648	1	14942	0	776
-11.107	-10.819	1	14875	0	776
-15.362	-15.002	1	14864	0	776
-15.939	-17.887	1	14931	0	776
-13.018	-14.317	1	14962	0	776
-11.432	-9.376	1	14883	0	776
-10.386	-5.698	1	14808	0	776
-12.514	-6.924	1	14895	0	776
-16.228	-13.415	1	15139	0	776
-18.608	-22.395	1	15447	0	776
-21.890	-26.758	1	15762	0	776
-23.260	-29.463	1	16042	0	776
-22.034	-27.587	1	16302	0	776
-23.044	-24.630	1	16573	0	776
-18.897	-19.978	1	16856	0	776
-16.336	-15.182	1	17089	0	776
-11.504	-12.694	1	17242	0	776
-7.357	-8.078	1	17369	0	776
-3.714	-4.868	1	17546	0	776
0.252	-3.246	1	17810	0	776
3.426	-0.613	1	18113	0	776
7.465	5.085	1	18350	0	776
11.287	10.999	1	18499	0	776
15.362	14.858	1	18618	0	776
17.526	18.824	1	18740	0	776
23.404	19.185	1	18830	0	776
30.689	24.053	1	18830	0	776
39.235	31.302	1	18740	0	776
48.864	43.491	1	18594	0	776
53.805	52.398	1	18428	0	776
54.165	53.083	1	18247	0	776
50.884	50.956	1	18030	0	776
47.566	47.349	1	17786	0	776
45.691	45.582	1	17506	0	776
47.926	50.992	1	17140	0	776
52.254	53.300	1	16711	0	776
57.555	57.483	1	16341	0	776
63.289	58.853	1	16073	0	776
65.525	58.781	1	15841	0	776
65.669	59.827	1	15533	0	776
61.342	56.978	1	15171	0	776
59.142	52.470	1	14883	0	776
59.899	50.559	1	14730	0	776
63.217	51.461	1	14678	0	776
67.797	54.490	1	14674	0	776
70.573	60.909	1	14647	0	776
72.232	67.797	1	14568	0	776
73.062	70.105	1	14493	0	776
74.901	72.124	1	14493	0	776
74.468	69.744	1	14541	0	776
71.331	65.561	1	14608	0	776
67.688	56.401	1	14745	0	776
64.876	52.326	1	14986	0	776
62.423	51.641	1	15301	0	776
59.611	49.513	1	15624	0	776
56.509	49.261	1	15880	0	776
52.578	49.874	1	16065	0	776
52.614	48.828	1	16223	0	776
53.264	50.198	1	16345	0	776
57.194	51.136	1	16431	0	776
56.906	50.379	1	16549	0	776
55.283	47.710	1	16703	0	776
48.648	42.265	1	16809	0	776
43.887	39.308	1	16856	0	776
41.507	37.216	1	16868	0	776
42.661	38.118	1	16844	0	776
46.268	43.310	1	16778	0	776
51.461	48.576	1	16695	0	776
50.992	50.126	1	16612	0	776
49.477	49.621	1	16533	0	776
44.933	44.573	1	16443	0	776
40.029	39.849	1	16349	0	776
38.226	37.468	1	16227	0	776
38.586	34.908	1	16022	0	776
38.875	33.646	1	15778	0	776
39.704	30.545	1	15671	0	776
37.649	26.578	1	15742	0	776
35.088	23.909	1	15857	0	776
31.590	23.585	1	15896	0	776
30.400	23.296	1	15849	0	776
27.948	24.630	1	15793	0	776
26.830	25.965	1	15801	0	776
26.578	22.106	1	15860	0	776
28.237	20.159	1	15853	0	776
31.230	21.818	1	15660	0	776
33.105	23.945	1	15399	0	776
34.115	28.633	1	15297	0	776
30.004	30.328	1	15356	0	776
26.325	31.122	1	15439	0	776
25.135	26.974	1	15510	0	776
27.479	26.289	1	15585	0	776
31.194	24.234	1	15703	0	776
35.629	25.712	1	15900	0	776
37.072	23.296	1	16128	0	776
34.980	19.401	1	16337	0	776
30.076	17.274	1	16494	0	776
26.722	15.867	1	16620	0	776
26.037	18.103	1	16730	0	776
27.155	23.981	1	16809	0	776
29.643	26.506	1	16817	0	776
25.279	22.647	1	16770	0	776
17.057	14.281	1	16718	0	776
6.275	4.147	1	16671	0	776
1.803	-2.056	1	16600	0	776
3.101	-3.101	1	16498	0	776
11.143	1.226	1	16395	0	776
18.247	6.924	1	16282	0	776
24.486	13.740	1	16085	0	776
26.433	15.651	1	15825	0	776
25.099	15.975	1	15620	0	776
23.837	12.838	1	15526	0	776
19.834	7.645	1	15470	0	776
17.634	2.849	1	15348	0	776
17.490	4.436	1	15159	0	776
18.969	6.635	1	15041	0	776
19.077	9.448	1	15072	0	776
16.228	10.133	1	15218	0	776
13.415	9.304	1	15396	0	776
10.350	7.681	1	15557	0	776
11.035	9.016	1	15746	0	776
14.100	10.133	1	15983	0	776
19.654	13.343	1	16211	0	776
19.618	12.586	1	16377	0	776
16.805	9.340	1	16478	0	776
11.035	4.111	1	16596	0	776
9.953	2.488	1	16797	0	776
8.763	1.010	1	17089	0	776
11.432	2.885	1	17424	0	776
16.372	6.058	1	17739	0	776
15.615	7.898	1	18015	0	776
17.021	6.635	1	18287	0	776
17.454	8.150	1	18598	0	776
22.250	13.776	1	18941	0	776
24.883	19.473	1	19268	0	776
28.561	25.496	1	19559	0	776
27.768	26.650	1	19792	0	776
26.253	21.637	1	19981	0	776
19.942	14.064	1	20142	0	776
15.182	3.750	1	20261	0	776
11.684	0.072	1	20304	0	776
8.943	0.144	1	20225	0	776
11.323	1.659	1	20024	0	776
10.386	2.813	1	19815	0	776
8.871	1.046	1	19658	0	776
6.671	-1.803	1	19524	1	748
5.554	-1.803	1	19374	0	748
5.950	1.983	1	19142	0	748
8.727	6.924	1	18830	0	748
10.566	9.412	1	18519	0	748
11.612	8.078	1	18251	0	748
11.215	2.452	1	18027	0	748
12.441	-2.524	1	17861	0	748
13.704	-4.616	1	17711	0	748
12.874	-3.282	1	17550	0	748
12.081	1.046	1	17408	0	748
14.569	8.006	1	17298	0	748
14.930	12.874	1	17164	0	748
18.103	13.018	1	16971	0	748
16.120	9.845	1	16789	0	748
14.064	2.993	1	16679	0	748
10.422	-1.803	1	16620	0	748
8.655	-1.262	1	16545	0	748
12.189	1.947	1	16407	0	748
16.336	9.484	1	16235	0	748
17.887	13.307	1	16081	0	748
18.067	14.966	1	15979	0	748
14.172	9.448	1	15896	0	748
12.009	4.544	1	15746	0	748
12.550	0.433	1	15423	0	748
15.831	0.577	1	14974	0	748
19.510	2.308	1	14600	0	748
21.349	8.330	1	14367	0	748
16.949	10.206	1	14174	0	748
15.615	10.855	1	14005	0	748
14.569	13.415	1	13886	0	748
19.221	17.779	1	13808	0	748
25.820	18.933	1	13780	0	748
34.403	21.926	1	13918	0	748
37.757	22.178	1	14213	0	748
38.767	20.952	1	14454	0	748
36.531	23.657	1	14493	0	748
31.879	26.397	1	14407	0	748
29.427	30.400	1	14324	0	748
26.758	31.518	1	14312	0	748
22.611	28.922	1	14336	0	748
18.752	24.270	1	14308	0	748
16.697	17.238	1	14198	0	748
15.218	14.461	1	14123	0	748
18.500	13.379	1	14158	0	748
22.575	15.218	1	14280	0	748
26.253	16.084	1	14418	0	748
23.476	14.966	1	14521	0	748
19.113	9.556	1	14655	0	748
16.192	6.383	1	14864	0	748
13.054	6.022	1	15104	0	748
14.894	8.979	1	15368	0	748
19.149	16.156	1	15620	0	748
20.952	19.149	1	15833	0	748
20.988	21.168	1	16014	0	748
20.700	20.087	1	16207	0	748
18.644	15.651	1	16415	0	748
18.860	11.576	1	16596	0	748
17.382	9.809	1	16742	0	748
20.123	9.484	1	16904	0	748
21.998	14.461	1	17097	0	748
26.938	21.529	1	17298	0	748
27.696	24.125	1	17428	0	748
26.433	21.493	1	17380	0	748
22.034	17.815	1	17199	0	748
20.808	11.540	1	17073	0	748
18.752	10.927	1	17069	0	748
19.654	11.432	1	17077	0	748
14.533	9.088	1	17061	0	748
13.018	6.960	1	17061	0	748
9.448	5.481	1	17065	0	748
11.179	8.619	1	17026	0	748
20.555	14.425	1	16947	0	748
25.316	20.303	1	16908	0	748
30.653	23.332	1	16896	0	748
34.331	27.047	1	16829	0	748
33.429	27.624	1	16714	0	748
31.915	28.056	1	16636	0	748
28.777	26.974	1	16600	0	748
23.945	24.739	1	16502	0	748
18.247	20.339	1	16278	0	748
17.598	19.906	1	16022	0	748
16.589	20.087	1	15920	0	748
19.906	16.552	1	15994	0	748
20.700	13.559	1	16136	0	748
23.368	13.992	1	16262	0	748
27.624	17.743	1	16341	0	748
29.499	24.125	1	16373	0	748
27.696	26.686	1	16353	0	748
19.077	20.808	1	16329	0	748
8.691	10.386	1	16377	0	748
0.541	-0.541	1	16427	0	748
1.370	-1.623	1	16439	0	748
9.953	4.832	1	16462	0	748
17.454	13.523	1	16533	0	748
23.440	19.149	1	16620	0	748
21.241	16.264	1	16671	0	748
18.103	12.405	1	16699	0	748
10.891	5.445	1	16718	0	748
9.052	3.029	1	16734	0	748
11.792	5.842	1	16726	0	748
16.805	10.422	1	16671	0	748
24.883	16.300	1	16577	0	748
28.489	19.149	1	16443	0	748
25.893	19.113	1	16258	0	748
19.546	13.307	1	16042	0	748
16.408	10.386	1	15868	0	748
15.651	11.215	1	15758	0	748
24.378	15.867	1	15652	0	748
33.682	24.198	1	15459	0	748
36.819	27.155	1	15218	0	748
32.780	23.585	1	15128	0	748
22.863	17.670	1	15246	0	748
16.408	10.133	1	15431	0	748
13.163	7.212	1	15549	0	748
16.733	8.511	1	15585	0	748
16.336	9.556	1	15537	0	748
15.975	10.710	1	15301	0	748
12.225	11.071	1	14915	0	748
14.245	12.117	1	14615	0	748
21.529	15.615	1	14513	0	748
30.797	23.585	1	14564	0	748
38.658	29.030	1	14722	0	748
40.353	31.554	1	14942	0	748
35.088	28.994	1	15171	0	748
27.010	21.385	1	15388	0	748
16.841	15.218	1	15612	0	748
11.648	10.566	1	15853	0	748
9.773	8.907	1	16128	0	748
11.287	7.321	1	16384	0	748
16.480	7.573	1	16557	0	748
18.500	5.698	1	16695	0	748
20.880	4.472	1	16848	0	748
20.483	6.780	1	17026	0	748
21.601	7.573	1	17215	0	748
18.969	6.960	1	17428	0	748
18.356	4.688	1	17652	0	748
14.389	1.262	1	17830	0	748
13.668	-1.262	1	17952	0	748
11.396	-0.072	1	18038	0	748
13.920	6.491	1	18070	0	748
15.543	11.612	1	18027	0	748
14.749	16.012	1	17885	0	748
16.589	16.480	1	17609	0	748
17.129	13.451	1	17254	0	748
19.654	13.054	1	16951	0	748
22.214	12.081	1	16746	0	748
24.450	13.271	1	16569	0	748
27.624	19.870	1	16310	0	748
26.974	21.926	1	15971	0	748
27.732	22.322	1	15640	0	748
23.404	20.231	1	15281	0	748
20.050	13.127	1	14907	0	748
15.146	9.520	1	14651	0	748
15.290	8.366	1	14525	0	748
15.723	8.871	1	14497	0	748
18.644	10.855	1	14564	0	748
17.526	11.540	1	14706	0	748
16.516	11.035	1	14852	0	748
15.254	11.468	1	14954	0	748
16.769	14.785	1	15084	0	748
18.608	15.435	1	15301	0	748
20.591	18.031	1	15604	0	748
18.500	15.723	1	15951	0	748
16.192	14.028	1	16262	0	748
14.569	11.684	1	16510	0	748
16.913	10.710	1	16758	0	748
22.899	10.350	1	17045	0	748
29.138	14.064	1	17361	0	748
32.023	15.254	1	17672	0	748
33.646	19.437	1	17967	0	748
33.574	21.565	1	18239	0	748
32.312	23.693	1	18484	0	748
30.472	24.198	1	18712	0	748
29.499	22.683	1	18917	0	748
27.768	23.260	1	19106	0	748
25.388	17.562	1	19279	0	748
21.818	15.326	1	19413	0	748
19.690	6.563	1	19516	0	748
11.396	3.101	1	19618	0	748
9.845	1.262	1	19740	0	748
6.708	2.560	1	19827	0	748
7.717	4.868	1	19792	0	748
7.068	8.006	1	19670	0	748
6.455	5.481	1	19599	0	748
5.914	3.390	1	19622	0	748
4.255	0.216	1	19670	1	744
4.652	-1.406	1	19646	0	744
7.789	0.685	1	19547	0	744
12.297	5.698	1	19437	0	744
19.726	11.071	1	19350	0	744
22.611	19.365	1	19272	0	744
22.647	19.618	1	19169	0	744
18.897	18.031	1	19019	0	744
13.668	15.038	1	18882	0	744
14.100	12.910	1	18771	0	744
14.749	11.792	1	18665	0	744
15.651	13.451	1	18527	0	744
14.389	11.576	1	18318	0	744
10.746	6.491	1	18050	0	744
9.556	1.839	1	17810	0	744
10.061	-0.613	1	17636	0	744
12.838	1.551	1	17459	0	744
19.293	5.157	1	17152	0	744
21.241	12.441	1	16647	0	744
21.854	14.930	1	16054	0	744
15.867	13.018	1	15573	0	744
11.504	10.458	1	15273	0	744
8.475	5.734	1	15053	0	744
8.366	4.327	1	14777	0	744
12.586	4.724	1	14407	0	744
16.733	5.842	1	14083	0	744
18.572	9.448	1	13894	0	744
22.503	13.343	1	13792	0	744
26.145	16.697	1	13741	0	744
26.397	22.034	1	13733	0	744
24.991	21.781	1	13729	0	744
23.837	19.942	1	13686	0	744
19.798	18.211	1	13607	0	744
20.519	14.569	1	13567	0	744
25.243	14.785	1	13575	0	744
27.587	16.192	1	13544	0	744
27.407	19.870	1	13449	0	744
24.198	20.952	1	13339	0	744
17.454	20.591	1	13114	0	744
10.602	15.038	1	12665	0	744
8.330	9.304	1	12145	0	744
11.107	7.176	1	11798	0	744
16.516	7.068	1	11727	0	744
21.385	8.547	1	11885	0	744
24.666	10.746	1	12188	0	744
25.424	11.720	1	12570	0	744
23.080	12.045	1	12941	0	744
22.395	16.192	1	13232	0	744
24.919	20.808	1	13508	0	744
26.397	25.784	1	13926	0	744
27.696	25.676	1	14485	0	744
27.732	21.457	1	15037	0	744
26.758	17.670	1	15541	0	744
25.676	13.415	1	16054	0	744
25.424	15.831	1	16608	0	744
27.155	17.851	1	17152	0	744
28.237	21.313	1	17499	0	744
26.073	18.067	1	17558	0	744
24.594	15.651	1	17502	0	744
22.142	12.910	1	17577	0	744
17.093	8.655	1	17802	0	744
16.841	6.744	1	18062	0	744
15.543	4.832	1	18314	0	744
15.687	4.039	1	18558	0	744
13.595	4.327	1	18779	0	744
15.507	5.950	1	19008	0	744
13.054	6.816	1	19319	0	744
14.641	7.573	1	19689	0	744
17.274	13.740	1	19930	0	744
20.916	16.012	1	19945	0	744
26.001	22.647	1	19839	0	744
29.463	23.188	1	19729	0	744
28.922	20.591	1	19670	0	744
23.729	16.336	1	19607	0	744
19.257	14.136	1	19425	0	744
15.867	12.009	1	19098	0	744
12.838	13.523	1	18759	0	744
12.405	10.278	1	18495	0	744
12.730	7.465	1	18287	0	744
11.973	3.787	1	18058	1	316
14.461	4.472	1	17778	0	316
17.923	5.878	1	17499	0	316
17.346	7.609	1	17270	0	316
16.156	5.914	1	17089	0	316
11.576	4.652	1	16904	0	316
12.153	3.570	1	16675	0	316
15.182	7.285	1	16447	0	316
17.779	11.107	1	16274	0	316
21.818	13.559	1	16172	0	316
24.883	14.821	1	16128	0	316
23.837	17.887	1	16097	0	316
23.765	17.923	1	16061	0	316
24.666	16.949	1	16010	0	316
20.700	13.235	1	15935	0	316
19.978	7.970	1	15864	0	316
18.897	6.383	1	15793	0	316
18.392	7.934	1	15687	0	316
20.123	12.982	1	15553	0	316
20.375	17.923	1	15431	0	316
25.063	19.329	1	15372	0	316
27.804	20.844	1	15431	0	316
28.489	16.012	1	15506	0	316
25.820	12.117	1	15419	0	316
21.565	6.671	1	15155	0	316
14.497	5.229	1	14836	0	316
13.343	5.950	1	14560	0	316
13.235	9.881	1	14320	0	316
13.127	10.566	1	13965	0	316
15.326	9.881	1	13457	0	316
13.415	10.350	1	13039	0	316
15.687	10.602	1	12929	0	316
16.012	12.189	1	13087	0	316
19.401	17.093	1	13335	0	316
19.221	17.923	1	13575	0	316
21.745	20.339	1	13780	0	316
20.844	18.824	1	13989	0	316
22.034	19.221	1	14202	0	316
23.657	17.310	1	14426	0	316
22.791	15.939	1	14643	0	316
20.772	13.415	1	14816	0	316
11.828	4.760	1	14978	0	316
1.623	-3.065	1	15187	0	316
-6.022	-12.874	1	15470	0	316
-8.186	-14.641	1	15805	0	316
-0.180	-6.131	1	16113	0	316
12.117	2.849	1	16369	0	316
22.395	14.821	1	16604	0	316
22.034	14.821	1	16844	0	316
11.396	7.717	1	17061	0	316
-4.832	-3.967	1	17199	0	316
-19.329	-16.877	1	17254	0	316
-23.296	-19.798	1	17266	0	316
-12.550	-15.038	1	17270	0	316
1.875	-4.327	1	17302	0	316
11.432	2.380	1	17376	0	316
5.986	-1.551	1	17428	0	316
-10.927	-15.579	1	17321	0	316
-32.780	-34.475	1	17049	0	316
-46.123	-47.746	1	16726	0	316
-47.097	-49.693	1	16498	0	316
-38.839	-44.464	1	16391	0	316
-27.155	-38.045	1	16337	0	316
-22.899	-33.574	1	16195	0	316
-21.060	-35.016	1	15963	0	316
-25.893	-39.127	1	15742	0	316
-32.131	-45.907	1	15581	0	316
-37.649	-48.972	1	15451	0	316
-39.272	-54.165	1	15301	0	316
-39.488	-52.110	1	15116	0	316
-35.413	-50.487	1	14938	0	316
-32.312	-44.140	1	14852	0	316
-29.210	-38.406	1	14891	0	316
-26.433	-35.918	1	15005	0	316
-25.712	-35.737	1	15147	0	316
-24.702	-37.432	1	15301	0	316
-26.109	-37.757	1	15506	0	316
-28.669	-36.783	1	15778	0	316
-30.653	-34.511	1	16065	0	316
-30.004	-31.085	1	16278	0	316
-24.919	-29.787	1	16407	0	316
-19.473	-26.470	1	16490	0	316
-15.002	-24.378	1	16596	0	316
-16.625	-20.700	1	16750	0	316
-19.690	-19.221	1	16900	0	316
-25.496	-21.781	1	17018	0	316
-27.407	-21.745	1	17148	0	316
-22.539	-22.899	1	17305	0	316
-15.543	-21.204	1	17459	0	316
-5.193	-16.589	1	17538	0	316
0.974	-11.792	1	17530	0	316
3.750	-7.068	1	17447	0	316
5.301	-4.508	1	17294	0	316
4.147	-3.931	1	17124	0	316
3.101	-6.563	1	17030	0	316
-0.757	-8.799	1	17034	0	316
0.938	-10.025	1	17061	0	316
4.183	-2.993	1	17022	0	316
14.461	9.376	1	16951	0	316
25.171	19.293	1	16943	0	316
27.227	23.945	1	17002	0	316
21.096	17.382	1	17101	0	316
13.776	7.248	1	17235	0	316
8.799	2.633	1	17372	0	316
14.461	7.285	1	17542	0	316
28.597	22.972	1	17806	0	316
44.284	39.416	1	18157	0	316
53.336	49.477	1	18491	0	316
58.420	53.119	1	18748	0	316
58.024	49.044	1	19015	0	316
57.194	48.179	1	19382	0	316
57.339	46.881	1	19788	0	316
57.086	47.602	1	20134	0	316
59.034	47.746	1	20379	0	316
60.043	48.143	1	20544	0	316
64.371	49.802	1	20666	0	316
71.511	58.204	1	20710	0	316
77.425	63.938	1	20666	0	316
77.461	64.226	1	20588	0	316
72.629	60.620	1	20528	0	316
62.928	53.516	1	20473	0	316
53.444	44.897	1	20422	1	484
48.179	42.914	1	20355	0	484
43.887	38.262	1	20217	0	484
40.894	32.961	32768	20004	0	484
37.252	26.470	32768	19744	0	484
33.285	26.001	32768	19449	0	484
33.646	28.237	32768	19110	0	484
36.314	34.403	32768	18724	0	484
40.101	39.019	32768	18318	0	484
39.416	39.849	32768	17893	0	484
37.829	36.603	32768	17392	0	484
34.331	32.997	32768	16880	0	484
32.384	30.328	32768	16533	0	484
29.895	29.859	32768	16310	0	484
30.364	28.741	32768	15990	0	484
29.138	30.076	32768	15600	0	484
28.741	29.895	32768	15273	0	484
30.545	31.879	32768	15065	0	484
33.718	31.987	32768	14942	0	484
39.235	32.600	32768	14812	0	484
44.861	33.538	32768	14623	0	484
47.962	33.069	32768	14399	0	484
46.232	31.446	32768	14190	0	484
43.238	28.958	32768	14036	0	484
34.511	25.243	32768	13934	0	484
26.794	23.909	32768	13831	0	484
21.168	24.342	32768	13705	0	484
16.661	27.227	32768	13599	0	484
15.507	28.056	32768	13548	0	484
13.740	22.358	32768	13587	0	484
12.766	14.136	32768	13697	0	484
10.169	6.239	32768	13780	0	484
8.727	3.787	32768	13808	0	484
11.323	8.979	32768	13855	0	484
19.077	16.589	32768	13961	0	484
22.250	22.070	32768	14119	0	484
24.991	24.847	32768	14288	0	484
22.935	23.873	32768	14466	0	484
16.985	22.755	32768	14631	0	484
14.389	19.618	32768	14785	0	484
13.595	18.572	32768	14915	0	484
17.238	16.769	32768	14994	0	484
25.532	20.123	32768	14970	0	484
33.682	24.270	32768	14765	0	484
35.954	26.073	32768	14438	0	484
33.682	25.460	32768	14190	0	484
27.263	18.320	1	14091	0	484
18.716	13.704	1	14072	0	484
16.120	8.763	1	14087	0	484
15.290	7.068	1	14076	0	484
18.103	9.556	1	14044	0	484
19.618	11.540	1	14087	0	484
22.503	13.776	1	14206	0	484
24.486	14.533	1	14288	0	484
21.637	13.091	1	14284	0	484
18.392	9.520	1	14273	0	484
12.514	8.511	1	14371	0	484
12.622	9.953	1	14615	0	484
13.595	10.602	1	14974	0	484
18.392	15.507	1	15368	0	484
20.880	17.021	1	15727	0	484
22.539	19.510	1	16042	0	484
19.798	18.536	1	16306	0	484
18.608	18.824	1	16557	0	484
16.589	16.516	1	16856	0	484
17.382	17.202	1	17152	0	484
15.795	14.894	1	17412	0	484
18.211	14.497	1	17672	0	484
17.382	11.287	1	17979	0	484
18.644	7.609	1	18350	0	484
19.221	5.878	1	18740	0	484
21.204	7.357	1	19102	0	484
21.781	10.386	1	19394	0	484
22.467	12.369	1	19599	0	484
23.044	14.389	1	19721	0	484
19.582	12.081	1	19697	0	484
17.310	6.744	1	19473	0	484
12.946	3.462	1	19106	0	484
11.504	3.137	1	18763	0	484
13.343	4.255	1	18468	0	484
19.077	10.314	1	18160	0	484
24.811	12.622	1	17837	0	484
31.735	15.435	1	17510	0	484
34.583	19.618	1	17164	0	484
37.541	24.234	1	16809	0	484
39.524	28.164	1	16569	0	484
37.541	30.220	1	16494	0	484
33.357	25.748	1	16439	0	484
27.912	16.408	1	16282	0	484
22.863	11.576	1	16034	0	484
20.664	8.114	1	15786	0	484
23.080	8.439	1	15596	0	484
23.657	9.953	1	15463	0	484
21.204	8.871	1	15340	0	484
15.182	2.092	1	15202	0	484
7.068	-2.957	1	15084	0	484
5.085	-5.301	1	15037	0	484
7.465	-2.200	1	15057	0	484
13.776	3.318	1	15104	0	484
16.336	6.419	1	15112	0	484
17.093	5.806	1	15112	0	484
11.323	1.623	1	15147	0	484
7.717	-1.154	1	15254	0	484
4.832	-0.288	1	15388	0	484
8.222	3.642	1	15486	0	484
13.992	6.924	1	15553	0	484
18.464	11.107	1	15648	0	484
21.637	11.792	1	15809	0	484
16.841	8.078	1	15998	0	484
9.737	2.813	1	16148	0	484
2.128	-3.462	1	16140	0	484
0.000	-6.888	1	15967	0	484
4.183	-4.652	1	15805	0	484
10.458	0.649	1	15754	0	484
16.480	6.022	1	15734	0	484
18.247	7.429	1	15695	0	484
15.218	4.832	1	15663	0	484
8.078	-1.983	1	15593	0	484
2.272	-7.140	1	15478	0	484
-2.633	-9.448	1	15478	0	484
-2.596	-7.970	1	15656	0	484
0.685	-3.390	1	15797	0	484
4.544	-1.370	1	15746	0	484
6.347	-2.416	1	15589	0	484
3.895	-6.635	1	15474	0	484
-2.164	-11.864	1	15443	0	484
-12.297	-18.788	1	15427	0	484
-18.897	-21.998	1	15332	0	484
-18.824	-23.080	1	15195	0	484
-15.579	-22.972	1	15096	0	484
-8.799	-20.267	1	15057	0	484
-9.665	-21.168	1	15088	0	484
-17.779	-26.758	1	15210	0	484
-30.869	-31.915	1	15360	0	484
-39.380	-39.993	1	15494	0	484
-44.392	-43.419	1	15648	0	484
-43.202	-44.609	1	15884	0	484
-43.347	-45.114	1	16164	0	484
-44.140	-45.294	1	16395	0	484
-45.258	-47.818	1	16521	0	484
-43.779	-47.674	1	16470	0	484
-37.144	-46.015	1	16337	0	484
-30.436	-40.498	1	16294	0	484
-26.217	-35.774	1	16353	0	484
-25.640	-33.429	1	16419	0	484
-30.292	-36.423	1	16521	0	484
-37.685	-43.996	1	16695	0	484
-43.491	-52.795	1	16908	0	484
-48.179	-56.401	1	17128	0	484
-49.910	-57.266	1	17341	0	484
-44.825	-54.922	1	17499	0	484
-39.055	-48.395	1	17538	0	484
-30.833	-45.041	1	17495	0	484
-28.489	-47.458	1	17455	0	484
-31.951	-49.585	1	17451	0	484
-38.586	-53.913	1	17416	0	484
-42.373	-54.670	1	17250	0	484
-43.779	-54.634	1	17030	0	484
-44.897	-53.913	1	16971	0	484
-45.691	-56.726	1	17073	0	484
-45.979	-58.276	1	17156	0	484
-43.743	-57.483	1	17144	0	484
-36.783	-53.660	1	17049	0	484
-26.542	-45.330	1	16943	0	484
-20.519	-40.101	1	16833	0	484
-18.644	-37.937	1	16628	0	484
-23.585	-40.426	1	16294	0	484
-28.814	-41.904	1	15959	0	484
-29.571	-41.399	1	15774	0	484
-23.440	-33.826	1	15730	0	484
-14.136	-25.388	1	15778	0	484
-4.400	-18.644	1	15880	0	484
-1.731	-17.346	1	15987	0	484
-4.544	-21.998	1	16117	0	484
-6.491	-22.142	1	16321	0	484
-6.708	-21.096	1	16632	0	484
-5.445	-17.166	1	16994	0	484
-5.121	-18.536	1	17321	0	484
-8.691	-22.899	1	17633	0	484
-14.749	-29.859	1	17967	0	484
-20.267	-34.980	1	18346	0	484
-19.221	-33.285	1	18740	0	484
-16.516	-29.643	1	19082	0	484
-11.287	-25.820	1	19366	0	484
-10.927	-27.227	1	19626	0	484
-16.336	-32.708	1	19894	0	484
-21.457	-38.514	1	20138	0	484
-25.784	-43.707	1	20308	0	484
-26.397	-44.789	1	20387	0	484
-23.296	-43.130	1	20367	0	484
-19.798	-39.344	1	20198	0	484
-19.041	-38.478	1	19906	0	484
-17.526	-39.127	1	19555	0	484
-19.978	-40.642	1	19071	1	772
-21.926	-41.183	1	18460	0	772
-24.162	-41.255	1	17869	0	772
-25.893	-38.009	1	17384	0	772
-23.440	-34.006	1	17022	0	772
-20.267	-31.338	1	16821	0	772
-19.942	-30.112	1	16742	0	772
-20.050	-31.915	1	16671	0	772
-25.063	-34.692	16384	16533	0	772
-31.879	-39.308	32768	16415	0	772
-35.305	-43.310	32768	16411	0	772
-40.462	-46.953	32768	16478	0	772
-41.976	-48.143	32768	16525	0	772
-45.150	-50.523	32768	16521	0	772
-45.078	-47.746	32768	16498	0	772
-43.094	-44.248	32768	16506	0	772
-42.229	-42.301	32768	16573	0	772
-41.399	-40.606	32768	16659	0	772
-42.770	-39.849	32768	16644	0	772
-42.553	-38.298	32768	16415	0	772
-39.993	-34.187	32768	16077	0	772
-36.206	-30.292	32768	15853	0	772
-31.807	-29.895	32768	15774	0	772
-29.463	-32.456	32768	15723	0	772
-25.929	-34.872	32768	15675	0	772
-22.791	-36.314	32768	15683	0	772
-21.132	-36.531	32768	15754	0	772
-24.955	-39.163	32768	15853	0	772
-35.774	-43.779	32768	15935	0	772
-44.933	-47.025	32768	15963	0	772
-49.477	-47.025	32768	15837	0	772
-48.287	-42.878	32768	15514	0	772
-41.255	-37.865	32768	15128	0	772
-37.901	-36.675	32768	14828	0	772
-38.586	-40.029	32768	14619	0	772
-41.832	-44.681	32768	14407	0	772
-45.510	-51.280	32768	14115	0	772
-45.402	-52.110	32768	13819	0	772
-40.894	-52.542	32768	13650	0	772
-37.973	-47.061	32768	13642	0	772
-33.213	-40.894	32768	13753	0	772
-29.391	-35.918	32768	13890	0	772
-26.866	-33.213	32768	14032	0	772
-26.542	-33.574	32768	14277	0	772
-27.155	-37.396	32768	14631	0	772
-29.354	-39.199	32768	14982	0	772
-31.987	-40.606	32768	15277	0	772
-33.429	-39.344	32768	15533	0	772
-32.528	-38.298	32768	15770	0	772
-33.502	-39.127	32768	16018	0	772
-35.052	-40.786	32768	16282	0	772
-37.252	-44.104	32768	16533	0	772
-39.127	-44.969	32768	16742	0	772
-37.757	-43.743	32768	16923	0	772
-38.478	-42.265	32768	17124	0	772
-40.209	-41.976	32768	17372	0	772
-44.320	-44.753	32768	17633	0	772
-51.064	-50.811	32768	17830	0	772
-53.336	-51.965	32768	17960	0	772
-55.644	-53.877	32768	18062	0	772
-53.913	-51.064	32768	18141	0	772
-58.024	-52.470	32768	18200	0	772
-63.036	-55.247	32768	18208	0	772
-69.023	-62.135	32768	18160	0	772
-73.530	-65.236	32768	18082	0	772
-72.449	-64.515	32768	17971	0	772
-68.410	-59.574	32768	17810	0	772
-63.289	-55.103	32768	17629	0	772
-60.043	-50.487	32768	17463	0	772
-60.548	-52.506	32768	17305	0	772
-63.722	-54.742	32768	17128	0	772
-65.417	-57.339	32768	16975	0	772
-66.318	-54.959	32768	16939	0	772
-65.164	-55.211	32768	17002	0	772
-67.328	-55.680	32768	17002	0	772
-71.799	-60.115	32768	16904	0	772
-78.146	-69.564	32768	16797	0	772
-81.140	-74.504	32768	16718	0	772
-79.913	-75.983	32768	16632	0	772
-76.848	-74.648	32768	16478	0	772
-75.478	-72.413	32768	16266	0	772
-75.478	-72.196	32768	16026	0	772
-77.533	-72.809	32768	15801	0	772
-78.687	-73.134	32768	15632	0	772
-80.130	-75.622	32768	15502	0	772
-80.166	-76.199	32768	15340	0	772
-78.291	-78.363	32768	15132	0	772
-75.550	-76.271	32768	14958	0	772
-69.059	-71.980	32768	14875	0	772
-63.938	-63.613	32768	14868	0	772
-58.601	-56.690	32768	14887	0	772
-56.365	-48.792	32768	14883	0	772
-51.316	-45.799	32768	14848	0	772
-49.910	-42.373	32768	14824	0	772
-49.369	-43.347	32768	14864	0	772
-53.155	-48.648	32768	14954	0	772
-56.473	-52.831	32768	15009	0	772
-61.774	-58.997	32768	14931	0	772
-66.390	-62.063	32768	14745	0	772
-70.393	-65.597	32768	14627	0	772
-74.035	-67.328	32768	14627	0	772
-76.271	-67.797	32768	14667	0	772
-73.891	-64.840	32768	14706	0	772
-70.393	-62.640	32768	14753	0	772
-67.075	-55.788	32768	14789	0	772
-67.364	-55.211	32768	14891	0	772
-69.600	-54.057	32768	15132	0	772
-74.360	-57.375	32768	15435	0	772
-76.776	-61.125	32768	15620	0	772
-78.435	-63.686	32768	15624	0	772
-75.802	-65.128	1	15529	0	772
-72.773	-66.390	1	15459	0	772
-70.646	-65.272	1	15435	0	772
-70.609	-66.246	1	15415	0	772
-73.927	-68.049	1	15388	0	772
-77.930	-70.285	1	15376	0	772
-82.582	-70.069	1	15372	0	772
-84.710	-70.501	1	15415	0	772
-82.474	-70.682	1	15533	0	772
-81.140	-70.285	1	15667	0	772
-77.786	-69.203	1	15770	0	772
-73.675	-67.652	1	15825	0	772
-73.062	-65.489	1	15841	0	772
-72.052	-62.568	1	15864	0	772
-72.449	-62.964	1	15939	0	772
-73.098	-64.984	1	16026	0	772
-76.704	-66.643	1	16109	0	772
-74.360	-67.328	1	16235	0	772
-71.078	-60.476	1	16419	0	772
-65.994	-53.300	1	16608	0	772
-63.109	-50.090	1	16714	0	772
-61.486	-46.809	1	16742	0	772
-62.604	-48.035	1	16742	0	772
-63.036	-51.677	1	16746	0	772
-62.243	-49.874	1	16785	0	772
-60.801	-48.215	1	16837	0	772
-60.332	-47.458	1	16848	0	772
-61.450	-45.727	1	16844	0	772
-58.853	-42.409	1	16852	0	772
-55.175	-38.767	1	16939	0	772
-56.040	-36.098	1	17179	0	772
-57.375	-38.442	1	17522	0	772
-64.407	-45.979	1	17759	0	772
-74.288	-53.119	1	17766	0	772
-79.373	-61.846	1	17621	0	772
-81.500	-64.876	1	17455	0	772
-80.022	-63.722	1	17329	0	772
-79.300	-60.620	1	17254	0	772
-79.228	-60.440	1	17207	0	772
-80.743	-60.476	1	17148	0	772
-82.871	-61.486	1	17069	0	772
-81.825	-62.640	1	16994	0	772
-78.399	-62.063	1	16943	0	772
-73.386	-58.276	1	16868	0	772
-67.003	-52.795	1	16707	0	772
-59.611	-48.648	1	16490	0	772
-54.237	-43.635	1	16278	0	772
-52.506	-37.613	1	16042	0	772
-51.208	-33.357	1	15766	0	772
