neuroNicle FX2
D3F0R0
UART
2023년 11월 11일 토요일
오후 12:18
time interval = 4msec
EEG1	EEG2	PPG	sdPPG	pulse	peak_interval(msec)
11.828	3.714	7074	17016	0	872
13.595	5.049	7189	17016	0	872
10.602	3.462	7132	16880	0	872
6.347	3.787	7017	16640	0	872
7.248	6.635	6902	16429	0	872
8.078	9.448	7074	16384	0	872
9.520	8.222	6902	16384	0	872
10.206	4.977	6902	16384	0	872
11.071	1.262	7132	16519	0	872
13.235	1.731	7476	16986	0	872
15.507	5.229	7764	17588	0	872
19.221	8.979	8166	18025	0	872
17.779	11.612	8453	18281	0	872
17.995	14.317	8913	18612	0	872
16.877	15.723	9488	19140	0	872
18.716	17.815	10005	19667	0	872
15.759	17.526	10293	19893	0	872
11.684	13.740	10752	19832	0	872
5.878	8.979	10925	19682	0	872
3.642	4.688	11097	19380	0	872
6.455	4.977	11212	18914	0	872
15.723	6.383	11212	18402	0	872
20.700	8.655	11097	17920	0	872
22.467	10.242	11155	17423	0	872
18.320	10.710	11040	16835	0	872
14.894	10.494	10752	16279	0	872
12.514	13.487	10522	15662	0	872
17.706	16.048	9890	14638	0	872
19.618	17.490	9201	13372	0	872
21.060	17.346	8741	12559	0	872
18.824	15.362	8281	12288	0	872
18.608	14.353	7936	12153	0	872
17.129	14.677	7591	12062	0	872
19.293	15.398	7362	12092	0	872
20.375	16.264	6844	11987	0	872
21.745	17.202	6442	11701	0	872
23.909	16.516	6327	11821	0	872
24.919	17.382	6327	12619	0	872
26.433	17.382	6614	13689	0	872
28.669	17.779	6844	14592	0	872
26.578	17.238	6902	15180	0	872
24.162	16.516	7132	15662	0	872
19.906	14.028	7476	16324	0	872
13.668	9.196	7936	17182	0	872
11.576	6.022	8339	18040	0	872
10.891	2.416	8626	18658	0	872
12.405	3.065	9201	19170	0	872
17.815	4.580	9775	19727	0	872
19.618	9.520	10235	20254	0	872
23.693	12.369	10637	20570	0	872
28.381	15.362	10867	20585	0	872
27.515	16.408	11212	20374	0	872
25.352	14.821	11384	20058	0	872
22.178	13.595	11384	19712	0	872
17.670	11.215	11499	19335	0	872
17.743	10.133	11442	18823	1	820
17.887	10.278	11384	18206	0	820
21.854	9.556	11155	17513	0	820
23.765	11.900	10637	16624	0	820
22.935	14.317	10235	15526	0	820
23.657	18.969	9373	14216	0	820
24.198	22.178	8339	12725	0	820
23.585	23.981	7304	11174	0	820
23.260	20.952	6442	10210	0	820
23.837	16.300	5925	9969	0	820
23.008	12.910	5350	10074	0	820
21.529	12.982	4833	10210	0	820
22.142	12.838	4258	10134	0	820
18.392	13.018	3626	9939	0	820
16.048	11.828	3166	9999	0	820
13.668	11.504	2764	10406	0	820
15.110	12.622	2419	10978	0	820
17.670	15.326	2304	11641	0	820
20.736	17.706	1902	12122	0	820
24.919	18.320	1672	12454	0	820
28.525	19.437	1557	13056	0	820
32.348	20.880	1672	14110	0	820
35.846	21.168	2132	15360	0	820
34.367	19.870	2304	16504	0	820
31.049	19.149	2706	17453	0	820
25.171	19.365	3109	18341	0	820
23.404	22.178	3683	19350	0	820
24.450	25.099	4258	20465	0	820
23.693	25.279	5063	21504	0	820
24.198	22.827	5752	22332	0	820
22.827	19.221	6614	23146	0	820
18.428	16.408	7591	24034	0	820
18.320	15.471	8511	24847	0	820
14.605	14.497	9373	25344	0	820
13.776	12.297	10178	25465	0	820
8.547	7.681	10810	25480	0	820
4.183	3.859	11787	25585	0	820
2.957	1.046	12591	25721	0	820
0.938	1.082	13626	25826	0	820
1.767	2.596	14316	25661	0	820
5.157	3.642	14948	25269	0	820
7.501	5.590	15695	24877	0	820
9.052	4.760	16498	24606	0	820
7.573	5.373	17246	24290	0	820
8.511	5.049	17705	23688	0	820
9.340	6.563	18223	22859	0	820
11.432	7.140	18797	22106	0	820
12.982	9.989	19257	21549	0	820
17.598	12.117	19717	21052	0	820
18.320	14.569	20119	20420	0	820
21.781	17.923	20579	19697	0	820
26.289	21.024	20809	18929	0	820
27.948	23.657	21039	18206	0	820
28.777	24.125	21269	17573	0	820
28.525	24.234	21441	16971	0	820
27.876	22.358	21671	16369	0	820
25.207	20.303	21613	15601	0	820
19.942	17.346	21269	14487	0	820
14.028	12.946	20981	13312	0	820
8.727	8.583	21096	12891	0	820
4.868	5.193	21384	13177	0	820
4.652	5.265	21441	13372	0	820
5.409	5.121	21556	13192	0	820
7.465	5.121	21441	12906	0	820
8.871	6.275	21384	12650	0	820
9.484	3.823	21384	12439	0	820
8.619	2.524	21154	12273	0	820
10.097	2.272	20981	12017	0	820
11.468	4.508	20579	11625	0	820
12.405	8.511	20464	11460	0	820
15.579	10.422	20579	11776	0	820
14.966	12.766	20521	12243	0	820
13.595	13.415	20464	12484	0	820
15.939	12.550	20234	12409	0	820
15.903	14.533	20119	12318	0	820
18.211	16.661	19947	12454	0	820
19.257	18.283	19717	12695	0	820
22.467	19.690	19602	12770	0	820
25.604	20.988	19257	12665	0	820
24.414	19.113	19085	12619	1	316
23.476	16.372	18797	12755	0	316
20.411	14.245	18682	13026	0	316
17.851	12.982	18682	13433	0	316
20.808	15.326	18567	13809	0	316
22.683	17.779	18510	14095	0	316
25.676	17.779	18395	14427	0	316
26.361	15.687	18682	14969	0	316
22.286	12.189	18740	15601	0	316
19.942	7.717	18797	16008	0	316
15.975	5.265	18682	16113	0	316
13.523	2.993	18682	16098	0	316
12.261	3.137	18510	16038	0	316
15.002	5.157	18280	15933	0	316
14.894	7.970	17993	15782	0	316
17.923	12.009	17935	15662	0	316
20.880	15.939	17705	15662	0	316
25.532	18.464	17648	15767	0	316
30.328	19.726	17590	15888	0	316
30.184	19.546	17418	15948	0	316
28.056	18.175	17303	16038	0	316
22.286	16.264	17303	16113	0	316
18.716	14.749	17131	16083	0	316
13.740	14.136	16958	15978	0	316
14.389	12.766	16786	15903	0	316
14.930	14.100	16671	15888	0	316
17.274	16.444	16384	15767	0	316
22.683	19.401	15982	15421	0	316
26.037	21.781	15637	14954	0	316
27.371	20.375	15235	14683	0	316
24.198	16.336	15063	14653	0	316
20.267	11.900	14890	14788	0	316
14.533	8.691	14545	14878	0	316
13.307	6.816	14316	14848	0	316
11.396	7.140	14086	14863	0	316
12.225	7.032	14086	15104	0	316
17.418	8.222	13913	15421	0	316
19.690	9.701	13741	15556	0	316
22.070	11.792	13511	15375	0	316
18.824	10.891	13166	15240	0	316
16.228	10.025	13109	15436	0	316
11.396	8.186	13166	15812	0	316
13.018	7.140	13109	16219	0	316
16.372	8.402	13339	16594	0	316
21.168	11.143	13224	16986	0	316
23.801	14.641	13511	17453	0	316
24.450	15.182	14028	18130	0	316
24.594	15.326	14316	18929	0	316
21.204	14.533	14775	19486	0	316
20.123	14.281	15120	19817	0	316
17.562	15.651	15522	20088	0	316
17.274	17.815	15925	20390	0	316
18.031	18.536	16270	20585	0	316
22.106	17.562	16498	20600	0	316
23.512	15.038	16728	20510	0	316
24.739	13.235	17016	20374	0	316
22.935	10.133	17246	20224	0	316
17.202	6.563	17361	20013	0	316
13.523	4.327	17533	19697	0	316
10.566	3.678	17648	19320	0	316
11.035	6.131	17705	18899	0	316
12.117	8.547	17648	18432	0	316
14.785	10.458	17590	17920	0	316
16.985	10.783	17533	17317	0	316
18.031	10.855	17131	16609	0	316
20.411	10.025	16843	15857	0	316
17.815	10.566	16498	15134	0	316
17.238	9.737	16270	14577	0	316
14.136	8.835	15925	14125	0	316
15.326	8.366	15522	13719	0	316
15.435	9.448	15120	13297	0	316
19.618	11.251	14545	12650	0	316
18.680	12.477	13626	11641	0	316
21.637	13.704	12362	10300	0	316
21.204	15.290	10925	8598	0	316
21.096	15.867	9430	7002	0	316
19.618	15.290	8166	6038	0	316
17.779	14.028	7017	5631	0	316
17.634	12.477	6040	5722	0	316
18.752	11.251	5580	6339	0	316
20.916	10.350	5120	7454	0	316
18.428	9.809	5005	8839	0	316
16.985	9.520	5005	10240	0	316
15.579	8.330	5120	11731	0	316
17.274	9.917	5465	13372	0	316
20.303	11.251	5695	14969	0	316
23.260	13.595	6040	16324	0	316
21.241	16.625	6327	17438	0	316
20.123	19.798	6844	18447	0	316
18.500	23.044	7189	19456	0	316
22.106	24.883	7764	20570	0	316
26.073	22.719	8568	21730	0	316
28.525	20.050	9143	22694	0	316
27.010	15.110	9603	23221	0	316
21.565	13.415	10005	23236	0	316
15.651	11.468	10235	23010	0	316
12.297	12.658	10522	22829	0	316
13.415	14.497	10580	22543	0	316
18.680	17.021	10810	22061	0	316
20.916	19.654	10867	21609	0	316
22.250	20.483	11040	21308	0	316
19.870	18.752	11384	21158	0	316
16.949	15.723	11672	21097	0	316
12.622	13.415	11959	21037	0	316
12.622	12.009	12304	20902	0	316
9.809	10.710	12476	20646	0	316
8.907	11.287	12764	20269	0	316
9.881	11.143	12821	19817	0	316
13.199	12.622	12936	19380	0	316
17.310	15.146	13051	18914	0	316
21.096	18.103	12821	18146	0	316
23.332	18.824	12591	17137	0	316
18.716	17.815	12247	16294	0	316
20.014	15.903	12074	15692	0	316
19.185	15.074	11729	15104	0	316
23.080	13.812	11327	14381	0	316
24.702	14.425	10810	13583	0	316
25.099	14.425	10350	13011	0	316
23.080	11.576	10178	12785	0	316
21.745	10.097	10005	12860	0	316
21.024	9.052	10005	13162	0	316
23.909	11.432	10063	13553	0	316
25.460	13.595	10178	14050	0	316
27.407	18.392	10465	14607	0	316
28.273	21.313	10580	15119	0	316
28.850	22.863	10637	15481	0	316
30.184	24.306	10752	15707	0	316
28.850	23.729	10867	15963	0	316
27.984	21.781	11040	16264	0	316
26.974	19.762	10637	16083	0	316
24.558	16.697	10293	15391	0	316
24.270	14.641	10005	14773	0	316
22.106	13.343	9718	14502	0	316
22.286	14.245	9603	14577	0	316
20.844	14.641	9775	15059	0	316
22.575	15.975	10005	15782	0	316
24.558	18.211	10293	16384	0	316
25.352	19.654	10522	16805	0	316
24.089	20.555	10637	17031	0	316
21.673	20.627	10637	17076	0	316
19.510	18.608	10810	17106	0	316
20.988	16.084	10810	17257	0	316
21.493	14.966	11155	17528	0	316
21.637	13.199	11442	17920	0	316
19.510	12.622	11787	18402	0	316
14.461	11.937	12304	18929	0	316
12.838	9.376	12649	19335	0	316
14.281	9.304	13109	19606	0	316
16.336	8.619	13626	19787	0	316
20.339	10.097	13971	19953	0	316
22.899	10.097	14316	20058	0	316
21.060	11.540	14660	19983	0	316
21.349	12.550	14890	19787	0	316
18.680	11.973	15063	19546	0	316
18.392	10.891	15063	18989	0	316
16.336	10.350	14948	18266	0	316
17.562	8.583	15235	18070	0	316
16.048	9.376	15695	18387	0	316
17.129	10.602	15982	18462	0	316
15.218	13.487	15752	17890	0	316
15.543	16.048	15522	16941	0	316
13.920	16.985	15350	16159	0	316
16.516	16.769	15350	15782	0	316
17.562	14.749	15407	15797	0	316
22.647	13.343	15522	15993	0	316
24.955	13.127	15810	16128	0	316
27.299	16.012	16270	16384	0	316
28.633	18.175	16671	16880	0	316
25.063	19.221	16958	17347	0	316
23.332	18.788	17246	17528	0	316
20.844	16.048	17361	17393	0	316
16.949	13.884	17590	17182	0	316
16.769	9.953	17705	17091	0	316
16.661	8.511	17935	17167	0	316
16.697	7.285	18280	17362	0	316
16.697	7.681	18510	17453	0	316
18.680	7.609	18740	17317	0	316
17.743	7.934	18855	17227	0	316
17.382	6.527	19372	17423	0	316
14.136	6.203	19717	17754	0	316
13.379	6.167	19947	17890	0	316
13.631	8.366	20177	17754	0	316
14.028	12.261	20234	17498	0	316
18.788	14.605	20521	17347	0	316
19.546	16.877	20694	17272	0	316
19.257	15.903	20809	17137	0	316
13.992	13.379	20866	16911	0	316
12.225	10.530	21039	16775	0	316
8.799	9.737	21384	16775	0	316
8.943	10.710	21556	16850	0	316
11.468	12.261	21958	17061	0	316
10.458	11.179	22246	17332	0	316
8.763	10.206	22418	17347	0	316
9.412	9.917	22246	16790	0	316
11.396	10.386	22131	15948	0	316
13.776	13.487	21728	15225	0	316
18.464	15.254	21556	14743	0	316
17.923	13.740	21326	14291	0	316
15.651	11.107	20866	13794	0	316
13.091	10.025	20579	13342	0	316
9.665	10.710	20292	13071	0	316
12.405	14.389	20119	12921	0	316
15.579	17.454	19717	12770	0	316
20.519	19.365	19544	12589	0	316
25.316	18.716	19085	12363	0	316
26.902	17.887	18682	12228	0	316
25.532	15.903	18567	12288	0	316
21.493	14.497	18510	12665	0	316
18.572	14.389	18567	13327	0	316
15.471	12.874	18567	14035	0	316
16.336	13.992	18855	14758	0	316
18.428	15.471	19315	15616	0	316
22.755	17.562	19602	16489	0	316
23.404	19.473	19947	17182	0	316
21.457	20.123	20119	17543	0	316
21.024	19.834	20464	17739	0	316
19.257	20.231	20464	17814	0	316
20.447	19.870	20521	17769	0	316
19.870	20.627	20464	17618	0	316
20.123	19.546	20521	17438	0	316
19.510	17.526	20292	17272	0	316
18.175	17.202	20464	17121	0	316
19.654	18.031	20464	17152	0	316
18.716	18.283	20694	17347	0	316
19.618	19.329	20694	17528	0	316
17.310	19.149	20866	17603	0	316
17.670	18.824	20981	17679	0	316
15.398	18.428	21269	17829	0	316
15.146	17.779	21556	18055	0	316
13.740	16.661	21671	18161	0	316
15.795	15.074	21441	17784	0	316
16.769	15.290	21039	16896	0	316
17.346	16.336	20809	16083	0	316
17.779	17.238	20694	15722	0	316
14.425	17.995	20464	15556	1	936
15.074	18.356	20406	15421	0	936
14.353	18.283	20119	15195	0	936
16.805	18.500	19659	14683	0	936
16.444	18.139	19257	14050	0	936
16.805	17.021	19085	13945	0	936
14.100	15.795	19085	14291	0	936
15.687	16.048	18797	14366	0	936
17.418	16.336	18395	13915	0	936
22.178	18.608	17705	13327	0	936
26.938	20.880	17418	12966	0	936
28.597	22.250	17073	12981	0	936
27.335	22.178	17073	13403	0	936
26.253	21.313	17073	14035	0	936
24.053	22.755	17246	14668	0	936
23.729	25.604	17418	15360	0	936
26.217	28.489	17648	16174	0	936
23.621	29.643	17820	16790	0	936
20.123	26.433	17935	17046	0	936
17.057	20.231	17878	17031	0	936
14.353	16.408	17935	17001	0	936
14.317	15.182	17935	17076	0	936
19.293	16.336	17878	17197	0	936
19.365	15.867	17935	17242	0	936
18.933	14.245	17820	17152	0	936
15.038	10.133	17705	17001	0	936
13.343	7.753	17878	17061	0	936
9.088	6.563	17993	17483	0	936
6.383	7.285	18280	17935	0	936
4.580	5.229	18452	18070	0	936
1.515	2.921	18452	17965	0	936
0.685	-0.072	18510	17890	0	936
2.741	-0.613	18740	17980	0	936
5.301	3.282	18855	18176	0	936
9.737	9.016	19027	18221	0	936
11.900	14.713	19027	18130	0	936
15.687	17.238	19257	18130	0	936
16.156	17.743	19544	18266	0	936
17.490	17.418	19544	18296	0	936
17.166	17.923	19429	17920	0	936
18.175	20.087	19142	17287	0	936
16.408	21.241	19142	16715	0	936
17.743	21.313	19027	16399	0	936
14.064	16.697	18797	16249	0	936
10.278	12.766	18797	16068	0	936
8.943	9.016	18682	15827	0	936
7.501	9.124	18452	15466	0	936
8.294	11.143	17993	14999	0	936
10.386	14.136	17878	14653	0	936
13.848	15.759	17878	14758	0	936
14.245	17.129	17878	15074	0	936
17.670	19.293	17590	14969	0	936
17.454	22.178	17016	14321	0	936
17.166	22.250	16441	13538	0	936
12.477	21.457	15982	12981	0	936
8.727	17.959	15522	12755	0	936
7.970	14.930	15235	12725	0	936
8.439	12.874	14660	12559	0	936
9.016	13.595	13971	12092	0	936
6.996	13.054	13453	11701	0	936
5.698	13.992	12936	11656	0	936
2.019	15.326	12591	11912	0	936
2.705	16.156	12074	12122	0	936
7.285	16.769	11672	12138	0	936
13.631	18.139	11327	12243	0	936
19.221	19.582	10925	12529	0	936
23.693	19.582	10522	12785	0	936
25.820	19.690	10063	12830	0	936
24.702	18.788	9430	12800	0	936
24.162	18.103	9201	12951	0	936
23.837	18.139	9028	13478	0	936
22.286	19.185	9086	14366	0	936
23.585	19.221	9201	15421	0	936
25.568	19.005	9430	16339	0	936
28.381	17.923	9660	17121	0	936
28.092	16.156	9775	17920	0	936
27.443	14.533	10350	18808	0	936
22.827	13.776	10810	19757	0	936
21.962	13.307	11327	20480	0	936
22.972	13.307	11499	20917	0	936
27.587	14.245	11959	21188	0	936
30.040	13.776	12304	21474	0	936
25.965	13.559	12764	21715	0	936
21.385	11.937	13051	21850	0	936
17.310	11.179	13396	21850	0	936
11.504	9.881	13741	21715	0	936
10.458	8.835	13798	21459	0	936
10.638	10.674	14028	21143	0	936
10.314	10.927	14316	20841	1	352
12.081	12.153	14373	20525	0	352
16.228	12.982	14488	20118	0	352
18.897	11.576	14258	19365	0	352
23.837	12.009	14201	18402	0	352
23.044	12.982	14086	17844	0	352
22.683	12.622	14258	17784	0	352
19.365	12.982	14201	17603	0	352
13.668	10.422	14028	16986	0	352
11.071	5.842	13626	16174	0	352
10.061	2.669	13396	15451	0	352
10.783	1.262	13109	14863	0	352
14.389	2.849	12362	14065	0	352
15.939	5.373	11672	12921	0	352
14.533	5.878	11040	11957	0	352
13.559	6.167	10522	11671	0	352
9.520	6.203	10465	11942	0	352
7.176	5.409	10465	12514	0	352
8.042	6.888	10465	13222	0	352
6.744	6.563	10752	13975	0	352
7.104	5.517	11040	14758	0	352
7.970	8.547	12821	19471	0	664
7.212	9.016	12936	18989	0	664
8.258	8.727	13224	18718	0	664
8.655	9.412	13511	18417	0	664
9.773	8.619	13683	17950	0	664
10.566	9.088	13798	17408	0	664
12.874	8.691	14086	16941	0	664
13.163	9.376	14086	16594	0	664
13.451	9.592	14258	16354	0	664
16.264	10.566	14373	16128	0	664
16.120	12.333	14660	15993	0	664
18.031	14.136	14948	16053	0	664
18.103	15.362	15522	16384	0	664
20.664	15.615	15982	16896	0	664
20.664	15.759	16498	17272	0	664
22.791	16.552	16958	17468	0	664
21.818	16.372	17648	17799	0	664
19.401	16.841	18395	18447	0	664
18.211	15.579	19257	19260	0	664
12.982	12.838	20119	19893	0	664
13.740	11.251	20809	20314	0	664
13.379	11.071	21843	20721	0	664
14.821	12.586	22820	21203	0	664
16.156	14.245	23682	21640	0	664
14.245	12.838	24717	21926	0	664
13.307	11.287	25579	22137	0	664
11.648	6.816	26269	22152	0	664
11.251	6.780	26843	21564	0	664
13.379	8.330	26843	20480	0	664
15.579	11.251	27016	19365	0	664
16.084	15.182	27131	18341	0	664
18.536	17.598	26843	17272	0	664
17.202	17.815	26843	16098	0	664
18.392	18.103	26441	14863	0	664
18.320	19.906	26154	13869	0	664
19.473	21.998	26154	13327	0	664
19.546	25.135	26154	13207	0	664
20.700	26.253	26441	13282	0	664
22.575	26.181	26441	13297	0	664
23.657	24.883	26556	13267	0	664
26.325	22.827	26728	13327	0	664
27.587	22.791	26843	13538	0	664
27.660	19.906	27016	13764	0	664
23.909	17.562	27303	13884	0	664
23.008	16.552	27303	14035	0	664
22.503	16.985	27590	14412	0	664
21.962	20.591	28280	15074	0	664
24.378	22.358	28567	15827	0	664
25.893	22.467	28740	16128	0	664
22.286	20.772	28452	15541	0	664
20.231	17.202	28280	14442	0	664
16.877	15.867	27993	13794	0	664
17.202	15.903	27878	13719	0	664
16.516	16.300	27878	13689	0	664
19.257	16.769	27590	13644	0	664
17.887	16.120	27418	13704	0	664
18.031	14.821	27418	13824	0	664
15.002	13.271	27590	13900	0	664
14.858	14.100	27303	13869	0	664
14.966	16.084	27016	13824	0	664
17.959	17.526	27016	13674	0	664
17.887	19.185	26154	13147	0	664
19.798	19.185	25694	12363	0	664
17.959	17.995	25004	11731	0	664
17.562	16.985	24257	11234	0	664
13.920	16.877	23567	10722	0	664
12.297	14.605	22993	10360	0	664
9.989	12.297	22131	10150	0	664
8.078	9.520	21269	9773	0	664
7.681	9.088	20406	9261	0	664
11.900	8.907	19659	9110	0	664
14.100	11.143	19085	9397	0	664
16.120	11.432	18395	9773	0	664
16.733	11.432	18108	10210	0	664
12.405	9.232	17648	10812	0	664
9.989	6.239	17533	11641	0	664
7.032	3.931	17361	12529	0	664
6.671	3.570	17073	13282	0	664
6.816	3.534	17073	14035	0	664
10.963	6.671	17246	15014	0	664
14.677	12.117	17533	16234	0	664
18.608	14.858	17820	17408	0	664
24.017	17.490	17935	18266	0	664
25.243	19.077	18108	18763	0	664
22.503	17.202	18108	19109	0	664
18.824	16.156	18510	19546	0	664
13.884	13.559	18682	20028	0	664
13.307	13.235	18682	20088	0	664
13.595	15.435	18108	19350	0	664
17.021	16.084	17533	18176	0	664
17.057	17.166	17073	17332	0	664
15.723	15.435	16671	16971	0	664
10.746	11.648	16384	16730	0	664
7.681	8.366	16097	16609	0	664
5.301	5.590	16097	16700	0	664
3.462	4.003	16097	16956	0	664
3.137	3.462	16270	17393	0	664
4.400	4.003	16786	18221	0	664
5.554	4.832	17361	19365	0	664
5.698	6.022	17820	20164	0	664
5.013	4.075	17935	20149	0	664
2.993	0.829	17820	19606	0	664
0.469	-1.767	17533	19079	0	664
-2.056	-4.508	17648	18733	0	664
-3.246	-4.219	17648	18477	0	664
-3.426	-4.724	17361	18070	0	664
-4.652	-4.364	17073	17453	0	664
-3.498	-4.508	16958	16911	0	664
-2.669	-5.265	16786	16685	0	664
-1.515	-5.698	16786	16715	0	664
0.829	-3.678	16786	16835	0	664
2.957	-2.019	16786	16865	0	664
5.229	1.442	16958	16956	0	664
6.708	3.318	17246	17257	0	664
8.114	4.940	17533	17664	0	664
9.989	4.111	17820	18040	0	664
8.979	5.373	18108	18251	0	664
8.763	5.373	18223	18326	0	664
6.599	6.527	18395	18417	0	664
5.698	8.042	18970	18612	0	664
3.173	6.708	19085	18733	0	664
1.947	4.724	19257	18567	0	664
0.865	2.308	19257	18236	0	664
0.613	1.190	19257	17859	0	664
2.200	0.252	19085	17558	0	664
6.239	3.931	19372	17377	0	664
9.196	7.068	19257	17182	0	664
10.386	9.953	19085	16805	0	664
13.199	9.773	18970	16294	0	664
13.235	10.783	18682	15677	0	664
15.218	9.845	18223	15150	0	664
14.353	9.088	18510	15150	0	664
10.133	7.862	18682	15662	0	664
6.816	6.491	18797	15978	0	664
4.724	4.832	18510	15677	0	664
4.904	4.724	18223	14999	0	664
10.242	8.258	17820	14381	0	664
15.038	12.225	17533	14050	0	664
22.106	16.156	17533	14035	0	664
24.666	19.870	17361	14216	0	664
25.748	20.087	17073	14366	0	664
25.063	20.483	17073	14412	0	664
24.198	20.303	17073	14517	0	664
22.575	19.510	17073	14788	0	664
23.224	21.060	17073	15119	0	664
23.476	21.132	17073	15300	0	664
21.060	20.555	17073	15436	0	664
20.880	18.644	17073	15647	0	664
19.582	17.093	17246	15978	0	664
18.716	15.362	17246	16279	0	664
18.680	15.435	17246	16354	0	664
19.257	17.634	17073	16279	0	664
22.106	20.519	17073	16249	0	664
23.657	25.279	17246	16414	0	664
25.712	30.581	17361	16760	0	664
26.686	33.213	17361	16926	0	664
24.234	34.115	17073	16609	0	664
23.512	32.816	16671	15963	0	664
24.270	29.174	16384	15421	0	664
24.666	28.525	16097	15150	0	664
27.047	26.650	15810	15014	0	664
28.814	27.119	15695	14924	0	664
28.164	25.496	15407	14818	0	664
27.010	24.234	15120	14622	0	664
23.549	22.935	14660	14366	0	664
22.358	20.339	14373	14156	0	664
23.693	19.798	14086	14020	0	664
23.440	21.998	13683	13869	0	664
25.568	23.765	13224	13523	0	664
27.804	27.155	12534	13011	0	664
27.155	29.499	11787	12529	0	664
28.525	29.138	10925	11776	0	664
30.040	27.010	9775	10812	0	664
30.076	26.253	8913	10300	0	664
30.977	25.243	8626	10466	0	664
30.905	25.676	8224	11174	0	664
30.328	25.965	8224	12198	0	664
28.489	24.739	7936	13026	0	664
26.938	23.152	7764	13403	0	664
25.207	21.493	7362	13674	0	664
26.181	22.467	7362	14246	0	664
26.433	26.001	7362	15044	0	664
26.794	28.237	7362	15827	0	664
26.686	30.400	7649	16549	0	664
28.309	29.895	7649	17257	0	664
30.184	28.814	7936	17890	0	664
34.006	29.535	7764	18236	0	664
35.737	31.230	7936	18477	0	664
35.160	30.328	8051	18884	0	664
34.908	30.761	8339	19305	0	664
33.249	30.328	8339	19561	0	664
32.420	29.354	8798	19862	0	664
32.672	32.131	9086	20420	0	664
31.302	32.420	9775	21127	0	664
30.112	29.102	10235	21760	0	664
28.128	23.657	10637	22061	0	664
27.047	18.103	10925	21850	0	664
25.460	14.858	10925	21278	0	664
25.171	16.552	11097	20887	0	664
26.253	20.772	11499	20841	0	664
26.470	25.568	11787	20962	1	828
23.873	24.306	12074	20992	0	828
20.916	20.123	12074	20600	0	828
15.831	15.146	12362	19893	0	828
12.838	9.016	12649	19667	0	828
9.484	7.970	13109	20013	0	828
10.638	9.304	13511	20359	0	828
10.025	10.999	14086	20480	0	828
9.196	12.117	14660	20480	0	828
7.789	11.504	14948	20435	0	828
8.402	9.773	15522	20435	0	828
9.160	8.655	16097	20480	0	828
11.576	9.737	16498	20405	0	828
15.074	11.432	16786	20088	0	828
21.313	16.120	17073	19637	0	828
23.585	20.339	16958	18929	0	828
26.145	22.431	16786	17874	0	828
27.732	24.053	16498	16775	0	828
26.974	23.152	16270	15872	0	828
23.765	20.555	16097	15225	0	828
22.322	18.175	16270	14969	0	828
21.709	17.021	16498	15210	0	828
17.779	15.723	16958	15797	0	828
15.290	15.543	17246	16324	0	828
13.163	15.471	17820	16700	0	828
11.828	14.641	18510	17182	0	828
10.350	14.208	19257	17905	0	828
8.439	10.458	19947	18688	0	828
8.547	8.330	20521	19140	0	828
4.904	6.022	20406	18763	0	828
1.875	3.426	20119	17483	0	828
-1.334	2.669	19544	15827	0	828
-3.173	2.560	18970	14321	0	828
-4.075	2.056	18223	13071	0	828
-2.849	2.560	17820	12213	0	828
0.829	5.373	17073	11656	0	828
3.895	8.402	16498	11068	0	828
6.203	9.412	15982	10451	0	828
7.032	11.323	15235	9999	0	828
8.475	10.674	14373	9381	0	828
7.862	8.763	13511	8538	0	828
9.701	9.232	12649	7966	0	828
12.009	9.520	12074	7996	0	828
13.740	12.550	12074	8764	0	828
16.120	16.733	12074	10119	0	828
15.903	19.510	12074	11369	0	828
17.129	21.637	11959	12107	0	828
17.274	20.772	11959	12695	0	828
15.507	20.231	11959	13538	0	828
14.533	20.700	12247	14638	0	828
11.792	20.555	12649	15782	0	828
11.360	21.818	13109	16790	0	828
12.261	19.546	13109	17468	0	828
12.586	15.290	13224	17784	0	828
12.081	12.441	13224	17935	0	828
9.953	8.979	13224	17980	0	828
8.258	8.907	13224	17890	0	828
9.629	10.314	12821	17573	0	828
11.684	11.828	12362	16896	0	828
12.802	12.874	11959	16144	0	828
13.523	11.396	11787	15933	0	828
8.871	10.206	11787	16339	0	828
5.373	9.196	11959	16971	0	828
3.642	9.448	12362	17709	0	828
2.993	11.143	12936	18477	0	828
3.246	11.035	13224	19155	0	828
6.744	10.927	13798	19877	0	828
8.439	8.078	14660	20932	0	828
10.855	8.078	15810	22257	0	828
12.694	7.032	16671	23206	0	828
15.975	8.979	17246	23402	0	828
14.605	9.773	17648	23085	0	828
17.238	11.360	18108	22769	0	828
15.290	10.819	18510	22558	0	828
15.471	12.153	18682	22167	0	828
15.795	13.018	18797	21323	0	828
17.490	15.435	18395	20164	0	828
21.132	17.274	18510	19170	0	828
24.919	18.608	18510	18492	0	828
23.476	19.329	18682	18100	1	316
22.935	18.860	18682	17799	0	316
21.890	19.762	18682	17408	0	316
20.123	21.060	18682	16911	0	316
22.827	21.457	18510	16414	0	316
22.250	19.690	18682	16053	0	316
21.421	15.579	18682	15737	0	316
19.834	11.900	18510	15315	0	316
15.471	8.258	18223	14818	0	316
14.641	9.232	18223	14562	0	316
13.740	10.783	18395	14698	0	316
11.287	12.117	18682	15059	0	316
11.973	11.684	18395	15104	0	316
10.819	9.809	18108	14487	0	316
8.330	9.520	17533	13523	0	316
9.124	10.674	17361	12996	0	316
9.809	12.838	17246	13056	0	316
12.117	13.631	17073	13282	0	316
12.730	12.730	17073	13508	0	316
15.146	13.559	16958	13764	0	316
13.668	13.487	17073	14065	0	316
13.920	16.372	17246	14487	0	316
14.930	19.942	17533	15074	0	316
14.749	20.411	17361	15481	0	316
16.985	20.375	17246	15285	0	316
15.146	18.644	16786	14607	0	316
15.651	15.290	16270	13839	0	316
12.045	12.081	15695	13267	0	316
10.710	8.006	15235	12966	0	316
7.285	4.364	14660	12755	0	316
4.364	-0.108	13971	12258	0	316
2.849	-1.010	13224	11625	0	316
1.839	-1.983	12936	11535	0	316
3.750	0.541	12936	12183	0	316
5.445	3.246	12936	13131	0	316
8.150	3.570	12936	13945	0	316
7.032	3.678	12821	14472	0	316
4.219	1.479	12936	14909	0	316
3.029	0.361	12936	15421	0	316
0.974	-0.072	12821	15782	0	316
1.695	0.685	12649	15842	0	316
3.173	2.416	12362	15722	0	316
4.688	4.364	12362	15737	0	316
5.626	7.573	12247	16008	0	316
8.439	10.133	12362	16489	0	316
8.727	11.792	12534	17061	0	316
7.862	13.054	12649	17438	0	316
5.878	9.484	12649	17649	0	316
2.488	7.717	12821	17905	0	316
3.642	6.167	12936	18341	0	316
4.904	6.239	13396	18838	0	316
7.176	7.825	13511	19170	0	316
5.554	7.934	13683	19245	0	316
0.144	5.445	13683	19170	0	316
-3.714	1.947	13971	19124	0	316
-4.111	0.144	14086	19215	0	316
0.325	0.505	14373	19380	0	316
7.465	3.678	14660	19486	0	316
10.494	5.914	14545	19245	0	316
11.612	7.248	14258	18432	0	316
6.635	5.770	13683	17197	0	316
3.714	3.859	13109	16128	0	316
4.111	3.318	12821	15421	0	316
6.996	3.101	12362	14954	0	316
8.727	5.445	11959	14592	0	316
11.864	6.131	11672	14336	0	316
11.612	7.970	11384	14186	0	316
9.340	9.412	11384	14125	0	316
10.530	10.061	11097	14171	0	316
10.133	10.097	10810	14261	0	316
9.304	8.763	10637	14216	0	316
6.744	4.832	10350	14156	0	316
6.383	3.750	10350	14201	0	316
6.996	4.868	9948	14321	0	316
9.016	9.376	9660	14306	0	316
12.622	14.533	9488	14186	0	316
14.353	18.897	9086	14171	0	316
12.838	18.392	9201	14427	0	316
7.717	14.425	9201	14999	0	316
4.904	9.412	9373	15662	0	316
1.551	5.229	9373	16144	0	316
-0.541	3.173	9373	16384	0	316
1.767	3.606	9660	16655	0	316
3.246	6.527	9660	17121	0	316
4.616	7.717	10063	17649	0	316
7.537	7.717	9948	17935	0	316
8.475	8.402	10063	18010	0	316
11.323	6.419	10350	18100	0	316
11.684	5.878	10350	18326	0	316
8.871	3.895	10637	18522	0	316
5.770	3.823	10810	18537	0	316
5.626	2.669	10637	18417	0	316
4.580	5.085	10810	18146	0	316
6.671	7.321	10235	17543	0	316
8.655	8.655	9948	16775	0	316
8.150	9.665	9775	16219	0	316
8.583	7.753	9373	15918	0	316
9.881	8.907	9201	15616	0	316
12.550	10.133	8511	15029	0	316
11.756	11.792	8224	14366	0	316
12.874	13.054	8051	14321	0	316
11.396	9.556	8339	14999	0	316
9.629	7.681	8626	15903	0	316
8.763	5.121	8913	16655	0	316
5.157	5.301	9373	17242	0	316
2.777	5.662	9660	17814	0	316
2.308	7.573	10235	18387	0	316
3.823	9.737	10350	18793	0	316
6.094	11.251	10637	19019	0	316
9.989	13.235	11097	19034	0	316
11.432	14.245	11097	18929	0	316
10.674	12.405	11384	19019	0	316
8.799	10.206	12074	19380	0	316
8.294	8.547	12247	19682	0	316
7.537	6.599	12534	19667	0	316
8.763	6.780	12821	19501	0	316
10.386	7.573	13224	19426	0	316
13.451	9.412	13396	19531	0	316
14.208	11.792	13798	19727	0	316
15.038	14.461	14258	19742	0	316
17.562	16.228	14258	19320	0	316
15.002	16.841	13798	18251	0	316
17.129	17.129	13511	16850	0	316
15.002	15.723	13109	15827	0	316
15.471	14.497	12821	15210	0	316
12.153	13.559	12534	14758	0	316
11.828	12.910	12247	14397	0	316
11.071	11.143	12074	13915	0	316
11.251	9.196	11499	13312	0	316
12.802	8.475	10925	12815	0	316
14.713	7.753	10350	12168	0	316
12.586	7.212	9488	11249	0	316
11.360	8.330	8798	10421	0	316
7.068	6.780	7936	9939	0	316
3.967	5.986	7476	9803	0	316
1.911	3.606	7189	10104	0	316
2.019	2.705	7189	10827	0	316
3.498	2.416	6902	11701	0	316
3.498	2.488	6902	12378	0	316
6.383	6.058	6499	12544	0	316
9.196	8.907	5465	12002	0	316
13.956	13.307	4890	11234	0	316
16.048	14.353	4316	11008	0	316
18.788	14.785	3626	11294	0	316
15.362	12.622	3453	11806	0	316
13.415	11.756	3453	12619	0	316
10.891	9.809	3741	13884	0	316
9.268	10.891	4201	15421	0	316
12.910	12.225	4488	16850	0	316
12.946	12.910	5063	18025	0	316
17.382	15.435	5752	19109	0	316
17.490	16.444	6327	20374	0	316
18.283	17.598	7362	21760	0	316
17.166	18.860	8051	22859	0	316
17.598	18.103	9086	23627	0	316
16.444	16.300	9660	24155	0	316
12.333	13.956	10350	24305	0	316
10.242	9.737	10637	24140	0	316
6.167	6.491	11212	24049	0	316
4.580	5.481	11787	24094	0	316
5.445	9.088	12362	23884	0	316
7.537	12.550	12534	23311	1	644
9.809	19.437	12821	22603	0	644
11.360	21.637	12936	21971	0	644
12.766	20.375	13396	21323	0	644
15.579	19.329	13109	20525	0	644
16.444	18.536	13109	19637	0	644
20.375	18.716	13109	18808	0	644
19.906	20.339	13109	18070	0	644
19.221	19.365	13396	17528	0	644
14.677	17.238	13224	17197	0	644
14.064	15.903	13224	16835	0	644
13.163	16.336	13109	16294	0	644
18.392	19.113	13109	15722	0	644
21.998	23.729	13224	15451	0	644
27.263	27.191	13224	15391	0	644
29.715	29.030	13224	15360	0	644
31.915	30.545	13224	15210	0	644
34.079	29.715	13396	15029	0	644
33.538	29.102	13511	14984	0	644
32.167	28.777	13511	15165	0	644
29.679	25.784	13683	15375	0	644
26.578	25.027	13798	15436	0	644
26.253	24.594	13971	15451	0	644
26.433	25.027	14258	15677	0	644
27.732	26.866	14545	16144	0	644
27.624	27.587	14948	16624	0	644
26.722	26.830	15407	16956	0	644
22.935	25.388	15522	17167	0	644
21.637	22.972	15810	17347	0	644
20.267	20.555	16270	17558	0	644
20.014	17.346	16498	17694	0	644
22.034	16.084	16498	17423	0	644
23.296	16.300	16097	16459	0	644
22.863	17.057	15522	15180	0	644
23.909	19.906	14948	14065	0	644
21.277	19.473	14373	13342	0	644
18.716	18.536	14086	12951	0	644
17.634	17.851	13798	12800	0	644
16.264	17.346	13511	12800	0	644
20.772	19.293	13511	12770	0	644
23.729	21.168	13109	12845	0	644
26.650	21.349	13396	13372	0	644
26.650	20.591	13798	14397	0	644
26.506	20.411	13971	15375	0	644
26.397	21.349	14086	15827	0	644
27.479	24.775	14258	15782	0	644
27.660	28.092	13971	15556	0	644
24.053	27.804	13798	15330	0	644
19.113	23.260	13396	14984	0	644
13.776	17.166	12936	14472	0	644
8.258	12.261	12362	13915	0	644
7.032	10.422	12247	13598	0	644
6.924	12.333	11787	13568	0	644
8.727	12.333	11499	13674	0	644
7.862	11.612	11384	13764	0	644
6.744	9.629	10925	13749	0	644
6.419	8.547	10637	13689	0	644
6.960	11.756	10522	13734	0	644
10.963	13.487	10350	14080	0	644
16.516	15.795	10350	14758	0	644
18.824	14.245	10637	15421	0	644
21.890	13.127	10637	16008	0	644
24.053	12.550	10810	16579	0	644
25.712	13.704	11384	17242	0	644
27.263	15.651	11499	18010	0	644
27.299	15.975	12074	18853	0	644
25.135	14.641	12821	19652	0	644
23.044	14.858	12936	20134	0	644
21.637	13.235	13224	20224	0	644
21.204	13.631	13683	20209	0	644
19.221	12.405	14258	20646	0	644
20.447	12.550	14948	21504	0	644
20.808	13.812	15522	22091	0	644
22.899	17.021	15982	22031	0	644
24.630	20.627	16384	21700	0	644
22.250	19.978	16786	21594	0	644
20.195	17.634	17361	21760	0	644
14.064	11.287	17820	21760	0	644
10.494	7.393	17935	21173	0	644
9.701	5.770	17935	20179	0	644
10.169	9.340	17820	19215	0	644
14.677	12.441	17820	18447	0	644
16.372	17.418	17533	17709	0	644
20.087	18.752	17073	16700	0	644
19.906	17.274	16671	15406	0	644
19.365	14.497	16097	14261	0	644
15.651	10.133	15810	13583	0	644
15.939	7.573	15522	13222	0	644
14.425	8.511	15120	12921	0	644
17.129	10.206	14833	12559	0	644
18.320	13.091	14373	12168	0	644
16.552	13.992	13798	11701	0	644
14.785	12.514	13396	11264	0	644
10.097	11.360	13109	11113	0	644
8.330	9.412	12362	10993	0	644
8.583	9.701	11384	10315	0	644
9.737	10.061	10522	9231	0	644
11.576	9.845	9373	8508	0	644
14.749	10.169	8798	8403	0	644
16.372	12.225	7936	8553	0	644
19.978	13.379	7649	8854	0	644
20.844	15.362	7074	9412	0	644
21.385	15.218	6902	10180	0	644
17.959	12.946	6614	11068	0	644
15.543	9.556	7074	12394	0	644
13.920	8.583	7362	14156	0	644
14.497	9.881	7764	15707	0	644
14.713	11.504	7764	16444	0	644
18.320	14.136	7764	16609	0	644
17.166	16.480	7649	16730	0	644
17.598	17.490	7362	16986	0	644
17.490	18.824	7476	17257	0	644
18.103	19.149	7189	17347	0	644
19.077	18.283	7189	17408	0	644
21.565	18.031	7362	17874	0	644
22.899	17.562	7649	18643	0	644
22.214	16.769	7764	19290	0	644
21.349	15.254	8224	19652	0	644
16.913	12.441	8339	19832	0	644
15.543	9.989	8626	19953	0	644
13.668	9.881	8626	20179	0	644
10.674	10.530	9201	20420	0	644
11.107	13.163	9373	20615	0	644
9.268	15.146	9660	20661	0	644
8.871	16.264	9775	20465	0	644
8.222	17.815	9775	20209	0	644
9.520	17.093	10235	20149	0	644
7.970	14.605	10350	20239	0	644
8.042	11.756	10637	20073	0	644
8.150	10.891	10522	19591	0	644
10.963	11.756	10522	19019	0	644
11.792	12.802	10350	18326	0	644
10.963	11.973	9948	17453	0	644
9.629	9.448	9660	16700	0	644
6.239	5.986	9660	16279	0	644
4.940	4.580	9201	15918	0	644
7.248	7.429	9201	15511	0	644
8.222	8.475	8798	15074	0	644
10.674	9.556	8626	14622	0	644
9.953	9.845	8051	14231	0	644
9.160	11.864	7936	13900	0	644
9.701	13.523	7476	13674	0	644
8.330	15.651	7362	13538	0	644
7.934	16.156	6902	13508	0	644
8.871	15.615	6902	13538	0	644
9.088	15.110	6614	13583	0	644
11.396	15.471	6040	13463	0	644
10.350	16.877	5925	13222	0	644
9.773	16.661	5637	13327	0	644
12.405	16.625	5752	13900	0	644
12.586	16.300	5925	14517	0	644
11.828	13.884	5637	14894	0	644
12.982	13.704	5637	15044	0	644
10.494	12.838	5637	15195	0	644
10.386	13.848	5465	15511	0	644
16.913	14.966	5752	16023	0	644
22.899	14.894	5925	16519	0	644
29.210	13.668	5752	16775	0	644
31.085	12.189	5752	16760	0	644
28.741	12.441	5925	16835	0	644
22.647	12.946	6040	17317	0	644
18.320	14.317	6499	18085	0	644
17.454	15.471	6787	18658	0	644
16.372	14.497	7189	18989	0	644
19.113	14.208	7476	19305	0	644
17.166	10.530	7764	19621	0	644
12.297	7.862	8224	19817	0	644
9.701	3.534	8224	19652	0	644
7.068	3.318	8051	18914	0	644
7.825	4.724	7476	17874	0	644
12.622	8.763	7476	17152	0	644
15.903	14.208	7189	16880	0	644
16.625	15.398	7362	16760	0	644
15.543	14.208	7189	16685	0	644
10.206	11.973	7189	16549	0	644
4.940	9.268	6902	16144	0	644
5.554	7.212	6499	15601	0	644
7.140	7.212	6499	15315	0	644
7.753	6.275	6327	15300	0	644
7.898	3.390	6327	15240	0	644
3.642	2.524	5925	14894	0	644
3.354	2.993	5465	14412	0	644
4.111	5.914	5350	14186	0	644
9.196	9.052	5350	14442	0	644
12.766	11.540	5465	15059	0	644
11.360	9.484	5752	15752	0	644
10.855	7.789	5925	16159	0	644
8.727	5.193	5752	16309	0	644
7.970	7.212	6040	16444	0	644
11.504	9.881	6212	16760	0	644
12.009	13.487	6212	17076	0	644
11.576	13.740	6499	17227	0	644
10.350	12.802	6499	17377	0	644
9.665	11.071	7074	17769	0	644
8.402	12.045	7476	18477	0	644
9.809	12.730	8224	19335	0	644
13.704	14.605	8626	19953	0	644
15.615	13.740	9373	20299	0	644
15.867	15.795	9660	20555	0	644
18.572	16.697	10350	20811	0	644
17.346	19.185	10810	21022	0	644
15.471	20.700	11212	21097	0	644
11.540	17.634	11787	21022	0	644
9.016	13.631	12074	20856	0	644
5.662	8.402	12534	20691	0	644
4.364	6.203	12936	20570	0	644
5.806	6.816	13396	20450	1	824
6.744	9.232	13396	20088	0	824
6.708	10.819	13396	19185	0	824
8.006	10.314	12936	17859	0	824
7.068	7.321	12534	16489	0	824
7.176	5.590	12247	15391	0	824
6.852	5.049	11672	14502	0	824
8.655	7.212	11384	13734	0	824
9.773	8.222	11097	13116	0	824
10.602	7.789	10522	12574	0	824
8.006	5.157	10063	12092	0	824
5.517	3.895	9948	11897	0	824
2.272	3.210	9775	12077	0	824
0.938	3.570	9488	12378	0	824
1.298	5.554	9488	12529	0	824
1.334	5.842	9373	12665	0	824
1.082	5.445	9373	12966	0	824
1.983	5.770	9373	13463	0	824
4.075	7.429	9660	14065	0	824
6.347	8.078	9660	14577	0	824
5.986	9.484	9660	14969	0	824
4.544	7.212	10063	15391	0	824
5.734	6.275	10235	16038	0	824
5.481	4.255	10637	16730	0	824
7.573	4.796	10925	17317	0	824
8.979	6.744	11212	17709	0	824
7.609	6.960	11384	17784	0	824
6.491	5.662	11384	17739	0	824
5.373	5.013	11672	17905	0	824
6.203	4.364	11959	18221	0	824
7.068	5.698	12362	18417	0	824
6.455	7.645	12362	18507	0	824
3.895	6.347	12821	18658	0	824
2.488	3.642	13109	18884	0	824
-0.649	1.623	13396	19109	0	824
-1.767	-0.649	13683	19034	0	824
-1.587	-0.288	13396	18447	0	824
0.180	0.433	12936	17438	0	824
-0.829	0.288	12534	16324	0	824
-1.046	0.216	12247	15391	0	824
0.613	3.606	11787	14803	0	824
0.577	6.996	11499	14457	0	824
2.452	8.655	11384	14291	0	824
1.659	9.016	11384	14366	0	824
-0.577	6.383	11499	14894	0	824
-1.118	4.003	11959	15827	0	824
0.252	6.203	12534	16700	0	824
1.587	7.825	12821	17227	0	824
3.787	10.350	12936	17377	0	824
4.868	10.314	13224	17423	0	824
6.131	9.520	13396	17453	0	824
8.186	9.448	13396	17347	0	824
9.376	11.360	13224	17091	0	824
10.097	11.432	13224	16805	0	824
7.285	9.809	13224	16579	0	824
4.760	7.898	13224	16459	0	824
4.688	5.445	13396	16504	0	824
5.445	4.652	13396	16624	0	824
5.481	6.888	13396	16519	0	824
8.943	7.537	13224	16219	0	824
8.871	7.970	13109	15918	0	824
9.412	7.970	13109	15872	0	824
7.609	7.645	13396	15978	0	824
8.222	10.097	13224	15978	0	824
10.278	11.251	13109	15872	0	824
11.648	14.930	13109	15872	0	824
16.300	15.651	13224	15978	0	824
15.507	14.172	13396	16038	0	824
12.297	12.297	13109	15888	0	824
9.881	9.773	12649	15330	0	824
9.016	10.927	12074	14532	0	824
10.566	12.622	11787	13930	0	824
15.110	16.300	11384	13628	0	824
16.084	17.670	11097	13463	0	824
14.100	17.057	10925	13433	0	824
12.514	15.182	10350	13403	0	824
9.773	12.658	9948	13101	0	824
8.727	12.441	9373	12499	0	824
11.756	12.622	8339	11716	0	824
13.487	15.218	7476	10888	0	824
14.281	17.598	6614	10345	0	824
17.021	18.788	6040	10180	0	824
15.507	18.139	5350	10180	0	824
15.651	17.346	4775	10421	0	824
11.828	15.795	4603	10948	0	824
13.595	15.326	4488	11746	0	824
14.136	15.398	4488	12725	0	824
14.858	15.759	4316	13749	0	824
16.661	15.254	4603	14818	0	824
14.245	14.533	5063	15993	0	824
11.937	13.379	5350	17257	0	824
8.691	11.432	6040	18537	0	824
6.455	9.809	6499	19576	0	824
4.796	6.780	6902	20344	0	824
4.291	4.977	7649	21022	0	824
4.400	4.580	8051	21700	0	824
5.806	6.239	8626	22197	0	824
6.744	8.907	8626	22182	0	824
8.655	11.756	9086	21835	0	824
9.917	12.910	9086	21549	0	824
12.514	13.379	9488	21414	0	824
14.641	13.992	9488	21263	1	404
13.812	16.048	9775	21022	0	404
14.353	16.589	10063	20766	0	404
12.946	15.326	9948	20390	0	404
12.514	11.648	10063	19682	0	404
12.477	7.104	9488	18688	0	404
11.864	5.590	9373	17784	0	404
13.848	6.167	9201	17121	0	404
15.146	8.222	8913	16549	0	404
14.749	10.422	8511	15842	0	404
15.975	9.016	7936	15014	0	404
13.379	8.475	7649	14276	0	404
13.343	7.429	7189	13824	0	404
13.091	8.691	7074	13644	0	404
16.048	10.422	6787	13553	0	404
17.310	12.009	6327	13357	0	404
16.264	11.900	6040	13026	0	404
15.471	8.402	5350	12439	0	404
10.314	6.563	4488	11776	0	404
6.960	3.462	4201	11415	0	404
5.626	3.173	3626	11400	0	404
5.770	3.895	3339	11550	0	404
9.592	6.563	2879	11897	0	404
8.655	6.563	3051	12559	0	404
10.133	5.734	3051	13372	0	404
8.763	7.285	2879	13945	0	404
10.386	6.708	2591	13990	0	404
12.333	7.537	2189	13794	0	404
14.317	8.547	1902	13990	0	404
10.206	6.131	2017	14607	0	404
8.835	5.914	2017	15240	0	404
7.501	5.914	2017	15797	0	404
10.242	6.996	2189	16399	0	404
13.199	10.530	2476	17061	0	404
17.382	9.881	2764	17709	0	404
15.362	10.819	3051	18402	0	404
14.389	11.215	3626	19200	0	404
10.927	10.025	4028	19877	0	404
7.681	10.855	4316	20239	0	404
4.219	7.825	4603	20329	0	404
4.436	7.176	4603	20254	0	404
4.760	5.301	4488	19727	0	404
6.563	7.645	3741	18371	0	404
8.475	7.970	2764	16534	0	404
8.222	9.340	1902	15119	0	404
8.763	9.196	1442	14306	0	404
9.845	9.196	867	13900	0	404
11.432	7.753	580	13854	0	404
10.783	7.789	465	13990	0	404
12.658	8.330	178	14050	0	404
12.982	7.285	5	14156	0	404
12.586	8.835	1	14487	0	404
15.471	11.540	5	15059	0	404
14.785	15.723	178	15707	0	404
16.589	19.221	293	16279	0	404
15.110	19.401	580	16820	0	404
14.966	17.166	1040	17528	0	404
11.179	12.153	1614	18387	0	404
9.232	9.124	2017	19140	0	404
10.710	9.016	2304	19501	0	404
14.858	12.586	2304	19335	0	404
17.815	16.625	2304	18899	0	404
20.087	16.661	2304	18748	0	404
16.192	15.471	2764	19019	0	404
12.586	12.081	3166	19365	0	404
9.304	10.278	3453	19637	0	404
7.789	10.061	3913	19908	0	404
12.045	10.855	4316	20344	0	404
13.992	12.153	5178	20902	0	404
14.064	10.169	5925	21384	0	404
15.867	9.701	6212	21444	0	404
13.776	12.910	6499	21007	0	404
16.228	14.569	6614	20465	0	404
15.687	15.939	7074	20118	0	404
18.103	14.533	7362	19953	0	404
15.651	10.169	7476	19832	0	404
11.973	6.563	8051	19697	0	404
11.612	5.554	8224	19531	0	404
11.143	5.626	8913	19516	0	404
10.422	5.445	9488	19938	0	404
12.838	7.862	10522	20691	0	404
13.271	8.799	11499	21353	0	404
13.451	12.009	12074	21534	0	404
16.156	13.415	12534	21188	0	404
18.031	15.723	12936	20646	0	404
19.978	17.057	13396	20209	0	404
19.690	18.283	13511	19712	0	404
20.411	20.375	13396	18748	0	404
18.680	21.601	13109	17332	0	404
15.182	20.591	12821	16008	0	404
15.435	22.142	12821	15210	0	404
14.858	21.349	12649	14909	0	404
14.641	21.781	12821	14803	0	404
16.084	19.510	12936	14698	0	404
14.317	18.175	13109	14683	0	404
14.317	17.706	13511	14909	0	404
13.487	19.041	13971	15360	0	404
12.477	21.818	14373	15993	0	404
16.012	22.467	15120	16640	0	404
16.661	24.017	15407	16986	0	404
20.050	22.070	15235	16489	0	404
19.690	21.457	14948	15375	0	404
17.490	19.401	14660	14517	0	404
13.884	18.392	14373	14065	0	404
11.360	16.841	14373	13719	0	404
11.720	15.543	14086	13448	0	404
12.514	14.713	13971	13267	0	404
14.389	12.225	13971	13372	0	404
10.999	9.448	14373	13975	0	404
7.753	8.186	14660	14773	0	404
7.068	7.068	14660	15074	0	404
8.150	10.819	14545	14788	0	404
12.477	12.586	14373	14231	0	404
15.795	14.461	13971	13794	0	404
18.788	13.884	13798	13674	0	404
17.454	13.992	13683	13764	0	404
17.274	13.740	13396	13734	0	404
16.228	16.084	13224	13523	0	404
18.283	19.726	13109	13357	0	404
17.959	20.123	12821	13418	0	404
19.546	18.644	12821	13764	0	404
18.860	16.516	12821	14231	0	404
16.841	13.487	12936	14577	0	404
14.353	14.858	12821	14894	0	404
15.687	19.762	13109	15391	0	404
18.211	25.171	13224	15963	0	404
21.168	31.194	13396	16399	0	404
24.522	32.456	13511	16640	0	404
21.601	31.735	13683	16760	0	404
20.267	30.328	13683	16941	0	404
16.300	29.246	13971	17302	0	404
16.156	27.768	14258	17694	0	404
15.038	26.686	14258	17799	0	404
15.218	21.926	14258	17694	0	404
13.054	17.815	14373	17679	0	404
8.114	12.225	14833	17874	0	404
7.681	9.160	14948	18191	0	404
7.032	10.061	15407	18537	0	404
9.088	11.107	15522	18778	0	404
11.648	14.894	15810	18808	0	404
14.317	17.706	15982	18643	0	404
13.451	19.005	15982	18417	0	404
11.540	19.041	15982	18100	0	404
14.136	18.103	15982	17754	0	404
14.389	17.129	15982	17423	0	404
16.480	15.795	15810	17076	0	404
16.408	14.533	15695	16655	0	404
17.995	15.435	15235	16008	0	404
15.002	16.264	14545	14833	0	404
15.831	19.510	13683	13372	0	404
15.939	21.890	13224	12333	0	404
15.398	22.647	12362	11897	0	404
15.362	21.096	12074	11912	0	404
11.864	15.723	11959	12288	0	404
9.953	11.900	12074	12770	0	404
7.465	8.150	11959	13192	0	404
6.744	6.311	11672	13448	0	404
7.429	9.917	11672	13659	0	404
9.917	12.117	11672	13975	0	404
13.343	15.975	11499	14381	0	404
12.622	17.021	11384	14728	0	404
10.422	15.435	11499	14924	0	404
8.078	13.235	11212	15059	0	404
5.481	9.845	11212	15345	0	404
4.940	9.340	11499	15918	0	404
6.852	8.799	11499	16624	0	404
7.393	9.629	11672	17061	0	404
7.068	11.937	11787	17212	0	404
6.599	12.766	11959	17332	0	404
7.753	15.615	11959	17498	0	404
10.025	18.500	11787	17453	0	404
15.074	20.375	11787	17212	0	404
17.346	22.755	11672	17106	0	404
21.745	24.991	11672	17106	0	404
21.241	24.775	11499	17016	0	404
23.080	24.234	11499	16926	0	404
19.473	25.820	11384	16896	0	404
19.185	25.135	11384	16896	0	404
20.736	26.037	11384	16730	0	404
19.798	26.614	10810	16234	0	404
21.709	26.902	10235	15481	0	404
20.555	25.496	9948	14773	0	404
17.346	24.378	9086	14110	0	404
12.225	20.087	8626	13448	0	404
8.547	15.507	7764	12785	0	404
7.140	12.982	7189	12228	0	404
7.645	10.638	6499	11912	0	404
9.592	11.900	6212	11942	0	404
12.225	12.153	5925	12303	0	404
13.848	13.740	5637	12800	0	404
12.081	12.081	5465	13297	0	404
11.973	11.504	5637	13915	0	404
11.215	12.694	5465	14653	0	404
11.143	11.504	5637	15345	0	404
11.720	14.064	5752	15903	0	404
10.927	13.523	5637	16339	0	404
7.609	12.297	5752	16760	0	404
3.282	8.330	6040	17302	0	404
2.560	4.255	6212	18055	0	404
0.541	2.524	6902	18944	0	404
2.019	1.839	7074	19546	0	404
2.596	2.056	7074	19335	0	404
0.613	2.669	6787	18582	0	404
-0.757	2.560	6499	18130	0	404
-0.433	3.498	6614	18146	0	404
1.370	5.914	6499	18176	1	820
4.075	8.222	6499	18010	0	820
5.914	10.566	6212	17468	0	820
4.147	9.989	5465	16624	0	820
1.911	9.340	5465	16083	0	820
-0.865	7.717	5465	16189	0	820
-1.370	9.160	5465	16715	0	820
-0.433	7.285	5637	17061	0	820
0.938	7.357	5465	16865	0	820
4.183	7.248	5063	16429	0	820
5.157	8.042	5063	16174	0	820
8.763	9.953	4890	16068	0	820
10.097	14.353	4603	15888	0	820
10.566	15.543	4201	15391	0	820
9.701	16.012	3741	14698	0	820
10.314	15.687	3339	14216	0	820
9.809	14.281	3051	14125	0	820
8.439	13.523	2764	14321	0	820
6.996	14.064	2591	14487	0	820
6.960	13.091	2304	14412	0	820
6.744	14.172	2017	14291	0	820
10.602	16.264	1902	14412	0	820
12.874	17.454	1729	14758	0	820
16.192	19.005	1729	15104	0	820
14.533	20.195	1614	15300	0	820
17.057	21.024	1442	15571	0	820
17.202	20.627	1902	16174	0	820
19.401	21.601	2304	17121	0	820
18.392	20.447	2879	18236	0	820
17.923	17.310	3339	19124	0	820
13.740	15.218	3741	19637	0	820
10.133	13.920	4028	19923	0	820
10.061	12.802	4603	20239	0	820
11.360	15.182	5063	20706	0	820
11.432	15.507	5465	21112	0	820
10.819	12.982	6212	21384	0	820
6.058	9.484	6499	21489	0	820
-1.479	3.390	6902	21444	0	820
-4.183	0.288	7362	21323	0	820
-3.029	-0.505	7476	21067	0	820
0.721	1.623	7936	20691	0	820
5.878	3.714	7936	20299	0	820
8.330	4.760	8224	19938	0	820
6.780	2.885	8511	19757	0	820
6.094	2.633	9373	19998	0	820
6.960	2.849	9775	20585	0	820
10.206	4.364	10522	20826	0	820
12.622	7.717	10350	20299	0	820
14.533	8.222	10350	19245	0	820
13.848	7.934	10350	18161	0	820
12.369	8.979	9948	17167	0	820
13.740	8.078	9775	16204	0	820
13.848	10.783	9201	15240	0	820
15.903	12.477	8913	14381	0	820
14.858	13.018	8626	13674	0	820
14.389	13.343	8339	13192	0	820
16.084	13.451	8224	12951	0	820
15.362	13.704	7764	12695	0	820
18.103	14.064	7476	12318	0	820
19.654	15.398	7189	12047	0	820
20.664	14.677	6787	12002	0	820
18.644	13.812	6787	12228	0	820
16.120	12.874	6614	12619	0	820
10.710	9.953	6614	12921	0	820
7.465	9.665	6614	13177	0	820
4.255	8.727	6787	13628	0	820
4.544	8.907	6902	14261	0	820
6.816	7.609	7189	15089	0	820
8.511	8.547	7764	16053	0	820
8.907	7.465	8224	17001	0	820
10.783	9.665	8798	17784	0	820
10.494	10.386	9201	18432	0	820
10.061	12.333	9775	18974	0	820
11.251	12.910	9948	19305	0	820
11.576	11.035	10350	19396	0	820
11.756	11.107	10522	19245	0	820
13.451	12.369	10350	18718	0	820
16.192	13.668	10350	18146	0	820
16.949	16.264	10810	18161	0	820
18.139	15.975	10810	18387	1	316
14.821	13.271	10235	17618	0	316
10.025	11.035	9488	15782	0	316
7.393	7.393	8626	14065	0	316
6.671	8.907	8224	13312	0	316
10.350	9.448	7936	13282	0	316
12.838	12.333	7936	13478	0	316
15.326	11.071	7476	13583	0	316
14.713	11.576	7476	13553	0	316
12.910	9.484	7189	13553	0	316
9.340	7.573	6902	13704	0	316
9.629	9.052	6902	13749	0	316
7.212	8.366	6212	13463	0	316
4.111	9.340	5925	13116	0	316
1.983	6.960	5752	13071	0	316
-0.829	4.400	5465	13388	0	316
-2.416	2.596	5752	14065	0	316
-1.442	1.767	6040	15074	0	316
-1.262	3.931	6327	16113	0	316
0.036	5.085	6614	16775	0	316
0.865	6.131	6327	16790	0	316
0.902	4.868	6327	16429	0	316
2.308	2.596	6327	16384	0	316
3.318	2.488	6212	16670	0	316
5.193	3.498	6499	17031	0	316
5.445	5.950	6614	17498	0	316
7.176	7.753	7189	18221	0	316
5.085	8.150	7764	19064	0	316
3.895	7.465	8339	19968	0	316
3.318	7.068	9373	20932	0	316
5.013	9.340	9948	21640	0	316
7.321	11.576	10350	21775	0	316
12.081	15.471	10810	21474	0	316
13.451	16.444	10925	21218	0	316
13.163	17.598	11384	21143	0	316
14.208	16.913	11959	21112	0	316
12.369	16.156	12074	20932	0	316
9.665	15.218	12362	20600	0	316
9.160	12.261	12534	20209	0	316
8.042	12.441	12936	19968	0	316
7.212	12.946	13396	19893	0	316
7.068	14.245	13511	19682	0	316
7.789	14.461	13683	19140	0	316
6.888	14.172	13511	18371	0	316
4.327	12.550	13396	17438	0	316
4.039	11.143	13224	16429	0	316
3.895	7.898	12649	15466	0	316
4.003	8.006	12247	14592	0	316
5.013	6.311	12074	14005	0	316
8.907	8.006	12074	13900	0	316
11.107	11.071	12247	14201	0	316
10.422	14.425	12362	14638	0	316
7.140	16.300	12534	14954	0	316
6.671	15.471	12821	15134	0	316
5.698	16.552	12936	15360	0	316
8.727	18.500	13224	15767	0	316
13.523	20.123	13683	16354	0	316
18.428	22.322	14086	16941	0	316
18.969	23.729	14660	17483	0	316
20.375	22.647	15120	17890	0	316
19.149	22.142	15522	18100	0	316
20.159	22.431	15695	18100	0	316
17.995	21.313	15695	17859	0	316
18.211	21.601	15695	17438	0	316
19.762	20.916	15695	16971	0	316
17.670	21.168	15695	16489	0	316
16.661	21.132	15522	16038	0	316
15.182	21.457	15407	15662	0	316
12.874	20.519	15235	15451	0	316
14.821	19.365	15235	15225	0	316
14.461	19.005	14833	14668	0	316
15.146	18.283	14373	13915	0	316
15.471	19.005	14258	13659	0	316
12.982	18.103	14373	14080	0	316
13.704	18.139	14660	14577	0	316
12.477	17.743	14373	14758	0	316
15.867	18.608	14373	14683	0	316
16.697	18.897	14258	14592	0	316
18.247	20.339	14258	14668	0	316
15.903	19.185	14258	14848	1	316
11.973	16.228	14258	14999	0	316
9.629	15.110	14086	15014	0	316
10.133	16.084	14086	14954	0	316
14.533	20.555	13798	14999	0	316
22.142	25.712	13971	15270	0	316
26.037	30.184	14086	15631	0	316
25.784	30.689	13798	15556	0	316
23.188	27.587	13109	14653	0	316
21.313	24.702	12362	13357	0	316
18.031	23.837	11672	12559	0	316
20.303	23.837	11097	12348	0	316
20.700	26.397	10637	12228	0	316
21.132	25.460	10235	12183	0	316
17.995	24.811	9775	12348	0	316
18.644	22.034	9660	12484	0	316
17.743	20.916	9086	12559	0	316
20.123	22.214	9086	12830	0	316
24.739	25.424	8798	13403	0	316
25.099	26.109	8798	13884	0	316
25.893	25.027	8224	13960	0	316
24.702	22.142	7936	13749	0	316
21.132	19.329	7476	13749	0	316
20.014	17.779	7362	14065	0	316
20.519	17.815	6902	14412	0	316
18.283	17.021	6614	14502	0	316
19.005	17.021	6212	14336	0	316
16.733	14.569	5637	14201	0	316
18.103	14.605	5465	14291	0	316
17.562	14.317	5350	14622	0	316
20.555	14.749	4890	15014	0	316
19.149	13.487	4775	15180	0	316
17.166	12.802	4316	15104	0	316
11.323	10.746	4028	15059	0	316
9.629	7.753	3741	15360	0	316
10.602	10.097	3913	15918	0	316
12.658	13.054	3913	16429	0	316
18.933	18.680	4028	16971	0	316
21.529	22.647	4201	17679	0	316
23.008	26.217	4775	18597	0	316
22.250	24.450	5178	19591	0	316
22.214	22.935	5637	20374	0	316
21.673	20.736	6212	20947	0	316
17.779	18.320	6787	21459	0	316
16.372	14.028	7189	21971	0	316
11.287	11.360	7936	22377	0	316
6.275	7.934	8224	22573	0	316
3.931	6.744	8798	22573	0	316
2.488	6.131	9086	22498	0	316
1.154	6.094	9488	22423	0	316
1.226	4.147	10063	22362	0	316
2.128	1.731	10235	22137	0	316
3.967	0.072	10350	21549	0	316
7.212	0.685	10235	20540	0	316
7.970	1.803	9775	19305	0	316
10.710	3.895	9660	18070	0	316
10.133	5.626	9086	16986	0	316
9.124	5.626	8913	16144	0	316
6.708	5.878	8511	15421	0	316
5.554	4.436	8224	14743	0	316
4.147	5.734	7649	14125	0	316
5.770	6.131	7649	13794	0	316
9.665	7.176	7476	13869	0	316
10.638	9.448	7476	14035	0	316
11.973	9.737	7074	13884	0	316
11.251	9.556	6902	13433	0	316
12.117	13.235	6499	13071	0	316
16.480	15.687	6327	13101	0	316
19.798	19.510	6327	13403	0	316
23.693	21.854	6212	13749	0	316
23.476	23.657	6212	13975	0	316
21.781	22.467	6040	14020	0	316
19.978	21.709	5350	13644	0	316
17.129	19.185	4890	13041	0	316
17.382	18.247	4603	12830	0	316
15.507	15.975	4316	13071	0	316
12.441	12.730	4028	13433	0	316
7.970	9.088	4201	13915	0	316
6.094	4.544	4316	14577	0	316
5.085	0.072	4603	15330	1	316
6.347	-1.298	4603	15978	0	316
11.071	0.829	4890	16444	0	316
11.215	2.741	5063	16850	0	316
9.953	5.229	5178	17272	0	316
11.864	7.393	5465	17754	0	316
13.523	10.025	5637	18055	0	316
16.913	11.396	5350	17829	0	316
22.791	15.939	5063	17091	0	316
21.601	18.428	4488	16219	0	316
20.555	20.195	4028	15466	0	316
19.293	20.519	3339	14863	0	316
17.851	20.267	3051	14397	0	316
20.700	20.447	2591	14065	0	316
20.880	22.972	2304	13960	0	316
22.827	25.279	2189	14125	0	316
21.673	27.515	2304	14818	0	316
25.135	28.958	2591	16023	0	316
27.876	30.256	3453	17287	0	316
30.328	28.741	3913	18221	0	316
33.466	29.391	4201	18733	0	316
30.833	26.578	4488	19079	0	316
26.794	22.214	4775	19441	0	316
21.818	18.788	5465	19923	0	316
18.608	14.930	5925	20465	0	316
15.074	12.369	6212	20826	0	316
14.461	10.674	6787	20902	0	316
13.091	9.052	6902	20856	0	316
10.530	8.258	7476	20887	0	316
11.432	8.366	7764	20902	0	316
13.091	10.783	8224	20751	0	316
15.398	13.631	8339	20465	0	316
19.221	16.408	8798	20239	0	316
17.706	16.985	9086	20209	0	316
15.146	14.172	9660	20329	0	316
10.386	10.386	10063	20480	0	316
7.176	6.888	10522	20495	0	316
10.278	5.445	10810	20149	0	316
15.254	5.878	10925	19576	0	316
20.050	7.898	11097	19034	0	316
22.791	8.150	11212	18492	0	316
22.467	7.789	11097	17874	0	316
17.454	8.078	11097	17317	0	316
17.598	7.285	11212	16760	0	316
16.228	9.016	10925	16144	0	316
18.031	9.592	10637	15436	0	316
17.057	10.350	10350	14622	0	316
19.762	10.963	9660	13644	0	316
19.437	11.864	9086	12514	0	316
20.447	13.343	8224	11354	0	316
22.683	14.208	7649	10526	0	316
21.926	14.713	7074	10210	0	316
24.342	13.668	6902	10330	0	316
22.899	12.333	6327	10496	0	316
23.188	12.514	6040	10511	0	316
21.313	11.937	5637	10541	0	316
17.238	11.360	5178	10767	0	316
14.677	9.917	5178	11204	0	316
10.566	7.825	5178	11791	0	316
8.366	6.780	5063	12454	0	316
11.179	7.681	5063	13162	0	316
11.648	10.350	5350	14005	0	316
12.694	12.694	5637	14984	0	316
15.471	13.343	5925	16038	0	316
13.704	14.245	6327	16896	0	316
15.579	14.208	6499	17498	0	316
16.841	14.966	7074	18100	0	316
18.500	16.444	7649	18914	0	316
16.733	16.048	8051	19847	0	316
16.589	13.127	8798	20615	0	316
13.848	10.061	9201	21112	0	316
11.900	7.032	9775	21474	0	316
10.963	6.131	10350	21730	0	316
12.261	9.665	10810	21926	0	316
12.802	13.199	11384	22152	0	316
17.743	17.129	11959	22182	0	316
18.428	18.247	11959	21549	0	316
20.988	17.562	11672	20390	0	316
17.598	13.848	11499	19305	0	316
16.805	12.297	11672	18567	0	316
13.235	13.271	11384	18040	1	320
13.740	13.812	11212	17528	0	320
15.182	17.634	11097	16715	0	320
18.644	18.788	10637	15827	0	320
20.664	19.041	10810	15541	0	320
20.375	16.336	11212	15918	0	320
16.156	13.307	11212	16264	0	320
11.432	7.862	11212	16204	0	320
7.393	3.065	11384	15903	0	320
6.635	2.849	11097	15556	0	320
8.439	5.517	10925	15270	0	320
11.937	9.520	11097	15104	0	320
12.694	12.730	10925	15014	0	320
9.448	12.153	10810	14999	0	320
7.068	9.917	11097	15089	0	320
4.255	9.160	10925	15255	0	320
6.599	12.946	10925	15330	0	320
13.379	18.824	11097	15345	0	320
19.690	25.099	10925	15240	0	320
23.008	25.604	10810	15104	0	320
23.621	24.811	10925	15134	0	320
18.392	20.988	10925	15360	0	320
15.975	16.985	11097	15662	0	320
12.694	13.812	11097	15722	0	320
12.297	10.783	10522	15195	0	320
12.622	8.583	9948	14321	0	320
11.035	6.167	9948	13824	0	320
11.864	6.671	9488	13930	0	320
9.917	7.898	9660	14216	0	320
7.357	6.599	9373	14381	0	320
6.888	5.373	9086	14156	0	320
3.787	2.885	8339	13523	0	320
3.967	3.101	8224	13222	0	320
6.022	5.157	8339	13960	0	320
9.809	9.412	9086	15466	0	320
9.484	11.071	9660	16760	0	320
9.989	10.242	9775	17347	0	320
9.160	7.140	9948	17468	0	320
11.468	7.537	10063	17588	0	320
15.867	8.511	10235	17814	0	320
22.214	12.658	10522	18055	0	320
25.171	15.146	10637	18281	0	320
22.827	13.812	10925	18447	0	320
20.844	11.612	11097	18552	0	320
18.428	10.494	11212	18658	0	320
16.697	8.475	11499	18823	0	320
19.365	9.304	11787	18884	0	320
19.654	7.862	11787	18703	0	320
19.834	7.285	11787	18387	0	320
16.733	4.832	12074	18146	0	320
15.651	4.255	12074	18055	0	320
13.776	5.445	12074	18010	0	320
15.435	6.239	12074	17769	0	320
16.733	7.429	12247	17362	0	320
17.634	9.376	12074	17152	0	320
17.815	9.520	12362	17227	0	320
17.093	11.035	12534	17438	0	320
18.860	12.874	12649	17393	0	320
22.214	14.317	12362	16911	0	320
23.981	15.507	12074	16159	0	320
24.739	14.533	11787	15541	0	320
20.700	13.235	11787	15165	0	320
18.175	11.468	11384	14803	0	320
17.851	10.855	11097	14427	0	320
18.464	12.009	10925	14141	0	320
22.683	12.910	10522	13915	0	320
22.467	14.641	10522	13990	0	320
18.644	14.569	10925	14653	0	320
12.009	14.317	11097	15481	0	320
8.691	14.785	10925	15647	0	320
6.203	14.461	10637	15089	0	320
6.491	14.677	10063	14276	0	320
8.402	14.461	9488	13598	0	320
9.268	12.333	9086	13056	0	320
9.773	11.035	7936	12168	0	320
11.071	8.150	6787	10752	0	320
13.704	8.006	5637	9487	0	320
17.670	8.943	4890	9125	0	320
17.779	12.838	4603	9592	0	320
19.041	15.218	4316	10406	0	320
17.129	18.031	4028	11204	0	320
18.103	18.860	3741	11836	0	320
16.336	17.779	3741	12484	0	320
18.644	17.238	3741	13267	0	320
18.067	16.084	3626	14050	0	320
17.418	14.497	3339	14517	0	320
15.795	13.271	2879	14653	0	320
17.166	13.379	2879	14878	0	320
15.398	13.740	3051	15451	0	320
16.480	12.225	3166	16339	0	320
13.848	11.576	3339	17272	0	320
13.992	10.638	3453	18055	0	320
14.785	9.520	4028	18703	0	320
15.615	11.612	4316	19275	0	320
17.093	12.405	4603	19832	0	320
16.625	11.540	4890	20344	0	320
14.605	10.097	5178	20721	0	320
12.009	7.717	5637	20992	0	320
15.254	10.530	5925	21203	0	320
17.851	13.920	6212	21248	0	320
24.378	18.428	6327	21067	0	320
26.722	23.116	6212	20721	0	320
26.289	24.414	6327	20088	0	320
22.719	23.981	5752	19140	0	320
17.021	23.152	5465	18055	0	320
13.595	20.123	5063	17061	0	320
11.684	16.336	4603	16369	0	320
10.061	12.009	4316	16083	0	320
13.343	8.222	4488	16083	0	320
14.389	7.321	4316	15948	0	320
16.120	5.986	3913	15481	0	320
14.569	7.573	3453	15044	0	320
10.494	8.511	3626	14999	0	320
9.520	10.386	3626	15345	0	320
9.196	9.737	3626	15677	0	320
10.783	9.484	3453	15722	0	320
14.172	8.907	3626	15707	0	320
13.127	9.016	3626	15872	0	320
10.783	7.465	3626	16053	0	320
11.432	8.475	3453	16038	0	320
11.973	7.573	3339	15978	0	320
13.415	8.727	3626	16128	0	320
17.129	9.304	3913	16579	0	320
16.120	11.540	4316	17287	0	320
18.428	12.153	4775	18176	0	320
17.129	12.045	5637	19124	0	320
19.437	13.559	6212	19998	0	320
19.401	13.127	6787	20706	0	320
19.762	12.622	7764	21323	0	320
15.939	11.035	8339	21880	0	320
14.785	7.934	9086	22227	0	320
11.468	7.970	9488	22257	0	320
11.143	8.078	10235	22076	0	320
12.514	9.052	10350	21775	0	320
10.855	9.124	10810	21474	0	320
9.052	7.537	11672	21564	0	320
7.285	4.977	12362	21971	1	544
5.373	3.065	12821	22046	0	544
7.537	4.327	12936	21338	0	544
8.907	5.085	13109	20164	0	544
12.369	7.212	13224	19124	0	544
12.369	7.248	13109	18417	0	544
11.973	5.373	13109	17769	0	544
12.982	4.364	12821	16865	0	544
12.225	6.960	12362	15647	0	544
12.441	8.475	12074	14427	0	544
14.966	12.694	11499	13508	0	544
15.795	12.838	11384	12981	0	544
17.887	10.422	11212	12740	0	544
17.382	8.258	11097	12665	0	544
16.985	6.888	11097	12830	0	544
14.425	8.366	11384	13312	0	544
10.746	11.251	11499	13854	0	544
12.477	16.084	11672	14216	0	544
12.946	17.995	11787	14351	0	544
14.677	19.690	11787	14381	0	544
16.480	17.490	11787	14457	0	544
14.389	15.290	11959	14803	0	544
13.054	12.297	12362	15345	0	544
13.451	12.333	12534	15797	0	544
13.307	13.920	12649	16068	0	544
15.074	15.795	12936	16369	0	544
13.343	16.697	13396	16790	0	544
11.143	14.100	13798	17212	0	544
7.429	9.196	13971	17423	0	544
4.977	4.075	14086	17453	0	544
4.580	-0.036	14373	17453	0	544
3.354	0.000	14373	17393	0	544
6.563	0.938	14373	17152	0	544
6.419	2.921	14373	16880	0	544
7.176	5.193	14545	16730	0	544
6.383	5.265	14660	16594	0	544
4.868	5.229	14086	16053	0	544
3.390	2.813	13683	15180	0	544
5.337	2.272	13224	14306	0	544
5.373	1.875	12362	13297	0	544
7.032	3.678	11499	11972	0	544
6.131	5.481	10350	10616	0	544
5.914	4.832	9201	9502	0	544
6.455	5.085	8626	8884	0	544
11.396	4.940	7764	8884	0	544
14.858	7.104	7649	9381	0	544
15.543	9.160	7476	10165	0	544
15.326	9.773	6902	10857	0	544
10.891	9.412	6499	11038	0	544
6.924	7.934	5752	10842	0	544
8.979	8.042	5465	10948	0	544
8.763	10.025	5350	11595	0	544
9.376	9.052	5063	12469	0	544
8.691	8.799	5178	13418	0	544
9.196	7.501	5465	14532	0	544
10.422	8.475	5752	15903	0	544
13.956	11.215	6614	17453	0	544
20.050	15.038	7362	19004	0	544
20.591	14.749	7936	20390	0	544
19.437	13.668	8913	21564	0	544
14.281	8.475	9660	22634	0	544
12.081	7.140	10522	23567	0	544
11.468	7.717	11384	24200	0	544
12.874	11.468	11959	24486	0	544
16.444	13.127	12534	24576	0	544
14.677	13.199	13109	24561	0	544
13.163	12.081	13798	24516	0	544
12.297	10.386	14660	24772	0	544
11.251	11.504	15522	25239	0	544
14.858	12.766	16270	25254	0	544
14.677	11.648	16498	24411	0	544
15.110	9.412	16498	23115	0	544
13.343	8.078	16498	21850	0	544
10.097	7.537	16498	20766	0	544
9.376	8.439	16498	19802	0	544
8.583	9.953	16498	18914	0	544
10.963	10.314	16270	17965	0	544
12.550	10.638	16097	16926	0	544
14.894	12.297	15982	15993	0	544
12.838	12.153	15810	15330	1	316
12.225	13.523	15695	14833	0	316
11.648	13.091	15407	14291	0	316
10.963	13.523	15235	13794	0	316
14.317	13.343	15120	13433	0	316
15.795	12.658	14948	13237	0	316
13.559	10.855	14660	13041	0	316
12.694	10.783	14373	12650	0	316
9.268	12.369	13971	12168	0	316
9.665	14.858	13798	11866	0	316
14.858	18.716	13396	11836	0	316
18.536	20.988	13109	11897	0	316
24.847	23.152	12936	11912	0	316
24.342	23.044	12649	11957	0	316
21.998	24.053	12649	12198	0	316
19.437	21.709	12534	12680	0	316
15.074	20.483	12534	13192	0	316
16.733	20.123	12074	13297	0	316
16.769	20.411	11672	12830	0	316
20.555	21.168	10925	12153	0	316
19.654	20.591	10522	11836	0	316
19.041	18.644	10235	11957	0	316
14.821	16.084	9948	12288	0	316
13.235	13.451	9948	12725	0	316
13.127	14.208	9488	13252	0	316
13.163	15.507	9488	13689	0	316
15.326	15.471	9488	14080	0	316
12.477	15.218	9373	14668	0	316
9.088	14.785	9660	15451	0	316
7.068	12.874	9660	15993	0	316
6.311	13.595	9488	16264	0	316
8.619	13.559	9775	16609	0	316
13.127	13.595	9948	17242	0	316
14.533	11.179	10350	18010	0	316
12.477	9.665	10637	18688	0	316
10.638	7.898	10925	19155	0	316
7.068	6.960	11212	19380	0	316
6.203	7.681	11384	19441	0	316
7.681	7.357	11499	19501	0	316
11.287	9.340	11787	19591	0	316
14.172	8.583	11672	19516	0	316
14.605	10.133	11672	19215	0	316
15.651	8.691	11787	18944	0	316
13.415	7.681	12247	18929	0	316
9.701	4.832	12362	19230	0	316
10.278	4.508	12821	19652	0	316
12.694	3.895	13109	19908	0	316
14.136	4.616	13511	19953	0	316
19.510	5.662	13971	19908	0	316
20.555	8.547	14086	19802	0	316
21.673	9.629	14086	19426	0	316
21.890	12.982	14086	18853	0	316
21.132	16.300	14086	18387	0	316
21.060	15.471	14258	18055	0	316
17.634	14.641	14258	17769	0	316
16.733	11.828	14545	17513	0	316
15.146	9.917	14258	17182	0	316
14.749	8.402	14258	16760	0	316
12.946	8.691	14258	16444	0	316
13.307	7.825	14258	16279	0	316
9.629	7.717	14086	16083	0	316
7.429	5.878	13971	15722	0	316
6.094	4.904	13798	15134	0	316
8.475	8.547	13224	14427	0	316
11.215	11.071	12649	13644	0	316
15.471	14.966	12074	12815	0	316
18.680	16.805	11672	12183	0	316
17.706	16.120	11212	11942	0	316
15.471	14.281	10810	11972	0	316
13.163	11.323	10522	11912	0	316
11.756	11.143	9775	11595	0	316
13.271	12.153	9373	11324	0	316
12.261	11.684	9201	11384	0	316
14.281	12.586	8798	11731	0	316
14.028	11.071	8626	12213	0	316
12.586	6.996	8339	12650	0	316
12.730	5.085	8511	13147	0	316
10.855	2.452	8339	13900	0	316
8.835	3.282	8913	14924	0	316
8.150	4.580	9086	16038	0	316
8.475	8.366	9660	16986	0	316
10.819	9.448	9775	17724	0	316
11.648	10.855	10235	18341	0	316
12.153	8.258	10637	18868	0	316
11.540	6.275	10810	19290	0	316
12.982	6.455	10810	19350	0	316
18.139	8.655	10522	18582	0	316
22.070	12.477	9660	17106	0	316
24.594	15.471	9086	15812	0	316
25.929	15.398	8339	15104	0	316
24.017	14.749	8051	14788	0	316
25.893	16.192	7649	14668	0	316
28.164	16.985	7649	14622	0	316
29.895	19.005	6902	14351	0	316
27.479	17.634	6787	14035	0	316
25.388	16.300	6614	14366	0	316
23.008	13.199	7074	15375	0	316
23.260	12.081	7362	16279	0	316
22.034	11.828	7189	16640	0	316
22.106	10.242	7362	16670	0	316
17.166	7.501	7189	16685	0	316
14.064	6.167	7362	16941	0	316
12.441	4.039	7476	17438	0	316
13.595	5.409	7764	17874	0	316
14.785	5.445	7936	18115	0	316
14.064	5.554	8051	18236	0	316
15.254	8.006	8051	18326	0	316
14.641	7.789	8339	18387	0	316
16.661	10.963	8339	18462	0	316
16.192	14.136	8626	18522	0	316
16.877	15.326	8626	18537	0	316
14.245	14.677	8913	18612	0	316
13.668	13.884	9201	18868	0	316
12.550	12.838	9660	19185	0	316
13.956	9.881	9775	19335	0	316
16.697	10.638	9948	19275	0	316
16.625	9.773	10350	19140	0	316
17.743	9.701	10522	19140	0	316
15.002	9.340	11097	19320	0	316
15.146	8.943	11097	19365	0	316
14.858	10.169	11384	19215	0	316
17.634	11.287	11672	19064	0	316
20.916	13.848	12074	19004	0	316
23.981	16.589	12247	19064	0	316
22.611	16.300	12821	19350	0	316
24.450	14.028	13396	19742	0	316
23.404	13.704	13971	19862	0	316
20.195	11.720	14086	19652	0	316
18.103	11.396	14258	19275	0	316
13.451	9.520	14373	18763	0	316
13.812	7.898	14373	18221	0	316
13.956	5.193	14373	17739	0	316
14.749	5.193	14545	17347	0	316
17.779	6.563	14545	16956	0	316
16.228	8.583	14660	16730	0	316
16.949	11.107	15120	16760	0	316
17.057	10.638	15235	16865	0	316
18.536	10.422	15407	16820	0	316
16.552	6.924	15407	16579	0	316
15.579	1.262	15407	16219	0	316
12.081	-1.767	15407	15888	0	316
13.631	-2.885	15522	15677	0	316
13.956	-0.938	15522	15571	0	316
15.831	1.911	15522	15436	0	316
17.743	5.590	15522	15225	0	316
16.480	6.527	15522	15104	0	316
17.959	7.321	15695	15195	0	316
17.779	8.186	15810	15406	0	316
21.673	8.619	15810	15451	0	316
22.863	11.396	15982	15360	0	316
25.027	13.920	15982	15315	0	316
26.145	15.471	15982	15406	0	316
27.551	17.310	16270	15631	0	316
25.856	15.795	16270	15842	0	316
25.965	14.389	16097	15586	0	316
25.099	14.425	15810	14818	0	316
22.972	14.425	15407	14171	0	316
21.709	13.956	15235	13900	0	316
18.428	11.576	14833	13749	0	316
13.415	9.989	14545	13493	0	316
12.622	8.583	13971	12996	0	316
13.018	9.088	13396	12333	0	316
15.507	12.045	12821	11881	0	316
18.320	12.225	12534	11746	0	316
18.644	11.287	12074	11806	0	316
19.582	9.268	11787	11972	0	316
18.283	6.852	11212	12017	0	316
17.706	5.265	11097	11972	0	316
15.759	5.013	10637	12183	0	316
14.208	3.750	10522	12710	0	316
11.540	2.416	10522	13222	0	316
12.586	1.334	9948	13372	0	316
13.451	2.200	9775	13357	0	316
15.615	3.390	9488	13553	0	316
18.969	6.239	9373	14110	0	316
17.490	6.924	9660	14878	0	316
17.274	5.049	9660	15707	0	316
12.477	3.173	9948	16414	0	316
12.477	1.911	10063	17121	0	316
12.694	3.498	10522	17950	0	316
15.579	5.842	11212	18944	0	316
16.661	7.357	11672	19998	0	316
12.838	5.409	12074	20721	0	316
8.222	1.875	12821	21082	0	316
3.859	-1.731	13109	21414	0	316
2.019	-3.282	13683	21850	0	316
3.065	-3.714	14373	22302	0	316
4.436	-3.606	14948	22724	0	316
5.698	-1.839	15695	23100	0	316
6.671	-2.416	16384	23311	0	316
9.665	1.695	16958	23281	0	316
12.838	5.950	17361	23055	0	316
14.713	10.819	17648	22679	0	316
16.552	14.858	18108	22182	0	316
15.290	15.074	18223	21579	1	776
12.982	14.749	18108	20600	0	776
12.874	12.982	17820	19215	0	776
11.504	12.153	17246	17649	0	776
11.576	12.982	16671	16113	0	776
11.612	12.117	15982	14607	0	776
10.566	10.566	15120	13177	0	776
10.530	10.169	14258	11821	0	776
13.163	10.710	13511	10782	0	776
15.038	11.900	12821	10180	0	776
19.113	13.054	12074	9638	0	776
18.933	15.723	11212	8854	0	776
19.113	15.362	10235	8162	0	776
15.290	14.497	9775	8131	0	776
14.100	13.379	9488	8764	0	776
10.891	10.566	9373	9683	0	776
8.835	8.835	9373	10631	0	776
10.097	11.648	9201	11535	0	776
11.323	14.172	9488	12514	0	776
13.343	17.706	9775	13674	0	776
16.625	19.582	10235	15014	0	776
16.264	18.139	10810	16354	0	776
16.805	16.769	11097	17362	0	776
16.012	15.723	11499	18115	0	776
14.749	13.776	12247	18853	0	776
15.398	13.091	12649	19727	0	776
13.235	11.973	13224	20540	0	776
13.668	11.864	13683	21082	0	776
13.307	12.153	14258	21429	0	776
11.107	11.828	14660	21730	0	776
10.422	11.215	15522	22046	0	776
10.819	9.412	15982	22347	0	776
12.153	9.809	16384	22453	0	776
15.867	10.494	16786	22347	0	776
16.048	12.189	16958	22046	0	776
15.471	11.323	17073	21338	0	776
13.379	9.268	16958	20254	0	776
8.835	5.986	16786	19079	0	776
7.393	5.301	16384	17920	0	776
6.599	6.924	15982	16745	0	776
7.465	10.314	15407	15571	0	776
8.042	15.182	14833	14412	0	776
10.530	16.300	14086	13478	0	776
11.071	17.815	13798	12966	0	776
13.163	18.031	13511	12830	0	776
15.687	17.923	13109	12710	0	776
19.149	17.779	12649	12318	0	776
21.349	17.887	12649	12138	0	776
20.916	17.959	12362	12484	0	776
22.395	17.851	12534	13071	0	776
21.637	18.824	12534	13568	0	776
21.529	19.834	12649	13945	0	776
23.116	21.132	12534	14276	0	776
22.214	20.916	12649	14728	0	776
23.080	21.565	12936	15436	0	776
25.568	20.231	13396	16339	0	776
23.945	19.257	13511	16880	0	776
22.431	16.300	13224	16579	0	776
18.824	14.100	12821	15797	0	776
13.848	11.720	12534	15391	0	776
9.340	6.816	12649	15511	0	776
8.979	4.652	12362	15692	0	776
8.186	0.757	12247	15662	0	776
7.429	-1.262	11672	15134	0	776
7.970	-0.613	11212	14291	0	776
8.547	0.757	10637	13749	0	776
8.150	3.318	10350	13659	0	776
7.753	3.426	10235	13719	0	776
8.042	3.642	9775	13794	0	776
8.294	3.029	9488	13704	0	776
10.025	4.255	8913	13538	0	776
12.730	6.131	8626	13463	0	776
15.435	7.248	7764	13071	0	776
19.473	9.484	6902	12138	0	776
20.519	8.691	5925	11189	0	776
22.647	10.025	5063	10647	0	776
22.899	9.592	4488	10556	0	776
20.483	12.081	3913	10933	0	776
18.428	13.343	3913	11716	0	776
14.245	14.028	3741	12695	0	776
13.595	15.687	3913	13719	0	776
11.540	15.687	4201	15029	0	776
13.992	15.507	4603	16564	0	776
13.487	14.533	5350	18040	0	776
12.802	14.208	6040	19320	0	776
13.163	13.415	6499	20405	0	776
10.674	13.054	7362	21368	0	776
8.475	13.163	7936	22302	0	776
9.268	14.894	8913	23221	0	776
9.701	14.317	9488	23914	0	776
10.999	14.605	10063	24049	0	776
10.891	12.622	9775	23296	0	776
11.107	11.937	9660	22046	0	776
8.150	9.809	9775	21188	0	776
7.862	9.773	9948	20962	0	776
9.881	10.278	10350	20856	1	380
13.992	11.756	10350	20721	0	380
15.543	13.812	10925	20721	0	380
18.680	15.254	11499	20887	0	380
16.697	16.336	11959	21127	0	380
16.444	14.894	12649	21534	0	380
16.769	13.668	13511	22076	0	380
19.726	12.153	14258	22302	0	380
20.519	12.441	14373	21880	0	380
23.512	12.045	14833	21022	0	380
20.123	13.343	14833	20194	0	380
17.995	11.720	14948	19501	0	380
13.487	11.287	14833	18718	0	380
13.920	10.927	14545	17618	0	380
14.966	11.179	14258	16384	0	380
20.447	13.848	13971	15451	0	380
24.666	16.120	13971	15029	0	380
27.876	16.769	14086	14969	0	380
26.037	16.264	13971	14969	0	380
22.863	13.920	14086	14878	0	380
18.211	12.694	14373	14999	0	380
17.346	11.792	14660	15406	0	380
16.589	13.127	14948	15752	0	380
21.060	12.369	14948	15767	0	380
20.700	11.035	14948	15496	0	380
21.637	7.176	14948	15210	0	380
17.093	6.094	14948	15029	0	380
16.372	5.229	15235	15029	0	380
14.461	6.888	15120	15150	0	380
16.841	10.025	15120	15134	0	380
17.310	9.881	15120	14894	0	380
18.680	8.763	14948	14653	0	380
16.408	6.960	14948	14683	0	380
16.372	6.599	15120	14939	0	380
15.939	7.248	15120	15150	0	380
17.887	9.484	15120	15210	0	380
18.211	12.081	15235	15270	0	380
19.870	13.956	15407	15391	0	380
20.627	14.533	15407	15616	0	380
23.296	14.749	15695	15872	0	380
22.755	14.930	15522	15872	0	380
22.034	12.297	15407	15375	0	380
21.565	10.710	14545	14472	0	380
16.949	9.088	13971	13448	0	380
18.211	9.196	13396	12695	0	380
17.526	9.268	12821	12333	0	380
18.644	11.648	12362	12138	0	380
18.175	15.507	12074	12002	0	380
19.293	18.211	11672	12032	0	380
16.697	20.483	11384	12243	0	380
17.959	22.611	11384	12665	0	380
16.769	21.529	11384	13312	0	380
19.690	21.457	11384	14020	0	380
20.483	19.293	11499	14577	0	380
22.539	18.897	11499	15074	0	380
23.044	17.923	11499	15601	0	380
21.529	17.634	11499	15978	0	380
21.132	17.851	11672	16159	0	380
22.214	18.067	11499	16309	0	380
18.572	16.985	11672	16730	0	380
18.897	17.274	12247	17543	0	380
16.516	16.552	12649	18597	0	380
16.156	17.779	13511	19757	0	380
16.841	18.788	14086	20585	0	380
20.988	20.375	14086	20570	0	380
21.457	21.132	13971	19847	0	380
24.522	21.565	14086	19185	0	380
25.207	21.529	14086	18974	0	380
23.044	21.709	14373	19155	0	380
22.647	23.116	14833	19591	0	380
22.178	21.565	15407	20028	0	380
19.401	20.231	15810	20359	0	380
18.860	17.454	16384	20691	0	380
15.002	15.290	17073	21112	0	380
13.415	15.146	17648	21429	0	380
10.097	13.776	17820	21082	0	380
9.196	12.586	17648	20118	0	380
10.602	7.212	17935	19426	0	380
10.206	5.013	18395	19561	0	380
10.206	3.210	19257	20194	0	380
9.592	4.219	19659	20525	0	380
9.592	5.085	19832	20118	0	380
8.943	4.977	19947	19275	0	380
7.970	2.921	19947	18552	0	380
5.590	0.505	20234	18130	0	380
4.400	-1.010	20521	18010	0	380
1.983	-1.370	20809	18085	0	380
2.669	0.649	21096	18146	0	380
6.347	2.813	21843	18266	0	380
9.773	4.868	22246	18552	0	380
10.242	5.914	22705	18808	0	380
11.864	5.950	23280	18808	0	380
12.477	5.662	23395	18537	0	380
13.163	7.068	23855	18161	0	380
16.625	8.691	23970	17784	0	380
18.211	9.737	24142	17543	0	380
19.762	10.133	24429	17377	0	380
19.654	10.422	24429	16986	0	380
20.483	9.556	24257	16144	0	380
20.519	12.261	23280	14653	0	380
20.988	12.838	22705	12891	0	380
22.935	15.398	21843	11610	0	380
18.680	14.569	21556	11083	0	380
17.454	13.812	21269	11023	0	380
12.658	12.910	21096	11249	0	380
11.360	10.927	20981	11625	0	380
10.638	11.071	21096	12032	0	380
11.576	10.530	21096	12378	0	380
11.287	7.970	20981	12665	0	380
10.674	6.491	20809	12830	0	380
9.737	5.734	20521	12695	0	380
9.124	7.609	20234	12484	0	380
12.766	11.432	20234	12906	0	380
14.136	14.172	20521	13809	0	380
13.559	16.084	20694	14472	0	380
15.687	14.713	20694	14818	0	380
15.074	13.271	20521	15089	0	380
17.346	14.172	20521	15255	0	380
19.726	16.589	20521	15345	0	380
25.027	17.923	20406	15421	0	380
24.450	21.241	20119	15466	0	380
23.765	21.313	20234	15406	0	380
22.286	19.473	20119	15360	0	380
19.654	17.562	19947	15466	0	380
18.680	15.903	19947	15782	0	380
19.582	15.110	20119	16234	0	380
17.346	15.254	20234	16624	0	380
16.769	15.903	20521	16971	0	380
12.477	13.451	20694	17408	0	380
8.006	10.602	21269	18055	0	380
6.094	8.294	21671	18718	0	380
5.121	7.248	21843	19094	0	380
5.373	7.825	22131	19215	0	380
6.203	6.708	22533	19320	0	380
6.167	7.357	22705	19471	0	380
4.544	7.537	23108	19546	0	380
5.445	9.881	23280	19471	0	380
6.527	13.668	23108	19215	0	380
6.924	15.615	23395	18823	0	380
8.258	16.012	22993	18161	0	380
6.960	14.172	22820	17317	0	380
4.075	11.396	22820	16820	0	380
5.013	11.179	22705	16745	0	380
4.003	13.018	22705	16564	0	380
5.193	13.595	22246	16023	0	380
7.934	15.867	22131	15375	0	380
9.088	16.084	21843	14818	0	380
12.081	16.372	21096	14186	0	380
15.110	17.093	20119	12875	0	380
15.975	19.834	18682	10842	0	380
18.860	21.349	17246	8990	0	380
18.320	21.962	16097	7951	0	380
20.087	23.332	15235	7665	0	380
18.500	24.306	14833	7996	0	380
21.277	25.243	14545	8809	0	380
19.437	26.181	14258	9773	0	380
20.411	25.568	14258	10601	0	380
20.700	25.856	13396	10918	0	380
20.988	25.207	12821	10767	0	380
20.844	26.001	12247	10782	0	380
17.743	24.089	11959	11219	0	380
16.913	20.195	11499	11927	0	380
12.153	15.687	11499	12830	0	380
9.809	12.405	11499	13945	0	380
7.285	10.530	11959	15165	0	380
6.888	13.271	12074	16309	0	380
7.573	14.136	12362	17377	0	380
11.684	15.723	12649	18326	0	380
16.120	16.661	13396	19260	0	380
19.185	16.444	13683	20284	0	380
22.070	17.743	14258	21218	0	380
21.926	18.860	14545	21609	0	380
17.021	17.995	14545	21323	0	380
13.343	15.362	14545	20932	0	380
6.960	12.586	14660	20841	0	380
3.426	7.970	14833	20781	0	380
3.859	5.914	15120	20615	1	704
6.275	5.193	14948	20435	0	704
8.979	5.626	15235	20374	0	704
9.376	5.626	15407	20374	0	704
7.573	5.878	15522	20239	0	704
6.311	4.436	15695	19983	0	704
4.508	6.671	15695	19621	0	704
7.248	6.563	15522	18989	0	704
10.422	9.917	15235	18161	0	704
11.504	11.107	15120	17573	0	704
11.468	11.756	15120	17423	0	704
11.684	10.891	15407	17468	0	704
11.504	11.864	15407	17423	0	704
12.225	13.848	15235	17197	0	704
16.444	15.615	15235	16971	0	704
15.975	16.769	15407	16896	0	704
17.887	17.093	15522	16850	0	704
17.202	15.795	15407	16670	0	704
17.887	14.533	15235	16414	0	704
15.507	12.514	15407	16249	0	704
16.012	11.973	15407	16264	0	704
13.668	8.943	15695	16519	0	704
15.254	7.357	15810	16865	0	704
13.992	4.616	15982	16986	0	704
13.920	4.688	16097	16911	0	704
17.670	6.960	16097	16850	0	704
19.473	11.684	16384	16971	0	704
22.791	16.048	16671	17257	0	704
23.765	18.356	16958	17649	0	704
20.555	16.408	17361	18010	0	704
18.788	14.749	17648	18266	0	704
15.002	14.461	17935	18447	0	704
16.228	15.975	18395	18612	0	704
14.064	17.743	18510	18673	0	704
14.208	17.346	18682	18417	0	704
11.792	13.271	18395	17588	0	704
9.701	8.619	17820	16339	0	704
6.563	5.013	17073	14954	0	704
7.032	3.246	16498	13764	0	704
6.094	5.229	15982	12966	0	704
7.717	5.986	15522	12559	0	704
9.448	9.052	15120	12363	0	704
12.261	9.520	14833	12258	0	704
15.795	12.261	14660	12469	0	704
18.680	12.874	14833	13162	0	704
22.250	15.398	15120	13960	0	704
23.332	17.454	14948	14412	0	704
20.772	19.546	14833	14457	0	704
21.962	21.060	14660	14381	0	704
23.621	23.080	14373	14276	0	704
27.587	25.424	13971	13960	0	704
28.489	25.929	13224	13342	0	704
27.948	26.325	12821	12785	0	704
20.591	22.719	12362	12650	0	704
15.038	19.077	12247	12966	0	704
7.248	14.605	12247	13704	0	704
7.104	12.117	12534	14668	0	704
9.520	10.819	12821	15466	0	704
12.441	10.206	12649	15963	0	704
15.795	9.629	12821	16384	0	704
17.851	9.989	13224	16971	0	704
13.595	9.881	13511	17709	0	704
11.179	8.763	13683	18281	0	704
6.311	5.986	13971	18597	0	704
3.029	2.849	14258	18838	0	704
2.488	0.252	14545	19140	0	704
2.705	-0.072	14833	19426	0	704
5.986	-0.216	14948	19456	0	704
8.799	1.046	14660	18959	0	704
10.494	1.118	14545	18176	0	704
9.629	1.226	14373	17573	0	704
10.386	1.190	14373	17393	0	704
10.855	2.092	14660	17784	0	704
12.189	3.029	14948	18402	0	704
13.956	4.327	15120	18522	0	704
16.048	5.193	14833	17965	0	704
14.749	6.780	14545	17152	0	704
15.254	8.078	14373	16564	0	704
12.333	11.792	14373	16369	0	704
12.982	12.874	14545	16384	0	704
11.937	14.821	14258	16339	0	704
12.369	14.641	14258	16144	0	704
17.093	14.136	14373	16294	0	704
17.743	15.651	14660	16820	0	704
19.401	15.543	15120	17393	0	704
17.093	14.136	15522	17844	0	704
16.012	12.838	15810	18236	0	704
14.533	11.684	16270	18612	0	704
15.146	12.910	16786	19049	0	704
19.113	15.218	17361	19606	0	704
19.762	16.949	17935	20134	0	704
20.050	17.851	18223	20179	0	704
20.591	17.526	18108	19411	0	704
18.283	17.851	17820	18251	0	704
19.870	18.139	17820	17528	0	704
17.634	17.959	17935	17423	0	704
18.536	17.743	17820	17393	0	704
16.120	16.841	18223	17302	0	704
17.382	16.048	18395	17182	0	704
18.103	15.723	18395	17016	0	704
20.123	15.254	18510	16790	0	704
19.690	15.435	18395	16534	0	704
20.303	14.821	18395	16264	0	704
16.697	15.254	18223	15842	0	704
17.202	14.172	18108	15360	0	704
15.723	15.290	18108	15315	0	704
18.283	15.543	18797	16038	0	704
16.444	13.848	19544	17212	0	704
15.795	12.333	19947	18070	0	704
11.215	9.052	20406	18266	0	704
8.655	8.006	20521	18070	0	704
6.816	7.321	20809	17935	0	704
6.635	9.052	21096	18010	0	704
6.996	7.645	21384	18206	0	704
5.229	8.439	21958	18492	0	704
5.013	6.924	22418	18673	0	704
3.210	7.321	22246	18417	0	704
3.318	6.924	22418	17754	0	704
3.642	6.671	22418	17182	0	704
3.570	5.013	22418	16926	0	704
3.354	3.714	22705	16865	0	704
4.364	3.354	22993	16956	0	704
3.498	3.714	23280	17257	0	704
5.770	7.357	23970	17814	0	704
7.285	9.052	24429	18432	0	704
12.477	12.441	25119	18763	0	704
14.353	12.333	25292	18793	0	704
16.805	10.494	25579	18673	0	704
14.677	9.592	26154	18597	0	704
9.989	7.357	26441	18582	0	704
8.439	6.960	26843	18627	0	704
7.645	7.104	27303	18748	0	704
9.629	6.419	27705	18868	0	704
13.199	7.753	28280	18838	0	704
16.733	7.212	28452	18643	0	704
16.228	9.232	28567	18356	0	704
15.831	8.691	28855	17995	0	704
12.369	8.294	29027	17513	0	704
11.540	7.212	28855	16896	0	704
12.802	7.429	28855	16399	0	704
14.281	10.530	29315	16414	0	704
19.437	14.208	29602	16700	0	704
19.437	16.552	29717	16474	0	704
18.788	16.661	29027	15436	0	704
15.939	14.100	28567	14110	0	704
15.362	11.937	27993	13101	0	704
15.254	13.054	27878	12544	0	704
18.464	14.064	27418	12273	0	704
17.706	15.867	27131	12047	0	704
18.644	13.848	26843	11716	0	704
14.281	12.081	26269	11415	0	704
9.592	9.953	25866	11249	0	704
7.717	11.576	25579	11083	0	704
7.032	15.435	24832	10677	0	704
8.222	19.185	24142	10074	0	704
9.665	21.529	23280	9532	0	704
12.838	21.962	22820	9381	0	704
13.812	20.339	22533	9803	0	704
12.586	17.995	22246	10616	0	704
14.894	17.166	22131	11415	0	704
13.704	15.867	22131	12047	0	704
14.064	14.497	21958	12710	0	704
13.992	13.451	22131	13493	0	704
11.828	14.389	22131	14336	0	704
12.802	15.002	21958	15029	0	704
12.261	16.805	22246	15526	0	704
11.576	16.012	22246	15903	0	704
12.117	15.362	21958	16264	0	704
10.602	12.405	22131	16564	0	704
10.097	10.819	21958	16775	0	704
13.054	13.307	21958	16865	0	704
13.415	14.858	21843	16926	0	704
15.398	16.589	21556	16971	0	704
12.333	15.218	21671	17001	0	704
8.979	11.648	21556	16986	0	704
5.229	8.150	21384	16971	0	704
4.508	6.527	20981	16896	0	704
4.075	6.924	20694	16474	0	704
6.563	10.061	20234	15872	0	704
8.871	11.792	20119	15677	0	704
8.150	11.107	19947	16008	0	704
8.547	9.989	19832	16189	0	704
6.167	7.068	19372	15872	0	704
4.832	3.859	18970	15255	0	704
4.508	3.390	18510	14818	0	704
5.373	3.137	18395	14818	0	704
5.626	5.373	18108	15150	0	704
8.006	7.068	18108	15541	0	704
6.852	8.943	18108	15812	0	704
6.203	9.773	18108	16174	0	704
6.058	9.953	18395	16775	0	704
6.419	11.287	18797	17603	0	704
6.455	11.612	19257	18537	0	704
4.400	11.684	19544	19320	0	704
1.587	10.602	20119	19832	0	704
-1.911	9.088	20521	20164	0	704
-2.200	7.789	20981	20495	0	704
2.056	6.816	21269	20902	0	704
9.124	6.816	22131	21353	0	704
13.163	7.068	22533	21745	0	704
14.281	7.934	22820	21835	0	704
13.523	9.665	23395	21685	0	704
8.727	11.035	23567	21444	0	704
4.327	10.963	23970	21127	0	704
3.787	10.025	23855	20646	0	704
1.803	8.042	23970	19968	1	820
3.101	5.734	23682	18944	0	820
4.580	5.193	23280	17739	0	820
3.750	5.337	23395	17046	0	820
4.724	4.616	23280	16880	0	820
5.157	6.058	23108	16489	0	820
7.357	6.131	22418	15481	0	820
10.999	4.147	21958	14201	0	820
12.477	4.580	21556	13342	0	820
11.035	3.462	21096	12996	0	820
10.999	5.554	20406	12514	0	820
10.891	6.816	19659	11535	0	820
10.783	10.746	18682	10406	0	820
10.999	11.828	17935	9653	0	820
10.278	11.612	17073	9291	0	820
7.140	10.963	16384	8960	0	820
6.491	8.619	15522	8644	0	820
7.645	9.917	14833	8613	0	820
12.009	10.494	14545	8975	0	820
14.136	13.091	14258	9713	0	820
14.172	13.776	14258	10767	0	820
13.812	13.451	14258	11987	0	820
9.809	13.415	14545	13116	0	820
8.006	13.127	14373	14095	0	820
10.710	13.127	14660	15044	0	820
11.900	13.884	14948	16068	0	820
12.081	12.405	15235	17091	0	820
13.415	12.369	15522	17950	0	820
12.189	13.379	15810	18582	0	820
11.071	13.812	16097	19124	0	820
14.930	14.641	16498	19697	0	820
13.812	14.930	16958	20284	0	820
15.110	12.405	17361	20887	0	820
12.982	10.710	17820	21368	0	820
11.071	8.042	18108	21444	0	820
10.566	7.248	17935	20917	0	820
9.881	6.635	17648	19938	0	820
9.232	7.140	17361	18959	0	820
7.862	10.025	16958	18221	0	820
8.330	11.576	16786	17664	0	820
10.097	14.028	16270	16926	0	820
12.550	15.435	15810	15827	0	820
15.435	15.723	14948	14728	0	820
13.920	14.245	14373	13975	0	820
9.052	10.674	13971	13538	0	820
7.068	8.835	13511	13282	0	820
6.275	7.248	12936	13041	0	820
8.583	9.340	12649	13011	0	820
10.278	10.458	12649	13282	0	820
11.756	11.648	12362	13749	0	820
9.556	10.025	12362	14156	0	820
8.475	7.609	12247	14397	0	820
7.068	7.645	12362	14773	0	820
9.737	8.294	12534	15541	0	820
10.602	9.340	12936	16609	0	820
10.746	8.006	13511	17754	0	820
10.386	7.321	13971	18658	0	820
8.330	5.662	14545	19260	0	820
6.419	5.121	14833	19697	0	820
6.816	5.842	15407	20179	0	820
8.222	4.796	15982	20796	0	820
9.917	4.796	16498	21338	0	820
9.917	5.950	16958	21624	0	820
9.737	8.294	17361	21730	0	820
9.809	12.369	17935	21715	0	820
11.792	17.129	18108	21700	0	820
12.586	18.752	18970	21790	0	820
17.129	18.464	19544	21986	0	820
15.759	17.418	19947	21971	0	820
12.730	14.605	20406	21655	0	820
10.746	14.245	20521	21233	0	820
9.665	14.245	20981	20751	0	820
8.006	14.028	21096	20209	0	820
10.927	11.684	21096	19591	0	820
10.206	10.422	20809	18718	0	820
10.963	9.953	20809	17588	0	820
10.422	11.179	20521	16564	0	820
11.973	13.018	20406	15963	0	820
12.369	16.228	20521	15737	0	820
11.215	15.435	20521	15631	1	316
12.910	14.677	20521	15436	0	316
10.783	13.776	20521	15285	0	316
8.691	12.333	20809	15270	0	316
8.258	11.432	20981	15360	0	316
5.662	9.052	21096	15466	0	316
4.940	9.737	21096	15526	0	316
5.878	9.340	21384	15631	0	316
7.321	11.215	21671	15888	0	316
12.369	14.461	22131	16399	0	316
15.254	15.651	22705	17106	0	316
15.867	15.939	23280	17664	0	316
14.136	13.668	23567	17890	0	316
9.701	12.441	23970	17995	0	316
10.602	12.477	24257	18130	0	316
13.523	12.766	24832	18311	0	316
15.975	15.218	25292	18537	0	316
18.139	16.552	25866	18808	0	316
14.533	15.831	26154	19019	0	316
12.838	14.966	26728	19155	0	316
11.360	14.966	27303	19275	0	316
11.576	13.992	27590	19260	0	316
14.605	14.497	27878	19079	0	316
15.362	14.749	28165	18703	0	316
14.281	14.425	27878	17920	0	316
12.982	13.704	27590	16775	0	316
9.809	12.477	27303	15797	0	316
5.662	12.514	27303	15165	0	316
6.816	11.396	26843	14622	0	316
7.717	10.819	26556	13839	0	316
7.934	11.143	25866	12891	0	316
8.402	10.566	25406	12153	0	316
6.311	10.819	25292	11821	0	316
5.914	11.684	24832	11761	0	316
5.337	13.451	24717	11746	0	316
5.626	13.343	24257	11686	0	316
8.042	13.704	24142	11671	0	316
8.763	14.281	23682	11761	0	316
11.900	13.884	23682	11957	0	316
15.326	16.408	23567	12273	0	316
17.093	17.706	23280	12529	0	316
18.716	17.959	23108	12710	0	316
14.641	15.687	22993	13101	0	316
11.612	12.081	23395	13839	0	316
7.537	9.232	23280	14638	0	316
6.527	9.629	23567	15119	0	316
9.268	12.910	23567	15391	0	316
10.963	17.057	23567	15782	0	316
11.251	20.339	23970	16414	0	316
11.143	20.519	24257	17197	0	316
11.756	21.132	24717	17874	0	316
12.586	19.401	25004	18432	0	316
16.192	19.510	25406	18899	0	316
14.858	18.356	25694	19320	0	316
11.468	15.867	26154	19727	0	316
9.340	14.172	26843	20209	0	316
8.511	13.415	27303	20736	0	316
9.953	14.064	27590	20887	0	316
9.737	13.127	27878	20435	0	316
8.943	13.271	27590	19591	0	316
6.058	11.504	27418	18793	0	316
4.472	10.819	27418	18176	0	316
6.455	12.946	27131	17603	0	316
8.547	14.858	27016	17016	0	316
12.081	16.877	26843	16504	0	316
14.569	18.103	26843	16369	0	316
14.100	18.608	27016	16549	0	316
16.372	19.618	27418	16760	0	316
15.615	21.709	27131	16624	0	316
16.877	23.512	26843	16083	0	316
16.516	22.611	26843	15466	0	316
15.759	19.978	26556	15165	0	316
12.117	18.644	26728	15180	0	316
12.550	17.382	26441	15180	0	316
10.061	17.238	26269	14954	0	316
9.845	17.274	26269	14743	0	316
7.825	16.516	25981	14728	0	316
10.819	16.408	25866	14653	0	316
15.759	16.733	25406	14306	0	316
23.368	19.762	25004	13794	0	316
29.066	22.106	24717	13327	0	316
29.968	23.440	24142	12996	0	316
26.001	22.322	23970	12921	0	316
22.214	20.916	23855	13162	0	316
17.129	17.851	23567	13508	0	316
15.939	15.867	23682	13884	0	316
14.533	16.877	23567	14276	0	316
13.271	18.139	23682	14698	0	316
14.281	20.447	23682	15195	0	316
14.317	19.762	23855	15586	0	316
14.533	18.211	23682	15827	0	316
14.461	16.589	23855	16068	0	316
13.343	16.589	23682	16309	0	316
13.487	17.706	23855	16489	0	316
12.297	18.788	23682	16519	0	316
14.966	18.536	23280	16294	0	316
15.759	17.779	23108	15782	0	316
14.100	14.064	22418	15165	0	316
12.802	11.720	21958	14517	0	316
8.907	10.350	21556	14050	0	316
8.583	11.287	21096	13990	0	316
13.163	14.605	21269	14366	0	316
15.435	17.490	21269	15014	0	316
19.257	18.283	21384	15692	0	316
16.769	17.310	21556	16354	0	316
15.110	13.740	21958	17061	0	316
11.900	12.910	22246	17709	0	316
8.078	10.963	22246	18146	0	316
7.429	9.124	22533	18296	0	316
5.157	6.635	22533	18326	0	316
3.642	4.977	22705	18311	0	316
3.282	4.147	22705	18161	0	316
5.265	3.787	22246	17814	0	316
6.383	6.888	22246	17317	0	316
6.094	8.078	21958	16805	0	316
7.429	12.730	21556	16429	0	316
6.599	15.759	21671	16324	0	316
7.429	18.969	21556	16384	0	316
9.989	19.437	21384	16414	0	316
11.468	17.238	21384	16324	0	316
12.694	14.966	21269	16159	0	316
11.648	14.425	20981	16068	0	316
9.773	13.956	21096	16038	0	316
12.477	14.389	20981	16023	0	316
14.569	16.769	20809	16038	0	316
19.473	17.346	20521	15993	0	316
21.132	18.572	20234	15586	0	316
22.827	20.195	19659	14818	0	316
17.743	20.375	19257	14141	0	316
14.533	19.257	18797	13749	0	316
10.242	17.166	18223	13538	0	316
7.537	16.012	17648	13162	0	316
6.563	13.523	16958	12559	0	316
5.481	13.812	16384	12032	0	316
4.255	12.081	15810	11806	0	316
3.137	12.441	15235	11851	0	316
1.983	11.684	14948	12032	0	316
1.659	11.900	14545	12168	0	316
2.452	10.927	14086	12378	0	316
1.839	9.881	13971	12891	0	316
-0.613	8.150	13971	13644	0	316
-3.101	7.825	13971	14472	0	316
-2.524	7.934	14086	15300	0	316
0.974	10.097	14258	16144	0	316
5.445	11.107	14833	17091	0	316
11.973	10.638	15120	18221	0	316
13.848	10.927	15810	19380	0	316
13.271	11.612	16270	20224	0	316
11.973	13.812	16498	20661	0	316
9.412	15.831	16786	20811	0	316
8.294	13.956	16958	20751	0	316
5.193	12.153	16958	20570	0	316
6.022	8.511	17246	20495	0	316
6.131	5.193	17361	20525	0	316
6.455	6.780	17533	20359	1	616
7.465	6.599	17361	19667	0	616
7.357	7.501	16786	18567	0	616
7.537	9.124	16498	17573	0	616
7.501	9.448	16384	17106	0	616
9.376	10.242	16097	16790	0	616
9.484	9.124	15522	16083	0	616
8.222	9.592	14948	15059	0	616
9.088	8.330	14660	14216	0	616
8.871	8.907	13971	13749	0	616
8.258	8.835	13511	13433	0	616
9.556	9.989	12936	12996	0	616
8.006	9.989	12247	12454	0	616
7.032	10.602	12074	12243	0	616
6.167	11.612	11672	12499	0	616
5.914	11.215	11672	13026	0	616
8.402	11.035	11499	13568	0	616
8.475	10.314	11672	14065	0	616
10.746	8.943	11672	14698	0	616
9.881	9.484	11959	15616	0	616
10.206	10.386	12534	16685	0	616
9.701	12.369	12821	17709	0	616
10.422	15.182	13396	18627	0	616
9.917	15.362	14086	19516	0	616
9.520	12.081	14948	20555	0	616
6.852	9.088	15982	21805	0	616
5.121	4.364	16958	23070	0	616
5.049	5.301	17935	24034	0	616
4.255	7.068	18797	24652	0	616
6.203	9.412	19832	25058	0	616
6.744	11.287	20694	25435	0	616
6.455	9.665	21843	25766	0	616
4.255	6.888	22820	25871	0	616
3.426	6.996	23395	25781	0	616
3.823	6.383	24257	25480	0	616
3.318	6.275	24544	24727	0	616
6.203	7.357	24832	23371	0	616
3.678	5.986	24832	21971	0	616
2.596	3.246	25292	21097	0	616
0.397	1.767	25292	20435	0	616
-0.865	-0.757	25406	19380	0	616
-0.252	-0.288	25119	18085	0	616
0.541	2.344	25292	17046	0	616
2.056	7.825	25292	16504	0	616
5.445	14.317	25406	16249	0	616
6.347	18.464	25866	16038	0	616
5.049	16.589	25981	15903	0	616
1.659	11.937	26441	15918	0	616
-1.406	5.842	26843	16098	0	616
-3.173	2.921	27303	16444	0	616
-2.164	4.508	27993	16715	0	616
0.144	6.131	28165	16730	0	616
1.551	7.717	28567	16730	0	616
0.938	5.662	28855	16760	0	616
-0.108	3.498	29315	16564	0	616
0.325	3.318	29142	16068	0	616
-1.875	4.327	29027	15451	0	616
-2.128	5.445	29027	14984	0	616
-3.534	5.337	29315	14773	0	616
-1.515	6.058	29429	14909	0	616
0.361	6.527	29717	15240	0	616
2.921	7.898	30004	15421	0	616
2.777	9.124	30177	15451	0	616
2.993	8.294	30464	15541	0	616
1.010	7.465	30751	15827	0	616
1.731	5.013	31326	16098	0	616
2.164	7.465	31326	16113	0	616
5.662	9.088	31441	15993	0	616
5.301	12.333	31613	15933	0	616
5.842	11.323	31728	15933	0	616
4.255	10.638	31728	15722	0	616
1.911	10.278	31039	14653	0	616
-0.974	9.088	29889	12665	0	616
-0.397	12.297	28567	10526	0	616
3.462	14.208	27418	8809	0	616
7.898	16.372	25981	7514	0	616
12.153	15.543	25119	6791	0	616
16.084	16.048	24257	6656	0	616
14.100	14.677	23682	6851	0	616
12.369	12.802	22820	7017	1	316
8.907	10.350	22246	7198	0	316
6.094	9.268	21843	7695	0	316
3.606	8.943	21384	8674	0	316
4.544	10.061	21556	9999	0	316
4.291	12.261	21671	11384	0	316
4.652	12.586	21556	12559	0	316
2.957	10.674	21843	13553	0	316
1.767	6.563	21958	14607	0	316
0.865	2.921	22131	15752	0	316
3.534	3.246	22418	16730	0	316
6.094	3.173	22705	17408	0	316
7.321	6.455	22705	17980	0	316
4.760	7.104	23280	18748	0	316
-0.938	4.904	23682	19847	0	316
-3.210	3.967	24544	21037	0	316
-2.452	3.895	25004	21926	0	316
0.000	4.868	25694	22332	0	316
2.669	6.527	25866	22453	0	316
5.049	8.439	26441	22513	0	316
2.092	7.248	26728	22543	0	316
1.370	6.852	27016	22453	0	316
0.541	6.203	27418	22257	0	316
-0.902	5.554	27590	21956	0	316
-2.308	5.481	27705	21549	0	316
-2.308	5.409	27993	21218	0	316
-0.433	6.419	28452	20992	0	316
1.479	7.970	28567	20766	0	316
5.085	8.222	28740	20344	0	316
6.780	9.124	28567	19591	0	316
7.248	8.979	28740	18808	0	316
6.094	8.330	29027	18643	0	316
4.796	6.996	29315	18929	0	316
5.517	7.429	29429	18823	0	316
6.347	9.737	29429	18130	0	316
9.737	12.261	29142	17257	0	316
12.153	17.093	29027	16549	0	316
16.661	18.860	29142	16204	0	316
15.939	16.589	29142	16159	0	316
13.956	12.550	29315	16038	0	316
13.559	9.629	29027	15631	0	316
10.819	10.710	28855	15225	0	316
13.848	15.975	28855	15089	0	316
14.821	22.647	29142	15089	0	316
12.045	24.630	29027	15089	0	316
8.619	22.647	29027	15014	0	316
3.498	16.841	29027	14939	0	316
1.659	13.631	29142	15119	0	316
4.255	13.091	29717	15722	0	316
6.599	12.874	30004	16474	0	316
5.914	12.982	30464	17076	0	316
6.275	12.261	30866	17438	0	316
3.750	8.619	31154	17769	0	316
3.426	9.052	31613	18146	0	316
4.219	10.602	32016	18462	0	316
7.321	12.694	32303	18552	0	316
7.717	15.074	32590	18447	0	316
7.645	15.651	32763	18236	0	316
7.501	14.533	32768	18010	0	316
5.481	11.720	32768	17799	0	316
5.445	10.963	32768	17694	0	316
5.914	10.855	32768	17649	0	316
5.085	11.828	32768	17423	0	316
4.760	13.487	32768	16956	0	316
3.318	13.848	32768	16384	0	316
4.436	13.127	32768	15677	0	316
6.419	13.343	32590	14924	0	316
8.583	12.369	32188	14186	0	316
9.232	13.704	31441	13252	0	316
10.710	13.848	30579	12002	0	316
10.206	15.362	29602	10647	0	316
10.133	15.795	28740	9562	0	316
8.583	15.795	27878	9005	0	316
8.691	15.471	27016	8689	0	316
6.744	15.435	26154	8252	0	316
7.573	15.615	25292	7936	0	316
8.943	16.156	24717	7981	0	316
12.261	17.526	23970	8312	0	316
15.218	19.041	23567	8764	0	316
14.894	21.962	22820	9156	0	316
15.002	22.431	22533	9577	0	316
10.350	21.024	22246	10300	0	316
5.337	17.887	22131	11415	0	316
5.517	13.848	22246	12695	0	316
7.862	11.973	22131	13613	0	316
12.514	13.235	21269	13674	0	316
15.975	14.064	20694	13071	0	316
18.788	16.697	19832	12499	0	316
16.372	17.598	18970	12273	0	316
16.264	17.706	18223	12228	0	316
14.064	17.129	17648	12424	0	316
14.136	15.182	17361	12906	0	316
10.855	11.648	17073	13628	0	316
7.862	9.556	16958	14442	0	316
7.212	8.511	16671	14984	0	316
6.167	8.907	15810	14713	0	316
5.626	6.816	14948	13900	0	316
4.616	5.698	14258	13342	0	316
2.128	2.741	13511	13357	0	316
-0.216	1.875	13109	13689	0	316
1.334	2.849	12821	14306	0	316
3.895	5.950	12649	15119	0	316
7.825	8.727	12534	15722	0	316
9.052	8.583	12074	16023	0	316
6.383	8.655	11959	16384	0	316
2.669	6.347	11787	16956	0	316
-0.397	3.318	11787	17393	0	316
-2.885	3.426	11384	17393	0	316
-2.777	2.993	10810	17016	0	316
-2.885	2.452	10063	16309	0	316
-1.911	2.885	9086	15436	0	316
-0.974	2.272	8626	14939	0	316
1.190	1.875	7936	14894	0	316
3.498	1.767	7649	14969	0	316
4.147	2.633	7189	15315	0	316
2.560	3.173	7362	16008	0	316
2.056	2.056	7362	16941	0	316
2.056	3.642	7764	17980	0	316
4.327	3.462	8051	18959	0	316
5.373	4.760	8626	19802	0	316
6.816	7.321	9086	20615	0	316
8.006	8.330	9775	21594	0	316
7.898	10.566	10350	22603	0	316
9.088	10.855	11097	23387	0	316
12.117	11.720	11787	23884	0	316
15.110	14.389	12362	24275	0	316
16.877	16.192	13224	24682	0	316
19.834	16.877	13971	25073	0	316
16.769	15.290	14545	25179	0	316
14.713	11.900	14948	24697	0	316
9.953	7.537	15120	23838	0	316
6.419	5.878	15407	23191	0	316
6.780	6.924	15982	23040	0	316
8.114	10.422	16958	23417	1	532
9.809	14.605	17935	24079	0	532
10.999	16.661	18682	24471	0	532
10.927	16.372	19372	24124	0	532
9.052	14.028	19659	23221	0	532
8.006	11.143	19947	22332	0	532
8.366	10.242	20406	21685	0	532
10.097	9.809	20694	21127	0	532
10.746	11.468	20809	20344	0	532
9.629	10.783	20981	19305	0	532
9.304	10.133	20981	18417	0	532
6.131	8.727	21384	17935	0	532
3.318	5.265	21843	17769	0	532
2.596	2.813	21958	17754	0	532
1.623	1.262	22705	17709	0	532
2.092	1.406	22993	17634	0	532
2.741	3.895	23395	17649	0	532
4.364	5.301	24257	17859	0	532
4.940	6.131	24717	18146	0	532
3.859	3.750	25406	18236	0	532
3.498	3.678	25694	18146	0	532
3.173	1.731	26441	18130	0	532
4.327	4.183	27016	18402	0	532
6.527	6.094	27878	18914	0	532
7.753	7.825	28740	19396	0	532
5.337	7.537	29315	19335	0	532
3.606	6.383	29315	18627	0	532
-0.685	5.121	29602	17890	0	532
-3.498	3.390	29889	17423	0	532
-2.488	2.308	30177	17061	0	532
-2.524	2.056	30292	16760	0	532
0.685	3.282	30751	16444	0	532
3.642	5.806	30292	15752	0	532
8.222	7.825	30292	14924	0	532
10.097	11.612	30751	14773	0	532
8.078	11.251	31326	15436	0	532
5.950	10.566	31901	16098	0	532
2.344	9.845	32188	16234	0	532
0.613	9.737	32303	15948	0	532
2.164	10.206	32475	15586	0	532
2.524	8.871	32590	15285	0	532
0.541	7.681	32763	15165	0	532
-1.623	4.219	32768	15315	0	532
-3.282	1.551	32768	15466	0	532
-2.885	0.974	32768	15436	0	532
-0.757	3.246	32768	15375	0	532
1.947	6.996	32768	15391	0	532
2.488	9.376	32768	15360	0	532
3.570	10.855	32768	15180	0	532
2.200	8.294	32768	14954	0	532
1.442	6.275	32768	14894	0	532
-0.469	5.445	32768	15089	0	532
-0.974	5.806	32768	15330	0	532
-1.659	8.871	32768	15315	0	532
-1.370	8.691	32768	15089	0	532
-0.793	8.583	32768	14984	0	532
-0.974	7.717	32768	15134	0	532
1.515	7.681	32768	15345	0	532
2.488	8.727	32768	15345	0	532
2.813	8.799	32768	15150	0	532
2.344	7.717	32768	14909	0	532
0.144	5.734	32768	14668	0	532
0.252	6.347	32768	14397	0	532
1.695	6.131	32768	14141	0	532
3.678	6.780	32768	13915	0	532
1.875	5.698	32768	13538	0	532
-1.370	1.803	32768	12785	0	532
-6.094	-0.974	32188	11761	0	532
-7.862	-2.272	31441	10933	0	532
-5.698	-0.397	30751	10481	0	532
-3.498	3.426	30004	10240	0	532
0.000	6.491	29315	9969	0	532
1.515	9.340	28855	9638	0	532
1.983	10.242	28165	9653	0	532
1.839	10.206	27878	10150	0	532
3.498	7.573	27705	10948	0	532
3.606	8.583	27131	11460	0	532
1.515	6.491	26154	11038	0	532
-0.397	6.708	25406	10195	0	532
-3.895	4.796	24544	10044	0	532
-5.590	4.183	24429	10722	0	532
-8.114	1.623	23970	11671	0	532
-6.852	0.036	24142	12589	0	532
-6.094	0.325	23970	13568	0	532
-4.147	0.902	24429	14758	0	532
-1.695	2.128	24717	16234	0	532
-1.046	1.370	25292	17709	0	532
-1.659	0.577	25579	18823	0	532
-4.075	0.072	26154	19591	0	532
-7.609	0.469	26441	20329	0	532
-10.783	1.767	27016	21143	0	532
-12.261	1.659	27705	21971	0	532
-11.143	0.865	28165	22664	0	532
-9.268	-0.108	28740	23100	0	532
-4.111	-0.721	29142	23326	0	532
-0.433	1.947	29889	23417	0	532
1.875	5.337	30177	23356	0	532
2.272	6.924	30464	23130	0	532
2.669	9.016	30751	22829	0	532
1.370	9.881	30866	22362	0	532
0.108	9.881	30751	21429	0	532
-0.938	8.294	30292	20103	0	532
-0.072	6.419	30177	18808	0	532
-0.397	4.580	29602	17694	0	532
0.000	5.301	28855	16504	0	532
-1.587	4.003	27993	15029	0	532
-2.813	6.094	27303	13478	0	532
-2.813	5.626	26556	12439	0	532
-1.154	6.527	26154	12062	0	532
2.813	6.744	25981	12213	0	532
4.688	7.176	25694	12559	0	532
3.065	5.698	25866	12921	0	532
0.829	3.967	25694	13433	0	532
-0.144	1.442	25981	14110	0	532
1.226	3.029	25981	14773	0	532
5.770	6.203	26269	15345	0	532
7.898	9.052	26556	15857	0	532
8.835	11.323	26728	16339	0	532
6.419	12.369	27016	16896	0	532
4.652	12.189	27590	17498	0	532
4.291	11.432	27705	18025	0	532
4.544	9.160	27705	18115	0	532
4.868	7.825	27418	17468	0	532
3.787	5.409	26843	16444	0	532
1.587	5.229	26556	15812	0	532
1.334	7.393	26556	15662	0	532
1.767	8.511	26269	15571	0	532
3.859	11.504	26269	15436	0	532
7.501	11.684	25981	15406	0	532
9.989	13.956	25866	15436	0	532
11.396	18.211	25866	15451	0	532
15.543	21.421	25579	15451	0	532
15.435	23.008	25694	15511	0	532
17.526	23.404	25406	15511	0	532
13.848	18.897	25119	15240	0	532
11.468	15.146	24544	14713	0	532
9.016	14.245	24257	14246	0	532
8.511	14.281	23855	14005	0	532
10.242	14.461	23567	13930	0	532
13.668	15.074	23108	13794	0	532
13.415	14.461	22820	13568	0	532
12.045	15.831	22533	13689	0	532
14.245	18.139	22705	14231	0	532
12.081	20.195	22533	14773	0	532
12.514	18.824	22418	15044	0	532
11.251	14.533	22418	15210	0	532
9.016	11.973	22418	15451	0	532
4.977	11.287	22131	15767	0	532
6.419	15.398	22246	16083	0	532
7.176	19.401	22246	16354	0	532
9.124	20.664	22131	16534	0	532
8.799	18.031	22246	16670	0	532
9.448	16.120	21958	16790	0	532
9.484	15.759	22418	17061	0	532
12.766	18.860	22533	17558	0	532
15.759	21.673	22533	17995	0	532
20.483	24.125	22820	18266	0	532
19.401	21.745	23108	18492	0	532
18.103	19.473	23280	18748	0	532
15.038	17.202	23567	18929	0	532
11.973	15.795	23395	18823	0	532
10.061	15.435	23395	18371	0	532
11.179	15.435	22993	17814	0	532
9.556	15.687	22993	17317	0	532
7.032	15.218	22820	17031	0	532
3.354	13.595	22993	17137	0	532
1.046	11.540	23108	17332	0	532
2.380	9.665	22705	17031	0	532
5.914	8.583	22246	16189	0	532
11.973	10.783	21671	15165	0	532
14.497	12.514	20981	14291	0	532
13.235	15.435	20521	13674	0	532
12.586	16.769	19947	13192	0	532
10.422	16.697	19257	12529	0	532
9.773	15.759	18395	11731	0	532
13.163	15.831	17648	11189	0	532
15.615	17.346	17073	11098	0	532
20.123	19.185	16786	11354	0	532
21.421	23.044	16384	11761	0	532
24.162	24.306	16097	12062	0	532
21.349	24.162	15810	12394	0	532
18.536	20.880	15522	12800	0	532
14.677	17.562	15407	13252	0	532
11.576	14.894	15235	13719	0	532
10.242	15.110	14948	14156	0	532
12.405	15.939	14833	14502	0	532
13.379	17.815	14545	14698	0	532
11.937	17.382	14373	14939	0	532
11.396	16.084	14258	15345	0	532
9.376	14.858	14086	15737	0	532
9.592	14.172	14258	16053	0	532
13.884	15.543	14086	16489	0	532
16.661	17.490	14258	17137	0	532
16.805	17.526	14660	18025	0	532
16.012	18.211	15120	18899	0	532
11.937	17.238	15120	19260	0	532
10.350	15.759	15120	19019	0	532
11.179	14.425	14948	18778	0	532
13.235	13.523	14948	18823	0	532
15.687	14.894	15235	18974	0	532
16.228	15.939	15522	19185	0	532
18.464	18.392	15407	19275	0	532
18.969	21.673	15235	18944	0	532
23.224	24.342	15120	18387	0	532
26.794	24.017	15235	18341	0	532
28.777	24.234	15522	18823	0	532
27.479	23.044	15695	19094	0	532
24.234	22.286	15810	18944	0	532
19.185	21.565	15810	18597	0	532
17.382	21.673	15810	18387	0	532
16.877	20.808	16097	18492	0	532
18.175	19.221	16384	18838	1	844
16.661	16.841	16671	19124	0	844
16.841	16.012	16958	19185	0	844
12.910	14.713	17533	19380	0	844
12.730	14.281	18108	19877	0	844
12.514	13.704	18682	20465	0	844
8.763	11.612	19257	20992	0	844
6.167	8.222	20119	21384	0	844
0.938	3.354	20694	21609	0	844
-2.308	-0.721	21096	21519	0	844
-1.767	-1.406	21269	21097	0	844
0.469	2.308	21671	20510	0	844
5.049	7.104	21671	19908	0	844
8.402	11.504	21843	19411	0	844
8.222	12.297	22246	19109	0	844
6.022	7.862	22705	19094	0	844
3.282	6.275	22993	19230	0	844
4.580	6.635	23567	19260	0	844
8.150	14.353	23855	19140	0	844
16.084	23.404	24257	18929	0	844
19.762	30.508	24544	18703	0	844
20.303	32.312	25119	18597	0	844
18.716	26.974	25406	18612	0	844
14.245	21.781	25981	18673	0	844
11.468	18.933	26269	18643	0	844
12.658	19.834	26441	18236	0	844
11.468	22.322	26843	17724	0	844
10.674	25.352	27303	17814	0	844
11.720	24.234	28165	18462	0	844
9.340	20.627	28855	18929	0	844
5.554	17.454	29142	18884	0	844
6.239	15.038	29429	18522	0	844
4.940	12.297	29717	18161	0	844
5.373	13.018	30177	17935	0	844
5.373	13.415	30751	17874	0	844
5.085	13.379	30866	17829	0	844
5.121	13.704	31154	17588	0	844
3.282	13.271	31326	17212	0	844
1.370	12.946	31441	16715	0	844
2.669	12.730	31441	16174	0	844
1.911	12.514	31441	15677	0	844
1.947	12.225	31441	15270	0	844
4.544	13.307	31613	14909	0	844
6.491	14.858	31441	14547	0	844
8.439	17.526	31039	13854	0	844
11.071	19.041	30579	12785	0	844
13.704	20.627	29717	11656	0	844
13.884	22.935	28740	10360	0	844
12.045	25.135	27878	9080	0	844
11.937	25.568	27303	8493	0	844
9.268	24.775	26728	8659	0	844
7.357	21.060	26441	9005	0	844
7.321	17.057	26269	9442	0	844
6.599	16.625	25981	9984	0	844
7.537	17.382	25866	10511	0	844
9.052	19.690	25579	11008	0	844
6.527	19.221	25579	11610	0	844
5.590	16.769	25694	12348	0	844
0.469	10.350	25406	13026	0	844
-2.885	6.599	25406	13388	0	844
-3.246	4.003	25119	13553	0	844
-2.019	5.481	25119	13900	0	844
-1.803	9.809	25119	14472	0	844
0.469	10.855	25292	15150	0	844
0.361	12.333	25004	15631	0	844
-0.325	13.523	25119	15797	0	844
0.649	13.812	25004	15993	0	844
3.101	18.392	25119	16534	0	844
8.222	21.132	25694	17423	0	844
11.360	24.342	25981	18296	0	844
14.749	27.335	26441	18929	0	844
20.519	30.941	26843	19546	0	844
21.926	33.718	27303	20194	0	844
24.739	37.613	27878	20721	0	844
27.840	38.695	28280	21082	0	844
24.955	39.452	28740	21233	0	844
20.916	35.305	29027	21278	0	844
14.172	29.968	29717	21368	0	844
6.167	22.647	30004	21624	0	844
1.010	16.949	30464	21805	0	844
-2.344	13.054	30579	21384	0	844
-0.829	14.028	30177	20073	1	324
2.452	16.264	29717	18447	0	324
6.347	18.572	29602	17362	0	324
6.131	18.067	29315	16941	0	324
2.669	15.615	29142	16640	0	324
-2.056	11.576	29027	16264	0	324
-9.592	6.816	28855	15842	0	324
-13.199	5.626	29027	15481	0	324
-11.973	4.472	28855	15421	0	324
-12.477	4.364	29429	15993	0	324
-8.402	4.760	29889	16971	0	324
-5.986	4.291	30292	17603	0	324
-3.967	5.914	30464	17483	0	324
-1.767	10.566	30177	16941	0	324
3.642	17.202	30177	16474	0	324
7.898	23.729	30177	16264	0	324
12.009	30.508	30177	16128	0	324
14.136	33.898	29889	15677	0	324
14.245	33.610	29429	14863	0	324
11.756	31.807	29027	14125	0	324
5.806	27.624	28740	13749	0	324
0.865	21.529	28452	13689	0	324
-3.859	15.651	28452	13659	0	324
-8.511	11.035	27878	13478	0	324
-7.212	7.681	27590	13282	0	324
-4.940	7.898	27418	13252	0	324
-3.823	7.789	27418	13403	0	324
-2.416	7.717	27131	13674	0	324
-2.164	8.366	27016	13900	0	324
-1.262	7.357	27131	14125	0	324
-0.505	7.825	27016	14487	0	324
-0.144	7.609	27131	15029	0	324
0.397	7.321	27418	15571	0	324
-0.829	6.996	27303	15933	0	324
-2.236	6.131	27418	16159	0	324
-0.433	8.799	27590	16369	0	324
-0.505	11.287	27418	16519	0	324
3.137	13.848	27303	16564	0	324
5.193	16.589	27418	16459	0	324
7.537	18.752	27131	16309	0	324
8.114	19.726	26843	16144	0	324
7.537	18.247	26843	15903	0	324
4.255	16.769	26441	15601	0	324
0.757	12.910	26154	15210	0	324
0.036	12.297	25406	14592	0	324
-0.649	11.432	24717	13734	0	324
-3.029	13.379	23682	12740	0	324
-4.255	13.163	22993	11776	0	324
-8.475	8.439	21958	11113	0	324
-11.720	5.698	21384	10903	0	324
-10.855	2.488	21096	11159	0	324
-6.671	1.767	20694	11761	0	324
-1.406	5.481	20694	12484	0	324
3.534	10.386	20809	13372	0	324
5.878	12.694	21096	14517	0	324
5.517	14.821	21269	15677	0	324
4.832	13.812	21384	16504	0	324
3.967	11.756	21556	16941	0	324
3.390	8.042	21384	17197	0	324
5.085	7.537	21556	17468	0	324
5.517	7.104	21556	17739	0	324
6.203	9.304	21384	17890	0	324
6.888	12.514	21556	17920	0	324
9.376	16.444	21556	17965	0	324
10.819	18.680	21556	18115	0	324
10.061	18.897	21556	18387	0	324
10.169	16.444	21843	18643	0	324
7.825	13.415	21958	18718	0	324
6.635	11.612	21671	18627	0	324
6.239	10.133	21958	18537	0	324
8.042	12.802	21958	18522	0	324
10.314	14.425	21958	18597	0	324
9.052	14.100	22246	18748	0	324
7.609	10.638	22246	18868	0	324
3.642	7.970	22418	18703	0	324
-1.262	4.868	22246	18206	0	324
-4.472	2.705	21843	17573	0	324
-5.049	6.347	21843	17016	0	324
-4.796	7.825	21384	16549	0	324
-4.327	8.222	20809	15993	0	324
-4.436	7.898	20406	15165	0	324
-5.734	5.662	19947	14321	0	324
-2.813	7.176	19659	14020	0	324
-2.056	9.520	19372	14171	0	324
1.839	13.920	19085	14291	0	324
5.373	16.444	18797	14156	0	324
4.580	14.930	18395	13854	0	324
3.210	12.658	18108	13644	0	324
0.865	10.169	17820	13719	0	324
-0.216	11.215	17820	14005	0	324
2.200	12.369	17648	14276	0	324
6.780	17.057	17533	14517	0	324
11.071	22.575	17361	14833	0	324
14.894	24.702	17361	15225	0	324
13.920	26.397	17361	15556	0	324
12.225	24.089	17361	15888	0	324
12.874	22.827	17246	16174	0	324
13.884	21.818	17246	16294	0	324
14.389	22.142	17073	16144	0	324
16.805	22.539	16671	15752	0	324
13.631	20.916	16384	15451	0	324
10.927	17.202	16270	15511	0	324
8.186	14.858	16270	15872	0	324
5.121	12.982	16384	16369	0	324
3.173	10.242	16498	16896	0	324
-1.479	6.708	16786	17453	0	324
-2.092	4.291	16958	17890	0	324
-2.957	3.137	17073	18161	0	324
-1.659	2.236	17246	18281	0	324
0.072	4.616	17246	18221	0	324
-0.721	4.832	17361	18206	0	324
-1.911	4.652	17533	18326	0	324
-1.479	3.967	17648	18522	0	324
-1.731	4.544	17820	18612	0	324
0.974	4.544	17648	18281	0	324
3.173	5.626	17533	17754	0	324
3.210	6.131	17820	17769	0	324
3.642	9.737	18108	18356	0	324
4.652	12.225	18395	18868	0	324
4.291	15.146	18682	18944	0	324
8.402	16.012	18797	18748	0	324
12.514	17.923	18970	18673	0	324
15.543	19.113	19372	18868	0	324
18.716	22.575	19832	19245	0	324
16.733	24.306	20119	19576	0	324
14.461	24.558	20809	19832	0	324
11.900	21.890	21384	20179	0	324
8.547	17.238	21958	20646	0	324
9.340	16.120	22820	21158	0	324
8.691	13.451	23567	21564	0	324
8.114	12.261	23970	21775	0	324
5.806	9.809	24832	21835	0	324
4.327	7.212	25292	21790	0	324
3.787	4.003	25694	21609	0	324
6.563	2.344	26441	21308	0	324
10.891	2.092	26441	20856	0	324
10.169	2.236	26556	19908	1	544
7.393	2.452	26154	18492	0	544
1.947	1.406	26154	17347	0	544
-0.288	2.236	26154	16579	0	544
-0.577	3.354	25579	15752	0	544
-0.829	4.183	25579	14878	0	544
-1.370	4.075	25119	14231	0	544
-4.183	3.137	25004	13689	0	544
-3.029	2.128	24429	13026	0	544
-1.226	4.039	24142	12333	0	544
4.868	9.052	23682	11881	0	544
8.655	11.756	23567	11610	0	544
8.366	12.910	22705	11128	0	544
6.852	13.018	22246	10496	0	544
5.049	11.540	21843	10180	0	544
4.940	11.864	21384	10285	0	544
7.068	13.018	21384	10722	0	544
7.248	10.422	21384	11369	0	544
4.111	7.717	21269	12047	0	544
2.056	5.517	21384	12634	0	544
0.036	6.275	21556	13267	0	544
5.085	8.691	21556	14065	0	544
8.547	13.595	21843	14848	0	544
11.215	14.966	21958	15360	0	544
7.068	13.163	21843	15631	0	544
2.200	9.845	22131	15872	0	544
-1.010	6.094	22246	16339	0	544
0.252	5.301	22418	17001	0	544
3.462	5.878	22820	17573	0	544
5.626	8.006	23108	17995	0	544
4.580	8.186	23395	18447	0	544
5.013	6.744	23970	19049	0	544
4.580	8.042	24257	19546	0	544
7.068	9.881	24544	19576	0	544
10.458	12.333	24142	18853	0	544
9.845	15.615	23855	17694	0	544
10.458	16.444	23280	16805	0	544
8.799	15.579	23108	16354	0	544
8.294	15.435	22993	16023	0	544
6.635	16.516	22705	15767	0	544
6.094	16.589	22705	15677	0	544
5.157	16.913	22418	15647	0	544
5.445	15.903	22820	15812	0	544
8.078	16.625	23280	16549	0	544
9.917	18.175	23855	17754	0	544
12.946	21.529	24544	18688	0	544
13.595	23.981	24832	19140	0	544
13.523	25.207	25579	19546	0	544
13.163	23.044	26154	20239	0	544
11.179	18.788	27016	21127	0	544
10.350	16.372	27993	21926	0	544
10.783	14.353	28567	22362	0	544
9.448	13.956	29142	22377	0	544
8.222	14.425	29315	21835	0	544
6.239	15.290	29027	20465	0	544
6.022	13.487	28567	18567	0	544
5.373	13.379	27878	16865	0	544
6.527	14.100	27303	15586	0	544
7.032	14.100	26843	14547	0	544
6.275	16.589	26441	13824	0	544
6.852	17.598	26154	13448	0	544
7.321	18.752	25694	13162	0	544
9.809	20.988	25406	12785	0	544
11.468	21.132	25119	12378	0	544
13.704	21.637	24717	12122	0	544
13.559	18.644	24717	12258	0	544
11.071	14.461	24544	12725	0	544
10.278	11.576	24832	13252	0	544
6.058	10.927	24717	13794	0	544
4.580	12.297	25004	14336	0	544
2.669	15.290	25119	14863	0	544
0.757	14.966	25406	15345	0	544
-0.829	13.487	25406	15707	0	544
-1.515	10.242	25579	15888	0	544
0.469	8.691	25292	15827	0	544
2.885	9.917	25004	15451	0	544
5.445	10.494	24717	14894	0	544
6.852	11.684	24142	14442	0	544
11.864	13.307	23970	14171	0	544
15.579	14.785	23395	13869	1	316
21.854	17.021	22705	13297	0	316
24.378	18.067	22131	12514	0	316
24.162	17.634	21269	11851	0	316
20.411	14.966	20521	11535	0	316
17.454	13.163	20234	11610	0	316
16.084	13.487	19832	11821	0	316
16.192	14.245	19257	11866	0	316
14.317	15.579	18970	12017	0	316
14.281	15.579	18510	12469	0	316
12.550	15.615	18510	13041	0	316
12.514	14.605	18395	13538	0	316
10.819	14.100	18108	13915	0	316
9.016	10.458	17935	14246	0	316
7.248	8.907	17820	14638	0	316
5.409	4.508	17533	14924	0	316
4.688	3.570	17073	14924	0	316
4.111	4.147	16671	14803	0	316
3.678	5.229	16384	14848	0	316
2.019	6.383	16270	15134	0	316
3.246	8.114	16097	15616	0	316
5.373	7.321	16097	16113	0	316
6.455	8.042	15982	16444	0	316
11.864	8.619	15695	16444	0	316
13.992	11.973	14948	15888	0	316
18.031	14.425	14258	14969	0	316
18.680	20.411	13683	14487	0	316
18.860	22.683	13396	14532	0	316
16.444	23.981	13109	14713	0	316
15.254	22.034	12534	14848	0	316
11.071	16.733	12074	14728	0	316
8.114	12.225	11499	14427	0	316
5.157	9.448	11384	14321	0	316
6.022	8.979	10810	14532	0	316
7.934	11.360	10522	14788	0	316
11.323	15.687	10235	14848	0	316
12.225	17.959	9775	14863	0	316
11.828	19.906	9775	15225	0	316
11.035	20.303	9660	15903	0	316
10.278	17.526	9775	16609	0	316
12.838	14.389	10063	17272	0	316
12.441	11.900	9948	17769	0	316
11.612	9.520	10235	18191	0	316
11.937	11.215	10350	18733	0	316
10.530	11.900	10810	19441	0	316
8.330	13.235	11212	20103	0	316
7.429	14.281	11499	20555	0	316
5.986	14.713	11787	20811	0	316
6.491	14.497	12247	21067	0	316
7.465	14.749	12821	21414	0	316
7.212	12.514	13109	21790	0	316
4.760	9.881	13511	22001	0	316
2.957	7.032	13971	22046	0	316
-1.334	5.878	14373	22091	0	316
-2.128	5.337	14948	22227	0	316
-1.010	7.104	15407	22272	0	316
-0.541	10.891	15982	22197	0	316
3.534	13.559	16270	22076	0	316
7.104	16.336	16498	21911	0	316
11.143	17.995	17073	21624	0	316
11.720	19.005	17246	21173	0	316
13.848	18.752	17361	20450	0	316
12.405	20.519	17246	19531	0	316
11.864	22.142	17246	18658	0	316
11.973	21.421	17073	17890	0	316
11.360	20.880	16958	17182	0	316
9.268	18.500	16786	16489	0	316
8.799	15.867	16671	15872	0	316
7.285	16.444	16384	15270	0	316
8.511	20.123	15982	14442	0	316
11.396	25.027	15407	13448	0	316
17.382	29.895	14948	12634	0	316
17.418	29.643	14660	12273	0	316
17.454	26.902	14545	12243	0	316
11.648	22.142	14258	12288	0	316
5.590	17.021	13971	12258	0	316
-0.216	13.451	13683	12258	0	316
-2.885	9.773	13683	12469	0	316
-3.750	7.393	13511	12860	0	316
-2.993	4.904	13511	13267	1	316
0.541	6.491	13683	13644	0	316
5.878	9.160	13683	14125	0	316
10.242	13.956	13971	14788	0	316
15.398	17.021	14373	15662	0	316
15.398	19.149	14833	16594	0	316
14.858	18.572	14948	17182	0	316
11.937	17.093	14660	16911	0	316
9.232	16.444	14373	16113	0	316
8.294	15.435	14373	15677	0	316
7.248	15.939	14258	15842	0	316
6.022	16.697	14258	16098	0	316
5.770	17.274	14373	16264	0	316
7.501	17.670	14373	16444	0	316
10.494	19.293	14373	16519	0	316
13.235	19.978	14373	16549	0	316
12.369	20.303	14660	16941	0	316
9.629	21.313	15407	17739	0	316
3.318	20.627	15522	18432	0	316
-0.793	16.589	15695	18597	0	316
-2.344	13.740	15810	18356	0	316
-2.452	9.124	15982	18146	0	316
-2.308	8.006	16097	18146	0	316
-3.137	7.248	16097	18115	0	316
-3.210	9.088	15982	17784	0	316
-5.626	7.717	15810	17212	0	316
-6.563	8.402	15810	16805	0	316
-4.868	8.294	15982	16850	0	316
-0.469	10.674	16270	17242	0	316
6.022	15.615	16498	17649	0	316
11.900	19.834	16671	17784	0	316
14.461	23.332	16958	17859	0	316
11.540	21.024	17246	18025	0	316
4.832	18.247	17533	18206	0	316
0.902	14.858	17820	18266	0	316
0.469	14.569	17935	18296	0	316
4.003	18.752	18223	18462	0	316
11.179	23.945	18970	18884	0	316
13.812	25.604	19832	19606	0	316
11.973	23.657	20694	20480	0	316
8.330	19.077	21269	21203	0	316
4.472	16.877	22131	21579	0	316
2.849	16.877	22705	21624	0	316
5.590	19.365	23280	21534	0	316
6.816	22.467	23970	21489	0	316
5.986	20.844	24257	21368	0	316
6.094	17.815	24832	21067	0	316
2.705	12.081	25119	20766	0	316
0.685	9.196	25866	20525	0	316
0.144	8.655	26154	20254	0	316
0.469	11.035	26441	19862	0	316
0.721	13.415	26843	19335	0	316
1.623	14.894	26843	18763	0	316
1.551	13.776	27131	18115	0	316
-0.108	11.251	27303	17588	0	316
0.829	10.494	27705	17498	0	316
2.885	6.852	28165	17634	0	316
7.140	7.429	28280	17332	0	316
8.691	6.491	27993	16414	0	316
11.720	6.960	27705	15285	0	316
10.638	10.061	27590	14336	0	316
10.458	12.730	27303	13734	0	316
8.294	14.930	27131	13388	0	316
9.376	16.589	27016	13011	0	316
7.898	15.110	26556	12484	0	316
9.088	13.992	26441	12198	0	316
10.169	15.435	26556	12303	0	316
11.251	15.507	26269	12514	0	316
10.530	18.500	26441	12665	0	316
7.898	19.618	26269	12830	0	316
8.475	19.005	26269	13011	0	316
10.025	19.618	26441	13252	0	316
11.432	19.942	26441	13659	0	316
15.471	21.529	26556	14171	0	316
13.740	21.385	26728	14502	0	316
8.979	19.329	26728	14668	0	316
6.203	16.516	27016	14909	0	316
4.436	14.966	27016	15315	0	316
7.285	14.858	27131	15707	0	316
10.494	15.867	27131	15677	0	316
12.514	18.969	26269	14788	0	316
14.317	18.320	25406	13342	0	316
11.900	17.238	24717	12168	0	316
8.727	15.723	23855	11535	0	316
8.439	14.425	23395	11159	0	316
8.547	15.398	22705	10903	0	316
10.566	15.831	21843	10647	0	316
12.586	15.723	21096	10180	0	316
15.218	16.949	19947	9381	0	316
13.776	17.382	18510	8312	0	316
13.848	19.401	17246	7168	0	316
14.858	20.664	15810	6339	0	316
12.838	21.818	14545	5933	0	316
12.225	19.473	13396	5782	0	316
8.799	17.166	12534	6098	0	316
5.265	14.894	11959	7002	0	316
6.599	13.054	11787	8493	0	316
6.924	11.179	11672	10300	0	316
9.953	11.973	11787	12032	0	316
12.802	13.704	12074	13659	0	316
14.641	16.985	12362	15391	0	316
13.559	18.788	12936	17167	0	316
10.458	18.608	13511	18853	0	316
10.350	16.480	14086	20269	0	316
6.455	14.064	14545	21368	0	316
3.462	10.025	15407	22317	0	316
2.452	7.898	15982	23371	0	316
-0.325	4.904	16671	24426	0	316
-3.642	2.380	17246	25149	0	316
-4.688	1.911	17935	25495	0	316
-3.354	3.137	18510	25615	0	316
-1.695	6.419	19257	25706	0	316
1.262	9.989	19832	25932	0	316
5.986	12.586	20694	26203	0	316
8.835	15.543	21384	26353	0	316
9.520	15.254	22131	26218	0	316
9.629	13.740	22705	25826	0	316
7.176	13.451	22820	25209	0	316
5.085	11.937	23280	24350	0	316
3.823	12.586	23280	23356	1	476
3.318	13.199	23395	22182	0	476
1.262	14.245	22993	20676	0	476
3.606	14.281	22820	19094	0	476
4.904	13.559	22820	18146	0	476
9.052	14.100	22820	17890	0	476
14.100	13.091	22993	17498	0	476
17.166	14.136	22533	16429	0	476
19.582	13.379	21843	14984	0	476
16.480	13.199	21384	13613	0	476
14.894	10.350	20809	12589	0	476
9.232	8.511	20119	11912	0	476
6.347	5.517	19832	11415	0	476
3.354	4.832	19257	10933	0	476
3.354	5.409	18970	10707	0	476
5.445	8.763	18682	10782	0	476
9.268	13.163	18395	10978	0	476
14.605	21.132	17935	11159	0	476
20.772	24.955	17820	11279	0	476
25.965	26.938	17648	11415	0	476
24.702	25.893	17361	11746	0	476
22.286	21.024	17533	12409	0	476
18.247	17.274	17648	13222	0	476
13.848	14.749	17533	13764	0	476
11.684	13.415	16958	13553	0	476
12.874	13.199	16384	12845	0	476
10.494	13.631	15982	12469	0	476
5.806	13.307	15695	12725	0	476
4.652	12.550	15695	13297	0	476
2.813	11.360	15695	14035	0	476
5.337	11.323	15695	14683	0	476
10.566	12.550	15695	15134	0	476
12.910	13.054	15695	15511	0	476
13.343	14.785	15695	15857	0	476
9.737	13.992	15522	16128	0	476
9.340	13.235	15522	16369	0	476
8.763	15.182	15522	16579	0	476
12.910	16.120	15695	16745	0	476
13.379	16.805	15235	16745	0	476
13.631	14.353	15120	16609	0	476
9.484	10.530	14948	16504	0	476
6.311	6.239	14545	16309	0	476
4.111	2.885	14258	15857	0	476
4.291	4.400	13683	15345	0	476
6.852	4.291	13224	14984	0	476
6.780	5.734	12821	14562	0	476
7.970	8.294	11959	13869	0	476
10.927	13.992	11097	13071	0	476
11.900	20.375	10637	12619	0	476
14.821	24.847	10063	12695	0	476
10.422	25.135	9948	13086	0	476
6.599	18.788	9775	13553	0	476
0.757	13.559	9488	13975	0	476
0.180	10.314	9488	14397	0	476
2.164	12.333	9201	14909	0	476
6.599	14.245	9373	15541	0	476
7.393	13.559	9660	16234	0	476
6.311	9.917	9488	16820	0	476
5.698	6.347	9775	17332	0	476
4.327	6.708	9775	17814	0	476
7.681	9.052	9948	18281	0	476
8.655	12.838	10350	18718	0	476
10.314	14.821	10350	19094	0	476
9.701	14.641	10810	19335	0	476
10.494	14.641	10810	19501	0	476
9.845	14.208	11097	19697	0	476
9.304	14.749	11499	20043	0	476
11.792	15.579	11959	20646	0	476
13.054	16.120	12362	21203	0	476
14.172	16.480	12649	21203	0	476
18.283	18.139	12821	20661	0	476
16.625	18.860	12534	19893	0	476
15.759	17.706	12534	19290	0	476
12.045	16.300	12649	19004	0	476
8.655	14.208	12821	18929	0	476
8.258	12.658	12936	18718	0	476
7.609	9.629	12821	18371	0	476
