neuroNicle FX2
D3F25R12
Bluetooth SPP
2023년 11월 22일 수요일
오후 1:51
time interval = 4msec
EEG1	EEG2	PPG	sdPPG	pulse	peak_interval(msec)
-43.058	9.773	16335	16003	0	628
-40.317	9.232	16337	16084	0	628
-35.377	8.835	16330	15835	0	628
-31.735	10.206	16319	15299	0	628
-29.102	12.405	16312	14940	0	628
-27.263	17.743	16310	14896	0	628
-23.945	24.414	16306	14911	0	628
-16.048	32.925	16301	14911	0	628
-5.626	43.491	16297	14948	0	628
7.501	55.608	16294	14955	0	628
24.125	68.698	16285	14860	0	628
43.238	84.241	16280	14735	0	628
66.318	102.524	16274	14684	0	628
90.732	119.041	16265	14640	0	628
113.379	135.774	16256	14442	0	628
137.072	151.785	16242	14141	0	628
159.935	170.429	16235	13950	0	628
181.031	191.273	16224	13921	0	628
196.610	209.629	16215	13921	0	628
205.337	216.661	16203	13848	0	628
207.898	208.078	16190	13687	0	628
206.058	185.864	16181	13584	0	628
200.721	156.329	16172	13672	0	628
185.251	127.948	16165	13950	0	628
162.099	105.878	16161	14280	0	628
132.348	89.290	16156	14537	0	628
108.258	75.153	16152	14808	0	628
89.326	61.774	16149	15145	0	628
71.980	47.890	16147	15490	0	628
48.179	32.780	16147	15798	0	628
17.995	17.310	16144	16047	0	628
-17.562	5.698	16143	16223	0	628
-46.376	-6.960	16138	16391	0	628
-70.682	-17.851	16140	16655	0	628
-93.148	-27.696	16138	16911	0	628
-116.625	-36.928	16134	16897	0	628
-136.711	-44.284	16120	16464	0	628
-149.153	-47.097	16106	15886	0	628
-152.290	-47.025	16097	15541	0	628
-149.080	-42.373	16088	15497	0	628
-153.732	-37.505	16081	15600	0	628
-169.023	-38.911	16077	15754	0	628
-190.083	-47.313	16077	15959	0	628
-205.481	-58.060	16075	16157	0	628
-203.895	-65.344	16070	16297	0	628
-190.588	-65.128	16070	16464	0	628
-175.189	-57.158	16072	16823	0	628
-169.996	-50.270	16077	17241	0	628
-176.415	-47.710	16081	17527	0	628
-185.575	-47.999	16084	17718	0	628
-186.621	-49.405	16090	18004	0	628
-176.307	-47.025	16097	18422	0	628
-160.440	-41.724	16106	18825	0	628
-145.186	-35.449	16113	19052	0	628
-133.429	-31.662	16120	19140	0	628
-124.125	-32.456	16131	19323	0	628
-114.425	-34.547	16144	19683	0	628
-102.777	-36.062	16161	20144	0	628
-90.804	-35.269	16176	20584	0	628
-80.274	-29.463	16192	20951	0	628
-73.494	-25.532	16215	21347	0	628
-67.472	-24.450	16240	21816	0	628
-65.236	-26.974	16260	22271	0	628
-62.640	-30.761	16288	22630	0	628
-60.873	-32.636	16310	22857	0	628
-56.365	-30.653	16335	23040	0	628
-46.845	-25.856	16362	23268	0	628
-35.016	-18.428	16388	23480	0	628
-23.116	-9.629	16415	23605	0	628
-15.831	-1.623	16440	23568	0	628
-17.815	6.563	16460	23414	0	628
-24.739	11.396	16485	23202	0	628
-30.472	11.612	16510	22960	0	628
-31.951	7.393	16530	22666	1	624
-28.958	1.010	16551	22271	0	624
-23.332	-3.967	16569	21765	0	624
-19.005	-6.671	16585	21222	0	624
-14.208	-6.708	16598	20672	0	624
-9.953	-5.193	16614	20137	0	624
-5.842	-3.570	16630	19631	0	624
-4.291	-0.397	16642	19133	0	624
-8.979	6.094	16651	18510	0	624
-16.300	11.251	16653	17674	0	624
-28.128	11.973	16655	16735	0	624
-39.308	5.770	16655	15864	0	624
-47.818	-3.534	16653	15124	0	624
-53.408	-9.304	16651	14508	0	624
-53.372	-9.556	16648	13936	0	624
-50.090	-4.111	16646	13415	0	624
-44.789	0.649	16648	13093	0	624
-40.606	1.046	16651	13019	0	624
-41.616	-2.669	16653	13012	0	624
-42.914	-9.340	16651	12880	0	624
-41.940	-11.792	16648	12580	0	624
-32.708	-11.756	16643	12286	0	624
-19.870	-8.150	16639	12103	0	624
-9.809	-6.094	16630	11876	0	624
-10.278	-8.330	16616	11465	0	624
-17.526	-14.497	16603	11011	0	624
-21.493	-19.437	16589	10717	0	624
-17.670	-19.401	16580	10622	0	624
-8.691	-15.218	16571	10673	0	624
-4.868	-14.533	16560	10791	0	624
-7.537	-16.949	16551	10930	0	624
-13.307	-23.224	16544	11106	0	624
-11.215	-24.919	16537	11384	0	624
-0.288	-19.546	16535	11846	0	624
11.756	-8.583	16533	12448	0	624
18.969	-1.659	16530	13027	0	624
17.634	-0.144	16533	13496	0	624
13.848	-6.347	16530	13950	0	624
11.612	-10.025	16535	14456	0	624
15.146	-11.360	16535	15014	0	624
23.008	-5.049	16542	15585	0	624
32.672	1.262	16544	16099	0	624
41.435	8.799	16547	16471	0	624
46.736	11.900	16548	16743	0	624
42.842	14.930	16551	16955	0	624
33.429	15.182	16551	17058	0	624
22.935	14.569	16553	17117	0	624
15.471	11.143	16548	17117	0	624
14.641	7.681	16542	16911	0	624
16.408	2.596	16533	16464	0	624
16.228	-0.469	16519	15945	0	624
11.900	-1.767	16508	15424	0	624
5.626	1.262	16492	14977	0	624
0.072	2.488	16480	14618	0	624
-4.003	5.878	16467	14339	0	624
-5.878	3.787	16456	14200	0	624
-9.304	1.046	16449	14236	0	624
-10.999	-2.524	16444	14427	0	624
-12.189	-3.787	16438	14654	0	624
-11.504	-3.714	16431	14823	0	624
-11.107	-3.173	16431	15102	0	624
-12.946	-4.652	16433	15563	0	624
-17.093	-6.563	16435	16025	0	624
-22.142	-6.058	16435	16355	0	624
-19.906	-4.364	16433	16537	0	624
-10.927	-1.298	16431	16618	0	624
3.390	0.036	16426	16596	0	624
12.189	-1.875	16422	16471	0	624
13.668	-6.167	16412	16311	0	624
8.258	-12.225	16406	16165	0	624
5.698	-14.281	16399	16055	0	624
10.386	-14.569	16394	16011	0	624
20.483	-12.694	16390	16040	0	624
27.010	-12.838	16385	16077	0	624
26.217	-12.586	16380	15981	0	624
19.221	-13.956	16369	15747	0	624
11.756	-14.785	16356	15380	0	624
8.619	-14.785	16342	14955	0	624
7.357	-15.615	16328	14640	0	624
8.619	-16.985	16317	14486	0	624
9.088	-18.464	16308	14434	0	624
10.169	-19.546	16297	14420	0	624
10.278	-19.005	16283	14288	0	624
10.494	-20.627	16271	14141	0	624
8.583	-23.837	16265	14339	0	624
8.439	-24.198	16265	14830	0	624
8.655	-23.657	16256	15138	0	624
12.982	-19.149	16249	15087	0	624
18.247	-15.002	16235	14896	0	624
22.719	-13.992	16226	14808	0	624
25.532	-16.733	16220	14882	0	624
27.263	-21.385	16208	15006	0	624
26.253	-24.522	16199	15021	0	624
24.162	-23.873	16188	14874	0	624
20.123	-23.188	16174	14713	0	624
18.031	-21.096	16163	14654	0	624
20.087	-21.926	16152	14713	0	624
28.633	-20.519	16143	14816	0	624
39.921	-19.582	16131	14874	0	624
46.448	-19.113	16122	14918	0	624
45.835	-18.103	16115	15080	0	624
39.055	-19.798	16111	15387	0	624
32.420	-20.664	16113	15783	0	624
30.869	-21.529	16108	16128	0	624
36.747	-22.322	16106	16427	0	624
41.868	-22.106	16106	16772	0	624
42.553	-21.168	16106	17153	0	624
37.793	-20.988	16108	17483	0	624
31.338	-20.519	16106	17688	0	624
28.922	-20.483	16108	17791	0	624
33.177	-20.375	16106	17857	0	624
37.829	-20.159	16106	17945	0	624
38.154	-17.743	16106	18040	0	624
33.285	-17.238	16106	18084	0	624
24.702	-19.798	16108	18092	0	624
17.959	-21.168	16108	18106	0	624
16.444	-23.440	16106	18114	0	624
20.591	-23.044	16106	18084	0	624
28.958	-22.863	16106	18040	0	624
39.163	-19.690	16106	17996	0	624
48.071	-18.428	16106	17945	0	624
54.454	-14.785	16106	17916	0	624
58.637	-10.242	16113	17974	0	624
62.351	-4.508	16117	18158	0	624
69.492	-0.865	16126	18480	0	624
76.668	-0.288	16140	18898	0	624
82.690	-1.118	16152	19309	0	624
83.267	-1.659	16165	19595	0	624
81.103	-1.334	16176	19829	0	624
79.589	1.911	16190	20115	0	624
80.454	3.895	16211	20474	0	624
85.755	3.210	16229	20848	0	624
90.624	0.361	16244	21127	0	624
89.578	-3.173	16267	21340	0	624
83.592	-8.006	16285	21589	0	624
75.045	-9.412	16308	21853	0	624
71.511	-11.071	16330	22029	0	624
72.665	-10.242	16351	22095	0	624
77.642	-8.979	16371	22146	0	624
82.546	-8.475	16394	22234	0	624
83.592	-10.278	16420	22359	0	624
83.015	-10.674	16442	22483	0	624
80.743	-12.910	16467	22505	0	624
80.274	-13.127	16494	22425	0	624
79.409	-13.956	16512	22241	0	624
79.625	-14.353	16533	21860	0	624
80.166	-16.228	16547	21340	0	624
83.051	-15.435	16562	20936	1	588
83.628	-14.208	16583	20687	0	588
81.212	-14.821	16603	20416	0	588
76.055	-15.975	16619	20101	0	588
70.501	-18.356	16634	19778	0	588
66.967	-24.450	16651	19375	0	588
66.210	-25.856	16662	18876	0	588
69.672	-23.693	16671	18341	0	588
78.110	-14.605	16680	17776	0	588
91.129	0.829	16684	17102	0	588
109.881	20.375	16687	16370	0	588
127.299	36.711	16689	15695	0	588
137.793	44.537	16689	15109	0	588
137.396	45.258	16684	14456	0	588
133.466	40.750	16680	13753	0	588
127.479	36.026	16678	13173	0	588
123.224	31.266	16675	12821	0	588
115.507	24.991	16675	12660	0	588
103.137	15.831	16673	12587	0	588
91.309	7.357	16673	12484	0	588
83.303	2.164	16669	12426	0	588
81.933	2.452	16673	12499	0	588
84.241	4.219	16673	12675	0	588
81.572	2.308	16675	12865	0	588
73.855	-1.695	16675	12975	0	588
63.469	-6.347	16671	12961	0	588
56.365	-7.753	16666	12887	0	588
54.021	-5.121	16666	12931	0	588
52.578	-3.534	16664	13122	0	588
48.648	-1.731	16662	13320	0	588
37.721	-4.255	16660	13452	0	588
25.316	-7.068	16660	13599	0	588
16.444	-11.648	16662	13870	0	588
14.894	-11.648	16664	14258	0	588
18.067	-12.982	16666	14588	0	588
19.401	-12.586	16662	14603	0	588
15.146	-11.973	16651	14324	0	588
8.402	-10.746	16643	14104	0	588
5.157	-10.314	16637	14068	0	588
8.439	-6.383	16630	14068	0	588
14.605	-3.714	16625	14053	0	588
18.572	-0.938	16616	13972	0	588
17.562	0.685	16603	13745	0	588
12.261	1.587	16592	13547	0	588
8.835	0.469	16589	13657	0	588
6.527	-0.974	16585	14038	0	588
6.094	-2.128	16578	14302	0	588
4.832	-3.282	16571	14288	0	588
4.147	-3.534	16562	14163	0	588
5.373	-2.596	16551	14141	0	588
10.638	-3.787	16542	14170	0	588
13.199	-5.950	16526	13928	0	588
13.199	-7.140	16501	13313	0	588
9.737	-8.583	16483	12763	0	588
7.140	-8.222	16471	12711	0	588
10.602	-5.337	16460	13041	0	588
14.641	-6.131	16451	13379	0	588
16.552	-8.907	16442	13584	0	588
11.360	-16.372	16433	13789	0	588
3.137	-24.811	16429	14148	0	588
-1.118	-26.325	16424	14662	0	588
2.777	-24.234	16426	15263	0	588
11.648	-16.733	16429	15886	0	588
19.978	-11.035	16431	16442	0	588
26.181	-7.825	16433	16948	0	588
27.660	-8.907	16435	17454	0	588
27.804	-8.222	16444	18026	0	588
29.246	-9.448	16453	18605	0	588
30.508	-9.917	16460	19052	0	588
36.206	-13.415	16467	19316	0	588
41.183	-18.356	16474	19521	0	588
43.274	-19.870	16483	19771	0	588
40.101	-20.591	16492	20057	0	588
34.331	-17.743	16503	20313	0	588
31.374	-15.074	16512	20496	0	588
34.511	-13.956	16524	20562	0	588
42.770	-14.858	16528	20489	0	588
48.215	-16.264	16535	20284	0	588
45.366	-15.146	16537	19983	0	588
36.964	-14.641	16537	19653	0	588
28.850	-14.894	16542	19279	0	588
26.433	-13.271	16537	18818	0	588
30.905	-12.658	16539	18392	0	588
40.570	-9.448	16544	18224	0	588
48.828	-5.013	16547	18187	0	588
53.877	0.072	16548	17916	0	588
54.634	3.426	16542	17359	0	588
51.785	4.868	16533	16713	0	588
47.782	5.013	16528	16113	0	588
48.576	7.357	16517	15585	0	588
50.595	7.140	16510	15138	0	588
54.093	8.547	16499	14735	0	588
53.985	6.455	16489	14324	0	588
50.234	3.498	16480	13943	0	588
46.700	0.469	16467	13599	0	588
46.159	0.938	16451	13129	0	588
47.999	2.488	16431	12499	0	588
49.080	3.210	16411	11890	0	588
46.520	3.282	16393	11465	0	588
45.330	0.829	16378	11304	0	588
46.772	-0.288	16365	11421	0	588
53.660	1.262	16353	11700	0	588
61.089	3.967	16339	11839	0	588
62.063	4.472	16317	11590	0	588
58.204	4.255	16288	10923	0	588
52.001	3.354	16258	10255	0	588
50.343	3.787	16240	10109	0	588
56.401	5.806	16224	10505	0	588
65.885	10.999	16215	11157	0	588
74.107	10.638	16203	11780	0	588
76.055	9.088	16192	12220	0	588
74.901	2.633	16176	12484	0	588
71.006	-0.757	16161	12667	0	588
71.114	-1.442	16149	12953	0	588
74.144	4.111	16140	13371	0	588
76.560	11.937	16131	13877	0	588
76.704	18.608	16126	14449	0	588
73.206	20.159	16120	15021	0	588
68.590	16.589	16113	15468	0	588
64.010	9.196	16106	15761	0	588
60.404	3.823	16095	15945	0	588
61.197	1.406	16088	16099	0	588
62.568	3.426	16084	16391	0	588
65.777	8.583	16084	16867	0	588
67.941	10.350	16084	17447	0	588
62.604	9.881	16086	17930	0	588
53.011	6.671	16084	18165	0	588
41.435	2.957	16084	18356	0	588
33.141	1.695	16088	18715	0	588
35.990	1.839	16095	19235	0	588
44.501	3.642	16104	19756	0	588
57.194	4.508	16111	20166	0	588
65.272	3.895	16122	20511	0	588
69.960	4.796	16135	20929	0	588
71.655	6.527	16154	21479	0	588
73.494	10.602	16172	22095	0	588
74.684	13.415	16190	22542	0	588
73.711	14.785	16202	22608	0	588
68.229	12.405	16217	22439	0	588
64.876	10.783	16231	22439	0	588
65.813	11.287	16251	22681	0	588
73.747	11.937	16269	22930	0	588
82.582	15.146	16294	23077	0	588
87.198	16.156	16312	23180	0	588
84.710	15.831	16333	23209	0	588
77.101	15.218	16356	23136	0	588
71.836	15.002	16371	22938	0	588
69.528	11.900	16384	22542	1	588
71.150	9.665	16397	22014	0	588
74.793	7.970	16412	21581	0	588
76.235	6.491	16429	21296	0	588
77.678	9.484	16444	21054	0	588
82.402	17.238	16458	20819	0	588
90.444	28.777	16474	20518	0	588
102.705	41.003	16488	20057	0	588
113.415	51.713	16494	19485	0	588
118.392	57.555	16508	18993	0	588
121.890	60.007	16517	18642	0	588
129.391	59.827	16530	18363	0	588
140.642	59.971	16537	18070	0	588
153.516	58.637	16548	17703	0	588
159.538	56.221	16560	17395	0	588
153.083	51.388	16569	17241	0	588
142.048	48.107	16583	17190	0	588
132.816	44.933	16596	17146	0	588
131.771	40.858	16610	17073	0	588
133.826	39.344	16621	16999	0	588
131.518	34.836	16633	16963	0	588
125.027	33.249	16646	16977	0	588
111.937	33.393	16660	16977	0	588
104.436	34.511	16669	16875	0	588
100.036	34.511	16675	16655	0	588
102.236	34.295	16682	16341	0	588
104.472	30.833	16689	16025	0	588
106.022	29.535	16693	15849	0	588
107.393	31.374	16702	15769	0	588
109.592	36.928	16707	15703	0	588
112.477	43.419	16714	15600	0	588
116.444	49.080	16723	15519	0	588
120.375	53.552	16725	15468	0	588
127.732	57.339	16730	15336	0	588
138.983	65.164	16734	15124	0	588
154.273	75.658	16732	14911	0	588
171.042	88.424	16734	14735	0	588
184.493	99.351	16734	14537	0	588
196.466	110.025	16732	14288	0	588
204.219	121.926	16730	14031	0	588
210.061	134.439	16723	13753	0	588
214.533	142.409	16711	13313	0	588
216.372	139.524	16702	12843	0	588
216.228	123.765	16702	12777	0	588
215.435	102.452	16702	13122	0	588
211.648	84.025	16701	13408	0	588
199.639	74.252	16696	13393	0	588
176.343	68.013	16689	13232	0	588
143.491	58.709	16680	13093	0	588
108.222	41.471	16673	13049	0	588
80.094	21.385	16669	13107	0	588
63.036	7.465	16662	13232	0	588
55.175	-1.839	16657	13401	0	588
46.736	-7.212	16657	13672	0	588
30.076	-14.569	16655	13987	0	588
8.835	-27.840	16653	14222	0	588
-15.398	-41.363	16648	14368	0	588
-32.816	-51.388	16643	14464	0	588
-41.291	-54.490	16639	14530	0	588
-43.455	-54.490	16634	14610	0	588
-42.734	-52.182	16633	14808	0	588
-43.527	-51.028	16630	15080	0	588
-48.900	-49.261	16625	15248	0	588
-58.997	-46.845	16621	15307	0	588
-69.780	-44.176	16619	15402	0	588
-79.517	-41.760	16619	15629	0	588
-85.575	-42.517	16619	15879	0	588
-87.234	-44.248	16614	16025	0	588
-89.650	-47.710	16612	16047	0	588
-91.237	-47.458	16607	16047	0	588
-90.191	-47.566	16605	16055	0	588
-85.106	-45.871	16601	16091	0	588
-79.012	-43.274	16598	16209	0	588
-77.209	-42.445	16596	16304	0	588
-81.067	-39.812	16587	16099	0	588
-85.900	-38.550	16574	15629	0	588
-89.542	-37.937	16562	15233	0	588
-86.801	-38.190	16553	14999	0	588
-83.087	-39.993	16539	14794	0	588
-80.418	-38.983	16530	14566	0	588
-81.067	-36.928	16515	14288	0	588
-83.916	-33.718	16506	14097	0	588
-82.979	-31.013	16497	14236	0	588
-78.723	-30.256	16497	14684	0	588
-67.941	-29.823	16492	15087	0	588
-56.726	-27.010	16485	15167	0	588
-47.746	-22.467	16474	15028	0	588
-42.986	-17.057	16465	14904	0	588
-41.507	-13.776	16456	14882	0	588
-37.757	-12.550	16449	14955	0	588
-31.590	-13.271	16440	15065	0	588
-25.243	-12.766	16433	15153	0	588
-21.529	-11.900	16426	15233	0	588
-18.067	-9.340	16422	15358	0	588
-13.523	-6.383	16415	15527	0	588
-5.842	-5.229	16411	15644	0	588
3.750	-4.868	16403	15666	0	588
8.907	-5.121	16397	15673	0	588
10.278	-4.904	16393	15769	0	588
7.717	-6.239	16390	15996	0	588
4.652	-5.878	16388	16275	0	588
6.275	-4.977	16384	16449	0	588
9.304	-6.671	16374	16297	0	588
13.127	-6.780	16360	15857	0	588
17.021	-5.590	16348	15519	0	588
17.815	-3.246	16337	15409	0	588
23.332	2.200	16328	15358	0	588
30.400	8.475	16319	15314	0	588
26.181	13.595	16374	16391	0	604
22.250	9.376	16371	16333	0	604
21.241	10.494	16366	16201	0	604
24.342	13.704	16362	16018	0	604
26.758	15.543	16353	15783	0	604
26.325	14.208	16342	15446	0	604
21.709	10.566	16328	15021	0	604
19.906	6.780	16315	14566	0	604
21.421	8.042	16297	14009	0	604
24.089	10.783	16274	13357	0	604
26.650	14.497	16256	12814	0	604
28.850	17.959	16235	12492	0	604
29.895	20.087	16217	12264	0	604
31.662	24.558	16197	11993	0	604
36.314	28.561	16174	11700	0	604
38.586	31.338	16156	11553	0	604
37.396	31.951	16138	11590	0	604
34.980	28.705	16122	11744	0	604
30.869	24.486	16106	11898	0	604
30.400	21.745	16088	11986	0	604
33.105	23.837	16075	12103	0	604
34.475	25.640	16058	12345	0	604
32.420	26.506	16048	12748	0	604
27.263	23.152	16040	13239	0	604
22.647	18.969	16029	13723	0	604
22.899	16.985	16022	14214	0	604
26.974	18.860	16020	14786	0	604
28.994	18.536	16018	15453	0	604
26.506	13.595	16020	16128	0	604
19.834	6.527	16013	16574	0	604
13.956	-0.036	16004	16603	0	604
14.389	-0.757	15990	16384	0	604
19.329	2.236	15986	16348	0	604
25.496	9.160	15980	16625	0	604
30.617	14.966	15977	16963	0	604
33.213	19.510	15972	17263	0	604
36.855	24.270	15975	17593	0	604
40.786	29.391	15975	17974	0	604
41.796	29.968	15980	18392	0	604
37.901	27.624	15990	18935	0	604
30.040	21.565	15998	19565	0	604
25.207	18.139	16009	20064	0	604
26.758	20.447	16013	20262	0	604
35.269	28.453	16020	20313	0	604
43.707	37.829	16031	20430	0	604
45.582	38.082	16036	20614	0	604
40.462	30.905	16048	20738	0	604
30.761	21.421	16052	20680	0	604
25.243	15.687	16057	20518	0	604
23.440	14.136	16067	20540	0	604
25.316	17.779	16084	20797	0	604
27.696	19.582	16099	21068	0	604
28.453	17.129	16113	21237	0	604
24.847	13.884	16126	21296	0	604
21.457	9.701	16140	21310	0	604
17.562	8.475	16156	21332	0	604
17.346	9.773	16170	21303	0	604
18.897	14.894	16185	21230	1	1156
21.060	19.401	16202	21171	0	1156
22.142	21.926	16217	21200	0	1156
23.152	21.890	16240	21325	0	1156
26.542	21.493	16265	21581	0	1156
30.581	24.739	16288	21860	0	1156
34.728	26.866	16308	21992	0	1156
34.692	28.777	16330	21963	0	1156
31.879	26.578	16353	21867	0	1156
30.184	22.250	16375	21787	0	1156
30.472	19.185	16394	21699	0	1156
34.115	19.618	16412	21508	0	1156
35.557	21.745	16433	21222	0	1156
34.115	21.565	16451	20907	0	1156
30.256	20.736	16470	20606	0	1156
29.679	19.329	16488	20350	0	1156
29.679	18.283	16508	20152	0	1156
31.518	17.743	16521	19859	0	1156
31.266	15.723	16535	19331	0	1156
26.794	10.891	16539	18627	0	1156
21.998	7.321	16547	17901	0	1156
20.447	6.527	16556	17293	0	1156
21.132	9.809	16560	16845	0	1156
24.775	13.415	16566	16449	0	1156
25.965	14.785	16571	15908	0	1156
25.424	13.848	16569	15255	0	1156
26.001	12.297	16574	14823	0	1156
28.164	14.208	16580	14684	0	1156
31.158	15.723	16587	14640	0	1156
33.177	18.933	16592	14566	0	1156
32.276	17.562	16596	14449	0	1156
30.400	15.362	16601	14361	0	1156
30.364	16.192	16607	14332	0	1156
34.872	19.437	16610	14258	0	1156
39.272	21.277	16607	14046	0	1156
38.406	21.854	16607	13760	0	1156
32.780	16.372	16607	13569	0	1156
25.532	12.874	16607	13577	0	1156
22.611	9.989	16612	13767	0	1156
23.440	13.776	16616	14024	0	1156
27.660	16.444	16624	14222	0	1156
30.292	19.798	16625	14354	0	1156
33.177	20.844	16628	14471	0	1156
35.954	24.306	16633	14632	0	1156
40.750	25.965	16637	14867	0	1156
42.048	27.624	16642	15058	0	1156
37.505	27.551	16643	15153	0	1156
29.823	22.503	16646	15197	0	1156
23.476	18.175	16648	15255	0	1156
20.700	17.670	16651	15343	0	1156
24.053	19.437	16653	15417	0	1156
28.958	23.116	16655	15468	0	1156
35.016	27.551	16655	15483	0	1156
38.478	29.066	16653	15351	0	1156
41.183	29.318	16646	15109	0	1156
41.760	31.049	16642	14896	0	1156
40.389	30.400	16637	14698	0	1156
39.488	30.833	16628	14405	0	1156
38.911	29.859	16619	14031	0	1156
38.009	28.886	16607	13672	0	1156
36.567	27.119	16596	13474	0	1156
33.393	24.053	16592	13459	0	1156
29.499	20.988	16585	13599	0	1156
27.191	18.500	16578	13753	0	1156
26.361	20.411	16574	13804	0	1156
29.427	24.558	16566	13833	0	1156
32.889	28.309	16560	13921	0	1156
34.259	28.489	16553	14053	0	1156
32.492	24.053	16551	14178	0	1156
29.246	18.536	16542	14236	0	1156
24.955	14.677	16533	14302	0	1156
23.585	17.274	16533	14500	0	1156
26.506	22.214	16530	14845	0	1156
30.436	27.876	16528	15131	0	1156
36.747	29.679	16515	15006	0	1156
41.327	26.830	16497	14383	0	1156
39.488	20.123	16474	13687	0	1156
35.629	15.651	16462	13415	0	1156
26.253	12.405	16453	13533	0	1156
18.392	11.576	16444	13782	1	316
15.398	11.396	16438	14075	0	316
14.425	8.655	16433	14420	0	316
15.182	4.977	16429	14750	0	316
12.586	-0.469	16424	15043	0	316
8.186	-4.868	16424	15409	0	316
2.164	-6.563	16422	15857	0	316
-0.252	-5.986	16424	16231	0	316
-0.613	-4.327	16417	16413	0	316
5.337	-0.793	16415	16449	0	316
8.547	0.036	16411	16457	0	316
7.609	-2.777	16406	16493	0	316
3.246	-9.520	16397	16508	0	316
-1.623	-13.451	16390	16420	0	316
-3.390	-13.559	16383	16267	0	316
-1.154	-8.222	16375	16135	0	316
2.272	0.793	16371	16128	0	316
3.895	5.734	16366	16231	0	316
3.390	5.049	16362	16326	0	316
5.049	4.003	16357	16377	0	316
6.780	1.839	16357	16523	0	316
10.133	2.957	16357	16816	0	316
10.025	3.606	16357	17087	0	316
9.196	2.921	16360	17161	0	316
10.169	1.983	16351	16985	0	316
12.045	3.750	16342	16706	0	316
14.785	6.708	16333	16457	0	316
16.084	10.422	16328	16333	0	316
14.821	12.009	16326	16326	0	316
12.405	10.494	16321	16384	0	316
13.595	7.898	16317	16398	0	316
15.615	6.852	16315	16405	0	316
19.762	6.671	16312	16464	0	316
20.483	8.402	16310	16574	0	316
19.654	9.052	16306	16640	0	316
17.166	5.950	16303	16523	0	316
14.677	3.642	16288	16047	0	316
13.487	-0.613	16269	15343	0	316
14.245	-0.649	16256	14801	0	316
16.480	3.137	16238	14442	0	316
18.788	9.484	16221	14038	0	316
23.188	15.290	16206	13591	0	316
24.594	16.949	16188	13232	0	316
23.549	15.471	16170	12997	0	316
23.116	13.776	16156	12931	0	316
22.250	12.658	16144	13071	0	316
21.962	13.740	16135	13327	0	316
20.231	12.225	16129	13643	0	316
16.733	7.789	16122	14009	0	316
8.222	-1.334	16120	14464	0	316
2.236	-7.212	16120	15036	0	316
-1.334	-8.475	16122	15725	0	316
2.128	-5.121	16126	16391	0	316
8.943	2.236	16129	16941	0	316
16.408	5.986	16135	17439	0	316
18.283	5.409	16140	17916	0	316
15.759	1.442	16144	18319	0	316
10.097	-3.606	16149	18546	0	316
8.619	-4.940	16152	18649	0	316
11.287	-1.623	16154	18759	0	316
15.723	3.137	16158	18957	0	316
18.608	6.924	16167	19221	0	316
17.670	7.285	16174	19485	0	316
15.543	4.183	16181	19661	0	316
14.966	-0.577	16190	19741	0	316
16.408	-1.947	16192	19705	0	316
16.012	-1.154	16199	19675	0	316
14.677	1.695	16211	19785	0	316
11.504	6.996	16221	19961	0	316
8.835	8.547	16233	20130	0	316
10.025	9.881	16249	20342	0	316
12.333	6.924	16262	20599	0	316
15.903	6.888	16280	20863	0	316
18.752	6.347	16298	21171	0	316
19.293	6.347	16321	21501	0	316
17.382	7.393	16339	21743	0	316
13.163	4.977	16362	21853	0	316
11.973	3.678	16380	21853	0	316
10.314	4.796	16394	21787	0	316
12.550	7.068	16411	21669	0	316
15.290	8.294	16429	21471	0	316
14.281	7.898	16442	21171	0	316
12.009	6.635	16456	20870	1	328
11.215	4.760	16476	20790	0	328
13.523	9.881	16501	20973	0	328
19.726	15.939	16521	21142	0	328
28.958	21.349	16544	21083	0	328
31.266	21.349	16560	20790	0	328
28.561	14.389	16574	20379	0	328
20.267	6.527	16585	19881	0	328
11.648	0.325	16594	19235	0	328
5.445	0.180	16596	18436	0	328
6.455	4.436	16596	17586	0	328
8.763	8.078	16596	16772	0	328
12.982	8.727	16596	16113	0	328
15.398	6.816	16598	15556	0	328
18.897	3.354	16594	14970	0	328
17.634	3.065	16589	14310	0	328
16.264	4.832	16583	13723	0	328
15.254	8.979	16580	13320	0	328
16.084	14.172	16580	13122	0	328
19.473	16.697	16580	13063	0	328
24.306	18.031	16578	13056	0	328
26.578	17.815	16580	13071	0	328
24.919	15.903	16583	13159	0	328
21.313	16.480	16583	13298	0	328
21.781	18.175	16583	13437	0	328
24.522	21.168	16585	13533	0	328
29.174	24.486	16583	13621	0	328
32.384	23.981	16583	13694	0	328
29.787	20.303	16580	13731	0	328
23.188	15.795	16580	13811	0	328
17.166	11.396	16587	14178	0	328
12.766	11.396	16596	14750	0	328
11.432	13.920	16596	15072	0	328
13.992	16.408	16592	14962	0	328
17.418	18.247	16585	14610	0	328
22.467	19.005	16576	14266	0	328
27.371	18.103	16571	14038	0	328
31.699	19.978	16562	13914	0	328
37.685	22.070	16551	13782	0	328
39.524	25.171	16544	13599	0	328
42.229	29.066	16537	13599	0	328
41.507	33.754	16537	13870	0	328
41.147	37.396	16535	14222	0	328
39.163	39.127	16530	14471	0	328
38.370	39.163	16530	14603	0	328
41.183	40.353	16524	14706	0	328
42.193	42.589	16524	14816	0	328
43.238	44.609	16517	14904	0	328
43.166	46.232	16512	14940	0	328
39.993	43.058	16506	14962	0	328
34.656	37.036	16503	14999	0	328
31.987	33.718	16497	15102	0	328
31.662	33.754	16497	15343	0	328
33.321	35.052	16494	15651	0	328
35.557	36.170	16494	15879	0	328
35.629	35.485	16494	16033	0	328
32.239	30.761	16492	16165	0	328
26.722	26.758	16492	16231	0	328
20.195	22.214	16485	16231	0	328
17.670	19.618	16483	16187	0	328
15.290	15.903	16476	16128	0	328
14.028	11.864	16471	16055	0	328
11.396	5.265	16467	16018	0	328
5.121	-2.596	16462	16047	0	328
0.144	-6.924	16458	16047	0	328
-1.154	-6.167	16453	15981	0	328
4.400	2.921	16447	15901	0	328
13.595	11.251	16442	15871	0	328
17.887	14.172	16440	15827	0	328
13.920	6.852	16429	15688	0	328
2.308	-5.842	16420	15446	0	328
-9.340	-13.884	16408	15182	0	328
-11.035	-12.441	16399	14977	0	328
-3.823	-1.226	16390	14852	0	328
10.025	11.215	16384	14896	0	328
19.618	17.057	16383	15145	0	328
18.752	13.127	16384	15549	0	328
10.855	4.688	16383	15908	0	328
1.479	-3.570	16383	16143	0	328
-0.829	-2.957	16384	16398	0	328
2.957	0.649	16388	16772	0	328
11.035	8.150	16393	17161	0	328
15.543	9.412	16397	17491	0	328
15.543	10.206	16402	17754	0	328
13.812	8.222	16406	17967	0	328
11.684	11.287	16406	18106	0	328
13.271	14.605	16408	18106	0	328
13.343	18.031	16408	18011	0	328
12.874	16.444	16408	17879	0	328
10.927	13.091	16408	17710	0	328
7.717	8.691	16406	17527	0	328
6.094	5.049	16406	17425	0	328
2.957	0.865	16406	17403	0	328
-1.154	-0.469	16403	17337	0	328
-2.885	-0.613	16403	17183	0	328
-3.173	1.551	16402	16985	0	328
-0.180	6.131	16397	16750	0	328
4.003	7.248	16390	16420	0	328
6.058	2.813	16384	16047	0	328
3.714	-2.777	16378	15717	0	328
2.741	-6.744	16369	15446	0	328
1.767	-6.599	16356	15065	0	328
5.734	-1.479	16342	14588	0	328
9.845	3.462	16328	14170	0	328
14.064	7.898	16317	13863	0	328
13.271	5.986	16306	13613	0	328
9.016	1.983	16289	13371	0	328
4.688	-0.541	16274	13115	0	328
2.056	-1.911	16262	12968	0	328
3.390	0.613	16249	13019	0	328
4.760	3.570	16242	13188	0	328
4.580	4.544	16233	13291	0	328
2.308	1.154	16217	13291	0	328
1.767	-2.056	16211	13342	0	328
3.029	-3.823	16199	13540	0	328
4.940	-2.164	16192	13826	0	328
6.780	-3.282	16185	14126	0	328
2.200	-3.714	16181	14405	0	328
-1.623	-6.347	16174	14647	0	328
-4.472	-6.780	16170	14940	0	328
-2.921	-6.527	16167	15373	0	328
0.036	-2.705	16170	15930	0	328
4.868	-0.361	16172	16464	0	328
5.842	-1.046	16179	16970	0	328
3.570	-2.596	16183	17520	0	328
1.046	-4.508	16192	18165	0	328
0.974	-4.075	16206	18891	0	328
5.842	2.416	16220	19551	0	328
13.631	10.746	16226	19947	0	328
19.798	18.175	16235	20042	0	328
21.060	19.113	16247	20144	0	328
18.752	15.110	16256	20408	0	328
15.759	11.360	16267	20680	0	328
16.156	12.297	16285	20922	0	328
18.247	14.281	16297	21186	0	328
19.041	16.408	16312	21427	0	328
15.831	11.937	16333	21603	0	328
10.025	6.022	16344	21669	0	328
3.859	1.010	16356	21574	0	328
2.777	0.505	16365	21296	0	328
5.373	4.039	16371	20870	0	328
10.061	5.986	16378	20401	0	328
14.353	8.006	16385	20035	1	568
15.579	6.635	16394	19844	0	568
15.975	6.203	16408	19785	0	568
15.543	6.635	16420	19705	0	568
17.706	10.710	16429	19485	0	568
20.916	16.192	16435	19235	0	568
25.676	20.736	16447	19023	0	568
27.407	23.080	16458	18862	0	568
28.201	20.519	16470	18759	0	568
26.145	20.267	16480	18708	0	568
23.476	21.313	16497	18693	0	568
23.296	24.775	16510	18737	0	568
24.162	27.696	16528	18862	0	568
24.883	26.001	16542	18964	0	568
21.926	18.680	16553	18825	0	568
17.129	11.504	16556	18260	0	568
13.271	7.104	16553	17454	0	568
13.451	7.465	16557	16867	0	568
18.824	12.910	16562	16611	0	568
26.506	18.139	16566	16442	0	568
32.348	20.411	16574	16289	0	568
30.184	18.897	16580	16187	0	568
24.342	14.389	16587	16157	0	568
19.798	10.927	16596	16187	0	568
19.113	10.458	16603	16245	0	568
23.549	13.271	16610	16201	0	568
28.128	15.579	16610	15901	0	568
26.361	15.290	16605	15380	0	568
20.447	15.290	16603	14860	0	568
16.120	15.759	16598	14493	0	568
17.815	18.464	16594	14200	0	568
23.512	21.132	16585	13797	0	568
28.056	20.591	16576	13320	0	568
26.073	14.966	16571	13005	0	568
14.749	7.429	16565	12946	0	568
3.246	2.813	16562	13071	0	568
-2.885	0.108	16565	13283	0	568
-2.524	2.849	16560	13437	0	568
3.642	4.724	16556	13489	0	568
9.917	5.301	16557	13643	0	568
10.242	2.741	16557	13994	0	568
4.688	-2.452	16560	14427	0	568
-2.849	-7.609	16565	14845	0	568
-7.104	-7.681	16571	15204	0	568
-6.094	-4.291	16571	15453	0	568
-2.705	-3.642	16569	15519	0	568
-1.587	-5.121	16566	15417	0	568
-2.236	-11.251	16565	15336	0	568
-1.731	-14.425	16560	15365	0	568
2.200	-12.550	16560	15453	0	568
10.097	-5.049	16562	15578	0	568
16.480	0.288	16560	15754	0	568
15.723	2.236	16562	15937	0	568
11.828	0.505	16565	16069	0	568
6.780	-2.056	16562	16165	0	568
6.347	-2.416	16562	16194	0	568
9.737	-0.072	16562	16194	0	568
16.444	5.986	16562	16289	0	568
23.404	12.982	16562	16442	0	568
28.092	20.988	16569	16603	0	568
27.804	22.286	16566	16699	0	568
22.322	19.041	16565	16633	0	568
16.192	14.172	16562	16435	0	568
12.874	12.117	16557	16245	0	568
17.743	16.156	16556	16143	0	568
26.289	23.585	16551	16055	0	568
33.934	27.407	16544	15842	0	568
34.764	27.804	16535	15527	0	568
30.076	23.693	16530	15255	0	568
22.503	16.985	16521	15109	0	568
18.680	13.018	16519	15087	0	568
21.349	11.684	16510	15058	0	568
25.388	10.855	16506	14911	0	568
28.561	9.448	16497	14779	0	568
28.994	8.294	16494	14808	0	568
25.856	5.337	16488	14962	0	568
22.467	6.816	16485	15116	0	568
23.476	9.701	16480	15197	0	568
27.227	15.651	16479	15343	0	568
30.472	17.743	16483	15644	0	568
31.482	17.129	16483	16062	0	568
29.391	14.208	16489	16493	0	568
23.260	11.648	16492	16765	0	568
18.824	11.612	16483	16647	0	568
16.589	14.749	16479	16267	0	568
18.103	18.139	16470	16040	0	568
23.476	20.988	16467	16047	0	568
27.840	21.745	16465	16047	0	568
29.679	18.283	16456	15879	0	568
25.856	14.353	16440	15402	0	568
22.683	11.360	16424	14742	0	568
19.654	9.556	16411	14280	0	568
22.142	11.540	16399	14082	0	568
26.686	15.687	16388	13994	0	568
30.076	18.283	16378	13965	0	568
29.030	18.500	16366	13906	0	568
23.332	14.894	16353	13789	0	568
20.087	9.809	16342	13753	0	568
21.349	10.206	16335	13833	0	568
27.191	15.362	16324	13928	0	568
37.144	23.801	16308	13884	0	568
40.714	29.787	16294	13709	0	568
35.197	28.237	16283	13613	0	568
24.594	19.365	16271	13760	0	568
13.487	9.989	16267	14112	0	568
7.717	4.580	16258	14493	0	568
6.996	3.101	16258	14830	0	568
8.258	2.596	16253	15270	0	568
7.501	-0.036	16256	15820	0	568
5.626	-3.534	16253	16297	0	568
3.606	-5.337	16256	16640	0	568
4.327	-2.669	16253	16904	0	568
5.734	3.462	16256	17161	0	568
7.681	9.556	16256	17469	0	568
7.285	7.501	16260	17828	0	568
2.128	0.577	16260	18106	0	568
-3.318	-8.691	16262	18209	0	568
-8.655	-14.533	16260	18194	0	568
-8.583	-12.838	16262	18187	0	568
-4.075	-4.508	16262	18246	0	568
4.255	3.823	16267	18348	0	568
9.124	9.989	16262	18334	0	568
10.350	8.258	16258	17967	0	568
8.042	5.013	16244	17322	0	568
4.183	1.731	16238	16779	0	568
2.236	-0.613	16226	16464	0	568
0.000	-1.298	16220	16201	0	568
-0.541	-1.479	16208	15901	0	568
-0.902	-0.974	16199	15629	0	568
-0.613	-1.947	16192	15431	0	568
0.505	-1.370	16185	15277	0	568
2.344	-0.108	16174	15102	0	568
2.596	-1.911	16165	14962	0	568
1.875	-3.282	16156	14904	0	568
3.065	-3.534	16147	14794	0	568
2.993	-4.616	16135	14603	0	568
4.652	-3.967	16129	14552	0	568
5.301	-3.606	16122	14706	0	568
5.626	-1.659	16115	14823	0	568
7.537	1.406	16104	14728	0	568
9.196	3.462	16095	14559	0	568
12.802	7.825	16088	14603	0	568
15.110	8.402	16086	14918	0	568
16.048	7.321	16086	15395	0	568
14.966	6.455	16088	15915	0	568
13.884	5.229	16093	16449	0	568
13.127	6.203	16102	17073	0	568
12.766	8.475	16113	17784	0	568
14.785	8.835	16126	18524	0	568
15.543	9.881	16143	19279	0	568
15.687	7.645	16158	19991	0	568
15.651	5.878	16179	20606	0	568
14.533	4.940	16199	21178	0	568
15.507	6.167	16220	21757	0	568
18.175	8.222	16242	22359	0	568
17.490	9.304	16267	22798	0	568
15.831	9.989	16279	22828	0	568
11.107	5.445	16289	22498	0	568
6.275	3.029	16308	22219	0	568
3.462	-0.361	16321	22139	0	568
6.239	0.685	16339	22124	0	568
9.196	3.065	16360	22109	1	644
14.677	4.400	16378	22073	0	644
16.552	4.327	16393	21926	0	644
16.264	3.859	16412	21765	0	644
13.595	4.291	16438	21867	0	644
10.386	6.960	16462	22205	0	644
8.619	9.124	16485	22337	0	644
8.294	9.412	16506	22058	0	644
9.592	6.094	16519	21530	0	644
8.943	0.036	16533	20988	0	644
9.989	-3.173	16548	20496	0	644
11.287	-1.623	16557	19991	0	644
12.946	2.380	16566	19426	0	644
15.110	8.258	16578	18847	0	644
14.569	10.133	16585	18304	0	644
14.497	9.124	16592	17806	0	644
16.228	7.717	16601	17373	0	644
18.103	9.196	16605	16933	0	644
20.916	12.009	16612	16413	0	644
19.798	12.658	16610	15769	0	644
15.002	10.963	16601	14867	0	644
9.917	5.662	16589	13819	0	644
6.708	0.721	16580	13005	0	644
6.167	-0.108	16574	12514	0	644
8.439	0.865	16571	12198	0	644
10.855	2.957	16565	12081	0	644
12.261	3.318	16565	12169	0	644
11.035	0.974	16566	12345	0	644
10.169	-3.101	16565	12506	0	644
7.104	-4.977	16565	12719	0	644
7.609	-5.770	16571	13012	0	644
10.566	-2.128	16576	13386	0	644
17.418	2.885	16578	13767	0	644
22.791	4.868	16583	14060	0	644
23.657	7.825	16585	14288	0	644
20.627	7.862	16587	14464	0	644
14.605	5.806	16585	14566	0	644
13.523	5.409	16587	14684	0	644
17.923	6.275	16594	15028	0	644
26.433	8.294	16598	15468	0	644
32.853	12.550	16601	15593	0	644
31.735	15.723	16594	15314	0	644
26.001	14.425	16585	14904	0	644
18.788	9.809	16580	14625	0	644
15.110	6.744	16569	14442	0	644
16.048	4.364	16562	14156	0	644
19.726	5.409	16547	13775	0	644
21.132	9.556	16539	13496	0	644
18.680	9.917	16528	13452	0	644
15.795	8.150	16524	13613	0	644
13.487	5.085	16521	13863	0	644
16.264	5.121	16515	14068	0	644
21.601	8.439	16510	14185	0	644
26.181	13.235	16506	14317	0	644
27.191	17.129	16506	14566	0	644
24.630	16.444	16503	14889	0	644
19.834	13.668	16501	15160	0	644
19.005	10.566	16501	15314	0	644
20.772	9.016	16494	15446	0	644
23.837	9.304	16497	15651	0	644
24.198	7.429	16494	15967	0	644
23.693	5.301	16501	16348	0	644
18.067	1.298	16501	16684	0	644
12.045	-2.560	16501	16845	0	644
8.547	-3.823	16489	16618	0	644
6.744	-2.272	16483	16106	0	644
8.078	4.364	16474	15703	0	644
11.360	11.648	16462	15527	0	644
16.805	16.913	16456	15439	0	644
21.313	18.392	16451	15380	0	644
23.440	16.805	16442	15336	0	644
22.467	13.235	16438	15409	0	644
18.211	10.819	16444	15849	0	644
13.884	11.756	16453	16552	0	644
12.694	13.884	16456	17051	0	644
13.631	16.192	16453	17095	0	644
15.579	17.743	16449	16897	0	644
15.579	17.670	16449	16757	0	644
11.828	16.084	16444	16750	0	644
11.251	14.641	16442	16809	0	644
12.694	15.182	16440	16757	0	644
14.461	15.182	16435	16545	0	644
16.120	13.884	16429	16319	0	644
15.579	12.586	16424	16187	0	644
13.379	9.052	16422	16179	0	644
12.081	8.835	16417	16216	0	644
12.117	7.285	16412	16201	0	644
12.658	9.484	16411	16179	0	644
12.189	9.629	16408	16179	0	644
11.251	10.530	16403	16128	0	644
10.097	11.360	16399	15989	0	644
10.783	11.251	16388	15747	0	644
9.629	9.809	16380	15483	0	644
10.097	7.934	16374	15299	0	644
9.953	6.924	16362	15124	0	644
12.009	8.078	16353	14852	0	644
15.471	11.684	16342	14574	0	644
16.949	11.937	16333	14405	0	644
16.697	10.169	16321	14383	0	644
13.415	5.193	16315	14471	0	644
9.124	-0.577	16310	14625	0	644
9.160	-1.731	16303	14750	0	644
11.035	1.190	16297	14816	0	644
13.595	3.967	16288	14838	0	644
14.497	6.996	16280	14808	0	644
12.225	6.671	16267	14728	0	644
10.963	5.950	16260	14632	0	644
12.405	4.652	16247	14552	0	644
15.687	6.094	16238	14464	0	644
18.644	9.412	16220	14258	0	644
22.358	10.350	16206	13965	0	644
20.808	10.133	16188	13679	0	644
19.762	7.681	16163	13247	0	644
18.860	6.744	16140	12667	0	644
20.411	7.212	16115	12228	0	644
22.395	10.710	16095	12022	0	644
24.883	12.586	16075	12015	0	644
25.135	14.677	16063	12220	0	644
23.404	15.723	16052	12631	0	644
23.621	17.021	16040	13115	0	644
24.666	21.241	16034	13599	0	644
28.417	23.404	16031	14200	0	644
29.751	23.909	16029	14933	0	644
28.777	23.873	16031	15644	0	644
24.991	19.149	16029	16231	0	644
20.700	14.894	16027	16699	0	644
17.815	11.792	16029	17102	0	644
16.841	9.124	16029	17520	0	644
17.887	10.710	16034	18018	0	644
19.546	13.631	16038	18546	0	644
22.683	14.064	16043	19015	0	644
24.955	14.569	16049	19389	0	644
26.289	12.766	16058	19727	0	644
23.837	10.963	16066	20086	0	644
21.024	7.789	16075	20438	0	644
16.264	7.140	16086	20702	0	644
14.713	6.311	16095	20870	0	644
16.480	5.734	16104	21002	0	644
17.021	4.940	16115	21112	0	644
16.444	1.046	16125	21120	0	644
11.900	-3.246	16131	20988	0	644
7.862	-6.058	16135	20819	0	644
6.311	-4.760	16147	20665	0	644
11.323	0.505	16149	20408	0	644
16.841	6.527	16154	20049	1	576
19.546	9.412	16158	19741	0	576
17.923	10.278	16165	19551	0	576
14.497	9.196	16170	19389	0	576
10.999	7.501	16174	19118	0	576
11.792	8.258	16176	18774	0	576
14.785	8.475	16185	18539	0	576
17.166	9.881	16194	18546	0	576
18.067	10.674	16206	18715	0	576
18.464	12.153	16220	18905	0	576
17.815	14.064	16233	19030	0	576
19.401	15.471	16242	19081	0	576
21.709	15.615	16253	18942	0	576
21.673	14.281	16256	18612	0	576
21.241	12.730	16267	18348	0	576
19.329	10.133	16271	18202	0	576
16.516	7.753	16283	18114	0	576
14.858	6.671	16294	18128	0	576
14.028	6.888	16310	18348	0	576
15.146	8.439	16330	18730	0	576
17.490	14.064	16348	19089	0	576
22.503	19.365	16366	19353	0	576
25.424	22.467	16384	19551	0	576
26.542	21.385	16403	19756	0	576
24.558	20.736	16424	19932	0	576
24.558	18.860	16435	19895	0	576
25.316	18.680	16444	19470	0	576
26.325	20.123	16451	18796	0	576
25.532	19.365	16456	18238	0	576
22.467	17.382	16462	17879	0	576
19.978	15.939	16470	17557	0	576
19.473	15.290	16476	17241	0	576
18.752	15.254	16480	16985	0	576
17.851	15.795	16489	16772	0	576
17.454	17.274	16492	16559	0	576
17.851	17.346	16501	16348	0	576
19.906	18.247	16503	16135	0	576
22.683	17.310	16508	15908	0	576
20.591	15.759	16506	15585	0	576
18.716	13.451	16508	15182	0	576
17.959	16.841	16506	14816	0	576
20.447	19.726	16506	14552	0	576
25.460	21.890	16506	14361	0	576
25.965	22.647	16501	14148	0	576
25.568	17.815	16499	13855	0	576
22.647	13.199	16492	13613	0	576
21.241	10.061	16492	13547	0	576
18.933	8.871	16488	13606	0	576
17.166	7.212	16489	13701	0	576
10.025	3.246	16489	13797	0	576
3.895	-1.875	16488	13921	0	576
0.397	-6.527	16489	14075	0	576
1.082	-6.563	16489	14280	0	576
5.806	-2.092	16492	14515	0	576
10.819	3.318	16489	14684	0	576
12.622	6.816	16494	14801	0	576
10.783	8.655	16497	14992	0	576
8.511	6.094	16499	15292	0	576
4.724	3.714	16506	15593	0	576
3.823	2.164	16503	15776	0	576
3.101	1.406	16508	15871	0	576
6.131	2.380	16506	15923	0	576
8.439	6.671	16508	15937	0	576
12.189	9.412	16506	15930	0	576
14.713	11.540	16508	15974	0	576
15.579	11.720	16503	15974	0	576
15.218	11.540	16499	15747	0	576
17.454	14.677	16489	15292	0	576
19.618	18.175	16476	14786	0	576
22.034	21.060	16470	14412	0	576
20.664	19.798	16458	14214	0	576
17.129	15.867	16449	14141	0	576
13.199	11.792	16444	14126	0	576
11.540	9.953	16440	14214	0	576
12.658	8.330	16438	14478	0	576
14.353	9.701	16438	14874	0	576
15.254	7.970	16440	15263	0	576
14.605	7.970	16442	15563	0	576
13.848	8.114	16440	15747	0	576
13.235	10.025	16440	15864	0	576
15.290	10.927	16433	15871	0	576
16.228	10.674	16424	15600	0	576
17.202	9.160	16408	15021	0	576
17.093	9.232	16393	14420	0	576
17.454	9.160	16380	14053	0	576
16.516	13.487	16371	13980	0	576
17.166	17.021	16365	14185	0	576
19.726	17.995	16362	14537	0	576
19.293	16.661	16357	14874	0	576
18.644	13.595	16356	15160	0	576
17.057	9.016	16357	15468	0	576
13.487	6.203	16360	15871	0	576
11.612	2.092	16362	16326	0	576
10.710	-0.288	16365	16728	0	576
8.583	-1.406	16366	17051	0	576
9.196	-0.902	16371	17366	0	576
7.681	1.803	16375	17674	0	576
8.258	3.029	16383	17923	0	576
9.340	4.688	16384	18040	0	576
11.792	4.255	16384	18011	0	576
12.982	4.508	16380	17813	0	576
14.785	3.859	16371	17337	0	576
12.622	3.318	16360	16691	0	576
10.855	3.210	16346	16113	0	576
8.871	3.967	16337	15666	0	576
11.432	7.862	16321	15255	0	576
16.120	13.704	16306	14786	0	576
21.204	15.939	16294	14354	0	576
22.070	17.454	16285	14185	0	576
19.762	15.507	16276	14280	0	576
17.129	14.353	16271	14412	0	576
16.480	14.533	16260	14434	0	576
18.139	16.300	16251	14354	0	576
18.860	16.336	16240	14288	0	576
16.985	14.749	16235	14339	0	576
13.523	11.287	16226	14493	0	576
13.054	8.835	16221	14654	0	576
14.821	10.169	16215	14750	0	576
18.680	12.297	16206	14838	0	576
21.529	15.795	16203	15058	0	576
21.313	15.903	16203	15446	0	576
18.824	13.163	16203	15886	0	576
15.615	9.665	16202	16179	0	576
16.300	9.412	16199	16297	0	576
20.231	13.523	16197	16405	0	576
24.486	18.572	16194	16633	0	576
26.506	19.978	16194	16845	0	576
23.440	15.795	16192	16926	0	576
18.536	7.970	16190	16926	0	576
14.930	3.750	16185	16919	0	576
16.192	3.534	16183	16933	0	576
17.887	6.455	16183	16985	0	576
17.238	9.304	16181	17021	0	576
14.172	7.898	16174	16897	0	576
13.018	5.914	16161	16486	0	576
14.425	7.176	16149	15908	0	576
19.546	10.314	16134	15387	0	576
21.673	14.858	16120	15021	0	576
22.755	15.398	16106	14750	0	576
17.923	12.946	16097	14522	0	576
14.605	6.131	16079	14258	0	576
14.353	3.750	16063	13950	0	576
16.084	2.957	16049	13723	0	576
19.257	6.022	16040	13694	0	576
23.044	11.071	16031	13877	0	576
25.243	14.821	16025	14156	0	576
25.496	15.759	16018	14405	0	576
23.621	14.281	16011	14698	0	576
18.211	12.189	16013	15138	0	576
11.215	6.744	16013	15681	0	576
5.554	2.344	16016	16165	0	576
3.390	-1.154	16013	16486	0	576
4.796	-3.029	16016	16743	0	576
7.789	-2.272	16018	17102	0	576
11.792	0.469	16025	17696	0	576
15.579	2.993	16038	18422	0	576
18.608	5.590	16049	19103	0	576
22.827	7.176	16066	19705	0	576
24.702	9.196	16081	20306	0	576
23.801	10.602	16102	20936	0	576
22.106	10.314	16122	21581	0	576
18.247	9.845	16140	22117	0	576
16.913	8.979	16158	22337	0	576
16.589	10.638	16170	22271	0	576
18.500	13.235	16188	22249	0	576
20.664	14.100	16206	22381	0	576
20.411	14.858	16221	22461	0	576
19.978	14.713	16242	22425	0	576
20.123	16.012	16256	22329	0	576
21.709	19.906	16274	22197	1	676
25.893	23.440	16289	22065	0	676
28.850	25.279	16308	21926	0	676
29.535	24.450	16326	21765	0	676
28.525	22.611	16342	21515	0	676
27.371	20.664	16351	21098	0	676
27.984	21.385	16365	20606	0	676
27.840	21.313	16380	20291	0	676
28.561	21.349	16393	20093	0	676
26.686	19.510	16397	19536	0	676
26.109	17.526	16394	18517	0	676
24.450	13.884	16390	17432	0	676
22.972	10.386	16388	16618	0	676
20.772	7.537	16390	16077	0	676
16.408	6.022	16390	15688	0	676
13.018	4.940	16393	15373	0	676
10.638	6.527	16394	15072	0	676
8.511	5.842	16397	14838	0	676
8.222	3.390	16402	14750	0	676
7.789	1.479	16411	14867	0	676
9.917	2.524	16417	15131	0	676
12.081	5.049	16426	15373	0	676
15.975	9.304	16435	15527	0	676
17.959	12.189	16444	15659	0	676
20.267	12.261	16453	15827	0	676
22.214	13.523	16460	15996	0	676
25.856	14.785	16470	16062	0	676
29.391	16.913	16474	16025	0	676
32.384	16.228	16479	15974	0	676
31.049	13.343	16485	15996	0	676
25.604	8.402	16489	16084	0	676
20.700	7.357	16494	16047	0	676
16.012	6.780	16489	15695	0	676
15.831	11.360	16483	15094	0	676
17.057	13.740	16474	14427	0	676
21.204	15.110	16460	13819	0	676
24.306	14.064	16453	13349	0	676
27.732	14.497	16440	12953	0	676
28.056	13.559	16422	12352	0	676
23.909	12.838	16399	11597	0	676
19.942	11.287	16383	11084	0	676
15.290	9.340	16369	10945	0	676
17.202	7.753	16357	11040	0	676
23.260	10.927	16348	11297	0	676
29.463	15.038	16342	11590	0	676
33.285	19.257	16333	11854	0	676
36.351	23.260	16326	12118	0	676
36.423	25.676	16312	12242	0	676
35.305	25.856	16298	12154	0	676
32.564	23.332	16285	12081	0	676
28.994	19.870	16271	12206	0	676
26.253	17.093	16265	12536	0	676
27.587	14.461	16260	13085	0	676
28.561	15.435	16262	13833	0	676
29.318	16.841	16265	14676	0	676
26.794	15.651	16269	15468	0	676
23.224	13.343	16276	16209	0	676
21.962	10.783	16283	16948	0	676
23.837	8.871	16297	17754	0	676
25.207	8.042	16308	18546	0	676
24.053	9.412	16317	19177	0	676
21.854	9.124	16328	19587	0	676
18.139	9.196	16339	19917	0	676
16.985	8.330	16351	20232	0	676
18.500	7.248	16360	20496	0	676
20.411	7.429	16369	20636	0	676
21.457	7.212	16378	20650	0	676
20.591	8.475	16383	20504	0	676
21.277	7.645	16383	20115	0	676
20.339	8.835	16380	19536	0	676
21.421	7.501	16378	18979	0	676
23.044	9.484	16380	18539	0	676
23.657	11.287	16375	18136	0	676
24.991	14.317	16374	17696	0	676
24.198	15.687	16369	17234	0	676
20.411	15.579	16362	16772	0	676
17.562	14.100	16356	16326	0	676
15.146	12.658	16348	15915	0	676
15.074	13.199	16344	15600	0	676
17.238	12.694	16335	15307	0	676
17.887	12.838	16328	15072	0	676
15.507	8.871	16328	14992	0	676
11.251	5.950	16326	15043	0	676
8.439	2.236	16321	15080	0	676
6.780	1.623	16317	14999	0	676
7.681	1.262	16315	14926	0	676
8.943	-1.082	16310	14940	0	676
9.412	-4.544	16306	14926	0	676
10.422	-5.517	16298	14845	0	676
16.264	-1.515	16294	14772	0	676
24.702	8.727	16288	14728	0	676
32.925	17.382	16283	14779	0	676
36.206	21.926	16285	14977	0	676
32.239	17.598	16283	15226	0	676
23.621	10.494	16283	15402	0	676
17.346	5.914	16276	15424	0	676
14.713	3.787	16262	15138	0	676
16.084	3.101	16251	14625	0	676
19.041	3.354	16238	14244	0	676
20.159	0.433	16226	14082	0	676
19.077	-1.334	16220	14016	0	676
17.346	-1.334	16206	14009	0	676
17.093	-0.144	16197	13972	0	676
18.211	2.849	16190	14002	0	676
21.204	5.878	16192	14442	0	676
21.998	7.248	16194	15204	0	676
23.512	6.708	16194	15739	0	676
20.555	4.436	16192	15820	0	676
19.870	4.183	16183	15688	0	676
17.923	5.085	16176	15593	0	676
17.490	8.619	16170	15607	0	676
16.949	10.169	16167	15732	0	676
16.192	10.783	16163	15864	0	676
15.543	7.717	16161	15959	0	676
14.172	5.229	16158	16135	0	676
12.297	2.019	16158	16413	0	676
10.746	0.361	16158	16669	0	676
11.432	-0.397	16156	16838	0	676
13.884	1.587	16154	16875	0	676
17.382	3.570	16152	16831	0	676
20.664	7.645	16149	16838	0	676
21.168	8.799	16149	16970	0	676
19.942	7.934	16149	17109	0	676
16.697	7.681	16147	17087	0	676
14.605	6.275	16140	16882	0	676
13.776	7.321	16134	16640	0	676
14.641	9.232	16134	16640	0	676
12.910	11.468	16135	16860	0	676
11.035	10.242	16138	17117	0	676
9.268	10.710	16138	17256	0	676
7.862	8.583	16134	17131	0	676
11.900	9.592	16129	16831	0	676
15.939	13.018	16129	16713	0	676
19.582	15.723	16129	16867	0	676
20.736	17.851	16135	17153	0	676
19.690	16.589	16143	17520	0	676
16.480	13.199	16149	17872	0	676
15.254	8.655	16156	18180	0	676
12.982	4.580	16167	18532	0	676
12.297	3.787	16181	18927	0	676
12.514	4.075	16192	19257	0	676
13.487	7.501	16199	19411	0	676
13.740	11.720	16212	19463	0	676
16.480	14.281	16224	19580	0	676
18.752	15.867	16235	19822	0	676
18.860	14.605	16253	20181	0	676
16.408	14.425	16269	20533	0	676
14.461	13.776	16289	20746	0	676
12.117	15.326	16303	20863	0	676
12.766	19.221	16321	20966	0	676
14.930	21.998	16339	21098	0	676
17.021	25.712	16360	21193	0	676
16.120	25.856	16375	21164	0	676
14.641	26.253	16393	21090	0	676
16.192	25.099	16408	21083	0	676
19.942	25.712	16429	21134	0	676
24.234	26.974	16447	21090	1	624
29.138	26.650	16462	20804	0	624
29.246	26.794	16467	20284	0	624
26.830	25.063	16476	19661	0	624
22.827	21.998	16488	19155	0	624
21.493	19.834	16494	18781	0	624
20.736	18.031	16503	18378	0	624
21.168	15.543	16508	17938	0	624
20.844	12.910	16517	17535	0	624
18.680	10.350	16519	17102	0	624
17.887	8.727	16526	16655	0	624
18.211	11.251	16526	16231	0	624
19.221	14.208	16528	15805	0	624
20.591	17.021	16526	15314	0	624
19.546	18.680	16519	14735	0	624
18.031	16.661	16515	14134	0	624
16.733	15.362	16506	13591	0	624
17.706	16.697	16499	13115	0	624
19.618	18.608	16494	12697	0	624
18.969	18.680	16483	12367	0	624
15.831	17.490	16474	12103	0	624
11.035	14.533	16465	11861	0	624
7.681	11.396	16453	11692	0	624
11.684	12.802	16449	11663	0	624
15.795	14.389	16440	11663	0	624
19.149	15.939	16429	11582	0	624
18.247	14.641	16415	11509	0	624
10.999	9.196	16406	11531	0	624
8.402	4.652	16397	11634	0	624
11.143	5.265	16388	11758	0	624
18.247	8.727	16378	11861	0	624
27.263	14.208	16369	12022	0	624
33.754	18.897	16362	12323	0	624
34.872	20.050	16360	12733	0	624
34.331	21.132	16356	13144	0	624
32.600	20.700	16348	13445	0	624
31.374	19.546	16342	13665	0	624
29.138	17.093	16337	13892	0	624
27.624	11.071	16333	14244	0	624
26.325	8.258	16335	14764	0	624
25.748	8.330	16335	15329	0	624
29.463	10.169	16337	15871	0	624
30.833	13.199	16339	16384	0	624
31.915	12.586	16344	16845	0	624
26.253	9.088	16351	17300	0	624
18.680	3.642	16357	17740	0	624
14.136	0.613	16360	18004	0	624
15.182	3.210	16357	18018	0	624
22.034	8.547	16357	17982	0	624
26.866	15.579	16360	18018	0	624
26.938	18.536	16360	18077	0	624
19.437	15.831	16366	18180	0	624
11.900	11.323	16371	18348	0	624
8.366	5.662	16375	18524	0	624
9.052	4.760	16380	18634	0	624
11.215	3.354	16384	18686	0	624
11.973	2.596	16390	18759	0	624
9.953	0.721	16397	18891	0	624
11.179	1.154	16402	18913	0	624
14.389	2.777	16403	18752	0	624
20.375	10.674	16408	18546	0	624
26.109	14.497	16411	18429	0	624
25.496	15.615	16415	18370	0	624
21.709	12.730	16415	18202	0	624
17.743	9.376	16412	17879	0	624
14.208	6.671	16412	17542	0	624
12.910	8.006	16415	17307	0	624
15.975	8.583	16415	17139	0	624
17.454	8.727	16415	16970	0	624
21.096	11.143	16412	16765	0	624
25.352	13.776	16411	16501	0	624
28.273	16.552	16403	16091	0	624
28.417	18.392	16397	15615	0	624
26.506	16.048	16390	15292	0	624
23.368	12.730	16385	15087	0	624
22.575	10.350	16383	14911	0	624
24.234	11.179	16378	14838	0	624
24.811	12.261	16378	14933	0	624
26.253	16.120	16378	15131	0	624
25.856	19.762	16378	15299	0	624
26.722	21.998	16371	15263	0	624
27.876	21.962	16365	14992	0	624
28.814	21.024	16356	14706	0	624
29.102	18.572	16346	14493	0	624
25.063	16.661	16339	14332	0	624
20.988	15.435	16333	14251	0	624
15.471	13.379	16326	14229	0	624
11.432	8.979	16317	14192	0	624
8.835	6.491	16310	14170	0	624
9.592	4.977	16310	14339	0	624
9.412	5.554	16308	14669	0	624
10.963	5.301	16301	14911	0	624
8.222	4.616	16297	14955	0	624
8.114	2.308	16289	14874	0	624
9.845	2.092	16280	14794	0	624
13.199	6.022	16276	14808	0	624
19.401	8.655	16269	14896	0	624
22.142	10.999	16265	14948	0	624
21.854	9.304	16253	14867	0	624
18.031	7.609	16247	14742	0	624
14.317	5.734	16235	14698	0	624
10.963	6.852	16231	14786	0	624
10.999	8.655	16221	14926	0	624
10.891	7.970	16217	15036	0	624
10.963	6.816	16211	15058	0	624
12.045	6.780	16199	14948	0	624
16.264	10.242	16183	14713	0	624
21.637	16.949	16172	14500	0	624
25.207	23.008	16163	14412	0	624
27.191	25.027	16152	14471	0	624
23.837	24.378	16147	14676	0	624
20.267	21.313	16144	15058	0	624
16.156	18.175	16147	15585	0	624
15.290	16.516	16149	16165	0	624
14.749	15.831	16154	16757	0	624
14.749	15.867	16163	17417	0	624
18.500	16.228	16174	18128	0	624
20.447	19.221	16188	18825	0	624
22.358	19.077	16202	19441	0	624
21.565	18.969	16215	19998	0	624
18.788	16.120	16229	20452	0	624
15.398	14.281	16238	20665	0	624
12.405	11.360	16251	20768	0	624
12.261	9.160	16269	21120	0	624
11.828	7.285	16292	21721	0	624
13.451	4.904	16310	22197	0	624
15.254	6.708	16328	22359	0	624
17.021	7.212	16342	22315	0	624
18.680	9.881	16360	22219	0	624
18.500	11.612	16375	22146	0	624
17.454	10.855	16393	22139	0	624
15.615	9.592	16411	22161	1	524
12.802	10.025	16429	22139	0	524
11.648	9.881	16449	22109	0	524
11.648	10.133	16471	22080	0	524
11.432	10.350	16488	21970	0	524
11.900	8.619	16506	21735	0	524
11.179	6.527	16517	21340	0	524
9.448	4.327	16533	20841	0	524
7.970	3.354	16539	20269	0	524
7.104	1.334	16544	19521	0	524
8.078	2.524	16547	18612	0	524
8.727	3.426	16544	17784	0	524
10.999	6.022	16551	17139	0	524
12.477	8.763	16551	16655	0	524
14.281	9.448	16556	16341	0	524
12.874	7.717	16565	16113	0	524
12.225	4.400	16569	15901	0	524
10.674	1.082	16571	15659	0	524
12.405	2.669	16574	15329	0	524
14.858	6.347	16574	14940	0	524
15.795	11.648	16574	14603	0	524
15.759	15.146	16571	14339	0	524
12.622	16.913	16571	14112	0	524
12.946	16.877	16566	13841	0	524
16.444	18.500	16557	13430	0	524
21.096	21.421	16553	13034	0	524
25.207	21.781	16556	13019	0	524
24.594	22.358	16557	13379	0	524
20.339	18.788	16560	13709	0	524
17.274	15.867	16560	13767	0	524
17.093	15.290	16553	13657	0	524
18.067	15.254	16553	13599	0	524
20.339	16.228	16553	13709	0	524
17.923	11.035	16553	13958	0	524
10.602	4.688	16553	14222	0	524
3.931	-4.003	16553	14354	0	524
0.938	-6.708	16547	14324	0	524
2.849	-4.364	16544	14244	0	524
8.366	1.911	16542	14251	0	524
13.595	5.445	16535	14339	0	524
16.769	7.645	16535	14427	0	524
20.375	8.042	16533	14552	0	524
23.873	11.107	16535	14816	0	524
29.174	13.740	16537	15211	0	524
30.833	17.202	16539	15629	0	524
29.751	17.021	16547	15974	0	524
26.686	15.507	16551	16260	0	524
22.395	12.586	16553	16501	0	524
20.555	12.261	16560	16721	0	524
18.175	10.855	16562	16926	0	524
18.031	12.477	16565	17058	0	524
18.644	13.884	16569	17109	0	524
20.591	16.192	16571	17168	0	524
22.178	17.779	16574	17278	0	524
23.404	20.050	16583	17491	0	524
23.801	22.755	16594	17901	0	524
23.332	23.585	16607	18414	0	524
22.034	22.431	16616	18708	0	524
22.972	19.546	16619	18620	0	524
19.473	16.300	16619	18238	0	524
17.382	13.235	16614	17784	0	524
14.894	13.523	16610	17300	0	524
14.317	14.317	16603	16699	0	524
15.002	13.091	16587	15915	0	524
15.903	13.054	16574	15058	0	524
16.985	13.415	16557	14361	0	524
19.762	15.795	16547	13899	0	524
20.844	20.844	16535	13628	0	524
23.332	23.585	16521	13401	0	524
24.198	24.702	16512	13166	0	524
22.539	22.467	16497	12953	0	524
21.385	19.149	16480	12616	0	524
19.041	17.562	16458	12066	0	524
17.418	17.887	16438	11597	0	524
17.166	20.014	16420	11355	0	524
18.175	21.313	16403	11304	0	524
22.106	25.135	16390	11414	0	524
27.732	27.119	16378	11670	0	524
31.987	28.453	16365	11890	0	524
31.194	27.263	16344	11810	0	524
24.991	25.388	16324	11531	0	524
19.654	21.673	16306	11516	0	524
15.398	19.978	16297	11927	0	524
15.435	19.185	16289	12543	0	524
18.464	16.949	16280	13188	0	524
20.591	15.579	16279	13811	0	524
21.457	14.641	16274	14434	0	524
21.854	16.985	16269	15043	0	524
20.736	18.031	16274	15666	0	524
18.608	17.562	16276	16391	0	524
14.641	17.021	16280	17109	0	524
11.143	14.317	16280	17564	0	524
11.251	13.487	16279	17725	0	524
15.471	16.300	16274	17776	0	524
21.313	20.880	16269	17850	0	524
26.361	22.827	16269	17952	0	524
28.777	25.099	16260	17864	0	524
29.174	25.279	16249	17439	0	524
28.417	24.162	16235	16941	0	524
26.686	22.070	16233	16816	0	524
26.253	20.411	16235	17080	0	524
22.106	15.543	16233	17425	0	524
18.031	12.838	16233	17623	0	524
15.074	10.746	16229	17688	0	524
15.759	12.946	16231	17718	0	524
17.634	15.795	16231	17806	0	524
20.195	17.382	16231	17938	0	524
22.106	17.598	16231	17982	0	524
21.781	17.346	16221	17710	0	524
21.745	16.012	16215	17234	0	524
19.510	15.723	16211	16897	0	524
18.283	13.487	16202	16794	0	524
15.002	12.225	16199	16743	0	524
13.668	12.081	16194	16625	0	524
13.848	15.218	16190	16508	0	524
17.274	16.949	16185	16486	0	524
18.283	18.428	16185	16596	0	524
19.834	15.759	16185	16743	0	524
19.113	12.658	16183	16794	0	524
16.552	10.061	16183	16765	0	524
12.802	5.950	16181	16794	0	524
9.196	3.895	16183	16911	0	524
7.717	2.236	16185	17073	0	524
10.025	1.082	16188	17219	0	524
13.523	3.282	16190	17373	0	524
19.365	4.616	16194	17542	0	524
21.890	8.402	16199	17725	0	524
22.719	10.350	16208	18004	0	524
21.529	13.163	16221	18524	0	524
20.519	14.858	16238	19162	0	524
19.762	13.379	16249	19573	0	524
17.959	12.694	16260	19668	0	524
17.598	10.783	16265	19602	0	524
15.038	7.825	16276	19529	0	524
12.766	6.275	16280	19433	0	524
10.097	4.868	16283	19111	0	524
13.091	4.868	16279	18488	0	524
17.274	8.258	16274	17842	0	524
20.988	9.232	16276	17461	0	524
23.224	12.369	16279	17366	0	524
20.880	12.694	16289	17498	0	524
16.336	12.910	16298	17762	0	524
13.848	13.163	16310	18084	0	524
13.920	14.497	16326	18444	0	524
17.634	15.759	16342	18803	0	524
19.618	16.264	16356	19081	0	524
21.024	15.975	16369	19257	0	524
19.690	14.245	16384	19404	0	524
17.779	12.441	16399	19551	0	524
16.661	13.018	16415	19712	0	524
15.939	13.704	16433	19932	0	524
15.759	14.858	16451	20152	0	524
16.336	15.038	16470	20232	0	524
18.392	14.172	16476	19991	0	524
20.772	14.894	16479	19301	0	524
23.729	15.471	16480	18444	0	524
23.801	14.605	16480	17784	0	524
20.411	10.963	16485	17373	0	524
14.966	8.583	16488	17087	0	524
11.756	6.022	16492	16882	0	524
10.061	6.599	16497	16596	0	524
11.792	7.501	16499	16319	0	524
15.435	11.107	16515	16398	0	524
18.103	11.323	16526	16845	0	524
19.546	13.235	16539	17219	0	524
19.798	15.615	16551	17278	0	524
18.788	18.175	16557	17139	0	524
17.490	18.392	16566	17007	0	524
16.264	16.769	16576	16977	0	524
14.317	12.405	16583	16999	0	524
13.740	6.671	16587	16889	0	524
13.451	3.570	16592	16574	0	524
18.139	6.888	16592	16245	0	524
21.277	11.900	16596	15989	0	524
26.470	17.093	16596	15783	0	524
27.335	18.247	16598	15615	0	524
26.650	16.661	16601	15439	0	524
25.604	13.812	16601	15255	0	524
24.053	15.218	16603	15160	0	524
24.234	17.093	16607	15226	0	524
24.342	20.123	16612	15351	0	524
23.296	20.988	16614	15380	0	524
20.844	18.428	16616	15380	0	524
18.175	16.769	16621	15446	0	524
15.831	15.507	16625	15571	0	524
12.802	15.182	16630	15688	0	524
11.071	12.730	16633	15710	0	524
7.825	11.612	16634	15688	0	524
8.943	11.215	16637	15673	0	524
10.999	13.235	16634	15541	0	524
14.605	16.949	16628	15189	0	524
17.779	21.096	16624	14845	0	524
19.293	21.096	16621	14772	0	524
18.969	20.664	16619	14786	0	524
20.736	21.998	16614	14625	0	524
25.316	25.063	16607	14324	0	524
29.463	30.472	16598	14082	0	524
31.266	30.472	16589	13921	0	524
31.049	29.463	16583	13760	0	524
29.751	26.470	16571	13496	0	524
28.273	23.476	16557	13159	0	524
27.624	23.476	16544	12924	0	524
27.840	25.243	16537	12895	0	524
25.893	24.342	16530	13071	0	524
24.739	23.585	16526	13342	0	524
21.601	20.772	16524	13584	0	524
20.014	18.897	16515	13877	0	524
19.293	16.913	16517	14258	0	524
18.788	16.192	16512	14610	0	524
19.726	15.543	16512	14882	0	524
20.664	14.208	16508	15109	0	524
17.706	13.271	16508	15351	0	524
14.208	9.737	16506	15651	0	524
10.783	9.340	16510	16055	0	524
9.629	8.835	16512	16427	0	524
11.900	12.477	16510	16545	0	524
17.634	17.166	16499	16223	0	524
23.837	21.457	16485	15710	0	524
29.174	26.181	16480	15475	0	524
34.259	27.696	16471	15556	0	524
35.485	28.273	16470	15688	0	524
34.944	28.164	16467	15791	0	524
32.672	24.414	16462	15937	0	524
27.660	20.700	16460	16099	0	524
24.342	15.975	16458	16201	0	524
22.358	14.389	16453	16179	0	524
20.664	13.199	16442	15959	0	524
18.680	13.920	16429	15541	0	524
15.146	11.504	16415	15043	0	524
7.789	10.494	16399	14603	0	524
4.255	7.609	16385	14302	0	524
3.787	8.294	16375	14156	0	524
7.970	9.340	16362	14038	0	524
14.281	10.819	16346	13848	0	524
17.923	11.071	16330	13621	0	524
14.245	9.160	16319	13562	0	524
8.402	6.167	16310	13760	0	524
3.967	5.445	16306	14156	0	524
4.255	5.842	16303	14574	0	524
7.176	7.285	16297	14904	0	524
13.091	9.665	16294	15226	0	524
16.120	8.763	16294	15615	0	524
15.435	8.979	16292	16033	0	524
16.661	9.484	16289	16363	0	524
18.536	12.694	16288	16545	0	524
19.113	15.831	16283	16647	0	524
18.464	15.146	16280	16750	0	524
14.317	11.684	16280	16955	0	524
7.934	6.347	16280	17256	0	524
3.823	2.236	16283	17527	0	524
0.757	0.325	16280	17703	0	524
0.216	-0.685	16285	17820	0	524
-0.469	-1.118	16285	17974	0	524
-0.072	-2.344	16289	18158	0	524
4.147	-1.262	16292	18290	0	524
10.025	2.380	16289	18319	0	524
15.002	6.094	16292	18275	0	524
18.572	9.124	16292	18194	0	524
19.077	8.583	16289	18092	0	524
19.329	10.314	16289	17923	0	524
22.719	11.504	16288	17740	1	1040
26.037	14.713	16285	17593	0	1040
28.237	16.444	16285	17469	0	1040
27.047	17.274	16283	17395	0	1040
26.433	16.012	16289	17520	0	1040
25.171	16.336	16297	17842	0	1040
26.506	18.103	16298	18033	0	1040
26.470	19.870	16298	17886	0	1040
25.676	18.752	16297	17505	0	1040
23.765	17.670	16289	17073	0	1040
23.224	15.435	16285	16677	0	1040
21.060	13.559	16274	16245	0	1040
20.087	10.783	16262	15659	0	1040
16.841	9.304	16249	14999	0	1040
13.523	7.285	16238	14515	0	1040
13.668	7.104	16229	14354	0	1040
15.831	7.537	16224	14434	0	1040
17.779	9.737	16220	14603	0	1040
18.428	9.520	16220	14794	0	1040
17.166	10.783	16221	15102	0	1040
15.110	11.864	16224	15607	0	1040
14.425	14.425	16238	16297	0	1040
17.310	16.192	16247	17051	0	1040
20.195	17.346	16262	17754	0	1040
22.611	18.103	16274	18370	0	1040
25.099	18.283	16294	18979	0	1040
24.450	17.779	16310	19624	0	1040
22.719	19.582	16330	20254	0	1040
20.736	22.755	16348	20753	0	1040
20.411	24.883	16366	21090	0	1040
21.673	28.669	16384	21369	0	1040
23.332	31.158	16403	21655	0	1040
26.001	28.994	16426	21926	0	1040
23.981	26.361	16447	22095	0	1040
21.204	23.080	16465	22109	0	1040
20.087	21.781	16479	21963	0	1040
20.339	21.421	16489	21567	0	1040
21.060	21.926	16499	21039	0	1040
21.132	19.510	16515	20731	0	1040
19.798	17.274	16528	20628	0	1040
18.139	15.759	16542	20350	0	1040
19.365	19.041	16547	19785	0	1040
22.935	21.637	16551	19074	0	1040
25.604	24.991	16556	18436	0	1040
25.712	23.765	16560	17989	0	1040
24.378	19.870	16566	17681	0	1040
20.808	17.815	16574	17351	0	1040
18.283	16.516	16578	16963	0	1040
17.815	16.877	16585	16728	0	1040
17.562	17.779	16594	16691	0	1040
17.887	18.608	16603	16706	0	1040
19.077	19.005	16614	16677	0	1040
21.313	18.824	16621	16618	0	1040
22.827	21.926	16628	16515	0	1040
23.765	22.539	16637	16420	0	1040
22.863	22.935	16646	16435	0	1040
23.693	21.168	16655	16508	0	1040
23.621	21.277	16662	16471	0	1040
24.919	18.933	16669	16333	0	1040
26.650	18.428	16673	16172	0	1040
24.883	18.247	16680	16091	0	1040
23.621	15.615	16687	16047	0	1040
21.313	13.704	16689	15915	0	1040
21.673	13.127	16691	15710	0	1040
18.969	11.035	16691	15497	0	1040
17.815	10.458	16693	15329	0	1040
13.812	9.953	16696	15145	0	1040
13.523	10.746	16691	14896	0	1040
16.661	13.054	16689	14566	0	1040
24.053	17.851	16680	14141	0	1040
35.521	24.017	16671	13650	0	1040
43.707	29.968	16662	13247	0	1040
43.383	31.662	16653	12990	0	1040
36.134	25.388	16646	12843	0	1040
21.745	15.651	16637	12726	0	1040
10.819	5.157	16625	12492	0	1040
7.212	1.226	16614	12235	0	1040
10.206	3.859	16605	12220	0	1040
15.795	9.196	16601	12418	0	1040
18.392	11.107	16594	12638	1	316
17.562	7.573	16587	12821	0	316
14.713	4.219	16583	12953	0	316
11.251	0.108	16576	13107	0	316
9.845	-1.082	16571	13386	0	316
7.393	-0.072	16566	13745	0	316
6.383	0.757	16565	14016	0	316
7.537	0.036	16557	14119	0	316
8.150	-0.469	16551	14200	0	316
11.323	-0.902	16547	14427	0	316
11.937	0.288	16547	14786	0	316
14.136	0.505	16544	15204	0	316
15.110	1.731	16544	15556	0	316
16.480	2.705	16544	15835	0	316
20.772	4.652	16544	16135	0	316
22.683	6.275	16548	16493	0	316
24.162	9.376	16548	16845	0	316
24.414	11.360	16548	17043	0	316
21.962	12.586	16551	17102	0	316
22.178	13.523	16544	17036	0	316
22.250	14.172	16537	16779	0	316
25.532	12.189	16528	16405	0	316
27.515	10.891	16519	16106	0	316
26.325	9.124	16515	15945	0	316
23.080	9.412	16503	15820	0	316
20.952	12.622	16494	15585	0	316
20.555	14.966	16483	15255	0	316
22.395	18.103	16471	15006	0	316
24.270	16.985	16462	14845	0	316
23.693	13.956	16449	14647	0	316
19.978	8.511	16433	14361	0	316
16.877	4.147	16422	14097	0	316
16.336	4.688	16412	14024	0	316
16.516	5.157	16406	14185	0	316
16.985	6.996	16402	14500	0	316
16.012	6.419	16397	14830	0	316
11.287	2.596	16393	15109	0	316
7.573	0.433	16390	15395	0	316
7.825	1.046	16384	15593	0	316
12.081	4.472	16380	15651	0	316
19.149	7.429	16375	15769	0	316
23.765	10.530	16374	15967	0	316
22.647	8.619	16374	16179	0	316
18.067	6.563	16374	16479	0	316
13.704	4.327	16375	16911	0	316
11.720	4.616	16380	17329	0	316
15.290	7.573	16378	17454	0	316
20.123	11.396	16366	17168	0	316
23.981	13.812	16357	16662	0	316
28.958	15.579	16351	16391	0	316
29.282	16.805	16348	16449	0	316
28.886	16.552	16346	16603	0	316
26.722	17.670	16344	16728	0	316
25.893	17.851	16342	16838	0	316
24.378	17.057	16342	16897	0	316
25.027	16.480	16339	16955	0	316
26.145	14.605	16342	17102	0	316
25.604	10.638	16344	17315	0	316
20.519	5.157	16342	17410	0	316
12.874	-1.803	16337	17263	0	316
5.193	-6.852	16333	16941	0	316
2.272	-6.635	16328	16662	0	316
5.229	-1.875	16321	16530	0	316
14.677	6.275	16317	16457	0	316
21.241	12.441	16312	16348	0	316
25.604	15.795	16308	16172	0	316
25.424	14.966	16303	16099	0	316
25.243	14.497	16301	16223	0	316
23.909	14.966	16306	16420	0	316
21.168	16.228	16303	16545	0	316
19.690	15.543	16298	16530	0	316
18.067	13.307	16298	16435	0	316
17.526	11.360	16292	16333	0	316
18.680	10.710	16288	16223	0	316
19.149	10.530	16280	16018	0	316
19.329	12.586	16269	15666	0	316
18.969	14.245	16262	15321	0	316
18.824	15.146	16253	15160	0	316
20.050	15.435	16251	15189	0	316
20.123	15.435	16242	15233	0	316
20.772	14.821	16238	15167	0	316
23.152	14.677	16226	15065	0	316
24.125	15.002	16221	15050	0	316
23.476	16.156	16221	15167	0	316
23.476	14.641	16215	15387	0	316
21.421	12.369	16212	15556	0	316
20.808	12.802	16211	15615	0	316
20.231	12.766	16203	15644	0	316
19.798	14.966	16203	15754	0	316
17.346	15.651	16203	15989	0	316
15.651	14.641	16199	16245	0	316
15.254	13.595	16199	16319	0	316
17.346	13.271	16190	16113	0	316
22.034	15.903	16181	15754	0	316
26.938	18.067	16170	15453	0	316
30.581	21.168	16163	15373	0	316
31.662	21.709	16161	15549	0	316
32.167	20.591	16161	15849	0	316
26.974	18.283	16158	16069	0	316
23.729	15.074	16158	16231	0	316
19.041	12.766	16163	16611	0	316
15.795	12.514	16176	17344	0	316
16.048	12.586	16188	18172	0	316
15.326	12.297	16203	18847	0	316
16.264	11.396	16220	19360	0	316
17.779	11.107	16231	19800	0	316
19.906	13.018	16247	20218	0	316
24.125	16.480	16258	20482	0	316
28.128	21.132	16269	20540	0	316
29.246	23.801	16279	20504	0	316
30.941	24.991	16294	20555	0	316
32.889	26.433	16310	20768	0	316
33.105	27.515	16328	21134	0	316
32.420	28.056	16351	21530	0	316
29.102	26.506	16369	21779	0	316
25.063	23.188	16385	21831	0	316
20.267	18.824	16397	21567	0	316
17.779	14.245	16406	21083	0	316
16.336	11.432	16420	20709	0	316
13.163	10.169	16433	20540	0	316
12.081	7.645	16447	20416	1	480
12.802	7.645	16460	20313	0	480
11.107	6.491	16479	20262	0	480
10.746	6.419	16492	20218	0	480
9.016	6.671	16510	20137	0	480
10.097	7.717	16526	19969	0	480
13.127	11.973	16537	19646	0	480
17.743	14.064	16542	19103	0	480
21.673	18.464	16548	18414	0	480
24.883	21.024	16551	17754	0	480
26.001	23.404	16551	17212	0	480
27.624	23.008	16556	16691	0	480
27.876	22.863	16551	16077	0	480
26.866	18.824	16547	15395	0	480
21.349	16.084	16547	14823	0	480
15.759	10.927	16544	14449	0	480
10.710	8.366	16544	14244	0	480
10.025	7.068	16547	14156	0	480
10.927	7.862	16547	14141	0	480
15.867	7.717	16553	14192	0	480
17.815	9.160	16557	14346	0	480
18.392	7.393	16560	14566	0	480
17.057	6.455	16565	14706	0	480
18.500	5.157	16569	14742	0	480
20.267	5.698	16574	14860	0	480
22.214	8.042	16583	15124	0	480
21.709	7.285	16589	15453	0	480
19.005	6.744	16598	15761	0	480
15.831	6.744	16605	15959	0	480
13.595	6.924	16610	16069	0	480
11.432	6.924	16616	16201	0	480
10.206	6.527	16624	16405	0	480
8.799	4.688	16634	16625	0	480
8.475	4.255	16639	16691	0	480
9.412	5.842	16642	16574	0	480
12.153	9.088	16643	16413	0	480
13.559	11.612	16643	16275	0	480
11.143	11.396	16642	16018	0	480
9.773	9.124	16625	15321	0	480
9.448	9.196	16605	14178	0	480
10.674	11.179	16583	13019	0	480
12.297	13.487	16562	12213	0	480
13.631	15.651	16544	11744	0	480
11.215	13.740	16533	11524	0	480
8.258	10.819	16519	11494	0	480
7.789	8.114	16510	11582	0	480
11.179	8.006	16494	11597	0	480
16.408	9.845	16485	11597	0	480
19.077	11.035	16476	11868	0	480
23.404	12.297	16474	12426	0	480
23.404	12.405	16470	12983	0	480
24.270	11.900	16465	13437	0	480
26.758	13.379	16462	13811	0	480
30.004	15.182	16462	14192	0	480
33.574	18.969	16458	14632	0	480
35.774	21.565	16458	15087	0	480
34.475	24.919	16456	15424	0	480
31.122	23.765	16451	15563	0	480
26.542	21.962	16447	15673	0	480
25.748	20.195	16447	15908	0	480
27.840	20.808	16449	16304	0	480
32.312	22.503	16449	16728	0	480
34.403	23.657	16451	17073	0	480
33.429	21.168	16453	17322	0	480
29.607	17.995	16458	17579	0	480
23.873	13.740	16458	17850	0	480
18.608	11.900	16465	18077	0	480
14.749	13.343	16465	18158	0	480
11.540	15.110	16460	17945	0	480
10.783	18.536	16453	17513	0	480
11.937	19.798	16449	17212	0	480
14.894	20.880	16447	17117	0	480
17.526	21.493	16442	17029	0	480
19.978	21.168	16435	16801	0	480
19.654	21.241	16422	16297	0	480
20.375	20.519	16406	15541	0	480
20.050	18.572	16393	14911	0	480
19.077	17.129	16380	14559	0	480
17.418	14.497	16369	14398	0	480
14.281	12.550	16357	14280	0	480
14.317	12.441	16344	14082	0	480
17.274	15.146	16335	13899	0	480
23.008	18.031	16328	14016	0	480
27.479	23.080	16324	14412	0	480
28.164	23.224	16321	14808	0	480
26.109	23.260	16319	15043	0	480
25.424	21.565	16312	15124	0	480
25.676	24.739	16303	15145	0	480
28.164	26.830	16298	15248	0	480
28.201	28.741	16297	15468	0	480
26.542	27.515	16292	15703	0	480
23.044	24.198	16289	15827	0	480
20.195	22.395	16283	15842	0	480
22.106	21.709	16274	15857	0	480
22.503	24.486	16274	15967	0	480
23.693	23.549	16269	16135	0	480
22.142	21.709	16267	16245	0	480
19.906	19.942	16262	16319	0	480
18.356	18.644	16262	16427	0	480
19.257	16.336	16260	16633	0	480
22.322	17.382	16262	16882	0	480
24.270	16.120	16260	17080	0	480
25.604	14.821	16256	17014	0	480
25.207	13.235	16244	16662	0	480
24.234	13.668	16240	16326	0	480
24.089	12.333	16229	16150	0	480
23.729	12.514	16224	16040	0	480
27.191	12.946	16217	15974	0	480
29.318	14.245	16211	15945	0	480
31.446	15.398	16203	15864	0	480
30.148	15.507	16199	15827	0	480
22.899	12.369	16202	16113	0	480
15.507	4.616	16208	16691	0	480
7.717	-5.337	16212	17153	0	480
6.275	-13.271	16208	17212	0	480
9.052	-15.471	16206	17007	0	480
15.398	-11.179	16202	16750	0	480
20.014	-2.777	16192	16523	0	480
20.700	5.698	16181	16238	0	480
17.598	9.268	16170	15791	0	480
16.048	10.819	16156	15255	0	480
16.985	10.278	16144	14882	0	480
20.880	11.504	16138	14801	0	480
25.207	16.156	16129	14860	0	480
27.155	20.159	16122	14860	0	480
24.702	21.024	16113	14772	0	480
19.906	19.510	16104	14728	0	480
18.103	15.903	16097	14816	0	480
18.356	13.740	16095	15050	0	480
19.005	14.677	16095	15395	0	480
22.431	14.858	16093	15717	0	480
22.539	13.884	16088	15879	0	480
22.575	12.297	16077	15725	0	480
19.582	10.350	16067	15380	0	480
18.608	8.979	16061	15241	0	480
17.743	10.422	16052	15329	0	480
17.310	10.386	16048	15497	0	480
17.454	10.783	16045	15747	0	480
16.913	9.917	16048	16106	0	480
12.946	8.258	16045	16427	0	480
11.360	6.888	16038	16420	0	480
10.025	5.445	16031	16157	0	480
8.619	4.940	16025	16040	0	480
9.665	3.570	16022	16106	0	480
9.737	3.534	16018	16223	0	480
11.287	3.823	16020	16479	0	480
15.579	7.645	16027	16955	0	480
20.339	12.802	16031	17513	0	480
23.368	15.182	16043	18026	0	480
23.152	16.156	16054	18576	0	480
19.149	14.064	16075	19375	0	480
15.362	12.261	16099	20386	0	480
14.064	15.543	16125	21340	0	480
15.579	18.644	16147	22073	0	480
18.428	23.296	16172	22586	0	480
20.483	23.332	16192	22916	0	480
21.529	20.195	16208	23018	0	480
19.077	15.254	16226	22886	0	480
16.408	10.458	16240	22703	0	480
13.271	7.465	16262	22571	0	480
11.179	5.950	16276	22483	0	480
10.746	3.137	16298	22439	1	644
10.710	1.803	16319	22461	0	644
13.523	0.288	16337	22439	0	644
16.012	0.649	16357	22263	0	644
16.913	3.606	16374	21948	0	644
17.238	5.337	16385	21508	0	644
17.238	5.842	16399	21024	0	644
14.497	7.176	16415	20643	0	644
12.946	6.167	16431	20313	0	644
13.379	7.140	16442	19961	0	644
14.425	10.819	16456	19617	0	644
17.995	15.002	16471	19331	0	644
23.080	17.779	16488	19096	0	644
27.912	20.844	16499	18862	0	644
29.931	20.050	16510	18473	0	644
27.732	18.392	16512	17857	0	644
25.388	18.356	16517	17109	0	644
22.791	21.277	16515	16384	0	644
25.207	24.702	16519	15761	0	644
27.010	26.289	16517	15292	0	644
29.427	24.594	16521	14889	0	644
29.282	19.113	16515	14427	0	644
26.542	14.317	16517	13965	0	644
23.693	10.169	16517	13745	0	644
20.736	10.061	16521	13775	0	644
16.372	8.547	16524	13841	0	644
14.028	9.665	16526	13841	0	644
13.523	7.789	16526	13738	0	644
14.533	9.917	16524	13635	0	644
19.329	10.133	16526	13613	0	644
21.637	13.054	16521	13562	0	644
22.791	13.992	16517	13327	0	644
21.745	12.514	16508	12997	0	644
22.358	12.369	16503	12763	0	644
22.431	11.360	16497	12682	0	644
25.424	12.802	16494	12792	0	644
27.407	15.975	16492	13041	0	644
30.256	19.401	16492	13320	0	644
28.886	20.627	16494	13562	0	644
28.417	22.755	16489	13775	0	644
28.417	21.385	16488	13863	0	644
28.092	21.385	16480	13863	0	644
30.508	20.375	16480	13950	0	644
32.744	19.365	16480	14200	0	644
30.689	19.113	16479	14486	0	644
28.777	20.267	16479	14764	0	644
24.306	21.818	16479	15028	0	644
22.503	21.565	16479	15219	0	644
20.700	20.159	16476	15307	0	644
22.467	18.428	16471	15373	0	644
20.375	16.300	16474	15497	0	644
17.743	13.523	16474	15673	0	644
14.353	12.225	16470	15842	0	644
14.605	11.792	16471	15989	0	644
15.254	11.937	16471	16084	0	644
19.978	12.658	16462	15989	0	644
22.647	16.156	16458	15725	0	644
22.899	16.733	16451	15519	0	644
21.529	16.192	16447	15439	0	644
18.356	17.202	16438	15402	0	644
17.346	17.093	16431	15263	0	644
17.526	16.913	16422	14999	0	644
18.175	17.490	16415	14823	0	644
19.041	17.562	16408	14830	0	644
18.247	17.129	16403	14940	0	644
16.697	15.254	16399	15080	0	644
15.218	13.668	16394	15175	0	644
15.218	11.937	16388	15182	0	644
16.733	12.405	16383	15182	0	644
17.779	12.153	16380	15321	0	644
16.769	12.477	16380	15622	0	644
17.057	12.658	16380	15908	0	644
16.697	10.855	16380	16143	0	644
17.382	10.242	16380	16384	0	644
19.618	11.576	16384	16691	0	644
22.106	12.405	16385	17021	0	644
23.008	13.848	16385	17197	0	644
26.650	16.769	16380	17021	0	644
26.974	18.716	16371	16581	0	644
27.443	19.618	16365	16289	0	644
26.361	20.231	16360	16194	0	644
24.053	19.654	16356	16106	0	644
21.277	19.221	16351	16025	0	644
19.473	17.634	16346	16018	0	644
17.526	15.975	16342	15996	0	644
13.920	15.182	16335	15915	0	644
14.245	15.290	16330	15849	0	644
14.677	17.670	16328	15886	0	644
15.362	19.546	16321	15923	0	644
13.848	18.103	16315	15791	0	644
9.160	13.127	16306	15527	0	644
6.203	8.691	16298	15351	0	644
6.203	5.481	16294	15343	0	644
8.078	5.481	16283	15307	0	644
8.402	4.508	16276	15080	0	644
6.419	2.308	16262	14764	0	644
3.642	0.902	16253	14574	0	644
6.058	2.128	16242	14559	0	644
13.163	8.330	16238	14676	0	644
21.926	14.497	16231	14852	0	644
26.145	16.769	16226	15021	0	644
22.647	14.100	16221	15211	0	644
17.310	8.150	16224	15505	0	644
15.615	4.003	16224	15879	0	644
15.110	2.560	16224	16304	0	644
16.336	1.010	16226	16633	0	644
15.074	-1.695	16229	16860	0	644
9.989	-7.248	16226	17065	0	644
4.832	-10.891	16231	17293	0	644
0.288	-14.172	16229	17476	0	644
0.000	-11.684	16229	17498	0	644
-0.649	-7.789	16229	17381	0	644
-0.469	-4.616	16221	17227	0	644
0.865	-0.036	16220	17095	0	644
6.022	4.075	16217	16992	0	644
9.989	7.285	16212	16948	0	644
13.343	7.970	16215	16970	0	644
13.740	7.285	16211	16919	0	644
13.812	5.770	16202	16655	0	644
13.884	6.635	16194	16275	0	644
14.713	8.547	16188	15981	0	644
16.264	9.989	16181	15857	0	644
14.353	9.809	16174	15791	0	644
13.776	8.871	16165	15600	0	644
11.504	5.914	16156	15321	0	644
12.333	6.491	16154	15226	0	644
10.602	4.183	16154	15468	0	644
8.186	2.452	16152	15813	0	644
4.544	-0.793	16149	16025	0	644
4.039	-1.731	16147	16062	0	644
5.950	-0.577	16144	16033	0	644
9.232	1.082	16140	16025	0	644
13.487	2.380	16138	16062	0	644
14.172	2.272	16134	16106	0	644
12.694	0.325	16131	16121	0	644
11.756	-1.587	16129	16187	0	644
12.225	-0.216	16131	16398	0	644
14.172	2.452	16138	16809	0	644
19.185	6.780	16144	17307	0	644
20.411	9.953	16152	17732	0	644
22.467	12.982	16156	17967	0	644
24.017	14.641	16156	17879	0	644
27.227	20.627	16156	17615	0	644
30.508	24.270	16156	17549	0	644
31.482	29.138	16163	17740	0	644
27.984	28.814	16170	18062	0	644
24.306	24.919	16183	18458	0	644
20.123	22.106	16194	18905	0	644
20.159	19.329	16211	19360	0	644
19.762	18.824	16224	19793	0	644
19.329	18.824	16244	20210	0	644
18.103	17.274	16258	20577	0	644
16.841	15.326	16274	20724	0	644
18.644	14.461	16285	20650	0	644
20.483	13.271	16301	20562	0	644
21.204	11.432	16312	20533	0	644
21.060	10.458	16321	20445	0	644
17.670	5.878	16333	20181	0	644
14.821	1.623	16342	19895	0	644
14.100	-2.560	16360	19895	0	644
14.028	-4.544	16378	20144	0	644
16.516	-4.147	16393	20357	0	644
17.634	1.479	16411	20379	0	644
18.860	7.032	16422	20210	0	644
20.952	13.992	16435	19917	0	644
22.972	17.634	16449	19631	0	644
26.902	19.654	16453	19323	0	644
28.994	20.014	16465	18876	0	644
27.335	20.555	16470	18326	0	644
25.027	19.365	16474	17886	0	644
20.772	18.067	16483	17666	0	644
19.257	16.913	16497	17615	0	644
20.627	16.733	16506	17630	0	644
23.152	18.464	16517	17549	0	644
25.243	21.529	16521	17278	0	644
26.037	22.827	16524	16743	0	644
25.063	24.198	16517	15974	0	644
21.565	21.854	16512	15160	0	644
19.870	18.464	16503	14493	0	644
15.903	17.166	16499	14002	0	644
16.012	15.507	16492	13679	0	644
16.228	17.310	16492	13511	0	644
18.608	19.473	16488	13445	0	644
19.510	20.231	16488	13415	0	644
19.437	17.887	16488	13379	0	644
18.320	15.435	16480	13305	0	644
17.779	13.992	16476	13122	0	644
19.473	15.507	16467	12865	0	644
19.798	18.464	16458	12667	0	644
20.736	20.519	16451	12616	0	644
20.555	20.555	16447	12631	0	644
19.834	20.050	16435	12602	0	644
18.897	18.428	16426	12558	0	644
17.562	17.851	16422	12645	0	644
16.300	15.146	16420	12924	0	644
15.218	14.605	16420	13371	0	644
17.887	14.821	16417	13841	0	644
20.519	15.110	16420	14251	0	644
21.313	16.084	16424	14706	0	644
22.106	16.048	16426	15270	0	644
18.067	13.812	16433	15798	0	644
14.966	10.350	16438	16209	0	644
14.821	9.052	16440	16493	0	644
14.497	6.563	16442	16713	0	644
14.100	6.383	16449	16955	0	644
13.956	8.042	16456	17256	0	644
13.776	11.107	16460	17557	0	644
15.651	13.920	16460	17688	0	644
18.608	16.264	16458	17447	0	644
22.250	17.706	16451	16933	0	644
23.332	17.057	16447	16574	0	644
21.385	17.093	16444	16515	0	644
21.962	19.437	16442	16537	0	644
23.621	21.709	16442	16486	0	644
27.047	25.460	16438	16391	0	644
29.535	26.506	16433	16289	0	644
30.256	24.089	16431	16165	0	644
27.984	21.818	16426	15996	0	644
26.433	17.959	16424	15857	0	644
23.116	15.110	16417	15769	0	644
19.401	13.523	16412	15637	0	644
18.283	9.196	16406	15417	0	644
16.769	7.285	16399	15248	0	644
15.507	4.364	16394	15153	0	644
15.326	4.724	16385	15058	0	644
12.874	2.380	16380	14867	0	644
8.475	0.721	16369	14647	0	644
5.734	-1.551	16362	14544	0	644
6.816	-1.479	16357	14632	0	644
7.645	0.902	16356	14874	0	644
10.783	5.734	16351	15138	0	644
11.323	8.583	16351	15314	0	644
12.153	9.809	16346	15439	0	644
11.720	7.862	16346	15629	0	644
12.477	7.898	16346	15886	0	644
13.271	7.140	16346	16113	0	644
15.326	10.061	16344	16267	0	644
14.281	10.674	16342	16377	0	644
14.317	11.612	16344	16493	0	644
14.533	10.242	16344	16691	0	644
13.487	10.061	16348	16904	0	644
13.884	9.953	16348	17029	0	644
10.242	7.645	16346	17080	0	644
8.078	5.914	16348	17168	0	644
4.724	1.190	16351	17307	0	644
5.085	-1.118	16353	17388	0	644
6.816	-1.911	16351	17307	0	644
9.556	1.587	16346	17124	0	644
11.432	5.121	16346	16955	0	644
12.514	8.150	16342	16831	0	644
12.550	9.196	16339	16765	1	1000
13.235	9.052	16339	16721	0	1000
13.776	10.242	16333	16545	0	1000
14.785	11.215	16324	16135	0	1000
15.795	14.785	16310	15541	0	1000
17.490	16.625	16297	15021	0	1000
19.293	15.218	16292	14794	0	1000
20.627	14.533	16283	14808	0	1000
22.755	11.973	16274	14742	0	1000
23.224	12.802	16258	14346	0	1000
22.827	14.064	16238	13731	0	1000
20.195	16.480	16224	13181	0	1000
15.615	17.634	16206	12843	0	1000
11.468	17.887	16190	12748	0	1000
9.196	18.067	16176	12807	0	1000
9.088	17.887	16165	12895	0	1000
9.196	17.779	16156	12975	0	1000
11.251	17.887	16147	13159	0	1000
12.153	17.959	16140	13489	0	1000
14.136	19.798	16135	13899	0	1000
16.913	21.673	16129	14332	0	1000
19.437	24.775	16126	14786	0	1000
20.483	25.027	16126	15321	0	1000
18.860	22.503	16131	15959	0	1000
16.228	19.005	16135	16589	0	1000
13.343	14.749	16140	17102	0	1000
12.622	13.127	16140	17454	0	1000
11.179	13.127	16140	17593	0	1000
11.323	15.759	16140	17608	0	1000
11.360	15.326	16140	17747	0	1000
8.727	13.091	16144	18011	0	1000
8.727	11.035	16149	18304	0	1000
9.629	9.052	16154	18642	0	1000
11.900	7.825	16165	19074	0	1000
15.615	10.242	16179	19558	0	1000
19.041	11.179	16194	20071	0	1000
20.519	13.920	16208	20577	0	1000
20.123	17.562	16224	20980	0	1000
18.067	19.510	16238	21142	0	1000
15.398	19.149	16247	21112	0	1000
11.540	15.110	16260	21083	0	1000
7.032	9.917	16271	21142	0	1000
5.734	4.652	16288	21156	0	1000
6.239	3.282	16294	21010	0	1000
8.078	5.517	16303	20746	0	1000
10.819	6.924	16319	20628	0	1000
11.576	8.330	16337	20782	0	1000
10.133	9.917	16353	20988	0	1000
9.556	8.943	16369	21010	0	1000
8.619	9.737	16383	20841	0	1000
11.396	12.297	16394	20628	0	1000
14.894	15.110	16411	20460	0	1000
17.346	17.815	16424	20313	0	1000
20.014	17.923	16435	20101	0	1000
19.365	19.005	16449	19829	0	1000
17.923	18.788	16462	19587	0	1000
16.841	20.916	16474	19492	0	1000
17.815	21.601	16494	19551	0	1000
18.572	22.683	16508	19595	0	1000
17.923	21.709	16524	19426	0	1000
16.516	20.411	16528	18964	0	1000
15.543	20.087	16533	18172	0	1000
13.920	20.519	16528	17249	0	1000
15.038	22.178	16530	16545	0	1000
15.723	21.385	16530	16077	0	1000
16.012	21.818	16533	15710	0	1000
15.543	19.473	16539	15483	0	1000
14.317	16.192	16539	15358	0	1000
15.110	13.920	16548	15321	0	1000
14.497	14.172	16556	15380	0	1000
15.398	14.641	16560	15468	0	1000
14.425	15.507	16569	15417	0	1000
11.828	15.795	16566	15131	0	1000
11.107	13.776	16562	14706	0	1000
9.376	13.956	16560	14376	0	1000
11.720	14.749	16560	14207	0	1000
13.884	15.615	16557	14082	0	1000
17.743	15.254	16553	13863	0	1000
20.627	14.245	16551	13628	0	1000
21.385	12.874	16548	13635	1	316
21.854	12.009	16553	13884	0	316
18.031	12.081	16553	14068	0	316
14.317	11.323	16551	14112	0	316
12.477	10.710	16548	14068	0	316
10.458	9.196	16544	13972	0	316
13.235	8.186	16537	13884	0	316
14.245	8.330	16535	13848	0	316
13.848	5.590	16528	13811	0	316
11.720	3.534	16524	13738	0	316
10.025	3.029	16517	13716	0	316
7.501	2.921	16515	13811	0	316
7.645	4.580	16512	14009	0	316
9.412	7.176	16512	14280	0	316
12.694	12.441	16510	14537	0	316
16.805	14.461	16510	14750	0	316
21.385	18.175	16510	15014	0	316
24.450	19.293	16515	15380	0	316
25.748	19.257	16515	15754	0	316
28.020	18.897	16519	16033	0	316
28.958	20.303	16519	16201	0	316
29.823	20.952	16521	16333	0	316
28.381	20.159	16521	16471	0	316
23.008	16.949	16521	16625	0	316
16.697	10.638	16524	16750	0	316
12.405	6.383	16524	16823	0	316
12.694	3.823	16524	16787	0	316
15.615	4.255	16515	16537	0	316
19.401	6.563	16510	16135	0	316
22.431	10.638	16499	15783	0	316
22.755	11.973	16494	15549	0	316
21.096	12.694	16485	15358	0	316
21.385	11.864	16476	15124	0	316
21.962	11.756	16470	14874	0	316
23.657	13.631	16462	14786	0	316
24.775	14.208	16458	14933	0	316
24.234	15.074	16458	15138	0	316
22.034	13.307	16451	15226	0	316
18.933	9.160	16442	15153	0	316
20.808	10.278	16438	15021	0	316
25.243	13.018	16431	14970	0	316
27.840	17.562	16426	15028	0	316
28.525	18.320	16420	15080	0	316
22.106	16.408	16412	15036	0	316
16.156	11.973	16406	15014	0	316
12.441	10.566	16402	15175	0	316
13.451	10.963	16403	15519	0	316
16.625	13.559	16403	15893	0	316
18.103	13.054	16403	16172	0	316
16.913	11.792	16403	16363	0	316
14.858	10.494	16406	16537	0	316
14.641	12.189	16406	16750	0	316
16.480	15.074	16406	16941	0	316
19.510	19.834	16403	16970	0	316
24.162	24.666	16394	16655	0	316
25.532	26.181	16383	16106	0	316
25.352	29.823	16374	15703	0	316
23.945	29.787	16366	15563	0	316
22.972	28.669	16357	15468	0	316
24.342	28.705	16348	15277	0	316
26.433	27.047	16333	14882	0	316
28.525	26.037	16317	14339	0	316
29.138	23.801	16301	13906	0	316
27.696	21.565	16283	13650	0	316
23.837	20.664	16269	13445	0	316
22.899	18.716	16251	13239	0	316
21.060	18.860	16233	12946	0	316
22.142	20.267	16215	12631	0	316
22.935	20.087	16199	12565	0	316
26.650	21.096	16190	12814	0	316
27.984	21.745	16179	13115	0	316
28.381	21.529	16163	13232	0	316
25.676	19.618	16149	13210	0	316
20.627	16.444	16138	13283	0	316
17.021	14.821	16126	13503	0	316
16.841	14.461	16115	13760	0	316
19.221	13.992	16104	13965	0	316
21.493	14.894	16090	14082	0	316
20.087	13.884	16077	14148	0	316
14.641	11.251	16063	14200	0	316
12.586	10.386	16048	14134	0	316
12.622	10.674	16027	13928	0	316
15.435	12.261	16007	13738	0	316
18.572	10.206	15990	13672	0	316
18.283	5.373	15977	13738	0	316
14.172	-2.380	15966	14002	0	316
14.245	-8.943	15959	14471	0	316
15.435	-8.258	15952	14977	0	316
17.274	-0.541	15945	15431	0	316
18.680	8.727	15943	15857	0	316
16.552	14.533	15939	16275	0	316
13.523	13.343	15936	16735	0	316
13.343	7.862	15939	17241	0	316
15.831	6.383	15943	17776	0	316
20.880	9.845	15943	18231	0	316
26.073	17.202	15941	18466	0	316
25.568	21.493	15939	18510	0	316
23.152	17.706	15939	18532	0	316
17.202	12.333	15939	18656	0	316
13.812	6.383	15941	18884	0	316
11.360	5.878	15945	19147	0	316
12.261	6.167	15950	19397	0	316
13.668	6.780	15954	19617	0	316
15.939	6.167	15966	19873	0	316
17.743	4.075	15975	20225	0	316
18.175	2.957	15986	20562	0	316
18.103	4.039	16002	20826	0	316
16.408	3.390	16016	21156	0	316
14.785	3.065	16034	21581	0	316
15.362	1.551	16049	21911	0	316
17.057	0.865	16066	22058	0	316
17.706	1.875	16079	22095	0	316
16.552	1.731	16099	22153	0	316
15.110	5.445	16117	22300	0	316
13.956	7.104	16140	22527	0	316
13.920	8.475	16163	22754	0	316
15.615	9.737	16188	22908	0	316
16.192	9.737	16208	23026	0	316
15.615	9.845	16238	23158	0	316
14.785	9.917	16265	23326	0	316
13.595	10.242	16289	23488	0	316
13.091	11.107	16317	23561	0	316
14.497	10.458	16344	23546	0	316
12.477	10.927	16374	23517	0	316
12.009	10.386	16399	23495	0	316
12.333	12.333	16429	23422	0	316
12.081	14.172	16458	23268	1	504
14.353	16.841	16476	22945	0	504
16.084	18.572	16497	22351	0	504
19.293	20.555	16515	21552	0	504
21.962	21.241	16524	20658	0	504
22.250	21.926	16533	19815	0	504
22.070	20.555	16547	19125	0	504
17.490	17.166	16556	18510	0	504
13.595	13.163	16565	17813	0	504
10.350	9.665	16571	17058	0	504
8.655	8.943	16580	16523	0	504
10.855	9.809	16592	16363	0	504
11.468	12.225	16607	16282	0	504
12.441	12.730	16616	16047	0	504
15.074	13.631	16624	15644	0	504
16.733	14.641	16628	15219	0	504
21.601	17.743	16633	14823	0	504
26.325	19.978	16634	14427	0	504
28.994	21.962	16637	14016	0	504
29.282	21.493	16639	13665	0	504
27.407	19.005	16639	13379	0	504
25.604	17.310	16639	13159	0	504
24.919	16.156	16643	13085	0	504
23.765	16.372	16643	13115	0	504
21.890	14.172	16646	13100	0	504
18.788	12.153	16643	13041	0	504
17.129	10.350	16646	13005	0	504
17.202	8.222	16646	13063	0	504
18.788	9.340	16648	13210	0	504
22.214	10.783	16651	13305	0	504
24.594	12.081	16648	13320	0	504
26.109	13.127	16646	13291	0	504
27.912	15.543	16642	13210	0	504
28.777	17.093	16639	13129	0	504
27.083	18.500	16637	13166	0	504
24.630	17.598	16634	13313	0	504
19.978	13.740	16633	13467	0	504
18.139	12.261	16628	13562	0	504
18.283	13.271	16625	13606	0	504
21.421	15.759	16624	13621	0	504
23.909	18.608	16616	13672	0	504
25.279	19.473	16610	13679	0	504
24.089	18.464	16598	13489	0	504
21.096	17.743	16587	13203	0	504
22.395	16.480	16580	13151	0	504
23.837	16.048	16576	13364	0	504
25.856	15.002	16569	13569	0	504
27.443	15.254	16560	13672	0	504
25.207	16.841	16556	13687	0	504
21.168	20.591	16544	13709	0	504
15.326	23.909	16537	13848	0	504
14.172	27.732	16535	14053	0	504
12.730	27.407	16524	14185	0	504
13.992	26.794	16517	14200	0	504
14.641	22.683	16508	14244	0	504
14.785	19.149	16506	14471	0	504
15.254	18.464	16503	14874	0	504
14.605	18.320	16503	15307	0	504
13.848	17.454	16499	15585	0	504
13.920	16.769	16497	15717	0	504
13.848	16.841	16492	15871	0	504
15.579	18.969	16492	16121	0	504
16.661	22.755	16497	16449	0	504
17.129	23.512	16497	16809	0	504
15.002	21.673	16501	17183	0	504
13.091	18.103	16503	17505	0	504
12.982	16.120	16508	17725	0	504
13.307	18.500	16506	17820	0	504
15.903	22.431	16506	17762	0	504
17.129	26.253	16499	17542	0	504
19.185	27.443	16489	17095	0	504
20.339	25.820	16476	16501	0	504
19.473	21.709	16465	16011	0	504
16.336	17.454	16456	15659	0	504
14.461	13.307	16447	15387	0	504
10.169	12.225	16433	15153	0	504
8.979	12.225	16420	14830	0	504
9.088	12.550	16406	14449	0	504
7.898	11.143	16397	14317	0	504
5.950	10.891	16390	14456	0	504
6.347	9.845	16385	14654	0	504
8.547	12.405	16380	14772	0	504
11.973	13.595	16371	14808	0	504
15.435	16.264	16365	14845	0	504
15.795	15.074	16360	14977	0	504
13.956	13.740	16356	15153	0	504
10.566	14.028	16346	15219	0	504
12.189	15.723	16333	15043	0	504
14.966	18.428	16319	14742	0	504
18.356	21.313	16308	14544	0	504
19.942	21.529	16303	14552	0	504
18.644	20.447	16292	14735	0	504
16.552	18.788	16288	14918	0	504
15.435	19.041	16279	15028	0	504
14.821	20.627	16269	15138	0	504
16.589	21.890	16267	15307	0	504
17.093	23.765	16260	15519	0	504
14.930	22.503	16256	15644	0	504
13.199	20.772	16240	15505	0	504
9.268	15.290	16229	15145	0	504
8.439	11.612	16217	14867	0	504
6.239	7.068	16202	14772	0	504
6.852	6.599	16190	14728	0	504
5.986	6.239	16179	14618	0	504
4.544	6.599	16158	14324	0	504
5.626	8.439	16140	13921	0	504
7.032	5.698	16126	13782	0	504
9.160	3.498	16122	14178	0	504
11.251	2.957	16122	14904	0	504
10.819	1.947	16120	15483	0	504
8.907	5.590	16113	15688	0	504
9.124	9.737	16104	15710	0	504
8.402	13.163	16099	15783	0	504
10.206	15.795	16093	15952	0	504
12.730	14.894	16086	16121	0	504
15.831	14.497	16079	16165	0	504
17.454	13.631	16067	16047	0	504
17.382	12.441	16058	15923	0	504
17.346	12.550	16052	15915	0	504
16.336	11.900	16045	16003	0	504
17.166	12.297	16036	16106	0	504
18.860	12.766	16029	16150	0	504
21.349	12.946	16027	16245	0	504
22.611	15.074	16022	16464	0	504
23.296	16.336	16025	16809	0	504
22.899	16.877	16022	17161	0	504
23.008	16.084	16022	17381	0	504
19.365	13.812	16022	17505	0	504
14.461	10.891	16022	17666	0	504
8.258	6.058	16029	17945	0	504
3.282	3.282	16031	18304	0	504
-0.397	1.226	16038	18612	0	504
-0.433	0.541	16036	18642	0	504
2.164	1.010	16034	18392	0	504
5.121	5.445	16034	18209	0	504
10.602	10.458	16036	18253	0	504
15.362	16.012	16038	18378	0	504
19.906	20.014	16043	18517	0	504
21.637	21.277	16052	18693	0	504
19.546	18.572	16058	18898	0	504
17.382	16.589	16070	19221	0	504
15.795	15.362	16088	19800	0	504
17.129	16.733	16108	20540	0	504
20.159	15.723	16129	21105	0	504
21.313	12.946	16144	21318	0	504
17.490	8.330	16161	21347	0	504
10.963	3.318	16176	21391	0	504
6.131	2.957	16194	21508	0	504
4.904	6.780	16212	21669	0	504
9.124	12.333	16229	21728	0	504
11.143	14.785	16244	21574	0	504
11.468	15.615	16258	21332	0	504
9.088	12.405	16276	21171	0	504
5.734	8.222	16289	21076	0	504
2.885	4.580	16303	20907	1	616
-0.938	-0.685	16319	20636	0	616
-4.724	-5.914	16333	20372	0	616
-7.609	-8.763	16346	20174	0	616
-9.592	-9.737	16360	19917	0	616
-7.068	-7.285	16369	19536	0	616
-3.642	-3.534	16375	19001	0	616
-1.046	-1.803	16375	18194	0	616
0.036	-0.974	16374	17234	0	616
-0.180	-2.596	16375	16559	0	616
-2.813	-4.111	16380	16282	0	616
-3.750	-5.481	16384	16157	0	616
-3.029	-5.049	16390	16047	0	616
-1.442	-2.633	16397	15945	0	616
0.144	-0.469	16403	15813	0	616
-0.829	1.839	16411	15725	0	616
-2.452	3.282	16417	15717	0	616
-4.291	1.659	16420	15659	0	616
-2.777	2.200	16422	15365	0	616
-0.072	2.777	16417	14933	0	616
4.724	4.688	16415	14486	0	616
8.294	6.275	16412	14156	0	616
11.864	8.511	16412	14016	0	616
13.307	6.996	16411	13972	0	616
10.386	3.426	16406	13833	0	616
7.573	3.065	16402	13599	0	616
3.246	1.010	16399	13511	0	616
-0.397	-0.252	16402	13687	0	616
-1.370	0.325	16406	14053	0	616
-0.721	-0.757	16408	14434	0	616
0.938	0.685	16412	14698	0	616
2.885	3.318	16417	14926	0	616
8.006	7.212	16424	15226	0	616
11.540	9.881	16431	15578	0	616
14.461	10.242	16433	15842	0	616
16.480	10.314	16435	15967	0	616
14.930	9.484	16442	16091	0	616
10.133	9.412	16449	16326	0	616
5.517	8.114	16456	16640	0	616
1.442	9.196	16465	16963	0	616
0.938	7.068	16471	17183	0	616
3.137	8.258	16476	17153	0	616
9.016	8.294	16467	16721	0	616
11.504	10.386	16460	16069	0	616
14.749	13.199	16456	15585	0	616
15.435	15.146	16447	15299	0	616
15.651	17.238	16440	15065	0	616
12.838	15.975	16438	14940	0	616
9.340	13.054	16438	14977	0	616
4.400	6.599	16438	15124	0	616
-0.072	1.875	16435	15314	0	616
-1.082	-2.524	16440	15512	0	616
0.938	-2.380	16442	15732	0	616
7.357	2.488	16447	15945	0	616
11.360	8.294	16449	16135	0	616
14.966	11.937	16451	16304	0	616
15.759	12.477	16456	16442	0	616
15.038	11.900	16456	16515	0	616
17.274	10.855	16451	16413	0	616
19.726	11.684	16449	16179	0	616
22.214	14.425	16447	15952	0	616
22.575	14.389	16442	15849	0	616
21.781	14.966	16440	15849	0	616
18.572	12.550	16435	15776	0	616
15.254	11.648	16431	15549	0	616
10.710	8.907	16429	15402	0	616
6.599	5.662	16424	15431	0	616
3.823	4.183	16422	15439	0	616
5.590	3.390	16415	15358	0	616
12.297	8.619	16411	15241	0	616
21.204	13.992	16406	15160	0	616
25.496	17.887	16403	15167	0	616
25.099	15.939	16403	15292	0	616
19.870	11.864	16403	15497	0	616
13.992	6.635	16402	15681	0	616
12.405	6.275	16399	15776	0	616
16.913	9.845	16399	15871	0	616
21.565	13.631	16402	16077	0	616
19.113	14.208	16402	16311	0	616
15.182	10.278	16402	16413	0	616
7.068	5.013	16397	16289	0	616
2.164	0.288	16383	15761	0	616
2.236	-1.623	16366	14970	0	616
5.121	-0.325	16351	14339	0	616
10.602	2.056	16335	14002	0	616
14.461	5.085	16326	13819	0	616
19.906	7.789	16312	13679	0	616
22.106	10.566	16298	13452	0	616
23.873	13.631	16279	13137	0	616
22.899	14.172	16267	12946	0	616
21.096	15.507	16251	12902	0	616
21.204	16.552	16235	12755	0	616
21.421	16.552	16211	12374	0	616
20.988	17.815	16190	11971	0	616
20.411	17.887	16172	11832	0	616
18.247	16.985	16161	12022	0	616
16.156	15.975	16147	12426	0	616
14.245	15.615	16140	12909	0	616
12.297	16.264	16134	13408	0	616
10.206	14.064	16131	14024	0	616
7.609	9.412	16131	14757	0	616
7.104	6.167	16131	15468	0	616
9.773	4.724	16131	16084	0	616
14.894	7.609	16131	16545	0	616
20.375	14.533	16131	16933	0	616
25.316	19.149	16134	17344	0	616
28.958	21.349	16140	17850	0	616
30.292	20.988	16144	18378	0	616
31.158	20.339	16144	18678	0	616
29.391	19.149	16140	18517	0	616
25.496	18.247	16131	18070	0	616
22.755	16.589	16126	17835	0	616
21.781	17.598	16125	17908	0	616
22.611	18.680	16125	17982	0	616
24.919	20.952	16122	17967	0	616
24.017	21.277	16122	17967	0	616
19.978	18.788	16125	17996	0	616
18.608	16.625	16122	18018	0	616
18.788	15.326	16122	18011	0	616
22.034	15.723	16120	17894	0	616
25.460	16.661	16111	17542	0	616
25.352	15.579	16099	16999	0	616
23.621	13.559	16088	16405	0	616
20.123	10.783	16077	15974	0	616
18.716	10.061	16070	15739	0	616
20.159	10.025	16063	15607	0	616
22.611	12.081	16057	15527	0	616
26.001	13.559	16049	15505	0	616
26.289	16.444	16045	15519	0	616
26.974	17.887	16040	15571	0	616
23.909	18.428	16036	15688	0	616
24.306	18.500	16036	15783	0	616
25.784	19.437	16029	15769	0	616
27.407	19.762	16022	15747	0	616
27.624	18.752	16020	15717	0	616
22.791	13.884	16011	15659	0	616
14.821	7.321	16009	15622	0	616
9.232	-1.226	16000	15600	0	616
6.744	-4.616	15998	15607	0	616
8.547	-5.121	15993	15717	0	616
12.297	-3.246	15995	15981	0	616
15.579	-1.406	15995	16319	0	616
14.497	-1.587	16000	16618	0	616
11.828	-2.813	16000	16911	0	616
9.592	-4.219	16007	17263	0	616
7.393	-4.940	16013	17688	0	616
7.898	-4.472	16022	18114	0	616
9.484	-2.452	16029	18444	0	616
11.612	-0.829	16036	18730	0	616
13.415	-0.325	16049	19008	0	616
14.389	1.587	16058	19287	0	616
16.589	3.173	16066	19433	0	616
19.293	5.662	16063	19140	0	616
20.159	8.907	16057	18370	0	616
22.755	12.153	16048	17571	0	616
22.719	13.884	16038	16992	0	616
23.332	15.038	16034	16581	0	616
23.765	16.228	16031	16391	0	616
27.696	17.851	16031	16479	0	616
29.318	19.005	16040	16721	0	616
31.085	17.923	16043	16911	0	616
29.138	16.228	16045	17021	0	616
22.611	13.054	16061	17344	0	616
17.129	10.278	16077	18018	0	616
12.694	8.979	16095	18840	0	616
13.379	9.448	16115	19551	0	616
16.877	13.235	16135	20079	0	616
19.942	15.795	16156	20518	0	616
22.575	18.608	16179	20966	0	616
21.926	20.880	16202	21391	0	616
21.493	20.375	16221	21669	0	616
19.510	18.283	16238	21735	0	616
18.392	16.264	16262	21721	0	616
15.867	14.281	16279	21772	0	616
11.756	10.242	16306	21955	0	616
8.150	8.691	16328	22146	0	616
5.121	7.573	16348	22161	0	616
5.517	9.520	16369	21977	0	616
9.917	12.153	16385	21677	0	616
16.444	16.264	16399	21259	0	616
23.296	18.933	16412	20716	1	720
28.669	20.050	16422	20137	0	720
29.787	19.149	16433	19595	0	720
29.535	18.392	16442	19125	0	720
28.777	18.031	16453	18730	0	720
26.433	17.995	16467	18429	0	720
24.991	20.627	16479	18253	0	720
23.260	21.168	16497	18165	0	720
20.844	21.890	16503	17945	0	720
21.493	21.565	16512	17410	0	720
23.512	19.041	16510	16662	0	720
24.017	16.336	16512	15937	0	720
23.837	13.271	16510	15321	0	720
19.257	10.278	16510	14764	0	720
13.415	7.898	16503	14170	0	720
7.176	6.996	16497	13577	0	720
4.364	7.717	16497	13225	0	720
4.291	8.799	16494	13144	0	720
6.131	10.242	16497	13144	0	720
11.504	11.937	16492	13071	0	720
16.156	14.858	16489	12895	0	720
19.365	15.146	16485	12719	0	720
21.096	15.615	16480	12638	0	720
19.365	14.028	16479	12624	0	720
16.697	10.783	16470	12572	0	720
14.497	9.376	16465	12477	0	720
12.838	9.088	16462	12455	0	720
16.697	11.937	16458	12602	0	720
19.221	14.136	16458	12902	0	720
19.654	13.740	16458	13283	0	720
14.353	9.448	16460	13599	0	720
8.222	1.947	16456	13841	0	720
5.193	-2.524	16456	14046	0	720
7.104	-3.462	16453	14200	0	720
11.251	-2.416	16449	14273	0	720
12.333	-2.488	16447	14368	0	720
6.744	-7.285	16442	14500	0	720
-0.974	-14.064	16440	14552	0	720
-2.777	-15.002	16433	14581	0	720
0.361	-8.294	16431	14676	0	720
4.580	0.180	16424	14786	0	720
6.671	5.734	16422	14889	0	720
3.498	6.131	16420	14992	0	720
-0.505	0.685	16412	14962	0	720
-1.587	-2.380	16402	14794	0	720
2.524	-1.623	16394	14662	0	720
11.143	4.436	16388	14684	0	720
16.697	10.242	16383	14779	0	720
21.601	15.867	16375	14786	0	720
23.657	17.382	16366	14698	0	720
23.621	17.526	16360	14676	0	720
25.099	16.372	16356	14801	0	720
27.551	17.057	16351	15036	0	720
27.479	17.815	16348	15285	0	720
26.902	16.084	16346	15483	0	720
21.241	11.360	16346	15747	0	720
16.228	4.688	16346	16091	0	720
10.242	0.433	16344	16370	0	720
9.160	-0.469	16346	16537	0	720
10.350	0.541	16344	16662	0	720
11.612	2.272	16344	16779	0	720
12.874	2.128	16344	16941	0	720
12.550	2.344	16348	17212	0	720
12.117	1.911	16351	17549	0	720
10.819	2.236	16351	17696	0	720
9.701	3.606	16344	17373	0	720
9.196	4.291	16333	16735	0	720
9.881	6.708	16324	16245	0	720
12.045	10.638	16315	16018	0	720
15.975	12.838	16306	15813	0	720
19.942	15.615	16301	15607	0	720
22.142	15.579	16292	15512	0	720
23.801	15.579	16285	15505	0	720
23.729	14.605	16283	15527	0	720
24.089	15.074	16280	15681	0	720
22.178	15.254	16285	16011	0	720
23.368	18.320	16280	16267	0	720
22.178	19.149	16274	16194	0	720
19.942	20.519	16267	15857	0	720
17.057	18.608	16256	15534	0	720
13.668	15.218	16249	15336	0	720
11.071	12.081	16238	15233	0	720
12.838	8.979	16233	15197	0	720
16.156	8.186	16229	15211	0	720
18.392	8.402	16220	15233	0	720
17.202	7.970	16215	15292	0	720
13.812	6.419	16211	15417	0	720
8.294	3.895	16206	15534	0	720
4.147	2.488	16202	15534	0	720
4.904	1.623	16194	15497	0	720
6.239	2.056	16185	15505	0	720
7.789	3.750	16183	15519	0	720
8.511	5.445	16174	15453	0	720
10.278	6.599	16165	15292	0	720
12.982	9.304	16154	15145	0	720
16.120	13.415	16147	15116	0	720
20.339	14.966	16143	15233	0	720
21.168	16.589	16138	15446	0	720
19.149	16.084	16135	15615	0	720
17.598	12.045	16131	15717	0	720
14.172	8.042	16126	15857	0	720
11.792	3.029	16126	16077	0	720
8.763	1.262	16125	16297	0	720
9.376	0.721	16120	16377	0	720
10.458	3.390	16115	16341	0	720
12.441	7.248	16108	16282	0	720
13.740	8.835	16102	16179	0	720
12.946	7.248	16097	16113	0	720
9.629	4.832	16097	16238	0	720
7.212	0.469	16093	16413	0	720
4.544	-3.354	16084	16333	0	720
2.777	-5.229	16072	15952	0	720
2.236	-4.977	16058	15512	0	720
3.931	-2.308	16048	15211	0	720
4.652	1.803	16038	15014	0	720
7.465	6.816	16020	14662	0	720
11.432	12.910	16000	14163	0	720
14.317	16.733	15986	13789	0	720
18.788	17.382	15972	13628	0	720
22.250	17.779	15959	13621	0	720
20.736	14.966	15950	13753	0	720
19.005	12.153	15941	13950	0	720
16.480	13.487	15932	14170	0	720
16.949	15.831	15927	14500	0	720
18.644	17.887	15925	14911	0	720
19.510	17.490	15921	15219	0	720
17.562	14.677	15912	15343	0	720
14.461	11.396	15904	15380	0	720
9.340	7.862	15895	15446	0	720
8.547	7.212	15891	15622	0	720
8.186	4.868	15889	15967	0	720
8.655	3.859	15889	16377	0	720
9.917	2.488	15889	16728	0	720
11.107	3.606	15891	17051	0	720
13.127	7.934	15895	17432	0	720
13.740	11.973	15898	17864	0	720
15.795	15.435	15904	18282	0	720
15.939	17.166	15912	18656	0	720
14.497	15.795	15918	19037	0	720
13.451	14.497	15930	19455	0	720
12.910	12.009	15943	19859	0	720
13.091	11.468	15952	20188	0	720
13.956	11.720	15963	20438	0	720
14.389	12.982	15975	20614	0	720
15.290	14.281	15984	20694	0	720
14.461	15.939	15993	20606	0	720
15.254	17.490	15998	20408	0	720
17.274	18.211	16009	20298	0	720
17.706	17.129	16018	20328	0	720
16.372	13.920	16031	20423	1	596
15.254	11.287	16045	20526	0	596
14.100	7.934	16057	20592	0	596
14.677	9.592	16070	20584	0	596
15.038	9.052	16086	20526	0	596
12.405	7.176	16099	20489	0	596
8.439	2.308	16113	20474	0	596
3.246	-0.974	16125	20364	0	596
3.787	1.118	16138	20188	0	596
7.717	6.708	16149	20035	0	596
11.396	14.172	16161	19903	0	596
12.838	18.860	16174	19727	0	596
12.333	18.644	16185	19477	0	596
11.648	18.283	16197	19221	0	596
15.146	19.293	16206	19074	0	596
19.077	21.349	16226	19089	0	596
20.772	22.719	16242	19155	0	596
19.257	21.998	16253	19118	0	596
17.021	20.591	16269	18993	0	596
15.867	19.401	16279	18825	0	596
18.283	19.762	16289	18539	0	596
19.221	19.726	16297	18158	0	596
19.221	17.743	16303	17776	0	596
18.067	13.848	16310	17461	0	596
15.939	9.737	16319	17190	0	596
14.749	6.996	16324	16926	0	596
15.867	8.871	16330	16677	0	596
16.156	12.586	16337	16457	0	596
15.326	18.536	16342	16245	0	596
14.245	23.873	16344	15937	0	596
13.451	26.289	16342	15468	0	596
12.586	27.551	16339	14948	0	596
16.408	27.696	16337	14566	0	596
21.313	27.696	16337	14361	0	596
23.224	27.696	16337	14222	0	596
22.539	23.909	16335	14038	0	596
16.877	20.050	16333	13826	0	596
10.386	15.254	16330	13760	0	596
5.878	12.910	16335	13906	0	596
6.419	12.802	16337	14104	0	596
7.501	14.930	16339	14244	0	596
11.071	16.480	16339	14302	0	596
12.405	15.074	16339	14339	0	596
12.405	14.605	16339	14456	0	596
12.477	11.143	16342	14618	0	596
10.891	10.855	16342	14706	0	596
10.891	13.668	16342	14684	0	596
10.061	16.733	16339	14654	0	596
9.556	19.798	16335	14647	0	596
9.124	18.788	16335	14669	0	596
8.979	15.795	16333	14742	0	596
10.278	12.946	16330	14720	0	596
11.323	11.432	16319	14420	0	596
10.891	10.458	16306	13950	0	596
11.287	8.763	16301	13687	0	596
8.186	5.626	16292	13709	0	596
5.914	2.308	16285	13819	0	596
6.527	1.875	16283	13914	0	596
6.996	3.642	16276	14046	0	596
11.973	9.340	16276	14258	0	596
14.605	12.982	16276	14632	0	596
17.562	16.444	16280	15219	0	596
19.221	17.454	16288	15835	0	596
19.077	16.084	16288	16165	0	596
17.959	14.317	16285	16187	0	596
17.129	13.776	16283	16113	0	596
13.992	11.540	16280	16121	0	596
12.586	10.566	16280	16223	0	596
12.766	12.081	16276	16260	0	596
17.490	14.966	16271	16099	0	596
22.178	19.726	16265	15849	0	596
27.335	25.712	16260	15739	0	596
30.617	26.001	16260	15820	0	596
29.030	23.873	16256	16040	0	596
25.748	20.231	16258	16245	0	596
22.034	16.228	16256	16363	0	596
21.277	14.281	16260	16515	0	596
22.214	14.605	16260	16787	0	596
24.630	13.523	16267	17051	0	596
25.676	12.910	16267	17219	0	596
23.657	11.720	16271	17329	0	596
22.395	12.514	16271	17395	0	596
21.096	15.651	16276	17447	0	596
24.342	19.473	16279	17527	0	596
26.325	21.385	16280	17623	0	596
29.066	20.375	16279	17498	0	596
26.758	18.572	16265	16941	0	596
25.856	15.687	16256	16194	0	596
22.070	14.894	16247	15710	0	596
19.257	14.533	16242	15563	0	596
17.923	16.552	16235	15468	0	596
17.382	16.228	16231	15343	0	596
17.779	15.831	16226	15277	0	596
17.743	14.281	16221	15314	0	596
16.552	11.143	16224	15475	0	596
13.235	5.806	16231	15893	0	596
11.576	3.065	16235	16501	0	596
10.819	1.370	16244	16955	0	596
12.369	-1.190	16240	16999	0	596
14.425	-0.938	16238	16728	0	596
13.956	0.829	16229	16405	0	596
14.064	5.373	16226	16150	0	596
14.713	13.343	16217	15798	0	596
16.949	20.014	16197	15182	0	596
19.005	22.070	16181	14464	0	596
19.113	19.654	16167	13965	0	596
16.805	13.271	16156	13767	0	596
11.756	9.845	16147	13745	0	596
9.376	8.727	16138	13811	0	596
10.855	10.638	16129	13877	0	596
13.812	13.018	16122	13980	0	596
18.211	15.615	16115	14134	0	596
21.709	15.362	16111	14332	0	596
19.726	16.048	16106	14515	0	596
16.372	15.795	16099	14654	0	596
12.802	13.307	16095	14816	0	596
12.045	11.540	16090	15080	0	596
13.415	11.828	16093	15453	0	596
16.408	10.494	16093	15901	0	596
18.067	11.287	16095	16333	0	596
17.562	10.350	16095	16669	0	596
15.903	10.314	16095	16889	0	596
15.182	10.855	16097	17065	0	596
17.238	12.261	16099	17256	0	596
18.680	14.389	16097	17395	0	596
19.329	15.002	16099	17447	0	596
19.906	15.975	16097	17454	0	596
19.834	13.992	16097	17432	0	596
20.772	14.785	16097	17439	0	596
20.375	14.749	16099	17601	0	596
21.854	15.110	16102	17776	0	596
22.070	17.057	16097	17615	0	596
19.473	17.779	16086	17095	0	596
17.959	16.552	16077	16486	0	596
15.038	14.208	16066	16011	0	596
11.071	12.550	16052	15615	0	596
11.504	11.540	16038	15167	0	596
14.136	12.189	16025	14618	0	596
16.336	14.966	16007	14148	0	596
18.572	15.975	16000	13958	0	596
20.050	18.860	15989	14046	0	596
20.772	21.060	15984	14244	0	596
20.195	21.601	15977	14383	0	596
20.844	20.664	15971	14434	0	596
20.303	18.392	15963	14449	0	596
18.716	16.949	15952	14478	0	596
19.077	16.480	15945	14530	0	596
19.726	16.552	15939	14603	0	596
21.926	16.949	15930	14713	0	596
21.890	17.887	15923	14874	0	596
24.811	19.437	15921	15131	0	596
26.325	21.673	15921	15475	0	596
26.253	22.214	15921	15849	0	596
26.253	21.277	15918	16157	0	596
23.440	17.490	15916	16413	0	596
21.926	15.074	15921	16735	0	596
20.375	13.235	15925	17168	0	596
21.818	14.425	15932	17652	0	596
22.431	14.245	15939	18084	0	596
24.450	14.461	15943	18407	0	596
25.496	16.516	15948	18561	0	596
27.912	18.247	15950	18576	0	596
30.076	20.664	15952	18590	0	596
29.499	22.539	15957	18678	0	596
27.191	21.926	15966	18869	0	596
22.719	19.654	15971	19089	0	596
21.204	17.093	15980	19169	0	596
22.647	17.598	15981	19125	0	596
23.729	18.824	15990	19169	0	596
25.424	20.916	16000	19375	0	596
21.385	17.815	16016	19653	0	596
16.733	14.605	16027	19939	0	596
13.559	9.340	16045	20210	0	596
12.730	8.330	16063	20548	0	596
15.398	10.855	16081	20966	0	596
18.933	17.021	16104	21354	0	596
23.945	23.188	16125	21625	0	596
27.840	26.253	16144	21765	0	596
31.230	25.965	16163	21801	0	596
31.554	24.955	16181	21787	0	596
32.672	23.585	16199	21728	0	596
31.879	22.647	16217	21611	0	596
31.013	22.142	16233	21384	1	728
31.158	23.476	16247	21120	0	728
30.364	24.270	16267	20914	0	728
32.600	26.073	16283	20812	0	728
32.528	29.427	16301	20702	0	728
32.095	29.354	16317	20408	0	728
28.020	23.801	16328	19991	0	728
21.493	19.041	16339	19580	0	728
16.805	15.723	16353	19243	0	728
15.254	14.858	16362	18898	0	728
18.500	17.779	16371	18444	0	728
23.981	21.493	16378	17945	0	728
30.040	23.801	16384	17454	0	728
34.079	24.558	16388	16933	0	728
36.387	23.116	16390	16377	0	728
35.124	21.313	16390	15820	0	728
29.643	15.867	16390	15307	0	728
25.135	13.054	16388	14801	0	728
21.529	11.432	16384	14280	0	728
22.503	13.848	16380	13775	0	728
24.414	18.320	16375	13305	0	728
27.804	22.431	16369	12902	0	728
27.191	23.945	16362	12587	0	728
23.909	24.702	16356	12264	0	728
20.339	21.132	16342	11861	0	728
17.129	19.942	16330	11494	0	728
17.129	20.447	16319	11275	0	728
18.356	21.781	16312	11216	0	728
19.293	21.962	16303	11253	0	728
20.483	20.627	16294	11297	0	728
19.906	18.103	16285	11333	0	728
18.103	16.084	16279	11458	0	728
16.516	15.723	16269	11685	0	728
15.759	16.084	16265	11934	0	728
13.956	17.418	16251	12081	0	728
14.497	16.300	16244	12147	0	728
15.218	16.300	16233	12257	0	728
17.670	16.985	16231	12580	0	728
21.096	19.798	16229	13093	0	728
24.342	23.332	16224	13591	0	728
23.981	25.820	16217	13833	0	728
22.322	25.893	16208	13863	0	728
16.300	22.755	16202	14031	0	728
8.655	17.418	16202	14449	0	728
3.029	13.668	16199	14896	0	728
2.741	14.208	16194	15285	0	728
6.888	17.598	16199	15659	0	728
12.982	22.214	16197	16033	0	728
18.644	23.585	16202	16464	0	728
22.395	21.962	16211	17183	0	728
26.145	19.401	16229	18150	0	728
31.626	15.975	16240	18935	0	728
38.334	8.583	16247	19265	0	728
44.464	-8.655	16253	19287	0	728
42.914	-41.652	16253	19199	0	728
37.829	-78.399	16256	19052	0	728
32.059	-103.462	16253	18810	0	728
26.542	-103.137	16253	18517	0	728
26.470	-73.963	16249	18187	0	728
26.433	-32.492	16247	17835	0	728
28.597	1.983	16240	17527	0	728
26.722	17.129	16242	17344	0	728
27.119	18.320	16235	17153	0	728
27.335	17.598	16231	16853	0	728
28.489	20.123	16229	16581	0	728
31.338	27.984	16226	16479	0	728
31.049	34.403	16226	16479	0	728
29.643	33.610	16224	16479	0	728
26.974	29.138	16221	16391	0	728
23.476	26.145	16221	16253	0	728
23.296	25.568	16217	16172	0	728
22.214	27.624	16217	16201	0	728
22.431	29.138	16220	16260	0	728
23.765	30.797	16217	16289	0	728
23.008	30.653	16217	16326	0	728
23.008	31.807	16217	16363	0	728
22.178	33.393	16217	16384	0	728
19.834	34.620	16217	16391	0	728
17.887	33.574	16215	16363	0	728
17.490	33.682	16212	16282	0	728
18.752	33.357	16211	16165	0	728
21.998	35.160	16206	16033	0	728
23.621	37.360	16206	15981	0	728
24.811	37.180	16211	16165	0	728
24.234	36.747	16211	16427	0	728
24.342	33.934	16206	16405	0	728
25.171	32.167	16199	16040	0	728
25.063	31.626	16190	15512	0	728
22.683	29.463	16179	15036	0	728
19.510	29.463	16165	14669	0	728
16.625	29.895	16149	14258	0	728
16.625	30.256	16131	13657	0	728
18.572	32.420	16111	13027	0	728
20.700	31.879	16097	12631	0	728
20.483	30.400	16084	12558	0	728
19.906	29.246	16075	12719	0	728
19.906	26.722	16063	12983	0	728
20.772	25.676	16057	13239	0	728
21.385	23.116	16049	13445	0	728
20.375	20.880	16038	13533	0	728
18.464	20.087	16027	13569	0	728
16.192	21.096	16018	13687	0	728
13.595	22.142	16007	13870	0	728
13.704	23.981	16002	14075	0	728
13.018	26.650	15993	14354	0	728
16.300	27.227	15993	14713	0	728
19.185	29.354	15989	15160	0	728
23.296	29.066	15989	15607	0	728
25.784	28.092	15986	15886	0	728
25.929	26.289	15977	15937	0	728
24.234	24.017	15975	16040	0	728
21.673	22.358	15971	16304	0	728
20.339	21.493	15971	16581	0	728
19.113	20.123	15968	16801	0	728
19.077	20.231	15963	16948	0	728
20.447	22.178	15961	16985	0	728
21.890	21.601	15952	16919	0	728
20.447	22.719	15950	16816	0	728
19.149	20.772	15941	16655	0	728
16.264	20.447	15930	16384	0	728
15.074	22.683	15918	16040	0	728
15.903	24.234	15904	15710	0	728
18.752	29.607	15895	15549	0	728
23.152	33.033	15891	15651	0	728
26.542	35.160	15891	15967	0	728
30.725	36.675	15894	16384	0	728
31.374	38.154	15898	16823	0	728
31.085	38.082	15903	17366	0	728
26.794	37.072	15916	18084	0	728
22.503	35.233	15930	18854	0	728
21.457	32.023	15943	19477	0	728
22.863	29.859	15959	19954	0	728
28.417	28.597	15971	20379	0	728
33.357	29.571	15989	20834	0	728
37.901	30.436	16007	21376	0	728
39.452	31.302	16031	21941	0	728
37.324	32.203	16052	22366	0	728
33.357	31.049	16072	22579	0	728
28.994	28.994	16090	22688	0	728
25.279	26.470	16111	22798	0	728
21.385	21.998	16131	22894	0	728
19.618	19.329	16149	22864	0	728
16.516	16.012	16167	22710	0	728
15.759	15.903	16185	22483	0	728
15.831	18.175	16202	22249	0	728
18.247	20.087	16217	21992	1	580
19.293	21.529	16235	21691	0	580
19.690	21.890	16249	21362	0	580
19.942	21.349	16265	20995	0	580
19.978	20.411	16271	20474	0	580
21.241	21.241	16280	19807	0	580
20.844	21.998	16285	19133	0	580
19.582	21.024	16289	18429	0	580
17.851	20.916	16292	17623	0	580
17.598	21.024	16285	16750	0	580
20.700	23.512	16285	15945	0	580
24.306	25.893	16283	15351	0	580
28.561	29.102	16285	15021	0	580
29.102	31.338	16288	14823	0	580
26.722	28.705	16280	14449	0	580
22.539	25.388	16267	13591	0	580
19.149	20.844	16249	12492	0	580
17.526	17.562	16238	11692	0	580
18.824	17.634	16224	11326	0	580
20.050	18.031	16217	11245	0	580
20.195	17.166	16212	11341	0	580
17.454	13.054	16208	11604	0	580
14.425	7.285	16212	12066	0	580
10.927	2.777	16221	12741	0	580
9.520	3.678	16226	13481	0	580
11.396	7.104	16235	14126	0	580
14.749	12.369	16240	14698	0	580
19.365	18.031	16253	15329	0	580
23.909	20.808	16265	16055	0	580
27.119	22.142	16283	16787	0	580
28.345	24.594	16294	17388	0	580
25.243	23.224	16306	17798	0	580
21.565	20.231	16317	18070	0	580
17.310	15.362	16326	18260	0	580
15.254	12.405	16333	18363	0	580
17.129	10.710	16342	18356	0	580
19.582	12.261	16346	18282	0	580
20.375	14.064	16356	18165	0	580
19.762	16.408	16353	17872	0	580
19.149	18.500	16353	17498	0	580
21.349	23.657	16360	17447	0	580
26.073	27.587	16369	17703	0	580
29.535	29.968	16378	17798	0	580
28.489	27.443	16375	17483	0	580
22.358	20.988	16374	16977	0	580
15.687	16.336	16371	16530	0	580
9.881	11.756	16369	16238	0	580
9.016	10.061	16366	16018	0	580
7.753	9.016	16362	15717	0	580
9.448	4.436	16356	15263	0	580
7.357	-4.075	16351	14823	0	580
7.104	-20.339	16342	14537	0	580
4.219	-42.517	16337	14390	0	580
2.019	-64.407	16333	14302	0	580
0.108	-74.937	16326	14214	0	580
1.442	-64.515	16324	14163	0	580
4.111	-39.163	16319	14214	0	580
8.655	-11.792	16317	14361	0	580
11.828	2.885	16319	14588	0	580
13.091	0.180	16319	14801	0	580
13.776	-7.789	16317	14962	0	580
14.353	-10.061	16317	15138	0	580
15.326	-3.570	16319	15395	0	580
16.408	6.599	16324	15717	0	580
18.644	11.900	16324	15945	0	580
19.834	11.900	16317	15864	0	580
21.241	10.855	16310	15534	0	580
20.014	10.097	16308	15270	0	580
19.546	12.405	16298	15175	0	580
16.913	14.100	16292	15094	0	580
15.254	12.946	16289	15014	0	580
12.730	13.163	16279	14955	0	580
10.530	12.477	16276	14874	0	580
7.357	11.900	16269	14882	0	580
6.383	11.937	16274	15197	0	580
7.537	11.756	16276	15754	0	580
8.655	14.605	16279	16179	0	580
10.855	16.192	16280	16355	0	580
14.028	19.185	16279	16420	0	580
15.867	21.060	16280	16457	0	580
16.589	19.437	16279	16508	0	580
17.418	15.795	16279	16640	0	580
16.949	12.622	16280	16772	0	580
16.228	8.655	16276	16794	0	580
16.516	8.727	16274	16633	0	580
18.031	11.432	16258	16157	0	580
17.887	14.858	16244	15417	0	580
18.752	18.428	16229	14794	0	580
18.860	20.952	16217	14427	0	580
20.195	23.332	16208	14251	0	580
23.044	23.080	16199	14273	0	580
24.522	22.034	16197	14515	0	580
25.063	19.798	16194	14816	0	580
22.719	17.021	16190	15006	0	580
17.995	16.516	16185	15189	0	580
14.605	17.454	16188	15490	0	580
12.838	17.851	16190	15893	0	580
12.225	16.300	16192	16282	0	580
13.091	13.199	16190	16501	0	580
12.117	9.809	16190	16574	0	580
11.937	7.465	16188	16574	0	580
13.523	6.780	16183	16530	0	580
11.215	6.996	16181	16508	0	580
10.783	6.563	16179	16552	0	580
11.432	7.862	16174	16515	0	580
12.874	10.025	16165	16223	0	580
19.618	14.389	16152	15732	0	580
26.578	20.267	16138	15248	0	580
28.453	21.277	16126	14918	0	580
22.899	17.418	16115	14757	0	580
16.300	10.530	16104	14662	0	580
8.186	3.750	16097	14566	0	580
6.131	0.397	16088	14544	0	580
6.816	1.587	16084	14757	0	580
8.402	2.596	16086	15145	0	580
8.078	3.895	16084	15519	0	580
9.845	5.085	16079	15732	0	580
10.855	5.445	16072	15776	0	580
13.992	8.114	16070	15769	0	580
16.913	9.917	16066	15827	0	580
16.769	9.088	16061	15915	0	580
16.156	6.852	16052	15879	0	580
13.776	5.517	16045	15673	0	580
13.740	3.570	16034	15468	0	580
11.937	2.019	16025	15409	0	580
11.468	2.416	16025	15534	0	580
10.314	1.551	16018	15754	0	580
10.602	1.262	16018	15967	0	580
10.386	1.370	16016	16179	0	580
10.674	2.993	16013	16420	0	580
11.864	2.416	16018	16735	0	580
11.179	2.849	16020	17065	0	580
11.792	4.219	16025	17359	0	580
15.146	6.203	16027	17608	0	580
17.562	12.009	16031	17879	0	580
22.142	17.995	16038	18165	0	580
24.486	21.926	16045	18458	0	580
23.296	20.844	16054	18803	0	580
21.277	18.247	16066	19125	0	580
18.608	13.992	16070	19279	0	580
18.428	14.605	16072	19162	0	580
19.185	16.444	16075	18913	0	580
21.349	20.014	16077	18759	0	580
21.926	20.916	16084	18752	0	580
20.483	20.447	16088	18774	0	580
21.457	19.690	16090	18693	0	580
23.801	19.906	16095	18546	0	580
24.053	18.572	16106	18568	0	580
22.719	17.598	16115	18810	0	580
18.320	13.631	16129	19081	0	580
12.261	9.340	16140	19257	0	580
6.816	6.708	16149	19301	0	580
8.042	4.796	16161	19301	0	580
9.845	6.058	16170	19353	0	580
13.307	8.763	16183	19433	0	580
15.146	10.819	16192	19411	0	580
12.405	12.045	16202	19213	0	580
10.710	11.179	16208	18964	0	580
9.484	11.684	16217	18840	0	580
8.943	11.179	16231	18898	0	580
10.963	10.422	16242	19037	0	580
9.556	10.963	16256	19089	0	580
8.186	8.475	16267	19074	0	580
6.058	6.996	16283	19052	0	580
6.924	5.842	16292	18993	0	580
6.996	6.924	16303	18840	0	580
8.439	7.609	16317	18656	0	580
10.278	7.825	16324	18517	0	580
10.169	6.022	16335	18414	0	580
7.573	1.659	16346	18392	0	580
5.878	-3.029	16360	18414	0	580
4.147	-3.173	16371	18400	0	580
4.508	-0.144	16384	18304	0	580
6.239	4.940	16393	18099	0	580
9.665	6.491	16397	17784	0	580
7.537	5.590	16402	17432	0	580
6.058	1.983	16406	17102	0	580
4.075	0.000	16411	16787	0	580
2.633	-0.505	16415	16464	0	580
1.082	1.911	16415	16047	0	580
0.180	3.246	16412	15622	0	580
1.190	4.039	16417	15431	0	580
2.236	6.563	16422	15461	0	580
5.914	7.393	16429	15497	0	580
10.133	11.504	16429	15402	0	580
14.894	16.733	16431	15204	0	580
19.257	21.204	16431	15036	0	580
20.880	23.044	16435	14984	0	580
19.005	22.611	16435	14992	0	580
15.074	16.949	16438	14955	0	580
11.828	13.271	16438	14830	0	580
9.917	10.674	16433	14647	0	580
11.648	11.684	16431	14464	0	580
15.074	13.992	16429	14361	0	580
16.336	15.831	16431	14398	0	580
16.408	13.812	16431	14464	0	580
15.110	10.206	16431	14500	0	580
12.189	5.734	16429	14530	0	580
10.602	0.288	16426	14625	0	580
10.999	-3.967	16433	14808	0	580
12.514	-11.287	16433	15043	0	580
13.812	-26.217	16438	15263	0	580
13.451	-46.304	16438	15475	0	580
11.035	-68.229	16440	15688	0	580
10.206	-88.785	16444	15842	0	580
9.845	-102.164	16444	15879	0	580
9.989	-114.785	16447	15842	0	580
11.287	-127.263	16444	15805	0	580
10.674	-139.849	16440	15739	0	580
9.737	-144.176	16438	15644	0	580
8.294	-130.797	16438	15541	0	580
8.943	-98.125	16433	15461	0	580
8.835	-57.158	16426	15358	0	580
10.783	-22.395	16422	15131	0	580
11.973	-6.455	16411	14801	0	580
10.206	-3.354	16403	14588	0	580
9.376	-6.996	16402	14603	0	580
7.573	-3.354	16399	14750	0	580
6.131	5.337	16394	14852	0	580
5.049	14.317	16390	14860	0	580
5.085	19.401	16385	14926	0	580
4.291	18.644	16384	15080	0	580
5.662	16.913	16380	15197	0	580
5.806	16.300	16375	15233	0	580
4.472	17.490	16374	15219	0	580
2.921	19.906	16369	15189	0	580
-0.613	19.618	16365	15233	0	580
-2.056	20.411	16362	15424	0	580
-1.551	20.123	16362	15710	0	580
-0.613	20.014	16362	15952	0	580
0.036	20.231	16365	16106	0	580
0.469	21.313	16362	16179	0	580
1.010	20.664	16360	16231	0	580
1.551	22.322	16356	16267	0	580
2.164	22.286	16348	16157	0	580
1.875	22.611	16335	15747	0	580
2.524	22.214	16321	15131	0	580
2.560	24.378	16306	14566	0	580
3.498	24.053	16289	14156	0	580
5.986	22.647	16279	13863	0	580
4.977	21.637	16262	13701	0	580
3.750	16.192	16251	13650	0	580
2.452	14.785	16240	13591	0	580
1.731	15.038	16229	13518	0	580
1.154	17.454	16220	13709	0	580
0.325	18.860	16221	14258	0	580
-0.721	17.310	16217	14808	0	580
-0.721	13.451	16211	15014	0	580
-0.108	6.275	16203	14984	0	580
1.875	-8.619	16194	14984	0	580
2.560	-29.210	16188	15131	0	580
1.695	-51.965	16185	15380	0	580
4.111	-65.921	16181	15622	0	580
6.924	-58.853	16176	15769	0	580
12.550	-33.249	16170	15864	0	580
14.713	-2.272	16165	15989	0	580
14.425	20.519	16161	16165	0	580
12.441	24.702	16156	16311	0	580
10.927	16.697	16154	16384	0	580
9.809	8.943	16149	16442	0	580
10.025	7.717	16140	16384	0	580
6.058	12.514	16122	15871	0	580
4.868	18.933	16099	14999	0	580
2.092	20.700	16079	14310	0	580
2.380	18.356	16066	14031	0	580
3.426	16.084	16052	14046	0	580
2.777	13.595	16045	14288	0	580
2.524	14.569	16040	14640	0	580
3.426	14.966	16036	14970	0	580
4.039	17.779	16029	15285	0	580
6.816	18.897	16029	15615	0	580
8.907	18.824	16027	15959	0	580
8.943	20.195	16025	16275	0	580
7.609	18.356	16025	16537	0	580
3.210	15.362	16020	16787	0	580
-0.252	13.704	16022	16992	0	580
-2.236	13.776	16018	17131	0	580
0.974	14.858	16022	17307	0	580
7.609	18.644	16025	17696	0	580
14.713	21.854	16029	18180	0	580
14.317	20.339	16034	18429	0	580
10.206	14.461	16031	18378	0	580
1.695	7.212	16029	18172	0	580
-4.147	2.236	16025	17916	0	580
-5.301	2.092	16020	17681	0	580
-1.695	6.022	16020	17579	1	1140
0.685	8.763	16018	17608	0	1140
2.200	10.133	16020	17652	0	1140
1.515	8.691	16025	17732	0	1140
1.406	5.698	16025	17864	0	1140
