neuroNicle FX2
D3F25R0
Bluetooth SPP
2023년 6월 12일 월요일
오후 7:11
time interval = 4msec
EEG1	EEG2	PPG	sdPPG	pulse	peak_interval(msec)
17.057	14.641	15820	20527	0	764
18.247	7.140	15945	20157	0	764
17.490	-0.180	16091	19785	0	764
17.634	-2.200	16216	19436	0	764
16.228	1.767	16327	19039	0	764
18.067	9.160	16407	18548	0	764
17.959	14.389	16485	18007	0	764
20.627	19.077	16552	17505	0	764
19.798	17.418	16620	17060	0	764
20.014	17.166	16677	16626	0	764
17.598	14.425	16704	16193	0	764
17.382	10.566	16755	15759	0	764
16.084	12.441	16779	15361	0	764
16.300	13.091	16789	15023	0	764
13.343	12.802	16823	14750	0	764
14.172	14.497	16829	14505	0	764
15.074	12.730	16840	14237	0	764
16.372	14.281	16829	13972	0	764
20.772	15.471	16840	13763	0	764
19.041	16.444	16829	13651	0	764
16.985	16.769	16840	13594	0	764
12.333	14.100	16846	13532	0	764
10.746	10.891	16823	13442	0	764
9.917	8.835	16813	13360	0	764
10.025	8.114	16779	13318	0	764
12.658	13.271	16772	13315	0	764
13.559	17.526	16738	13338	0	764
12.658	18.067	16721	13369	0	764
12.153	13.668	16688	13352	0	764
10.855	5.554	16620	13242	0	764
8.222	-0.649	16552	13095	0	764
9.052	1.659	16492	13047	0	764
10.855	6.960	16451	13118	0	764
12.189	12.514	16400	13214	0	764
14.966	12.009	16344	13264	0	764
13.127	6.203	16276	13281	0	764
10.278	1.623	16209	13301	0	764
9.556	-1.370	16141	13352	0	764
11.323	-0.325	16064	13414	0	764
14.569	6.599	15989	13448	0	764
20.375	10.819	15905	13448	0	764
21.241	11.071	15810	13453	0	764
20.231	7.465	15726	13501	0	764
16.625	4.291	15658	13611	0	764
14.317	0.577	15591	13763	0	764
9.989	0.721	15506	13896	0	764
10.638	3.498	15432	14000	0	764
12.550	7.321	15354	14116	0	764
14.858	11.107	15287	14257	0	764
21.457	12.333	15229	14445	0	764
22.935	13.920	15202	14741	0	764
23.296	8.330	15185	15130	0	764
22.286	1.298	15151	15463	0	764
20.014	-0.829	15111	15643	0	764
22.611	3.750	15067	15731	0	764
26.037	16.661	15016	15821	0	764
33.934	33.033	14976	15917	0	764
43.310	45.907	14908	15970	0	764
50.595	47.638	14864	15998	0	764
56.906	42.914	14807	16046	0	764
60.728	35.665	14773	16128	0	764
64.082	32.672	14729	16246	0	764
70.141	38.406	14705	16406	0	764
80.382	48.323	14695	16584	0	764
94.627	61.089	14678	16736	0	764
108.078	71.872	14662	16840	0	764
121.854	80.635	14621	16854	0	764
132.167	88.821	14577	16815	0	764
143.022	90.624	14560	16818	0	764
153.336	95.781	14537	16868	0	764
163.433	99.351	14520	16925	0	764
174.035	106.275	14503	16987	0	764
186.513	114.533	14486	17037	0	764
196.538	123.585	14486	17097	0	764
207.537	127.732	14503	17252	0	764
214.533	132.239	14526	17474	0	764
217.743	137.072	14543	17612	0	764
220.591	140.642	14543	17601	0	764
226.001	144.284	14526	17511	0	764
232.744	146.845	14509	17418	0	764
235.990	143.347	14503	17350	0	764
238.406	139.596	14503	17311	0	764
238.118	137.180	14493	17266	0	764
237.180	137.649	14486	17187	0	764
233.466	136.242	14476	17113	0	764
228.561	136.134	14469	17077	0	764
218.572	128.633	14469	17057	0	764
202.380	117.995	14469	17029	0	764
188.713	107.429	14452	16958	0	764
175.514	100.865	14442	16854	0	764
161.414	96.394	14425	16761	0	764
150.126	93.256	14418	16696	0	764
134.583	82.907	14401	16629	0	764
119.978	73.494	14368	16508	0	764
100.469	58.096	14307	16280	0	764
84.205	48.828	14239	15928	0	764
65.453	40.786	14165	15567	0	764
49.333	39.380	14097	15339	0	764
33.033	34.223	14064	15308	0	764
19.762	29.535	14047	15415	0	764
6.527	18.608	14020	15533	0	764
-3.823	11.071	14003	15573	0	764
-15.110	1.767	13952	15550	0	764
-26.433	-6.744	13928	15519	0	764
-38.118	-11.792	13884	15508	0	764
-49.874	-19.546	13851	15522	0	764
-58.457	-25.027	13827	15562	0	764
-66.967	-31.410	13793	15604	0	764
-76.596	-38.190	13759	15635	0	764
-86.188	-45.330	13743	15680	0	764
-95.168	-50.595	13726	15759	0	764
-101.479	-51.785	13699	15852	0	764
-102.236	-49.189	13665	15919	0	764
-99.820	-45.258	13648	15953	0	764
-97.223	-47.854	13614	15965	0	764
-97.800	-51.424	13591	15965	0	764
-99.531	-60.368	13557	15970	0	764
-104.003	-65.849	13530	15973	0	764
-108.727	-70.537	13496	15979	0	764
-110.530	-72.629	13455	15967	0	764
-111.287	-74.180	13405	15886	0	764
-110.097	-74.612	13344	15745	0	764
-108.547	-76.560	13287	15618	0	764
-106.347	-73.386	13226	15539	0	764
-106.491	-72.088	13168	15508	0	764
-106.996	-71.295	13124	15499	0	764
-105.914	-72.953	13067	15477	0	764
-104.652	-74.504	13033	15468	0	764
-100.649	-76.451	12982	15514	0	764
-97.584	-76.488	12955	15609	0	764
-95.312	-75.009	12915	15708	0	764
-94.410	-74.901	12888	15779	0	764
-93.184	-73.026	12847	15838	0	764
-91.021	-70.321	12820	15905	0	764
-86.946	-67.724	12803	16007	0	764
-85.395	-64.587	12787	16131	0	764
-83.267	-61.414	12763	16224	0	764
-79.553	-57.916	12729	16277	0	764
-75.370	-54.345	12712	16322	0	764
-69.131	-48.864	12695	16376	0	764
-64.984	-49.225	12685	16460	0	764
-63.361	-50.956	12685	16617	0	764
-62.351	-52.723	12695	16789	0	764
-62.640	-55.572	12668	16840	0	764
-62.315	-57.303	12651	16761	0	764
-60.115	-58.096	12611	16632	0	764
-57.483	-61.774	12567	16519	0	764
-53.264	-67.111	12543	16457	0	764
-47.241	-69.419	12516	16429	0	764
-43.238	-68.770	12476	16384	0	764
-40.462	-60.620	12442	16291	0	764
-36.459	-52.398	12408	16229	0	764
-32.672	-41.183	12391	16252	0	764
-27.660	-40.714	12374	16311	0	764
-26.217	-42.481	12357	16373	0	764
-25.568	-45.871	12347	16417	0	764
-26.650	-44.969	12330	16426	0	764
-25.388	-41.796	12280	16348	0	764
-20.808	-36.351	12246	16227	0	764
-13.812	-33.466	12239	16218	0	764
-8.114	-33.357	12229	16331	0	764
-7.032	-32.492	12239	16510	0	764
-6.924	-31.662	12273	16753	0	764
-7.681	-25.460	12324	17023	0	764
-8.979	-23.152	12374	17311	0	764
-9.448	-21.457	12442	17641	0	764
-8.366	-21.854	12526	18004	0	764
-8.042	-23.116	12618	18354	0	764
-7.934	-22.106	12719	18650	0	764
-7.212	-16.480	12820	18920	0	764
-7.140	-12.189	12949	19241	0	764
-7.609	-9.989	13101	19639	0	764
-6.780	-9.917	13276	20098	0	764
-3.714	-13.523	13462	20563	0	764
1.587	-12.694	13658	20969	0	764
6.419	-11.251	13844	21293	0	764
7.717	-9.881	14053	21572	0	764
6.419	-7.789	14273	21868	0	764
4.544	-7.717	14503	22170	0	764
1.406	-5.373	14729	22407	0	764
0.685	-4.544	14959	22553	0	764
2.849	-2.200	15195	22635	0	764
3.354	-0.649	15422	22669	0	764
5.806	-0.397	15624	22590	0	764
5.517	-0.577	15793	22271	0	764
5.770	1.226	15922	21719	0	764
4.977	2.344	16040	21124	0	764
4.796	2.056	16165	20569	1	764
4.364	1.334	16259	20033	0	764
0.613	-0.361	16368	19535	0	764
1.010	-1.875	16485	19112	0	764
0.541	-1.731	16593	18748	0	764
4.904	1.154	16694	18376	0	764
8.222	3.065	16789	17967	0	764
6.491	3.137	16873	17576	0	764
-0.397	-0.938	16965	17235	0	764
-10.963	-2.019	17042	16933	0	764
-17.310	-4.364	17127	16646	0	764
-19.978	-2.705	17194	16368	0	764
-17.490	-3.787	17262	16122	0	764
-16.444	-6.671	17336	15931	0	764
-14.208	-9.881	17404	15779	0	764
-14.028	-8.222	17471	15629	0	764
-12.694	-5.229	17532	15446	0	764
-10.819	-0.288	17573	15249	0	764
-10.746	-0.108	17617	15063	0	764
-10.061	-3.462	17640	14899	0	764
-11.071	-5.734	17674	14753	0	764
-13.523	-5.590	17701	14609	0	764
-14.713	-4.977	17718	14476	0	764
-16.012	-3.859	17735	14350	0	764
-18.175	-5.157	17725	14214	0	764
-18.211	-8.979	17725	14056	0	764
-20.555	-11.071	17701	13890	0	764
-22.503	-13.271	17684	13746	0	764
-25.748	-15.723	17657	13639	0	764
-28.309	-20.014	17623	13524	0	764
-30.004	-23.152	17573	13383	0	764
-29.282	-21.277	17532	13273	0	764
-31.049	-16.480	17488	13231	0	764
-29.499	-8.078	17448	13208	0	764
-31.158	-1.370	17380	13149	0	764
-34.259	-1.983	17302	13050	0	764
-36.928	-7.501	17235	12980	0	764
-40.642	-16.949	17177	12983	0	764
-43.743	-21.096	17117	13059	0	764
-46.087	-24.522	17066	13191	0	764
-47.818	-27.479	17025	13357	0	764
-47.133	-25.856	16981	13541	0	764
-47.999	-24.919	16931	13693	0	764
-45.546	-20.411	16873	13811	0	764
-42.012	-13.271	16823	13927	0	764
-39.849	-10.314	16762	14059	0	764
-40.245	-12.982	16721	14209	0	764
-42.553	-19.834	16671	14347	0	764
-47.133	-26.974	16593	14403	0	764
-48.648	-29.354	16502	14366	0	764
-51.497	-29.354	16407	14279	0	764
-50.343	-25.640	16317	14197	0	764
-54.021	-25.532	16232	14197	0	764
-55.824	-27.083	16158	14293	0	764
-60.224	-28.128	16080	14428	0	764
-58.132	-26.217	16040	14595	0	764
-56.076	-21.781	15972	14781	0	764
-51.641	-18.211	15912	14902	0	764
-51.028	-15.074	15837	14967	0	764
-49.080	-19.365	15787	15102	0	764
-54.418	-24.522	15743	15336	0	764
-58.637	-29.499	15726	15626	0	764
-63.722	-30.941	15726	15973	0	764
-68.734	-30.436	15726	16353	0	764
-70.177	-27.479	15743	16708	0	764
-69.672	-22.935	15770	17029	0	764
-67.724	-21.096	15776	17328	0	764
-65.092	-22.142	15820	17612	0	764
-64.443	-25.207	15854	17872	0	764
-66.174	-30.400	15888	18114	0	764
-69.492	-33.357	15945	18345	0	764
-73.242	-32.816	15979	18542	0	764
-75.911	-29.751	16013	18661	0	764
-78.255	-28.128	16057	18700	0	764
-79.264	-25.243	16091	18720	0	764
-78.615	-25.424	16124	18740	0	764
-77.028	-27.443	16165	18754	0	764
-74.612	-28.201	16209	18743	0	764
-74.576	-28.777	16243	18700	0	764
-77.028	-29.391	16283	18658	0	764
-81.933	-27.984	16327	18633	0	764
-84.313	-28.453	16378	18604	0	764
-85.034	-31.266	16407	18542	0	764
-83.339	-32.925	16441	18418	0	764
-79.769	-33.105	16475	18263	0	764
-79.986	-31.122	16509	18114	0	764
-82.438	-28.922	16536	17984	0	764
-85.070	-29.102	16569	17852	0	764
-92.175	-34.439	16586	17688	0	764
-95.312	-39.235	16593	17486	0	764
-94.446	-39.632	16586	17232	0	764
-90.552	-34.656	16552	16888	0	764
-84.205	-25.676	16519	16491	0	764
-83.736	-20.050	16475	16125	0	764
-85.936	-21.024	16434	15829	0	764
-89.254	-27.696	16400	15593	0	764
-91.958	-36.026	16351	15370	0	764
-89.794	-39.524	16293	15119	0	764
-85.828	-36.819	16232	14865	0	764
-84.277	-31.446	16175	14643	0	764
-79.228	-24.450	16107	14468	0	764
-71.691	-15.398	16040	14338	0	764
-60.765	-10.566	15979	14223	0	764
-49.261	-4.039	15912	14141	0	764
-36.098	2.452	15861	14113	0	764
-22.647	8.547	15787	14090	0	764
-8.619	16.625	15719	14056	0	764
6.527	26.145	15668	14071	0	764
25.352	36.206	15607	14158	0	764
39.235	47.169	15567	14271	0	764
56.365	57.735	15516	14386	0	764
74.071	69.708	15466	14507	0	764
91.525	79.048	15415	14600	0	764
109.592	86.441	15347	14640	0	764
131.626	95.636	15287	14637	0	764
156.978	109.809	15212	14623	0	764
186.513	126.614	15134	14626	0	764
211.107	145.150	15077	14665	0	764
229.210	155.463	15016	14761	0	764
239.776	160.584	14959	14919	0	764
244.645	159.178	14925	15088	0	764
248.792	159.214	14874	15218	0	764
251.388	160.079	14814	15311	0	764
247.818	157.411	14746	15316	0	764
237.468	150.234	14662	15237	0	764
219.473	138.442	14587	15175	0	764
204.075	127.551	14509	15178	0	764
187.018	120.880	14452	15226	0	764
172.268	116.661	14408	15330	0	764
163.649	115.507	14357	15497	0	764
158.096	114.569	14317	15680	0	764
152.074	111.432	14273	15835	0	764
149.333	106.311	14239	15962	0	764
141.075	97.872	14205	16066	0	764
129.354	87.811	14165	16151	0	764
113.487	76.920	14121	16227	0	764
100.108	71.042	14097	16303	0	764
86.657	65.777	14053	16384	0	764
76.271	62.099	14020	16437	0	764
68.915	57.158	13969	16420	0	764
63.397	50.920	13928	16368	0	764
55.860	44.501	13884	16384	0	764
47.133	39.957	13861	16474	0	764
40.642	36.603	13817	16550	0	764
32.780	31.013	13793	16570	0	764
26.470	24.630	13749	16536	0	764
20.411	18.752	13709	16491	0	764
16.048	17.129	13675	16485	0	764
13.163	23.801	13648	16541	0	764
15.939	34.547	13631	16623	0	764
19.978	41.868	13597	16640	0	764
18.320	36.026	13540	16516	0	764
10.963	21.637	13472	16308	0	764
-1.515	3.931	13422	16170	0	764
-11.323	-3.426	13378	16148	0	764
-12.838	2.488	13344	16156	0	764
-9.160	11.612	13303	16182	0	764
-4.003	17.887	13276	16235	0	764
-6.131	10.999	13243	16303	0	764
-12.405	0.829	13259	16420	0	764
-22.827	-7.537	13287	16702	0	764
-26.614	-10.638	13344	17133	0	764
-24.522	-4.832	13405	17559	0	764
-22.827	-1.515	13472	17900	0	764
-20.050	-2.380	13540	18182	0	764
-20.087	-4.544	13624	18464	0	764
-15.471	-4.147	13709	18771	0	764
-8.006	-1.082	13800	19070	0	764
2.524	7.429	13912	19315	0	764
11.396	12.405	14003	19523	0	764
16.012	13.631	14138	19763	0	764
22.358	17.923	14283	20073	0	764
34.439	26.361	14452	20442	0	764
49.441	39.704	14638	20840	0	764
61.846	52.723	14830	21231	0	764
68.482	60.620	15050	21584	0	764
73.639	59.502	15253	21874	0	764
77.389	58.709	15472	22116	0	764
87.270	64.082	15692	22319	0	764
101.370	74.180	15912	22460	0	764
114.208	85.142	16141	22542	0	764
124.053	93.184	16351	22559	0	764
135.665	94.591	16552	22471	0	764
148.251	93.869	16762	22316	0	764
163.469	92.643	16981	22218	0	764
174.396	99.820	17201	22156	0	764
185.683	106.455	17404	22009	1	744
189.939	108.511	17606	21756	0	744
190.696	100.505	17792	21423	0	744
195.564	85.755	17954	21045	0	744
198.882	69.492	18113	20659	0	744
204.291	61.558	18282	20273	0	744
209.845	62.748	18427	19876	0	744
217.815	64.551	18569	19450	0	744
226.578	62.243	18681	18991	0	744
233.718	55.355	18806	18526	0	744
242.445	46.917	18907	18100	0	744
249.261	44.501	19019	17700	0	744
258.673	45.402	19110	17274	0	744
271.367	47.241	19177	16809	0	744
290.155	49.730	19245	16348	0	744
307.753	50.307	19296	15908	0	744
320.375	46.556	19340	15491	0	744
324.198	43.455	19356	15060	0	744
323.440	32.564	19363	14592	0	744
320.519	22.935	19346	14102	0	744
321.673	16.589	19323	13620	0	744
326.614	24.775	19279	13171	0	744
328.958	40.534	19245	12802	0	744
331.590	53.552	19211	12534	0	744
332.816	54.273	19171	12354	0	744
328.850	33.321	19137	12193	0	744
323.368	5.481	19069	12007	0	744
310.855	-14.064	19009	11855	0	744
293.148	-15.290	18968	11804	0	744
283.952	-0.974	18924	11861	0	744
282.041	12.189	18873	11965	0	744
284.313	8.943	18833	12061	0	744
278.399	-6.527	18772	12143	0	744
256.185	-32.816	18738	12255	0	744
220.591	-53.877	18671	12399	0	744
184.674	-62.387	18613	12506	0	744
159.719	-62.676	18536	12540	0	744
142.301	-58.637	18451	12577	0	744
122.034	-62.964	18377	12661	0	744
87.054	-72.160	18299	12743	0	744
39.885	-95.420	18208	12805	0	744
-10.494	-117.490	18140	12892	0	744
-53.624	-140.642	18046	13011	0	744
-96.069	-156.798	17938	13087	0	744
-143.743	-168.193	17836	13084	0	744
-204.436	-179.481	17718	13076	0	744
-270.032	-191.922	17634	13166	0	744
-327.335	-208.294	17556	13372	0	744
-363.902	-227.984	17488	13662	0	744
-377.317	-244.140	17438	13989	0	744
-379.300	-254.201	17387	14327	0	744
-377.461	-258.853	17353	14671	0	744
-379.769	-256.726	17329	15034	0	744
-389.686	-256.329	17313	15429	0	744
-400.721	-262.495	17313	15838	0	744
-404.796	-267.436	17313	16218	0	744
-389.037	-270.213	17313	16564	0	744
-360.584	-264.443	17329	16899	0	744
-330.256	-254.886	17346	17232	0	744
-315.579	-249.621	17370	17545	0	744
-323.837	-253.624	17404	17835	0	744
-338.154	-262.099	17448	18111	0	744
-337.541	-264.876	17471	18325	0	744
-317.995	-256.653	17488	18413	0	744
-286.946	-242.012	17505	18404	0	744
-267.147	-231.518	17515	18376	0	744
-266.282	-229.499	17515	18320	0	744
-275.189	-234.800	17488	18137	0	744
-279.517	-242.337	17438	17824	0	744
-273.026	-245.655	17404	17517	0	744
-263.036	-240.534	17370	17297	0	744
-256.113	-229.679	17319	17074	0	744
-261.666	-212.838	17269	16806	0	744
-265.669	-198.702	17228	16589	0	744
-261.450	-188.496	17194	16457	0	744
-242.625	-188.280	17167	16395	0	744
-216.300	-188.604	17161	16423	0	744
-198.521	-185.142	17177	16564	0	744
-199.315	-179.373	17194	16753	0	744
-222.719	-168.951	17228	16913	0	744
-250.595	-158.997	17252	17040	0	744
-273.278	-152.578	17279	17161	0	744
-277.245	-145.871	17313	17288	0	744
-269.455	-138.622	17346	17404	0	744
-265.200	-133.429	17370	17486	0	744
-268.951	-130.545	17404	17542	0	744
-281.500	-131.085	17438	17567	0	744
-290.155	-128.273	17438	17502	0	744
-289.867	-124.270	17438	17362	0	744
-277.209	-113.704	17448	17229	0	744
-258.673	-101.767	17454	17153	0	744
-243.815	-92.283	17471	17108	0	744
-236.855	-90.552	17481	17060	0	744
-243.887	-95.925	17481	16984	0	744
-262.027	-105.878	17481	16874	0	744
-289.326	-113.054	17481	16764	0	744
-314.172	-117.238	17481	16677	0	744
-329.895	-115.326	17481	16592	0	744
-330.653	-115.182	17471	16485	0	744
-322.863	-118.175	17465	16365	0	744
-313.343	-125.965	17438	16238	0	744
-315.290	-128.958	17414	16086	0	744
-15.975	-9.340	13557	15181	0	708
-21.421	-15.543	13489	15133	0	708
-28.814	-19.077	13412	15051	0	708
-31.987	-17.779	13344	14987	0	708
-32.925	-15.146	13293	14984	0	708
-28.814	-14.028	13226	15023	0	708
-25.171	-16.805	13168	15074	0	708
-22.034	-16.552	13124	15116	0	708
-20.555	-16.733	13057	15153	0	708
-18.897	-11.215	12999	15156	0	708
-18.067	-4.327	12932	15156	0	708
-14.317	1.767	12888	15215	0	708
-11.937	2.128	12837	15311	0	708
-10.602	1.947	12787	15409	0	708
-9.304	-1.406	12753	15530	0	708
-9.232	-1.479	12719	15674	0	708
-11.143	-0.072	12678	15807	0	708
-11.107	0.072	12645	15903	0	708
-10.855	0.144	12611	15976	0	708
-11.937	-2.921	12567	16024	0	708
-12.982	-3.967	12509	15998	0	708
-14.028	-4.832	12442	15914	0	708
-16.336	-3.173	12381	15846	0	708
-16.733	-1.659	12324	15826	0	708
-19.005	-3.642	12273	15829	0	708
-21.457	-7.429	12205	15804	0	708
-28.597	-13.848	12128	15725	0	708
-33.826	-20.195	12077	15660	0	708
-36.855	-21.745	12020	15674	0	708
-37.252	-24.198	11976	15739	0	708
-33.177	-25.929	11925	15810	0	708
-28.958	-26.073	11874	15866	0	708
-24.991	-24.089	11841	15925	0	708
-20.988	-21.277	11807	16015	0	708
-19.798	-13.740	11790	16159	0	708
-17.670	-10.638	11766	16334	0	708
-16.589	-6.996	11749	16477	0	708
-11.323	-5.337	11739	16584	0	708
-8.222	-2.092	11716	16677	0	708
-3.931	3.570	11705	16767	0	708
-2.056	7.212	11689	16837	0	708
-2.092	8.294	11672	16854	0	708
-2.488	5.914	11631	16826	0	708
-3.462	2.272	11597	16770	0	708
-4.075	0.793	11547	16648	0	708
-5.373	2.128	11503	16460	0	708
-4.977	5.121	11435	16294	0	708
-6.131	5.409	11395	16221	0	708
-9.196	0.613	11361	16238	0	708
-12.117	-6.419	11334	16269	0	708
-17.923	-11.071	11317	16317	0	708
-20.916	-13.307	11317	16454	0	708
-20.880	-10.097	11344	16710	0	708
-17.815	-8.439	11384	17043	0	708
-17.815	-7.573	11445	17393	0	708
-14.966	-9.665	11503	17725	0	708
-14.930	-10.314	11580	18055	0	708
-15.074	-8.078	11672	18407	0	708
-12.153	-3.823	11773	18799	0	708
-11.107	1.551	11901	19194	0	708
-6.275	5.590	12037	19560	0	708
-3.137	4.868	12162	19893	0	708
-1.551	3.101	12307	20203	0	708
-0.685	-0.361	12459	20490	0	708
-3.642	-2.128	12618	20744	0	708
-9.160	-0.829	12780	20947	0	708
-11.035	2.272	12949	21110	0	708
-10.350	6.311	13107	21243	0	708
-6.275	9.160	13270	21305	0	708
-3.714	8.402	13422	21271	0	708
-0.397	5.517	13574	21192	0	708
-2.164	3.065	13726	21113	0	708
-4.616	0.072	13884	21028	0	708
-5.373	-0.252	14020	20887	1	732
-6.563	0.865	14165	20670	0	732
-7.970	0.144	14300	20422	0	732
-11.035	-2.488	14435	20194	0	732
-16.805	-9.665	14577	20005	0	732
-19.546	-15.615	14712	19836	0	732
-22.575	-17.706	14847	19650	0	732
-17.923	-16.841	14966	19430	0	732
-13.920	-10.458	15101	19165	0	732
-10.097	-6.924	15202	18875	0	732
-10.674	-7.248	15303	18573	0	732
-13.343	-8.727	15405	18238	0	732
-12.189	-8.691	15482	17866	0	732
-8.619	-5.914	15533	17466	0	732
-2.560	-1.947	15574	17004	0	732
2.056	2.164	15601	16499	0	732
3.895	4.364	15618	16015	0	732
2.560	4.364	15624	15564	0	732
2.164	3.823	15634	15170	0	732
2.092	3.895	15624	14829	0	732
1.406	4.183	15624	14516	0	732
3.462	5.986	15607	14234	0	732
1.911	8.691	15607	14017	0	732
1.515	10.494	15601	13865	0	732
0.757	10.674	15584	13735	0	732
-0.974	8.439	15557	13586	0	732
-0.577	6.347	15533	13425	0	732
-0.397	3.931	15499	13315	0	732
-1.551	1.479	15482	13312	0	732
-4.436	-1.695	15472	13408	0	732
-8.547	-3.859	15466	13507	0	732
-12.550	-7.573	15449	13577	0	732
-11.756	-9.052	15432	13653	0	732
-9.989	-7.501	15415	13752	0	732
-10.494	-6.563	15415	13893	0	732
-9.556	-2.705	15422	14121	0	732
-8.258	0.613	15439	14406	0	732
-8.222	3.787	15432	14612	0	732
-6.131	5.373	15405	14662	0	732
-4.003	5.229	15371	14617	0	732
-2.524	2.272	15330	14567	0	732
-3.173	1.370	15287	14547	0	732
-2.236	1.262	15236	14521	0	732
-0.649	4.688	15178	14476	0	732
1.551	7.825	15118	14434	0	732
4.219	11.468	15067	14423	0	732
9.520	13.163	15009	14445	0	732
9.773	14.461	14976	14516	0	732
10.169	18.139	14925	14612	0	732
8.006	17.310	14881	14696	0	732
6.563	17.815	14830	14772	0	732
7.068	13.523	14790	14846	0	732
6.203	10.206	14756	14936	0	732
2.092	6.311	14705	15057	0	732
-4.075	1.731	14678	15192	0	732
-12.946	-2.308	14655	15330	0	732
-16.625	-4.039	14628	15474	0	732
-15.615	-5.337	14587	15593	0	732
-8.366	-4.183	14560	15686	0	732
-2.128	-1.226	14537	15798	0	732
-1.875	-1.947	14520	15928	0	732
-7.825	-1.046	14486	16041	0	732
-13.992	-0.613	14452	16111	0	732
-17.202	1.587	14442	16145	0	732
-11.215	3.282	14408	16196	0	732
-4.977	5.770	14391	16297	0	732
0.000	5.590	14384	16446	0	732
1.695	7.717	14384	16617	0	732
1.983	9.701	14384	16750	0	732
2.596	13.091	14374	16834	0	732
3.426	17.634	14384	16896	0	732
7.068	19.221	14368	16933	0	732
8.330	21.024	14351	16927	0	732
9.592	19.978	14334	16888	0	732
9.881	16.769	14307	16812	0	732
8.186	15.579	14249	16629	0	732
5.013	13.776	14189	16384	0	732
2.128	8.727	14155	16229	0	732
-2.488	5.301	14131	16221	0	732
-6.203	-0.902	14114	16300	0	732
-13.668	-5.590	14114	16382	0	732
-20.988	-7.285	14080	16384	0	732
-22.755	-3.101	14047	16334	0	732
-19.834	1.947	14030	16306	0	732
-16.769	4.977	14013	16339	0	732
-11.720	4.616	14020	16431	0	732
-8.727	-1.190	14020	16553	0	732
-11.360	-4.940	14030	16648	0	732
-14.425	-6.167	14020	16710	0	732
-13.523	-1.803	14030	16764	0	732
-12.550	5.049	14037	16834	0	732
-5.554	8.150	14047	16911	0	732
0.649	6.455	14053	16956	0	732
5.770	6.239	14053	16987	0	732
5.590	4.255	14070	17023	0	732
4.940	5.301	14080	17074	0	732
5.806	7.789	14097	17105	0	732
12.874	10.025	14087	17071	0	732
19.113	12.117	14080	16989	0	732
25.207	11.576	14087	16913	0	732
26.037	8.330	14080	16863	0	732
25.640	5.914	14087	16840	0	732
26.830	2.092	14104	16885	0	732
28.922	-0.361	14114	16953	0	732
34.079	-0.469	14114	16894	0	732
38.586	-2.560	14080	16677	0	732
40.822	-5.445	14047	16437	0	732
43.563	-8.943	14003	16244	0	732
44.032	-11.828	13962	16080	0	732
43.130	-12.297	13935	15953	0	732
42.842	-14.281	13901	15826	0	732
43.310	-13.018	13851	15677	0	732
44.428	-10.674	13817	15556	0	732
45.150	-8.655	13776	15497	0	732
47.422	-7.285	13743	15463	0	732
52.651	-1.803	13699	15409	0	732
59.611	1.983	13658	15328	0	732
70.646	5.950	13607	15240	0	732
78.759	9.376	13557	15181	0	732
83.015	9.701	13523	15175	0	732
85.215	8.222	13489	15235	0	732
86.044	5.013	13455	15311	0	732
87.378	5.085	13405	15308	0	732
89.794	6.275	13344	15195	0	732
90.876	6.094	13276	15071	0	732
85.359	7.357	13219	14992	0	732
79.913	4.724	13141	14941	0	732
70.105	-0.036	13091	14919	0	732
62.892	-5.121	13033	14947	0	732
57.843	-7.789	12989	15006	0	732
54.057	-7.285	12922	15063	0	732
47.999	-8.366	12881	15122	0	732
39.993	-9.520	12837	15218	0	732
30.436	-11.576	12803	15353	0	732
25.063	-15.795	12770	15471	0	732
22.719	-16.444	12729	15539	0	732
24.450	-15.507	12678	15584	0	732
29.066	-14.064	12645	15655	0	732
30.869	-10.746	12618	15773	0	732
28.777	-9.845	12584	15914	0	732
27.696	-8.186	12550	16029	0	732
27.010	-4.904	12526	16120	0	732
33.249	-2.236	12516	16221	0	732
41.435	3.246	12499	16345	0	732
50.054	9.232	12482	16477	0	732
57.375	11.396	12466	16578	0	732
59.142	13.235	12449	16634	0	732
58.853	10.783	12425	16643	0	732
58.745	8.475	12374	16567	0	732
55.103	8.150	12324	16417	0	732
51.208	10.638	12280	16283	0	732
45.871	13.740	12229	16204	0	732
40.786	15.038	12178	16182	0	732
35.737	16.012	12155	16173	0	732
33.321	12.189	12087	16091	0	732
30.833	8.475	12009	15877	0	732
28.669	5.265	11918	15601	0	732
24.702	1.983	11851	15418	0	732
20.411	-1.659	11783	15350	0	732
13.199	-5.193	11716	15330	0	732
11.251	-6.635	11672	15367	0	732
10.350	-7.212	11638	15494	0	732
11.612	-6.239	11621	15694	0	732
16.156	-4.796	11621	15942	0	732
20.159	-2.488	11614	16162	0	732
24.883	0.325	11597	16291	0	732
25.099	1.587	11570	16353	0	732
26.830	4.652	11580	16485	0	732
28.561	7.717	11597	16744	0	732
30.076	8.439	11621	17060	0	732
32.853	9.232	11672	17390	0	732
36.819	9.881	11732	17719	0	732
37.829	7.357	11800	18007	0	732
38.911	6.852	11868	18266	0	732
37.288	8.511	11952	18593	0	732
33.754	11.684	12087	19033	0	732
28.092	11.612	12212	19501	0	732
19.726	11.612	12357	19901	0	732
17.670	7.789	12493	20214	0	732
15.543	2.741	12634	20484	0	732
18.824	-0.505	12803	20758	0	732
18.500	-2.849	12972	21034	0	732
17.382	-4.508	13134	21254	0	732
15.687	-7.789	13303	21389	0	732
12.369	-8.547	13472	21474	0	732
9.556	-10.169	13658	21555	0	732
9.124	-11.684	13844	21654	0	732
9.088	-8.619	14030	21741	0	732
9.196	-7.645	14222	21770	0	732
11.143	-4.868	14401	21716	0	732
13.199	-2.488	14577	21586	0	732
11.900	-2.488	14739	21386	0	732
8.547	-3.137	14898	21138	0	732
6.491	-3.101	15043	20871	1	772
6.744	-2.741	15195	20603	0	772
8.006	-1.839	15330	20307	0	772
10.819	0.865	15449	19935	0	772
16.913	3.210	15557	19484	0	772
17.851	4.255	15641	18979	0	772
19.510	3.678	15692	18371	0	772
16.084	2.993	15719	17697	0	772
12.117	-0.505	15753	17082	0	772
4.616	-3.967	15793	16578	0	772
0.397	-6.419	15820	16167	0	772
-0.325	-5.085	15871	15846	0	772
3.462	-3.570	15912	15624	0	772
7.862	-1.479	15979	15471	0	772
10.242	-1.334	16023	15344	0	772
8.439	-4.616	16074	15218	0	772
1.983	-10.674	16114	15088	0	772
-6.635	-15.290	16158	14972	0	772
-11.107	-16.985	16182	14879	0	772
-13.091	-18.788	16216	14781	0	772
-10.999	-16.625	16232	14668	0	772
-8.583	-15.362	16266	14561	0	772
-6.058	-10.025	16266	14462	0	772
-3.823	-8.042	16276	14395	0	772
-1.731	-5.770	16300	14403	0	772
0.613	-6.022	16317	14465	0	772
3.137	-6.635	16334	14479	0	772
4.436	-6.635	16327	14397	0	772
5.662	-4.364	16300	14257	0	772
5.698	-0.361	16266	14113	0	772
8.763	2.993	16232	13986	0	772
10.602	3.173	16192	13817	0	772
12.405	2.885	16097	13580	0	772
13.235	2.777	16023	13324	0	772
11.071	0.902	15939	13126	0	772
5.590	0.974	15861	13042	0	772
0.288	0.397	15810	13084	0	772
-2.813	-0.613	15770	13194	0	772
-3.246	-3.137	15702	13293	0	772
-0.252	-4.436	15651	13374	0	772
4.075	-4.652	15601	13476	0	772
5.085	-5.770	15540	13620	0	772
2.236	-6.527	15499	13780	0	772
-0.433	-7.645	15449	13927	0	772
-2.560	-9.088	15398	14068	0	772
-1.839	-10.386	15347	14223	0	772
0.685	-10.314	15297	14375	0	772
3.210	-8.439	15246	14519	0	772
2.488	-5.626	15212	14671	0	772
4.652	-1.118	15185	14863	0	772
5.986	3.787	15151	15099	0	772
7.393	7.573	15128	15342	0	772
8.583	9.124	15111	15536	0	772
8.691	9.448	15084	15697	0	772
7.753	9.340	15050	15855	0	772
7.573	8.078	15050	16029	0	772
4.400	5.301	15033	16213	0	772
-0.144	2.344	15026	16373	0	772
-6.708	-0.649	14999	16471	0	772
-10.638	-0.721	14949	16454	0	772
-8.294	1.226	14915	16373	0	772
-3.678	4.327	14881	16356	0	772
2.705	5.049	14857	16400	0	772
5.554	3.029	14830	16454	0	772
4.111	0.505	14807	16510	0	772
1.190	-3.065	14797	16589	0	772
-2.777	-5.229	14797	16688	0	772
-2.777	-5.662	14780	16792	0	772
-4.075	-6.167	14790	16899	0	772
-0.108	-2.993	14790	16989	0	772
0.829	0.252	14773	17023	0	772
2.993	3.931	14763	17004	0	772
2.380	5.698	14763	16989	0	772
3.823	5.193	14746	17012	0	772
1.298	2.993	14746	17051	0	772
0.325	1.334	14746	17068	0	772
0.144	1.803	14729	17018	0	772
1.659	2.885	14712	16927	0	772
3.642	5.554	14695	16860	0	772
4.652	6.816	14705	16849	0	772
5.445	7.898	14705	16896	0	772
6.599	7.032	14695	16944	0	772
6.816	6.275	14712	16970	0	772
8.979	4.003	14729	17006	0	772
8.078	3.498	14739	17071	0	772
1.875	0.144	14756	17139	0	772
-4.400	-1.406	14780	17195	0	772
-10.025	-4.868	14797	17246	0	772
-12.694	-8.727	14807	17240	0	772
-14.605	-11.251	14797	17116	0	772
-14.569	-10.602	14773	16896	0	772
-17.166	-10.891	14739	16674	0	772
-17.274	-9.304	14712	16485	0	772
-18.428	-9.016	14662	16260	0	772
-14.425	-7.212	14594	15953	0	772
-11.756	-5.590	14526	15643	0	772
-7.717	-3.895	14469	15423	0	772
-4.544	-2.885	14425	15322	0	772
-4.327	-4.003	14391	15305	0	772
-5.554	-5.770	14357	15336	0	772
-3.823	-3.173	14324	15364	0	772
-2.164	-0.108	14300	15390	0	772
1.515	4.003	14283	15435	0	772
7.321	7.898	14266	15522	0	772
10.638	8.006	14249	15640	0	772
10.530	7.248	14232	15731	0	772
7.465	5.265	14216	15781	0	772
2.741	1.875	14205	15838	0	772
-2.128	-1.587	14182	15908	0	772
-6.888	-5.157	14165	15976	0	772
-7.321	-8.619	14148	16015	0	772
-9.809	-12.982	14131	16035	0	772
-11.468	-16.372	14097	16049	0	772
-16.589	-19.257	14080	16049	0	772
-20.267	-19.005	14053	16052	0	772
-27.407	-19.041	14047	16122	0	772
-30.797	-17.129	14053	16272	0	772
-31.879	-17.959	14047	16400	0	772
-28.669	-16.408	14037	16429	0	772
-23.981	-17.923	14003	16368	0	772
-17.310	-15.074	13979	16260	0	772
-11.756	-12.009	13928	16167	0	772
-5.698	-9.196	13901	16089	0	772
-1.695	-3.534	13851	15996	0	772
1.046	1.370	13800	15863	0	772
2.236	6.275	13749	15725	0	772
1.262	8.835	13709	15635	0	772
3.282	9.376	13658	15607	0	772
3.931	9.592	13624	15626	0	772
5.481	7.176	13580	15640	0	772
6.131	5.121	13540	15643	0	772
5.049	3.895	13506	15638	0	772
2.633	3.282	13455	15604	0	772
-1.479	1.154	13422	15581	0	772
-7.537	-0.252	13405	15677	0	772
-12.477	-3.570	13395	15894	0	772
-16.264	-6.563	13378	16052	0	772
-17.851	-9.304	13337	16049	0	772
-15.182	-10.133	13293	15948	0	772
-14.028	-13.018	13253	15846	0	772
-12.910	-16.300	13192	15770	0	772
-12.694	-17.274	13134	15702	0	772
-11.540	-19.113	13084	15626	0	772
-9.845	-16.480	13016	15553	0	772
-11.612	-16.048	12966	15499	0	772
-11.612	-13.920	12905	15494	0	772
-11.360	-12.333	12871	15545	0	772
-11.648	-9.052	12847	15626	0	772
-7.934	-4.255	12787	15677	0	772
-2.741	-1.587	12736	15655	0	772
1.587	0.072	12678	15578	0	772
1.839	2.128	12611	15491	0	772
2.885	4.724	12550	15423	0	772
1.767	8.114	12493	15395	0	772
0.938	11.323	12432	15406	0	772
0.649	12.045	12374	15421	0	772
2.272	12.730	12307	15390	0	772
5.373	11.143	12239	15353	0	772
5.193	12.586	12195	15437	0	772
6.058	12.802	12178	15618	0	772
2.416	9.881	12128	15739	0	772
-4.977	4.039	12094	15779	0	772
-12.189	1.190	12037	15804	0	772
-17.959	-1.875	12009	15866	0	772
-18.067	-1.046	11976	15998	0	772
-17.093	3.173	11969	16187	0	772
-12.982	4.688	11959	16384	0	772
-12.514	3.750	11952	16550	0	772
-15.326	0.757	11959	16727	0	772
-16.625	-2.488	11976	16984	0	772
-18.716	-4.400	12037	17331	0	772
-15.975	-4.219	12094	17736	0	772
-13.523	-1.947	12178	18145	0	772
-8.511	-0.036	12263	18531	0	772
-5.301	0.433	12374	18917	0	772
-4.868	0.108	12482	19306	0	772
-5.049	-0.288	12611	19687	0	772
-7.248	-0.144	12753	20073	0	772
-8.222	1.154	12905	20465	0	772
-7.789	2.056	13057	20797	0	772
-7.104	4.075	13209	21009	0	772
-4.364	6.311	13361	21116	0	772
-2.885	9.773	13506	21195	0	772
-0.974	12.189	13641	21245	0	772
2.885	15.687	13776	21172	0	772
4.544	15.975	13901	20995	0	772
2.957	12.622	14020	20828	0	772
-1.947	7.717	14155	20721	0	772
-9.629	-0.685	14300	20648	1	752
-16.084	-6.239	14452	20600	0	752
-22.647	-9.376	14604	20546	0	752
-23.080	-10.458	14746	20448	0	752
-22.467	-11.071	14898	20307	0	752
-19.329	-11.215	15033	20169	0	752
-17.743	-11.864	15195	20056	0	752
-16.841	-10.891	15337	19943	0	752
-15.939	-8.439	15489	19785	0	752
-13.812	-6.131	15618	19588	0	752
-13.559	-3.931	15753	19368	0	752
-9.953	-3.570	15871	19126	0	752
-9.052	-3.101	15989	18850	0	752
-9.701	-2.344	16080	18537	0	752
-8.439	0.144	16175	18193	0	752
-6.996	3.426	16249	17798	0	752
-4.940	6.635	16293	17331	0	752
-5.914	7.465	16327	16823	0	752
-7.248	7.248	16351	16351	0	752
-7.501	6.563	16378	15948	0	752
-6.780	6.599	16407	15621	0	752
-3.823	8.114	16424	15333	0	752
-1.226	10.097	16434	15026	0	752
-2.092	9.052	16434	14685	0	752
-10.566	4.796	16417	14352	0	752
-18.752	0.829	16407	14102	0	752
-24.811	-4.183	16400	13947	0	752
-26.289	-6.527	16390	13834	0	752
-27.010	-6.022	16384	13729	0	752
-26.650	-6.239	16378	13656	0	752
-26.037	-9.340	16368	13636	0	752
-27.515	-14.064	16368	13656	0	752
-28.056	-15.939	16361	13676	0	752
-26.794	-17.743	16327	13628	0	752
-30.220	-14.497	16266	13501	0	752
-31.158	-12.153	16209	13341	0	752
-29.968	-8.511	16141	13208	0	752
-24.558	-6.275	16080	13132	0	752
-17.526	-5.878	16023	13109	0	752
-10.386	-4.364	15945	13081	0	752
-6.419	-3.678	15878	13014	0	752
-6.419	-0.974	15793	12988	0	752
-8.114	2.380	15743	13073	0	752
-8.150	5.481	15702	13256	0	752
-6.239	9.160	15651	13476	0	752
-2.416	10.819	15607	13690	0	752
1.334	11.143	15567	13870	0	752
-0.108	11.071	15523	14042	0	752
-3.606	9.016	15489	14248	0	752
-8.619	4.147	15472	14516	0	752
-11.215	1.623	15455	14815	0	752
-10.710	-0.938	15439	15082	0	752
-11.792	-2.128	15422	15319	0	752
-10.097	-3.246	15415	15556	0	752
-9.376	-3.354	15415	15815	0	752
-9.701	-4.616	15422	16105	0	752
-8.150	-4.544	15439	16403	0	752
-4.977	-3.642	15455	16677	0	752
-2.272	-3.714	15455	16868	0	752
0.361	-2.380	15466	16998	0	752
1.623	-1.334	15472	17108	0	752
0.902	-1.298	15482	17198	0	752
-1.046	-0.036	15489	17274	0	752
-0.685	0.902	15499	17353	0	752
1.551	2.885	15506	17398	0	752
4.327	3.210	15506	17395	0	752
4.832	3.931	15516	17401	0	752
4.940	3.714	15523	17421	0	752
1.587	3.137	15533	17415	0	752
0.541	2.236	15533	17370	0	752
-4.003	2.741	15533	17285	0	752
-6.131	1.442	15516	17190	0	752
-8.871	1.046	15516	17116	0	752
-9.484	-0.036	15523	17099	0	752
-11.504	-1.659	15540	17128	0	752
-14.821	-3.787	15540	17125	0	752
-17.202	-6.563	15533	17032	0	752
-21.890	-7.176	15516	16863	0	752
-22.395	-6.311	15506	16725	0	752
-23.008	-4.904	15499	16663	0	752
-24.486	-4.400	15499	16617	0	752
-25.929	-4.327	15482	16561	0	752
-27.948	-4.760	15466	16491	0	752
-25.171	-4.904	15439	16368	0	752
-21.854	-2.633	15415	16221	0	752
-15.903	-0.541	15415	16170	0	752
-14.172	0.793	15415	16235	0	752
-13.307	1.370	15422	16322	0	752
-12.586	1.479	15422	16376	0	752
-14.281	1.010	15422	16379	0	752
-11.864	-0.072	15422	16362	0	752
-10.638	-1.659	15415	16351	0	752
-12.297	-2.813	15415	16328	0	752
-14.966	-6.599	15398	16289	0	752
-19.618	-8.763	15381	16232	0	752
-20.880	-10.999	15371	16176	0	752
-22.719	-9.592	15364	16145	0	752
-18.897	-10.061	15354	16159	0	752
-17.490	-9.016	15354	16193	0	752
-15.218	-8.547	15337	16193	0	752
-16.192	-11.251	15330	16167	0	752
-17.743	-14.569	15320	16142	0	752
-21.854	-14.605	15303	16120	0	752
-23.729	-16.300	15287	16091	0	752
-24.955	-15.362	15263	16035	0	752
-23.765	-11.215	15236	15959	0	752
-19.906	-9.953	15202	15866	0	752
-18.680	-6.924	15151	15717	0	752
-15.507	-4.796	15094	15522	0	752
-14.461	-4.039	15043	15370	0	752
-11.792	-1.623	14999	15302	0	752
-11.468	1.767	14949	15285	0	752
-10.314	4.940	14908	15263	0	752
-9.629	7.537	14857	15195	0	752
-9.556	8.330	14797	15125	0	752
-10.927	8.547	14763	15116	0	752
-10.819	6.960	14722	15184	0	752
-12.874	6.744	14689	15285	0	752
-15.038	7.862	14662	15370	0	752
-16.444	7.970	14638	15443	0	752
-24.558	7.285	14611	15530	0	752
-32.239	5.337	14577	15621	0	752
-40.389	2.885	14553	15705	0	752
-46.123	1.190	14526	15784	0	752
-47.349	-0.108	14503	15849	0	752
-44.284	-1.803	14459	15869	0	752
-41.507	-3.714	14408	15798	0	752
-37.793	-5.517	14341	15674	0	752
-32.853	-6.275	14283	15576	0	752
-32.420	-4.111	14216	15502	0	752
-32.816	-2.560	14155	15435	0	752
-35.990	-2.957	14104	15375	0	752
-39.704	-4.904	14030	15313	0	752
-36.675	-7.609	13979	15285	0	752
-30.436	-7.393	13918	15322	0	752
-17.959	-6.599	13884	15412	0	752
-7.465	-3.750	13851	15514	0	752
-1.190	-2.236	13800	15601	0	752
-0.469	-2.236	13766	15683	0	752
-1.947	-2.344	13743	15776	0	752
-1.695	0.505	13716	15908	0	752
1.154	3.426	13692	16069	0	752
3.967	6.383	13675	16210	0	752
6.094	7.465	13665	16328	0	752
5.193	4.544	13648	16451	0	752
4.616	-0.108	13624	16541	0	752
4.147	-4.075	13614	16598	0	752
7.465	-8.727	13614	16710	0	752
15.543	-12.766	13624	16896	0	752
22.863	-15.326	13624	17032	0	752
32.961	-19.437	13607	17029	0	752
42.697	-20.664	13580	16939	0	752
51.316	-21.709	13557	16868	0	752
62.027	-18.933	13540	16837	0	752
74.540	-18.283	13513	16806	0	752
85.719	-13.343	13489	16733	0	752
89.975	-11.792	13455	16640	0	752
90.335	-9.304	13422	16555	0	752
83.484	-7.429	13378	16434	0	752
79.156	-6.311	13320	16252	0	752
75.875	-4.652	13287	16089	0	752
76.884	-2.452	13226	15993	0	752
79.264	-0.721	13192	15959	0	752
80.527	0.685	13175	15993	0	752
82.798	3.390	13158	16089	0	752
83.844	5.373	13158	16215	0	752
84.241	7.357	13151	16320	0	752
88.424	9.917	13134	16392	0	752
85.179	10.530	13141	16465	0	752
82.438	9.809	13141	16558	0	752
74.180	7.465	13141	16665	0	752
64.299	5.013	13168	16801	0	752
58.060	1.695	13185	16978	0	752
54.922	-0.505	13219	17170	0	752
52.470	-5.013	13259	17328	0	752
50.018	-7.357	13303	17483	0	752
43.022	-12.117	13371	17734	0	752
32.925	-14.425	13455	18100	0	752
26.974	-15.038	13564	18495	0	752
24.991	-15.435	13675	18850	0	752
25.027	-10.169	13793	19146	0	752
28.453	-7.032	13918	19433	0	752
30.581	-3.787	14064	19757	0	752
31.158	-1.839	14239	20143	0	752
29.571	-2.164	14418	20541	0	752
32.095	-2.669	14587	20851	0	752
33.177	-1.515	14739	20972	0	752
36.278	2.741	14891	20958	0	752
35.629	5.806	15043	20972	0	752
35.557	8.763	15212	21054	0	752
34.043	11.648	15381	21124	0	752
31.013	12.514	15557	21147	0	752
31.085	10.494	15726	21121	0	752
31.266	11.900	15895	21028	0	752
30.220	11.287	16064	20921	0	752
26.253	9.268	16249	20910	1	780
19.329	6.924	16458	20992	0	780
10.422	4.508	16654	21037	0	780
3.354	2.056	16829	20944	0	780
-0.505	1.623	17015	20738	0	780
1.406	2.416	17167	20487	0	780
3.173	2.849	17329	20231	0	780
6.852	2.308	17471	19946	0	780
5.662	-1.010	17590	19594	0	780
3.137	-2.524	17708	19165	0	780
-0.829	-6.058	17809	18726	0	780
-3.065	-8.979	17921	18337	0	780
-4.400	-10.458	18022	18007	0	780
-1.947	-9.484	18130	17708	0	780
1.046	-4.616	18215	17395	0	780
3.318	-2.416	18299	17063	0	780
4.183	0.288	18377	16736	0	780
4.544	-0.108	18444	16423	0	780
4.940	-1.082	18512	16134	0	780
3.714	-1.010	18579	15886	0	780
0.577	1.587	18630	15680	0	780
-3.390	2.633	18671	15435	0	780
-7.104	2.921	18698	15082	0	780
-9.412	0.252	18681	14671	0	780
-7.898	-1.983	18681	14290	0	780
-3.390	-2.128	18654	13980	0	780
-0.469	-1.623	18647	13738	0	780
1.406	0.433	18630	13518	0	780
0.469	2.092	18596	13307	0	780
-0.902	3.642	18569	13152	0	780
-0.361	2.488	18552	13076	0	780
-1.442	0.469	18529	13039	0	780
-1.659	-2.560	18495	13008	0	780
-2.741	-4.183	18461	12977	0	780
-4.688	-6.094	18427	12954	0	780
-5.986	-4.039	18384	12960	0	780
-6.563	-1.695	18350	12997	0	780
-5.554	-1.154	18309	13064	0	780
-5.265	-1.695	18275	13149	0	780
-6.960	-4.940	18231	13256	0	780
-7.032	-7.537	18191	13372	0	780
-7.753	-7.393	18140	13462	0	780
-5.013	-5.698	18096	13527	0	780
-1.731	-2.813	18039	13586	0	780
2.380	-0.865	17978	13659	0	780
5.229	-2.813	17938	13760	0	780
4.327	-5.157	17877	13876	0	780
2.236	-7.789	17843	14014	0	780
0.938	-8.186	17802	14211	0	780
-2.416	-7.393	17786	14471	0	780
-6.419	-5.157	17752	14730	0	780
-8.042	-2.741	17725	14930	0	780
-7.357	-0.361	17684	15063	0	780
-6.347	0.902	17657	15181	0	780
-3.714	1.262	17634	15339	0	780
-2.380	0.397	17623	15559	0	780
-3.246	-1.767	17606	15795	0	780
-5.193	-4.147	17606	16004	0	780
-6.491	-5.590	17590	16176	0	780
-8.078	-7.898	17590	16356	0	780
-9.196	-6.888	17600	16541	0	780
-9.088	-6.311	17606	16719	0	780
-7.321	-7.032	17606	16854	0	780
-6.455	-5.337	17600	16953	0	780
-2.777	-6.816	17606	17018	0	780
-0.469	-8.006	17600	17046	0	780
1.875	-7.970	17590	17043	0	780
2.308	-7.176	17573	17026	0	780
2.669	-6.275	17566	17001	0	780
1.370	-2.921	17556	16970	0	780
-0.902	1.334	17532	16913	0	780
0.072	4.832	17498	16820	0	780
0.577	5.878	17488	16736	0	780
2.777	2.705	17465	16694	0	780
3.462	-0.902	17454	16677	0	780
4.039	-6.671	17448	16663	0	780
4.508	-9.232	17431	16620	0	780
3.967	-7.140	17404	16575	0	780
8.475	-6.383	17397	16567	0	780
9.881	-4.832	17404	16612	0	780
15.615	-5.265	17404	16688	0	780
16.589	-6.311	17404	16730	0	780
18.464	-8.042	17404	16730	0	780
15.975	-7.393	17397	16713	0	780
13.740	-7.212	17387	16691	0	780
9.556	-6.599	17380	16668	0	780
7.068	-6.671	17370	16634	0	780
7.032	-6.167	17363	16589	0	780
7.753	-4.255	17346	16536	0	780
6.852	-3.642	17319	16446	0	780
6.419	-1.911	17296	16322	0	780
6.094	-2.272	17279	16249	0	780
7.176	-1.623	17279	16275	0	780
11.215	1.442	17269	16320	0	780
14.425	3.931	17252	16303	0	780
15.723	6.780	17228	16235	0	780
15.543	7.140	17201	16159	0	780
12.586	6.094	17177	16105	0	780
12.622	4.832	17167	16074	0	780
12.694	3.570	17150	16041	0	780
10.783	3.498	17117	15984	0	780
7.934	2.416	17076	15911	0	780
3.462	1.479	17059	15857	0	780
-0.577	-0.649	17042	15866	0	780
-4.400	-2.921	17015	15911	0	780
-5.445	-4.400	16998	15934	0	780
-3.787	-5.806	16975	15911	0	780
-2.200	-3.859	16941	15869	0	780
1.515	-1.911	16914	15835	0	780
4.436	0.649	16873	15798	0	780
4.904	2.308	16840	15736	0	780
2.885	3.498	16789	15657	0	780
-1.334	3.282	16738	15556	0	780
-5.770	0.541	16661	15390	0	780
-7.825	0.757	16576	15170	0	780
-7.825	-0.361	16509	14987	0	780
-6.491	-2.560	16434	14879	0	780
-4.364	-1.659	16368	14829	0	780
-3.246	-2.056	16300	14806	0	780
-5.734	-2.813	16232	14789	0	780
-8.439	-2.560	16175	14789	0	780
-13.487	-3.895	16124	14854	0	780
-15.543	-5.914	16080	14998	0	780
-19.041	-8.943	16057	15175	0	780
-15.759	-10.566	16013	15322	0	780
-13.307	-12.405	15972	15440	0	780
-14.497	-13.163	15955	15567	0	780
-15.939	-13.812	15912	15708	0	780
-21.962	-14.353	15895	15846	0	780
-23.152	-11.035	15861	15967	0	780
-21.132	-9.701	15844	16066	0	780
-17.418	-7.032	15803	16128	0	780
-12.730	-5.878	15753	16117	0	780
-12.225	-4.904	15719	16080	0	780
-15.507	-6.708	15692	16148	0	780
-18.788	-8.258	15668	16294	0	780
-23.368	-12.766	15641	16376	0	780
-26.037	-15.687	15607	16359	0	780
-27.768	-20.483	15567	16303	0	780
-28.886	-19.473	15523	16258	0	780
-26.686	-20.014	15489	16241	0	780
-25.929	-18.788	15455	16252	0	780
-24.558	-19.329	15415	16260	0	780
-24.955	-20.123	15371	16238	0	780
-26.830	-21.709	15337	16213	0	780
-26.614	-23.188	15303	16238	0	780
-26.470	-22.106	15287	16325	0	780
-24.666	-24.017	15280	16429	0	780
-22.647	-24.666	15253	16493	0	780
-18.031	-24.270	15236	16499	0	780
-14.749	-24.053	15212	16491	0	780
-8.258	-20.483	15178	16488	0	780
-3.498	-15.687	15151	16477	0	780
-1.983	-15.110	15128	16443	0	780
-5.265	-14.425	15084	16406	0	780
-4.400	-11.937	15060	16379	0	780
-3.318	-11.684	15026	16339	0	780
0.829	-7.501	14982	16286	0	780
7.068	-5.517	14959	16235	0	780
12.117	-3.498	14915	16204	0	780
14.605	-3.065	14891	16190	0	780
12.117	-2.524	14830	16134	0	780
9.629	-2.741	14790	16007	0	780
4.472	-4.940	14746	15914	0	780
-0.793	-7.789	14712	15911	0	780
-3.137	-10.242	14672	15950	0	780
-5.301	-10.278	14645	15967	0	780
-5.590	-10.530	14611	15956	0	780
-6.094	-9.520	14577	15953	0	780
-4.977	-6.419	14543	15996	0	780
-2.669	-3.318	14537	16105	0	780
-0.505	-1.515	14537	16258	0	780
0.829	-0.577	14537	16395	0	780
1.370	0.216	14537	16527	0	780
2.380	1.298	14543	16691	0	780
3.895	2.596	14570	16888	0	780
5.085	4.940	14611	17147	0	780
7.068	6.131	14689	17508	0	780
8.258	5.409	14763	17897	0	780
9.737	5.445	14824	18179	0	780
10.783	6.960	14891	18340	0	780
13.704	7.934	14949	18472	0	780
15.002	9.809	15033	18647	0	780
13.992	12.045	15118	18858	0	780
16.048	12.694	15212	19044	0	780
15.651	15.146	15297	19157	0	780
19.077	14.677	15388	19236	0	780
18.428	12.982	15499	19382	0	780
20.087	12.369	15634	19625	0	780
17.598	9.629	15793	19921	0	780
18.283	7.068	15945	20225	0	780
17.021	7.032	16124	20493	0	780
18.572	7.753	16300	20721	0	780
18.500	7.717	16468	20924	0	780
19.329	9.268	16654	21076	0	780
18.392	10.350	16846	21192	0	780
19.834	11.107	17042	21316	0	780
17.562	9.376	17245	21437	0	780
17.562	7.068	17431	21477	0	780
16.156	5.409	17617	21395	0	780
18.067	5.770	17769	21220	0	780
18.969	7.681	17944	21011	0	780
20.664	11.504	18096	20803	0	780
24.955	14.317	18248	20575	1	812
27.587	14.569	18400	20315	0	812
31.410	13.451	18546	20019	0	812
36.531	16.228	18671	19698	0	812
40.750	18.933	18806	19371	0	812
43.960	23.765	18924	19070	0	812
44.032	26.794	19052	18771	0	812
45.871	28.525	19154	18447	0	812
43.815	27.479	19255	18106	0	812
43.383	25.243	19346	17762	0	812
42.878	23.873	19448	17443	0	812
44.212	24.450	19542	17161	0	812
41.616	25.424	19600	16877	0	812
40.714	27.010	19677	16570	0	812
39.596	28.273	19752	16280	0	812
39.163	29.138	19813	16035	0	812
36.026	25.424	19863	15810	0	812
34.547	20.087	19914	15564	0	812
30.869	11.937	19948	15288	0	812
26.866	8.619	19954	14989	0	812
25.460	8.150	19954	14648	0	812
26.253	10.386	19954	14282	0	812
27.227	13.884	19921	13961	0	812
26.686	15.398	19904	13724	0	812
25.207	12.874	19897	13552	0	812
25.568	8.907	19863	13403	0	812
23.476	7.825	19846	13245	0	812
26.109	6.527	19802	13129	0	812
28.633	4.219	19769	13076	0	812
27.840	5.265	19745	13045	0	812
25.207	4.039	19701	13022	0	812
20.952	2.236	19667	13008	0	812
17.779	2.056	19627	13005	0	812
14.713	3.282	19566	13014	0	812
15.939	5.373	19509	12999	0	812
15.218	7.429	19448	12954	0	812
16.336	7.032	19356	12895	0	812
14.858	6.671	19262	12794	0	812
14.064	3.065	19171	12687	0	812
14.136	0.288	19086	12689	0	812
9.809	-1.154	19019	12819	0	812
7.898	-0.288	18958	12997	0	812
5.986	-0.252	18890	13194	0	812
3.246	0.216	18840	13419	0	812
1.659	-2.633	18799	13651	0	812
-2.128	-3.931	18738	13873	0	812
-5.878	-7.934	18698	14118	0	812
-10.206	-9.016	18681	14409	0	812
-13.595	-6.239	18647	14736	0	812
-15.362	-4.652	18630	15060	0	812
-14.966	-1.659	18620	15347	0	812
-14.821	0.325	18603	15635	0	812
-11.287	-0.685	18613	15950	0	812
-11.251	-4.075	18630	16266	0	812
-12.550	-6.311	18620	16555	0	812
-15.435	-8.871	18647	16809	0	812
-22.503	-9.340	18671	17049	0	812
-26.397	-9.520	18688	17297	0	812
-30.220	-11.107	18721	17542	0	812
-32.492	-13.776	18748	17765	0	812
-34.800	-14.641	18799	17962	0	812
-35.088	-17.851	18833	18125	0	812
-37.360	-16.300	18867	18218	0	812
-39.127	-15.975	18890	18241	0	812
-41.471	-15.038	18907	18227	0	812
-40.317	-15.290	18934	18187	0	812
-40.678	-14.966	18941	18117	0	812
-36.603	-13.812	18951	18021	0	812
-34.367	-14.064	18951	17863	0	812
-32.312	-11.937	18924	17621	0	812
-33.718	-12.730	18900	17308	0	812
-34.115	-14.172	18856	17001	0	812
-37.144	-14.533	18823	16770	0	812
-39.885	-17.526	18806	16606	0	812
-39.668	-14.425	18772	16454	0	812
-41.724	-12.405	18755	16322	0	812
-39.993	-9.665	18731	16238	0	812
-36.639	-8.907	18731	16215	0	812
-34.944	-9.773	18721	16196	0	812
-34.151	-11.360	18664	16041	0	812
-36.170	-9.917	18596	15714	0	812
-40.678	-8.871	18512	15359	0	812
-45.222	-9.737	18461	15150	0	812
-50.884	-13.163	18400	15080	0	812
-53.552	-17.454	18360	15063	0	812
-55.572	-21.204	18326	15085	0	812
-51.929	-20.303	18299	15153	0	812
-48.648	-16.697	18275	15260	0	812
-45.150	-14.317	18275	15418	0	812
-44.248	-15.723	18282	15666	0	812
-46.700	-16.264	18309	15976	0	812
-50.379	-21.241	18333	16255	0	812
-48.720	-21.962	18343	16429	0	812
-47.277	-19.546	18350	16513	0	812
-42.589	-17.202	18350	16561	0	812
-38.586	-14.821	18350	16606	0	812
-36.891	-13.379	18333	16606	0	812
-36.675	-15.038	18309	16524	0	812
-37.865	-14.208	18275	16384	0	812
-39.055	-15.038	18242	16252	0	812
-38.262	-12.622	18208	16170	0	812
-38.442	-13.956	18181	16139	0	812
-39.921	-13.668	18164	16125	0	812
-40.642	-14.713	18130	16089	0	812
-43.563	-18.824	18096	16032	0	812
-46.123	-21.890	18063	15979	0	812
-50.847	-26.866	18029	15897	0	812
-53.841	-30.725	17988	15812	0	812
-58.457	-32.239	17961	15829	0	812
-61.414	-32.492	17961	15945	0	812
-63.109	-32.384	17938	16004	0	812
-63.866	-32.167	17887	15953	0	812
-65.633	-32.239	17853	15855	0	812
-64.190	-30.508	17802	15764	0	812
-61.161	-26.614	17769	15705	0	812
-57.266	-21.998	17725	15680	0	812
-53.372	-15.867	17684	15643	0	812
-51.100	-13.091	17634	15573	0	812
-51.857	-12.369	17583	15522	0	812
-52.470	-14.245	17539	15522	0	812
-54.850	-19.618	17505	15556	0	812
-58.312	-21.313	17471	15604	0	812
-61.522	-23.549	17438	15646	0	812
-63.072	-25.388	17404	15666	0	812
-63.902	-24.630	17353	15669	0	812
-60.909	-26.289	17319	15677	0	812
-60.296	-26.902	17269	15691	0	812
-58.348	-26.758	17235	15683	0	812
-57.807	-24.378	17184	15663	0	812
-60.188	-22.539	17134	15635	0	812
-59.538	-23.188	17066	15562	0	812
-60.801	-22.358	17009	15477	0	812
-64.226	-23.909	16981	15497	0	812
-66.210	-26.542	16941	15621	0	812
-68.734	-30.256	16890	15711	0	812
-71.367	-31.266	16846	15688	0	812
-73.530	-33.718	16779	15581	0	812
-75.514	-35.124	16704	15477	0	812
-75.983	-33.321	16644	15418	0	812
-74.757	-30.364	16576	15370	0	812
-69.672	-25.893	16502	15294	0	812
-63.649	-20.231	16424	15204	0	812
-57.303	-13.415	16361	15156	0	812
-54.526	-11.360	16276	15116	0	812
-55.932	-12.045	16165	14978	0	812
-59.719	-13.487	16057	14764	0	812
-64.587	-17.021	15962	14609	0	812
-68.013	-18.031	15871	14589	0	812
-70.573	-23.296	15803	14674	0	812
-69.167	-24.486	15753	14848	0	812
-68.338	-24.883	15702	15085	0	812
-67.364	-26.217	15668	15330	0	812
-66.931	-26.758	15641	15553	0	812
-69.492	-27.479	15607	15767	0	812
-72.629	-32.131	15574	15967	0	812
-76.776	-36.675	15550	16145	0	812
-79.589	-37.288	15523	16289	0	812
-78.759	-39.019	15506	16420	0	812
-78.759	-38.658	15482	16558	0	812
-74.396	-35.557	15455	16674	0	812
-71.511	-31.013	15432	16736	0	812
-68.698	-25.316	15415	16792	0	812
-66.715	-23.476	15388	16880	0	812
-66.607	-19.473	15371	16956	0	812
-68.951	-17.887	15347	16992	0	812
-65.236	-17.923	15320	16987	0	812
-61.846	-14.966	15297	16970	0	812
-57.627	-13.884	15287	16984	0	812
-52.831	-14.064	15280	17060	0	812
-49.838	-13.848	15280	17175	0	812
-50.415	-14.641	15280	17285	0	812
-50.523	-15.759	15297	17384	0	812
-50.920	-17.166	15314	17488	0	812
-56.653	-19.365	15337	17610	0	812
-61.269	-22.250	15364	17745	0	812
-64.226	-23.585	15405	17891	0	812
-67.003	-28.525	15449	18044	0	812
-67.905	-30.508	15506	18199	0	812
-67.797	-32.925	15567	18354	0	812
-68.193	-34.547	15651	18542	0	812
-69.311	-34.836	15753	18824	0	812
-68.013	-32.744	15861	19177	0	812
-67.220	-30.653	15996	19506	0	812
-65.236	-28.164	16124	19777	0	812
-63.866	-25.640	16249	20002	0	812
-61.269	-25.388	16407	20219	0	812
-60.260	-25.171	16552	20459	0	812
-58.168	-20.519	16721	20704	0	812
-54.057	-18.897	16897	20913	0	812
-51.641	-12.297	17066	21065	0	812
-47.602	-10.314	17245	21178	0	812
-46.195	-8.979	17431	21288	0	812
-48.035	-9.412	17634	21417	0	812
-47.999	-10.386	17819	21541	0	812
-49.730	-12.045	18029	21606	0	812
-49.838	-12.261	18208	21575	0	812
-45.691	-11.215	18367	21384	0	812
-43.743	-10.242	18512	21045	0	812
-42.661	-8.907	18647	20690	0	812
-43.779	-9.376	18799	20389	1	796
-49.333	-17.057	18924	20115	0	796
-57.411	-23.549	19069	19842	0	796
-62.423	-30.040	19188	19523	0	796
-64.767	-32.636	19296	19157	0	796
-63.397	-32.095	19414	18805	0	796
-61.738	-29.246	19532	18517	0	796
-61.486	-27.551	19644	18269	0	796
-60.620	-26.614	19752	18013	0	796
-59.034	-25.856	19846	17731	0	796
-54.995	-23.621	19965	17474	0	796
-47.205	-19.293	20056	17280	0	796
-41.075	-16.949	20167	17130	0	796
-37.613	-13.992	20269	16984	0	796
-35.990	-13.559	20353	16795	0	796
-33.502	-12.730	20427	16564	0	796
-30.833	-9.268	20505	16351	0	796
-26.722	-4.075	20579	16162	0	796
-16.877	2.344	20640	15987	0	796
-9.052	9.629	20708	15798	0	796
-0.216	14.930	20742	15587	0	796
5.301	17.670	20782	15342	0	796
8.078	20.952	20782	15032	0	796
9.088	20.087	20792	14688	0	796
9.016	18.752	20775	14386	0	796
8.366	14.497	20765	14158	0	796
9.448	13.451	20759	13972	0	796
10.783	10.458	20725	13772	0	796
12.802	10.133	20698	13541	0	796
12.982	10.314	20664	13363	0	796
13.740	8.619	20640	13279	0	796
10.674	7.573	20606	13242	0	796
8.042	6.744	20590	13219	0	796
7.212	6.383	20546	13205	0	796
6.167	7.934	20505	13208	0	796
5.770	8.258	20471	13236	0	796
5.517	8.222	20427	13259	0	796
6.708	8.943	20387	13273	0	796
5.914	10.819	20343	13338	0	796
5.193	11.287	20309	13476	0	796
2.885	12.081	20286	13642	0	796
2.308	12.838	20259	13817	0	796
2.777	12.117	20235	14006	0	796
6.094	15.398	20208	14183	0	796
8.763	16.913	20184	14350	0	796
9.520	18.680	20150	14507	0	796
9.629	17.706	20117	14637	0	796
7.104	12.550	20083	14736	0	796
3.137	9.376	20056	14882	0	796
0.108	2.164	20056	15125	0	796
-4.039	-1.515	20056	15395	0	796
-9.845	-5.373	20049	15609	0	796
-12.766	-6.780	20039	15753	0	796
-17.490	-9.016	20015	15852	0	796
-19.473	-12.802	19981	15877	0	796
-23.080	-17.021	19948	15838	0	796
-24.594	-20.339	19904	15810	0	796
-26.866	-21.529	19863	15824	0	796
-28.850	-21.204	19846	15866	0	796
-27.371	-18.283	19819	15936	0	796
-23.152	-16.516	19813	16046	0	796
-19.293	-12.802	19796	16187	0	796
-18.103	-10.169	19779	16314	0	796
-16.733	-5.806	19762	16339	0	796
-20.591	-2.669	19701	16218	0	796
-21.637	1.046	19650	16032	0	796
-24.775	2.705	19610	15922	0	796
-27.876	5.157	19559	15905	0	796
-27.660	5.049	19532	15936	0	796
-24.811	4.291	19509	15990	0	796
-21.168	3.318	19475	16018	0	796
-16.084	4.796	19441	16027	0	796
-16.408	4.508	19431	16105	0	796
-17.995	4.472	19431	16258	0	796
-20.880	2.813	19431	16412	0	796
-19.870	-2.019	19424	16530	0	796
-20.772	-7.645	19414	16609	0	796
-23.260	-14.100	19407	16671	0	796
-27.371	-19.077	19414	16764	0	796
-30.653	-18.608	19431	16902	0	796
-31.951	-19.185	19448	17040	0	796
-28.777	-17.454	19441	17082	0	796
-26.794	-18.824	19414	16961	0	796
-23.945	-18.067	19363	16739	0	796
-24.378	-20.267	19340	16581	0	796
-25.424	-16.913	19323	16530	0	796
-25.099	-15.326	19296	16493	0	796
-22.467	-12.694	19279	16443	0	796
-21.818	-11.828	19255	16403	0	796
-18.680	-9.809	19238	16382	0	796
-18.031	-7.501	19204	16320	0	796
-18.247	-4.039	19171	16210	0	796
-18.752	-0.721	19144	16122	0	796
-14.785	2.741	19120	16091	0	796
-12.550	3.426	19086	16055	0	796
-9.376	5.950	19036	15962	0	796
-5.878	8.330	19002	15857	0	796
-3.282	9.412	18968	15790	0	796
-1.947	9.845	18924	15764	0	796
-3.570	8.330	18890	15753	0	796
-9.088	2.128	18867	15745	0	796
-17.706	-4.688	18833	15759	0	796
-26.794	-10.169	18816	15812	0	796
-31.735	-16.228	18799	15908	0	796
-30.364	-18.356	18789	16015	0	796
-28.958	-21.024	18755	16063	0	796
-26.902	-20.519	18731	16018	0	796
-27.696	-21.565	18681	15931	0	796
-30.040	-25.748	18647	15877	0	796
-32.528	-25.965	18620	15863	0	796
-33.033	-29.030	18569	15843	0	796
-31.266	-28.056	18536	15795	0	796
-28.922	-25.856	18485	15731	0	796
-25.243	-21.637	18444	15671	0	796
-22.070	-20.231	18384	15621	0	796
-17.779	-16.300	18333	15562	0	796
-15.975	-16.228	18282	15516	0	796
-13.018	-13.127	18231	15494	0	796
-12.405	-10.314	18174	15457	0	796
-8.655	-5.698	18113	15395	0	796
-5.193	-0.793	18056	15336	0	796
-2.849	1.983	17995	15297	0	796
-0.252	2.560	17927	15268	0	796
1.010	-0.288	17877	15243	0	796
2.092	-1.695	17802	15215	0	796
1.226	-4.688	17752	15195	0	796
-0.361	-5.698	17684	15223	0	796
-3.606	-6.491	17650	15308	0	796
-7.537	-10.638	17606	15415	0	796
-12.153	-15.867	17556	15497	0	796
-16.192	-21.745	17481	15483	0	796
-18.788	-26.073	17404	15364	0	796
-22.972	-29.931	17319	15240	0	796
-26.073	-29.823	17245	15175	0	796
-25.063	-30.040	17177	15142	0	796
-22.070	-28.201	17093	15122	0	796
-17.129	-25.207	17015	15119	0	796
-9.340	-21.601	16958	15127	0	796
-3.787	-15.831	16880	15161	0	796
-0.325	-12.441	16840	15257	0	796
1.659	-8.619	16789	15429	0	796
5.986	-6.022	16762	15624	0	796
11.396	-3.823	16721	15781	0	796
14.281	-1.731	16671	15877	0	796
17.598	0.649	16627	15945	0	796
17.598	2.128	16586	16021	0	796
19.041	3.462	16552	16131	0	796
19.906	1.515	16509	16232	0	796
22.863	2.524	16468	16277	0	796
21.457	1.875	16424	16277	0	796
20.447	0.108	16384	16277	0	796
14.533	-2.164	16334	16294	0	796
13.235	-4.760	16293	16314	0	796
10.422	-10.206	16259	16331	0	796
7.393	-14.281	16216	16345	0	796
6.563	-16.300	16165	16337	0	796
1.803	-19.365	16107	16297	0	796
-2.524	-18.067	16074	16255	0	796
-5.085	-17.021	16030	16255	0	796
-4.147	-12.982	15989	16314	0	796
-0.613	-11.648	15955	16359	0	796
3.642	-12.441	15905	16328	0	796
8.258	-11.396	15861	16246	0	796
10.278	-11.937	15793	16179	0	796
8.943	-9.809	15759	16159	0	796
12.405	-6.419	15726	16176	0	796
16.156	-2.993	15675	16182	0	796
19.546	0.469	15624	16139	0	796
22.972	2.993	15574	16086	0	796
24.666	3.606	15523	16038	0	796
23.188	3.895	15482	16018	0	796
22.935	2.452	15439	16032	0	796
22.972	0.216	15398	16032	0	796
22.214	-0.685	15347	16010	0	796
23.188	-2.056	15303	16001	0	796
24.630	-1.515	15253	16010	0	796
26.794	0.361	15219	16021	0	796
27.840	1.911	15168	16027	0	796
27.443	1.767	15111	15993	0	796
22.899	-0.180	15060	15886	0	796
16.300	-4.039	14976	15736	0	796
14.497	-6.708	14915	15609	0	796
12.045	-7.032	14847	15559	0	796
14.172	-6.167	14797	15576	0	796
17.021	-3.967	14739	15598	0	796
16.589	-2.596	14678	15595	0	796
15.687	-2.128	14638	15629	0	796
13.018	-3.029	14628	15801	0	796
14.497	-4.327	14645	16128	0	796
16.228	-4.724	14672	16533	0	796
15.254	-4.868	14712	16973	0	796
15.326	-5.554	14790	17421	0	796
10.169	-6.311	14874	17883	0	796
9.881	-5.878	14959	18359	0	796
14.172	-2.596	15084	18861	0	796
20.195	2.813	15219	19391	0	796
29.138	8.475	15381	19926	0	796
34.872	12.766	15540	20439	0	796
37.396	14.713	15719	20910	0	796
38.370	12.622	15912	21330	0	796
35.737	11.323	16097	21708	0	796
32.203	7.970	16310	22043	0	796
29.030	4.904	16519	22345	0	796
27.407	2.272	16738	22595	0	796
25.712	1.442	16931	22734	0	796
25.027	0.397	17134	22750	0	796
23.332	-1.911	17319	22697	0	796
19.762	-4.075	17505	22564	0	796
17.057	-6.419	17691	22367	0	796
13.740	-8.907	17860	22161	0	796
10.710	-10.169	18046	21944	1	840
8.042	-12.333	18225	21713	0	840
8.150	-11.468	18400	21513	0	840
9.989	-12.045	18596	21352	0	840
10.891	-12.622	18782	21164	0	840
9.737	-12.081	18924	20840	0	840
9.232	-14.605	19052	20335	0	840
7.970	-15.074	19154	19729	0	840
9.088	-11.468	19262	19199	0	840
11.900	-9.268	19373	18790	0	840
18.067	-5.770	19481	18418	0	840
21.962	-3.246	19593	18049	0	840
26.433	-2.813	19684	17694	0	840
27.768	-1.731	19786	17359	0	840
30.617	1.875	19870	17060	0	840
31.554	6.022	19981	16832	0	840
33.321	8.366	20083	16677	0	840
36.675	8.583	20174	16502	0	840
36.531	8.042	20235	16244	0	840
32.384	2.957	20302	15919	0	840
27.624	-2.596	20343	15604	0	840
24.522	-4.868	20387	15328	0	840
21.745	-7.970	20438	15091	0	840
22.972	-5.554	20461	14877	0	840
25.965	-3.426	20478	14648	0	840
25.099	-2.056	20495	14400	0	840
24.053	-3.318	20505	14175	0	840
21.854	-5.265	20505	14003	0	840
18.572	-8.439	20495	13856	0	840
19.942	-9.160	20478	13656	0	840
22.106	-7.825	20421	13341	0	840
27.047	-5.409	20360	12980	0	840
29.607	-1.551	20302	12737	0	840
28.237	0.721	20252	12627	0	840
27.515	1.154	20201	12560	0	840
27.335	0.685	20140	12503	0	840
28.597	1.154	20066	12441	0	840
33.646	6.094	19981	12346	0	840
35.846	9.701	19904	12244	0	840
34.403	12.441	19829	12219	0	840
31.987	12.117	19752	12289	0	840
28.958	9.052	19694	12433	0	840
27.551	6.167	19610	12571	0	840
24.811	5.481	19542	12675	0	840
22.070	2.633	19481	12799	0	840
21.060	1.154	19414	12985	0	840
19.762	0.108	19356	13211	0	840
22.322	0.108	19296	13434	0	840
21.457	-2.019	19245	13639	0	840
18.969	-2.849	19177	13831	0	840
15.651	-4.400	19103	13966	0	840
12.189	-5.914	19036	14076	0	840
13.415	-2.921	18992	14279	0	840
16.877	-0.865	18951	14558	0	840
18.067	1.983	18917	14846	0	840
21.529	4.472	18900	15144	0	840
22.611	3.534	18884	15468	0	840
25.063	4.760	18884	15846	0	840
28.273	7.321	18934	16317	0	840
30.472	11.143	18968	16818	0	840
32.131	14.281	18992	17215	0	840
30.725	16.805	19009	17443	0	840
26.722	13.740	19036	17567	0	840
23.837	9.989	19036	17669	0	840
22.467	7.068	19052	17790	0	840
24.306	6.671	19076	17925	0	840
28.237	10.602	19093	18007	0	840
30.076	11.864	19093	17979	0	840
30.364	15.110	19093	17922	0	840
28.056	11.432	19110	17917	0	840
24.919	7.321	19127	17939	0	840
21.673	1.983	19137	17925	0	840
18.969	-0.216	19144	17852	0	840
16.264	-0.541	19154	17750	0	840
17.093	2.019	19144	17641	0	840
16.985	3.318	19137	17494	0	840
18.428	3.534	19103	17274	0	840
17.598	2.633	19086	17035	0	840
16.589	3.426	19059	16854	0	840
16.156	2.993	19036	16705	0	840
15.795	3.462	18992	16516	0	840
18.031	3.823	18951	16303	0	840
17.346	3.498	18924	16117	0	840
18.788	2.200	18873	15976	0	840
15.398	1.515	18833	15841	0	840
14.389	0.469	18789	15683	0	840
10.891	0.902	18738	15528	0	840
10.566	3.462	18688	15406	0	840
11.937	7.032	18654	15342	0	840
14.028	11.215	18603	15336	0	840
19.005	13.704	18579	15356	0	840
21.493	14.749	18546	15361	0	840
23.008	12.982	18512	15384	0	840
22.286	12.333	18485	15457	0	840
20.303	11.540	18478	15590	0	840
19.762	8.979	18468	15728	0	840
18.139	6.708	18451	15818	0	840
19.473	6.599	18427	15869	0	840
20.627	3.173	18411	15914	0	840
22.611	-1.659	18394	15965	0	840
25.676	-8.763	18377	16015	0	840
26.289	-18.969	18360	16074	0	840
25.279	-29.859	18333	16134	0	840
23.981	-36.711	18299	16131	0	840
19.654	-37.072	18259	16010	0	840
19.473	-34.331	18198	15812	0	840
19.546	-32.095	18130	15629	0	840
18.716	-28.922	18063	15499	0	840
19.762	-27.515	18012	15429	0	840
18.320	-24.955	17954	15373	0	840
19.473	-22.142	17887	15299	0	840
19.510	-17.995	17843	15254	0	840
21.673	-12.982	17786	15271	0	840
20.700	-11.035	17742	15302	0	840
21.168	-10.566	17674	15311	0	840
17.959	-8.871	17623	15297	0	840
17.634	-9.268	17566	15271	0	840
15.867	-9.556	17505	15263	0	840
19.906	-9.232	17454	15294	0	840
23.008	-8.006	17404	15330	0	840
25.171	-7.321	17329	15280	0	840
25.243	-9.160	17228	15085	0	840
21.818	-10.458	17117	14843	0	840
16.769	-10.133	17015	14699	0	840
16.120	-11.432	16941	14676	0	840
16.589	-9.737	16856	14693	0	840
21.890	-5.770	16779	14719	0	840
25.496	-4.003	16694	14750	0	840
28.741	-2.921	16620	14786	0	840
28.345	-2.092	16542	14829	0	840
24.198	-4.724	16475	14877	0	840
16.661	-6.239	16400	14961	0	840
11.756	-8.439	16344	15099	0	840
6.996	-6.527	16276	15232	0	840
6.383	-5.986	16226	15319	0	840
6.780	-3.282	16165	15421	0	840
9.268	-4.544	16124	15567	0	840
10.927	-5.481	16074	15731	0	840
11.107	-5.626	16030	15869	0	840
12.009	-5.085	15979	15976	0	840
12.910	-3.029	15928	16063	0	840
11.215	-0.433	15895	16159	0	840
11.576	2.056	15854	16280	0	840
17.598	6.094	15827	16400	0	840
21.998	9.196	15793	16493	0	840
28.597	13.307	15753	16558	0	840
32.672	13.199	15719	16595	0	840
29.282	9.520	15675	16606	0	840
22.575	4.760	15634	16623	0	840
14.100	-0.649	15601	16660	0	840
9.809	-3.354	15574	16705	0	840
9.629	-2.596	15540	16730	0	840
12.514	-1.659	15499	16699	0	840
14.713	-0.180	15449	16617	0	840
16.841	-0.757	15398	16539	0	840
12.405	-1.767	15354	16499	0	840
10.891	-3.354	15330	16496	0	840
9.953	-2.705	15287	16510	0	840
10.855	0.252	15253	16519	0	840
11.612	-0.180	15236	16547	0	840
11.143	0.902	15219	16623	0	840
8.727	-0.685	15202	16733	0	840
6.960	-0.649	15195	16826	0	840
7.537	0.288	15168	16823	0	840
8.727	0.397	15118	16677	0	840
7.501	-0.036	15050	16460	0	840
4.904	-2.056	15009	16303	0	840
1.803	-3.931	14959	16227	0	840
-0.541	-3.570	14925	16176	0	840
1.515	-1.226	14874	16139	0	840
6.094	-1.442	14841	16122	0	840
8.655	-1.082	14807	16128	0	840
9.484	-1.911	14773	16151	0	840
9.773	-1.226	14746	16182	0	840
10.999	0.252	14729	16235	0	840
13.559	2.705	14712	16328	0	840
13.740	4.688	14695	16395	0	840
15.182	5.013	14678	16409	0	840
13.127	3.678	14655	16417	0	840
11.900	1.479	14638	16457	0	840
15.146	1.370	14611	16485	0	840
17.995	1.839	14587	16454	0	840
21.709	3.823	14553	16392	0	840
18.897	6.491	14526	16362	0	840
18.320	6.167	14520	16389	0	840
15.290	6.311	14509	16485	0	840
17.454	5.517	14520	16612	0	840
22.395	6.275	14520	16730	0	840
28.741	8.763	14526	16857	0	840
34.259	10.242	14560	17018	0	840
32.925	9.592	14594	17223	0	840
27.299	5.770	14645	17471	0	840
17.598	-0.577	14712	17742	0	840
15.398	-4.832	14790	18029	0	840
13.884	-3.606	14857	18311	0	840
22.142	-0.865	14949	18534	0	840
26.433	5.265	15026	18717	0	840
28.814	6.563	15134	18920	0	840
25.856	5.337	15236	19163	0	840
25.929	5.301	15364	19425	0	840
24.883	6.852	15482	19664	0	840
27.840	11.720	15618	19853	0	840
27.768	15.723	15753	20036	0	840
27.660	16.408	15912	20256	0	840
26.686	16.589	16074	20493	0	840
23.801	12.117	16249	20718	0	840
19.726	10.025	16424	20904	0	840
16.877	8.294	16610	21051	0	840
14.641	7.645	16796	21183	0	840
11.612	6.852	16998	21330	0	840
10.422	5.481	17201	21474	0	840
5.878	1.298	17404	21553	0	840
-1.190	-5.554	17590	21508	0	840
-6.924	-10.530	17752	21336	0	840
-9.917	-15.723	17921	21099	0	840
-9.953	-16.192	18073	20840	0	840
-6.960	-16.516	18225	20575	1	864
-2.993	-13.271	18384	20321	0	864
0.865	-10.169	18519	20053	0	864
3.065	-7.501	18637	19698	0	864
5.265	-5.626	18755	19270	0	864
5.698	-4.472	18867	18889	0	864
4.183	-5.878	19002	18610	0	864
4.003	-5.698	19120	18373	0	864
2.957	-4.724	19228	18106	0	864
5.878	-1.983	19329	17801	0	864
11.432	2.164	19424	17494	0	864
18.211	6.131	19509	17201	0	864
21.349	11.179	19593	16902	0	864
21.709	12.369	19661	16595	0	864
16.697	9.881	19735	16322	0	864
13.415	9.160	19802	16091	0	864
12.766	6.888	19870	15886	0	864
13.920	6.203	19921	15700	0	864
17.454	5.914	19981	15530	0	864
15.867	4.580	20032	15347	0	864
12.550	0.938	20066	15139	0	864
9.629	-3.101	20090	14930	0	864
5.914	-6.491	20106	14733	0	864
5.013	-7.609	20134	14552	0	864
2.813	-7.248	20140	14378	0	864
3.462	-7.501	20140	14220	0	864
3.823	-9.592	20134	14079	0	864
7.212	-8.330	20117	13927	0	864
9.989	-7.068	20117	13760	0	864
12.658	-4.255	20090	13645	0	864
13.631	0.865	20066	13603	0	864
14.641	3.065	20049	13583	0	864
15.903	3.426	20022	13558	0	864
21.060	5.662	19998	13512	0	864
25.965	10.133	19954	13459	0	864
30.148	16.408	19904	13419	0	864
34.764	21.241	19880	13419	0	864
36.819	23.873	19829	13453	0	864
38.406	23.440	19779	13484	0	864
39.812	22.575	19728	13473	0	864
41.760	22.827	19650	13439	0	864
42.770	23.368	19610	13439	0	864
42.409	28.056	19549	13493	0	864
43.599	31.554	19492	13583	0	864
45.763	33.249	19431	13690	0	864
48.792	33.934	19373	13783	0	864
50.270	31.807	19296	13811	0	864
52.218	29.282	19211	13758	0	864
50.234	28.705	19103	13642	0	864
48.864	28.489	19009	13518	0	864
47.277	29.931	18900	13498	0	864
45.258	30.076	18833	13605	0	864
43.491	31.049	18748	13763	0	864
43.887	29.931	18698	13958	0	864
45.943	30.292	18620	14175	0	864
50.451	31.013	18552	14319	0	864
58.817	34.547	18468	14361	0	864
64.551	37.901	18367	14375	0	864
67.652	43.383	18265	14364	0	864
66.751	44.104	18164	14341	0	864
62.748	44.284	18096	14434	0	864
61.269	42.770	18056	14696	0	864
59.899	41.580	18022	15060	0	864
62.856	43.563	18005	15488	0	864
66.895	46.304	18012	15928	0	864
68.770	50.739	18012	16320	0	864
70.862	51.893	18012	16654	0	864
72.485	53.841	18029	16970	0	864
72.990	50.126	18046	17252	0	864
69.023	47.746	18039	17449	0	864
63.938	43.455	18029	17542	0	864
54.995	39.272	18022	17579	0	864
45.727	32.528	18022	17638	0	864
39.163	24.739	18022	17736	0	864
33.754	18.644	18039	17855	0	864
31.446	12.153	18046	17936	0	864
29.354	10.458	18046	17948	0	864
28.020	12.009	18046	17925	0	864
28.489	13.163	18056	17920	0	864
29.318	16.048	18079	17948	0	864
31.915	16.336	18079	17959	0	864
31.446	17.238	18079	17900	0	864
32.672	16.048	18079	17787	0	864
30.040	17.310	18079	17669	0	864
29.102	16.228	18073	17562	0	864
28.020	18.283	18056	17455	0	864
28.669	18.031	18046	17325	0	864
30.328	19.510	18029	17159	0	864
31.807	18.788	17995	16947	0	864
33.646	20.700	17938	16665	0	864
33.718	19.185	17894	16356	0	864
31.446	22.719	17826	16094	0	864
30.436	22.791	17792	15911	0	864
29.968	23.332	17735	15764	0	864
31.554	24.342	17684	15604	0	864
31.915	21.926	17617	15423	0	864
30.004	18.320	17556	15294	0	864
22.142	14.281	17522	15249	0	864
14.677	8.943	17481	15243	0	864
6.239	0.902	17431	15220	0	864
3.390	-4.147	17380	15164	0	864
2.416	-7.357	17319	15088	0	864
1.551	-8.943	17262	15037	0	864
1.370	-7.753	17211	15034	0	864
1.875	-4.616	17161	15065	0	864
4.760	-2.416	17117	15116	0	864
8.294	-0.721	17076	15187	0	864
12.297	2.596	17032	15271	0	864
14.821	6.275	17009	15353	0	864
14.930	9.845	16958	15418	0	864
19.942	17.093	16914	15452	0	864
25.604	22.322	16863	15452	0	864
33.754	30.004	16806	15426	0	864
38.839	34.295	16745	15392	0	864
37.360	34.006	16677	15339	0	864
32.059	30.184	16610	15280	0	864
25.135	25.460	16542	15237	0	864
18.788	22.034	16485	15243	0	864
16.697	23.224	16417	15249	0	864
20.159	26.578	16351	15223	0	864
22.431	27.804	16283	15206	0	864
25.929	24.739	16226	15218	0	864
25.568	20.087	16148	15232	0	864
18.500	12.297	16074	15215	0	864
10.927	6.599	16006	15164	0	864
2.921	3.210	15922	15119	0	864
-0.829	-0.649	15854	15116	0	864
-0.180	-3.173	15776	15161	0	864
2.452	-2.488	15726	15249	0	864
6.852	-1.839	15675	15367	0	864
9.917	0.613	15618	15497	0	864
12.802	3.246	15567	15581	0	864
12.730	5.445	15506	15607	0	864
13.631	8.439	15439	15609	0	864
17.454	8.799	15381	15624	0	864
20.591	10.819	15314	15649	0	864
26.830	13.487	15253	15657	0	864
29.715	13.884	15168	15612	0	864
33.213	20.772	15084	15547	0	864
35.990	27.371	15033	15553	0	864
37.396	35.269	14976	15652	0	864
42.481	38.622	14932	15759	0	864
43.455	40.173	14864	15818	0	864
41.868	37.901	14807	15824	0	864
41.327	35.737	14739	15818	0	864
40.426	35.160	14678	15841	0	864
41.580	37.649	14628	15903	0	864
43.130	37.144	14577	15950	0	864
42.553	32.672	14493	15869	0	864
34.872	24.414	14368	15618	0	864
23.693	13.776	14266	15347	0	864
13.199	3.678	14182	15223	0	864
6.960	-1.767	14097	15246	0	864
3.354	-3.606	14013	15297	0	864
4.940	-3.750	13952	15347	0	864
4.580	-3.390	13884	15406	0	864
5.337	-2.236	13810	15443	0	864
7.501	-1.551	13743	15457	0	864
9.881	0.505	13682	15505	0	864
11.396	3.895	13624	15607	0	864
13.704	6.419	13574	15745	0	864
14.533	9.016	13523	15869	0	864
14.858	9.268	13479	15959	0	864
18.247	10.386	13439	16074	0	864
20.916	10.169	13405	16244	0	864
24.342	12.297	13371	16386	0	864
27.443	17.274	13337	16488	0	864
28.128	22.539	13320	16592	0	864
28.922	29.859	13293	16696	0	864
31.266	35.124	13253	16741	0	864
35.413	37.000	13209	16736	0	864
37.793	37.288	13185	16753	0	864
40.065	35.954	13158	16803	0	864
39.452	34.692	13124	16851	0	864
37.685	34.656	13107	16896	0	864
38.045	32.636	13084	16944	0	864
38.370	28.850	13084	17026	0	864
34.295	23.476	13084	17170	0	864
30.292	15.362	13091	17350	0	864
24.234	9.232	13107	17474	0	864
20.050	5.986	13107	17519	0	864
18.283	4.255	13118	17553	0	864
17.346	2.633	13124	17601	0	864
17.634	2.056	13141	17674	0	864
13.451	0.216	13175	17776	0	864
9.412	-1.479	13192	17872	0	864
7.429	-0.216	13236	17951	0	864
8.979	1.947	13287	18069	0	864
13.091	4.977	13344	18258	0	864
18.067	8.330	13422	18480	0	864
20.375	12.117	13496	18695	0	864
20.880	12.766	13591	18884	0	864
18.067	13.163	13692	19072	0	864
20.627	13.704	13793	19289	0	864
20.627	13.271	13928	19551	0	864
22.827	14.858	14070	19862	0	864
22.827	18.139	14222	20160	0	864
20.375	17.057	14368	20346	0	864
18.500	16.805	14503	20405	0	864
13.343	12.766	14638	20448	0	864
12.622	8.006	14790	20532	0	864
14.064	5.878	14959	20631	0	864
15.507	3.173	15118	20738	0	864
18.572	4.652	15297	20848	0	864
16.769	4.652	15472	20935	0	864
14.641	2.669	15658	20986	0	864
10.927	0.829	15827	20997	0	864
6.491	-2.741	16023	20989	0	864
4.255	-5.445	16209	20980	0	864
0.469	-7.862	16384	20933	0	864
-1.947	-8.907	16559	20809	0	864
-3.282	-9.196	16721	20628	1	844
-2.560	-7.573	16890	20420	0	844
-1.695	-7.393	17042	20219	0	844
-1.190	-5.445	17201	20002	0	844
-0.721	-4.580	17336	19729	0	844
-4.940	-6.960	17471	19411	0	844
-10.097	-6.563	17606	19095	0	844
-13.992	-8.763	17718	18796	0	844
-14.569	-9.124	17843	18500	0	844
-12.045	-6.671	17944	18176	0	844
-6.708	-3.642	18039	17798	0	844
-3.354	0.613	18096	17339	0	844
-2.092	2.560	18147	16829	0	844
-6.383	-0.288	18191	16373	0	844
-9.196	-5.481	18242	15998	0	844
-13.054	-10.386	18292	15686	0	844
-14.172	-14.785	18333	15412	0	844
-14.497	-14.389	18360	15139	0	844
-11.720	-15.254	18394	14865	0	844
-13.379	-13.451	18417	14671	0	844
-13.271	-14.749	18451	14564	0	844
-14.136	-17.995	18478	14468	0	844
-15.326	-17.057	18502	14358	0	844
-13.704	-17.887	18529	14245	0	844
-11.864	-12.766	18546	14149	0	844
-12.009	-8.294	18552	14096	0	844
-9.376	-5.842	18569	14107	0	844
-8.294	-4.868	18596	14158	0	844
-9.160	-8.475	18603	14178	0	844
-8.799	-11.215	18579	14068	0	844
-9.196	-12.694	18546	13862	0	844
-8.619	-11.828	18519	13718	0	844
-9.340	-8.871	18495	13679	0	844
-8.619	-6.527	18451	13659	0	844
-9.052	-4.616	18427	13634	0	844
-10.674	-4.183	18394	13622	0	844
-12.333	-4.580	18360	13634	0	844
-13.018	-7.825	18326	13679	0	844
-14.821	-12.333	18309	13800	0	844
-17.382	-15.867	18299	13997	0	844
-17.093	-19.726	18292	14203	0	844
-19.221	-21.349	18265	14352	0	844
-18.428	-19.618	18242	14440	0	844
-18.933	-15.507	18208	14502	0	844
-15.651	-13.884	18181	14575	0	844
-13.343	-8.871	18147	14648	0	844
-8.763	-6.022	18106	14705	0	844
-6.383	-6.563	18063	14736	0	844
-5.626	-6.455	18022	14772	0	844
-6.239	-8.078	17988	14846	0	844
-8.691	-8.258	17961	14978	0	844
-9.340	-7.176	17944	15158	0	844
-10.638	-6.022	17938	15344	0	844
-9.232	-4.760	17911	15497	0	844
-7.321	-5.554	17877	15556	0	844
-7.321	-6.419	17826	15528	0	844
-7.573	-8.799	17802	15519	0	844
-10.422	-8.222	17759	15570	0	844
-13.199	-7.645	17735	15657	0	844
-14.281	-4.219	17708	15753	0	844
-13.451	-1.623	17674	15818	0	844
-9.773	0.036	17650	15857	0	844
-5.409	-1.695	17634	15948	0	844
-4.977	-4.796	17623	16111	0	844
-5.914	-8.511	17634	16308	0	844
-10.025	-9.376	17634	16479	0	844
-14.353	-9.845	17623	16601	0	844
-18.464	-9.196	17634	16688	0	844
-17.454	-6.816	17634	16775	0	844
-15.615	-8.258	17634	16885	0	844
-11.504	-6.996	17640	16992	0	844
-7.825	-6.960	17650	17049	0	844
-5.698	-4.977	17640	17049	0	844
-5.229	-2.092	17634	17029	0	844
-3.823	2.380	17634	17004	0	844
-3.318	6.239	17617	16958	0	844
-0.361	8.114	17600	16880	0	844
0.361	8.475	17583	16789	0	844
0.325	11.035	17566	16696	0	844
0.793	11.576	17522	16558	0	844
3.570	13.740	17488	16398	0	844
7.068	15.507	17471	16331	0	844
11.107	14.028	17454	16339	0	844
13.704	14.677	17421	16291	0	844
13.848	15.579	17380	16145	0	844
12.009	15.146	17336	15965	0	844
10.963	17.634	17286	15801	0	844
10.278	15.939	17228	15657	0	844
9.917	16.084	17161	15483	0	844
11.396	12.441	17083	15282	0	844
10.710	9.520	17025	15144	0	844
6.888	5.229	16981	15125	0	844
4.508	1.190	16948	15201	0	844
0.180	0.216	16924	15361	0	844
0.649	1.082	16924	15564	0	844
4.616	2.741	16907	15742	0	844
9.160	6.022	16907	15888	0	844
15.290	6.852	16897	16038	0	844
19.005	8.583	16907	16201	0	844
18.716	9.016	16897	16356	0	844
19.185	11.576	16914	16491	0	844
17.382	17.021	16907	16612	0	844
19.798	24.955	16897	16688	0	844
22.935	29.102	16880	16657	0	844
28.164	32.636	16846	16558	0	844
30.076	31.771	16840	16536	0	844
28.489	30.184	16840	16626	0	844
23.296	28.741	16840	16716	0	844
18.500	26.974	16840	16736	0	844
14.172	26.073	16813	16682	0	844
14.425	21.421	16796	16598	0	844
15.471	18.139	16762	16527	0	844
19.221	16.480	16745	16460	0	844
17.634	12.802	16704	16353	0	844
14.208	10.097	16654	16173	0	844
9.484	6.888	16603	15984	0	844
5.842	5.770	16559	15849	0	844
4.977	5.806	16519	15793	0	844
5.626	6.599	16475	15767	0	844
4.436	6.780	16434	15711	0	844
0.216	4.436	16390	15629	0	844
-5.842	2.200	16344	15559	0	844
-7.934	2.669	16293	15502	0	844
-8.799	5.121	16243	15443	0	844
-7.321	7.862	16175	15359	0	844
-5.590	8.258	16114	15260	0	844
-5.590	7.357	16047	15158	0	844
-5.878	6.996	15962	15026	0	844
-4.003	8.475	15888	14871	0	844
-4.796	8.727	15793	14758	0	844
-4.977	9.809	15726	14724	0	844
-7.285	9.701	15668	14761	0	844
-7.285	8.799	15607	14829	0	844
-7.825	7.862	15540	14891	0	844
-5.806	7.609	15482	14956	0	844
-7.212	7.357	15432	15043	0	844
-11.432	6.419	15388	15170	0	844
-15.362	5.590	15347	15319	0	844
-19.437	2.452	15303	15429	0	844
-19.726	-2.669	15253	15494	0	844
-21.709	-9.340	15195	15545	0	844
-24.306	-13.776	15162	15615	0	844
-30.653	-19.978	15118	15717	0	844
-38.622	-21.637	15060	15790	0	844
-45.078	-25.135	14993	15759	0	844
-48.467	-26.073	14915	15629	0	844
-47.061	-22.791	14824	15468	0	844
-42.806	-21.132	14729	15325	0	844
-39.776	-19.365	14645	15240	0	844
-40.570	-18.428	14577	15235	0	844
-38.658	-18.824	14520	15294	0	844
-38.406	-14.749	14452	15387	0	844
-34.115	-12.514	14401	15499	0	844
-30.184	-9.340	14357	15612	0	844
-29.931	-6.852	14317	15736	0	844
-34.511	-6.239	14283	15897	0	844
-39.668	-5.121	14266	16072	0	844
-41.580	-4.472	14222	16213	0	844
-42.986	-5.121	14189	16328	0	844
-44.464	-9.484	14165	16395	0	844
-46.232	-11.973	14114	16395	0	844
-52.074	-16.841	14053	16365	0	844
-56.798	-19.978	14030	16362	0	844
-61.558	-24.378	13979	16403	0	844
-65.092	-27.083	13962	16477	0	844
-66.715	-29.030	13928	16570	0	844
-64.407	-30.148	13918	16682	0	844
-60.476	-29.715	13918	16818	0	844
-58.096	-29.859	13912	16947	0	844
-55.644	-32.131	13895	17018	0	844
-58.240	-32.961	13861	16981	0	844
-62.964	-33.393	13827	16882	0	844
-65.092	-32.889	13800	16798	0	844
-64.803	-29.715	13759	16767	0	844
-62.495	-28.056	13743	16775	0	844
-58.817	-27.227	13716	16753	0	844
-56.329	-26.361	13675	16671	0	844
-54.850	-24.162	13641	16586	0	844
-57.591	-20.014	13624	16558	0	844
-57.699	-16.625	13597	16578	0	844
-58.745	-14.389	13591	16640	0	844
-61.594	-15.651	13591	16736	0	844
-63.686	-18.283	13607	16865	0	844
-65.633	-18.500	13641	17063	0	844
-65.380	-18.680	13692	17345	0	844
-62.171	-19.437	13749	17686	0	844
-57.375	-18.247	13827	18021	0	844
-54.598	-22.647	13901	18280	0	844
-57.807	-25.388	13969	18480	0	844
-63.469	-29.102	14070	18726	0	844
-70.105	-32.167	14172	19047	0	844
-74.216	-33.610	14307	19388	0	844
-72.773	-33.429	14435	19692	0	844
-67.941	-33.393	14543	19884	0	844
-62.964	-32.492	14672	19977	0	844
-60.332	-31.590	14807	20112	0	844
-62.712	-29.354	14959	20332	0	844
-65.453	-28.958	15128	20606	0	844
-69.744	-28.453	15320	20924	0	844
-69.960	-30.617	15516	21226	0	844
-65.200	-30.076	15719	21443	0	844
-60.188	-28.741	15922	21584	0	844
-55.499	-23.296	16097	21626	0	844
-54.850	-20.231	16266	21553	0	844
-54.201	-16.985	16451	21437	0	844
-56.798	-17.129	16627	21341	0	844
-56.293	-18.500	16806	21268	0	844
-57.303	-17.454	17009	21214	1	828
-57.627	-18.500	17201	21172	0	828
-57.988	-18.175	17397	21116	0	828
-60.728	-23.224	17590	21011	0	828
-63.253	-27.263	17775	20854	0	828
-68.085	-32.600	17938	20623	0	828
-73.278	-35.846	18106	20293	0	828
-75.911	-36.098	18242	19904	0	828
-76.271	-34.800	18377	19529	0	828
-75.406	-34.583	18512	19191	0	828
-74.144	-36.387	18637	18850	0	828
-71.799	-36.495	18748	18466	0	828
-70.790	-36.351	18856	18066	0	828
-68.482	-35.413	18958	17731	0	828
-68.157	-31.518	19069	17469	0	828
-67.761	-30.148	19177	17198	0	828
-68.987	-28.922	19262	16899	0	828
-72.196	-29.895	19340	16589	0	828
-73.242	-29.751	19414	16308	0	828
-72.088	-29.138	19498	16060	0	828
-67.652	-26.361	19576	15849	0	828
-61.666	-23.909	19627	15649	0	828
-55.752	-21.781	19684	15426	0	828
-55.788	-19.510	19728	15178	0	828
-56.906	-21.024	19769	14947	0	828
-56.076	-17.779	19796	14744	0	828
-54.562	-16.769	19829	14561	0	828
-48.287	-14.136	19836	14383	0	828
-47.169	-16.625	19846	14169	0	828
-50.343	-19.293	19819	13890	0	828
-56.870	-26.397	19779	13569	0	828
-62.676	-33.429	19735	13245	0	828
-67.184	-35.413	19684	12960	0	828
-66.102	-38.442	19610	12706	0	828
-64.876	-37.108	19509	12351	0	828
-63.613	-36.855	19373	11878	0	828
-63.469	-37.721	19245	11469	0	828
-64.299	-37.901	19127	11260	0	828
-66.354	-38.334	19025	11207	0	828
-66.751	-38.262	18934	11224	0	828
-65.453	-36.964	18833	11275	0	828
-64.299	-34.043	18738	11370	0	828
-59.250	-32.131	18654	11554	0	828
-55.139	-29.246	18603	11850	0	828
-52.831	-26.578	18552	12255	0	828
-47.782	-22.719	18519	12709	0	828
-42.589	-18.860	18495	13146	0	828
-41.255	-15.651	18468	13558	0	828
-37.865	-13.271	18444	13955	0	828
-38.658	-10.530	18427	14350	0	828
-39.163	-10.422	18427	14758	0	828
-40.642	-9.412	18417	15170	0	828
-39.308	-9.304	18427	15564	0	828
-40.209	-11.900	18434	15922	0	828
-41.075	-15.903	18434	16201	0	828
-41.435	-18.103	18434	16412	0	828
-42.878	-21.204	18444	16660	0	828
-43.599	-21.601	18468	16967	0	828
-42.553	-23.368	18495	17257	0	828
-42.084	-27.010	18512	17463	0	828
-44.789	-29.571	18529	17576	0	828
-44.933	-31.049	18546	17660	0	828
-45.078	-31.410	18563	17767	0	828
-44.248	-27.515	18596	17905	0	828
-40.281	-24.234	18637	18044	0	828
-36.783	-21.926	18654	18139	0	828
-34.547	-21.277	18688	18179	0	828
-35.052	-20.952	18731	18196	0	828
-34.692	-18.536	18755	18210	0	828
-34.331	-17.815	18799	18230	0	828
-34.583	-16.480	18816	18207	0	828
-33.826	-17.851	18833	18128	0	828
-33.682	-17.779	18856	18018	0	828
-32.276	-19.906	18856	17891	0	828
-29.463	-17.093	18873	17736	0	828
-27.551	-17.526	18867	17545	0	828
-26.470	-16.444	18856	17300	0	828
-27.660	-19.978	18816	17001	0	828
-32.276	-23.657	18782	16665	0	828
-36.387	-25.171	18721	16331	0	828
-39.163	-27.624	18688	16052	0	828
-38.370	-29.463	18637	15852	0	828
-35.521	-29.607	18613	15714	0	828
-33.105	-30.364	18579	15590	0	828
-31.013	-29.427	18529	15449	0	828
-32.636	-29.823	18485	15313	0	828
-36.026	-30.292	18451	15243	0	828
-37.865	-30.941	18427	15257	0	828
-36.639	-31.807	18411	15308	0	828
-31.626	-32.384	18377	15347	0	828
-25.640	-28.741	18360	15375	0	828
-18.211	-27.371	18333	15406	0	828
-17.346	-27.047	18309	15440	0	828
-16.552	-25.929	18282	15463	0	828
-20.087	-26.109	18248	15468	0	828
-22.683	-26.001	18215	15457	0	828
-25.135	-27.876	18174	15429	0	828
-25.316	-26.866	18123	15356	0	828
-23.693	-27.515	18063	15235	0	828
-21.637	-26.397	18012	15142	0	828
-17.851	-24.991	17944	15099	0	828
-15.290	-22.755	17904	15071	0	828
-14.028	-19.762	17819	15003	0	828
-14.785	-19.437	17752	14894	0	828
-12.694	-17.598	17667	14789	0	828
-14.245	-17.743	17606	14739	0	828
-13.704	-19.005	17539	14744	0	828
-13.523	-22.827	17471	14778	0	828
-13.920	-25.820	17397	14767	0	828
-12.189	-27.119	17286	14629	0	828
-12.910	-27.119	17184	14420	0	828
-13.956	-27.227	17093	14327	0	828
-12.405	-23.188	17015	14392	0	828
-11.937	-19.257	16948	14513	0	828
-9.232	-17.310	16880	14654	0	828
-4.472	-13.091	16840	14834	0	828
-2.308	-14.281	16789	15037	0	828
-2.741	-15.182	16762	15274	0	828
-1.334	-18.392	16762	15593	0	828
-2.056	-17.887	16738	15931	0	828
0.902	-17.634	16711	16148	0	828
1.370	-15.002	16671	16204	0	828
3.246	-16.084	16610	16179	0	828
5.914	-17.851	16569	16165	0	828
6.527	-19.041	16525	16198	0	828
6.635	-19.906	16485	16266	0	828
7.285	-22.070	16424	16291	0	828
7.176	-19.401	16378	16235	0	828
6.635	-18.897	16317	16176	0	828
7.681	-15.975	16283	16187	0	828
7.140	-15.326	16243	16241	0	828
8.366	-12.297	16199	16297	0	828
9.665	-11.792	16165	16331	0	828
16.480	-9.160	16114	16345	0	828
25.243	-4.688	16080	16382	0	828
33.285	-0.613	16057	16434	0	828
35.305	-0.613	16006	16431	0	828
31.987	-2.308	15955	16345	0	828
27.587	-5.301	15905	16246	0	828
23.657	-5.337	15844	16179	0	828
23.621	-5.301	15776	16086	0	828
26.506	-5.085	15719	15965	0	828
27.660	-6.852	15651	15857	0	828
25.640	-9.052	15584	15784	0	828
25.820	-10.999	15516	15728	0	828
23.260	-11.432	15449	15652	0	828
21.204	-11.864	15381	15567	0	828
18.175	-11.504	15337	15564	0	828
16.661	-13.343	15287	15657	0	828
14.713	-13.559	15236	15733	0	828
15.723	-13.163	15168	15728	0	828
15.182	-14.966	15118	15700	0	828
15.579	-15.290	15077	15719	0	828
15.867	-16.048	15026	15804	0	828
15.507	-13.848	15009	15925	0	828
21.132	-12.405	14966	16032	0	828
26.217	-8.078	14925	16074	0	828
32.059	-1.298	14874	16074	0	828
36.495	1.551	14841	16083	0	828
35.521	1.947	14790	16114	0	828
30.617	-0.793	14746	16136	0	828
25.388	-4.111	14695	16108	0	828
20.808	-4.472	14638	16043	0	828
18.428	-3.282	14570	15948	0	828
18.752	-0.829	14486	15790	0	828
13.704	-1.479	14391	15578	0	828
10.638	-3.210	14307	15409	0	828
7.248	-5.842	14232	15330	0	828
6.167	-5.626	14165	15319	0	828
8.475	-6.671	14097	15322	0	828
11.323	-6.816	14013	15299	0	828
9.845	-9.989	13952	15285	0	828
5.049	-12.766	13884	15308	0	828
-0.721	-17.382	13834	15370	0	828
-4.400	-19.401	13783	15468	0	828
-4.544	-21.241	13732	15581	0	828
-1.082	-20.844	13692	15717	0	828
2.092	-19.473	13682	15919	0	828
1.803	-19.726	13692	16235	0	828
2.596	-16.805	13716	16632	0	828
2.596	-15.723	13743	17012	0	828
4.832	-12.874	13759	17297	0	828
5.950	-13.451	13800	17539	0	828
7.537	-14.389	13861	17866	0	828
5.734	-13.091	13945	18303	0	828
5.481	-14.605	14053	18788	0	828
4.760	-12.477	14172	19281	0	828
6.960	-10.314	14300	19749	0	828
7.429	-9.917	14442	20163	0	828
10.746	-7.609	14604	20580	0	828
13.307	-4.904	14797	21076	0	828
13.054	-3.498	15016	21646	0	828
12.405	-4.327	15246	22198	0	828
8.691	-6.239	15482	22663	0	828
7.032	-7.681	15726	23021	0	828
5.626	-9.376	15962	23294	0	828
6.816	-9.376	16209	23503	0	828
7.825	-10.061	16451	23655	0	828
6.058	-12.946	16704	23740	0	828
5.409	-15.362	16941	23740	0	828
2.705	-19.293	17184	23683	0	828
1.154	-18.680	17431	23590	0	828
2.957	-17.995	17667	23469	0	828
6.852	-12.586	17921	23320	0	828
11.432	-10.097	18157	23145	1	816
12.802	-9.773	18384	22920	0	816
9.881	-12.333	18596	22607	0	816
4.111	-18.428	18806	22201	0	816
-2.849	-22.647	18992	21739	0	816
-6.816	-26.325	19177	21274	0	816
-8.835	-24.414	19356	20811	0	816
-9.881	-20.952	19525	20327	0	816
-9.484	-17.454	19661	19785	0	816
-6.924	-12.874	19796	19205	0	816
-4.327	-10.314	19904	18621	0	816
1.767	-9.629	20015	18058	0	816
3.967	-7.537	20123	17536	0	816
6.599	-6.058	20218	17057	0	816
8.006	-2.633	20286	16572	0	816
8.114	-2.669	20360	16091	0	816
8.114	-0.108	20427	15663	0	816
7.140	-1.046	20505	15322	0	816
7.104	-2.849	20563	15046	0	816
6.744	-5.049	20606	14733	0	816
4.796	-8.691	20630	14319	0	816
6.131	-10.169	20623	13851	0	816
5.481	-10.638	20630	13481	0	816
4.472	-11.576	20630	13253	0	816
6.960	-9.196	20647	13101	0	816
8.619	-8.583	20657	12999	0	816
9.737	-7.393	20664	12929	0	816
11.612	-6.780	20664	12847	0	816
11.864	-7.501	20657	12766	0	816
10.566	-7.934	20674	12788	0	816
9.412	-8.511	20681	12952	0	816
10.242	-8.258	20708	13149	0	816
12.910	-7.753	20708	13284	0	816
14.245	-4.977	20715	13355	0	816
19.365	-3.498	20708	13414	0	816
20.411	1.334	20708	13493	0	816
22.683	5.301	20691	13586	0	816
22.935	7.862	20691	13684	0	816
24.342	9.088	20664	13769	0	816
25.135	7.285	20647	13839	0	816
24.125	6.455	20623	13916	0	816
21.709	5.698	20613	14028	0	816
21.529	5.229	20596	14161	0	816
20.087	7.717	20573	14262	0	816
21.998	9.016	20539	14299	0	816
26.974	9.304	20471	14223	0	816
26.722	7.501	20394	14082	0	816
22.539	3.462	20336	13992	0	816
16.985	-0.216	20275	13983	0	816
9.917	-4.364	20218	14020	0	816
4.724	-7.681	20157	14082	0	816
7.681	-7.681	20090	14116	0	816
9.304	-7.429	20032	14124	0	816
12.153	-6.527	19971	14178	0	816
13.163	-4.652	19921	14321	0	816
14.136	-2.272	19897	14530	0	816
12.369	-2.633	19863	14753	0	816
12.622	-1.406	19819	14950	0	816
11.973	-1.082	19813	15158	0	816
10.855	-0.974	19802	15429	0	816
9.340	-2.164	19813	15739	0	816
10.061	-2.236	19813	16035	0	816
11.035	-1.442	19813	16252	0	816
12.477	-0.505	19779	16331	0	816
15.795	1.947	19745	16325	0	816
17.706	5.193	19735	16384	0	816
21.168	7.393	19728	16536	0	816
21.890	8.078	19735	16699	0	816
22.503	7.681	19735	16843	0	816
23.044	6.239	19762	16992	0	816
21.457	4.472	19762	17147	0	816
23.044	5.373	19796	17325	0	816
23.224	5.626	19836	17567	0	816
20.267	6.058	19904	17852	0	816
18.247	5.950	19948	18055	0	816
12.441	2.669	19965	18106	0	816
10.819	0.829	19988	18046	0	816
9.881	-1.767	20005	17953	0	816
9.989	-2.524	19998	17824	0	816
11.720	-3.714	19965	17573	0	816
13.595	-2.164	19921	17209	0	816
12.369	-2.308	19880	16868	0	816
14.028	-2.380	19829	16601	0	816
14.894	-1.334	19802	16389	0	816
15.579	0.613	19769	16269	0	816
17.923	2.741	19762	16215	0	816
19.473	3.462	19735	16162	0	816
22.719	5.013	19718	16089	0	816
25.496	4.508	19684	16032	0	816
27.119	7.176	19677	16001	0	816
28.309	10.386	19650	15984	0	816
27.263	12.550	19634	15956	0	816
24.414	10.530	19617	15919	0	816
20.231	10.061	19576	15860	0	816
21.241	5.409	19532	15728	0	816
19.149	5.590	19481	15536	0	816
21.313	5.986	19414	15353	0	816
25.748	7.862	19356	15215	0	816
27.155	10.458	19296	15111	0	816
27.119	12.045	19228	15006	0	816
24.378	12.297	19161	14896	0	816
21.421	11.360	19093	14820	0	816
18.247	8.186	19036	14806	0	816
22.106	6.744	18992	14843	0	816
26.217	7.934	18941	14888	0	816
30.472	6.996	18884	14916	0	816
30.761	5.337	18840	14950	0	816
28.922	3.173	18782	15009	0	816
25.676	2.164	18748	15099	0	816
24.811	5.409	18698	15204	0	816
27.948	9.989	18654	15282	0	816
34.403	18.608	18596	15330	0	816
41.003	22.358	18563	15378	0	816
46.376	27.119	18512	15432	0	816
50.739	28.453	18468	15497	0	816
55.788	31.049	18434	15607	0	816
59.430	32.059	18394	15714	0	816
63.758	33.141	18333	15705	0	816
67.292	35.413	18248	15570	0	816
70.177	38.514	18164	15390	0	816
70.537	39.849	18073	15243	0	816
71.439	41.688	18005	15173	0	816
70.393	41.832	17938	15173	0	816
66.895	42.445	17860	15192	0	816
65.597	45.150	17802	15198	0	816
66.823	49.549	17725	15226	0	816
71.511	55.499	17674	15294	0	816
77.605	58.420	17617	15378	0	816
81.356	58.312	17556	15452	0	816
82.113	59.286	17498	15494	0	816
82.438	56.257	17431	15511	0	816
82.762	55.572	17370	15530	0	816
82.474	57.735	17319	15584	0	816
87.198	59.106	17262	15655	0	816
90.263	63.361	17201	15697	0	816
93.797	65.417	17144	15717	0	816
91.814	66.534	17076	15731	0	816
88.677	63.253	17009	15728	0	816
83.159	60.476	16948	15711	0	816
83.015	58.709	16880	15702	0	816
85.611	58.601	16813	15686	0	816
90.732	56.978	16728	15646	0	816
88.352	53.336	16654	15578	0	816
80.166	43.815	16586	15516	0	816
68.085	35.593	16509	15511	0	816
58.817	27.335	16451	15567	0	816
55.247	25.063	16390	15643	0	816
57.663	26.794	16334	15686	0	816
62.171	29.391	16266	15691	0	816
63.541	31.230	16209	15722	0	816
61.630	28.597	16158	15815	0	816
58.781	25.424	16124	15962	0	816
53.083	23.224	16097	16114	0	816
52.975	24.234	16047	16215	0	816
54.959	26.686	16013	16277	0	816
57.916	31.049	15972	16337	0	816
62.459	36.242	15928	16409	0	816
65.344	37.000	15905	16482	0	816
66.138	39.308	15854	16505	0	816
64.226	40.858	15820	16479	0	816
61.738	41.147	15759	16417	0	816
61.017	40.966	15685	16300	0	816
62.568	45.691	15618	16148	0	816
64.010	45.799	15550	16029	0	816
64.154	44.573	15489	15973	0	816
61.378	39.849	15439	15973	0	816
56.329	33.826	15398	16018	0	816
49.333	27.155	15354	16083	0	816
45.041	22.431	15320	16153	0	816
41.111	21.277	15280	16227	0	816
38.118	17.706	15253	16283	0	816
36.891	16.552	15212	16314	0	816
36.098	13.163	15168	16322	0	816
35.990	11.035	15128	16320	0	816
33.646	7.537	15084	16303	0	816
32.708	4.111	15016	16207	0	816
31.410	2.633	14949	16035	0	816
32.961	1.983	14881	15914	0	816
34.764	4.904	14841	15900	0	816
34.728	8.258	14797	15942	0	816
33.718	13.127	14756	16015	0	816
30.797	13.812	14739	16117	0	816
32.276	17.346	14712	16229	0	816
38.875	17.779	14689	16353	0	816
48.539	22.034	14689	16482	0	816
54.995	24.702	14678	16615	0	816
57.411	27.696	14672	16753	0	816
53.949	30.797	14689	16919	0	816
52.074	32.492	14712	17142	0	816
50.379	34.223	14763	17432	0	816
52.723	33.213	14807	17728	0	816
52.038	31.158	14857	17970	0	816
49.549	25.965	14925	18210	0	816
43.274	21.421	14999	18480	0	816
37.144	19.149	15094	18774	0	816
32.600	14.497	15185	19055	0	816
30.833	13.163	15287	19318	0	816
31.049	8.583	15405	19585	0	816
32.348	5.554	15540	19890	0	816
31.302	0.974	15702	20231	0	816
31.374	-0.865	15861	20569	0	816
32.023	-1.695	16030	20856	0	816
29.968	0.433	16209	21099	0	816
30.617	4.003	16384	21321	0	816
29.174	7.465	16569	21522	0	816
28.597	11.864	16762	21691	0	816
31.446	13.343	16965	21823	0	816
35.701	17.129	17167	21930	0	816
38.658	18.103	17380	22018	0	816
39.812	21.313	17573	22037	0	816
38.803	22.575	17775	21978	0	816
38.875	26.217	17971	21894	0	816
40.353	29.246	18181	21818	0	816
43.238	30.617	18394	21756	0	816
44.356	31.554	18603	21682	1	856
42.481	30.653	18799	21567	0	856
36.855	28.958	19019	21423	0	856
34.151	27.587	19228	21279	0	856
32.997	27.768	19441	21133	0	856
34.764	27.732	19634	20947	0	856
38.550	26.650	19829	20687	0	856
39.416	23.837	19998	20358	0	856
36.891	18.824	20157	20000	0	856
31.518	11.035	20319	19644	0	856
24.414	5.662	20471	19312	0	856
22.178	1.154	20630	18985	0	856
20.050	1.839	20765	18647	0	856
23.549	5.878	20900	18249	0	856
28.056	10.314	20985	17759	0	856
31.482	12.477	21063	17204	0	856
34.259	14.497	21130	16671	0	856
36.819	15.831	21198	16215	0	856
36.855	15.218	21255	15821	0	856
37.036	18.247	21306	15429	0	856
35.088	17.815	21333	15009	0	856
34.006	17.706	21367	14620	0	856
32.348	15.038	21384	14310	0	856
33.033	17.021	21417	14071	0	856
35.124	18.752	21441	13862	0	856
37.577	24.198	21441	13648	0	856
41.075	26.974	21441	13450	0	856
44.248	28.237	21451	13298	0	856
45.727	26.433	21468	13208	0	856
44.573	23.512	21458	13163	0	856
41.760	18.824	21451	13121	0	856
35.701	16.012	21441	13067	0	856
30.725	9.556	21424	13025	0	856
26.073	3.714	21400	13002	0	856
22.683	-1.623	21390	13011	0	856
22.972	-2.633	21373	13064	0	856
22.286	-1.010	21356	13140	0	856
24.991	3.606	21316	13163	0	856
28.453	7.501	21272	13129	0	856
28.561	8.294	21215	13076	0	856
30.148	6.635	21154	13033	0	856
31.049	4.147	21096	13019	0	856
31.771	4.183	21029	13039	0	856
34.079	5.770	20961	13067	0	856
36.567	10.602	20894	13084	0	856
36.964	14.497	20826	13124	0	856
38.190	17.093	20748	13197	0	856
40.786	20.267	20691	13270	0	856
42.770	22.250	20606	13335	0	856
47.818	27.840	20539	13405	0	856
51.424	32.312	20471	13507	0	856
50.884	34.403	20394	13651	0	856
49.513	34.403	20326	13789	0	856
44.068	30.076	20252	13907	0	856
40.029	25.135	20191	14020	0	856
34.908	20.267	20100	14093	0	856
31.843	18.716	20015	14141	0	856
29.607	16.192	19948	14257	0	856
24.883	15.362	19897	14471	0	856
22.539	11.360	19853	14741	0	856
21.854	9.016	19819	15054	0	856
20.447	5.842	19802	15373	0	856
20.952	2.488	19769	15632	0	856
18.175	1.875	19745	15824	0	856
15.903	-0.649	19718	16021	0	856
10.927	-2.272	19711	16275	0	856
10.458	-3.462	19711	16567	0	856
11.864	-1.406	19718	16846	0	856
13.127	0.361	19711	17060	0	856
17.166	3.787	19718	17223	0	856
18.283	5.590	19718	17367	0	856
21.277	7.176	19745	17536	0	856
20.483	6.924	19752	17725	0	856
22.395	7.681	19769	17829	0	856
21.060	9.809	19735	17750	0	856
21.601	12.153	19711	17567	0	856
24.378	16.589	19684	17443	0	856
27.840	19.834	19684	17404	0	856
31.843	22.647	19677	17370	0	856
33.502	22.431	19650	17311	0	856
32.708	22.539	19634	17221	0	856
28.669	18.680	19610	17108	0	856
22.395	16.661	19593	17012	0	856
14.533	11.540	19576	16936	0	856
9.052	8.114	19549	16871	0	856
4.544	2.849	19542	16818	0	856
-0.469	-3.642	19515	16733	0	856
-4.940	-8.655	19481	16615	0	856
-11.107	-13.956	19465	16544	0	856
-18.933	-18.392	19458	16541	0	856
-20.664	-18.716	19448	16547	0	856
-22.178	-18.572	19431	16516	0	856
-18.031	-17.346	19407	16443	0	856
-16.949	-18.356	19380	16353	0	856
-12.946	-18.175	19363	16294	0	856
-13.631	-18.536	19346	16303	0	856
-13.451	-16.805	19340	16351	0	856
-12.982	-13.631	19329	16384	0	856
-12.261	-8.943	19329	16406	0	856
-9.701	-8.150	19323	16423	0	856
-7.176	-6.455	19313	16429	0	856
-5.013	-5.986	19306	16420	0	856
-0.902	-3.462	19289	16384	0	856
4.291	-0.902	19262	16320	0	856
8.258	1.370	19238	16235	0	856
11.720	-0.216	19194	16131	0	856
8.150	-3.678	19144	15970	0	856
2.885	-7.573	19059	15680	0	856
-4.508	-12.117	18968	15302	0	856
-11.720	-17.129	18873	14987	0	856
-15.398	-19.762	18789	14770	0	856
-21.132	-23.260	18688	14589	0	856
-24.414	-27.443	18613	14459	0	856
-25.352	-28.741	18536	14409	0	856
-27.119	-31.662	18468	14420	0	856
-27.407	-33.790	18394	14437	0	856
-24.125	-34.800	18309	14412	0	856
-25.965	-33.285	18215	14299	0	856
-25.316	-32.564	18106	14158	0	856
-24.919	-29.715	18022	14121	0	856
-24.450	-26.361	17944	14209	0	856
-23.837	-22.503	17870	14316	0	856
-23.152	-17.923	17792	14403	0	856
-17.634	-16.625	17725	14493	0	856
-17.274	-12.946	17657	14592	0	856
-15.182	-13.884	17583	14710	0	856
-12.333	-11.576	17515	14843	0	856
-12.874	-8.979	17454	14970	0	856
-10.097	-5.770	17387	15080	0	856
-9.701	-4.616	17313	15139	0	856
-5.698	-3.714	17235	15144	0	856
-5.950	-6.419	17134	15105	0	856
-6.780	-8.150	17025	14978	0	856
-10.422	-10.242	16897	14815	0	856
-18.500	-14.858	16806	14739	0	856
-25.748	-20.988	16694	14744	0	856
-34.944	-28.525	16610	14786	0	856
-39.812	-34.259	16536	14891	0	856
-41.291	-36.062	16475	15071	0	856
-41.832	-36.964	16417	15302	0	856
-43.707	-35.521	16368	15525	0	856
-44.140	-36.819	16317	15717	0	856
-45.835	-35.990	16283	15900	0	856
-43.743	-36.098	16243	16105	0	856
-42.661	-33.718	16216	16331	0	856
-37.144	-32.600	16192	16522	0	856
-33.934	-31.338	16158	16665	0	856
-31.013	-30.184	16114	16761	0	856
-29.318	-30.076	16074	16772	0	856
-27.335	-27.912	16023	16741	0	856
-27.515	-26.109	15989	16801	0	856
-27.948	-23.729	15979	16961	0	856
-25.893	-18.139	15955	17105	0	856
-20.808	-14.894	15928	17150	0	856
-15.471	-9.989	15888	17102	0	856
-7.248	-5.337	15854	17020	0	856
-2.993	-1.947	15793	16947	0	856
-0.793	-1.190	15759	16885	0	856
-0.757	-2.416	15709	16806	0	856
-3.318	-4.868	15651	16699	0	856
-7.248	-9.989	15607	16598	0	856
-13.163	-12.261	15557	16516	0	856
-21.132	-20.339	15506	16417	0	856
-28.814	-24.486	15449	16294	0	856
-35.124	-32.636	15388	16190	0	856
-35.774	-36.783	15337	16134	0	856
-33.466	-37.072	15297	16114	0	856
-30.112	-36.134	15253	16139	0	856
-26.686	-34.944	15229	16193	0	856
-24.955	-34.511	15185	16232	0	856
-25.424	-35.305	15151	16252	0	856
-26.686	-34.692	15128	16258	0	856
-26.325	-34.223	15077	16232	0	856
-23.549	-31.735	15026	16170	0	856
-21.962	-28.092	14982	16105	0	856
-17.995	-23.044	14932	16077	0	856
-11.179	-15.903	14898	16083	0	856
-5.301	-11.576	14847	16069	0	856
2.633	-4.616	14807	16018	0	856
12.297	-1.695	14773	16001	0	856
18.608	2.128	14722	16038	0	856
25.604	6.924	14695	16091	0	856
26.145	11.143	14672	16145	0	856
24.378	12.802	14655	16207	0	856
22.178	9.016	14628	16297	0	856
17.346	5.986	14621	16443	0	856
18.716	2.596	14645	16671	0	856
21.024	1.551	14689	16981	0	856
24.053	4.868	14746	17353	0	856
25.568	6.708	14807	17756	0	856
22.503	7.429	14898	18145	0	856
18.572	3.318	14976	18495	0	856
13.812	1.839	15084	18833	0	856
12.514	1.587	15185	19163	0	856
10.819	4.364	15314	19481	0	856
13.704	6.563	15439	19780	0	856
17.851	9.773	15574	20073	0	856
19.690	11.179	15726	20386	0	856
23.693	10.710	15895	20744	0	856
27.407	15.579	16091	21107	0	856
31.338	18.860	16283	21429	0	856
34.583	24.270	16475	21696	0	856
38.803	27.876	16677	21908	0	856
42.481	31.013	16890	22071	0	856
45.366	35.377	17083	22184	0	856
46.664	37.036	17269	22167	0	856
47.746	39.885	17448	22001	0	856
46.917	40.786	17600	21767	0	856
44.140	38.875	17742	21465	0	856
41.760	33.429	17877	21076	1	836
36.855	27.948	18005	20682	0	836
36.639	21.890	18140	20358	0	836
34.006	17.743	18292	20124	0	836
32.131	14.100	18451	19974	0	836
31.230	12.153	18613	19833	0	836
27.732	10.819	18748	19619	0	836
23.368	9.124	18900	19349	0	836
22.755	9.088	19019	19055	0	836
22.791	10.278	19120	18695	0	836
23.224	11.251	19211	18272	0	836
25.279	11.396	19313	17894	0	836
23.981	12.730	19414	17595	0	836
22.539	11.648	19515	17373	0	836
23.476	11.720	19627	17226	0	836
20.483	12.405	19752	17128	0	836
22.755	14.281	19853	17037	0	836
25.784	17.670	19971	16936	0	836
28.994	20.339	20083	16851	0	836
32.816	22.935	20201	16801	0	836
34.656	24.017	20326	16781	0	836
33.033	24.162	20438	16772	0	836
27.876	23.404	20546	16733	0	836
23.152	20.447	20647	16668	0	836
16.913	17.129	20759	16601	0	836
15.218	12.297	20843	16530	0	836
10.674	8.691	20934	16431	0	836
9.052	5.157	21012	16297	0	836
4.472	1.839	21079	16134	0	836
-1.262	-3.462	21130	15956	0	836
-7.862	-7.970	21181	15759	0	836
-13.668	-13.127	21215	15539	0	836
-19.834	-18.897	21238	15299	0	836
-21.781	-19.185	21255	15063	0	836
-21.529	-21.132	21272	14860	0	836
-22.178	-20.988	21272	14668	0	836
-18.283	-17.598	21265	14445	0	836
-17.815	-16.769	21248	14214	0	836
-12.838	-14.245	21221	13986	0	836
-11.251	-12.802	21188	13775	0	836
-10.602	-11.612	21154	13591	0	836
-10.530	-9.737	21103	13431	0	836
-13.091	-5.734	21063	13295	0	836
-12.405	-2.200	21029	13219	0	836
-8.655	0.974	20985	13225	0	836
-2.272	3.534	20951	13284	0	836
1.983	6.167	20917	13343	0	836
8.330	9.124	20884	13386	0	836
12.261	13.163	20833	13425	0	836
11.792	14.208	20792	13476	0	836
7.321	13.487	20759	13563	0	836
1.911	6.924	20731	13744	0	836
-7.862	-0.397	20725	14017	0	836
-16.877	-8.511	20691	14228	0	836
-23.693	-17.202	20647	14288	0	836
-32.095	-23.332	20590	14273	0	836
-36.278	-28.092	20539	14288	0	836
-38.370	-31.699	20495	14352	0	836
-38.478	-32.312	20444	14462	0	836
-34.980	-30.869	20404	14575	0	836
-32.961	-28.561	20343	14657	0	836
-31.482	-27.515	20292	14705	0	836
-30.869	-27.948	20225	14696	0	836
-31.807	-30.581	20157	14676	0	836
-32.312	-32.384	20100	14739	0	836
-30.761	-28.777	20073	14874	0	836
-25.640	-22.755	20022	15037	0	836
-19.906	-15.471	19998	15243	0	836
-13.595	-11.576	19988	15508	0	836
-8.655	-9.629	19971	15748	0	836
-3.318	-9.484	19914	15815	0	836
0.000	-7.140	19853	15742	0	836
3.210	-4.364	19819	15717	0	836
3.967	-1.911	19779	15801	0	836
1.803	-0.757	19762	15945	0	836
-0.721	-1.551	19735	16114	0	836
-2.236	-2.452	19735	16303	0	836
-4.436	-3.787	19718	16488	0	836
-6.203	-6.960	19718	16640	0	836
-9.520	-11.864	19701	16750	0	836
-15.110	-16.552	19711	16868	0	836
-17.743	-19.113	19701	16989	0	836
-21.781	-22.755	19711	17077	0	836
-21.926	-23.837	19694	17133	0	836
-23.008	-23.260	19694	17161	0	836
-24.811	-24.594	19694	17161	0	836
-21.132	-22.070	19684	17164	0	836
-21.060	-19.113	19694	17201	0	836
-17.743	-18.969	19684	17252	0	836
-17.562	-17.021	19684	17249	0	836
-17.815	-18.067	19650	17122	0	836
-20.050	-16.552	19610	16888	0	836
-17.093	-15.903	19583	16677	0	836
-13.631	-13.054	19532	16547	0	836
-7.825	-9.520	19509	16440	0	836
-4.255	-7.609	19475	16334	0	836
0.541	-4.183	19431	16224	0	836
2.885	-1.623	19390	16108	0	836
5.445	0.902	19340	15970	0	836
7.789	2.092	19289	15818	0	836
7.970	2.344	19238	15683	0	836
5.409	1.551	19188	15593	0	836
3.390	-1.587	19127	15505	0	836
0.252	-3.931	19059	15387	0	836
-2.380	-8.583	18985	15251	0	836
-3.101	-10.891	18934	15130	0	836
-4.183	-13.595	18856	15046	0	836
-6.599	-14.966	18799	14998	0	836
-7.789	-14.028	18721	14953	0	836
-9.088	-15.074	18664	14899	0	836
-10.278	-12.730	18579	14865	0	836
-9.340	-13.992	18529	14882	0	836
-7.537	-13.631	18468	14930	0	836
-5.337	-11.756	18400	14953	0	836
-4.580	-12.153	18326	14939	0	836
-2.092	-9.520	18248	14899	0	836
1.226	-5.301	18164	14846	0	836
4.183	-1.334	18090	14803	0	836
9.737	2.560	18012	14781	0	836
11.792	5.806	17921	14764	0	836
11.937	6.131	17836	14730	0	836
10.494	4.832	17725	14643	0	836
13.163	5.517	17623	14538	0	836
15.939	7.285	17532	14519	0	836
21.962	10.674	17448	14589	0	836
24.125	14.425	17370	14674	0	836
23.008	13.163	17286	14733	0	836
19.618	13.595	17194	14750	0	836
13.451	10.494	17100	14753	0	836
12.802	9.088	17009	14792	0	836
13.054	7.393	16941	14896	0	836
13.451	5.517	16856	15015	0	836
12.514	-0.108	16779	15091	0	836
7.537	-5.626	16688	15142	0	836
0.361	-9.592	16620	15204	0	836
-6.131	-13.704	16552	15302	0	836
-8.114	-15.867	16485	15421	0	836
-6.635	-12.946	16407	15516	0	836
-1.406	-10.602	16334	15593	0	836
0.577	-6.852	16266	15663	0	836
5.914	-3.426	16199	15722	0	836
8.402	-2.957	16131	15764	0	836
9.448	-3.426	16074	15843	0	836
10.783	-2.885	16023	16007	0	836
11.143	-2.633	15979	16165	0	836
11.143	0.000	15912	16229	0	836
12.658	2.813	15854	16224	0	836
21.385	6.708	15787	16221	0	836
28.092	11.576	15736	16263	0	836
34.872	14.821	15685	16317	0	836
38.298	17.454	15618	16320	0	836
39.488	18.139	15540	16255	0	836
39.849	18.139	15466	16167	0	836
41.868	20.591	15398	16097	0	836
45.546	22.539	15337	16066	0	836
49.116	22.827	15270	16072	0	836
50.451	23.512	15202	16063	0	836
54.850	23.296	15128	16035	0	836
57.735	24.666	15067	15996	0	836
63.433	29.607	14993	15950	0	836
69.275	34.511	14932	15914	0	836
71.259	39.019	14857	15886	0	836
72.268	39.668	14790	15872	0	836
70.898	37.577	14712	15846	0	836
69.095	36.098	14621	15753	0	836
70.934	36.387	14537	15615	0	836
75.045	38.298	14452	15522	0	836
80.599	41.111	14374	15494	0	836
84.674	42.878	14307	15508	0	836
86.801	43.851	14239	15559	0	836
85.070	45.438	14172	15618	0	836
84.529	46.700	14121	15671	0	836
83.628	51.497	14064	15756	0	836
85.864	53.552	14013	15877	0	836
89.470	57.050	13969	15990	0	836
89.939	55.716	13912	16058	0	836
88.532	55.355	13868	16103	0	836
82.474	51.388	13827	16153	0	836
77.533	49.549	13776	16224	0	836
72.809	46.412	13732	16300	0	836
71.186	43.887	13692	16345	0	836
70.609	40.281	13648	16365	0	836
71.836	37.072	13597	16384	0	836
70.249	35.521	13564	16412	0	836
72.304	35.774	13530	16479	0	836
69.492	34.980	13523	16623	0	836
66.246	31.013	13506	16784	0	836
61.486	27.732	13462	16818	0	836
53.841	24.486	13412	16716	0	836
51.136	23.621	13354	16570	0	836
49.549	26.866	13310	16462	0	836
51.388	30.436	13253	16398	0	836
52.578	31.194	13192	16308	0	836
55.247	30.797	13118	16165	0	836
53.444	28.345	13084	16074	0	836
52.651	26.578	13050	16145	0	836
49.044	28.128	13057	16373	0	836
48.539	32.203	13074	16699	0	836
47.999	34.115	13124	17085	0	836
46.376	36.387	13185	17488	0	836
46.953	35.124	13259	17911	0	836
43.202	32.456	13361	18368	0	836
40.750	28.417	13472	18847	0	836
37.468	24.522	13597	19306	0	836
32.420	20.483	13732	19732	0	836
27.948	13.343	13884	20191	0	836
22.575	11.251	14064	20676	0	836
21.601	8.366	14239	21107	0	836
22.286	8.727	14435	21477	0	836
24.955	11.684	14645	21832	0	836
27.551	13.379	14857	22175	0	836
27.660	11.504	15067	22466	0	836
23.945	11.468	15280	22669	0	836
21.060	9.629	15516	22801	0	836
19.654	10.422	15736	22922	0	836
19.437	14.677	15979	23072	0	836
25.243	18.175	16243	23218	0	836
29.391	18.175	16492	23309	0	836
30.436	17.779	16738	23306	0	836
28.669	14.858	16981	23252	0	836
26.902	14.100	17245	23201	0	836
24.955	11.179	17505	23151	0	836
23.260	11.720	17769	23061	1	888
20.916	10.855	18005	22877	0	888
17.310	8.511	18242	22624	0	888
11.937	7.176	18478	22347	0	888
8.475	6.852	18704	22054	0	888
8.330	5.698	18934	21719	0	888
9.701	4.039	19127	21313	0	888
8.799	0.108	19313	20834	0	888
6.058	-3.570	19475	20293	0	888
1.046	-5.950	19610	19678	0	888
-5.013	-7.465	19745	19013	0	888
-9.556	-7.645	19853	18382	0	888
-9.376	-8.366	19965	17824	0	888
-5.193	-10.242	20083	17336	0	888
-0.505	-9.917	20184	16896	0	888
3.462	-6.744	20286	16488	0	888
5.265	-4.940	20377	16125	0	888
2.669	-3.065	20478	15810	0	888
-0.577	-3.282	20563	15505	0	888
-1.875	-1.803	20623	15192	0	888
1.154	3.065	20691	14863	0	888
4.039	7.862	20731	14533	0	888
7.970	13.451	20782	14242	0	888
10.963	17.093	20826	14023	0	888
14.894	16.084	20867	13853	0	888
15.651	16.516	20894	13667	0	888
15.146	14.317	20900	13450	0	888
10.963	13.956	20900	13228	0	888
6.311	13.523	20900	13025	0	888
1.118	11.792	20884	12844	0	888
-2.488	9.304	20850	12687	0	888
-7.429	3.750	20843	12551	0	888
-14.605	-3.354	20792	12433	0	888
-19.185	-10.314	20742	12295	0	888
-23.224	-18.103	20681	12137	0	888
-22.935	-20.123	20623	12002	0	888
-22.972	-24.630	20546	11906	0	888
-24.089	-23.260	20478	11850	0	888
-26.073	-23.008	20394	11821	0	888
-26.289	-22.935	20309	11804	0	888
-24.017	-22.106	20242	11835	0	888
-21.024	-22.214	20174	11965	0	888
-13.776	-19.906	20123	12199	0	888
-8.979	-15.975	20083	12492	0	888
-7.068	-12.730	20039	12782	0	888
-5.373	-9.484	19998	13042	0	888
-5.770	-5.806	19948	13273	0	888
-4.183	-3.246	19904	13507	0	888
-0.072	-0.036	19863	13763	0	888
5.698	6.058	19829	14023	0	888
11.684	11.648	19786	14273	0	888
15.543	16.192	19762	14527	0	888
20.231	20.231	19728	14778	0	888
22.431	21.060	19711	15020	0	888
24.053	20.267	19677	15251	0	888
20.700	18.680	19661	15483	0	888
17.743	16.228	19644	15694	0	888
10.242	13.487	19600	15826	0	888
6.311	11.323	19566	15883	0	888
0.685	4.436	19532	15939	0	888
-3.318	-2.777	19498	16046	0	888
-8.150	-10.638	19481	16187	0	888
-13.235	-18.464	19465	16325	0	888
-19.726	-25.820	19441	16420	0	888
-22.972	-30.112	19424	16513	0	888
-26.325	-30.905	19397	16589	0	888
-28.128	-31.013	19346	16558	0	888
-28.705	-28.597	19296	16423	0	888
-27.407	-26.361	19228	16260	0	888
-26.073	-25.027	19154	16052	0	888
-25.063	-22.755	19076	15824	0	888
-23.008	-19.942	19009	15705	0	888
-19.726	-15.651	18958	15725	0	888
-18.320	-11.576	18924	15790	0	888
-12.802	-6.744	18890	15869	0	888
-7.934	-1.875	18856	15970	0	888
-1.010	1.551	18833	16069	0	888
3.426	5.265	18799	16159	0	888
5.590	6.852	18789	16266	0	888
4.616	7.068	18772	16406	0	888
2.164	8.835	18782	16578	0	888
0.721	11.648	18772	16727	0	888
2.272	12.441	18772	16820	0	888
5.229	11.504	18755	16882	0	888
6.239	9.088	18748	16919	0	888
2.416	3.895	18715	16854	0	888
-5.013	-5.157	18664	16674	0	888
-12.225	-14.172	18620	16477	0	888
-20.916	-21.637	18569	16342	0	888
-23.801	-26.397	18519	16269	0	888
-25.568	-27.191	18495	16255	0	888
-25.568	-26.722	18478	16280	0	888
-24.306	-26.001	18444	16289	0	888
-25.243	-27.299	18411	16249	0	888
-25.099	-26.938	18367	16170	0	888
-24.486	-25.135	18326	16094	0	888
-23.765	-24.414	18282	16038	0	888
-24.125	-22.575	18242	15987	0	888
-21.565	-20.159	18198	15942	0	888
-17.490	-17.706	18147	15888	0	888
-11.756	-11.612	18079	15762	0	888
-0.902	-3.498	18005	15573	0	888
8.979	1.082	17927	15390	0	888
12.333	4.364	17836	15195	0	888
16.408	8.114	17752	14987	0	888
13.992	10.566	17650	14815	0	888
14.966	12.766	17556	14696	0	888
16.625	19.005	17471	14623	0	888
22.683	20.483	17404	14614	0	888
25.424	22.972	17336	14685	0	888
28.237	21.998	17286	14820	0	888
27.515	19.329	17235	14964	0	888
24.522	16.156	17184	15094	0	888
18.103	11.107	17134	15215	0	888
12.477	4.472	17083	15339	0	888
4.291	-1.695	17042	15471	0	888
-4.580	-7.825	17009	15607	0	888
-10.746	-13.451	16965	15733	0	888
-12.514	-15.146	16924	15810	0	888
-13.199	-16.156	16846	15784	0	888
-9.989	-12.009	16779	15697	0	888
-6.527	-11.396	16694	15607	0	888
-2.921	-9.304	16620	15533	0	888
-0.433	-7.645	16536	15457	0	888
1.046	-7.212	16451	15373	0	888
1.370	-6.491	16368	15311	0	888
5.121	-2.885	16300	15311	0	888
8.619	1.479	16232	15381	0	888
13.812	6.744	16182	15471	0	888
19.437	9.629	16124	15528	0	888
23.693	13.920	16047	15539	0	888
26.506	14.894	15962	15519	0	888
29.391	19.582	15895	15488	0	888
31.482	21.745	15803	15423	0	888
32.456	25.460	15719	15339	0	888
30.941	25.099	15634	15280	0	888
28.345	19.654	15557	15282	0	888
23.657	15.002	15482	15339	0	888
16.733	9.881	15422	15421	0	888
12.081	8.078	15354	15508	0	888
8.871	8.691	15287	15567	0	888
9.088	9.016	15212	15570	0	888
9.448	7.717	15118	15460	0	888
9.412	6.599	14993	15235	0	888
7.212	3.462	14881	15040	0	888
6.203	5.121	14797	15032	0	888
4.760	6.275	14739	15167	0	888
3.498	7.140	14662	15319	0	888
2.596	5.554	14604	15421	0	888
1.515	4.977	14526	15494	0	888
2.056	4.868	14469	15601	0	888
2.741	8.042	14425	15750	0	888
4.400	12.117	14374	15897	0	888
6.888	13.054	14334	16029	0	888
6.708	13.235	14283	16156	0	888
7.898	12.477	14232	16266	0	888
9.016	12.189	14205	16379	0	888
10.133	16.661	14182	16524	0	888
11.287	19.798	14155	16710	0	888
12.514	23.549	14148	16902	0	888
12.730	24.378	14148	17071	0	888
11.864	22.863	14121	17198	0	888
10.783	22.286	14114	17271	0	888
8.402	18.320	14097	17305	0	888
5.301	17.743	14064	17300	0	888
2.056	13.740	14037	17238	0	888
-0.685	11.287	13979	17113	0	888
-2.452	8.114	13928	16922	0	888
-2.524	7.717	13851	16710	0	888
-3.210	7.970	13817	16578	0	888
-4.039	9.268	13783	16561	0	888
-7.429	8.222	13749	16578	0	888
-8.835	5.373	13699	16536	0	888
-8.547	4.147	13648	16423	0	888
-8.655	3.065	13597	16300	0	888
-7.753	1.911	13557	16229	0	888
-6.599	5.662	13523	16210	0	888
-6.347	8.402	13472	16179	0	888
-7.248	9.592	13422	16097	0	888
-8.258	8.871	13361	15998	0	888
-11.396	7.248	13310	15925	0	888
-13.704	3.714	13270	15897	0	888
-14.677	1.695	13226	15917	0	888
-11.179	3.173	13192	15965	0	888
-6.563	7.537	13158	16007	0	888
-4.003	8.439	13118	16012	0	888
-4.183	9.412	13084	16004	0	888
-5.842	8.943	13050	16038	0	888
-7.789	6.239	13033	16122	0	888
-7.753	4.544	13016	16258	0	888
-3.534	6.347	13023	16437	0	888
1.298	8.475	13023	16634	0	888
7.248	13.054	13040	16795	0	888
11.756	14.605	13016	16865	0	888
12.550	14.497	13023	16899	0	888
10.566	16.372	13040	17049	0	888
10.025	14.317	13091	17336	0	888
6.347	15.903	13158	17688	0	888
7.573	15.543	13259	18128	0	888
8.258	16.408	13395	18678	0	888
7.465	13.668	13557	19301	0	888
6.094	13.054	13743	19955	0	888
3.678	13.054	13928	20589	0	888
2.596	11.468	14155	21183	0	888
4.219	11.432	14384	21750	0	888
4.940	12.586	14628	22285	0	888
3.931	9.629	14881	22770	0	888
0.721	8.979	15151	23176	0	888
-4.472	8.042	15415	23506	0	888
-9.232	8.330	15668	23757	0	888
-12.586	9.917	15928	23886	0	888
-11.179	9.881	16175	23900	0	888
-13.740	8.943	16417	23858	0	888
-16.589	3.065	16671	23765	0	888
-17.670	-1.226	16914	23633	0	888
-19.762	-5.013	17167	23495	0	888
-21.132	-6.996	17414	23331	1	864
-21.457	-8.294	17667	23148	0	864
-25.243	-7.862	17911	22967	0	864
-31.807	-7.898	18164	22759	0	864
-36.098	-8.258	18394	22460	0	864
-40.498	-10.133	18613	22049	0	864
-43.419	-13.704	18806	21567	0	864
-47.025	-17.238	18992	21062	0	864
-48.864	-18.824	19161	20524	0	864
-52.398	-17.526	19313	19946	0	864
-51.244	-17.382	19465	19380	0	864
-53.588	-17.021	19600	18861	0	864
-55.175	-19.978	19745	18362	0	864
-62.279	-24.306	19853	17863	0	864
-65.200	-27.227	19971	17370	0	864
-68.265	-29.066	20073	16868	0	864
-69.239	-29.931	20150	16351	0	864
-69.852	-31.662	20201	15807	0	864
-72.052	-32.023	20242	15237	0	864
-74.612	-32.744	20269	14679	0	864
-75.153	-33.466	20292	14195	0	864
-76.343	-33.033	20309	13806	0	864
-75.838	-31.590	20336	13507	0	864
-75.983	-30.905	20353	13264	0	864
-77.353	-30.833	20370	13036	0	864
-77.281	-32.203	20370	12828	0	864
-75.334	-32.348	20370	12667	0	864
-75.442	-30.508	20377	12568	0	864
-75.766	-30.472	20360	12503	0	864
-77.497	-30.581	20353	12433	0	864
-83.123	-35.305	20336	12371	0	864
-86.837	-41.147	20326	12354	0	864
-91.814	-45.835	20309	12391	0	864
-92.211	-47.782	20286	12464	0	864
-91.778	-49.369	20259	12520	0	864
-92.463	-47.890	20208	12498	0	864
-91.634	-51.677	20140	12388	0	864
-95.023	-52.723	20056	12239	0	864
-99.531	-55.932	19971	12109	0	864
-101.118	-54.309	19897	12052	0	864
-102.019	-55.139	19813	12081	0	864
-101.046	-51.352	19735	12148	0	864
-97.367	-50.667	19634	12179	0	864
-96.069	-48.395	19542	12171	0	864
-93.689	-48.900	19441	12193	0	864
-91.706	-48.539	19356	12303	0	864
-90.444	-45.222	19279	12492	0	864
-87.883	-42.661	19211	12732	0	864
-86.765	-40.101	19137	12977	0	864
-82.762	-36.819	19076	13236	0	864
-81.644	-35.629	19036	13549	0	864
-78.471	-34.079	19009	13927	0	864
-76.235	-34.006	18975	14333	0	864
-77.497	-33.033	18951	14719	0	864
-79.012	-35.882	18951	15088	0	864
-82.907	-39.488	18934	15460	0	864
-85.792	-44.392	18934	15841	0	864
-90.047	-45.871	18951	16213	0	864
-89.073	-50.343	18951	16522	0	864
-88.136	-50.234	18941	16750	0	864
-86.801	-49.080	18941	16896	0	864
-88.316	-50.307	18924	16987	0	864
-91.057	-49.044	18900	17057	0	864
-98.810	-52.867	18900	17133	0	864
-103.787	-56.690	18890	17223	0	864
-108.294	-62.892	18890	17328	0	864
-108.871	-68.157	18890	17398	0	864
-107.717	-70.646	18873	17412	0	864
-107.248	-70.970	18873	17393	0	864
-105.049	-71.331	18850	17350	0	864
-101.551	-68.121	18833	17288	0	864
-98.377	-64.876	18823	17246	0	864
-92.896	-62.279	18799	17215	0	864
-91.958	-60.620	18799	17175	0	864
-92.752	-59.358	18782	17144	0	864
-90.552	-57.555	18789	17150	0	864
-89.326	-54.706	18782	17164	0	864
-83.051	-51.172	18782	17147	0	864
-79.769	-46.159	18765	17099	0	864
-77.137	-42.661	18765	17032	0	864
-78.471	-42.229	18738	16947	0	864
-77.461	-42.734	18738	16854	0	864
-77.533	-44.861	18715	16741	0	864
-77.245	-47.458	18681	16615	0	864
-78.074	-50.920	18647	16465	0	864
-81.212	-55.031	18603	16286	0	864
-83.556	-58.384	18546	16077	0	864
-89.217	-62.351	18495	15886	0	864
-92.427	-67.941	18451	15728	0	864
-96.322	-69.095	18394	15607	0	864
-99.098	-69.203	18326	15463	0	864
-98.377	-69.419	18259	15271	0	864
-95.528	-68.301	18181	15096	0	864
-93.112	-68.049	18130	15001	0	864
-90.119	-67.905	18063	14967	0	864
-87.811	-68.157	18012	14950	0	864
-88.965	-68.229	17938	14910	0	864
-86.657	-65.092	17887	14857	0	864
-85.900	-60.296	17809	14832	0	864
-80.743	-55.752	17759	14848	0	864
-75.442	-50.126	17691	14899	0	864
-70.213	-47.205	17640	14941	0	864
-65.921	-44.356	17583	14970	0	864
-61.702	-43.599	17515	14967	0	864
-57.952	-39.704	17421	14899	0	864
-52.182	-37.216	17346	14812	0	864
-47.854	-35.954	17296	14846	0	864
-45.835	-34.764	17245	15012	0	864
-47.746	-35.629	17184	15153	0	864
-53.047	-37.396	17110	15175	0	864
-56.653	-41.580	17032	15113	0	864
-59.935	-45.258	16948	15034	0	864
-62.387	-49.297	16846	14953	0	864
-62.964	-53.660	16755	14834	0	864
-61.233	-53.696	16637	14679	0	864
-61.991	-55.608	16519	14530	0	864
-64.082	-57.591	16407	14434	0	864
-65.272	-59.070	16317	14406	0	864
-68.770	-61.594	16216	14445	0	864
-66.282	-61.630	16131	14547	0	864
-61.125	-58.132	16057	14688	0	864
-54.886	-54.201	15996	14846	0	864
-48.431	-49.657	15922	14995	0	864
-48.792	-48.287	15861	15133	0	864
-46.520	-47.566	15787	15271	0	864
-45.366	-46.700	15719	15398	0	864
-43.094	-45.294	15658	15502	0	864
-37.000	-41.904	15584	15567	0	864
-28.922	-38.983	15489	15547	0	864
-21.529	-35.521	15388	15454	0	864
-13.271	-31.699	15287	15342	0	864
-9.412	-27.227	15168	15237	0	864
-7.321	-24.955	15067	15158	0	864
-6.203	-22.178	14966	15125	0	864
-5.770	-19.834	14857	15099	0	864
-5.445	-21.781	14773	15096	0	864
-5.698	-23.260	14689	15150	0	864
-5.013	-26.722	14604	15243	0	864
-3.029	-30.725	14520	15325	0	864
-0.577	-32.312	14435	15367	0	864
1.118	-33.466	14351	15404	0	864
0.505	-35.197	14266	15471	0	864
0.252	-36.314	14205	15595	0	864
1.515	-37.144	14148	15753	0	864
6.455	-34.547	14080	15877	0	864
14.353	-28.201	14020	15956	0	864
22.719	-21.204	13952	16035	0	864
28.056	-14.749	13912	16148	0	864
32.167	-9.701	13868	16328	0	864
32.420	-7.357	13868	16612	0	864
32.420	-5.986	13861	16944	0	864
33.177	-1.767	13844	17164	0	864
35.088	1.082	13800	17187	0	864
37.468	5.013	13749	17094	0	864
39.163	8.042	13692	16987	0	864
41.471	10.242	13631	16894	0	864
42.193	12.946	13580	16818	0	864
44.464	15.254	13523	16750	0	864
47.854	18.320	13462	16657	0	864
47.277	18.788	13395	16536	0	864
47.025	18.644	13344	16434	0	864
44.573	16.336	13287	16384	0	864
42.625	13.487	13226	16370	0	864
42.301	12.189	13175	16345	0	864
41.724	8.258	13134	16325	0	864
43.058	3.318	13084	16325	0	864
41.471	-1.623	13050	16348	0	864
36.639	-9.953	13006	16376	0	864
32.023	-17.310	12972	16384	0	864
27.551	-21.385	12922	16376	0	864
23.657	-23.224	12871	16342	0	864
25.640	-26.325	12820	16246	0	864
29.354	-26.794	12753	16139	0	864
31.987	-29.499	12736	16170	0	864
31.482	-34.151	12712	16328	0	864
26.866	-37.144	12685	16443	0	864
22.322	-39.740	12634	16426	0	864
18.536	-40.678	12584	16308	0	864
20.483	-39.019	12516	16159	0	864
23.080	-37.396	12459	16029	0	864
25.820	-33.538	12391	15939	0	864
28.092	-30.761	12330	15866	0	864
28.056	-26.686	12273	15779	0	864
31.194	-20.844	12205	15705	0	864
36.062	-16.805	12145	15680	0	864
39.812	-11.900	12111	15722	0	864
40.498	-7.898	12070	15815	0	864
37.072	-6.491	12037	15888	0	864
31.735	-7.212	11969	15866	0	864
22.322	-8.979	11918	15781	0	864
14.317	-15.326	11874	15773	0	864
4.291	-22.034	11851	15900	0	864
-3.895	-27.371	11834	16105	0	864
-10.710	-32.528	11841	16339	0	864
-12.045	-37.649	11851	16575	0	864
-9.376	-39.921	11868	16843	0	864
-7.465	-40.353	11918	17192	0	864
-7.140	-39.849	11993	17621	0	864
-9.232	-38.550	12070	18075	0	864
-11.576	-36.819	12189	18559	0	864
-13.271	-36.747	12314	19084	0	864
-10.674	-37.036	12459	19622	0	864
-6.491	-36.098	12628	20166	0	864
-3.426	-35.918	12814	20721	0	864
0.541	-34.583	13016	21251	0	864
3.318	-33.754	13219	21716	0	864
4.508	-29.823	13439	22133	0	864
7.465	-25.604	13675	22545	0	864
9.484	-18.572	13935	22970	0	864
11.323	-12.658	14205	23407	0	864
13.956	-7.681	14503	23821	0	864
18.536	-4.868	14797	24157	0	864
19.510	-4.400	15077	24394	0	864
19.365	-7.285	15371	24537	0	864
16.084	-11.468	15668	24599	0	864
8.330	-16.300	15945	24591	0	864
-2.200	-23.260	16226	24512	0	864
-8.619	-27.732	16502	24357	0	864
-12.117	-30.725	16762	24115	0	864
-13.704	-31.662	16998	23757	1	876
-12.225	-34.475	17245	23331	0	876
-10.025	-36.567	17498	22956	0	876
-12.946	-39.416	17742	22638	0	876
-17.310	-43.996	17954	22223	0	876
-22.106	-45.041	18147	21646	0	876
-22.214	-44.753	18326	21003	0	876
-23.044	-42.084	18502	20408	0	876
-17.021	-38.442	18681	19876	0	876
-13.343	-34.475	18840	19391	0	876
-9.701	-31.987	19009	18929	0	876
-11.251	-30.725	19171	18461	0	876
-10.746	-31.518	19306	17996	0	876
-11.648	-29.571	19441	17562	0	876
-9.268	-26.181	19583	17170	0	876
-3.895	-20.700	19694	16795	0	876
3.318	-16.120	19819	16398	0	876
9.448	-9.160	19904	15979	0	876
14.317	-6.491	19988	15545	0	876
14.930	-6.383	20039	15074	0	876
9.737	-9.917	20090	14609	0	876
4.616	-14.858	20134	14228	0	876
-5.517	-22.358	20157	13899	0	876
-11.937	-24.919	20167	13498	0	876
-16.697	-27.515	20150	13025	0	876
-16.192	-29.607	20117	12554	0	876
-17.779	-29.715	20083	12154	0	876
-15.182	-31.302	20039	11841	0	876
-15.975	-29.318	19981	11562	0	876
-15.831	-26.289	19904	11266	0	876
-18.175	-26.614	19836	10984	0	876
-19.221	-26.614	19745	10793	0	876
-22.539	-30.220	19684	10708	0	876
-21.854	-31.338	19610	10728	0	876
-20.627	-30.004	19549	10818	0	876
-15.326	-24.414	19475	10914	0	876
-8.366	-19.401	19397	10996	0	876
-2.200	-13.379	19329	11108	0	876
2.849	-11.937	19262	11269	0	876
3.570	-11.215	19194	11480	0	876
4.003	-8.330	19127	11734	0	876
3.426	-8.943	19069	12005	0	876
3.029	-6.996	18992	12253	0	876
2.488	-8.366	18941	12481	0	876
-1.010	-9.701	18873	12715	0	876
-3.498	-14.677	18799	12949	0	876
