neuroNicle FX2
D3F0R0
UART
2023년 3월 31일 금요일
오후 1:13
time interval = 4msec
EEG1	EEG2	PPG	sdPPG	pulse	peak_interval(msec)
-89.939	-62.604	16281	16242	0	316
-96.141	-67.797	16243	15995	0	316
-104.724	-68.806	16210	15750	0	316
-107.176	-61.342	16172	15523	0	316
-99.459	-44.897	16116	15318	0	316
-83.267	-26.902	16054	15136	0	316
-69.095	-14.281	16007	14981	0	316
-64.587	-16.120	15960	14855	0	316
-72.737	-29.607	15936	14826	0	316
-86.224	-51.749	15951	15024	0	316
-97.908	-73.206	15998	15400	0	316
-102.957	-85.611	16045	15698	0	316
-95.636	-81.608	16068	15899	0	316
-78.687	-62.243	16163	16229	0	316
-56.509	-38.983	16243	16671	0	316
-42.012	-31.122	16314	16978	0	316
-46.376	-42.373	16351	17080	0	316
-63.109	-63.217	16384	17080	0	316
-81.897	-70.105	16393	17024	0	316
-83.159	-52.254	16417	16978	0	316
-65.128	-19.510	16487	17094	0	316
-38.658	0.144	16558	17331	0	316
-24.198	-10.494	16605	17454	0	316
-31.879	-43.635	16643	17384	0	316
-52.074	-73.603	16643	17219	0	316
-69.383	-81.031	16619	17014	0	316
-68.951	-63.145	16605	16780	0	316
-53.480	-37.829	16605	16595	0	316
-33.934	-20.664	16652	16605	0	316
-24.847	-16.913	16690	16763	0	316
-30.508	-22.467	16714	16826	0	316
-41.724	-32.492	16747	16783	0	316
-48.215	-38.947	16841	16932	0	316
-44.897	-42.012	16997	17467	0	316
-36.423	-38.226	17218	18223	0	316
-28.489	-33.177	17398	18834	0	316
-29.174	-31.158	17525	19068	0	316
-38.082	-34.800	17619	18976	0	316
-52.687	-41.039	17667	18695	0	316
-67.003	-45.186	17667	18289	0	316
-71.799	-46.051	17643	17784	0	316
-65.921	-44.068	17596	17212	0	316
-47.313	-44.140	17539	16615	0	316
-29.102	-43.491	17445	16028	0	316
-19.834	-40.822	17336	15460	0	316
-24.666	-34.692	17233	14925	0	316
-37.937	-29.535	17115	14429	0	316
-48.648	-30.436	16973	13987	0	316
-52.578	-33.826	16855	13597	0	316
-52.578	-39.849	16737	13270	0	316
-52.470	-44.609	16596	13006	0	316
-53.155	-45.186	16464	12805	0	316
-52.470	-44.248	16351	12663	0	316
-45.114	-41.111	16243	12643	0	316
-34.980	-38.442	16196	12877	0	316
-28.417	-38.442	16172	13323	0	316
-33.934	-41.904	16186	13789	0	316
-45.114	-44.428	16243	14373	0	316
-52.939	-42.012	16393	15311	0	316
-53.660	-32.276	16582	16469	0	316
-45.907	-21.529	16770	17480	0	316
-40.606	-20.014	16888	18094	0	316
-41.075	-29.427	16983	18362	0	316
-48.648	-46.520	17044	18421	0	316
-54.959	-61.378	17077	18332	0	316
-57.807	-64.190	17091	18190	0	316
-55.391	-54.778	17138	18167	0	316
-51.857	-37.180	17185	18240	0	316
-45.186	-20.483	17209	18170	0	316
-34.151	-9.376	17185	17896	0	316
-25.243	-6.167	17148	17523	0	316
-19.401	-11.828	17115	17120	0	316
-23.152	-21.781	17020	16697	0	316
-29.030	-34.439	16959	16279	0	316
-33.285	-42.373	16888	15929	0	316
-29.679	-40.822	16855	15800	0	316
-23.729	-33.177	16855	15849	0	316
-22.791	-22.863	16855	15899	0	316
-34.259	-22.286	16865	16008	0	316
-50.523	-34.800	16902	16209	0	316
-62.928	-53.624	16926	16365	0	316
-64.010	-65.994	16983	16535	0	316
-53.264	-64.948	17044	16783	0	316
-40.606	-52.290	17067	16882	0	316
-36.747	-37.937	17053	16763	0	316
-41.147	-33.321	17030	16529	0	316
-50.739	-40.065	16973	16249	0	316
-58.457	-53.155	16879	15929	0	316
-56.942	-62.459	16808	15595	0	316
-47.710	-63.469	16700	15265	0	316
-33.177	-53.372	16596	14951	0	316
-21.024	-39.091	16501	14664	0	316
-17.562	-28.237	16384	14413	0	316
-28.814	-23.981	16281	14208	0	316
-43.130	-28.345	16186	14043	0	316
-53.083	-35.918	16054	13918	0	316
-47.025	-41.399	15951	13832	0	316
-29.607	-43.094	15889	13858	0	316
-12.694	-42.661	15856	14135	0	316
-9.845	-38.082	15866	14598	0	316
-16.913	-31.194	15880	15057	0	316
-28.020	-24.666	15936	15562	0	316
-34.836	-19.978	16031	16213	0	316
-33.610	-22.214	16149	16922	0	316
-27.335	-27.804	16314	17629	0	316
-20.303	-32.312	16440	18315	0	316
-12.477	-29.823	16629	18959	0	316
-8.979	-23.440	16841	19610	0	316
-10.746	-20.519	17077	20333	0	316
-21.673	-28.237	17327	20991	0	316
-37.432	-42.661	17539	21440	0	316
-49.621	-53.841	17728	21664	0	316
-53.877	-56.329	17846	21575	0	316
-48.648	-49.297	17926	21166	0	316
-39.235	-41.255	17973	20617	0	316
-35.629	-38.803	18058	20148	0	316
-37.432	-38.550	18091	19742	1	740
-38.550	-34.836	18082	19191	0	740
-35.810	-25.568	18034	18438	0	740
-26.109	-16.264	17964	17605	0	740
-15.074	-16.300	17855	16760	0	740
-14.966	-28.128	17737	15929	0	740
-24.594	-44.717	17586	15130	0	740
-38.370	-56.076	17431	14380	0	740
-45.943	-54.454	17280	13696	0	740
-48.107	-46.772	17115	13151	0	740
-47.566	-40.065	17030	12890	0	740
-51.785	-43.815	16935	12871	0	740
-65.597	-59.502	16841	12844	0	740
-82.871	-79.517	16747	12725	0	740
-95.564	-96.754	16619	12600	0	740
-97.584	-105.626	16487	12497	0	740
-89.542	-99.856	16375	12418	0	740
-69.275	-78.435	16257	12365	0	740
-37.829	-43.202	16139	12405	0	740
4.111	0.577	16078	12682	0	740
52.001	42.373	16045	13145	0	740
95.420	69.203	15998	13544	0	740
117.202	71.691	15936	13802	0	740
106.816	51.785	15866	14007	0	740
69.960	17.454	15842	14261	0	740
26.470	-10.891	15842	14690	0	740
-1.010	-22.683	15856	15242	0	740
-3.210	-15.326	15866	15674	0	740
9.953	-2.019	15866	15975	0	740
23.981	6.744	15927	16381	0	740
21.962	2.452	15974	16882	0	740
8.042	-8.547	15998	17242	0	740
-7.429	-16.697	16031	17444	0	740
-13.018	-17.310	16125	17734	0	740
-9.088	-9.845	16172	18101	0	740
3.137	-1.442	16210	18302	0	740
9.629	4.400	16234	18273	0	740
6.022	-0.252	16219	18124	0	740
-12.838	-14.821	16186	17913	0	740
-39.055	-37.252	16149	17652	0	740
-63.325	-57.555	16116	17361	0	740
-74.071	-60.728	16031	17054	0	740
-62.856	-45.114	15960	16747	0	740
-37.721	-17.274	15889	16450	0	740
-14.317	1.587	15809	16176	0	740
-9.196	-0.902	15738	15922	0	740
-27.948	-23.224	15644	15698	0	740
-58.384	-48.972	15573	15509	0	740
-82.366	-67.111	15512	15423	0	740
-93.401	-75.406	15526	15582	0	740
-90.047	-77.533	15559	15929	0	740
-82.907	-80.815	15550	16200	0	740
-75.730	-82.005	15559	16302	0	740
-67.724	-77.173	15535	16328	0	740
-63.109	-68.121	15512	16328	0	740
-65.849	-60.945	15502	16309	0	740
-78.146	-57.627	15465	16279	0	740
-92.824	-59.574	15432	16242	0	740
-99.748	-64.984	15408	16200	0	740
-95.636	-71.475	15370	16157	0	740
-87.198	-76.451	15314	16110	0	740
-87.775	-84.638	15300	16071	0	740
-102.344	-94.879	15276	16100	0	740
-120.195	-109.052	15323	16342	0	740
-130.833	-119.473	15370	16734	0	740
-125.388	-120.339	15418	17044	0	740
-108.871	-105.986	15455	17176	0	740
-89.398	-81.753	15479	17226	0	740
-77.930	-58.961	15479	17232	0	740
-75.514	-52.939	15502	17203	0	740
-81.428	-62.820	15488	17143	0	740
-88.100	-79.373	15479	17064	0	740
-94.951	-89.290	15479	16975	0	740
-98.197	-87.667	15465	16869	0	740
-96.394	-78.796	15441	16760	0	740
-94.230	-75.550	15418	16651	0	740
-94.951	-80.671	15394	16549	0	740
-96.177	-90.227	15385	16453	0	740
-98.558	-94.519	15347	16365	0	740
-96.105	-87.486	15347	16345	0	740
-87.018	-74.793	15408	16535	0	740
-78.832	-63.109	15488	16899	0	740
-74.865	-58.745	15526	17176	0	740
-77.281	-60.981	15583	17285	0	740
-81.248	-65.669	15630	17381	0	740
-82.943	-69.600	15762	17635	0	740
-81.680	-73.098	15856	18002	0	740
-86.477	-78.651	15951	18236	0	740
-97.223	-83.015	16007	18266	0	740
-108.583	-87.595	16068	18177	0	740
-113.920	-89.542	16092	18018	0	740
-103.642	-86.405	16101	17797	0	740
-84.962	-77.389	16101	17546	0	740
-71.186	-66.030	16116	17351	0	740
-70.646	-59.935	16196	17348	0	740
-83.628	-62.820	16257	17490	0	740
-101.334	-78.832	16337	17599	0	740
-108.222	-96.502	16464	17797	0	740
-104.760	-107.032	16676	18345	0	740
-94.987	-101.731	16935	19111	0	740
-89.506	-89.181	17138	19712	0	740
-93.906	-79.661	17303	19914	0	740
-104.580	-84.746	17431	19775	0	740
-115.435	-101.731	17492	19445	0	740
-119.546	-118.031	17549	19045	0	740
-117.093	-123.152	17634	18745	0	740
-108.439	-113.884	17737	18593	0	740
-99.820	-98.449	17869	18573	0	740
-95.312	-87.126	18020	18718	0	740
-90.371	-82.330	18152	18824	0	740
-81.500	-78.219	18233	18619	0	740
-63.036	-65.489	18256	18127	0	740
-41.543	-49.585	18247	17503	0	740
-32.239	-39.380	18223	16866	0	740
-44.068	-48.035	18233	16453	0	740
-72.953	-72.160	18303	16384	0	740
-100.108	-98.702	18374	16440	0	740
-108.222	-111.323	18468	16450	0	740
-93.509	-102.488	18492	16381	0	740
-71.403	-82.510	18506	16120	0	740
-61.125	-65.994	18445	15645	0	740
-66.895	-63.469	18374	15070	0	740
-81.897	-71.799	18247	14459	0	740
-90.840	-79.769	18129	13835	0	740
-87.450	-79.986	17997	13290	0	740
-78.832	-77.065	17902	12980	0	740
-74.180	-75.009	17808	12871	0	740
-81.031	-78.940	17704	12722	0	740
-90.696	-86.369	17563	12461	0	740
-92.427	-88.027	17407	12184	0	740
-80.995	-81.284	17256	11939	0	740
-61.774	-71.259	17091	11721	0	740
-47.133	-65.308	16935	11596	0	740
-45.691	-64.623	16841	11725	0	740
-56.545	-68.301	16770	12055	0	740
-70.970	-69.059	16700	12412	0	740
-77.101	-64.299	16667	12838	0	740
-77.245	-59.863	16643	13369	0	740
-72.413	-59.430	16605	13795	0	740
-69.455	-66.498	16572	14102	0	740
-71.655	-77.065	16596	14588	0	740
-74.793	-84.241	16676	15381	0	740
-75.947	-83.195	16784	16249	0	740
-73.386	-72.953	16912	16998	0	740
-65.741	-56.545	16997	17602	0	740
-53.444	-40.137	17053	17946	0	740
-41.291	-30.364	17053	18002	0	740
-32.023	-29.571	17044	17880	0	740
-29.787	-38.009	16983	17645	0	740
-32.131	-47.494	16926	17321	0	740
-38.767	-53.841	16832	16942	0	740
-45.655	-54.382	16714	16542	0	740
-51.677	-54.129	16605	16147	0	740
-55.103	-55.391	16511	15836	0	740
-55.103	-57.519	16464	15760	0	740
-50.090	-57.952	16431	15863	0	740
-42.697	-55.139	16407	15958	0	740
-38.082	-54.201	16407	16110	0	740
-41.940	-58.709	16417	16361	0	740
-50.884	-68.013	16393	16502	0	740
-57.627	-73.891	16361	16463	0	740
-53.841	-67.977	16314	16335	0	740
-41.363	-51.208	16243	16157	0	740
-26.794	-33.177	16163	15945	0	740
-18.644	-25.965	16068	15724	0	740
-25.243	-32.384	16021	15579	0	740
-39.235	-45.799	15974	15651	0	740
-49.730	-54.237	15974	15896	0	740
-52.218	-54.706	15951	16067	0	740
-50.451	-52.542	15903	16081	0	740
-46.881	-55.572	15866	16031	0	740
-49.766	-63.181	15818	15955	0	740
-56.113	-72.160	15762	15922	0	740
-63.577	-75.586	15771	16077	0	740
-70.032	-76.740	15785	16378	0	740
-73.134	-77.461	15795	16582	0	740
-76.451	-80.382	15771	16621	0	740
-78.723	-84.926	15748	16582	0	740
-78.904	-84.602	15701	16502	0	740
-73.999	-81.536	15653	16384	0	740
-66.715	-75.370	15597	16256	0	740
-58.889	-71.511	15535	16120	0	740
-51.965	-69.816	15465	15995	0	740
-47.999	-70.501	15394	15876	0	740
-48.431	-70.249	15337	15767	0	740
-51.677	-69.419	15276	15671	0	740
-56.149	-65.777	15219	15599	0	740
-61.666	-59.971	15149	15546	0	740
-62.676	-56.581	15078	15513	0	740
-61.053	-55.139	15054	15569	0	740
-55.968	-55.896	15101	15916	0	740
-49.585	-56.004	15229	16638	0	740
-44.753	-52.254	15347	17437	0	740
-39.993	-47.458	15465	17962	0	740
-37.505	-43.527	15550	18213	0	740
-36.242	-46.015	15597	18325	0	740
-40.245	-48.612	15644	18345	0	740
-46.448	-49.693	15653	18279	0	740
-54.490	-46.809	15701	18216	0	740
-59.070	-43.491	15771	18309	0	740
-60.007	-43.022	15866	18514	0	740
-52.614	-46.195	15936	18659	0	740
-43.310	-44.933	16068	18814	0	740
-34.620	-40.245	16172	19026	0	740
-36.242	-33.646	16243	19085	0	740
-44.320	-34.908	16328	18920	0	740
-53.119	-42.517	16337	18639	0	740
-54.490	-52.146	16337	18296	0	740
-48.323	-56.185	16328	17903	0	740
-38.298	-51.713	16304	17480	1	836
-33.754	-42.445	16257	17044	0	836
-31.735	-35.052	16234	16681	0	836
-26.506	-30.112	16281	16611	0	836
-16.661	-27.443	16393	16922	0	836
-0.685	-27.047	16534	17374	0	836
4.652	-27.876	16676	17780	0	836
-0.938	-29.968	16832	18164	0	836
-12.802	-30.905	17006	18530	0	836
-18.247	-25.316	17148	18794	0	836
-11.360	-15.182	17256	18804	0	836
2.056	-0.469	17303	18543	0	836
13.595	9.917	17327	18131	0	836
18.608	16.589	17313	17632	0	836
19.149	22.539	17266	17070	0	836
28.669	31.230	17185	16469	0	836
47.494	44.969	17115	15869	0	836
69.419	62.459	17006	15281	0	836
91.958	84.349	16902	14720	0	836
110.530	105.265	16770	14192	0	836
127.876	123.296	16643	13716	0	836
146.700	139.380	16501	13297	0	836
165.092	148.612	16375	12950	0	836
181.428	157.375	16257	12735	0	836
190.732	167.328	16243	12857	0	836
193.329	179.697	16281	13399	0	836
186.621	189.145	16314	14050	0	836
177.569	194.050	16328	14472	0	836
169.708	190.588	16314	14667	0	836
162.532	179.373	16290	14766	0	836
155.932	164.299	16243	14809	0	836
146.123	145.727	16234	14885	0	836
135.088	131.626	16281	15206	0	836
127.840	123.657	16384	15863	0	836
122.503	122.431	16478	16545	0	836
111.179	118.356	16572	17008	0	836
83.484	100.757	16667	17394	0	836
43.527	67.652	16761	17790	0	836
6.635	30.040	16832	17995	0	836
-14.245	-0.108	16855	17936	0	836
-17.274	-14.461	16841	17734	0	836
-15.939	-20.411	16817	17454	0	836
-24.558	-30.256	16770	17107	0	836
-41.688	-45.582	16700	16714	0	836
-56.437	-62.568	16605	16315	0	836
-63.433	-76.524	16525	15919	0	836
-69.203	-89.181	16431	15546	0	836
-82.943	-106.167	16351	15268	0	836
-110.097	-128.777	16314	15219	0	836
-137.108	-150.631	16304	15354	0	836
-152.903	-161.991	16267	15427	0	836
-152.795	-166.607	16234	15367	0	836
-144.104	-166.679	16163	15258	0	836
-138.298	-168.049	16116	15206	0	836
-143.022	-172.052	16125	15348	0	836
-152.362	-173.747	16125	15645	0	836
-163.433	-172.485	16139	15849	0	836
-169.924	-167.833	16139	15955	0	836
-173.098	-164.335	16172	16190	0	836
-171.944	-161.666	16243	16605	0	836
-169.708	-162.459	16384	17163	0	836
-165.200	-167.147	16549	17870	0	836
-161.918	-174.865	16700	18527	0	836
-161.450	-181.464	16794	18850	0	836
-165.921	-182.185	16879	18854	0	836
-170.609	-177.858	16902	18682	0	836
-171.727	-168.626	16902	18388	0	836
-168.842	-161.161	16888	17995	0	836
-164.515	-161.846	16817	17536	0	836
-165.128	-168.265	16794	17107	0	836
-167.905	-176.163	16794	16879	0	836
-167.833	-175.586	16784	16816	0	836
-162.027	-165.705	16747	16668	0	836
-153.768	-150.992	16737	16430	0	836
-150.884	-140.750	16761	16348	0	836
-151.785	-140.642	16761	16413	0	836
-154.598	-147.638	16770	16384	0	836
-151.605	-155.896	16761	16249	0	836
-146.809	-159.647	16784	16239	0	836
-145.402	-158.348	16794	16358	0	836
-151.208	-153.660	16794	16351	0	836
-156.293	-145.835	16794	16229	0	836
-153.408	-139.452	16808	16229	0	836
-144.392	-135.413	16841	16348	0	836
-135.737	-139.957	16841	16345	0	836
-137.360	-147.926	16784	16153	0	836
-145.114	-153.372	16737	15879	0	836
-154.670	-148.936	16676	15579	0	836
-155.211	-140.498	16572	15258	0	836
-144.825	-129.968	16478	14938	0	836
-132.131	-128.958	16375	14628	0	836
-123.945	-133.718	16257	14344	0	836
-123.585	-138.622	16163	14155	0	836
-129.571	-140.029	16125	14211	0	836
-136.351	-135.233	16101	14456	0	836
-138.442	-128.273	16068	14644	0	836
-132.961	-121.781	16007	14690	0	836
-125.604	-117.274	15936	14684	0	836
-118.897	-115.831	15880	14667	0	836
-115.074	-115.435	15795	14641	0	836
-111.468	-116.012	15715	14621	0	836
-103.642	-111.071	15668	14670	0	836
-94.555	-101.623	15691	14997	0	836
-83.736	-88.027	15795	15750	0	836
-77.065	-77.786	15974	16760	0	836
-77.569	-71.727	16116	17658	0	836
-81.176	-71.367	16281	18259	0	836
-84.349	-73.278	16417	18741	0	836
-84.998	-73.711	16572	19260	0	836
-80.490	-75.766	16770	19808	0	836
-77.065	-80.635	17044	20489	0	836
-76.019	-88.785	17303	21255	0	836
-81.140	-95.817	17539	21783	0	836
-86.729	-95.889	17728	21912	0	836
-88.857	-87.414	17902	21856	0	836
-85.755	-76.127	18058	21720	0	836
-80.851	-67.003	18115	21331	0	836
-77.281	-65.669	18185	20713	0	836
-78.507	-68.049	18247	20138	1	472
-80.130	-71.655	18270	19630	0	472
-81.969	-71.691	18256	18969	0	472
-79.913	-68.193	18200	18111	0	472
-73.675	-65.669	18105	17173	0	472
-65.957	-64.046	17973	16229	0	472
-58.132	-67.220	17832	15301	0	472
-56.437	-68.770	17667	14416	0	472
-60.440	-69.636	17478	13594	0	472
-70.321	-67.797	17303	12910	0	472
-78.110	-66.643	17195	12514	0	472
-75.153	-68.157	17067	12375	0	472
-66.066	-72.196	16950	12237	0	472
-55.716	-72.845	16817	12012	0	472
-51.785	-67.544	16652	11781	0	472
-58.096	-59.899	16525	11659	0	472
-67.724	-56.293	16440	11781	0	472
-72.990	-62.027	16375	12101	0	472
-70.177	-72.773	16281	12365	0	472
-63.181	-80.490	16186	12497	0	472
-59.863	-78.904	16078	12593	0	472
-60.368	-67.364	15960	12682	0	472
-63.253	-54.093	15842	12765	0	472
-61.414	-45.691	63	16233	0	16418
2.777	9.629	16784	12963	0	496
0.216	5.121	16652	12814	0	496
-9.160	-8.835	16558	12887	0	496
-17.887	-19.870	16501	13138	0	496
-22.178	-21.673	16393	13323	0	496
-21.168	-16.589	16290	13373	0	496
-12.586	-5.626	16196	13373	0	496
-1.046	2.777	16054	13366	0	496
15.074	12.045	15913	13356	0	496
26.614	17.310	15818	13416	0	496
27.335	19.041	15762	13690	0	496
16.156	13.884	15724	14139	0	496
1.334	7.176	15653	14512	0	496
-2.669	6.816	15606	14730	0	496
7.465	14.497	15512	14875	0	496
24.594	23.693	15441	14994	0	496
34.475	25.279	15361	15083	0	496
27.984	16.913	15267	15153	0	496
11.035	1.118	15182	15215	0	496
-3.859	-13.920	15087	15285	0	496
-8.330	-17.995	15007	15357	0	496
-1.406	-13.199	14922	15437	0	496
10.638	-2.633	14842	15523	0	496
11.828	6.527	14757	15615	0	496
4.039	9.809	14701	15721	0	496
-7.609	7.970	14663	15899	0	496
-11.720	1.659	14677	16285	0	496
-5.662	-5.481	14710	16826	0	496
4.688	-8.402	14748	17278	0	496
8.943	-6.527	14771	17549	0	496
4.616	1.082	14781	17734	0	496
-3.390	6.599	14781	17860	0	496
-12.550	3.823	14781	17929	0	496
-16.300	-13.054	14781	17949	0	496
-17.129	-34.043	14781	17929	0	496
-12.189	-40.678	14757	17883	0	496
2.128	-21.457	14771	17889	0	496
19.906	17.238	14828	18094	0	496
34.295	47.638	14946	18514	0	496
32.564	46.520	15087	19026	0	496
17.238	11.612	15229	19504	0	496
-1.406	-32.528	15347	19782	0	496
-9.629	-53.624	15441	19887	0	496
-2.705	-38.298	15606	20046	0	496
11.900	-1.695	15748	20261	0	496
23.260	28.525	15842	20300	0	496
25.352	31.843	15903	20102	0	496
16.084	9.845	15960	19769	0	496
3.787	-19.726	15984	19362	0	496
-5.626	-39.452	15974	18893	0	496
-9.052	-43.960	15974	18398	1	728
-7.104	-31.879	15974	17959	0	728
-0.325	-15.903	16007	17731	0	728
5.806	-2.524	16068	17681	0	728
7.573	1.370	16101	17556	0	728
2.092	-5.626	16125	17341	0	728
-7.789	-20.916	16196	17272	0	728
-18.211	-34.764	16290	17404	0	728
-22.972	-38.370	16417	17629	0	728
-19.005	-27.371	16525	17817	0	728
-10.855	-6.491	16596	17817	0	728
-2.128	12.658	16629	17602	0	728
-0.613	18.860	16652	17269	0	728
-6.022	8.078	16629	16869	0	728
-14.858	-11.323	16596	16423	0	728
-22.539	-27.227	16572	16034	0	728
-25.460	-31.554	16572	15849	0	728
-22.719	-25.207	16582	15830	0	728
-16.769	-11.251	16582	15737	0	728
-11.684	2.236	16549	15493	0	728
-8.366	13.559	16501	15199	0	728
-6.491	16.408	16440	14908	0	728
-8.835	14.281	16375	14624	0	728
-12.982	3.823	16290	14350	0	728
-19.546	-8.042	16210	14093	0	728
-23.585	-14.894	16116	13858	0	728
-27.587	-16.228	16021	13663	0	728
-24.883	-13.812	15913	13511	0	728
-21.060	-9.232	15833	13399	0	728
-15.579	-3.173	15724	13323	0	728
-11.396	3.642	15644	13293	0	728
-8.763	8.799	15535	13307	0	728
-12.514	6.960	15465	13359	0	728
-20.447	-1.695	15370	13442	0	728
-31.987	-18.500	15290	13551	0	728
-39.416	-31.807	15229	13690	0	728
-37.685	-36.567	15158	13851	0	728
-28.417	-29.643	15101	14030	0	728
-16.805	-13.884	15040	14231	0	728
-11.504	0.577	14993	14453	0	728
-12.405	6.816	14946	14677	0	728
-17.129	3.534	14899	14895	0	728
-21.745	-5.301	14913	15176	0	728
-22.467	-13.668	14936	15665	0	728
-21.096	-13.595	15031	16375	0	728
-19.582	-11.251	15172	17176	0	728
-18.175	-10.169	15300	17942	0	728
-17.274	-11.576	15418	18510	0	728
-16.192	-17.093	15550	18903	0	728
-16.769	-22.142	15691	19343	0	728
-18.067	-22.935	15856	19821	0	728
-20.087	-21.962	15960	20092	0	728
-24.486	-18.392	16078	20162	0	728
-30.833	-17.454	16219	20274	0	728
-39.957	-20.375	16351	20446	0	728
-47.349	-26.289	16454	20446	0	728
-49.982	-35.449	16549	20271	0	728
-45.114	-43.599	16667	20165	0	728
-36.603	-48.215	16770	20132	0	728
-28.525	-49.585	16841	19937	0	728
-28.633	-47.818	16888	19534	0	728
-32.564	-45.763	16902	19026	0	728
-37.144	-41.111	16912	18540	0	728
-35.341	-32.997	16997	18292	0	728
-26.470	-23.152	17138	18451	0	728
-15.362	-14.461	17336	18860	0	728
-8.078	-14.533	17501	19154	0	728
-6.311	-22.214	17610	19098	0	728
-10.314	-32.961	17667	18748	0	728
-16.444	-36.855	17681	18246	0	728
-17.238	-29.931	17667	17655	0	728
-12.333	-13.704	17643	17067	0	728
-3.642	-0.613	17657	16651	0	728
3.462	3.390	17657	16384	0	728
5.662	-4.832	17619	16044	0	728
-2.488	-18.464	17572	15556	0	728
-12.874	-28.777	17492	15017	0	728
-23.476	-32.384	17398	14486	0	728
-29.174	-31.590	17303	14033	0	728
-29.787	-27.912	17242	13812	1	316
-31.194	-29.282	17218	13785	0	316
-33.970	-32.744	17171	13776	0	316
-36.711	-33.321	17171	13845	0	316
-37.973	-31.662	17162	14033	0	316
-33.502	-27.984	17148	14188	0	316
-25.316	-24.053	17171	14377	0	316
-17.418	-21.457	17209	14713	0	316
-12.622	-20.880	17280	15133	0	316
-14.172	-18.464	17336	15506	0	316
-18.464	-16.949	17336	15684	0	316
-23.188	-16.913	17327	15632	0	316
-23.332	-17.851	17280	15460	0	316
-17.454	-18.536	17195	15229	0	316
-7.248	-13.740	17138	15014	0	316
2.596	-5.554	17100	14981	0	316
4.219	2.019	17067	15093	0	316
0.541	5.409	17053	15182	0	316
-3.678	3.750	17077	15367	0	316
-2.993	1.298	17171	15843	0	316
2.633	0.757	17218	16351	0	316
9.196	1.839	17256	16562	0	316
8.114	0.938	17256	16506	0	316
0.938	-1.983	17195	16328	0	316
-8.222	-4.832	17138	16071	0	316
-14.858	-1.262	17044	15754	0	316
-13.595	6.744	16935	15400	0	316
-6.563	16.192	16832	15106	0	316
2.380	22.322	16794	15024	0	316
11.215	24.666	16761	15116	0	316
18.320	25.532	16690	15149	0	316
19.618	29.066	16629	15106	0	316
19.726	31.987	16629	15222	0	316
16.805	30.761	16629	15486	0	316
13.704	24.053	16596	15648	0	316
7.970	13.199	16549	15628	0	316
0.505	2.596	16478	15529	0	316
-9.592	-4.724	16431	15463	0	316
-14.894	-5.337	16417	15569	0	316
-14.569	-0.397	16417	15810	0	316
-7.212	11.648	16384	15952	0	316
-1.406	21.421	16361	15985	0	316
-1.659	26.073	16384	16147	0	316
-10.710	19.293	16393	16420	0	316
-22.827	5.049	16384	16572	0	316
-31.590	-9.556	16361	16539	0	316
-33.285	-16.805	16314	16413	0	316
-32.528	-16.697	16267	16312	0	316
-32.564	-13.451	16267	16371	0	316
-33.898	-11.287	16304	16634	0	316
-38.875	-12.514	16375	17004	0	316
-43.419	-15.579	16431	17345	0	316
-46.232	-20.123	16454	17506	0	316
-45.114	-25.207	16454	17450	0	316
-43.383	-28.886	16464	17348	0	316
-45.078	-34.800	16501	17387	0	316
-53.119	-43.924	16558	17589	0	316
-67.256	-54.165	16652	17860	0	316
-77.642	-65.885	16723	18088	0	316
-75.442	-68.482	16761	18124	0	316
-63.758	-62.820	16747	17936	0	316
-45.402	-50.811	16737	17629	0	316
-30.508	-36.242	16714	17328	0	316
-23.621	-28.201	16737	17186	0	316
-20.339	-28.020	16761	17239	0	316
-21.204	-32.023	16855	17447	0	316
-27.696	-40.858	16997	17830	0	316
-31.879	-51.280	17091	18183	0	316
-36.891	-58.529	17162	18233	0	316
-34.836	-59.827	17162	17998	0	316
-31.374	-53.516	17148	17622	0	316
-25.243	-40.029	17100	17169	0	316
-19.726	-26.289	17044	16727	0	316
-11.035	-14.894	17044	16456	0	316
-2.813	-12.405	17006	16332	0	316
4.039	-14.749	16973	16117	0	316
3.210	-20.014	16912	15750	0	316
-0.433	-20.591	16808	15324	0	316
-1.190	-17.166	16700	14892	0	316
2.308	-11.360	16582	14466	0	316
9.268	-10.566	16440	14069	0	316
6.888	-17.166	16304	13713	0	316
-2.849	-28.850	16163	13412	0	316
-15.471	-43.491	16031	13168	0	316
-22.070	-49.369	15889	12976	0	316
-19.077	-46.340	15748	12841	0	316
-9.052	-35.160	15620	12762	0	316
0.938	-22.503	15502	12795	0	316
6.311	-17.634	15465	13085	0	316
6.275	-22.539	15441	13581	0	316
4.075	-32.167	15394	14020	0	316
0.685	-38.045	15370	14311	0	316
-1.839	-37.721	15314	14542	0	316
-2.524	-33.105	15267	14743	0	316
-0.288	-29.463	15196	14915	0	316
5.049	-27.119	15172	15133	0	316
12.694	-21.709	15229	15615	0	316
17.274	-12.477	15361	16502	0	316
21.060	-6.275	15597	17705	0	316
18.067	-7.140	15842	18966	0	316
11.504	-16.480	16092	19993	0	316
2.777	-24.089	16267	20581	0	316
-4.904	-22.683	16407	20773	0	316
-9.160	-9.881	16501	20720	0	316
-8.439	4.039	16534	20485	0	316
-1.298	15.687	16558	20109	0	316
9.917	16.985	16582	19696	0	316
17.815	11.323	16629	19412	1	428
17.706	2.164	16667	19247	0	428
11.071	-7.609	16676	18973	0	428
0.325	-13.595	16676	18524	0	428
-4.724	-15.398	16629	17992	0	428
-3.498	-14.245	16582	17437	0	428
2.921	-11.828	16511	16876	0	428
4.364	-9.052	16407	16325	0	428
0.288	-7.465	16337	15859	0	428
-8.979	-6.563	16314	15632	0	428
-19.113	-12.333	16290	15602	0	428
-22.214	-23.260	16267	15523	0	428
-18.247	-34.403	16210	15314	0	428
-11.792	-35.774	16139	15070	0	428
-3.173	-23.368	16101	14898	0	428
0.865	-3.895	16092	14938	0	428
2.849	7.248	16092	15143	0	428
1.911	-0.036	16078	15272	0	428
-1.010	-21.565	16054	15245	0	428
-2.705	-42.373	16007	15156	0	428
-4.111	-46.412	15936	15050	0	428
0.288	-27.407	15880	14928	0	428
9.773	4.616	15856	14872	0	428
19.401	28.237	15833	15024	0	428
19.654	29.607	15866	15348	0	428
9.665	10.025	15856	15589	0	428
-5.121	-15.182	15842	15661	0	428
-13.487	-28.092	15809	15668	0	428
-9.304	-24.089	15771	15645	0	428
4.255	-12.946	15724	15595	0	428
10.674	-9.989	15691	15589	0	428
6.419	-18.572	15748	15840	0	428
-7.140	-28.705	15856	16443	0	428
-16.444	-28.020	15974	17107	0	428
-14.641	-16.661	16045	17500	0	428
-8.294	-7.429	16078	17625	0	428
-4.508	-9.917	16139	17675	0	428
-10.674	-21.709	16219	17837	0	428
-16.913	-32.420	16290	18074	0	428
-17.779	-31.013	16351	18164	0	428
-11.432	-24.630	16375	18028	0	428
-9.340	-21.385	16361	17784	0	428
-12.946	-26.181	16375	17549	0	428
-23.188	-35.593	16393	17480	0	428
-30.148	-38.298	16440	17543	0	428
-27.407	-33.934	16454	17496	0	428
-21.457	-30.761	16440	17269	0	428
-17.562	-31.879	16407	16961	0	428
-18.067	-36.928	16393	16694	0	428
-18.067	-38.009	16407	16615	0	428
-16.048	-30.545	16431	16681	0	428
-13.127	-18.644	16431	16651	0	428
-14.172	-10.242	16417	16456	0	428
-20.772	-14.497	16407	16269	0	428
-26.037	-25.929	16431	16256	0	428
-25.352	-36.964	16454	16384	0	428
-18.608	-38.514	16464	16413	0	428
-9.088	-30.689	16440	16272	0	428
-4.075	-20.050	16407	16048	0	428
-6.599	-15.254	16351	15783	0	428
-13.091	-16.048	16281	15503	0	428
-20.700	-19.546	16196	15215	0	428
-23.116	-22.683	16101	14941	0	428
-20.988	-22.683	16031	14697	0	428
-12.658	-23.801	15927	14482	0	428
-2.849	-28.092	15833	14301	0	428
4.327	-32.672	15748	14152	0	428
3.642	-37.144	15630	14043	0	428
0.721	-38.009	15583	14040	0	428
-8.691	-34.511	15573	14274	0	428
-15.074	-28.092	15559	14694	0	428
-18.824	-22.178	15559	15047	0	428
-17.057	-18.644	15559	15245	0	428
-10.710	-20.123	15512	15377	0	428
-4.544	-24.955	15526	15546	0	428
-2.777	-31.338	15550	15892	0	428
-6.275	-35.918	15630	16368	0	428
-13.884	-40.353	15668	16727	0	428
-19.546	-41.003	15677	16899	0	428
-18.860	-39.488	15701	16971	0	428
-15.038	-35.269	15715	17054	0	428
-11.468	-29.499	15785	17285	0	428
-8.511	-23.476	15842	17625	0	428
-5.626	-17.634	15889	17833	0	428
-2.092	-12.622	15927	17833	0	428
5.590	-8.439	15927	17731	0	428
11.576	-6.383	15913	17582	0	428
15.254	-7.176	15903	17387	0	428
13.631	-8.619	15866	17169	0	428
10.566	-10.710	15842	16945	0	428
8.655	-11.215	15795	16720	0	428
6.311	-12.550	15762	16506	0	428
6.671	-14.569	15715	16305	0	428
7.862	-13.235	15677	16173	0	428
11.432	-6.744	15748	16328	0	428
17.310	7.248	15866	16856	0	428
22.647	20.375	15984	17457	0	428
23.188	25.748	16068	17797	0	428
17.382	17.238	16125	17883	0	428
9.232	1.983	16172	17833	0	428
4.111	-7.753	16186	17698	0	428
4.508	-7.285	16186	17493	0	428
8.583	0.288	16210	17312	0	428
8.186	3.065	16243	17302	0	428
1.298	-6.780	16304	17427	0	428
-7.248	-20.916	16328	17450	0	428
-12.117	-29.968	16375	17361	0	428
-10.963	-24.739	16440	17394	0	428
-1.226	-8.258	16511	17543	0	428
8.366	7.537	16582	17632	0	428
13.992	15.110	16667	17728	0	428
11.504	8.871	16761	17880	0	428
3.895	-4.544	16817	17886	0	428
-6.671	-20.880	16832	17678	0	428
-14.858	-31.446	16832	17361	0	428
-14.605	-33.141	16817	16998	0	428
-5.229	-26.938	16784	16661	0	428
6.744	-15.435	16817	16506	0	428
13.668	-6.419	16841	16499	0	428
11.323	-2.921	16841	16476	0	428
-2.452	-6.022	16926	16492	0	428
-14.749	-14.749	16997	16664	0	428
-20.447	-22.034	17077	16915	0	428
-12.838	-23.080	17162	17133	0	428
-1.442	-17.815	17218	17160	0	428
5.914	-11.684	17233	17034	0	428
3.354	-10.061	17336	17057	0	428
-7.501	-15.867	17468	17378	0	428
-17.166	-24.378	17572	17705	0	428
-18.428	-28.597	17619	17718	0	428
-13.487	-23.585	17667	17516	0	428
-8.042	-18.680	17761	17447	0	428
-8.943	-18.211	17879	17655	0	428
-16.336	-26.542	17973	17853	0	428
-24.811	-39.163	17997	17738	0	428
-30.364	-48.972	18011	17345	0	428
-32.816	-50.270	17964	16826	0	428
-33.069	-43.527	17893	16246	0	428
-28.958	-35.737	17784	15622	0	428
-23.296	-30.472	17657	14984	0	428
-14.064	-28.814	17516	14360	0	428
-5.914	-30.941	17398	13838	0	428
-6.599	-31.771	17313	13571	0	428
-12.153	-30.508	17233	13515	0	428
-17.706	-23.116	17162	13482	0	428
-19.041	-16.192	17124	13534	0	428
-15.867	-7.068	17067	13713	0	428
-7.032	-3.967	17020	13809	0	428
-1.803	-6.635	16950	13815	0	428
1.479	-12.514	16935	13964	0	428
2.849	-18.139	16926	14254	0	428
3.859	-18.392	16865	14436	0	428
2.344	-15.110	16808	14443	0	428
-1.587	-14.208	16723	14373	0	428
-8.619	-18.969	16619	14274	0	428
-18.608	-28.777	16525	14159	0	428
-25.207	-37.505	16393	14033	0	428
-26.794	-41.291	16281	13914	0	428
-26.686	-38.731	16196	13875	0	428
-24.450	-35.990	16139	14056	0	428
-26.325	-35.124	16092	14416	0	428
-25.929	-35.954	16054	14710	0	428
-22.899	-33.790	15998	14846	0	428
-17.057	-26.650	15913	14915	0	428
-12.658	-21.385	15833	14958	0	428
-16.264	-20.988	15762	14984	0	428
-23.909	-26.614	15653	14997	0	428
-30.004	-33.466	15573	15014	0	428
-29.715	-35.052	15488	15037	0	428
-23.657	-32.492	15394	15070	0	428
-18.572	-28.994	15314	15113	0	428
-18.933	-32.312	15243	15169	0	428
-22.034	-38.658	15196	15308	0	428
-22.142	-40.137	15182	15668	0	428
-18.283	-34.656	15243	16256	0	428
-12.225	-20.050	15323	16948	0	428
-8.294	-5.626	15432	17615	0	428
-7.032	3.101	15512	18088	0	428
-5.986	3.210	15573	18391	0	428
-1.659	-0.793	15691	18755	0	428
2.921	-2.669	15818	19240	0	428
5.986	-0.252	15984	19749	0	428
3.065	2.056	16125	20168	0	428
-5.770	-2.524	16234	20353	0	428
-16.012	-15.398	16304	20267	0	428
-26.181	-30.905	16361	20013	0	428
-30.905	-39.668	16375	19656	0	428
-27.912	-34.764	16361	19227	0	428
-19.942	-20.519	16337	18748	1	752
-10.314	-5.590	16290	18236	0	752
-5.734	0.144	16243	17714	0	752
-10.061	-5.914	16196	17265	0	752
-19.473	-18.103	16234	17107	0	752
-31.410	-30.833	16337	17335	0	752
-36.387	-37.396	16417	17652	0	752
-36.062	-38.442	16454	17724	0	752
-32.131	-38.154	16525	17619	0	752
-24.450	-38.226	16582	17605	0	752
-17.887	-37.937	16652	17688	0	752
-12.477	-33.249	16700	17635	0	752
-7.176	-22.467	16700	17381	0	752
-5.013	-8.655	16676	17031	0	752
-1.370	2.669	16643	16641	0	752
1.442	6.167	16619	16292	0	752
3.282	3.390	16619	16130	0	752
3.931	-3.065	16652	16193	0	752
-4.003	-10.602	16714	16375	0	752
-18.392	-20.267	16770	16539	0	752
-29.499	-28.489	16794	16549	0	752
-35.629	-35.088	16770	16375	0	752
-31.374	-35.160	16747	16104	0	752
-19.293	-26.470	16700	15797	0	752
-11.576	-19.005	16629	15463	0	752
-10.783	-15.759	16558	15123	0	752
-20.844	-19.582	16464	14786	0	752
-33.646	-25.424	16393	14535	0	752
-42.553	-26.145	16393	14585	0	752
-44.753	-24.775	16478	15093	0	752
-40.245	-25.856	16643	15892	0	752
-35.124	-35.088	16784	16654	0	752
-33.502	-48.864	16973	17345	0	752
-38.839	-58.096	17185	18094	0	752
-43.455	-55.499	17350	18732	0	752
-47.349	-43.924	17478	18979	0	752
-44.356	-31.230	17549	18867	0	752
-37.757	-25.099	17586	18557	0	752
-29.030	-25.424	17563	18107	0	752
-18.897	-25.460	17516	17559	0	752
-12.730	-22.683	17431	16955	0	752
-6.960	-16.408	17360	16384	0	752
-4.796	-11.720	17327	16011	0	752
-4.400	-12.333	17313	15873	0	752
-4.472	-17.490	17327	15866	0	752
-4.291	-23.080	17360	15939	0	752
-9.556	-23.152	17421	16147	0	752
-14.353	-20.880	17525	16526	0	752
-20.952	-16.841	17610	16885	0	752
-24.775	-16.697	17657	16935	0	752
-25.748	-21.277	17643	16697	0	752
-24.919	-27.732	17619	16381	0	752
-28.886	-34.511	17634	16246	0	752
-32.276	-38.478	17704	16407	0	752
-35.124	-43.022	17761	16671	0	752
-33.538	-49.369	17846	16852	0	752
-29.607	-53.480	17893	16935	0	752
-27.047	-47.962	17893	16806	0	752
-25.243	-34.439	17832	16443	0	752
-27.119	-19.221	17751	15952	0	752
-29.427	-11.215	17634	15394	0	752
-30.472	-17.670	17492	14803	0	752
-30.869	-29.679	17336	14211	0	752
-27.840	-39.524	17162	13650	0	752
-24.739	-40.930	16973	13138	0	752
-22.286	-43.130	16794	12686	0	752
-22.250	-45.078	16629	12372	0	752
-27.335	-45.510	16511	12332	0	752
-27.515	-34.620	16407	12507	0	752
-25.207	-13.920	16304	12653	0	752
-17.923	5.734	16196	12748	0	752
-11.035	10.494	16149	13026	0	752
-8.475	-5.301	16116	13465	0	752
-11.612	-28.814	16054	13815	0	752
-17.815	-46.051	15974	14007	0	752
-24.125	-47.530	15889	14132	0	752
-27.227	-37.108	15842	14294	0	752
-26.830	-24.486	15809	14641	0	752
-25.712	-17.202	15833	15192	0	752
-23.945	-15.074	15913	15906	0	752
-23.657	-14.353	16045	16773	0	752
-25.316	-13.595	16163	17602	0	752
-23.152	-11.179	16267	18157	0	752
-18.824	-11.107	16375	18593	0	752
-16.444	-15.975	16478	19006	0	752
-18.067	-24.702	16534	19194	0	752
-19.942	-31.699	16558	19105	0	752
-22.575	-32.348	16558	18850	0	752
-17.382	-24.883	16511	18497	0	752
-12.622	-17.057	16454	18068	0	752
-10.278	-11.540	16375	17602	0	752
-15.687	-15.615	16281	17113	0	752
-20.952	-22.431	16172	16628	0	752
-22.575	-26.758	16068	16163	0	752
-17.129	-22.899	15951	15724	0	752
-10.891	-14.569	15818	15321	0	752
-9.989	-10.638	15691	14968	0	752
-15.579	-16.372	15573	14667	0	752
-23.080	-28.597	15465	14482	0	752
-28.705	-37.649	15408	14548	0	752
-28.669	-41.616	15408	14822	0	752
-25.784	-36.423	15385	15123	0	752
-22.683	-30.833	15432	15493	0	752
-23.008	-30.184	15455	15972	0	752
-22.755	-30.689	15488	16342	0	752
-21.277	-31.951	15502	16506	0	752
-17.670	-28.741	15479	16568	0	752
-12.730	-22.899	15465	16568	0	752
-12.081	-19.221	15441	16512	0	752
-13.451	-15.903	15408	16486	0	752
-17.851	-17.851	15455	16638	0	752
-19.942	-22.467	15512	17004	0	752
-19.005	-27.479	15597	17473	0	752
-17.598	-34.187	15724	17975	0	752
-19.041	-40.534	15856	18494	0	752
-24.630	-48.395	16045	19006	0	752
-31.879	-56.617	16210	19494	0	752
-35.160	-59.214	16384	19940	0	752
-31.951	-50.523	16582	20333	0	752
-21.457	-35.882	16737	20591	0	752
-12.766	-21.601	16855	20571	0	752
-11.864	-19.798	16926	20261	0	752
-17.562	-30.653	16935	19775	0	752
-27.047	-47.205	16950	19187	0	752
-31.807	-58.348	16926	18593	1	496
-30.941	-59.538	16950	18160	0	496
-28.525	-56.581	16950	17863	0	496
-27.263	-51.497	16935	17473	0	496
-28.309	-45.655	16926	17001	0	496
-28.525	-37.360	16912	16684	0	496
-25.135	-28.886	16926	16526	0	496
-20.952	-24.955	16888	16279	0	496
-21.529	-25.929	16855	15866	0	496
-23.765	-30.725	16770	15400	0	496
-24.558	-33.934	16676	14928	0	496
-22.899	-31.302	16558	14466	0	496
-16.985	-26.902	16454	14023	0	496
-11.973	-21.745	16314	13617	0	496
-10.530	-14.677	16196	13254	0	496
-13.559	-8.186	16045	12947	0	496
-16.048	-4.147	15927	12765	0	496
-18.933	-8.691	15880	12848	0	496
-24.017	-22.395	15856	13211	0	496
-27.263	-36.459	15880	13733	0	496
-31.590	-44.573	15913	14274	0	496
-31.482	-39.235	15903	14677	0	496
-29.102	-29.246	15903	14892	0	496
-29.571	-25.640	15866	14997	0	496
-33.285	-31.410	15809	15047	0	496
-39.668	-41.183	15795	15116	0	496
-42.337	-45.222	15795	15364	0	496
-39.812	-37.613	15833	15754	0	496
-36.459	-27.371	15833	16031	0	496
-32.384	-21.637	15809	16124	0	496
-34.980	-27.768	15785	16127	0	496
-38.045	-35.882	15738	16094	0	496
-38.406	-39.488	15691	16025	0	496
-36.314	-33.285	15620	15932	0	496
-31.122	-21.854	15573	15826	0	496
-23.296	-12.225	15512	15721	0	496
-12.910	-5.265	15432	15622	0	496
-1.262	-0.288	15361	15542	0	496
5.878	3.498	15323	15539	0	496
5.013	5.013	15361	15820	0	496
-3.606	1.695	15455	16463	0	496
-15.326	-6.960	15573	17179	0	496
-22.395	-15.543	15653	17622	0	496
-22.395	-19.654	15691	17797	0	496
-17.995	-19.762	15738	17840	0	496
-9.052	-15.326	15738	17804	0	496
0.180	-8.799	15762	17761	0	496
6.527	-3.173	15833	17863	0	496
11.540	1.515	15880	18081	0	496
8.402	1.298	15936	18177	0	496
1.190	-5.590	15951	18074	0	496
-10.422	-15.146	15951	17870	0	496
-18.788	-20.952	15936	17612	0	496
-20.231	-17.670	15889	17318	0	496
-15.579	-7.501	15856	17004	0	496
-9.737	-0.721	15809	16687	0	496
-6.311	-0.829	15762	16450	0	496
-10.494	-12.550	15818	16496	0	496
-21.096	-26.830	15913	16919	0	496
-29.138	-34.295	16054	17483	0	496
-30.977	-34.511	16196	17989	0	496
-30.472	-30.292	16337	18395	0	496
-25.532	-26.830	16440	18576	0	496
-24.630	-25.207	16487	18497	0	496
-23.729	-25.820	16525	18269	0	496
-21.132	-24.666	16525	17946	0	496
-16.048	-23.224	16501	17553	0	496
-11.864	-22.899	16464	17123	0	496
-14.100	-25.279	16417	16677	0	496
-22.611	-28.958	16351	16236	0	496
-32.348	-28.381	16304	15866	0	496
-35.665	-24.089	16290	15724	0	496
-30.797	-17.779	16290	15767	0	496
-21.168	-14.172	16267	15744	0	496
-14.353	-18.608	16234	15582	0	496
-13.343	-27.299	16196	15367	0	496
-15.687	-34.764	16125	15146	0	496
-16.228	-35.557	16054	14918	0	496
-17.202	-32.456	15984	14704	0	496
-19.005	-32.059	15903	14519	0	496
-24.378	-35.701	15842	14433	0	496
-31.013	-42.878	15880	14651	0	496
-34.944	-46.159	15974	15252	0	496
-33.466	-42.914	16054	15939	0	496
-30.148	-36.206	16149	16430	0	496
-29.499	-33.718	16290	16935	0	496
-34.079	-37.108	16478	17662	0	496
-38.911	-42.229	16643	18352	0	496
-39.885	-46.051	16794	18758	0	496
-35.882	-44.753	16973	19108	0	496
-28.381	-40.101	17218	19696	0	496
-21.601	-31.590	17501	20479	0	496
-18.752	-23.152	17799	21222	0	496
-21.060	-19.834	18020	21671	0	496
-26.470	-23.368	18233	21701	0	496
-36.495	-36.423	18398	21522	0	496
-44.356	-52.542	18516	21255	0	496
-46.953	-59.719	18586	20740	0	496
-38.622	-55.067	18600	19950	0	496
-26.722	-43.779	18553	19016	1	396
-19.798	-36.134	18468	18008	0	396
-21.457	-36.098	18365	16958	0	396
-31.085	-40.029	18247	15982	0	396
-37.360	-39.163	18138	15232	0	396
-36.531	-35.233	18044	14694	0	396
-32.059	-32.095	17926	14129	0	396
-28.309	-33.790	17808	13541	0	396
-27.840	-37.468	17714	13168	0	396
-27.263	-38.298	17619	12999	0	396
-28.777	-36.026	17516	12795	0	396
-32.816	-35.557	17383	12468	0	396
-40.173	-40.966	17256	12187	0	396
-48.251	-50.595	17162	12137	0	396
-49.513	-54.670	17091	12270	0	396
-45.691	-54.273	16973	12346	0	396
-39.668	-48.359	16865	12286	0	396
-37.973	-43.887	16723	12187	0	396
-41.543	-43.022	16558	12095	0	396
-44.428	-42.878	16407	12009	0	396
-44.645	-40.606	16257	11953	0	396
-37.324	-36.351	16139	11999	0	396
-27.912	-30.112	16045	12286	0	396
-23.621	-26.217	15984	12762	0	396
-26.361	-27.912	15951	13241	0	396
-33.393	-34.728	15960	13838	0	396
-41.039	-41.868	16068	14799	0	396
-40.642	-43.887	16219	15992	0	396
-34.583	-39.812	16351	17018	0	396
-26.722	-33.898	16464	17708	0	396
-24.162	-27.010	16596	18253	0	396
-25.171	-26.145	16700	18745	0	396
-25.243	-24.270	16761	18996	0	396
-21.385	-22.106	16770	18953	0	396
-16.913	-18.933	16770	18741	0	396
-14.461	-19.762	16737	18418	0	396
-17.310	-25.207	16652	18018	0	396
-22.935	-34.367	16582	17566	0	396
-27.515	-39.993	16478	17087	0	396
-30.617	-41.291	16393	16674	0	396
-32.276	-37.108	16351	16483	0	396
-32.420	-32.131	16314	16469	0	396
-33.754	-30.833	16257	16390	0	396
-32.348	-34.620	16196	16167	0	396
-31.410	-41.904	16116	15899	0	396
-33.213	-47.710	16007	15628	0	396
-36.603	-48.179	15913	15361	0	396
-39.380	-42.409	15809	15113	0	396
-38.298	-31.013	15691	14888	0	396
-35.521	-22.178	15606	14760	0	396
-34.079	-20.375	15573	14862	0	396
-35.665	-26.650	15559	15149	0	396
-38.695	-37.721	15535	15381	0	396
-38.406	-43.527	15479	15466	0	396
-33.610	-42.084	15479	15559	0	396
-24.919	-34.223	15526	15902	0	396
-20.700	-27.660	15620	16582	0	396
-21.132	-24.486	15738	17302	0	396
-26.866	-25.532	15795	17731	0	396
-30.148	-22.611	15856	17880	0	396
-28.453	-16.372	15866	17886	0	396
-21.529	-9.124	15866	17790	0	396
-12.297	-7.140	15866	17605	0	396
-8.006	-10.350	15795	17364	0	396
-9.773	-17.238	15771	17103	0	396
-16.156	-21.277	15701	16833	0	396
-25.316	-21.493	15644	16559	0	396
-32.167	-20.952	15559	16299	0	396
-36.639	-20.123	15526	16114	0	396
-36.387	-21.096	15535	16150	0	396
-30.508	-18.860	15535	16361	0	396
-21.493	-14.389	15550	16496	0	396
-14.713	-14.353	15550	16476	0	396
-13.307	-16.697	15502	16393	0	396
-19.690	-22.395	15479	16295	0	396
-24.666	-24.991	15432	16173	0	396
-21.745	-19.041	15370	16038	0	396
-10.927	-8.619	15323	15902	0	396
-1.515	-2.128	15276	15770	0	396
-2.344	-5.770	15219	15648	0	396
-15.146	-15.939	15158	15546	0	396
-31.987	-23.657	15125	15539	0	396
-41.399	-22.611	15158	15757	0	396
-39.885	-18.320	15196	16150	0	396
-34.620	-15.074	15219	16456	0	396
-31.374	-20.014	15243	16592	0	396
-32.384	-29.246	15243	16648	0	396
-32.420	-30.653	15243	16661	0	396
-27.660	-26.109	15243	16641	0	396
-19.437	-16.805	15205	16601	0	396
-17.562	-13.127	15196	16545	0	396
-26.073	-18.175	15158	16489	0	396
-37.901	-24.666	15182	16502	0	396
-47.674	-27.515	15229	16720	0	396
-43.671	-20.555	15300	17094	0	396
-31.662	-10.710	15361	17371	0	396
-20.772	-6.239	15432	17533	0	396
-20.159	-10.206	15526	17807	0	396
-29.968	-19.618	15653	18187	0	396
-37.973	-27.047	15724	18421	0	396
-42.409	-28.633	15795	18428	0	396
-38.045	-24.486	15818	18315	0	396
-31.410	-21.277	15856	18137	0	396
-26.830	-19.077	15866	17899	0	396
-23.080	-16.949	15842	17625	0	396
-22.467	-15.218	15842	17325	0	396
-21.709	-13.812	15795	17008	0	396
-22.431	-14.245	15771	16691	0	396
-25.316	-18.031	15724	16384	0	396
-26.397	-18.824	15677	16100	0	396
-22.214	-16.084	15620	15840	0	396
-15.290	-12.189	15583	15618	0	396
-10.169	-11.756	15550	15499	0	396
-10.206	-16.012	15606	15678	0	396
-16.012	-25.207	15738	16239	0	396
-24.955	-28.994	15866	16872	0	396
-30.436	-26.794	15951	17252	0	396
-31.194	-18.356	16021	17384	0	396
-26.974	-10.927	16116	17463	0	396
-27.371	-10.169	16210	17655	0	396
-28.994	-14.569	16304	17926	0	396
-31.987	-22.431	16375	18041	0	396
-32.672	-27.479	16454	18008	0	396
-29.499	-27.191	16549	18068	0	396
-24.486	-26.109	16643	18226	0	396
-24.342	-26.506	16723	18240	0	396
-27.587	-30.941	16761	18031	0	396
-31.374	-34.692	16770	17708	0	396
-31.410	-34.367	16737	17321	0	396
-27.371	-29.030	16714	16892	0	396
-26.145	-24.234	16690	16506	0	396
-25.784	-22.719	16700	16328	0	396
-29.102	-25.856	16737	16375	0	396
-29.535	-30.004	16817	16552	0	396
-24.991	-30.076	16902	16737	0	396
-21.781	-25.856	16926	16760	0	396
-20.267	-24.702	16935	16592	0	396
-22.683	-27.263	16935	16384	0	396
-24.378	-32.312	16997	16335	0	396
-23.549	-33.321	17053	16463	0	396
-15.218	-26.902	17138	16681	0	396
-7.825	-13.595	17209	16869	0	396
-3.570	-4.977	17242	16876	0	396
-3.173	-4.904	17233	16671	0	396
-3.787	-12.117	17209	16351	0	396
-6.671	-17.887	17162	15982	0	396
-7.645	-17.815	17077	15582	0	396
-10.386	-13.415	17006	15179	0	396
-16.516	-14.028	16902	14776	0	396
-23.404	-20.916	16832	14456	0	396
-29.427	-32.276	16794	14373	0	396
-29.751	-37.793	16794	14552	0	396
-28.705	-35.737	16817	14879	0	396
-23.549	-30.797	16865	15212	0	396
-21.132	-29.318	16855	15394	0	396
-21.168	-32.456	16841	15377	0	396
-22.863	-37.649	16794	15258	0	396
-26.325	-36.783	16723	15097	0	396
-28.056	-30.905	16643	14905	0	396
-29.571	-24.053	16582	14766	0	396
-27.515	-21.024	16572	14832	0	396
-26.542	-24.558	16572	15067	0	396
-26.866	-31.554	16534	15222	0	396
-28.777	-36.098	16487	15219	0	396
-31.518	-34.511	16464	15215	0	396
-27.083	-29.066	16478	15397	0	396
-19.618	-21.709	16487	15711	0	396
-10.855	-15.975	16478	15912	0	396
-6.780	-14.172	16454	15925	0	396
-12.081	-16.264	16431	15919	0	396
-19.365	-20.339	16454	16081	0	396
-22.863	-24.702	16478	16361	0	396
-23.008	-28.814	16511	16592	0	396
-22.899	-29.895	16605	16909	0	396
-26.758	-30.436	16770	17559	0	396
-30.617	-31.013	16959	18411	0	396
-31.843	-32.023	17138	19092	0	396
-24.739	-31.735	17266	19432	0	396
-14.028	-29.282	17454	19693	0	396
-6.816	-26.506	17643	20109	0	396
-7.032	-23.152	17808	20446	0	396
-11.143	-21.601	17940	20462	0	396
-14.172	-19.654	18105	20409	0	396
-12.982	-17.382	18256	20522	0	396
-10.386	-15.759	18398	20568	0	396
-7.609	-15.687	18459	20244	0	396
-9.268	-18.247	18506	19666	0	396
-11.179	-21.781	18539	19134	0	396
-14.533	-27.335	18600	18735	1	752
-16.697	-34.583	18657	18451	0	752
-18.211	-42.842	18742	18325	0	752
-21.565	-50.595	18836	18249	0	752
-24.414	-57.735	18940	18144	0	752
-26.542	-60.692	19058	18124	0	752
-28.561	-60.620	19129	18045	0	752
-28.020	-53.336	19143	17635	0	752
-22.755	-40.498	19096	16928	0	752
-14.100	-25.568	18987	16087	0	752
-7.501	-18.464	18846	15179	0	752
-2.885	-21.818	18671	14244	0	752
-9.016	-33.898	18459	13326	0	752
-18.103	-46.628	18233	12448	0	752
-25.856	-51.461	17987	11642	0	752
-29.679	-48.143	17737	10922	0	752
-25.279	-38.334	17468	10308	0	752
-14.821	-26.902	17233	9862	0	752
-3.318	-16.625	17053	9733	0	752
9.016	-8.366	16902	9935	0	752
14.497	-3.570	16817	10351	0	752
12.153	-5.301	16714	10833	0	752
0.649	-14.858	16596	11209	0	752
-13.415	-28.128	16478	11437	0	752
-24.234	-39.668	16328	11606	0	752
-28.453	-45.041	16234	11824	0	752
-25.496	-38.478	16139	12237	0	752
-17.166	-24.991	16092	12864	0	752
-11.287	-12.225	16092	13597	0	752
-7.609	-2.633	16092	14311	0	752
-8.619	-0.649	16078	14849	0	752
-10.242	-3.426	16045	15245	0	752
-14.064	-13.018	16045	15714	0	752
-17.310	-22.683	16068	16262	0	752
-21.385	-33.213	16068	16641	0	752
-25.460	-39.055	16021	16790	0	752
-27.155	-37.288	15960	16816	0	752
-25.027	-27.948	15927	16843	0	752
-18.536	-16.516	15913	17011	0	752
-13.091	-5.770	15951	17361	0	752
-10.566	-5.085	16007	17790	0	752
-12.189	-10.206	16078	18240	0	752
-15.471	-20.447	16172	18695	0	752
-15.975	-27.551	16243	19065	0	752
-16.336	-28.092	16304	19204	0	752
-15.362	-23.693	16304	19082	0	752
-16.877	-16.300	16281	18817	0	752
-22.358	-14.353	16234	18471	0	752
-28.705	-19.293	16196	18127	0	752
-34.728	-31.626	16243	18018	0	752
-37.721	-45.691	16328	18312	0	752
-37.541	-54.165	16478	18860	0	752
-35.557	-50.811	16582	19283	0	752
-31.699	-38.334	16690	19415	0	752
-29.102	-25.243	16794	19452	0	752
-30.220	-21.132	16879	19491	0	752
-33.393	-28.381	16912	19336	0	752
-35.088	-39.560	16926	18926	0	752
-32.636	-43.815	16879	18382	0	752
-24.919	-37.577	16817	17771	0	752
-16.769	-23.549	16737	17117	0	752
-8.619	-12.261	16619	16443	0	752
-8.691	-12.153	16487	15783	0	752
-10.494	-18.283	16351	15159	0	752
-15.867	-27.010	16196	14578	0	752
-20.988	-27.155	16045	14060	0	752
-22.142	-19.834	15913	13680	0	752
-17.851	-8.871	15842	13584	0	752
-8.547	-0.505	15771	13709	0	752
-1.154	0.433	15738	13871	0	752
1.695	-5.698	15724	14116	0	752
-4.580	-14.136	15762	14548	0	752
-14.028	-20.844	15818	15097	0	752
-19.798	-22.106	15866	15615	0	752
-18.860	-16.120	15903	15958	0	752
-14.858	-9.376	15889	16084	0	752
-12.405	-7.898	15903	16153	0	752
-15.831	-14.136	15951	16355	0	752
-21.349	-26.722	15974	16644	0	752
-27.010	-38.767	15984	16796	0	752
-30.761	-42.697	15974	16740	0	752
-33.610	-41.435	15927	16585	0	752
-36.134	-37.036	15880	16384	0	752
-39.055	-31.735	15818	16150	0	752
-35.701	-26.578	15715	15899	0	752
-29.030	-19.798	15644	15645	0	752
-23.873	-15.038	15573	15466	0	752
-21.673	-13.956	15559	15506	0	752
-23.152	-17.526	15559	15727	0	752
-22.647	-21.421	15526	15883	0	752
-18.500	-20.339	15502	15883	0	752
-13.848	-17.706	15455	15816	0	752
-12.405	-17.129	15385	15731	0	752
-15.975	-19.149	15347	15638	0	752
-15.759	-23.585	15300	15615	0	752
-13.199	-21.096	15347	15873	0	752
-7.501	-13.884	15441	16476	0	752
-3.029	-5.229	15535	17136	0	752
-5.734	-1.983	15620	17523	0	752
-11.792	-7.717	15653	17645	0	752
-17.418	-20.159	15677	17635	0	752
-20.231	-31.013	15668	17539	0	752
-19.293	-37.360	15653	17371	0	752
-20.231	-36.387	15606	17153	0	752
-22.683	-32.492	15583	16905	0	752
-28.237	-32.420	15535	16654	0	752
-34.403	-34.331	15488	16473	0	752
-36.134	-37.360	15535	16562	0	752
-29.210	-37.396	15653	17021	0	752
-19.870	-31.122	15748	17553	0	752
-12.225	-22.214	15818	17827	0	752
-10.386	-20.411	15880	17847	0	752
-17.959	-23.368	15880	17731	0	752
-24.306	-29.931	15889	17533	0	752
-27.732	-37.000	15866	17275	0	752
-23.044	-38.514	15833	16981	0	752
-15.254	-35.088	15809	16737	0	752
-13.379	-32.528	15833	16697	0	752
-17.418	-33.754	15880	16819	0	752
-28.814	-38.226	15880	16856	0	752
-35.052	-41.832	15903	16786	0	752
-33.610	-40.570	15951	16843	0	752
-21.313	-31.554	15998	17018	0	752
-11.756	-20.159	16054	17146	0	752
-8.907	-13.812	16139	17295	0	752
-18.067	-16.913	16219	17506	0	752
-31.987	-26.578	16267	17579	0	752
-43.599	-37.829	16314	17500	0	752
-46.881	-42.697	16384	17516	0	752
-44.248	-42.914	16454	17629	0	752
-38.082	-40.930	16487	17602	0	752
-33.429	-40.534	16478	17371	0	752
-28.777	-44.681	16478	17047	0	752
-28.056	-46.520	16431	16681	0	752
-28.417	-46.340	16375	16289	0	752
-31.266	-41.796	16304	15886	0	752
-34.403	-37.360	16243	15496	0	752
-36.855	-33.466	16139	15123	0	752
-35.846	-34.547	16045	14766	0	752
-30.400	-37.288	15951	14443	0	752
-26.614	-41.399	15842	14162	0	752
-24.775	-45.330	15762	13997	0	752
-26.217	-47.962	15738	14079	0	752
-27.660	-49.730	15715	14360	0	752
-28.850	-45.979	15738	14654	0	752
-24.955	-40.930	15771	15011	0	752
-20.123	-33.826	15833	15466	0	752
-15.543	-27.443	15880	15869	0	752
-11.035	-22.935	15951	16276	0	752
-7.825	-21.926	16068	16796	0	752
-6.960	-19.762	16243	17434	0	752
-7.681	-17.129	16464	18256	0	752
-9.232	-14.785	16700	19204	0	752
-10.783	-13.992	16935	19937	0	752
-13.631	-15.975	17077	20224	0	752
-15.903	-20.916	17185	20132	0	752
-20.700	-26.938	17233	19815	0	752
-26.001	-32.780	17256	19349	0	752
-28.597	-35.016	17280	18837	0	752
-29.931	-34.511	17289	18457	1	636
-29.138	-32.131	17313	18187	0	636
-29.571	-32.780	17289	17804	0	636
-32.420	-36.567	17233	17242	0	636
-36.964	-43.851	17171	16621	0	636
-39.993	-49.802	17067	15995	0	636
-38.009	-48.467	16959	15371	0	636
-28.309	-38.658	16817	14773	0	636
-17.057	-25.929	16690	14215	0	636
-11.287	-17.851	16549	13713	0	636
-15.615	-18.860	16393	13280	0	636
-27.155	-29.030	16243	12923	0	636
-36.278	-37.829	16101	12643	0	636
-33.393	-36.314	15984	12497	0	636
-19.113	-24.378	15960	12686	0	636
-1.334	-8.619	15974	13297	0	636
7.934	-1.082	16021	14020	0	636
3.859	-6.599	16045	14519	0	636
-9.304	-20.159	16031	14793	0	636
-23.332	-31.843	16007	14961	0	636
-28.309	-33.646	15984	15063	0	636
-25.279	-25.279	15927	15103	0	636
-16.480	-11.792	15856	15103	0	636
-9.412	-2.669	15818	15139	0	636
-7.934	-3.750	15818	15364	0	636
-11.287	-14.677	15833	15731	0	636
-14.461	-28.164	15842	15995	0	636
-14.713	-35.701	15795	16077	0	636
-15.038	-34.656	15771	16084	0	636
-16.156	-30.364	15738	16117	0	636
-18.644	-25.748	15809	16384	0	636
-19.978	-26.542	15903	16991	0	636
-17.562	-25.532	16045	17711	0	636
-11.900	-22.899	16219	18405	0	636
-7.934	-19.690	16440	19174	0	636
-9.088	-19.149	16619	19854	0	636
-11.792	-22.611	16761	20152	0	636
-10.386	-27.119	16855	20092	0	636
-6.924	-26.037	16879	19825	0	636
-2.308	-22.539	16902	19422	0	636
-3.246	-18.680	16902	18989	0	636
-11.612	-17.923	16950	18695	0	636
-17.057	-22.034	17006	18570	0	636
-19.510	-26.542	17067	18537	0	636
-15.398	-28.669	17124	18484	0	636
-10.530	-27.155	17162	18263	0	636
-11.143	-26.217	17124	17833	0	636
-16.805	-26.578	17091	17305	0	636
-24.270	-29.931	17044	16810	0	636
-26.938	-33.646	17044	16496	0	636
-24.486	-30.184	17020	16338	0	636
-17.310	-23.044	16997	16091	0	636
-10.999	-14.100	16926	15684	0	636
-8.402	-11.251	16832	15232	0	636
-10.746	-16.661	16737	14786	0	636
-15.507	-24.558	16605	14363	0	636
-19.834	-31.410	16511	14036	0	636
-22.467	-32.997	16487	14017	0	636
-20.050	-29.679	16525	14393	0	636
-15.903	-23.116	16572	14872	0	636
-11.179	-15.290	16558	15113	0	636
-7.537	-8.114	16534	15126	0	636
-7.753	-5.049	16501	15040	0	636
-7.393	-7.753	16431	14902	0	636
-6.419	-14.208	16375	14793	0	636
-4.327	-19.906	16361	14875	0	636
-4.364	-23.044	16384	15172	0	636
-9.953	-25.388	16431	15589	0	636
-16.625	-28.309	16478	15982	0	636
-20.375	-28.633	16478	16196	0	636
-17.166	-24.053	16464	16206	0	636
-11.720	-14.894	16431	16107	0	636
-9.088	-7.537	16407	16018	0	636
-10.999	-5.013	16417	16084	0	636
-14.461	-8.006	16417	16266	0	636
-11.720	-10.674	16407	16335	0	636
-5.121	-11.828	16361	16219	0	636
0.144	-12.694	16304	16025	0	636
-0.505	-18.788	16257	15869	0	636
-6.527	-27.407	16257	15906	0	636
-11.828	-31.879	16257	16087	0	636
-13.740	-28.777	16243	16173	0	636
-11.035	-17.490	16234	16160	0	636
-6.635	-8.619	16243	16276	0	636
-3.642	-7.248	16267	16512	0	636
-6.167	-15.975	16267	16634	0	636
-10.927	-26.758	16267	16565	0	636
-17.382	-32.853	16210	16407	0	636
-23.657	-29.246	16149	16216	0	636
-23.801	-20.700	16101	16054	0	636
-17.562	-12.586	16139	16147	0	636
-8.655	-11.323	16219	16582	0	636
-3.606	-12.982	16314	17136	0	636
-4.111	-17.021	16440	17622	0	636
-9.304	-16.985	16572	18071	0	636
-15.975	-15.182	16714	18507	0	636
-17.166	-14.641	16841	18831	0	636
-13.235	-18.175	16888	18903	0	636
-8.835	-25.243	16935	18702	0	636
-9.701	-31.122	16912	18342	0	636
-15.002	-28.056	16902	17893	0	636
-17.526	-15.651	16832	17374	0	636
-12.874	4.580	16747	16819	0	636
-3.570	15.471	16643	16262	0	636
2.849	10.530	16534	15721	0	636
0.000	-8.691	16417	15206	0	636
-9.629	-31.013	16290	14730	0	636
-17.887	-41.039	16149	14304	0	636
-14.281	-36.423	16021	13937	0	636
-4.364	-20.087	15880	13643	0	636
5.770	-5.229	15762	13409	0	636
10.133	-0.613	15620	13231	0	636
5.157	-3.859	15502	13102	0	636
-0.036	-10.963	15370	13029	0	636
-3.606	-17.743	15243	13019	0	636
-3.029	-19.401	15134	13065	0	636
-1.046	-16.733	15064	13224	0	636
-0.829	-15.471	15040	13614	0	636
-3.029	-16.589	15040	14188	0	636
-7.537	-20.772	15064	14756	0	636
-10.530	-25.496	15125	15367	0	636
-9.556	-27.660	15205	16061	0	636
-8.547	-27.371	15252	16611	0	636
-7.068	-20.988	15300	16942	0	636
-7.573	-12.514	15337	17209	0	636
-9.665	-6.744	15418	17602	0	636
-13.307	-4.940	15512	18078	0	636
-12.838	-10.999	15583	18398	0	636
-10.819	-17.202	15620	18494	0	636
-5.445	-21.781	15653	18461	0	636
-1.010	-20.664	15653	18348	0	636
-1.046	-20.195	15653	18173	0	636
-6.275	-23.008	15644	18015	0	636
-15.038	-28.669	15715	18031	0	636
-21.024	-33.357	15762	18190	0	636
-21.096	-29.751	15809	18246	0	636
-14.064	-20.736	15809	18127	0	636
-5.662	-12.405	15833	17922	0	636
1.370	-9.484	15809	17678	0	636
1.082	-15.903	15785	17404	0	636
-4.544	-26.181	15748	17113	0	636
-11.684	-33.790	15724	16879	0	636
-17.815	-33.898	15762	16856	0	636
-18.500	-28.741	15795	17001	0	636
-14.245	-20.159	15833	17064	0	636
-9.304	-12.297	15833	16971	0	636
-4.327	-8.547	15833	16819	0	636
-1.370	-6.131	15809	16648	0	636
-0.865	-5.734	15809	16516	0	636
-0.938	-7.357	15889	16648	0	636
-1.298	-7.717	16007	17127	0	636
-2.777	-10.566	16172	17724	0	636
-5.914	-16.516	16337	18249	0	636
-10.602	-25.063	16487	18659	0	636
-19.618	-34.656	16596	18834	0	636
-26.650	-39.308	16700	18801	0	636
-28.922	-35.918	16794	18808	0	636
-26.253	-25.929	16912	18860	0	636
-19.365	-13.992	17006	18808	0	636
-12.658	-8.907	17100	18732	0	636
-11.360	-10.061	17185	18689	1	640
-14.425	-17.851	17242	18491	0	640
-20.267	-25.532	17266	18134	0	640
-26.037	-31.158	17327	17870	0	640
-28.453	-33.718	17383	17711	0	640
-26.506	-33.105	17374	17424	0	640
-18.680	-31.338	17360	16955	0	640
-6.888	-25.099	17303	16407	0	640
0.974	-13.307	17218	15843	0	640
3.931	-3.498	17115	15265	0	640
0.216	-0.505	17020	14704	0	640
-8.799	-7.285	16912	14241	0	640
-15.687	-20.519	16912	14089	0	640
-17.923	-27.551	16935	14350	0	640
-15.651	-24.378	16983	14789	0	640
-9.773	-11.396	17077	15222	0	640
-3.967	-0.469	17138	15589	0	640
-3.931	-2.019	17185	15767	0	640
-7.248	-13.127	17162	15711	0	640
-15.002	-27.912	17162	15592	0	640
-21.745	-36.891	17185	15608	0	640
-22.431	-35.737	17185	15721	0	640
-22.250	-30.436	17209	15780	0	640
-20.159	-25.568	17218	15856	0	640
-20.555	-24.162	17256	15992	0	640
-20.591	-28.056	17242	15998	0	640
-21.962	-30.076	17185	15797	0	640
-20.519	-33.790	17124	15499	0	640
-19.942	-36.278	17053	15229	0	640
-19.906	-36.603	17044	15143	0	640
-19.401	-34.043	16997	15206	0	640
-17.562	-27.660	16950	15176	0	640
-15.975	-18.247	16865	14991	0	640
-12.261	-8.835	16784	14746	0	640
-7.032	-3.498	16676	14489	0	640
-2.921	-4.003	16549	14225	0	640
-2.056	-10.530	16417	13974	0	640
-6.960	-23.224	16290	13749	0	640
-17.129	-33.898	16149	13561	0	640
-25.207	-39.091	16007	13406	0	640
-25.027	-34.547	15889	13290	0	640
-19.185	-23.260	15771	13287	0	640
-14.136	-12.946	15724	13528	0	640
-13.740	-9.124	15701	13960	0	640
-21.024	-15.543	15653	14330	0	640
-30.328	-27.010	15620	14631	0	640
-32.384	-38.334	15653	15083	0	640
-32.456	-43.851	15677	15668	0	640
-31.410	-42.553	15701	16120	0	640
-31.085	-37.324	15691	16365	0	640
-31.302	-28.309	15677	16489	0	640
-25.496	-19.185	15644	16559	0	640
-17.851	-13.271	15606	16578	0	640
-7.032	-10.169	15550	16562	0	640
-1.695	-9.665	15512	16509	0	640
-3.606	-11.360	15455	16436	0	640
-6.924	-14.353	15418	16426	0	640
-13.091	-18.031	15432	16615	0	640
-14.749	-25.496	15488	17024	0	640
-14.858	-30.184	15583	17549	0	640
-13.343	-28.814	15701	18121	0	640
-8.871	-17.310	15856	18712	0	640
-5.517	-3.606	15998	19227	0	640
-5.554	4.183	16125	19580	0	640
-7.248	-2.236	16267	19864	0	640
-9.196	-15.867	16417	20132	0	640
-12.153	-28.994	16534	20261	0	640
-14.713	-31.807	16676	20330	0	640
-16.372	-26.758	16817	20465	0	640
-24.306	-19.690	17006	20673	0	640
-27.551	-14.569	17209	20977	0	640
-26.217	-10.169	17398	21185	0	640
-14.136	-5.193	17525	21033	0	640
-2.416	-1.046	17572	20555	0	640
1.947	-2.669	17596	19904	0	640
-4.940	-13.848	17572	19151	0	640
-19.185	-30.220	17549	18398	0	640
-29.246	-41.976	17549	17817	0	640
-29.210	-43.924	17539	17378	0	640
-21.204	-34.980	17492	16856	1	316
-16.913	-23.621	17407	16200	0	316
-15.290	-14.353	17303	15503	0	316
-17.382	-9.881	17195	14832	0	316
-17.382	-7.104	17100	14268	0	316
-12.622	-6.383	17006	13954	0	316
-7.176	-4.364	17006	13914	0	316
-3.931	-4.327	17006	14033	0	316
-8.511	-9.088	16983	14192	0	316
-14.533	-14.858	16959	14225	0	316
-18.860	-21.818	16888	14099	0	316
-18.500	-25.352	16817	13904	0	316
-12.694	-25.135	16714	13693	0	316
-7.357	-19.798	16619	13534	0	316
-6.671	-13.992	16596	13587	0	316
-12.153	-13.163	16582	13868	0	316
-20.050	-20.303	16629	14344	0	316
-26.181	-31.410	16737	15024	0	316
-26.253	-40.317	16808	15694	0	316
-25.063	-39.560	16879	16130	0	316
-22.431	-29.859	16973	16479	0	316
-23.981	-18.897	17030	16839	0	316
-29.138	-16.697	17077	17008	0	316
-32.095	-24.378	17077	16985	0	316
-31.266	-35.341	17124	17018	0	316
-21.637	-38.406	17148	17113	0	316
-9.052	-29.318	17162	17120	0	316
0.613	-15.975	17195	17117	0	316
-1.334	-9.088	17209	17166	0	316
-12.982	-15.687	17209	17064	0	316
-26.830	-30.545	17148	16750	0	316
-32.600	-38.731	17067	16338	0	316
-22.647	-31.302	16983	15889	0	316
-2.669	-10.386	16888	15483	0	316
13.379	7.970	16841	15351	0	316
17.346	9.124	16912	15651	0	316
7.573	-4.436	16997	16239	0	316
-9.016	-24.198	17091	16730	0	316
-20.772	-35.665	17100	16895	0	316
-27.660	-35.557	17100	16780	0	316
-28.741	-30.292	17077	16585	0	316
-26.722	-23.152	17091	16509	0	316
-21.168	-17.093	17100	16592	0	316
-12.622	-7.717	17162	16747	0	316
-2.308	-1.226	17171	16869	0	316
1.875	-0.902	17185	16813	0	316
-0.938	-10.242	17124	16555	0	316
-9.196	-26.614	17053	16196	0	316
-15.398	-38.658	16973	15787	0	316
-21.168	-44.320	16879	15410	0	316
-24.522	-41.868	16808	15229	0	316
-28.525	-35.846	16761	15206	0	316
-31.230	-32.564	16690	15110	0	316
-28.814	-31.771	16582	14865	0	316
-18.356	-31.518	16501	14644	0	316
-7.285	-30.220	16464	14631	0	316
-0.505	-24.306	16407	14783	0	316
-1.983	-16.516	16384	14921	0	316
-10.458	-8.222	16384	15110	0	316
-19.906	-6.996	16384	15390	0	316
-25.027	-11.576	16375	15552	0	316
-23.549	-20.700	16304	15516	0	316
-17.129	-25.063	16257	15453	0	316
-9.268	-23.981	16243	15556	0	316
-4.327	-16.300	16234	15787	0	316
-6.599	-10.927	16196	15912	0	316
-14.677	-13.812	16149	15859	0	316
-25.316	-24.522	16078	15727	0	316
-30.292	-36.423	15998	15559	0	316
-28.237	-41.724	15889	15364	0	316
-20.952	-38.190	15809	15163	0	316
-15.687	-30.004	15677	14978	0	316
-17.418	-22.431	15583	14809	0	316
-23.404	-20.123	15455	14664	0	316
-31.735	-25.316	15370	14611	0	316
-33.682	-31.194	15385	14865	0	316
-30.508	-35.557	15432	15503	0	316
-24.270	-35.233	15502	16219	0	316
-20.483	-30.400	15550	16677	0	316
-18.680	-26.506	15583	16958	0	316
-20.808	-25.640	15668	17321	0	316
-20.736	-26.830	15748	17754	0	316
-18.969	-27.696	15809	18015	0	316
-15.110	-27.047	15795	18038	0	316
-14.208	-26.289	15833	17998	0	316
-16.661	-29.895	15913	18150	0	316
-20.231	-32.816	16045	18596	0	316
-18.788	-30.617	16163	19059	0	316
-10.314	-18.320	16267	19220	0	316
4.183	0.469	16290	19098	0	316
15.182	14.785	16337	18900	0	316
15.435	15.182	16407	18814	0	316
5.265	1.839	16464	18814	0	316
-10.133	-15.254	16487	18662	0	316
-24.522	-25.712	16464	18296	0	316
-30.725	-22.683	16454	17833	0	316
-29.102	-12.477	16407	17404	0	316
-20.988	-1.046	16417	17156	0	316
-11.900	1.479	16431	17061	0	316
-6.131	-5.265	16440	16948	0	316
-8.583	-17.166	16501	16948	0	316
-18.211	-28.777	16619	17242	0	316
-29.354	-32.167	16714	17572	0	316
-34.836	-29.318	16761	17612	0	316
-32.780	-22.503	16761	17381	0	316
-26.470	-17.743	16747	17027	0	316
-19.834	-16.444	16714	16608	0	316
-16.733	-16.444	16652	16213	0	316
-16.480	-17.526	16643	15992	0	316
-17.670	-20.375	16629	15925	0	316
-17.851	-25.676	16596	15780	0	316
-16.084	-32.492	16549	15490	0	316
-10.242	-32.564	16454	15153	0	316
-3.282	-20.988	16375	14819	0	316
4.003	-3.101	16290	14552	0	316
5.301	11.720	16257	14489	0	316
-0.036	15.687	16234	14598	0	316
-9.665	5.301	16186	14641	0	316
-17.887	-11.287	16116	14545	0	316
-21.745	-24.053	16078	14472	0	316
-19.113	-30.436	16054	14598	0	316
-9.629	-25.099	16045	14875	0	316
-0.685	-14.894	16031	15067	0	316
4.111	-4.472	15998	15090	0	316
-2.633	-3.823	15927	15044	0	316
-14.894	-13.884	15866	14971	0	316
-30.905	-29.787	15809	14879	0	316
-38.586	-41.471	15701	14779	0	316
-36.675	-40.930	15620	14684	0	316
-28.850	-32.925	15535	14595	0	316
-22.034	-25.460	15455	14578	0	316
-17.959	-24.198	15455	14783	0	316
-16.877	-26.037	15455	15156	0	316
-16.913	-26.361	15418	15450	0	316
-15.687	-25.243	15394	15582	0	316
-16.552	-23.260	15361	15645	0	316
-18.320	-24.739	15314	15681	0	316
-19.726	-23.332	15267	15694	0	316
-15.723	-16.408	15205	15694	0	316
-8.655	-7.321	15149	15691	0	316
-1.623	-2.885	15087	15691	0	316
2.164	-10.963	15040	15694	0	316
-0.974	-22.142	14984	15701	0	316
-9.016	-29.463	14922	15717	0	316
-14.858	-26.325	14922	15810	0	316
-17.779	-17.274	14936	16117	0	316
-16.228	-13.848	15017	16651	0	316
-11.251	-20.159	15125	17305	0	316
-8.871	-29.030	15243	17936	0	316
-8.763	-34.511	15361	18378	0	316
-15.543	-32.059	15418	18590	0	316
-24.847	-27.119	15479	18656	0	316
-31.518	-27.010	15502	18636	0	316
-35.197	-32.167	15535	18530	0	316
-33.105	-38.658	15573	18431	0	316
-27.010	-42.697	15677	18557	0	316
-21.565	-40.389	15833	19002	0	316
-18.464	-37.505	15998	19475	0	316
-17.238	-36.891	16092	19650	0	316
-19.293	-37.721	16172	19547	0	316
-20.664	-35.954	16257	19366	0	316
-21.854	-26.037	16351	19296	0	316
-16.625	-11.828	16478	19376	0	316
-7.104	-0.793	16619	19508	1	652
5.301	1.190	16747	19580	0	652
15.435	-5.229	16808	19448	0	652
15.002	-12.297	16865	19088	0	652
6.491	-13.704	16888	18596	0	652
-8.366	-8.979	16855	18038	0	652
-17.562	-6.239	16832	17440	0	652
-17.562	-6.203	16770	16836	0	652
-7.429	-6.167	16690	16239	0	652
8.366	-2.777	16619	15668	0	652
17.202	2.813	16525	15130	0	652
16.372	4.291	16417	14641	0	652
3.823	-4.327	16314	14205	0	652
-14.569	-19.401	16210	13818	0	652
-26.830	-29.066	16101	13485	0	652
-28.381	-28.561	15984	13217	0	652
-18.680	-18.572	15866	13016	0	652
-5.626	-9.232	15795	12950	0	652
-1.118	-7.862	15762	13138	0	652
-4.003	-14.641	15762	13528	0	652
-13.956	-26.001	15738	13855	0	652
-20.555	-34.692	15715	14036	0	652
-23.729	-37.252	15653	14162	0	652
-25.027	-36.711	15653	14337	0	652
-25.929	-34.403	15691	14770	0	652
-29.787	-33.610	15856	15622	0	652
-30.328	-33.646	16045	16720	0	652
-24.594	-33.357	16219	17681	0	652
-16.516	-29.138	16393	18322	0	652
-11.396	-25.965	16572	18831	0	652
-13.595	-23.765	16723	19286	0	652
-22.431	-27.660	16832	19498	0	652
-28.020	-33.574	16902	19402	0	652
-26.758	-35.016	16926	19128	0	652
-18.680	-31.302	16950	18745	0	652
-9.052	-24.486	16912	18282	0	652
-5.986	-17.454	16879	17827	0	652
-9.016	-14.605	16902	17546	0	652
-14.677	-15.651	16902	17407	0	652
-20.123	-17.706	16902	17183	0	652
-23.116	-21.349	16855	16803	0	652
-23.657	-24.702	16784	16368	0	652
-24.017	-27.587	16723	15922	0	652
-22.250	-26.001	16619	15483	0	652
-23.476	-25.532	16525	15060	0	652
-26.938	-28.850	16431	14733	0	652
-35.629	-37.036	16407	14651	0	652
-42.120	-46.989	16384	14766	0	652
-43.779	-52.074	16351	14832	0	652
-36.242	-47.999	16290	14763	0	652
-28.669	-37.613	16267	14717	0	652
-27.083	-29.859	16281	14875	0	652
-33.285	-29.391	16290	15186	0	652
-44.284	-34.620	16281	15404	0	652
-50.703	-40.462	16257	15443	0	652
-47.386	-40.137	16219	15404	0	652
-39.019	-34.872	16186	15324	0	652
-29.823	-27.155	16101	15212	0	652
-24.162	-23.621	16031	15090	0	652
-20.808	-25.820	15960	14974	0	652
-19.437	-32.708	15880	14872	0	652
-19.329	-37.216	15795	14779	0	652
-20.627	-35.593	15724	14700	0	652
-21.168	-27.335	15630	14644	0	652
-21.890	-15.795	15559	14614	0	652
-20.627	-8.042	15479	14611	0	652
-18.067	-7.357	15418	14687	0	652
-17.887	-13.523	15432	14994	0	652
-19.149	-21.060	15465	15473	0	652
-23.621	-24.883	15455	15869	0	652
-26.181	-26.614	15465	16087	0	652
-28.056	-29.643	15488	16289	0	652
-29.354	-33.069	15535	16654	0	652
-30.869	-34.043	15644	17203	0	652
-32.239	-27.732	15809	17889	0	652
-31.807	-17.526	16045	18781	0	652
-28.669	-10.314	16304	19815	0	652
-24.630	-12.333	16534	20650	0	652
-21.601	-22.972	16747	21119	0	652
-22.250	-33.718	16973	21420	0	652
-24.955	-37.072	17171	21701	0	652
-27.119	-34.656	17398	21915	0	652
-26.253	-29.607	17563	21971	0	652
-24.234	-26.650	17681	21743	0	652
-19.510	-25.352	17751	21222	0	652
-15.615	-24.089	17775	20518	0	652
-15.831	-24.017	17761	19716	0	652
-19.185	-26.650	17714	18837	1	348
-24.378	-28.561	17634	17932	0	348
-29.679	-30.364	17525	17021	0	348
-28.237	-28.777	17398	16137	0	348
-26.506	-23.116	17289	15357	0	348
-24.378	-19.690	17233	14849	0	348
-24.450	-18.572	17185	14637	0	348
-26.001	-21.854	17195	14618	0	348
-27.047	-27.515	17185	14657	0	348
-27.948	-34.547	17148	14591	0	348
-30.545	-41.399	17091	14370	0	348
-36.134	-44.392	17006	14089	0	348
-39.235	-43.707	16935	13858	0	348
-39.524	-36.459	16912	13822	0	348
-36.639	-30.076	16865	13944	0	348
-33.321	-29.895	16832	14000	0	348
-34.944	-35.846	16770	13974	0	348
-39.091	-44.284	16761	14099	0	348
-40.678	-44.645	16761	14363	0	348
-37.685	-35.882	16761	14598	0	348
-28.814	-21.421	16770	14865	0	348
-20.411	-12.766	16817	15206	0	348
-17.057	-14.497	16832	15483	0	348
-19.329	-22.899	16865	15750	0	348
-26.001	-30.364	16912	16067	0	348
-29.427	-32.239	16926	16233	0	348
-30.004	-27.624	16879	16173	0	348
-25.820	-21.277	16865	16067	0	348
-20.411	-18.969	16865	16110	0	348
-17.706	-20.736	16879	16269	0	348
-17.959	-26.686	16888	16371	0	348
-17.959	-32.853	16902	16483	0	348
-17.923	-32.853	16935	16668	0	348
-15.002	-26.902	16950	16717	0	348
-10.638	-17.706	16902	16559	0	348
-6.311	-9.340	16841	16305	0	348
-9.232	-8.511	16761	16001	0	348
-15.795	-16.120	16690	15731	0	348
-25.388	-25.532	16667	15651	0	348
-32.420	-30.761	16643	15734	0	348
-30.112	-30.436	16596	15734	0	348
-19.546	-26.397	16525	15575	0	348
-9.737	-20.483	16440	15361	0	348
-7.357	-19.690	16351	15133	0	348
-13.271	-23.260	16281	14974	0	348
-23.260	-29.174	16243	15021	0	348
-27.443	-29.246	16219	15229	0	348
-24.378	-26.902	16186	15361	0	348
-17.021	-22.575	16125	15344	0	348
-13.343	-18.500	16092	15338	0	348
-16.156	-17.779	16116	15582	0	348
-21.709	-19.762	16196	16163	0	348
-23.549	-20.988	16304	16849	0	348
-24.306	-21.060	16454	17529	0	348
-22.358	-21.998	16643	18296	0	348
-23.044	-28.201	16808	18979	0	348
-23.945	-32.889	16926	19296	0	348
-25.135	-37.072	16983	19267	0	348
-24.594	-35.990	17053	19108	0	348
-22.611	-33.141	17115	19019	0	348
-22.467	-30.797	17209	19045	0	348
-23.873	-30.617	17280	19098	0	348
-24.450	-33.213	17360	19078	0	348
-24.017	-34.475	17431	18920	0	348
-19.329	-31.374	17478	18738	0	348
-15.795	-28.092	17549	18649	0	348
-14.028	-26.650	17634	18609	0	348
-16.156	-27.696	17690	18500	0	348
-19.329	-29.715	17690	18197	0	348
-18.211	-28.777	17657	17671	0	348
-10.025	-22.214	17586	17034	0	348
0.938	-12.117	17492	16355	0	348
6.888	-6.203	17374	15648	0	348
3.642	-6.058	17218	14951	0	348
-6.239	-12.874	17077	14294	0	348
-14.533	-20.916	16888	13686	0	348
-17.887	-27.696	16747	13204	0	348
-13.704	-28.633	16643	12990	0	348
-7.789	-25.856	16558	12999	0	348
-2.705	-18.392	16440	12993	0	348
-0.397	-11.107	16351	12877	0	348
-1.983	-7.898	16210	12748	0	348
-5.914	-11.576	16068	12643	0	348
-13.523	-22.286	15927	12567	0	348
-21.060	-35.088	15795	12524	0	348
-27.227	-43.671	15653	12514	0	348
-32.348	-46.268	15526	12537	0	348
-34.836	-47.025	15385	12593	0	348
-37.072	-44.537	15252	12692	0	348
-39.344	-41.652	15134	12821	0	348
-38.334	-33.862	15007	12986	0	348
-33.429	-24.234	14936	13247	0	348
-24.955	-16.228	14913	13733	0	348
-14.713	-12.369	14899	14400	0	348
-8.691	-13.415	14913	15054	0	348
-7.212	-15.290	14984	15744	0	348
-9.304	-10.855	15054	16492	0	348
-9.629	-5.337	15101	17097	0	348
-5.590	0.974	15134	17470	0	348
0.974	4.327	15196	17771	0	348
4.832	6.816	15267	18190	0	348
3.498	11.035	15408	18751	0	348
0.793	19.329	15550	19349	0	348
-0.541	23.873	15677	19864	0	348
2.596	23.512	15785	20142	0	348
8.006	15.218	15880	20221	0	348
9.953	6.455	16007	20340	0	348
7.393	2.019	16139	20505	0	348
3.606	4.977	16196	20482	0	348
1.731	13.018	16243	20221	0	348
6.527	19.834	16290	19891	0	348
14.569	27.083	16375	19696	0	348
22.647	29.210	16464	19663	0	348
24.702	28.201	16572	19706	0	348
21.709	21.493	16676	19696	0	348
12.477	11.576	16761	19561	0	348
3.210	-0.938	16865	19405	0	348
-3.642	-8.907	16935	19283	0	348
-7.176	-11.684	16997	19009	0	348
-9.773	-8.763	16997	18517	0	348
-11.107	-5.265	16959	17916	0	348
-11.179	-1.731	16912	17269	0	348
-7.032	1.298	16817	16605	0	348
1.010	5.013	16737	15949	0	348
13.307	7.212	16629	15318	0	348
19.726	6.347	16511	14727	0	348
15.507	-2.164	16384	14185	0	348
4.039	-16.120	16257	13709	0	348
-9.340	-26.073	16125	13313	0	348
-16.048	-25.243	15984	12983	0	348
-10.133	-9.520	15903	12791	0	348
4.219	14.245	15833	12864	0	348
17.887	33.538	15809	13155	0	348
28.345	38.298	15771	13468	0	348
29.823	27.371	15809	13858	0	348
21.637	5.950	15833	14360	0	348
8.547	-13.740	15842	14756	0	348
-7.212	-24.739	15833	14951	0	348
-19.870	-26.902	15795	15054	0	348
-23.476	-26.542	15771	15116	0	348
-18.860	-24.775	15748	15206	0	348
-10.458	-23.008	15785	15473	0	348
-2.128	-16.697	15809	15866	0	348
1.947	-7.934	15818	16150	0	348
0.613	-1.370	15818	16252	0	348
-4.147	-3.967	15785	16269	0	348
-9.484	-15.939	15771	16246	0	348
-17.995	-30.941	15715	16186	0	348
-24.594	-37.865	15677	16094	0	348
-28.994	-35.197	15644	16051	0	348
-29.427	-23.585	15677	16203	0	348
-27.479	-16.805	15691	16509	0	348
-23.224	-16.625	15748	16790	0	348
-21.962	-25.460	15809	17103	0	348
-20.411	-32.131	15903	17490	0	348
-18.969	-29.499	15951	17738	0	348
-11.504	-17.490	15984	17761	0	348
-3.318	-2.092	16031	17731	0	348
1.983	5.373	16092	17843	0	348
-2.272	1.983	16163	18061	0	348
-12.045	-8.114	16210	18144	0	348
-21.565	-16.913	16234	18025	0	348
-26.073	-19.473	16257	17863	0	348
-20.159	-17.346	16314	17853	0	348
-11.504	-13.451	16361	17949	0	348
-7.068	-11.396	16417	17979	0	348
-6.960	-13.559	16501	18028	0	348
-9.989	-16.372	16582	18140	0	348
-11.287	-17.382	16629	18114	0	348
-10.350	-14.677	16643	17870	0	348
-6.022	-10.206	16619	17516	0	348
-6.491	-7.501	16582	17110	0	348
-12.153	-11.684	16558	16743	0	348
-22.935	-22.647	16572	16582	0	348
-31.843	-33.574	16619	16648	0	348
-32.600	-37.144	16700	16829	0	348
-24.847	-31.915	16747	17001	0	348
-13.523	-21.132	16817	17077	0	348
-6.744	-13.163	16902	17156	0	348
-6.852	-10.999	16983	17354	0	348
-13.523	-14.028	17100	17592	0	348
-18.608	-19.654	17185	17757	0	348
-21.024	-21.565	17266	17780	0	348
-21.421	-21.637	17350	17774	0	348
-21.024	-20.303	17407	17790	0	348
-24.125	-21.168	17445	17645	0	348
-25.893	-25.316	17421	17272	0	348
-24.378	-28.092	17398	16786	0	348
-17.021	-27.912	17313	16249	0	348
-7.429	-21.962	17242	15744	0	348
0.397	-11.323	17209	15433	0	348
3.390	-2.488	17162	15288	0	348
-0.938	0.180	17148	15146	0	348
-5.590	-3.859	17124	15080	0	348
-10.097	-11.107	17124	15136	0	348
-8.943	-17.706	17100	15093	0	348
-5.842	-16.841	17020	14882	0	348
0.685	-9.629	16973	14661	0	348
4.904	0.000	16950	14624	0	348
6.888	7.068	16912	14730	0	348
5.590	8.078	16879	14753	0	348
1.731	5.121	16794	14611	0	348
-3.787	-0.180	16700	14403	0	348
-6.527	-4.075	16605	14182	0	348
-4.255	-7.104	16525	14023	0	348
4.219	-5.914	16478	14076	0	348
14.713	-1.659	16440	14304	0	348
21.349	2.813	16384	14456	0	348
18.536	4.075	16304	14449	0	348
6.816	0.902	16234	14377	0	348
-6.599	-4.508	16125	14294	0	348
-13.595	-7.104	16031	14202	0	348
-10.422	-5.013	15913	14109	0	348
-1.731	-1.082	15785	14027	0	348
7.032	-0.325	15677	13967	0	348
9.124	-2.957	15583	14003	0	348
1.875	-7.934	15573	14271	0	348
-9.304	-14.461	15583	14783	0	348
-20.123	-18.824	15620	15417	0	348
-23.008	-19.762	15677	16041	0	348
-17.706	-15.975	15701	16486	0	348
-5.481	-9.592	15715	16724	0	348
7.104	-1.803	15724	16909	0	348
14.497	2.777	15795	17222	0	348
11.937	4.291	15880	17688	0	348
5.049	2.019	15984	18203	0	348
-1.695	0.000	16101	18649	0	348
-4.652	-4.724	16163	18877	0	348
-1.118	-6.744	16196	18857	0	348
4.075	-6.996	16234	18755	0	348
5.734	-7.212	16337	18837	0	348
4.652	-4.977	16478	19204	0	348
3.931	-3.210	16596	19577	0	348
5.914	-1.947	16700	19706	0	348
8.294	-1.298	16817	19755	0	348
12.441	-1.118	16935	19812	0	348
10.999	-3.354	17006	19745	0	348
9.160	-6.419	17148	19699	1	948
2.236	-8.907	17303	19868	0	948
-4.796	-12.225	17431	20013	0	948
-13.054	-15.254	17516	19835	0	948
-18.969	-18.211	17563	19356	0	948
-19.401	-21.168	17525	18725	0	948
-13.595	-21.673	17478	18008	0	948
-7.862	-22.503	17398	17239	0	948
-3.678	-21.998	17303	16456	0	948
-6.455	-22.899	17171	15691	0	948
-12.874	-22.431	17020	14955	0	948
-17.923	-23.765	16888	14268	0	948
-21.385	-25.856	16723	13647	0	948
-22.791	-28.777	16549	13105	0	948
-19.906	-29.931	16384	12646	0	948
-15.615	-26.686	16219	12279	0	948
-10.350	-21.060	16054	11995	0	948
-3.931	-14.821	15903	11794	0	948
-0.613	-12.694	15748	11669	0	948
-0.649	-13.523	15620	11688	0	948
-5.265	-17.454	15573	11992	0	948
-10.566	-19.870	15559	12577	0	948
-16.264	-20.664	15573	13307	0	948
-20.050	-21.962	15620	14040	0	948
-19.113	-25.207	15653	14677	0	948
-15.543	-28.994	15738	15318	0	948
-11.828	-32.708	15833	16064	0	948
-8.835	-31.843	16007	16899	0	948
-11.215	-28.417	16196	17840	0	948
-15.146	-23.008	16361	18685	0	948
-19.437	-20.267	16487	19154	0	948
-23.765	-23.008	16558	19267	0	948
-25.171	-26.325	16596	19181	0	948
-24.991	-28.417	16619	18953	0	948
-25.568	-26.830	16605	18623	0	948
-23.801	-22.575	16596	18273	0	948
-22.395	-20.591	16596	18074	0	948
-23.044	-23.188	16619	17998	0	948
-23.909	-30.292	16596	17813	0	948
-25.965	-36.495	16558	17460	0	948
-26.938	-35.377	16511	17051	0	948
-26.506	-28.345	16440	16625	0	948
-25.316	-18.283	16361	16200	0	948
-20.736	-11.143	16257	15777	0	948
-16.336	-9.592	16149	15371	0	948
-8.763	-12.586	16045	14994	0	948
-3.462	-16.661	15927	14664	0	948
-2.164	-17.670	15818	14383	0	948
-6.167	-16.913	15701	14152	0	948
-14.317	-16.192	15597	13964	0	948
-21.926	-17.995	15502	13888	0	948
-28.201	-22.250	15479	14066	0	948
-26.938	-27.912	15465	14446	0	948
-21.709	-28.597	15441	14770	0	948
-12.405	-25.856	15441	15017	0	948
-5.193	-21.926	15502	15410	0	948
-1.623	-22.070	15559	16005	0	948
-4.904	-26.938	15691	16677	0	948
-9.845	-29.391	15785	17302	0	948
-11.756	-24.594	15913	17784	0	948
-9.556	-11.576	16031	18223	0	948
-4.291	0.974	16186	18728	0	948
-0.216	4.364	16384	19303	0	948
-0.757	0.469	16605	19973	0	948
-4.075	-9.052	16817	20604	0	948
-9.124	-12.730	17053	21057	0	948
-10.819	-9.196	17233	21294	0	948
-7.501	-1.190	17360	21225	0	948
0.829	7.212	17454	20908	0	948
7.357	10.530	17563	20598	0	948
9.268	6.419	17643	20327	0	948
2.669	-3.390	17690	19871	0	948
-5.049	-14.317	17681	19187	0	948
-11.143	-20.159	17657	18464	0	948
-14.821	-17.815	17657	17906	0	948
-14.785	-12.261	17643	17487	0	948
-16.877	-10.566	17610	16975	0	948
-18.969	-13.127	17525	16309	0	948
-15.831	-18.788	17431	15595	0	948
-7.248	-20.267	17327	14958	1	316
3.787	-16.625	17266	14552	0	316
11.756	-10.133	17209	14344	0	316
11.287	-9.448	17115	14099	0	316
4.003	-15.543	17020	13742	0	316
-6.491	-23.801	16888	13366	0	316
-13.451	-26.794	16761	13006	0	316
-11.360	-20.627	16652	12742	0	316
-4.760	-7.898	16572	12722	0	316
4.183	2.849	16511	12900	0	316
7.753	6.708	16431	13032	0	316
4.219	1.803	16337	13032	0	316
-2.596	-3.462	16243	12999	0	316
-3.354	-2.849	16125	12970	0	316
0.938	2.993	16007	12950	0	316
10.169	13.343	15889	12950	0	316
14.930	19.834	15785	12963	0	316
11.468	16.877	15677	13065	0	316
2.344	8.691	15677	13465	0	316
-4.904	-3.065	15724	14241	0	316
-6.780	-10.386	15818	15156	0	316
-4.219	-11.756	15913	16001	0	316
-1.154	-8.150	16031	16727	0	316
-1.803	-2.705	16078	17222	0	316
-3.462	1.226	16139	17513	0	316
-6.563	1.442	16234	17847	0	316
-7.862	-4.111	16304	18223	0	316
-8.619	-13.848	16375	18477	0	316
-9.665	-24.162	16464	18689	0	316
-11.107	-31.374	16572	18976	0	316
-15.687	-31.338	16700	19283	0	316
-21.890	-30.761	16784	19494	0	316
-25.568	-30.004	16865	19537	0	316
-24.991	-32.131	16973	19531	0	316
-16.408	-33.357	17067	19597	0	316
-7.970	-29.787	17185	19689	0	316
-2.272	-27.047	17289	19686	0	316
-7.717	-25.207	17303	19461	0	316
-14.605	-29.246	17313	18996	0	316
-22.395	-33.610	17280	18401	0	316
-21.890	-31.699	17233	17807	0	316
-16.516	-22.142	17218	17378	0	316
-8.943	-9.701	17218	17090	0	316
-6.167	-1.803	17148	16714	0	316
-6.347	-1.298	17077	16193	0	316
-9.196	-7.176	16973	15632	0	316
-8.294	-12.622	16855	15080	0	316
-6.563	-16.120	16737	14535	0	316
-3.714	-18.211	16582	14023	0	316
-4.075	-19.978	16431	13551	0	316
-6.419	-20.916	16267	13141	0	316
-8.871	-20.411	16139	12861	0	316
-9.448	-17.021	16054	12861	0	316
-12.477	-15.759	15998	13079	0	316
-18.067	-20.159	15951	13340	0	316
-28.561	-29.174	15936	13686	0	316
-35.233	-39.957	15974	14215	0	316
-35.629	-43.347	16068	14905	0	316
-29.679	-39.055	16196	15757	0	316
-22.899	-30.400	16337	16628	0	316
-20.844	-24.811	16487	17371	0	316
-25.352	-25.532	16605	17949	0	316
-32.636	-32.672	16714	18259	0	316
-36.098	-37.324	16747	18273	0	316
-30.436	-33.790	16761	18104	0	316
-21.890	-24.053	16714	17820	0	316
-12.333	-13.054	16676	17454	0	316
-9.052	-8.583	16605	17031	0	316
-11.179	-10.097	16511	16582	0	316
-15.579	-15.326	16417	16124	0	316
-15.795	-17.490	16304	15671	0	316
-11.396	-15.939	16210	15311	0	316
-7.321	-13.379	16149	15189	0	316
-5.301	-10.422	16139	15331	0	316
-5.914	-10.710	16186	15628	0	316
-11.287	-12.730	16196	15945	0	316
-15.398	-14.966	16196	16117	0	316
-18.572	-20.375	16163	16097	0	316
-19.618	-24.702	16125	15975	0	316
-20.375	-28.777	16078	15807	0	316
-19.654	-31.266	15998	15602	0	316
-21.060	-31.915	15927	15450	0	316
-24.847	-35.485	15913	15503	0	316
-31.554	-38.298	15927	15714	0	316
-35.341	-37.829	15880	15836	0	316
-33.502	-31.410	15856	15793	0	316
-25.784	-21.709	15785	15684	0	316
-18.139	-13.127	15724	15559	0	316
-13.271	-14.425	15644	15420	0	316
-14.461	-24.053	15573	15285	0	316
-20.447	-34.620	15502	15229	0	316
-21.745	-38.190	15535	15460	0	316
-19.221	-33.610	15630	16061	0	316
-11.612	-21.818	15715	16727	0	316
-5.481	-11.576	15809	17199	0	316
-4.580	-5.878	15936	17678	0	316
-8.042	-6.455	16116	18378	0	316
-13.631	-12.766	16281	19035	0	316
-18.428	-20.700	16393	19336	0	316
-17.129	-26.181	16487	19372	0	316
-14.677	-26.830	16605	19445	0	316
-13.523	-23.621	16700	19557	0	316
-12.730	-16.769	16784	19554	0	316
-10.169	-11.035	16902	19504	0	316
-8.907	-9.845	16983	19465	0	316
-7.681	-12.730	17067	19323	0	316
-12.658	-21.709	17138	19148	0	316
-21.637	-33.321	17209	19002	0	316
-28.561	-41.399	17242	18768	0	316
-31.085	-46.881	17313	18517	0	316
-28.489	-46.268	17374	18309	0	316
-25.965	-45.727	17360	17962	0	316
-28.309	-45.943	17350	17480	0	316
-32.492	-45.402	17374	17120	0	316
-33.646	-46.448	17374	16885	0	316
-32.564	-46.772	17350	16598	0	316
-30.040	-50.198	17398	16407	0	316
-28.994	-53.300	17492	16572	0	316
-29.318	-50.270	17681	17054	0	316
-23.585	-38.839	17855	17675	0	316
-11.937	-21.998	18082	18292	0	316
-0.649	-8.006	18247	18666	0	316
6.888	-4.003	18327	18613	0	316
4.255	-9.592	18365	18197	0	316
-2.488	-18.897	18350	17645	0	316
-6.311	-22.683	18388	17239	0	316
-5.373	-19.906	18435	17103	0	316
0.649	-12.946	18506	17047	0	316
5.085	-5.373	18530	16905	0	316
6.527	1.695	18586	16730	0	316
3.029	5.157	18610	16559	0	316
-0.505	4.183	18600	16315	0	316
-2.128	-4.291	18577	15932	0	316
-2.669	-16.985	18563	15605	0	316
-0.541	-29.354	18600	15546	0	316
0.865	-34.800	18586	15516	0	316
1.370	-28.994	18516	15199	0	316
-0.541	-19.257	18412	14628	0	316
-3.750	-13.163	18247	13957	0	316
-7.789	-14.677	18091	13323	0	316
-12.477	-20.303	17950	12897	0	316
-16.084	-23.945	17846	12719	0	316
-15.290	-23.801	17751	12699	0	316
-12.441	-20.303	17657	12712	0	316
-12.550	-19.618	17516	12610	0	316
-12.730	-24.666	17350	12352	0	316
-15.939	-32.492	17162	12038	0	316
-17.526	-36.603	16973	11728	0	316
-15.110	-31.987	16747	11434	0	316
-8.655	-20.555	16525	11173	0	316
-4.724	-6.058	16290	10962	0	316
-3.101	2.921	16054	10810	0	316
-6.816	3.967	15833	10727	0	316
-9.484	-4.039	15644	10777	0	316
-8.042	-15.110	15512	11100	0	316
-5.373	-20.087	15370	11642	0	316
0.000	-16.733	15290	12213	0	316
2.777	-9.556	15252	12864	0	316
0.180	-1.298	15219	13620	0	316
-4.616	0.505	15172	14264	0	316
-6.852	-4.616	15111	14710	0	316
-5.301	-10.422	15040	15044	0	316
-0.938	-12.477	14960	15308	0	316
5.013	-10.097	14875	15523	0	316
8.078	-6.203	14795	15701	0	316
5.950	-1.334	14734	15922	0	316
4.291	0.433	14734	16315	0	316
0.325	2.849	14724	16833	0	316
0.902	5.481	14710	17242	0	316
1.623	5.265	14701	17463	0	316
3.173	3.210	14701	17655	0	316
4.724	0.505	14734	18002	0	316
3.246	-1.226	14804	18514	0	316
2.669	2.344	14936	19095	0	316
4.039	11.756	15040	19617	0	316
6.780	20.123	15149	19990	0	316
11.215	26.506	15276	20307	0	316
14.353	23.837	15418	20690	0	316
15.759	15.687	15573	21083	0	316
16.444	7.753	15738	21364	0	316
17.346	2.272	15856	21466	0	316
19.798	5.049	16007	21496	0	316
20.195	9.845	16139	21509	0	316
18.608	15.507	16219	21321	0	316
13.559	17.238	16257	20875	0	316
6.347	17.166	16267	20290	0	316
2.921	16.336	16267	19696	0	316
3.246	16.408	16337	19319	1	748
9.845	16.516	16478	19343	0	748
18.464	16.480	16629	19617	0	748
19.546	13.956	16794	19838	0	748
13.956	10.206	16959	19914	0	748
3.101	4.688	17091	19854	0	748
-8.475	0.829	17162	19554	0	748
-16.408	-1.839	17195	19052	0	748
-17.202	-1.659	17266	18606	0	748
-14.100	-3.606	17303	18249	0	748
-12.153	-6.527	17303	17813	0	748
-11.756	-10.530	17336	17391	0	748
-11.432	-12.586	17374	17041	0	748
-11.323	-11.432	17313	16582	0	748
-11.792	-7.104	17280	16025	0	748
-10.819	-2.921	17266	15592	0	748
-11.720	-3.318	17218	15301	0	748
-13.812	-5.590	17171	14925	0	748
-15.326	-10.710	17053	14403	0	748
-14.533	-15.146	16950	13838	0	748
-10.963	-17.526	16784	13290	0	748
-9.484	-17.382	16629	12768	0	748
-7.032	-14.317	16464	12296	0	748
-7.104	-11.071	16290	11886	0	748
-8.799	-7.285	16101	11540	0	748
-12.009	-6.455	15927	11262	0	748
-16.697	-12.838	15738	11058	0	748
-21.385	-23.981	15573	10929	0	748
-27.010	-34.692	15394	10876	0	748
-29.066	-38.586	15219	10902	0	748
-29.643	-32.131	15054	10998	0	748
-27.407	-20.772	14899	11153	0	748
-23.116	-13.018	14781	11361	0	748
-20.591	-15.903	14630	11616	0	748
-21.962	-27.010	14498	11916	0	748
-24.125	-39.993	14394	12253	0	748
-27.227	-47.313	14276	12616	0	748
-29.282	-49.657	14229	13065	0	748
-28.056	-44.032	14215	13742	0	748
-25.676	-34.692	14252	14651	0	748
-19.762	-25.063	14380	15734	0	748
-16.120	-17.634	14545	16975	0	748
-13.199	-18.031	14757	18223	0	748
-17.418	-24.955	14969	19319	0	748
-25.171	-34.583	15172	20214	0	748
-30.256	-39.849	15337	20799	0	748
-29.174	-38.767	15465	21040	0	748
-19.113	-32.744	15526	21053	0	748
-8.006	-24.125	15597	20915	0	748
-0.902	-17.454	15630	20644	0	748
-0.974	-12.117	15630	20267	0	748
-5.445	-10.855	15620	19825	0	748
-10.025	-12.045	15583	19343	0	748
-10.025	-18.680	15550	18837	0	748
-11.215	-27.515	15535	18398	0	748
-13.992	-36.639	15535	18167	0	748
-17.851	-42.481	15597	18183	0	748
-24.847	-43.130	15677	18339	0	748
-26.253	-41.075	15809	18566	0	748
-22.575	-37.577	15927	18841	0	748
-18.211	-33.574	16054	19072	0	748
-16.120	-30.184	16149	19092	0	748
-19.329	-27.155	16196	18877	0	748
-24.666	-25.965	16219	18530	0	748
-28.128	-29.391	16243	18180	0	748
-27.119	-34.511	16290	17972	0	748
-21.277	-40.065	16375	17949	0	748
-14.497	-39.704	16478	18028	0	748
-9.737	-33.610	16549	18084	0	748
-8.979	-25.099	16605	17962	0	748
-12.622	-19.293	16605	17629	0	748
-19.365	-18.067	16605	17183	0	748
-24.775	-20.591	16558	16691	0	748
-26.758	-24.089	16501	16173	0	748
-23.621	-25.388	16440	15711	0	748
-17.779	-21.998	16431	15466	0	748
-12.982	-15.795	16417	15407	0	748
-11.071	-8.943	16393	15288	0	748
-9.016	-6.239	16337	15034	0	748
-7.032	-6.744	16267	14733	0	748
-5.590	-12.946	16186	14436	0	748
-4.436	-18.175	16092	14155	0	748
-8.186	-21.421	15998	13898	0	748
-13.776	-25.099	15913	13736	0	748
-19.582	-27.479	15889	13812	0	748
-23.729	-31.266	15889	14076	0	748
-25.568	-30.833	15842	14274	0	748
-27.010	-26.974	15809	14327	0	748
-27.624	-23.296	15771	14390	0	748
-29.643	-24.162	15795	14647	0	748
-29.751	-31.807	15809	15044	0	748
-31.699	-42.950	15818	15341	0	748
-32.059	-50.667	15809	15460	0	748
-33.177	-50.559	15762	15493	0	748
-30.617	-43.924	15738	15486	0	748
-26.506	-32.672	15677	15443	0	748
-20.483	-24.883	15630	15384	0	748
-15.398	-20.772	15550	15324	0	748
-14.605	-21.637	15535	15331	0	748
-15.543	-24.053	15550	15539	0	748
-17.598	-26.037	15583	15972	0	748
-15.687	-22.034	15677	16506	0	748
-10.530	-14.930	15762	17024	0	748
-2.560	-3.101	15833	17354	0	748
5.265	6.239	15880	17523	0	748
11.540	7.104	15974	17764	0	748
10.061	1.515	16068	18081	0	748
5.914	-10.783	16101	18240	0	748
-2.200	-19.437	16125	18177	0	748
-8.330	-21.601	16139	17989	0	748
-9.376	-17.634	16149	17807	0	748
-4.796	-9.629	16219	17780	0	748
1.442	-1.010	16257	17876	0	748
3.354	4.580	16281	17847	0	748
0.216	4.075	16304	17691	0	748
-9.340	-2.308	16351	17658	0	748
-18.933	-15.471	16431	17804	0	748
-22.791	-27.407	16534	18025	0	748
-18.500	-30.472	16629	18203	0	748
-8.655	-26.433	16676	18200	0	748
1.334	-18.752	16700	17972	0	748
4.219	-10.494	16723	17685	0	748
-1.515	-9.845	16761	17536	0	748
-11.828	-15.543	16817	17562	0	748
-23.188	-26.073	16912	17675	0	748
-28.886	-36.711	16973	17761	0	748
-27.083	-44.392	17020	17671	0	748
-18.464	-44.212	17006	17368	0	748
-7.970	-36.062	16983	16948	0	748
-1.442	-26.289	16935	16473	0	748
-2.957	-20.483	16855	15972	0	748
-10.783	-18.716	16761	15456	0	748
-17.779	-23.188	16643	14958	0	748
-20.050	-25.496	16534	14499	0	748
-16.372	-25.063	16417	14079	0	748
-12.658	-20.700	16290	13706	0	748
-14.858	-16.480	16186	13455	0	748
-21.132	-16.300	16125	13465	0	748
-26.614	-19.546	16092	13686	0	748
-26.145	-23.224	16068	13937	0	748
-22.034	-28.020	16101	14261	0	748
-17.670	-29.354	16116	14694	0	748
-20.591	-32.744	16116	15021	0	748
-30.797	-37.144	16125	15219	0	748
-41.111	-40.245	16163	15526	0	748
-45.150	-38.334	16219	15939	0	748
-37.865	-31.554	16234	16209	0	748
-23.512	-24.053	16219	16259	0	748
-10.783	-19.185	16186	16196	0	748
-8.402	-21.132	16172	16147	0	748
-14.389	-26.470	16196	16262	0	748
-24.991	-29.282	16219	16499	0	748
-31.626	-28.777	16210	16628	0	748
-30.400	-24.847	16219	16582	0	748
-23.729	-22.539	16163	16456	0	748
-15.218	-21.241	16116	16292	0	748
-8.078	-18.536	16054	16087	0	748
-3.714	-13.848	15984	15866	0	748
-1.659	-6.960	15903	15648	0	748
-2.164	0.252	15833	15499	0	748
-3.714	2.452	15842	15572	0	748
-2.452	0.000	15866	15889	0	748
1.442	-4.436	15960	16390	0	748
3.498	-10.133	16116	17094	0	748
4.904	-12.045	16243	17780	0	748
2.669	-8.763	16328	18160	0	748
1.587	-0.252	16384	18236	0	748
2.416	8.222	16417	18150	0	748
7.429	10.458	16417	17955	0	748
10.927	6.455	16393	17675	0	748
12.586	-1.947	16361	17335	0	748
10.206	-6.419	16304	16958	0	748
6.960	-4.400	16234	16568	0	748
0.288	-4.147	16149	16190	0	748
-6.599	-7.898	16092	15892	0	748
-12.153	-16.552	16092	15820	0	748
-13.595	-22.178	16078	15932	0	748
-10.025	-17.815	16078	16044	0	748
-2.128	-3.895	16163	16285	0	748
5.914	11.035	16314	16889	0	748
10.746	14.100	16534	17810	0	748
13.956	6.599	16794	18788	0	748
12.586	-5.337	16997	19531	0	748
7.140	-11.864	17185	19904	0	748
2.308	-9.953	17360	20109	0	748
-2.452	-1.515	17516	20241	0	748
-2.777	2.957	17610	20119	0	748
-0.433	1.911	17643	19696	0	748
4.832	0.685	17667	19161	0	748
9.989	3.354	17737	18801	0	748
14.569	9.773	17846	18738	1	760
15.975	13.668	17926	18699	0	760
13.559	11.720	17950	18372	0	760
8.258	4.688	17950	17856	0	760
3.390	1.154	18011	17503	0	760
2.921	2.705	18082	17450	0	760
6.708	9.160	18162	17487	0	760
10.061	9.917	18247	17440	0	760
12.045	5.265	18317	17358	0	760
8.835	-2.164	18421	17345	0	760
4.508	-4.652	18563	17523	0	760
-0.649	-2.272	18704	17840	0	760
-5.085	1.983	18822	17975	0	760
-6.852	2.669	18869	17718	0	760
-8.222	-2.452	18836	17133	0	760
-6.094	-8.475	18751	16387	0	760
-3.210	-7.717	18624	15562	0	760
-0.252	-0.938	18483	14687	0	760
1.262	5.013	18280	13805	0	760
1.226	4.255	18082	12956	0	760
-0.829	-2.885	17855	12170	0	760
-2.777	-9.953	17610	11457	0	760
-4.291	-12.441	17383	10892	0	760
-5.878	-7.248	17242	10684	0	760
-8.258	-6.599	17171	10998	0	760
-12.910	-13.559	17171	11675	0	760
-17.526	-23.657	17148	12322	0	760
-17.382	-28.201	17091	12686	0	760
-15.975	-20.880	17044	12884	0	760
-11.648	-9.448	16997	13184	0	760
-11.792	-3.137	16997	13650	0	760
-15.975	-9.881	16997	14185	0	760
-22.827	-24.017	17020	14667	0	760
-28.525	-37.432	16983	14941	0	760
-31.626	-41.760	16902	14984	0	760
-31.518	-38.370	16808	14902	0	760
-27.948	-29.391	16690	14750	0	760
-23.332	-20.447	16534	14548	0	760
-17.490	-15.435	16431	14393	0	760
-13.127	-14.569	16351	14439	0	760
-11.179	-16.877	16290	14654	0	760
-10.891	-20.519	16186	14786	0	760
-8.943	-20.664	16068	14763	0	760
-10.097	-16.805	15960	14684	0	760
-12.225	-14.136	15833	14595	0	760
-18.644	-14.605	15691	14499	0	760
-25.063	-17.779	15583	14479	0	760
-27.155	-19.113	15512	14680	0	760
-23.440	-15.759	15512	15123	0	760
-15.687	-8.583	15573	15764	0	760
-9.304	-3.354	15653	16592	0	760
-7.068	-3.570	15795	17470	0	760
-9.881	-12.910	15927	18243	0	760
-15.939	-23.080	16054	18860	0	760
-19.473	-27.155	16125	19207	0	760
-18.356	-22.972	16186	19253	0	760
-16.012	-11.540	16172	19115	0	760
-14.245	-1.911	16149	18860	0	760
-15.110	-2.019	16116	18517	0	760
-20.123	-11.251	16068	18173	0	760
-23.621	-24.991	16068	17995	0	760
-22.827	-33.177	16054	17949	0	760
-20.014	-35.737	16031	17807	0	760
-18.392	-31.482	15984	17500	0	760
-20.087	-27.083	15913	17130	0	760
-25.568	-28.417	15833	16750	0	760
-32.384	-33.285	15748	16368	0	760
-35.990	-40.101	15630	15985	0	760
-34.295	-41.832	15535	15615	0	760
-25.640	-35.088	15418	15275	0	760
-14.317	-23.837	15300	14974	0	760
-6.383	-12.117	15182	14730	0	760
-4.977	-7.717	15078	14538	0	760
-9.268	-9.340	14969	14396	0	760
-15.471	-14.533	14866	14307	0	760
-19.149	-18.969	14795	14261	0	760
-19.690	-21.204	14686	14258	0	760
-18.897	-21.493	14616	14363	0	760
-20.483	-19.546	14630	14710	0	760
-21.601	-16.552	14653	15235	0	760
-20.988	-13.884	14653	15688	0	760
-17.851	-10.458	14663	15975	0	760
-13.451	-8.402	14663	16190	0	760
-6.383	-4.616	14653	16361	0	760
-1.515	-1.154	14677	16552	0	760
1.010	0.288	14734	16919	0	760
0.180	-1.911	14828	17411	0	760
-2.524	-5.842	14875	17777	0	760
-8.330	-11.323	14913	17946	0	760
-15.687	-15.002	14969	18078	0	760
-19.942	-18.500	15111	18418	0	760
-22.863	-20.303	15314	19118	0	760
-19.149	-19.437	15583	20082	0	760
-11.323	-14.461	15903	21080	0	760
-3.534	-6.347	16163	21823	0	760
-3.823	-5.698	16375	22117	0	760
-12.730	-12.297	16525	22014	0	760
-27.047	-26.614	16667	21750	0	760
-39.272	-41.904	16808	21522	0	760
-40.173	-48.612	16935	21317	0	760
-31.987	-45.618	16997	20928	1	400
-19.942	-35.521	17053	20300	0	400
-12.982	-23.765	17044	19551	0	400
-12.261	-12.622	17020	18748	0	400
-16.661	-5.626	16950	17913	0	400
-19.834	-2.921	16902	17136	0	400
-19.834	-4.183	16888	16585	0	400
-15.723	-8.042	16865	16229	0	400
-13.704	-9.773	16855	15896	0	400
-12.477	-10.674	16865	15648	0	400
-11.360	-8.439	16855	15526	0	400
-8.042	-7.248	16865	15390	0	400
-7.032	-3.426	16888	15298	0	400
-4.688	0.000	16912	15301	0	400
-7.068	2.236	16902	15206	0	400
-13.595	0.108	16865	14997	0	400
-18.500	-5.590	16888	14921	0	400
-19.942	-13.487	16902	14974	0	400
-19.546	-16.697	16865	14925	0	400
-17.526	-14.858	16817	14710	0	400
-14.785	-11.107	16737	14420	0	400
-13.740	-11.107	16643	14112	0	400
-12.261	-14.966	16549	13799	0	400
-12.441	-18.464	16417	13501	0	400
-12.946	-22.467	16290	13231	0	400
-17.634	-23.008	16172	12993	0	400
-23.080	-22.972	16031	12795	0	400
-29.138	-21.565	15889	12649	0	400
-32.348	-21.781	15795	12616	0	400
-32.203	-17.923	15738	12838	0	400
-25.640	-14.281	15715	13260	0	400
-19.906	-13.451	15653	13624	0	400
-16.012	-13.451	15620	13842	0	400
-16.264	-17.418	15535	14003	0	400
-17.959	-18.933	15479	14152	0	400
-17.093	-16.336	15418	14284	0	400
-13.776	-12.081	15337	14403	0	400
-7.898	-8.871	15252	14509	0	400
-8.871	-10.927	15182	14611	0	400
-13.704	-19.762	15101	14713	0	400
-21.890	-28.777	15031	14819	0	400
-27.624	-31.338	14960	14941	0	400
-28.922	-27.371	14899	15073	0	400
-25.929	-17.706	14842	15209	0	400
-20.627	-9.484	14781	15351	0	400
-14.389	-4.255	14724	15506	0	400
-9.737	-5.517	14686	15668	0	400
-8.547	-9.088	14653	15843	0	400
-13.091	-15.507	14606	16018	0	400
-19.185	-20.916	14568	16190	0	400
-26.433	-23.440	14583	16413	0	400
-28.814	-22.755	14630	16839	0	400
-26.830	-20.050	14734	17470	0	400
-25.135	-18.933	14875	18200	0	400
-24.775	-21.096	15031	18893	0	400
-24.883	-22.358	15149	19389	0	400
-25.820	-22.070	15252	19636	0	400
-24.919	-18.500	15347	19732	0	400
-27.047	-17.057	15432	19788	0	400
-31.266	-18.211	15559	19947	0	400
-35.197	-21.096	15691	20178	0	400
-34.151	-23.549	15771	20241	0	400
-26.397	-19.870	15856	20076	0	400
-19.149	-15.651	15889	19792	0	400
-14.785	-13.523	15913	19442	0	400
-17.598	-16.769	15936	19042	0	400
-22.322	-22.142	15951	18669	0	400
-24.053	-24.991	15998	18484	0	400
-20.411	-21.024	16068	18448	0	400
-14.785	-12.874	16125	18322	0	400
-13.235	-5.229	16163	18098	0	400
-15.903	-3.642	16243	18008	0	400
-21.781	-8.186	16351	18121	0	400
-24.053	-16.733	16478	18319	0	400
-22.827	-23.116	16629	18543	0	400
-19.762	-27.587	16817	18847	0	400
-17.815	-30.869	17067	19349	0	400
-20.159	-31.590	17360	20043	0	400
-23.657	-29.463	17667	20743	0	400
-23.765	-21.421	17926	21169	0	400
-20.952	-13.668	18115	21139	0	400
-17.310	-9.592	18223	20720	0	400
-16.192	-13.559	18317	20135	0	400
-16.228	-21.745	18388	19600	0	400
-17.562	-30.076	18468	19111	0	400
-20.519	-32.492	18459	18461	0	400
-23.873	-28.705	18435	17602	0	400
-26.650	-24.991	18341	16661	0	400
-30.328	-21.637	18233	15704	0	400
-28.561	-19.257	18091	14760	0	400
-24.125	-19.690	17926	13861	0	400
-17.057	-19.834	17784	13095	0	400
-10.746	-20.014	17667	12606	0	400
-8.186	-18.969	17586	12359	0	400
-7.068	-14.100	17445	12108	0	400
-7.898	-7.609	17303	11771	0	400
-8.330	-1.154	17162	11441	0	400
-7.789	3.318	16983	11153	0	400
-7.898	2.416	16855	10978	0	400
-7.248	-2.596	16737	11061	0	400
-7.212	-8.799	16700	11427	0	400
-3.390	-12.261	16676	11966	0	400
1.875	-10.638	16676	12540	0	400
3.210	-7.429	16629	12983	0	400
-1.082	-5.409	16572	13247	0	400
-10.061	-5.842	16525	13416	0	400
-18.031	-10.169	16431	13538	0	400
-22.539	-14.028	16337	13617	0	400
-21.998	-14.064	16234	13660	0	400
-17.634	-16.697	16139	13683	0	400
-18.860	-22.755	15998	13693	0	400
-23.296	-31.482	15903	13772	0	400
-30.184	-40.173	15880	14069	0	400
-36.423	-44.248	15842	14542	0	400
-36.747	-39.380	15809	14931	0	400
-32.744	-28.309	15771	15153	0	400
-27.119	-16.985	15701	15305	0	400
-22.683	-9.304	15644	15423	0	400
-22.503	-8.042	15573	15519	0	400
-22.322	-13.271	15488	15595	0	400
-16.408	-17.202	15455	15727	0	400
-7.898	-15.398	15465	16051	0	400
0.902	-7.104	15502	16582	0	400
3.642	1.515	15597	17216	0	400
0.685	8.366	15677	17823	0	400
-3.282	8.006	15795	18309	0	400
-3.498	7.032	15889	18758	0	400
1.911	8.475	16021	19204	0	400
10.422	13.415	16092	19452	0	400
16.697	20.339	16163	19504	0	400
19.293	27.335	16290	19686	0	400
20.772	29.859	16464	20138	0	400
21.709	30.436	16619	20568	0	400
21.168	28.309	16747	20723	0	400
18.788	23.981	16912	20763	0	400
10.530	17.598	17053	20852	0	400
2.885	9.376	17195	20934	0	400
-3.859	1.226	17327	20898	0	400
-5.554	-4.400	17407	20617	0	400
-4.327	-8.258	17431	20079	0	400
-5.409	-8.330	17445	19465	0	400
-9.989	-9.881	17478	18983	1	564
-17.923	-15.471	17501	18609	0	564
-24.198	-21.673	17478	18121	0	564
-27.263	-25.856	17445	17463	0	564
-27.407	-27.191	17350	16743	0	564
-27.047	-22.827	17256	16025	0	564
-26.794	-16.913	17138	15314	0	564
-26.181	-10.169	16997	14641	0	564
-24.594	-9.845	16855	14010	0	564
-23.981	-13.271	16700	13442	0	564
-23.873	-20.123	16572	13013	0	564
-22.791	-24.378	16478	12867	0	564
-20.736	-19.618	16431	12950	0	564
-13.812	-10.061	16351	13006	0	564
-8.763	0.649	16267	12956	0	564
-4.940	3.787	16149	12887	0	564
-6.455	-1.046	16031	12841	0	564
-9.196	-6.311	15927	12811	0	564
-13.091	-11.540	15818	12795	0	564
-14.100	-9.484	15691	12805	0	564
-14.858	-6.780	15583	12848	0	564
-11.828	-2.777	15479	12917	0	564
-6.022	0.793	15361	13016	0	564
-1.262	-0.036	15267	13141	0	564
-1.659	-3.823	15158	13297	0	564
-8.042	-11.396	15078	13482	0	564
-17.490	-14.749	14984	13693	0	564
-23.657	-13.307	14913	13927	0	564
-23.368	-6.888	14828	14175	0	564
-19.113	-3.642	14781	14436	0	564
-17.526	-8.475	14748	14776	0	564
-22.539	-22.214	14771	15324	0	564
-31.446	-35.305	14828	16015	0	564
-41.363	-45.294	14851	16592	0	564
-46.159	-47.061	14889	16981	0	564
-43.779	-45.366	14936	17338	0	564
-37.144	-39.740	15040	17837	0	564
-30.472	-31.338	15149	18431	0	564
-24.594	-22.106	15219	18877	0	564
-21.709	-14.533	15300	19092	0	564
-21.998	-14.749	15385	19234	0	564
-21.637	-21.781	15488	19491	0	564
-20.916	-31.915	15606	19821	0	564
-22.106	-38.514	15715	19990	0	564
-23.044	-36.711	15762	19930	0	564
-24.702	-28.453	15809	19745	0	564
-24.125	-20.772	15856	19491	0	564
-24.955	-19.221	15842	19181	0	564
-25.748	-23.729	15856	18831	0	564
-26.037	-31.338	15842	18451	0	564
-28.020	-33.970	15842	18127	0	564
-25.027	-28.922	15903	17995	0	564
-17.923	-20.736	15936	18022	0	564
-8.366	-10.855	15984	17969	0	564
-1.911	-6.131	16021	17764	0	564
-2.813	-5.554	16031	17562	0	564
-8.475	-11.179	16101	17543	0	564
-18.752	-18.824	16163	17645	0	564
-24.883	-25.279	16219	17642	0	564
-27.191	-26.614	16243	17454	0	564
-24.414	-20.916	16234	17183	0	564
-19.834	-12.189	16219	16879	0	564
-14.966	-8.511	16186	16555	0	564
-7.357	-9.304	16163	16226	0	564
-2.452	-14.245	16101	15899	0	564
-0.325	-17.490	16054	15582	0	564
-2.019	-16.769	15984	15288	0	564
-7.321	-15.362	15960	15087	0	564
-10.710	-15.579	15998	15182	0	564
-11.215	-17.923	16125	15737	0	564
-10.855	-18.031	16304	16572	0	564
-11.684	-15.182	16487	17381	0	564
-17.057	-11.143	16676	18048	0	564
-20.988	-8.943	16879	18573	0	564
-18.644	-10.133	17044	18893	0	564
-10.350	-13.235	17218	19184	0	564
-1.587	-15.002	17445	19633	0	564
1.947	-14.389	17657	20082	0	564
-1.406	-13.595	17869	20356	0	564
-8.871	-15.867	18044	20432	0	564
-11.287	-17.779	18138	20224	0	564
-10.710	-19.221	18185	19706	0	564
-7.970	-19.582	18200	19012	0	564
-10.494	-20.483	18162	18220	0	564
-18.500	-22.395	18082	17364	0	564
-25.640	-26.073	17987	16489	0	564
-27.804	-26.506	17855	15625	0	564
-24.666	-22.755	17714	14783	0	564
-18.608	-16.625	17549	13987	0	564
-12.117	-13.018	17407	13323	0	564
-10.963	-15.579	17313	12953	0	564
-9.232	-17.129	17209	12824	0	564
-10.530	-19.546	17115	12686	0	564
-12.550	-18.644	16983	12458	0	564
-15.002	-17.238	16888	12293	0	564
-17.202	-17.706	16841	12435	0	564
-13.271	-17.274	16879	12960	0	564
-5.481	-13.776	16912	13577	0	564
2.596	-6.455	16888	13954	0	564
5.265	-0.902	16855	14099	0	564
0.974	-2.200	16794	14145	0	564
-8.583	-9.160	16723	14135	0	564
-15.146	-17.238	16643	14079	0	564
-14.353	-23.044	16549	13997	0	564
-8.042	-24.919	16464	13970	0	564
-0.541	-24.558	16417	14152	0	564
1.839	-25.099	16393	14495	0	564
-1.298	-24.991	16384	14826	0	564
-7.465	-23.801	16407	15196	0	564
-14.172	-25.243	16431	15645	0	564
-17.238	-26.758	16431	15965	0	564
-18.536	-30.148	16407	16077	0	564
-16.985	-29.895	16393	16137	0	564
-14.641	-27.732	16440	16403	0	564
-14.100	-24.847	16572	17041	0	564
-18.031	-24.558	16723	17896	0	564
-22.719	-28.489	16879	18596	0	564
-25.532	-30.292	17006	18979	0	564
-20.159	-27.335	17124	19240	0	564
-9.665	-19.401	17256	19527	0	564
2.380	-12.550	17398	19792	0	564
5.806	-9.412	17501	19927	0	564
1.767	-11.504	17549	19805	0	564
-6.527	-13.343	17563	19412	0	564
-10.530	-12.730	17539	18860	0	564
-10.458	-10.097	17478	18230	0	564
-6.563	-7.285	17398	17549	0	564
-4.364	-9.376	17289	16849	0	564
-6.491	-11.864	17171	16223	0	564
-10.061	-13.091	17124	15813	0	564
-11.576	-12.477	17053	15589	0	564
-11.179	-10.025	16983	15321	0	564
-7.753	-11.792	16865	14938	0	564
-5.085	-15.795	16761	14532	0	564
-3.895	-20.483	16629	14155	0	564
-6.563	-23.224	16487	13809	0	564
-10.819	-25.496	16351	13498	0	564
-13.920	-27.840	16210	13237	0	564
-16.480	-31.915	16092	13085	0	564
-13.884	-32.348	16045	13247	0	564
-8.727	-25.063	16092	13815	0	564
-3.787	-11.937	16125	14545	0	564
-0.829	-1.551	16210	15245	0	564
-3.534	-5.013	16290	15866	0	564
-9.845	-19.005	16328	16292	0	564
-14.028	-32.636	16337	16469	0	564
-13.415	-34.115	16328	16506	0	564
-5.806	-20.339	16314	16516	0	564
3.642	-2.885	16337	16644	0	564
7.429	4.977	16361	16872	0	564
4.652	-2.669	16361	16968	0	564
-2.344	-17.923	16328	16869	0	564
-7.501	-26.830	16281	16671	0	564
-8.402	-24.702	16234	16433	0	564
-2.416	-10.927	16163	16246	0	564
5.662	3.570	16149	16246	0	564
10.855	10.602	16172	16456	0	564
12.730	3.859	16234	16783	0	564
6.383	-11.143	16290	17097	0	564
-2.092	-27.624	16304	17242	0	564
-11.504	-38.154	16328	17245	0	564
-13.307	-36.891	16375	17345	0	564
-12.405	-28.741	16417	17536	0	564
-7.068	-19.654	16440	17579	0	564
-1.587	-12.694	16454	17480	0	564
1.010	-11.143	16501	17477	0	564
1.983	-10.710	16572	17645	0	564
-1.587	-11.396	16652	17886	0	564
-7.393	-14.028	16747	18144	0	564
-15.218	-19.221	16855	18408	0	564
-15.471	-23.765	16959	18596	0	564
-10.855	-25.784	17030	18629	0	564
-3.823	-21.421	17138	18619	0	564
-0.721	-16.120	17195	18623	0	564
-6.239	-14.461	17218	18448	0	564
-18.139	-17.310	17218	18035	0	564
-28.669	-22.431	17162	17500	0	564
-29.066	-23.729	17091	16912	0	564
-22.611	-21.421	17006	16361	0	564
-9.665	-16.949	16983	16008	0	564
1.370	-14.317	16935	15833	0	564
3.931	-14.461	16888	15599	0	564
-1.587	-14.028	16808	15222	0	564
-11.648	-15.975	16690	14806	0	564
-20.700	-19.005	16582	14403	0	564
-21.818	-21.385	16454	14030	0	564
-17.779	-22.467	16328	13696	0	564
-7.212	-16.805	16186	13399	0	564
0.469	-10.206	16068	13148	0	564
3.642	-5.950	15936	13016	0	564
2.308	-11.107	15889	13141	0	564
-2.849	-20.339	15842	13462	0	564
-10.783	-30.689	15785	13739	0	564
-16.408	-31.951	15724	13884	0	564
-20.808	-27.443	15644	13987	0	564
-20.988	-21.637	15583	14073	0	564
-17.526	-20.916	15502	14145	0	564
-12.441	-26.578	15408	14202	0	564
-8.402	-34.980	15323	14261	0	564
-9.881	-38.298	15243	14324	0	564
-14.461	-34.259	15149	14390	0	564
-23.152	-29.463	15054	14469	0	564
-29.859	-25.532	14969	14568	0	564
-29.030	-29.066	14913	14680	0	564
-25.604	-34.331	14828	14813	0	564
-17.743	-38.947	14757	14968	0	564
-12.514	-36.459	14710	15136	0	564
-10.061	-28.020	14677	15387	0	564
-10.350	-16.120	14710	15853	0	564
-10.638	-6.203	14757	16466	0	564
-12.333	-2.452	14842	17051	0	564
-14.028	-4.147	14960	17652	0	564
-15.326	-11.215	15078	18309	0	564
-11.864	-12.225	15172	18798	0	564
-4.796	-9.592	15267	19108	0	564
3.498	-2.633	15418	19471	0	564
5.770	-0.721	15559	19891	0	564
1.875	-5.590	15644	20119	0	564
-5.517	-15.615	15738	20092	0	564
-13.451	-24.306	15771	19924	0	564
-15.435	-25.568	15818	19666	0	564
-12.333	-22.106	15818	19336	0	564
-11.323	-16.589	15818	18956	1	888
-11.432	-16.805	15818	18547	0	888
-14.461	-22.899	15771	18121	0	888
-21.241	-32.492	15748	17698	0	888
-28.886	-41.543	15715	17351	0	888
-34.944	-46.845	15762	17232	0	888
-37.144	-46.123	15795	17285	0	888
-37.505	-44.392	15833	17269	0	888
-34.944	-41.796	15818	17097	0	888
-32.600	-41.868	15818	16866	0	888
-30.472	-41.327	15809	16621	0	888
-28.309	-40.426	15748	16365	0	888
-26.361	-35.990	15724	16104	0	888
-22.899	-31.194	15668	15849	0	888
-20.808	-28.345	15630	15612	0	888
-19.834	-27.155	15597	15397	0	888
-19.762	-28.597	15526	15212	0	888
-17.959	-28.020	15479	15060	0	888
-15.218	-25.279	15418	14938	0	888
-10.242	-18.428	15385	14908	0	888
-8.150	-12.946	15418	15110	0	888
-8.366	-10.133	15502	15549	0	888
-14.100	-11.360	15583	16117	0	888
-20.411	-15.759	15738	16740	0	888
-23.476	-19.906	15889	17391	0	888
-20.700	-21.313	16045	17975	0	888
-16.697	-22.395	16172	18329	0	888
-12.586	-21.890	16257	18408	0	888
-14.172	-23.008	16304	18322	0	888
-18.356	-23.837	16328	18134	0	888
-22.286	-24.089	16361	17939	0	888
-21.637	-20.700	16431	17896	0	888
-18.067	-17.166	16501	17972	0	888
-14.425	-15.002	16549	17929	0	888
-16.589	-16.733	16558	17698	0	888
-21.421	-23.981	16558	17381	0	888
-29.354	-31.626	16534	17024	0	888
-30.148	-36.098	16501	16638	0	888
-26.830	-34.944	16440	16249	0	888
-20.916	-30.436	16384	15859	0	888
-16.625	-26.650	16314	15486	0	888
-16.552	-25.171	16234	15143	0	888
-18.103	-28.705	16149	14832	0	888
-19.834	-32.276	16078	14562	0	888
-17.418	-35.269	15984	14330	0	888
-16.156	-35.305	15889	14149	0	888
-14.245	-31.843	15818	14013	0	888
-15.579	-27.479	15738	13921	0	888
-16.444	-25.388	15668	13875	0	888
-17.526	-26.686	15583	13861	0	888
-16.949	-33.393	15512	13878	0	888
-16.228	-38.442	15455	13934	0	888
-15.615	-38.045	15408	14096	0	888
-16.084	-30.436	15465	14555	0	888
-15.507	-18.500	15597	15387	0	888
-15.759	-8.871	15701	16276	0	888
-13.776	-8.475	15818	16882	0	888
-13.054	-15.867	15880	17229	0	888
-12.874	-25.965	15936	17434	0	888
-14.317	-32.925	15984	17536	0	888
-17.382	-33.574	15998	17549	0	888
-20.303	-31.158	16021	17562	0	888
-21.132	-28.020	16101	17724	0	888
-21.168	-26.145	16186	18002	0	888
-18.716	-25.063	16267	18213	0	888
-17.598	-23.044	16375	18418	0	888
-19.185	-22.719	16478	18666	0	888
-22.286	-23.945	16572	18821	0	888
-28.597	-27.551	16690	18953	0	888
-29.463	-31.699	16817	19118	0	888
-30.581	-33.213	16879	19121	0	888
-28.092	-34.259	16973	18953	0	888
-23.801	-35.124	17053	18864	0	888
-20.627	-35.305	17138	18860	0	888
-19.221	-34.764	17185	18708	0	888
-15.975	-29.895	17233	18408	0	888
-14.569	-22.106	17289	18206	0	888
-9.556	-13.235	17350	18107	0	888
-8.583	-8.655	17374	17876	0	888
-6.996	-6.275	17360	17450	0	888
-8.547	-7.068	17313	16935	0	888
-11.684	-10.350	17289	16450	0	888
-13.163	-11.215	17280	16157	0	888
-12.009	-13.271	17266	16018	0	888
-10.530	-15.146	17280	15876	0	888
-10.746	-17.670	17327	15856	0	888
-15.975	-19.726	17421	16143	0	888
-22.503	-23.296	17501	16483	0	888
-28.345	-23.873	17539	16549	0	888
-31.446	-24.955	17539	16361	0	888
-30.400	-24.558	17525	16051	0	888
-29.499	-26.109	17454	15674	0	888
-30.581	-33.069	17374	15255	0	888
-34.151	-43.130	17280	14822	0	888
-37.360	-51.569	17171	14390	0	888
-37.901	-54.634	17030	13977	0	888
-34.800	-49.153	16912	13597	0	888
-28.201	-35.377	16784	13264	0	888
-19.582	-21.962	16652	13046	0	888
-11.828	-13.595	16605	13082	0	888
-6.455	-9.953	16549	13323	0	888
-3.967	-8.511	16478	13515	0	888
-2.849	-8.871	16407	13581	0	888
-4.075	-8.871	16351	13676	0	888
-4.327	-11.756	16337	13974	0	888
-5.950	-17.021	16337	14423	0	888
-6.275	-21.060	16328	14779	0	888
-9.520	-20.627	16290	14955	0	888
-10.206	-18.897	16243	15040	0	888
-13.343	-17.923	16219	15149	0	888
-15.435	-21.781	16257	15486	0	888
-17.093	-26.866	16351	16160	0	888
-16.625	-29.354	16440	16869	0	888
-17.995	-27.083	16501	17292	0	888
-18.283	-22.863	16549	17500	0	888
-22.106	-21.709	16629	17767	0	888
-25.712	-25.388	16737	18164	0	888
-25.207	-28.669	16865	18586	0	888
-20.591	-29.859	16959	18920	0	888
-13.668	-26.830	17030	19029	0	888
-10.638	-23.404	17077	18950	0	888
-12.622	-20.844	17171	18917	0	888
-18.211	-20.267	17218	18943	0	888
-21.601	-23.188	17256	18804	0	888
-19.870	-24.053	17242	18448	0	888
-13.559	-23.909	17195	17979	0	888
-9.304	-24.414	17138	17460	0	888
-4.255	-21.637	17067	16909	0	888
-1.370	-15.471	16973	16351	0	888
2.380	-7.176	16841	15803	0	888
5.229	2.164	16737	15285	0	888
6.203	7.321	16596	14809	0	888
2.921	4.580	16464	14386	0	888
-5.013	-5.049	16337	14020	0	888
-10.133	-17.887	16234	13769	0	888
-9.340	-24.306	16172	13782	0	888
-2.705	-19.726	16163	14073	0	888
6.094	-9.124	16210	14588	0	888
9.232	-1.695	16314	15331	0	888
3.065	-3.101	16417	16081	0	888
-8.835	-13.776	16487	16535	0	888
-19.041	-23.404	16511	16704	0	888
-19.510	-22.034	16525	16727	0	888
-11.720	-13.307	16501	16654	0	888
-2.957	-2.669	16464	16506	0	888
1.839	-0.757	16407	16309	0	888
-1.479	-5.914	16337	16067	0	888
-10.206	-14.425	16281	15879	0	888
-20.808	-20.483	16314	15955	0	888
-27.047	-23.801	16384	16393	0	888
-27.155	-26.217	16454	16895	0	888
-23.512	-28.814	16501	17133	0	888
-14.208	-24.450	16501	17127	0	888
-4.904	-14.677	16487	17004	0	888
3.426	0.793	16478	16882	0	888
9.701	11.900	16511	16912	0	888
12.730	15.759	16534	17061	0	888
13.343	7.393	16582	17156	0	888
8.943	-2.200	16629	17262	0	888
3.678	-9.448	16676	17427	0	888
0.252	-6.635	16690	17457	0	888
1.154	1.226	16676	17285	0	888
6.347	9.304	16667	17011	0	888
9.304	11.035	16605	16687	0	888
6.563	6.599	16534	16328	0	888
-2.596	-4.436	16454	15952	0	888
-11.576	-13.163	16351	15582	0	888
-13.956	-17.923	16290	15301	0	888
-9.052	-16.012	16267	15252	0	888
-1.406	-11.828	16243	15390	0	888
2.885	-8.511	16219	15470	0	888
-1.623	-11.612	16172	15414	0	888
-10.927	-21.529	16163	15374	0	888
-22.575	-30.256	16163	15529	0	888
-28.056	-34.475	16186	15830	0	888
-28.489	-31.194	16186	16028	0	888
-23.368	-23.837	16196	16107	0	888
-18.536	-22.358	16267	16371	0	888
-20.303	-25.604	16393	16948	0	888
-26.794	-33.934	16501	17543	0	888
-31.554	-37.432	16582	17833	0	888
-31.013	-34.006	16619	17833	0	888
-20.231	-23.837	16619	17685	0	888
-5.337	-16.192	16605	17444	0	888
3.678	-10.206	16558	17130	0	888
4.003	-10.097	16549	16846	0	888
-3.065	-10.494	16549	16750	0	888
-9.412	-7.753	16558	16796	0	888
-10.278	-6.022	16549	16743	0	888
-7.537	-4.400	16549	16592	0	888
-1.334	-4.977	16558	16578	0	888
2.380	-4.688	16596	16697	0	888
4.868	-4.472	16582	16704	0	888
6.058	-3.210	16558	16526	0	888
3.931	-5.121	16511	16266	0	888
-0.541	-9.737	16454	15975	0	888
-11.648	-17.706	16407	15731	0	888
-19.906	-23.476	16431	15754	0	888
-24.198	-26.361	16534	16209	0	888
-22.611	-25.388	16690	16938	0	888
-18.139	-22.863	16808	17562	0	888
-14.605	-22.972	16926	17903	0	888
-16.552	-26.974	17044	18147	0	888
-20.916	-32.167	17162	18382	0	888
-20.700	-34.475	17209	18408	0	888
-16.084	-31.735	17233	18167	0	888
-9.989	-25.316	17209	17780	0	888
-6.455	-22.972	17171	17315	0	888
-11.684	-26.037	17138	16866	0	888
-21.457	-32.997	17115	16598	1	836
-27.479	-40.029	17115	16476	0	836
-28.417	-41.796	17067	16276	0	836
-20.880	-37.865	17006	15912	0	836
-12.730	-30.328	16912	15496	0	836
-8.475	-23.296	16817	15073	0	836
-9.592	-19.149	16714	14651	0	836
-13.884	-18.860	16582	14251	0	836
-15.723	-19.726	16454	13888	0	836
-11.612	-16.805	16314	13564	0	836
-1.767	-8.763	16172	13290	0	836
7.753	0.505	16031	13075	0	836
9.665	5.626	15903	12923	0	836
2.957	-0.433	15771	12814	0	836
-10.133	-11.215	15653	12821	0	836
-20.916	-22.899	15620	13089	0	836
-24.414	-28.453	15620	13620	0	836
-21.493	-28.309	15644	14294	0	836
-16.516	-23.440	15701	14964	0	836
-12.441	-16.625	15715	15473	0	836
-10.891	-12.189	15724	15777	0	836
-14.281	-11.432	15701	15968	0	836
-19.690	-15.254	15691	16097	0	836
-26.001	-23.008	15644	16160	0	836
-33.574	-30.292	15644	16246	0	836
-39.632	-37.360	15653	16492	0	836
-43.202	-43.491	15701	16869	0	836
-42.878	-48.143	15701	17133	0	836
-38.586	-47.926	15715	17199	0	836
-29.210	-40.281	15691	17173	0	836
-17.129	-27.010	15677	17107	0	836
-9.196	-16.336	15644	17004	0	836
-8.907	-14.172	15606	16882	0	836
-14.677	-19.870	15583	16813	0	836
-22.395	-27.119	15606	16935	0	836
-25.568	-28.922	15653	17199	0	836
-22.863	-24.991	15653	17354	0	836
-16.228	-18.680	15691	17404	0	836
-12.550	-17.310	15748	17582	0	836
-15.939	-22.467	15866	17949	0	836
-23.152	-32.564	15984	18388	0	836
-30.220	-42.265	16116	18775	0	836
-31.987	-44.897	16186	18953	0	836
-24.414	-40.029	16243	18890	0	836
-16.300	-30.364	16290	18679	0	836
-11.396	-20.231	16281	18395	0	836
-11.828	-15.975	16267	18051	0	836
-17.706	-14.172	16267	17738	0	836
-20.123	-12.369	16290	17605	0	836
-18.211	-9.845	16328	17609	0	836
-12.694	-5.734	16375	17579	0	836
-10.422	-6.311	16478	17652	0	836
-12.477	-11.396	16619	18012	0	836
-18.320	-19.221	16761	18467	0	836
-21.060	-25.171	16935	18821	0	836
-21.745	-25.460	17067	19042	0	836
-19.329	-21.926	17171	19026	0	836
-18.031	-18.103	17195	18741	0	836
-19.582	-16.408	17218	18299	0	836
-21.637	-16.625	17195	17774	0	836
-19.798	-16.012	17148	17189	0	836
-14.533	-13.054	17091	16585	0	836
-9.412	-10.494	17020	16048	0	836
-7.501	-10.386	17006	15721	0	836
-11.323	-15.939	16983	15575	0	836
-18.933	-23.765	16912	15367	0	836
-26.145	-31.302	16855	15024	0	836
-30.400	-33.429	16770	14644	0	836
-30.400	-29.859	16667	14281	0	836
-26.433	-22.575	16582	14000	0	836
-22.503	-16.084	16549	13947	0	836
-18.860	-13.091	16525	14079	0	836
-18.103	-14.064	16501	14225	0	836
-21.926	-18.608	16534	14502	0	836
-24.847	-21.926	16643	15090	0	836
-26.289	-23.260	16714	15721	0	836
-26.974	-25.424	16770	16064	0	836
-24.847	-25.388	16784	16134	0	836
-25.135	-27.732	16761	16077	0	836
-25.640	-29.246	16723	15942	1	316
-24.666	-29.174	16676	15744	0	316
-18.139	-23.368	16605	15499	0	316
-7.140	-9.953	16534	15298	0	316
3.967	4.436	16549	15357	0	316
9.268	12.514	16605	15777	0	316
8.258	7.645	16676	16269	0	316
-1.587	-8.294	16700	16499	0	316
-12.730	-25.279	16723	16545	0	316
-16.985	-30.148	16761	16677	0	316
-14.966	-22.755	16841	16961	0	316
-6.708	-8.006	16935	17302	0	316
1.875	5.445	16997	17572	0	316
7.140	11.071	17044	17635	0	316
7.609	10.530	17030	17467	0	316
4.436	4.688	17006	17169	0	316
-1.226	-2.164	16959	16869	0	316
-6.816	-12.802	16973	16714	0	316
-13.199	-21.781	16959	16681	0	316
-19.149	-29.607	16959	16611	0	316
-22.575	-31.807	16997	16585	0	316
-25.784	-27.083	16997	16651	0	316
-24.955	-17.418	16997	16598	0	316
-22.791	-6.491	16935	16351	0	316
-18.067	1.298	16902	16077	0	316
-12.658	0.325	16879	15982	0	316
-9.989	-6.888	16888	16021	0	316
-13.091	-16.516	16855	15955	0	316
-18.175	-25.388	16770	15721	0	316
-21.024	-30.148	16714	15417	0	316
-20.808	-27.948	16605	15103	0	316
-12.189	-19.437	16525	14846	0	316
-1.010	-6.924	16478	14806	0	316
5.445	5.301	16454	14938	0	316
6.744	11.648	16393	14997	0	316
0.000	8.439	16337	14912	0	316
-8.763	-1.731	16257	14783	0	316
-16.012	-12.405	16163	14647	0	316
-18.464	-18.897	16068	14505	0	316
-15.975	-19.906	15974	14370	0	316
-10.819	-16.841	15856	14244	0	316
-7.537	-11.179	15771	14211	0	316
-7.068	-6.996	15748	14403	0	316
-10.206	-4.508	15724	14776	0	316
-14.461	-7.212	15715	15073	0	316
-19.726	-16.084	15653	15222	0	316
-24.630	-27.371	15653	15377	0	316
-33.538	-37.036	15677	15707	0	316
-40.281	-43.635	15691	16160	0	316
-41.652	-41.940	15724	16499	0	316
-36.026	-36.891	15738	16710	0	316
-24.486	-31.699	15818	17087	0	316
-14.749	-27.696	15984	17764	0	316
-11.576	-25.316	16101	18448	0	316
-14.858	-22.322	16196	18814	0	316
-20.700	-20.736	16257	18874	0	316
-24.414	-20.736	16281	18765	0	316
-25.712	-23.981	16281	18547	0	316
-23.657	-25.424	16257	18246	0	316
-16.589	-24.089	16267	17965	0	316
-10.278	-15.579	16290	17853	0	316
-4.724	-4.183	16337	17942	0	316
-2.921	0.541	16417	18124	0	316
-3.390	-2.128	16501	18286	0	316
-5.337	-9.737	16525	18276	0	316
-6.527	-16.949	16558	18061	0	316
-7.934	-18.320	16525	17724	0	316
-9.052	-14.425	16487	17325	0	316
-8.222	-7.970	16440	16889	0	316
-3.750	-0.325	16393	16506	0	316
3.498	6.419	16384	16335	0	316
9.340	11.792	16384	16325	0	316
7.465	12.658	16361	16239	0	316
2.669	6.275	16351	16071	0	316
-5.842	-1.010	16361	16048	0	316
-11.143	-10.061	16407	16236	0	316
-14.172	-13.631	16487	16519	0	316
-14.785	-16.120	16549	16790	0	316
-16.913	-16.805	16582	16889	0	316
-18.933	-17.995	16582	16773	0	316
-17.634	-17.743	16582	16615	0	316
-16.408	-17.490	16629	16601	0	316
-14.245	-18.933	16652	16697	0	316
-16.769	-24.234	16652	16671	0	316
-22.106	-32.023	16619	16463	0	316
-25.856	-35.449	16582	16173	0	316
-27.804	-33.718	16501	15840	0	316
-22.395	-26.578	16431	15486	0	316
-17.562	-18.824	16337	15133	0	316
-11.396	-13.307	16257	14799	0	316
-7.357	-9.845	16125	14492	0	316
-1.442	-10.314	16007	14211	0	316
2.957	-12.189	15903	13977	0	316
2.921	-13.704	15785	13795	0	316
-1.731	-15.903	15691	13723	0	316
-11.828	-16.480	15677	13898	0	316
-20.591	-14.497	15677	14334	0	316
-21.313	-13.018	15785	14981	0	316
-15.435	-9.953	15889	15830	0	316
-8.979	-10.061	16031	16661	0	316
-7.248	-10.206	16116	17186	0	316
-10.963	-15.362	16196	17473	0	316
-17.670	-22.899	16304	17807	0	316
-21.745	-28.705	16393	18177	0	316
-21.168	-29.210	16487	18424	0	316
-19.221	-23.476	16596	18626	0	316
-21.854	-17.634	16714	18903	0	316
-27.407	-14.858	16902	19267	0	316
-31.518	-18.211	17091	19732	0	316
-33.393	-24.162	17242	20105	0	316
-27.840	-26.506	17336	20119	0	316
-20.087	-24.017	17398	19788	0	316
-15.435	-19.005	17407	19283	0	316
-14.713	-15.182	17374	18672	0	316
-18.860	-16.949	17336	18048	0	316
-19.510	-20.952	17360	17662	1	460
-17.887	-21.385	17454	17625	0	460
-11.684	-17.562	17492	17655	0	460
-6.311	-9.052	17492	17427	0	460
-2.056	-3.570	17492	17031	0	460
-0.433	-1.767	17501	16750	0	460
-2.019	-7.501	17525	16644	0	460
-6.491	-15.723	17619	16684	0	460
-11.973	-23.008	17704	16902	0	460
-16.336	-27.587	17784	17103	0	460
-18.211	-27.587	17832	17080	0	460
-18.247	-22.647	17902	16981	0	460
-19.546	-16.805	17926	16899	0	460
-25.568	-14.100	17940	16714	0	460
-33.069	-17.382	17964	16509	0	460
-35.088	-25.532	17987	16417	0	460
-32.600	-34.656	18011	16384	0	460
-25.784	-38.009	18034	16302	0	460
-18.969	-34.367	17997	16031	0	460
-16.264	-26.289	17926	15559	0	460
-16.084	-16.480	17799	14991	0	460
-17.490	-9.629	17690	14456	0	460
-17.166	-5.085	17596	14112	0	460
-14.353	-5.517	17516	13931	0	460
-11.720	-7.176	17398	13686	0	460
-10.097	-10.674	17256	13320	0	460
-8.366	-13.956	17091	12923	0	460
-7.609	-12.189	16926	12554	0	460
-5.626	-4.832	16723	12217	0	460
-3.173	0.288	16549	11916	0	460
-4.832	1.983	16351	11672	0	460
-11.179	-4.580	16163	11484	0	460
-20.267	-13.668	15960	11361	0	460
-25.388	-17.418	15762	11309	0	460
-23.801	-14.858	15597	11322	0	460
-17.959	-7.789	15408	11398	0	460
-12.946	-6.708	15267	11599	0	460
-14.641	-10.819	15196	12062	0	460
-22.827	-18.933	15158	12781	0	460
-34.980	-27.587	15182	13647	0	460
-41.760	-34.295	15229	14581	0	460
-44.789	-38.442	15323	15559	0	460
-42.589	-40.137	15408	16463	0	460
-37.000	-39.921	15465	17133	0	460
-33.069	-37.360	15526	17596	0	460
-29.102	-34.439	15606	18084	0	460
-26.397	-30.220	15701	18606	0	460
-22.395	-25.532	15748	18930	0	460
-18.933	-18.897	15785	19002	0	460
-14.858	-16.156	15762	18933	0	460
-13.235	-16.949	15785	18844	0	460
-11.612	-19.690	15842	18953	0	460
-9.412	-20.050	15984	19362	0	460
-7.717	-14.136	16092	19785	0	460
-5.265	-5.517	16163	19907	0	460
-6.275	-3.823	16196	19749	0	460
-6.455	-6.960	16219	19458	0	460
-4.003	-9.268	16196	19075	0	460
2.669	-6.275	16163	18623	0	460
13.163	6.275	16125	18124	0	460
18.572	20.555	16031	17615	0	460
17.526	27.010	15951	17110	0	460
8.583	21.854	15866	16621	0	460
-1.587	9.629	15762	16160	0	460
-6.455	-0.721	15701	15797	0	460
-7.934	-5.842	15668	15681	0	460
-3.029	-4.219	15668	15764	0	460
1.551	0.938	15620	15797	0	460
2.092	1.983	15597	15704	0	460
-0.938	-2.380	15535	15579	0	460
-9.448	-7.465	15502	15450	0	460
-19.077	-10.025	15432	15311	0	460
-25.568	-10.242	15361	15176	0	460
-25.604	-9.340	15276	15054	0	460
-22.647	-11.756	15229	14955	0	460
-17.057	-15.651	15149	14872	0	460
-13.523	-16.733	15078	14806	0	460
-15.471	-14.425	15007	14756	0	460
-18.824	-8.222	14936	14733	0	460
-21.349	-6.996	14866	14737	0	460
-23.080	-7.645	14818	14766	0	460
-19.582	-11.143	14734	14819	0	460
-16.444	-12.910	14677	14898	0	460
-13.776	-15.290	14639	14997	0	460
