neuroNicle FX2
D3F25R12
Bluetooth SPP
2023년 3월 30일 목요일
오후 2:37
time interval = 4msec
EEG1	EEG2	PPG	sdPPG	pulse	peak_interval(msec)
23.585	-3.895	16271	14873	0	316
17.418	-6.599	16271	14873	0	316
16.805	-7.068	16271	14989	0	316
16.228	-9.052	16271	15338	0	316
19.546	-9.737	16271	15803	0	316
20.880	-8.402	16271	16268	0	316
22.575	-6.058	16271	16732	0	316
23.729	-4.039	16271	17430	0	316
23.476	-0.685	16271	18011	0	316
24.486	-0.072	16328	18477	0	316
24.702	-2.416	16328	18593	0	316
24.125	-6.635	16328	18709	0	316
22.070	-10.855	16328	18825	0	316
21.385	-10.097	16328	18825	0	316
19.762	-9.340	16328	18825	0	316
20.339	-5.878	16328	18709	0	316
19.582	-3.173	16328	18593	0	316
21.096	-2.669	16328	18360	0	316
17.634	-7.573	16362	18244	0	316
16.733	-12.658	16362	18244	0	316
14.317	-17.887	16362	18477	0	316
12.802	-19.546	16362	18825	0	316
11.432	-21.096	16384	19058	0	316
12.622	-15.939	16384	18942	0	316
14.605	-14.605	16384	18709	0	316
13.631	-10.422	16384	18360	0	316
17.166	-10.530	16384	17779	0	316
15.975	-8.511	16384	17430	0	316
16.516	-8.222	16384	17081	0	316
15.326	-9.629	16384	16616	0	316
16.805	-10.927	16384	16268	0	316
13.740	-11.900	16362	15803	0	316
7.140	-15.795	16362	15687	0	316
-5.157	-25.676	16384	15687	0	316
-17.274	-40.389	16384	16036	0	316
-18.969	-51.172	16384	16384	0	316
-7.212	-50.307	16384	16500	0	316
19.041	-37.649	16384	16732	0	316
47.241	-14.821	16406	17081	0	316
61.882	1.442	16406	17197	0	316
64.551	4.832	16406	17081	0	316
61.269	-1.370	16406	16965	0	316
62.532	-7.068	16406	17081	0	316
72.052	-3.354	16406	17081	0	316
87.090	6.275	16440	16965	0	316
95.745	16.697	16440	16849	0	316
99.207	22.214	16440	16732	0	316
95.889	19.005	16440	16732	0	316
90.480	14.100	16440	16732	0	316
85.142	8.366	16440	16616	0	316
78.219	5.842	16440	16616	0	316
70.032	4.940	16440	16616	0	316
62.063	1.803	16463	16732	0	316
56.149	1.515	16463	16616	0	316
53.768	0.721	16440	16500	0	316
50.811	1.767	16440	16384	0	316
53.444	1.370	16440	16268	0	316
51.785	0.793	16440	15919	0	316
50.054	-0.793	16440	15571	0	316
45.330	-3.462	16440	15338	0	316
41.543	-6.311	16440	15105	0	316
38.947	-6.347	16440	15222	0	316
34.728	-7.321	16440	15454	0	316
33.646	-7.393	16440	15571	0	316
28.741	-8.619	16440	15687	0	316
23.657	-10.386	16440	15803	0	316
20.267	-14.389	16440	15803	0	316
15.867	-18.139	16440	15687	0	316
14.245	-20.303	16440	15687	0	316
11.468	-20.700	16440	15803	0	316
8.799	-22.106	16440	15803	0	316
6.780	-21.781	16440	15687	0	316
2.669	-23.693	16440	15687	0	316
0.216	-24.955	16440	15687	0	316
0.180	-23.657	16440	15571	0	316
2.669	-19.978	16440	15222	0	316
4.508	-16.012	16440	14757	0	316
5.950	-14.497	16406	14291	0	316
4.940	-12.189	16384	13943	0	316
-0.036	-13.343	16384	13478	0	316
-0.541	-13.163	16384	13245	0	316
-3.029	-12.297	16384	13012	0	316
-2.524	-13.271	16384	12896	0	316
-3.642	-12.910	16362	12780	0	316
-5.085	-17.166	16362	12896	0	316
-7.285	-20.303	16362	13245	0	316
-9.124	-26.001	16328	13594	0	316
-11.432	-30.725	16328	13826	0	316
-15.146	-33.790	16328	14291	0	316
-14.569	-34.511	16328	15105	0	316
-15.002	-33.285	16328	15919	0	316
-13.415	-29.823	16328	16384	0	316
-12.081	-28.814	16362	16849	0	316
-12.153	-25.279	16362	17314	0	316
-11.143	-24.919	16362	17546	0	316
-10.169	-22.503	16362	17663	0	316
-10.891	-23.801	16362	17779	0	316
-12.369	-26.397	16362	17779	0	316
-15.687	-28.237	16362	17663	0	316
-20.627	-31.446	16362	17663	0	316
-22.358	-33.285	16362	17779	0	316
-24.811	-35.882	16362	17663	0	316
-29.354	-41.183	16362	17546	0	316
-30.472	-47.133	16362	17314	0	316
-24.702	-49.585	16362	17430	0	316
-10.783	-41.976	16362	17779	0	316
4.760	-26.758	16362	18011	0	316
13.343	-14.317	16362	18128	0	316
10.061	-7.681	16362	18360	0	316
2.056	-12.045	16384	18593	0	316
-4.111	-22.575	16384	18825	0	316
0.036	-26.794	16384	19174	0	316
5.445	-23.801	16406	19523	0	316
8.871	-18.031	16406	19639	0	316
4.400	-12.838	16406	19756	0	316
-0.036	-15.471	16406	19639	0	316
-2.200	-18.211	16440	19407	0	316
-0.252	-23.549	16440	19174	0	316
1.406	-23.693	16440	19058	0	316
0.361	-25.640	16440	19058	0	316
-2.705	-27.371	16463	19174	0	316
-6.131	-29.066	16463	19174	0	316
-8.979	-29.968	16463	19058	0	316
-10.386	-28.777	16497	18825	0	316
-12.189	-25.135	16497	18593	0	316
-10.422	-22.142	16463	18244	0	316
-9.376	-20.772	16497	18128	0	316
-6.563	-23.621	16519	17895	0	316
-4.111	-25.388	16497	17430	0	316
-2.236	-25.604	16497	17197	0	316
-1.190	-23.765	16497	16849	0	316
-0.505	-20.555	16497	16616	0	316
0.000	-19.473	16497	16268	0	316
-0.505	-21.637	16497	15919	0	316
-1.082	-22.647	16497	15687	0	316
0.216	-21.385	16497	15571	0	316
2.705	-20.555	16519	15454	0	316
4.724	-17.310	16519	15338	0	316
6.816	-16.949	16519	15105	0	316
9.340	-15.507	16497	14757	0	316
8.979	-15.651	16497	14291	0	316
7.357	-15.507	16497	13826	0	316
4.616	-20.231	16463	13361	0	316
0.757	-22.395	16463	13129	0	316
0.685	-26.073	16463	13129	0	316
1.370	-24.594	16440	13129	0	316
2.344	-23.044	16440	12780	0	316
3.931	-22.106	16440	12431	0	316
5.301	-18.211	16406	11966	0	316
7.032	-14.028	16406	11733	0	316
10.819	-8.114	16406	12082	0	316
13.559	-4.111	16406	12547	0	316
12.117	-4.977	16406	13245	0	316
10.422	-8.511	16406	14059	0	316
8.294	-12.045	16406	14873	0	316
9.160	-12.874	16406	15803	0	316
10.674	-11.396	16440	16500	0	316
14.245	-8.619	16440	17314	0	316
11.287	-8.583	16463	18011	0	316
9.737	-11.612	16463	18709	0	316
6.852	-13.523	16463	19058	0	316
4.977	-14.353	16463	19058	0	316
5.013	-16.048	16497	18825	0	316
8.186	-12.658	16463	18825	0	316
8.114	-8.547	16497	18825	0	316
11.900	-5.986	16497	18825	0	316
12.982	-5.734	16463	18709	0	316
13.163	-8.366	16463	18593	0	316
14.425	-12.477	16463	18128	0	316
11.432	-17.634	16463	17546	0	316
11.612	-17.743	16463	17314	0	316
10.602	-18.139	16497	17197	0	316
10.386	-15.146	16497	17197	0	316
13.127	-13.848	16497	17314	0	316
18.175	-10.999	16497	17197	0	316
21.962	-7.068	16497	16849	0	316
25.352	-5.193	16497	16500	0	316
24.991	-5.842	16497	16152	0	316
19.834	-7.862	16497	15687	0	316
14.100	-10.458	16463	15222	0	316
10.638	-11.287	16463	14757	0	316
10.602	-11.504	16463	14524	0	316
10.133	-10.674	16463	14640	0	316
10.314	-11.396	16440	14757	0	316
11.612	-14.064	16440	14524	0	316
13.271	-13.668	16406	13943	0	316
15.218	-8.907	16406	13245	0	316
21.060	-6.347	16384	12664	0	316
20.736	-4.616	16384	12315	0	316
18.716	-7.104	16362	12315	0	316
13.199	-11.179	16362	12547	0	316
11.576	-14.605	16362	12780	0	316
9.268	-14.894	16362	13129	0	316
9.376	-11.504	16362	13478	0	316
8.330	-12.117	16328	13826	0	316
5.445	-14.353	16328	14059	0	316
4.039	-13.956	16362	14175	0	316
4.796	-15.579	16362	14291	0	316
8.727	-12.009	16362	14640	0	316
12.261	-10.710	16362	15222	0	316
12.586	-11.107	16362	15803	0	316
8.222	-13.920	16362	16384	0	316
5.121	-17.634	16362	16965	0	316
0.216	-15.795	16362	17779	0	316
-2.633	-16.264	16384	18593	0	316
-7.934	-18.356	16384	19174	0	316
-17.454	-24.522	16384	19407	0	316
-23.440	-29.895	16384	19523	0	316
-23.188	-29.102	16406	19639	0	316
-13.704	-20.880	16406	19872	0	316
1.767	-6.671	16406	19988	0	316
12.333	-0.180	16406	19756	0	316
8.943	-3.787	16406	19407	0	316
2.741	-13.018	16406	19174	0	316
-6.022	-22.575	16406	18825	0	316
-5.157	-26.325	16406	18477	1	952
0.829	-23.765	16406	18011	0	952
5.409	-19.978	16384	17779	0	952
6.527	-22.467	16384	17663	0	952
-0.469	-24.919	16384	17546	0	952
-7.285	-28.309	16406	17430	0	952
-8.511	-28.850	16406	17314	0	952
-6.924	-25.496	16406	17081	0	952
-1.190	-20.087	16406	16849	0	952
5.698	-16.552	16406	16849	0	952
7.645	-13.523	16406	16732	0	952
7.862	-15.831	16406	16616	0	952
3.678	-20.627	16406	16500	0	952
0.541	-25.893	16406	16500	0	952
-0.613	-28.777	16406	16616	0	952
1.406	-24.378	16406	16616	0	952
4.183	-19.401	16406	16732	0	952
6.888	-17.274	16440	17081	0	952
9.845	-17.562	16440	17197	0	952
7.898	-23.008	16440	17081	0	952
9.773	-25.929	16440	16965	0	952
9.232	-24.234	16440	16849	0	952
11.720	-21.313	16440	16849	0	952
15.903	-14.605	16440	16616	0	952
19.077	-13.559	16440	16384	0	952
23.152	-11.251	16440	16384	0	952
22.070	-11.071	16440	16152	0	952
19.221	-11.828	16440	15687	0	952
12.225	-11.900	16440	15338	0	952
6.419	-14.136	16440	14989	0	952
1.406	-17.995	16406	14757	0	952
-2.560	-21.385	16406	14524	0	952
-2.993	-24.666	16406	14408	0	952
1.731	-23.296	16406	14291	0	952
15.435	-11.468	16406	14291	0	952
34.223	7.681	16406	14175	0	952
55.139	29.643	16384	14059	0	952
65.164	45.294	16384	13943	0	952
62.027	44.428	16384	14059	0	952
51.208	30.977	16384	14291	0	952
38.298	14.641	16384	14524	0	952
34.656	5.806	16384	14757	0	952
37.649	6.022	16384	15222	0	952
44.140	18.067	16384	15687	0	952
48.071	23.945	16384	16152	0	952
48.684	25.712	16384	16384	0	952
44.068	22.899	16384	16500	0	952
39.668	15.615	16384	16732	0	952
37.829	11.432	16384	16849	0	952
37.793	10.566	16384	16849	0	952
40.101	10.602	16384	17081	0	952
40.281	11.287	16384	17197	0	952
37.793	8.294	16384	17197	0	952
32.816	4.977	16384	17197	0	952
29.607	2.200	16384	16849	0	952
27.984	0.433	16384	16500	0	952
29.138	1.262	16384	16384	0	952
29.391	1.587	16384	16036	0	952
27.804	-1.695	16384	15919	0	952
26.650	-4.760	16384	15919	0	952
26.578	-7.573	16384	16036	0	952
27.227	-5.734	16384	16152	0	952
29.427	0.108	16362	16268	0	952
28.164	4.868	16362	16152	0	952
22.755	3.931	16362	15803	0	952
14.858	-2.092	16362	15454	0	952
7.898	-10.206	16362	15338	0	952
3.426	-14.136	16328	15338	0	952
4.111	-14.677	16328	15222	0	952
7.176	-9.016	16328	15105	0	952
9.809	-6.455	16328	14873	0	952
8.871	-9.160	16305	14640	0	952
5.121	-11.864	16305	14757	0	952
1.731	-14.136	16305	14989	0	952
1.262	-15.435	16305	15454	0	952
3.534	-11.792	16305	16036	0	952
6.816	-5.914	16305	16500	0	952
11.179	-3.678	16305	16965	0	952
11.900	-1.803	16305	17081	0	952
9.917	-3.101	16305	17081	0	952
6.563	-7.321	16305	16849	0	952
3.029	-13.379	16305	16732	0	952
-1.623	-14.497	16328	16616	0	952
-4.039	-16.192	16328	16849	0	952
-2.777	-13.487	16328	17314	0	952
-0.252	-12.261	16328	17663	0	952
1.731	-13.091	16362	18128	0	952
4.111	-13.848	16362	18360	0	952
3.859	-17.202	16362	18593	0	952
1.118	-16.841	16362	18593	0	952
-1.695	-18.464	16362	18244	0	952
-4.616	-17.634	16362	17663	0	952
-4.616	-19.365	16328	16849	0	952
-4.724	-19.005	16328	16384	0	952
-5.698	-22.791	16328	16036	0	952
-7.357	-22.899	16328	15687	0	952
-9.484	-21.277	16305	15571	0	952
-9.592	-18.500	16305	15454	0	952
-5.445	-12.874	16305	15687	0	952
-1.370	-10.638	16305	16036	0	952
-1.947	-15.218	16328	16500	0	952
-8.402	-21.565	16328	17081	0	952
-14.028	-27.443	16328	17546	0	952
-18.716	-27.299	16328	17895	0	952
-15.002	-22.286	16362	18128	0	952
-9.701	-16.408	16362	18360	0	952
-8.186	-18.644	16362	18477	0	952
-9.665	-20.519	16362	18477	0	952
-10.710	-26.938	16362	18360	0	952
-11.973	-29.859	16384	18360	0	952
-10.386	-25.496	16384	18244	0	952
-6.383	-23.440	16384	18244	0	952
-6.347	-23.332	16384	18244	0	952
-6.275	-22.611	16384	18360	0	952
-6.383	-24.847	16406	18593	0	952
-7.429	-26.470	16406	18942	0	952
-8.222	-24.811	16406	19058	0	952
-9.412	-22.647	16440	18942	0	952
-9.016	-21.998	16440	18709	0	952
-8.258	-19.546	16440	18244	0	952
-5.517	-19.870	16440	17779	0	952
-3.065	-21.493	16440	17314	0	952
-1.118	-18.428	16440	16732	0	952
0.108	-17.562	16440	16268	0	952
0.793	-14.713	16440	15803	0	952
0.000	-14.064	16440	15338	0	952
0.433	-16.949	16406	14757	0	952
0.902	-18.572	16406	14408	0	952
0.649	-21.565	16406	14175	0	952
-0.505	-21.349	16406	14059	0	952
-0.325	-19.185	16406	14059	0	952
1.226	-18.536	16406	14059	0	952
3.931	-14.172	16406	14408	0	952
6.888	-12.586	16406	14640	0	952
7.176	-11.576	16406	14757	0	952
5.121	-12.694	16406	14873	0	952
0.938	-16.336	16406	14873	0	952
-1.551	-17.526	16406	14640	0	952
-0.649	-17.995	16384	14291	0	952
2.849	-14.389	16384	14175	0	952
4.147	-13.091	16384	14291	0	952
6.888	-12.405	16384	14524	0	952
4.183	-14.136	16384	14873	0	952
0.216	-19.618	16384	15338	0	952
-2.885	-19.546	16384	15803	0	952
-3.101	-20.700	16384	16268	0	952
-0.072	-16.805	16406	16500	0	952
3.931	-15.038	16406	16849	0	952
7.753	-13.776	16406	16732	0	952
7.140	-16.841	16406	16616	0	952
4.652	-19.546	16406	16732	0	952
0.036	-22.467	16406	16965	0	952
-1.334	-21.781	16406	16965	0	952
-0.180	-18.824	16406	17081	0	952
2.777	-14.281	16406	17663	0	952
4.977	-12.369	16440	18244	0	952
5.950	-12.514	16440	18593	0	952
2.524	-16.697	16440	18825	0	952
-1.010	-17.562	16463	19290	0	952
-2.633	-18.752	16440	19523	0	952
-0.433	-16.408	16440	19407	0	952
2.524	-15.398	16463	19174	0	952
2.272	-18.716	16463	18942	0	952
-2.344	-26.109	16463	18825	0	952
-10.025	-31.807	16463	18477	1	656
-14.028	-31.879	16463	17895	0	656
-7.104	-26.181	16463	17430	0	656
7.212	-17.274	16463	16965	0	656
15.326	-9.268	16463	16500	0	656
14.894	-11.323	16463	16152	0	656
1.947	-21.493	16463	15919	0	656
-11.756	-32.636	16463	15571	0	656
-16.228	-39.704	16463	15222	0	656
-12.045	-38.406	16463	14873	0	656
-2.741	-30.617	16440	14408	0	656
3.642	-24.270	16406	13826	0	656
5.013	-19.582	16406	13129	0	656
4.255	-22.142	16406	12664	0	656
4.255	-22.611	16406	12547	0	656
4.904	-22.755	16406	12780	0	656
2.957	-22.431	16406	13129	0	656
2.488	-22.322	16406	13478	0	656
0.865	-25.460	16384	13710	0	656
1.190	-27.371	16384	13826	0	656
2.272	-28.201	16384	14059	0	656
3.967	-27.119	16384	14175	0	656
4.255	-25.568	16384	14408	0	656
3.210	-23.152	16384	14524	0	656
2.019	-21.241	16384	14640	0	656
3.570	-21.168	16362	14757	0	656
5.229	-18.608	16362	14873	0	656
6.239	-15.615	16362	14757	0	656
7.285	-17.310	16328	14524	0	656
6.527	-16.444	16362	14059	0	656
5.626	-17.274	16305	13594	0	656
4.219	-18.933	16305	13245	0	656
6.924	-16.336	16271	13129	0	656
7.789	-14.281	16271	13129	0	656
10.638	-10.350	16271	13361	0	656
12.153	-8.727	16249	13710	0	656
12.297	-8.330	16249	14291	0	656
15.110	-6.527	16249	14873	0	656
16.661	-5.121	16249	15454	0	656
21.529	-3.498	16249	15919	0	656
21.709	-3.173	16249	16384	0	656
20.519	-8.979	16249	16965	0	656
14.425	-14.172	16271	17895	0	656
14.064	-14.389	16305	18825	0	656
16.192	-9.124	16305	19407	0	656
26.109	1.767	16305	19523	0	656
34.439	12.982	16305	19639	0	656
36.603	17.346	16305	19639	0	656
32.239	13.704	16305	19639	0	656
21.060	4.039	16305	19639	0	656
12.982	-6.239	16328	19523	0	656
9.592	-10.638	16328	19523	0	656
16.048	-6.816	16328	19523	0	656
23.404	2.056	16328	19290	0	656
28.850	5.626	16328	18942	0	656
27.912	3.823	16328	18593	0	656
22.322	-2.488	16328	18477	0	656
19.942	-6.563	16328	18593	0	656
19.473	-3.534	16328	18825	0	656
22.972	0.325	16328	19058	0	656
27.479	1.587	16362	19058	0	656
24.378	-1.803	16362	19058	0	656
20.267	-8.727	16362	18942	0	656
16.372	-12.477	16362	18825	0	656
12.189	-14.569	16384	18825	0	656
9.160	-11.900	16384	18825	0	656
10.242	-10.458	16384	18593	0	656
10.169	-7.501	16384	18244	0	656
12.189	-5.481	16384	17663	0	656
14.425	-5.481	16384	17081	0	656
14.172	-4.940	16362	16384	0	656
13.559	-5.986	16362	15687	0	656
16.444	-3.498	16362	15222	0	656
18.680	-0.829	16362	14873	0	656
21.781	3.282	16362	14524	0	656
20.447	4.472	16362	14175	0	656
14.461	0.793	16362	13943	0	656
8.439	-3.750	16362	13710	0	656
7.537	-10.169	16362	13594	0	656
10.494	-12.153	16362	13594	1	316
15.975	-9.737	16328	13594	0	316
23.909	-5.409	16362	13594	0	316
27.047	-0.180	16328	13826	0	316
25.460	2.741	16328	14291	0	316
21.529	0.180	16328	14873	0	316
12.910	-7.465	16328	15105	0	316
7.717	-13.451	16328	15105	0	316
7.537	-14.425	16328	14989	0	316
9.953	-12.622	16305	14873	0	316
14.172	-9.737	16305	14757	0	316
14.785	-7.537	16305	15105	0	316
10.891	-11.540	16305	15687	0	316
8.402	-15.362	16328	16152	0	316
7.970	-14.605	16328	16500	0	316
10.602	-12.874	16328	16849	0	316
15.831	-8.511	16328	17081	0	316
19.942	-5.842	16328	17197	0	316
16.444	-4.904	16328	17314	0	316
12.874	-8.439	16328	17430	0	316
5.481	-12.946	16328	17314	0	316
0.829	-16.552	16328	17081	0	316
-0.072	-18.536	16328	17081	0	316
1.298	-16.012	16328	17314	0	316
2.993	-15.471	16328	17430	0	316
1.082	-13.307	16362	17430	0	316
2.885	-12.766	16362	17430	0	316
3.101	-14.281	16362	17314	0	316
3.750	-14.497	16362	17430	0	316
1.803	-20.267	16362	17546	0	316
-4.255	-25.929	16362	17546	0	316
-27.227	-29.282	16328	15803	0	316
-28.417	-27.119	16328	15803	0	316
-30.076	-26.722	16328	15919	0	316
-31.158	-29.968	16328	16152	0	316
-32.780	-33.898	16328	16268	0	316
-34.006	-37.685	16328	16268	0	316
-34.043	-37.324	16328	16268	0	316
-34.223	-32.816	16362	16152	0	316
-36.891	-30.833	16328	16036	0	316
-43.383	-33.646	16328	15919	0	316
-55.175	-44.681	16328	15919	0	316
-63.505	-54.526	16328	16152	0	316
-59.611	-56.004	16328	16384	0	316
-43.635	-42.914	16328	16384	0	316
-24.991	-23.621	16328	16384	0	316
-12.838	-9.737	16328	16268	0	316
-17.093	-7.501	16328	16036	0	316
-22.611	-13.018	16328	15803	0	316
-26.470	-21.132	16328	15687	0	316
-18.392	-17.887	16305	15454	0	316
-9.412	-11.143	16305	15338	0	316
-7.393	-7.104	16305	15222	0	316
-17.274	-9.520	16305	15222	0	316
-31.626	-19.185	16305	15222	0	316
-39.740	-26.433	16305	15454	0	316
-40.822	-31.662	16305	15571	0	316
-41.111	-32.636	16271	15687	0	316
-43.924	-35.737	16271	15454	0	316
-54.021	-42.553	16271	15222	0	316
-62.928	-47.169	16249	14989	0	316
-68.193	-52.614	16305	14989	1	316
-67.256	-50.667	16271	15454	0	316
-64.226	-45.763	16305	16384	0	316
-64.479	-44.969	16305	17314	0	316
-67.616	-44.320	16328	18244	0	316
-70.646	-44.969	16328	18942	0	316
-71.475	-46.556	16328	19290	0	316
-72.160	-49.874	16362	19756	0	316
-74.432	-52.506	16362	20104	0	316
-77.858	-58.060	16384	20453	0	316
-83.123	-61.305	16384	20802	0	316
-84.674	-62.387	16406	21151	0	316
-86.044	-60.188	16406	21500	0	316
-82.185	-56.509	16440	21732	0	316
-80.166	-54.129	16440	21732	0	316
-82.654	-55.536	16463	21500	0	316
-83.844	-55.103	16463	21035	0	316
-88.208	-57.194	16463	20453	0	316
-87.595	-55.752	16463	19872	0	316
-87.486	-54.237	16440	19174	0	316
-85.792	-52.182	16497	18825	0	316
-85.792	-52.218	16497	18477	0	316
-90.948	-56.581	16463	18128	0	316
-93.761	-59.394	16463	17663	0	316
-95.132	-61.305	16463	17197	0	316
-96.358	-59.611	16463	16732	0	316
-93.473	-55.463	16463	16268	0	316
-90.480	-53.516	16463	15687	0	316
-89.542	-48.359	16463	15222	0	316
-85.792	-46.953	16463	14640	0	316
-86.513	-47.746	16463	13943	0	316
-87.955	-47.458	16440	13245	0	316
-94.086	-50.631	16440	12664	0	316
-96.141	-49.153	16440	12315	0	316
-94.230	-46.340	16406	11966	0	316
-88.172	-36.603	16406	11501	0	316
-78.471	-28.525	16406	11268	0	316
-72.665	-23.476	16384	11268	0	316
-73.458	-22.178	16384	11501	0	316
-79.336	-25.604	16384	12082	0	316
-85.575	-29.354	16384	12547	0	316
-85.647	-30.040	16384	12780	0	316
-82.726	-24.883	16384	13012	0	316
-77.750	-19.618	16362	13012	0	316
-73.422	-11.143	16362	13129	0	316
-75.730	-7.753	16362	13245	0	316
-77.028	-5.950	16362	13478	0	316
-75.694	-2.560	16362	13826	0	316
-71.908	0.108	16362	14175	0	316
-65.813	6.599	16362	14640	0	316
-60.584	12.477	16362	15222	0	316
-58.997	16.733	16362	15803	0	316
-61.486	18.752	16362	16268	0	316
-63.361	19.870	16362	16500	0	316
-63.830	19.257	16362	16732	0	316
-60.945	22.214	16362	16616	0	316
-58.601	22.683	16328	16500	0	316
-57.230	22.827	16328	16616	0	316
-57.735	21.601	16328	16732	0	316
-60.981	17.382	16328	16849	0	316
-62.712	14.317	16328	16965	0	316
-65.092	9.592	16328	17197	0	316
-70.537	5.878	16328	17314	0	316
-77.786	4.111	16328	17430	0	316
-78.110	10.350	16328	17663	0	316
-67.580	25.027	16362	18011	0	316
-49.153	44.032	16362	18477	0	316
-30.941	57.519	16362	18942	0	316
-25.424	62.532	16384	19407	0	316
-30.508	57.411	16384	19639	0	316
-40.426	51.713	16384	19756	0	316
-43.599	52.723	16384	19756	0	316
-41.003	51.677	16406	19872	0	316
-40.209	49.621	16406	20337	0	316
-48.107	41.039	16440	20802	0	316
-60.404	30.400	16440	21035	0	316
-71.186	24.089	16463	21035	0	316
-74.757	19.726	16463	21035	0	316
-71.980	17.670	16497	20918	0	316
-68.338	12.982	16497	20337	1	316
-70.249	7.321	16497	19639	0	316
-74.612	3.606	16497	19058	0	316
-77.101	5.662	16497	18593	0	316
-78.255	8.114	16497	18360	0	316
-76.776	8.619	16519	18244	0	316
-75.802	7.176	16519	18128	0	316
-77.425	1.226	16519	18128	0	316
-82.979	-4.796	16553	17895	0	316
-88.929	-8.763	16519	17663	0	316
-90.083	-13.415	16519	17197	0	316
-91.814	-14.281	16519	16732	0	316
-87.090	-15.975	16519	16152	0	316
-85.972	-18.572	16519	15454	0	316
-85.251	-20.267	16519	14757	0	316
-90.624	-24.991	16519	14175	0	316
-95.889	-29.643	16497	13710	0	316
-102.200	-35.413	16497	13245	0	316
-110.458	-42.048	16463	12896	0	316
-114.605	-48.503	16497	12664	0	316
-117.634	-50.703	16497	12664	0	316
-117.093	-51.569	16463	12896	0	316
-111.323	-46.376	16463	13245	0	316
-103.714	-40.606	16463	13594	0	316
-99.603	-40.930	16463	13710	0	316
-100.865	-42.914	16463	13594	0	316
-104.688	-47.782	16463	13826	0	316
-109.737	-49.441	16463	14175	0	316
-111.071	-49.946	16463	14640	0	316
-108.763	-47.818	16463	14873	0	316
-107.862	-48.467	16463	14873	0	316
-112.045	-55.644	16463	15105	0	316
-119.149	-63.686	16463	15222	0	316
-126.253	-72.521	16463	15222	0	316
-126.758	-76.199	16463	15105	0	316
-123.945	-77.065	16440	14989	0	316
-120.267	-77.101	16440	14640	0	316
-122.827	-81.103	16440	14408	0	316
-128.345	-86.982	16440	14175	0	316
-136.567	-96.141	16406	13943	0	316
-140.606	-100.829	16406	13826	0	316
-137.901	-98.449	16406	13594	0	316
-133.393	-91.670	16384	13361	0	316
-130.328	-87.523	16384	13361	0	316
-128.164	-82.871	16384	13594	0	316
-132.095	-85.431	16362	13943	0	316
-136.747	-91.886	16362	14291	0	316
-142.950	-97.187	16362	14873	0	316
-145.474	-99.423	16384	15571	0	316
-144.104	-95.781	16384	16384	0	316
-133.970	-83.844	16384	17081	0	316
-121.529	-68.157	16384	17663	0	316
-111.576	-59.430	16406	18244	0	316
-113.631	-61.594	16406	18709	0	316
-125.135	-78.074	16406	19058	0	316
-142.589	-94.591	16406	19407	0	316
-154.562	-107.248	16440	19756	0	316
-164.046	-113.487	16406	19988	0	316
-167.364	-119.942	16406	19872	0	316
-178.219	-130.941	16406	19639	0	316
-189.434	-146.051	16406	19639	0	316
-199.459	-156.221	16440	19639	0	316
-198.053	-156.870	16440	19523	0	316
-190.696	-150.090	16440	19290	0	316
-179.733	-142.661	16440	19174	0	316
-168.554	-136.170	16440	19058	0	316
-165.308	-131.446	16463	19058	0	316
-160.728	-128.489	16463	18825	0	316
-155.355	-123.116	16463	18477	0	316
-147.602	-119.041	16463	18128	0	316
-139.488	-112.838	16463	17663	0	316
-129.391	-108.114	16463	17197	0	316
-120.519	-98.954	16463	16616	0	316
-108.799	-83.628	16463	16268	0	316
-94.338	-66.534	16463	16036	0	316
-76.415	-43.130	16463	16152	0	316
-50.595	-17.959	16463	16152	0	316
-19.041	7.898	16440	16036	0	316
12.982	40.389	16463	15803	0	316
47.890	72.990	16463	15687	0	316
76.451	104.075	16463	15338	0	316
100.325	127.876	16440	14989	0	316
118.933	144.032	16406	14291	0	316
132.672	151.857	16406	13710	0	316
143.058	156.870	16406	13245	0	316
153.083	165.128	16384	12896	0	316
161.630	174.504	16384	12664	0	316
170.285	183.375	16362	12547	0	316
177.930	189.506	16362	12431	0	316
175.947	186.585	16362	12315	0	316
169.203	178.904	16328	11966	0	316
159.971	167.184	16305	11501	0	316
149.477	156.365	16328	11036	0	316
142.842	153.552	16305	11036	0	316
140.642	152.398	16328	11268	0	316
140.498	150.595	16305	11617	0	316
138.839	148.467	16271	12315	0	316
134.006	140.930	16271	13245	0	316
125.820	131.771	16271	14059	0	316
114.785	122.431	16271	14873	0	316
106.383	117.779	16271	15454	0	316
101.803	114.172	16271	16036	0	316
100.902	110.746	16271	16384	0	316
100.613	106.780	16271	16732	0	316
98.305	100.325	16271	17081	0	316
93.365	93.978	16271	17314	0	316
89.145	89.614	16271	17546	0	316
83.988	83.484	16271	17895	0	316
79.084	79.769	16305	18244	0	316
77.497	75.009	16305	18825	0	316
76.848	71.583	16328	19174	0	316
79.120	73.026	16328	19523	0	316
79.661	75.406	16328	19872	0	316
79.986	77.209	16328	19988	0	316
76.632	73.783	16328	19988	0	316
71.727	72.845	16328	19756	0	316
67.292	66.282	16328	19290	0	316
63.613	62.712	16328	18825	0	316
58.709	55.644	16328	18477	0	316
51.785	50.631	16328	18360	0	316
44.717	40.858	16328	18360	0	316
33.682	32.348	16328	18477	0	316
24.666	23.512	16362	18709	0	316
16.769	16.877	16362	19174	0	316
17.238	13.163	16362	19639	0	316
14.569	12.514	16384	19988	0	316
14.208	12.153	16384	20104	0	316
10.638	7.140	16406	20337	0	316
3.282	-0.072	16406	20686	0	316
-1.406	-5.734	16440	20802	0	316
-4.472	-8.078	16440	20570	0	316
-6.996	-7.032	16440	20221	0	316
-10.278	-6.924	16463	19756	0	316
-15.362	-11.396	16463	19290	0	316
-23.188	-20.447	16463	18477	1	536
-26.542	-27.191	16440	17546	0	536
-28.741	-31.662	16440	16849	0	536
-33.321	-33.970	16440	16384	0	536
-37.649	-35.774	16440	16036	0	536
-45.114	-41.796	16440	15803	0	536
-51.821	-49.080	16440	15454	0	536
-56.581	-55.824	16440	15338	0	536
-55.139	-55.103	16440	15105	0	536
-53.841	-54.526	16440	14757	0	536
-50.667	-49.766	16440	14524	0	536
-49.441	-46.989	16406	14175	0	536
-46.051	-44.681	16406	14059	0	536
-43.166	-42.878	16406	13826	0	536
-39.488	-41.363	16406	13594	0	536
-35.413	-39.452	16384	13478	0	536
-33.177	-37.757	16384	13478	0	536
-30.328	-34.475	16384	13594	0	536
-26.902	-30.653	16384	13478	0	536
-21.962	-25.856	16384	13012	0	536
-18.572	-24.630	16362	12547	0	536
-15.218	-26.073	16362	12198	0	536
-16.372	-28.741	16328	12082	0	536
-15.615	-29.607	16328	12198	0	536
-15.975	-28.994	16362	12780	0	536
-13.848	-25.676	16362	13245	0	536
-15.362	-22.972	16328	13245	0	536
-14.533	-23.008	16328	13012	0	536
-17.490	-21.998	16328	12780	0	536
-19.401	-23.260	16305	12896	0	536
-21.168	-25.929	16305	13245	0	536
-21.565	-30.472	16305	13826	0	536
-24.270	-31.554	16305	14757	0	536
-22.322	-32.853	16305	15571	0	536
-21.493	-30.328	16305	16268	0	536
-21.637	-27.984	16328	16965	0	536
-22.935	-30.364	16328	17663	0	536
-26.902	-36.098	16328	18244	0	536
-32.023	-42.481	16328	18593	0	536
-35.016	-45.294	16328	18942	0	536
-34.403	-43.815	16328	19058	0	536
-32.564	-43.022	16328	19058	0	536
-33.033	-43.996	16362	19058	0	536
-35.846	-49.008	16362	18942	0	536
-45.979	-59.863	16362	18825	0	536
-55.932	-68.410	16328	18477	0	536
-60.079	-72.016	16328	18244	0	536
-54.454	-67.220	16328	17895	0	536
-41.868	-55.896	16328	17663	0	536
-29.030	-48.431	16328	17430	0	536
-27.587	-47.205	16328	17430	0	536
-37.901	-54.850	16328	17430	0	536
-57.230	-69.275	16362	17197	0	536
-71.078	-81.933	16362	17081	0	536
-78.904	-88.893	16362	17081	0	536
-83.988	-97.656	16362	17081	0	536
-90.516	-108.979	16362	17081	0	536
-107.140	-126.073	16362	17197	0	536
-130.148	-148.720	16362	17081	0	536
-155.031	-173.170	16384	16965	0	536
-176.127	-194.483	16362	16849	0	536
-195.060	-212.766	16362	16849	0	536
-212.838	-230.508	16362	16732	0	536
-226.145	-244.176	16362	16384	0	536
-231.410	-252.254	16362	15803	0	536
-223.585	-249.946	16328	15338	0	536
-201.947	-230.364	16328	14989	0	536
-171.331	-196.250	16328	14873	0	536
-135.124	-156.870	16328	14873	0	536
-100.433	-118.428	16328	15222	0	536
-69.996	-89.758	16328	15803	0	536
-44.176	-68.554	16328	16384	0	536
-21.926	-50.307	16362	17081	0	536
-0.685	-27.984	16362	17430	0	536
23.512	-1.875	16362	17779	0	536
49.513	26.470	16384	18360	0	536
76.055	50.739	16384	19058	0	536
98.485	73.494	16406	19407	0	536
117.166	90.732	16406	19523	0	536
133.574	104.940	16406	19639	0	536
146.123	118.608	16440	19523	0	536
158.529	129.571	16440	19290	0	536
169.311	141.435	16440	19174	0	536
178.940	150.162	16440	19058	0	536
184.241	152.867	16463	19174	0	536
183.988	150.415	16463	19174	0	536
179.553	145.618	16463	19058	0	536
177.317	145.655	16440	18709	0	536
184.746	156.293	16497	18244	0	536
205.626	177.858	16497	17779	0	536
238.550	210.638	16463	17430	0	536
282.474	249.044	16463	16965	0	536
334.656	298.305	16463	16500	0	536
396.971	362.532	16440	15919	0	536
473.026	437.541	16440	15105	0	536
552.578	519.690	16440	14524	0	536
590.804	590.804	16440	13943	0	536
590.804	590.804	16406	13361	0	536
590.804	590.804	16406	12780	0	536
590.804	590.804	16406	12315	0	536
590.804	590.804	16384	11733	0	536
590.804	590.804	16384	11268	0	536
590.804	589.290	16362	11152	0	536
573.386	546.628	16362	11268	0	536
528.056	499.712	16362	11617	0	536
477.642	448.359	16328	11966	0	536
423.549	393.401	16328	12431	0	536
368.662	337.144	16328	13012	0	536
313.812	282.907	16328	13478	0	536
267.544	234.728	16328	13710	0	536
229.463	196.213	16328	13826	0	536
197.007	164.046	16328	14175	0	536
166.534	134.764	16328	14640	0	536
141.219	108.294	16305	14989	0	536
116.552	84.962	16328	15105	0	536
96.863	63.072	16328	15222	0	536
77.569	45.655	16328	15687	0	536
60.981	32.456	16362	16152	0	536
44.320	19.401	16328	16384	0	536
32.276	7.176	16328	16616	0	536
23.873	-0.685	16328	16732	0	536
20.339	-7.104	16328	16732	0	536
12.838	-15.146	16328	17081	0	536
4.940	-21.024	16328	17546	0	536
-4.688	-29.282	16328	18011	0	536
-15.254	-37.324	16328	18360	0	536
-19.257	-43.238	16362	18477	0	536
-21.529	-47.169	16362	18477	0	536
-20.880	-48.107	16362	18477	0	536
-21.457	-48.648	16362	18360	0	536
-20.700	-47.890	16328	18011	0	536
-23.008	-47.133	16328	17895	0	536
-23.657	-49.657	16328	17895	0	536
-22.358	-49.477	16328	17895	0	536
-17.093	-44.969	16362	17779	0	536
-6.131	-33.393	16362	17779	0	536
5.734	-18.067	16362	17663	0	536
20.483	-1.731	16362	17546	0	536
32.889	11.360	16362	17546	0	536
43.455	21.818	16362	17546	0	536
58.240	35.052	16362	17663	0	536
73.927	53.696	16362	17430	0	536
93.833	76.560	16328	16849	0	536
110.710	94.338	16328	16384	0	536
128.453	110.278	16328	16036	0	536
141.904	120.303	16328	15803	0	536
153.805	135.124	16328	15454	0	536
166.246	149.549	16305	14989	0	536
172.917	163.109	16328	14757	0	536
174.973	164.299	16328	14640	0	536
172.304	154.165	16305	14524	0	536
169.059	140.642	16305	14175	0	536
167.905	133.574	16305	13826	0	536
170.790	136.495	16305	13943	0	536
169.564	140.353	16305	14524	0	536
163.253	139.019	16305	15571	0	536
150.920	129.174	16305	16384	0	536
138.298	113.235	16305	16732	0	536
130.545	100.902	16305	17081	0	536
126.578	94.230	16328	17663	0	536
118.824	91.309	16328	18244	0	536
109.232	84.349	16328	18709	0	536
97.620	74.684	16362	18709	0	536
87.270	60.043	16362	18825	0	536
84.710	49.189	16362	18942	0	536
80.310	44.356	16362	19058	0	536
75.225	40.750	16362	19058	0	536
64.659	36.603	16384	19058	0	536
51.785	27.010	16362	18709	0	536
42.481	17.202	16362	17895	0	536
35.341	8.511	16362	17081	0	536
27.948	3.354	16362	16500	0	536
22.611	-0.865	16362	16384	1	688
15.254	-6.744	16362	16036	0	688
12.658	-13.920	16328	15687	0	688
11.468	-17.057	16328	15222	0	688
10.638	-15.903	16328	14757	0	688
5.229	-17.418	16305	14524	0	688
-7.825	-22.935	16328	14291	0	688
-25.820	-34.511	16328	14175	0	688
-39.308	-49.153	16328	14291	0	688
-47.422	-60.765	16362	14408	0	688
-50.126	-64.695	16328	14873	0	688
-48.539	-64.767	16328	15454	0	688
-52.182	-65.669	16328	16268	0	688
-58.709	-71.908	16362	16849	0	688
-68.915	-78.074	16362	17546	0	688
-76.596	-86.008	16362	18128	0	688
-81.392	-93.617	16384	18360	0	688
-87.523	-97.440	16384	18360	0	688
-90.768	-100.865	16384	18128	0	688
-96.538	-103.570	16384	17779	0	688
-99.423	-104.255	16384	17430	0	688
-98.233	-103.029	16384	17081	0	688
-94.230	-100.433	16362	16849	0	688
-90.335	-99.712	16362	16500	0	688
-86.260	-101.551	16362	16384	0	688
-86.765	-102.596	16362	16152	0	688
-86.477	-104.147	16362	15919	0	688
-88.316	-105.878	16362	15687	0	688
-92.607	-106.888	16362	15338	0	688
-94.951	-108.186	16328	14873	0	688
-96.754	-113.054	16328	14408	0	688
-95.492	-116.408	16305	13826	0	688
-95.456	-117.310	16305	13245	0	688
-95.925	-116.805	16271	12780	0	688
-99.459	-119.690	16271	12664	0	688
-105.265	-122.899	16271	12896	0	688
-109.052	-128.994	16249	13129	0	688
-109.845	-131.807	16249	13361	0	688
-111.828	-132.312	16249	13943	0	688
-115.146	-135.233	16271	14640	0	688
-123.657	-142.625	16271	15222	0	688
-131.013	-154.995	16271	15803	0	688
-137.757	-164.479	16271	16384	0	688
-143.635	-168.121	16305	16965	0	688
-146.917	-164.984	16305	17430	0	688
-152.398	-163.145	16305	17663	0	688
-161.594	-171.367	16305	17779	0	688
-165.669	-184.061	16305	17895	0	688
-167.652	-192.679	16305	18011	0	688
-165.957	-193.473	16305	17895	0	688
-166.066	-186.477	16305	17546	0	688
-170.754	-181.320	16271	17314	0	688
-182.510	-189.722	16271	17197	0	688
-194.122	-211.720	16271	16965	0	688
-208.402	-235.088	16271	16616	0	688
-216.877	-248.612	16305	16384	0	688
-220.916	-246.953	16328	16268	0	688
-220.267	-236.964	16305	16384	0	688
-215.435	-224.702	16305	16732	0	688
-207.825	-219.185	16305	16965	0	688
-189.867	-212.333	16305	17081	0	688
-168.374	-197.476	16305	16965	0	688
-140.858	-170.357	16271	16732	0	688
-113.199	-140.245	16271	16616	0	688
-87.090	-113.631	16271	16616	0	688
-66.498	-94.302	16271	16500	0	688
-46.628	-73.891	16271	16268	0	688
-24.450	-51.388	16271	15919	0	688
-3.065	-25.640	16249	15571	0	688
17.454	-0.938	16249	15803	0	688
39.776	14.749	16305	16384	0	688
58.024	22.358	16305	17081	0	688
72.990	31.879	16305	18011	0	688
83.736	42.734	16328	19058	0	688
88.063	53.552	16362	19872	0	688
93.473	65.092	16362	20221	0	688
98.233	68.662	16362	20337	0	688
106.852	70.285	16362	20104	0	688
117.129	72.413	16384	19756	0	688
128.020	78.074	16384	19290	0	688
134.764	89.326	16384	18709	0	688
138.875	99.964	16384	18360	1	324
143.887	109.773	16384	18128	0	324
150.739	111.540	16384	17779	0	324
157.014	110.855	16384	17430	0	324
164.046	110.422	16384	17081	0	324
167.652	113.343	16384	16849	0	324
166.787	119.437	16384	16384	0	324
170.105	128.489	16384	16152	0	324
177.245	134.151	16384	16036	0	324
187.342	135.557	16384	16036	0	324
191.561	137.577	16384	16268	0	324
195.853	140.534	16384	16732	0	324
191.886	146.736	16406	17197	0	324
193.292	152.362	16406	17546	0	324
192.968	153.228	16406	17779	0	324
195.312	145.943	16440	18128	0	324
189.939	133.718	16440	18360	0	324
182.366	121.745	16440	17895	0	324
171.331	119.077	16440	17197	0	324
164.840	118.536	16440	16616	0	324
157.771	118.680	16440	16268	0	324
153.408	111.612	16440	16036	0	324
144.753	95.997	16406	15919	0	324
134.331	85.215	16406	15919	0	324
129.535	80.851	16406	15687	0	324
125.496	81.067	16406	15454	0	324
125.748	82.510	16406	15105	0	324
124.162	77.173	16406	15105	0	324
116.516	67.436	16406	15454	0	324
111.576	63.722	16406	15803	0	324
110.458	65.092	16406	16036	0	324
114.677	68.842	16440	16152	0	324
119.726	71.403	16440	16152	0	324
117.129	68.842	16440	16036	0	324
111.792	65.741	16440	16152	0	324
104.580	61.594	16440	16268	0	324
103.137	59.070	16440	16268	0	324
103.137	59.106	16440	16152	0	324
104.327	55.644	16440	16036	0	324
98.702	53.696	16440	16036	0	324
92.175	51.497	16440	16036	0	324
90.876	52.795	16440	16036	0	324
93.004	52.939	16440	15803	0	324
97.836	54.959	16440	15454	0	324
102.705	56.293	16440	15105	0	324
102.452	54.959	16440	14989	0	324
99.820	55.680	16440	14873	0	324
95.997	55.427	16440	14757	0	324
94.050	59.070	16440	14873	0	324
94.735	59.430	16440	15105	0	324
90.984	57.771	16406	15338	0	324
86.765	54.562	16440	15571	0	324
80.923	48.071	16440	15687	0	324
79.769	43.527	16440	15687	0	324
84.133	42.878	16440	15687	0	324
91.634	42.770	16406	15571	0	324
96.069	45.366	16384	15338	0	324
100.108	49.657	16384	15222	0	324
100.505	52.542	16384	15222	0	324
106.924	60.007	16384	15338	0	324
114.641	66.859	16384	15338	0	324
120.447	71.763	16384	15222	0	324
120.087	74.973	16384	15222	0	324
120.700	73.350	16384	15338	0	324
119.798	72.052	16384	15687	0	324
120.483	69.419	16384	16036	0	324
126.073	72.232	16384	16268	0	324
130.256	72.809	16384	16384	0	324
135.052	76.704	16384	16384	0	324
135.449	78.579	16384	16384	0	324
131.446	76.956	16384	16500	0	324
121.349	71.655	16384	16732	0	324
108.366	63.036	16384	16849	0	324
98.774	56.113	16384	16732	0	324
98.810	49.225	16384	16732	0	324
102.056	49.838	16384	16732	0	324
106.924	48.648	16384	16732	0	324
106.311	48.576	16384	16616	0	324
105.193	47.674	16384	16384	0	324
106.022	49.333	16384	16268	0	324
112.009	56.401	16362	15919	0	324
119.546	62.171	16362	15454	0	324
118.139	64.659	16362	15105	0	324
110.242	61.882	16362	14757	0	324
101.010	57.916	16362	14524	0	324
100.072	54.598	16362	14408	0	324
109.268	59.358	16362	14524	0	324
119.834	64.623	16362	14757	0	324
124.522	69.095	16362	15105	0	324
117.634	67.580	16362	15687	0	324
104.832	64.767	16384	16384	0	324
95.600	57.952	16362	16965	0	324
93.076	54.742	16362	17546	0	324
98.341	52.470	16362	17779	0	324
104.400	56.762	16362	17663	0	324
105.986	61.269	16362	17430	0	324
104.652	63.072	16362	17314	0	324
97.512	61.161	16362	17197	0	324
89.794	56.329	16362	16849	0	324
81.248	48.720	16362	16616	0	324
73.711	45.835	16362	16616	0	324
69.564	47.061	16362	16732	0	324
72.809	49.189	16362	16965	0	324
79.553	54.382	16362	17314	0	324
84.169	56.690	16384	17895	0	324
83.664	59.827	16384	18477	0	324
78.832	59.394	16384	18709	0	324
74.180	56.473	16384	18709	0	324
73.134	53.768	16384	18593	0	324
75.189	50.667	16406	18360	0	324
75.370	50.523	16406	18244	0	324
70.429	51.857	16406	18011	0	324
64.335	55.824	16406	17663	0	324
65.272	54.778	16406	17314	0	324
72.124	54.165	16406	16965	0	324
83.339	53.119	16384	16732	0	324
93.581	55.247	16384	16500	0	324
94.735	56.617	16406	16500	0	324
85.864	56.365	16406	16500	0	324
75.514	51.100	16406	16616	0	324
66.751	42.481	16406	16616	0	324
62.640	34.908	16406	16500	0	324
60.873	33.754	16406	16384	0	324
57.411	36.242	16406	16384	0	324
54.959	38.190	16384	16500	0	324
51.028	36.495	16406	16500	0	324
51.424	30.364	16406	16732	0	324
47.638	20.916	16440	16965	0	324
39.127	14.389	16440	17314	0	324
26.145	9.845	16440	17430	0	324
16.913	7.357	16406	17430	0	324
19.582	6.924	16406	17197	0	324
25.893	7.789	16406	16965	0	324
32.203	8.763	16406	16849	0	324
29.282	10.927	16406	16616	0	324
21.168	10.566	16440	16616	0	324
15.038	7.429	16440	16616	0	324
19.149	3.642	16440	16732	0	324
25.135	2.488	16440	16732	0	324
33.502	5.013	16440	16849	0	324
37.577	9.953	16440	16732	0	324
39.380	15.074	16440	16384	0	324
39.163	16.480	16440	15803	0	324
40.065	13.054	16440	15105	0	324
37.613	6.527	16406	14640	0	324
35.918	0.072	16406	14291	0	324
34.367	-4.616	16406	14059	0	324
32.564	-6.167	16406	13943	0	324
26.253	-6.527	16406	13826	0	324
16.048	-8.222	16406	14059	0	324
3.606	-12.946	16406	14408	0	324
-8.186	-20.627	16406	14640	0	324
-15.182	-30.797	16406	14989	0	324
-13.848	-39.091	16406	15222	0	324
-11.215	-43.130	16384	15222	0	324
-6.383	-40.714	16384	14989	0	324
-3.895	-37.793	16384	14873	0	324
-6.960	-36.098	16384	14757	0	324
-11.720	-37.937	16384	15105	0	324
-17.670	-41.363	16384	15454	0	324
-17.346	-42.229	16384	15803	0	324
-16.156	-38.839	16384	16036	0	324
-11.576	-37.180	16384	16152	0	324
-13.271	-42.337	16384	16384	0	324
-17.129	-50.992	16384	16500	0	324
-24.594	-60.115	16384	16732	0	324
-27.155	-64.371	16384	16732	0	324
-27.299	-60.404	16384	16732	0	324
-25.388	-56.329	16384	16732	0	324
-22.899	-54.670	16384	16732	0	324
-21.313	-52.434	16384	16616	0	324
-19.546	-51.172	16384	16500	0	324
-11.900	-44.212	16384	16384	0	324
-6.094	-33.141	16384	16384	0	324
1.442	-27.948	16384	16384	0	324
7.068	-26.686	16384	16732	0	324
15.362	-27.371	16384	16849	0	324
24.198	-22.575	16384	16849	0	324
36.062	-12.730	16384	16732	0	324
45.546	-0.505	16384	16616	0	324
51.100	8.727	16384	16732	0	324
55.499	9.484	16384	16849	0	324
57.483	10.855	16384	16965	0	324
64.876	17.526	16384	16965	0	324
75.983	27.948	16384	16965	0	324
85.647	39.344	16384	17197	0	324
91.057	46.340	16384	17430	0	324
86.585	44.320	16406	17546	0	324
76.956	40.209	16406	17895	0	324
69.167	35.774	16406	18244	0	324
67.652	32.816	16406	18477	0	324
67.977	31.879	16440	18593	0	324
71.223	29.895	16440	18593	0	324
63.577	22.935	16440	18477	0	324
54.670	16.841	16440	18128	0	324
44.104	6.852	16440	17779	0	324
33.321	-2.921	16440	17430	0	324
21.313	-13.451	16440	17081	1	788
7.717	-26.830	16440	17081	0	788
-6.527	-42.950	16463	17314	0	788
-21.926	-58.384	16463	17546	0	788
-34.547	-73.711	16440	17546	0	788
-49.874	-84.385	16440	17314	0	788
-61.594	-92.319	16440	17081	0	788
-76.704	-104.688	16440	16965	0	788
-91.165	-123.296	16463	17081	0	788
-114.353	-150.270	16463	17430	0	788
-137.144	-172.593	16463	17546	0	788
-152.867	-181.320	16463	17314	0	788
-151.785	-168.734	16463	17081	0	788
-128.705	-142.084	16497	16732	0	788
-97.908	-114.930	16497	16732	0	788
-77.137	-98.738	16497	16732	0	788
-71.403	-96.935	16497	16616	0	788
-74.829	-100.216	16497	16500	0	788
-72.557	-99.675	16497	16268	0	788
-61.269	-89.254	16463	15803	0	788
-48.215	-75.334	16497	15338	0	788
-43.310	-59.611	16463	14757	0	788
-47.710	-56.798	16440	14059	0	788
-59.430	-64.587	16406	13129	0	788
-64.984	-75.586	16406	12082	0	788
-64.659	-83.231	16384	11036	0	788
-64.263	-84.529	16362	10222	0	788
-65.272	-81.248	16328	9640	0	788
-62.964	-73.458	16328	9408	0	788
-55.824	-65.994	16305	9640	0	788
-44.681	-57.663	16328	10105	0	788
-31.807	-46.268	16328	10687	0	788
-22.791	-34.547	16328	11384	0	788
-18.067	-25.820	16328	12198	0	788
-10.602	-17.057	16305	12896	0	788
-0.361	-10.386	16305	13478	0	788
14.677	-2.092	16305	14059	0	788
27.191	5.914	16305	14524	0	788
36.747	14.064	16305	14989	0	788
41.039	21.385	16305	15454	0	788
42.950	27.299	16305	15919	0	788
46.556	32.816	16305	16500	0	788
53.083	37.685	16305	17430	0	788
61.450	46.628	16305	18477	0	788
73.386	62.423	16328	19407	0	788
86.946	79.300	16328	20104	0	788
101.190	97.944	16362	20802	0	788
115.471	112.225	16362	21384	0	788
126.145	121.745	16362	21384	0	788
134.764	127.155	16362	21151	0	788
141.075	134.259	16362	20686	0	788
146.917	144.356	16362	20104	0	788
158.060	153.949	16362	19639	0	788
165.453	159.502	16362	19058	0	788
168.734	161.053	16362	18477	0	788
169.996	160.476	16362	17779	0	788
168.626	160.043	16328	17314	0	788
172.953	168.626	16328	16965	0	788
179.553	176.740	16362	16616	0	788
184.854	179.228	16362	16384	0	788
182.762	173.206	16362	16384	0	788
172.232	161.486	16362	16500	0	788
158.781	150.523	16362	16384	0	788
146.520	142.914	16362	16384	0	788
141.147	141.976	16362	15919	0	788
138.622	138.370	16328	15338	0	788
136.387	131.158	16328	14873	0	788
131.699	123.224	16328	14408	0	788
125.748	115.579	16305	13943	0	788
120.844	114.749	16305	13478	0	788
116.697	120.591	16271	13361	0	788
117.346	122.358	16271	13710	0	788
111.828	119.077	16271	14291	0	788
101.767	106.455	16271	14640	0	788
87.883	88.749	16271	14873	0	788
73.278	73.747	16271	14989	0	788
60.440	63.613	16271	15105	0	788
49.982	53.588	16249	15105	0	788
40.209	43.960	16249	15338	0	788
29.931	32.384	16271	15687	1	316
18.320	21.565	16305	16036	0	316
7.862	13.848	16271	16268	0	316
-1.911	8.402	16271	16384	0	316
-9.376	6.852	16271	16500	0	316
-11.323	6.888	16271	16500	0	316
-11.107	6.058	16271	16500	0	316
-6.094	5.013	16249	16384	0	316
-5.193	0.721	16249	16268	0	316
-8.222	-5.193	16249	16152	0	316
-15.435	-10.025	16249	15919	0	316
-21.493	-11.107	16215	15803	0	316
-24.739	-12.838	16215	15687	0	316
-21.493	-14.749	16249	15919	0	316
-17.057	-17.093	16249	16268	0	316
-18.283	-20.916	16249	16500	0	316
-23.188	-23.512	16249	16732	0	316
-34.836	-26.578	16249	16849	0	316
-47.025	-30.292	16249	16849	0	316
-50.992	-35.052	16249	16849	0	316
-50.884	-38.695	16249	16849	0	316
-44.212	-38.442	16249	17081	0	316
-36.062	-34.764	16249	17197	0	316
-32.780	-29.102	16249	17430	0	316
-35.557	-24.955	16271	17546	0	316
-41.580	-21.926	16305	17546	0	316
-44.428	-22.575	16249	17197	0	316
-43.599	-25.604	16249	16849	0	316
-38.118	-28.309	16249	16500	0	316
-32.564	-29.246	16249	16268	0	316
-32.853	-27.371	16215	16036	0	316
-36.567	-23.729	16215	15919	0	316
-39.740	-20.231	16215	15803	0	316
-38.514	-21.673	16215	15687	0	316
-35.160	-24.811	16192	15803	0	316
-31.807	-26.722	16215	15803	0	316
-30.256	-26.938	16215	15687	0	316
-31.771	-26.758	16215	15338	0	316
-32.744	-27.119	16192	15105	0	316
-34.475	-28.922	16192	14873	0	316
-34.908	-30.977	16192	14989	0	316
-32.925	-30.112	16158	15105	0	316
-27.804	-27.551	16158	15222	0	316
-21.277	-23.909	16192	15571	0	316
-20.808	-20.880	16215	16268	0	316
-25.099	-19.798	16192	16732	0	316
-34.944	-18.824	16192	17314	0	316
-42.914	-21.168	16215	17779	0	316
-45.330	-25.784	16215	18244	0	316
-40.065	-28.345	16215	18593	0	316
-33.321	-26.325	16215	18942	0	316
-27.840	-22.539	16215	19058	0	316
-25.640	-17.959	16249	18942	0	316
-22.755	-18.500	16249	18593	0	316
-27.263	-23.512	16249	18360	0	316
-32.816	-28.922	16249	18128	0	316
-41.219	-34.439	16249	17895	0	316
-50.415	-37.721	16249	17779	0	316
-56.545	-42.553	16249	17546	0	316
-61.774	-48.756	16249	17663	0	316
-64.154	-56.185	16249	17779	0	316
-67.508	-61.955	16249	18011	0	316
-70.934	-64.767	16249	18011	0	316
-73.350	-67.436	16271	18011	0	316
-72.809	-66.354	16305	18128	0	316
-70.393	-65.705	16328	18128	0	316
-69.023	-64.623	16305	18011	0	316
-69.419	-66.751	16305	17663	0	316
-72.917	-68.193	16305	17197	0	316
-79.589	-72.809	16305	16849	0	316
-84.349	-74.071	16305	16616	0	316
-80.815	-75.658	16305	16616	0	316
-74.612	-74.540	16305	16732	0	316
-67.292	-69.672	16305	16732	0	316
-62.640	-63.974	16305	16500	0	316
-62.640	-59.466	16271	16152	0	316
-62.892	-57.988	16271	15803	0	316
-61.197	-60.981	16271	15338	0	316
-58.312	-61.414	16271	14989	0	316
-54.418	-57.771	16271	14757	0	316
-56.076	-54.418	16271	14873	0	316
-53.913	-49.657	16271	15222	0	316
-54.093	-50.956	16305	15454	0	316
-50.847	-51.569	16305	15919	0	316
-50.379	-52.723	16305	16384	0	316
-50.415	-49.261	16305	16849	0	316
-53.913	-51.352	16328	17314	0	316
-54.093	-52.723	16328	17663	0	316
-53.588	-53.155	16328	17895	0	316
-47.494	-47.638	16328	18011	0	316
-44.068	-42.697	16328	18011	0	316
-41.471	-38.442	16328	17895	0	316
-39.668	-39.380	16362	17779	0	316
-37.541	-44.284	16362	17779	0	316
-37.108	-45.078	16362	17895	0	316
-36.675	-43.960	16362	18128	0	316
-38.586	-44.032	16384	18477	0	316
-40.714	-46.304	16384	18709	0	316
-41.688	-49.297	16384	18825	0	316
-39.524	-53.119	16406	19058	0	316
-39.596	-52.038	16406	19174	0	316
-45.474	-51.028	16440	19290	0	316
-52.182	-49.766	16440	19174	0	316
-61.233	-53.588	16440	18942	0	316
-62.712	-55.355	16463	18942	0	316
-59.286	-59.358	16463	19058	0	316
-56.257	-62.135	16463	19058	0	316
-58.493	-63.505	16497	19058	0	316
-62.315	-65.489	16497	19058	0	316
-70.501	-67.220	16497	18593	0	316
-72.052	-69.708	16497	17895	0	316
-70.646	-71.655	16497	16965	0	316
-70.429	-72.953	16463	16268	0	316
-72.881	-77.245	16463	15454	0	316
-78.687	-83.916	16463	14757	0	316
-85.251	-91.778	16463	14175	0	316
-92.175	-101.046	16463	13710	0	316
-100.974	-111.179	16440	13594	0	316
-110.458	-117.238	16440	13478	0	316
-123.188	-126.001	16440	13129	0	316
-132.600	-131.771	16440	12664	0	316
-141.255	-139.272	16406	12198	0	316
-148.179	-145.835	16406	11850	0	316
-149.116	-152.398	16406	11617	0	316
-144.825	-155.932	16406	11733	0	316
-135.593	-153.444	16384	12198	0	316
-119.654	-139.380	16406	12780	0	316
-108.330	-119.906	16406	13478	0	316
-99.856	-100.397	16406	14175	0	316
-93.978	-91.814	16406	14757	0	316
-91.886	-94.807	16406	15454	0	316
-95.925	-104.724	16440	16268	0	316
-101.190	-111.179	16440	16732	0	316
-110.097	-115.435	16440	17081	0	316
-116.336	-114.461	16440	17081	0	316
-117.202	-115.975	16440	16849	0	316
-107.285	-114.028	16440	16616	0	316
-91.273	-101.839	16440	16616	0	316
-68.806	-71.331	16406	16616	0	316
-39.776	-35.954	16440	16500	0	316
-16.336	-8.763	16440	16500	0	316
-4.868	-1.046	16440	16616	0	316
-6.671	-9.448	16440	16965	0	316
-15.326	-25.965	16440	17430	0	316
-25.532	-28.886	16440	17663	0	316
-22.178	-19.005	16440	17546	0	316
-9.304	-2.092	16440	17430	0	316
7.248	11.179	16440	17546	0	316
20.014	21.204	16440	17546	0	316
24.306	19.618	16440	17430	0	316
21.565	18.572	16463	17663	0	316
17.670	20.772	16463	17895	0	316
18.247	23.116	16463	17895	0	316
23.404	30.148	16463	17779	0	316
32.853	36.567	16463	17779	0	316
43.347	41.760	16497	17663	0	316
48.612	46.989	16497	17546	0	316
53.877	53.841	16497	17430	0	316
54.165	60.909	16497	17546	0	316
56.545	67.220	16497	17663	0	316
56.365	69.347	16497	17430	0	316
57.411	67.797	16497	17081	0	316
58.529	62.387	16463	16616	0	316
58.925	55.824	16463	16268	0	316
61.125	52.687	16463	15803	0	316
62.604	52.001	16463	15338	0	316
62.964	54.959	16463	15222	0	316
62.243	54.778	16463	15222	0	316
62.099	55.031	16463	15222	0	316
62.279	52.074	16463	15338	0	316
59.322	51.533	16463	15454	0	316
53.768	50.703	16463	15338	0	316
48.323	51.352	16463	14989	0	316
46.772	48.071	16463	14640	0	316
50.884	47.458	16440	14408	0	316
60.909	49.549	16440	14291	0	316
69.347	54.814	16440	14175	0	316
71.331	62.207	16440	14291	0	316
70.177	63.577	16440	14408	0	316
69.708	60.656	16440	14640	0	316
69.564	53.047	16406	14989	0	316
66.030	49.910	16440	15105	0	316
62.315	47.962	16440	15222	0	316
57.014	47.241	16440	15222	0	316
54.562	46.123	16440	15222	0	316
53.119	41.832	16406	15338	0	316
52.939	39.344	16406	15571	0	316
45.438	37.180	16406	16036	0	316
36.098	33.357	16406	16384	0	316
31.230	26.397	16406	16616	0	316
32.203	18.247	16406	16732	0	316
37.396	10.963	16406	16849	0	316
39.308	13.487	16406	16965	0	316
33.249	17.562	16406	17081	0	316
22.972	20.844	16406	17197	0	316
16.012	14.425	16406	17081	0	316
12.153	6.599	16406	16965	0	316
16.156	1.947	16406	17081	0	316
18.860	4.724	16440	17430	0	316
21.926	11.720	16440	17779	0	316
21.132	15.326	16440	18360	0	316
23.044	12.009	16463	18709	0	316
21.493	2.452	16463	19058	0	316
21.060	-1.623	16463	19174	0	316
21.277	1.875	16497	19174	0	316
18.716	9.629	16497	19058	0	316
22.358	16.192	16497	19058	0	316
26.794	17.851	16497	19058	0	316
30.148	14.425	16519	18825	0	316
30.400	13.235	16519	18593	1	836
27.335	14.245	16519	18360	0	836
22.034	20.736	16497	18128	0	836
18.031	21.277	16519	18128	0	836
21.745	18.283	16519	18128	0	836
26.433	11.107	16519	18360	0	836
28.705	7.789	16553	18360	0	836
24.811	9.448	16553	18360	0	836
18.680	12.946	16553	18360	0	836
11.396	15.110	16576	18477	0	836
12.153	12.766	16553	18360	0	836
106.671	108.186	16440	15105	0	316
107.934	110.927	16406	14873	0	316
107.970	109.917	16406	14757	0	316
105.878	106.888	16406	14757	0	316
101.911	100.577	16406	14757	0	316
94.915	93.112	16406	14757	0	316
88.027	85.972	16406	14757	0	316
79.841	78.255	16406	14757	0	316
76.524	72.196	16406	14757	0	316
70.682	65.921	16406	14757	0	316
62.568	58.673	16384	14757	0	316
50.126	50.343	16406	15105	0	316
38.875	39.488	16406	15687	0	316
28.741	31.626	16406	16152	0	316
25.820	26.506	16406	16616	0	316
26.902	26.866	16406	16965	0	316
29.751	28.237	16406	17314	0	316
34.944	29.102	16440	17430	0	316
38.009	29.535	16406	17546	0	316
39.344	30.797	16440	17663	0	316
38.190	29.102	16440	17895	0	316
32.420	26.397	16440	18128	0	316
24.594	19.365	16463	18360	0	316
18.824	9.592	16440	18593	0	316
11.215	0.288	16440	18709	0	316
8.366	-2.056	16440	18825	0	316
5.013	-0.361	16463	18825	0	316
4.075	0.505	16463	18709	0	316
2.344	-1.587	16463	18593	0	316
-0.938	-8.006	16463	18477	0	316
-4.364	-14.317	16463	18011	0	316
-5.986	-18.752	16463	17663	0	316
-5.950	-17.634	16497	17663	0	316
-4.003	-16.589	16497	17663	0	316
-0.757	-17.057	16497	17314	0	316
1.010	-22.286	16497	16732	0	316
0.541	-26.037	16463	16268	0	316
-1.803	-25.820	16463	15803	0	316
-5.121	-24.342	16463	15571	0	316
-8.258	-20.195	16463	15338	0	316
-6.275	-20.988	16463	15338	0	316
0.361	-23.981	16463	15222	0	316
7.862	-19.762	16440	14989	0	316
13.559	-13.054	16440	14524	0	316
12.441	-6.167	16440	14175	0	316
10.242	-6.455	16406	13943	0	316
4.977	-17.598	16406	13594	0	316
2.741	-30.112	16406	13361	0	316
0.613	-33.790	16406	13129	0	316
0.974	-28.705	16384	13012	0	316
-0.613	-20.087	16384	13012	0	316
-3.498	-17.923	16384	13012	0	316
-8.979	-24.522	16384	13245	0	316
-13.018	-33.213	16362	13594	0	316
-19.329	-36.964	16362	13943	0	316
-16.516	-36.855	16362	14291	0	316
-13.992	-36.855	16362	14757	0	316
-13.091	-40.606	16362	15105	0	316
-12.766	-46.520	16362	15222	0	316
-17.093	-47.133	16362	15338	0	316
-18.356	-44.248	16362	15454	0	316
-18.536	-38.947	16362	15571	0	316
-14.930	-39.560	16362	15687	0	316
-14.533	-45.835	16328	15803	0	316
-16.697	-50.379	16328	15571	0	316
-22.827	-50.559	16362	15105	0	316
-23.621	-41.832	16328	14408	0	316
-24.522	-34.583	16305	13943	0	316
-21.854	-32.276	16305	13826	0	316
-19.005	-37.144	16305	13943	0	316
-22.863	-44.861	16271	14175	0	316
-23.873	-49.513	16271	14408	0	316
-21.277	-45.258	16271	14524	0	316
-15.002	-32.492	16271	14640	0	316
-9.016	-21.890	16249	14873	0	316
-7.140	-19.473	16249	15338	0	316
-11.864	-23.188	16249	16152	0	316
-18.175	-32.853	16271	16849	0	316
-19.293	-37.865	16271	17663	0	316
-19.041	-36.351	16271	18244	0	316
-15.038	-32.456	16271	18593	0	316
-15.867	-31.230	16305	18825	0	316
-14.858	-32.059	16328	19174	0	316
-13.631	-33.177	16305	19523	0	316
-6.599	-30.653	16328	19872	0	316
6.311	-24.955	16328	20104	0	316
16.012	-15.110	16328	20104	0	316
23.801	-8.439	16328	19872	0	316
22.358	-8.042	16328	19407	0	316
17.129	-11.215	16328	19058	0	316
8.186	-15.579	16328	19058	0	316
6.563	-18.860	16328	19290	1	708
8.691	-13.018	16362	19639	0	708
16.697	-5.626	16362	19756	0	708
27.047	1.190	16362	19756	0	708
33.213	3.859	16362	19523	0	708
35.052	5.085	16384	19407	0	708
36.819	7.212	16384	19523	0	708
38.262	11.973	16384	19756	0	708
39.632	18.103	16406	19639	0	708
41.760	23.765	16406	19407	0	708
41.183	21.854	16406	19058	0	708
39.632	19.077	16406	18825	0	708
39.704	17.129	16406	18477	0	708
39.704	14.821	16440	18360	0	708
39.019	15.435	16440	18244	0	708
35.341	15.398	16440	18128	0	708
32.672	12.874	16440	17895	0	708
31.013	11.684	16463	17663	0	708
31.915	9.592	16463	17314	0	708
33.285	9.629	16463	16732	0	708
33.646	8.078	16440	16152	0	708
34.475	8.835	16406	15571	0	708
37.144	11.828	16440	15105	0	708
39.524	16.264	16440	14524	0	708
42.661	19.077	16440	13943	0	708
40.065	16.120	16440	13594	0	708
36.062	10.530	16384	13361	0	708
31.085	2.813	16384	13594	0	708
28.705	0.505	16384	13710	0	708
30.004	1.587	16384	13943	0	708
30.725	3.354	16384	14059	0	708
29.174	0.144	16384	14408	0	708
23.945	-6.780	16406	14757	0	708
15.110	-14.605	16406	14873	0	708
11.756	-17.923	16384	14873	0	708
11.864	-17.418	16384	14757	0	708
16.985	-13.992	16384	14524	0	708
20.916	-14.281	16384	14175	0	708
19.618	-15.615	16384	13826	0	708
15.182	-20.231	16362	13594	0	708
10.999	-22.286	16362	13478	0	708
9.737	-25.135	16362	13710	0	708
7.789	-29.499	16362	14175	0	708
5.193	-33.141	16384	14291	0	708
-2.056	-37.937	16362	14175	0	708
-10.278	-42.553	16362	14175	0	708
-15.290	-45.114	16362	14408	0	708
-15.435	-45.655	16362	14524	0	708
-10.025	-42.950	16362	14757	0	708
0.613	-37.036	16362	15105	0	708
7.537	-31.158	16362	15687	0	708
8.439	-26.073	16384	16500	0	708
5.121	-25.027	16384	17546	0	708
1.262	-25.820	16384	18360	0	708
-0.036	-25.784	16384	19058	0	708
4.580	-25.171	16384	19407	0	708
8.871	-24.017	16406	19290	0	708
9.773	-24.522	16406	19058	0	708
6.599	-23.476	16406	18477	0	708
2.993	-25.063	16384	18011	0	708
-0.541	-30.436	16384	17663	0	708
-2.921	-33.141	16384	17314	0	708
-4.580	-33.646	16384	17081	0	708
-3.967	-32.131	16384	16965	0	708
-1.731	-24.739	16384	17081	0	708
-0.180	-18.752	16384	17314	0	708
2.128	-18.969	16406	17430	0	708
0.108	-23.981	16406	17546	0	708
-3.246	-32.420	16406	17663	0	708
-7.645	-37.829	16406	17779	0	708
-10.458	-38.298	16406	17895	0	708
-12.477	-32.853	16384	17895	0	708
-13.271	-27.371	16406	17895	0	708
-10.746	-25.856	16406	18011	0	708
-11.396	-28.633	16406	18244	0	708
-15.110	-36.675	16440	18593	0	708
-22.070	-45.474	16440	18942	0	708
-33.934	-54.418	16463	19407	0	708
-45.041	-60.151	16463	19756	0	708
-49.946	-64.046	16463	19872	0	708
-49.153	-64.010	16497	19407	0	708
-44.645	-62.099	16497	18709	0	708
-42.157	-62.063	16497	17895	0	708
-45.186	-64.407	16463	17081	0	708
-52.542	-70.177	16463	16500	1	336
-62.099	-72.376	16463	16152	0	336
-66.102	-71.583	16463	15803	0	336
-66.715	-70.393	16463	15338	0	336
-66.787	-72.557	16463	14873	0	336
-73.603	-79.625	16463	14757	0	336
-81.103	-89.867	16463	14640	0	336
-91.489	-94.410	16463	14524	0	336
-89.722	-91.634	16463	14408	0	336
-84.529	-81.428	16440	14408	0	336
-76.704	-76.199	16440	14524	0	336
-74.107	-74.288	16440	14524	0	336
-78.471	-76.019	16440	14291	0	336
-88.027	-80.346	16406	13943	0	336
-92.896	-80.166	16406	13826	0	336
-99.279	-83.087	16406	13710	0	336
-101.839	-86.044	16406	13710	0	336
-105.950	-87.775	16406	13826	0	336
-109.917	-90.732	16406	14175	0	336
-114.100	-86.909	16406	14873	0	336
-116.408	-84.854	16406	15454	0	336
-115.362	-79.481	16406	15919	0	336
-112.730	-78.796	16440	16500	0	336
-110.638	-72.953	16440	17197	0	336
-113.379	-70.718	16440	17663	0	336
-123.224	-71.583	16463	18011	0	336
-139.560	-78.507	16463	18128	0	336
-150.631	-84.746	16463	18128	0	336
-156.581	-90.299	16463	17663	0	336
-154.021	-88.244	16463	17081	0	336
-153.300	-82.149	16463	16384	0	336
-157.555	-80.382	16440	16036	0	336
-167.833	-81.608	16440	15571	0	336
-175.983	-86.765	16440	15105	0	336
-179.805	-89.867	16406	14524	0	336
-176.163	-90.335	16384	14059	0	336
-171.547	-85.467	16406	13710	0	336
-168.121	-79.300	16384	13594	0	336
-168.193	-78.543	16384	13826	0	336
-167.580	-80.527	16384	14175	0	336
-164.876	-85.936	16384	14291	0	336
-163.541	-94.627	16384	14291	0	336
-166.066	-96.790	16384	14175	0	336
-167.580	-92.752	16362	14059	0	336
-170.970	-87.595	16384	14059	0	336
-169.492	-81.536	16362	14059	0	336
-165.128	-79.841	16328	14059	0	336
-159.899	-85.755	16328	14291	0	336
-157.916	-89.975	16328	14524	0	336
-158.817	-95.023	16328	14873	0	336
-158.312	-93.184	16328	15105	0	336
-153.696	-86.657	16328	15571	0	336
-146.412	-80.166	16328	16152	0	336
-140.966	-77.822	16328	16384	0	336
-140.786	-79.048	16328	16616	0	336
-146.989	-83.448	16328	16732	0	336
-154.995	-90.660	16328	16849	0	336
-161.017	-92.715	16328	16965	0	336
-156.762	-96.466	16305	16965	0	336
-149.513	-95.853	16305	17197	0	336
-145.366	-92.391	16328	17430	0	336
-145.294	-90.191	16328	17663	0	336
-150.090	-85.611	16328	18011	0	336
-152.218	-85.755	16328	18360	0	336
-154.021	-85.034	16328	18593	0	336
-152.578	-84.313	16328	18709	0	336
-152.110	-83.015	16328	18825	0	336
-156.834	-82.185	16328	18825	0	336
-161.053	-87.667	16362	18825	0	336
-162.892	-90.335	16362	18942	0	336
-158.276	-93.725	16362	18942	0	336
-154.093	-90.047	16384	18709	0	336
-147.241	-83.664	16384	18709	0	336
-141.255	-76.415	16384	18593	0	336
-140.317	-75.947	16384	18477	0	336
-141.435	-79.661	16384	18244	0	336
-141.868	-87.595	16384	18128	0	336
-145.114	-93.112	16406	18244	0	336
-147.962	-93.942	16384	18244	0	336
-147.602	-91.129	16384	17895	0	336
-147.494	-84.385	16384	17430	0	336
-144.897	-81.356	16384	16965	0	336
-143.130	-80.274	16384	16732	0	336
-142.842	-79.409	16384	16500	0	336
-144.789	-80.058	16384	16384	0	336
-143.130	-78.759	16384	16152	0	336
-140.245	-74.576	16384	16152	0	336
-134.656	-71.655	16384	16152	0	336
-129.463	-69.419	16384	16268	0	336
-129.138	-69.311	16384	16384	0	336
-127.083	-69.059	16384	16849	0	336
-128.525	-66.462	16406	17430	0	336
-125.965	-63.722	16406	17895	0	336
-123.765	-58.457	16406	17895	0	336
-121.745	-57.375	16406	17779	0	336
-122.431	-61.991	16440	17779	0	336
-119.762	-66.498	16440	17895	0	336
-120.195	-70.177	16440	18128	0	336
-118.247	-69.347	16463	18128	0	336
-118.067	-64.082	16463	17779	0	336
-121.168	-61.486	16463	17314	0	336
-122.070	-62.748	16463	16849	0	336
-125.965	-67.400	16463	16500	0	336
-122.719	-72.737	16463	16384	0	336
-121.024	-74.612	16463	16152	0	336
-116.156	-72.773	16463	16036	0	336
-114.317	-70.393	16463	15919	0	336
-116.841	-70.718	16463	15571	0	336
-119.005	-72.268	16440	14989	0	336
-117.238	-72.016	16440	14059	0	336
-112.153	-69.167	16406	13129	0	336
-102.885	-62.784	16406	12664	0	336
-96.394	-59.719	16406	12315	0	336
-93.509	-56.906	16384	11966	0	336
-93.112	-56.040	16384	11617	0	336
-93.617	-54.526	16362	11617	0	336
-88.208	-50.379	16362	11617	0	336
-86.621	-45.294	16362	11850	0	336
-85.179	-44.032	16328	11966	0	336
-86.332	-42.806	16328	12082	0	336
-85.683	-39.957	16305	12082	0	336
-82.979	-34.079	16305	12198	0	336
-81.320	-29.102	16305	12780	0	336
-80.094	-28.092	16305	13245	0	336
-83.231	-31.374	16305	13710	0	336
-89.001	-37.901	16271	14175	0	336
-90.660	-39.740	16271	14757	0	336
-91.742	-36.531	16271	15454	0	336
-90.732	-33.357	16271	16152	0	336
-92.752	-33.177	16271	16616	0	336
-97.007	-38.911	16271	16849	0	336
-104.436	-45.078	16271	16965	0	336
-107.645	-47.458	16305	16965	0	336
-103.787	-45.294	16305	16732	0	336
-94.807	-40.462	16271	16384	0	336
-82.690	-34.006	16271	16268	0	336
-76.019	-32.636	16271	16152	0	336
-76.343	-29.282	16249	16036	0	336
-85.611	-26.181	16249	16036	0	336
-97.115	-22.719	16249	16152	0	336
-110.422	-21.096	16249	16268	0	336
-115.398	-25.243	16249	16384	0	336
-108.366	-30.869	16215	16384	0	336
-88.713	-34.006	16215	16384	0	336
-67.364	-32.708	16249	16732	0	336
-54.959	-24.883	16271	17081	0	336
-54.201	-19.437	16249	17430	0	336
-61.810	-16.589	16249	17663	0	336
-64.118	-19.546	16249	18011	0	336
-55.608	-21.854	16249	18593	0	336
-45.943	-25.604	16271	18942	0	336
-39.380	-28.597	16271	19290	0	336
-38.045	-29.968	16271	19988	0	336
-40.137	-26.325	16305	20802	0	336
-38.442	-19.726	16328	21500	0	336
-31.951	-12.189	16328	21965	0	336
-23.224	-8.619	16362	22314	0	336
-18.103	-8.943	16362	22314	0	336
-12.369	-11.576	16362	22197	0	336
-8.871	-12.405	16384	22081	0	336
-4.111	-8.619	16384	21965	0	336
0.108	-4.291	16406	21732	0	336
1.695	-1.010	16406	21267	1	648
0.144	1.118	16406	20570	0	648
-2.777	0.902	16406	19639	0	648
-4.003	1.154	16406	19058	0	648
0.541	3.101	16406	18477	0	648
11.215	8.799	16440	18128	0	648
22.863	16.264	16440	17895	0	648
31.230	26.866	16440	17779	0	648
33.970	31.482	16440	17430	0	648
36.170	35.197	16440	17081	0	648
38.983	38.045	16440	16616	0	648
43.058	39.957	16440	16152	0	648
48.900	44.609	16440	15687	0	648
53.228	51.280	16440	15222	0	648
54.201	53.228	16440	14989	0	648
59.755	55.427	16440	14989	0	648
63.722	53.913	16440	14989	0	648
67.797	54.345	16463	15105	0	648
67.472	52.614	16463	15338	0	648
62.784	54.237	16463	15571	0	648
58.817	53.300	16463	15919	0	648
55.968	54.165	16463	16384	0	648
58.781	55.932	16497	16732	0	648
63.722	59.178	16519	17197	0	648
65.597	65.489	16497	17546	0	648
71.078	68.157	16497	17546	0	648
73.747	70.032	16519	17197	0	648
83.448	71.259	16519	16616	0	648
92.138	74.396	16497	15919	0	648
99.171	82.979	16497	14989	0	648
101.479	89.794	16497	14175	0	648
99.639	96.069	16463	13245	0	648
97.692	93.365	16463	12547	0	648
97.692	86.909	16440	12082	0	648
100.216	80.995	16440	11966	0	648
99.495	78.579	16440	11850	0	648
93.906	76.596	16440	12082	0	648
88.496	76.307	16406	12198	0	648
87.342	75.947	16406	12315	0	648
89.831	70.429	16406	12664	0	648
94.483	63.794	16406	13361	0	648
95.060	58.745	16440	14291	0	648
92.175	60.260	16440	15105	0	648
86.765	67.364	16440	15919	0	648
89.290	76.992	16440	16384	0	648
95.673	82.149	16440	16849	0	648
103.931	78.940	16440	17430	0	648
109.701	72.485	16440	18011	0	648
111.792	70.321	16463	18477	0	648
113.415	75.225	16463	18593	0	648
114.821	84.674	16463	18360	0	648
119.690	92.463	16463	18011	0	648
127.443	96.863	16463	17546	0	648
133.610	97.079	16463	17314	0	648
139.091	99.784	16463	17197	0	648
144.933	104.580	16463	16849	0	648
148.828	110.458	16440	16268	0	648
154.237	113.956	16440	15571	0	648
157.447	113.054	16440	14989	0	648
156.113	108.907	16406	14640	0	648
148.251	100.685	16406	14291	0	648
144.068	99.351	16406	13943	0	648
139.272	98.954	16384	13594	0	648
138.298	99.062	16384	13361	0	648
140.029	100.613	16384	13361	0	648
138.731	98.521	16384	13826	0	648
132.492	90.480	16384	14175	0	648
128.669	84.349	16384	14524	0	648
128.164	77.317	16384	14873	0	648
128.489	76.271	16384	15222	0	648
131.590	80.815	16384	15571	0	648
133.718	84.565	16384	16036	0	648
132.780	86.837	16384	16384	0	648
132.095	85.323	16384	16849	0	648
134.331	80.490	16384	17081	0	648
137.757	76.524	16384	17081	0	648
140.426	78.110	16384	17314	0	648
141.147	80.779	16384	17430	0	648
142.012	83.339	16384	17546	0	648
147.133	89.434	16384	17546	0	648
154.345	90.804	16384	17663	0	648
163.577	94.410	16384	17895	0	648
168.482	95.204	16406	18244	0	648
168.085	95.636	16406	18593	0	648
163.866	95.348	16406	18942	0	648
153.372	89.254	16406	18942	0	648
142.589	80.635	16440	18942	0	648
131.302	68.301	16440	18709	0	648
122.106	60.620	16406	18477	0	648
120.952	59.106	16440	18360	0	648
121.204	61.053	16440	18360	0	648
123.116	62.351	16440	18128	0	648
119.437	59.683	16440	17779	0	648
114.353	52.038	16406	17081	0	648
111.684	46.556	16406	16500	0	648
110.891	44.645	16406	16268	0	648
110.025	43.851	16406	16036	0	648
109.052	42.589	16384	15803	0	648
112.477	42.048	16384	15571	0	648
117.382	46.376	16384	15338	0	648
126.614	52.506	16384	15105	0	648
132.636	55.752	16384	15105	0	648
130.581	55.788	16384	14989	0	648
126.217	51.461	16384	14757	0	648
121.349	49.153	16362	14524	0	648
125.243	51.064	16362	14175	0	648
130.653	60.512	16362	14059	0	648
133.862	65.020	16362	14291	0	648
132.312	66.498	16362	14640	0	648
127.335	61.810	16384	14989	0	648
124.378	57.771	16384	15454	0	648
126.433	53.732	16384	16152	0	648
129.318	55.391	16384	16500	0	648
130.256	55.536	16406	16849	0	648
127.696	54.634	16384	16965	0	648
119.041	52.506	16384	16849	0	648
114.641	46.087	16384	16616	0	648
111.756	38.947	16362	16500	0	648
110.061	30.004	16384	16500	0	648
106.347	23.044	16384	16500	0	648
100.721	22.935	16384	16384	0	648
96.394	24.666	16384	16152	0	648
95.240	28.958	16384	15803	0	648
94.230	28.092	16362	15338	0	648
95.132	24.089	16362	15105	0	648
94.086	16.733	16362	15105	0	648
91.417	15.579	16362	15222	0	648
93.004	15.687	16362	15338	0	648
93.725	19.293	16362	15687	0	648
94.735	20.303	16362	16152	0	648
95.420	21.962	16384	16500	0	648
95.564	20.267	16362	16849	0	648
93.942	15.074	16362	16965	0	648
93.978	10.494	16362	17081	0	648
93.292	6.383	16384	17197	0	648
93.148	5.409	16384	17430	0	648
94.374	5.085	16384	17895	0	648
94.591	6.888	16384	18244	0	648
92.030	4.508	16384	18593	0	648
90.984	1.334	16406	18709	0	648
86.585	-2.164	16406	18825	0	648
84.313	-6.888	16406	18825	0	648
79.841	-14.894	16384	18825	0	648
75.658	-21.168	16440	18942	0	648
73.603	-24.775	16440	18825	0	648
71.367	-25.784	16440	18593	0	648
66.210	-26.001	16440	17895	0	648
57.483	-31.518	16406	17314	0	648
46.376	-43.960	16384	16500	0	648
38.262	-53.155	16384	16152	0	648
36.928	-58.673	16384	15919	0	648
39.704	-56.257	16384	16152	0	648
42.806	-51.244	16384	16268	0	648
46.736	-50.884	16406	16384	0	648
45.474	-54.165	16406	16732	0	648
47.746	-58.276	16406	16965	0	648
52.506	-58.168	16406	17081	0	648
55.572	-56.653	16406	17081	0	648
58.240	-51.749	16406	16849	0	648
54.526	-51.461	16406	16500	0	648
49.946	-53.732	16406	16268	0	648
43.383	-59.935	16406	15919	0	648
43.310	-63.397	16406	15687	0	648
49.766	-59.142	16406	15571	0	648
56.726	-53.083	16406	15454	0	648
60.224	-50.126	16406	15222	0	648
56.653	-50.884	16406	14873	0	648
48.539	-59.430	16384	14291	0	648
42.084	-67.039	16384	13826	0	648
41.363	-70.429	16362	13478	0	648
40.786	-69.131	16362	13129	0	648
40.786	-69.311	16362	13012	0	648
37.613	-73.855	16328	13012	0	648
33.429	-78.723	16328	13012	0	648
31.302	-82.762	16328	13129	0	648
28.489	-87.198	16328	13361	0	648
26.470	-87.090	16328	13594	0	648
20.591	-88.929	16328	13943	0	648
17.743	-87.306	16328	14640	0	648
20.664	-86.044	16362	15687	0	648
23.693	-82.113	16362	16500	0	648
26.722	-77.137	16384	17430	0	648
25.748	-74.180	16384	18244	0	648
19.726	-72.665	16384	18942	0	648
15.543	-74.396	16406	19407	0	648
12.730	-77.353	16406	19639	0	648
15.362	-77.461	16406	19756	0	648
18.320	-75.658	16440	20337	0	648
22.539	-70.537	16440	21035	0	648
23.549	-63.794	16440	21732	0	648
22.503	-59.611	16463	22081	0	648
21.781	-60.404	16463	22081	0	648
20.555	-61.053	16497	21849	0	648
22.034	-63.397	16497	21500	0	648
20.844	-65.236	16519	21151	0	648
17.021	-65.705	16519	20686	0	648
13.199	-64.190	16519	19988	1	784
9.845	-62.784	16519	19174	0	784
10.133	-62.063	16519	18244	0	784
12.441	-61.161	16519	17546	0	784
13.559	-60.476	16519	16849	0	784
11.215	-60.043	16519	16500	0	784
7.321	-56.834	16497	16152	0	784
4.832	-55.391	16497	15571	0	784
0.757	-53.444	16497	14873	0	784
-3.137	-54.165	16463	14408	0	784
-5.229	-54.670	16463	13943	0	784
-6.744	-56.437	16463	13478	0	784
-7.357	-56.004	16463	13129	0	784
-7.934	-56.437	16463	12896	0	784
-9.340	-59.719	16463	13012	0	784
-14.028	-58.637	16440	13129	0	784
-18.969	-57.483	16440	13129	0	784
-18.500	-58.096	16440	13129	0	784
-16.228	-55.752	16440	13129	0	784
-8.078	-55.427	16440	13129	0	784
0.144	-50.523	16440	13012	0	784
5.626	-45.871	16406	12664	0	784
5.085	-40.245	16406	12547	0	784
3.137	-42.301	16384	12431	0	784
1.262	-48.035	16384	12082	0	784
1.587	-55.427	16362	11733	0	784
3.029	-55.644	16362	11384	0	784
4.796	-48.936	16328	11268	0	784
4.688	-41.039	16328	11501	0	784
5.409	-33.502	16328	12082	0	784
10.386	-29.859	16328	13129	0	784
20.411	-28.525	16328	14175	0	784
25.604	-29.354	16328	15105	0	784
28.886	-31.951	16328	15803	0	784
25.748	-35.918	16328	16152	0	784
22.250	-39.199	16328	16384	0	784
19.005	-37.937	16328	16732	0	784
23.368	-29.895	16328	16965	0	784
29.787	-19.834	16328	17081	0	784
34.583	-9.629	16328	17314	0	784
36.891	-5.878	16328	17430	0	784
42.445	-5.013	16328	17779	0	784
45.727	-8.366	16328	18011	0	784
48.612	-10.061	16328	18244	0	784
55.139	-11.937	16328	18709	0	784
58.060	-12.730	16328	19174	0	784
64.299	-11.143	16362	19523	0	784
70.032	-8.691	16362	19756	0	784
73.458	-5.229	16362	19756	0	784
71.727	-2.056	16362	19756	0	784
66.715	-1.118	16362	19639	0	784
64.803	-1.226	16362	19523	0	784
70.573	0.685	16384	19290	0	784
85.287	5.337	16384	19174	0	784
98.233	11.035	16384	19058	0	784
105.229	16.012	16384	18825	0	784
102.344	17.851	16384	18477	0	784
97.259	20.988	16384	17895	0	784
93.112	21.673	16384	17546	0	784
95.564	23.657	16384	17314	0	784
101.334	25.171	16384	16965	0	784
103.606	25.496	16362	16500	0	784
103.787	27.335	16384	16384	0	784
103.318	30.220	16406	16384	0	784
102.885	30.941	16384	16500	0	784
104.904	32.744	16384	16500	0	784
107.357	33.213	16384	16384	0	784
110.133	35.918	16384	16152	0	784
111.251	40.426	16362	15687	0	784
113.992	48.143	16384	15105	0	784
111.360	51.857	16384	14640	0	784
105.986	51.785	16362	14291	0	784
99.098	46.556	16362	13943	0	784
95.528	39.560	16362	13826	0	784
95.997	38.911	16362	14059	0	784
98.702	42.553	16362	14524	0	784
102.669	51.893	16362	14757	0	784
104.580	55.427	16362	14757	0	784
102.560	54.093	16328	14757	0	784
100.469	47.890	16328	14757	0	784
100.180	45.691	16328	14757	0	784
99.387	49.513	16328	15105	0	784
101.190	54.814	16328	15571	0	784
102.921	56.581	16328	16036	0	784
100.144	51.461	16328	16268	0	784
93.148	42.301	16328	16500	0	784
81.212	32.672	16328	16732	0	784
76.163	29.174	16328	16732	0	784
72.629	32.059	16328	16732	0	784
74.035	37.252	16328	16849	0	784
75.550	43.887	16362	17197	0	784
76.740	48.323	16362	17779	0	784
75.730	48.936	16362	18128	0	784
74.793	47.818	16362	18244	0	784
76.343	46.123	16362	18477	0	784
76.055	42.914	16384	18593	0	784
72.268	43.419	16384	18477	0	784
66.787	40.750	16384	18011	0	784
62.387	38.226	16362	17430	0	784
61.955	39.091	16362	17197	0	784
66.823	40.894	16362	17081	0	784
73.134	43.166	16362	17081	0	784
75.802	44.825	16362	16965	0	784
70.682	43.383	16362	16732	0	784
59.250	34.692	16362	16384	0	784
48.107	26.974	16362	16152	0	784
41.003	20.988	16362	15803	0	784
40.606	14.281	16362	15687	0	784
41.688	13.776	16362	15803	0	784
46.159	13.704	16362	16036	0	784
47.386	16.697	16362	16384	0	784
50.920	21.385	16362	16732	0	784
50.054	25.424	16384	16849	0	784
47.926	23.549	16384	17197	0	784
43.815	19.870	16384	17663	0	784
42.048	17.887	16384	18128	0	784
43.563	18.175	16406	18360	0	784
51.641	23.549	16406	18477	0	784
57.663	26.506	16406	18244	0	784
57.158	27.732	16406	17779	0	784
49.297	25.640	16406	17197	0	784
40.894	22.863	16406	16384	0	784
37.216	18.464	16384	15571	0	784
36.711	17.454	16384	14989	0	784
38.442	12.586	16384	14757	0	784
38.298	13.307	16384	14989	0	784
34.259	15.651	16384	15571	0	784
29.138	16.012	16384	16036	0	784
26.902	14.569	16384	16384	0	784
26.686	7.825	16406	16384	0	784
27.371	2.921	16406	16384	0	784
29.318	1.262	16406	16384	0	784
28.777	5.373	16406	16384	0	784
29.571	13.559	16406	16384	0	784
29.102	16.877	16406	16384	0	784
27.335	16.192	16406	16384	0	784
25.640	10.963	16406	16500	0	784
25.063	8.439	16406	16616	0	784
23.368	10.855	16406	16500	0	784
22.647	17.238	16406	16500	0	784
22.755	20.555	16406	16732	0	784
20.483	16.697	16440	16849	0	784
18.644	9.809	16440	16732	0	784
16.192	7.068	16440	16732	0	784
19.113	12.117	16440	16732	0	784
18.824	19.906	16440	16849	0	784
18.139	24.991	16440	16965	0	784
9.845	22.863	16440	16965	0	784
0.469	17.021	16440	16732	0	784
-6.816	17.129	16440	16616	0	784
-11.215	21.132	16440	16732	0	784
-8.078	28.056	16463	16732	0	784
-4.075	30.292	16463	16965	0	784
-3.318	22.755	16463	17314	0	784
-6.816	14.641	16463	17663	0	784
-10.999	6.022	16497	17895	0	784
-17.598	3.282	16463	18011	0	784
-17.995	9.088	16463	17895	0	784
-15.398	14.136	16463	17663	0	784
-9.124	14.389	16497	17663	0	784
-5.013	15.867	16497	17663	0	784
-10.206	14.389	16497	17430	0	784
-26.325	18.031	16497	16965	0	784
-52.542	18.283	16497	16384	0	784
-87.378	17.995	16463	15687	0	784
-115.543	10.097	16463	14873	0	784
-133.862	5.265	16463	14175	0	784
-132.276	5.590	16440	13710	0	784
-121.818	11.612	16440	13361	0	784
-111.035	13.451	16440	13129	0	784
-107.825	11.792	16406	12780	0	784
-114.821	5.878	16384	12664	0	784
-122.214	2.596	16406	12547	0	784
-121.024	6.167	16406	12547	0	784
-115.218	9.556	16384	12547	0	784
-109.665	6.780	16384	12664	0	784
-109.196	-3.029	16384	13245	0	784
-117.995	-16.084	16384	13710	0	784
-133.249	-18.644	16384	14059	0	784
-156.185	-14.713	16384	14175	0	784
-187.126	-3.065	16362	14175	0	784
-226.794	4.219	16362	14175	0	784
-253.696	5.229	16384	14059	0	784
-257.411	0.325	16362	14059	0	784
-234.836	-4.364	16328	14408	0	784
-199.098	-7.176	16328	14757	0	784
-174.648	-6.960	16328	15222	0	784
-165.020	-6.744	16328	15687	0	784
-167.292	-6.708	16328	16152	0	784
-164.299	-6.996	16328	16384	0	784
-147.854	-6.239	16328	16732	0	784
-126.181	-4.039	16328	16965	0	784
-108.547	-0.541	16328	17430	0	784
-99.820	1.803	16362	18011	0	784
-97.656	1.262	16362	18593	0	784
-97.944	-4.039	16362	18825	0	784
-94.446	-9.304	16362	18709	0	784
-88.496	-15.615	16362	18477	0	784
-79.481	-17.202	16362	18477	0	784
-67.977	-11.900	16362	18360	0	784
-60.260	-7.753	16362	18244	1	800
-52.398	-3.462	16362	18011	0	800
-50.090	-4.291	16362	17779	0	800
-47.818	-8.186	16362	17663	0	800
-46.340	-13.451	16362	17197	0	800
-46.881	-18.644	16328	16616	0	800
-45.078	-20.014	16328	16268	0	800
-40.966	-20.411	16328	16036	0	800
-35.413	-18.428	16328	15803	0	800
-28.417	-10.350	16305	15687	0	800
-21.385	-5.085	16305	15687	0	800
-22.322	-3.714	16305	15803	0	800
-21.168	-5.878	16305	15919	0	800
-16.697	-8.763	16328	16036	0	800
-7.285	-4.977	16328	16036	0	800
7.032	4.400	16328	15803	0	800
17.562	12.874	16328	15571	0	800
16.985	14.966	16305	15454	0	800
10.855	8.258	16305	15338	0	800
4.039	-0.469	16305	15571	0	800
0.036	-2.993	16305	16036	0	800
5.770	0.108	16305	16384	0	800
12.514	7.753	16305	16849	0	800
20.267	13.451	16328	17081	0	800
21.565	17.093	16328	17314	0	800
24.234	13.343	16328	17314	0	800
22.322	10.927	16305	17081	0	800
19.293	7.357	16305	16616	0	800
17.779	5.914	16305	16036	0	800
15.074	10.422	16271	15571	0	800
17.959	12.477	16271	15338	0	800
19.582	14.245	16271	15338	0	800
23.512	9.052	16271	15338	0	800
23.729	6.058	16305	15338	0	800
24.955	6.491	16305	15338	0	800
27.371	13.884	16271	15571	0	800
30.220	21.349	16271	16036	0	800
31.807	24.666	16305	16384	0	800
31.158	23.873	16305	16849	0	800
30.833	20.195	16305	17197	0	800
32.780	22.106	16305	17430	0	800
38.839	28.633	16305	17546	0	800
44.645	34.511	16305	17779	0	800
45.510	33.141	16305	18011	0	800
42.445	25.171	16305	18360	0	800
36.026	15.435	16328	18593	0	800
32.276	8.114	16328	18593	0	800
30.689	3.823	16328	18360	0	800
30.184	5.842	16328	18011	0	800
30.472	7.032	16305	17430	0	800
29.102	7.789	16305	17081	0	800
29.787	10.819	16305	16732	0	800
30.400	16.805	16328	16500	0	800
29.030	19.510	16328	16384	0	800
23.188	17.815	16328	16152	0	800
14.569	10.494	16328	16268	0	800
11.360	3.570	16328	16384	0	800
13.812	1.190	16328	16732	0	800
21.962	3.967	16328	16965	0	800
25.640	11.792	16328	17081	0	800
23.296	11.071	16328	16965	0	800
12.838	7.645	16328	16849	0	800
7.393	1.334	16328	16616	0	800
8.475	0.649	16328	16384	0	800
13.018	2.705	16328	16384	0	800
18.356	5.121	16328	16152	0	800
15.651	5.121	16328	16152	0	800
11.143	0.793	16328	16152	0	800
7.789	-4.364	16328	16152	0	800
8.511	-6.635	16328	16036	0	800
14.821	-4.003	16328	15803	0	800
23.368	-1.298	16328	15803	0	800
27.804	1.839	16328	15919	0	800
27.732	4.724	16328	16152	0	800
24.919	5.481	16328	16152	0	800
21.132	4.652	16328	16152	0	800
16.949	1.298	16328	16500	0	800
20.303	0.757	16328	17314	0	800
23.224	2.813	16362	18011	0	800
26.974	9.917	16362	18593	0	800
30.905	15.471	16384	19058	0	800
30.076	15.723	16384	19523	0	800
29.354	9.196	16384	19639	0	800
28.164	3.101	16406	19523	0	800
30.472	4.219	16406	19058	0	800
33.898	13.848	16406	18593	0	800
36.242	21.024	16406	18360	0	800
32.456	21.962	16406	18128	1	348
25.243	10.638	16406	18011	0	348
19.690	-1.118	16406	17663	0	348
19.221	-10.458	16406	17197	0	348
26.001	-8.402	16406	16616	0	348
27.732	-0.757	16406	16268	0	348
25.316	5.662	16406	15803	0	348
17.274	7.357	16406	15454	0	348
8.943	3.173	16406	15222	0	348
7.465	-4.688	16384	14873	0	348
9.196	-12.766	16384	14408	0	348
11.251	-14.461	16384	13943	0	348
14.208	-14.821	16384	13594	0	348
15.759	-6.671	16362	13478	0	348
16.408	1.334	16362	13478	0	348
18.283	2.452	16362	13710	0	348
15.110	-1.659	16362	13710	0	348
13.018	-9.881	16362	13594	0	348
12.045	-12.369	16328	13361	0	348
15.074	-9.448	16328	13245	0	348
21.637	0.144	16328	13594	0	348
27.660	4.724	16328	14175	0	348
30.076	3.390	16328	14873	0	348
30.689	-0.180	16328	15454	0	348
28.020	0.252	16384	16036	0	348
24.775	1.803	16384	16849	0	348
20.808	1.010	16384	17663	0	348
17.057	-4.724	16406	18244	0	348
16.769	-10.278	16406	18477	0	348
16.408	-10.602	16384	18477	0	348
19.618	-5.914	16384	18360	0	348
20.808	0.288	16384	18244	0	348
20.591	-0.649	16384	18244	0	348
16.012	-4.724	16406	18244	0	348
17.202	-10.061	16406	18128	0	348
18.031	-7.717	16406	17895	0	348
23.837	-0.361	16406	17546	0	348
23.585	6.058	16384	16965	0	348
21.024	6.383	16384	16384	0	348
17.202	1.154	16384	16036	0	348
12.586	-7.176	16384	15687	0	348
13.163	-13.559	16384	15338	0	348
15.759	-12.694	16362	14873	0	348
16.408	-10.278	16362	14291	0	348
16.372	-6.058	16328	13826	0	348
13.956	-2.705	16328	13710	0	348
11.287	-4.472	16362	13826	0	348
9.088	-10.566	16362	14175	0	348
5.806	-20.087	16362	14524	0	348
5.265	-28.633	16362	14757	0	348
5.770	-30.076	16362	15105	0	348
6.203	-23.512	16362	15222	0	348
6.708	-13.848	16384	15222	0	348
6.347	-6.311	16328	15338	0	348
8.114	-3.750	16328	15687	0	348
9.304	-6.094	16328	15803	0	348
10.891	-7.248	16328	15803	0	348
8.186	-8.655	16328	16036	0	348
5.409	-9.556	16328	16152	0	348
4.327	-10.386	16328	16268	0	348
5.770	-9.088	16328	16384	0	348
15.074	-4.868	16328	16500	0	348
21.204	1.190	16328	16732	0	348
25.893	5.409	16328	16732	0	348
22.683	5.193	16328	16732	0	348
15.398	-0.685	16328	16849	0	348
7.898	-8.258	16328	16965	0	348
1.226	-16.841	16328	16965	0	348
-2.560	-19.654	16328	17081	0	348
-3.967	-21.781	16328	17546	0	348
-7.032	-20.736	16328	17895	0	348
-8.763	-20.880	16328	17779	0	348
-10.638	-23.549	16328	17430	0	348
-8.799	-24.630	16328	17081	0	348
-9.448	-23.873	16328	16732	0	348
-8.366	-21.132	16305	16384	0	348
-9.773	-12.874	16305	16036	0	348
-7.970	-8.042	16328	15803	0	348
-7.212	-5.842	16328	15803	0	348
-2.344	-9.737	16328	15803	0	348
-2.596	-13.163	16328	15803	0	348
-3.173	-14.821	16328	15803	0	348
-4.111	-8.943	16328	16268	0	348
-2.777	-0.793	16328	16616	0	348
-0.108	7.212	16328	17081	0	348
3.787	11.396	16328	17314	0	348
2.957	7.717	16328	17430	0	348
-2.416	3.029	16328	17430	0	348
-10.386	-5.986	16362	17663	0	348
-21.529	-13.631	16362	18360	0	348
-27.984	-18.392	16384	19058	0	348
-32.059	-21.962	16384	19872	0	348
-29.499	-19.473	16406	20453	0	348
-25.820	-18.031	16406	21035	0	348
-22.755	-15.002	16440	21500	0	348
-24.053	-18.752	16463	21732	0	348
-27.840	-21.493	16463	21849	0	348
-31.987	-23.873	16497	21849	0	348
-28.850	-21.565	16497	21849	0	348
-23.224	-14.245	16519	21732	0	348
-19.221	-9.556	16519	21384	0	348
-14.894	-12.225	16519	20802	0	348
-14.894	-18.356	16519	20221	0	348
-13.379	-24.702	16519	19523	1	412
-11.360	-18.860	16519	18825	0	412
-7.248	-6.852	16519	17895	0	412
-6.708	5.806	16519	16849	0	412
-9.629	8.727	16519	16152	0	412
-11.864	0.541	16519	15454	0	412
-12.694	-11.287	16519	14757	0	412
-10.494	-16.048	16497	14059	0	412
-6.167	-12.369	16497	13478	0	412
-5.517	-5.914	16497	13129	0	412
-7.104	-5.806	16463	13012	0	412
-13.415	-10.927	16463	12896	0	412
-20.483	-19.257	16463	12896	0	412
-26.866	-22.972	16463	12780	0	412
-30.617	-23.945	16463	12896	0	412
-33.033	-24.017	16463	13129	0	412
-35.557	-29.102	16463	13361	0	412
-35.810	-34.980	16463	13478	0	412
-34.872	-34.511	16463	13594	0	412
-34.728	-26.866	16463	13478	0	412
-32.636	-17.634	16463	13245	0	412
-30.761	-13.740	16440	13129	0	412
-25.279	-16.552	16440	13012	0	412
-19.798	-25.099	16440	12780	0	412
-15.903	-28.669	16406	12664	0	412
-13.631	-21.277	16406	12896	0	412
-11.215	-6.094	16406	13245	0	412
-11.035	6.708	16406	13594	0	412
-6.167	9.268	16406	14175	0	412
-3.282	2.669	16406	14757	0	412
-2.452	-5.950	16406	15105	0	412
-5.229	-10.674	16406	15454	0	412
-8.979	-8.042	16406	15687	0	412
-10.206	-3.642	16406	15919	0	412
-8.547	-1.082	16406	16268	0	412
-4.688	-1.082	16440	16616	0	412
-1.010	-1.262	16440	17081	0	412
-0.721	-3.426	16406	17430	0	412
-6.924	-6.780	16406	17663	0	412
-18.536	-15.687	16406	17663	0	412
-27.083	-22.395	16406	17546	0	412
-30.328	-26.470	16406	16965	0	412
-25.712	-25.820	16384	16268	0	412
-15.398	-22.647	16384	15454	0	412
-10.494	-21.060	16362	14873	0	412
-11.576	-23.404	16362	14408	0	412
-21.709	-21.565	16328	14175	0	412
-25.856	-18.969	16328	14175	0	412
-23.260	-11.648	16362	14291	0	412
-15.975	-5.698	16362	14524	0	412
-6.708	-4.616	16362	14873	0	412
-6.131	-10.242	16362	15222	0	412
-12.369	-15.939	16328	15454	0	412
-20.988	-19.401	16328	15687	0	412
-24.847	-15.759	16328	16036	0	412
-24.666	-12.117	16328	16152	0	412
-22.827	-8.439	16328	16036	0	412
-20.014	-8.078	16328	15919	0	412
-17.490	-10.855	16305	15803	0	412
-15.507	-12.946	16305	15919	0	412
-14.172	-11.864	16305	16268	0	412
-12.622	-11.648	16305	16616	0	412
-17.526	-11.540	16305	16965	0	412
-22.322	-14.281	16328	17430	0	412
-26.650	-22.863	16328	18011	0	412
-26.578	-33.718	16328	18477	0	412
-21.024	-34.980	16328	18709	0	412
-17.995	-31.807	16328	18825	0	412
-20.303	-20.195	16328	18709	0	412
-23.152	-13.235	16328	18593	0	412
-29.895	-12.117	16362	18825	0	412
-30.220	-19.726	16362	19058	0	412
-21.493	-25.568	16362	19058	0	412
-12.441	-23.621	16362	18477	0	412
-6.816	-12.153	16362	17895	0	412
-6.924	-4.580	16328	17430	0	412
-14.353	-2.092	16328	16965	0	412
-22.142	-6.888	16328	16384	0	412
-26.325	-11.035	16328	16152	0	412
-24.162	-13.235	16362	16036	0	412
-16.192	-7.357	16362	15919	0	412
-10.602	-3.462	16362	15919	0	412
-6.347	-4.436	16362	16036	0	412
-4.400	-8.222	16328	16152	0	412
-4.364	-9.629	16362	16152	0	412
-3.714	-5.193	16328	16152	0	412
-2.849	1.479	16328	16268	0	412
-3.390	3.426	16328	16268	0	412
-5.770	-1.623	16328	16152	0	412
-12.009	-12.477	16328	16268	0	412
-16.264	-19.185	16328	16384	0	412
-21.060	-20.123	16328	16384	0	412
-19.185	-11.648	16328	16384	0	412
-15.795	-5.662	16328	16616	0	412
-11.215	-2.416	16328	16732	0	412
-10.566	-2.777	16328	16732	0	412
-14.533	-3.318	16362	16849	0	412
-17.779	-2.092	16362	17430	0	412
-21.132	-2.524	16362	18244	0	412
-16.336	-6.203	16384	18825	0	412
-11.107	-9.809	16384	18942	0	412
-4.364	-11.323	16384	18825	0	412
-0.938	-7.104	16384	18709	0	412
-2.777	-2.236	16406	18825	0	412
-4.183	-0.938	16406	18825	0	412
-7.717	-2.019	16406	18825	0	412
-5.842	-4.003	16406	18593	0	412
-5.590	-4.688	16406	17895	0	412
-6.816	-5.265	16406	16965	0	412
-12.441	-9.196	16406	16268	0	412
-22.142	-15.398	16384	15803	0	412
-26.433	-16.048	16406	15687	0	412
-25.099	-14.281	16406	15803	0	412
-19.221	-4.904	16384	15687	0	412
-9.989	3.137	16384	15454	0	412
-7.068	5.481	16384	14989	0	412
-6.708	3.714	16384	14408	0	412
-9.701	-1.731	16362	13826	0	412
-10.855	-4.291	16362	13361	0	412
-11.828	-7.573	16362	13245	0	412
-8.294	-6.058	16362	13478	0	412
-5.662	-4.652	16362	13826	0	412
-3.029	-3.498	16328	14059	0	412
-3.714	-1.551	16328	14291	0	412
-6.599	-1.623	16328	14524	0	412
-11.035	-1.983	16328	14873	0	412
-15.867	-6.455	16362	15338	0	412
-14.749	-10.025	16362	15919	0	412
-14.605	-14.100	16362	16384	0	412
-9.556	-10.927	16362	16616	0	412
-4.580	-4.147	16362	16965	0	412
-1.190	1.623	16362	17197	0	412
-0.721	3.931	16362	17430	0	412
-3.029	1.010	16362	17546	0	412
-6.131	-1.551	16362	17430	0	412
-7.573	-3.642	16362	17081	0	412
-8.619	-4.003	16362	16965	0	412
-9.520	-5.301	16362	16849	0	412
-14.317	-10.602	16362	16849	0	412
-16.516	-16.552	16362	16965	0	412
-17.526	-17.129	16362	17081	0	412
-12.441	-13.379	16362	16965	0	412
-5.698	-6.996	16362	16732	0	412
-6.816	-5.265	16362	16616	0	412
-15.110	-7.537	16362	16384	0	412
-28.056	-16.625	16384	16152	0	412
-39.199	-21.060	16384	15687	0	412
-41.291	-20.808	16362	15338	0	412
-34.764	-11.179	16362	14873	0	412
-23.585	-1.695	16362	14524	0	412
-16.120	4.724	16328	14291	0	412
-9.845	6.419	16328	14175	0	412
-9.196	4.796	16328	14408	0	412
-9.845	2.236	16328	14757	0	412
-11.251	0.433	16328	14989	0	412
-14.497	-1.334	16328	15105	0	412
-19.365	-4.003	16305	14989	0	412
-21.204	-6.960	16305	14873	0	412
-23.837	-9.088	16305	14873	0	412
-28.273	-13.595	16305	14873	0	412
-30.076	-14.894	16305	14873	0	412
-33.033	-17.995	16305	15222	0	412
-36.026	-18.247	16305	15919	0	412
-36.747	-21.673	16305	16384	0	412
-40.281	-26.037	16305	16616	0	412
-42.734	-29.715	16305	16849	0	412
-44.464	-32.023	16305	17197	0	412
-41.940	-26.578	16305	17663	0	412
-37.685	-19.942	16305	18128	0	412
-32.492	-12.910	16305	18360	0	412
-28.633	-9.701	16328	18825	0	412
-25.424	-10.494	16362	19639	0	412
-21.204	-12.550	16384	20570	0	412
-16.625	-11.215	16406	21500	0	412
-17.598	-10.169	16406	21965	0	412
-18.608	-8.042	16440	22197	0	412
-20.772	-7.357	16406	21965	0	412
-18.464	-7.862	16440	21616	0	412
-15.326	-9.701	16440	21267	0	412
-11.792	-10.386	16440	21035	0	412
-16.372	-11.720	16463	20802	1	720
-24.522	-17.923	16463	20570	0	720
-34.403	-21.060	16463	20221	0	720
-39.812	-24.811	16497	19756	0	720
-39.776	-24.594	16497	19290	0	720
-39.812	-23.801	16497	18825	0	720
-39.812	-24.919	16497	18360	0	720
-40.750	-25.496	16497	18011	0	720
-42.734	-26.686	16519	17663	0	720
-42.084	-27.299	16519	17314	0	720
-41.796	-25.532	16519	16965	0	720
-40.281	-24.162	16519	16384	0	720
-40.353	-21.457	16519	16036	0	720
-37.468	-20.411	16497	15571	0	720
-35.629	-17.382	16497	15222	0	720
-30.905	-18.139	16497	14757	0	720
-28.092	-18.175	16497	14408	0	720
-22.467	-17.634	16497	14059	0	720
-16.805	-10.025	16497	13826	0	720
-8.222	-3.823	16497	13943	0	720
-3.210	3.823	16497	14291	0	720
-1.911	5.842	16497	14757	0	720
-6.239	2.524	16519	15105	0	720
-14.172	-3.931	16497	15105	0	720
-20.087	-9.556	16519	14989	0	720
-24.342	-13.776	16519	14640	0	720
-23.224	-13.884	16463	13943	0	720
-21.421	-13.091	16463	13245	0	720
-24.053	-16.841	16440	12780	0	720
-24.919	-20.880	16440	12431	0	720
-28.958	-27.984	16440	12082	0	720
-31.735	-30.545	16406	11850	0	720
-31.915	-27.912	16406	11617	0	720
-30.725	-22.070	16406	11617	0	720
-30.472	-17.706	16384	11617	0	720
-26.686	-16.805	16384	11966	0	720
-23.116	-18.969	16384	12315	0	720
-21.673	-22.503	16384	12896	0	720
-20.808	-22.899	16384	13361	0	720
-22.899	-21.565	16384	13943	0	720
-28.669	-17.598	16384	14640	0	720
-29.066	-14.497	16384	15105	0	720
-27.912	-10.169	16384	15338	0	720
-22.070	-7.465	16362	15454	0	720
-14.281	-2.921	16362	15454	0	720
-8.330	1.082	16362	15338	0	720
-6.455	4.003	16362	15454	0	720
-14.389	2.380	16362	15687	0	720
-21.709	-2.633	16362	15803	0	720
-30.004	-8.402	16328	15919	0	720
-35.737	-12.766	16328	16152	0	720
-38.767	-12.802	16328	16384	0	720
-39.704	-12.802	16328	16616	0	720
-40.606	-9.773	16328	16732	0	720
-40.858	-8.655	16328	16849	0	720
-41.183	-9.773	16328	16732	0	720
-42.986	-11.540	16362	16500	0	720
-45.655	-15.615	16328	16500	0	720
-51.172	-22.106	16328	16616	0	720
-50.307	-25.171	16362	16500	0	720
-47.782	-24.811	16328	16384	0	720
-41.724	-21.962	16328	16152	0	720
-36.314	-15.218	16305	15803	0	720
-35.341	-10.169	16305	15454	0	720
-39.091	-8.006	16271	15105	0	720
-42.842	-7.609	16271	14873	0	720
-47.169	-8.078	16271	14757	0	720
-45.546	-8.366	16249	14989	0	720
-40.714	-4.291	16249	15338	0	720
-37.108	-0.325	16249	15919	0	720
-38.190	0.902	16249	16268	0	720
-46.087	-2.416	16249	16384	0	720
-60.909	-9.016	16249	16616	0	720
-74.324	-15.795	16271	16965	0	720
-82.907	-18.356	16271	17430	0	720
-82.510	-12.694	16271	17779	0	720
-76.632	-8.979	16271	18360	0	720
-71.042	-6.852	16305	18825	0	720
-66.102	-10.133	16305	19290	0	720
-61.991	-14.497	16305	19407	0	720
-57.807	-19.329	16305	19523	0	720
-56.906	-19.473	16328	19756	0	720
-55.644	-23.765	16328	20221	0	720
-58.889	-28.201	16328	20570	0	720
-60.945	-33.033	16362	20802	0	720
-57.122	-33.357	16362	21035	0	720
-49.080	-28.381	16384	21151	0	720
-36.855	-19.149	16384	21267	0	720
-27.551	-13.523	16406	21500	0	720
-23.332	-12.009	16406	21732	0	720
-22.827	-13.018	16440	21732	0	720
-25.640	-17.021	16440	21500	0	720
-25.135	-15.362	16440	21267	0	720
-21.529	-14.713	16463	21035	0	720
-13.271	-11.071	16463	20686	0	720
-8.655	-7.429	16497	20337	1	380
-4.255	-4.003	16497	20104	0	380
0.252	2.128	16497	19872	0	380
4.580	7.393	16519	19290	0	380
8.330	11.107	16519	18709	0	380
8.763	7.862	16519	18244	0	380
4.436	1.515	16497	17895	0	380
-1.046	-6.239	16519	17546	0	380
-4.219	-8.042	16519	16965	0	380
-0.397	-1.839	16519	16384	0	380
5.734	7.212	16497	15454	0	380
9.881	10.891	16497	14524	0	380
8.763	7.068	16497	13710	0	380
5.229	-3.065	16497	12780	0	380
1.983	-8.583	16463	11966	0	380
-0.902	-8.078	16463	11268	0	380
-0.649	-2.416	16440	10687	0	380
-1.190	0.757	16440	10338	0	380
-1.262	0.180	16406	10105	0	380
1.695	-4.255	16406	10105	0	380
5.337	-7.176	16384	10222	0	380
10.422	-5.013	16384	10454	0	380
11.215	-1.839	16384	10803	0	380
6.708	1.479	16384	11384	0	380
2.993	1.190	16384	11850	0	380
4.039	-1.875	16384	12431	0	380
8.439	-5.409	16384	13012	0	380
15.507	-5.481	16384	13594	0	380
19.473	1.334	16384	13943	0	380
21.637	11.107	16384	14175	0	380
20.880	20.483	16384	14408	0	380
22.034	21.854	16384	14524	0	380
24.414	18.320	16362	14873	0	380
21.818	11.360	16362	15454	0	380
17.634	5.914	16384	16152	0	380
13.487	9.665	16384	16616	0	380
14.894	12.153	16384	17081	0	380
14.641	12.658	16384	17430	0	380
14.208	8.583	16384	17663	0	380
8.006	0.541	16384	17779	0	380
-1.695	-7.862	16384	17779	0	380
-7.645	-11.396	16384	17895	0	380
-6.888	-11.251	16384	17895	0	380
-1.695	-7.645	16384	17779	0	380
2.705	-4.039	16384	17895	0	380
4.075	-0.829	16384	18011	0	380
1.226	-0.108	16384	18244	0	380
-4.508	-4.940	16406	18593	0	380
-10.494	-15.218	16406	18942	0	380
-16.444	-23.801	16384	19174	0	380
-18.139	-25.676	16406	19058	0	380
-13.091	-19.978	16406	18709	0	380
-6.347	-9.989	16406	18360	0	380
2.849	-1.010	16406	18011	0	380
6.383	1.262	16406	17779	0	380
3.318	-2.813	16406	17430	0	380
-3.101	-8.475	16406	17081	0	380
-9.124	-12.766	16406	16849	0	380
-10.710	-14.749	16384	16500	0	380
-6.491	-10.710	16384	16268	0	380
1.370	-5.590	16384	16152	0	380
8.114	0.288	16384	16152	0	380
9.773	2.849	16384	16268	0	380
3.606	-2.777	16384	16152	0	380
-8.186	-12.261	16384	16036	0	380
-18.897	-21.349	16384	15687	0	380
-26.722	-27.768	16384	15454	0	380
-26.145	-30.256	16384	15338	0	380
-21.637	-29.535	16362	15338	0	380
-17.238	-27.912	16384	15338	0	380
-13.415	-26.578	16384	15338	0	380
-14.281	-23.693	16384	15571	0	380
-15.867	-18.680	16384	15919	0	380
-16.480	-15.939	16406	16152	0	380
-18.500	-12.550	16384	16268	0	380
-17.887	-14.245	16384	16268	0	380
-19.221	-14.497	16384	16268	0	380
-22.683	-18.392	16384	16268	0	380
-25.784	-20.339	16362	16268	0	380
-29.174	-24.306	16384	16036	0	380
-28.958	-23.837	16384	15919	0	380
-25.856	-22.322	16384	15919	0	380
-18.392	-18.031	16384	15919	0	380
-12.586	-11.071	16384	16036	0	380
-7.645	-9.845	16384	16268	0	380
-6.744	-7.753	16384	16384	0	380
-7.393	-9.809	16384	16384	0	380
-10.999	-12.261	16384	16268	0	380
-14.208	-16.480	16384	15803	0	380
-15.651	-17.670	16362	15222	0	380
-18.608	-20.916	16362	14873	0	380
-16.697	-20.195	16362	14757	0	380
-12.514	-17.743	16362	15105	0	380
-3.210	-9.448	16362	15687	0	380
6.311	-0.793	16362	16036	0	380
11.720	6.167	16362	16384	0	380
9.665	7.609	16384	16384	0	380
1.298	0.216	16362	16384	0	380
-9.412	-10.746	16362	16384	0	380
-16.733	-16.805	16362	16616	0	380
-17.057	-15.290	16362	16965	0	380
-18.644	-6.239	16384	17430	0	380
-18.392	2.524	16384	17779	0	380
-22.250	5.265	16384	18011	0	380
-24.306	-0.397	16384	18128	0	380
-27.443	-10.927	16384	18011	0	380
-31.013	-21.024	16384	17895	0	380
-32.744	-24.883	16384	17546	0	380
-37.036	-26.686	16384	17197	0	380
-37.757	-25.640	16384	16732	0	380
-34.006	-26.253	16384	16384	0	380
-26.974	-26.253	16384	16036	0	380
-21.637	-25.893	16384	16036	0	380
-18.211	-23.837	16384	16384	0	380
-19.870	-19.149	16384	16732	0	380
-18.644	-15.903	16384	17081	0	380
-16.841	-11.323	16384	17430	0	380
-9.737	-10.422	16406	17546	0	380
-3.967	-9.556	16406	17663	0	380
-2.993	-9.376	16406	17663	0	380
-5.914	-8.222	16406	17779	0	380
-9.412	-7.248	16384	18011	0	380
-9.520	-5.878	16440	18011	0	380
-6.491	-6.635	16440	18128	0	380
-0.577	-9.629	16440	18128	0	380
1.623	-10.963	16440	18244	0	380
1.659	-12.766	16406	18128	0	380
-1.010	-11.035	16406	17895	0	380
-6.131	-13.776	16406	17314	0	380
-13.812	-17.634	16406	16616	0	380
-19.762	-24.198	16406	15919	0	380
-25.460	-31.554	16406	15222	0	380
-24.739	-34.187	16384	14640	0	380
-21.745	-30.148	16384	14291	0	380
-21.818	-24.342	16384	13943	0	380
-23.657	-20.195	16362	13710	0	380
-30.617	-21.132	16362	13710	0	380
-37.360	-27.732	16362	13943	0	380
-38.334	-30.977	16362	14524	0	380
-33.790	-30.761	16384	15105	0	380
-27.551	-22.034	16384	15687	0	380
-25.640	-16.120	16384	16152	0	380
-27.407	-10.855	16384	16152	0	380
-35.413	-12.874	16384	16036	0	380
-42.481	-13.018	16384	15919	0	380
-46.087	-8.006	16384	15919	0	380
-42.012	-2.019	16384	16152	0	380
-36.495	4.544	16384	16384	0	380
-32.564	5.445	16384	16616	0	380
-35.305	-0.036	16384	16616	0	380
-41.507	-7.429	16384	16732	0	380
-49.333	-14.425	16384	16849	0	380
-56.293	-17.382	16406	17197	0	380
-56.040	-16.625	16406	17546	0	380
-53.913	-16.408	16406	17895	0	380
-49.982	-13.740	16440	18244	0	380
-48.612	-13.956	16440	18825	0	380
-47.566	-13.054	16440	19174	0	380
-49.297	-17.670	16463	19407	0	380
-55.644	-19.978	16463	19407	0	380
-63.217	-26.578	16463	19174	0	380
-71.727	-28.273	16463	18709	0	380
-81.176	-27.696	16497	18244	0	380
-91.706	-25.460	16497	18011	0	380
-100.685	-21.781	16497	18011	0	380
-109.268	-19.510	16497	17779	0	380
-113.992	-22.106	16497	17314	0	380
-115.795	-21.493	16497	16616	0	380
-112.477	-20.700	16497	15919	0	380
-107.501	-19.510	16463	15222	0	380
-104.977	-16.156	16463	14757	0	380
-107.068	-15.687	16440	14524	0	380
-111.432	-16.877	16440	14408	0	380
-116.120	-22.250	16440	14291	0	380
-118.428	-23.512	16440	14059	0	380
-119.978	-21.781	16406	13826	0	380
-123.765	-16.120	16406	13478	0	380
-137.108	-11.504	16406	13478	0	380
-155.067	-11.251	16406	13594	0	380
-169.419	-18.969	16406	13710	0	380
-176.848	-26.902	16384	13710	0	380
-176.019	-31.807	16384	13478	0	380
-171.799	-32.564	16384	13361	0	380
-170.032	-29.931	16384	13361	0	380
-171.727	-28.958	16362	13245	0	380
-169.275	-31.807	16362	13129	0	380
-163.722	-32.744	16328	12780	0	380
-151.857	-33.790	16328	12547	0	380
-139.704	-32.023	16328	12547	0	380
-132.059	-30.292	16305	12780	0	380
-126.830	-29.643	16305	13245	0	380
-126.361	-27.912	16328	13943	0	380
-119.221	-25.352	16328	14757	0	380
-110.927	-21.745	16328	15338	0	380
-103.354	-19.690	16328	15571	0	380
-99.964	-20.087	16328	15687	0	380
-106.671	-24.162	16328	15687	0	380
-118.680	-31.735	16305	15919	0	380
-131.013	-37.865	16305	16152	0	380
-137.721	-39.632	16305	16384	0	380
-137.973	-37.396	16305	16732	0	380
-139.993	-31.338	16305	17197	0	380
-139.668	-27.948	16328	18011	0	380
-144.140	-30.905	16328	18709	0	380
-144.464	-37.829	16328	19290	0	380
-139.560	-41.832	16328	19523	0	380
-133.682	-39.596	16328	19523	0	380
-126.181	-32.167	16328	18942	0	380
-128.886	-27.371	16328	18360	0	380
-133.826	-28.020	16328	17663	0	380
-140.966	-31.482	16305	16849	0	380
-145.799	-36.423	16305	16268	1	844
-144.789	-40.894	16271	15687	0	844
-139.344	-43.851	16271	15454	0	844
-132.312	-47.566	16305	15571	0	844
-120.627	-45.979	16305	15919	0	844
-114.677	-39.812	16328	16152	0	844
-107.753	-28.994	16305	16500	0	844
-107.825	-23.152	16305	17081	0	844
-109.917	-24.630	16305	17663	0	844
-112.838	-31.518	16305	17779	0	844
-113.271	-39.344	16305	17779	0	844
-112.297	-42.625	16305	17779	0	844
-110.206	-41.399	16305	17779	0	844
-110.819	-38.118	16305	17546	0	844
-115.831	-38.622	16305	17314	0	844
-124.017	-42.625	16305	16965	0	844
-138.334	-48.215	16305	16732	0	844
-147.422	-52.578	16305	16500	0	844
-152.218	-51.713	16305	16384	0	844
-148.143	-48.648	16305	16500	0	844
-142.084	-42.409	16305	16616	0	844
-141.688	-37.721	16305	16732	0	844
-150.054	-34.151	16328	16849	0	844
-166.715	-34.295	16328	16965	0	844
-179.048	-36.747	16328	17197	0	844
-181.861	-41.580	16328	17430	0	844
-177.317	-43.851	16328	17779	0	844
-172.917	-41.616	16362	18360	0	844
-173.711	-35.341	16362	18709	0	844
-177.858	-31.013	16362	18825	0	844
-182.474	-31.049	16362	18593	0	844
-178.759	-32.816	16362	18360	0	844
-170.790	-36.026	16384	18360	0	844
-162.640	-37.144	16384	18360	0	844
-158.132	-36.711	16384	18477	0	844
-159.538	-39.452	16384	18477	0	844
-161.702	-43.635	16384	18593	0	844
-164.984	-47.890	16406	18477	0	844
-165.561	-52.903	16406	18244	0	844
-164.046	-53.660	16406	18128	0	844
-164.551	-54.057	16406	18244	0	844
-168.590	-50.920	16440	18477	0	844
-176.920	-47.818	16440	18825	0	844
-191.417	-44.825	16440	18942	0	844
-209.016	-43.779	16463	18593	0	844
-222.647	-45.078	16463	18011	0	844
-227.515	-46.953	16440	17430	0	844
-223.188	-45.943	16440	16849	0	844
-208.078	-41.688	16440	16384	0	844
-194.410	-36.783	16440	16036	0	844
-187.054	-31.951	16440	15687	0	844
-192.102	-32.997	16440	15454	0	844
-197.981	-38.947	16440	15222	0	844
-203.787	-45.222	16406	14989	0	844
-197.476	-49.369	16406	14640	0	844
-184.674	-45.186	16406	14291	0	844
-170.069	-37.288	16406	13943	0	844
-164.912	-32.276	16406	13594	0	844
-166.138	-31.735	16384	13129	0	844
-171.691	-38.839	16384	12896	0	844
-176.848	-46.953	16384	12780	0	844
-174.216	-51.172	16384	12896	0	844
-167.941	-47.962	16362	13129	0	844
-161.882	-43.094	16362	13245	0	844
-153.155	-39.957	16362	13710	0	844
-148.576	-39.127	16362	14175	0	844
-141.219	-38.695	16362	14524	0	844
-132.744	-36.747	16362	14640	0	844
-120.159	-33.898	16362	14873	0	844
-108.439	-33.898	16362	15454	0	844
-96.718	-33.898	16384	16036	0	844
-88.136	-32.312	16384	16384	0	844
-87.198	-27.696	16384	16616	0	844
-89.975	-23.621	16384	16500	0	844
-88.893	-23.549	16362	16152	0	844
-86.477	-29.210	16362	15919	0	844
-76.596	-32.420	16362	15803	0	844
-61.414	-27.840	16362	16036	0	844
-50.631	-15.218	16362	16268	0	844
-44.501	-7.465	16362	16268	0	844
-45.799	-8.691	16362	16268	0	844
-52.723	-17.454	16362	16384	0	844
-59.827	-31.662	16362	16616	0	844
-64.190	-37.973	16362	17197	0	844
-63.325	-38.009	16384	17663	0	844
-60.115	-33.357	16384	18011	0	844
-55.752	-31.230	16384	18593	0	844
-57.988	-28.669	16406	18825	0	844
-64.731	-29.246	16406	18825	0	844
-74.612	-27.010	16406	18709	0	844
-88.604	-25.640	16406	18709	0	844
-98.702	-27.263	16406	18825	0	844
-106.671	-30.004	16440	18942	0	844
-109.376	-32.636	16440	19058	0	844
-105.878	-34.836	16440	18942	0	844
-97.476	-30.400	16440	18593	0	844
-88.244	-25.965	16440	18128	0	844
-76.127	-20.952	16440	17779	0	844
-68.698	-16.048	16440	17546	0	844
-63.577	-11.973	16440	17314	0	844
-62.856	-6.744	16440	17081	0	844
-62.243	-6.383	16440	16732	0	844
-63.686	-8.655	16440	16500	0	844
-62.459	-12.874	16440	16268	0	844
-59.683	-15.615	16440	15919	0	844
-61.233	-17.670	16440	15571	0	844
-65.705	-17.418	16440	15105	0	844
-70.537	-20.736	16440	14640	0	844
-75.730	-24.017	16406	14175	0	844
-73.494	-26.722	16406	13826	0	844
-69.708	-29.282	16406	13594	0	844
-66.282	-29.246	16406	13594	0	844
-64.010	-28.561	16406	13826	0	844
-65.417	-28.705	16406	14059	0	844
-66.859	-26.181	16406	14291	0	844
-64.984	-24.991	16384	14175	0	844
-61.342	-24.847	16384	13943	0	844
-56.870	-23.729	16384	13826	0	844
-54.129	-22.863	16362	13594	0	844
-56.040	-20.700	16362	13710	0	844
-56.113	-18.428	16362	14175	0	844
-54.201	-19.834	16362	14524	0	844
-44.537	-21.241	16362	14757	0	844
-34.043	-22.250	16362	14989	0	844
-26.866	-18.680	16362	15222	0	844
-22.214	-16.192	16362	15222	0	844
-21.313	-10.530	16362	15222	0	844
-18.860	-10.061	16328	15454	0	844
-11.828	-9.232	16362	16036	0	844
-5.734	-5.878	16362	16384	0	844
-3.534	-3.606	16362	16849	0	844
-8.402	-0.757	16362	17314	0	844
-15.723	-6.058	16362	17546	0	844
-24.342	-11.900	16362	17663	0	844
-28.309	-14.281	16362	17895	0	844
-26.253	-13.523	16362	18011	0	844
-20.591	-5.121	16362	18128	0	844
-17.129	0.433	16384	18360	0	844
-18.860	-1.154	16384	18825	0	844
-20.014	-6.708	16384	19290	0	844
-22.972	-10.746	16406	19756	0	844
-20.627	-16.084	16406	19988	0	844
-18.572	-18.103	16406	19872	0	844
-15.867	-17.923	16440	19872	0	844
-18.103	-17.634	16440	19872	0	844
-20.195	-13.307	16440	19639	0	844
-22.719	-9.592	16440	19290	1	584
-21.204	-5.337	16440	19174	0	584
-13.595	-6.744	16463	19290	0	584
-5.193	-5.085	16463	19407	0	584
3.173	-3.426	16497	19407	0	584
9.520	2.344	16463	19290	0	584
8.871	5.373	16497	19058	0	584
1.406	6.311	16497	18825	0	584
-6.022	4.147	16497	18709	0	584
-9.665	2.488	16497	18477	0	584
-12.514	3.967	16497	18244	0	584
-12.045	7.898	16497	17895	0	584
-9.917	10.710	16519	17546	0	584
-10.133	12.153	16497	16965	0	584
-10.638	10.422	16497	16268	0	584
-8.655	9.268	16497	15571	0	584
-9.376	10.169	16497	14989	0	584
-12.477	8.078	16497	14640	0	584
-16.625	2.993	16497	14524	0	584
-14.749	-4.147	16497	14640	0	584
-7.537	-7.898	16497	14640	0	584
4.724	-5.409	16497	14175	0	584
15.903	4.039	16463	13361	0	584
22.395	14.389	16440	12664	0	584
22.322	15.831	16440	12315	0	584
21.529	13.740	16440	12198	0	584
23.585	7.825	16406	12198	0	584
25.099	4.219	16406	12431	0	584
27.515	5.121	16406	12780	0	584
27.515	9.556	16406	13361	0	584
25.063	12.946	16406	13943	0	584
23.116	13.054	16406	14408	0	584
23.585	8.835	16406	14640	0	584
25.712	3.823	16406	14873	0	584
26.542	-0.216	16406	14989	0	584
25.424	0.180	16406	14989	0	584
24.811	4.832	16406	14873	0	584
22.286	9.448	16406	14757	0	584
23.657	13.235	16406	14757	0	584
26.578	15.038	16384	14873	0	584
26.650	14.317	16384	15105	0	584
24.558	11.071	16384	15222	0	584
21.709	11.648	16384	15338	0	584
24.089	12.838	16384	15454	0	584
30.581	18.031	16384	15571	0	584
40.426	25.027	16384	15338	0	584
46.051	28.489	16362	15222	0	584
44.717	28.777	16362	15105	0	584
35.990	25.388	16362	15222	0	584
25.820	20.123	16362	15222	0	584
20.844	15.651	16328	14989	0	584
20.123	9.629	16328	14757	0	584
23.585	4.940	16328	14757	0	584
24.053	2.128	16328	15105	0	584
20.844	-1.551	16328	15571	0	584
16.877	-0.469	16328	16036	0	584
13.054	2.056	16328	16384	0	584
16.336	5.986	16305	16500	0	584
24.666	12.045	16305	16616	0	584
33.429	14.389	16305	16616	0	584
36.783	15.290	16328	16616	0	584
36.675	15.507	16328	16500	0	584
34.151	11.792	16328	16500	0	584
32.167	12.694	16328	16500	0	584
32.961	14.353	16305	16500	0	584
34.367	17.418	16305	16384	0	584
34.728	19.149	16305	16500	0	584
33.862	21.204	16305	16616	0	584
32.708	19.185	16305	17197	0	584
32.239	20.519	16328	17895	0	584
31.915	17.779	16328	18709	0	584
29.427	18.031	16328	19407	0	584
24.991	14.317	16362	19988	0	584
19.906	13.054	16362	20686	0	584
12.009	11.396	16384	21616	0	584
5.770	11.287	16406	22314	0	584
0.649	9.845	16440	22779	0	584
-3.895	7.068	16440	23011	0	584
-8.330	2.993	16463	23011	0	584
-13.884	1.803	16463	22779	0	584
-16.480	1.803	16463	22314	0	584
-20.591	3.642	16497	21616	0	584
-20.014	5.517	16497	21035	0	584
-23.945	6.167	16497	20337	1	332
-28.814	5.986	16497	19639	0	332
-33.826	5.626	16497	19058	0	332
-36.783	4.616	16497	18593	0	332
-36.567	2.849	16497	18011	0	332
-35.160	1.731	16497	17779	0	332
-36.855	1.082	16497	17663	0	332
-37.973	4.544	16519	17546	0	332
-37.180	10.602	16519	17430	0	332
-36.495	16.156	16519	17430	0	332
-34.692	16.264	16553	17314	0	332
-39.849	14.569	16553	16965	0	332
-47.097	8.366	16519	16384	0	332
-53.408	6.383	16553	15571	0	332
-59.178	4.868	16553	14873	0	332
-58.709	4.436	16497	14175	0	332
-57.771	-0.325	16497	13361	0	332
-55.211	-7.753	16497	12547	0	332
-50.847	-13.235	16463	11850	0	332
-48.684	-15.146	16463	11036	0	332
-48.792	-11.648	16440	10454	0	332
-46.304	-9.304	16440	10222	0	332
-43.419	-6.419	16406	10338	0	332
-37.505	-4.075	16406	10454	0	332
-32.672	-3.534	16406	10454	0	332
-33.502	-1.334	16384	10222	0	332
-39.452	-0.397	16384	10105	0	332
-45.835	-0.757	16362	9989	0	332
-46.123	-3.570	16362	10105	0	332
-41.940	-5.481	16328	10571	0	332
-39.524	-8.222	16328	10919	0	332
-40.894	-8.727	16328	11268	0	332
-49.369	-7.068	16305	11733	0	332
-60.404	-6.960	16305	12664	0	332
-73.170	-9.737	16305	13478	0	332
-80.022	-14.208	16305	14059	0	332
-84.025	-17.418	16305	14757	0	332
-83.556	-17.887	16305	15222	0	332
-81.717	-11.828	16305	15687	0	332
-86.477	-9.052	16305	16036	0	332
-94.266	-10.025	16328	16384	0	332
-105.806	-11.179	16328	16849	0	332
-108.691	-7.032	16362	17197	0	332
-101.046	0.469	16328	17546	0	332
-88.316	8.619	16328	17779	0	332
-80.599	9.629	16305	18011	0	332
-82.005	2.236	16305	18244	0	332
-89.109	-5.373	16328	18477	0	332
-92.535	-6.455	16328	19058	0	332
-89.217	-1.659	16328	19639	0	332
-82.907	6.996	16328	19988	0	332
-76.776	11.973	16328	19988	0	332
-76.019	9.196	16362	20104	0	332
-75.766	3.678	16362	20221	0	332
-75.586	-2.452	16362	20221	0	332
-72.629	-5.554	16362	19872	0	332
-69.564	-4.183	16362	19290	0	332
-66.931	0.757	16362	18825	0	332
-68.229	6.527	16362	18360	0	332
-71.655	7.212	16362	18128	0	332
-76.343	6.563	16362	18128	0	332
-77.245	0.180	16362	17895	0	332
-70.682	-5.517	16362	17546	0	332
-60.332	-5.157	16362	17430	0	332
-49.730	-1.226	16362	17430	0	332
-46.809	2.416	16362	17546	0	332
-47.458	6.671	16362	17663	0	332
-45.799	6.275	16362	17779	0	332
-43.527	6.239	16384	17895	0	332
-40.678	5.409	16384	18011	0	332
-43.924	3.426	16384	18128	0	332
-53.480	-1.623	16384	18244	0	332
-64.876	-8.835	16384	18011	0	332
-67.436	-10.458	16384	17546	0	332
-60.151	-6.960	16384	17081	0	332
-47.710	0.865	16384	17081	0	332
-43.347	6.780	16406	17430	0	332
-54.093	6.599	16406	17663	0	332
-77.389	0.469	16406	17663	0	332
-106.491	-6.491	16406	17546	0	332
-127.912	-10.097	16406	17314	0	332
-138.262	-9.232	16440	17081	0	332
-140.209	-3.967	16440	16849	0	332
-140.786	3.137	16440	16616	0	332
-143.022	6.563	16440	16384	0	332
-152.146	4.904	16440	16036	0	332
-163.289	0.685	16406	15687	0	332
-173.783	-4.327	16406	15338	0	332
-180.887	-7.465	16406	15222	0	332
-181.500	-8.727	16406	15454	0	332
-178.579	-6.455	16440	15687	0	332
-174.324	-5.734	16440	15803	0	332
-174.180	-4.508	16440	15919	0	332
-178.796	-3.787	16440	16152	0	332
-188.568	-5.481	16440	16384	0	332
-198.233	-8.979	16440	16268	0	332
-206.347	-10.855	16440	16152	0	332
-202.705	-8.511	16440	16152	0	332
-191.489	-1.479	16406	16036	0	332
-174.721	2.705	16440	15687	0	332
-158.781	4.977	16440	15105	0	332
-146.484	1.406	16440	14408	0	332
-139.849	-3.210	16406	14059	0	332
-134.980	-5.013	16406	13943	0	332
-129.931	-2.957	16384	13943	0	332
-125.316	-0.541	16384	13826	0	332
-118.933	1.226	16362	13594	0	332
-119.329	0.469	16384	13478	0	332
-117.851	-0.902	16384	13361	0	332
-115.471	-4.219	16384	13361	0	332
-112.802	-7.032	16362	13245	0	332
-102.019	-9.665	16362	13129	0	332
-87.378	-9.917	16362	13361	0	332
-72.268	-6.203	16362	13943	0	332
-54.850	2.777	16362	14640	0	332
-39.019	11.900	16362	15105	0	332
-27.732	18.392	16362	15687	0	332
-23.729	18.247	16384	16268	0	332
-25.243	15.939	16362	16732	0	332
-28.164	10.963	16362	17081	0	332
-30.581	9.268	16362	17546	0	332
-30.617	8.835	16384	17779	0	332
-31.410	4.472	16384	17895	0	332
-34.115	1.046	16384	17895	0	332
-38.731	-3.029	16384	17895	0	332
-43.924	-1.010	16384	17895	0	332
-49.261	7.609	16384	17895	0	332
-60.043	16.120	16384	17663	0	332
-75.838	20.087	16384	17314	0	332
-90.948	13.559	16384	17197	0	332
-100.685	6.094	16384	17314	0	332
-103.210	0.541	16384	17430	0	332
-100.505	2.164	16384	17663	0	332
-101.479	6.960	16384	17779	0	332
-105.806	11.251	16384	17895	0	332
-114.821	9.232	16384	18128	0	332
-120.050	8.943	16406	18477	0	332
-123.909	9.881	16406	18593	0	332
-122.070	14.028	16406	18477	0	332
-123.044	18.608	16384	18244	0	332
-120.483	16.841	16406	17895	0	332
-119.113	14.569	16406	17430	0	332
-113.091	10.855	16406	17081	0	332
-105.085	10.422	16406	16732	0	332
-96.610	13.884	16406	16500	0	332
-94.374	15.038	16406	16384	0	332
-101.803	14.858	16406	16268	0	332
-119.401	11.396	16406	16152	0	332
-144.537	9.412	16384	16036	0	332
-168.951	9.448	16384	15919	0	332
-194.735	15.615	16384	15919	0	332
-221.421	19.726	16384	15919	0	332
-251.028	22.539	16384	16036	0	332
-281.608	17.743	16384	16036	0	332
-306.455	13.848	16384	15919	0	332
-321.637	7.357	16384	15803	0	332
-327.876	6.022	16362	15687	0	332
-333.970	7.429	16384	15454	0	332
-340.209	7.393	16384	15338	0	332
-351.388	2.813	16384	14989	0	332
-359.791	-2.741	16384	14640	0	332
-362.243	-8.655	16362	14408	0	332
-357.771	-11.035	16362	14059	0	332
-347.169	-13.740	16362	13943	0	332
-334.367	-16.516	16328	13826	0	332
-325.099	-21.421	16328	13710	0	332
-315.471	-29.571	16362	13710	0	332
-307.212	-33.105	16328	13943	0	332
-293.365	-31.302	16328	14291	0	332
-277.894	-28.020	16328	14640	0	332
-256.365	-26.397	16328	15105	0	332
-234.728	-27.335	16328	15919	0	332
-214.245	-31.158	16328	16384	0	332
-192.138	-34.656	16328	16616	0	332
-169.455	-31.482	16328	16616	0	332
-150.631	-27.155	16328	16500	0	332
-134.656	-25.063	16328	16732	0	332
-125.929	-24.775	16328	16849	0	332
-118.644	-24.522	16328	16965	0	332
-111.323	-21.277	16305	16732	0	332
-96.899	-10.746	16305	16384	0	332
-80.454	-3.931	16305	16152	0	332
-62.171	-0.252	16305	15919	0	332
-48.071	-5.770	16271	15687	0	332
-36.098	-12.261	16271	15571	0	332
-21.421	-12.550	16271	15571	0	332
-3.750	-6.599	16271	15687	0	332
18.031	7.140	16305	15803	0	332
37.396	22.827	16305	16152	0	332
51.136	32.167	16305	16616	0	332
55.391	32.239	16305	17197	0	332
58.384	24.955	16305	17779	0	332
59.178	17.129	16328	18244	0	332
64.010	12.045	16328	18477	0	332
71.223	18.031	16328	18709	0	332
77.497	23.404	16328	18825	0	332
83.339	25.640	16328	18825	0	332
89.939	19.510	16328	18709	0	332
91.706	10.999	16328	18593	0	332
93.869	3.931	16362	18477	0	332
92.788	3.787	16362	18477	0	332
88.496	5.013	16362	18593	1	804
86.332	4.364	16362	18477	0	804
86.044	1.551	16362	18477	0	804
91.273	-2.957	16362	18360	0	804
97.404	-4.977	16384	18477	0	804
101.839	0.000	16384	18593	0	804
101.623	6.996	16384	18593	0	804
101.479	15.290	16384	18360	0	804
101.442	17.706	16384	18011	0	804
108.222	19.077	16384	17430	0	804
116.913	17.129	16384	16732	0	804
121.168	19.726	16362	15919	0	804
118.536	24.017	16362	15105	0	804
113.848	29.318	16362	14640	0	804
107.429	30.328	16328	14291	0	804
103.498	29.571	16328	14059	0	804
99.387	27.876	16328	13710	0	804
94.699	27.371	16328	13594	0	804
83.808	29.427	16328	13478	0	804
74.107	25.856	16305	13710	0	804
66.030	20.880	16305	13943	0	804
59.142	11.828	16328	14059	0	804
56.870	9.088	16328	14291	0	804
57.519	8.979	16328	14640	0	804
56.149	9.989	16362	14989	0	804
54.093	8.727	16328	15338	0	804
44.537	2.380	16328	15571	0	804
35.124	-4.977	16328	15454	0	804
26.830	-6.780	16328	15571	0	804
24.378	-4.544	16328	15687	0	804
31.013	-0.216	16328	15803	0	804
41.363	3.101	16305	15687	0	804
52.362	4.977	16305	15687	0	804
64.046	7.609	16305	15803	0	804
71.186	12.153	16305	16152	0	804
74.757	15.038	16328	16732	0	804
74.757	19.798	16328	17314	0	804
74.360	18.969	16328	17779	0	804
77.173	17.743	16328	17895	0	804
82.979	15.254	16328	18128	0	804
95.528	16.877	16362	18360	0	804
104.436	20.483	16362	18825	0	804
107.825	27.263	16362	19174	0	804
101.875	29.679	16362	19407	0	804
89.758	24.270	16384	19407	0	804
77.173	11.215	16384	19174	0	804
70.682	-1.623	16384	18825	0	804
72.232	-9.737	16384	18477	0	804
77.605	-8.186	16384	18244	0	804
80.743	-4.364	16384	18011	0	804
78.435	-2.921	16384	17779	0	804
71.439	-7.321	16384	17314	0	804
66.823	-13.451	16384	16849	0	804
63.577	-14.605	16384	16268	0	804
63.974	-14.317	16362	15571	0	804
66.426	-11.396	16362	14757	0	804
69.924	-10.494	16328	14175	0	804
73.855	-10.602	16328	14059	0	804
79.373	-9.376	16328	14175	0	804
83.664	-1.623	16328	14640	0	804
86.693	5.193	16328	15105	0	804
86.549	8.799	16362	15222	0	804
90.335	9.412	16362	15454	0	804
90.444	6.888	16362	15571	0	804
89.794	6.996	16362	15687	0	804
83.051	10.494	16384	15919	0	804
75.838	10.710	16384	16036	0	804
69.600	8.727	16384	16152	0	804
66.426	1.695	16362	16152	0	804
64.876	-5.049	16362	16152	0	804
60.620	-8.114	16362	16152	0	804
53.155	-10.169	16362	15919	0	804
44.176	-12.838	16362	15571	0	804
35.413	-19.185	16362	15105	0	804
29.968	-27.984	16328	14873	0	804
25.424	-33.393	16328	14989	0	804
24.198	-32.492	16328	15338	0	804
25.135	-29.066	16328	15687	0	804
27.948	-23.585	16328	16036	0	804
30.472	-18.716	16328	16036	1	316
33.466	-15.795	16328	16036	0	316
34.475	-12.658	16328	16152	0	316
33.357	-11.720	16328	16500	0	316
30.040	-17.310	16362	16965	0	316
26.974	-23.585	16362	17314	0	316
25.063	-30.905	16362	17430	0	316
24.991	-31.879	16362	17546	0	316
25.568	-28.669	16362	17895	0	316
26.866	-27.660	16384	18360	0	316
24.378	-29.715	16384	18942	0	316
21.349	-35.377	16384	19407	0	316
20.303	-41.868	16406	19407	0	316
15.615	-45.727	16406	19174	0	316
11.432	-49.116	16406	19174	0	316
4.868	-48.467	16406	18942	0	316
0.974	-50.054	16406	18825	0	316
-1.370	-45.546	16440	18942	0	316
0.144	-41.616	16440	18942	0	316
1.731	-39.921	16440	18825	0	316
0.938	-39.452	16440	18593	0	316
-0.938	-40.426	16463	18593	0	316
-2.488	-39.091	16463	18593	0	316
0.397	-33.898	16463	18128	0	316
5.337	-26.938	16463	17663	0	316
9.484	-20.411	16463	17197	0	316
12.117	-20.195	16463	16965	0	316
9.124	-24.811	16463	16732	0	316
7.248	-27.876	16463	16616	0	316
3.498	-28.705	16440	16384	0	316
4.796	-27.768	16440	16152	0	316
5.229	-24.270	16440	15803	0	316
3.390	-24.666	16463	15687	0	316
-0.433	-27.840	16463	15919	0	316
-3.967	-32.564	16463	16384	0	316
-9.520	-32.564	16497	16849	0	316
-10.169	-32.384	16497	17081	0	316
-12.910	-32.167	16497	17081	0	316
-14.172	-34.908	16497	16965	0	316
-19.257	-40.029	16519	16965	0	316
-20.555	-47.061	16519	17081	0	316
-22.827	-49.441	16519	16965	0	316
-20.844	-49.477	16497	16732	0	316
-21.313	-46.015	16519	16500	0	316
-21.781	-45.005	16497	16384	0	316
-21.313	-45.150	16519	16384	0	316
-20.988	-45.727	16519	16036	0	316
-12.766	-41.075	16497	15454	0	316
-5.445	-32.312	16497	14640	0	316
-2.092	-23.693	16497	13943	0	316
-3.570	-22.322	16463	13361	0	316
-9.773	-23.116	16463	13129	0	316
-15.182	-27.443	16463	13012	0	316
-16.048	-28.273	16463	13012	0	316
-13.018	-26.073	16463	12780	0	316
-16.048	-24.198	16440	12547	0	316
-21.024	-27.696	16440	12431	0	316
-26.794	-33.934	16440	12315	0	316
-30.400	-37.324	16406	12315	0	316
-25.568	-38.009	16406	12431	0	316
-22.214	-37.865	16406	12780	0	316
-23.332	-40.173	16406	13245	0	316
-28.092	-44.717	16406	13710	0	316
-34.259	-50.920	16406	14059	0	316
-35.485	-52.182	16406	14408	0	316
-30.508	-47.277	16384	14524	0	316
-24.414	-39.380	16384	14757	0	316
-22.575	-33.574	16384	15105	0	316
-21.926	-34.079	16384	15338	0	316
-22.575	-38.154	16384	15454	0	316
-23.080	-42.697	16384	15687	0	316
-18.464	-43.851	16384	15919	0	316
-17.202	-40.894	16384	16384	0	316
-11.828	-34.403	16384	16965	0	316
-6.816	-25.568	16384	17546	0	316
-0.685	-16.264	16406	17895	0	316
5.662	-12.622	16406	18244	0	316
10.097	-8.294	16384	18477	0	316
9.701	-11.612	16384	18593	0	316
4.039	-16.480	16384	18825	1	316
-5.337	-24.919	16406	19174	0	316
-16.264	-29.535	16406	19639	0	316
-22.719	-34.547	16406	19872	0	316
-24.991	-36.206	16406	19872	0	316
-26.325	-36.567	16440	19872	0	316
-28.561	-39.380	16440	20104	0	316
-34.331	-45.835	16440	20104	0	316
-40.570	-50.559	16463	19988	0	316
-41.652	-54.093	16463	19639	0	316
-37.649	-51.208	16463	19407	0	316
-30.148	-44.933	16463	19058	0	316
-25.712	-40.750	16463	18593	0	316
-24.739	-38.947	16463	18011	0	316
-24.991	-39.993	16463	17430	0	316
-25.027	-39.560	16463	16732	0	316
-23.945	-38.875	16463	16152	0	316
-16.841	-37.000	16463	15687	0	316
-15.687	-33.538	16440	15222	0	316
-15.723	-32.131	16440	14989	0	316
-18.247	-29.643	16440	14989	0	316
-17.238	-27.515	16440	14989	0	316
-15.867	-23.368	16406	14989	0	316
-8.943	-19.221	16440	15105	0	316
-1.839	-16.264	16463	15338	0	316
0.469	-11.035	16463	15687	0	316
0.469	-11.071	16440	16036	0	316
-2.236	-11.864	16440	16036	0	316
-6.167	-12.874	16440	15803	0	316
-9.052	-15.146	16440	15919	0	316
-11.287	-14.461	16440	16152	0	316
-13.343	-17.887	16440	16152	0	316
-12.766	-22.142	16440	15919	0	316
-14.136	-27.371	16440	15571	0	316
-11.612	-33.321	16440	15338	0	316
-12.766	-35.846	16440	15338	0	316
-12.514	-35.737	16440	15687	0	316
-13.487	-34.800	16440	15919	0	316
-15.651	-32.780	16440	16152	0	316
-14.172	-27.768	16440	16384	0	316
-12.802	-27.371	16463	16500	0	316
-12.658	-28.561	16463	16500	0	316
-11.468	-30.436	16463	16500	0	316
-9.773	-33.826	16463	16500	0	316
-7.934	-32.997	16463	16616	0	316
-6.058	-30.545	16463	16849	0	316
-2.164	-23.945	16463	16849	0	316
2.272	-17.923	16463	16500	0	316
7.032	-15.939	16463	16384	0	316
9.953	-12.081	16463	16152	0	316
9.088	-15.002	16440	16152	0	316
7.140	-21.637	16440	16152	0	316
4.364	-22.791	16440	16384	0	316
5.481	-20.483	16440	16616	0	316
10.530	-13.848	16463	16849	0	316
13.848	-7.357	16463	16965	0	316
15.146	-4.940	16463	16965	0	316
12.874	-7.429	16463	16965	0	316
13.091	-8.186	16463	16732	0	316
14.533	-7.645	16463	16500	0	316
18.969	-5.301	16463	16384	0	316
20.952	-4.508	16463	16384	0	316
23.188	-7.789	16463	16268	0	316
19.005	-13.199	16440	15571	0	316
14.281	-18.031	16440	14873	0	316
7.321	-22.214	16440	14291	0	316
1.983	-27.479	16406	13826	0	316
-2.885	-32.167	16406	13710	0	316
-1.479	-34.583	16406	13710	0	316
5.481	-29.787	16406	13710	0	316
15.290	-20.447	16406	13826	0	316
22.575	-8.907	16384	13943	0	316
25.748	-3.354	16384	14175	0	316
21.601	-5.301	16384	14408	0	316
20.339	-10.097	16384	14640	0	316
20.159	-13.812	16384	14757	0	316
25.712	-10.819	16384	14873	0	316
30.689	-6.419	16384	14873	0	316
30.076	-7.176	16362	14757	0	316
27.984	-10.710	16362	14873	1	316
24.306	-13.271	16362	15105	0	316
25.243	-13.451	16362	15571	0	316
30.617	-7.898	16362	16152	0	316
34.259	-2.416	16362	16849	0	316
31.807	-4.904	16384	17430	0	316
27.371	-10.746	16384	17895	0	316
20.988	-18.969	16384	18477	0	316
20.014	-21.890	16406	19058	0	316
21.493	-21.132	16406	19407	0	316
27.047	-16.336	16406	19523	0	316
30.905	-14.821	16406	19523	0	316
32.059	-12.982	16440	19407	0	316
31.518	-15.867	16406	19174	0	316
29.679	-16.408	16440	18825	0	316
29.859	-15.579	16406	18360	0	316
31.987	-11.251	16406	17895	0	316
38.731	-4.868	16406	17663	0	316
43.166	1.803	16406	17430	0	316
45.438	5.157	16406	17081	0	316
41.616	3.750	16406	16849	0	316
38.154	0.685	16384	16732	0	316
38.550	-3.462	16384	16500	0	316
44.428	-2.705	16384	16384	0	316
50.090	2.092	16384	16384	0	316
55.283	7.645	16384	16384	0	316
52.578	10.350	16384	16268	0	316
49.730	10.386	16384	16036	0	316
46.484	9.484	16384	15687	0	316
49.405	9.412	16384	15454	0	316
50.739	8.979	16384	15454	0	316
48.828	9.088	16384	15454	0	316
48.071	7.537	16384	15454	0	316
46.340	2.669	16384	15454	0	316
49.513	1.731	16384	15338	0	316
54.526	3.895	16384	15338	0	316
55.536	5.337	16362	15222	0	316
49.549	8.042	16384	14989	0	316
43.058	8.258	16384	14757	0	316
39.849	5.229	16384	14524	0	316
41.003	2.056	16362	14291	0	316
44.428	0.325	16362	14059	0	316
47.025	0.577	16328	13594	0	316
49.477	3.570	16328	13129	0	316
51.172	7.176	16328	12664	0	316
51.424	9.232	16305	12431	0	316
53.660	7.970	16271	12315	0	316
50.595	9.412	16271	12431	0	316
47.746	7.970	16271	12664	0	316
45.871	8.943	16249	12896	0	316
47.061	12.189	16249	13012	0	316
50.270	15.326	16249	13361	0	316
51.208	15.723	16215	13826	0	316
53.949	17.634	16215	14640	0	316
54.526	15.723	16215	15222	0	316
55.499	15.290	16249	15803	0	316
53.913	12.405	16249	16384	0	316
51.388	13.668	16249	17197	0	316
44.032	11.035	16271	17895	0	316
34.151	4.472	16271	18244	0	316
26.289	-3.498	16271	18477	0	316
23.008	-11.792	16271	18825	0	316
25.532	-13.235	16271	19639	0	316
28.886	-9.629	16305	20453	0	316
35.052	-1.911	16305	21035	0	316
38.478	2.633	16305	21267	0	316
40.137	-0.361	16328	21267	0	316
38.947	-8.150	16328	21384	0	316
34.944	-12.297	16362	21616	0	316
31.735	-13.271	16362	21732	0	316
33.285	-5.590	16362	21616	0	316
