neuroNicle FX2
D3F25R12
Bluetooth SPP
2023년 3월 31일 금요일
오후 5:10
time interval = 4msec
EEG1	EEG2	PPG	sdPPG	pulse	peak_interval(msec)
-57.411	-76.307	1	16002	0	672
-53.264	-72.990	1	15873	0	672
-51.785	-71.475	1	15760	0	672
-55.644	-72.449	1	15716	0	672
-60.296	-72.701	1	15731	0	672
-64.046	-71.944	1	15781	0	672
-65.633	-69.708	1	15850	0	672
-65.489	-65.957	1	15940	0	672
-63.541	-59.394	1	16042	0	672
-56.401	-49.297	1	16126	0	672
-46.592	-37.685	1	16169	0	672
-35.449	-28.525	1	16192	0	672
-30.328	-23.729	1	16203	0	672
-32.780	-26.902	1	16209	0	672
-40.029	-30.112	1	16201	0	672
-43.527	-35.016	1	16151	0	672
-45.402	-37.468	1	16078	0	672
-44.356	-40.245	1	16065	0	672
-47.386	-46.520	1	16109	0	672
-54.742	-55.283	1	16117	0	672
-65.633	-64.371	1	16065	0	672
-68.662	-67.256	1	15982	0	672
-67.580	-65.453	1	15911	0	672
-61.522	-60.548	1	15854	0	672
-56.834	-56.834	1	15750	0	672
-55.968	-57.050	1	15574	0	672
-57.591	-60.476	1	15412	0	672
-56.834	-62.892	1	15343	0	672
-53.155	-61.342	1	15353	0	672
-46.953	-55.860	1	15410	0	672
-40.894	-50.920	1	15499	0	672
-39.055	-48.576	1	15606	0	672
-39.921	-48.539	1	15727	0	672
-39.885	-47.422	1	15848	0	672
-36.964	-43.743	1	15948	0	672
-31.122	-36.711	1	16025	0	672
-27.263	-30.400	1	16103	0	672
-29.643	-30.653	1	16207	0	672
-34.439	-34.331	1	16355	0	672
-38.767	-37.613	1	16546	0	672
-36.964	-37.432	1	16768	0	672
-32.276	-36.351	1	16981	0	672
-31.085	-38.983	1	17171	0	672
-33.754	-45.114	1	17348	0	672
-37.685	-51.280	1	17534	0	672
-34.620	-51.100	1	17724	0	672
-25.820	-42.229	1	17903	0	672
-14.821	-29.354	1	18077	0	672
-10.674	-19.077	1	18237	0	672
-9.052	-15.723	1	18346	0	672
-11.215	-15.038	1	18398	0	672
-9.484	-13.956	1	18446	0	672
-5.914	-11.179	1	18513	0	672
-2.777	-6.708	1	18576	0	672
0.108	-3.606	1	18603	0	672
0.000	-2.524	1	18594	0	672
1.010	-5.590	1	18594	0	672
1.947	-6.996	1	18615	0	672
3.029	-6.022	1	18634	0	672
6.383	-3.137	1	18607	0	672
8.186	1.154	1	18521	0	672
9.268	5.085	1	18423	1	616
9.917	8.907	1	18352	0	616
10.674	12.514	1	18283	0	616
14.569	19.113	1	18196	0	616
18.824	23.873	1	18089	0	616
19.077	23.837	1	17978	0	616
13.127	16.012	1	17882	0	616
3.462	4.544	1	17799	0	616
-6.888	-5.986	1	17707	0	616
-12.874	-13.631	32768	17578	0	616
-12.550	-15.074	32768	17427	0	616
-13.054	-15.398	32768	17285	0	616
-12.622	-16.805	32768	17154	0	616
-15.831	-18.644	32768	17014	0	616
-21.493	-22.539	32768	16847	0	616
-28.345	-29.354	32768	16634	0	616
-38.983	-37.793	32768	16349	0	616
-50.018	-49.802	32768	16013	0	616
-59.827	-58.673	32768	15721	0	616
-66.390	-64.118	32768	15510	0	616
-67.508	-63.000	32768	15355	0	616
-64.623	-57.952	32768	15222	0	616
-65.272	-54.237	32768	15071	0	616
-68.301	-55.355	32768	14917	0	616
-71.583	-60.188	32768	14817	0	616
-69.960	-62.604	32768	14752	0	616
-64.803	-62.171	32768	14660	0	616
-55.896	-55.608	1	14522	0	616
-49.621	-47.349	1	14399	0	616
-47.025	-39.127	1	14353	0	616
-43.419	-30.400	1	14391	0	616
-32.744	-19.582	1	14489	0	616
-22.467	-9.412	1	14618	0	616
-17.851	-7.429	1	14754	0	616
-23.116	-15.074	1	14913	0	616
-36.819	-32.276	1	15092	0	616
-53.877	-50.559	1	15268	0	616
-64.767	-63.541	1	15435	0	616
-74.684	-70.754	1	15591	0	616
-82.510	-75.225	1	15739	0	616
-91.922	-78.651	1	15898	0	616
-97.440	-82.005	1	16078	0	616
-97.764	-82.943	1	16251	0	616
-92.643	-79.697	1	16345	0	616
-88.604	-78.796	1	16303	0	616
-87.883	-78.868	1	16197	0	616
-90.768	-82.041	1	16161	0	616
-93.004	-84.602	1	16207	0	616
-93.509	-86.296	1	16257	0	616
-90.408	-87.847	1	16299	0	616
-90.552	-91.525	1	16364	0	616
-94.086	-98.197	1	16450	0	616
-102.524	-108.258	1	16540	0	616
-110.278	-114.389	1	16615	0	616
-114.533	-118.464	1	16684	0	616
-114.894	-119.329	1	16740	0	616
-114.208	-120.627	1	16745	0	616
-112.586	-123.621	1	16697	0	616
-113.127	-125.279	1	16644	0	616
-112.153	-124.558	1	16599	0	616
-107.429	-119.654	1	16528	0	616
-103.065	-113.523	1	16415	0	616
-99.387	-108.943	1	16293	0	616
-98.990	-110.314	1	16217	0	616
-99.135	-112.441	1	16220	0	616
-98.882	-112.946	1	16282	0	616
-96.935	-111.179	1	16366	0	616
-92.355	-104.255	1	16429	0	616
-89.290	-99.026	1	16500	0	616
-86.405	-95.673	1	16580	0	616
-84.565	-95.240	1	16653	0	616
-81.356	-94.879	1	16707	0	616
-78.363	-91.525	1	16732	0	616
-74.576	-86.332	1	16743	0	616
-74.035	-81.644	1	16766	0	616
-73.242	-81.248	1	16824	0	616
-76.199	-84.457	1	16905	0	616
-78.146	-87.162	1	16974	0	616
-78.002	-87.991	1	17012	0	616
-77.786	-84.421	16384	17031	0	616
-75.586	-80.418	32768	17058	0	616
-74.576	-77.750	32768	17100	0	616
-74.973	-76.415	32768	17118	0	616
-74.216	-74.071	32768	17102	0	616
-72.268	-69.455	32768	17066	0	616
-67.977	-64.154	32768	17024	0	616
-61.846	-61.197	32768	16974	0	616
-55.499	-59.358	32768	16922	0	616
-49.116	-57.266	32768	16876	0	616
-43.310	-51.461	32768	16799	0	616
-36.351	-42.625	32768	16661	0	616
-32.023	-35.737	32768	16480	0	616
-31.951	-35.305	32768	16320	0	616
-33.826	-42.337	32768	16176	0	616
-36.278	-52.290	32768	16002	0	616
-37.144	-58.925	32768	15783	0	616
-35.665	-60.728	16384	15572	0	616
-33.466	-57.663	1	15449	0	616
-32.312	-53.696	1	15435	0	616
-31.410	-49.802	1	15476	0	616
-31.446	-47.349	1	15508	0	616
-31.122	-45.294	1	15508	0	616
-32.312	-43.383	1	15501	0	616
-32.961	-40.786	1	15512	0	616
-32.384	-37.901	1	15549	0	616
-30.653	-34.006	1	15587	0	616
-27.443	-30.977	1	15614	0	616
-26.506	-30.004	1	15648	0	616
-26.794	-30.184	1	15704	0	616
-24.702	-30.112	1	15775	0	616
-19.726	-30.508	1	15835	0	616
-13.848	-31.302	1	15871	0	616
-9.340	-34.800	1	15900	0	616
-9.809	-39.704	1	15946	0	616
-11.360	-42.301	1	16011	0	616
-11.720	-39.993	1	16067	0	616
-8.511	-36.819	1	16109	0	616
-4.364	-35.377	1	16144	0	616
-2.849	-37.252	1	16178	0	616
-2.560	-39.163	1	16213	0	616
-2.416	-36.819	1	16257	0	616
0.505	-30.472	1	16297	0	616
2.452	-24.594	1	16324	0	616
1.803	-22.575	1	16332	0	616
1.046	-22.647	1	16309	0	616
2.056	-21.637	1	16278	0	616
5.229	-15.038	1	16276	0	616
10.169	-6.275	1	16316	0	616
13.163	1.190	1	16380	0	616
13.091	3.931	1	16423	0	616
7.934	2.596	1	16469	0	616
3.282	0.325	1	16582	0	616
-2.272	-3.101	1	16761	0	616
-7.104	-5.085	1	16949	0	616
-10.314	-2.380	1	17116	0	616
-6.888	2.813	1	17256	0	616
-2.236	10.242	1	17390	0	616
5.013	16.516	1	17532	0	616
9.665	17.815	1	17651	0	616
6.455	11.756	1	17711	0	616
-0.325	1.731	1	17738	0	616
-7.573	-6.888	1	17782	0	616
-8.366	-8.222	32768	17845	0	616
-3.029	-3.967	32768	17912	0	616
3.642	2.488	32768	17983	0	616
6.708	6.311	32768	18037	0	616
1.623	1.479	32768	18072	0	616
-5.878	-6.996	32768	18110	0	616
-12.189	-15.507	32768	18164	0	616
-16.949	-20.519	32768	18225	0	616
-19.510	-22.142	32768	18250	0	616
-22.431	-22.503	32768	18181	0	616
-26.361	-21.241	32768	18018	0	616
-29.751	-20.988	32768	17857	0	616
-35.016	-25.856	32768	17732	0	616
-44.248	-36.495	32768	17599	1	620
-56.834	-51.352	32768	17450	0	620
-67.544	-66.102	32768	17310	0	620
-72.124	-72.521	32768	17175	0	620
-68.554	-71.403	32768	17056	0	620
-61.702	-65.308	32768	16981	0	620
-55.427	-59.827	32768	16928	0	620
-53.768	-55.283	32768	16816	0	620
-55.427	-54.886	32768	16621	0	620
-54.598	-53.047	32768	16390	0	620
-52.903	-50.739	32768	16186	0	620
-49.693	-49.693	32768	16040	0	620
-46.556	-46.592	32768	15934	0	620
-45.655	-45.727	32768	15808	0	620
-45.186	-44.284	32768	15633	0	620
-43.527	-41.039	32768	15474	0	620
-38.803	-37.000	32768	15389	0	620
-36.531	-33.826	32768	15357	0	620
-36.423	-33.285	32768	15336	0	620
-39.235	-34.331	32768	15305	0	620
-42.120	-35.052	32768	15282	0	620
-40.029	-31.266	32768	15293	0	620
-35.052	-24.306	32768	15336	0	620
-26.974	-17.418	32768	15376	0	620
-19.257	-12.441	32768	15389	0	620
-13.740	-11.396	32768	15391	0	620
-10.638	-9.917	32768	15418	0	620
-9.304	-11.071	32768	15487	0	620
-13.920	-15.507	32768	15587	0	620
-21.277	-20.988	32768	15679	0	620
-27.299	-30.508	32768	15741	0	620
-33.970	-38.478	32768	15787	0	620
-39.199	-44.248	32768	15827	0	620
-45.799	-49.621	32768	15863	0	620
-54.634	-56.185	32768	15881	0	620
-64.623	-62.027	32768	15890	0	620
-71.908	-68.374	32768	15898	0	620
-75.550	-71.475	32768	15902	0	620
-74.901	-71.944	32768	15890	0	620
-74.144	-70.609	32768	15867	0	620
-73.062	-70.249	32768	15821	0	620
-74.144	-70.754	32768	15731	0	620
-77.353	-73.891	32768	15618	0	620
-78.868	-77.281	32768	15533	0	620
-83.051	-82.943	32768	15493	0	620
-87.955	-89.506	32768	15483	0	620
-94.230	-95.817	32768	15512	0	620
-99.964	-99.495	32768	15552	0	620
-101.695	-99.207	32768	15589	0	620
-95.673	-93.545	32768	15664	0	620
-89.217	-87.847	32768	15794	0	620
-81.284	-82.149	32768	15948	0	620
-80.022	-82.474	32768	16109	0	620
-83.664	-85.539	32768	16253	0	620
-86.621	-88.857	32768	16374	0	620
-86.188	-88.713	32768	16471	0	620
-79.373	-83.628	32768	16544	0	620
-71.511	-74.180	32768	16576	0	620
-65.308	-65.921	32768	16573	0	620
-64.515	-61.378	32768	16565	0	620
-65.777	-60.945	32768	16563	0	620
-64.731	-59.935	32768	16573	0	620
-57.916	-57.699	32768	16582	0	620
-49.261	-55.391	32768	16538	0	620
-43.851	-54.562	32768	16392	0	620
-44.212	-58.961	32768	16188	0	620
-48.539	-64.623	32768	16038	0	620
-52.398	-68.590	32768	15965	0	620
-51.461	-66.643	32768	15911	0	620
-47.890	-61.558	32768	15858	0	620
-46.051	-57.591	32768	15827	0	620
-52.074	-58.384	32768	15825	0	620
-59.899	-64.190	32768	15863	0	620
-66.210	-69.564	32768	15961	0	620
-65.813	-67.616	32768	16098	0	620
-61.558	-60.332	32768	16195	0	620
-56.473	-50.667	32768	16203	0	620
-56.149	-45.871	32768	16151	0	620
-57.916	-47.133	32768	16098	0	620
-57.988	-49.225	32768	16071	0	620
-52.867	-45.222	32768	16055	0	620
-46.412	-37.036	16384	16044	0	620
-39.668	-26.614	1	16038	0	620
-34.836	-18.356	1	16036	0	620
-29.174	-12.261	1	16055	0	620
-23.332	-6.347	1	16098	0	620
-15.651	-0.036	1	16138	0	620
-12.333	4.219	1	16149	0	620
-13.379	2.164	1	16144	0	620
-21.313	-6.816	1	16140	0	620
-32.420	-19.654	1	16138	0	620
-42.301	-33.249	1	16134	0	620
-51.244	-43.960	1	16117	0	620
-56.040	-49.621	1	16098	0	620
-58.709	-53.083	1	16090	0	620
-63.830	-56.581	1	16109	0	620
-69.564	-62.748	1	16147	0	620
-76.560	-69.816	1	16140	0	620
-82.041	-75.514	1	16057	0	620
-83.448	-76.920	1	15929	0	620
-83.556	-76.451	1	15838	0	620
-82.257	-75.045	1	15792	0	620
-79.661	-74.252	1	15760	0	620
-76.524	-72.629	1	15746	0	620
-72.124	-69.023	1	15758	0	620
-68.085	-64.082	1	15792	0	620
-66.030	-60.440	1	15850	0	620
-66.102	-58.601	1	15954	0	620
-65.741	-59.791	1	16092	0	620
-67.039	-60.476	1	16209	0	620
-68.518	-61.918	1	16255	0	620
-70.141	-63.072	1	16245	0	620
-71.331	-63.217	1	16243	0	620
-69.744	-60.404	1	16286	0	620
-66.823	-59.250	1	16372	0	620
-66.931	-58.709	1	16457	0	620
-70.357	-62.423	1	16511	0	620
-78.399	-69.492	1	16553	0	620
-86.693	-77.101	1	16634	0	620
-88.749	-78.796	1	16780	0	620
-84.926	-76.379	1	16943	0	620
-78.146	-68.374	1	17083	0	620
-72.990	-62.387	1	17219	0	620
-73.963	-60.837	1	17375	0	620
-78.651	-64.984	1	17546	0	620
-82.113	-68.121	1	17699	0	620
-79.445	-67.364	1	17816	0	620
-69.852	-60.548	1	17926	0	620
-58.673	-47.999	1	18066	0	620
-48.539	-36.964	1	18246	0	620
-40.317	-29.715	1	18434	0	620
-34.151	-26.433	1	18590	0	620
-27.010	-23.332	1	18707	0	620
-20.123	-20.952	1	18805	0	620
-15.471	-18.644	32768	18897	0	620
-17.021	-18.536	32768	18981	0	620
-20.772	-20.087	32768	19039	0	620
-20.988	-20.375	32768	19070	0	620
-12.333	-12.730	32768	19083	0	620
10.025	6.275	32768	19081	0	620
38.983	32.961	32768	19054	0	620
61.305	54.598	32768	18968	0	620
68.987	63.253	32768	18797	0	620
54.742	50.523	32768	18553	1	572
26.037	22.719	32768	18256	0	572
-7.537	-9.412	32768	17935	0	572
-34.367	-35.593	32768	17638	0	572
-49.405	-48.251	32768	17381	0	572
-55.968	-53.228	32768	17129	0	572
-56.906	-56.113	32768	16845	0	572
-59.394	-61.161	32768	16536	0	572
-64.767	-68.662	32768	16255	0	572
-71.367	-76.127	32768	16036	0	572
-75.838	-79.084	32768	15877	0	572
-77.245	-80.815	32768	15737	0	572
-76.415	-80.887	32768	15585	0	572
-75.298	-84.421	32768	15433	0	572
-75.009	-88.929	32768	15297	0	572
-75.875	-95.348	32768	15176	0	572
-80.743	-100.902	32768	15057	0	572
-87.270	-108.078	32768	14923	0	572
-96.646	-116.516	32768	14810	0	572
-106.491	-124.775	32768	14756	0	572
-111.720	-129.643	32768	14781	0	572
-111.323	-130.436	32768	14854	0	572
-108.907	-127.804	32768	14929	0	572
-106.203	-123.729	32768	14969	0	572
-107.032	-122.827	32768	14929	0	572
-108.258	-123.044	32768	14848	0	572
-107.573	-121.962	32768	14829	0	572
-103.173	-118.211	32768	14883	0	572
-96.682	-112.550	32768	14967	0	572
-89.578	-104.652	32768	15078	0	572
-83.411	-96.935	32768	15211	0	572
-78.363	-90.408	32768	15347	0	572
-72.340	-83.916	32768	15472	0	572
-68.698	-77.930	32768	15581	0	572
-65.020	-71.295	32768	15660	0	572
-61.918	-63.036	32768	15693	0	572
-56.762	-55.427	32768	15691	0	572
-54.345	-49.549	32768	15714	0	572
-53.768	-50.234	32768	15785	0	572
-58.384	-53.877	32768	15858	0	572
-65.669	-64.695	32768	15883	0	572
-74.144	-73.711	32768	15883	0	572
-79.841	-82.834	32768	15923	0	572
-82.510	-85.755	32768	16000	0	572
-82.618	-84.565	32768	16080	0	572
-84.025	-82.366	32768	16153	0	572
-86.621	-81.392	32768	16220	0	572
-90.047	-80.490	32768	16288	0	572
-91.489	-80.490	32768	16374	0	572
-88.785	-76.343	32768	16475	0	572
-81.356	-71.259	32768	16567	0	572
-75.370	-67.256	32768	16615	0	572
-72.593	-65.885	32768	16642	0	572
-72.160	-68.121	32768	16690	0	572
-69.744	-67.977	32768	16763	0	572
-63.072	-64.695	32768	16826	0	572
-52.759	-57.303	32768	16837	0	572
-43.960	-48.792	32768	16818	0	572
-38.947	-40.858	32768	16807	0	572
-36.711	-37.360	32768	16820	0	572
-34.692	-35.197	32768	16837	0	572
-30.040	-33.826	32768	16822	0	572
-22.972	-31.807	32768	16778	0	572
-19.690	-32.167	32768	16713	0	572
-19.690	-34.043	32768	16621	0	572
-24.775	-36.278	32768	16511	0	572
-29.607	-37.432	32768	16411	0	572
-34.043	-37.937	32768	16305	0	572
-36.278	-39.055	32768	16165	0	572
-38.514	-43.924	32768	16030	0	572
-40.137	-47.386	32768	15942	0	572
-43.455	-48.648	32768	15925	0	572
-42.589	-45.186	32768	15965	0	572
-39.019	-37.937	32768	15984	0	572
-35.593	-32.203	32768	15927	0	572
-31.518	-29.210	32768	15829	0	572
-28.489	-29.895	32768	15760	0	572
-28.597	-30.112	32768	15744	0	572
-29.607	-31.049	32768	15754	0	572
-27.876	-28.453	32768	15741	0	572
-25.929	-22.142	32768	15698	0	572
-20.591	-13.884	32768	15681	0	572
-13.054	-5.878	32768	15712	0	572
-6.239	-1.947	32768	15764	0	572
-1.190	-1.587	32768	15808	0	572
-0.108	-4.472	32768	15833	0	572
-0.144	-5.301	32768	15860	0	572
0.216	-3.787	32768	15923	0	572
1.551	0.613	32768	16025	0	572
1.118	3.895	32768	16124	0	572
-3.462	2.524	32768	16176	0	572
-12.009	-1.839	32768	16190	0	572
-22.106	-5.373	32768	16186	0	572
14.136	17.310	32768	16561	0	628
11.900	17.887	32768	16565	0	628
12.045	18.752	32768	16551	0	628
14.497	22.070	32768	16519	0	628
15.074	23.981	32768	16480	0	628
13.631	24.883	32768	16421	0	628
14.605	25.099	32768	16318	0	628
16.192	25.676	32768	16178	0	628
22.755	29.751	32768	16061	0	628
26.830	34.800	32768	15988	0	628
26.433	38.514	32768	15944	0	628
22.178	37.036	32768	15894	0	628
15.002	32.131	32768	15831	0	628
9.629	23.440	32768	15796	0	628
5.770	14.100	32768	15815	0	628
1.623	8.258	32768	15863	0	628
-5.373	3.318	32768	15911	0	628
-15.939	-1.839	32768	15948	0	628
-26.181	-6.960	32768	15996	0	628
-33.826	-13.163	32768	16076	0	628
-38.226	-18.608	32768	16186	0	628
-39.163	-20.772	32768	16305	0	628
-40.281	-20.844	32768	16394	0	628
-42.120	-20.303	32768	16471	0	628
-43.960	-21.204	32768	16580	0	628
-46.051	-23.945	32768	16743	0	628
-46.628	-26.181	32768	16941	0	628
-44.248	-25.893	32768	17139	0	628
-42.661	-25.027	32768	17338	0	628
-39.344	-24.162	32768	17540	0	628
-37.721	-27.371	32768	17736	0	628
-36.603	-29.859	32768	17924	0	628
-35.990	-31.374	32768	18095	0	628
-30.508	-27.047	32768	18227	0	628
-26.001	-18.608	32768	18310	0	628
-22.322	-11.143	32768	18392	0	628
-21.926	-9.989	32768	18500	0	628
-23.476	-14.028	32768	18615	0	628
-22.358	-18.211	32768	18726	0	628
-18.103	-19.113	32768	18824	0	628
-14.569	-16.552	32768	18899	0	628
-15.723	-15.759	32768	18966	0	628
-27.443	-21.385	32768	19070	0	628
-43.166	-32.420	32768	19204	0	628
-55.499	-43.527	32768	19304	0	628
-59.791	-49.585	32768	19327	0	628
-55.716	-48.251	32768	19281	0	628
-50.523	-46.268	32768	19191	0	628
-47.710	-43.166	32768	19058	0	628
-50.343	-41.724	32768	18855	0	628
-53.768	-38.082	32768	18615	1	644
-55.932	-33.718	32768	18375	0	644
-54.201	-28.886	32768	18150	0	644
-49.405	-25.532	32768	17930	0	644
-44.176	-24.414	32768	17720	0	644
-37.577	-22.286	32768	17511	0	644
-31.915	-19.293	32768	17294	0	644
-29.282	-14.100	32768	17062	0	644
-28.633	-8.294	32768	16814	0	644
-27.371	-4.832	32768	16569	0	644
-26.073	-2.452	32768	16368	0	644
-20.411	-0.577	32768	16188	0	644
-13.487	1.551	32768	16015	0	644
-7.862	4.255	32768	15854	0	644
-6.131	3.390	32768	15725	0	644
-9.088	1.118	32768	15631	0	644
-15.182	-5.121	32768	15564	0	644
-22.286	-12.838	32768	15506	0	644
-28.850	-20.195	32768	15428	0	644
-32.925	-24.270	32768	15324	0	644
-34.367	-25.676	32768	15213	0	644
-33.898	-24.378	32768	15113	0	644
-32.816	-21.818	32768	15032	0	644
-31.735	-20.664	32768	14952	0	644
-33.466	-23.909	32768	14848	0	644
-37.468	-28.489	32768	14746	0	644
-39.560	-32.095	32768	14725	0	644
-40.029	-30.184	32768	14800	0	644
-37.865	-26.938	32768	14894	0	644
-34.944	-21.277	32768	14948	0	644
-32.167	-17.310	32768	14971	0	644
-27.010	-14.930	32768	14988	0	644
-21.998	-10.638	32768	15028	0	644
-14.317	-6.527	32768	15098	0	644
-9.556	-0.505	32768	15178	0	644
-7.429	4.111	32768	15228	0	644
-7.537	7.104	32768	15270	0	644
-5.806	10.710	32768	15336	0	644
-2.705	10.710	32768	15433	0	644
-3.750	7.465	32768	15535	0	644
-9.629	-1.262	32768	15616	0	644
-19.546	-12.730	32768	15687	0	644
-32.564	-22.358	32768	15767	0	644
-39.596	-25.856	32768	15865	0	644
-38.695	-24.847	32768	15963	0	644
-33.105	-19.473	32768	16028	0	644
-28.092	-14.569	32768	16078	0	644
-24.702	-13.235	32768	16136	0	644
-27.660	-15.651	32768	16209	0	644
-30.725	-20.050	32768	16284	0	644
-31.699	-23.224	32768	16336	0	644
-28.633	-22.755	32768	16349	0	644
-22.142	-17.887	32768	16318	0	644
-17.490	-10.422	32768	16274	0	644
-14.461	-5.770	32768	16257	0	644
-11.612	-3.318	32768	16268	0	644
-9.520	-2.236	32768	16286	0	644
-6.383	-0.793	32768	16286	0	644
-2.344	2.813	32768	16230	0	644
0.144	7.357	32768	16121	0	644
1.731	10.314	32768	16009	0	644
3.678	12.910	32768	15938	0	644
5.013	13.307	32768	15913	0	644
2.921	9.737	32768	15890	0	644
-2.633	4.724	32768	15840	0	644
-10.097	-2.633	32768	15792	0	644
-17.670	-9.124	32768	15787	0	644
-21.385	-14.749	32768	15817	0	644
-21.457	-17.526	32768	15838	0	644
-21.421	-19.546	32768	15821	0	644
-21.313	-21.168	32768	15800	0	644
-22.683	-22.106	32768	15810	0	644
-23.693	-21.890	32768	15838	0	644
-25.352	-22.286	32768	15850	0	644
-23.296	-19.618	32768	15852	0	644
-20.627	-16.913	32768	15867	0	644
-18.572	-12.802	32768	15909	0	644
-15.975	-10.278	32768	15979	0	644
-12.081	-8.222	32768	16071	0	644
-9.088	-7.537	32768	16147	0	644
-2.993	-4.075	32768	16190	0	644
3.750	1.154	32768	16228	0	644
11.684	8.402	32768	16270	0	644
17.274	16.120	32768	16316	0	644
23.621	22.972	32768	16343	0	644
29.535	28.850	32768	16347	0	644
35.233	34.728	32768	16341	0	644
39.921	40.894	32768	16330	0	644
44.464	47.674	32768	16307	0	644
48.107	54.598	32768	16249	0	644
49.225	56.726	32768	16117	0	644
48.215	53.624	32768	15925	0	644
43.743	44.645	32768	15739	0	644
38.695	32.636	32768	15614	0	644
33.249	25.279	32768	15547	0	644
31.662	23.981	32768	15535	0	644
31.085	25.712	32768	15568	0	644
29.931	27.371	32768	15604	0	644
22.142	23.476	32768	15622	0	644
12.802	16.408	32768	15673	0	644
2.993	12.189	32768	15771	0	644
-0.108	13.884	32768	15877	0	644
2.488	20.014	32768	15969	0	644
6.599	24.811	32768	16050	0	644
10.097	23.981	32768	16144	0	644
8.907	19.401	32768	16270	0	644
8.222	14.785	32768	16415	0	644
8.294	13.595	32768	16563	0	644
10.746	17.815	32768	16690	0	644
11.900	21.349	32768	16801	0	644
12.694	23.873	32768	16914	0	644
13.199	25.243	32768	17037	0	644
16.444	29.246	32768	17154	0	644
21.962	35.593	32768	17223	0	644
26.578	40.137	32768	17237	0	644
27.768	40.786	32768	17231	0	644
21.854	32.600	32768	17225	0	644
11.937	21.565	32768	17204	0	644
2.705	12.333	32768	17168	0	644
-4.436	8.258	32768	17137	0	644
-6.491	11.648	32768	17104	0	644
-6.239	14.245	32768	17041	0	644
-4.724	15.038	32768	16962	0	644
-2.128	11.792	32768	16870	0	644
-1.767	7.212	32768	16761	0	644
-1.875	2.633	32768	16609	0	644
-2.488	1.406	32768	16425	0	644
-5.013	1.983	32768	16266	0	644
-7.681	1.803	32768	16157	0	644
-10.602	1.623	32768	16092	0	644
-11.107	-0.072	32768	16067	0	644
-10.783	-0.613	32768	16067	0	644
-6.780	1.803	32768	16076	0	644
-0.974	6.058	32768	16113	0	644
1.839	8.042	32768	16211	0	644
1.803	7.681	32768	16374	0	644
-2.164	1.947	32768	16559	0	644
-6.527	-4.219	32768	16734	0	644
-9.124	-8.078	32768	16912	0	644
-11.179	-8.907	32768	17123	0	644
-10.891	-7.753	32768	17363	0	644
-14.208	-9.484	32768	17605	0	644
-19.546	-13.379	32768	17826	0	644
-26.506	-19.546	32768	18029	0	644
-32.348	-24.414	32768	18233	0	644
-35.954	-28.597	32768	18450	0	644
-38.118	-30.869	32768	18663	0	644
-39.921	-34.223	32768	18837	0	644
-42.409	-38.118	32768	18962	0	644
-43.671	-39.812	32768	19062	0	644
-44.392	-41.507	32768	19150	0	644
-42.517	-39.308	32768	19210	0	644
-38.226	-36.278	32768	19227	0	644
-34.692	-33.033	32768	19162	0	644
-31.194	-27.696	32768	19012	0	644
-29.571	-22.575	32768	18841	0	644
-28.164	-17.562	32768	18690	0	644
-29.427	-16.228	32768	18553	1	628
-31.230	-17.959	32768	18417	0	628
-30.725	-21.168	32768	18277	0	628
-29.679	-23.152	32768	18123	0	628
-26.866	-20.772	32768	17964	0	628
-24.955	-16.913	32768	17845	0	628
-26.578	-15.326	32768	17770	0	628
-30.292	-18.247	32768	17684	0	628
-36.278	-23.368	32768	17544	0	628
-40.101	-29.823	32768	17346	0	628
-42.193	-31.194	32768	17123	0	628
-43.924	-31.158	32768	16903	0	628
-43.599	-31.266	32768	16686	0	628
-43.887	-31.122	32768	16463	0	628
-40.606	-29.535	32768	16230	0	628
-37.036	-26.866	32768	16005	0	628
-33.574	-21.818	32768	15812	0	628
-30.112	-17.670	32768	15652	0	628
-30.328	-16.480	32768	15508	0	628
-29.787	-18.320	32768	15362	0	628
-28.381	-19.798	32768	15224	0	628
-25.532	-18.716	32768	15103	0	628
-21.926	-17.166	32768	14986	0	628
-20.772	-14.858	32768	14858	0	628
-20.375	-14.425	32768	14729	0	628
-20.844	-13.163	32768	14625	0	628
-20.627	-13.992	32768	14558	0	628
-19.257	-15.254	32768	14533	0	628
-19.365	-17.021	32768	14545	0	628
-23.260	-22.070	32768	14585	0	628
-29.823	-29.138	32768	14643	0	628
-38.262	-33.393	32768	14689	0	628
-43.707	-34.511	32768	14710	0	628
-44.032	-29.931	32768	14723	0	628
-38.911	-21.385	32768	14739	0	628
-33.105	-14.569	32768	14773	0	628
-30.112	-10.422	32768	14804	0	628
-32.564	-14.605	32768	14796	0	628
-37.541	-20.880	32768	14773	0	628
-40.822	-25.856	32768	14831	0	628
-40.065	-27.119	32768	14990	0	628
-33.105	-21.926	32768	15163	0	628
-26.217	-14.749	32768	15286	0	628
-21.024	-9.304	32768	15364	0	628
-20.195	-6.708	32768	15433	0	628
-20.014	-8.078	32768	15508	0	628
-19.798	-7.573	32768	15581	0	628
-16.552	-5.301	32768	15637	0	628
-11.756	0.685	32768	15662	0	628
-7.176	7.429	32768	15660	0	628
-2.669	13.127	32768	15610	0	628
1.983	16.336	32768	15529	0	628
7.140	18.824	32768	15483	0	628
12.189	19.437	32768	15491	0	628
13.091	19.149	32768	15533	0	628
13.704	19.293	32768	15608	0	628
15.002	22.899	32768	15731	0	628
19.582	28.417	32768	15881	0	628
24.414	35.593	32768	16017	0	628
29.859	42.265	32768	16115	0	628
35.052	46.304	32768	16147	0	628
40.750	49.369	32768	16059	0	628
48.071	52.254	32768	15879	0	628
53.624	56.004	32768	15723	0	628
56.329	60.043	32768	15677	0	628
58.312	63.758	32768	15714	0	628
60.368	67.652	32768	15773	0	628
62.784	69.492	32768	15833	0	628
63.794	68.518	32768	15911	0	628
60.440	66.390	32768	16005	0	628
55.572	63.433	32768	16090	0	628
54.634	65.164	32768	16138	0	628
57.952	70.105	32768	16159	0	628
64.082	75.370	32768	16195	0	628
68.193	76.488	32768	16261	0	628
67.941	73.494	32768	16349	0	628
64.803	67.905	32768	16423	0	628
60.115	62.459	32768	16484	0	628
58.132	61.269	32768	16563	0	628
58.745	60.115	32768	16672	0	628
60.188	58.709	32768	16770	0	628
59.070	54.778	32768	16841	0	628
54.273	49.838	32768	16880	0	628
47.169	45.041	32768	16905	0	628
39.199	40.678	32768	16937	0	628
33.826	39.704	32768	16964	0	628
31.951	38.695	32768	16968	0	628
32.564	38.803	32768	16939	0	628
33.898	36.675	32768	16882	0	628
33.646	32.456	32768	16816	0	628
32.853	27.083	32768	16768	0	628
30.436	22.431	32768	16736	0	628
27.984	19.221	32768	16682	0	628
26.794	19.618	32768	16605	0	628
28.994	22.322	32768	16525	0	628
33.033	25.784	32768	16457	0	628
36.314	28.309	32768	16396	0	628
37.252	27.191	32768	16355	0	628
32.816	23.188	32768	16322	0	628
24.306	15.507	32768	16280	0	628
13.523	7.898	32768	16220	0	628
7.176	0.577	32768	16151	0	628
2.849	-4.796	32768	16084	0	628
1.262	-10.133	32768	16013	0	628
-1.551	-14.785	32768	15929	0	628
-6.058	-17.346	32768	15825	0	628
-11.828	-18.969	32768	15725	0	628
-13.343	-17.382	32768	15652	0	628
-11.648	-14.425	32768	15608	0	628
-8.114	-10.530	32768	15581	0	628
-6.455	-12.333	32768	15545	0	628
-11.648	-16.841	32768	15493	0	628
-21.601	-24.919	32768	15466	0	628
-28.886	-31.699	32768	15478	0	628
-31.951	-35.016	32768	15510	0	628
-28.164	-34.331	32768	15526	0	628
-22.142	-31.590	32768	15516	0	628
-21.024	-30.977	32768	15499	0	628
-22.863	-32.672	32768	15508	0	628
-26.181	-32.564	32768	15543	0	628
-27.804	-32.672	32768	15579	0	628
-26.578	-32.816	32768	15597	0	628
-26.109	-33.898	32768	15604	0	628
-28.164	-37.505	32768	15616	0	628
-31.122	-41.363	32768	15648	0	628
-32.384	-40.173	32768	15691	0	628
-30.833	-36.098	32768	15731	0	628
-28.850	-29.931	32768	15762	0	628
-28.886	-25.748	32768	15798	0	628
-27.840	-27.551	32768	15829	0	628
-26.433	-27.912	32768	15854	0	628
-23.332	-29.679	32768	15879	0	628
-20.844	-30.112	32768	15894	0	628
-23.296	-27.876	32768	15902	0	628
-28.237	-27.479	32768	15952	0	628
-34.403	-25.568	32768	16065	0	628
-35.269	-23.981	32768	16228	0	628
-30.256	-21.493	32768	16432	0	628
-25.171	-19.546	32768	16665	0	628
-21.926	-19.185	32768	16918	0	628
-23.332	-21.493	32768	17208	0	628
-28.128	-23.296	32768	17573	0	628
-29.787	-24.162	32768	17999	0	628
-27.515	-21.060	32768	18417	0	628
-20.159	-16.156	32768	18763	0	628
-13.415	-9.520	32768	19035	0	628
-11.432	-8.330	32768	19262	0	628
-14.749	-11.215	32768	19454	0	628
-22.467	-18.320	32768	19590	0	628
-30.725	-24.847	32768	19670	0	628
-35.774	-29.895	32768	19728	0	628
-37.360	-29.751	32768	19784	0	628
-36.278	-26.722	32768	19839	0	628
-33.826	-24.955	32768	19878	0	628
-31.158	-24.486	32768	19887	0	628
-28.814	-25.027	32768	19839	0	628
-26.217	-26.397	32768	19749	0	628
-25.532	-24.811	32768	19644	0	628
-26.325	-23.909	32768	19536	0	628
-28.056	-24.270	32768	19404	1	636
-29.931	-26.145	32768	19214	0	636
-27.047	-28.525	32768	18987	0	636
-23.080	-28.489	32768	18745	0	636
-19.473	-25.820	32768	18502	0	636
-20.375	-23.729	32768	18256	0	636
-25.243	-22.539	32768	17995	0	636
-30.725	-23.116	32768	17709	0	636
-32.456	-24.450	32768	17411	0	636
-30.617	-23.981	32768	17079	0	636
-27.876	-22.178	32768	16728	0	636
-27.155	-19.690	32768	16444	0	636
-27.479	-19.401	32768	16282	0	636
-29.931	-19.401	32768	16142	0	636
-28.850	-19.149	32768	15936	0	636
-28.273	-17.959	32768	15689	0	636
-27.479	-15.795	32768	15476	0	636
-28.128	-14.353	32768	15324	0	636
-28.201	-16.661	32768	15224	0	636
-26.542	-20.195	32768	15138	0	636
-24.666	-23.188	32768	15030	0	636
-22.647	-24.162	32768	14921	0	636
-21.781	-20.123	32768	14860	0	636
-24.775	-17.093	32768	14835	0	636
-26.470	-13.091	32768	14806	0	636
-28.705	-12.514	32768	14773	0	636
-27.515	-13.199	32768	14735	0	636
-25.640	-14.713	32768	14664	0	636
-23.152	-13.451	32768	14543	0	636
-21.781	-13.884	32768	14405	0	636
-23.801	-14.966	32768	14301	0	636
-26.758	-17.995	32768	14240	0	636
-30.436	-21.781	32768	14236	0	636
-31.338	-23.765	32768	14301	0	636
-33.574	-25.460	32768	14420	0	636
-32.925	-26.902	32768	14556	0	636
-30.040	-30.112	32768	14675	0	636
-25.316	-30.220	32768	14773	0	636
-15.543	-26.686	32768	14873	0	636
-7.032	-16.985	32768	15000	0	636
-0.541	-7.212	32768	15149	0	636
1.515	-0.036	32768	15301	0	636
0.577	0.829	32768	15445	0	636
0.036	-1.659	32768	15562	0	636
1.442	-4.436	32768	15673	0	636
5.121	-3.895	32768	15835	0	636
11.107	-0.505	32768	16038	0	636
16.444	6.022	32768	16180	0	636
21.529	10.999	32768	16222	0	636
23.224	14.785	32768	16209	0	636
23.296	16.877	32768	16203	0	636
23.152	17.202	32768	16236	0	636
23.368	17.598	32768	16299	0	636
25.748	15.867	32768	16351	0	636
27.191	15.218	32768	16357	0	636
25.316	10.638	32768	16347	0	636
20.014	7.140	32768	16353	0	636
12.405	1.947	32768	16372	0	636
6.203	-0.036	32768	16376	0	636
3.137	-2.308	32768	16359	0	636
2.957	-1.983	32768	16334	0	636
3.570	-1.406	32768	16322	0	636
6.239	-2.056	32768	16318	0	636
6.347	-3.823	32768	16295	0	636
4.544	-5.770	32768	16240	0	636
0.613	-10.025	32768	16178	0	636
-5.409	-11.612	32768	16136	0	636
-9.088	-11.107	32768	16124	0	636
-7.104	-7.248	32768	16119	0	636
-4.760	-4.255	32768	16096	0	636
-3.931	-5.193	32768	16053	0	636
-9.016	-9.845	32768	16009	0	636
-15.903	-16.589	32768	15979	0	636
-20.627	-20.123	32768	15963	0	636
-20.591	-20.050	32768	15936	0	636
-17.634	-18.356	32768	15898	0	636
-16.336	-19.654	32768	15854	0	636
-19.798	-24.666	32768	15800	0	636
-27.119	-32.167	32768	15731	0	636
-35.413	-39.416	32768	15664	0	636
-42.048	-43.058	32768	15600	0	636
-46.268	-44.104	32768	15533	0	636
-48.179	-42.157	32768	15468	0	636
-47.638	-39.849	32768	15433	0	636
-44.717	-40.029	32768	15462	0	636
-44.717	-41.147	32768	15539	0	636
-44.753	-45.005	32768	15604	0	636
-45.582	-49.116	32768	15622	0	636
-46.051	-49.802	32768	15600	0	636
-42.301	-47.169	32768	15577	0	636
-35.846	-40.570	32768	15597	0	636
-30.004	-33.033	32768	15656	0	636
-25.820	-29.463	32768	15710	0	636
-24.486	-28.633	32768	15737	0	636
-23.693	-29.787	32768	15756	0	636
-24.198	-32.023	32768	15790	0	636
-24.991	-32.131	32768	15831	0	636
-25.027	-31.446	32768	15865	0	636
-22.827	-30.508	32768	15873	0	636
-19.618	-27.696	32768	15842	0	636
-15.543	-26.794	32768	15750	0	636
-15.507	-26.614	32768	15627	0	636
-19.257	-30.581	32768	15549	0	636
-26.758	-36.639	32768	15514	0	636
-34.403	-43.166	32768	15447	0	636
-41.327	-47.782	32768	15345	0	636
-48.359	-51.172	32768	15301	0	636
-51.497	-50.992	32768	15332	0	636
-51.100	-48.179	32768	15389	0	636
-47.494	-44.392	32768	15441	0	636
-41.471	-38.514	32768	15458	0	636
-34.151	-34.295	32768	15426	0	636
-28.020	-30.472	32768	15422	0	636
-22.791	-27.984	32768	15526	0	636
-17.238	-25.784	32768	15706	0	636
-14.100	-25.099	32768	15854	0	636
-12.946	-24.125	32768	15952	0	636
-10.133	-21.637	32768	16061	0	636
-8.655	-16.625	32768	16234	0	636
-5.373	-13.595	32768	16444	0	636
-4.327	-11.900	32768	16621	0	636
-5.842	-16.625	32768	16718	0	636
-7.032	-22.683	32768	16753	0	636
-7.753	-25.640	32768	16799	0	636
-6.094	-25.604	32768	16868	0	636
-4.436	-21.962	32768	16905	0	636
-7.285	-19.329	32768	16876	0	636
-12.333	-22.755	32768	16818	0	636
-20.700	-28.922	1	16770	0	636
-28.958	-36.711	1	16749	0	636
-33.862	-41.399	1	16761	0	636
-36.134	-42.120	1	16789	0	636
-34.367	-38.045	1	16797	0	636
-30.328	-34.403	1	16770	0	636
-23.621	-29.246	1	16697	0	636
-20.555	-27.443	1	16611	0	636
-18.320	-26.722	1	16584	0	636
-16.949	-25.388	1	16619	0	636
-16.589	-26.325	1	16695	0	636
-15.687	-25.388	1	16811	0	636
-14.461	-24.847	1	16978	0	636
-13.523	-23.981	1	17179	0	636
-11.900	-22.250	1	17384	0	636
-6.888	-21.962	1	17563	0	636
0.144	-18.897	16384	17703	0	636
6.996	-16.192	32768	17820	0	636
10.710	-14.281	32768	17972	0	636
11.937	-10.710	32768	18208	0	636
10.710	-8.727	32768	18507	0	636
9.268	-5.445	32768	18761	0	636
11.612	-2.308	32768	18908	0	636
15.975	0.361	32768	18978	0	636
20.050	1.118	32768	19039	0	636
20.159	-2.200	32768	19123	0	636
16.228	-7.862	32768	19221	0	636
8.402	-11.900	32768	19304	0	636
1.046	-13.199	32768	19350	0	636
-2.092	-10.169	32768	19361	0	636
-0.361	-3.787	32768	19358	0	636
3.823	-1.659	32768	19344	0	636
7.465	-3.534	32768	19283	0	636
8.547	-9.376	32768	19162	0	636
5.770	-15.975	32768	19018	1	648
1.190	-20.772	32768	18878	0	648
-1.983	-21.709	32768	18728	0	648
-1.515	-21.385	32768	18546	0	648
1.623	-20.700	32768	18323	0	648
6.383	-18.788	32768	18077	0	648
11.071	-16.913	32768	17830	0	648
12.586	-13.523	32768	17599	0	648
12.838	-10.386	32768	17394	0	648
10.999	-8.655	32768	17179	0	648
8.799	-6.852	32768	16897	0	648
8.402	-5.301	32768	16555	0	648
9.376	-5.193	32768	16243	0	648
9.304	-4.580	32768	15986	0	648
8.330	-6.960	32768	15750	0	648
3.967	-13.307	32768	15533	0	648
-2.741	-17.562	32768	15339	0	648
-8.943	-22.935	32768	15167	0	648
-14.064	-24.919	32768	15021	0	648
-17.274	-25.171	32768	14900	0	648
-18.680	-25.784	32768	14800	0	648
-20.736	-25.965	32768	14702	0	648
-21.601	-26.470	32768	14572	0	648
-23.693	-28.417	32768	14426	0	648
-25.640	-31.987	32768	14316	0	648
-28.958	-36.314	32768	14253	0	648
-31.843	-39.199	32768	14215	0	648
-32.131	-39.416	32768	14167	0	648
-30.905	-34.223	32768	14113	0	648
-26.325	-26.686	32768	14113	0	648
-20.591	-18.320	32768	14190	0	648
-17.382	-14.245	32768	14301	0	648
-16.516	-14.136	32768	14416	0	648
-17.202	-18.247	32768	14529	0	648
-16.769	-22.178	32768	14652	0	648
-15.939	-24.955	32768	14794	0	648
-14.930	-24.919	32768	14957	0	648
-16.300	-24.342	32768	15134	0	648
-21.601	-27.948	32768	15303	0	648
-28.453	-32.636	32768	15447	0	648
-34.836	-39.163	32768	15577	0	648
-36.603	-42.914	32768	15719	0	648
-32.167	-42.770	32768	15867	0	648
-25.135	-37.252	32768	15988	0	648
-18.969	-30.256	32768	16067	0	648
-16.769	-25.243	32768	16111	0	648
-20.736	-24.775	32768	16136	0	648
-26.109	-29.463	32768	16159	0	648
-29.138	-34.908	32768	16182	0	648
-28.633	-35.485	32768	16199	0	648
-23.945	-31.807	32768	16213	0	648
-19.221	-24.883	32768	16213	0	648
-15.182	-21.421	32768	16213	0	648
-11.756	-19.329	32768	16288	0	648
-10.530	-20.736	32768	16421	0	648
-12.189	-22.683	32768	16498	0	648
-13.992	-22.719	32768	16467	0	648
-15.038	-22.467	32768	16384	0	648
-12.514	-20.988	32768	16311	0	648
-8.294	-19.582	32768	16270	0	648
-6.455	-20.555	32768	16238	0	648
-10.674	-23.945	32768	16197	0	648
-20.591	-30.508	32768	16147	0	648
-29.859	-36.459	32768	16113	0	648
-36.026	-39.849	32768	16098	0	648
-36.242	-40.858	32768	16086	0	648
-33.393	-38.478	32768	16067	0	648
-31.482	-37.108	32768	16034	0	648
-30.436	-35.774	32768	15990	0	648
-31.410	-35.810	32768	15954	0	648
-29.354	-35.810	32768	15931	0	648
-26.650	-34.259	32768	15898	0	648
-20.267	-31.879	32768	15821	0	648
-14.425	-25.748	32768	15679	0	648
-7.609	-20.627	32768	15520	0	648
-3.714	-16.408	32768	15430	0	648
0.469	-12.910	32768	15412	0	648
3.498	-10.602	32768	15416	0	648
6.816	-6.852	32768	15407	0	648
13.091	-0.144	32768	15339	0	648
21.060	8.042	32768	15232	0	648
28.814	16.552	32768	15180	0	648
34.583	21.132	32768	15190	0	648
35.846	23.765	32768	15217	0	648
34.944	22.683	32768	15251	0	648
33.321	21.709	32768	15282	0	648
32.744	20.808	32768	15307	0	648
31.049	21.998	32768	15351	0	648
28.345	22.755	32768	15424	0	648
25.099	23.368	32768	15499	0	648
22.719	24.234	32768	15535	0	648
22.935	24.270	32768	15547	0	648
24.775	22.827	32768	15587	0	648
23.765	19.005	1	15675	0	648
19.546	14.100	1	15796	0	648
15.398	8.871	1	15911	0	648
10.025	5.878	1	15998	0	648
9.845	6.022	1	16082	0	648
11.900	8.979	1	16186	0	648
14.966	10.819	1	16307	0	648
15.254	11.900	1	16425	0	648
14.785	10.746	1	16525	0	648
14.858	10.855	1	16605	0	648
16.841	11.937	1	16672	0	648
21.241	16.228	1	16734	0	648
25.965	20.483	1	16784	0	648
27.840	21.493	1	16818	0	648
26.938	18.175	1	16832	0	648
22.827	13.199	1	16843	0	648
19.149	9.052	1	16868	0	648
16.480	9.304	1	16916	0	648
16.336	10.566	1	16962	0	648
15.759	11.143	1	16995	0	648
11.828	7.140	1	17004	0	648
4.111	0.865	1	16995	0	648
-7.429	-8.294	1	16981	0	648
-16.949	-16.192	1	16949	0	648
-21.241	-21.421	1	16903	0	648
-22.070	-23.909	1	16843	0	648
-18.211	-22.972	1	16738	0	648
-15.110	-19.293	1	16611	0	648
-14.208	-16.805	1	16557	0	648
-14.749	-14.821	1	16586	0	648
-15.471	-14.713	1	16584	0	648
-15.795	-11.828	1	16484	0	648
-13.812	-8.475	1	16328	0	648
-11.071	-3.101	1	16169	0	648
-11.432	-1.983	1	16034	0	648
-16.156	-2.633	1	15898	0	648
-21.601	-5.770	1	15719	0	648
-27.191	-6.888	1	15514	0	648
-29.607	-7.429	1	15343	0	648
-32.600	-6.599	1	15238	0	648
-36.495	-9.376	1	15192	0	648
-43.455	-17.057	1	15178	0	648
-49.766	-24.991	1	15167	0	648
-53.588	-32.600	1	15167	0	648
-53.119	-35.052	1	15190	0	648
-50.775	-36.567	1	15247	0	648
-48.179	-36.278	1	15332	0	648
-47.926	-36.675	1	15418	0	648
-45.763	-38.334	1	15499	0	648
-44.392	-38.045	1	15602	0	648
-41.147	-35.521	1	15733	0	648
-36.351	-32.420	1	15900	0	648
-33.646	-29.715	1	16090	0	648
-32.816	-27.732	1	16278	0	648
-31.699	-25.748	1	16446	0	648
-27.696	-21.457	1	16621	0	648
-20.916	-17.093	1	16816	0	648
-9.881	-9.160	1	17010	0	648
1.731	-3.787	1	17206	0	648
8.691	-0.072	1	17409	0	648
10.494	1.118	1	17586	0	648
9.376	1.154	1	17753	0	648
6.167	0.793	1	17989	0	648
5.157	0.577	1	18273	0	648
4.760	-0.144	1	18496	0	648
6.203	-0.793	1	18630	0	648
10.530	1.190	1	18724	0	648
14.605	7.645	1	18820	0	648
20.664	17.743	1	18910	0	648
24.486	24.270	1	18951	0	648
22.142	24.666	1	18933	0	648
19.005	21.745	1	18887	0	648
18.752	22.395	1	18864	0	648
25.965	30.256	1	18874	0	648
36.928	45.474	1	18903	1	668
49.730	60.909	1	18901	0	668
59.322	69.600	1	18857	0	668
65.092	73.603	1	18784	0	668
69.744	76.884	32768	18697	0	668
74.071	79.805	32768	18596	0	668
78.074	82.834	32768	18475	0	668
82.366	87.739	32768	18313	0	668
86.549	92.066	32768	18114	0	668
87.991	97.331	32768	17922	0	668
90.480	104.003	32768	17763	0	668
90.408	107.285	32768	17632	0	668
88.713	106.852	32768	17505	0	668
88.857	103.246	32768	17358	0	668
88.460	99.423	32768	17185	0	668
86.801	96.827	32768	16997	0	668
84.313	94.158	32768	16811	0	668
80.274	89.434	32768	16615	0	668
76.488	83.015	32768	16415	0	668
72.737	75.370	32768	16209	0	668
69.564	70.429	32768	15971	0	668
66.967	67.905	32768	15735	0	668
62.315	65.994	32768	15585	0	668
58.601	64.299	32768	15495	0	668
54.959	58.889	32768	15366	0	668
52.290	51.893	32768	15174	0	668
48.936	45.871	32768	14975	0	668
47.313	41.688	32768	14817	0	668
44.681	40.786	32768	14710	0	668
42.481	43.310	32768	14654	0	668
38.514	42.589	32768	14639	0	668
32.239	38.045	32768	14637	0	668
24.270	31.302	32768	14648	0	668
17.382	22.683	32768	14683	0	668
11.576	15.002	32768	14731	0	668
5.986	7.753	32768	14777	0	668
-1.551	1.911	32768	14815	0	668
-10.169	-1.839	32768	14852	0	668
-16.264	-1.911	32768	14881	0	668
-17.562	1.479	32768	14871	0	668
-15.939	5.049	32768	14815	0	668
-14.713	3.029	32768	14775	0	668
-16.444	-3.137	32768	14798	0	668
-23.260	-10.133	32768	14877	0	668
-28.164	-15.975	32768	15000	0	668
-31.807	-18.500	32768	15147	0	668
-32.744	-19.690	32768	15282	0	668
-34.583	-22.683	32768	15395	0	668
-35.413	-26.794	32768	15487	0	668
-36.098	-31.122	32768	15570	0	668
-35.088	-32.203	32768	15664	0	668
-33.682	-32.239	32768	15760	0	668
-33.357	-34.403	32768	15850	0	668
-36.134	-38.045	32768	15927	0	668
-40.642	-44.717	1	15961	0	668
-44.681	-50.198	1	15946	0	668
-48.612	-53.660	1	15938	0	668
-51.605	-54.237	1	15954	0	668
-54.093	-54.598	1	15971	0	668
-56.473	-54.634	1	15961	0	668
-59.286	-56.473	1	15940	0	668
-62.495	-57.916	1	15946	0	668
-67.616	-59.935	1	16007	0	668
-71.763	-61.378	1	16103	0	668
-74.793	-61.594	1	16195	0	668
-74.540	-60.188	1	16259	0	668
-70.862	-59.430	1	16318	0	668
-66.571	-56.870	1	16380	0	668
-61.378	-54.093	1	16438	0	668
-57.555	-49.225	1	16488	0	668
-54.165	-43.779	1	16515	0	668
-51.857	-38.190	1	16536	0	668
-47.999	-34.115	1	16580	0	668
-41.976	-31.230	1	16651	0	668
-36.783	-27.227	1	16718	0	668
-30.977	-24.811	1	16715	0	668
-28.633	-22.178	1	16601	0	668
-28.850	-20.916	1	16429	0	668
-31.410	-24.630	1	16318	0	668
-34.079	-28.777	1	16286	0	668
-35.774	-34.980	1	16272	0	668
-37.541	-42.517	1	16253	0	668
-40.714	-48.972	1	16232	0	668
-45.041	-53.913	1	16188	0	668
-52.110	-55.391	1	16109	0	668
-56.149	-56.113	1	16042	0	668
-55.427	-54.562	1	16036	0	668
-49.766	-53.841	1	16053	0	668
-42.337	-53.408	1	16025	0	668
-36.891	-52.146	1	15957	0	668
-36.531	-51.533	1	15902	0	668
-38.731	-48.359	1	15888	0	668
-37.613	-44.825	1	15867	0	668
-33.033	-39.416	1	15806	0	668
-21.781	-30.761	1	15727	0	668
-9.160	-20.772	1	15679	0	668
-1.515	-14.858	1	15679	0	668
0.180	-12.369	1	15721	0	668
-2.633	-13.956	1	15775	0	668
-5.878	-15.759	1	15817	0	668
-4.616	-14.821	1	15888	0	668
-2.993	-12.694	1	16009	0	668
-3.678	-10.819	1	16140	0	668
-8.835	-14.461	1	16243	0	668
-18.031	-20.014	1	16301	0	668
-24.089	-24.991	1	16347	0	668
-26.794	-26.361	1	16400	0	668
-26.974	-26.361	1	16475	0	668
-26.217	-25.135	1	16548	0	668
-26.109	-26.001	1	16596	0	668
-24.450	-26.037	1	16619	0	668
-20.736	-26.578	1	16640	0	668
-17.310	-24.486	1	16665	0	668
-15.326	-23.044	1	16682	0	668
-14.785	-21.168	1	16670	0	668
-16.300	-19.798	1	16636	0	668
-15.182	-17.129	1	16596	0	668
-10.242	-13.163	1	16563	0	668
-2.452	-7.789	1	16532	0	668
8.691	1.551	1	16502	0	668
21.024	15.362	1	16480	0	668
32.961	33.249	1	16432	0	668
43.419	50.487	1	16322	0	668
50.270	61.305	1	16167	0	668
52.001	63.938	1	16036	0	668
50.451	59.106	1	15946	0	668
47.674	55.499	1	15875	0	668
44.537	56.437	1	15792	0	668
45.943	59.863	1	15683	0	668
44.392	61.522	1	15581	0	668
39.163	57.086	1	15533	0	668
27.227	46.123	1	15543	0	668
12.333	34.872	1	15564	0	668
0.938	27.696	1	15560	0	668
-6.203	23.116	1	15560	0	668
-7.753	17.887	1	15587	0	668
-9.412	12.009	1	15614	0	668
-10.999	5.950	1	15612	0	668
-13.343	1.947	1	15589	0	668
-13.091	2.921	1	15585	0	668
-13.415	4.796	1	15631	0	668
-11.828	4.940	1	15729	0	668
-12.982	2.308	1	15854	0	668
-12.369	-0.397	1	15969	0	668
-8.330	0.216	1	16088	0	668
-1.875	5.445	1	16230	0	668
5.662	11.900	1	16406	0	668
9.556	16.661	1	16615	0	668
9.304	16.264	1	16832	0	668
5.806	12.153	1	17045	0	668
-0.361	5.085	1	17265	0	668
-4.472	-0.541	1	17507	0	668
-10.530	-6.960	1	17766	0	668
-17.274	-15.579	1	18010	0	668
-25.099	-24.594	1	18191	0	668
-32.816	-31.987	1	18294	0	668
-37.901	-36.819	1	18338	0	668
-40.858	-39.560	1	18361	0	668
-42.986	-42.734	1	18398	0	668
-46.268	-46.051	1	18469	0	668
-48.792	-49.513	1	18538	0	668
-52.434	-51.316	1	18546	0	668
-54.995	-47.818	1	18475	0	668
-55.860	-44.573	1	18384	0	668
-57.194	-42.157	1	18335	0	668
-55.644	-39.019	1	18335	0	668
-51.280	-35.737	1	18346	1	664
-46.051	-31.158	1	18340	0	664
-39.849	-24.775	1	18327	0	664
-34.583	-19.113	1	18327	0	664
-31.915	-14.100	1	18327	0	664
-30.653	-11.107	1	18281	0	664
-31.122	-10.746	1	18162	0	664
-33.934	-11.864	1	18016	0	664
-38.334	-16.300	1	17887	0	664
-42.229	-22.791	1	17784	0	664
-46.195	-29.571	1	17686	0	664
-49.477	-37.432	1	17553	0	664
-52.867	-43.419	1	17394	0	664
-55.860	-47.205	1	17235	0	664
-58.096	-48.612	1	17072	0	664
-58.168	-48.576	1	16889	0	664
-59.935	-48.431	1	16676	0	664
-59.142	-49.693	1	16442	0	664
-56.581	-49.838	1	16209	0	664
-54.093	-47.782	1	15973	0	664
-47.494	-44.356	1	15762	0	664
-44.032	-39.704	1	15612	0	664
-42.625	-37.541	1	15508	0	664
-40.822	-35.016	1	15393	0	664
-35.160	-31.771	1	15232	0	664
-24.775	-21.385	1	15061	0	664
-9.665	-9.556	1	14931	0	664
4.183	4.219	1	14858	0	664
12.910	12.838	1	14806	0	664
12.477	13.415	1	14727	0	664
8.583	9.088	1	14645	0	664
3.210	2.633	1	14643	0	664
1.154	-0.036	1	14733	0	664
3.895	0.902	1	14856	0	664
7.465	5.770	1	14963	0	664
9.556	9.088	1	15040	0	664
10.927	12.586	1	15115	0	664
10.458	13.740	1	15220	0	664
10.061	14.281	1	15334	0	664
9.412	14.930	1	15435	0	664
7.681	14.497	1	15499	0	664
7.645	11.684	1	15554	0	664
8.330	8.655	1	15622	0	664
7.862	6.671	1	15723	0	664
6.455	5.590	1	15844	0	664
3.498	6.960	1	15944	0	664
1.983	10.242	1	16005	0	664
4.760	12.766	1	16021	0	664
10.494	16.264	1	16023	0	664
18.464	20.844	1	16073	0	664
24.955	26.253	1	16178	0	664
30.689	32.853	1	16293	0	664
34.836	37.396	1	16388	0	664
36.278	38.298	1	16469	0	664
33.682	35.377	1	16544	0	664
27.443	28.922	1	16599	0	664
20.303	21.998	1	16626	0	664
15.110	16.589	1	16634	0	664
13.668	13.559	1	16617	0	664
13.451	11.468	1	16580	0	664
11.071	9.196	1	16532	0	664
4.039	6.275	1	16484	0	664
-3.462	2.056	1	16421	0	664
-9.953	-1.298	1	16320	0	664
-11.937	-3.390	1	16188	0	664
-12.369	-5.517	1	16078	0	664
-13.163	-7.393	1	16007	0	664
-16.048	-7.285	1	15969	0	664
-19.546	-8.114	1	15946	0	664
-22.719	-7.285	1	15921	0	664
-23.152	-7.068	1	15898	0	664
-22.286	-9.448	1	15890	0	664
-22.034	-11.107	1	15894	0	664
-20.339	-12.550	1	15892	0	664
-15.615	-10.061	1	15869	0	664
-11.396	-4.147	1	15850	0	664
-4.940	0.469	1	15867	0	664
-2.921	2.849	1	15921	0	664
-6.708	-0.613	1	15979	0	664
-11.287	-7.032	1	16009	0	664
-16.661	-12.622	1	16015	0	664
-19.257	-15.290	1	16036	0	664
-21.349	-15.867	1	16076	0	664
-24.991	-17.166	1	16107	0	664
-32.203	-19.546	1	16080	0	664
-38.731	-24.125	1	15971	0	664
-42.770	-27.047	1	15823	0	664
-44.537	-28.705	1	15737	0	664
-44.501	-30.545	1	15735	0	664
-43.347	-31.807	1	15758	0	664
-43.058	-33.502	1	15781	0	664
-40.858	-34.620	1	15815	0	664
-38.983	-33.934	1	15848	0	664
-39.055	-31.266	1	15869	0	664
-38.947	-30.328	1	15927	0	664
-37.901	-28.128	1	16055	0	664
-33.177	-25.820	1	16182	0	664
-24.342	-18.752	1	16234	0	664
-13.523	-10.819	1	16232	0	664
-5.770	-2.885	1	16226	0	664
-2.164	0.829	1	16234	0	664
-0.685	1.262	1	16255	0	664
0.433	-0.072	1	16284	0	664
2.669	0.397	1	16305	0	664
5.049	0.469	1	16316	0	664
4.183	-2.092	1	16330	0	664
-0.902	-9.340	1	16353	0	664
-8.114	-20.267	1	16366	0	664
-14.858	-28.958	1	16364	0	664
-21.637	-34.764	1	16355	0	664
-25.352	-35.305	1	16351	0	664
-28.994	-33.249	1	16366	0	664
-31.230	-30.256	1	16406	0	664
-29.210	-29.174	1	16450	0	664
-27.840	-28.814	1	16477	0	664
-24.847	-30.581	1	16502	0	664
-25.532	-32.203	1	16538	0	664
-26.001	-33.429	1	16571	0	664
-25.784	-29.535	1	16561	0	664
-21.349	-24.522	1	16509	0	664
-13.704	-15.903	1	16467	0	664
-7.248	-8.439	1	16454	0	664
-2.164	-3.137	1	16459	0	664
-0.793	0.433	1	16463	0	664
0.000	1.659	1	16454	0	664
2.019	3.210	1	16434	0	664
4.796	5.698	1	16396	0	664
6.780	7.898	1	16355	0	664
8.366	11.540	1	16355	0	664
11.973	15.074	1	16406	0	664
14.605	15.471	1	16436	0	664
16.913	12.550	1	16382	0	664
15.831	7.537	1	16276	0	664
12.045	1.298	1	16180	0	664
10.674	0.180	1	16119	0	664
12.838	5.121	1	16080	0	664
20.988	12.153	1	16019	0	664
27.119	18.356	1	15917	0	664
29.607	19.690	1	15823	0	664
29.751	19.185	1	15785	0	664
28.741	20.411	1	15796	0	664
33.393	28.886	1	15842	0	664
41.904	38.767	1	15900	0	664
51.821	49.657	1	15973	0	664
58.709	56.149	1	16082	0	664
62.856	59.935	1	16243	0	664
66.895	64.659	1	16442	0	664
72.521	71.547	1	16653	0	664
80.238	77.966	1	16864	0	664
83.448	80.346	1	17085	0	664
81.067	75.766	1	17329	0	664
72.088	66.823	1	17582	0	664
62.171	58.457	1	17816	0	664
56.401	53.696	1	18018	0	664
54.490	53.155	1	18212	0	664
54.670	54.129	1	18406	0	664
52.146	51.605	1	18592	0	664
43.851	43.779	1	18757	0	664
30.725	31.590	1	18899	0	664
18.392	19.870	1	18995	0	664
12.405	14.245	1	18999	0	664
14.605	16.589	1	18945	0	664
22.214	23.945	1	18928	0	664
28.417	29.968	1	18941	0	664
29.282	31.482	1	18893	0	664
27.371	31.662	1	18753	1	660
28.958	34.259	1	18565	0	660
33.502	40.750	1	18379	0	660
39.776	46.845	1	18221	0	660
43.743	49.513	1	18075	0	660
42.012	48.431	1	17891	0	660
37.793	44.464	1	17647	0	660
35.377	43.527	1	17402	0	660
33.754	42.806	1	17210	0	660
32.095	43.166	1	17045	0	660
30.977	41.760	1	16876	0	660
26.253	39.019	1	16699	0	660
19.149	32.636	1	16525	0	660
10.783	23.549	1	16370	0	660
5.013	14.389	1	16245	0	660
2.236	6.744	1	16142	0	660
2.092	4.472	1	16038	0	660
2.236	3.462	1	15925	0	660
1.695	2.885	1	15833	0	660
-2.344	0.721	1	15779	0	660
-8.511	-4.400	1	15748	0	660
-13.956	-8.799	1	15706	0	660
-19.762	-13.920	1	15648	0	660
-22.467	-14.317	1	15574	0	660
-21.168	-12.550	1	15478	0	660
-17.454	-8.006	1	15359	0	660
-16.120	-5.013	1	15253	0	660
-19.798	-7.357	1	15184	0	660
-30.004	-15.723	1	15134	0	660
-40.750	-25.929	1	15063	0	660
-48.503	-33.934	1	14973	0	660
-52.434	-38.695	1	14904	0	660
-53.913	-41.039	1	14848	0	660
-53.552	-42.553	1	14787	0	660
-52.470	-44.248	1	14737	0	660
-48.936	-42.734	1	14706	0	660
-43.996	-40.822	1	14706	0	660
-42.878	-39.452	1	14758	0	660
-44.969	-39.452	1	14865	0	660
-50.487	-41.255	1	14990	0	660
-53.805	-43.455	1	15119	0	660
-55.175	-43.419	1	15276	0	660
-55.139	-43.671	1	15453	0	660
-56.293	-45.438	1	15618	0	660
-55.896	-46.736	1	15758	0	660
-54.995	-43.887	1	15881	0	660
-49.008	-39.272	1	16005	0	660
-39.668	-30.797	1	16144	0	660
-31.590	-22.106	1	16307	0	660
-22.539	-16.841	1	16450	0	660
-17.346	-12.622	1	16521	0	660
-17.959	-13.631	1	16482	0	660
-21.818	-17.851	1	16384	0	660
-25.929	-20.159	1	16332	0	660
-24.666	-19.077	1	16345	0	660
-20.014	-13.271	1	16362	0	660
-15.290	-7.970	1	16359	0	660
-14.713	-7.717	1	16353	0	660
-20.844	-15.110	1	16345	0	660
-27.696	-24.125	1	16336	0	660
-27.624	-27.624	1	16341	0	660
-24.594	-27.551	1	16364	0	660
-21.637	-25.063	1	16384	0	660
-24.702	-26.650	1	16372	0	660
-31.374	-29.643	1	16345	0	660
-37.396	-31.771	1	16390	0	660
-36.747	-30.581	1	16511	0	660
-32.636	-28.020	1	16601	0	660
-27.299	-25.063	1	16603	0	660
-25.027	-24.847	1	16548	0	660
-24.053	-23.260	1	16500	0	660
-21.457	-19.149	1	16494	0	660
-13.343	-11.396	1	16521	0	660
-3.390	-4.868	1	16546	0	660
7.032	0.974	1	16542	0	660
16.336	5.301	1	16486	0	660
21.998	7.176	1	16351	0	660
23.945	9.052	1	16178	0	660
21.493	10.133	1	16061	0	660
19.654	12.225	1	16009	0	660
19.762	17.815	1	15990	0	660
22.827	25.532	1	16015	0	660
28.056	31.374	1	16098	0	660
29.066	32.167	1	16226	0	660
24.811	25.604	1	16341	0	660
15.435	16.228	1	16415	0	660
5.950	9.160	1	16477	0	660
-2.416	8.006	1	16542	0	660
-6.599	7.645	1	16605	0	660
-7.537	5.409	1	16647	0	660
-5.770	2.308	1	16674	0	660
-3.750	-3.714	1	16701	0	660
-4.796	-5.626	1	16726	0	660
-6.888	-6.744	1	16736	0	660
-11.612	-6.311	1	16730	0	660
-13.884	-6.563	1	16718	0	660
-14.100	-9.304	1	16707	0	660
-13.343	-11.432	1	16684	0	660
-15.471	-14.894	1	16661	0	660
-18.464	-19.401	1	16680	0	660
-20.988	-22.863	1	16734	0	660
-22.899	-26.037	1	16753	0	660
-20.700	-27.587	1	16686	0	660
-21.313	-30.364	1	16559	0	660
-25.135	-32.636	1	16417	0	660
-32.276	-36.891	1	16276	0	660
-39.921	-39.776	1	16117	0	660
-45.078	-43.347	1	15948	0	660
-49.189	-45.294	1	15796	0	660
-50.775	-48.503	1	15685	0	660
-52.651	-51.965	1	15610	0	660
-55.139	-52.831	1	15554	0	660
-54.490	-52.578	1	15508	0	660
-52.254	-50.451	1	15468	0	660
-49.693	-47.494	1	15445	0	660
-45.402	-46.087	1	15455	0	660
-45.258	-45.294	1	15512	0	660
-45.186	-47.205	1	15595	0	660
-46.592	-48.071	1	15679	0	660
-46.340	-47.818	1	15758	0	660
-42.193	-42.661	1	15829	0	660
-36.531	-35.124	1	15896	0	660
-30.400	-28.201	1	15965	0	660
-25.893	-26.289	1	16028	0	660
-25.784	-28.561	1	16073	0	660
-23.585	-33.466	1	16109	0	660
-20.736	-35.918	1	16144	0	660
-17.021	-35.485	1	16167	0	660
-15.038	-34.331	1	16167	0	660
-15.903	-32.600	1	16167	0	660
-19.582	-30.869	1	16159	0	660
-23.080	-31.158	1	16111	0	660
-24.162	-31.843	1	16034	0	660
-26.145	-37.396	1	15977	0	660
-31.410	-44.068	1	15927	0	660
-38.154	-50.523	1	15792	0	660
-44.068	-53.552	1	15564	0	660
-47.025	-53.624	1	15384	0	660
-47.782	-52.831	1	15370	0	660
-48.359	-52.074	1	15501	0	660
-46.845	-50.775	1	15714	0	660
-45.763	-46.700	1	15952	0	660
-40.101	-38.370	1	16184	0	660
-30.472	-28.417	1	16421	0	660
-23.152	-21.349	1	16699	0	660
-19.041	-17.887	1	17010	0	660
-18.031	-16.805	1	17331	0	660
-18.356	-15.398	1	17644	0	660
-16.372	-11.973	1	17951	0	660
-11.504	-5.698	1	18262	0	660
-5.013	-1.587	1	18582	0	660
0.685	3.065	1	18889	0	660
3.101	5.049	1	19139	0	660
2.957	8.475	1	19313	0	660
0.793	7.645	1	19425	0	660
-2.380	6.527	1	19502	0	660
-4.832	1.803	1	19561	0	660
-7.212	-2.056	1	19586	0	660
-7.032	-4.327	1	19567	0	660
-7.212	-4.472	1	19517	0	660
-9.665	-5.734	1	19438	0	660
-12.477	-7.573	1	19346	0	660
-18.139	-10.638	1	19273	1	648
-22.034	-14.245	1	19181	0	648
-24.017	-15.002	1	18993	0	648
-22.972	-14.136	1	18703	0	648
-20.664	-11.287	1	18388	0	648
-19.293	-8.366	1	18100	0	648
-17.310	-5.770	1	17853	0	648
-15.471	-3.426	1	17626	0	648
-12.153	-1.479	1	17406	0	648
-8.006	0.325	32768	17196	0	648
-3.750	3.029	32768	17010	0	648
1.154	5.157	32768	16847	0	648
4.868	7.537	32768	16695	0	648
6.924	10.458	32768	16538	0	648
7.537	13.812	32768	16364	0	648
7.609	14.749	32768	16180	0	648
7.862	16.769	32768	16011	0	648
11.576	17.093	32768	15860	0	648
15.939	15.759	32768	15721	0	648
19.365	13.199	32768	15570	0	648
21.241	10.674	32768	15407	0	648
17.851	7.465	32768	15266	0	648
14.281	6.708	32768	15178	0	648
6.924	6.563	32768	15126	0	648
1.442	4.147	32768	15063	0	648
-2.380	0.469	32768	14996	0	648
-2.560	-4.652	32768	14965	0	648
-3.246	-7.573	32768	14971	0	648
-4.508	-7.176	32768	14984	0	648
-7.862	-3.750	32768	14973	0	648
-11.900	-3.390	32768	14948	0	648
-15.038	-4.977	32768	14934	0	648
-16.228	-10.097	32768	14929	0	648
-17.959	-18.428	32768	14952	0	648
-20.411	-23.224	32768	15050	0	648
-21.637	-22.863	32768	15201	0	648
-19.654	-20.772	32768	15324	0	648
-18.969	-17.598	32768	15405	0	648
-18.175	-18.247	32768	15470	0	648
-20.736	-22.611	32768	15524	0	648
-24.811	-29.643	32768	15574	0	648
-30.148	-36.134	32768	15622	0	648
-36.531	-41.039	32768	15643	0	648
-42.806	-45.150	32768	15633	0	648
-50.595	-50.523	32768	15648	0	648
-58.240	-54.670	32768	15691	0	648
-61.738	-56.834	32768	15733	0	648
-62.207	-55.463	32768	15775	0	648
-58.889	-51.605	32768	15821	0	648
-54.309	-46.736	32768	15865	0	648
-51.677	-45.871	32768	15919	0	648
-52.038	-46.989	16384	15990	0	648
-53.768	-50.523	16384	16073	0	648
-54.814	-51.028	1	16142	0	648
-51.929	-47.313	1	16165	0	648
-46.700	-41.543	1	16163	0	648
-40.678	-34.151	1	16186	0	648
-36.026	-30.797	1	16228	0	648
-31.085	-28.597	1	16255	0	648
-25.965	-28.886	1	16257	0	648
-20.988	-28.453	1	16245	0	648
-16.697	-25.460	1	16215	0	648
-15.290	-23.008	1	16167	0	648
-17.166	-20.519	1	16103	0	648
-20.916	-21.962	1	16002	0	648
-25.532	-24.666	1	15871	0	648
-30.472	-29.210	1	15762	0	648
-36.495	-33.754	1	15698	0	648
-42.625	-38.226	1	15664	0	648
-49.189	-44.320	1	15650	0	648
-54.021	-49.116	1	15637	0	648
-54.959	-52.362	1	15614	0	648
-53.516	-51.533	1	15610	0	648
-52.290	-47.349	1	15639	0	648
-51.316	-42.625	1	15702	0	648
-50.703	-38.586	1	15790	0	648
-47.530	-35.846	1	15871	0	648
-41.724	-33.285	1	15929	0	648
-35.701	-30.941	1	16005	0	648
-32.672	-29.823	1	16101	0	648
-32.636	-28.273	1	16190	0	648
-31.879	-28.056	1	16261	0	648
-25.496	-24.955	1	16314	0	648
-12.658	-16.516	1	16362	0	648
1.154	-6.491	1	16421	0	648
11.251	2.993	1	16502	0	648
16.012	8.943	1	16582	0	648
16.192	8.799	1	16642	0	648
14.749	5.193	1	16676	0	648
15.182	3.318	1	16690	0	648
16.156	4.616	1	16718	0	648
16.228	7.681	1	16761	0	648
16.120	12.766	1	16784	0	648
16.697	15.795	1	16784	0	648
19.077	18.572	1	16786	0	648
23.332	21.168	1	16795	0	648
27.587	26.001	1	16809	0	648
31.735	31.626	1	16807	0	648
35.197	38.550	1	16745	0	648
38.911	45.799	1	16621	0	648
44.212	51.244	1	16498	0	648
50.126	54.706	1	16409	0	648
52.470	55.031	1	16343	0	648
51.821	52.074	1	16286	0	648
48.720	48.359	1	16232	0	648
44.789	45.546	1	16169	0	648
42.481	44.176	1	16115	0	648
40.209	44.573	1	16130	0	648
37.937	44.501	1	16213	0	648
35.269	44.356	1	16291	0	648
33.429	42.553	1	16307	0	648
33.105	41.580	1	16268	0	648
32.384	38.334	1	16209	0	648
28.922	33.285	1	16159	0	648
21.890	25.532	1	16121	0	648
11.035	14.821	1	16067	0	648
-1.839	3.931	1	15986	0	648
-12.838	-6.311	1	15915	0	648
-20.519	-12.369	1	15890	0	648
-23.404	-16.625	1	15900	0	648
-21.745	-17.923	1	15915	0	648
-21.565	-18.356	1	15915	0	648
-22.791	-19.726	1	15911	0	648
-28.201	-22.791	1	15929	0	648
-35.413	-29.210	1	15982	0	648
-39.596	-33.934	1	16042	0	648
-39.957	-37.793	1	16080	0	648
-38.586	-39.560	1	16096	0	648
-34.980	-38.875	1	16119	0	648
-31.987	-38.550	1	16159	0	648
-30.436	-38.406	1	16224	0	648
-30.004	-36.242	1	16318	0	648
-28.741	-32.672	1	16432	0	648
-25.748	-26.902	1	16525	0	648
-21.709	-20.411	1	16569	0	648
-15.939	-14.569	1	16584	0	648
-12.369	-10.350	1	16601	0	648
-12.405	-9.520	1	16634	0	648
-18.572	-13.163	1	16676	0	648
-27.155	-19.906	1	16692	0	648
-37.216	-30.689	1	16705	0	648
-44.212	-38.406	1	16795	0	648
-47.097	-44.681	1	16962	0	648
-47.566	-44.717	1	17135	0	648
-44.573	-42.481	1	17281	0	648
-43.347	-38.118	1	17409	0	648
-42.878	-35.088	1	17538	0	648
-44.537	-34.511	1	17697	0	648
-46.340	-35.124	1	17885	0	648
-48.792	-36.711	1	18072	0	648
-50.992	-37.252	1	18231	0	648
-49.657	-37.541	1	18369	0	648
-47.205	-36.639	1	18498	0	648
-44.464	-34.187	1	18615	0	648
-40.678	-29.968	1	18703	0	648
-39.416	-25.243	1	18753	0	648
-37.144	-19.293	1	18772	0	648
-31.951	-11.432	1	18780	0	648
-23.981	-4.472	1	18793	0	648
-13.776	1.911	1	18791	0	648
-7.789	5.662	32768	18751	0	648
-5.950	5.157	32768	18676	0	648
-7.176	2.488	32768	18565	0	648
-10.494	-1.082	32768	18421	1	652
-12.586	-4.075	32768	18260	0	652
-15.182	-7.970	32768	18085	0	652
-18.608	-12.261	32768	17895	0	652
-23.549	-16.336	32768	17682	0	652
-27.010	-19.762	32768	17429	0	652
-30.581	-21.421	32768	17120	0	652
-33.105	-21.565	32768	16732	0	652
-36.855	-23.765	32768	16280	0	652
-38.406	-23.512	32768	15840	0	652
-38.442	-23.080	32768	15455	0	652
-36.170	-21.529	32768	15136	0	652
-33.105	-21.241	32768	14919	0	652
-30.977	-20.087	32768	14815	0	652
-29.715	-19.834	32768	14787	0	652
-26.037	-19.005	32768	14777	0	652
-20.736	-15.290	32768	14754	0	652
-12.405	-10.314	32768	14752	0	652
-3.282	-4.580	32768	14802	0	652
5.950	4.472	32768	14898	0	652
15.687	15.975	32768	15002	0	652
25.027	27.876	32768	15090	0	652
32.095	36.278	32768	15182	0	652
37.829	41.832	32768	15297	0	652
39.740	41.327	32768	15433	0	652
41.219	38.983	32768	15574	0	652
39.488	34.043	32768	15698	0	652
35.521	26.902	32768	15798	0	652
27.479	18.067	32768	15902	0	652
18.608	9.376	32768	16036	0	652
9.016	2.741	32768	16178	0	652
3.246	0.793	32768	16282	0	652
-0.505	-0.613	32768	16349	0	652
-2.777	-2.524	32768	16400	0	652
-4.868	-7.104	32768	16463	0	652
-6.275	-14.100	32768	16542	0	652
-9.881	-17.526	32768	16630	0	652
-12.730	-19.257	32768	16711	0	652
-16.877	-18.716	32768	16751	0	652
-21.313	-21.673	32768	16728	0	652
-24.955	-26.830	32768	16657	0	652
-27.299	-31.735	32768	16580	0	652
-26.145	-31.374	32768	16500	0	652
-24.125	-27.155	32768	16400	0	652
-22.106	-20.014	32768	16276	0	652
-21.421	-16.336	32768	16144	0	652
-24.522	-15.759	32768	16038	0	652
-26.470	-15.903	32768	15975	0	652
-27.551	-15.074	32768	15959	0	652
-25.424	-15.002	32768	15954	0	652
-26.361	-16.805	32768	15929	0	652
-31.374	-22.972	32768	15904	0	652
-41.868	-32.059	32768	15909	0	652
-54.237	-41.616	32768	15938	0	652
-62.279	-50.018	32768	15965	0	652
-64.082	-54.129	32768	15969	0	652
-62.568	-56.257	32768	15973	0	652
-58.348	-57.411	32768	16005	0	652
-57.735	-56.762	32768	16061	0	652
-56.581	-54.886	32768	16119	0	652
-56.653	-53.047	32768	16128	0	652
-55.211	-50.523	32768	16036	0	652
-54.129	-48.720	32768	15904	0	652
-53.444	-46.917	32768	15846	0	652
-52.254	-44.897	32768	15860	0	652
-48.612	-39.524	32768	15879	0	652
-41.760	-32.636	32768	15883	0	652
-33.429	-26.866	32768	15894	0	652
-26.253	-24.666	32768	15911	0	652
-23.693	-23.765	32768	15909	0	652
-22.286	-23.476	32768	15896	0	652
-21.132	-22.214	32768	15909	0	652
-17.851	-17.021	32768	15927	0	652
-12.910	-12.117	32768	15906	0	652
-10.206	-9.773	32768	15858	0	652
-12.838	-12.441	32768	15831	0	652
-17.959	-18.752	32768	15835	0	652
-26.073	-27.263	32768	15842	0	652
-30.617	-33.429	32768	15833	0	652
-32.816	-36.387	16384	15833	0	652
-33.502	-36.459	1	15850	0	652
-36.278	-38.262	1	15890	0	652
-39.668	-39.632	1	15954	0	652
-42.157	-41.327	1	16013	0	652
-42.409	-39.524	1	16040	0	652
-39.812	-36.026	1	16059	0	652
-37.649	-32.853	1	16092	0	652
-37.252	-31.122	1	16140	0	652
-37.721	-31.735	1	16186	0	652
-35.774	-30.220	1	16217	0	652
-30.328	-26.109	1	16236	0	652
-22.395	-16.480	1	16270	0	652
-11.792	-5.554	1	16336	0	652
0.252	6.347	1	16415	0	652
12.225	16.841	1	16446	0	652
25.424	28.164	1	16357	0	652
38.298	38.514	1	16124	0	652
49.225	49.657	1	15871	0	652
57.771	61.017	1	15746	0	652
63.974	70.934	1	15723	0	652
69.924	78.796	1	15727	0	652
73.855	84.674	1	15748	0	652
75.478	87.018	1	15800	0	652
74.865	84.493	1	15881	0	652
70.069	79.156	1	15971	0	652
66.066	74.540	1	16021	0	652
63.181	71.583	1	15996	0	652
62.892	69.744	1	15921	0	652
62.712	67.688	1	15850	0	652
59.214	62.387	1	15821	0	652
53.444	55.391	1	15827	0	652
47.890	50.018	1	15833	0	652
43.527	47.458	1	15819	0	652
39.632	47.854	1	15812	0	652
39.704	47.710	1	15881	0	652
38.406	46.448	1	16023	0	652
36.891	44.212	1	16172	0	652
34.115	38.298	1	16288	0	652
30.328	32.564	1	16374	0	652
26.686	26.794	1	16442	0	652
24.342	22.863	1	16496	0	652
25.893	24.811	1	16525	0	652
29.931	28.886	1	16521	0	652
33.141	32.420	1	16488	0	652
34.872	32.816	1	16461	0	652
33.393	26.722	1	16465	0	652
29.318	20.519	1	16502	0	652
24.775	15.146	1	16542	0	652
17.779	9.052	1	16553	0	652
8.943	0.902	1	16540	0	652
0.252	-9.232	1	16542	0	652
-8.042	-18.464	1	16576	0	652
-14.028	-25.063	1	16630	0	652
-17.887	-25.027	1	16678	0	652
-20.375	-23.188	1	16715	0	652
-24.630	-24.594	1	16751	0	652
-28.417	-29.751	1	16799	0	652
-33.682	-38.370	1	16868	0	652
-40.642	-48.431	1	16960	0	652
-48.215	-57.266	1	17049	0	652
-55.788	-60.296	1	17091	0	652
-59.430	-60.620	1	17062	0	652
-61.017	-57.952	1	16997	0	652
-58.997	-55.175	1	16970	0	652
-56.978	-54.129	1	17006	0	652
-53.480	-51.677	1	17062	0	652
-49.405	-47.061	1	17087	0	652
-46.520	-42.048	1	17081	0	652
-43.960	-37.360	1	17102	0	652
-44.392	-35.774	1	17196	0	652
-44.140	-37.396	1	17342	0	652
-44.428	-38.118	1	17484	0	652
-42.842	-40.137	1	17594	0	652
-44.501	-42.481	1	17703	0	652
-46.772	-47.169	1	17830	0	652
-49.513	-49.910	1	17972	0	652
-51.713	-51.461	1	18106	0	652
-50.884	-50.198	1	18212	0	652
-51.100	-49.333	1	18296	0	652
-53.372	-50.884	1	18373	0	652
-54.814	-52.110	1	18452	0	652
-54.490	-51.388	1	18517	0	652
-52.110	-46.700	1	18534	0	652
-48.720	-44.032	32768	18496	0	652
-46.809	-41.724	32768	18429	0	652
-47.782	-42.661	32768	18319	0	652
-50.559	-43.419	32768	18160	0	652
-52.254	-42.770	32768	17981	1	668
-50.920	-40.245	32768	17814	0	668
-46.592	-36.387	32768	17665	0	668
-39.776	-32.348	32768	17530	0	668
-31.302	-29.066	32768	17392	0	668
-24.234	-25.893	32768	17244	0	668
-19.437	-21.854	32768	17089	0	668
-14.100	-16.444	32768	16924	0	668
-9.520	-8.078	32768	16749	0	668
-5.409	-2.416	32768	16573	0	668
-6.131	-0.180	32768	16415	0	668
-9.268	-4.904	32768	16288	0	668
-16.949	-11.828	32768	16172	0	668
-25.099	-18.464	32768	16019	0	668
-30.761	-24.089	32768	15840	0	668
-34.475	-27.732	32768	15714	0	668
-35.341	-31.049	32768	15654	0	668
-36.134	-31.987	32768	15606	0	668
-37.072	-33.754	32768	15549	0	668
-39.452	-34.079	32768	15483	0	668
-41.111	-35.593	32768	15430	0	668
-41.940	-37.324	32768	15410	0	668
-38.082	-35.485	32768	15422	0	668
-32.312	-31.554	32768	15455	0	668
-26.506	-25.424	32768	15483	0	668
-20.988	-21.565	32768	15508	0	668
-15.795	-18.428	32768	15543	0	668
-8.691	-15.362	32768	15597	0	668
-2.056	-10.386	32768	15648	0	668
5.986	-2.272	32768	15673	0	668
13.668	7.032	32768	15685	0	668
20.555	15.110	32768	15704	0	668
28.345	21.421	32768	15731	0	668
37.432	27.624	32768	15748	0	668
45.294	35.846	32768	15739	0	668
51.569	45.510	32768	15679	0	668
57.375	55.463	32768	15566	0	668
61.955	61.738	32768	15472	0	668
61.450	62.423	32768	15437	0	668
57.339	56.617	32768	15414	0	668
49.008	47.313	32768	15391	0	668
39.163	38.154	32768	15384	0	668
31.626	31.302	32768	15391	0	668
26.974	27.227	32768	15410	0	668
22.935	22.683	32768	15443	0	668
16.156	17.418	32768	15478	0	668
7.934	11.937	32768	15499	0	668
0.216	6.527	32768	15495	0	668
-3.678	4.255	32768	15474	0	668
-2.308	5.121	32768	15485	0	668
1.983	6.347	32768	15558	0	668
6.924	6.239	32768	15671	0	668
9.304	3.426	32768	15756	0	668
9.412	0.216	32768	15800	0	668
6.455	-4.183	32768	15854	0	668
3.390	-7.465	32768	15946	0	668
2.813	-7.465	32768	16042	0	668
5.734	-3.750	32768	16126	0	668
12.045	0.144	32768	16190	0	668
15.507	4.003	32768	16249	0	668
14.749	6.744	32768	16320	0	668
7.176	4.147	32768	16417	0	668
-3.498	-0.108	32768	16528	0	668
-10.674	-4.652	32768	16584	0	668
-15.795	-8.222	32768	16532	0	668
-18.175	-12.009	32768	16415	0	668
-21.132	-14.245	32768	16362	0	668
-26.217	-18.860	32768	16374	0	668
-35.052	-25.640	32768	16382	0	668
-43.274	-35.124	32768	16378	0	668
-51.713	-44.501	32768	16390	0	668
-57.303	-51.172	32768	16421	0	668
-58.529	-52.831	32768	16473	0	668
-57.735	-48.864	32768	16544	0	668
-53.805	-43.238	32768	16582	0	668
-49.802	-38.875	32768	16546	0	668
-45.835	-35.882	32768	16446	0	668
-40.894	-35.593	32768	16328	0	668
-37.685	-33.826	32768	16232	0	668
-35.052	-29.571	1	16180	0	668
-34.367	-23.116	1	16155	0	668
-34.836	-18.788	1	16138	0	668
-32.420	-14.281	1	16132	0	668
-28.669	-12.225	1	16172	0	668
-22.142	-10.602	1	16270	0	668
-13.091	-6.888	1	16380	0	668
-6.311	-1.659	1	16446	0	668
-2.596	1.334	1	16457	0	668
-5.157	-1.118	1	16438	0	668
-12.117	-8.439	1	16427	0	668
-22.575	-19.437	1	16429	0	668
-31.951	-27.660	1	16421	0	668
-35.593	-30.076	1	16376	0	668
-36.206	-28.020	1	16305	0	668
-37.072	-27.191	1	16251	0	668
-41.147	-31.085	1	16240	0	668
-48.107	-40.245	1	16257	0	668
-54.382	-50.018	1	16268	0	668
-55.319	-52.831	1	16270	0	668
-50.090	-50.162	1	16280	0	668
-43.383	-46.123	1	16297	0	668
-39.488	-44.248	1	16301	0	668
-41.147	-46.448	1	16280	0	668
-43.743	-49.802	1	16238	0	668
-45.655	-48.972	1	16195	0	668
-43.130	-43.887	1	16159	0	668
-38.009	-36.170	1	16124	0	668
-32.780	-29.751	1	16078	0	668
-28.273	-24.198	1	16019	0	668
-25.135	-20.411	1	15952	0	668
-22.070	-17.526	1	15877	0	668
-18.392	-15.218	1	15819	0	668
-16.408	-13.199	1	15817	0	668
-13.559	-10.963	1	15860	0	668
-12.622	-10.025	1	15873	0	668
-11.720	-10.494	1	15823	0	668
-14.605	-11.900	1	15746	0	668
-19.942	-17.923	1	15681	0	668
-31.626	-25.820	1	15639	0	668
-43.599	-35.737	1	15625	0	668
-51.641	-43.887	1	15620	0	668
-53.913	-47.962	1	15614	0	668
-50.054	-47.999	1	15627	0	668
-44.969	-46.592	1	15671	0	668
-40.930	-45.258	1	15731	0	668
-40.426	-46.628	1	15790	0	668
-40.498	-46.809	1	15833	0	668
-37.613	-44.609	1	15867	0	668
-35.088	-42.914	1	15888	0	668
-32.492	-41.255	1	15879	0	668
-31.771	-41.904	1	15840	0	668
-31.699	-40.317	1	15808	0	668
-31.771	-36.603	1	15815	0	668
-30.328	-29.859	1	15863	0	668
-26.866	-23.080	1	15946	0	668
-25.027	-20.339	1	16048	0	668
-22.467	-19.077	1	16128	0	668
-19.221	-17.562	1	16176	0	668
-15.290	-13.776	1	16215	0	668
-12.261	-9.088	1	16266	0	668
-10.422	-5.662	1	16324	0	668
-13.704	-8.583	1	16372	0	668
-16.949	-11.900	1	16398	0	668
-20.808	-17.454	1	16404	0	668
-22.142	-19.762	1	16364	0	668
-19.834	-19.221	1	16282	0	668
-17.382	-18.536	1	16224	0	668
-15.651	-17.959	1	16197	0	668
-13.884	-18.464	1	16188	0	668
-12.514	-17.310	1	16192	0	668
-8.943	-13.631	1	16213	0	668
-5.662	-9.232	1	16268	0	668
-2.272	-3.462	1	16386	0	668
-2.308	-0.397	1	16576	0	668
-2.596	0.613	1	16803	0	668
-0.433	1.767	1	17029	0	668
4.364	5.265	1	17269	0	668
9.809	7.862	1	17534	0	668
15.651	10.061	1	17801	0	668
16.769	11.792	1	18052	0	668
19.329	13.487	1	18267	0	668
21.926	15.074	1	18452	0	668
24.630	18.933	1	18603	0	668
25.424	22.358	1	18680	0	668
23.549	23.981	1	18684	0	668
17.670	23.044	1	18659	0	668
11.720	20.664	1	18580	0	668
8.402	18.428	1	18436	0	668
6.888	14.028	1	18317	0	668
6.203	9.629	1	18269	1	676
6.563	8.475	1	18225	0	676
6.599	7.537	1	18129	0	676
6.635	9.088	1	17997	0	676
9.881	11.648	1	17903	0	676
14.353	16.156	1	17859	0	676
17.093	18.356	1	17832	0	676
17.454	18.067	1	17803	0	676
16.084	16.156	1	17763	0	676
14.353	13.054	1	17707	0	676
12.802	10.422	1	17647	0	676
12.009	7.934	1	17588	0	676
8.258	7.321	1	17532	0	676
4.111	4.832	1	17477	0	676
0.793	1.947	1	17398	0	676
-0.036	0.072	32768	17283	0	676
0.685	-0.541	32768	17164	0	676
-1.406	-2.056	32768	17062	0	676
-7.898	-6.239	32768	16976	0	676
-17.238	-12.441	32768	16880	0	676
-24.270	-20.483	32768	16753	0	676
-26.325	-24.630	32768	16626	0	676
-25.820	-26.866	32768	16534	0	676
-24.234	-26.470	32768	16471	0	676
-26.938	-28.309	32768	16417	0	676
-32.816	-31.374	32768	16364	0	676
-38.298	-36.351	32768	16305	0	676
-41.219	-39.235	32768	16247	0	676
-39.632	-40.426	32768	16207	0	676
-37.577	-37.468	32768	16188	0	676
-34.511	-34.079	32768	16153	0	676
-32.456	-31.194	32768	16088	0	676
-33.754	-30.617	32768	16019	0	676
-35.160	-32.564	32768	15973	0	676
-38.947	-38.154	32768	15940	0	676
-43.779	-44.140	32768	15904	0	676
-46.268	-46.772	32768	15829	0	676
-47.962	-47.782	32768	15704	0	676
-48.612	-43.924	32768	15591	0	676
-46.736	-40.173	32768	15526	0	676
-44.501	-35.521	32768	15474	0	676
-41.580	-31.374	32768	15416	0	676
-37.180	-28.705	32768	15362	0	676
-34.583	-26.578	32768	15307	0	676
-34.223	-26.902	32768	15263	0	676
-35.124	-26.506	32768	15284	0	676
-36.819	-27.804	32768	15378	0	676
-37.613	-27.047	32768	15478	0	676
-37.000	-26.145	32768	15526	0	676
-36.098	-25.748	32768	15524	0	676
-35.485	-27.804	32768	15514	0	676
-34.475	-27.948	32768	15512	0	676
-32.997	-28.561	32768	15478	0	676
-29.535	-27.696	32768	15387	0	676
-24.739	-25.748	32768	15274	0	676
-18.175	-23.260	32768	15195	0	676
-13.163	-21.168	32768	15165	0	676
-10.927	-19.618	32768	15165	0	676
-9.917	-19.077	32768	15174	0	676
-12.297	-19.510	32768	15172	0	676
-12.550	-20.808	32768	15178	0	676
-13.559	-24.089	32768	15217	0	676
-14.389	-25.171	32768	15295	0	676
-18.283	-26.253	32768	15393	0	676
-22.431	-26.037	32768	15489	0	676
-26.830	-22.467	32768	15579	0	676
-28.128	-19.762	1	15664	0	676
-26.001	-17.202	1	15746	0	676
-27.335	-18.356	1	15823	0	676
-29.174	-21.601	1	15879	0	676
-32.744	-25.316	1	15923	0	676
-33.574	-28.020	1	15963	0	676
-30.725	-26.470	1	15986	0	676
-26.722	-24.162	1	16000	0	676
-22.719	-21.349	1	16063	0	676
-22.395	-20.375	1	16147	0	676
-23.188	-17.815	1	16151	0	676
-20.627	-15.254	1	16061	0	676
-15.471	-10.855	1	15944	0	676
-9.448	-7.104	1	15863	0	676
-2.957	-3.570	1	15833	0	676
1.262	-0.397	1	15842	0	676
2.019	1.334	1	15842	0	676
1.551	2.128	1	15812	0	676
-1.262	-1.154	1	15802	0	676
-4.796	-7.501	1	15854	0	676
-6.924	-14.208	1	15938	0	676
-8.547	-16.877	1	16011	0	676
-6.491	-15.687	1	16063	0	676
-4.796	-10.386	1	16117	0	676
-1.442	-5.878	1	16178	0	676
-0.216	-3.606	1	16203	0	676
-0.938	-4.075	1	16176	0	676
-1.623	-7.068	1	16132	0	676
-1.767	-6.924	1	16115	0	676
-1.551	-6.058	1	16136	0	676
-1.298	-6.527	1	16205	0	676
-4.075	-7.321	1	16295	0	676
-10.530	-11.360	1	16366	0	676
-17.057	-14.497	1	16406	0	676
-20.627	-15.723	1	16444	0	676
-20.988	-16.336	1	16486	0	676
-18.536	-16.841	1	16528	0	676
-18.716	-18.428	1	16561	0	676
-20.267	-19.618	1	16582	0	676
-22.034	-19.005	1	16586	0	676
-21.132	-15.759	1	16563	0	676
-18.211	-12.838	1	16517	0	676
-15.326	-12.081	1	16469	0	676
-15.543	-11.937	1	16419	0	676
-18.897	-14.894	1	16351	0	676
-23.368	-17.598	1	16245	0	676
-27.551	-20.483	1	16121	0	676
-26.794	-22.431	1	16028	0	676
-26.325	-21.890	1	15992	0	676
-23.549	-20.736	1	16000	0	676
-22.863	-17.274	1	16002	0	676
-21.204	-13.018	1	15977	0	676
-19.726	-7.104	1	15982	0	676
-15.254	-1.406	1	16036	0	676
-7.645	4.688	1	16101	0	676
0.577	10.710	1	16157	0	676
5.337	10.061	1	16201	0	676
5.121	6.455	1	16243	0	676
-1.046	-0.902	1	16278	0	676
-10.133	-7.717	1	16286	0	676
-14.713	-11.107	1	16257	0	676
-14.172	-8.511	1	16226	0	676
-8.330	-3.354	1	16230	0	676
-1.659	0.433	1	16272	0	676
0.108	-0.902	1	16355	0	676
-4.868	-5.842	1	16454	0	676
-11.576	-13.379	1	16540	0	676
-17.598	-18.933	1	16576	0	676
-19.401	-21.024	1	16511	0	676
-17.706	-19.690	1	16376	0	676
-14.533	-16.841	1	16280	0	676
-10.783	-14.317	1	16276	0	676
-9.917	-12.225	1	16328	0	676
-10.494	-11.504	1	16382	0	676
-12.081	-10.602	1	16400	0	676
-14.208	-11.143	1	16398	0	676
-14.605	-10.674	1	16406	0	676
-9.773	-6.888	1	16427	0	676
-3.318	-4.039	1	16446	0	676
1.154	0.144	1	16459	0	676
1.010	0.469	1	16471	0	676
-2.344	1.623	1	16492	0	676
-4.003	3.534	1	16530	0	676
-1.190	11.648	1	16586	0	676
6.744	19.654	1	16634	0	676
14.425	27.624	1	16663	0	676
19.401	30.040	1	16703	0	676
21.277	30.220	1	16753	0	676
20.664	30.364	1	16799	0	676
19.005	27.912	1	16832	0	676
17.129	25.027	1	16864	0	676
11.323	19.942	1	16918	0	676
7.717	15.867	1	17016	0	676
4.904	15.903	1	17164	0	676
6.347	18.139	1	17327	0	676
7.645	20.159	1	17454	0	676
11.107	19.257	1	17559	0	676
12.369	16.516	1	17688	0	676
11.937	14.569	1	17866	0	676
10.999	15.723	1	18062	0	676
10.242	19.437	1	18233	0	676
11.900	24.666	1	18369	0	676
15.795	29.030	1	18484	0	676
19.401	29.282	1	18592	0	676
20.267	27.335	1	18680	0	676
16.589	23.873	1	18749	0	676
10.710	20.736	1	18814	0	676
6.131	18.031	1	18855	0	676
3.570	15.326	1	18828	0	676
3.462	10.169	1	18720	0	676
-1.298	2.380	1	18573	0	676
-7.465	-4.436	1	18423	0	676
-15.543	-8.583	1	18269	1	712
-21.204	-10.242	1	18091	0	712
-23.476	-13.018	1	17899	0	712
-23.440	-16.156	1	17720	0	712
-26.253	-23.080	1	17569	0	712
-28.561	-30.220	1	17427	0	712
-32.925	-36.603	32768	17256	0	712
-37.793	-41.471	32768	17049	0	712
-42.157	-45.005	32768	16870	0	712
-46.015	-45.546	32768	16747	0	712
-50.270	-45.510	32768	16676	0	712
-51.136	-41.760	32768	16632	0	712
-49.838	-38.947	32768	16588	0	712
-48.251	-35.665	32768	16542	0	712
-45.041	-31.590	32768	16513	0	712
-41.255	-26.145	32768	16509	0	712
-35.918	-20.375	32768	16509	0	712
-29.787	-13.848	32768	16492	0	712
-25.929	-11.720	32768	16461	0	712
-25.532	-9.737	32768	16434	0	712
-27.299	-9.953	32768	16419	0	712
-27.804	-7.609	32768	16406	0	712
-26.650	-5.409	32768	16341	0	712
-23.296	-4.868	32768	16155	0	712
-23.008	-5.878	32768	15896	0	712
-25.243	-10.746	32768	15683	0	712
-29.787	-14.894	32768	15541	0	712
-34.620	-17.346	32768	15424	0	712
-35.088	-18.031	32768	15324	0	712
-34.295	-17.454	32768	15247	0	712
-32.925	-17.815	32768	15188	0	712
-33.718	-19.437	32768	15153	0	712
-36.567	-23.152	32768	15167	0	712
-39.596	-22.719	32768	15205	0	712
-39.704	-18.897	32768	15201	0	712
-34.764	-11.360	32768	15147	0	712
-27.407	-4.616	32768	15084	0	712
-21.060	0.577	32768	15055	0	712
-18.572	1.334	32768	15073	0	712
-18.860	0.685	32768	15126	0	712
-19.257	-0.361	32768	15161	0	712
-16.444	-0.974	32768	15151	0	712
-10.891	-2.705	32768	15149	0	712
-6.275	-4.616	32768	15201	0	712
-3.534	-4.868	32768	15291	0	712
-4.832	-3.750	32768	15374	0	712
-8.294	-2.669	32768	15433	0	712
-13.163	-2.741	32768	15460	0	712
-18.500	-6.671	32768	15428	0	712
-22.034	-12.550	32768	15336	0	712
-25.388	-18.788	32768	15255	0	712
-27.768	-23.549	32768	15226	0	712
-27.227	-27.443	32768	15245	0	712
-27.660	-30.004	32768	15305	0	712
-26.686	-32.780	32768	15420	0	712
-26.794	-33.970	32768	15564	0	712
-25.820	-32.961	32768	15696	0	712
-27.263	-31.230	32768	15779	0	712
-27.119	-29.499	32768	15787	0	712
-26.614	-29.138	32768	15754	0	712
-24.162	-30.220	16384	15779	0	712
-22.611	-29.535	1	15871	0	712
-19.978	-27.587	1	15979	0	712
-19.041	-24.198	1	16076	0	712
-19.762	-19.005	1	16130	0	712
-20.375	-15.903	1	16165	0	712
-20.519	-14.208	1	16263	0	712
-19.257	-13.920	1	16427	0	712
-16.156	-13.018	1	16561	0	712
-11.107	-12.802	1	16615	0	712
-8.943	-12.550	1	16626	0	712
-9.412	-12.658	1	16647	0	712
-11.179	-12.694	1	16690	0	712
-14.317	-14.569	1	16743	0	712
-16.769	-16.120	1	16757	0	712
-17.093	-17.743	1	16722	0	712
-16.697	-20.014	1	16692	0	712
-16.877	-21.818	1	16707	0	712
-15.326	-21.313	1	16730	0	712
-15.795	-19.257	1	16726	0	712
-17.634	-17.562	1	16690	0	712
-20.519	-14.930	1	16642	0	712
-20.411	-10.746	1	16586	0	712
-18.788	-6.960	1	16505	0	712
-13.487	-2.524	1	16398	0	712
-7.934	1.010	1	16303	0	712
-6.635	1.875	1	16236	0	712
-3.787	1.262	1	16197	0	712
-0.938	1.551	1	16192	0	712
2.957	3.029	1	16207	0	712
7.934	4.760	1	16215	0	712
10.133	6.167	1	16217	0	712
12.081	8.402	1	16224	0	712
13.487	9.881	1	16232	0	712
14.100	12.225	1	16232	0	712
15.543	14.064	1	16220	0	712
15.615	12.514	1	16209	0	712
14.677	10.927	1	16195	0	712
12.694	8.547	1	16138	0	712
10.891	5.517	1	16063	0	712
6.383	4.760	1	16065	0	712
1.875	4.039	1	16138	0	712
-1.839	3.137	1	16153	0	712
-4.724	4.436	1	16055	0	712
-5.698	4.039	1	15925	0	712
-6.491	3.823	1	15854	0	712
-7.176	0.793	1	15842	0	712
-7.681	-0.108	1	15856	0	712
-6.852	0.252	1	15867	0	712
-5.554	3.318	1	15865	0	712
-2.560	6.635	1	15886	0	712
1.839	8.511	1	15942	0	712
5.517	9.592	1	16005	0	712
9.340	11.143	1	16053	0	712
15.254	13.812	1	16088	0	712
20.808	18.103	1	16117	0	712
24.847	21.601	1	16153	0	712
25.640	20.700	1	16205	0	712
20.736	17.995	1	16255	0	712
13.379	12.766	1	16249	0	712
7.645	7.609	1	16140	0	712
4.652	2.849	1	15977	0	712
5.373	-0.793	1	15873	0	712
8.547	-4.760	1	15852	0	712
10.386	-5.337	1	15852	0	712
12.009	-4.724	1	15852	0	712
15.290	-1.839	1	15858	0	712
15.218	0.361	1	15856	0	712
15.290	0.397	1	15850	0	712
11.937	-3.101	1	15896	0	712
6.671	-8.439	1	16002	0	712
1.731	-11.360	1	16094	0	712
0.252	-11.792	1	16111	0	712
3.354	-7.068	1	16084	0	712
8.835	-0.865	1	16082	0	712
13.307	4.400	1	16128	0	712
13.595	7.068	1	16180	0	712
7.068	4.364	1	16184	0	712
-0.397	-0.397	1	16149	0	712
-5.662	-5.265	1	16134	0	712
-5.229	-7.970	1	16163	0	712
1.551	-9.232	1	16220	0	712
8.655	-7.825	1	16272	0	712
11.756	-8.691	1	16309	0	712
6.131	-10.999	1	16353	0	712
-1.947	-15.362	1	16402	0	712
-11.468	-19.726	1	16454	0	712
-13.848	-21.060	1	16515	0	712
-11.756	-20.087	1	16582	0	712
-8.691	-16.841	1	16653	0	712
-6.527	-14.569	1	16751	0	712
-8.871	-14.136	1	16893	0	712
-13.776	-15.579	1	17054	0	712
-17.743	-17.995	1	17168	0	712
-19.870	-19.113	1	17189	0	712
-19.546	-16.913	1	17173	0	712
-17.021	-14.172	1	17231	0	712
-12.946	-10.350	1	17384	0	712
-9.881	-7.393	1	17555	0	712
-6.671	-5.986	1	17713	0	712
-5.734	-6.491	1	17862	0	712
-2.200	-5.590	1	17999	0	712
2.777	-2.488	1	18141	0	712
8.114	2.633	1	18321	0	712
12.766	6.996	1	18515	0	712
12.658	8.042	1	18640	0	712
10.819	8.006	1	18647	0	712
10.278	7.609	1	18569	0	712
13.848	9.917	1	18480	0	712
22.431	16.516	1	18404	0	712
31.626	23.260	1	18331	0	712
38.082	30.472	1	18262	1	684
42.229	35.629	1	18189	0	684
43.563	40.894	1	18102	0	684
45.366	45.078	1	18008	0	684
44.392	44.428	1	17918	0	684
41.976	41.255	1	17809	0	684
36.459	35.449	1	17672	0	684
32.059	29.138	1	17530	0	684
29.751	25.640	1	17400	0	684
28.453	23.224	1	17273	0	684
26.902	22.358	1	17129	0	684
23.945	23.008	16384	16964	0	684
20.916	23.945	32768	16799	0	684
21.854	27.371	32768	16651	0	684
23.945	29.787	32768	16534	0	684
26.325	30.436	32768	16438	0	684
22.575	24.414	32768	16328	0	684
15.254	17.779	32768	16184	0	684
8.114	9.701	32768	16028	0	684
4.039	5.734	32768	15898	0	684
2.416	4.291	32768	15808	0	684
2.488	4.724	32768	15737	0	684
0.036	3.029	32768	15673	0	684
-4.940	0.325	32768	15620	0	684
-8.366	-2.092	32768	15579	0	684
-8.439	-1.839	32768	15539	0	684
-3.137	2.777	32768	15483	0	684
3.714	6.996	32768	15410	0	684
7.393	8.763	32768	15332	0	684
5.373	7.032	32768	15230	0	684
-0.757	2.019	32768	15101	0	684
-9.304	-2.308	32768	15005	0	684
-11.828	-2.993	32768	14984	0	684
-10.494	-0.577	32768	15009	0	684
-7.068	2.488	1	15013	0	684
-6.275	3.895	1	14994	0	684
-6.671	2.777	1	15028	0	684
-9.809	0.757	1	15155	0	684
-11.035	-2.344	1	15336	0	684
-13.163	-6.780	1	15516	0	684
-15.254	-9.953	1	15668	0	684
-17.706	-12.369	1	15817	0	684
-19.221	-11.756	1	15977	0	684
-17.562	-8.186	32768	16153	0	684
-13.704	-3.714	32768	16320	0	684
-11.432	-5.085	32768	16457	0	684
-15.254	-10.350	32768	16567	0	684
-23.332	-19.041	32768	16674	0	684
-30.617	-24.955	32768	16807	0	684
-34.800	-26.109	32768	16953	0	684
-32.420	-24.486	32768	17070	0	684
-28.741	-22.395	32768	17141	0	684
-25.279	-20.483	32768	17187	0	684
-23.512	-21.637	32768	17225	0	684
-21.241	-20.591	32768	17254	0	684
-18.500	-19.185	32768	17248	0	684
-16.985	-17.923	32768	17210	0	684
-19.762	-18.464	32768	17160	0	684
-22.286	-21.241	32768	17102	0	684
-24.847	-22.214	32768	17049	0	684
-20.844	-22.863	32768	17043	0	684
-15.795	-18.536	32768	17062	0	684
-12.550	-14.245	32768	17039	0	684
-14.208	-13.018	32768	16962	0	684
-18.283	-12.802	32768	16866	0	684
-22.358	-15.759	32768	16763	0	684
-24.702	-16.697	32768	16663	0	684
-24.162	-17.021	32768	16561	0	684
-25.207	-16.661	32768	16425	0	684
-25.171	-16.913	32768	16255	0	684
-24.198	-15.903	32768	16113	0	684
-19.870	-14.317	32768	16028	0	684
-15.543	-10.494	32768	15963	0	684
-11.612	-9.088	32768	15877	0	684
-8.294	-6.419	32768	15762	0	684
-6.671	-4.977	32768	15643	0	684
-4.039	-2.416	32768	15537	0	684
-2.200	0.505	32768	15445	0	684
-0.180	1.623	32768	15359	0	684
0.505	2.128	32768	15255	0	684
0.180	1.911	32768	15153	0	684
-0.721	2.921	32768	15090	0	684
-2.056	4.868	32768	15082	0	684
-2.957	9.556	32768	15105	0	684
-1.046	12.225	32768	15113	0	684
4.364	15.398	32768	15111	0	684
11.215	18.356	1	15126	0	684
17.274	20.952	1	15165	0	684
20.159	23.368	1	15209	0	684
18.572	23.657	1	15238	0	684
15.471	23.945	1	15247	0	684
13.451	22.178	1	15238	0	684
14.100	19.077	1	15228	0	684
16.480	17.490	1	15232	0	684
17.057	15.182	1	15253	0	684
15.002	12.261	1	15295	0	684
6.996	9.052	1	15334	0	684
0.649	4.400	1	15336	0	684
-4.796	1.190	1	15305	0	684
-7.537	-1.659	1	15280	0	684
-5.554	-1.947	1	15272	0	684
-4.508	-1.767	1	15278	0	684
-5.373	0.433	1	15282	0	684
-6.635	1.118	1	15278	0	684
-8.439	1.551	1	15305	0	684
-11.432	0.325	1	15403	0	684
-12.189	-3.787	1	15552	0	684
-12.658	-10.350	1	15706	0	684
-13.091	-14.425	1	15850	0	684
-14.100	-16.300	1	16017	0	684
-13.307	-15.038	1	16211	0	684
-14.713	-12.297	1	16409	0	684
-16.264	-10.169	1	16594	0	684
-20.880	-8.979	1	16749	0	684
-25.604	-11.432	1	16876	0	684
-30.905	-14.208	1	16989	0	684
-34.656	-18.356	1	17112	0	684
-34.764	-21.349	1	17239	0	684
-35.521	-21.962	1	17294	0	684
-34.547	-17.166	1	17208	0	684
-32.167	-10.963	1	17037	0	684
-31.338	-3.895	1	16903	0	684
-28.958	-0.144	1	16832	0	684
-29.030	-1.551	1	16780	0	684
-28.814	-7.032	1	16732	0	684
-29.715	-12.910	1	16690	0	684
-29.318	-15.074	1	16644	0	684
-24.883	-13.740	1	16590	0	684
-23.404	-9.376	1	16551	0	684
-21.890	-10.494	1	16542	0	684
-24.053	-15.074	1	16532	0	684
-29.030	-23.116	1	16480	0	684
-31.230	-26.722	1	16398	0	684
-30.905	-24.378	1	16339	0	684
-28.309	-20.808	1	16320	0	684
-25.893	-18.175	1	16330	0	684
-27.696	-22.431	1	16320	0	684
-29.823	-29.210	1	16268	0	684
-30.581	-32.276	1	16215	0	684
-26.830	-28.814	1	16207	0	684
-19.690	-21.529	1	16240	0	684
-14.353	-16.877	1	16291	0	684
-13.559	-18.500	1	16324	0	684
-16.516	-25.424	1	16343	0	684
-20.303	-30.508	1	16359	0	684
-21.024	-29.607	1	16355	0	684
-18.392	-21.781	1	16330	0	684
-16.192	-14.785	1	16303	0	684
-16.913	-10.674	1	16307	0	684
-20.916	-13.018	1	16347	0	684
-24.811	-16.913	1	16421	0	684
-27.948	-17.310	1	16517	0	684
-24.919	-15.795	1	16603	0	684
-19.510	-10.242	1	16680	0	684
-13.740	-7.212	1	16740	0	684
-7.429	-5.950	1	16780	0	684
-5.986	-8.475	1	16814	0	684
-6.058	-10.025	1	16837	0	684
-7.537	-10.819	1	16845	0	684
-7.465	-7.825	1	16845	0	684
-6.022	-5.734	1	16837	0	684
-4.760	-4.868	1	16847	0	684
-3.210	-4.219	1	16945	0	684
-2.416	-5.842	1	17127	0	684
-1.154	-4.436	1	17294	0	684
1.515	-1.947	1	17396	0	684
5.481	-0.938	1	17459	0	684
7.753	-1.479	1	17536	0	684
9.052	-3.029	1	17634	0	684
8.330	-5.337	1	17726	0	684
7.825	-6.311	1	17799	0	684
7.898	-4.147	1	17878	0	684
9.268	-0.541	1	17962	0	684
14.461	6.131	1	18031	0	684
20.627	13.271	1	18104	0	684
25.929	18.608	1	18173	0	684
29.318	20.736	1	18221	0	684
26.686	19.510	1	18256	0	684
22.791	16.913	1	18281	0	684
19.149	15.723	1	18298	0	684
18.860	17.093	1	18296	0	684
21.277	19.293	1	18254	0	684
23.404	21.277	1	18173	0	684
23.837	20.844	1	18077	0	684
22.575	18.680	1	17964	1	736
22.142	18.860	1	17826	0	736
27.119	23.476	1	17674	0	736
32.636	30.472	32768	17523	0	736
39.704	37.324	32768	17379	0	736
41.039	40.137	32768	17244	0	736
40.065	38.334	32768	17118	0	736
38.478	35.701	32768	17010	0	736
39.993	36.351	32768	16910	0	736
43.996	40.065	32768	16797	0	736
49.333	46.412	32768	16670	0	736
52.001	51.208	32768	16538	0	736
53.300	55.752	32768	16404	0	736
54.886	60.765	32768	16288	0	736
58.168	64.263	32768	16165	0	736
63.325	68.121	32768	16000	0	736
70.898	72.701	32768	15815	0	736
77.678	74.468	32768	15691	0	736
82.185	75.586	32768	15641	0	736
81.969	74.396	32768	15595	0	736
80.490	71.836	32768	15529	0	736
76.704	67.328	32768	15447	0	736
75.550	64.551	32768	15370	0	736
73.675	64.082	32768	15320	0	736
71.763	65.525	32768	15295	0	736
67.905	63.577	32768	15251	0	736
62.748	60.801	32768	15165	0	736
58.384	55.283	32768	15086	0	736
54.670	49.730	32768	15067	0	736
52.470	48.143	32768	15111	0	736
52.506	49.441	32768	15184	0	736
53.336	52.939	32768	15243	0	736
54.778	53.552	32768	15286	0	736
53.552	51.424	32768	15314	0	736
50.198	47.638	32768	15303	0	736
46.989	43.058	32768	15270	0	736
44.212	42.048	32768	15261	0	736
46.015	43.779	32768	15286	0	736
47.999	48.467	32768	15314	0	736
48.179	49.657	32768	15332	0	736
43.996	47.061	32768	15343	0	736
35.341	39.199	32768	15345	0	736
27.984	29.787	32768	15345	0	736
25.748	21.781	1	15336	0	736
27.551	19.690	1	15328	0	736
30.797	19.401	1	15328	0	736
31.013	19.654	1	15341	0	736
24.919	17.959	1	15362	0	736
19.618	14.281	1	15382	0	736
15.831	10.999	1	15372	0	736
14.677	6.311	1	15351	0	736
11.576	4.688	1	15401	0	736
7.573	1.983	1	15533	0	736
-0.505	-0.397	1	15681	0	736
-7.537	-2.272	1	15796	0	736
-12.261	-4.472	1	15871	0	736
-14.389	-8.655	1	15942	0	736
-15.038	-12.045	1	16038	0	736
-15.867	-14.894	1	16163	0	736
-18.752	-18.933	1	16307	0	736
-24.991	-22.395	1	16432	0	736
-33.718	-27.335	1	16528	0	736
-42.012	-31.735	1	16621	0	736
-48.792	-34.692	1	16736	0	736
-50.595	-36.711	1	16853	0	736
-51.352	-39.055	1	16930	0	736
-52.362	-43.274	1	16970	0	736
-53.588	-48.359	1	16995	0	736
-54.526	-53.480	1	17014	0	736
-54.850	-56.004	1	17014	0	736
-53.660	-56.293	1	16989	0	736
-52.723	-59.286	1	16966	0	736
-49.189	-59.971	1	16951	0	736
-46.700	-59.574	1	16939	0	736
-43.274	-58.312	1	16918	0	736
-42.265	-55.031	1	16870	0	736
-45.943	-52.795	1	16789	0	736
-48.720	-51.677	1	16682	0	736
-50.343	-50.415	1	16567	0	736
-45.078	-46.845	1	16467	0	736
-37.144	-41.363	1	16402	0	736
-30.004	-37.000	1	16382	0	736
-27.479	-33.393	1	16378	0	736
-27.804	-30.941	1	16343	0	736
-28.201	-26.686	1	16270	0	736
-27.299	-23.657	1	16211	0	736
-23.224	-19.726	1	16184	0	736
-19.221	-16.733	1	16174	0	736
-16.048	-14.605	1	16169	0	736
-15.038	-12.441	1	16163	0	736
-12.910	-11.504	1	16161	0	736
-12.081	-9.881	1	16178	0	736
-11.504	-11.432	1	16215	0	736
-12.550	-13.631	1	16249	0	736
-16.408	-14.569	1	16266	0	736
-20.014	-16.408	1	16268	0	736
-21.241	-16.264	1	16236	0	736
-19.978	-14.064	1	16195	0	736
-18.247	-11.864	1	16180	0	736
-16.444	-9.376	1	16172	0	736
-18.356	-7.789	1	16159	0	736
-21.673	-6.635	1	16169	0	736
-24.450	-8.799	1	16209	0	736
-27.047	-10.999	1	16259	0	736
-29.823	-14.208	1	16282	0	736
-33.826	-16.733	1	16234	0	736
-36.423	-16.697	1	16128	0	736
-37.721	-13.992	1	16048	0	736
-37.360	-9.989	1	16021	0	736
-34.908	-8.366	1	16002	0	736
-33.249	-7.717	1	15988	0	736
-32.997	-9.304	1	15992	0	736
-33.069	-11.684	1	16013	0	736
-33.682	-15.435	1	16063	0	736
-35.233	-18.716	1	16167	0	736
-35.810	-22.467	1	16303	0	736
-33.718	-24.594	1	16376	0	736
-30.941	-25.965	1	16345	0	736
-28.561	-26.001	1	16249	0	736
-27.407	-28.886	1	16157	0	736
-30.797	-30.653	1	16103	0	736
-34.511	-34.079	1	16086	0	736
-37.757	-34.511	1	16078	0	736
-39.704	-33.682	1	16046	0	736
-41.724	-33.249	1	16011	0	736
-44.573	-33.177	1	16002	0	736
-44.284	-31.626	1	16034	0	736
-42.120	-27.515	1	16071	0	736
-36.062	-22.322	1	16080	0	736
-28.994	-16.625	1	16053	0	736
-24.775	-12.766	1	16019	0	736
-21.890	-11.900	1	16013	0	736
-20.952	-10.746	1	16040	0	736
-18.536	-8.871	1	16063	0	736
-16.264	-5.301	1	16071	0	736
-13.631	-1.298	1	16092	0	736
-12.694	0.649	1	16136	0	736
-11.973	1.010	1	16190	0	736
-11.648	-0.757	1	16228	0	736
-14.208	-5.049	1	16205	0	736
-18.211	-10.674	1	16119	0	736
-24.053	-16.841	1	16046	0	736
-29.174	-21.709	1	16017	0	736
-29.391	-24.522	1	16007	0	736
-25.063	-22.286	1	16009	0	736
-18.428	-20.303	1	16025	0	736
-12.910	-17.238	1	16044	0	736
-10.097	-15.651	1	16057	0	736
-9.124	-14.497	1	16065	0	736
-8.619	-9.809	1	16080	0	736
-5.409	-4.724	1	16094	0	736
-2.452	-0.108	1	16090	0	736
2.596	2.813	1	16073	0	736
6.996	4.544	1	16107	0	736
10.891	7.321	1	16195	0	736
14.172	15.218	1	16261	0	736
15.831	23.404	1	16274	0	736
16.589	29.354	1	16291	0	736
18.897	31.374	1	16388	0	736
23.080	32.167	1	16584	0	736
31.518	33.321	1	16826	0	736
41.363	38.442	1	17072	0	736
46.015	45.150	1	17313	0	736
45.366	44.320	1	17553	0	736
35.882	36.459	1	17807	0	736
24.558	24.450	1	18083	0	736
16.300	14.497	1	18358	0	736
15.543	12.658	1	18596	0	736
18.139	14.425	1	18799	0	736
18.933	17.490	1	18997	0	736
16.120	15.687	1	19191	0	736
11.179	9.701	1	19344	0	736
9.268	6.239	1	19438	0	736
10.422	7.176	1	19463	0	736
14.461	11.071	1	19394	0	736
15.435	16.480	1	19246	0	736
13.595	18.752	1	19089	0	736
11.287	17.923	1	18951	0	736
12.946	17.382	1	18818	1	712
17.923	18.356	1	18663	0	712
22.575	21.962	1	18459	0	712
24.162	24.666	1	18231	0	712
21.241	25.388	1	18066	0	712
16.300	21.781	32768	17960	0	712
11.684	15.831	32768	17820	0	712
10.963	11.756	32768	17594	0	712
9.917	7.537	32768	17317	0	712
5.301	4.147	32768	17054	0	712
-1.659	-0.649	32768	16834	0	712
-10.350	-5.734	32768	16651	0	712
-16.949	-9.809	32768	16482	0	712
-22.142	-14.569	32768	16295	0	712
-24.811	-17.021	32768	16084	0	712
-25.676	-21.096	32768	15879	0	712
-28.309	-27.227	32768	15712	0	712
-29.571	-30.653	32768	15581	0	712
-31.554	-34.764	32768	15462	0	712
-34.151	-35.990	32768	15366	0	712
-36.783	-37.036	32768	15311	0	712
-38.803	-38.983	32768	15301	0	712
-39.416	-40.101	32768	15305	0	712
-39.091	-41.363	32768	15270	0	712
-37.288	-38.839	32768	15149	0	712
-34.043	-33.538	32768	14990	0	712
-28.417	-26.938	32768	14904	0	712
-23.909	-22.286	32768	14904	0	712
-20.483	-19.906	32768	14921	0	712
-19.942	-22.503	32768	14942	0	712
-23.188	-27.010	32768	14984	0	712
-27.083	-33.105	32768	15034	0	712
-32.780	-38.911	32768	15073	0	712
-38.803	-43.924	32768	15107	0	712
-45.907	-48.143	32768	15151	0	712
-49.153	-48.648	32768	15197	0	712
-50.415	-47.854	32768	15209	0	712
-48.287	-46.520	32768	15203	0	712
-46.628	-43.924	32768	15238	0	712
-45.474	-44.320	32768	15322	0	712
-48.215	-43.815	32768	15399	0	712
-50.595	-43.130	32768	15418	0	712
-50.090	-40.498	1	15395	0	712
-47.061	-38.550	1	15401	0	712
-45.114	-36.459	1	15468	0	712
-42.193	-36.783	1	15581	0	712
-41.868	-37.180	1	15704	0	712
-39.993	-36.964	1	15817	0	712
-38.082	-34.944	1	15940	0	712
-33.105	-30.725	1	16080	0	712
-26.902	-26.181	1	16232	0	712
-23.440	-18.788	1	16374	0	712
-20.447	-11.323	1	16486	0	712
-19.473	-6.744	1	16580	0	712
-20.447	-6.203	1	16667	0	712
-24.450	-11.035	1	16757	0	712
-26.253	-19.329	1	16828	0	712
-29.535	-25.568	1	16832	0	712
-32.672	-31.626	1	16736	0	712
-37.468	-36.855	1	16588	0	712
-43.022	-41.327	1	16492	0	712
-48.215	-45.727	1	16471	0	712
-49.441	-46.736	1	16475	0	712
-45.871	-44.140	1	16480	0	712
-43.022	-41.399	1	16484	0	712
-40.498	-38.803	1	16490	0	712
-41.363	-36.783	1	16505	0	712
-40.245	-34.187	1	16571	0	712
-36.928	-29.787	1	16682	0	712
-33.466	-26.758	1	16747	0	712
-31.085	-23.837	1	16705	0	712
-32.203	-23.837	1	16590	0	712
-33.466	-23.440	1	16471	0	712
-31.590	-20.231	1	16386	0	712
-23.080	-15.759	1	16334	0	712
-15.471	-8.619	1	16286	0	712
-7.898	-5.193	1	16226	0	712
-7.248	-5.662	1	16153	0	712
-10.025	-8.943	1	16086	0	712
-15.795	-14.966	1	16044	0	712
-19.762	-18.644	1	16015	0	712
-21.349	-21.421	1	15973	0	712
-21.637	-23.296	1	15909	0	712
-21.385	-25.135	1	15802	0	712
-22.431	-26.217	1	15675	0	712
-22.719	-26.578	1	15579	0	712
-24.125	-24.955	1	15518	0	712
-23.909	-24.125	1	15483	0	712
-25.171	-26.037	1	15489	0	712
-25.316	-26.578	1	15537	0	712
-25.604	-26.974	1	15600	0	712
-22.683	-23.332	1	15635	0	712
-18.969	-18.572	1	15610	0	712
-15.074	-14.569	1	15541	0	712
-14.208	-12.946	1	15497	0	712
-13.920	-13.307	1	15510	0	712
-13.992	-11.540	1	15552	0	712
-12.369	-7.970	1	15606	0	712
-8.078	-5.842	1	15679	0	712
-8.150	-5.662	1	15750	0	712
-8.871	-9.340	1	15823	0	712
-14.064	-15.362	1	15967	0	712
-20.627	-20.880	1	16178	0	712
-25.929	-25.063	1	16349	0	712
-29.607	-30.400	1	16406	0	712
-31.266	-31.771	1	16394	0	712
-30.364	-31.771	1	16382	0	712
-27.876	-29.102	1	16394	0	712
-26.902	-26.938	1	16419	0	712
-28.381	-26.506	1	16409	0	712
-30.004	-30.905	1	16347	0	712
-34.115	-35.341	1	16295	0	712
-36.423	-39.632	1	16311	0	712
-35.882	-39.488	1	16364	0	712
-32.889	-36.098	1	16400	0	712
-29.102	-30.076	1	16404	0	712
-22.827	-23.549	1	16396	0	712
-17.887	-15.759	1	16402	0	712
-11.035	-9.088	1	16421	0	712
-2.957	0.397	1	16417	0	712
6.780	11.323	1	16382	0	712
15.579	21.529	1	16341	0	712
22.755	28.345	1	16330	0	712
27.299	31.554	1	16366	0	712
29.535	31.194	1	16423	0	712
29.895	27.047	1	16480	0	712
26.650	22.575	1	16509	0	712
20.555	17.057	1	16509	0	712
13.884	14.136	1	16492	0	712
11.612	14.894	1	16492	0	712
13.199	16.949	1	16500	0	712
17.166	19.437	1	16505	0	712
18.139	20.050	1	16490	0	712
15.687	17.887	1	16427	0	712
10.674	15.975	1	16351	0	712
5.806	14.966	1	16343	0	712
3.678	12.802	1	16394	0	712
3.714	10.674	1	16409	0	712
2.416	7.429	1	16334	0	712
0.000	3.426	1	16217	0	712
-3.065	2.128	1	16124	0	712
-3.931	1.911	1	16071	0	712
-1.875	5.770	1	16046	0	712
3.029	8.835	1	16028	0	712
6.996	11.071	1	16005	0	712
9.160	12.514	1	15998	0	712
7.573	12.946	1	16019	0	712
5.517	12.802	1	16048	0	712
5.445	15.831	1	16078	0	712
5.806	16.949	1	16098	0	712
6.022	14.533	1	16121	0	712
2.056	8.078	1	16172	0	712
-4.400	-1.442	1	16261	0	712
-10.566	-10.350	1	16370	0	712
-13.595	-14.172	1	16440	0	712
-10.927	-10.638	1	16442	0	712
-6.924	-8.042	1	16417	0	712
-7.609	-8.727	1	16465	0	712
-11.973	-15.939	1	16605	0	712
-19.762	-25.279	1	16770	0	712
-24.919	-32.925	1	16939	0	712
-29.030	-34.547	1	17127	0	712
-28.237	-33.970	1	17344	0	712
-27.119	-31.158	1	17571	0	712
-25.424	-28.237	1	17776	0	712
-20.988	-23.116	1	17958	0	712
-16.733	-17.779	1	18116	0	712
-12.766	-13.271	1	18210	0	712
-10.783	-10.999	1	18246	0	712
-9.737	-12.297	1	18279	0	712
-11.612	-14.858	1	18327	0	712
-12.153	-17.706	1	18358	0	712
-12.874	-17.490	1	18350	0	712
-11.720	-16.228	1	18315	0	712
-10.314	-12.081	1	18300	0	712
-10.386	-10.242	1	18323	0	712
-13.127	-12.405	1	18367	0	712
-17.562	-18.067	1	18388	0	712
-25.063	-27.407	1	18361	1	712
-34.079	-34.223	1	18325	0	712
-40.930	-38.550	1	18294	0	712
-46.664	-40.389	1	18242	0	712
-47.097	-38.875	1	18156	0	712
-44.104	-37.505	1	18031	0	712
-39.199	-36.964	1	17885	0	712
-34.872	-35.521	1	17738	0	712
-31.554	-33.105	1	17615	0	712
-29.643	-29.282	16384	17494	0	712
-27.876	-26.938	32768	17296	0	712
-27.732	-25.063	32768	16970	0	712
-28.561	-25.712	32768	16594	0	712
-26.253	-24.666	32768	16307	0	712
-22.791	-20.411	32768	16121	0	712
-18.572	-13.920	32768	15975	0	712
-16.012	-9.953	32768	15846	0	712
-16.300	-10.710	32768	15741	0	712
-18.969	-13.776	32768	15652	0	712
-19.906	-17.382	32768	15547	0	712
-18.320	-19.005	32768	15449	0	712
-16.661	-17.923	32768	15401	0	712
-16.516	-18.933	32768	15376	0	712
-19.437	-23.008	32768	15307	0	712
-23.585	-28.741	32768	15197	0	712
-29.066	-32.853	32768	15101	0	712
-30.040	-34.331	32768	15055	0	712
-32.095	-32.997	32768	15050	0	712
-32.961	-30.076	1	15053	0	712
-33.934	-28.958	1	15048	0	712
-35.233	-29.859	1	15055	0	712
-35.052	-31.554	1	15103	0	712
-33.321	-31.590	1	15192	0	712
-30.581	-29.643	1	15282	0	712
-25.316	-24.198	1	15341	0	712
-24.234	-20.050	1	15389	0	712
-23.440	-16.949	1	15455	0	712
-24.630	-18.283	1	15539	0	712
-26.686	-19.870	1	15612	0	712
-24.450	-20.952	1	15656	0	712
-19.329	-17.634	1	15681	0	712
-12.153	-12.153	1	15716	0	712
-4.796	-6.022	1	15802	0	712
-0.288	-0.325	1	15915	0	712
4.327	4.183	1	16002	0	712
5.481	6.419	1	16057	0	712
5.770	8.763	1	16119	0	712
2.777	7.898	1	16205	0	712
-0.865	7.248	1	16301	0	712
-3.895	6.203	1	16366	0	712
-4.940	7.032	1	16347	0	712
-4.183	6.924	1	16249	0	712
-1.911	7.465	1	16144	0	712
-0.108	8.402	1	16065	0	712
1.226	9.340	1	15998	0	712
0.613	11.648	1	15959	0	712
-1.623	10.710	1	15931	0	712
-5.193	9.665	1	15877	0	712
-7.212	8.258	1	15800	0	712
-3.354	8.799	1	15752	0	712
3.787	13.668	1	15764	0	712
10.386	17.238	1	15798	0	712
13.487	17.887	1	15792	0	712
12.153	16.120	1	15764	0	712
8.475	14.136	1	15806	0	712
9.052	14.605	1	15927	0	712
13.307	19.257	1	16069	0	712
19.401	24.847	1	16182	0	712
24.522	30.617	1	16261	0	712
25.712	33.105	1	16341	0	712
24.053	32.528	1	16440	0	712
18.933	29.427	1	16542	0	712
14.821	26.506	1	16615	0	712
12.369	23.116	1	16653	0	712
11.973	19.149	1	16678	0	712
11.323	13.884	1	16713	0	712
8.042	6.094	1	16766	0	712
0.829	-3.967	1	16816	0	712
-7.357	-10.530	1	16839	0	712
-13.343	-15.398	1	16839	0	712
-16.444	-14.281	1	16843	0	712
-16.625	-11.396	1	16862	0	712
-15.038	-8.330	1	16868	0	712
-14.966	-5.842	1	16837	0	712
-15.939	-8.222	1	16784	0	712
-20.159	-11.828	1	16732	0	712
-26.866	-17.634	1	16680	0	712
-30.905	-23.044	1	16628	0	712
-32.312	-26.794	1	16565	0	712
-30.040	-28.417	1	16480	0	712
-25.099	-25.965	1	16364	0	712
-22.719	-22.106	1	16205	0	712
-19.690	-16.805	1	16021	0	712
-16.480	-12.946	1	15856	0	712
-12.405	-11.251	1	15737	0	712
-10.206	-12.045	1	15635	0	712
-10.350	-14.641	1	15506	0	712
-13.163	-17.382	1	15343	0	712
-19.077	-20.555	1	15209	0	712
-24.089	-24.630	1	15147	0	712
-31.122	-30.617	1	15151	0	712
-39.199	-36.855	1	15176	0	712
-44.645	-44.969	1	15199	0	712
-48.143	-48.720	1	15232	0	712
-47.926	-49.585	1	15280	0	712
-44.356	-47.422	1	15324	0	712
-43.419	-43.310	1	15368	0	712
-43.960	-42.409	1	15420	0	712
-46.989	-43.202	1	15485	0	712
-50.487	-45.655	1	15577	0	712
-48.972	-45.655	1	15712	0	712
-43.960	-43.779	1	15846	0	712
-37.288	-38.983	1	15881	0	712
-32.095	-36.098	1	15825	0	712
-30.076	-35.305	1	15798	0	712
-31.843	-35.918	1	15850	0	712
-32.492	-35.269	1	15942	0	712
-31.771	-33.393	1	16034	0	712
-29.715	-30.761	1	16128	0	712
-27.335	-30.004	1	16247	0	712
-27.335	-30.436	1	16376	0	712
-27.407	-30.977	1	16484	0	712
-28.777	-29.246	1	16578	0	712
-30.292	-28.417	1	16663	0	712
-33.357	-27.155	1	16749	0	712
-37.072	-28.561	1	16828	0	712
-41.147	-30.364	1	16889	0	712
-44.104	-30.004	1	16918	0	712
-41.543	-27.515	1	16935	0	712
-35.233	-24.811	1	16943	0	712
-28.525	-21.890	1	16914	0	712
-23.404	-20.772	1	16849	0	712
-20.195	-20.519	1	16814	0	712
-17.995	-17.959	1	16828	0	712
-13.956	-16.120	1	16857	0	712
-9.124	-11.973	1	16859	0	712
-3.101	-9.412	1	16820	0	712
-0.577	-6.924	1	16761	0	712
1.226	-4.219	1	16718	0	712
4.832	-0.577	1	16692	0	712
11.648	4.724	1	16661	0	712
18.752	9.448	1	16596	0	712
25.027	11.864	1	16519	0	712
26.325	11.251	1	16467	0	712
24.883	9.989	1	16469	0	712
23.729	11.612	1	16502	0	712
27.443	16.228	1	16525	0	712
35.593	24.017	1	16534	0	712
41.832	30.689	1	16561	0	712
42.770	32.672	1	16611	0	712
37.757	30.617	1	16674	0	712
31.771	28.381	1	16740	0	712
29.463	27.624	1	16818	0	712
29.391	26.506	1	16903	0	712
31.230	26.722	1	17008	0	712
30.220	25.316	1	17131	0	712
25.965	23.152	1	17254	0	712
21.998	20.916	1	17369	0	712
18.536	20.952	1	17467	0	712
15.146	18.824	1	17523	0	712
12.261	15.939	1	17551	0	712
12.405	13.379	1	17613	0	712
12.730	11.323	1	17718	0	712
14.281	11.179	1	17797	0	712
12.874	9.809	1	17799	0	712
9.845	10.386	1	17755	0	712
5.698	8.294	1	17726	0	712
3.859	6.960	1	17726	0	712
3.390	3.678	1	17747	0	712
0.757	-2.705	1	17768	1	676
-4.688	-8.763	1	17768	0	676
-13.920	-15.146	1	17768	0	676
-20.411	-19.329	1	17774	0	676
-26.506	-22.719	1	17770	0	676
-27.119	-24.198	1	17745	0	676
-27.624	-27.660	1	17688	0	676
-28.417	-31.013	1	17611	0	676
-31.518	-35.918	1	17534	0	676
-34.980	-40.930	1	17475	0	676
-38.226	-44.897	1	17440	0	676
-40.606	-46.845	1	17404	0	676
-40.389	-44.248	1	17344	0	676
-40.858	-42.445	1	17248	0	676
-39.019	-41.616	1	17133	0	676
-39.488	-43.635	1	17010	0	676
-38.803	-43.310	1	16872	0	676
-39.127	-41.760	1	16730	0	676
-37.685	-37.216	1	16586	0	676
-36.387	-32.636	32768	16438	0	676
-35.846	-32.167	32768	16286	0	676
-36.314	-32.961	32768	16126	0	676
-38.154	-35.846	32768	15965	0	676
-41.183	-37.721	32768	15806	0	676
-44.248	-38.586	1	15637	0	676
-44.248	-37.865	1	15470	0	676
-45.186	-38.334	1	15334	0	676
-43.635	-38.731	1	15230	0	676
-41.399	-37.288	1	15103	0	676
-36.278	-33.321	1	14923	0	676
-31.662	-26.794	1	14750	0	676
-28.705	-18.716	1	14656	0	676
-28.128	-14.100	1	14641	0	676
-30.653	-13.668	1	14677	0	676
-34.764	-17.959	1	14731	0	676
-36.459	-21.241	1	14783	0	676
-37.396	-24.666	1	14842	0	676
-38.658	-24.342	1	14921	0	676
-40.498	-23.080	1	15021	0	676
-41.111	-22.322	1	15130	0	676
-41.255	-20.087	1	15226	0	676
-36.567	-18.680	1	15324	0	676
-32.203	-16.949	1	15445	0	676
-30.004	-15.507	1	15600	0	676
-29.715	-14.100	1	15758	0	676
-31.230	-13.091	1	15892	0	676
-29.823	-10.819	1	15994	0	676
-26.578	-10.133	1	16078	0	676
-23.368	-9.556	1	16159	0	676
-22.358	-11.792	1	16211	0	676
-25.604	-13.307	1	16180	0	676
-25.568	-12.477	1	16088	0	676
-23.476	-9.556	1	16017	0	676
-19.077	-6.527	1	15975	0	676
-15.002	-4.508	1	15938	0	676
-13.595	-4.219	1	15934	0	676
-10.097	-2.777	1	15979	0	676
-6.347	-1.551	1	16028	0	676
0.397	-0.036	1	16025	0	676
2.813	-0.829	1	16011	0	676
2.380	-2.813	1	16080	0	676
-1.154	-4.255	1	16228	0	676
-0.685	-2.993	1	16362	0	676
3.354	0.325	1	16440	0	676
7.537	1.983	1	16482	0	676
10.061	1.875	1	16521	0	676
5.842	-0.649	1	16586	0	676
0.000	-4.688	1	16659	0	676
-5.049	-7.393	1	16709	0	676
-7.357	-10.422	1	16724	0	676
-7.717	-11.396	1	16736	0	676
-7.176	-11.864	1	16770	0	676
-6.419	-10.819	1	16824	0	676
-7.681	-8.943	1	16882	0	676
-10.061	-10.025	1	16912	0	676
-16.516	-15.110	1	16918	0	676
-25.568	-24.558	1	16922	0	676
-34.692	-34.187	1	16901	0	676
-39.308	-39.560	1	16847	0	676
-39.668	-38.586	1	16805	0	676
-34.151	-32.564	1	16789	0	676
-26.866	-25.207	1	16772	0	676
-22.719	-19.870	1	16738	0	676
-20.375	-19.546	1	16703	0	676
-23.260	-22.791	1	16659	0	676
-29.174	-26.830	1	16588	0	676
-34.403	-30.977	1	16488	0	676
-35.449	-29.354	1	16372	0	676
-30.725	-25.712	1	16259	0	676
-25.604	-19.473	1	16153	0	676
-21.601	-16.805	1	16050	0	676
-22.935	-16.589	1	15946	0	676
-26.866	-19.041	1	15810	0	676
-30.581	-20.772	1	15666	0	676
-29.823	-22.467	1	15591	0	676
-28.669	-21.204	1	15593	0	676
-27.263	-20.123	1	15612	0	676
-24.125	-18.139	1	15622	0	676
-21.241	-14.930	1	15627	0	676
-15.651	-11.864	1	15641	0	676
-10.350	-9.737	1	15668	0	676
-6.816	-7.465	1	15708	0	676
-4.472	-7.393	1	15737	0	676
-4.472	-5.986	1	15727	0	676
-1.370	-3.714	1	15693	0	676
0.974	-1.875	1	15685	0	676
2.849	0.577	1	15725	0	676
1.947	1.406	1	15787	0	676
-0.325	0.144	1	15838	0	676
-3.282	-0.974	1	15863	0	676
-4.255	-2.560	1	15886	0	676
-3.606	-2.705	1	15925	0	676
-2.416	-2.164	1	15982	0	676
-2.885	-1.659	1	16046	0	676
-5.590	-1.442	1	16124	0	676
-7.140	-2.164	1	16197	0	676
-10.242	-3.787	1	16257	0	676
-15.110	-8.727	1	16311	0	676
-21.565	-13.848	1	16353	0	676
-27.804	-20.555	1	16380	0	676
-32.348	-25.496	1	16378	0	676
-32.780	-30.292	1	16309	0	676
-29.571	-30.761	1	16186	0	676
-26.614	-32.203	1	16086	0	676
-27.696	-33.357	1	16034	0	676
-30.761	-34.836	1	16002	0	676
-36.387	-37.432	1	15961	0	676
-40.101	-41.183	1	15906	0	676
-41.219	-43.310	1	15867	0	676
-38.803	-44.789	1	15865	0	676
-36.134	-42.914	1	15898	0	676
-35.088	-41.327	1	15938	0	676
-36.278	-39.091	1	15963	0	676
-38.118	-36.783	1	15963	0	676
-39.452	-35.521	1	15900	0	676
-37.685	-33.646	1	15792	0	676
-37.108	-32.492	1	15723	0	676
-35.377	-31.843	1	15704	0	676
-34.872	-30.761	1	15708	0	676
-33.177	-29.751	1	15748	0	676
-30.076	-24.630	1	15850	0	676
-26.433	-21.024	1	15998	0	676
-25.640	-17.743	1	16128	0	676
-27.479	-19.978	1	16197	0	676
-31.302	-24.522	1	16232	0	676
-34.583	-29.931	1	16309	0	676
-34.656	-31.987	1	16454	0	676
-33.862	-32.708	1	16628	0	676
-33.574	-32.961	1	16818	0	676
-34.944	-34.295	1	17041	0	676
-37.721	-36.206	1	17294	0	676
-39.380	-36.459	1	17555	0	676
-38.370	-33.646	1	17793	0	676
-32.384	-29.030	1	17985	0	676
-25.460	-22.719	1	18135	0	676
-16.913	-17.670	1	18256	0	676
-13.127	-14.569	1	18358	0	676
-10.999	-13.487	1	18469	0	676
-12.730	-15.687	1	18586	0	676
-12.045	-17.526	1	18670	0	676
-10.386	-18.969	1	18713	0	676
-6.852	-18.644	1	18755	0	676
-4.039	-16.697	1	18832	0	676
-4.580	-15.038	1	18956	0	676
-4.472	-12.405	1	19079	0	676
-4.075	-9.124	1	19133	0	676
-0.469	-5.157	1	19102	0	676
4.508	-1.190	1	19039	0	676
10.422	3.498	1	18981	0	676
15.507	8.150	1	18926	0	676
19.654	12.658	1	18855	1	680
23.296	16.192	1	18743	0	680
26.325	18.572	1	18605	0	680
29.823	18.716	1	18469	0	680
32.564	18.969	1	18346	0	680
36.783	19.185	1	18216	0	680
40.750	20.447	1	18052	0	680
44.825	21.421	32768	17853	0	680
46.087	21.601	32768	17642	0	680
45.655	22.755	32768	17434	0	680
43.274	23.512	32768	17206	0	680
39.812	23.296	32768	16908	0	680
33.646	20.014	32768	16542	0	680
26.794	12.441	32768	16192	0	680
17.851	4.868	32768	15892	0	680
9.953	-0.252	32768	15635	0	680
4.364	-1.082	32768	15407	0	680
1.334	0.000	32768	15205	0	680
-0.216	-1.190	32768	15011	0	680
-2.813	-5.590	32768	14796	0	680
-6.491	-12.586	32768	14591	0	680
-12.081	-17.562	32768	14499	0	680
-16.048	-21.204	32768	14529	0	680
-20.447	-26.397	32768	14572	0	680
-26.361	-31.410	32768	14560	0	680
-32.528	-37.649	1	14508	0	680
-39.704	-41.796	1	14468	0	680
-45.330	-43.887	1	14455	0	680
-47.710	-41.832	1	14430	0	680
-46.304	-40.389	1	14359	0	680
-41.868	-39.957	1	14284	0	680
-41.796	-42.337	1	14261	0	680
-42.120	-45.330	1	14309	0	680
-43.563	-48.179	1	14416	0	680
-44.140	-46.448	1	14545	0	680
-39.488	-40.714	1	14685	0	680
-34.079	-35.882	1	14838	0	680
-27.804	-34.115	1	15019	0	680
-26.614	-35.449	1	15247	0	680
-25.171	-36.423	1	15512	0	680
-22.611	-32.312	1	15764	0	680
-15.939	-20.988	1	15984	0	680
-8.042	-9.232	1	16184	0	680
-3.282	-2.200	1	16382	0	680
-3.967	-3.065	1	16565	0	680
-11.432	-10.710	1	16722	0	680
-20.411	-21.529	1	16847	0	680
-28.237	-30.220	1	16956	0	680
-33.285	-35.918	1	17035	0	680
-39.416	-41.507	1	17102	0	680
-48.936	-47.746	1	17206	0	680
-59.791	-56.545	1	17331	0	680
-69.455	-66.859	1	17404	0	680
-76.307	-75.838	1	17402	0	680
-78.471	-82.077	1	17381	0	680
-81.969	-86.765	1	17386	0	680
-85.647	-87.775	1	17396	0	680
-84.710	-86.837	16384	17356	0	680
-78.182	-82.402	32768	17252	0	680
-68.374	-75.911	16384	17102	0	680
-58.889	-68.662	1	16943	0	680
-57.771	-65.056	1	16811	0	680
-62.279	-66.462	1	16720	0	680
-68.770	-69.528	1	16632	0	680
-72.268	-72.629	1	16521	0	680
-74.035	-76.415	1	16404	0	680
-73.855	-77.065	1	16305	0	680
-76.127	-78.363	1	16211	0	680
-78.255	-79.517	1	16111	0	680
-80.058	-77.605	1	16013	0	680
-77.605	-74.396	1	15934	0	680
-74.648	-68.951	1	15888	0	680
-69.564	-63.902	1	15881	0	680
-65.994	-58.745	1	15892	0	680
-62.532	-56.293	1	15902	0	680
-61.269	-54.021	1	15906	0	680
-61.342	-54.814	1	15906	0	680
-65.380	-58.709	1	15896	0	680
-74.288	-64.335	1	15877	0	680
-81.825	-71.439	1	15863	0	680
-86.837	-75.586	1	15854	0	680
-87.198	-76.668	1	15835	0	680
-87.378	-77.605	1	15808	0	680
-89.722	-79.120	1	15810	0	680
-98.413	-85.215	1	15869	0	680
-104.255	-92.499	1	15936	0	680
-106.708	-97.620	1	15927	0	680
-103.354	-98.161	1	15860	0	680
-97.764	-95.745	1	15810	0	680
-95.456	-91.850	1	15819	0	680
-96.610	-91.814	1	15858	0	680
-100.649	-93.401	1	15833	0	680
-101.118	-95.997	1	15716	0	680
-98.089	-96.574	1	15572	0	680
-92.319	-93.797	1	15468	0	680
-88.785	-90.912	1	15395	0	680
-88.749	-89.831	1	15336	0	680
-91.670	-89.794	1	15293	0	680
-92.788	-91.057	1	15255	0	680
-90.948	-88.280	1	15245	0	680
-84.421	-84.638	1	15288	0	680
-78.832	-80.635	1	15380	0	680
-75.298	-79.481	1	15481	0	680
-74.612	-77.750	1	15562	0	680
-71.367	-74.468	1	15637	0	680
-66.787	-67.147	1	15729	0	680
-60.728	-59.538	1	15844	0	680
-57.699	-54.454	1	15982	0	680
-58.745	-54.742	1	16117	0	680
-63.397	-57.411	1	16234	0	680
-64.840	-57.843	1	16334	0	680
-62.243	-56.545	1	16417	0	680
-57.375	-52.831	1	16498	0	680
-55.103	-50.270	1	16584	0	680
-58.673	-51.244	1	16667	0	680
-64.479	-54.345	1	16707	0	680
-70.069	-57.627	1	16688	0	680
-72.268	-63.000	1	16624	0	680
-72.737	-68.951	1	16553	0	680
-73.855	-74.793	1	16486	0	680
-75.370	-78.543	1	16417	0	680
-77.317	-77.822	1	16353	0	680
-78.363	-73.891	1	16301	0	680
-78.291	-68.734	1	16266	0	680
-79.373	-65.380	1	16255	0	680
-80.022	-66.571	1	16270	0	680
-80.923	-68.013	1	16270	0	680
-80.346	-71.006	1	16228	0	680
-80.130	-72.413	1	16176	0	680
-79.120	-72.449	1	16134	0	680
-79.877	-71.150	1	16105	0	680
-81.428	-70.501	1	16076	0	680
-83.664	-69.744	1	16038	0	680
-82.690	-67.833	1	16025	0	680
-79.084	-63.289	1	16078	0	680
-72.449	-58.312	1	16188	0	680
-66.859	-54.309	1	16324	0	680
-65.344	-55.067	1	16459	0	680
-65.885	-57.952	1	16609	0	680
-67.075	-60.043	1	16797	0	680
-64.803	-59.611	1	17029	0	680
-60.584	-54.742	1	17273	0	680
-54.886	-49.225	1	17500	0	680
-52.362	-45.727	1	17715	0	680
-53.191	-46.845	1	17933	0	680
-55.283	-50.559	1	18152	0	680
-58.348	-57.194	1	18356	0	680
-57.591	-60.260	1	18525	0	680
-54.959	-59.647	1	18649	0	680
-50.487	-53.660	1	18728	0	680
-47.386	-48.720	1	18755	0	680
-44.645	-45.871	1	18734	0	680
-44.789	-47.133	1	18715	0	680
-43.707	-49.549	1	18715	0	680
-43.166	-50.415	1	18699	0	680
-41.652	-47.962	1	18626	1	620
-41.435	-44.825	1	18530	0	620
-40.389	-44.320	1	18500	0	620
-39.596	-46.845	1	18546	0	620
-38.082	-47.854	1	18590	0	620
-36.675	-47.782	1	18573	0	620
-34.620	-44.212	1	18498	0	620
-34.583	-39.235	32768	18396	0	620
-36.098	-38.226	32768	18296	0	620
-38.045	-40.570	32768	18187	0	620
-38.370	-45.582	32768	18035	0	620
-37.613	-47.458	32768	17828	0	620
-36.098	-47.205	32768	17599	0	620
-34.583	-44.537	32768	17379	0	620
-35.413	-40.570	32768	17189	0	620
-37.901	-40.317	32768	17024	0	620
-40.426	-42.120	32768	16855	0	620
-44.609	-44.825	32768	16649	0	620
-46.628	-46.484	32768	16370	0	620
-47.097	-44.681	32768	16057	0	620
-45.510	-39.308	32768	15804	0	620
-41.868	-34.259	32768	15614	0	620
-37.396	-29.463	32768	15451	0	620
-34.872	-27.371	32768	15324	0	620
-30.292	-23.512	32768	15240	0	620
-23.476	-16.985	32768	15190	0	620
-12.081	-5.121	32768	15132	0	620
-0.072	7.140	32768	15021	0	620
7.321	14.245	32768	14871	0	620
9.448	14.785	32768	14714	0	620
5.481	11.396	32768	14589	0	620
0.505	6.996	32768	14531	0	620
-2.344	7.609	32768	14537	0	620
-3.498	9.520	32768	14562	0	620
-3.787	13.199	32768	14558	0	620
-4.760	15.002	32768	14547	0	620
-4.147	14.389	32768	14597	0	620
-4.688	11.071	32768	14723	0	620
-4.544	7.717	32768	14863	0	620
-7.285	2.777	32768	14984	0	620
-11.251	1.082	32768	15086	0	620
-13.992	1.334	32768	15197	0	620
-17.274	2.019	32768	15334	0	620
-19.546	3.570	32768	15499	0	620
-22.467	3.173	32768	15664	0	620
-26.433	1.406	32768	15806	0	620
-27.515	0.180	32768	15934	0	620
-26.253	-0.902	32768	16067	0	620
-21.529	-1.983	32768	16222	0	620
-14.677	-0.433	32768	16376	0	620
-9.737	1.659	32768	16486	0	620
-6.455	2.200	32768	16563	0	620
-6.708	1.010	32768	16632	0	620
-8.078	-2.308	32768	16720	0	620
-12.009	-8.006	32768	16814	0	620
-15.398	-13.992	32768	16882	0	620
-19.798	-19.149	32768	16912	0	620
-27.263	-22.899	32768	16914	0	620
-33.574	-26.397	32768	16912	0	620
-40.642	-29.138	32768	16918	0	620
-48.395	-35.701	32768	16926	0	620
-53.228	-42.481	32768	16920	0	620
-57.771	-51.316	32768	16901	0	620
-60.404	-56.581	32768	16874	0	620
-58.637	-57.771	32768	16866	0	620
-55.391	-56.076	32768	16910	0	620
-52.326	-53.877	32768	16962	0	620
-52.001	-53.011	32768	16930	0	620
-53.841	-52.434	32768	16826	0	620
-58.493	-53.516	32768	16711	0	620
-60.404	-53.588	32768	16609	0	620
-58.853	-51.424	32768	16530	0	620
-53.588	-47.926	32768	16475	0	620
-46.736	-43.527	32768	16409	0	620
-40.137	-37.721	32768	16320	0	620
-37.036	-34.403	32768	16238	0	620
-37.036	-31.951	32768	16182	0	620
-39.055	-32.167	32768	16128	0	620
-39.740	-33.502	32768	16061	0	620
-39.091	-34.403	32768	15979	0	620
-35.160	-32.997	32768	15900	0	620
-30.076	-29.463	32768	15850	0	620
-26.433	-23.224	32768	15842	0	620
-24.666	-20.267	32768	15848	0	620
-26.073	-20.916	32768	15815	0	620
-27.155	-24.666	32768	15748	0	620
-28.273	-29.787	32768	15704	0	620
-29.679	-31.410	32768	15708	0	620
-31.699	-32.276	32768	15744	0	620
-33.898	-32.853	32768	15777	0	620
-35.521	-34.547	32768	15798	0	620
-32.925	-36.314	32768	15812	0	620
-27.010	-34.836	32768	15819	0	620
-18.356	-29.715	16384	15823	0	620
-10.566	-21.457	1	15856	0	620
-4.977	-13.307	1	15925	0	620
-3.967	-8.691	1	15961	0	620
-5.626	-8.691	1	15911	0	620
-9.160	-10.278	1	15812	0	620
-12.189	-12.982	1	15731	0	620
-11.468	-11.648	1	15691	0	620
-5.409	-7.789	1	15683	0	620
2.452	-0.325	1	15702	0	620
8.943	5.770	1	15733	0	620
12.441	9.376	1	15762	0	620
12.550	12.189	1	15796	0	620
12.586	13.668	1	15852	0	620
16.048	16.372	1	15894	0	620
24.089	18.644	1	15892	0	620
32.095	19.437	1	15875	0	620
37.144	18.103	1	15869	0	620
39.524	16.480	1	15875	0	620
39.704	17.057	1	15867	0	620
40.389	20.555	1	15835	0	620
41.832	22.827	1	15802	0	620
42.914	24.486	1	15798	0	620
42.301	21.890	1	15833	0	620
39.632	19.185	1	15894	0	620
36.747	17.129	1	15944	0	620
34.223	16.985	1	15975	0	620
32.095	16.841	1	16015	0	620
31.879	16.480	1	16078	0	620
34.403	16.264	1	16157	0	620
37.937	17.454	1	16238	0	620
39.488	21.745	1	16278	0	620
39.668	26.686	1	16261	0	620
38.334	33.718	1	16249	0	620
39.488	39.199	1	16263	0	620
44.897	42.986	1	16280	0	620
50.884	45.474	1	16295	0	620
50.054	45.510	1	16320	0	620
44.933	44.861	1	16341	0	620
36.964	42.734	1	16353	0	620
32.600	41.075	1	16404	0	620
34.583	36.855	1	16542	0	620
37.432	32.853	1	16703	0	620
40.137	30.292	1	16816	0	620
39.055	31.230	1	16891	0	620
39.055	34.403	1	16970	0	620
40.822	38.442	1	17083	0	620
46.123	40.317	1	17237	0	620
48.684	38.370	1	17425	0	620
49.621	37.036	1	17615	0	620
45.691	36.964	1	17791	0	620
39.668	37.793	1	17962	0	620
35.737	36.819	1	18137	0	620
33.862	34.439	1	18304	0	620
34.295	30.436	1	18438	0	620
33.321	27.515	1	18551	0	620
29.571	27.083	1	18670	0	620
23.909	28.092	1	18799	0	620
19.185	28.705	1	18916	0	620
20.555	27.587	1	18987	0	620
25.424	27.984	32768	19004	0	620
32.276	28.056	32768	18993	0	620
34.692	28.453	32768	18976	0	620
32.239	26.686	32768	18947	0	620
27.010	23.909	32768	18868	0	620
21.529	20.087	32768	18720	1	632
17.815	18.067	32768	18521	0	632
16.012	16.913	32768	18325	0	632
15.110	16.336	32768	18143	0	632
15.146	17.995	32768	17960	0	632
18.175	22.250	32768	17772	0	632
22.214	28.381	32768	17573	0	632
23.080	31.843	32768	17327	0	632
19.870	30.725	32768	17037	0	632
13.559	25.640	32768	16763	0	632
7.501	19.473	32768	16528	0	632
8.114	17.310	32768	16322	0	632
10.999	19.906	32768	16124	0	632
14.641	23.008	32768	15929	0	632
15.146	22.972	32768	15762	0	632
13.631	23.332	32768	15639	0	632
13.307	24.522	32768	15547	0	632
18.500	28.453	32768	15443	0	632
25.243	33.646	32768	15309	0	632
32.167	37.505	32768	15201	0	632
35.269	37.360	32768	15155	0	632
35.774	33.646	32768	15151	0	632
32.312	29.427	32768	15147	0	632
24.342	23.224	32768	15132	0	632
16.949	17.815	32768	15124	0	632
10.494	11.287	32768	15151	0	632
7.140	6.311	32768	15220	0	632
8.763	3.967	32768	15305	0	632
11.612	4.796	32768	15362	0	632
12.874	6.311	32768	15391	0	632
12.982	6.924	32768	15424	0	632
11.756	7.537	32768	15472	0	632
11.107	6.022	32768	15520	0	632
10.783	3.931	32768	15545	0	632
10.783	1.731	32768	15552	0	632
9.737	-2.019	32768	15554	0	632
6.852	-6.419	32768	15556	0	632
5.013	-6.960	32768	15556	0	632
3.462	-5.517	32768	15562	0	632
3.823	-3.101	32768	15583	0	632
3.967	0.938	32768	15608	0	632
3.714	1.659	32768	15606	0	632
2.128	2.236	32768	15577	0	632
-0.072	2.308	32768	15535	0	632
0.036	1.947	32768	15437	0	632
-0.036	0.865	32768	15309	0	632
-0.613	-1.334	32768	15245	0	632
-2.777	-3.426	32768	15249	0	632
-5.698	-6.311	32768	15291	0	632
-11.179	-9.809	32768	15384	0	632
-17.057	-14.605	32768	15520	0	632
-22.863	-20.844	32768	15666	0	632
-26.578	-27.768	32768	15794	0	632
-28.201	-30.941	32768	15921	0	632
-25.820	-33.177	32768	16063	0	632
-22.106	-32.384	32768	16207	0	632
-20.123	-31.158	32768	16351	0	632
-20.736	-30.256	32768	16480	0	632
-24.089	-32.167	32768	16605	0	632
-27.551	-34.151	32768	16730	0	632
-28.669	-34.692	32768	16853	0	632
-24.991	-32.600	32768	16949	0	632
-16.192	-27.083	32768	16970	0	632
-8.402	-20.159	32768	16880	0	632
-1.442	-13.920	32768	16734	0	632
1.118	-10.386	32768	16634	0	632
2.488	-6.563	32768	16601	0	632
4.436	-1.767	32768	16594	0	632
6.491	4.904	32768	16596	0	632
11.612	12.369	32768	16607	0	632
13.992	20.880	32768	16603	0	632
14.821	25.965	32768	16582	0	632
13.415	28.092	32768	16563	0	632
8.078	26.722	32768	16557	0	632
3.065	23.188	32768	16534	0	632
-2.200	20.050	32768	16461	0	632
-4.111	18.067	32768	16368	0	632
-5.265	16.444	32768	16336	0	632
-6.419	12.982	32768	16368	0	632
-8.078	9.232	32768	16394	0	632
-9.160	3.787	32768	16394	0	632
-11.468	1.479	32768	16376	0	632
-12.189	-0.216	32768	16343	0	632
-15.507	-1.118	32768	16322	0	632
-19.257	-1.767	32768	16316	0	632
-21.818	-3.029	32768	16297	0	632
-21.890	-1.731	32768	16249	0	632
-16.913	1.406	32768	16197	0	632
-11.468	2.957	32768	16165	0	632
-7.285	5.481	32768	16165	0	632
-6.058	5.914	32768	16167	0	632
-5.157	6.383	32768	16151	0	632
-3.282	10.386	32768	16121	0	632
1.479	15.471	32768	16103	0	632
5.121	19.149	32768	16098	0	632
6.347	19.113	32768	16094	0	632
4.400	15.254	32768	16055	0	632
0.144	9.917	32768	15942	0	632
-3.931	5.626	1	15783	0	632
-8.871	4.219	1	15675	0	632
-11.864	5.229	1	15637	0	632
-15.723	6.347	1	15627	0	632
-17.634	5.734	1	15625	0	632
-18.933	3.967	1	15639	0	632
-20.050	-0.036	1	15643	0	632
-20.519	-2.669	1	15625	0	632
-18.824	-2.885	1	15637	0	632
-15.290	-0.793	1	15719	0	632
-12.081	2.272	1	15787	0	632
-10.386	3.029	1	15785	0	632
-8.511	0.144	1	15737	0	632
-8.006	-2.885	1	15698	0	632
-5.554	-5.554	1	15685	0	632
-1.875	-4.508	1	15673	0	632
-0.469	0.361	1	15618	0	632
2.344	7.862	1	15541	0	632
8.439	15.615	1	15497	0	632
15.146	22.719	1	15518	0	632
21.854	26.866	1	15591	0	632
25.316	26.902	1	15675	0	632
25.568	26.866	1	15748	0	632
22.503	25.748	1	15831	0	632
21.385	25.820	1	15944	0	632
21.060	23.765	1	16090	0	632
17.923	20.808	1	16238	0	632
12.369	15.398	1	16362	0	632
4.977	12.045	1	16473	0	632
0.397	10.314	1	16621	0	632
-1.190	10.602	1	16814	0	632
0.397	10.386	1	17022	0	632
1.803	7.465	1	17223	0	632
-1.442	1.839	1	17409	0	632
-6.383	-3.065	1	17584	0	632
-10.710	-6.239	1	17745	0	632
-8.943	-4.364	1	17889	0	632
-3.065	-0.721	1	18016	0	632
4.003	2.957	1	18139	0	632
7.898	4.904	1	18252	0	632
7.681	3.931	1	18308	0	632
4.544	3.534	1	18317	0	632
3.498	6.491	1	18340	0	632
9.737	13.848	1	18392	0	632
17.670	23.512	1	18446	0	632
27.263	31.771	1	18454	0	632
31.807	36.567	1	18419	0	632
30.617	35.737	32768	18381	0	632
27.912	31.446	32768	18346	0	632
24.739	27.624	32768	18269	0	632
22.142	23.188	32768	18143	1	592
22.395	18.464	32768	18018	0	592
19.834	12.369	32768	17937	0	592
17.779	7.429	32768	17901	0	592
15.651	2.705	32768	17874	0	592
14.533	2.993	32768	17839	0	592
12.982	5.229	32768	17780	0	592
9.052	6.671	32768	17715	0	592
5.878	5.301	32768	17649	0	592
0.685	3.354	32768	17596	0	592
-3.173	-2.669	32768	17553	0	592
-4.904	-6.203	32768	17492	0	592
-5.554	-10.710	32768	17413	0	592
-8.294	-14.677	32768	17329	0	592
-11.720	-17.959	32768	17242	0	592
-16.084	-20.123	32768	17141	0	592
-20.087	-21.745	32768	17008	0	592
-23.549	-22.683	32768	16857	0	592
-25.243	-25.460	32768	16720	0	592
-28.561	-29.607	32768	16599	0	592
-30.725	-32.997	32768	16475	0	592
-31.446	-35.124	32768	16349	0	592
-30.689	-34.439	32768	16228	0	592
-29.138	-33.898	32768	16111	0	592
-27.984	-34.151	32768	15961	0	592
-30.905	-36.387	32768	15796	0	592
-33.754	-37.360	32768	15687	0	592
-36.206	-36.964	32768	15579	0	592
-35.269	-33.357	32768	15387	0	592
-33.141	-31.049	32768	15163	0	592
-29.895	-29.102	32768	14975	0	592
-26.397	-26.830	32768	14846	0	592
-24.198	-24.414	32768	14785	0	592
-22.250	-22.034	32768	14771	0	592
-20.375	-22.106	32768	14741	0	592
-19.762	-25.532	32768	14675	0	592
-20.483	-28.453	32768	14629	0	592
-19.942	-29.715	32768	14650	0	592
-21.024	-29.823	32768	14712	0	592
-24.306	-29.715	32768	14794	0	592
-30.148	-34.764	32768	14873	0	592
-37.036	-41.147	32768	14954	0	592
-41.111	-45.186	32768	15059	0	592
-39.091	-45.005	32768	15199	0	592
-33.393	-38.334	32768	15376	0	592
-28.164	-32.492	32768	15539	0	592
-25.568	-28.128	32768	15606	0	592
-30.148	-30.076	32768	15602	0	592
-33.429	-34.511	32768	15645	0	592
-37.649	-38.586	32768	15758	0	592
-37.000	-39.668	32768	15863	0	592
-35.629	-38.442	32768	15946	0	592
-34.980	-38.009	32768	16019	0	592
-37.144	-42.012	32768	16080	0	592
-41.003	-47.566	32768	16169	0	592
-45.510	-53.805	32768	16336	0	592
-48.359	-57.014	32768	16555	0	592
-50.992	-56.581	32768	16732	0	592
-50.920	-54.309	32768	16803	0	592
-52.146	-53.624	32768	16807	0	592
-54.165	-55.139	32768	16803	0	592
-56.545	-58.420	32768	16824	0	592
-58.493	-61.269	32768	16857	0	592
-56.617	-59.250	32768	16885	0	592
-52.110	-55.067	32768	16889	0	592
-45.005	-49.513	32768	16864	0	592
-40.029	-45.727	32768	16830	0	592
-38.514	-47.566	32768	16801	0	592
-40.570	-51.244	32768	16761	0	592
-44.068	-54.922	32768	16697	0	592
-46.989	-56.798	32768	16611	0	592
-50.018	-56.257	32768	16519	0	592
