neuroNicle FX2
D3F25R12
Bluetooth SPP
2023년 6월 6일 화요일
오후 3:31
time interval = 4msec
EEG1	EEG2	PPG	sdPPG	pulse	peak_interval(msec)
14.713	24.198	16349	16131	0	2380
9.160	21.024	16342	16163	0	2380
6.527	18.320	16349	16195	0	2380
7.321	19.618	16349	16226	0	2380
11.792	19.546	16342	16226	0	2380
16.120	21.529	16342	16195	0	2380
21.168	21.565	16342	16195	0	2380
19.329	21.277	16331	16210	0	2380
15.795	22.250	16331	16242	0	2380
10.097	21.349	16331	16274	0	2380
8.619	23.512	16324	16305	0	2380
7.609	24.270	16324	16353	0	2380
7.609	25.748	16342	16384	0	2380
9.376	25.243	16331	16463	0	2380
12.297	25.099	16331	16558	0	2380
19.690	25.496	16331	16637	0	2380
23.440	25.604	16342	16716	0	2380
27.371	25.352	16342	16795	0	2380
25.099	26.217	16342	16827	0	2380
19.401	25.388	16342	16858	0	2380
12.910	23.873	16342	16858	0	2380
8.042	21.601	16342	16842	0	2380
6.708	15.795	16342	16858	0	2380
4.183	11.504	16349	16890	0	2380
2.128	9.592	16359	16890	0	2380
0.108	9.484	16359	16874	0	2380
-2.344	13.668	16359	16842	0	2380
-1.082	19.654	16359	16811	0	2380
3.318	17.851	16359	16763	0	2380
11.179	16.913	16349	16700	0	2380
16.156	12.297	16349	16637	0	2380
17.815	9.701	16349	16621	0	2380
13.451	10.783	16349	16605	0	2380
10.278	12.730	16349	16573	0	2380
9.196	14.100	16349	16526	0	2380
10.278	12.766	16349	16494	0	2380
15.002	13.668	16349	16478	0	2380
15.362	14.497	16349	16478	0	2380
12.261	12.946	16367	16494	0	2380
8.150	13.559	16367	16526	0	2380
4.255	11.648	16367	16542	0	2380
3.967	8.114	16377	16510	0	2380
6.635	7.573	16367	16447	0	2380
6.996	7.140	16367	16415	0	2380
9.160	7.429	16367	16399	0	2380
8.871	9.592	16367	16384	0	2380
6.275	7.537	16367	16384	0	2380
4.688	7.212	16367	16415	0	2380
2.633	3.750	16367	16463	0	2380
0.613	1.767	16367	16510	0	2380
1.947	2.164	16377	16542	0	2380
4.364	6.527	16377	16589	0	2380
7.429	11.071	16377	16637	0	2380
9.665	16.769	16384	16700	0	2380
9.520	19.618	16384	16747	0	2380
9.953	19.762	16384	16732	0	2380
7.140	14.966	16384	16652	0	2380
3.895	12.802	16384	16573	0	2380
2.921	9.088	16391	16542	0	2380
2.128	9.592	16391	16558	0	2380
3.714	7.429	16391	16605	0	2380
7.212	10.025	16401	16637	0	2380
10.097	9.412	16401	16652	0	2380
10.638	10.494	16401	16652	0	2380
7.753	10.169	16409	16637	0	2380
5.517	9.484	16409	16621	0	2380
3.462	6.635	16409	16605	0	2380
3.859	7.032	16409	16605	0	2380
7.212	7.068	16419	16621	0	2380
9.989	10.746	16419	16621	0	2380
8.763	12.586	16419	16605	0	2380
5.950	12.982	16419	16573	0	2380
2.849	13.884	16419	16558	0	2380
3.606	11.612	16419	16494	0	2380
6.563	10.855	16419	16399	0	2380
10.061	11.396	16419	16305	0	2380
12.153	9.052	16419	16242	0	2380
10.746	6.924	16419	16210	0	2380
8.222	1.695	16419	16195	0	2380
5.229	1.046	16419	16163	0	2380
2.164	0.577	16419	16131	0	2380
0.361	1.118	16419	16131	0	2380
-2.488	1.659	16419	16116	0	2380
-3.246	-0.613	16419	16084	0	2380
-4.147	-2.128	16419	16068	0	2380
-4.580	-2.596	16409	16068	0	2380
-4.940	-0.541	16409	16100	0	2380
-4.688	-0.180	16409	16163	0	2380
-4.400	0.397	16419	16210	0	2380
-3.570	0.180	16419	16242	0	2380
0.072	1.623	16419	16274	0	2380
2.344	1.731	16419	16258	0	2380
-0.072	-0.144	16419	16210	0	2380
-4.219	-2.957	16409	16131	0	2380
-11.323	-8.511	16409	16052	0	2380
-14.713	-10.674	16409	15973	0	2380
-13.956	-9.881	16401	15910	0	2380
-11.468	-7.393	16401	15847	0	2380
-9.701	-4.904	16401	15831	0	2380
-10.458	-2.633	16391	15894	0	2380
-10.891	-3.426	16401	15989	0	2380
-10.494	-5.950	16401	16068	0	2380
-7.140	-10.133	16401	16147	0	2380
-8.330	-12.333	16401	16195	0	2380
-7.681	-12.622	16391	16226	0	2380
-7.862	-9.304	16391	16210	0	2380
-7.465	-4.111	16384	16195	0	2380
-7.321	-2.308	16384	16163	0	2380
-9.376	-2.885	16384	16116	0	2380
-15.218	-7.068	16377	16100	0	2380
-18.716	-8.691	16377	16116	0	2380
-21.781	-11.756	16377	16179	0	2380
-20.447	-10.638	16384	16258	0	2380
-14.353	-11.396	16384	16337	0	2380
-13.235	-10.206	16384	16384	0	2380
-10.530	-7.753	16384	16431	0	2380
-8.330	-5.770	16384	16447	0	2380
-7.429	-5.409	16384	16463	0	2380
-6.996	-6.563	16391	16494	0	2380
-7.429	-8.763	16384	16542	0	2380
-8.691	-9.196	16384	16573	0	2380
-8.547	-6.852	16384	16558	0	2380
-6.888	-2.560	16384	16558	0	2380
-2.019	-0.108	16384	16542	0	2380
0.829	-0.108	16384	16510	0	2380
1.479	-1.803	16377	16447	0	2380
-0.469	-3.787	16384	16384	0	2380
-2.885	-5.554	16377	16290	0	2380
-5.517	-6.167	16377	16195	0	2380
-6.816	-6.924	16377	16147	0	2380
-5.013	-4.544	16377	16163	0	2380
-3.210	-2.128	16367	16226	0	2380
-1.479	0.072	16377	16274	0	2380
-1.623	1.479	16367	16290	0	2380
-4.688	-2.813	16367	16321	0	2380
-9.484	-5.698	16367	16321	0	2380
-13.307	-9.737	16367	16321	0	2380
-12.045	-9.881	16367	16321	0	2380
-11.468	-8.006	16367	16305	0	2380
-9.304	-6.816	16359	16290	0	2380
-8.511	-7.068	16359	16305	0	2380
-10.025	-6.960	16359	16305	0	2380
-12.658	-8.799	16359	16290	0	2380
-13.559	-11.756	16359	16290	0	2380
-11.756	-16.192	16359	16337	0	2380
-13.127	-18.103	16359	16384	0	2380
-10.422	-19.149	16359	16478	0	2380
-8.475	-16.012	16359	16526	0	2380
-6.563	-13.199	16359	16542	0	2380
-5.914	-10.314	16359	16526	0	2380
-7.068	-10.350	16359	16542	0	2380
-9.412	-11.432	16359	16573	0	2380
-10.710	-12.369	16367	16605	0	2380
-13.163	-13.523	16367	16621	0	2380
-13.091	-16.769	16367	16605	0	2380
-15.182	-16.949	16367	16589	0	2380
-15.290	-16.733	16367	16589	0	2380
-9.232	-11.864	16367	16605	0	2380
-2.524	-9.088	16367	16637	0	2380
2.308	-4.472	16377	16684	0	2380
2.056	-5.301	16377	16716	0	2380
-3.173	-7.537	16377	16732	0	2380
-9.160	-7.970	16377	16732	0	2380
-11.648	-10.494	16384	16716	0	2380
-8.402	-8.186	16384	16716	0	2380
-6.635	-6.455	16384	16732	0	2380
-1.046	-2.236	16384	16747	0	2380
2.560	-1.479	16391	16747	0	2380
2.633	-1.298	16391	16763	0	2380
1.370	-4.616	16391	16795	0	2380
-5.445	-7.789	16401	16827	0	2380
-9.592	-10.530	16401	16842	0	2380
-10.999	-10.314	16409	16842	0	2380
-6.311	-7.393	16409	16827	0	2380
-2.344	-3.714	16409	16779	0	2380
0.505	-1.839	16409	16700	0	2380
-1.082	0.649	16409	16637	0	2380
-2.200	0.397	16401	16573	0	2380
-2.272	-1.406	16401	16494	0	2380
-0.613	-3.210	16401	16399	0	2380
1.587	-5.806	16401	16321	0	2380
0.541	-8.402	16401	16258	0	2380
-1.947	-9.629	16401	16179	0	2380
-3.282	-6.996	16401	16116	0	2380
-3.606	-2.344	16401	16052	0	2380
-2.705	0.829	16391	16036	0	2380
-2.380	2.705	16391	16021	0	2380
-1.983	0.577	16391	16005	0	2380
-3.210	-2.777	16391	15989	0	2380
-3.534	-5.301	16391	15973	0	2380
-4.616	-6.888	16391	15957	0	2380
-7.248	-8.042	16391	15941	0	2380
-12.261	-8.907	16384	15941	0	2380
-15.326	-9.088	16384	15957	0	2380
-15.002	-8.547	16384	15926	0	2380
-12.117	-8.402	16384	15894	0	2380
-5.409	-6.780	16377	15862	0	2380
-3.318	-6.852	16377	15847	0	2380
-3.895	-8.979	16377	15862	0	2380
-9.232	-11.756	16367	15894	0	2380
-17.670	-13.199	16367	15926	0	2380
-22.755	-17.274	16367	16005	0	2380
-24.883	-15.326	16367	16131	0	2380
-21.637	-15.435	16377	16274	0	2380
-15.254	-11.900	16377	16415	0	2380
-11.468	-8.907	16377	16510	0	2380
-9.737	-9.412	16384	16589	0	2380
-9.520	-8.366	16384	16621	0	2380
-11.864	-9.953	16384	16652	0	2380
-12.009	-8.907	16384	16684	0	2380
-10.278	-6.960	16384	16700	0	2380
-12.189	-3.714	16384	16684	0	2380
-9.556	-1.947	16384	16637	0	2380
-7.248	-0.288	16384	16573	0	2380
-4.219	0.325	16384	16494	0	2380
-2.813	1.118	16377	16415	0	2380
-3.787	-0.144	16377	16369	0	2380
-9.556	-3.498	16377	16353	0	2380
-15.723	-6.599	16377	16384	0	2380
-17.743	-7.393	16384	16447	0	2380
-17.670	-6.347	16384	16494	0	2380
-13.343	-5.662	16384	16494	0	2380
-11.215	-5.229	16384	16478	0	2380
-11.107	-5.734	16384	16463	0	2380
-9.737	-6.203	16377	16415	0	2380
-11.973	-7.825	16377	16369	0	2380
-13.776	-10.206	16377	16337	0	2380
-15.867	-15.831	16377	16353	0	2380
-21.529	-21.132	16377	16384	0	2380
-23.224	-25.207	16377	16415	0	2380
-21.385	-27.407	16384	16478	0	2380
-20.195	-25.532	16384	16542	0	2380
-16.408	-22.142	16384	16605	0	2380
-17.202	-20.591	16391	16652	0	2380
-19.834	-15.939	16391	16668	0	2380
-22.178	-15.903	16391	16684	0	2380
-25.279	-14.317	16391	16700	0	2380
-20.880	-15.398	16401	16716	0	2380
-16.012	-12.586	16401	16732	0	2380
-7.321	-7.934	16401	16747	0	2380
-0.685	-8.042	16409	16763	0	2380
-0.649	-5.229	16409	16747	0	2380
-4.183	-7.898	16409	16700	0	2380
-10.097	-8.979	16409	16684	0	2380
-11.720	-8.294	16419	16668	0	2380
-10.783	-6.671	16419	16668	0	2380
-6.744	-3.065	16419	16637	0	2380
-6.203	-2.128	16419	16621	0	2380
-9.701	-1.731	16426	16589	0	2380
-13.992	-1.515	16426	16558	0	2380
-17.706	-2.705	16419	16478	0	2380
-15.939	-2.777	16426	16399	0	2380
-7.501	-4.904	16419	16353	0	2380
-1.875	-5.914	16419	16321	0	2380
-0.649	-5.445	16419	16305	0	2380
-3.246	-6.671	16419	16274	0	2380
-9.016	-7.898	16419	16226	0	2380
-12.441	-8.979	16419	16195	0	2380
-13.523	-10.169	16419	16163	0	2380
-14.858	-12.405	16409	16116	0	2380
-14.821	-11.468	16409	16068	0	2380
-16.985	-8.042	16409	16052	0	2380
-12.405	-7.862	16409	16068	0	2380
-5.157	-6.167	16409	16116	0	2380
0.613	-8.979	16409	16147	0	2380
-1.118	-11.143	16419	16179	0	2380
-4.904	-13.379	16419	16195	0	2380
-11.756	-13.920	16419	16210	0	2380
-13.379	-13.163	16409	16210	0	2380
-14.533	-15.615	16409	16210	0	2380
-11.215	-16.192	16409	16210	0	2380
-10.350	-19.546	16409	16226	0	2380
-12.802	-17.166	16401	16210	0	2380
-10.422	-16.769	16401	16195	0	2380
-7.789	-14.533	16401	16195	0	2380
-5.626	-13.776	16401	16210	0	2380
-7.321	-14.317	16401	16226	0	2380
-8.511	-13.812	16401	16210	0	2380
-15.218	-15.507	16401	16210	0	2380
-16.589	-13.920	16401	16242	0	2380
-15.074	-11.792	16401	16258	0	2380
-7.321	-11.900	16401	16226	0	2380
-1.442	-11.323	16391	16179	0	2380
0.216	-13.127	16391	16116	0	2380
-4.544	-15.543	16391	16068	0	2380
-9.556	-15.362	16391	16052	0	2380
-15.362	-14.713	16384	16084	0	2380
-13.163	-11.937	16384	16147	0	2380
-10.097	-10.314	16384	16179	0	2380
-6.527	-9.304	16384	16195	0	2380
-5.554	-9.412	16384	16195	0	2380
-6.167	-8.222	16384	16195	0	2380
-8.907	-11.071	16384	16226	0	2380
-12.261	-11.792	16384	16258	0	2380
-16.084	-12.730	16377	16274	0	2380
-22.647	-16.300	16377	16274	0	2380
-24.017	-17.526	16377	16290	0	2380
-24.450	-19.834	16377	16337	0	2380
-21.601	-19.077	16377	16384	0	2380
-14.425	-19.618	16377	16415	0	2380
-10.602	-13.307	16377	16431	0	2380
-7.645	-11.864	16377	16447	0	2380
-7.140	-10.278	16377	16478	0	2380
-11.143	-12.153	16377	16542	0	2380
-15.507	-15.254	16384	16621	0	2380
-15.687	-17.923	16384	16684	0	2380
-17.670	-19.726	16384	16747	0	2380
-17.490	-15.975	16384	16795	0	2380
-19.870	-11.900	16391	16811	0	2380
-19.005	-8.655	16391	16811	0	2380
-19.546	-6.311	16391	16827	0	2380
-14.425	-5.554	16391	16842	0	2380
-9.052	-7.357	16401	16842	0	2380
-4.688	-7.970	16401	16779	0	2380
-2.452	-4.652	16401	16700	0	2380
-0.649	-1.406	16391	16621	0	2380
0.685	2.092	16391	16526	0	2380
0.433	3.859	16391	16415	0	2380
-1.334	1.695	16391	16337	0	2380
-3.065	-3.426	16384	16258	0	2380
-6.888	-6.960	16384	16210	0	2380
-5.734	-7.537	16384	16179	0	2380
-3.173	-2.236	16384	16131	0	2380
1.875	1.154	16377	16084	0	2380
3.101	3.534	16377	16084	0	2380
3.750	3.282	16377	16100	0	2380
-0.938	-0.397	16377	16116	0	2380
-2.524	-1.298	16377	16131	0	2380
-2.452	-2.705	16377	16131	0	2380
0.541	-2.056	16377	16147	0	2380
4.580	-1.983	16377	16163	0	2380
5.554	-1.515	16367	16179	0	2380
4.724	0.325	16367	16195	0	2380
3.065	2.921	16367	16195	0	2380
1.623	6.527	16367	16179	0	2380
2.741	7.717	16367	16210	0	2380
5.590	11.143	16367	16226	0	2380
9.701	16.048	16367	16242	0	2380
15.615	21.349	16359	16274	0	2380
18.644	28.741	16359	16321	0	2380
26.253	35.016	16359	16369	0	2380
32.816	40.642	16359	16369	0	2380
41.147	46.917	16359	16353	0	2380
51.352	51.749	16359	16337	0	2380
58.312	59.214	16359	16321	0	2380
63.036	62.784	16367	16369	0	2380
66.138	67.364	16367	16431	0	2380
67.724	75.550	16367	16510	0	2380
74.216	85.864	16367	16558	0	2380
86.549	99.675	16377	16637	0	2380
99.495	112.225	16377	16716	0	2380
111.756	122.358	16377	16779	0	2380
118.752	125.460	16384	16827	0	2380
121.998	128.237	16384	16827	0	2380
122.791	130.905	16384	16811	0	2380
128.273	136.567	16384	16763	0	2380
135.485	144.428	16384	16716	0	2380
141.471	150.415	16384	16652	0	2380
146.376	153.047	16384	16652	0	2380
146.304	149.982	16391	16700	0	2380
144.897	149.008	16391	16747	0	2380
140.930	149.910	16391	16763	0	2380
140.858	152.398	16401	16747	0	2380
139.632	153.985	16401	16700	0	2380
138.767	151.533	16401	16621	0	2380
135.846	145.582	16401	16542	0	2380
130.617	140.245	16401	16494	0	2380
126.758	135.485	16391	16478	0	2380
121.457	134.331	16391	16447	0	2380
119.257	130.833	16391	16399	0	2380
116.156	125.856	16384	16321	0	2380
111.828	121.457	16384	16226	0	2380
112.009	117.995	16384	16147	0	2380
108.979	113.054	16384	16116	0	2380
106.022	109.737	16384	16116	0	2380
101.551	105.481	16384	16131	0	2380
93.833	98.918	16377	16116	0	2380
86.008	93.004	16377	16116	0	2380
80.527	89.758	16377	16147	0	2380
76.199	84.097	16384	16195	0	2380
74.180	80.490	16384	16258	0	2380
73.170	75.658	16384	16258	0	2380
71.619	71.259	16377	16226	0	2380
68.554	66.823	16377	16179	0	2380
61.991	63.036	16384	16131	0	2380
57.230	62.135	16384	16116	0	2380
52.723	58.817	16377	16116	0	2380
52.975	58.529	16377	16100	0	2380
49.405	55.067	16377	16116	0	2380
44.645	48.467	16377	16179	0	2380
33.502	44.068	16377	16274	0	2380
26.866	39.740	16384	16353	0	2380
27.407	38.695	16384	16399	0	2380
32.672	40.714	16384	16415	0	2380
39.344	42.481	16384	16415	0	2380
40.101	38.298	16384	16415	0	2380
31.807	33.393	16384	16463	0	2380
22.395	23.549	16384	16510	0	2380
14.136	17.959	16384	16558	0	2380
14.569	13.884	16391	16589	0	2380
18.320	15.759	16391	16621	0	2380
27.804	17.634	16391	16668	0	2380
39.812	21.241	16401	16716	0	2380
48.828	22.935	16401	16747	0	2380
47.638	20.483	16391	16763	0	2380
37.108	16.552	16391	16716	0	2380
18.536	8.511	16391	16621	0	2380
1.947	2.308	16391	16542	0	2380
-6.275	-1.983	16391	16478	0	2380
-4.652	-1.731	16391	16415	0	2380
3.173	0.252	16384	16321	0	2380
8.979	1.154	16384	16210	0	2380
16.300	-0.072	16377	16100	0	2380
16.228	-1.623	16377	16005	0	2380
17.166	-2.885	16367	15941	0	2380
14.317	-1.010	16367	15910	0	2380
11.540	-0.072	16367	15926	0	2380
9.556	0.793	16377	15973	0	2380
9.592	1.154	16377	16052	0	2380
10.963	3.282	16377	16131	0	2380
16.661	5.806	16377	16210	0	2380
19.546	7.429	16377	16242	0	2380
21.673	5.986	16377	16274	0	2380
16.084	0.938	16377	16305	0	2380
8.799	-4.075	16377	16353	0	2380
0.685	-5.590	16377	16369	0	2380
-2.308	-5.085	16377	16369	0	2380
-2.560	-4.977	16377	16353	0	2380
-2.308	-6.167	16377	16321	0	2380
-5.914	-10.061	16367	16305	0	2380
-7.970	-12.225	16367	16305	0	2380
-11.504	-14.569	16367	16353	0	2380
-12.153	-14.100	16367	16384	0	2380
-9.701	-12.369	16367	16399	0	2380
-12.081	-16.516	16367	16384	0	2380
-15.579	-21.493	16367	16321	0	2380
-22.611	-29.318	16367	16290	0	2380
-32.023	-39.668	16367	16321	0	2380
-40.858	-48.900	16367	16369	0	2380
-46.087	-55.427	16367	16415	0	2380
-55.644	-63.758	16367	16431	0	2380
-64.623	-72.845	16367	16431	0	2380
-77.317	-83.484	16367	16478	0	2380
-86.837	-90.876	16367	16542	0	2380
-93.978	-96.574	16367	16589	0	2380
-95.384	-97.476	16367	16605	0	2380
-92.247	-98.197	16367	16589	0	2380
-95.023	-102.200	16367	16573	0	2380
-102.849	-109.448	16367	16573	0	2380
-109.592	-116.625	16377	16605	0	2380
-118.139	-122.431	16377	16637	0	2380
-122.503	-122.395	16377	16621	0	2380
-120.447	-123.332	16367	16558	0	2380
-120.267	-121.349	16377	16494	0	2380
-121.637	-124.486	16377	16447	0	2380
-126.506	-125.748	16377	16447	0	2380
-129.463	-131.482	16377	16463	0	2380
-131.194	-131.699	16377	16447	0	2380
-131.266	-130.761	16377	16384	0	2380
-125.063	-129.607	16377	16369	0	2380
-121.060	-124.306	16384	16369	0	2380
-115.651	-122.214	16377	16369	0	2380
-111.576	-118.103	16377	16337	0	2380
0.974	-3.282	16401	16795	0	624
3.750	1.046	16401	16763	0	624
0.577	-1.479	16401	16716	0	624
-5.229	-2.524	16401	16668	0	624
-6.239	-2.885	16401	16621	0	624
-4.544	-1.406	16401	16605	0	624
0.108	1.875	16401	16589	0	624
2.272	2.019	16401	16542	0	624
0.216	0.829	16401	16510	0	624
-0.505	0.613	16401	16478	0	624
1.551	3.137	16401	16447	0	624
7.862	5.229	16401	16384	0	624
9.629	8.619	16401	16353	0	624
5.626	6.311	16401	16305	0	624
-3.318	2.957	16401	16258	0	624
-9.592	-1.370	16391	16195	0	624
-10.638	-4.940	16391	16163	0	624
-5.445	-6.816	16391	16147	0	624
-0.577	-7.357	16391	16131	0	624
-1.911	-7.068	16391	16131	0	624
-6.094	-4.724	16391	16147	0	624
-11.215	-5.842	16391	16163	0	624
-12.550	-7.393	16391	16210	0	624
-7.140	-9.484	16384	16226	0	624
-2.236	-10.530	16384	16258	0	624
-0.902	-10.169	16384	16290	0	624
-4.039	-7.465	16384	16321	0	624
-7.934	-6.599	16384	16353	0	624
-11.864	-7.429	16384	16353	0	624
-11.323	-9.989	16377	16321	0	624
-7.537	-10.458	16384	16290	0	624
-2.957	-7.825	16384	16305	0	624
-4.580	-3.714	16384	16337	0	624
-5.590	-0.541	16384	16384	0	624
-9.340	0.757	16391	16415	0	624
-9.845	1.515	16384	16415	0	624
-6.491	-0.577	16384	16431	0	624
-3.173	0.793	16384	16478	0	624
-0.325	-0.577	16384	16510	0	624
-2.452	-6.239	16384	16510	0	624
-7.429	-11.071	16384	16494	0	624
-12.874	-15.146	16384	16494	0	624
-14.353	-17.923	16384	16494	0	624
-15.543	-15.002	16384	16494	0	624
-12.658	-12.009	16384	16463	0	624
-12.730	-12.117	16384	16431	0	624
-11.648	-10.242	16384	16399	0	624
-12.550	-9.160	16384	16384	0	624
-14.425	-10.530	16384	16384	0	624
-14.785	-10.242	16384	16431	0	624
-11.504	-9.268	16384	16494	0	624
-9.412	-6.671	16384	16526	0	624
-5.878	-2.560	16384	16510	0	624
0.613	1.587	16384	16431	0	624
4.977	5.734	16384	16384	0	624
9.232	8.691	16384	16353	0	624
12.153	9.629	16384	16337	0	624
14.208	10.566	16384	16353	0	624
12.153	10.061	16384	16353	0	624
11.720	9.340	16384	16353	0	624
12.081	11.504	16384	16337	0	624
12.297	11.900	16384	16337	0	624
15.975	16.444	16377	16305	0	624
17.815	16.264	16384	16226	0	624
17.238	16.012	16384	16147	0	624
16.120	12.225	16377	16100	0	624
11.648	7.609	16377	16100	0	624
8.439	2.452	16377	16131	0	624
4.616	-0.361	16377	16179	0	624
2.957	0.072	16377	16242	0	624
0.757	2.993	16377	16274	0	624
0.902	5.770	16377	16274	0	624
4.219	7.753	16377	16258	0	624
7.934	7.753	16377	16242	0	624
12.622	8.294	16367	16226	0	624
13.163	10.242	16367	16210	0	624
9.989	13.704	16367	16210	0	624
9.556	16.228	16367	16210	0	624
9.556	18.824	16359	16210	0	624
10.746	17.202	16359	16210	0	624
13.884	17.382	16359	16226	0	624
18.031	15.398	16359	16258	0	624
19.546	18.103	16359	16274	0	624
22.539	18.572	16359	16305	0	624
24.594	19.726	16359	16353	0	624
25.496	19.437	16359	16384	0	624
23.981	21.457	16359	16463	0	624
24.306	20.591	16359	16558	0	624
23.440	19.365	16367	16668	0	624
23.260	18.175	16367	16779	0	624
24.775	15.939	16377	16906	0	624
23.837	16.516	16377	17016	0	624
22.899	17.166	16384	17111	0	624
19.798	15.038	16384	17127	0	624
13.595	11.828	16391	17111	0	624
10.746	6.311	16391	17080	0	624
10.025	4.400	16391	17016	0	624
9.016	5.265	16391	16953	0	624
8.727	7.609	16401	16890	1	648
9.520	9.989	16401	16811	0	648
9.520	9.376	16401	16716	0	648
10.819	7.825	16401	16637	0	648
13.884	7.285	16401	16542	0	648
15.038	7.212	16391	16447	0	648
12.874	9.448	16391	16399	0	648
14.028	12.514	16391	16353	0	648
14.461	15.939	16391	16305	0	648
18.464	16.733	16391	16290	0	648
20.159	18.247	16401	16321	0	648
22.431	15.795	16401	16353	0	648
19.401	14.858	16401	16384	0	648
18.752	11.612	16401	16369	0	648
16.805	12.117	16401	16321	0	648
21.060	17.166	16401	16274	0	648
22.395	21.637	16401	16226	0	648
24.486	25.171	16401	16147	0	648
23.693	23.296	16391	16084	0	648
19.293	15.110	16391	16068	0	648
14.930	7.537	16391	16084	0	648
10.169	2.236	16391	16116	0	648
7.285	0.433	16391	16163	0	648
6.563	2.236	16391	16179	0	648
6.563	2.669	16391	16179	0	648
10.025	4.364	16391	16179	0	648
10.061	4.940	16391	16226	0	648
12.586	7.609	16401	16305	0	648
10.638	7.285	16401	16337	0	648
9.881	6.599	16401	16337	0	648
10.278	3.895	16401	16337	0	648
10.638	2.272	16401	16305	0	648
11.360	3.065	16384	16274	0	648
11.251	5.157	16384	16242	0	648
6.960	6.635	16384	16226	0	648
4.075	7.212	16384	16210	0	648
3.931	10.061	16384	16210	0	648
7.681	13.379	16384	16179	0	648
14.641	17.238	16384	16147	0	648
19.041	22.935	16377	16179	0	648
20.267	21.349	16391	16242	0	648
15.362	17.490	16384	16321	0	648
10.566	12.766	16384	16384	0	648
6.996	9.412	16384	16399	0	648
5.265	8.583	16384	16384	0	648
5.806	8.042	16384	16337	0	648
5.193	7.825	16377	16305	0	648
1.947	4.364	16384	16290	0	648
2.344	1.479	16384	16305	0	648
1.479	-0.144	16384	16321	0	648
1.190	-1.082	16384	16337	0	648
-0.902	-0.865	16384	16384	0	648
-5.445	-3.101	16384	16399	0	648
-10.025	-5.193	16384	16415	0	648
-9.088	-4.652	16384	16399	0	648
-3.137	-4.327	16384	16384	0	648
3.101	-0.829	16384	16369	0	648
7.068	1.983	16384	16384	0	648
7.825	2.560	16384	16384	0	648
4.977	5.517	16384	16384	0	648
3.354	6.924	16384	16384	0	648
4.291	9.701	16384	16415	0	648
7.357	10.855	16384	16478	0	648
10.602	12.910	16384	16526	0	648
13.415	15.867	16384	16542	0	648
16.120	19.149	16384	16526	0	648
15.182	23.080	16391	16526	0	648
16.228	24.955	16384	16510	0	648
15.867	19.365	16384	16510	0	648
13.163	15.110	16384	16510	0	648
12.586	8.186	16384	16526	0	648
7.609	3.210	16384	16542	0	648
4.039	0.216	16384	16526	0	648
1.587	-0.288	16384	16463	0	648
3.967	-0.252	16384	16399	0	648
2.633	-0.793	16377	16353	0	648
2.164	-3.606	16384	16274	0	648
-1.551	-7.068	16377	16179	0	648
-5.265	-10.133	16377	16100	0	648
-5.914	-8.907	16377	16100	0	648
-3.462	-4.904	16377	16131	0	648
-0.865	-1.731	16377	16163	0	648
1.551	0.577	16377	16195	0	648
2.596	1.334	16377	16226	0	648
4.652	0.541	16377	16242	0	648
7.825	0.000	16377	16305	0	648
11.432	3.570	16377	16353	0	648
12.189	6.744	16377	16353	0	648
10.674	10.025	16377	16337	0	648
13.091	12.874	16367	16321	0	648
12.045	13.740	16367	16337	0	648
16.192	16.552	16377	16384	0	648
17.959	15.687	16377	16431	0	648
19.113	18.716	16377	16510	0	648
16.012	15.687	16377	16573	0	648
9.412	10.746	16377	16621	0	648
5.698	2.019	16384	16668	0	648
2.236	-2.524	16384	16700	0	648
1.731	-5.337	16384	16732	0	648
0.361	-6.167	16391	16763	0	648
-1.983	-6.094	16391	16827	0	648
-4.940	-7.393	16401	16874	0	648
-7.501	-9.376	16401	16890	0	648
-8.439	-11.468	16401	16842	0	648
-5.554	-12.117	16401	16763	0	648
-3.931	-12.622	16401	16668	0	648
-3.065	-10.169	16401	16589	0	648
-1.226	-6.960	16401	16478	0	648
-0.757	-4.832	16391	16384	0	648
-0.108	-0.108	16391	16305	0	648
0.469	1.442	16391	16242	0	648
2.921	0.108	16391	16195	0	648
4.508	0.072	16384	16147	0	648
4.832	-0.036	16384	16084	0	648
2.849	-0.144	16384	16036	0	648
0.685	0.974	16384	16021	0	648
0.000	2.056	16384	16021	0	648
2.308	5.157	16377	16021	0	648
5.698	9.160	16377	16021	0	648
11.035	9.953	16377	16036	0	648
10.746	9.448	16377	16036	0	648
8.150	2.236	16377	16036	0	648
2.524	-3.390	16367	16036	0	648
-4.508	-9.412	16367	16021	0	648
-7.573	-12.405	16367	16052	0	648
-8.691	-10.999	16367	16100	0	648
-8.547	-12.874	16367	16147	0	648
-8.583	-13.884	16367	16210	0	648
-13.415	-12.550	16367	16274	0	648
-18.247	-15.759	16367	16290	0	648
-24.811	-17.598	16367	16321	0	648
-25.496	-21.168	16367	16337	0	648
-22.070	-20.050	16367	16384	0	648
-15.795	-17.779	16367	16415	0	648
-9.304	-9.845	16367	16447	0	648
-3.678	-5.373	16367	16478	0	648
-3.246	-1.875	16367	16510	0	648
-3.246	-1.046	16367	16526	0	648
-3.570	-1.659	16367	16542	0	648
-3.678	-1.298	16367	16589	0	648
-4.400	0.180	16377	16668	0	648
-5.193	-0.036	16377	16747	0	648
-6.635	0.829	16377	16811	0	648
-7.176	2.921	16384	16842	0	648
-5.265	4.219	16384	16858	0	648
-4.904	3.859	16384	16842	0	648
-5.085	2.128	16384	16779	0	648
-7.176	-1.551	16384	16732	0	648
-10.097	-8.258	16384	16684	0	648
-11.684	-9.592	16384	16668	0	648
-11.612	-9.953	16391	16652	0	648
-7.573	-6.275	16391	16621	0	648
-0.902	-0.144	16391	16621	0	648
4.003	5.229	16391	16605	0	648
4.544	5.049	16391	16605	0	648
0.541	-0.469	16391	16573	0	648
-8.655	-8.078	16391	16510	0	648
-12.117	-14.208	16391	16447	0	648
-11.900	-15.110	16391	16384	0	648
-5.554	-10.025	16391	16337	0	648
0.397	-2.452	16391	16321	0	648
4.868	2.993	16391	16337	0	648
8.475	8.583	16391	16337	0	648
9.268	10.602	16391	16337	0	648
9.809	9.629	16401	16337	0	648
7.393	6.527	16401	16321	0	648
4.039	1.406	16401	16305	0	648
1.731	-2.524	16401	16290	0	648
0.108	-4.075	16401	16274	0	648
-1.226	-2.308	16401	16242	0	648
-1.010	-2.056	16391	16226	0	648
-2.092	-1.262	16391	16210	0	648
-5.157	-2.488	16391	16210	0	648
-8.186	-3.065	16391	16210	0	648
-10.963	-5.085	16391	16226	0	648
-14.858	-7.501	16391	16226	0	648
-15.903	-9.088	16391	16226	0	648
-14.136	-7.573	16391	16242	0	648
-9.629	-2.705	16401	16290	0	648
-5.085	3.101	16401	16353	0	648
-2.200	5.770	16401	16384	0	648
-1.190	4.904	16401	16399	0	648
-2.200	3.029	16401	16415	0	648
-1.226	1.442	16401	16431	0	648
2.272	3.570	16391	16447	0	648
3.678	6.708	16391	16431	0	648
4.472	8.294	16391	16415	0	648
4.436	10.061	16391	16399	0	648
5.554	10.819	16391	16384	0	648
11.287	17.274	16391	16353	0	648
18.464	21.601	16391	16321	0	648
20.519	24.089	16391	16274	0	648
20.627	25.316	16391	16242	0	648
14.317	21.565	16391	16195	0	648
7.357	16.661	16384	16163	0	648
-0.036	10.530	16384	16179	0	648
-6.022	4.291	16391	16242	0	648
-9.737	-1.262	16391	16305	0	648
-12.477	-4.977	16391	16384	0	648
-10.891	-3.210	16391	16431	0	648
-8.078	-2.524	16391	16463	0	648
-4.327	-0.649	16391	16463	0	648
-1.298	-0.108	16391	16463	0	648
0.144	-0.577	16401	16478	0	648
-2.921	-0.974	16401	16478	0	648
-6.816	-3.426	16401	16463	0	648
-11.540	-7.934	16401	16447	0	648
-11.900	-12.153	16401	16431	0	648
-9.809	-9.268	16401	16415	0	648
-3.750	-3.678	16401	16399	0	648
1.803	4.147	16401	16415	0	648
4.580	9.448	16401	16447	0	648
4.724	11.035	16401	16478	0	648
3.714	6.239	16401	16494	0	648
3.534	4.147	16401	16494	0	648
3.246	5.409	16409	16494	0	648
6.311	5.770	16409	16478	0	648
6.491	10.746	16401	16478	0	648
5.409	12.586	16409	16478	0	648
4.436	12.153	16409	16463	0	648
3.137	11.900	16409	16415	0	648
2.669	8.222	16401	16369	0	648
2.633	5.445	16391	16274	0	648
0.216	2.236	16391	16179	0	648
-3.570	-0.757	16384	16068	0	648
-6.924	-2.560	16384	15957	0	648
-7.429	-1.515	16377	15878	0	648
-4.183	1.659	16377	15799	0	648
-1.767	3.895	16367	15767	0	648
-0.938	2.777	16367	15767	0	648
-3.498	1.406	16359	15783	0	648
-4.111	-1.803	16367	15831	0	648
-4.544	-3.029	16367	15894	0	648
1.659	1.082	16377	15957	0	648
5.878	4.868	16367	16021	0	648
13.451	10.891	16367	16084	0	648
16.444	13.235	16367	16147	0	648
21.854	15.903	16367	16195	0	648
21.745	19.149	16359	16258	0	648
23.044	18.211	16359	16305	0	648
18.320	19.978	16359	16337	0	648
18.320	17.779	16359	16353	0	648
15.507	17.454	16359	16384	0	648
17.454	15.939	16359	16463	0	648
15.687	18.139	16367	16621	0	648
16.372	19.185	16367	16763	0	648
12.622	17.706	16377	16858	0	648
12.081	13.271	16377	16874	0	648
9.845	8.475	16377	16827	0	648
7.357	2.596	16377	16747	0	648
5.950	1.839	16367	16684	0	648
8.511	4.868	16367	16621	0	648
11.287	7.393	16367	16605	0	648
13.523	11.287	16367	16589	0	648
14.821	11.540	16367	16542	0	648
11.360	10.783	16367	16510	0	648
9.268	8.655	16367	16494	0	648
9.629	9.160	16367	16494	0	648
11.973	8.583	16377	16526	0	648
11.864	8.258	16377	16558	0	648
12.333	7.825	16377	16589	0	648
12.369	9.016	16384	16621	0	648
11.828	11.035	16384	16637	0	648
14.785	14.064	16384	16652	0	648
13.343	17.743	16384	16652	0	648
8.511	13.884	16384	16637	0	648
2.741	10.422	16384	16589	0	648
-0.974	6.094	16384	16526	0	648
-1.154	4.364	16384	16494	0	648
2.380	6.383	16384	16478	0	648
5.626	7.681	16384	16478	0	648
5.301	5.445	16391	16494	0	648
1.154	3.678	16391	16510	0	648
-2.560	0.216	16391	16510	0	648
-2.777	-0.685	16391	16510	0	648
-2.344	0.721	16391	16494	0	648
-2.092	2.380	16384	16478	0	648
-3.065	4.400	16384	16447	0	648
-5.193	6.131	16384	16399	0	648
-4.796	7.645	16384	16353	0	648
1.298	11.360	16384	16274	0	648
9.881	15.146	16384	16226	0	648
18.536	16.444	16377	16179	0	648
19.618	17.887	16384	16147	0	648
17.670	14.172	16384	16163	0	648
11.071	10.242	16384	16210	0	648
9.304	7.789	16384	16210	0	648
11.612	8.402	16384	16195	0	648
15.687	12.009	16384	16195	0	648
22.178	16.552	16384	16179	0	648
18.644	17.093	16384	16163	0	648
11.360	16.012	16377	16163	0	648
1.082	7.934	16377	16131	0	648
-7.753	-2.019	16377	16100	0	648
-10.602	-11.107	16377	16100	0	648
-9.484	-12.297	16377	16100	0	648
0.288	-8.330	16367	16131	0	648
7.285	0.325	16367	16163	0	648
11.432	6.708	16367	16195	0	648
9.881	5.914	16367	16242	0	648
3.210	2.488	16367	16305	0	648
-1.839	-1.118	16377	16369	0	648
-0.505	0.036	16377	16431	0	648
4.796	4.472	16377	16510	0	648
9.989	8.655	16377	16558	0	648
14.425	10.638	16377	16573	0	648
15.651	12.658	16377	16573	0	648
19.149	15.975	16377	16573	0	648
20.231	17.418	16384	16573	0	648
22.935	20.159	16384	16605	0	648
18.464	17.454	16384	16605	0	648
17.454	15.507	16384	16605	0	648
15.435	13.271	16384	16589	0	648
17.021	14.497	16384	16558	0	648
14.749	15.182	16384	16526	0	648
11.900	15.435	16384	16526	0	648
7.573	13.054	16384	16526	0	648
3.390	8.907	16384	16526	0	648
2.452	4.724	16384	16510	0	648
1.587	0.793	16384	16494	0	648
-0.649	-1.298	16384	16478	0	648
-3.931	-2.560	16384	16463	0	648
-10.242	-5.950	16384	16431	0	648
-13.740	-10.710	16384	16415	0	648
-16.300	-14.208	16384	16415	0	648
-15.074	-16.120	16391	16447	0	648
-7.501	-11.973	16391	16463	0	648
0.433	-2.777	16391	16463	0	648
8.979	3.282	16391	16463	0	648
14.353	6.852	16391	16463	0	648
16.300	6.671	16391	16447	0	648
17.454	5.121	16391	16399	0	648
16.084	4.111	16391	16369	0	648
17.202	4.183	16391	16305	0	648
17.166	7.862	16384	16242	0	648
21.204	11.648	16384	16195	0	648
25.063	14.930	16384	16147	0	648
30.076	19.257	16384	16116	0	648
28.561	17.129	16377	16100	0	648
23.440	13.235	16377	16084	0	648
12.838	9.809	16377	16068	0	648
2.524	7.357	16377	16100	0	648
0.793	8.655	16377	16147	0	648
1.839	11.432	16377	16210	0	648
6.058	10.674	16377	16290	0	648
9.520	7.862	16384	16384	0	648
7.717	4.472	16384	16431	0	648
5.229	0.433	16384	16447	0	648
2.488	-2.164	16384	16463	0	648
0.288	-2.236	16384	16494	0	648
0.252	-3.390	16384	16510	0	648
0.757	-1.406	16384	16542	0	648
2.669	-0.685	16391	16573	0	648
1.370	-0.974	16391	16605	0	648
-0.685	-2.344	16391	16621	0	648
-1.731	-4.075	16391	16621	0	648
-0.613	-4.291	16391	16605	0	648
8.619	-1.262	16391	16573	0	648
16.697	3.823	16391	16526	0	648
17.562	7.681	16391	16510	0	648
15.326	6.239	16391	16478	0	648
6.708	3.678	16391	16415	0	648
2.957	-1.226	16391	16384	0	648
1.947	-2.596	16391	16321	0	648
5.734	-1.298	16384	16258	0	648
7.465	2.596	16384	16210	0	648
7.753	6.744	16384	16210	0	648
6.563	7.032	16384	16226	0	648
6.455	5.193	16384	16242	0	648
3.318	2.092	16384	16226	0	648
3.318	0.361	16384	16210	0	648
1.623	-0.577	16384	16226	0	648
-0.325	-0.325	16384	16274	0	648
-1.046	0.433	16384	16337	0	648
-0.793	-0.649	16384	16384	0	648
0.577	-2.200	16384	16415	0	648
0.505	-5.373	16384	16431	0	648
-2.164	-5.265	16384	16415	0	648
-5.013	-6.058	16384	16415	0	648
-6.311	-7.176	16384	16399	0	648
-5.554	-5.554	16384	16384	0	648
-2.596	-4.760	16384	16353	0	648
0.036	-5.013	16384	16353	0	648
-0.108	-3.570	16384	16369	0	648
-1.947	-4.291	16384	16369	0	648
-3.787	-5.301	16384	16321	0	648
-3.462	-5.770	16384	16274	0	648
-4.291	-7.104	16384	16258	0	648
-1.623	-7.717	16377	16242	0	648
0.000	-5.770	16377	16242	0	648
-0.793	-6.455	16377	16226	0	648
-3.750	-4.832	16377	16210	0	648
-9.052	-5.265	16377	16226	0	648
-10.999	-6.311	16377	16258	0	648
-10.458	-8.042	16377	16305	0	648
-5.337	-7.393	16377	16337	0	648
-3.606	-7.212	16377	16353	0	648
-3.931	-8.547	16377	16369	0	648
-10.855	-10.458	16377	16384	0	648
-15.687	-11.540	16377	16384	0	648
-18.969	-10.494	16377	16369	0	648
-14.749	-7.862	16367	16337	0	648
-13.379	-3.534	16367	16321	0	648
-10.242	-2.272	16367	16321	0	648
-12.045	-2.380	16367	16305	0	648
-17.238	-3.318	16367	16290	0	648
-16.012	-3.246	16359	16226	0	648
-11.720	-1.623	16359	16147	0	648
-2.056	1.190	16349	16084	0	648
6.852	4.904	16349	16036	0	648
11.323	7.934	16349	16052	0	648
9.232	9.340	16342	16084	0	648
3.101	8.258	16342	16131	0	648
-0.541	7.248	16349	16179	0	648
-2.236	5.013	16359	16195	0	648
-2.633	1.839	16349	16226	0	648
-3.282	0.541	16349	16290	0	648
-3.931	-0.288	16349	16353	0	648
-4.544	2.416	16349	16431	0	648
-3.246	5.878	16349	16510	0	648
-0.865	9.016	16349	16573	0	648
-0.685	7.789	16349	16621	0	648
-2.200	5.662	16349	16652	0	648
-4.255	3.426	16359	16668	0	648
-5.373	2.813	16359	16684	0	648
-2.092	4.364	16359	16668	0	648
3.534	7.825	16349	16637	0	648
9.124	11.576	16349	16573	0	648
15.110	16.877	16359	16542	0	648
15.182	20.195	16359	16542	0	648
13.127	23.512	16359	16542	0	648
10.206	19.401	16359	16542	0	648
7.501	17.093	16359	16542	0	648
9.340	16.877	16359	16558	0	648
11.215	16.264	16359	16573	0	648
15.002	19.473	16367	16589	0	648
14.749	21.060	16367	16589	0	648
16.012	20.772	16367	16573	0	648
13.199	17.670	16367	16573	0	648
8.547	15.939	16367	16573	0	648
4.760	13.271	16367	16589	0	648
-0.938	9.484	16367	16652	0	648
-4.364	8.402	16377	16700	0	648
-4.291	6.131	16377	16716	0	648
-0.938	4.904	16377	16716	0	648
0.865	6.491	16384	16747	0	648
8.330	9.160	16384	16763	0	648
13.920	13.884	16384	16747	0	648
15.615	17.021	16384	16668	0	648
17.815	19.762	16384	16573	0	648
17.634	18.572	16384	16526	0	648
17.851	19.510	16384	16510	0	648
16.949	19.293	16384	16526	0	648
17.995	21.565	16391	16526	0	648
12.838	19.870	16391	16510	0	648
8.222	19.365	16391	16478	0	648
4.832	18.536	16391	16431	0	648
4.940	14.858	16391	16415	0	648
6.239	12.586	16391	16399	0	648
9.232	13.307	16391	16399	0	648
7.501	10.746	16391	16399	0	648
8.366	12.117	16391	16399	0	648
6.491	13.054	16401	16415	0	648
3.895	10.278	16401	16447	0	648
1.479	5.770	16401	16494	0	648
-0.577	4.688	16409	16510	0	648
-1.118	4.616	16409	16510	0	648
2.092	7.248	16409	16510	0	648
5.517	7.537	16409	16510	0	648
5.481	7.898	16419	16526	0	648
4.219	6.563	16419	16558	0	648
1.118	7.068	16426	16589	0	648
0.865	8.006	16419	16589	0	648
3.967	9.845	16419	16542	0	648
8.078	10.169	16419	16494	0	648
11.828	10.674	16419	16399	0	648
14.894	13.343	16419	16290	0	648
16.264	15.002	16409	16163	0	648
15.110	18.139	16409	16052	0	648
16.156	18.897	16409	15989	0	648
14.894	19.618	16401	15926	0	648
16.120	21.132	16401	15894	0	648
14.100	18.716	16401	15878	0	648
13.343	16.697	16401	15878	0	648
9.845	13.523	16401	15847	0	648
7.357	10.927	16391	15847	0	648
5.878	11.107	16391	15862	0	648
2.705	10.927	16391	15894	0	648
1.875	8.943	16391	15941	0	648
-1.839	8.258	16391	16021	0	648
-2.272	6.563	16391	16084	0	648
-2.705	7.789	16391	16131	0	648
-0.469	11.864	16391	16163	0	648
2.777	16.985	16391	16195	0	648
2.236	16.228	16384	16242	0	648
5.013	15.723	16391	16258	0	648
5.337	13.307	16391	16258	0	648
6.167	11.504	16391	16258	0	648
6.996	14.100	16384	16242	0	648
8.511	16.336	16384	16226	0	648
6.924	18.536	16384	16210	0	648
5.842	16.156	16384	16210	0	648
6.924	15.651	16377	16195	0	648
8.583	13.235	16377	16195	0	648
11.684	15.398	16377	16179	0	648
16.408	19.041	16384	16163	0	648
15.362	18.608	16367	16131	0	648
13.235	18.247	16367	16100	0	648
7.212	13.668	16359	16084	0	648
1.659	10.819	16359	16084	0	648
0.793	10.963	16359	16100	0	648
2.560	13.812	16359	16116	0	648
5.193	14.785	16349	16179	0	648
5.121	11.107	16349	16242	0	648
0.541	5.698	16349	16290	0	648
-5.265	0.288	16349	16321	0	648
-9.124	-1.226	16349	16337	0	648
-10.169	2.452	16349	16369	0	648
-6.563	6.599	16349	16415	0	648
-1.839	10.061	16349	16463	0	648
3.498	11.107	16349	16494	0	648
7.032	10.602	16359	16526	0	648
10.242	12.802	16359	16542	0	648
9.845	11.179	16359	16558	0	648
7.681	11.648	16359	16605	0	648
7.898	11.828	16359	16668	0	648
8.222	12.369	16359	16700	0	648
10.927	14.136	16359	16716	0	648
13.812	18.680	16359	16684	0	648
17.851	22.358	16359	16668	0	648
15.795	23.152	16359	16668	0	648
16.012	24.666	16359	16684	0	648
12.658	20.231	16359	16732	0	648
10.458	17.202	16367	16763	0	648
9.737	15.362	16367	16795	0	648
9.232	14.353	16367	16827	0	648
8.907	13.704	16367	16858	0	648
6.455	15.507	16377	16842	0	648
4.652	13.018	16377	16827	0	648
1.370	11.756	16377	16827	0	648
0.685	12.477	16377	16795	0	648
-0.902	10.386	16377	16747	0	648
-2.380	10.891	16377	16684	0	648
-0.397	9.484	16377	16605	0	648
3.426	7.140	16377	16542	0	648
8.835	8.078	16377	16478	0	648
13.163	7.681	16377	16447	0	648
17.418	11.900	16384	16415	0	648
15.362	13.163	16384	16384	0	648
13.415	14.245	16384	16353	0	648
9.989	15.398	16384	16369	0	648
7.393	13.559	16391	16415	0	648
5.734	17.562	16384	16463	0	648
8.475	19.762	16384	16494	0	648
11.504	24.847	16384	16526	0	648
12.622	22.503	16391	16573	0	648
13.631	21.132	16391	16621	0	648
10.927	18.752	16401	16637	0	648
9.124	16.480	16401	16652	0	648
9.917	20.988	16401	16637	0	648
11.143	21.745	16401	16589	0	648
9.737	21.709	16401	16558	0	648
6.167	16.444	16409	16558	0	648
2.272	11.504	16409	16558	0	648
-0.397	7.176	16409	16510	0	648
1.118	6.599	16409	16431	0	648
5.950	8.583	16409	16384	0	648
10.891	11.937	16409	16369	0	648
12.477	11.612	16409	16369	0	648
14.966	13.307	16409	16353	0	648
12.874	12.514	16419	16337	0	648
8.258	8.330	16419	16384	0	648
1.118	5.121	16419	16431	0	648
-5.481	2.236	16426	16463	0	648
-8.619	0.325	16426	16463	0	648
-6.239	3.101	16419	16447	0	648
-0.144	9.340	16419	16384	0	648
4.255	11.504	16419	16305	0	648
3.173	11.251	16419	16210	0	648
1.190	9.809	16409	16131	0	648
-0.216	8.763	16409	16036	0	648
3.823	10.566	16409	15941	0	648
7.645	14.281	16401	15847	0	648
10.061	12.297	16401	15783	0	648
4.832	7.970	16391	15736	0	648
-1.731	2.488	16391	15688	0	648
-4.327	0.252	16384	15657	0	648
-0.180	3.823	16384	15625	0	648
8.475	12.225	16377	15609	0	648
13.740	17.779	16377	15672	0	648
12.982	20.916	16377	15736	0	648
8.366	16.228	16377	15831	0	648
2.813	12.117	16377	15910	0	648
-0.036	7.393	16367	15973	0	648
-1.983	5.157	16367	16036	0	648
-2.813	6.491	16367	16100	0	648
-2.488	6.167	16367	16179	0	648
-2.092	7.321	16367	16258	0	648
1.587	6.491	16367	16337	0	648
3.390	4.652	16367	16384	0	648
2.885	2.416	16367	16384	0	648
-2.164	-1.118	16367	16384	0	648
-5.734	-2.596	16367	16384	0	648
-7.285	-2.308	16367	16384	0	648
-8.907	0.649	16359	16384	0	648
-4.796	2.560	16359	16399	0	648
-4.544	0.649	16367	16415	0	648
-4.436	-1.587	16367	16447	0	648
-4.616	-3.354	16367	16463	0	648
-3.787	-2.957	16367	16494	0	648
-0.793	2.164	16367	16526	0	648
2.524	3.895	16367	16573	0	648
3.462	4.472	16367	16621	0	648
3.282	2.380	16377	16716	0	648
0.685	-0.072	16377	16811	0	648
1.623	1.154	16384	16890	0	648
4.219	5.698	16384	16937	0	648
9.412	12.694	16384	16985	0	648
11.720	16.480	16391	16985	0	648
12.189	14.749	16391	16969	0	648
6.671	12.297	16391	16921	0	648
0.505	4.580	16391	16874	0	648
-4.508	1.226	16391	16827	0	648
-6.239	0.649	16391	16763	0	648
-2.957	1.983	16391	16684	0	648
1.154	0.541	16391	16558	0	648
2.056	-3.137	16391	16447	0	648
-2.416	-8.907	16384	16384	0	648
-9.881	-12.405	16384	16305	0	648
-16.805	-14.497	16384	16242	0	648
-17.743	-13.992	16384	16163	0	648
-11.071	-10.422	16377	16084	0	648
-2.669	-6.960	16377	16052	0	648
3.606	-3.714	16377	16052	0	648
4.940	0.829	16377	16100	0	648
1.731	3.606	16377	16116	0	648
-1.334	3.426	16367	16100	0	648
-3.318	3.390	16367	16068	0	648
-1.190	5.409	16367	16068	0	648
1.298	8.258	16367	16084	0	648
1.839	12.730	16367	16131	0	648
2.993	16.697	16367	16147	0	648
8.402	20.483	16367	16147	0	648
14.281	17.779	16359	16163	0	648
18.428	15.290	16359	16195	0	648
19.582	10.350	16359	16242	0	648
12.982	7.032	16359	16274	0	648
4.327	5.409	16359	16321	0	648
-1.154	5.806	16359	16353	0	648
-1.226	6.058	16359	16384	0	648
2.488	4.832	16359	16431	0	648
4.688	2.669	16359	16431	0	648
3.354	1.587	16359	16415	0	648
-2.957	-0.865	16359	16415	0	648
-9.953	-6.888	16367	16415	0	648
-17.418	-10.927	16367	16431	0	648
-20.447	-14.677	16377	16463	0	648
-19.257	-15.074	16367	16526	0	648
-14.353	-11.576	16377	16621	0	648
-6.491	-4.327	16377	16700	0	648
1.010	-1.803	16377	16763	0	648
5.481	0.108	16384	16811	0	648
8.222	1.334	16384	16842	0	648
9.881	1.839	16391	16874	0	648
10.819	4.796	16391	16874	0	648
9.737	8.366	16391	16842	0	648
9.304	9.376	16391	16795	0	648
7.032	9.953	16391	16763	0	648
6.167	12.117	16384	16732	0	648
6.744	13.451	16401	16716	0	648
7.501	16.841	16401	16700	0	648
6.167	18.103	16401	16732	0	648
5.590	14.894	16409	16795	0	648
6.419	14.930	16401	16827	0	648
7.717	11.071	16409	16795	0	648
7.285	11.071	16409	16716	0	648
3.606	8.114	16409	16621	0	648
-1.875	2.272	16409	16558	0	648
-5.373	-0.613	16409	16478	0	648
-6.671	-0.721	16409	16399	0	648
-4.291	0.180	16409	16337	0	648
-3.210	2.416	16409	16290	0	648
-5.662	2.019	16409	16258	0	648
-8.330	-1.515	16401	16195	0	648
-9.737	-4.291	16401	16100	0	648
-8.114	-4.832	16401	16021	0	648
-3.210	-3.931	16401	15941	0	648
-1.262	-2.560	16391	15862	0	648
-1.551	-1.190	16391	15767	0	648
-2.885	-0.144	16384	15704	0	648
-3.823	0.793	16384	15641	0	648
-1.118	2.019	16377	15625	0	648
1.551	2.380	16377	15657	0	648
3.714	3.498	16377	15704	0	648
4.904	3.246	16377	15783	0	648
4.255	6.311	16367	15878	0	648
6.275	6.455	16367	15941	0	648
5.770	9.304	16367	16005	0	648
9.376	9.268	16367	16068	0	648
8.691	7.285	16367	16147	0	648
6.203	6.347	16367	16226	0	648
4.868	4.760	16367	16305	0	648
2.669	2.416	16377	16384	0	648
-0.541	2.596	16377	16494	0	648
-1.875	0.325	16377	16589	0	648
-2.452	-1.767	16384	16668	0	648
-4.508	-2.128	16384	16732	0	648
-3.246	-4.652	16384	16811	0	648
0.036	-4.400	16391	16858	0	648
3.101	-4.580	16391	16890	0	648
2.957	-3.823	16391	16890	0	648
1.947	-0.793	16391	16858	0	648
1.947	2.524	16391	16811	0	648
4.291	8.258	16391	16763	0	648
9.124	9.917	16391	16684	0	648
12.622	11.937	16391	16621	0	648
11.468	8.907	16391	16558	0	648
10.025	6.491	16391	16478	0	648
9.592	5.554	16391	16415	0	648
12.333	8.042	16391	16369	0	648
14.713	13.523	16384	16305	0	648
17.923	15.795	16384	16242	0	648
14.353	18.103	16384	16179	0	648
13.992	14.641	16377	16116	0	648
10.530	10.999	16377	16052	0	648
9.845	5.517	16377	16021	0	648
7.429	1.262	16377	16021	0	648
4.003	-1.767	16367	16005	0	648
2.741	-1.911	16367	16005	0	648
1.118	-0.902	16367	16021	0	648
1.947	1.262	16367	16100	0	648
3.101	1.695	16367	16210	0	648
4.508	-0.757	16367	16305	0	648
2.777	-1.118	16377	16384	0	648
1.839	-2.488	16377	16478	0	648
2.019	-1.226	16377	16558	0	648
7.321	2.669	16377	16605	0	648
14.858	6.599	16384	16621	0	648
21.096	10.674	16384	16668	0	648
23.080	13.992	16384	16732	0	648
19.906	15.182	16391	16795	0	648
13.451	11.900	16391	16858	0	648
7.717	11.071	16401	16906	0	648
8.222	9.340	16401	16969	0	648
6.275	7.898	16409	17016	0	648
5.013	5.301	16409	17016	0	648
3.606	4.436	16419	17001	0	648
3.426	4.147	16419	16969	0	648
4.147	5.517	16419	16890	0	648
8.150	8.691	16419	16795	0	648
9.845	8.006	16419	16684	1	3000
7.248	4.940	16419	16573	0	3000
3.173	1.442	16419	16478	0	3000
0.865	0.397	16419	16384	0	3000
1.515	1.731	16419	16321	0	3000
2.200	4.544	16409	16242	0	3000
1.983	4.724	16401	16179	0	3000
0.649	2.813	16401	16131	0	3000
-0.397	1.695	16401	16116	0	3000
-0.613	1.911	16401	16116	0	3000
3.101	4.544	16401	16100	0	3000
4.364	7.357	16401	16084	0	3000
3.750	6.671	16401	16052	0	3000
2.921	4.868	16401	16052	0	3000
2.308	2.308	16401	16084	0	3000
3.750	4.291	16401	16116	0	3000
9.953	9.809	16401	16116	0	3000
14.785	14.425	16401	16116	0	3000
19.401	17.706	16401	16100	0	3000
16.300	13.668	16401	16084	0	3000
13.235	10.386	16391	16068	0	3000
7.393	7.140	16391	16052	0	3000
5.373	6.347	16391	16036	0	3000
6.455	7.681	16391	16036	0	3000
6.022	5.409	16391	16068	0	3000
3.498	3.642	16391	16100	0	3000
-1.046	0.252	16391	16147	0	3000
-3.354	0.325	16391	16195	0	3000
-3.318	1.623	16384	16226	0	3000
-3.714	1.695	16384	16226	0	3000
-3.462	0.036	16384	16210	0	3000
-5.049	-3.931	16384	16163	0	3000
-6.419	-3.931	16377	16116	0	3000
-4.508	-4.327	16377	16100	0	3000
0.361	-2.272	16377	16116	0	3000
3.065	-2.741	16377	16179	0	3000
3.714	-5.085	16377	16242	0	3000
1.947	-6.888	16377	16290	0	3000
-0.541	-5.409	16377	16305	0	3000
-0.397	-1.298	16377	16321	0	3000
3.137	4.580	16377	16353	0	3000
5.986	9.629	16377	16399	0	3000
9.556	11.468	16377	16478	0	3000
8.691	9.088	16377	16510	0	3000
5.229	7.862	16377	16510	0	3000
2.849	3.534	16377	16494	0	3000
0.288	0.361	16377	16494	0	3000
-2.019	-1.406	16377	16526	0	3000
-3.065	-2.128	16377	16573	0	3000
-5.373	-2.019	16377	16637	0	3000
-6.635	-2.560	16377	16668	0	3000
-7.068	-3.426	16377	16668	0	3000
-8.114	-4.904	16377	16652	0	3000
-10.674	-11.251	16377	16637	0	3000
-16.625	-15.110	16377	16621	0	3000
-19.798	-17.526	16377	16573	0	3000
-19.834	-20.808	16377	16542	0	3000
-16.913	-17.238	16377	16526	0	3000
-10.855	-14.064	16377	16478	0	3000
-6.780	-9.665	16377	16431	0	3000
-11.864	-9.701	16377	16415	0	3000
-15.579	-13.559	16377	16399	0	3000
-17.057	-16.480	16377	16399	0	3000
-15.867	-18.031	16377	16399	0	3000
-6.131	-13.307	16377	16384	0	3000
2.957	-8.222	16377	16384	0	3000
7.212	-4.436	16377	16384	0	3000
3.137	-5.806	16377	16415	0	3000
-2.669	-8.475	16377	16463	0	3000
-5.986	-7.717	16384	16526	0	3000
-6.275	-5.121	16384	16573	0	3000
-1.983	-0.685	16384	16605	0	3000
0.505	1.623	16384	16637	0	3000
0.613	-0.288	16391	16637	0	3000
-2.200	-3.931	16391	16637	0	3000
-6.311	-8.547	16391	16637	0	3000
-5.265	-9.016	16391	16621	0	3000
-5.445	-7.862	16391	16605	0	3000
-5.265	-5.626	16391	16573	0	3000
-4.977	-4.364	16391	16510	0	3000
-6.960	-4.760	16391	16463	0	3000
-13.018	-7.609	16391	16431	0	3000
-15.615	-9.376	16391	16399	0	3000
-18.356	-9.448	16391	16369	0	3000
-19.546	-9.196	16391	16337	0	3000
-17.598	-8.078	16391	16305	0	3000
-15.795	-6.311	16391	16242	0	3000
-9.412	-5.193	16384	16163	0	3000
-5.878	-1.587	16384	16100	0	3000
-3.282	2.560	16384	16084	0	3000
-2.560	4.940	16384	16100	0	3000
-5.409	4.147	16384	16116	0	3000
-8.042	0.721	16384	16116	0	3000
-8.979	-5.590	16377	16100	0	3000
-10.061	-9.232	16377	16084	0	3000
-11.287	-9.917	16377	16068	0	3000
-10.602	-8.402	16377	16084	0	3000
-9.845	-6.816	16377	16131	0	3000
-8.366	-5.806	16377	16163	0	3000
-7.789	-6.960	16377	16179	0	3000
-9.737	-8.655	16377	16195	0	3000
-13.054	-11.720	16377	16226	0	3000
-17.598	-11.504	16377	16274	0	3000
-20.195	-13.415	16377	16353	0	3000
-21.998	-12.658	16377	16415	0	3000
-20.267	-10.242	16377	16510	0	3000
-16.156	-9.809	16384	16605	0	3000
-13.415	-8.583	16384	16684	0	3000
-11.251	-6.888	16384	16732	0	3000
-9.160	-4.832	16384	16700	0	3000
-9.809	-5.049	16384	16637	0	3000
-10.350	-5.373	16384	16589	0	3000
-9.737	-8.078	16384	16526	0	3000
-8.439	-9.881	16384	16463	0	3000
-5.121	-8.186	16384	16384	0	3000
-0.252	-4.147	16384	16369	0	3000
2.524	-0.361	16384	16369	0	3000
1.334	0.072	16384	16384	0	3000
-2.488	-1.479	16384	16384	0	3000
-4.796	-3.895	16384	16384	0	3000
-5.301	-3.029	16384	16369	0	3000
-3.642	-0.397	16384	16353	0	3000
-3.101	-0.829	16384	16353	0	3000
-6.094	-4.400	16384	16384	0	3000
-10.386	-11.864	16384	16447	0	3000
-15.254	-17.346	16384	16494	0	3000
-13.343	-20.231	16384	16510	0	3000
-10.206	-16.516	16391	16526	0	3000
-3.714	-13.523	16391	16558	0	3000
-1.731	-11.973	16391	16573	0	3000
-5.914	-17.743	16391	16558	0	3000
-12.117	-22.647	16391	16542	0	3000
-17.310	-25.748	16391	16510	0	3000
-16.300	-23.693	16391	16447	0	3000
-9.809	-13.776	16391	16399	0	3000
-2.560	-7.212	16391	16399	0	3000
1.911	-4.039	16391	16415	0	3000
3.823	-4.508	16391	16431	0	3000
4.580	-4.940	16401	16463	0	3000
3.173	-3.931	16401	16526	0	3000
1.731	-0.685	16401	16589	0	3000
-0.108	-0.144	16409	16652	0	3000
-1.154	-1.262	16409	16716	0	3000
-0.072	-1.803	16419	16747	0	3000
2.596	0.649	16419	16779	0	3000
4.904	4.904	16419	16763	0	3000
2.272	5.445	16426	16747	0	3000
-1.226	2.777	16419	16716	0	3000
-3.426	-3.498	16426	16652	0	3000
-7.068	-10.674	16426	16558	0	3000
-7.429	-13.235	16419	16494	0	3000
-9.629	-15.074	16419	16415	0	3000
-11.360	-14.317	16419	16337	0	3000
-10.025	-14.966	16419	16258	0	3000
-12.802	-13.523	16419	16210	0	3000
-12.477	-12.117	16419	16195	0	3000
-13.379	-12.189	16419	16210	0	3000
-15.831	-12.117	16419	16210	0	3000
-15.290	-10.999	16419	16163	0	3000
-16.372	-13.127	16409	16100	0	3000
-14.677	-10.999	16409	16021	0	3000
-11.179	-6.635	16401	15910	0	3000
-6.780	-0.397	16401	15815	0	3000
1.695	5.373	16391	15752	0	3000
7.645	10.963	16391	15736	0	3000
10.602	12.982	16391	15752	0	3000
12.261	12.009	16391	15799	0	3000
11.251	12.514	16391	15862	0	3000
9.196	13.091	16384	15878	0	3000
8.907	13.704	16384	15894	0	3000
6.239	15.362	16384	15910	0	3000
7.429	12.081	16384	15957	0	3000
6.455	9.016	16377	15989	0	3000
4.724	6.383	16377	16005	0	3000
1.479	2.488	16377	16021	0	3000
-0.288	-0.505	16377	16052	0	3000
-3.931	-3.570	16377	16116	0	3000
-5.626	-5.409	16377	16195	0	3000
-7.970	-9.304	16377	16258	0	3000
-10.710	-9.953	16377	16353	0	3000
-11.071	-11.071	16377	16431	0	3000
-12.153	-10.674	16377	16542	0	3000
-8.042	-9.052	16377	16621	0	3000
-4.436	-8.330	16377	16668	0	3000
-2.344	-7.357	16377	16684	0	3000
-3.642	-6.816	16377	16652	0	3000
-5.950	-6.671	16377	16621	0	3000
-9.124	-3.246	16377	16589	0	3000
-7.753	-1.334	16377	16573	0	3000
-3.642	2.308	16377	16542	0	3000
3.282	4.832	16377	16526	0	3000
8.330	7.068	16377	16494	0	3000
10.422	9.268	16377	16447	0	3000
11.900	7.898	16367	16399	0	3000
9.484	5.481	16367	16353	0	3000
8.402	1.479	16367	16305	0	3000
8.078	1.983	16359	16258	0	3000
9.701	2.705	16359	16226	0	3000
10.891	3.462	16359	16226	0	3000
10.891	2.200	16359	16242	0	3000
11.143	-2.200	16359	16274	0	3000
7.176	-6.347	16359	16305	0	3000
2.092	-7.321	16349	16337	0	3000
-1.875	-8.402	16349	16337	0	3000
-5.265	-6.635	16349	16274	0	3000
-4.724	-4.904	16349	16179	0	3000
-1.479	-4.255	16359	16147	0	3000
4.111	-2.524	16349	16179	0	3000
7.898	0.036	16349	16258	0	3000
7.934	0.757	16349	16384	0	3000
6.347	2.849	16349	16478	0	3000
4.364	2.416	16359	16573	0	3000
2.452	2.019	16359	16621	0	3000
1.803	2.308	16359	16684	0	3000
4.075	3.390	16359	16716	0	3000
6.491	4.111	16359	16700	0	3000
6.888	5.517	16359	16668	0	3000
8.258	4.147	16359	16637	0	3000
9.917	2.092	16359	16637	0	3000
11.720	1.010	16359	16637	0	3000
12.550	0.469	16359	16637	0	3000
10.566	-1.623	16359	16652	0	3000
11.071	-3.137	16377	16684	0	3000
8.258	-4.688	16377	16700	0	3000
8.727	-3.787	16377	16732	0	3000
7.970	-4.652	16377	16732	0	3000
4.904	-6.094	16377	16716	0	3000
-1.442	-7.321	16377	16684	0	3000
-6.275	-10.422	16384	16668	0	3000
-7.862	-11.648	16384	16652	0	3000
-8.439	-10.386	16384	16637	0	3000
-5.373	-8.547	16384	16573	0	3000
-1.082	-7.537	16384	16542	0	3000
2.596	-6.816	16384	16573	0	3000
5.554	-7.429	16391	16621	0	3000
5.121	-8.835	16391	16637	0	3000
2.164	-10.458	16391	16637	0	3000
-0.505	-11.504	16391	16621	0	3000
-2.524	-9.376	16391	16589	0	3000
-1.695	-6.780	16401	16558	0	3000
1.695	-4.364	16401	16510	0	3000
4.039	-2.164	16391	16478	0	3000
4.652	-1.767	16391	16463	0	3000
7.032	-1.406	16391	16463	0	3000
4.616	-1.767	16391	16447	0	3000
-0.902	-2.957	16391	16415	0	3000
-6.816	-6.455	16391	16384	0	3000
-11.864	-10.422	16391	16353	0	3000
-14.930	-13.054	16391	16353	0	3000
-12.514	-13.451	16401	16337	0	3000
-8.294	-11.576	16401	16321	0	3000
-6.924	-11.143	16401	16290	0	3000
-6.852	-13.307	16401	16274	0	3000
-7.862	-13.668	16401	16305	0	3000
-7.032	-14.317	16401	16369	0	3000
-4.436	-12.189	16409	16415	0	3000
-1.118	-6.744	16409	16447	0	3000
2.092	-1.442	16409	16463	0	3000
4.724	-0.325	16409	16431	0	3000
7.321	1.118	16409	16384	0	3000
9.304	0.397	16409	16321	0	3000
11.504	0.180	16409	16242	0	3000
11.215	1.515	16401	16147	0	3000
11.684	2.741	16401	16036	0	3000
10.746	3.967	16401	15957	0	3000
14.281	4.003	16391	15957	0	3000
18.788	5.914	16384	15973	0	3000
21.277	7.825	16391	16005	0	3000
20.303	7.645	16391	16021	0	3000
16.769	6.491	16391	16052	0	3000
8.619	1.659	16391	16084	0	3000
2.128	-2.524	16391	16100	0	3000
-1.082	-5.049	16391	16116	0	3000
-1.587	-8.979	16391	16116	0	3000
-0.325	-11.107	16384	16084	0	3000
0.108	-10.386	16384	16068	0	3000
1.298	-8.114	16384	16036	0	3000
3.823	-4.724	16377	16005	0	3000
4.796	-1.226	16377	15989	0	3000
6.094	-1.479	16377	16021	0	3000
2.741	-5.842	16377	16084	0	3000
-3.931	-11.540	16377	16163	0	3000
-9.556	-12.477	16377	16210	0	3000
-12.045	-11.720	16377	16242	0	3000
-7.285	-6.311	16384	16274	0	3000
-1.659	0.144	16377	16305	0	3000
3.029	2.452	16377	16353	0	3000
5.193	0.072	16377	16384	0	3000
2.921	-1.515	16377	16431	0	3000
3.282	-1.082	16377	16463	0	3000
3.714	1.731	16377	16478	0	3000
6.383	7.429	16367	16463	0	3000
9.124	10.566	16367	16431	0	3000
12.189	10.602	16367	16399	0	3000
13.163	10.314	16367	16384	0	3000
10.133	5.373	16367	16399	0	3000
5.770	-0.144	16367	16431	0	3000
-2.813	-7.321	16367	16447	0	3000
-8.799	-12.477	16367	16431	0	3000
-9.917	-14.605	16359	16415	0	3000
-6.852	-12.045	16359	16415	0	3000
-2.092	-7.537	16359	16431	0	3000
-1.082	-4.364	16359	16478	0	3000
-2.272	-6.455	16367	16542	0	3000
-4.977	-7.537	16367	16558	0	3000
-7.248	-10.999	16367	16558	0	3000
-6.455	-11.468	16367	16573	0	3000
-6.744	-11.107	16367	16589	0	3000
-8.114	-10.602	16367	16589	0	3000
-7.898	-8.799	16367	16558	0	3000
-6.203	-10.242	16359	16494	0	3000
-2.596	-7.717	16367	16399	0	3000
1.262	-4.724	16367	16353	0	3000
5.806	-1.551	16367	16337	0	3000
5.986	1.298	16367	16353	0	3000
8.583	3.967	16359	16337	0	3000
9.484	6.888	16359	16290	0	3000
8.763	6.022	16359	16290	0	3000
7.248	4.147	16359	16321	0	3000
6.671	2.849	16359	16369	0	3000
7.573	3.895	16359	16384	0	3000
9.917	6.563	16359	16353	0	3000
12.333	9.845	16359	16337	0	3000
11.792	10.278	16359	16369	0	3000
4.327	4.183	16359	16384	0	3000
-1.983	-2.993	16359	16447	0	3000
-9.629	-9.665	16359	16510	0	3000
-11.432	-13.595	16367	16605	0	3000
-10.169	-14.858	16367	16652	0	3000
-8.763	-16.985	16367	16700	0	3000
-8.402	-16.048	16377	16763	0	3000
-7.465	-16.589	16377	16811	0	3000
-5.085	-13.415	16377	16827	0	3000
-3.859	-10.133	16377	16795	0	3000
-1.262	-7.393	16377	16747	0	3000
-3.931	-4.652	16391	16700	0	3000
-5.878	-3.642	16384	16684	0	3000
-6.203	-0.721	16384	16668	0	3000
-2.957	1.442	16384	16605	0	3000
-1.623	3.390	16384	16510	0	3000
1.154	4.940	16384	16431	0	3000
1.154	5.481	16384	16384	0	3000
3.029	5.301	16384	16384	0	3000
4.940	4.977	16384	16384	0	3000
7.609	7.140	16384	16384	0	3000
8.330	7.248	16384	16384	0	3000
8.439	6.671	16384	16399	0	3000
5.986	7.753	16384	16431	0	3000
4.940	5.229	16391	16463	0	3000
6.599	4.436	16391	16510	0	3000
8.114	5.085	16391	16558	0	3000
11.900	7.573	16401	16637	0	3000
13.920	8.150	16409	16763	0	3000
9.484	6.599	16409	16874	0	3000
4.291	2.380	16419	16921	0	3000
-3.462	-1.515	16419	16906	0	3000
-10.746	-7.537	16426	16842	0	3000
-14.172	-7.753	16426	16763	0	3000
-10.206	-6.527	16426	16700	0	3000
-5.157	-2.633	16426	16605	0	3000
2.849	-0.505	16426	16478	0	3000
5.554	0.000	16426	16384	0	3000
4.219	-1.370	16426	16305	0	3000
-1.659	-2.885	16419	16210	0	3000
-3.967	-2.164	16409	16100	0	3000
-1.983	0.865	16409	16005	0	3000
1.587	3.498	16409	15941	0	3000
6.239	4.327	16409	15926	0	3000
8.727	5.409	16409	15973	0	3000
5.481	4.760	16409	16036	0	3000
1.947	3.137	16409	16084	0	3000
-4.544	-1.154	16409	16084	0	3000
-7.176	-4.940	16409	16068	0	3000
-4.868	-8.943	16409	16036	0	3000
-2.128	-9.376	16401	16021	0	3000
-0.541	-9.484	16401	15989	0	3000
-3.101	-9.124	16401	15989	0	3000
-8.186	-10.927	16401	16036	0	3000
-13.487	-10.242	16401	16100	0	3000
-13.018	-12.982	16401	16147	0	3000
-11.287	-12.441	16401	16195	0	3000
-10.566	-11.468	16401	16226	0	3000
-12.586	-13.884	16391	16242	0	3000
-14.930	-13.523	16401	16242	0	3000
-16.661	-12.802	16401	16242	0	3000
-11.360	-12.189	16401	16274	0	3000
-6.383	-8.835	16401	16305	0	3000
-1.947	-6.239	16401	16353	0	3000
-3.137	-4.616	16401	16384	0	3000
-7.176	-3.426	16401	16384	0	3000
-8.583	-4.616	16401	16415	0	3000
-6.058	-4.436	16401	16463	0	3000
-1.118	-1.731	16401	16494	0	3000
3.210	0.974	16401	16494	0	3000
6.744	4.003	16401	16478	0	3000
7.501	6.203	16401	16463	0	3000
6.022	3.246	16401	16463	0	3000
-0.144	-3.137	16401	16478	0	3000
-6.708	-10.819	16401	16478	0	3000
-10.530	-14.317	16401	16478	0	3000
-11.323	-15.146	16409	16510	0	3000
-3.823	-10.891	16409	16558	0	3000
3.823	-4.327	16409	16589	0	3000
6.599	-3.173	16409	16605	0	3000
2.416	-4.652	16419	16621	0	3000
-0.397	-7.357	16419	16621	0	3000
-6.455	-10.458	16419	16621	0	3000
-9.629	-9.665	16419	16621	0	3000
-8.294	-7.501	16419	16573	0	3000
-4.147	-5.049	16409	16510	0	3000
-2.236	-1.659	16409	16431	0	3000
-0.072	1.479	16409	16369	0	3000
1.659	3.967	16409	16305	0	3000
3.029	3.895	16409	16305	0	3000
4.544	3.282	16409	16337	0	3000
6.599	1.298	16409	16353	0	3000
5.770	0.577	16409	16337	0	3000
4.436	3.859	16409	16321	0	3000
2.849	8.258	16409	16305	0	3000
2.633	10.927	16409	16290	0	3000
6.708	11.900	16409	16258	0	3000
8.907	12.081	16409	16210	0	3000
8.078	9.376	16401	16147	0	3000
5.698	7.248	16401	16068	0	3000
-0.505	3.354	16401	16021	0	3000
-8.655	-1.911	16391	16021	0	3000
-12.225	-6.094	16391	16005	0	3000
-10.746	-9.448	16391	15989	0	3000
-5.554	-7.645	16384	15941	0	3000
1.370	-5.337	16384	15878	0	3000
5.878	-3.534	16377	15815	0	3000
4.147	-3.065	16377	15783	0	3000
3.859	-2.344	16367	15767	0	3000
3.895	-0.902	16367	15783	0	3000
4.940	1.479	16359	15799	0	3000
4.183	1.623	16359	15815	0	3000
3.642	3.065	16359	15831	0	3000
2.092	2.813	16349	15878	0	3000
5.049	5.517	16349	15926	0	3000
13.848	12.477	16349	15989	0	3000
22.611	17.562	16342	16068	0	3000
28.453	22.611	16342	16131	0	3000
28.453	21.132	16342	16210	0	3000
25.424	20.627	16342	16305	0	3000
22.358	18.644	16342	16399	0	3000
18.464	14.966	16359	16526	0	3000
19.618	16.408	16359	16621	0	3000
20.411	15.038	16359	16700	0	3000
17.634	13.054	16359	16779	0	3000
15.326	13.091	16359	16827	0	3000
11.432	11.504	16359	16827	0	3000
6.996	9.448	16359	16811	0	3000
5.698	8.691	16359	16811	0	3000
3.931	3.318	16359	16811	0	3000
1.046	-0.974	16359	16827	0	3000
-1.587	-6.094	16367	16842	0	3000
-4.616	-8.150	16367	16842	0	3000
-4.832	-8.583	16367	16842	0	3000
-4.688	-7.104	16367	16811	0	3000
-0.577	-5.734	16367	16795	0	3000
1.226	-3.859	16367	16795	0	3000
3.246	-1.947	16367	16795	0	3000
2.164	-0.325	16367	16779	0	3000
1.803	0.397	16367	16732	0	3000
-2.452	-1.623	16367	16668	0	3000
-3.246	-5.049	16367	16621	0	3000
-4.183	-6.635	16367	16589	0	3000
-1.695	-5.373	16367	16542	0	3000
3.714	-0.505	16377	16494	0	3000
10.674	6.455	16377	16431	0	3000
16.841	12.946	16377	16384	0	3000
16.192	15.110	16377	16353	0	3000
11.143	11.720	16377	16369	0	3000
4.652	8.330	16377	16384	0	3000
0.036	4.652	16384	16431	0	3000
1.442	4.796	16384	16478	0	3000
6.635	9.268	16384	16542	0	3000
9.665	10.278	16384	16573	0	3000
9.196	8.402	16384	16573	0	3000
4.327	2.957	16384	16558	0	3000
-1.262	-4.688	16384	16526	0	3000
-4.003	-6.960	16384	16494	0	3000
-1.298	-4.760	16391	16510	0	3000
5.445	-0.325	16391	16526	0	3000
11.504	8.042	16391	16558	0	3000
13.848	11.900	16391	16589	0	3000
12.730	10.097	16401	16589	0	3000
6.203	4.760	16401	16558	0	3000
2.056	0.108	16391	16494	0	3000
1.515	-3.390	16391	16415	0	3000
4.183	-1.370	16391	16369	0	3000
9.484	3.210	16391	16337	0	3000
12.730	2.993	16391	16337	0	3000
11.179	3.823	16391	16321	0	3000
7.970	4.760	16391	16321	0	3000
7.898	7.825	16391	16305	0	3000
9.845	12.153	16391	16305	0	3000
11.864	12.261	16391	16290	0	3000
9.917	8.439	16391	16258	0	3000
4.868	-0.433	16391	16242	0	3000
-3.714	-5.734	16391	16258	0	3000
-6.419	-6.635	16391	16290	0	3000
-5.445	-3.137	16391	16305	0	3000
-0.577	-1.442	16391	16321	0	3000
0.829	-2.488	16391	16353	0	3000
-0.433	-7.429	16391	16353	0	3000
-2.344	-13.776	16391	16321	0	3000
-5.517	-14.533	16391	16274	0	3000
-7.248	-12.153	16391	16226	0	3000
-3.065	-7.609	16384	16147	0	3000
0.974	-1.370	16384	16068	0	3000
3.931	2.236	16384	16021	0	3000
4.291	5.770	16377	15973	0	3000
2.416	5.373	16377	15910	0	3000
-0.902	3.967	16367	15878	0	3000
-3.714	2.236	16367	15862	0	3000
-3.354	2.019	16367	15910	0	3000
-0.361	3.246	16367	15957	0	3000
1.262	2.524	16367	16021	0	3000
2.128	2.777	16367	16052	0	3000
0.216	0.252	16359	16068	0	3000
-5.121	-2.921	16359	16116	0	3000
-10.710	-5.950	16359	16179	0	3000
-15.002	-10.494	16367	16274	0	3000
-18.067	-15.290	16377	16384	0	3000
-16.949	-16.192	16377	16510	0	3000
-17.779	-17.851	16377	16573	0	3000
-15.651	-13.307	16377	16621	0	3000
-15.110	-12.081	16384	16652	0	3000
-11.648	-9.376	16384	16684	0	3000
-10.097	-7.248	16384	16684	0	3000
-7.645	-7.212	16384	16700	0	3000
-4.760	-5.734	16384	16684	0	3000
-4.508	-3.823	16384	16668	0	3000
-5.445	-1.983	16384	16637	0	3000
-4.616	0.613	16384	16605	0	3000
-3.137	2.344	16384	16573	0	3000
1.983	3.534	16384	16526	0	3000
7.862	5.193	16384	16494	0	3000
12.261	7.212	16384	16478	0	3000
11.323	9.989	16384	16494	0	3000
8.330	11.612	16384	16494	0	3000
5.950	11.684	16384	16494	0	3000
5.842	10.566	16384	16494	0	3000
7.429	11.432	16384	16494	0	3000
5.770	8.258	16384	16510	0	3000
2.957	6.816	16384	16542	0	3000
-0.865	2.272	16391	16605	0	3000
-3.137	-0.721	16391	16637	0	3000
-5.409	-4.544	16391	16668	0	3000
-8.402	-8.294	16401	16700	0	3000
-11.576	-11.323	16401	16716	0	3000
-15.651	-12.730	16401	16716	0	3000
-13.704	-13.776	16391	16700	0	3000
-6.996	-11.864	16401	16700	0	3000
-3.354	-8.006	16401	16652	0	3000
-2.885	-9.340	16401	16558	0	3000
-8.114	-10.963	16401	16463	0	3000
-16.300	-12.946	16391	16384	0	3000
-22.611	-15.831	16391	16305	0	3000
-20.123	-14.533	16391	16210	0	3000
-14.966	-8.763	16391	16147	0	3000
-6.816	-3.859	16384	16100	0	3000
-1.298	1.118	16384	16068	0	3000
0.000	1.839	16384	16021	0	3000
0.974	1.334	16384	15973	0	3000
1.875	-0.325	16377	15941	0	3000
5.049	0.902	16377	15910	0	3000
8.439	5.013	16377	15878	0	3000
10.169	8.078	16367	15847	0	3000
12.730	11.107	16367	15815	0	3000
12.477	10.097	16359	15815	0	3000
9.773	9.052	16359	15831	0	3000
8.150	6.744	16359	15847	0	3000
6.022	5.373	16359	15862	0	3000
5.950	6.022	16359	15894	0	3000
7.393	6.058	16367	15957	0	3000
8.619	4.652	16359	16036	0	3000
7.717	2.705	16359	16116	0	3000
2.921	0.721	16359	16195	0	3000
-0.397	-2.813	16359	16274	0	3000
-3.931	-4.364	16359	16369	0	3000
-4.652	-7.753	16359	16463	0	3000
-4.219	-7.681	16359	16558	0	3000
2.092	-5.445	16367	16652	0	3000
6.635	0.216	16367	16763	0	3000
15.975	6.491	16377	16874	0	3000
19.762	10.566	16377	16985	0	3000
23.152	12.261	16384	17096	0	3000
20.664	12.297	16391	17222	0	3000
16.372	9.989	16401	17333	0	3000
12.189	10.999	16401	17396	0	3000
12.045	11.648	16409	17428	0	3000
13.812	12.838	16419	17491	0	3000
19.798	14.281	16426	17523	0	3000
22.611	16.480	16437	17491	0	3000
25.424	15.543	16437	17396	0	3000
20.591	15.002	16426	17270	0	3000
15.795	11.756	16437	17096	0	3000
7.429	7.248	16426	16953	1	2396
2.813	3.714	16426	16795	0	2396
1.551	-2.019	16426	16621	0	2396
1.767	-4.544	16426	16431	0	2396
1.839	-5.445	16426	16274	0	2396
0.902	-5.698	16419	16163	0	2396
-1.190	-6.960	16419	16084	0	2396
-1.695	-5.734	16419	16036	0	2396
-0.288	-3.029	16419	16005	0	2396
2.128	-0.144	16419	15989	0	2396
3.137	2.957	16419	15973	0	2396
2.452	4.147	16419	15957	0	2396
-0.144	2.056	16419	15957	0	2396
-1.587	0.108	16409	15926	0	2396
-0.902	0.433	16409	15926	0	2396
1.875	2.741	16409	15973	0	2396
7.248	6.455	16409	16036	0	2396
11.360	8.835	16409	16068	0	2396
14.569	13.091	16409	16052	0	2396
14.605	16.264	16409	16021	0	2396
14.353	17.238	16409	15989	0	2396
12.441	15.254	16409	15973	0	2396
7.753	7.898	16409	15957	0	2396
2.272	0.433	16401	15941	0	2396
-2.308	-8.330	16401	15894	0	2396
-6.455	-11.107	16391	15847	0	2396
-8.222	-9.953	16391	15815	0	2396
-7.285	-9.088	16391	15799	0	2396
-8.006	-8.727	16384	15799	0	2396
-11.504	-11.107	16384	15831	0	2396
-13.776	-13.307	16384	15862	0	2396
-12.514	-15.831	16384	15910	0	2396
-10.278	-16.300	16377	15973	0	2396
-6.239	-12.477	16377	16036	0	2396
-2.524	-13.127	16377	16100	0	2396
-2.308	-10.927	16377	16163	0	2396
-2.200	-9.448	16377	16210	0	2396
-1.479	-9.088	16377	16242	0	2396
-1.406	-8.078	16377	16242	0	2396
-2.705	-5.445	16367	16226	0	2396
-2.849	-3.318	16367	16210	0	2396
0.721	-0.252	16367	16242	0	2396
6.527	3.282	16367	16274	0	2396
13.992	7.970	16359	16290	0	2396
15.110	12.225	16359	16305	0	2396
14.930	14.858	16359	16305	0	2396
12.117	17.021	16359	16305	0	2396
10.097	13.307	16349	16305	0	2396
11.071	11.756	16349	16337	0	2396
10.602	8.330	16349	16369	0	2396
8.042	4.544	16349	16399	0	2396
5.517	2.200	16359	16447	0	2396
5.193	0.829	16359	16494	0	2396
5.770	0.288	16359	16558	0	2396
5.085	0.252	16359	16605	0	2396
1.118	-2.019	16359	16668	0	2396
-3.210	-4.796	16367	16732	0	2396
-4.688	-8.330	16367	16779	0	2396
-2.092	-6.635	16367	16811	0	2396
3.967	-4.183	16367	16858	0	2396
7.393	-1.298	16377	16921	0	2396
5.301	0.108	16377	16969	0	2396
2.849	-0.036	16377	16985	0	2396
0.180	-0.144	16384	16969	0	2396
0.865	0.974	16384	16937	0	2396
2.741	2.056	16384	16921	0	2396
3.282	2.272	16384	16874	0	2396
3.029	1.515	16384	16779	0	2396
4.616	1.406	16384	16652	0	2396
7.537	3.823	16377	16526	0	2396
14.136	8.583	16377	16431	0	2396
21.926	13.740	16377	16384	0	2396
24.378	19.401	16377	16321	0	2396
25.063	19.906	16367	16258	0	2396
18.500	17.959	16367	16195	0	2396
14.028	11.756	16367	16163	0	2396
8.691	8.186	16367	16163	0	2396
4.904	4.580	16367	16210	0	2396
2.813	2.056	16367	16290	0	2396
-0.397	-0.216	16367	16369	0	2396
-2.921	-3.210	16367	16384	0	2396
-6.527	-6.563	16367	16369	0	2396
-9.629	-9.520	16367	16369	0	2396
-13.920	-11.107	16367	16337	0	2396
-12.838	-9.989	16367	16274	0	2396
-12.045	-8.943	16367	16195	0	2396
-7.934	-6.888	16367	16131	0	2396
-2.416	-3.642	16367	16084	0	2396
-0.361	-2.056	16367	16052	0	2396
0.685	-2.344	16367	16036	0	2396
0.288	-2.416	16359	16036	0	2396
-0.397	-4.219	16359	16068	0	2396
-2.092	-3.210	16359	16131	0	2396
0.216	-1.046	16359	16210	0	2396
6.131	4.003	16359	16321	0	2396
13.235	10.314	16367	16431	0	2396
18.103	13.776	16367	16494	0	2396
20.303	15.398	16367	16526	0	2396
15.038	12.117	16367	16558	0	2396
12.441	7.032	16367	16605	0	2396
7.140	3.426	16377	16668	0	2396
4.039	-0.974	16377	16732	0	2396
1.046	-1.442	16377	16779	0	2396
-3.642	-1.298	16377	16795	0	2396
-6.563	-0.036	16384	16779	0	2396
-7.285	-2.019	16384	16747	0	2396
-6.311	-2.777	16384	16668	0	2396
-5.734	-6.311	16377	16573	0	2396
-7.248	-9.773	16377	16510	0	2396
-10.530	-11.251	16377	16494	0	2396
-13.451	-10.855	16377	16478	0	2396
-11.360	-11.792	16384	16463	0	2396
-9.484	-10.061	16384	16447	0	2396
-4.940	-8.402	16384	16447	0	2396
-1.154	-5.842	16384	16431	0	2396
0.505	-3.065	16384	16399	0	2396
1.695	-0.829	16384	16384	0	2396
2.560	0.252	16384	16384	0	2396
2.813	-0.361	16384	16415	0	2396
0.252	-0.216	16384	16447	0	2396
-0.938	2.164	16384	16431	0	2396
0.757	4.940	16384	16415	0	2396
5.337	9.124	16384	16384	0	2396
10.963	15.038	16384	16369	0	2396
16.733	15.110	16384	16337	0	2396
15.975	15.110	16384	16321	0	2396
12.081	11.215	16384	16305	0	2396
4.796	5.229	16384	16305	0	2396
-2.416	2.993	16384	16337	0	2396
-6.239	0.252	16384	16369	0	2396
-7.176	-2.092	16384	16384	0	2396
-5.590	-2.056	16384	16369	0	2396
-4.868	-3.426	16384	16321	0	2396
-2.921	-5.445	16384	16305	0	2396
-3.390	-6.347	16384	16305	0	2396
-4.832	-6.888	16384	16337	0	2396
-6.419	-6.419	16384	16353	0	2396
-8.294	-8.006	16384	16369	0	2396
-10.169	-7.212	16384	16369	0	2396
-10.891	-7.032	16384	16321	0	2396
-8.691	-5.878	16384	16242	0	2396
-5.265	-3.137	16384	16179	0	2396
-3.823	-0.829	16377	16116	0	2396
-1.190	-1.623	16377	16100	0	2396
-3.137	-2.236	16377	16100	0	2396
-2.056	-3.823	16377	16116	0	2396
-2.777	-0.541	16377	16131	0	2396
0.361	0.577	16377	16163	0	2396
3.787	2.344	16377	16210	0	2396
6.527	0.721	16377	16290	0	2396
9.088	0.397	16377	16369	0	2396
8.222	-0.541	16377	16431	0	2396
3.606	-1.334	16377	16478	0	2396
-1.587	-2.452	16377	16494	0	2396
-9.160	-7.681	16384	16510	0	2396
-12.586	-12.802	16384	16573	0	2396
-13.307	-13.235	16384	16637	0	2396
-9.052	-9.953	16391	16684	0	2396
-1.731	-4.796	16391	16732	0	2396
2.200	0.036	16391	16795	0	2396
2.236	-0.397	16401	16842	0	2396
-3.101	-5.698	16401	16858	0	2396
-9.088	-8.402	16401	16795	0	2396
-12.550	-10.783	16401	16732	0	2396
-6.744	-6.094	16401	16668	0	2396
1.515	0.397	16401	16621	0	2396
9.412	7.970	16401	16573	0	2396
11.756	10.458	16401	16510	0	2396
11.287	11.251	16401	16463	0	2396
6.599	7.573	16401	16415	0	2396
3.931	3.967	16401	16399	0	2396
3.210	3.498	16401	16369	0	2396
4.039	3.029	16401	16321	0	2396
5.481	5.337	16401	16258	0	2396
5.986	6.671	16401	16210	0	2396
5.085	5.121	16401	16179	0	2396
2.813	2.344	16401	16163	0	2396
-0.541	-1.442	16401	16147	0	2396
-3.859	-4.544	16401	16116	0	2396
-8.330	-7.862	16391	16084	0	2396
-11.864	-9.520	16391	16068	0	2396
-14.677	-12.009	16391	16052	0	2396
-14.317	-14.858	16391	16068	0	2396
-15.326	-14.172	16391	16084	0	2396
-11.576	-13.271	16391	16100	0	2396
-8.943	-9.809	16384	16100	0	2396
-8.727	-9.340	16384	16100	0	2396
-7.465	-8.763	16384	16100	0	2396
-9.412	-10.061	16384	16131	0	2396
-9.412	-10.566	16384	16163	0	2396
-10.206	-10.674	16384	16226	0	2396
-6.311	-8.330	16384	16242	0	2396
-2.741	-3.426	16384	16258	0	2396
1.406	0.685	16384	16258	0	2396
4.760	4.255	16384	16274	0	2396
4.868	3.570	16384	16258	0	2396
4.652	1.190	16384	16242	0	2396
2.633	-1.442	16377	16210	0	2396
1.623	-1.010	16377	16195	0	2396
5.842	1.803	16377	16179	0	2396
9.412	5.554	16367	16179	0	2396
11.540	6.599	16367	16163	0	2396
12.225	5.986	16367	16147	0	2396
11.648	6.239	16359	16116	0	2396
9.052	5.590	16359	16100	0	2396
7.537	5.373	16359	16131	0	2396
4.616	2.993	16359	16179	0	2396
2.741	0.361	16359	16258	0	2396
1.587	-3.895	16359	16353	0	2396
1.839	-5.157	16359	16447	0	2396
3.750	-2.344	16359	16573	0	2396
3.714	1.442	16367	16684	0	2396
2.308	4.508	16367	16795	0	2396
3.282	4.977	16377	16890	0	2396
5.121	4.832	16377	16937	0	2396
9.340	5.301	16377	16969	0	2396
11.973	6.275	16384	16985	0	2396
12.153	9.953	16384	16953	0	2396
9.448	9.376	16384	16921	0	2396
5.409	8.835	16384	16890	0	2396
2.236	6.311	16384	16858	0	2396
2.019	6.527	16384	16842	0	2396
5.157	10.133	16391	16811	0	2396
6.311	11.900	16391	16795	0	2396
7.212	11.612	16391	16763	0	2396
5.517	10.602	16391	16747	0	2396
0.974	5.734	16401	16747	0	2396
-1.803	5.229	16401	16747	0	2396
-3.642	5.662	16401	16716	0	2396
-4.652	6.131	16401	16637	0	2396
-5.301	4.977	16401	16573	0	2396
-4.544	2.669	16401	16542	0	2396
-2.236	2.416	16409	16510	0	2396
0.036	0.974	16409	16478	0	2396
1.515	1.262	16409	16447	0	2396
1.118	-0.577	16409	16399	0	2396
-1.839	-4.652	16409	16337	0	2396
-2.741	-7.321	16401	16258	0	2396
-1.803	-7.537	16401	16163	0	2396
-0.180	-5.842	16401	16100	0	2396
2.272	0.180	16401	16084	0	2396
2.128	4.940	16391	16116	0	2396
2.344	5.734	16401	16179	0	2396
1.442	6.491	16401	16210	0	2396
2.308	3.967	16401	16226	0	2396
2.885	1.334	16401	16242	0	2396
4.183	2.092	16401	16242	0	2396
5.770	2.921	16391	16226	0	2396
5.914	6.275	16391	16210	0	2396
4.868	6.708	16391	16210	0	2396
2.813	2.596	16391	16226	0	2396
0.577	0.541	16401	16258	0	2396
-2.921	-6.599	16401	16274	0	2396
-5.229	-8.294	16401	16337	0	2396
-4.796	-7.248	16401	16384	0	2396
-4.327	-3.173	16401	16415	0	2396
0.216	0.036	16409	16447	0	2396
2.957	4.075	16409	16463	0	2396
3.823	4.904	16409	16447	0	2396
2.957	4.111	16409	16431	0	2396
0.361	1.587	16409	16431	0	2396
-2.056	0.144	16409	16399	0	2396
-2.200	-0.180	16409	16369	0	2396
-1.551	1.767	16409	16321	0	2396
2.380	5.878	16409	16274	0	2396
5.806	6.527	16401	16226	0	2396
8.078	10.602	16401	16179	0	2396
6.852	9.196	16401	16147	0	2396
4.364	9.232	16401	16131	0	2396
2.128	9.304	16401	16131	0	2396
1.731	9.196	16401	16147	0	2396
2.344	8.186	16401	16163	0	2396
2.777	9.268	16391	16163	0	2396
0.433	7.032	16384	16195	0	2396
0.072	7.285	16391	16258	0	2396
-5.193	3.967	16391	16305	0	2396
-8.727	-1.010	16391	16337	0	2396
-12.802	-4.508	16391	16337	0	2396
-12.550	-8.042	16384	16305	0	2396
-11.937	-8.763	16384	16274	0	2396
-7.104	-9.160	16384	16258	0	2396
-5.301	-8.511	16384	16242	0	2396
-6.671	-9.196	16384	16242	0	2396
-11.828	-9.773	16384	16274	0	2396
-13.848	-10.314	16384	16337	0	2396
-13.307	-8.799	16384	16384	0	2396
-10.169	-7.501	16384	16384	0	2396
-4.652	-4.760	16384	16369	0	2396
-0.757	-2.741	16384	16305	0	2396
-1.515	-0.577	16377	16258	0	2396
-4.219	-0.938	16377	16226	0	2396
-4.760	0.397	16377	16258	0	2396
-2.128	3.426	16377	16321	0	2396
4.977	7.357	16377	16384	0	2396
10.061	8.366	16384	16399	0	2396
10.350	6.816	16384	16399	0	2396
7.068	1.262	16384	16384	0	2396
-2.019	-2.705	16384	16353	0	2396
-4.904	-4.868	16384	16337	0	2396
-4.652	-5.085	16384	16384	0	2396
-1.731	-5.409	16384	16447	0	2396
1.262	-3.246	16384	16558	0	2396
0.361	-4.111	16391	16637	0	2396
-0.757	-2.705	16384	16700	0	2396
-3.173	-2.019	16384	16747	0	2396
-4.400	-3.895	16391	16763	0	2396
-5.590	-6.347	16391	16795	0	2396
-7.609	-8.006	16391	16795	0	2396
-5.878	-8.366	16391	16779	0	2396
-2.705	-7.248	16401	16779	0	2396
1.875	-5.013	16401	16795	0	2396
4.796	-1.839	16401	16827	0	2396
4.760	-1.479	16409	16842	0	2396
1.731	-1.623	16409	16858	0	2396
0.577	-2.777	16419	16842	0	2396
2.524	-1.803	16419	16811	0	2396
6.311	0.757	16419	16763	0	2396
8.943	6.888	16419	16684	0	2396
9.376	11.107	16419	16605	0	2396
10.494	11.937	16419	16542	0	2396
10.061	12.946	16419	16463	0	2396
11.179	10.278	16419	16384	0	2396
12.586	10.494	16409	16353	0	2396
14.713	12.369	16419	16321	0	2396
12.766	12.225	16419	16258	0	2396
12.333	12.910	16409	16195	0	2396
12.730	15.002	16401	16100	0	2396
11.900	13.451	16401	16021	0	2396
12.550	12.081	16401	15973	0	2396
8.475	5.554	16401	15941	0	2396
1.370	-3.173	16391	15894	0	2396
-8.475	-11.468	16391	15831	0	2396
-13.595	-15.435	16391	15799	0	2396
-16.805	-15.723	16384	15799	0	2396
-12.261	-11.900	16384	15815	0	2396
-8.006	-12.550	16384	15862	0	2396
-6.203	-15.975	16384	15894	0	2396
-6.094	-17.454	16384	15941	0	2396
-8.258	-18.320	16384	16005	0	2396
-9.412	-14.569	16384	16052	0	2396
-6.131	-8.006	16377	16100	0	2396
-3.462	-2.596	16377	16131	0	2396
1.262	-0.252	16384	16210	0	2396
1.551	-1.118	16384	16337	0	2396
-0.757	-2.669	16384	16447	0	2396
-1.046	-4.039	16391	16558	0	2396
2.308	-3.101	16391	16605	0	2396
10.169	1.587	16391	16637	0	2396
17.670	7.753	16391	16637	0	2396
20.339	12.514	16391	16605	0	2396
17.418	9.448	16391	16542	0	2396
9.665	6.311	16384	16463	0	2396
2.669	1.406	16384	16384	0	2396
-0.938	-0.649	16384	16337	0	2396
-3.859	0.829	16384	16274	0	2396
-4.183	1.442	16377	16226	0	2396
-5.121	1.479	16377	16210	0	2396
-3.065	0.000	16377	16210	0	2396
0.469	-0.108	16377	16210	0	2396
3.029	0.902	16367	16195	0	2396
2.705	1.046	16367	16179	0	2396
1.046	0.397	16367	16179	0	2396
-0.829	-0.649	16367	16147	0	2396
0.108	-2.200	16359	16131	0	2396
1.370	-3.498	16359	16100	0	2396
2.849	-4.327	16359	16100	0	2396
0.216	-8.258	16349	16116	0	2396
-3.787	-10.530	16359	16147	0	2396
-7.934	-11.828	16367	16226	0	2396
-9.160	-10.458	16359	16290	0	2396
-5.373	-6.635	16359	16353	0	2396
-1.659	-2.596	16359	16384	0	2396
3.570	0.721	16359	16415	0	2396
6.094	0.829	16359	16510	0	2396
3.534	0.505	16367	16589	0	2396
-1.082	-1.442	16367	16652	0	2396
-5.265	-3.210	16367	16700	0	2396
-7.104	-4.868	16367	16732	0	2396
-6.275	-3.714	16367	16763	0	2396
-3.967	-1.587	16367	16763	0	2396
-2.488	1.515	16367	16700	0	2396
-3.065	3.029	16367	16637	0	2396
-5.049	2.921	16367	16573	0	2396
-8.547	-1.947	16367	16526	0	2396
-9.160	-5.734	16367	16494	0	2396
-8.799	-7.429	16367	16478	0	2396
-6.491	-6.960	16359	16447	0	2396
-2.777	-1.875	16359	16415	0	2396
-0.361	2.813	16359	16415	0	2396
2.885	4.255	16367	16415	0	2396
6.058	5.950	16367	16447	0	2396
6.708	3.931	16377	16478	0	2396
7.609	1.803	16377	16526	0	2396
4.327	0.288	16377	16558	0	2396
2.633	-0.252	16377	16589	0	2396
1.839	3.570	16377	16573	0	2396
6.816	8.763	16377	16573	0	2396
9.304	12.045	16384	16589	0	2396
9.989	14.569	16384	16637	0	2396
6.527	10.422	16384	16668	0	2396
-0.793	4.688	16384	16668	0	2396
-2.560	-0.288	16384	16652	0	2396
-1.659	-2.272	16391	16684	0	2396
2.488	-0.938	16391	16732	0	2396
6.996	2.380	16391	16732	0	2396
8.186	5.445	16401	16684	0	2396
8.871	7.212	16401	16652	0	2396
8.907	6.058	16401	16621	0	2396
8.475	1.911	16401	16558	0	2396
4.688	-2.128	16391	16494	0	2396
1.190	-4.147	16391	16415	0	2396
-0.288	-5.481	16391	16399	0	2396
-0.072	-2.200	16391	16399	0	2396
3.895	-0.216	16391	16415	0	2396
5.950	0.613	16391	16399	0	2396
6.203	-1.659	16391	16384	0	2396
3.787	-3.282	16391	16353	0	2396
3.498	-5.734	16391	16353	0	2396
2.200	-5.590	16401	16369	0	2396
0.541	-5.770	16401	16399	0	2396
-1.406	-3.967	16401	16415	0	2396
-1.298	-1.947	16401	16431	0	2396
-0.180	2.596	16401	16415	0	2396
4.580	6.131	16401	16369	0	2396
7.862	7.970	16401	16305	0	2396
8.655	8.547	16401	16242	0	2396
4.472	4.364	16401	16195	0	2396
0.036	1.046	16401	16147	0	2396
-6.924	-3.895	16401	16131	0	2396
-11.684	-7.501	16401	16163	0	2396
-11.792	-9.016	16401	16226	0	2396
-6.780	-4.688	16401	16290	0	2396
0.974	0.144	16401	16321	0	2396
8.402	5.986	16401	16305	0	2396
12.153	8.799	16401	16274	0	2396
10.999	6.816	16401	16226	0	2396
5.337	3.823	16401	16179	0	2396
4.147	1.118	16391	16116	0	2396
3.065	1.190	16391	16084	0	2396
5.770	3.065	16391	16068	0	2396
9.484	5.950	16391	16068	0	2396
14.497	10.458	16391	16068	0	2396
18.752	14.317	16384	16021	0	2396
18.247	16.156	16384	15957	0	2396
17.418	13.668	16377	15878	0	2396
13.956	12.441	16377	15847	0	2396
11.396	12.009	16377	15862	0	2396
10.710	11.648	16377	15926	0	2396
10.602	16.012	16367	15973	0	2396
11.215	15.471	16367	16005	0	2396
10.314	13.451	16367	16021	0	2396
9.737	11.828	16359	16036	0	2396
9.412	8.222	16359	16084	0	2396
11.828	5.517	16359	16147	0	2396
10.061	3.210	16359	16242	0	2396
8.439	1.118	16359	16337	0	2396
7.789	-0.361	16367	16415	0	2396
5.878	-0.829	16367	16510	0	2396
3.318	-1.623	16367	16605	0	2396
3.787	-0.361	16367	16684	0	2396
4.580	-1.911	16367	16747	0	2396
4.111	0.180	16377	16763	0	2396
3.642	1.370	16377	16747	0	2396
6.022	1.803	16377	16716	0	2396
8.186	4.868	16367	16668	0	2396
12.189	7.429	16367	16652	0	2396
15.687	8.330	16377	16652	0	2396
19.978	10.566	16377	16652	0	2396
21.421	13.776	16377	16668	0	2396
24.162	16.877	16377	16652	0	2396
27.984	19.618	16377	16621	0	2396
28.201	19.726	16377	16573	0	2396
26.722	18.860	16377	16542	0	2396
20.736	14.641	16377	16526	0	2396
14.785	13.235	16377	16558	0	2396
10.061	10.422	16377	16573	0	2396
6.347	4.688	16377	16589	0	2396
4.796	0.757	16384	16589	0	2396
5.337	-1.334	16384	16605	0	2396
8.258	0.252	16391	16621	0	2396
10.783	2.705	16384	16589	0	2396
9.953	3.823	16384	16526	0	2396
8.402	0.252	16377	16478	0	2396
3.029	-5.373	16384	16431	0	2396
-1.947	-10.819	16391	16431	0	2396
-5.013	-11.937	16384	16415	0	2396
-4.472	-12.189	16384	16431	0	2396
-2.488	-6.491	16384	16447	0	2396
2.849	-2.416	16384	16463	0	2396
6.491	2.452	16384	16447	0	2396
10.783	3.642	16384	16447	0	2396
10.278	4.255	16384	16447	0	2396
9.124	4.364	16384	16463	0	2396
9.484	4.760	16391	16494	0	2396
9.268	8.547	16391	16510	0	2396
9.052	11.287	16391	16542	0	2396
11.143	12.622	16391	16573	0	2396
16.120	12.766	16401	16589	0	2396
20.375	16.625	16401	16605	0	2396
25.820	17.346	16401	16589	0	2396
26.073	20.591	16401	16589	0	2396
21.421	19.401	16409	16589	0	2396
15.398	14.281	16409	16589	0	2396
7.717	8.222	16409	16573	0	2396
3.967	1.875	16409	16526	0	2396
2.452	-1.803	16409	16463	0	2396
0.144	-5.157	16409	16415	0	2396
-3.570	-9.412	16409	16384	0	2396
-8.655	-14.858	16409	16384	0	2396
-13.956	-16.805	16409	16337	0	2396
-12.622	-19.113	16409	16274	0	2396
-9.232	-14.894	16409	16210	0	2396
-2.236	-12.297	16409	16179	0	2396
1.551	-8.258	16401	16131	0	2396
2.705	-5.121	16409	16084	0	2396
0.938	-6.058	16401	16036	0	2396
1.947	-4.255	16401	15957	0	2396
3.137	-4.544	16391	15910	0	2396
5.445	-5.878	16391	15910	0	2396
6.635	-3.678	16391	15973	0	2396
6.996	-1.875	16391	16036	0	2396
6.167	2.416	16391	16084	0	2396
6.888	7.032	16391	16116	0	2396
8.366	10.025	16391	16147	0	2396
11.720	9.845	16391	16179	0	2396
12.658	6.888	16391	16195	0	2396
9.592	1.154	16384	16226	0	2396
4.219	-3.678	16384	16242	0	2396
-3.534	-5.698	16384	16226	0	2396
-5.914	-5.409	16384	16179	0	2396
-4.616	-3.029	16384	16131	0	2396
-1.947	-2.128	16377	16100	0	2396
0.325	-2.669	16377	16100	0	2396
-0.433	-4.291	16377	16084	0	2396
-1.154	-5.986	16367	16100	0	2396
-2.705	-5.878	16367	16116	0	2396
-2.164	-6.599	16367	16131	0	2396
-1.010	-7.573	16367	16116	0	2396
0.505	-9.016	16367	16100	0	2396
3.534	-8.439	16367	16084	0	2396
5.409	-4.652	16367	16084	0	2396
6.419	-1.154	16367	16100	0	2396
4.219	3.173	16359	16147	0	2396
5.373	5.770	16359	16210	0	2396
7.645	5.626	16359	16290	0	2396
10.674	4.796	16359	16337	0	2396
12.333	4.940	16359	16384	0	2396
12.369	6.419	16359	16431	0	2396
11.071	10.097	16359	16478	0	2396
13.704	15.867	16359	16494	0	2396
21.385	19.293	16359	16494	0	2396
25.496	20.375	16359	16510	0	2396
26.325	17.129	16359	16542	0	2396
20.808	9.484	16359	16558	0	2396
9.412	3.931	16359	16558	0	2396
3.318	-0.649	16359	16573	0	2396
1.154	-2.813	16359	16589	0	2396
3.246	-1.623	16359	16605	0	2396
6.924	-1.010	16367	16605	0	2396
5.734	-0.793	16367	16605	0	2396
2.308	-1.190	16367	16652	0	2396
-1.911	-2.380	16367	16732	0	2396
-1.695	-3.101	16377	16827	0	2396
2.056	-2.236	16377	16874	0	2396
8.799	-1.803	16377	16906	0	2396
13.163	3.390	16384	16906	0	2396
19.329	11.792	16384	16921	0	2396
22.106	18.860	16391	16937	0	2396
25.568	24.991	16391	16953	0	2396
28.597	27.155	16391	16937	0	2396
29.246	25.820	16391	16874	0	2396
26.181	25.135	16391	16811	0	2396
25.784	25.965	16391	16732	0	2396
23.837	25.532	16391	16668	0	2396
23.080	21.241	16401	16621	0	2396
21.637	17.743	16401	16573	0	2396
18.356	11.756	16401	16526	0	2396
10.566	7.140	16391	16478	0	2396
2.092	2.669	16391	16431	0	2396
-5.193	-3.750	16391	16384	0	2396
-11.179	-8.511	16391	16369	0	2396
-10.206	-10.206	16391	16369	0	2396
-4.219	-6.131	16391	16399	0	2396
2.885	0.000	16401	16463	0	2396
7.753	4.219	16401	16510	0	2396
7.970	7.934	16401	16542	0	2396
5.626	5.914	16409	16573	0	2396
2.308	4.327	16409	16589	0	2396
-1.046	-0.072	16409	16573	0	2396
-2.524	-2.885	16419	16542	0	2396
-2.092	-2.921	16419	16478	0	2396
-1.298	-1.154	16419	16415	0	2396
2.200	1.875	16419	16369	0	2396
5.698	5.734	16419	16321	0	2396
9.268	7.537	16419	16290	0	2396
12.658	11.540	16409	16258	0	2396
14.894	15.110	16419	16242	0	2396
18.500	18.320	16419	16242	0	2396
16.156	14.100	16409	16226	0	2396
13.776	11.071	16409	16210	0	2396
10.386	8.871	16409	16226	0	2396
9.845	9.592	16409	16274	0	2396
11.215	11.215	16419	16321	0	2396
10.783	13.054	16419	16337	0	2396
9.016	7.176	16419	16353	0	2396
5.373	0.865	16419	16369	0	2396
2.524	-2.993	16419	16384	0	2396
0.108	-4.616	16419	16384	0	2396
-3.642	-4.832	16419	16321	0	2396
-6.744	-4.616	16419	16226	0	2396
-12.045	-8.258	16419	16147	0	2396
-13.956	-13.235	16409	16052	0	2396
-13.235	-18.536	16409	16005	0	2396
-10.963	-17.238	16409	15989	0	2396
-4.616	-11.937	16401	15989	0	2396
0.577	-3.101	16401	15989	0	2396
3.065	1.406	16401	15973	0	2396
2.705	-1.406	16391	15973	0	2396
-2.813	-8.366	16391	15989	0	2396
-7.573	-13.595	16391	16005	0	2396
-8.907	-13.018	16391	16005	0	2396
-7.681	-7.537	16391	16021	0	2396
-7.537	-2.777	16391	16100	0	2396
-9.124	-5.337	16391	16195	0	2396
-8.294	-7.501	16391	16274	0	2396
-6.599	-10.891	16391	16337	0	2396
-1.442	-7.789	16391	16353	0	2396
0.649	-4.436	16391	16369	0	2396
-0.649	-4.291	16391	16384	0	2396
-4.111	-4.400	16391	16384	0	2396
-2.633	-6.744	16391	16384	0	2396
1.515	-6.022	16391	16384	0	2396
5.590	-2.344	16391	16399	0	2396
6.022	-0.649	16391	16415	0	2396
3.282	-3.065	16391	16384	0	2396
-1.226	-7.248	16391	16384	0	2396
-1.442	-13.415	16391	16415	0	2396
-0.180	-17.346	16391	16447	0	2396
2.921	-14.208	16391	16478	0	2396
6.888	-7.898	16391	16510	0	2396
8.583	-1.262	16401	16573	0	2396
4.111	-2.200	16401	16621	0	2396
-8.402	-10.206	16401	16652	0	2396
-18.897	-24.378	16401	16668	0	2396
-23.549	-25.243	16401	16684	0	2396
-11.143	-19.906	16401	16652	0	2396
6.671	-4.616	16401	16589	0	2396
20.195	4.904	16401	16526	0	2396
18.428	5.517	16401	16478	0	2396
8.258	-0.036	16391	16415	0	2396
-2.813	-5.698	16401	16353	0	2396
-6.058	-6.058	16401	16290	0	2396
-3.318	-4.111	16391	16242	0	2396
-0.649	-3.570	16391	16258	0	2396
-3.318	-5.698	16391	16274	0	2396
-5.229	-8.114	16391	16258	0	2396
-4.688	-7.898	16384	16226	0	2396
0.361	-5.337	16384	16179	0	2396
8.871	-0.469	16377	16131	0	2396
12.441	-2.092	16384	16084	0	2396
10.638	-5.337	16384	16052	0	2396
2.452	-13.920	16384	16052	0	2396
-3.210	-17.670	16377	16084	0	2396
-1.839	-16.877	16377	16100	0	2396
3.678	-9.629	16377	16084	0	2396
9.773	-1.298	16377	16068	0	2396
9.484	0.902	16367	16068	0	2396
4.472	-2.633	16377	16100	0	2396
-2.524	-10.999	16367	16116	0	2396
-3.390	-15.723	16367	16131	0	2396
-0.433	-13.127	16359	16131	0	2396
3.282	-6.094	16359	16116	0	2396
5.265	1.082	16359	16131	0	2396
7.465	5.301	16359	16147	0	2396
8.907	3.354	16349	16179	0	2396
11.360	2.272	16349	16242	0	2396
12.405	3.426	16349	16321	0	2396
11.720	4.075	16359	16415	0	2396
8.078	3.534	16359	16542	0	2396
5.662	-0.577	16359	16637	0	2396
5.193	-4.219	16359	16716	0	2396
7.609	-4.616	16367	16747	0	2396
10.855	-1.298	16367	16795	0	2396
14.245	5.013	16367	16858	0	2396
18.933	10.710	16377	16921	0	2396
20.303	12.153	16377	16937	0	2396
20.952	7.321	16377	16921	0	2396
15.435	-1.226	16377	16937	0	2396
2.596	-12.477	16391	16953	0	2396
-10.242	-18.608	16384	16953	0	2396
-10.638	-10.350	16384	16890	0	2396
0.469	2.380	16384	16858	0	2396
17.274	18.464	16384	16827	0	2396
27.948	22.034	16391	16811	0	2396
23.909	15.146	16391	16779	0	2396
7.753	-1.046	16391	16763	0	2396
-7.501	-11.287	16391	16732	0	2396
-9.556	-14.172	16391	16700	0	2396
-3.173	-9.196	16401	16637	0	2396
8.150	-0.216	16391	16558	0	2396
13.956	5.409	16391	16463	0	2396
12.297	4.219	16391	16384	0	2396
3.390	-1.515	16391	16321	0	2396
-5.409	-7.573	16391	16210	0	2396
-8.258	-10.674	16384	16116	0	2396
-5.301	-8.691	16384	16021	0	2396
0.505	-4.580	16384	15973	0	2396
6.527	-2.741	16384	15973	0	2396
7.609	-3.462	16384	16005	0	2396
5.445	-4.796	16384	16021	0	2396
2.633	-5.554	16377	16021	0	2396
1.046	-2.705	16377	16021	0	2396
1.010	-2.993	16377	16005	0	2396
3.137	-3.823	16377	15957	0	2396
6.094	-2.705	16367	15910	0	2396
10.386	-1.479	16367	15878	0	2396
10.350	4.544	16359	15862	0	2396
5.698	3.931	16359	15878	0	2396
-2.813	-0.829	16367	15926	0	2396
-10.530	-6.239	16367	15941	0	2396
-8.078	-8.294	16359	15941	0	2396
0.829	-1.082	16359	15941	0	2396
14.930	9.232	16359	15973	0	2396
19.978	18.283	16349	15989	0	2396
20.339	15.398	16349	16005	0	2396
11.864	10.169	16349	16021	0	2396
6.455	2.236	16342	16036	0	2396
1.479	-4.183	16342	16116	0	2396
-0.577	-5.517	16342	16226	0	2396
-1.911	-7.825	16342	16337	0	2396
-2.524	-6.888	16342	16399	0	2396
-3.642	-6.347	16349	16478	0	2396
-0.252	-5.085	16349	16558	0	2396
-0.433	-2.452	16359	16637	0	2396
4.039	-1.334	16367	16732	0	2396
5.121	-0.252	16367	16811	0	2396
4.039	1.839	16367	16890	0	2396
2.488	3.065	16367	16969	0	2396
-0.685	3.606	16367	16985	0	2396
-2.741	0.938	16377	16969	0	2396
-2.596	-1.370	16377	16906	0	2396
0.865	-0.649	16367	16827	0	2396
5.626	4.580	16367	16747	0	2396
10.927	12.802	16367	16668	0	2396
15.507	17.238	16367	16589	0	2396
17.887	18.752	16367	16558	0	2396
12.874	13.740	16367	16542	0	2396
9.340	11.468	16367	16526	0	2396
6.744	9.881	16367	16510	0	2396
7.934	10.494	16367	16478	0	2396
12.694	14.677	16367	16447	0	2396
17.923	15.146	16367	16447	0	2396
16.697	17.093	16367	16494	0	2396
12.225	14.966	16367	16542	0	2396
4.327	11.792	16377	16558	0	2396
-3.426	7.357	16377	16526	0	2396
-5.950	3.498	16367	16463	0	2396
-4.652	2.633	16367	16399	0	2396
0.974	2.416	16367	16353	0	2396
4.111	2.092	16367	16305	0	2396
3.390	2.236	16367	16290	0	2396
0.325	1.479	16367	16290	0	2396
-2.272	3.318	16377	16258	0	2396
-0.433	4.760	16367	16242	0	2396
5.193	10.278	16367	16210	0	2396
8.979	12.189	16367	16179	0	2396
8.330	12.477	16367	16147	0	2396
5.806	12.261	16367	16147	0	2396
2.092	9.016	16359	16147	0	2396
2.633	8.979	16359	16147	0	2396
7.140	12.189	16359	16163	0	2396
11.756	17.093	16359	16210	0	2396
13.595	17.815	16359	16258	0	2396
11.540	17.598	16359	16290	0	2396
4.508	9.448	16359	16321	0	2396
-2.849	2.705	16359	16384	0	2396
-6.960	-2.596	16367	16447	0	2396
-8.006	-3.065	16367	16478	0	2396
-7.068	-4.183	16367	16447	0	2396
-7.068	-4.580	16359	16415	0	2396
-10.494	-8.619	16359	16384	0	2396
-12.586	-10.494	16359	16384	0	2396
-14.353	-11.756	16359	16384	0	2396
-14.858	-12.333	16359	16399	0	2396
-13.451	-12.261	16359	16447	0	2396
-15.002	-10.927	16367	16463	0	2396
-14.136	-11.179	16367	16494	0	2396
-16.048	-11.071	16377	16526	0	2396
-14.569	-10.638	16384	16526	0	2396
-14.245	-13.668	16377	16510	0	2396
-16.300	-15.110	16377	16478	0	2396
-15.507	-13.091	16377	16478	0	2396
-16.012	-12.117	16377	16494	0	2396
-13.740	-9.484	16377	16510	0	2396
-12.477	-7.176	16377	16494	0	2396
-9.088	-6.167	16377	16494	0	2396
-7.898	-3.895	16377	16526	0	2396
-7.357	-1.623	16377	16589	0	2396
-7.248	-2.164	16384	16668	0	2396
-6.635	-2.705	16384	16700	0	2396
-5.734	-1.370	16384	16732	0	2396
-4.219	0.721	16391	16763	0	2396
-2.921	5.626	16391	16763	0	2396
-1.947	9.196	16391	16763	0	2396
-2.777	6.996	16401	16747	0	2396
-6.347	-0.216	16401	16732	0	2396
-11.612	-7.501	16401	16716	0	2396
-16.949	-12.514	16401	16716	0	2396
-18.320	-11.648	16409	16716	0	2396
-21.601	-10.097	16409	16716	0	2396
-20.591	-10.386	16409	16747	0	2396
-19.113	-13.199	16409	16779	0	2396
-18.031	-15.146	16419	16795	0	2396
-13.307	-14.533	16419	16779	0	2396
-10.133	-10.314	16419	16716	0	2396
-10.242	-8.475	16419	16652	0	2396
-11.287	-11.143	16426	16589	0	2396
-17.166	-14.389	16426	16558	0	2396
-17.634	-16.733	16426	16558	0	2396
-13.668	-14.677	16437	16542	0	2396
-10.458	-8.114	16437	16542	0	2396
-5.229	-2.633	16437	16526	0	2396
-1.442	0.685	16444	16494	0	2396
-0.288	1.911	16437	16463	0	2396
-0.036	-1.298	16437	16415	0	2396
-0.721	-1.226	16437	16369	0	2396
-1.803	-0.180	16437	16290	0	2396
-3.390	1.623	16437	16210	0	2396
-5.626	4.039	16437	16131	0	2396
-5.445	2.957	16426	16036	0	2396
-8.727	-0.685	16419	15941	0	2396
-14.677	-6.852	16426	15878	0	2396
-25.893	-14.028	16426	15847	0	2396
-33.466	-19.473	16419	15831	0	2396
-37.721	-24.450	16409	15767	0	2396
-32.925	-22.791	16409	15672	0	2396
-21.204	-20.411	16401	15593	0	2396
-11.576	-14.605	16391	15514	0	2396
-5.662	-12.225	16391	15467	0	2396
-5.445	-8.439	16384	15435	0	2396
-6.744	-5.265	16384	15435	0	2396
-8.006	-4.039	16377	15467	0	2396
-9.016	-3.137	16377	15530	0	2396
-8.078	-4.832	16377	15593	0	2396
-8.402	-6.527	16367	15657	0	2396
-6.239	-5.554	16367	15752	0	2396
-3.065	-1.551	16367	15878	0	2396
1.298	4.652	16367	15989	0	2396
4.977	7.898	16367	16052	0	2396
3.029	5.698	16367	16147	0	2396
0.685	3.570	16367	16226	0	2396
-6.744	0.036	16367	16305	0	2396
-12.117	-1.659	16377	16369	0	2396
-13.956	-0.144	16377	16384	0	2396
-11.323	0.180	16367	16384	0	2396
-6.167	0.144	16367	16369	0	2396
-2.993	-1.082	16367	16337	0	2396
-3.426	-3.029	16359	16290	0	2396
-8.402	-6.022	16359	16258	0	2396
-16.913	-11.432	16349	16242	0	2396
-21.457	-14.245	16349	16274	0	2396
-17.779	-17.526	16349	16321	0	2396
-9.989	-13.740	16349	16384	0	2396
0.216	-9.556	16349	16478	0	2396
4.075	-4.291	16349	16573	0	2396
-0.721	-3.101	16349	16684	0	2396
-7.321	-4.688	16359	16779	0	2396
-13.199	-7.501	16359	16874	0	2396
-12.802	-11.396	16367	16969	0	2396
-7.681	-9.520	16367	17096	0	2396
-2.885	-6.888	16377	17238	0	2396
-2.452	-4.291	16384	17349	0	2396
-1.803	-2.056	16384	17428	0	2396
-4.111	-1.767	16391	17459	0	2396
-1.731	-1.515	16401	17475	0	2396
0.721	0.144	16401	17459	0	2396
3.029	1.911	16409	17412	0	2396
2.560	3.823	16409	17301	0	2396
-0.865	4.616	16409	17190	0	2396
-5.554	5.121	16409	17064	1	3516
-5.337	4.544	16409	16937	0	3516
-5.121	3.354	16409	16795	0	3516
-3.173	0.902	16409	16668	0	3516
-4.111	-0.325	16409	16589	0	3516
-2.596	0.216	16409	16510	0	3516
-2.164	0.072	16409	16431	0	3516
0.613	-1.010	16409	16353	0	3516
2.488	-4.688	16409	16258	0	3516
1.659	-8.006	16409	16179	0	3516
-0.649	-9.556	16409	16131	0	3516
-4.075	-7.285	16401	16084	0	3516
-5.409	-6.131	16409	16052	0	3516
-5.013	-4.652	16409	16021	0	3516
-4.183	-3.534	16401	16005	0	3516
-0.541	-1.731	16391	15973	0	3516
1.839	-0.577	16401	16005	0	3516
3.318	1.226	16401	16068	0	3516
2.705	2.416	16401	16131	0	3516
4.580	2.056	16401	16179	0	3516
7.753	5.085	16401	16226	0	3516
12.189	8.222	16401	16242	0	3516
15.074	12.009	16401	16258	0	3516
15.182	13.812	16401	16226	0	3516
10.278	12.297	16401	16195	0	3516
4.219	10.133	16401	16147	0	3516
1.695	6.203	16401	16116	0	3516
-0.072	1.767	16401	16084	0	3516
-1.262	-0.325	16391	16052	0	3516
-0.902	-1.190	16391	16021	0	3516
-3.931	-0.829	16391	15989	0	3516
-7.104	-2.200	16391	15989	0	3516
-10.855	-5.121	16384	16005	0	3516
-9.737	-9.917	16384	16005	0	3516
-9.268	-14.930	16384	16036	0	3516
-4.147	-13.812	16384	16084	0	3516
-2.380	-7.537	16384	16147	0	3516
-0.938	-1.442	16384	16242	0	3516
-1.190	2.308	16391	16337	0	3516
0.577	2.200	16391	16384	0	3516
3.606	0.505	16391	16415	0	3516
6.311	0.361	16391	16447	0	3516
5.373	0.469	16391	16494	0	3516
1.731	1.731	16391	16526	0	3516
-2.560	1.767	16391	16510	0	3516
-2.236	3.678	16391	16494	0	3516
1.479	8.294	16391	16478	0	3516
7.212	12.838	16391	16463	0	3516
9.773	14.821	16391	16415	0	3516
7.934	13.848	16384	16384	0	3516
8.006	10.386	16384	16321	0	3516
8.979	7.934	16384	16305	0	3516
10.819	9.304	16384	16321	0	3516
10.458	8.186	16384	16321	0	3516
6.527	6.347	16384	16321	0	3516
0.793	4.255	16384	16321	0	3516
-1.695	2.452	16384	16321	0	3516
-1.731	0.865	16384	16337	0	3516
-2.741	0.252	16384	16353	0	3516
-5.409	-1.442	16377	16353	0	3516
-9.629	-4.003	16377	16353	0	3516
-9.989	-5.842	16377	16384	0	3516
-6.311	-4.147	16384	16431	0	3516
-1.118	0.974	16384	16510	0	3516
1.479	3.678	16384	16542	0	3516
0.974	3.282	16384	16542	0	3516
-1.875	0.685	16384	16526	0	3516
-3.642	-4.039	16384	16542	0	3516
-3.678	-5.481	16384	16573	0	3516
-1.442	-2.344	16384	16589	0	3516
0.541	2.669	16391	16621	0	3516
2.885	7.465	16391	16668	0	3516
3.498	7.970	16391	16716	0	3516
2.957	8.583	16401	16732	0	3516
1.587	8.222	16401	16763	0	3516
-1.046	6.708	16401	16763	0	3516
-0.144	5.085	16401	16732	0	3516
-0.325	4.255	16401	16668	0	3516
1.046	1.406	16401	16589	0	3516
0.288	0.938	16401	16494	0	3516
0.325	2.885	16401	16431	0	3516
-0.216	3.173	16391	16369	0	3516
-0.288	2.921	16391	16305	0	3516
1.118	2.813	16384	16242	0	3516
1.190	1.911	16384	16210	0	3516
3.137	1.839	16384	16210	0	3516
2.056	2.560	16384	16242	0	3516
0.793	2.705	16391	16290	0	3516
-2.236	2.200	16391	16290	0	3516
-5.337	2.019	16384	16258	0	3516
-8.258	2.344	16384	16163	0	3516
-7.140	3.498	16384	16068	0	3516
-5.085	3.282	16377	16021	0	3516
-1.010	3.462	16377	16005	0	3516
0.505	4.544	16377	15989	0	3516
1.731	5.337	16367	15973	0	3516
1.695	6.563	16367	15957	0	3516
-1.154	6.094	16367	15910	0	3516
-0.216	4.364	16367	15862	0	3516
-0.216	1.731	16367	15878	0	3516
0.108	-0.072	16367	15941	0	3516
-0.757	-0.252	16367	16021	0	3516
-1.947	0.974	16367	16116	0	3516
-2.380	2.092	16367	16195	0	3516
-1.695	4.183	16367	16290	0	3516
0.577	4.400	16367	16384	0	3516
0.216	2.993	16367	16431	0	3516
-2.200	0.036	16367	16447	0	3516
-4.868	-2.921	16367	16447	0	3516
-8.222	-3.967	16367	16463	0	3516
-4.580	-1.082	16367	16494	0	3516
0.577	4.472	16367	16526	0	3516
5.914	8.439	16367	16558	0	3516
5.554	9.665	16367	16605	0	3516
1.118	8.006	16367	16684	0	3516
-2.596	2.236	16377	16779	0	3516
-2.921	0.361	16377	16858	0	3516
2.380	0.325	16377	16890	0	3516
12.514	4.436	16384	16858	0	3516
18.860	11.287	16384	16795	0	3516
17.815	15.398	16384	16732	0	3516
15.507	18.608	16377	16652	0	3516
9.340	16.805	16377	16558	0	3516
4.868	10.710	16377	16447	0	3516
3.210	9.016	16367	16369	0	3516
3.390	5.229	16367	16274	0	3516
1.695	4.364	16367	16195	0	3516
-3.210	3.246	16359	16131	0	3516
-6.816	1.046	16359	16084	0	3516
-8.511	-2.164	16359	16084	0	3516
-8.222	-1.767	16367	16100	0	3516
-3.101	-0.613	16367	16163	0	3516
1.767	2.128	16367	16226	0	3516
4.111	4.364	16377	16321	0	3516
2.705	3.462	16367	16384	0	3516
0.252	2.885	16367	16431	0	3516
-2.705	1.551	16367	16447	0	3516
-4.111	0.902	16367	16447	0	3516
-2.200	1.803	16367	16447	0	3516
1.731	4.183	16367	16463	0	3516
4.436	5.517	16377	16510	0	3516
4.724	5.914	16377	16589	0	3516
3.895	6.996	16377	16668	0	3516
3.570	6.635	16384	16716	0	3516
4.075	9.701	16384	16732	0	3516
7.176	14.785	16384	16700	0	3516
7.898	16.625	16384	16668	0	3516
8.799	17.202	16384	16621	0	3516
3.462	13.163	16384	16573	0	3516
-0.072	9.701	16384	16526	0	3516
-0.397	9.340	16384	16510	0	3516
-0.180	10.638	16384	16478	0	3516
4.977	11.071	16384	16431	0	3516
6.960	12.369	16384	16384	0	3516
6.455	8.042	16384	16384	0	3516
3.137	6.058	16384	16399	0	3516
0.469	5.157	16384	16463	0	3516
-1.226	5.517	16391	16542	0	3516
1.551	6.131	16391	16621	0	3516
5.590	8.799	16401	16652	0	3516
8.583	10.350	16401	16652	0	3516
10.819	11.468	16401	16652	0	3516
7.898	11.396	16401	16652	0	3516
3.426	8.727	16409	16652	0	3516
1.442	5.878	16409	16652	0	3516
3.318	5.698	16401	16684	0	3516
8.475	8.439	16419	16684	0	3516
16.084	14.317	16419	16668	0	3516
18.572	20.375	16409	16621	0	3516
17.382	23.368	16409	16558	0	3516
12.766	23.116	16409	16478	0	3516
6.599	20.050	16409	16384	0	3516
3.859	17.238	16409	16242	0	3516
3.173	13.523	16401	16131	0	3516
3.101	13.451	16401	16068	0	3516
4.652	12.982	16401	16052	0	3516
4.724	14.028	16401	16052	0	3516
4.616	12.550	16401	16068	0	3516
3.570	9.016	16401	16084	0	3516
2.705	5.121	16401	16068	0	3516
2.452	6.383	16401	16052	0	3516
3.931	8.871	16401	16052	0	3516
7.898	11.035	16391	16036	0	3516
11.792	12.586	16391	16036	0	3516
10.169	10.169	16391	16052	0	3516
7.753	4.977	16391	16100	0	3516
1.947	2.705	16391	16147	0	3516
-2.488	2.416	16391	16210	0	3516
-2.452	4.868	16401	16274	0	3516
1.623	8.871	16401	16337	0	3516
5.481	14.028	16401	16399	0	3516
10.458	15.362	16409	16478	0	3516
12.802	15.831	16409	16558	0	3516
11.432	12.910	16409	16621	0	3516
11.792	11.468	16419	16684	0	3516
11.576	14.425	16409	16700	0	3516
12.153	16.336	16409	16684	0	3516
15.398	19.257	16409	16637	0	3516
13.163	19.077	16409	16589	0	3516
11.900	19.005	16409	16510	0	3516
10.458	16.120	16409	16447	0	3516
9.232	15.110	16409	16384	0	3516
9.340	13.307	16409	16321	0	3516
8.330	10.133	16401	16242	0	3516
5.337	8.439	16401	16147	0	3516
4.075	4.724	16391	16052	0	3516
1.154	3.931	16391	15973	0	3516
0.108	4.544	16391	15941	0	3516
0.216	5.013	16384	15910	0	3516
1.839	3.642	16384	15878	0	3516
3.606	4.472	16384	15878	0	3516
4.508	3.390	16377	15894	0	3516
7.357	3.642	16377	15910	0	3516
5.698	4.400	16377	15910	0	3516
1.731	3.426	16367	15926	0	3516
0.108	2.019	16367	15941	0	3516
-1.118	1.551	16367	15973	0	3516
1.695	5.229	16367	16036	0	3516
3.462	10.386	16367	16116	0	3516
5.734	15.831	16367	16163	0	3516
3.750	16.336	16359	16195	0	3516
1.046	16.516	16359	16195	0	3516
-0.757	13.127	16359	16210	0	3516
0.144	10.025	16359	16210	0	3516
1.515	10.494	16359	16242	0	3516
1.911	9.592	16349	16290	0	3516
0.902	11.179	16349	16337	0	3516
2.596	12.838	16359	16384	0	3516
1.298	10.891	16359	16447	0	3516
-0.757	8.835	16359	16510	0	3516
-1.731	5.265	16367	16558	0	3516
-4.327	2.669	16367	16621	0	3516
-4.724	2.164	16367	16652	0	3516
-2.957	3.967	16367	16652	0	3516
-0.685	6.239	16367	16668	0	3516
1.046	6.960	16367	16700	0	3516
1.479	6.491	16367	16716	0	3516
0.325	3.137	16367	16716	0	3516
-1.911	1.442	16367	16716	0	3516
-3.101	-0.288	16367	16716	0	3516
-1.659	-0.108	16367	16700	0	3516
1.983	2.164	16367	16668	0	3516
6.852	4.940	16367	16652	0	3516
10.314	8.150	16367	16652	0	3516
10.999	10.169	16367	16637	0	3516
7.645	11.035	16367	16637	0	3516
6.167	12.622	16377	16621	0	3516
4.472	11.828	16377	16605	0	3516
3.462	11.684	16367	16573	0	3516
5.698	13.379	16367	16526	0	3516
8.330	11.504	16367	16494	0	3516
9.592	11.251	16367	16463	0	3516
10.819	11.540	16367	16431	0	3516
10.097	9.773	16367	16399	0	3516
7.285	5.806	16377	16399	0	3516
1.839	2.200	16377	16399	0	3516
-2.957	-2.019	16377	16384	0	3516
-6.996	-3.606	16377	16337	0	3516
-8.727	-3.570	16377	16305	0	3516
-8.979	-3.354	16377	16274	0	3516
-4.796	-5.265	16384	16274	0	3516
-2.596	-5.445	16377	16274	0	3516
-2.524	-6.167	16377	16305	0	3516
-3.967	-5.121	16367	16305	0	3516
-6.924	-6.455	16367	16290	0	3516
-10.891	-6.094	16367	16290	0	3516
-13.776	-8.186	16367	16290	0	3516
-12.045	-6.599	16367	16274	0	3516
-8.222	-5.193	16367	16242	0	3516
-3.606	-2.308	16367	16226	0	3516
1.731	-2.200	16359	16210	0	3516
3.570	0.649	16359	16195	0	3516
1.839	0.469	16359	16195	0	3516
0.541	3.390	16359	16226	0	3516
-1.262	2.633	16359	16258	0	3516
-2.380	0.685	16359	16305	0	3516
-2.056	-3.642	16359	16337	0	3516
-3.210	-4.327	16359	16369	0	3516
-2.488	-3.498	16359	16369	0	3516
-0.757	-0.144	16359	16384	0	3516
-0.325	4.327	16359	16431	0	3516
-0.397	1.190	16377	16542	0	3516
-3.498	0.180	16377	16668	0	3516
-6.419	-4.652	16384	16779	0	3516
-7.393	-6.094	16384	16874	0	3516
-5.481	-5.662	16391	16969	0	3516
-1.875	-3.606	16391	17016	0	3516
-2.019	-1.983	16401	17016	0	3516
-1.479	-2.416	16391	17001	0	3516
-6.311	-5.373	16391	16969	0	3516
-11.612	-9.809	16401	16953	0	3516
-13.127	-17.598	16401	16906	0	3516
-16.372	-20.519	16401	16874	0	3516
-15.435	-21.132	16409	16827	0	3516
-13.127	-18.175	16409	16811	0	3516
-10.855	-14.785	16409	16779	0	3516
-7.537	-8.907	16409	16700	0	3516
-6.203	-7.393	16409	16605	0	3516
-4.544	-4.580	16409	16510	0	3516
-5.445	-6.527	16409	16399	0	3516
-6.563	-7.429	16409	16321	0	3516
-9.845	-9.124	16409	16242	0	3516
-10.061	-10.566	16409	16179	0	3516
-12.730	-8.402	16409	16147	0	3516
-11.612	-5.445	16409	16116	0	3516
-8.799	-4.039	16409	16116	0	3516
-8.655	-5.013	16401	16116	0	3516
-6.599	-4.832	16409	16068	0	3516
-6.599	-7.248	16409	16052	0	3516
-7.104	-8.475	16401	16068	0	3516
-9.124	-9.665	16401	16084	0	3516
-10.638	-10.638	16401	16084	0	3516
-9.232	-11.828	16391	16068	0	3516
-4.508	-11.287	16391	16068	0	3516
1.154	-6.635	16391	16068	0	3516
5.950	-3.065	16391	16052	0	3516
4.364	-2.236	16391	16036	0	3516
-0.829	-1.623	16391	16005	0	3516
-5.878	-4.219	16384	15957	0	3516
-5.481	-5.770	16384	15894	0	3516
-2.056	-4.003	16377	15831	0	3516
2.741	-0.974	16377	15783	0	3516
7.321	1.695	16367	15783	0	3516
8.835	4.580	16367	15799	0	3516
10.530	6.671	16367	15831	0	3516
12.441	7.573	16359	15862	0	3516
12.225	9.016	16359	15910	0	3516
11.900	9.412	16367	15973	0	3516
12.081	8.439	16367	16052	0	3516
9.340	7.248	16367	16116	0	3516
9.232	4.940	16377	16163	0	3516
9.160	4.760	16359	16210	0	3516
11.107	3.390	16359	16242	0	3516
11.143	5.481	16359	16274	0	3516
9.953	5.445	16359	16290	0	3516
6.167	5.950	16359	16321	0	3516
2.056	5.085	16359	16353	0	3516
-0.433	3.750	16359	16384	0	3516
1.334	3.318	16359	16431	0	3516
5.049	5.121	16359	16510	0	3516
8.763	7.321	16359	16589	0	3516
10.169	9.088	16359	16652	0	3516
11.540	10.638	16359	16700	0	3516
13.451	11.323	16359	16716	0	3516
14.353	12.081	16359	16747	0	3516
18.933	14.533	16359	16779	0	3516
19.329	16.985	16367	16811	0	3516
20.159	16.300	16367	16827	0	3516
17.021	15.687	16377	16827	0	3516
16.372	14.172	16377	16827	0	3516
16.480	15.471	16377	16811	0	3516
21.673	18.320	16377	16795	0	3516
23.585	23.332	16384	16795	0	3516
24.162	22.503	16384	16827	0	3516
20.087	20.231	16384	16827	0	3516
12.766	13.018	16384	16827	0	3516
9.556	9.484	16391	16811	0	3516
8.619	8.402	16391	16763	0	3516
9.845	9.845	16391	16716	0	3516
8.727	11.756	16391	16652	0	3516
8.006	10.891	16391	16589	0	3516
5.734	8.547	16391	16510	0	3516
5.049	5.193	16377	16415	0	3516
8.583	4.832	16384	16369	0	3516
9.124	4.147	16384	16321	0	3516
11.684	6.311	16384	16290	0	3516
10.314	8.763	16384	16258	0	3516
10.458	11.215	16384	16242	0	3516
13.307	14.425	16384	16290	0	3516
17.959	17.562	16384	16353	0	3516
26.686	19.257	16391	16431	0	3516
32.312	22.034	16384	16494	0	3516
32.420	23.801	16384	16526	0	3516
27.804	23.765	16391	16526	0	3516
20.808	23.585	16391	16510	0	3516
18.752	24.630	16391	16447	0	3516
19.437	22.719	16384	16369	0	3516
23.945	22.935	16384	16258	0	3516
24.739	25.279	16384	16179	0	3516
21.709	24.125	16377	16116	0	3516
18.175	23.549	16377	16068	0	3516
13.307	22.503	16377	16005	0	3516
9.881	19.870	16367	15973	0	3516
8.439	18.572	16377	15973	0	3516
5.842	16.516	16377	16005	0	3516
4.868	15.543	16377	16036	0	3516
4.724	13.054	16377	16068	0	3516
6.383	13.631	16377	16100	0	3516
9.304	12.369	16377	16131	0	3516
11.107	10.097	16377	16147	0	3516
10.206	9.196	16377	16147	0	3516
10.097	8.655	16367	16179	0	3516
14.389	10.025	16367	16226	0	3516
20.880	18.211	16377	16305	0	3516
29.715	23.188	16377	16353	0	3516
33.502	25.496	16377	16384	0	3516
30.617	25.135	16377	16399	0	3516
22.935	22.503	16377	16399	0	3516
20.772	23.549	16367	16384	0	3516
21.926	24.234	16367	16384	0	3516
22.539	27.587	16377	16415	0	3516
20.159	25.352	16377	16463	0	3516
17.959	24.053	16377	16526	0	3516
14.389	21.565	16377	16573	0	3516
15.579	23.188	16377	16605	0	3516
20.123	26.902	16377	16637	0	3516
23.440	28.814	16384	16652	0	3516
20.375	28.381	16384	16684	0	3516
18.103	26.109	16384	16716	0	3516
13.307	23.368	16384	16716	0	3516
11.828	19.005	16384	16668	0	3516
11.251	18.067	16384	16605	0	3516
11.287	15.218	16384	16573	0	3516
13.704	15.759	16384	16573	0	3516
13.631	12.802	16391	16621	0	3516
12.009	12.622	16391	16700	0	3516
12.189	10.783	16401	16763	0	3516
12.225	8.835	16401	16827	0	3516
12.874	9.989	16401	16811	0	3516
17.779	12.369	16409	16747	0	3516
19.365	12.586	16409	16652	0	3516
22.899	14.930	16409	16589	0	3516
19.834	14.713	16409	16542	0	3516
19.401	15.002	16401	16463	0	3516
16.661	14.245	16401	16384	0	3516
13.920	12.153	16401	16305	0	3516
11.900	10.746	16401	16242	0	3516
11.900	10.097	16401	16163	0	3516
12.225	10.999	16384	16084	0	3516
13.163	13.451	16384	16005	0	3516
13.992	15.795	16384	15941	0	3516
11.504	14.136	16377	15910	0	3516
9.989	12.586	16377	15878	0	3516
8.619	9.881	16384	15878	0	3516
8.547	7.862	16384	15926	0	3516
10.566	8.691	16384	16036	0	3516
12.658	12.009	16384	16147	0	3516
14.172	13.451	16391	16258	0	3516
13.631	15.146	16384	16384	0	3516
13.704	15.182	16384	16494	0	3516
11.179	12.946	16391	16605	0	3516
9.124	14.858	16391	16668	0	3516
10.746	13.415	16401	16732	0	3516
11.107	13.127	16401	16779	0	3516
11.107	12.297	16401	16779	0	3516
10.061	9.520	16409	16779	0	3516
9.016	7.104	16409	16763	0	3516
8.511	9.016	16409	16747	0	3516
11.179	10.602	16409	16732	0	3516
15.543	13.163	16419	16732	0	3516
18.608	18.031	16419	16732	0	3516
21.385	19.221	16419	16716	0	3516
20.339	20.700	16426	16684	0	3516
20.483	19.942	16426	16637	0	3516
15.326	19.906	16426	16589	0	3516
16.120	16.480	16419	16573	0	3516
13.704	16.516	16426	16558	0	3516
15.146	14.966	16419	16526	0	3516
13.054	16.805	16426	16478	0	3516
13.054	15.002	16426	16431	0	3516
9.556	13.848	16426	16384	0	3516
4.652	9.340	16419	16305	0	3516
1.406	5.157	16419	16226	0	3516
-0.216	2.272	16419	16147	0	3516
-0.180	3.173	16419	16084	0	3516
4.796	4.183	16419	16036	0	3516
7.898	5.590	16419	15989	0	3516
9.484	4.977	16409	15973	0	3516
7.357	1.118	16409	15957	0	3516
4.255	-2.308	16409	15941	0	3516
3.714	-3.678	16409	15941	0	3516
3.823	-3.426	16409	15957	0	3516
3.210	0.433	16401	15973	0	3516
2.344	3.318	16391	15989	0	3516
0.865	6.563	16391	15989	0	3516
0.325	6.491	16391	15989	0	3516
3.101	8.150	16391	16021	0	3516
7.429	10.133	16391	16084	0	3516
9.556	10.891	16391	16147	0	3516
8.691	11.540	16391	16195	0	3516
5.265	12.081	16391	16274	0	3516
7.645	13.523	16401	16353	0	3516
12.658	13.992	16401	16431	0	3516
16.841	17.887	16401	16510	0	3516
21.601	18.644	16401	16558	0	3516
16.985	18.933	16401	16558	0	3516
9.737	13.559	16409	16558	0	3516
1.983	10.494	16409	16526	0	3516
-1.875	6.311	16401	16510	0	3516
-3.390	2.416	16401	16463	0	3516
-2.669	0.505	16401	16415	0	3516
0.325	3.246	16401	16384	0	3516
2.741	6.311	16401	16337	0	3516
4.616	7.285	16391	16258	0	3516
5.013	8.439	16391	16195	0	3516
2.777	5.986	16391	16179	0	3516
1.479	2.019	16391	16163	0	3516
1.947	1.551	16384	16147	0	3516
3.714	6.239	16384	16147	0	3516
10.242	9.556	16384	16147	0	3516
14.894	12.261	16384	16131	0	3516
17.274	12.045	16384	16131	0	3516
17.166	11.143	16377	16131	0	3516
14.569	9.232	16377	16100	0	3516
13.523	11.720	16377	16084	0	3516
12.225	12.045	16367	16084	0	3516
11.143	10.494	16367	16131	0	3516
11.215	9.484	16367	16195	0	3516
9.917	5.517	16367	16226	0	3516
8.727	5.986	16367	16274	0	3516
8.727	6.780	16367	16321	0	3516
5.806	7.573	16367	16353	0	3516
0.974	6.203	16367	16353	0	3516
-2.921	3.642	16367	16353	0	3516
-3.678	1.551	16367	16384	0	3516
-1.082	1.334	16367	16463	0	3516
3.354	0.829	16367	16542	0	3516
4.652	0.072	16367	16605	0	3516
1.803	-1.479	16367	16668	0	3516
-1.983	-2.921	16367	16700	0	3516
-5.121	-1.947	16377	16700	0	3516
-4.688	-0.072	16377	16684	0	3516
0.433	3.210	16377	16700	0	3516
4.147	3.029	16377	16732	0	3516
5.590	2.777	16377	16732	0	3516
6.022	1.875	16377	16732	0	3516
5.914	2.849	16377	16684	0	3516
5.517	6.383	16377	16637	0	3516
6.599	6.780	16377	16589	0	3516
8.871	10.314	16384	16542	0	3516
10.999	9.016	16384	16526	0	3516
11.360	9.412	16384	16526	0	3516
12.910	12.297	16384	16526	0	3516
13.668	13.920	16384	16542	0	3516
12.514	14.858	16384	16542	0	3516
12.009	15.831	16384	16510	0	3516
10.963	13.235	16384	16478	0	3516
9.304	9.592	16384	16463	0	3516
7.068	9.412	16384	16463	0	3516
3.354	5.049	16391	16463	0	3516
-0.829	1.334	16384	16463	0	3516
-7.068	-2.308	16384	16447	0	3516
-10.133	-6.708	16384	16415	0	3516
-11.792	-7.285	16377	16384	0	3516
-9.737	-8.150	16384	16337	0	3516
-7.537	-8.583	16384	16305	0	3516
-7.898	-10.783	16384	16258	0	3516
-10.278	-11.576	16384	16195	0	3516
-12.946	-12.189	16377	16116	0	3516
-14.389	-10.638	16377	16052	0	3516
-14.641	-9.088	16377	16021	0	3516
-9.665	-7.248	16367	16005	0	3516
-7.501	-7.429	16367	16005	0	3516
-6.022	-5.770	16367	16068	0	3516
-2.560	-3.642	16367	16131	0	3516
-0.757	-1.911	16367	16210	0	3516
2.596	0.469	16367	16290	0	3516
4.400	2.272	16377	16369	0	3516
3.210	1.659	16377	16447	0	3516
-0.865	0.505	16377	16526	0	3516
-4.039	-1.118	16377	16605	0	3516
-4.364	-0.397	16384	16668	0	3516
0.613	1.623	16384	16732	0	3516
3.823	3.137	16384	16779	0	3516
4.544	1.911	16391	16795	0	3516
0.613	-1.010	16391	16779	0	3516
-4.904	-5.121	16391	16779	0	3516
-9.232	-9.088	16391	16779	0	3516
-10.386	-9.196	16401	16763	0	3516
-10.242	-11.287	16401	16732	0	3516
-11.287	-10.206	16401	16652	0	3516
-12.369	-9.773	16401	16558	0	3516
-11.720	-8.655	16391	16447	0	3516
-11.071	-6.960	16391	16384	0	3516
-9.520	-7.645	16391	16384	0	3516
-8.871	-8.763	16391	16384	0	3516
-12.802	-10.278	16391	16384	0	3516
-17.129	-12.514	16391	16369	0	3516
-17.418	-12.405	16401	16369	0	3516
-16.661	-8.943	16391	16353	0	3516
-11.648	-9.124	16384	16321	0	3516
-10.927	-10.386	16384	16258	0	3516
-12.189	-10.999	16384	16195	0	3516
-14.677	-13.235	16384	16163	0	3516
-15.146	-12.153	16384	16163	0	3516
-9.665	-4.760	16384	16131	0	3516
-2.416	1.442	16377	16068	0	3516
-0.144	4.255	16377	16036	0	3516
0.902	3.101	16384	16021	0	3516
-4.616	-0.793	16377	16021	0	3516
-8.366	-4.977	16377	15989	0	3516
-10.494	-8.294	16377	15957	0	3516
-9.917	-9.304	16377	15941	0	3516
-9.412	-10.819	16367	15941	0	3516
-10.638	-13.018	16367	15941	0	3516
-13.812	-12.982	16367	15941	0	3516
-15.939	-14.497	16359	15973	0	3516
-16.913	-12.550	16359	16021	0	3516
-13.559	-15.290	16359	16052	0	3516
-10.855	-15.615	16359	16084	0	3516
-10.061	-16.733	16359	16116	0	3516
-9.917	-18.608	16349	16179	0	3516
-13.487	-17.706	16349	16226	0	3516
-14.605	-18.283	16349	16258	0	3516
-11.215	-15.110	16349	16305	0	3516
-8.619	-11.937	16349	16337	0	3516
-4.111	-6.311	16349	16353	0	3516
-0.793	-3.426	16349	16353	0	3516
0.036	-2.344	16342	16321	0	3516
-4.291	-3.426	16349	16274	0	3516
-7.681	-6.167	16349	16210	0	3516
-9.592	-7.357	16342	16147	0	3516
-7.501	-7.393	16331	16116	0	3516
-1.515	-2.849	16331	16131	0	3516
5.950	0.974	16331	16163	0	3516
7.970	2.885	16324	16195	0	3516
2.092	0.577	16324	16274	0	3516
-5.193	-6.563	16324	16384	0	3516
-10.169	-12.045	16324	16463	0	3516
-12.297	-16.084	16342	16526	0	3516
-8.763	-14.245	16342	16589	0	3516
-7.104	-10.422	16342	16637	0	3516
-6.527	-6.852	16342	16716	0	3516
-7.717	-6.491	16342	16827	0	3516
-8.222	-7.789	16349	16953	0	3516
-8.366	-12.874	16349	17064	0	3516
-8.006	-17.959	16359	17175	0	3516
-8.799	-16.552	16367	17270	0	3516
-9.088	-14.172	16377	17365	0	3516
-9.520	-9.232	16377	17444	0	3516
-9.376	-4.832	16384	17475	0	3516
-8.078	-4.255	16391	17444	0	3516
-3.354	-3.462	16391	17333	0	3516
-0.469	-3.931	16391	17175	0	3516
2.236	-3.498	16391	17016	0	3516
2.416	-4.075	16391	16874	1	2540
-0.397	-4.364	16391	16763	0	2540
-2.633	-4.039	16391	16652	0	2540
-1.803	-2.921	16384	16526	0	2540
-0.252	-1.154	16384	16431	0	2540
2.200	1.082	16384	16353	0	2540
3.137	1.767	16384	16258	0	2540
1.442	2.164	16384	16179	0	2540
-0.144	0.793	16384	16100	0	2540
-3.859	-0.433	16377	16052	0	2540
-6.671	-3.426	16377	16005	0	2540
-8.078	-5.554	16377	15973	0	2540
-12.009	-10.278	16377	15957	0	2540
-13.848	-12.622	16377	15941	0	2540
-15.038	-12.405	16377	15973	0	2540
-15.903	-12.009	16377	16005	0	2540
-12.225	-9.124	16367	16005	0	2540
-8.619	-7.176	16367	16036	0	2540
-5.265	-6.275	16367	16052	0	2540
-2.777	-7.789	16367	16084	0	2540
-2.200	-5.481	16367	16131	0	2540
-1.947	-4.364	16377	16210	0	2540
-0.433	-4.039	16377	16290	0	2540
1.298	-2.849	16377	16353	0	2540
1.190	-3.065	16377	16384	0	2540
1.154	-4.832	16384	16399	0	2540
0.288	-3.678	16384	16431	0	2540
0.108	-1.623	16384	16431	0	2540
2.560	1.370	16384	16399	0	2540
7.609	5.950	16384	16384	0	2540
9.881	7.898	16384	16384	0	2540
11.396	9.592	16384	16384	0	2540
7.934	10.097	16391	16431	0	2540
4.003	8.979	16384	16510	0	2540
-1.479	9.701	16384	16589	0	2540
-3.750	7.501	16391	16637	0	2540
-2.993	6.924	16391	16652	0	2540
-0.469	4.580	16391	16621	0	2540
0.072	2.164	16391	16573	0	2540
-2.452	-3.065	16391	16542	0	2540
-6.635	-7.285	16391	16542	0	2540
-9.953	-9.592	16391	16542	0	2540
-13.091	-9.701	16391	16542	0	2540
-12.694	-7.176	16401	16526	0	2540
-9.448	-6.058	16401	16542	0	2540
-8.835	-4.724	16401	16573	0	2540
-9.160	-8.366	16401	16621	0	2540
-8.402	-11.287	16409	16605	0	2540
-10.169	-11.756	16409	16573	0	2540
-11.792	-11.828	16409	16526	0	2540
-10.602	-7.609	16409	16478	0	2540
-6.563	-5.554	16409	16447	0	2540
-3.534	-1.587	16409	16399	0	2540
-2.344	-0.072	16409	16399	0	2540
-0.325	1.046	16409	16415	0	2540
-1.226	2.019	16409	16415	0	2540
-1.803	3.210	16419	16384	0	2540
0.757	4.436	16419	16384	0	2540
4.147	5.554	16419	16369	0	2540
4.291	5.734	16419	16369	0	2540
6.924	6.960	16409	16369	0	2540
5.878	5.806	16409	16353	0	2540
2.056	3.967	16409	16305	0	2540
-0.974	2.885	16409	16258	0	2540
-5.229	-0.721	16409	16226	0	2540
-7.176	-2.957	16409	16195	0	2540
-7.248	-5.337	16409	16147	0	2540
-5.842	-7.717	16401	16131	0	2540
-4.724	-9.917	16401	16131	0	2540
-5.698	-11.215	16401	16131	0	2540
-8.366	-12.694	16401	16131	0	2540
-9.629	-15.687	16401	16131	0	2540
-13.740	-15.543	16401	16131	0	2540
-15.795	-17.418	16401	16131	0	2540
-14.894	-16.661	16401	16116	0	2540
-15.507	-16.336	16401	16084	0	2540
-11.287	-13.848	16391	16036	0	2540
-8.871	-11.179	16391	15973	0	2540
-7.825	-9.088	16384	15910	0	2540
-7.429	-6.960	16384	15878	0	2540
-7.248	-3.426	16377	15831	0	2540
-5.734	-2.056	16377	15783	0	2540
-0.036	1.262	16367	15767	0	2540
3.823	5.229	16367	15783	0	2540
8.799	8.835	16359	15799	0	2540
12.045	10.999	16359	15799	0	2540
11.432	11.468	16349	15783	0	2540
8.366	13.884	16349	15815	0	2540
7.898	11.540	16349	15894	0	2540
5.914	10.927	16349	16005	0	2540
4.111	8.727	16349	16131	0	2540
5.698	4.219	16349	16274	0	2540
4.147	1.803	16349	16384	0	2540
0.974	-0.974	16349	16510	0	2540
-2.849	-4.183	16367	16668	0	2540
-5.481	-6.094	16367	16827	0	2540
-9.665	-7.789	16367	16921	0	2540
-8.943	-7.573	16377	16953	0	2540
-7.140	-7.393	16377	16985	0	2540
-4.724	-5.517	16377	17032	0	2540
-0.902	-5.554	16384	17096	0	2540
-0.577	-3.029	16384	17143	0	2540
-0.361	-1.154	16391	17143	0	2540
-0.577	1.046	16391	17080	0	2540
-1.659	1.875	16391	17001	0	2540
-1.515	2.344	16391	16937	0	2540
0.108	2.560	16391	16906	0	2540
1.875	6.058	16391	16906	0	2540
3.787	8.835	16401	16906	0	2540
2.705	12.405	16401	16921	0	2540
1.442	15.362	16401	16921	0	2540
4.940	16.733	16401	16921	0	2540
8.475	19.582	16401	16906	0	2540
12.982	20.664	16401	16858	0	2540
17.706	20.664	16409	16795	0	2540
18.500	21.854	16409	16732	0	2540
14.100	17.923	16409	16684	0	2540
11.684	16.228	16409	16621	0	2540
8.979	14.100	16409	16558	0	2540
7.537	12.153	16409	16526	0	2540
5.373	15.471	16409	16478	0	2540
5.554	13.956	16419	16431	0	2540
4.255	13.812	16419	16399	0	2540
1.082	10.097	16419	16353	0	2540
1.875	8.979	16419	16290	0	2540
3.029	11.360	16419	16258	0	2540
5.445	16.949	16409	16258	0	2540
6.708	19.401	16419	16258	0	2540
4.147	18.716	16419	16226	0	2540
5.229	19.005	16409	16163	0	2540
8.727	19.113	16409	16084	0	2540
14.569	24.594	16401	16036	0	2540
20.123	29.571	16401	16021	0	2540
22.358	29.968	16401	16005	0	2540
19.546	25.712	16401	16021	0	2540
12.946	22.358	16401	16068	0	2540
13.776	19.185	16409	16147	0	2540
16.264	21.457	16409	16210	0	2540
17.598	22.791	16409	16258	0	2540
19.113	22.322	16409	16290	0	2540
15.435	22.431	16409	16305	0	2540
15.182	19.690	16409	16321	0	2540
11.576	18.608	16419	16337	0	2540
13.776	19.582	16419	16353	0	2540
12.586	19.329	16419	16337	0	2540
9.196	20.555	16409	16274	0	2540
6.960	20.808	16409	16195	0	2540
7.212	22.899	16409	16131	0	2540
8.655	20.736	16401	16084	0	2540
8.655	18.392	16391	16052	0	2540
4.003	16.084	16391	16036	0	2540
2.056	15.579	16391	16068	0	2540
1.046	16.012	16391	16131	0	2540
5.049	21.277	16391	16195	0	2540
12.730	25.965	16391	16258	0	2540
15.110	28.201	16391	16290	0	2540
15.795	27.948	16391	16290	0	2540
13.091	27.479	16391	16305	0	2540
9.556	25.604	16391	16337	0	2540
11.396	22.935	16391	16353	0	2540
11.864	22.322	16391	16369	0	2540
12.514	24.198	16401	16399	0	2540
12.405	23.476	16401	16431	0	2540
10.025	23.224	16401	16447	0	2540
8.078	24.883	16401	16431	0	2540
8.619	22.034	16391	16399	0	2540
8.943	19.870	16391	16384	0	2540
8.691	16.084	16391	16369	0	2540
6.671	16.625	16391	16337	0	2540
4.832	14.172	16391	16305	0	2540
2.164	14.713	16391	16321	0	2540
2.452	14.641	16391	16353	0	2540
2.416	14.353	16391	16384	0	2540
3.210	12.297	16391	16384	0	2540
5.121	11.504	16391	16353	0	2540
5.481	13.920	16391	16305	0	2540
7.212	13.487	16384	16290	0	2540
6.058	15.687	16384	16274	0	2540
5.806	17.021	16384	16242	0	2540
5.554	15.507	16384	16210	0	2540
6.635	15.651	16384	16195	0	2540
7.862	13.740	16377	16226	0	2540
9.088	15.471	16377	16274	0	2540
12.117	15.759	16377	16321	0	2540
13.127	18.536	16384	16369	0	2540
15.002	17.454	16384	16384	0	2540
15.398	16.552	16384	16431	0	2540
11.215	14.317	16384	16447	0	2540
8.979	12.946	16384	16431	0	2540
6.924	13.487	16377	16384	0	2540
4.436	12.477	16377	16369	0	2540
4.003	12.189	16377	16337	0	2540
2.885	10.999	16377	16321	0	2540
1.154	8.186	16367	16274	0	2540
0.902	7.068	16367	16242	0	2540
4.003	9.917	16367	16242	0	2540
7.068	12.514	16367	16274	0	2540
10.783	14.461	16367	16321	0	2540
11.756	15.867	16367	16369	0	2540
10.242	13.595	16367	16415	0	2540
9.556	13.451	16367	16447	0	2540
9.412	14.821	16367	16463	0	2540
10.783	15.939	16367	16447	0	2540
11.035	17.202	16367	16415	0	2540
11.251	15.507	16367	16384	0	2540
7.104	16.408	16367	16384	0	2540
5.878	17.382	16367	16415	0	2540
6.744	22.683	16377	16478	0	2540
9.484	24.089	16377	16526	0	2540
11.828	23.440	16377	16558	0	2540
12.045	23.476	16377	16573	0	2540
11.504	18.897	16377	16605	0	2540
7.393	16.985	16377	16621	0	2540
3.750	12.441	16384	16621	0	2540
1.767	8.871	16384	16637	0	2540
0.361	6.058	16384	16684	0	2540
-1.262	3.570	16384	16716	0	2540
-2.200	4.580	16391	16732	0	2540
-1.046	5.337	16391	16716	0	2540
-0.505	5.554	16391	16684	0	2540
1.587	6.094	16391	16668	0	2540
5.157	6.960	16391	16605	0	2540
6.708	7.465	16391	16542	0	2540
9.124	10.710	16391	16494	0	2540
9.016	16.156	16384	16478	0	2540
7.393	19.798	16384	16494	0	2540
8.475	24.919	16384	16510	0	2540
8.511	24.450	16384	16542	0	2540
12.477	23.873	16391	16558	0	2540
15.471	24.162	16391	16558	0	2540
18.716	23.404	16391	16526	0	2540
17.706	24.198	16391	16447	0	2540
16.408	24.883	16391	16369	0	2540
15.074	22.395	16384	16274	0	2540
15.939	19.942	16384	16179	0	2540
15.831	20.627	16384	16131	0	2540
13.415	19.293	16384	16131	0	2540
9.737	19.870	16384	16163	0	2540
2.633	15.110	16384	16179	0	2540
-1.803	11.864	16384	16179	0	2540
-3.859	6.239	16377	16163	0	2540
-5.662	3.426	16377	16163	0	2540
-5.121	4.400	16377	16163	0	2540
-5.770	4.436	16377	16147	0	2540
-7.248	0.902	16377	16116	0	2540
-8.691	1.010	16377	16116	0	2540
-8.583	-2.524	16384	16131	0	2540
-8.619	-1.803	16384	16210	0	2540
-7.825	-0.288	16384	16305	0	2540
-7.753	0.288	16384	16384	0	2540
-7.176	-0.685	16391	16447	0	2540
-7.285	0.829	16384	16494	0	2540
-4.940	2.272	16384	16510	0	2540
-1.010	7.068	16384	16510	0	2540
2.380	12.009	16384	16494	0	2540
2.741	13.704	16384	16478	0	2540
4.327	15.182	16384	16494	0	2540
5.806	14.966	16384	16526	0	2540
6.563	13.848	16384	16510	0	2540
5.806	16.012	16384	16494	0	2540
0.649	13.848	16384	16463	0	2540
-5.734	12.405	16384	16415	0	2540
-12.153	10.097	16384	16369	0	2540
-11.792	7.068	16384	16290	0	2540
-10.278	5.662	16377	16210	0	2540
-8.511	5.806	16384	16116	0	2540
-7.465	5.842	16377	16068	0	2540
-9.629	2.849	16377	16036	0	2540
-17.166	-0.938	16377	16052	0	2540
-23.368	-6.671	16377	16100	0	2540
-28.958	-10.025	16377	16163	0	2540
-27.912	-9.196	16377	16258	0	2540
-21.385	-4.039	16377	16337	0	2540
-12.225	0.325	16384	16399	0	2540
-8.619	0.938	16384	16478	0	2540
-11.684	-1.875	16384	16510	0	2540
-19.077	-7.285	16384	16526	0	2540
-25.027	-8.511	16384	16526	0	2540
-24.089	-9.809	16384	16510	0	2540
-19.113	-4.904	16384	16478	0	2540
-8.907	-1.046	16384	16447	0	2540
