neuroNicle FX2
D3F25R12
Bluetooth SPP
2023년 6월 2일 금요일
오후 1:16
time interval = 4msec
EEG1	EEG2	PPG	sdPPG	pulse	peak_interval(msec)
22.827	17.057	16384	17406	0	316
23.729	16.805	16384	17406	0	316
24.198	16.084	16384	17293	0	316
25.099	14.281	16384	17293	0	316
24.306	14.749	16384	17179	0	316
23.188	15.435	16384	17065	0	316
21.313	16.084	16384	16724	0	316
20.123	17.166	16384	16271	0	316
19.906	17.706	16384	15703	0	316
19.690	18.320	16329	15248	0	316
19.437	19.401	16329	15021	0	316
20.123	20.519	16329	14907	0	316
19.762	19.834	16329	14794	0	316
21.132	19.041	16384	14794	0	316
23.368	17.562	16329	14794	0	316
24.883	18.031	16329	15248	0	316
27.299	20.014	16329	15816	0	316
27.660	23.981	16329	16497	0	316
27.984	26.073	16384	17293	0	316
26.830	24.991	16384	17747	0	316
23.693	22.719	16384	17974	0	316
21.529	19.906	16384	17861	0	316
22.611	20.736	16384	17747	0	316
23.512	23.116	16384	17406	0	316
24.306	26.650	16384	17065	0	316
24.883	25.604	16384	16838	0	316
23.801	24.162	16384	16497	0	316
23.224	22.358	16384	16157	0	316
27.335	22.250	16329	15589	0	316
30.653	24.955	16329	15134	0	316
32.312	26.506	16329	14907	0	316
30.220	27.660	16329	14680	0	316
26.650	26.181	16329	14794	0	316
23.080	23.404	16329	15021	0	316
23.404	22.899	16246	15248	0	316
27.768	24.234	16246	15362	0	316
32.492	26.974	16246	15475	0	316
37.360	29.571	16246	15816	0	316
39.524	31.699	16246	16044	0	316
40.101	32.780	16246	16157	0	316
37.613	31.735	16246	16271	0	316
35.810	32.492	16329	16384	0	316
35.016	32.744	16329	16952	0	316
34.656	31.699	16329	17406	0	316
34.295	31.518	16329	17520	0	316
33.718	30.364	16329	17634	0	316
32.528	28.489	16329	17747	0	316
31.302	27.840	16329	17747	0	316
30.148	26.650	16384	17747	0	316
31.554	27.587	16384	17747	0	316
30.905	27.912	16329	17406	0	316
30.364	27.299	16329	16952	0	316
27.443	26.145	16329	16611	0	316
24.522	23.188	16329	16384	0	316
21.132	20.988	16329	16157	0	316
19.582	20.050	16329	15930	0	316
19.906	21.024	16329	15930	0	316
22.034	21.204	16329	16157	0	316
22.358	22.070	16329	16271	0	316
22.863	21.998	16329	16384	0	316
22.611	22.755	16329	16724	0	316
25.640	23.765	16329	17065	0	316
28.633	26.181	16384	17293	0	316
31.446	27.984	16384	17179	0	316
33.466	27.299	16329	16952	0	316
31.590	27.551	16329	16497	0	316
29.643	27.010	16329	16271	0	316
28.886	28.201	16329	16157	0	316
30.148	29.535	16329	16271	0	316
29.751	29.787	16329	16384	0	316
30.004	29.463	16384	16497	0	316
29.787	30.184	16439	16838	0	316
29.931	30.761	16384	17179	0	316
32.961	33.177	16384	17179	0	316
34.872	34.403	16384	17179	0	316
34.872	32.816	16384	16952	0	316
32.636	30.472	16384	16611	0	316
29.679	25.207	16384	16271	0	316
25.748	22.431	16384	16044	0	316
26.794	21.168	16384	15930	0	316
28.453	21.926	16384	16044	0	316
30.653	25.243	16384	16157	0	316
33.033	27.732	16384	16271	0	316
33.538	29.463	16384	16497	0	316
32.816	28.201	16384	16838	0	316
31.446	27.479	16384	16952	0	316
31.482	25.893	16384	16838	0	316
30.941	25.893	16384	16838	0	316
32.348	26.470	16439	16952	0	316
34.151	27.912	16439	17065	0	316
35.160	28.525	16439	17065	0	316
36.928	28.092	16439	16838	0	316
36.711	27.191	16439	16497	0	316
36.459	25.965	16439	16157	0	316
35.160	26.542	16384	15703	0	316
33.898	27.371	16384	15248	0	316
32.348	28.958	16384	14907	0	316
30.725	28.922	16329	14453	0	316
30.833	28.345	16329	14112	0	316
30.941	28.850	16329	14112	0	316
32.312	28.633	16329	14112	0	316
32.239	29.282	16329	14225	0	316
32.348	30.004	16246	14339	0	316
33.393	29.102	16329	14453	0	316
35.124	29.030	16329	14794	0	316
38.262	29.102	16329	15248	0	316
39.632	29.679	16384	15816	0	316
40.534	29.679	16384	16271	0	316
38.082	29.282	16384	16497	0	316
36.387	29.246	16384	16838	0	316
34.151	29.499	16384	17406	0	316
32.492	30.472	16439	18088	0	316
32.528	32.276	16439	18884	0	316
33.574	34.980	16522	19452	0	316
35.449	37.613	16439	19679	0	316
36.351	38.731	16439	19565	0	316
35.665	37.036	16439	19452	0	316
34.475	36.314	16522	19338	0	316
33.862	33.429	16522	19224	0	316
32.203	30.941	16522	18997	1	736
31.807	30.617	16522	18884	0	736
30.040	29.427	16578	18770	0	736
29.210	29.030	16578	18543	0	736
27.948	28.886	16578	18315	0	736
28.633	29.210	16578	17974	0	736
29.499	29.354	16578	17634	0	736
29.931	29.535	16578	17179	0	736
29.823	29.895	16578	16724	0	736
29.679	30.328	16578	16384	0	736
27.804	29.174	16578	15930	0	736
28.273	27.407	16578	15475	0	736
28.489	25.243	16522	14907	0	736
30.184	25.460	16522	14680	0	736
30.617	26.866	16522	14453	0	736
30.436	28.669	16439	14339	0	736
27.660	28.309	16522	14112	0	736
25.388	26.217	16522	14112	0	736
23.440	22.070	16522	14112	0	736
22.431	20.880	16522	14339	0	736
24.666	21.673	16439	14566	0	736
26.361	24.450	16439	14794	0	736
27.840	27.479	16439	14794	0	736
27.263	28.020	16384	14680	0	736
27.624	28.850	16384	14680	0	736
27.912	27.479	16384	14680	0	736
29.571	28.850	16384	15021	0	736
31.951	31.230	16439	15703	0	736
33.718	33.105	16439	16271	0	736
32.564	33.538	16439	16384	0	736
30.905	31.482	16439	16271	0	736
28.850	27.732	16384	16044	0	736
31.302	27.010	16384	15703	0	736
38.803	35.197	16384	15362	0	736
54.526	49.621	16384	15248	0	736
69.888	65.020	16384	15021	0	736
77.425	74.937	16329	14907	0	736
76.524	74.468	16329	14794	0	736
67.977	67.688	16329	14680	0	736
61.414	60.873	16329	14794	0	736
59.574	58.853	16329	15021	0	736
60.224	59.178	16329	15362	0	736
58.961	57.447	16329	15589	0	736
53.408	53.588	16246	15703	0	736
45.799	48.756	16329	15816	0	736
41.543	47.205	16329	15930	0	736
39.416	47.061	16329	16044	0	736
38.118	47.422	16329	16271	0	736
34.403	44.284	16329	16157	0	736
30.400	40.065	16329	15703	0	736
27.443	36.206	16246	14907	0	736
25.712	35.160	16190	14339	0	736
25.893	34.944	16190	13884	0	736
24.234	34.728	16107	13544	0	736
23.657	33.934	16107	13316	0	736
22.719	33.574	16051	13203	0	736
23.549	33.105	16051	13316	0	736
26.181	33.826	16051	13657	0	736
24.702	32.744	15968	13884	0	736
24.450	31.338	15968	14453	0	736
23.981	30.148	15968	15021	0	736
25.893	30.977	16051	15703	0	736
29.102	33.646	16051	16384	0	736
32.312	35.557	16051	17065	0	736
31.266	37.793	16107	17747	0	736
29.535	36.531	16107	18429	0	736
28.201	34.872	16107	18884	0	736
27.263	33.790	16107	19338	0	736
30.220	33.466	16190	19906	0	736
32.853	32.744	16190	20361	0	736
33.249	33.466	16190	20588	0	736
34.403	34.439	16190	20702	0	736
34.620	34.367	16246	20588	0	736
34.728	35.233	16246	20474	0	736
35.052	34.836	16246	20247	0	736
33.610	33.718	16246	20134	0	736
30.545	32.528	16246	19906	0	736
26.650	31.374	16246	19452	0	736
22.827	30.725	16246	18997	0	736
21.529	28.597	16246	18656	1	316
21.745	28.561	16329	18656	0	316
22.142	27.083	16384	18656	0	316
22.575	26.109	16384	18656	0	316
22.791	26.181	16384	18315	0	316
22.467	26.325	16384	17974	0	316
23.224	26.722	16384	17634	0	316
22.503	28.128	16384	17520	0	316
23.981	28.850	16384	17179	0	316
23.476	27.912	16384	16838	0	316
23.873	27.912	16384	16497	0	316
25.712	27.083	16384	16384	0	316
26.397	27.479	16384	16497	0	316
28.561	27.587	16439	17065	0	316
29.535	29.282	16439	17634	0	316
32.420	31.626	16439	18088	0	316
32.744	33.321	16439	18202	0	316
31.302	33.718	16439	18088	0	316
30.220	33.213	16439	17861	0	316
26.722	30.941	16439	17747	0	316
24.919	27.299	16522	17634	0	316
23.476	26.433	16522	17520	0	316
24.270	28.922	16522	17065	0	316
27.155	35.197	16439	16271	0	316
30.869	41.688	16439	15362	0	316
34.800	44.897	16439	14339	0	316
34.872	42.734	16384	13203	0	316
31.302	34.692	16329	12180	0	316
26.325	27.660	16329	11498	0	316
22.755	24.666	16246	11157	0	316
22.178	25.604	16246	11157	0	316
23.693	27.263	16246	11271	0	316
25.135	28.705	16190	11612	0	316
25.135	29.499	16190	12066	0	316
23.693	29.391	16246	12521	0	316
21.241	30.292	16246	13089	0	316
21.204	31.410	16246	13657	0	316
20.880	29.823	16329	14225	0	316
20.880	29.102	16246	14680	0	316
20.772	27.732	16246	15248	0	316
20.303	27.155	16246	15589	0	316
18.788	28.561	16246	15589	0	316
21.024	30.004	16246	15475	0	316
23.512	31.951	16190	15362	0	316
24.919	31.482	16190	15475	0	316
24.306	31.158	16190	15703	0	316
22.972	27.624	16190	15816	0	316
21.313	26.830	16190	16044	0	316
20.627	27.660	16190	16157	0	316
23.729	31.482	16190	16384	0	316
26.217	34.908	16190	16497	0	316
28.453	36.855	16190	16838	0	316
30.689	36.026	16190	17179	0	316
32.023	34.583	16190	17179	0	316
33.429	34.079	16190	17179	0	316
32.528	35.088	16107	16952	0	316
31.626	35.485	16190	16497	0	316
29.787	35.305	16190	16384	0	316
27.912	33.105	16190	16611	0	316
27.191	31.266	16190	17065	0	316
29.968	30.797	16190	17520	0	316
33.754	31.446	16246	18202	0	316
36.711	33.754	16246	18884	0	316
37.721	34.367	16246	19452	0	316
34.872	33.357	16329	19679	0	316
31.194	31.482	16329	20020	0	316
26.614	30.148	16329	20134	0	316
26.181	28.417	16384	20361	0	316
26.470	28.453	16384	20247	0	316
27.263	29.174	16384	19906	0	316
27.551	28.128	16384	19452	0	316
28.020	28.128	16384	18997	0	316
27.804	26.506	16384	18656	0	316
25.532	25.496	16384	18543	0	316
24.775	24.594	16439	18543	0	316
22.899	25.243	16439	18315	0	316
22.358	26.361	16439	17974	0	316
24.594	29.354	16439	17520	0	316
25.929	29.535	16439	17179	0	316
25.460	29.968	16439	16838	0	316
23.729	28.489	16439	16724	0	316
19.618	25.207	16439	16724	0	316
15.831	22.791	16439	16724	0	316
14.208	20.159	16439	16611	0	316
15.362	19.365	16522	16497	0	316
19.798	21.168	16439	16271	0	316
26.253	24.053	16439	15816	0	316
32.492	28.669	16439	15248	0	316
35.557	30.689	16439	14680	0	316
35.305	30.545	16439	14225	0	316
31.662	28.669	16384	13771	0	316
29.318	26.217	16384	13430	0	316
27.840	26.470	16384	13316	0	316
28.958	27.660	16384	13316	0	316
30.977	30.905	16329	13430	0	316
31.662	32.564	16329	13544	0	316
31.843	32.816	16329	13771	0	316
28.453	30.797	16329	14225	0	316
26.397	25.748	16329	14566	0	316
22.322	19.365	16329	14907	0	316
20.303	15.002	16384	15475	0	316
19.257	16.805	16384	15930	0	316
23.008	28.237	16384	16384	0	316
27.443	41.976	16384	16952	0	316
30.761	50.559	16384	17293	0	316
29.499	48.071	16439	17406	0	316
22.070	37.973	16439	17406	0	316
15.002	30.833	16439	17293	0	316
12.441	31.302	16384	16952	0	316
16.084	37.685	16384	16611	0	316
21.926	41.832	16384	16384	0	316
25.063	40.714	16384	16384	0	316
25.568	37.144	16384	16724	0	316
21.313	35.593	16439	16952	0	316
17.959	38.009	16439	17065	0	316
15.074	38.839	16439	17179	0	316
12.982	35.918	16439	17293	0	316
12.477	30.004	16439	17406	0	316
13.848	24.522	16439	17520	0	316
16.192	20.664	16439	17406	0	316
18.211	16.661	16439	17065	0	316
18.608	13.668	16439	16384	0	316
18.680	9.124	16384	15703	0	316
18.356	5.698	16384	14794	0	316
17.779	6.780	16384	14225	0	316
17.562	9.088	16329	13998	0	316
17.021	12.297	16329	13884	0	316
16.661	13.271	16329	13771	0	316
16.480	13.559	16246	13771	0	316
16.264	11.360	16246	13998	0	316
17.418	12.081	16246	14453	0	316
17.995	13.054	16329	15248	0	316
19.113	15.939	16329	16044	0	316
20.231	18.283	16329	16611	0	316
20.952	18.788	16329	17179	0	316
22.142	18.680	16384	17634	0	316
22.539	18.283	16384	17861	0	316
23.693	18.752	16384	17861	0	316
25.424	19.510	16384	17747	0	316
25.568	19.726	16384	17634	0	316
24.847	18.788	16384	17293	0	316
21.457	15.723	16384	16838	0	316
17.634	13.920	16329	16384	0	316
15.002	14.497	16329	16157	0	316
15.471	17.057	16329	15930	0	316
18.680	20.087	16329	15703	0	316
20.952	22.395	16246	15248	0	316
22.322	21.385	16246	14680	0	316
21.709	21.168	16190	14225	0	316
22.575	20.772	16190	14225	0	316
23.440	22.322	16190	14339	0	316
24.883	23.693	16190	14339	0	316
26.325	25.568	16107	14225	0	316
24.775	25.063	16107	14225	0	316
21.854	24.775	16107	14225	0	316
19.618	22.755	16107	14566	0	316
18.139	21.493	16107	15021	0	316
19.005	19.870	16107	15703	0	316
21.926	20.664	16190	16384	0	316
23.945	20.880	16246	16838	0	316
22.539	20.880	16246	17520	0	316
19.726	20.267	16246	18429	0	316
14.245	19.726	16246	19111	0	316
12.730	19.618	16329	19679	0	316
12.514	19.510	16329	20020	0	316
15.435	20.627	16329	19906	0	316
19.546	23.080	16329	19793	0	316
23.440	25.135	16384	19793	0	316
24.558	27.407	16384	20134	0	316
26.289	28.561	16439	20588	0	316
26.938	28.489	16439	20702	0	316
28.092	26.614	16522	20702	0	316
30.148	27.155	16522	20474	0	316
31.302	27.443	16522	20134	1	692
30.905	28.525	16522	19452	0	692
29.174	26.902	16439	18997	0	692
26.037	24.306	16522	18543	0	692
23.765	20.591	16522	17974	0	692
23.440	19.798	16522	17293	0	692
23.945	26.506	16522	16838	0	692
28.597	37.108	16439	16497	0	692
33.574	47.277	16439	16271	0	692
35.737	50.595	16439	16044	0	692
35.954	45.366	16439	15930	0	692
33.105	37.108	16439	15703	0	692
28.922	31.590	16439	15475	0	692
28.741	31.626	16439	15134	0	692
31.554	35.052	16439	14680	0	692
33.718	37.685	16439	14225	0	692
35.341	37.396	16384	13771	0	692
33.934	35.521	16384	13430	0	692
30.292	32.203	16384	13089	0	692
27.335	30.617	16384	13089	0	692
27.371	30.436	16329	13203	0	692
31.699	33.393	16329	13430	0	692
37.901	37.288	16329	13430	0	692
42.842	40.281	16329	13544	0	692
43.274	40.245	16329	13657	0	692
38.514	36.314	16329	13884	0	692
33.213	32.312	16329	14112	0	692
31.807	31.446	16329	14453	0	692
36.278	35.052	16246	14566	0	692
43.599	41.003	16246	14453	0	692
49.982	46.917	16329	14225	0	692
54.814	51.677	16329	14339	0	692
59.647	56.870	16329	14794	0	692
68.265	63.649	16329	15589	0	692
80.382	71.655	16329	16271	0	692
94.519	79.805	16329	16611	0	692
106.347	88.532	16384	16724	0	692
116.192	98.918	16329	16724	0	692
127.912	116.480	16329	16611	0	692
139.416	137.432	16329	16952	0	692
150.379	156.221	16329	17520	0	692
156.906	167.616	16384	18088	0	692
156.401	169.059	16384	18429	0	692
153.300	167.364	16384	18429	0	692
148.071	167.003	16384	18315	0	692
147.205	171.403	16384	18088	0	692
144.032	173.747	16384	17974	0	692
140.353	173.494	16384	17747	0	692
134.367	170.501	16384	17520	0	692
128.525	167.508	16384	17293	0	692
122.791	168.301	16384	17293	0	692
117.562	170.465	16384	17520	0	692
108.511	166.751	16384	17861	0	692
98.125	159.719	16439	18088	0	692
87.234	149.008	16439	18088	0	692
77.101	138.009	16439	17861	0	692
69.455	130.220	16439	17747	0	692
64.371	120.880	16384	17747	0	692
56.978	109.809	16439	17747	0	692
47.818	96.754	16439	17634	0	692
37.432	82.871	16439	17634	0	692
26.722	74.216	16522	17520	0	692
17.634	67.075	16522	17406	0	692
10.746	59.430	16522	17520	0	692
5.373	46.592	16439	17406	0	692
-2.380	28.777	16439	17065	0	692
-10.783	11.179	16439	16497	0	692
-18.680	-3.787	16439	16157	0	692
-26.722	-13.740	16384	15475	0	692
-34.367	-23.152	16384	14794	0	692
-46.159	-34.547	16384	14339	0	692
-56.906	-47.602	16329	14225	0	692
-67.977	-57.555	16329	14225	0	692
-71.078	-66.210	16329	14339	0	692
-66.967	-72.881	16329	14566	0	692
-56.581	-76.524	16329	14907	0	692
-48.107	-79.445	16329	15134	0	692
-46.232	-83.375	16384	15362	0	692
-52.651	-88.929	16439	15589	0	692
-62.243	-96.646	16384	15930	0	692
-68.482	-103.246	16384	16044	0	692
-66.643	-106.635	16384	16157	0	692
-61.846	-104.111	16384	16157	0	692
-57.807	-101.046	16384	16384	0	692
-61.810	-102.056	16384	16497	0	692
-67.075	-104.652	16384	16611	0	692
-70.970	-105.554	16384	16497	0	692
-68.554	-104.472	16384	16497	0	692
-61.522	-98.017	16384	16724	0	692
-53.264	-90.876	16384	17065	0	692
-48.720	-85.034	16384	17293	0	692
10.242	8.006	218	27861	0	316
10.242	9.448	134	32767	0	316
10.061	8.258	134	32767	0	316
8.691	8.186	134	32767	0	316
9.629	8.366	218	32767	0	316
10.891	10.746	273	32767	0	316
13.199	12.225	357	32767	0	316
13.091	11.215	496	32767	0	316
13.018	11.215	634	32767	0	316
13.343	11.179	829	32767	0	316
16.625	13.523	968	32767	0	316
21.385	17.562	1246	32767	0	316
22.719	19.005	1468	32767	0	316
21.024	18.211	1746	32767	0	316
17.598	17.202	1884	32767	0	316
16.661	17.166	2079	32767	0	316
19.834	20.195	2440	32767	0	316
26.794	23.116	2634	32767	0	316
31.987	25.063	2912	32767	0	316
33.321	23.224	3051	32767	0	316
28.417	17.057	3329	32767	0	316
21.637	11.432	3690	32767	0	316
15.038	7.717	3829	32767	0	316
14.208	8.042	4162	32767	0	316
13.848	8.186	4301	32767	0	316
14.569	8.150	4662	32767	0	316
13.487	4.760	4801	32767	0	316
11.504	0.361	5134	32767	0	316
10.638	0.072	5273	32767	0	316
13.379	3.426	5551	32767	0	316
15.939	9.917	5829	32767	0	316
16.589	11.720	5968	32767	0	316
15.002	11.432	6190	32767	0	316
12.081	8.258	6468	32767	0	316
12.009	6.167	6607	32767	0	316
13.379	5.806	6801	32767	0	316
14.533	5.950	7023	32767	0	316
12.874	2.056	7218	32767	0	316
9.232	-1.479	7496	32767	0	316
9.160	-1.983	7579	31384	0	316
12.333	2.164	7773	29224	0	316
17.779	6.491	7912	26952	0	316
19.834	6.924	8051	24679	0	316
15.398	1.262	8329	22747	0	316
9.520	-5.013	8468	21043	0	316
5.914	-8.294	8607	19338	0	316
7.285	-5.157	8746	17634	0	316
9.881	-0.793	8829	16157	0	316
12.622	2.164	8968	14794	0	316
12.838	1.731	9246	15930	0	316
13.704	1.479	9857	23884	0	316
14.425	2.596	10496	32767	0	316
14.425	4.688	11051	32767	0	316
13.127	6.022	11746	32767	0	316
7.753	4.219	12496	32767	0	316
4.147	1.334	13412	32767	0	316
1.947	-0.974	14107	32767	0	316
2.416	-1.010	14579	32767	0	316
4.436	-0.397	15079	32767	0	316
6.599	-0.252	15412	32767	0	316
8.186	-0.613	15634	32767	0	316
9.629	-1.262	15773	32767	0	316
10.422	-1.118	15912	32767	0	316
11.360	-1.154	16051	32767	0	316
9.412	-1.118	16107	28543	0	316
8.366	-2.056	16522	27520	0	316
7.212	-2.633	16995	32767	0	316
7.753	-0.613	18050	32767	0	316
10.494	1.731	19356	32767	0	316
12.658	3.787	20828	32767	0	316
14.281	7.140	22411	32767	0	316
17.093	9.520	24022	32767	0	316
19.762	12.514	25828	32767	0	316
20.303	12.910	27911	32767	0	316
19.185	12.477	30050	32767	0	316
16.949	10.746	32356	32767	0	316
14.064	9.845	32768	32767	0	316
14.966	12.441	32768	32767	0	316
16.516	14.533	32768	32767	0	316
17.995	16.336	32768	32767	0	316
18.428	15.903	32768	32767	0	316
17.310	12.694	32768	32767	0	316
15.579	9.088	32768	32767	1	348
11.576	4.039	32768	32767	0	348
7.934	-2.236	32768	32767	0	348
5.698	-4.183	32768	32767	0	348
7.970	-2.957	32768	32767	0	348
13.848	4.039	32768	32767	0	348
19.221	11.576	32768	32767	0	348
20.267	13.812	32768	32767	0	348
18.175	11.360	32768	32767	0	348
14.425	6.347	32768	32767	0	348
13.199	2.344	32768	6612	0	348
13.776	5.121	32768	0	0	348
17.634	9.881	32768	0	0	348
19.257	14.461	32768	0	0	348
19.041	15.218	32768	0	0	348
17.995	14.533	32768	0	0	348
16.661	13.415	32768	0	0	348
17.274	13.776	32768	0	0	348
18.608	15.507	32768	0	0	348
19.221	15.831	32768	0	0	348
18.031	12.838	32768	0	0	348
15.182	9.232	32768	0	0	348
12.441	6.311	32768	0	0	348
14.749	6.635	32768	0	0	348
18.031	10.566	32768	0	0	348
20.952	11.937	32768	0	0	348
19.870	11.360	32768	0	0	348
15.543	8.078	32768	0	0	348
12.261	4.868	32768	0	0	348
12.550	5.013	32768	0	0	348
15.146	8.655	32768	0	0	348
18.572	9.629	32768	0	0	348
19.473	10.746	32768	0	0	348
19.473	10.061	32768	0	0	348
20.591	12.982	32768	0	0	348
24.378	18.608	32768	0	0	348
27.660	24.991	32768	0	0	348
29.102	27.732	32768	0	0	348
29.318	27.371	32768	0	0	348
28.669	24.378	32768	0	0	348
28.958	23.945	32768	5703	0	348
29.931	24.522	32768	27065	0	348
29.318	25.893	32768	32767	0	348
28.633	26.073	32768	32767	0	348
26.145	23.152	32768	32767	0	348
24.162	20.123	32768	32767	0	348
22.467	17.238	32768	32767	0	348
22.791	14.858	32768	32767	0	348
22.467	14.389	32768	32767	0	348
21.818	12.189	32768	32767	0	348
19.221	10.169	32768	32767	0	348
17.238	7.789	32768	32767	0	348
14.966	5.626	32768	32767	0	348
13.848	5.265	32768	16838	0	348
13.559	6.816	32768	2634	0	348
14.389	7.068	32768	0	0	348
15.939	9.917	32768	0	0	348
17.706	12.622	32217	0	0	348
20.664	15.975	31522	0	0	348
23.404	18.572	31161	0	0	348
23.296	20.231	30689	0	0	348
23.332	20.411	29911	0	0	348
25.893	21.132	29022	0	0	348
26.722	20.952	28245	0	0	348
28.850	21.962	27495	0	0	348
26.470	19.257	26439	0	0	348
23.729	17.129	25328	0	0	348
20.375	15.543	24439	0	0	348
19.077	16.805	23606	0	0	348
17.959	17.382	22828	0	0	348
15.254	14.785	22078	0	0	348
9.376	7.357	21022	0	0	348
1.839	-0.144	20050	0	0	348
1.226	-3.210	19161	0	0	348
5.265	-1.262	18745	0	0	348
11.071	4.904	18467	0	0	348
14.425	8.727	18050	0	0	348
14.100	6.058	17634	0	0	348
7.321	2.452	17272	0	0	348
4.940	-0.252	16939	0	1	316
6.022	1.082	16522	0	0	316
10.458	6.275	16190	3998	0	316
16.661	12.297	15634	7180	0	316
20.159	16.661	14801	3089	0	316
21.745	19.401	14023	0	0	316
22.683	21.673	13273	0	0	316
26.794	24.053	13134	0	0	316
29.535	28.381	12996	14566	0	316
32.203	28.741	12773	26611	0	316
31.446	28.814	12357	27406	0	316
28.633	27.587	11607	18997	0	316
25.135	25.460	10551	6498	0	316
25.496	25.748	9662	0	0	316
25.965	25.784	8968	0	0	316
27.191	26.145	8412	0	0	316
25.099	24.162	7912	0	0	316
20.880	20.555	7440	0	0	316
17.923	16.589	6801	0	0	316
13.307	12.694	5912	0	0	316
11.973	10.927	4940	0	0	316
12.297	11.143	4023	0	0	316
12.694	10.458	2912	0	0	316
11.900	9.953	1801	0	0	316
12.730	6.563	912	0	0	316
13.776	5.373	218	0	0	316
15.507	5.626	1	0	0	316
18.139	9.304	1	0	0	316
22.431	14.533	1	0	0	316
24.089	19.365	1	0	0	316
25.496	23.116	1	0	0	316
28.201	25.640	1	0	0	316
29.607	28.381	1	0	0	316
32.167	30.040	1	0	0	316
32.744	31.085	1	0	0	316
32.456	29.571	1	0	0	316
29.607	26.938	1	12634	0	316
27.876	23.080	1	28088	0	316
26.397	20.880	1	32767	0	316
25.063	19.618	1	32767	0	316
23.729	18.716	1	32767	0	316
20.375	15.795	1	32767	0	316
16.949	14.028	1	32767	0	316
15.218	12.514	1	32767	0	316
16.913	13.127	1	32767	0	316
19.546	14.641	1	32767	0	316
21.493	15.867	1	32767	0	316
21.745	14.858	1	32767	0	316
20.375	14.461	1	32767	0	316
21.962	16.012	1	32767	0	316
24.306	19.113	1	32767	0	316
27.660	22.503	1	32767	0	316
30.581	24.883	1	32767	0	316
32.636	26.974	1	32767	0	316
32.023	27.155	1	32767	0	316
31.626	26.686	1	32767	0	316
29.715	26.686	1	32767	0	316
27.984	25.063	1	32767	0	316
26.253	24.486	1	32767	0	316
28.417	27.479	1	32767	0	316
28.633	29.318	1	32767	0	316
29.174	30.292	1	32767	0	316
28.128	29.679	1	32767	0	316
25.748	27.479	1	32767	0	316
25.460	26.289	1	32767	0	316
25.063	24.342	1	32767	0	316
26.253	23.837	1	32767	0	316
26.109	22.322	1	32767	0	316
23.873	20.087	1	32767	0	316
21.601	21.096	1	32767	0	316
20.591	21.673	1	32767	0	316
22.034	23.440	1	32767	0	316
23.657	23.585	1	32520	0	316
25.784	24.811	1	31611	0	316
24.270	24.666	1	30929	0	316
24.198	24.775	1	30474	0	316
23.657	26.397	1	30134	0	316
24.630	26.758	1	30247	0	316
26.614	27.587	1	30588	0	316
27.407	28.850	1	31043	1	316
28.922	28.777	1	31611	0	316
28.814	28.850	1	31952	0	316
28.345	27.479	1	32293	0	316
28.020	27.407	134	32406	0	316
26.758	26.866	357	32520	0	316
28.850	28.309	551	32767	0	316
31.158	30.148	829	32767	0	316
33.213	30.184	1051	32767	0	316
34.151	30.472	1329	32767	0	316
31.771	29.463	1468	32767	0	316
28.201	27.227	1746	32767	0	316
23.981	26.001	1940	32767	0	316
22.503	23.729	2301	32767	0	316
22.827	22.575	2496	32767	0	316
24.306	21.132	2773	32767	0	316
27.624	20.952	2912	32767	0	316
27.660	20.555	3273	32767	0	316
28.273	21.637	3468	32767	0	316
27.732	22.322	3690	32767	0	316
28.237	24.486	3968	32767	0	316
29.102	25.063	4162	32747	0	316
28.309	26.073	4523	32179	0	316
28.705	25.640	4662	31384	0	316
27.804	27.768	4940	30588	0	316
28.417	29.030	4996	29793	0	316
30.004	30.545	5273	28884	0	316
30.112	30.292	5496	27747	0	316
30.076	30.653	5773	26724	0	316
30.004	30.256	6051	27974	0	316
33.285	33.357	6662	32767	0	316
35.629	36.098	7440	32767	0	316
40.353	38.370	7996	32767	0	316
40.389	38.045	8551	32767	0	316
37.649	36.026	9246	32767	0	316
35.124	33.321	10079	32767	0	316
33.934	32.636	10968	32767	0	316
36.567	34.439	11662	32767	0	316
39.344	37.793	12496	32767	0	316
40.606	39.596	13551	32767	0	316
35.918	36.459	14940	32767	0	316
28.850	30.472	16329	32767	0	316
21.204	24.270	17772	32767	0	316
17.093	19.834	19078	32767	0	316
18.320	23.008	20189	32767	0	316
22.178	27.551	21578	32767	0	316
28.237	33.754	22967	32767	0	316
30.508	37.108	24217	32767	0	316
30.328	36.783	25050	32767	0	316
25.965	33.033	25689	32767	0	316
21.204	29.391	26022	32767	0	316
19.618	28.381	26578	32767	0	316
24.594	33.610	26939	32767	0	316
32.456	40.534	26939	32767	0	316
37.505	44.969	26856	32767	0	316
37.829	44.464	26522	10021	0	316
34.908	39.055	26106	0	0	316
32.420	36.639	26022	0	0	316
35.593	38.586	25745	0	0	316
40.750	45.582	25550	0	0	316
41.796	47.926	25550	0	0	316
39.488	45.871	25884	0	0	316
34.764	38.947	26245	0	0	316
32.131	35.197	26717	0	0	316
33.321	35.269	26995	0	0	316
35.269	39.344	26939	0	0	316
36.134	42.481	26856	0	0	316
37.180	42.265	26939	0	0	316
38.370	41.976	26939	0	0	316
40.029	41.435	27272	0	0	316
39.416	41.616	27828	0	0	316
36.459	42.661	28745	0	0	316
34.367	42.553	29161	5362	0	316
35.160	43.166	29439	7294	0	316
39.380	44.645	29217	0	0	316
43.419	46.736	28884	0	0	316
43.202	44.825	28245	0	0	316
39.524	43.960	27550	0	0	316
35.629	43.707	27217	0	0	316
36.928	46.520	26800	0	1	316
41.435	51.064	26578	0	0	316
44.573	52.723	26800	0	0	316
45.186	51.316	26800	0	0	316
41.219	48.179	26578	0	0	316
38.118	45.005	26522	0	0	316
35.774	45.582	26384	0	0	316
35.990	46.412	26161	0	0	316
36.819	48.576	26161	0	0	316
37.144	49.405	26522	0	0	316
38.370	51.713	27217	3771	0	316
38.622	52.651	27911	27974	0	316
39.885	52.146	28467	32767	0	316
40.245	50.126	28522	32767	0	316
40.678	47.926	28606	32767	0	316
42.806	48.215	28661	32767	0	316
45.005	47.277	29078	32767	0	316
42.193	47.241	29217	32767	0	316
39.344	45.041	29495	32767	0	316
35.377	42.084	29495	32767	0	316
35.629	42.986	29300	32767	0	316
41.147	45.402	29161	28202	0	316
46.845	49.657	28884	19452	0	316
49.657	52.038	28384	8203	0	316
46.448	50.703	28050	0	0	316
40.606	47.169	27550	0	0	316
40.101	46.953	26856	0	0	316
42.842	49.657	25967	0	0	316
49.080	54.093	24856	0	0	316
50.018	56.906	23606	0	0	316
46.484	54.598	22272	0	0	316
39.885	49.730	21161	0	0	316
35.160	45.727	20272	0	0	316
36.639	43.563	20050	0	0	316
41.868	45.907	20134	0	0	316
45.835	46.484	20606	0	0	316
48.684	47.349	20745	0	0	316
47.962	48.395	20689	0	0	316
46.953	48.720	20467	0	0	316
47.313	51.893	20050	0	0	316
47.962	54.093	19856	0	0	316
48.756	53.877	19578	0	0	316
45.041	51.569	19022	0	0	316
41.183	46.881	18606	0	0	316
37.757	42.986	18467	0	0	316
37.721	42.157	18467	2862	0	316
39.091	44.284	18745	18656	0	316
41.760	44.969	18884	31724	0	316
39.957	44.645	19022	32767	0	316
38.118	41.760	18800	32767	0	316
36.783	41.363	18661	32767	0	316
37.937	42.661	18661	32767	0	316
39.380	44.428	18384	32767	0	316
37.757	45.691	18050	32767	0	316
34.006	42.661	17689	27520	0	316
29.715	39.740	17495	22520	0	316
27.660	38.298	17272	23770	0	316
30.472	39.704	17272	27747	0	316
35.341	44.176	17272	31156	0	316
39.380	48.107	16939	28884	0	316
41.039	49.946	16522	20020	0	316
40.678	49.802	16107	10362	0	316
41.435	46.123	15912	6384	0	316
42.048	44.248	15690	9112	0	316
44.464	42.229	15690	15248	0	316
45.582	43.455	15690	20815	0	316
45.438	43.455	15634	23315	0	316
42.265	42.734	15634	25815	0	316
39.921	40.822	15690	30020	0	316
36.711	37.829	15496	29338	0	316
33.393	37.144	15134	21611	0	316
30.328	35.305	14662	10930	0	316
25.352	33.393	13968	0	0	316
23.044	31.807	13190	0	0	316
22.431	29.607	12496	0	0	316
24.847	30.653	11607	0	0	316
29.751	32.600	10829	0	0	316
34.006	35.341	9996	0	0	316
34.583	36.531	9107	0	0	316
34.151	36.134	8273	0	1	316
32.312	36.278	7440	0	0	316
31.987	36.928	6662	0	0	316
32.203	39.235	5912	0	0	316
33.934	41.291	5134	0	0	316
35.810	43.671	4440	0	0	316
37.036	44.681	3884	0	0	316
39.091	48.323	3273	0	0	316
42.157	51.929	2634	0	0	316
45.150	55.319	2301	0	0	316
45.041	56.365	1801	0	0	316
42.625	52.723	1468	0	0	316
38.334	47.097	1107	0	0	316
34.547	42.229	912	0	0	316
32.456	40.534	551	0	0	316
31.158	39.452	412	1839	0	316
29.354	37.360	357	11271	0	316
24.017	32.023	218	20134	0	316
19.365	25.135	134	28770	0	316
15.615	20.339	79	32767	0	316
16.228	20.483	134	32767	0	316
18.356	26.181	134	32767	0	316
23.332	32.023	218	32767	0	316
26.289	36.026	273	32767	0	316
26.794	35.593	412	32767	0	316
24.883	32.384	551	32767	0	316
20.700	29.643	690	32767	0	316
19.437	30.220	912	32767	0	316
23.549	35.882	1107	32767	0	316
33.033	43.779	1329	32767	0	316
43.455	52.146	1607	32767	0	316
50.343	57.050	1801	32767	0	316
48.792	56.762	2023	32767	0	316
44.068	53.480	2218	32767	0	316
38.622	49.225	2496	32767	0	316
37.216	45.943	2773	32767	0	316
38.009	44.933	3051	32767	0	316
38.190	43.851	3190	32767	0	316
34.908	41.255	3468	32767	0	316
27.984	37.144	3746	32767	0	316
22.791	33.502	3884	32767	0	316
19.618	31.374	4246	32767	0	316
20.664	30.941	4384	32767	0	316
22.935	32.420	4662	32767	0	316
23.765	31.807	4801	32767	0	316
23.765	31.302	5134	32767	0	316
23.152	29.354	5273	32767	0	316
22.539	30.076	5551	32767	0	316
24.883	31.302	5773	32767	0	316
25.856	36.170	5968	32767	0	316
28.669	41.219	6190	32767	0	316
30.905	47.133	6468	32767	0	316
35.701	51.424	6662	32767	0	316
41.399	56.185	6801	32767	0	316
48.864	59.574	7079	32767	0	316
53.264	62.604	7301	32767	0	316
54.598	64.154	7579	32767	0	316
53.119	64.082	7773	32767	0	316
46.809	61.161	7996	32747	0	316
42.409	55.860	8190	30929	0	316
37.901	49.585	8412	28884	0	316
36.026	44.861	8551	26724	0	316
34.728	40.858	8746	24906	0	316
34.656	39.199	8968	23088	0	316
33.105	37.613	9107	21156	0	316
30.761	35.413	9162	19338	0	316
26.506	31.662	9384	17520	0	316
22.286	27.840	9440	16044	0	316
18.320	24.991	9662	14566	0	316
18.211	25.568	9801	13203	0	316
19.870	26.974	9857	11953	0	316
22.899	29.102	9996	10930	0	316
24.342	29.246	9996	9907	0	316
24.306	28.309	10134	8998	0	316
21.818	26.181	10273	8203	0	316
20.303	25.279	10357	7748	0	316
20.483	27.227	10412	7748	0	316
21.998	29.751	10634	7748	0	316
24.775	32.816	10690	7521	0	316
28.164	35.990	10773	7294	1	316
32.095	39.776	10829	7294	0	316
36.062	42.842	10912	7521	0	316
38.262	46.556	11107	8089	0	316
39.993	46.989	11107	8771	0	316
39.488	46.989	11246	9453	0	316
37.757	45.691	11384	10134	0	316
37.108	44.537	11384	10816	0	316
35.377	45.402	11523	11384	0	316
33.393	43.887	11523	11725	0	316
30.292	39.524	11746	12180	0	316
24.342	30.905	11884	12748	0	316
17.274	22.178	11884	13203	0	316
9.665	15.759	12023	13430	0	316
6.167	12.838	12023	13657	0	316
6.347	15.759	12162	13657	0	316
12.045	19.293	12162	13771	0	316
16.913	21.277	12301	13884	0	316
20.014	21.421	12218	13998	0	316
19.726	18.644	12440	13998	0	316
17.959	15.507	12440	13998	0	316
17.021	13.451	12579	14112	0	316
16.805	11.215	12579	14225	0	316
16.084	10.242	12634	14225	0	316
14.821	9.376	12579	14112	0	316
16.192	9.448	12718	13884	0	316
20.303	12.946	12718	13657	0	316
24.666	14.821	12773	13430	0	316
28.417	16.913	12773	13203	0	316
28.020	16.733	12857	12748	0	316
25.388	16.192	12857	12521	0	316
23.549	17.166	12912	12521	0	316
24.775	20.375	12912	12862	0	316
26.542	22.214	12996	13089	0	316
26.289	22.575	13134	13544	0	316
23.801	19.942	12996	13998	0	316
19.582	16.697	13134	14566	0	316
15.795	15.435	13134	15134	0	316
13.704	15.218	13273	15703	0	316
13.920	14.677	13273	16157	0	316
12.009	12.045	13273	16611	0	316
10.458	10.025	13412	17065	0	316
7.862	7.753	13412	17634	0	316
8.330	9.520	13468	18088	0	316
10.025	13.523	13607	18315	0	316
14.100	16.300	13607	18656	0	316
18.860	18.969	13690	18656	0	316
21.457	19.546	13829	18656	0	316
21.132	20.519	13746	18543	0	316
20.916	21.096	13829	18656	0	316
20.555	22.863	13968	18656	0	316
21.998	24.919	13884	18656	0	316
25.640	26.109	14107	20929	0	316
27.191	25.712	14662	29793	0	316
28.273	24.991	15134	32767	0	316
26.686	24.739	15634	32767	0	316
27.263	26.506	15968	32767	0	316
27.804	31.482	16329	32767	0	316
28.922	35.233	16522	32767	0	316
29.174	36.387	16717	32767	0	316
25.965	33.466	16856	32767	0	316
23.332	29.643	16995	32767	0	316
21.132	25.171	17078	32767	0	316
20.411	25.784	17078	32767	0	316
20.952	24.955	16995	30702	0	316
22.467	24.630	17078	24906	0	316
21.168	21.890	16939	19111	0	316
18.716	18.716	16856	13544	0	316
16.697	17.057	16800	8203	0	316
16.300	17.670	16717	3544	0	316
18.031	20.772	16578	0	0	316
21.313	22.899	16439	0	0	316
23.657	26.181	16329	0	0	316
25.352	28.056	16246	0	0	316
27.047	32.059	16107	0	0	316
31.626	36.603	15968	0	0	316
34.331	37.793	15829	0	0	316
34.800	36.314	15690	0	0	316
30.184	30.220	15551	0	0	316
23.080	24.342	15634	0	1	316
16.300	19.077	15412	0	0	316
13.235	18.175	15357	0	0	316
12.550	19.401	15218	0	0	316
14.245	20.087	15218	0	0	316
14.749	20.772	15079	0	0	316
16.012	21.277	14996	0	0	316
17.598	21.709	15079	0	0	316
19.113	22.322	14940	0	0	316
21.962	23.512	14801	0	0	316
22.863	25.063	14801	930	0	316
23.404	26.614	14718	2862	0	316
23.296	27.984	14801	4907	0	316
21.890	29.895	14718	7180	0	316
23.404	29.968	14857	11953	0	316
24.306	30.076	15357	23202	0	316
24.270	28.597	15829	32767	0	316
25.712	28.525	16329	32767	0	316
26.181	29.499	16661	32767	0	316
29.427	32.853	16939	32767	0	316
32.492	36.062	17134	32767	0	316
34.764	36.819	17356	32767	0	316
32.853	33.357	17411	32767	0	316
28.381	27.479	17495	32767	0	316
24.234	22.899	17495	32767	0	316
23.224	23.765	17495	32767	0	316
25.027	27.335	17495	32767	0	316
28.705	30.797	17495	32767	0	316
29.066	31.013	17411	28429	0	316
27.624	26.289	17411	23656	0	316
25.424	23.080	17272	18770	0	316
24.775	25.099	17134	14453	0	316
27.624	31.482	17078	10475	0	316
31.987	38.983	16939	6725	0	316
33.610	42.229	16856	3316	0	316
30.761	36.819	16661	248	0	316
25.820	28.237	16522	0	0	316
21.745	21.024	16384	0	0	316
22.467	20.303	16329	0	0	316
26.181	24.198	16190	0	0	316
31.194	30.220	16051	0	0	316
33.718	35.521	15912	0	0	316
34.656	38.695	15912	0	0	316
35.233	41.255	15690	0	0	316
36.459	42.481	15634	0	0	316
36.603	42.770	15496	0	0	316
35.882	40.534	15357	0	0	316
33.357	38.803	15273	0	0	316
31.302	36.351	15218	0	0	316
28.164	35.593	15079	0	0	316
28.164	36.387	15134	0	0	316
30.292	39.235	14940	21	0	316
33.033	42.986	14857	1839	0	316
37.937	47.890	14857	3771	0	316
41.580	49.874	14801	5703	0	316
39.272	46.123	14801	7521	0	316
34.908	41.399	14718	9112	0	316
29.138	35.593	14662	10703	0	316
26.614	32.312	14662	12294	0	316
26.506	32.384	14579	13884	0	316
30.689	35.160	14718	15589	0	316
32.384	38.045	14579	17293	0	316
32.564	40.029	14579	19111	0	316
30.436	40.101	14662	20702	0	316
29.715	40.714	14718	22179	0	316
28.633	38.190	14718	23656	0	316
28.705	36.747	14718	25020	0	316
27.624	34.656	14801	26270	0	316
25.135	33.213	14801	27179	0	316
24.342	33.105	14857	27747	0	316
25.965	35.485	14857	27974	0	316
29.391	39.452	14857	27974	0	316
31.735	40.822	14940	27861	0	316
30.076	37.793	14940	27747	0	316
26.614	32.600	14996	27747	0	316
24.198	29.643	14996	27861	0	316
27.227	31.879	14996	28088	0	316
35.557	38.622	14996	27861	0	316
41.003	44.212	15079	27293	0	316
42.481	44.284	15079	26497	1	316
37.432	39.560	15134	25702	0	316
31.302	34.872	15134	24906	0	316
29.607	33.970	15134	24224	0	316
30.364	36.206	15134	23543	0	316
33.610	38.442	15218	22861	0	316
34.223	38.045	15218	22179	0	316
32.023	35.521	15218	21497	0	316
28.164	31.338	15357	21270	0	316
24.775	27.660	15273	21497	0	316
25.388	26.650	15357	21838	0	316
27.083	27.624	15357	22179	0	316
30.112	30.220	15412	22293	0	316
31.122	32.997	15496	22293	0	316
29.138	31.879	15496	22065	0	316
24.017	25.712	15551	21838	0	316
19.437	19.221	15690	21611	0	316
16.120	13.992	15634	21497	0	316
16.769	13.812	15690	21384	0	316
20.411	18.897	15773	21384	0	316
26.253	25.424	15773	21156	0	316
33.105	30.797	15773	20702	0	316
38.911	36.567	15829	19906	0	316
42.012	40.606	15829	18997	0	316
42.409	44.897	15912	18315	0	316
41.832	47.061	15912	17861	0	316
38.586	44.212	15912	17747	0	316
35.557	39.416	15912	17634	0	316
34.331	33.069	15968	17634	0	316
34.908	29.318	15968	17520	0	316
36.639	30.653	16107	17406	0	316
36.351	33.213	16190	17065	0	316
33.357	32.997	16107	16724	0	316
26.397	28.525	16107	16271	0	316
19.546	22.395	16107	15589	0	316
16.372	18.824	16107	15248	0	316
18.464	19.870	16107	15362	0	316
22.647	24.775	16190	15703	0	316
25.243	28.669	16190	15816	0	316
25.027	27.912	16190	15589	0	316
25.604	25.712	16190	15248	0	316
26.506	24.162	16190	14907	0	316
30.833	25.496	16190	14339	0	316
35.269	29.968	16190	13657	0	316
36.855	35.485	16190	12975	0	316
37.252	38.334	16107	12748	0	316
38.911	41.868	16190	12862	0	316
41.868	43.743	16190	12975	0	316
46.628	46.123	16190	12975	0	316
46.736	45.871	16190	12975	0	316
44.104	43.419	16190	12862	0	316
39.632	37.793	16190	12862	0	316
36.351	33.538	16190	12975	0	316
37.360	31.843	16190	13089	0	316
40.101	34.692	16190	13430	0	316
41.976	37.360	16190	13884	0	316
40.678	38.514	16190	14112	0	316
37.036	35.341	16190	14225	0	316
31.518	28.705	16190	14566	0	316
25.207	21.565	16190	14794	0	316
22.178	16.805	16190	15021	0	316
20.123	15.254	16190	15248	0	316
19.221	17.021	16190	15475	0	316
19.726	20.087	16190	15475	0	316
18.969	23.332	16190	15475	0	316
19.113	25.171	16190	15475	0	316
22.899	29.246	16246	15703	0	316
28.020	34.151	16246	15930	0	316
33.754	38.658	16246	15930	0	316
34.872	40.317	16190	15816	0	316
30.617	37.937	16190	15703	0	316
26.361	33.826	16190	15589	0	316
27.010	33.249	16190	15475	0	316
32.600	37.324	16190	15475	0	316
40.534	43.094	16190	15362	0	316
44.392	46.917	16107	15248	0	316
43.996	45.582	16107	15248	0	316
38.767	42.409	16107	15248	0	316
37.360	39.235	16107	15248	0	316
37.937	39.344	16107	15248	0	316
37.973	39.163	16051	15248	0	316
36.819	37.793	16051	15248	0	316
32.997	35.052	16107	15248	0	316
29.282	32.492	16107	15248	0	316
27.371	31.771	16107	15248	0	316
28.453	32.564	16051	15362	0	316
28.886	31.735	16051	15362	0	316
25.316	27.443	16051	15134	0	316
23.657	24.125	15968	14794	0	316
21.060	22.503	15968	14453	0	316
21.998	24.053	15968	14453	0	316
25.279	28.669	15912	14453	0	316
29.643	33.610	15912	14453	0	316
33.249	35.810	15968	14680	0	316
36.495	37.757	15968	14794	0	316
40.858	41.543	15912	14907	0	316
44.464	44.537	15912	15021	0	316
47.854	48.756	15912	15362	0	316
48.287	49.730	15829	15589	0	316
47.025	49.369	15829	15703	0	316
43.347	46.268	15829	15703	0	316
39.308	44.464	15912	15816	0	316
36.891	42.625	15829	16044	0	316
37.144	43.383	15829	16271	0	316
37.829	42.265	15829	16497	0	316
35.846	39.344	15829	16724	0	316
31.626	36.314	15829	17065	0	316
25.712	32.889	15829	17406	0	316
23.512	29.968	15912	17861	0	316
24.919	30.869	15968	18088	0	316
29.859	31.915	15912	18429	0	316
32.023	33.249	15968	18997	0	316
31.771	34.043	15968	19679	0	316
28.777	32.708	15968	20247	0	316
27.263	32.167	16051	20588	0	316
29.246	32.528	16051	20815	0	316
32.708	33.285	16051	21043	0	316
36.819	35.990	16107	21156	0	316
37.901	38.478	16190	20929	0	316
38.514	39.055	16190	20702	0	316
38.731	38.803	16190	20474	0	316
38.695	39.885	16190	20247	0	316
39.524	40.966	16190	19793	0	316
40.101	42.084	16190	19224	0	316
40.029	43.887	16190	18770	0	316
39.127	43.671	16190	18429	0	316
40.137	39.524	16246	18202	0	316
39.272	34.872	16246	17974	0	316
36.711	28.453	16246	17974	0	316
33.033	24.739	16246	18088	0	316
30.364	26.073	16329	18315	0	316
32.167	32.853	16329	18656	0	316
36.278	41.688	16329	18770	0	316
42.986	47.926	16384	18884	0	316
43.347	46.051	16384	18997	0	316
37.937	39.488	16439	18997	0	316
31.807	30.400	16439	18770	0	316
26.001	26.325	16439	18429	0	316
27.047	26.542	16439	17861	0	316
30.112	31.879	16439	17179	0	316
34.908	35.737	16439	16384	0	316
36.819	40.462	16439	15703	0	316
38.334	42.589	16439	15248	0	316
38.911	43.707	16439	15021	0	316
40.786	45.258	16439	15021	0	316
40.894	45.943	16439	14680	0	316
41.147	47.205	16439	14339	0	316
40.101	49.657	16439	14225	0	316
41.327	50.775	16439	14112	0	316
45.330	53.552	16384	13998	0	316
50.739	55.644	16384	13657	0	316
55.896	57.988	16384	13089	0	316
56.257	57.158	16329	12407	0	316
52.362	53.805	16329	11725	0	316
47.169	49.044	16246	11384	0	316
44.789	46.232	16246	11157	0	316
44.284	47.818	16190	11044	0	316
47.494	51.749	16190	11044	0	316
47.962	53.336	16190	11271	0	316
46.340	50.307	16107	11612	0	316
41.147	43.419	16107	12180	0	316
33.502	35.629	16107	12975	0	316
29.751	32.456	16107	13884	0	316
28.489	33.718	16107	14680	0	316
33.321	38.803	16107	15248	0	316
38.622	42.445	16190	15816	0	316
41.399	44.068	16329	16384	0	316
41.832	41.616	16246	16838	0	316
40.281	39.849	16246	17406	0	316
40.245	39.452	16246	17974	0	316
43.238	41.616	16246	18202	0	316
44.356	42.950	16246	18202	0	316
46.809	45.943	16246	18088	0	316
48.395	48.828	16246	18088	0	316
53.336	52.506	16246	18315	0	316
59.034	56.906	16246	18429	0	316
64.046	60.332	16329	18429	0	316
63.758	58.348	16329	18429	0	316
60.368	53.155	16329	18429	0	316
54.165	46.268	16329	18543	0	316
49.044	39.019	16329	18656	0	316
45.474	34.800	16329	18770	0	316
41.255	32.961	16329	18884	0	316
38.442	33.934	16384	18770	0	316
34.006	34.764	16384	18543	0	316
32.961	36.026	16384	18088	0	316
33.502	38.406	16329	17406	0	316
35.665	39.452	16329	16724	0	316
37.793	41.255	16329	16157	0	316
40.281	43.455	16329	15703	0	316
39.272	43.671	16246	15248	0	316
38.550	42.193	16246	15021	0	316
35.882	39.740	16246	14794	0	316
33.934	35.377	16246	14794	0	316
33.718	31.590	16246	15021	0	316
35.954	31.122	16246	15248	0	316
41.399	34.151	16246	15248	0	316
48.179	39.740	16246	15362	0	316
52.290	46.484	16246	15703	0	316
55.067	52.506	16246	16044	0	316
56.653	54.778	16329	16271	0	316
56.581	55.067	16329	16611	0	316
57.339	53.444	16329	17179	0	316
57.014	51.749	16384	17747	0	316
55.139	50.884	16384	17974	0	316
52.903	51.064	16384	17861	0	316
51.172	51.172	16384	17406	0	316
50.703	51.569	16329	16724	0	316
51.929	50.559	16329	16157	0	316
51.821	47.854	16329	15589	0	316
50.992	45.186	16329	15362	0	316
47.710	42.120	16246	15248	0	316
44.392	41.435	16246	14907	0	316
39.812	41.075	16246	14453	0	316
37.144	40.606	16246	14339	0	316
36.387	41.471	16190	14339	0	316
39.127	41.724	16190	14339	0	316
43.022	44.392	16190	14339	0	316
48.431	51.028	16190	14453	0	316
54.129	57.916	16190	14680	0	316
56.762	61.269	16190	15134	0	316
54.850	61.125	16190	15703	0	316
53.191	56.978	16190	16271	0	316
49.549	52.506	16190	16497	0	316
49.008	52.723	16190	16838	0	316
52.434	56.149	16190	17065	0	316
56.726	61.486	16190	17520	0	316
57.916	61.738	16246	17861	0	316
58.060	60.224	16246	18315	0	316
55.247	57.988	16246	18543	0	316
54.995	57.771	16329	18770	0	316
57.303	61.666	16384	18884	0	316
59.430	63.902	16384	18997	0	316
60.945	63.397	16384	18997	0	316
58.132	58.060	16384	18543	0	316
53.191	52.903	16384	18202	0	316
47.746	50.090	16384	18088	0	316
46.159	51.569	16384	18315	0	316
48.323	54.995	16439	18656	0	316
53.732	57.050	16439	18656	0	316
59.647	58.204	16384	18543	0	316
61.486	55.824	16384	18202	0	316
60.440	55.427	16384	17861	0	316
57.699	57.447	16384	17634	0	316
57.699	61.522	16384	17406	0	316
59.466	67.472	16384	17179	0	316
63.433	69.672	16384	16724	0	316
64.803	67.688	16384	16271	0	316
64.118	62.387	16384	15816	0	316
61.666	56.762	16384	15703	0	316
60.584	55.824	16384	15703	0	316
61.233	57.122	16384	15589	0	316
61.486	60.332	16329	15021	0	316
62.135	59.178	16384	14339	0	316
60.043	54.165	16384	13771	0	316
57.158	47.133	16329	13203	0	316
54.165	42.120	16329	12748	0	316
49.802	39.524	16246	12407	0	316
48.503	40.534	16246	12407	0	316
46.556	42.409	16246	12634	0	316
46.917	42.734	16329	13089	0	316
48.756	43.887	16246	13657	0	316
47.602	43.166	16246	14453	0	316
44.969	43.815	16246	15362	0	316
41.940	43.347	16246	16044	0	316
38.695	43.887	16329	16497	0	316
39.668	44.212	16329	16952	0	316
42.373	46.700	16329	17293	0	316
46.159	47.422	16329	17520	0	316
46.845	48.720	16329	17634	0	316
46.268	47.818	16329	17747	0	316
43.815	46.412	16329	17861	0	316
40.750	44.032	16329	17974	0	316
38.045	42.589	16384	17974	0	316
36.783	40.822	16384	18202	0	316
36.134	39.380	16384	18543	0	316
36.964	39.091	16439	18997	0	316
38.370	39.091	16439	19224	0	316
38.875	36.423	16439	19338	0	316
37.937	32.672	16522	19452	0	316
35.665	29.643	16522	19679	0	316
34.800	26.650	16522	19679	0	316
35.305	29.066	16522	19452	0	316
37.324	33.646	16522	18997	0	316
38.478	37.396	16522	18202	0	316
39.668	39.235	16522	17293	0	316
38.839	40.101	16439	16384	1	1144
38.911	41.688	16522	15816	0	1144
40.894	46.268	16522	15589	0	1144
44.717	50.523	16522	15589	0	1144
46.809	54.345	16522	15816	0	1144
47.205	51.641	16439	16044	0	1144
45.402	46.123	16439	16157	0	1144
39.704	39.596	16439	16044	0	1144
34.115	34.908	16439	15703	0	1144
28.273	33.033	16439	15475	0	1144
24.775	32.925	16439	15362	0	1144
23.332	32.312	16439	15134	0	1144
24.234	30.941	16439	15021	0	1144
29.138	30.869	16439	15021	0	1144
30.508	30.292	16439	15134	0	1144
31.590	30.328	16439	15248	0	1144
28.850	26.433	16439	15134	0	1144
24.162	23.152	16384	14907	0	1144
22.539	18.464	16384	14794	0	1144
23.621	19.510	16384	14794	0	1144
28.128	24.522	16384	14794	0	1144
31.879	31.662	16384	14794	0	1144
32.853	33.826	16384	14794	0	1144
31.338	33.502	16384	14907	0	1144
31.482	32.889	16384	15248	0	1144
33.790	36.134	16384	15589	0	1144
39.957	42.265	16384	16044	0	1144
47.277	48.107	16384	16384	0	1144
47.530	46.195	16439	16611	0	1144
44.212	40.317	16439	16952	0	1144
38.190	33.610	16439	17065	0	1144
32.925	31.482	16439	17179	0	1144
30.508	34.547	16439	17293	0	1144
31.771	38.118	16439	17293	0	1144
31.194	39.596	16439	17406	0	1144
29.859	37.721	16439	17406	0	1144
28.273	35.665	16522	17520	0	1144
30.508	34.872	16522	17861	0	1144
33.934	36.206	16522	18088	0	1144
36.855	35.882	16522	18088	0	1144
36.675	33.177	16522	18088	0	1144
31.879	25.712	16578	18202	0	1144
27.515	22.106	16578	18315	0	1144
24.739	21.565	16578	18315	0	1144
26.145	26.325	16578	18202	0	1144
27.191	30.797	16578	17861	0	1144
26.938	31.771	16578	17293	0	1144
23.837	27.299	16578	16838	0	1144
21.457	25.496	16578	16384	0	1144
23.440	26.289	16578	16044	0	1144
25.460	29.931	16522	15703	0	1144
28.164	32.564	16522	15475	0	1144
26.470	31.771	16522	15248	0	1144
22.719	27.948	16522	15021	0	1144
17.887	25.352	16439	14794	0	1144
14.966	24.486	16439	14680	0	1144
14.425	23.404	16439	14453	0	1144
12.117	22.214	16439	14225	0	1144
9.665	17.598	16439	13998	0	1144
6.383	13.018	16384	13657	0	1144
5.517	12.225	16384	13316	0	1144
8.114	13.812	16384	13203	0	1144
13.054	19.618	16329	13203	0	1144
18.680	25.424	16329	13316	0	1144
23.657	30.364	16329	13316	0	1144
26.145	33.718	16329	13544	0	1144
27.551	33.177	16329	13771	0	1144
28.777	33.321	16246	14112	0	1144
28.777	31.771	16246	14453	0	1144
27.443	31.158	16246	14907	0	1144
27.515	32.131	16246	15362	0	1144
27.371	35.413	16246	15589	0	1144
29.174	38.658	16329	15589	0	1144
32.203	40.894	16329	15703	0	1144
34.439	41.183	16329	16044	0	1144
34.872	41.543	16329	16384	0	1144
33.862	40.281	16329	16838	0	1144
32.528	39.560	16329	17293	0	1144
31.699	38.118	16329	17747	0	1144
30.184	37.144	16329	17861	0	1144
29.354	35.088	16329	17861	0	1144
25.099	32.384	16329	17861	0	1144
21.781	27.624	16384	17974	0	1144
17.815	24.162	16384	18088	0	1144
15.182	21.890	16384	18202	0	1144
13.992	20.664	16384	18202	0	1144
12.946	22.395	16384	18429	0	1144
12.297	21.962	16384	18543	0	1144
12.514	21.673	16384	18656	0	1144
14.858	22.791	16384	18543	0	1144
17.093	26.325	16384	18429	0	1144
18.969	28.561	16384	18202	0	1144
19.978	29.210	16439	17974	0	1144
21.096	29.679	16439	18088	0	1144
23.657	30.508	16439	18202	0	1144
27.191	33.466	16439	18429	0	1144
31.410	36.855	16522	18543	0	1144
33.466	37.937	16522	18656	0	1144
33.502	37.144	16522	18543	0	1144
31.085	33.862	16522	18202	0	1144
28.633	31.879	16439	17520	0	1144
23.981	29.282	16439	16724	0	1144
18.824	26.325	16384	16271	0	1144
14.713	22.322	16384	16044	0	1144
11.396	18.969	16384	16044	0	1144
11.215	16.264	16439	16044	0	1144
11.071	16.120	16384	15930	0	1144
11.756	15.543	16384	15816	0	1144
11.937	16.192	16384	15589	0	1144
12.874	17.057	16384	15134	0	1144
14.100	18.500	16384	14794	0	1144
16.877	20.339	16384	14794	0	1144
20.014	21.349	16384	14794	0	1144
21.024	20.664	16384	14794	0	1144
22.286	19.473	16384	14680	0	1144
22.575	19.870	16329	14566	0	1144
24.089	20.591	16329	14339	0	1144
24.847	23.765	16329	13998	0	1144
25.748	26.758	16246	13884	0	1144
26.794	29.427	16329	13998	0	1144
26.145	31.230	16329	14225	0	1144
26.866	32.348	16329	14453	0	1144
28.237	34.079	16329	14680	0	1144
30.653	35.665	16329	14794	0	1144
32.167	35.918	16329	15134	0	1144
30.581	33.466	16329	15589	0	1144
23.368	27.660	16329	16271	0	1144
16.733	19.582	16384	16838	0	1144
8.835	15.579	16384	17293	0	1144
7.789	16.480	16384	17406	0	1144
10.710	20.664	16384	17406	0	1144
15.435	24.162	16384	17520	0	1144
17.021	22.503	16384	17634	0	1144
14.389	17.706	16384	17634	0	1144
11.828	11.864	16384	17747	0	1144
10.025	11.107	16384	18088	0	1144
12.117	13.054	16439	18429	0	1144
17.779	19.005	16439	18770	0	1144
22.755	22.647	16439	18997	0	1144
26.253	25.965	16522	19224	0	1144
25.820	26.361	16522	19111	0	1144
24.883	27.912	16522	18884	0	1144
22.719	29.535	16522	18543	0	1144
23.729	31.879	16439	18088	0	1144
26.109	35.197	16439	17406	1	576
29.354	37.468	16439	16838	0	576
33.177	38.118	16384	16384	0	576
33.429	37.613	16384	16044	0	576
30.833	35.233	16384	15703	0	576
26.361	31.662	16384	15362	0	576
19.834	27.876	16384	15134	0	576
15.038	25.027	16384	15021	0	576
13.054	22.719	16329	14794	0	576
13.884	22.178	16329	14453	0	576
16.264	20.844	16329	14225	0	576
16.769	21.745	16329	14112	0	576
15.723	19.293	16329	14112	0	576
13.415	16.264	16329	14112	0	576
11.612	15.074	16329	13771	0	576
13.091	14.605	16329	13544	0	576
16.228	15.795	16246	13544	0	576
20.627	20.087	16246	13771	0	576
25.352	25.171	16246	13998	0	576
27.227	28.020	16246	14112	0	576
30.292	32.348	16246	14112	0	576
31.446	33.357	16190	13998	0	576
34.151	33.826	16190	13998	0	576
36.278	33.610	16190	14225	0	576
37.360	35.160	16190	14680	0	576
35.990	36.206	16190	15021	0	576
32.384	36.170	16107	15134	0	576
27.948	34.656	16107	15248	0	576
24.955	28.850	16107	15589	0	576
23.044	22.503	16107	15816	0	576
21.277	16.733	16107	15930	0	576
19.762	12.766	16107	16157	0	576
15.146	10.350	16107	16384	0	576
9.340	6.780	16107	16611	0	576
5.734	4.652	16107	16724	0	576
4.255	1.767	16246	16952	0	576
5.121	0.649	16190	17406	0	576
10.097	3.534	16190	17861	0	576
12.514	8.655	16190	18202	0	576
13.595	13.054	16190	18770	0	576
12.441	13.595	16246	19224	0	576
13.054	14.100	16246	19679	0	576
13.235	12.153	16246	20020	0	576
17.670	14.028	16246	20134	0	576
22.503	17.274	16329	20134	0	576
28.164	24.847	16329	19906	0	576
31.699	28.958	16329	19679	0	576
32.312	30.653	16329	19338	0	576
30.472	27.984	16329	19111	0	576
27.083	25.893	16329	18997	0	576
26.686	24.558	16329	18997	0	576
26.506	26.758	16384	18770	0	576
27.840	27.804	16384	18429	0	576
26.686	27.551	16384	17974	0	576
22.863	22.034	16384	17861	0	576
18.716	18.103	16384	17747	0	576
16.408	17.310	16384	17634	0	576
16.264	18.536	16384	17634	0	576
16.877	20.195	16384	17747	0	576
17.057	18.572	16439	17747	0	576
15.290	14.497	16439	17974	0	576
12.694	12.117	16522	18429	0	576
11.900	10.386	16522	18884	0	576
11.612	13.415	16522	18997	0	576
14.136	17.129	16578	18884	0	576
16.841	19.942	16578	18656	0	576
19.473	21.385	16578	18429	0	576
21.962	22.358	16578	17974	0	576
24.558	22.755	16578	17293	0	576
27.732	26.397	16578	16838	0	576
30.761	29.030	16522	16384	0	576
34.439	32.925	16578	15930	0	576
36.278	34.620	16578	15134	0	576
35.810	34.872	16578	14339	0	576
33.141	33.682	16522	13998	0	576
30.472	33.502	16522	13884	0	576
29.282	32.816	16522	13998	0	576
28.092	32.456	16522	14225	0	576
28.092	30.545	16522	14566	0	576
25.568	26.974	16522	14794	1	316
23.116	23.909	16522	15021	0	316
19.906	21.385	16522	15248	0	316
18.139	20.952	16522	15362	0	316
17.490	21.277	16522	15362	0	316
17.202	19.726	16522	15475	0	316
16.192	17.634	16578	15703	0	316
14.966	12.802	16578	16044	0	316
13.776	9.304	16578	16157	0	316
13.559	9.196	16578	16271	0	316
14.281	10.999	16578	16271	0	316
18.320	18.320	16578	16044	0	316
23.224	25.388	16578	15703	0	316
27.732	28.777	16578	15589	0	316
29.787	28.056	16578	15816	0	316
30.725	22.863	16578	16157	0	316
29.751	17.310	16661	16384	0	316
30.472	17.274	16661	16497	0	316
34.403	21.926	16578	16611	0	316
38.298	25.424	16578	16724	0	316
37.721	27.840	16800	18997	0	316
34.800	24.162	17217	27974	0	316
26.902	18.031	17772	32767	0	316
22.827	14.533	18189	32767	0	316
21.745	15.651	18606	32767	0	316
20.664	19.005	18884	32767	0	316
20.700	21.313	19022	32767	0	316
18.608	20.700	19217	32767	0	316
17.382	20.591	19356	32767	0	316
19.654	19.257	19300	32767	0	316
23.945	19.762	19356	32767	0	316
26.397	21.818	19217	32767	0	316
27.948	22.539	19300	27747	0	316
26.217	22.467	19161	21497	0	316
25.099	22.395	18939	15589	0	316
23.837	23.044	18939	9794	0	316
24.125	22.142	18745	4112	0	316
24.486	23.116	18522	0	0	316
24.270	24.125	18328	0	0	316
26.037	26.397	18189	0	0	316
27.083	28.201	18050	0	0	316
28.777	28.633	17828	0	0	316
29.571	27.876	17689	0	0	316
28.994	27.551	17495	0	0	316
27.479	24.666	17356	0	0	316
23.404	22.972	17217	0	0	316
20.087	20.591	17078	0	0	316
16.120	18.283	16939	0	0	316
12.514	15.038	16800	0	0	316
13.199	13.776	16661	0	0	316
17.021	14.497	16439	0	0	316
22.358	14.713	16329	0	0	316
25.279	17.706	16190	0	0	316
26.181	17.202	16107	0	0	316
23.693	19.113	16051	0	0	316
20.916	18.320	15968	0	0	316
19.690	20.339	15829	0	0	316
19.185	22.431	15773	475	0	316
20.555	22.575	15690	3089	0	316
22.755	21.637	15634	5589	0	316
26.145	21.493	15634	8316	0	316
31.013	23.512	15690	11044	0	316
34.115	26.902	15634	13544	0	316
36.134	31.446	15551	15703	0	316
35.485	34.583	15551	17520	0	316
34.620	35.882	15551	19338	0	316
33.069	33.718	15551	21043	0	316
31.699	30.905	15551	22634	0	316
28.381	26.109	15551	23997	0	316
25.568	20.231	15551	25134	0	316
20.519	17.129	15634	25815	0	316
16.048	15.254	15551	26270	0	316
14.100	17.310	15551	26497	0	316
14.208	17.670	15551	26724	0	316
15.038	18.356	15551	26724	0	316
16.012	18.139	15551	26724	0	316
16.012	16.589	15551	26611	0	316
14.858	15.723	15551	26611	0	316
12.369	15.867	15551	26497	0	316
12.658	15.507	15551	26270	1	316
12.874	14.389	15690	26270	0	316
16.012	16.589	15634	26497	0	316
17.382	18.283	15634	26838	0	316
20.664	20.627	15690	27179	0	316
22.142	22.503	15690	27293	0	316
22.755	22.899	15690	27065	0	316
22.250	19.185	15829	26611	0	316
22.899	16.985	15829	26270	0	316
22.683	15.579	15829	25929	0	316
23.585	15.939	15912	25815	0	316
24.775	19.329	15912	25702	0	316
25.712	20.627	15912	25588	0	316
23.440	22.827	15968	25361	0	316
21.349	22.395	16051	24906	0	316
18.031	22.250	16190	24224	0	316
16.012	21.096	16107	23429	0	316
15.831	21.781	16107	22747	0	316
16.661	19.113	16107	22065	0	316
17.779	18.139	16190	21384	0	316
18.283	17.057	16190	20815	0	316
16.552	16.733	16190	20361	0	316
13.307	15.507	16190	20020	0	316
12.009	15.795	16246	19338	0	316
11.720	16.156	16246	18543	0	316
13.992	16.372	16246	17747	0	316
13.776	15.651	16190	16838	0	316
13.415	13.199	16190	16044	0	316
10.674	10.819	16190	15134	0	316
8.799	9.917	16190	14453	0	316
10.999	12.802	16190	13998	0	316
15.723	18.788	16190	13657	0	316
19.618	24.702	16190	13430	0	316
21.890	28.056	16190	13203	0	316
20.700	25.965	16190	12862	0	316
19.618	25.640	16190	12634	0	316
18.824	26.433	16190	12634	0	316
20.483	28.381	16190	12862	0	316
22.034	31.843	16190	13089	0	316
23.440	33.177	16190	13089	0	316
21.926	29.895	16107	13089	0	316
19.041	26.433	16107	12975	0	316
16.625	23.729	16107	13089	0	316
15.146	21.673	16107	13316	0	316
13.343	20.195	16107	13657	0	316
12.009	18.283	16107	13998	0	316
11.360	15.362	16107	14453	0	316
10.710	12.766	16107	14907	0	316
12.514	13.271	16190	15362	0	316
15.903	15.471	16190	15589	0	316
17.634	18.933	16246	15703	0	316
16.913	22.431	16190	15703	0	316
13.848	22.142	16190	15703	0	316
10.386	21.241	16190	15362	0	316
8.943	18.897	16107	14794	0	316
10.746	16.985	16107	14339	0	316
14.677	17.202	16051	14225	0	316
19.329	16.589	16051	14453	0	316
22.539	18.320	16051	14794	0	316
24.702	21.601	16051	15134	0	316
26.397	25.243	16051	15475	0	316
25.856	28.453	16051	15589	0	316
25.676	28.994	16051	15703	0	316
23.188	28.741	16246	17861	0	316
20.880	24.919	16661	27065	0	316
18.644	23.116	17411	32767	0	316
19.185	20.411	18245	32767	0	316
23.080	20.123	19161	32767	0	316
26.109	22.395	19995	32767	0	316
27.948	24.991	20467	32767	0	316
28.489	26.433	21022	32767	0	316
27.119	26.758	21300	32767	0	316
26.109	25.279	21717	32767	0	316
28.020	21.998	22495	32767	0	316
29.246	23.476	23467	32767	0	316
28.958	24.270	24356	32767	0	316
27.191	24.198	25189	32767	0	316
24.017	24.306	26245	32767	0	316
20.303	21.926	27495	32767	0	316
17.093	19.329	28661	32767	0	316
14.749	17.021	30134	32767	0	316
13.091	13.992	31717	32767	0	316
10.783	11.720	32768	32767	0	316
9.520	9.412	32768	32767	0	316
7.681	7.465	32768	32767	0	316
6.094	7.140	32768	32767	0	316
5.445	6.094	32768	32767	0	316
5.049	5.373	32768	32767	0	316
4.508	6.527	32768	32767	0	316
6.275	7.429	32768	32767	0	316
7.104	8.619	32768	32767	1	360
7.825	10.061	32768	32767	0	360
10.242	11.179	32768	32767	0	360
12.117	11.504	32768	32767	0	360
15.254	13.199	32768	32767	0	360
17.887	15.471	32768	32767	0	360
20.195	15.759	32768	32767	0	360
20.880	16.625	32768	32767	0	360
23.585	18.860	32768	32767	0	360
25.929	20.159	32768	26043	0	360
28.453	23.945	32768	13998	0	360
29.463	26.037	32768	0	0	360
27.804	27.371	32768	0	0	360
23.152	25.532	32768	0	0	360
18.428	20.736	32768	0	0	360
13.379	17.129	32768	0	0	360
9.773	10.602	32768	0	0	360
7.789	7.681	32768	0	0	360
6.852	5.373	32768	0	0	360
6.311	5.373	32768	0	0	360
6.563	6.419	32768	0	0	360
5.878	7.465	32768	0	0	360
6.131	7.321	32768	0	0	360
5.698	5.662	32768	0	0	360
4.111	5.698	32768	0	0	360
2.993	6.239	32768	0	0	360
6.347	9.088	32768	0	0	360
11.828	14.641	32768	0	0	360
19.762	20.916	32768	0	0	360
25.965	25.352	32768	0	0	360
29.895	28.453	32768	0	0	360
29.931	28.525	32768	0	0	360
30.076	28.237	32768	0	0	360
31.013	26.109	32768	0	0	360
29.463	27.263	32768	0	0	360
27.912	25.929	32768	0	0	360
24.162	23.224	32768	5248	0	360
18.860	18.824	32768	25474	0	360
13.631	14.281	32768	32767	0	360
10.927	9.953	32768	32767	0	360
8.583	7.681	32768	32767	0	360
8.475	5.806	32768	32767	0	360
8.222	3.967	32768	32767	0	360
7.862	1.911	32768	32767	0	360
5.590	0.252	32768	32767	0	360
3.390	0.613	32768	32767	0	360
2.524	0.685	32768	32767	0	360
3.931	2.957	32768	32767	0	360
6.419	4.436	32768	32767	0	360
10.350	7.212	32768	32767	0	360
14.100	10.963	32768	32767	0	360
16.769	14.894	32768	32767	0	360
20.447	19.690	32768	32767	0	360
25.856	22.863	32768	32767	0	360
33.033	24.883	32768	32767	0	360
37.613	28.561	32768	32767	0	360
40.642	29.102	32768	32767	0	360
37.144	29.066	32768	20247	0	360
30.689	26.866	32768	0	0	360
25.207	23.909	32768	0	0	360
20.700	21.457	32768	0	0	360
19.510	19.041	32768	0	0	360
19.329	17.418	32768	0	0	360
18.283	15.254	32768	0	0	360
16.444	12.874	32768	0	0	360
14.713	8.979	32768	0	0	360
12.514	6.780	32768	0	0	360
10.855	5.085	32768	0	0	360
8.943	3.570	32768	0	0	360
9.088	7.104	32768	0	0	360
9.340	9.124	32768	0	0	360
12.153	14.569	31800	0	0	360
15.435	16.589	30272	0	0	360
18.860	19.690	29022	0	0	360
22.431	22.178	27634	0	0	360
25.965	22.467	26522	0	0	360
28.850	24.234	25411	0	0	360
31.807	27.407	24634	0	0	360
34.187	29.968	24078	0	0	360
36.062	34.115	23661	0	1	316
37.360	35.918	22967	0	0	316
36.603	35.088	22078	0	0	316
33.321	30.905	21245	0	0	316
28.056	27.083	20689	0	0	316
23.440	22.106	20550	0	0	316
20.123	19.329	20467	0	0	316
19.293	17.887	20550	6612	0	316
19.690	16.841	20411	23202	0	316
18.933	13.992	20328	32767	0	316
17.706	10.963	20272	32767	0	316
15.759	8.475	20134	32767	0	316
15.074	6.527	19911	32767	0	316
13.956	7.176	20134	32767	0	316
14.497	10.097	20272	32767	0	316
12.802	9.665	20745	32767	0	316
13.415	9.196	21022	32767	0	316
14.533	10.458	21300	32767	0	316
17.454	11.107	21384	32767	0	316
20.591	13.595	21661	32767	0	316
22.575	16.697	22078	32767	0	316
21.962	16.516	22356	32767	0	316
22.034	15.831	22411	32767	0	316
21.854	15.435	22550	32767	0	316
24.162	17.274	22772	32767	0	316
25.316	19.473	23189	32767	0	316
26.325	19.762	23328	32767	0	316
25.027	21.781	23189	32767	0	316
25.243	21.024	22550	32767	0	316
25.532	19.978	21717	32767	0	316
25.929	18.680	21022	25474	0	316
23.909	15.615	20328	8771	0	316
21.277	11.143	19717	0	0	316
17.706	7.753	19161	0	0	316
16.913	7.862	18800	0	0	316
18.392	12.045	18745	0	0	316
22.863	19.221	18884	0	0	316
26.253	25.171	19078	2294	0	316
29.066	29.679	19578	16271	0	316
28.273	27.696	19995	31043	0	316
24.955	22.647	20689	32767	0	316
20.123	18.536	21106	32767	0	316
15.471	16.480	21439	32767	0	316
12.874	14.353	21661	32767	0	316
11.215	14.028	21800	32767	0	316
8.691	12.189	21800	32767	0	316
7.465	8.871	21717	32767	0	316
7.645	8.114	21717	32767	0	316
10.278	9.412	22078	32767	0	316
14.533	11.360	22217	32767	0	316
18.716	14.425	21995	32767	0	316
18.356	14.569	21300	22179	0	316
15.507	14.028	20328	0	0	316
12.333	11.504	19161	0	0	316
9.737	8.402	17967	0	0	316
9.412	7.645	17134	0	0	316
12.694	10.710	16107	0	0	316
17.779	15.002	14857	0	0	316
21.818	20.267	13468	0	0	316
25.748	22.358	12162	0	0	316
26.506	22.286	10912	0	0	316
24.306	18.320	9440	0	0	316
20.808	15.831	7773	0	0	316
18.860	15.110	6051	0	0	316
19.726	15.326	4384	0	0	316
21.926	15.362	3051	0	0	316
24.811	15.795	1662	0	0	316
25.893	15.759	412	0	0	316
24.955	13.451	1	0	0	316
20.736	11.107	1	0	0	316
16.012	9.376	1	0	0	316
14.533	7.934	1	0	0	316
15.182	9.989	1	0	0	316
19.942	16.264	1	0	0	316
24.919	21.241	1	0	0	316
28.705	24.378	1	0	0	316
26.866	24.522	1	0	0	316
24.702	22.791	1	0	0	316
22.431	21.060	1	0	0	316
21.854	20.772	1	0	1	316
23.476	22.503	1	0	0	316
23.945	23.224	1	0	0	316
23.801	24.883	1	0	0	316
23.981	24.919	1	0	0	316
22.575	23.368	1	14680	0	316
21.962	19.978	1	31270	0	316
21.998	18.103	1	32767	0	316
24.775	18.788	1	32767	0	316
27.551	24.342	1	32767	0	316
30.581	27.804	1	32767	0	316
32.744	30.112	1	32767	0	316
28.309	25.929	1	32767	0	316
22.935	19.437	1	32767	0	316
16.697	14.317	1	32767	0	316
11.973	8.943	1	32767	0	316
13.235	9.592	1	32767	0	316
15.939	10.386	1	32767	0	316
19.978	12.261	1	32767	0	316
22.683	14.245	1523	32767	0	316
21.926	15.975	3134	32767	0	316
21.962	15.110	4718	32767	0	316
22.827	14.353	6607	32767	0	316
26.145	15.398	8690	32767	0	316
28.056	16.372	10968	32767	0	316
27.912	17.598	13273	32767	0	316
25.676	20.880	15634	32767	0	316
25.171	24.378	17967	32767	0	316
25.027	28.345	20411	32767	0	316
27.840	30.905	22634	32767	0	316
29.102	31.735	24995	32767	0	316
29.138	30.508	27134	32767	0	316
29.210	30.256	29217	32767	0	316
28.092	28.597	31161	32767	0	316
28.128	28.381	32768	32767	0	316
25.099	24.811	32768	32767	0	316
21.673	19.113	32768	32767	0	316
18.356	14.172	32768	32767	0	316
18.103	12.622	32768	32767	0	316
20.339	14.425	32768	32767	0	316
22.503	17.923	32768	32767	0	316
23.080	19.293	32768	32767	0	316
19.762	17.093	32768	32767	0	316
15.939	10.314	32768	13771	0	316
13.668	5.409	32768	0	0	316
11.323	2.056	32768	0	0	316
11.035	1.010	32768	0	0	316
10.819	1.479	32768	0	0	316
9.953	2.308	32768	0	0	316
13.379	4.291	32768	0	0	316
18.320	9.917	32768	0	0	316
22.827	15.362	32768	0	0	316
26.397	21.385	32768	0	0	316
29.210	25.568	32768	0	0	316
29.535	27.191	32768	0	0	316
30.977	28.164	32768	0	0	316
30.869	26.145	32768	0	0	316
31.374	24.594	32768	0	0	316
30.869	21.529	32768	0	0	316
31.915	20.988	32768	0	0	316
31.807	19.690	32768	0	0	316
30.220	19.690	32768	0	0	316
24.053	16.300	32768	0	0	316
19.293	12.333	32768	0	0	316
16.084	8.330	32768	0	0	316
15.723	8.042	32768	0	0	316
17.057	7.789	32768	0	0	316
14.605	8.042	32768	0	0	316
9.484	4.977	32768	0	0	316
4.724	0.541	32768	0	0	316
3.101	-5.265	32768	0	0	316
7.681	-5.842	32768	0	0	316
13.776	-3.390	32768	0	0	316
16.661	1.911	32768	0	0	316
17.995	8.150	32768	0	0	316
17.382	11.360	32768	0	0	316
16.733	14.389	32768	0	0	316
17.166	13.199	32768	0	0	316
17.274	10.638	32768	0	0	316
17.021	10.494	32768	0	1	316
19.221	11.071	32768	0	0	316
20.736	13.487	32768	0	0	316
23.729	14.785	32768	0	0	316
22.395	13.812	32768	0	0	316
18.464	9.484	32768	0	0	316
12.946	5.121	32768	0	0	316
9.196	2.669	32768	1157	0	316
7.104	-1.587	32768	3316	0	316
8.691	-3.678	32550	5248	0	316
9.629	-5.662	32411	7066	0	316
11.973	-3.931	32134	8657	0	316
12.874	-2.128	31939	9907	0	316
11.287	-0.721	31578	10703	0	316
8.258	-4.147	31300	11384	0	316
5.013	-8.547	31022	11725	0	316
5.986	-11.756	30745	12066	0	316
9.484	-7.032	30550	12407	0	316
16.552	-0.505	30272	12975	0	316
21.204	6.167	30134	13544	0	316
19.005	5.914	29772	14112	0	316
13.523	0.974	29578	14566	0	316
8.006	-3.895	29356	14907	0	316
8.511	-6.671	29078	15134	0	316
11.684	-3.895	28939	15248	0	316
16.444	-1.334	28606	15362	0	316
17.959	0.325	28384	15475	0	316
17.598	1.010	28189	15475	0	316
17.310	3.101	27967	15362	0	316
18.897	6.924	27828	15589	0	316
20.664	9.484	27550	15703	0	316
19.221	9.953	27272	15589	0	316
15.182	3.931	27134	15589	0	316
10.242	-2.777	26939	15816	0	316
7.068	-8.979	26717	16271	0	316
5.517	-13.776	26578	16384	0	316
4.327	-13.379	26300	16044	0	316
4.544	-12.514	26106	15362	0	316
2.416	-10.819	25884	14680	0	316
2.200	-7.970	25689	14339	0	316
3.173	-7.176	25550	14112	0	316
2.344	-7.140	25272	13884	0	316
2.272	-10.530	25134	13657	0	316
0.902	-12.477	24911	13544	0	316
0.865	-11.756	24717	13657	0	316
4.111	-6.780	24634	13998	0	316
8.475	0.505	24439	14339	0	316
13.631	5.121	24300	14794	0	316
12.261	4.760	24078	15362	0	316
8.871	-1.803	24022	15816	0	316
2.488	-7.537	23939	16384	0	316
-0.288	-10.530	23745	16838	0	316
1.947	-7.717	23606	17293	0	316
8.727	-3.678	23467	17634	0	316
12.694	-0.072	23328	17974	0	316
13.163	-1.190	23189	18429	0	316
10.530	-7.032	23106	18770	0	316
5.626	-13.631	22967	19224	0	316
3.859	-18.031	22911	19679	0	316
2.849	-20.483	22772	20020	0	316
1.262	-19.365	22634	20134	0	316
0.108	-18.067	22550	20134	0	316
0.108	-14.930	22495	19906	0	316
2.200	-12.477	22356	19338	0	316
5.626	-8.330	22217	18656	0	316
7.789	-8.943	22078	17974	0	316
6.527	-8.691	21939	17406	0	316
3.534	-12.225	21939	17179	0	316
1.875	-11.612	21717	16952	0	316
2.344	-7.393	21661	16724	0	316
7.825	0.433	21578	16611	0	316
13.343	6.924	21439	16838	0	316
18.897	10.963	21384	17065	0	316
20.123	8.078	21245	15248	0	316
16.408	3.859	20550	6271	0	316
11.179	-3.498	19995	0	0	316
6.780	-6.563	19217	0	0	316
4.832	-6.924	18384	0	0	316
4.940	-7.321	17495	0	0	316
7.862	-4.472	16717	0	0	316
7.321	-4.147	16190	0	0	316
5.806	-7.609	15690	0	0	316
1.442	-11.612	15357	0	0	316
-3.354	-15.507	15079	0	0	316
-5.842	-19.293	15079	0	0	316
-6.131	-18.680	14940	0	0	316
-3.931	-17.021	14940	0	0	316
-1.623	-16.336	14857	0	0	316
-1.587	-17.382	14523	0	0	316
-2.705	-19.834	14107	0	0	316
-4.255	-19.221	13329	0	0	316
-5.445	-18.644	12718	0	0	316
-6.816	-18.031	12162	0	0	316
-7.934	-17.274	11746	0	0	316
-6.996	-19.618	10912	0	0	316
-5.337	-20.267	9857	0	0	316
-4.039	-19.726	8968	0	0	316
-2.596	-17.310	8273	0	0	316
-3.931	-15.687	7718	0	0	316
-5.445	-15.290	7023	0	0	316
-6.094	-13.523	6468	0	0	316
-3.173	-12.441	5551	0	0	316
0.180	-12.225	4857	0	0	316
0.685	-15.182	4023	0	0	316
-2.849	-22.467	3273	0	0	316
-8.439	-28.777	2496	0	0	316
-14.497	-30.905	1884	0	0	316
-14.821	-27.768	1607	0	0	316
-11.684	-20.339	1662	0	0	316
-6.960	-14.966	1940	1271	0	316
-4.544	-13.127	2440	26611	0	316
-7.248	-13.920	2996	32767	0	316
-9.881	-15.290	3829	32767	0	316
-11.540	-16.733	4718	32767	0	316
-9.448	-15.326	5634	32767	0	316
-5.409	-11.937	6607	32767	0	316
-0.865	-9.556	7773	32767	0	316
0.433	-8.835	8746	32767	0	316
-1.226	-8.835	9440	32767	0	316
-2.164	-10.386	9996	32767	0	316
-1.659	-7.681	10690	32767	0	316
0.397	-6.708	11384	32767	0	316
2.056	-4.904	12218	32767	0	316
0.829	-7.285	12996	32767	1	492
-2.200	-12.550	13884	32767	0	492
-4.400	-16.913	14662	32767	0	492
-4.940	-14.858	15412	32767	0	492
-2.488	-11.468	16190	32767	0	492
0.938	-7.970	16800	32767	0	492
2.236	-6.635	16939	32767	0	492
1.839	-10.819	16717	32767	0	492
0.000	-15.723	16439	32767	0	492
-2.669	-18.392	16329	32767	0	492
-3.859	-13.740	16329	32767	0	492
-1.659	-2.741	16246	30588	0	492
5.373	9.160	15968	14453	0	492
12.081	19.834	15496	0	0	492
17.238	22.106	14940	0	0	492
17.238	19.762	14384	0	0	492
12.730	16.120	14107	0	0	492
9.160	14.533	13690	0	0	492
9.124	20.808	13273	0	0	492
16.336	30.184	12857	0	0	492
26.542	39.596	12579	0	0	492
36.278	44.032	12440	0	0	492
40.750	45.078	12023	0	0	492
41.039	41.976	11801	0	0	492
37.396	41.039	11746	0	0	492
34.547	40.606	11607	0	0	492
32.600	40.353	11384	0	0	492
30.797	39.416	10968	0	0	492
27.840	36.170	10634	0	0	492
25.135	35.160	10273	0	0	492
24.125	38.262	10134	0	0	492
26.397	44.284	10218	0	0	492
29.066	49.513	10218	0	0	492
31.013	50.451	10218	0	0	492
31.266	46.520	10218	0	0	492
30.364	41.976	10357	0	0	492
27.660	36.603	10634	6725	0	492
26.830	37.144	11107	23088	0	492
24.847	38.478	11746	32767	0	492
24.414	40.678	12357	32767	0	492
23.765	41.291	13134	32767	0	492
25.496	42.625	13884	32767	0	492
28.886	44.573	14662	32767	0	492
32.023	45.618	15551	32767	0	492
32.708	44.392	16384	32767	0	492
32.131	41.832	17217	32767	0	492
28.309	37.721	18106	32767	0	492
23.729	34.980	18884	32767	0	492
20.916	35.305	19634	32767	0	492
20.627	37.216	20411	32767	0	492
21.096	38.947	21106	32767	0	492
20.844	39.704	21800	32767	0	492
19.654	37.577	22411	32767	0	492
15.975	34.151	22967	32767	0	492
13.307	31.662	23467	32767	0	492
11.360	30.977	23939	32767	0	492
14.100	30.689	24439	32767	0	492
16.877	31.735	24856	32767	0	492
18.500	29.607	25189	32767	0	492
16.805	27.948	25550	32767	0	492
13.776	24.450	25745	32767	0	492
11.828	24.558	26022	32767	0	492
14.172	26.938	26245	32767	0	492
20.844	31.194	26300	30474	0	492
27.624	36.891	26384	20815	0	492
32.456	39.885	26522	11384	0	492
32.744	40.930	26578	2180	0	492
29.931	37.973	26439	0	0	492
22.899	33.321	26578	0	0	492
17.057	28.489	26439	0	0	492
12.045	25.316	26384	0	0	492
9.592	22.250	26245	0	0	492
10.097	21.529	26161	0	0	492
10.891	20.231	26106	0	0	492
12.081	19.257	25967	0	0	492
11.504	18.247	25828	0	0	492
10.206	16.949	25689	0	0	492
9.196	17.634	25550	0	0	492
7.140	18.464	25411	0	0	492
8.258	18.969	25328	0	1	316
9.124	19.510	25134	0	0	316
11.287	20.123	24911	0	0	316
10.819	20.123	24772	0	0	316
11.360	24.017	24634	0	0	316
12.982	27.443	24495	0	0	316
15.867	28.741	24356	0	0	316
23.044	32.348	24217	0	0	316
31.374	34.764	24022	0	0	316
35.197	39.885	23884	0	0	316
38.370	44.609	23745	0	0	316
34.872	44.717	23522	0	0	316
26.902	39.272	23384	0	0	316
18.572	30.905	23245	0	0	316
13.163	24.630	23106	0	0	316
12.333	22.863	22967	0	0	316
12.153	23.260	22911	0	0	316
13.487	23.296	22689	0	0	316
12.766	20.700	22550	0	0	316
14.100	20.087	22411	0	0	316
17.274	23.044	22272	0	0	316
22.755	28.237	22134	0	0	316
25.171	32.276	21995	248	0	316
22.539	30.977	21939	2634	0	316
16.480	24.847	21856	4680	0	316
12.333	20.664	21661	6498	0	316
13.812	19.257	21522	8089	0	316
19.942	24.486	21439	9225	0	316
27.732	30.905	21300	10134	0	316
33.105	34.259	21161	10816	0	316
32.744	36.314	21106	11725	0	316
28.561	34.006	20884	12862	0	316
27.191	33.466	20884	13998	0	316
26.001	32.059	20745	15362	0	316
26.938	31.482	20745	16384	0	316
28.922	32.059	20550	17065	0	316
28.741	29.968	20467	17634	0	316
27.840	31.013	20467	18088	0	316
24.558	29.030	20328	18543	0	316
21.385	28.850	20272	18997	0	316
16.336	26.830	20189	19565	0	316
14.497	27.876	20050	20247	0	316
14.930	29.138	20050	20929	0	316
16.661	31.843	19911	21611	0	316
19.906	32.564	19995	22179	0	316
24.594	31.302	19856	22747	0	316
27.119	28.345	19856	22974	0	316
31.194	28.597	19717	23202	0	316
31.554	31.446	19717	23202	0	316
30.292	33.718	19717	22974	0	316
28.525	35.413	19578	22747	0	316
28.273	34.475	19578	22293	0	316
32.312	34.115	19439	21952	0	316
36.423	35.485	19439	21611	0	316
38.154	37.721	19439	21497	0	316
36.495	38.009	19300	21270	0	316
32.853	35.629	19300	20702	0	316
30.400	31.410	19161	20134	0	316
30.292	29.968	19217	19565	0	316
30.581	28.453	19161	19111	0	316
26.037	25.207	19022	18429	0	316
18.716	22.503	18939	17747	0	316
11.035	21.204	18939	17179	0	316
7.429	20.844	18800	16724	0	316
11.576	26.109	18884	16497	0	316
17.995	28.489	18800	16611	0	316
23.188	30.833	18745	16724	0	316
24.775	29.174	18661	17179	0	316
23.657	28.958	18661	17520	0	316
21.890	29.066	18661	17861	0	316
23.585	29.679	18606	18202	0	316
25.243	30.184	18606	18656	0	316
28.056	30.761	18606	19111	0	316
27.984	29.895	18606	19452	0	316
28.489	30.941	18522	19679	0	316
27.984	31.987	18606	19679	0	316
30.941	35.160	18606	19565	0	316
35.629	40.245	18467	19338	0	316
39.452	44.356	18467	19111	0	316
40.786	44.392	18467	18656	0	316
37.829	40.353	18384	18088	0	316
32.023	33.069	18328	17747	0	316
26.145	28.741	18328	17406	0	316
21.745	28.633	18384	17293	0	316
17.526	31.085	18328	17293	0	316
14.821	30.040	18245	17293	0	316
13.307	25.676	18245	17293	0	316
12.117	18.031	18245	17406	0	316
14.605	15.362	18328	17520	0	316
15.507	14.605	18189	17520	0	316
15.831	15.615	18245	17520	0	316
15.254	15.435	18189	17293	0	316
13.487	14.245	18245	16952	0	316
15.759	12.694	18189	16611	0	316
19.329	15.831	18050	16271	0	316
24.053	21.818	18050	15703	0	316
30.004	27.948	18050	15248	0	316
32.203	32.636	17967	15021	0	316
32.997	35.846	17911	14794	0	316
31.987	35.088	17967	14566	0	316
28.994	31.915	17911	14339	0	316
25.316	29.030	17911	13884	0	316
20.591	25.784	17772	13544	0	316
18.175	25.748	17772	13316	0	316
17.887	26.974	17689	13316	0	316
19.942	29.427	17550	11044	0	316
22.178	32.564	17078	2066	0	316
24.306	33.321	16522	0	0	316
21.818	33.646	16051	0	0	316
17.454	30.725	15634	0	0	316
12.405	27.119	15273	0	0	316
11.396	22.791	14940	0	0	316
13.163	21.241	14162	0	0	316
21.096	22.683	12996	0	0	316
28.309	26.614	12023	0	0	316
32.780	30.581	11190	0	0	316
32.348	33.862	10496	0	0	316
30.184	34.511	10079	0	0	316
27.443	33.718	9801	0	0	316
26.397	32.780	9662	0	0	316
26.866	31.374	9662	0	0	316
25.676	29.066	9662	0	0	316
23.476	27.624	9857	0	0	316
18.031	25.784	10079	5703	0	316
11.720	24.811	10218	18770	0	316
5.229	24.594	10079	24452	0	316
2.633	25.279	9940	24111	0	316
2.128	26.902	9857	25929	0	316
2.921	27.371	9940	32747	0	316
3.462	26.325	10134	32767	0	316
0.108	22.214	10412	32767	0	316
-4.652	19.077	10412	32767	0	316
-7.357	16.841	10412	32767	0	316
-6.671	18.320	10218	32767	0	316
-2.452	24.739	10273	32767	0	316
2.524	28.201	10134	32767	0	316
6.094	30.761	9801	32767	0	316
9.052	28.489	9579	32767	0	316
10.855	27.155	9301	28656	0	316
14.605	27.587	8884	21611	0	316
18.247	30.797	8551	12975	0	316
22.070	36.891	8329	8884	0	316
23.981	40.173	8273	12066	0	316
24.775	39.524	8412	18884	0	316
24.919	35.882	8607	27747	0	316
23.873	31.374	9023	32767	0	316
23.801	27.876	9440	32767	0	316
23.476	28.453	9996	32767	0	316
26.433	32.780	10496	32767	0	316
30.941	35.305	11051	32767	0	316
35.737	38.334	11746	32767	0	316
38.586	38.658	12301	32767	0	316
36.928	36.026	13051	32767	0	316
33.538	34.764	13607	32767	0	316
30.653	34.583	14301	32767	0	316
29.354	34.439	14940	32767	0	316
31.374	33.646	15551	32767	0	316
32.889	31.410	16107	32767	0	316
32.997	27.624	16661	32767	0	316
32.456	26.145	17217	32767	0	316
31.338	26.650	17634	32767	0	316
32.167	29.102	18106	32767	1	644
33.393	31.807	18606	32767	0	644
35.737	31.699	18939	32767	0	644
38.839	32.276	19300	32767	0	644
41.616	33.646	19634	32767	0	644
43.851	36.062	19856	32767	0	644
42.986	37.216	20189	32767	0	644
41.543	36.711	20328	32767	0	644
37.757	33.970	20606	32767	0	644
36.675	33.177	20745	32767	0	644
36.711	33.934	20967	27974	0	644
37.036	33.610	21022	21156	0	644
34.259	29.895	21106	14680	0	644
29.318	22.972	21300	8316	0	644
25.243	19.473	21245	2294	0	644
23.512	19.510	21300	0	0	644
23.837	23.260	21300	0	0	644
23.765	24.089	21300	0	0	644
19.870	20.375	21245	0	0	644
15.471	11.973	21161	0	0	644
13.091	5.914	21161	0	0	644
14.930	4.688	21106	0	0	644
19.041	9.340	20967	0	0	644
21.854	13.199	20967	0	0	644
22.575	18.392	20828	0	0	644
21.601	21.132	20828	0	0	644
23.837	24.811	20689	0	0	644
27.335	28.705	20689	0	0	644
33.105	33.466	20550	0	0	644
36.242	36.711	20467	0	0	644
36.747	37.432	20328	0	0	644
35.052	35.233	20272	0	0	644
34.620	32.780	20050	0	0	644
35.197	32.708	20050	0	0	644
37.937	32.816	19911	0	0	644
39.560	35.377	19856	0	0	644
40.209	36.891	19717	0	0	644
37.649	35.160	19717	0	0	644
34.764	32.203	19578	0	0	644
32.564	29.463	19634	0	0	644
32.023	27.984	19578	0	0	644
31.085	28.309	19439	0	0	644
30.112	28.886	19439	0	0	644
25.532	25.893	19300	0	0	644
20.808	20.772	19300	703	0	644
17.057	14.497	19217	2407	0	644
17.202	12.946	19078	3998	0	644
19.762	17.021	19078	5703	0	644
23.621	23.909	19078	7748	0	644
24.450	28.669	18939	9680	0	644
23.801	30.545	18939	11271	0	644
23.188	28.201	18939	12294	0	644
23.945	28.128	18800	13089	0	644
28.164	32.023	18800	13998	0	644
31.158	35.016	18800	15021	0	644
31.843	36.495	18745	15816	0	644
27.984	32.167	18661	16271	0	644
24.522	24.811	18606	16384	0	644
22.106	20.772	18606	16611	0	644
23.368	19.293	18467	16611	0	644
25.135	21.529	18384	16384	0	644
26.866	25.171	18384	16497	0	644
26.145	29.066	18328	16952	0	644
25.856	27.479	18245	17747	0	644
24.811	25.856	18245	18429	0	644
24.089	20.736	18245	18997	0	644
20.988	15.435	18245	19338	0	644
15.182	12.946	18189	19679	0	644
9.556	11.612	18245	20020	0	644
5.157	11.973	18189	20247	0	644
3.534	10.602	18189	20588	0	644
5.554	10.350	18106	20929	0	644
7.212	11.107	18106	21156	0	644
9.845	14.605	18106	21384	0	644
11.143	18.572	18106	21611	0	644
14.605	22.142	18050	21611	0	644
19.978	23.801	18050	21497	0	644
26.325	27.587	18106	21384	0	644
31.987	31.230	18050	21270	0	644
35.016	35.954	18050	20929	1	316
35.052	38.911	18050	20815	0	316
33.934	41.111	17967	20929	0	316
33.826	42.373	17967	20929	0	316
35.485	44.681	18050	20588	0	316
37.505	45.763	18050	20020	0	316
39.380	45.294	17967	19452	0	316
37.144	41.724	17911	18884	0	316
32.961	36.675	17911	18202	0	316
29.607	31.699	17911	17634	0	316
25.496	29.282	17911	16952	0	316
24.378	27.335	17828	16384	0	316
22.431	23.693	17689	16044	0	316
20.339	21.241	17772	15703	0	316
18.211	16.408	17689	15475	0	316
16.661	13.127	17689	15248	0	316
15.651	10.097	17689	15021	0	316
15.831	10.458	17634	14907	0	316
16.516	10.530	17550	14566	0	316
18.247	13.668	17634	13998	0	316
22.142	17.021	17495	13430	0	316
23.909	19.798	17495	12975	0	316
25.748	21.457	17495	12748	0	316
25.532	22.467	17356	12521	0	316
28.056	23.693	17356	12407	0	316
29.030	26.325	17272	12294	0	316
31.302	28.417	17217	12066	0	316
30.833	30.112	17134	11725	0	316
28.273	30.653	16995	9112	0	316
25.568	30.905	16439	135	0	316
24.306	30.977	15912	0	0	316
25.676	31.302	15412	0	0	316
26.542	29.895	15079	0	0	316
28.092	28.201	14718	0	0	316
25.604	26.217	14440	0	0	316
20.772	20.519	14301	0	0	316
13.740	16.661	14246	0	0	316
6.744	9.881	14162	0	0	316
2.200	5.121	14107	0	0	316
0.613	2.380	14162	0	0	316
2.308	3.210	14384	5134	0	316
4.832	4.616	14301	11725	0	316
9.052	6.527	14440	17974	0	316
9.809	7.573	14579	23884	0	316
10.422	8.186	14662	27179	0	316
9.448	9.412	14246	22861	0	316
11.792	12.766	13829	12748	0	316
14.713	14.858	13607	5475	0	316
18.536	17.995	13329	4112	0	316
21.637	19.077	13190	5589	0	316
23.368	20.267	13134	8089	0	316
24.522	22.827	13051	11498	0	316
26.181	25.388	13190	15816	0	316
28.453	26.650	13273	20588	0	316
30.256	28.381	13412	25929	0	316
29.607	26.506	13551	31270	0	316
28.850	25.243	13690	32767	0	316
26.974	21.745	13968	32767	0	316
22.106	18.752	14162	32767	0	316
18.031	16.264	14384	32767	0	316
15.471	15.254	14662	32767	0	316
14.785	16.480	14718	32767	0	316
15.543	17.743	14579	32767	0	316
16.589	18.897	14246	32767	0	316
16.661	18.031	13968	25134	0	316
15.435	18.211	13968	20929	0	316
15.326	17.779	13829	19565	0	316
16.120	18.139	13829	19452	0	316
17.166	19.870	13884	20702	0	316
18.644	21.096	13884	20702	0	316
18.933	21.385	13468	14453	0	316
20.772	23.512	13190	3544	0	316
22.467	23.765	12857	0	0	316
24.594	25.640	12718	0	0	316
24.522	26.506	12718	0	0	316
24.089	26.217	12718	703	0	316
22.142	25.676	12634	3430	0	316
19.437	25.784	12218	248	0	316
16.949	23.657	11940	0	0	316
14.461	21.745	11801	0	0	316
13.199	19.906	11607	0	0	316
14.281	18.644	11662	0	0	316
18.031	19.257	11662	816	0	316
22.719	24.053	11662	6044	0	316
26.037	28.092	11523	5362	0	316
28.273	29.715	11190	0	0	316
26.938	30.905	11051	0	0	316
25.929	28.345	11051	1271	0	316
23.404	26.506	10912	5021	0	316
24.017	26.289	10634	3089	0	316
23.765	26.470	10357	0	0	316
22.899	26.650	10218	0	0	316
21.277	24.739	10134	0	0	316
16.552	19.329	10218	6498	0	316
13.631	15.254	10412	14907	0	316
10.963	12.910	10690	24224	0	316
12.477	14.605	10968	32767	0	316
13.848	17.274	11384	32767	0	316
15.254	19.221	11884	32767	0	316
15.362	18.428	12301	32767	0	316
15.398	15.110	12773	32767	0	316
15.254	13.163	13329	32767	0	316
15.615	13.920	13746	32767	0	316
19.149	18.536	14246	32767	0	316
23.765	24.775	14857	32767	0	316
27.587	30.508	15273	32767	0	316
30.869	32.239	15773	32767	0	316
31.266	28.886	16190	32767	0	316
30.508	27.155	16578	32767	0	316
30.076	28.237	17078	32767	0	316
33.898	32.636	17495	32767	0	316
38.045	37.396	17772	32767	0	316
40.426	38.082	18245	32767	1	448
38.803	33.970	18522	32767	0	448
34.295	27.515	18884	32767	0	448
27.948	22.863	19078	32767	0	448
25.532	21.385	19356	32767	0	448
24.017	21.709	19634	32767	0	448
23.801	22.286	19772	32767	0	448
22.034	19.690	20050	32767	0	448
19.257	16.949	20134	32767	0	448
16.552	13.343	20328	31724	0	448
14.461	9.737	20328	25702	0	448
13.415	9.737	20550	20134	0	448
12.441	12.225	20550	15021	0	448
13.163	14.605	20689	10021	0	448
13.307	18.283	20606	4907	0	448
15.218	20.159	20606	135	0	448
16.661	20.123	20689	0	0	448
17.779	21.241	20606	0	0	448
19.726	21.673	20550	0	0	448
23.224	24.234	20411	0	0	448
26.253	25.496	20467	0	0	448
29.282	28.164	20328	0	0	448
31.699	28.237	20328	0	0	448
30.545	30.725	20189	0	0	448
30.328	31.194	20189	0	0	448
29.174	32.925	20050	0	0	448
28.345	31.158	19995	0	0	448
28.128	31.446	19911	0	0	448
30.148	31.158	19911	0	0	448
32.672	30.905	19856	0	0	448
33.754	32.600	19634	0	0	448
32.167	31.374	19634	0	0	448
27.660	29.751	19495	0	0	448
20.880	25.748	19439	0	0	448
15.074	20.988	19439	0	0	448
11.900	16.408	19300	0	0	448
9.088	13.812	19217	0	0	448
7.898	12.009	19161	0	0	448
5.481	12.333	19078	0	0	448
3.823	11.215	19022	0	0	448
4.508	11.540	18939	0	0	448
5.049	11.323	18884	0	0	448
7.537	12.405	18884	362	0	448
11.612	15.975	18800	1953	0	448
14.749	20.591	18661	3430	0	448
19.221	23.512	18661	4907	0	448
20.988	24.811	18661	6271	0	448
22.395	23.368	18522	7748	0	448
20.736	21.998	18606	9453	0	448
20.159	20.411	18522	11271	0	448
22.178	24.666	18467	12975	0	448
24.450	27.660	18384	14225	0	448
27.551	31.699	18384	15134	0	448
26.650	30.761	18467	16044	0	448
23.116	25.640	18384	16724	0	448
18.320	19.401	18328	17406	0	448
13.343	13.559	18328	17861	0	448
10.242	9.953	18328	18088	0	448
8.366	10.061	18245	18543	0	448
7.537	9.665	18189	18997	0	448
5.914	11.107	18189	19338	0	448
5.049	10.422	18189	19565	0	448
3.282	8.943	18189	20020	0	448
2.380	7.501	18050	20361	0	448
2.092	5.085	18189	20702	0	448
3.642	4.075	18106	20815	0	448
6.311	7.140	18106	21043	0	448
10.097	10.674	18050	21156	0	448
11.684	15.903	17967	20815	0	448
12.117	18.031	17967	20474	0	448
10.602	18.428	18050	20247	0	448
8.763	17.887	18050	20474	0	448
9.665	18.392	17967	20702	0	448
11.360	19.726	17967	20588	0	448
14.713	22.395	17967	20474	0	448
16.589	23.008	17967	20134	0	448
18.175	23.585	17967	19906	0	448
20.231	23.621	17911	19679	0	448
23.440	25.135	17911	19452	0	448
26.433	27.551	17911	19452	1	316
27.227	28.417	17911	19452	0	316
25.784	28.814	17967	19338	0	316
20.844	24.414	17911	19224	0	316
15.939	20.267	17828	18997	0	316
12.946	14.930	17828	18656	0	316
13.271	14.208	17911	18088	0	316
14.353	15.398	17828	17293	0	316
16.156	17.382	17772	16271	0	316
16.048	19.149	17772	15021	0	316
13.343	18.788	17634	14112	0	316
10.927	18.969	17634	13544	0	316
9.340	17.706	17634	13203	0	316
10.422	18.103	17550	12975	0	316
13.920	19.041	17495	12862	0	316
16.120	21.565	17495	12975	0	316
18.716	22.827	17411	13089	0	316
17.743	22.683	17495	13316	0	316
15.939	22.503	17411	13657	0	316
15.074	20.014	17411	13998	0	316
15.759	20.447	17411	14225	0	316
16.805	23.116	17356	14566	0	316
16.913	23.404	17356	15021	0	316
15.326	21.277	17356	15362	0	316
13.307	17.670	17272	15475	0	316
11.360	15.579	17356	15589	0	316
13.127	16.877	17134	13771	0	316
15.939	20.267	16717	5362	0	316
18.175	22.467	16190	0	0	316
19.762	22.755	15690	0	0	316
19.690	21.637	15273	0	0	316
19.978	19.834	15134	0	0	316
20.952	20.087	14801	0	0	316
22.719	22.395	14523	0	0	316
23.549	22.647	14440	0	0	316
22.899	22.575	14384	0	0	316
19.906	21.024	14246	0	0	316
19.870	20.591	14162	0	0	316
20.772	20.519	14162	0	0	316
24.125	21.241	14246	4225	0	316
26.542	23.837	14246	9453	0	316
26.902	22.972	14246	14680	0	316
22.827	21.637	14384	19679	0	316
20.050	19.293	14579	24793	0	316
18.320	17.274	14579	29679	0	316
18.716	15.939	14718	32767	0	316
19.005	14.425	14857	32767	0	316
18.860	14.353	14996	32767	0	316
17.670	14.389	15218	32767	0	316
16.733	16.372	15273	32767	0	316
17.490	19.221	15412	32767	0	316
19.113	20.808	15496	32767	0	316
21.998	24.775	15551	32767	0	316
24.775	26.109	15218	32767	0	316
29.102	28.201	14579	20929	0	316
31.590	32.167	13968	816	0	316
34.043	32.203	13051	0	0	316
32.889	31.013	12496	0	0	316
29.318	27.227	11940	0	0	316
24.739	20.664	11662	0	0	316
20.303	17.310	11468	0	0	316
18.500	14.930	11329	0	0	316
18.067	12.369	11384	0	0	316
17.923	11.720	11329	0	0	316
15.867	9.592	11523	0	0	316
11.215	7.465	11801	8771	0	316
5.265	6.022	11940	18770	0	316
1.587	5.121	12162	26270	0	316
-1.767	2.741	11940	26611	0	316
-1.659	1.370	11801	21156	0	316
-1.695	1.010	11607	18315	0	316
-0.325	1.442	11746	20702	0	316
-0.325	4.111	11801	25247	0	316
2.633	4.327	11884	30474	0	316
5.554	5.013	12023	32767	0	316
9.773	5.373	11746	31611	0	316
16.552	11.107	11384	21611	0	316
24.306	17.923	10829	8089	0	316
30.869	28.633	10218	0	0	316
34.872	33.466	9940	0	0	316
35.413	33.646	9662	0	0	316
33.610	29.823	9579	0	0	316
33.105	29.931	9662	0	0	316
35.629	32.744	9801	7862	0	316
38.442	37.613	9940	15589	0	316
39.812	40.858	9718	16952	0	316
37.577	38.154	9579	13430	0	316
32.672	32.456	9579	12748	0	316
27.768	26.866	9662	17520	0	316
22.791	20.988	9857	24565	0	316
16.516	15.651	9940	30247	0	316
11.287	11.973	9579	27634	0	316
5.265	8.222	9107	13884	0	316
0.938	5.337	8468	0	0	316
-0.252	3.137	7996	0	0	316
-0.180	1.803	7357	0	0	316
1.118	0.757	6329	0	0	316
2.993	0.613	5357	0	0	316
4.580	3.318	4301	0	0	316
5.301	4.472	2857	0	0	316
5.662	6.022	1384	0	0	316
9.484	9.592	1	0	0	316
12.982	13.271	1	0	0	316
19.149	17.166	1	0	0	316
22.250	21.096	1	0	0	316
24.450	22.827	1	0	0	316
24.198	25.424	1	0	0	316
25.027	26.109	1	0	0	316
27.587	30.220	1	0	0	316
28.994	29.787	1	0	0	316
29.751	31.374	1	0	0	316
29.354	30.689	1	0	0	316
25.856	29.066	1	0	0	316
23.693	28.092	1	0	0	316
20.231	26.325	1	0	0	316
16.841	22.070	1	13657	0	316
13.415	18.031	1	32767	0	316
10.855	12.189	1	32767	0	316
9.268	9.556	1	32767	0	316
9.052	8.042	1	32767	0	316
8.222	7.898	1	32767	0	316
7.970	7.176	1	32767	0	316
7.068	6.383	1	32767	0	316
8.583	4.327	1	32767	0	316
11.576	5.734	1	32767	0	316
17.346	12.441	1	32767	0	316
23.621	17.779	1	32767	0	316
27.948	25.929	1107	32767	0	316
31.013	29.679	2634	32767	0	316
31.482	29.030	4162	32767	0	316
30.364	25.532	5968	32767	0	316
30.472	24.955	7634	32767	0	316
32.600	28.020	9384	32767	0	316
36.855	34.583	11107	32767	0	316
41.255	40.966	12857	32767	0	316
41.399	42.157	14523	32767	0	316
38.550	39.344	15968	32767	0	316
31.158	31.987	17134	32767	0	316
23.729	27.948	18050	32767	1	552
19.473	23.296	18939	32767	0	552
15.723	20.267	19911	32767	0	552
12.910	16.661	20828	32767	0	552
6.383	11.900	21800	32767	0	552
0.108	7.104	22550	32767	0	552
-5.770	1.154	22911	32767	0	552
-8.006	-1.911	23245	32767	0	552
-5.950	-4.760	23606	32767	0	552
-1.911	-4.616	23939	32767	0	552
3.570	-1.623	24300	24452	0	552
9.484	3.101	24717	10930	0	552
13.054	8.258	25134	0	0	552
14.461	12.405	25606	0	0	552
12.658	12.946	26022	0	0	552
10.638	10.169	26300	0	0	552
10.206	8.727	26800	0	0	552
14.425	11.828	26995	0	0	552
19.618	17.057	26800	0	0	552
23.657	23.873	26661	0	0	552
25.568	26.866	26439	0	0	552
25.676	26.614	26300	0	0	552
24.775	24.450	26245	0	0	552
25.135	24.486	26245	0	0	552
27.732	26.433	26300	0	0	552
28.886	28.381	26300	0	0	552
29.138	29.066	26300	0	0	552
26.037	27.804	26384	0	0	552
21.529	22.972	26522	0	0	552
16.264	18.464	26522	0	0	552
12.874	12.982	26578	0	0	552
11.179	12.117	26717	0	0	552
11.107	11.396	26800	0	0	552
9.845	13.487	26800	0	0	552
9.412	12.658	26939	0	0	552
8.330	10.819	27078	0	0	552
9.088	9.412	26995	0	0	552
10.278	8.042	27134	0	0	552
13.631	9.953	27134	0	0	552
18.175	13.884	27134	0	0	552
21.745	16.985	27217	0	0	552
22.575	18.644	27134	0	0	552
22.178	19.546	27217	0	0	552
20.627	18.428	27217	0	0	552
20.231	17.743	27078	0	0	552
20.772	17.454	27078	0	0	552
22.106	18.897	27078	0	0	552
21.349	18.175	26939	0	0	552
19.473	16.300	26939	0	0	552
17.959	14.894	26939	0	0	552
16.769	13.127	26717	0	0	552
14.425	13.992	26661	0	0	552
11.937	15.759	26578	0	0	552
9.196	14.749	26300	0	0	552
4.436	12.189	26300	0	0	552
2.452	8.006	26161	0	0	552
0.397	3.787	26022	0	0	552
1.226	1.731	25884	0	0	552
4.003	4.147	25689	0	0	552
7.285	5.013	25550	0	0	552
9.917	6.383	25411	0	0	552
8.258	6.383	25272	0	0	552
6.960	4.940	24995	0	0	552
5.986	5.770	24856	0	0	552
8.186	9.088	24717	0	0	552
12.766	13.415	24495	0	0	552
16.264	15.651	24356	0	0	552
16.625	16.228	24161	0	0	552
14.281	15.146	23939	0	0	552
13.487	15.074	23800	0	0	552
14.894	17.202	23661	0	0	552
19.221	19.257	23467	589	0	552
24.702	22.286	23384	1953	0	552
27.732	22.322	23245	3430	0	552
28.417	24.594	23106	4794	0	552
28.669	25.027	22967	5930	0	552
25.712	24.919	22967	7066	0	552
24.630	21.854	22772	7975	0	552
19.942	19.041	22550	8998	0	552
15.759	14.208	22495	10134	1	316
11.648	11.179	22272	9112	0	316
10.566	9.701	21717	1271	0	316
9.953	8.871	21022	0	0	316
11.179	7.934	20550	0	0	316
12.153	8.475	19856	0	0	316
12.297	9.124	19161	0	0	316
11.612	8.763	18328	0	0	316
11.071	8.366	17634	0	0	316
11.973	8.619	17078	0	0	316
14.208	11.215	16717	0	0	316
18.428	16.300	16384	0	0	316
22.286	21.349	16246	0	0	316
24.378	24.847	16107	0	0	316
23.729	24.919	16107	0	0	316
22.286	23.909	16246	0	0	316
20.195	23.224	16190	7066	0	316
19.690	22.899	16329	17520	0	316
20.664	23.945	16439	27747	0	316
21.962	23.729	16661	32767	0	316
26.145	23.945	16800	32767	0	316
30.545	25.496	17134	32767	0	316
34.511	26.325	17272	32767	0	316
35.521	28.237	17550	32767	0	316
32.456	26.758	17911	32767	0	316
26.902	26.397	18106	32767	0	316
21.096	23.981	18328	32767	0	316
16.012	21.277	18661	32767	0	316
14.172	19.582	18800	32767	0	316
12.838	16.084	19022	32767	0	316
13.091	15.254	19022	32767	0	316
14.028	13.235	18800	32767	0	316
16.733	15.254	18384	32767	0	316
20.014	18.103	18050	32767	0	316
21.060	20.555	17828	27520	0	316
21.385	20.195	17689	22520	0	316
19.257	19.185	17634	19111	0	316
16.985	15.435	17550	17293	0	316
17.382	14.028	17550	16952	0	316
19.834	16.012	17495	17634	0	316
23.945	20.411	17495	16724	0	316
26.758	23.512	17078	9453	0	316
27.912	25.929	16661	0	0	316
28.417	24.847	16329	0	0	316
28.020	24.125	16107	0	0	316
30.040	23.332	15968	0	0	316
30.328	24.702	15912	0	0	316
29.066	26.758	15912	0	0	316
23.621	25.856	15968	703	0	316
14.317	21.709	16051	4225	0	316
6.780	14.100	15634	1044	0	316
2.741	9.052	15273	0	0	316
5.770	6.239	14996	0	0	316
13.884	8.619	14801	0	0	316
21.673	13.595	14801	0	0	316
26.073	17.454	14857	0	0	316
24.270	17.959	14718	2066	0	316
21.673	16.336	14246	0	0	316
18.356	15.507	13412	0	0	316
19.510	15.975	12496	0	0	316
23.296	20.303	11384	0	0	316
25.965	26.830	10412	0	0	316
27.876	27.876	9301	0	0	316
26.578	25.640	8329	0	0	316
26.650	21.529	7634	0	0	316
27.912	19.329	7079	0	0	316
32.131	22.358	6523	0	0	316
35.737	28.345	5912	0	0	316
36.423	30.436	5690	0	0	316
33.574	28.994	5690	0	0	316
30.112	25.496	5773	0	0	316
27.515	23.801	6107	0	0	316
29.282	25.099	6468	14680	0	316
31.626	28.345	6384	26497	0	316
33.429	31.446	5968	25588	0	316
31.446	30.220	5829	21724	0	316
26.830	26.686	5634	23429	0	316
22.791	21.745	5357	25929	0	316
20.916	16.336	5134	26384	0	316
21.637	16.120	4996	29338	1	316
21.565	16.805	4718	30134	0	316
20.303	17.057	4107	22179	0	316
15.543	15.435	3551	11157	0	316
12.369	12.838	2773	1157	0	316
11.576	11.215	1746	0	0	316
12.261	13.343	551	0	0	316
13.451	15.074	1	0	0	316
11.648	12.441	1	0	0	316
10.350	9.376	1	0	0	316
10.927	7.068	1	0	0	316
14.100	10.278	1	0	0	316
19.113	17.274	1	0	0	316
22.935	23.044	1	0	0	316
23.008	25.316	1	0	0	316
19.906	22.791	1	0	0	316
15.471	18.716	1	0	0	316
12.658	13.559	1	0	0	316
11.215	10.566	1	0	0	316
14.533	11.576	1	0	0	316
18.933	14.930	1	0	0	316
21.096	19.113	1	18543	0	316
19.257	19.978	1	32767	0	316
12.550	15.435	1	32767	0	316
6.888	9.376	1	32767	0	316
4.400	4.436	1	32767	0	316
6.167	5.481	1	32767	0	316
12.405	8.439	1	32767	0	316
17.202	10.819	1	32767	0	316
18.283	11.828	1	32767	0	316
16.048	10.169	1	32767	0	316
11.937	9.845	1	32767	0	316
8.511	9.989	1	32767	0	316
8.727	9.737	1	32767	0	316
10.494	10.710	1	32767	0	316
12.946	8.907	1	31156	0	316
13.848	8.222	1	17065	0	316
11.684	7.501	1	4453	0	316
13.812	10.855	1	0	0	316
18.067	14.172	1	0	0	316
24.847	20.159	1	0	0	316
29.895	24.811	1	0	0	316
32.239	27.083	1	0	0	316
29.751	25.856	1	0	0	316
27.047	23.332	1	0	0	316
24.811	20.736	1	0	0	316
24.198	17.995	1	11044	0	316
25.279	14.930	1	19906	0	316
25.207	13.018	1	28770	0	316
24.522	10.746	1	32767	0	316
21.241	9.520	1	32767	0	316
17.346	11.504	1	32767	0	316
12.730	15.254	1	32767	0	316
9.953	15.398	1	32767	0	316
8.258	14.461	1	32767	0	316
9.196	12.009	1	32767	0	316
10.350	10.963	1	32767	0	316
15.002	11.973	1	32767	0	316
20.519	17.129	1	32767	0	316
24.630	20.988	1051	32767	0	316
26.361	21.854	3273	32767	0	316
25.099	21.673	5496	32767	0	316
21.890	20.555	7857	32767	0	316
21.168	20.123	9857	32767	0	316
21.313	19.906	11746	32767	0	316
23.837	20.231	13051	32767	0	316
26.253	19.473	14023	32767	0	316
28.417	19.726	14718	32767	0	316
32.059	23.549	15496	32767	0	316
33.466	26.181	16439	32767	0	316
34.006	29.499	17634	32767	0	316
30.256	26.974	18939	32767	0	316
24.053	20.880	20328	32767	0	316
17.274	13.740	21578	32767	0	316
13.631	8.943	22689	32767	0	316
14.281	10.350	23606	32767	0	316
17.706	13.631	24717	32767	0	316
19.798	15.218	25828	32767	0	316
20.087	15.615	26856	32767	0	316
17.274	14.064	27495	32767	1	316
14.497	11.612	28050	32767	0	316
14.785	14.064	28106	24111	0	316
16.661	17.202	27967	0	0	316
18.067	19.510	27634	0	0	316
17.887	20.375	27134	0	0	316
17.382	20.267	26161	0	0	316
18.283	19.077	25050	0	0	316
21.457	21.060	24078	0	0	316
23.837	21.854	23050	0	0	316
23.801	22.034	22272	0	0	316
22.250	23.044	21856	0	0	316
18.716	20.411	21800	0	0	316
16.300	19.185	21856	0	0	316
15.362	18.103	22217	0	0	316
16.552	17.959	22772	0	0	316
18.572	17.670	23384	0	0	316
23.044	18.752	24217	0	0	316
26.614	21.890	24911	0	0	316
29.499	23.549	25328	0	0	316
28.056	25.784	25884	0	0	316
26.073	23.837	26384	0	0	316
24.089	23.296	27078	4907	0	316
24.378	21.132	27550	18884	0	316
25.171	21.818	27911	25361	0	316
25.568	21.890	28106	25702	0	316
24.198	22.070	28522	27974	0	316
20.050	20.591	28939	32767	0	316
16.048	18.897	29495	32767	0	316
15.867	19.834	30134	32767	0	316
16.084	19.077	30467	32767	0	316
18.211	18.572	30606	32767	0	316
18.680	17.202	30550	32767	0	316
19.185	17.418	30272	26724	0	316
19.762	19.185	29911	11612	0	316
20.303	22.467	29717	1384	0	316
22.899	25.784	29717	0	0	316
23.585	25.532	29856	0	0	316
23.224	24.198	29911	703	0	316
23.729	21.962	30134	4794	0	316
24.414	21.349	30467	9680	0	316
26.433	20.375	30745	15362	0	316
28.453	21.313	31022	21156	0	316
28.092	20.591	31439	27065	0	316
27.299	18.500	31856	32293	0	316
23.116	15.146	32217	32767	0	316
21.168	13.127	32411	32767	0	316
20.087	9.989	32356	31838	0	316
20.880	10.891	32134	19565	0	316
21.204	13.992	31995	10134	0	316
20.267	15.723	31939	5930	0	316
18.644	17.129	31800	1839	0	316
16.264	14.677	31161	0	0	316
16.805	12.730	30189	0	0	316
16.949	13.199	29300	0	0	316
18.139	17.274	28522	0	0	316
17.166	21.926	28050	0	0	316
13.884	21.385	27356	0	0	316
13.559	18.356	26717	0	0	316
13.271	12.694	26022	0	0	316
14.389	10.133	25467	0	0	316
14.281	10.566	25134	0	0	316
11.215	11.973	24856	0	0	316
8.835	12.766	24772	0	0	316
7.789	9.340	24856	0	0	316
12.189	8.835	24717	0	0	316
19.257	9.124	24439	0	0	316
23.224	13.704	24161	0	0	316
23.440	18.824	24022	0	0	316
19.834	23.693	23939	0	0	316
17.057	23.729	23884	0	0	316
14.966	21.854	23661	0	0	316
17.346	19.257	23328	0	0	316
20.375	19.942	23106	0	0	316
21.673	22.647	23050	6384	0	316
22.070	24.630	22967	13544	0	316
21.168	27.335	22689	14794	0	316
19.942	25.027	22272	9225	0	316
19.041	24.125	21661	362	0	316
19.365	21.241	21022	0	0	316
18.536	20.375	20606	0	0	316
18.356	17.526	19911	0	0	316
17.490	14.317	19439	0	0	316
15.615	13.343	19022	0	0	316
14.749	12.441	18745	0	0	316
13.631	14.533	18189	0	0	316
11.323	13.848	17356	0	0	316
10.602	13.054	16384	0	0	316
9.737	11.540	15496	0	0	316
13.559	11.360	14801	0	0	316
17.959	14.785	14301	0	0	316
23.152	17.454	14107	0	0	316
23.729	18.139	13551	0	0	316
19.365	15.435	13329	0	0	316
12.189	11.973	13190	0	0	316
7.176	11.287	13190	0	0	316
5.049	13.018	13051	7294	0	316
7.068	15.939	12996	14566	0	316
8.186	17.382	13051	23315	0	316
8.402	16.480	12773	28770	0	316
9.989	15.398	12218	22406	0	316
13.054	16.769	11190	5703	0	316
17.274	21.349	9996	0	0	316
21.204	25.352	8746	0	0	316
24.270	25.820	7773	0	0	316
24.414	25.604	7079	0	0	316
25.604	25.135	6329	0	0	316
27.984	27.948	5273	0	0	316
27.660	30.256	4384	0	0	316
26.109	31.013	3412	0	0	316
21.998	26.722	2773	0	0	316
18.644	21.204	2218	0	0	316
16.949	16.625	1662	0	0	316
17.238	14.497	912	0	0	316
17.995	14.821	1	0	0	316
16.985	12.477	1	0	0	316
14.064	12.730	1	0	0	316
11.251	14.749	1	0	0	316
12.189	20.231	1	0	0	316
14.966	25.712	1	0	0	316
18.752	26.073	1	0	0	316
21.890	24.522	1	0	0	316
24.198	19.762	1	0	0	316
26.289	20.952	1	0	0	316
29.968	25.496	1	0	0	316
32.456	31.662	1	0	0	316
33.033	33.754	1	0	0	316
29.931	30.112	1	0	0	316
27.551	26.614	1	0	0	316
25.099	24.017	1	15589	0	316
24.306	23.404	1	31952	0	316
21.709	23.404	1	32767	0	316
19.005	21.060	1	32767	0	316
15.795	17.598	1	32767	0	316
16.516	15.218	1	32767	0	316
19.618	15.074	1	32767	0	316
24.558	16.228	1	32767	0	316
26.001	16.913	1	32767	0	316
22.250	15.218	1	32767	0	316
17.887	12.838	1	32767	0	316
13.487	11.468	1	32767	0	316
11.396	11.540	1	32767	0	316
15.398	15.831	1	32767	0	316
19.834	20.195	1	32767	0	316
24.378	24.594	1	32767	0	316
29.679	28.958	1	32767	0	316
32.384	29.823	1	32767	0	316
34.115	30.256	1	32767	0	316
34.764	31.158	1	32767	0	316
34.006	31.266	1	32767	0	316
33.069	31.085	1	32767	0	316
32.131	31.626	1	32767	0	316
31.807	30.292	1	32767	0	316
29.535	29.391	1	32767	0	316
28.309	25.893	1	32767	0	316
26.001	22.719	1	32767	0	316
23.368	17.887	1	32767	0	316
21.060	14.605	1	32767	0	316
20.952	13.415	1	32767	0	316
18.572	10.314	1	32767	0	316
14.353	7.465	1	32767	0	316
10.278	2.380	1	32767	0	316
4.868	-1.226	1	32767	0	316
1.623	-0.829	1	32767	1	652
1.406	1.623	1	32767	0	652
1.767	3.967	1	32767	0	652
3.931	5.806	1	32767	0	652
3.642	4.616	1	32767	0	652
5.517	4.724	1	32767	0	652
7.681	6.996	1	32767	0	652
12.658	12.694	1	32767	0	652
18.428	20.267	1	32767	0	652
24.270	26.650	1	32767	0	652
26.794	30.941	1	32767	0	652
27.299	29.571	1	32767	0	652
24.522	28.020	1	32767	0	652
22.611	26.830	1	32767	0	652
23.945	27.335	1	32767	0	652
26.686	28.237	1	32767	0	652
31.122	27.083	1	32767	0	652
34.223	25.496	1	32767	0	652
34.656	20.844	1	32767	0	652
28.237	15.615	1	32767	0	652
20.231	9.196	1	32767	0	652
11.432	2.524	1	32767	0	652
6.455	-1.442	218	32767	0	652
5.049	-3.823	496	30588	0	652
5.662	-1.551	829	28202	0	652
5.842	0.649	1107	26270	0	652
4.977	2.019	1384	24338	0	652
5.662	2.993	1662	22293	0	652
7.609	4.508	1801	20247	0	652
12.045	5.193	2079	18543	0	652
16.192	8.042	2357	17179	0	652
19.437	12.910	2634	16044	0	652
22.899	16.769	2773	15021	0	652
26.001	21.241	3134	14453	0	652
29.968	26.470	3329	14225	0	652
32.239	27.263	3551	14566	0	652
34.403	28.597	3884	14907	0	652
34.836	28.092	4162	15475	0	652
33.357	27.119	4384	16157	0	652
32.095	27.371	4662	16611	0	652
32.564	29.499	4857	16952	0	652
34.764	30.797	5134	17065	0	652
35.918	30.869	5412	16838	0	652
35.557	28.633	5551	16838	0	652
32.023	23.693	5829	17065	0	652
26.794	19.834	6051	17179	0	652
25.135	16.769	6190	16952	0	652
25.243	16.444	6384	16384	0	652
27.876	18.572	6607	15703	0	652
27.984	19.798	6746	14566	0	652
27.696	20.339	6884	13657	0	652
24.630	18.608	7079	13089	0	652
23.296	15.326	7218	12975	0	652
22.467	12.550	7496	12975	0	652
20.952	12.766	7579	12975	0	652
21.601	13.631	7773	12862	0	652
21.132	15.975	7912	12748	0	652
21.132	15.074	8051	12748	0	652
21.493	13.992	8190	12975	0	652
19.618	12.081	8412	13316	0	652
19.365	12.189	8551	13657	0	652
18.139	12.045	8746	13884	0	652
17.779	10.674	8829	14112	0	652
18.211	7.934	8968	14339	0	652
18.500	4.904	9107	14794	0	652
17.670	3.210	9246	15134	0	652
16.985	4.796	9440	15021	0	652
16.625	6.491	9523	14794	0	652
15.615	7.429	9579	14566	0	652
14.353	6.311	9718	13998	0	652
14.100	3.282	9857	13203	0	652
13.992	0.613	9857	12407	0	652
13.163	-0.325	9996	11725	0	652
14.208	1.406	9996	10930	0	652
13.343	4.472	10079	10362	0	652
13.127	7.789	10218	10021	0	652
10.819	8.186	10496	12180	0	652
9.052	4.039	10912	21156	0	652
7.176	0.397	11523	32767	0	652
5.914	-2.705	12079	32767	1	316
8.150	-2.380	12496	32767	0	316
11.396	3.606	12857	32767	0	316
16.661	10.242	13273	32767	0	316
20.844	13.091	13412	32767	0	316
21.745	11.179	13690	32767	0	316
18.464	6.383	13746	32767	0	316
14.461	1.659	13884	32767	0	316
11.179	0.325	13968	32767	0	316
11.323	2.560	13968	28656	0	316
12.622	4.616	13884	22861	0	316
15.579	4.688	13968	17179	0	316
16.228	3.750	13884	12180	0	316
16.084	2.128	13829	7748	0	316
16.120	3.173	13829	3771	0	316
16.192	5.301	13829	135	0	316
16.192	6.058	13607	0	0	316
15.651	7.140	13690	0	0	316
13.740	5.662	13551	0	0	316
14.100	4.868	13551	0	0	316
14.858	3.390	14023	0	0	316
16.913	5.373	14440	12294	0	316
19.942	6.852	14801	22065	0	316
20.087	8.907	15079	26156	0	316
18.067	7.032	15273	27634	0	316
14.533	4.796	15412	27634	0	316
12.441	1.587	15551	26156	0	316
12.802	-0.469	15634	23543	0	316
13.704	0.721	15634	20134	0	316
16.480	3.210	15551	16497	0	316
16.913	4.364	15496	12634	0	316
15.507	2.236	15357	8544	0	316
12.297	0.541	15273	4339	0	316
8.871	-4.832	15134	135	0	316
6.167	-8.619	15079	0	0	316
5.049	-9.809	14857	0	0	316
9.268	-8.799	14718	0	0	316
12.441	-6.996	14523	0	0	316
15.002	-6.599	14440	0	0	316
13.559	-7.681	14301	0	0	316
8.907	-9.953	14107	0	0	316
3.426	-9.376	13968	0	0	316
3.029	-6.996	13884	0	0	316
5.229	-3.859	13690	0	0	316
11.396	-2.885	13551	0	0	316
13.884	-4.472	13468	0	0	316
14.677	-7.681	13329	0	0	316
13.018	-6.708	13273	0	0	316
11.828	-4.616	13273	0	0	316
10.386	-2.813	13134	0	0	316
11.792	-4.508	13134	0	0	316
10.927	-8.006	13051	816	0	316
5.121	-13.848	13134	3544	0	316
-0.036	-16.985	12996	6044	0	316
-7.789	-17.851	12996	8544	0	316
-12.153	-19.473	12996	10930	0	316
-12.802	-22.647	12912	13316	0	316
-11.251	-25.460	13051	15703	0	316
-7.357	-24.919	12996	17634	0	316
-7.321	-25.532	13051	19565	0	316
-9.448	-24.775	13051	21270	0	316
-12.333	-28.958	13051	22747	0	316
-15.398	-33.393	13134	23884	0	316
-15.002	-36.098	13051	24906	0	316
-11.937	-33.754	13190	25702	0	316
-9.232	-28.958	13134	26497	0	316
-6.852	-24.017	13190	27179	0	316
-6.239	-23.801	13190	27747	0	316
-6.960	-25.207	13190	28315	0	316
-5.950	-25.965	13329	28884	0	316
-4.039	-24.198	13329	29452	0	316
-2.813	-21.277	13412	29906	0	316
-2.092	-17.959	13468	30247	0	316
-3.787	-18.356	13468	30474	0	316
-6.239	-21.565	13551	30588	0	316
-9.556	-23.801	13746	30588	0	316
-10.350	-26.109	13690	30588	0	316
-10.999	-24.630	13746	30588	0	316
-10.927	-23.981	13968	30588	0	316
-13.343	-25.388	13884	30247	0	316
-15.759	-29.607	13968	29679	0	316
-19.005	-34.475	14023	28884	0	316
-20.339	-38.082	14107	28315	0	316
-19.654	-36.819	14162	27520	0	316
-16.769	-34.367	14246	26611	0	316
-12.333	-32.167	14246	25588	0	316
-8.979	-29.787	14246	24793	0	316
-5.193	-28.994	14301	24111	0	316
-1.118	-24.450	14384	23543	0	316
1.082	-21.132	14440	23202	0	316
2.236	-17.743	14440	22861	0	316
0.325	-19.365	14523	22406	0	316
-3.787	-22.683	14579	21724	0	316
-6.960	-25.099	14579	21043	0	316
-10.133	-27.371	14662	20474	0	316
-8.979	-25.676	14718	19906	0	316
-7.681	-25.027	14718	19338	0	316
-5.517	-23.729	14857	18884	0	316
-5.409	-22.250	14801	18543	0	316
-5.409	-22.647	14801	18088	0	316
-6.455	-24.089	14857	17520	0	316
-10.855	-26.650	14857	16724	0	316
-12.045	-29.643	14996	15930	0	316
-13.956	-30.941	14940	14907	0	316
-12.802	-28.417	14857	14112	0	316
-11.432	-25.568	14940	13316	0	316
-8.222	-24.306	14857	12521	0	316
-8.150	-27.047	14940	11725	0	316
-8.439	-27.876	14857	11157	0	316
-9.917	-29.643	14857	11044	0	316
-10.242	-28.273	14857	10930	0	316
-11.215	-24.522	14857	10816	0	316
-12.946	-26.217	14940	10816	0	316
-15.543	-29.679	14857	11157	0	316
-18.247	-33.898	14857	11612	0	316
-18.067	-35.197	14857	12180	0	316
-13.992	-32.889	14940	12862	0	316
-7.285	-26.578	14940	13544	0	316
-3.065	-25.099	15079	14453	0	316
-2.092	-25.388	14996	15134	0	316
-8.366	-28.777	14996	15589	0	316
-13.992	-32.672	15079	15816	0	316
-18.103	-32.889	15079	16157	0	316
-16.877	-32.672	15079	16384	0	316
-11.648	-31.915	15218	16611	0	316
-3.642	-30.040	15134	16497	0	316
0.216	-27.299	15134	16497	0	316
1.659	-21.926	15218	16611	0	316
-0.938	-17.418	15218	16724	0	316
-4.977	-15.975	15218	16952	0	316
-6.167	-18.933	15273	17406	0	316
-5.445	-22.431	15273	17747	0	316
-1.262	-25.027	15357	17974	0	316
2.705	-23.188	15357	18202	0	316
3.318	-19.906	15412	18429	0	316
-0.180	-18.139	15412	18770	0	316
-5.481	-19.798	15412	18997	0	316
-10.025	-23.368	15496	19338	0	316
-9.556	-25.748	15551	19338	0	316
-5.986	-25.424	15551	19111	0	316
-0.361	-22.431	15551	18884	0	316
1.731	-21.024	15551	18770	0	316
-0.108	-21.890	15551	18656	0	316
-6.347	-28.164	15690	18656	0	316
-11.468	-31.590	15690	18884	0	316
-15.146	-33.790	15773	19452	0	316
-13.704	-31.049	15773	19793	0	316
-11.179	-28.958	15773	19906	0	316
-8.114	-28.237	15829	19906	0	316
-8.763	-30.076	15912	19679	0	316
-8.943	-33.105	15968	19224	0	316
-8.619	-33.429	15912	18656	0	316
-6.167	-28.994	15912	17974	0	316
-2.452	-26.830	15912	17179	0	316
-2.524	-25.784	15912	16497	0	316
-4.003	-27.551	15912	15930	0	316
-7.862	-31.302	15829	15134	0	316
-10.422	-31.807	15912	14225	0	316
-9.809	-31.699	15912	13657	0	316
-8.042	-29.751	15829	13316	0	316
-4.977	-29.210	15829	13203	0	316
-3.246	-28.201	15829	13089	0	316
-3.390	-27.732	15829	12975	0	316
-5.986	-27.407	15829	12975	0	316
-7.789	-27.551	15773	12975	0	316
-9.989	-26.866	15912	12975	0	316
-8.907	-26.938	15829	13089	0	316
-9.304	-24.522	15829	13203	0	316
-9.881	-27.191	15829	13430	0	316
-14.821	-31.590	15829	13657	0	316
-19.870	-37.577	15773	13657	0	316
-21.962	-40.678	15773	13771	0	316
-21.096	-39.163	15829	13998	0	316
-17.202	-35.485	15829	14566	0	316
-12.297	-30.508	15829	15248	0	316
-10.061	-29.571	15829	15703	0	316
-9.484	-27.660	15829	16044	0	316
-10.530	-27.371	15829	16157	0	316
-12.405	-26.758	15829	16044	0	316
-12.730	-26.902	15968	15816	0	316
-12.477	-26.325	15912	15816	0	316
-13.235	-28.705	15829	15930	0	316
-11.828	-30.076	15829	16044	0	316
-12.297	-29.859	15829	16271	0	316
-10.927	-29.535	15829	16497	0	316
-9.629	-27.804	15829	16724	0	316
-9.989	-26.433	15912	16724	0	316
-11.756	-28.489	15912	16724	0	316
-14.425	-31.338	15912	16724	0	316
-15.326	-33.429	15912	16611	0	316
-12.153	-33.105	15912	16497	0	316
-7.176	-29.282	15912	16497	0	316
-2.416	-25.027	15912	16611	0	316
-0.325	-22.719	15912	16724	0	316
-1.587	-21.168	15968	16724	0	316
-4.544	-20.880	16051	16838	0	316
-6.203	-22.467	15968	17065	0	316
-6.203	-22.142	15968	17179	0	316
-2.200	-20.555	15968	17065	0	316
2.200	-20.916	15912	16952	0	316
5.842	-20.483	15912	16952	0	316
4.940	-23.476	15968	17179	0	316
2.524	-25.207	15968	17406	0	316
-1.839	-25.316	15968	17634	0	316
-3.787	-21.890	16051	17747	0	316
-3.246	-16.372	16051	17861	0	316
0.108	-12.189	16051	18202	0	316
1.226	-13.451	16107	18543	0	316
1.442	-14.858	16107	18884	0	316
-1.226	-19.437	16107	19338	0	316
-5.229	-23.368	16190	19565	0	316
-8.871	-27.479	16190	19679	0	316
-12.009	-27.696	16190	19565	0	316
-10.025	-27.010	16246	19452	0	316
-6.960	-21.565	16246	19338	0	316
-2.524	-17.562	16246	19338	0	316
1.839	-15.290	16246	19338	0	316
4.255	-15.038	16329	19111	0	316
5.121	-15.759	16329	18997	0	316
6.311	-13.163	16329	18656	0	316
9.052	-9.268	16329	18088	0	316
9.701	-7.573	16329	17179	0	316
8.943	-8.078	16329	16497	0	316
5.662	-11.143	16329	16157	0	316
3.678	-15.362	16329	15816	0	316
2.813	-16.769	16329	15362	0	316
3.173	-18.716	16329	14794	0	316
2.993	-20.555	16329	14225	0	316
-1.010	-23.044	16329	13657	0	316
-5.301	-23.368	16246	13430	0	316
-8.078	-23.224	16246	13203	0	316
-9.160	-20.555	16329	13203	0	316
-7.176	-19.041	16246	13430	0	316
-5.842	-18.897	16246	13544	0	316
-6.708	-19.978	16246	13430	0	316
-7.104	-20.123	16190	13316	0	316
-8.042	-19.906	16190	13430	0	316
-8.294	-19.329	16190	13771	0	316
-7.176	-18.933	16190	14225	0	316
-6.491	-20.736	16190	14794	0	316
-4.327	-23.873	16190	15021	0	316
-1.911	-24.125	16190	15248	0	316
0.938	-21.673	16190	15589	0	316
6.599	-14.353	16190	15816	0	316
10.494	-8.150	16190	16044	0	316
12.477	-7.032	16190	16384	0	316
9.484	-11.071	16246	16724	0	316
3.859	-21.168	16246	16952	0	316
-3.462	-28.381	16246	17179	0	316
-6.635	-29.391	16246	17406	0	316
-7.573	-26.542	16246	17406	0	316
-5.265	-23.296	16329	17293	0	316
-4.508	-21.096	16329	17179	0	316
-8.439	-24.666	16329	17065	0	316
-10.386	-28.237	16329	16952	0	316
-12.189	-28.886	16329	16952	0	316
-12.514	-26.542	16329	17065	0	316
-10.206	-23.152	16329	17406	0	316
-8.871	-22.070	16384	17747	0	316
-8.006	-21.421	16384	18088	0	316
-8.042	-21.781	16384	18202	0	316
-4.796	-20.014	16384	18088	1	1044
0.072	-16.300	16384	18088	0	1044
4.652	-14.461	16384	17861	0	1044
8.222	-13.523	16384	17634	0	1044
10.530	-12.405	16439	17520	0	1044
9.052	-12.694	16439	17520	0	1044
7.898	-11.504	16439	17406	0	1044
7.429	-9.701	16439	17179	0	1044
9.124	-8.655	16439	16724	0	1044
11.323	-7.032	16384	16384	0	1044
12.189	-7.717	16384	15816	0	1044
8.907	-7.681	16384	15362	0	1044
5.481	-10.169	16384	14907	0	1044
1.226	-10.350	16329	14453	0	1044
-1.479	-10.638	16329	14453	0	1044
-4.291	-12.369	16329	14566	0	1044
-7.573	-17.310	16329	14794	0	1044
-13.415	-21.024	16329	14794	0	1044
-16.733	-26.109	16329	14680	0	1044
-16.228	-25.171	16329	14566	0	1044
-12.045	-21.601	16329	14566	0	1044
-8.907	-20.736	16329	14794	0	1044
-7.212	-18.680	16329	15134	0	1044
-6.888	-18.752	16329	15475	0	1044
-5.734	-17.418	16329	16044	0	1044
-2.741	-13.523	16329	16384	0	1044
2.813	-8.114	16329	16497	0	1044
8.691	-1.947	16329	16384	0	1044
9.809	0.721	16329	16271	0	1044
9.737	1.406	16329	16044	0	1044
7.970	-0.361	16246	15816	0	1044
6.455	-2.849	16246	15589	0	1044
7.104	-4.652	16246	15362	0	1044
7.681	-5.409	16246	15134	0	1044
9.232	-4.616	16246	15134	0	1044
9.845	-3.606	16246	15362	0	1044
11.143	-1.731	16246	15816	0	1044
11.179	-2.416	16246	16384	0	1044
7.465	-5.049	16246	16838	0	1044
2.272	-12.225	16246	17179	0	1044
-5.914	-18.752	16329	17634	0	1044
-10.350	-22.791	16329	18088	0	1044
-9.773	-20.483	16329	18429	0	1044
-5.806	-16.697	16329	18543	0	1044
-0.649	-11.251	16384	18770	0	1044
2.596	-9.340	16384	19111	0	1044
3.931	-7.789	16384	18997	0	1044
5.517	-8.222	16384	18656	0	1044
5.986	-7.825	16384	18315	0	1044
7.862	-6.455	16384	17974	0	1044
8.583	-5.373	16384	17520	0	1044
9.196	-2.957	16384	16952	0	1044
9.196	-0.252	16384	16497	0	1044
9.268	0.108	16329	16157	0	1044
7.825	-0.685	16329	15930	0	1044
6.347	-2.921	16384	16271	0	1044
4.400	-4.868	16384	16611	0	1044
1.479	-6.780	16384	17179	0	1044
0.902	-5.914	16439	17406	0	1044
0.938	-4.616	16439	17747	0	1044
2.200	-3.823	16439	17861	0	1044
4.652	-2.164	16439	17747	0	1044
4.327	-3.137	16439	17406	0	1044
1.334	-5.734	16439	17065	0	1044
-3.282	-11.360	16439	16611	0	1044
-6.239	-14.425	16439	16384	0	1044
-5.193	-17.995	16439	16271	0	1044
-1.803	-19.401	16439	15930	0	1044
1.587	-19.798	16439	15475	0	1044
2.813	-19.221	16384	15134	0	1044
1.479	-18.536	16384	14566	0	1044
0.974	-16.120	16384	14112	0	1044
2.272	-11.720	16329	13657	0	1044
5.085	-9.881	16329	13430	0	1044
9.088	-8.907	16329	13430	0	1044
13.523	-6.275	16329	13544	0	1044
16.552	-1.839	16246	13544	0	1044
16.012	3.065	16246	13430	0	1044
14.100	4.183	16246	13203	0	1044
9.592	2.128	16190	12862	1	316
7.321	-3.570	16190	12634	0	316
7.825	-5.481	16107	12407	0	316
12.333	0.180	16107	12407	0	316
15.507	7.357	16107	12407	0	316
16.408	11.071	16190	12521	0	316
14.317	9.845	16107	12748	0	316
10.746	2.885	16051	13089	0	316
6.239	-3.787	16051	13544	0	316
3.282	-6.960	16051	14112	0	316
-0.361	-8.691	16051	14907	0	316
-3.173	-10.783	16051	15703	0	316
-2.669	-9.484	16051	16384	0	316
-0.397	-8.222	16051	16838	0	316
5.986	-2.957	16051	17293	0	316
9.448	0.649	16107	17974	0	316
8.222	0.252	16190	18656	0	316
0.649	-7.429	16190	19224	0	316
-7.825	-15.002	16190	19793	0	316
-12.622	-19.293	16246	20247	0	316
-11.937	-15.326	16246	20702	0	316
-4.724	-8.006	16246	21043	0	316
1.767	-3.606	16329	21384	0	316
5.265	-2.019	16329	21838	0	316
4.796	-5.554	16384	22065	0	316
1.875	-8.402	16384	22179	0	316
1.587	-7.032	16439	22293	0	316
1.983	-6.022	16522	22406	0	316
3.678	-4.364	16522	22634	0	316
6.491	-2.596	16578	22634	0	316
7.285	0.974	16578	22406	0	316
10.097	5.481	16661	22065	0	316
11.468	7.537	16661	21497	0	316
12.550	6.203	16578	20702	0	316
11.756	-0.505	16578	19793	0	316
10.458	-3.678	16578	18884	0	316
13.271	-1.839	16578	17974	0	316
18.860	6.996	16578	17293	0	316
23.332	16.156	16578	16838	0	316
22.250	18.680	16578	16384	0	316
16.480	11.215	16578	15703	0	316
6.383	-1.190	16578	14907	0	316
1.731	-9.520	16578	14112	0	316
1.659	-8.799	16522	13544	0	316
4.436	-3.714	16522	13203	0	316
6.671	2.524	16522	12975	0	316
6.347	0.974	16522	12634	0	316
5.698	-3.354	16522	12407	0	316
6.708	-3.642	16439	12294	0	316
9.556	0.902	16439	12294	0	316
9.484	7.573	16439	12294	0	316
6.744	10.278	16439	12180	0	316
1.515	6.383	16384	12180	0	316
-0.252	1.875	16384	12180	0	316
4.039	0.325	16384	12294	0	316
12.441	3.787	16384	12521	0	316
21.926	10.350	16384	12862	0	316
27.119	14.930	16384	13316	0	316
28.922	18.716	16384	13657	0	316
27.660	20.411	16329	13998	0	316
24.919	23.116	16329	14225	0	316
23.404	22.467	16329	14225	0	316
22.358	21.204	16329	14453	0	316
23.224	18.788	16329	14907	0	316
24.919	16.589	16329	15589	0	316
23.512	15.218	16329	16157	0	316
18.644	14.858	16329	16384	0	316
12.333	12.982	16329	16611	0	316
7.609	9.845	16329	16952	0	316
6.419	6.708	16329	17065	0	316
7.285	4.868	16329	17065	0	316
8.294	3.642	16329	16952	0	316
8.691	4.436	16329	16838	0	316
11.287	5.770	16329	16497	0	316
15.723	11.468	16246	15930	0	316
21.313	15.362	16246	15362	0	316
24.775	18.824	16246	15021	0	316
24.450	18.824	16190	14907	0	316
24.486	17.418	16190	15021	0	316
24.486	17.202	16190	15475	1	316
25.856	18.969	16190	15930	0	316
28.417	22.647	16190	16384	0	316
29.030	24.017	16190	16838	0	316
26.758	22.070	16190	17065	0	316
26.325	19.618	16246	17293	0	316
24.450	17.923	16246	17974	0	316
24.702	18.067	16329	18770	0	316
24.089	19.726	16384	19452	0	316
21.998	20.195	16384	19793	0	316
20.087	16.697	16439	20134	0	316
17.526	15.002	16439	20588	0	316
15.831	10.927	16439	20815	0	316
16.120	12.441	16439	20929	0	316
14.425	12.802	16439	20588	0	316
12.838	14.353	16439	20247	0	316
10.097	10.819	16439	19793	0	316
9.629	8.763	16439	19338	0	316
8.547	6.167	16439	18884	0	316
8.943	7.429	16522	18656	0	316
9.304	8.330	16522	18429	0	316
12.333	11.468	16522	18202	0	316
15.831	12.802	16522	17747	0	316
21.060	15.903	16522	17406	0	316
25.640	18.356	16522	17179	0	316
26.001	21.204	16522	16724	0	316
24.306	22.034	16522	16384	0	316
23.549	23.440	16522	15930	0	316
22.647	24.234	16522	15589	0	316
23.621	25.207	16522	15475	0	316
26.722	27.191	16522	15589	0	316
28.056	27.479	16522	15589	0	316
27.876	27.047	16522	15362	0	316
27.047	25.929	16522	15134	0	316
24.234	24.306	16522	14907	0	316
20.844	22.611	16522	14794	0	316
17.454	19.762	16522	15134	0	316
13.451	19.510	16522	15589	0	316
10.458	18.067	16578	15930	0	316
8.727	16.769	16522	15816	0	316
8.330	16.336	16522	15248	0	316
10.963	14.785	16522	14680	0	316
13.704	12.658	16522	14339	0	316
17.238	11.287	16522	14225	0	316
20.267	12.225	16439	14453	0	316
21.277	13.523	16439	14680	0	316
22.142	16.336	16439	15021	0	316
20.014	16.084	16439	15248	0	316
16.949	13.271	16439	15475	0	316
14.100	10.025	16439	15475	0	316
13.163	7.393	16439	15703	0	316
13.091	10.494	16439	15816	0	316
15.651	13.271	16439	16157	0	316
16.805	16.625	16439	16384	0	316
15.110	17.310	16439	16384	0	316
12.910	13.992	16439	16044	0	316
10.097	12.009	16439	15816	0	316
10.025	9.809	16439	15703	0	316
12.405	11.612	16439	15703	0	316
14.425	14.064	16439	15816	0	316
17.779	17.274	16439	15930	0	316
20.267	19.546	16439	15930	0	316
20.339	21.277	16384	15703	0	316
21.132	19.185	16384	15475	0	316
18.752	17.562	16384	15021	0	316
16.228	15.146	16384	14680	0	316
14.858	13.704	16329	14566	0	316
14.533	12.874	16329	14680	0	316
16.949	15.362	16329	14680	0	316
19.654	17.418	16329	14680	0	316
21.926	18.608	16246	14566	0	316
23.476	19.221	16246	14680	0	316
21.998	17.490	16246	14907	0	316
18.067	14.136	16246	15134	0	316
13.776	11.396	16246	15362	0	316
11.937	10.206	16246	15589	0	316
12.730	10.566	16246	15816	0	316
13.559	11.432	16246	16271	0	316
14.713	10.314	16329	16611	0	316
12.297	10.278	16329	16952	0	316
10.386	9.953	16329	16952	0	316
8.979	10.350	16329	17065	0	316
10.783	12.586	16329	17179	0	316
11.828	13.379	16329	17520	0	316
13.523	12.333	16329	17747	0	316
13.776	12.261	16384	17974	0	316
15.038	12.405	16329	18088	0	316
16.805	12.910	16384	18088	0	316
17.346	16.264	16384	18088	0	316
18.175	18.356	16384	17974	0	316
16.408	20.880	16384	17861	0	316
13.415	20.519	16384	17634	0	316
10.674	20.303	16329	17293	0	316
10.710	20.014	16329	16952	0	316
11.035	18.572	16329	16724	0	316
13.018	18.320	16329	16611	0	316
13.884	17.526	16329	16611	0	316
13.487	16.661	16329	16724	0	316
12.405	18.031	16329	16838	0	316
13.091	19.546	16329	16952	0	316
15.759	19.726	16329	16838	0	316
18.139	18.860	16329	16724	0	316
20.339	16.733	16329	16838	0	316
21.241	18.067	16384	17065	0	316
20.664	20.411	16384	17293	0	316
20.411	24.017	16384	17406	0	316
19.834	25.027	16384	17293	0	316
21.529	24.017	16384	17293	0	316
22.358	25.171	16384	17406	0	316
24.558	28.128	16384	17634	0	316
27.912	32.203	16439	18088	0	316
30.797	34.692	16439	18543	0	316
30.977	33.538	16439	18543	0	316
30.977	29.859	16522	18429	0	316
27.479	24.198	16522	18429	0	316
25.496	21.818	16522	18543	0	316
23.909	20.808	16522	18429	0	316
22.791	22.863	16439	17861	0	316
20.087	23.080	16522	17179	0	316
15.182	22.322	16522	16611	0	316
9.737	19.365	16522	16271	0	316
8.042	13.992	16522	15930	0	316
12.045	11.973	16439	15475	0	316
18.067	12.658	16384	15248	0	316
21.890	15.002	16384	15248	0	316
19.041	17.057	16439	15475	0	316
12.550	15.110	16439	15816	0	316
5.986	13.271	16439	16044	0	316
6.744	13.018	16439	16157	0	316
12.081	15.002	16439	16271	0	316
20.952	21.024	16439	16384	0	316
26.289	26.650	16439	16271	0	316
28.092	27.984	16439	16044	0	316
25.893	27.083	16439	15703	0	316
24.522	26.109	16439	15134	0	316
24.486	24.630	16439	14907	0	316
27.299	26.253	16439	14794	0	316
30.761	28.309	16439	14794	0	316
34.764	32.059	16439	14907	0	316
36.783	35.016	16439	15248	0	316
35.557	35.882	16439	15475	0	316
30.833	34.475	16439	15703	0	316
24.450	29.066	16439	15589	0	316
17.382	22.683	16439	15589	0	316
13.307	18.500	16439	15589	0	316
14.172	17.382	16439	15475	0	316
14.569	19.257	16439	15475	0	316
15.110	20.591	16439	15703	0	316
13.523	21.890	16439	15930	0	316
11.107	21.457	16439	16271	0	316
12.514	19.978	16439	16384	0	316
14.569	21.241	16384	16044	0	316
20.014	23.693	16384	15703	0	316
22.611	27.155	16384	15362	0	316
25.712	28.417	16384	15362	0	316
26.325	30.581	16384	15475	0	316
29.499	31.662	16384	15703	0	316
33.429	32.420	16384	15816	0	316
38.478	37.036	16384	16044	0	316
43.635	39.488	16384	16271	0	316
43.671	39.849	16384	16497	0	316
41.760	36.819	16384	16611	0	316
37.829	33.105	16384	16838	0	316
35.521	30.653	16439	17179	0	316
35.160	29.679	16439	17520	0	316
35.377	28.994	16439	17634	0	316
32.420	25.965	16439	17520	0	316
27.010	21.601	16439	17634	0	316
20.664	16.300	16439	17747	0	316
16.913	14.281	16439	17974	0	316
15.867	13.992	16439	17861	0	316
16.516	15.435	16439	17179	0	316
17.851	16.697	16439	16384	0	316
19.329	18.608	16384	15703	0	316
21.277	21.565	16384	15248	0	316
23.152	25.568	16384	14794	0	316
25.279	28.922	16384	14453	0	316
25.965	29.246	16329	14225	0	316
26.433	30.400	16329	14225	0	316
26.433	31.013	16329	14112	0	316
27.551	31.518	16246	13998	0	316
28.056	32.708	16246	13884	0	316
29.715	33.970	16246	13998	0	316
33.718	34.006	16246	14112	0	316
37.360	35.918	16246	14566	0	316
42.914	37.865	16246	15134	0	316
45.402	38.658	16246	15930	0	316
45.582	37.396	16246	16611	0	316
42.914	35.810	16329	17293	0	316
40.281	33.646	16329	17406	0	316
36.206	30.869	16329	17406	0	316
33.177	27.155	16329	17520	0	316
28.741	20.772	16329	17520	0	316
23.044	16.444	16329	17293	0	316
19.726	12.910	16246	16724	0	316
17.202	10.025	16246	16384	0	316
16.516	10.602	16246	16044	0	316
17.346	11.612	16246	15816	0	316
18.824	14.461	16190	15703	0	316
20.159	19.149	16190	15475	0	316
20.591	23.116	16246	15475	0	316
21.241	25.352	16246	15703	0	316
22.431	28.453	16246	15816	0	316
25.243	32.600	16329	15816	0	316
31.590	38.190	16190	15816	0	316
38.947	45.150	16246	16157	0	316
44.464	50.667	16246	16497	0	316
46.845	55.139	16246	16838	0	316
45.510	55.211	16246	16952	0	316
44.284	54.201	16246	17065	0	316
42.193	48.395	16246	17179	0	316
41.075	41.760	16246	17520	0	316
39.199	36.387	16246	17861	0	316
36.098	33.502	16246	18088	0	316
