neuroNicle FX2
D3F25R12
Bluetooth SPP
2023년 6월 19일 월요일
오전 10:16
time interval = 4msec
EEG1	EEG2	PPG	sdPPG	pulse	peak_interval(msec)
590.804	3.065	16378	15593	0	316
590.804	3.678	16377	15474	0	316
590.804	6.455	16376	15420	0	316
590.804	8.979	16376	15509	0	316
590.804	11.215	16377	15748	0	316
590.804	12.477	16379	16063	0	316
590.804	11.720	16381	16411	0	316
590.804	12.730	16384	16826	0	316
590.804	13.343	16387	17324	0	316
590.804	11.792	16390	17778	0	316
590.804	10.386	16393	18020	0	316
590.804	9.412	16395	18058	0	316
590.804	6.455	16396	17977	0	316
590.804	5.301	16397	17854	0	316
590.804	4.436	16399	17792	0	316
590.804	8.907	16400	17778	0	316
590.804	17.057	16401	17715	1	704
590.804	24.775	16403	17643	0	704
590.804	26.397	16405	17641	0	704
590.804	23.332	16407	17719	0	704
590.804	13.271	16410	17885	0	704
590.804	7.285	16413	18022	0	704
590.804	7.248	16415	18001	0	704
590.804	8.439	16417	17913	0	704
590.804	8.655	16418	17826	0	704
590.804	9.016	16419	17632	0	704
590.804	7.753	16419	17330	0	704
590.804	9.232	16420	17080	0	704
590.804	12.982	16420	16885	0	704
590.804	18.933	16419	16614	0	704
590.804	20.303	16418	16236	0	704
590.804	22.106	16416	15821	0	704
590.804	20.195	16414	15448	0	704
590.804	17.923	16413	15244	0	704
590.804	14.389	16414	15271	0	704
590.804	15.939	16413	15359	0	704
590.804	14.317	16413	15349	0	704
590.804	16.228	16413	15335	0	704
590.804	17.490	16413	15369	0	704
590.804	19.041	16413	15367	0	704
590.804	19.041	16413	15367	0	704
590.804	19.978	16412	15404	0	704
590.804	17.202	16412	15408	0	704
590.804	15.615	16411	15414	0	704
590.804	11.540	16411	15464	0	704
590.804	12.550	16410	15436	0	704
590.804	14.353	16409	15295	0	704
590.804	15.615	16407	15105	0	704
590.804	18.428	16404	14898	0	704
590.804	15.615	16401	14726	0	704
590.804	14.677	16400	14680	0	704
590.804	10.746	16398	14738	0	704
590.804	10.350	16396	14754	0	704
590.804	11.035	16394	14686	0	704
590.804	12.261	16392	14599	0	704
590.804	13.812	16389	14513	0	704
590.804	15.002	16386	14430	0	704
590.804	12.910	16384	14357	0	704
590.804	13.091	16381	14301	0	704
590.804	12.550	16378	14267	0	704
590.804	12.369	16375	14258	0	704
590.804	13.776	16372	14271	0	704
590.804	13.884	16369	14311	0	704
590.804	15.831	16367	14375	0	704
590.804	15.723	16364	14464	0	704
590.804	13.487	16362	14571	0	704
590.804	10.783	16360	14696	0	704
590.804	6.455	16358	14839	0	704
590.804	4.219	16356	14994	0	704
590.804	3.246	16354	15198	0	704
590.804	1.947	16354	15529	0	704
590.804	1.767	16355	15996	0	704
590.804	-0.325	16357	16522	0	704
590.804	-1.298	16359	17064	0	704
590.804	-0.757	16362	17610	0	704
590.804	-3.931	16365	18096	0	704
590.804	-6.167	16367	18425	0	704
590.804	-7.934	16369	18580	0	704
590.804	-6.599	16370	18624	0	704
590.804	-4.472	16370	18590	0	704
590.804	-1.334	16371	18495	0	704
590.804	-0.685	16371	18350	0	704
590.804	-0.938	16371	18173	0	704
590.804	-1.515	16371	18018	0	704
590.804	-1.370	16372	17973	0	704
590.804	-0.865	16373	18016	0	704
590.804	0.974	16374	17999	0	704
590.804	3.426	16374	17872	0	704
590.804	10.819	16374	17697	0	704
590.804	15.975	16374	17503	0	704
590.804	16.949	16373	17294	0	704
590.804	16.589	16372	17076	0	704
590.804	12.838	16372	16856	0	704
590.804	13.740	16371	16643	0	704
590.804	14.317	16370	16445	0	704
590.804	17.815	16369	16309	1	316
590.804	16.625	16370	16309	0	316
590.804	15.074	16370	16419	0	316
590.804	14.821	16371	16489	0	316
590.804	12.910	16371	16469	0	316
590.804	13.235	16370	16411	0	316
590.804	12.622	16370	16347	0	316
590.804	11.323	16370	16273	0	316
590.804	12.658	16369	16192	0	316
590.804	15.543	16368	16111	0	316
590.804	20.411	16368	16033	0	316
590.804	23.296	16367	15960	0	316
590.804	23.981	16366	15892	0	316
590.804	22.178	16366	15871	0	316
590.804	18.680	16367	15978	0	316
590.804	19.690	16368	16224	0	316
590.804	22.935	16371	16578	0	316
590.804	29.138	16375	17050	0	316
590.804	33.898	16378	17509	0	316
590.804	36.531	16380	17776	0	316
590.804	37.108	16383	17858	0	316
590.804	36.242	16384	17836	0	316
590.804	32.961	16384	17741	0	316
590.804	27.768	16385	17586	0	316
590.804	23.224	16385	17385	0	316
590.804	17.887	16385	17195	0	316
590.804	17.995	16385	17106	0	316
590.804	19.690	16386	17098	0	316
590.804	24.486	16387	17034	0	316
590.804	25.388	16387	16874	0	316
590.804	24.198	16386	16671	0	316
590.804	24.594	16386	16459	0	316
590.804	20.303	16385	16244	0	316
590.804	20.952	16384	16021	0	316
590.804	23.044	16384	15803	0	316
590.804	23.549	16382	15599	0	316
590.804	24.991	16380	15414	0	316
590.804	27.624	16379	15248	0	316
590.804	29.499	16377	15107	0	316
590.804	29.643	16376	14992	0	316
590.804	29.427	16374	14906	0	316
590.804	28.417	16372	14843	0	316
590.804	28.417	16371	14807	0	316
590.804	28.020	16369	14799	0	316
590.804	28.164	16368	14813	0	316
590.804	25.676	16367	14853	0	316
590.804	22.647	16366	14952	0	316
590.804	22.214	16366	15184	0	316
590.804	22.214	16367	15555	0	316
590.804	24.558	16369	15998	0	316
590.804	25.712	16372	16465	0	316
590.804	24.053	16375	16947	0	316
590.804	22.250	16379	17425	0	316
590.804	20.483	16383	17882	0	316
590.804	16.877	16385	18257	0	316
590.804	16.156	16388	18499	0	316
590.804	15.615	16392	18679	0	316
590.804	17.995	16395	18838	0	316
590.804	19.365	16397	18864	0	316
590.804	20.772	16398	18717	0	316
590.804	18.933	16399	18465	0	316
590.804	16.949	16399	18153	0	316
590.804	12.333	16399	17796	0	316
590.804	10.783	16398	17451	0	316
590.804	12.910	16398	17215	0	316
590.804	15.723	16399	17070	0	316
590.804	21.132	16398	16880	0	316
590.804	23.332	16398	16600	0	316
590.804	25.532	16397	16295	0	316
590.804	26.830	16396	16027	0	316
590.804	25.135	16396	15930	0	316
590.804	23.512	16398	16103	0	316
590.804	19.978	16400	16449	0	316
590.804	13.163	16403	16743	0	316
590.804	10.530	16404	16838	0	316
590.804	9.376	16405	16760	0	316
590.804	9.268	16405	16596	0	316
590.804	10.133	16404	16417	0	316
590.804	10.169	16405	16325	0	316
590.804	8.583	16405	16339	1	316
590.804	8.619	16407	16401	0	316
590.804	5.842	16408	16491	0	316
590.804	9.629	16410	16598	0	316
590.804	13.343	16411	16673	0	316
590.804	16.552	16411	16667	0	316
590.804	22.070	16413	16649	0	316
590.804	20.880	16414	16691	0	316
590.804	20.880	16415	16760	0	316
590.804	21.637	16416	16824	0	316
590.804	21.601	16418	16880	0	316
590.804	23.116	16419	16887	0	316
590.804	25.135	16419	16760	0	316
590.804	24.955	16419	16538	0	316
590.804	25.532	16419	16407	0	316
590.804	26.722	16420	16457	0	316
590.804	23.368	16421	16520	0	316
590.804	21.601	16421	16413	0	316
590.804	20.988	16420	16154	0	316
590.804	18.175	16418	15827	0	316
590.804	17.670	16416	15470	0	316
590.804	13.884	16413	15097	0	316
590.804	14.245	16410	14767	0	316
590.804	12.730	16407	14577	0	316
590.804	12.441	16406	14549	0	316
590.804	10.819	16405	14621	0	316
590.804	6.311	16405	14754	0	316
590.804	3.354	16404	14932	0	316
590.804	5.193	16404	15101	0	316
590.804	9.088	16403	15170	0	316
590.804	17.743	16401	15119	0	316
590.804	21.060	16400	15049	0	316
590.804	22.899	16399	15075	0	316
590.804	23.549	16398	15178	0	316
590.804	23.188	16396	15220	0	316
590.804	24.630	16394	15156	0	316
590.804	24.883	16392	15051	0	316
590.804	22.070	16389	14940	0	316
590.804	21.060	16386	14829	0	316
590.804	16.048	16384	14722	0	316
590.804	17.562	16382	14623	0	316
590.804	17.093	16378	14541	0	316
590.804	18.103	16376	14527	0	316
590.804	14.713	16375	14658	0	316
590.804	12.982	16373	14904	0	316
590.804	10.278	16372	15113	0	316
590.804	8.475	16370	15232	0	316
590.804	10.458	16369	15321	0	316
590.804	7.825	16368	15440	0	316
590.804	8.402	16367	15670	0	316
590.804	9.232	16368	15982	0	316
590.804	12.622	16367	16230	0	316
590.804	14.966	16367	16367	0	316
590.804	18.608	16366	16445	0	316
590.804	16.156	16365	16495	0	316
590.804	15.543	16365	16560	0	316
590.804	15.182	16365	16733	0	316
590.804	16.372	16366	16979	0	316
590.804	20.627	16366	17151	0	316
590.804	22.827	16366	17205	0	316
590.804	23.837	16365	17205	0	316
590.804	26.181	16365	17175	0	316
590.804	27.371	16365	17118	0	316
590.804	30.617	16364	17082	0	316
590.804	31.807	16365	17191	0	316
590.804	31.626	16367	17507	0	316
590.804	25.965	16370	17848	0	316
590.804	21.277	16371	18020	0	316
590.804	15.326	16372	18030	0	316
590.804	16.408	16373	17957	0	316
590.804	19.401	16373	17836	0	316
590.804	25.568	16373	17671	0	316
590.804	29.499	16372	17475	0	316
590.804	28.345	16372	17259	0	316
590.804	20.808	16371	17032	0	316
590.804	13.884	16370	16810	0	316
590.804	6.203	16369	16637	0	316
590.804	6.816	16369	16602	0	316
590.804	12.982	16370	16671	0	316
590.804	21.349	16370	16699	0	316
590.804	27.083	16370	16675	0	316
590.804	26.433	16371	16737	0	316
590.804	21.601	16373	16874	0	316
590.804	16.985	16373	16941	0	316
590.804	14.245	16374	16899	0	316
590.804	16.372	16374	16806	0	316
590.804	18.392	16374	16727	0	316
590.804	16.120	16375	16745	0	316
590.804	13.848	16376	16838	0	316
590.804	9.448	16376	16868	0	316
590.804	10.819	16376	16790	0	316
590.804	12.766	16376	16665	0	316
590.804	14.894	16376	16522	0	316
590.804	17.670	16376	16407	0	316
590.804	16.120	16376	16405	0	316
590.804	15.074	16377	16495	0	316
590.804	12.297	16377	16530	0	316
590.804	7.285	16377	16467	0	316
590.804	3.390	16377	16397	0	316
590.804	-1.118	16379	16473	0	316
590.804	-0.541	16381	16747	0	316
590.804	1.623	16383	17048	0	316
590.804	6.167	16384	17183	0	316
590.804	7.645	16385	17157	0	316
590.804	5.590	16386	17090	0	316
590.804	3.714	16388	17134	0	316
590.804	1.082	16391	17387	0	316
590.804	2.164	16395	17768	0	316
590.804	4.904	16398	18050	0	316
590.804	10.169	16401	18143	0	316
590.804	14.172	16404	18165	0	316
590.804	17.310	16406	18171	0	316
590.804	22.322	16407	18050	0	316
590.804	24.089	16408	17770	0	316
590.804	22.719	16407	17401	0	316
590.804	17.743	16406	16987	0	316
590.804	9.917	16405	16544	0	316
590.804	4.400	16403	16099	0	316
590.804	3.750	16400	15656	0	316
590.804	6.455	16397	15236	0	316
590.804	9.953	16395	14851	0	316
590.804	9.304	16392	14547	0	316
590.804	6.058	16391	14450	0	316
590.804	4.400	16391	14613	0	316
590.804	5.373	16392	14853	0	316
590.804	7.429	16391	14972	0	316
590.804	8.078	16390	14974	0	316
590.804	5.878	16389	14932	0	316
590.804	3.318	16387	14869	0	316
590.804	-0.325	16386	14827	0	316
590.804	1.515	16385	14902	0	316
590.804	2.200	16385	15075	0	316
590.804	0.938	16384	15196	0	316
590.804	-0.505	16384	15220	0	316
590.804	-0.577	16384	15244	0	316
590.804	-1.659	16384	15414	0	316
590.804	-1.623	16385	15825	0	316
590.804	0.180	16388	16421	0	316
590.804	-2.741	16392	17062	0	316
590.804	-2.993	16396	17568	0	316
590.804	-4.904	16398	17824	0	316
590.804	-6.744	16399	17858	0	316
590.804	-9.268	16400	17762	0	316
590.804	-10.819	16400	17618	0	316
590.804	-14.064	16401	17522	0	316
590.804	-14.028	16401	17473	0	316
590.804	-9.917	16401	17338	0	316
590.804	-7.068	16400	17080	0	316
590.804	-4.904	16399	16764	0	316
590.804	-5.662	16397	16427	0	316
590.804	-8.114	16395	16087	0	316
590.804	-11.684	16392	15791	0	316
590.804	-13.992	16392	15636	0	316
590.804	-12.405	16391	15597	0	316
590.804	-15.687	16389	15531	0	316
590.804	-17.706	16388	15428	0	316
590.804	-20.267	16387	15422	0	316
590.804	-20.952	16387	15511	0	316
590.804	-21.241	16386	15547	0	316
590.804	-15.867	16385	15488	0	316
590.804	-12.730	16384	15394	0	316
590.804	-10.566	16382	15289	0	316
590.804	-9.629	16380	15180	0	316
590.804	-12.117	16378	15073	0	316
590.804	-12.838	16376	14974	0	316
590.804	-11.251	16373	14888	0	316
590.804	-10.783	16371	14821	0	316
590.804	-7.825	16369	14815	0	316
590.804	-5.157	16368	14952	0	316
590.804	-2.488	16368	15202	0	316
590.804	-1.442	16367	15414	0	316
590.804	-3.029	16366	15537	0	316
590.804	-6.527	16365	15619	0	316
590.804	-11.432	16364	15684	0	316
590.804	-12.225	16363	15736	0	316
590.804	-8.907	16362	15783	0	316
590.804	-6.311	16361	15825	0	316
590.804	-5.481	16359	15869	0	316
590.804	-6.203	16358	15910	0	316
590.804	-6.924	16358	15994	0	316
590.804	-5.626	16358	16200	0	316
590.804	-2.200	16359	16493	0	316
590.804	0.938	16359	16735	0	316
590.804	1.587	16360	16868	0	316
590.804	-0.541	16360	16941	0	316
590.804	-2.957	16360	16985	0	316
590.804	-3.498	16360	17038	0	316
590.804	-1.010	16361	17193	0	316
590.804	2.236	16363	17419	0	316
590.804	6.491	16364	17572	0	316
590.804	9.268	16365	17645	0	316
590.804	9.232	16367	17782	0	316
590.804	9.232	16369	17981	0	316
590.804	9.232	16371	18090	0	316
590.804	9.232	16371	18066	0	316
590.804	7.285	16372	17969	0	316
590.804	7.357	16373	17872	0	316
590.804	6.671	16375	17864	0	316
590.804	8.475	16376	17925	1	792
590.804	11.864	16377	17911	0	792
590.804	11.684	16378	17780	0	792
590.804	14.353	16378	17596	0	792
590.804	15.398	16378	17389	0	792
590.804	17.202	16378	17159	0	792
590.804	22.431	16377	16915	0	792
590.804	27.119	16377	16667	0	792
590.804	27.443	16376	16423	0	792
590.804	25.316	16374	16200	0	792
590.804	25.135	16373	15994	0	792
590.804	20.555	16372	15807	0	792
590.804	22.539	16371	15636	0	792
590.804	25.712	16369	15492	0	792
590.804	26.325	16368	15371	0	792
590.804	26.217	16367	15273	0	792
590.804	24.919	16365	15198	0	792
590.804	21.926	16364	15150	0	792
590.804	19.798	16363	15125	0	792
590.804	19.005	16362	15123	0	792
590.804	16.625	16361	15138	0	792
590.804	16.192	16360	15174	0	792
590.804	13.848	16359	15228	0	792
590.804	16.084	16358	15299	0	792
590.804	16.733	16358	15381	0	792
590.804	18.103	16358	15515	0	792
590.804	16.805	16359	15783	0	792
590.804	15.903	16360	16146	0	792
590.804	12.838	16361	16443	0	792
590.804	10.422	16362	16628	0	792
590.804	10.638	16363	16751	0	792
590.804	10.350	16364	16878	0	792
590.804	10.169	16366	17092	0	792
590.804	15.254	16368	17374	0	792
590.804	19.149	16370	17614	0	792
590.804	27.299	16374	17844	0	792
590.804	29.607	16376	18094	0	792
590.804	29.138	16378	18237	0	792
590.804	25.676	16380	18231	0	792
590.804	25.712	16381	18143	0	792
590.804	28.741	16382	18007	0	792
590.804	33.646	16383	17868	0	792
590.804	34.908	16384	17816	0	792
590.804	30.797	16385	17832	0	792
590.804	24.847	16387	17776	0	792
590.804	22.539	16387	17606	0	792
590.804	20.664	16388	17384	0	792
590.804	18.644	16388	17177	0	792
590.804	18.139	16389	17118	0	792
590.804	16.408	16392	17272	0	792
590.804	15.507	16395	17503	0	792
590.804	17.887	16398	17691	0	792
590.804	14.785	16401	17812	0	792
590.804	12.189	16403	17838	0	792
590.804	6.419	16406	17834	0	792
590.804	3.282	16408	17832	0	792
590.804	0.469	16410	17762	0	792
590.804	-0.288	16412	17667	0	792
590.804	2.524	16414	17582	0	792
590.804	3.931	16414	17395	0	792
590.804	6.996	16414	17074	0	792
590.804	7.140	16413	16689	0	792
590.804	4.075	16412	16287	0	792
590.804	1.983	16411	15908	0	792
590.804	-1.803	16410	15654	0	792
590.804	-5.229	16410	15551	0	792
590.804	-6.455	16410	15539	0	792
590.804	-9.052	16410	15543	0	792
590.804	-10.206	16410	15466	0	792
590.804	-11.287	16409	15285	0	792
590.804	-10.458	16407	15063	0	792
590.804	-12.730	16405	14829	0	792
590.804	-15.182	16403	14634	0	792
590.804	-16.444	16402	14569	0	792
590.804	-16.841	16401	14611	0	792
590.804	-13.235	16400	14617	0	792
590.804	-10.025	16398	14541	0	792
590.804	-7.393	16395	14438	0	792
590.804	-5.554	16393	14333	0	792
590.804	-6.599	16391	14236	1	316
590.804	-6.996	16388	14152	0	316
590.804	-9.989	16385	14089	0	316
590.804	-15.398	16384	14045	0	316
590.804	-17.310	16381	14025	0	316
590.804	-18.824	16378	14033	0	316
590.804	-12.730	16376	14065	0	316
590.804	-8.547	16374	14121	0	316
590.804	-7.645	16371	14202	0	316
590.804	-9.484	16369	14305	0	316
590.804	-11.215	16367	14468	0	316
590.804	-11.179	16367	14767	0	316
590.804	-7.068	16367	15170	0	316
590.804	-4.075	16367	15523	0	316
590.804	-3.823	16367	15771	0	316
590.804	-4.832	16366	15972	0	316
-23.549	19.113	16385	18237	0	404
-22.575	17.779	16385	17957	0	404
-20.050	19.906	16384	17635	0	404
-13.776	22.719	16383	17290	0	404
-10.566	27.083	16382	16937	0	404
-8.006	29.210	16380	16592	0	404
-5.373	28.237	16378	16265	0	404
-2.380	25.820	16376	15960	0	404
0.649	25.388	16374	15678	0	404
2.633	27.840	16371	15430	0	404
4.508	31.987	16369	15216	0	404
6.960	38.226	16367	15045	0	404
9.412	39.416	16365	14912	0	404
9.773	34.223	16363	14813	0	404
5.445	25.784	16361	14748	0	404
1.370	18.536	16359	14720	0	404
2.056	21.024	16357	14726	0	404
7.357	28.561	16356	14799	0	404
13.848	39.704	16356	15055	0	404
16.589	42.878	16358	15541	0	404
10.422	39.416	16361	16111	0	404
5.337	33.069	16364	16685	0	404
5.265	32.059	16368	17316	0	404
11.468	34.331	16373	17937	0	404
15.723	36.314	16378	18451	0	404
12.874	32.239	16382	18836	0	404
7.212	24.053	16384	19028	0	404
-0.974	17.815	16386	19014	0	404
-2.308	16.336	16388	18872	0	404
0.433	18.680	16388	18639	0	404
4.508	20.880	16388	18338	0	404
4.652	19.473	16388	17993	0	404
5.734	17.923	16387	17622	0	404
5.517	13.848	16386	17239	0	404
2.813	10.999	16385	16854	0	404
4.111	11.973	16384	16477	0	404
2.993	9.917	16382	16121	0	404
1.947	9.232	16380	15827	0	404
1.839	8.799	16380	15690	0	404
1.695	9.268	16380	15718	0	404
2.633	10.386	16380	15847	0	404
6.455	12.946	16381	15992	0	404
10.674	19.113	16382	16061	0	404
16.012	18.356	16382	16033	0	404
16.156	17.166	16381	15956	0	404
14.425	14.858	16380	15855	0	404
14.281	13.487	16379	15734	0	404
14.317	15.831	16378	15644	0	404
19.221	24.594	16379	15674	0	404
22.178	28.886	16379	15797	0	404
23.873	29.968	16379	15869	0	404
20.988	25.243	16378	15845	0	404
17.815	22.431	16378	15781	0	404
16.697	19.473	16377	15744	0	404
15.831	20.339	16377	15813	0	404
15.759	23.657	16377	15968	0	404
13.631	20.231	16377	16061	0	404
8.763	17.923	16377	16053	0	404
8.150	12.441	16376	16004	0	404
11.323	12.009	16376	15942	0	404
15.543	13.740	16374	15867	0	404
23.332	14.930	16373	15783	0	404
25.424	19.762	16372	15694	0	404
23.044	19.041	16370	15607	0	404
19.690	18.608	16369	15531	0	404
13.451	16.156	16367	15468	0	404
11.756	16.408	16366	15460	0	404
13.018	16.120	16367	15627	0	404
17.057	19.798	16369	16019	0	404
24.053	22.899	16371	16457	0	404
26.253	23.368	16372	16741	0	404
26.433	22.395	16373	16870	0	404
21.132	17.238	16374	16919	0	404
16.048	16.769	16374	16915	0	404
9.809	17.129	16373	16868	0	404
6.455	22.322	16373	16788	0	404
3.967	21.349	16373	16731	0	404
4.327	19.005	16374	16782	0	404
5.950	18.644	16375	16917	0	404
7.609	19.762	16375	16989	0	404
5.698	27.660	16375	16953	0	404
2.777	34.980	16375	16872	0	404
-0.865	33.790	16375	16806	0	404
-1.118	27.948	16376	16842	0	404
4.219	19.834	16377	16955	0	404
9.376	16.697	16378	17048	0	404
13.704	16.264	16380	17157	0	404
11.251	17.670	16382	17346	0	404
8.258	14.317	16384	17568	0	404
4.003	10.494	16386	17749	0	404
5.878	6.708	16388	17842	0	404
8.691	5.265	16391	17911	0	404
10.458	5.986	16393	17985	0	404
8.835	7.176	16394	17947	0	404
4.796	5.662	16395	17757	0	404
0.757	5.770	16394	17493	0	404
0.397	7.753	16394	17191	0	404
5.157	10.530	16393	16864	0	404
9.412	15.038	16392	16528	0	404
10.097	19.005	16390	16198	0	404
10.242	16.985	16389	15883	0	404
6.816	15.362	16387	15583	0	404
4.652	9.917	16384	15305	0	404
4.003	6.924	16383	15051	0	404
8.402	8.619	16381	14833	0	404
11.720	11.612	16379	14654	0	404
14.605	14.425	16376	14515	0	404
12.550	19.365	16375	14448	0	404
8.691	18.320	16374	14539	0	404
4.147	18.824	16374	14756	0	404
2.633	15.723	16374	14984	0	404
5.734	17.310	16375	15291	0	404
9.773	18.283	16378	15781	0	404
12.622	21.962	16380	16335	0	404
15.723	23.440	16384	16826	0	404
14.677	21.132	16385	17233	0	404
16.444	19.113	16388	17481	0	404
14.317	15.579	16389	17546	0	404
15.975	17.815	16390	17538	0	404
15.435	16.516	16392	17622	0	404
16.228	14.208	16395	17860	0	404
16.697	8.366	16398	18082	0	404
16.192	6.816	16399	18106	0	404
18.680	10.494	16400	17949	0	404
18.933	19.257	16400	17701	0	404
19.293	23.837	16400	17437	0	404
15.435	22.142	16400	17255	0	404
11.287	15.254	16401	17139	1	720
7.898	9.196	16400	16961	0	720
9.556	8.691	16400	16721	0	720
13.884	17.670	16400	16606	0	720
17.706	26.001	16402	16697	0	720
20.736	29.751	16403	16820	0	720
18.103	26.253	16404	16786	0	720
17.021	17.887	16403	16602	0	720
12.910	11.323	16402	16353	0	720
12.622	8.907	16401	16111	0	720
12.477	12.369	16401	15972	0	720
10.746	19.077	16401	15962	0	720
13.884	20.772	16402	16019	0	720
16.913	22.070	16402	16077	0	720
19.437	20.844	16402	16041	0	720
23.404	20.808	16401	15892	0	720
26.686	23.549	16399	15688	0	720
25.784	23.585	16398	15500	0	720
24.450	21.854	16397	15426	0	720
23.260	19.041	16397	15448	0	720
16.444	12.333	16396	15460	0	720
16.228	12.153	16396	15502	0	720
13.884	15.687	16396	15601	0	720
18.788	20.627	16395	15634	0	720
21.529	26.181	16395	15599	0	720
24.162	28.814	16394	15633	0	720
28.128	28.850	16394	15738	0	720
28.092	27.912	16393	15773	0	720
32.167	28.850	16392	15696	0	720
36.206	33.321	16391	15613	0	720
39.199	39.380	16390	15634	0	720
41.255	43.166	16390	15736	0	720
42.229	42.229	16390	15773	0	720
38.947	38.839	16388	15704	0	720
34.367	33.429	16386	15591	0	720
30.761	27.660	16385	15506	0	720
29.823	27.587	16384	15535	0	720
29.318	26.830	16384	15704	0	720
33.970	27.732	16385	15982	0	720
37.288	30.112	16388	16409	0	720
38.911	33.429	16391	16947	0	720
35.774	31.915	16394	17387	0	720
29.030	26.902	16396	17634	0	720
20.483	19.221	16398	17802	0	720
14.100	15.615	16401	17985	0	720
12.946	16.697	16404	18189	0	720
19.293	21.060	16408	18473	0	720
24.053	26.470	16412	18810	0	720
27.660	26.614	16415	19012	0	720
26.506	23.837	16417	18951	0	720
22.070	18.752	16418	18671	0	720
18.860	19.618	16418	18272	0	720
16.877	20.087	16416	17798	0	720
19.041	23.368	16414	17272	0	720
23.368	28.020	16412	16759	0	720
24.847	28.741	16411	16367	0	720
25.856	28.525	16410	16079	0	720
25.893	28.056	16408	15799	0	720
25.063	29.030	16407	15613	0	720
23.981	30.220	16407	15631	0	720
25.640	32.564	16407	15696	0	720
23.476	29.968	16406	15617	0	720
22.322	24.558	16405	15408	0	720
22.827	20.447	16402	15150	0	720
19.618	15.182	16400	14914	0	720
19.401	17.923	16399	14835	0	720
16.805	19.618	16399	14974	0	720
16.841	20.736	16398	15164	0	720
13.631	19.762	16398	15210	0	720
14.713	15.110	16396	15125	0	720
13.127	12.730	16394	14988	0	720
14.172	14.785	16391	14835	0	720
15.182	17.274	16388	14668	0	720
14.533	21.926	16386	14543	0	720
15.038	21.385	16385	14591	0	720
13.487	24.017	16385	14865	0	720
16.769	26.073	16385	15194	0	720
19.726	29.968	16384	15379	0	720
25.424	32.708	16384	15422	0	720
23.585	34.151	16382	15406	1	316
20.700	33.105	16380	15357	0	316
18.933	31.915	16378	15281	0	316
16.769	31.699	16376	15198	0	316
18.969	30.761	16373	15111	0	316
21.601	28.922	16370	15029	0	316
23.981	27.515	16368	14958	0	316
26.001	26.794	16365	14904	0	316
30.148	29.751	16363	14910	0	316
33.646	32.167	16362	15065	0	316
36.711	34.944	16361	15337	0	316
35.341	36.351	16361	15573	0	316
30.436	34.547	16360	15720	0	316
23.621	30.653	16358	15829	0	316
20.014	26.938	16357	15918	0	316
16.697	25.604	16356	15990	0	316
21.096	27.119	16355	16049	0	316
23.512	30.941	16354	16105	0	316
24.450	33.862	16352	16154	0	316
25.856	34.295	16351	16202	0	316
21.204	31.410	16350	16246	0	316
19.293	26.217	16349	16287	0	316
19.546	24.162	16348	16367	0	316
18.752	24.666	16349	16564	0	316
23.440	27.984	16350	16860	0	316
26.974	31.662	16350	17098	0	316
28.669	33.429	16351	17227	0	316
27.299	32.853	16351	17300	0	316
25.243	31.590	16351	17342	0	316
20.231	28.056	16352	17395	0	316
19.618	25.063	16354	17588	0	316
20.087	23.621	16357	18012	0	316
23.404	24.558	16362	18572	0	316
28.958	28.309	16366	19036	0	316
32.528	36.531	16370	19264	0	316
35.593	42.770	16372	19288	0	316
37.108	45.041	16374	19197	0	316
36.928	43.779	16375	19020	0	316
36.783	40.317	16376	18774	0	316
34.980	36.134	16376	18473	0	316
32.239	37.396	16376	18135	0	316
29.607	40.209	16376	17780	0	316
27.479	42.337	16375	17421	0	316
29.174	42.589	16374	17110	0	316
33.538	42.157	16375	16935	0	316
38.262	42.734	16375	16876	0	316
41.219	43.815	16376	16782	0	316
39.055	43.635	16375	16606	0	316
33.213	41.219	16374	16399	0	316
28.814	35.485	16374	16190	0	316
26.722	31.987	16373	15980	0	316
29.571	31.915	16372	15777	0	316
31.158	32.456	16370	15591	0	316
30.508	34.620	16370	15464	0	316
22.719	34.223	16370	15482	0	316
16.228	33.646	16371	15656	0	316
9.629	31.013	16372	15918	0	316
10.097	26.686	16374	16180	0	316
14.641	24.558	16375	16343	0	316
19.185	25.388	16376	16381	0	316
25.893	27.624	16376	16353	0	316
35.485	34.043	16376	16289	0	316
45.258	37.541	16376	16196	0	316
55.175	40.894	16375	16085	0	316
63.361	41.327	16374	15964	0	316
67.436	43.924	16373	15881	0	316
64.659	45.618	16374	15924	0	316
63.722	43.779	16374	16067	0	316
59.755	40.822	16374	16160	0	316
56.509	35.341	16374	16154	0	316
52.470	31.410	16374	16103	0	316
51.713	31.049	16374	16039	0	316
51.461	32.708	16373	15960	0	316
53.877	35.088	16372	15906	0	316
55.175	34.151	16373	15974	0	316
56.509	31.518	16374	16140	0	316
53.660	28.164	16374	16261	0	316
48.864	26.001	16374	16279	0	316
43.130	22.503	16374	16248	0	316
40.498	20.195	16374	16234	1	316
39.308	20.591	16374	16327	0	316
39.163	21.024	16376	16540	0	316
39.272	24.630	16378	16814	0	316
38.514	29.391	16380	17070	0	316
40.137	31.771	16382	17209	0	316
43.347	34.331	16382	17213	0	316
50.126	35.593	16383	17137	0	316
54.021	35.810	16383	17020	0	316
51.388	36.928	16382	16868	0	316
50.667	37.685	16382	16729	0	316
47.458	38.803	16383	16697	0	316
51.641	42.229	16384	16749	0	316
54.814	45.366	16384	16747	0	316
59.863	45.907	16384	16641	0	316
58.853	45.799	16383	16495	0	316
55.427	44.537	16382	16333	0	316
53.083	41.543	16381	16160	0	316
47.494	38.478	16380	15988	0	316
43.347	35.737	16379	15859	0	316
40.570	34.944	16380	15904	0	316
37.396	35.701	16382	16178	0	316
37.144	36.170	16384	16532	0	316
35.557	34.908	16385	16860	0	316
31.158	28.020	16388	17130	0	316
25.496	22.034	16390	17264	0	316
20.483	19.582	16391	17237	0	316
21.168	20.519	16390	17116	0	316
25.604	26.289	16391	16985	0	316
27.263	24.991	16392	16937	0	316
26.397	21.168	16393	16953	0	316
25.279	19.005	16393	16891	0	316
25.568	19.329	16392	16719	0	316
29.066	25.532	16392	16501	0	316
34.872	33.321	16391	16271	0	316
37.577	38.983	16389	16029	0	316
35.593	41.435	16388	15785	0	316
32.708	44.284	16385	15547	0	316
30.040	45.438	16384	15363	0	316
30.040	47.458	16384	15323	0	316
31.843	48.684	16384	15442	0	316
33.826	46.268	16384	15652	0	316
33.646	43.527	16385	15869	0	316
31.410	39.380	16385	15996	0	316
26.686	32.492	16385	16009	0	316
21.313	28.489	16385	15962	0	316
22.503	26.325	16384	15883	0	316
23.116	27.010	16384	15783	0	316
26.253	28.525	16383	15670	0	316
26.073	26.289	16381	15557	0	316
22.070	21.529	16380	15494	0	316
14.353	14.281	16379	15565	0	316
9.232	9.520	16380	15740	0	316
6.599	10.458	16379	15865	0	316
5.193	13.668	16379	15894	0	316
7.104	19.041	16378	15884	0	316
6.239	20.844	16377	15859	0	316
5.878	23.044	16376	15821	0	316
6.419	21.709	16375	15775	0	316
5.626	22.106	16374	15759	0	316
3.390	18.247	16374	15871	0	316
3.101	16.084	16375	16081	0	316
4.472	14.749	16375	16240	0	316
10.206	18.933	16375	16339	0	316
20.014	22.683	16376	16509	0	316
24.089	25.929	16378	16788	0	316
22.575	26.578	16380	17106	0	316
17.887	24.162	16382	17391	0	316
10.819	22.503	16384	17592	0	316
8.943	26.073	16386	17768	0	316
10.927	30.184	16388	17949	0	316
15.218	31.662	16390	18056	0	316
14.858	30.941	16392	18128	0	316
13.992	24.234	16394	18205	0	316
9.484	18.824	16396	18175	0	316
4.075	12.550	16396	17997	0	316
2.200	13.163	16396	17741	0	316
2.885	13.631	16396	17485	0	316
6.131	17.202	16397	17322	0	316
11.576	16.012	16398	17272	0	316
14.245	14.533	16399	17280	0	316
18.356	13.415	16400	17280	0	316
23.296	12.333	16401	17185	0	316
29.102	15.939	16401	16969	0	316
32.528	18.644	16400	16691	0	316
31.735	21.168	16399	16389	0	316
27.660	18.464	16397	16075	0	316
21.168	17.743	16396	15795	0	316
21.709	16.480	16395	15644	0	316
25.063	17.779	16394	15605	0	316
27.804	18.788	16394	15569	0	316
27.804	20.988	16394	15571	0	316
25.929	20.231	16394	15682	0	316
23.657	19.582	16396	15859	0	316
20.916	17.274	16396	16021	0	316
22.719	14.930	16397	16075	0	316
19.834	11.576	16396	16006	0	316
17.490	12.045	16395	15869	0	316
13.631	11.360	16394	15700	0	316
10.422	11.215	16392	15553	0	316
6.311	9.917	16392	15523	0	316
5.481	9.881	16392	15591	0	316
6.239	9.556	16390	15609	0	316
10.674	12.550	16389	15527	0	316
14.136	15.867	16388	15406	0	316
15.110	16.697	16386	15323	0	316
16.697	21.168	16386	15359	0	316
17.815	24.414	16386	15490	0	316
23.368	30.112	16385	15567	0	316
28.453	32.889	16384	15549	0	316
32.636	32.925	16384	15535	0	316
30.328	27.227	16384	15634	0	316
26.470	24.270	16384	15819	0	316
23.981	23.116	16384	15984	0	316
21.565	25.856	16384	16206	0	316
22.395	29.715	16387	16628	0	316
25.171	32.961	16391	17179	0	316
26.433	33.285	16394	17628	0	316
29.318	34.728	16396	17832	0	316
31.482	38.298	16397	17830	0	316
34.439	44.140	16397	17711	0	316
32.889	46.700	16397	17514	0	316
29.895	42.842	16396	17264	0	316
27.227	39.272	16395	16981	0	316
22.358	35.882	16394	16719	0	316
19.185	35.990	16394	16570	0	316
20.591	39.344	16393	16512	0	316
18.897	39.596	16393	16445	0	316
21.890	35.557	16393	16407	0	316
23.044	30.400	16393	16431	0	316
25.748	28.020	16393	16391	0	316
27.948	30.472	16392	16289	0	316
29.102	34.151	16392	16263	0	316
28.561	37.505	16392	16311	0	316
27.732	35.052	16393	16331	0	316
24.198	28.922	16393	16363	0	316
21.926	20.916	16394	16431	0	316
17.526	18.139	16393	16425	0	316
19.942	20.375	16393	16345	0	316
20.844	28.020	16394	16373	0	316
23.188	34.583	16396	16624	0	316
22.827	33.574	16399	17012	0	316
18.392	31.085	16401	17320	0	316
16.480	26.614	16403	17445	0	316
13.523	24.162	16405	17546	0	316
13.884	26.397	16408	17757	0	316
13.199	25.316	16411	17929	0	316
8.114	21.890	16412	17882	0	316
2.741	19.726	16412	17641	0	316
0.325	16.084	16412	17342	0	316
-0.072	18.428	16412	17108	0	316
1.515	18.031	16411	16927	0	316
2.019	18.536	16410	16673	0	316
1.082	13.127	16409	16315	0	316
0.613	9.809	16407	15956	0	316
2.957	7.501	16406	15716	0	316
7.140	9.592	16404	15571	0	316
10.638	14.172	16403	15426	0	316
12.802	21.601	16402	15325	0	316
13.199	23.332	16401	15295	0	316
10.602	25.135	16400	15216	0	316
7.537	22.106	16398	15043	0	316
4.616	16.913	16395	14835	0	316
1.659	16.949	16393	14664	0	316
2.452	15.471	16392	14619	0	316
3.606	18.392	16390	14678	0	316
4.219	18.644	16388	14700	0	316
2.560	20.555	16386	14638	0	316
3.931	22.178	16384	14553	0	316
8.691	24.630	16382	14468	0	316
15.543	29.499	16379	14392	0	316
21.241	30.833	16377	14369	0	316
21.673	29.463	16376	14521	0	316
15.831	26.650	16377	14946	0	316
14.425	25.568	16379	15545	0	316
16.192	30.220	16381	16087	0	316
23.765	37.577	16381	16415	0	316
32.492	45.258	16382	16608	0	316
37.360	48.323	16383	16822	0	316
40.173	52.867	16384	17062	0	316
45.366	58.168	16384	17181	0	316
55.788	68.338	16384	17147	0	316
65.849	80.490	16384	17032	0	316
71.727	86.549	16383	16878	0	316
71.006	88.063	16381	16695	0	316
64.912	83.772	16379	16495	0	316
61.161	79.661	16378	16327	0	316
63.217	77.750	16377	16281	0	316
66.787	76.632	16377	16341	0	316
69.492	75.983	16376	16357	0	316
68.193	76.812	16375	16277	0	316
63.397	73.422	16373	16164	0	316
58.312	67.075	16372	16083	0	316
53.768	58.817	16372	16158	0	316
46.592	51.388	16374	16449	0	316
40.137	43.238	16376	16820	0	316
29.499	35.701	16378	17149	0	316
18.283	27.912	16380	17417	0	316
6.167	13.704	16381	17554	0	316
-5.590	4.364	16383	17574	0	316
-10.025	0.216	16384	17622	0	316
-10.061	3.390	16384	17701	0	316
-7.104	11.215	16385	17715	0	316
-3.787	14.245	16387	17713	0	316
-6.491	11.143	16388	17737	0	316
-14.641	0.325	16388	17669	0	316
-24.630	-10.386	16389	17510	0	316
-28.850	-18.752	16390	17401	0	316
-28.994	-17.382	16390	17352	1	832
-27.191	-14.641	16390	17221	0	832
-25.856	-12.514	16389	16977	0	832
-27.768	-15.002	16388	16681	0	832
-32.636	-24.125	16387	16411	0	832
-37.432	-33.321	16386	16259	0	832
-38.082	-38.009	16386	16206	0	832
-35.701	-35.774	16386	16148	0	832
-33.285	-30.581	16386	16127	0	832
-31.987	-24.162	16386	16164	0	832
-32.528	-23.657	16386	16136	0	832
-38.226	-28.922	16385	16000	0	832
-45.582	-36.026	16384	15865	0	832
-52.506	-43.310	16384	15837	0	832
-53.444	-43.527	16384	15892	0	832
-51.785	-39.632	16384	15890	0	832
-46.195	-32.600	16384	15787	0	832
-39.380	-29.210	16383	15684	0	832
-37.360	-29.968	16383	15734	0	832
-34.223	-34.223	16384	15988	0	832
-33.682	-37.757	16385	16275	0	832
-33.934	-37.937	16385	16439	0	832
-32.312	-34.583	16387	16570	0	832
-35.052	-32.420	16388	16717	0	832
-36.134	-30.653	16389	16760	0	832
-37.180	-29.210	16388	16663	0	832
-34.656	-29.643	16387	16491	0	832
-32.095	-27.696	16386	16283	0	832
-29.751	-25.352	16384	16047	0	832
-27.443	-22.827	16384	15847	0	832
-28.164	-19.654	16383	15769	0	832
-27.948	-17.490	16383	15835	0	832
-31.302	-18.536	16384	15982	0	832
-32.203	-20.880	16384	16172	0	832
-36.783	-26.073	16385	16387	0	832
-40.245	-28.525	16386	16582	0	832
-43.851	-31.807	16386	16659	0	832
-47.205	-33.934	16386	16604	0	832
-47.674	-35.485	16385	16475	0	832
-49.477	-37.072	16384	16309	0	832
-48.143	-38.009	16384	16109	0	832
-45.763	-39.740	16382	15892	0	832
-47.674	-40.930	16380	15674	0	832
-49.333	-44.645	16377	15466	0	832
-49.910	-47.818	16376	15315	0	832
-53.732	-50.090	16375	15307	0	832
-57.194	-55.680	16374	15406	0	832
-62.243	-60.837	16373	15470	0	832
-67.652	-67.724	16371	15452	0	832
-73.062	-73.026	16370	15404	0	832
-76.199	-75.225	16368	15357	0	832
-77.353	-77.425	16367	15307	0	832
-78.110	-78.723	16365	15259	0	832
-79.228	-80.995	16364	15259	0	832
-80.635	-81.176	16363	15394	0	832
-77.930	-76.884	16363	15638	0	832
-70.357	-66.210	16363	15837	0	832
-61.666	-52.578	16363	15978	0	832
-48.215	-41.291	16364	16198	0	832
-37.432	-32.889	16365	16526	0	832
-28.237	-26.974	16367	16897	0	832
-21.096	-20.303	16370	17237	0	832
-13.740	-14.821	16371	17493	0	832
-10.819	-6.563	16374	17723	0	832
-9.917	-5.265	16376	17955	0	832
-8.042	-4.075	16378	18066	0	832
-4.003	-3.173	16379	18058	0	832
1.370	2.596	16380	18082	0	832
8.475	9.701	16382	18147	0	832
12.802	15.687	16383	18110	0	832
12.802	16.913	16383	17931	0	832
12.658	17.634	16383	17685	0	832
13.559	16.552	16383	17405	0	832
14.569	16.913	16382	17104	0	832
18.860	22.683	16380	16792	0	832
22.070	28.237	16379	16483	0	832
25.929	33.862	16377	16190	0	832
29.607	38.947	16376	15952	0	832
31.843	42.084	16375	15861	0	832
37.072	43.455	16375	15890	1	316
39.380	43.058	16374	15890	0	316
44.537	44.068	16374	15809	0	316
45.979	45.402	16372	15700	0	316
45.402	45.655	16371	15587	0	316
47.349	45.655	16370	15478	0	316
49.513	47.458	16369	15375	0	316
50.018	49.405	16367	15329	0	316
52.687	51.028	16367	15422	0	316
50.523	54.598	16368	15625	0	316
48.539	55.463	16368	15785	0	316
47.926	55.968	16367	15851	0	316
51.208	54.418	16367	15877	0	316
55.536	54.995	16367	15888	0	316
59.178	56.942	16366	15924	0	316
61.161	59.394	16367	16073	0	316
62.604	64.984	16368	16307	0	316
61.197	68.193	16368	16475	0	316
58.240	67.292	16369	16536	0	316
55.427	67.184	16369	16538	0	316
55.463	64.840	16368	16510	0	316
56.185	65.669	16368	16459	0	316
59.034	68.193	16367	16397	0	316
57.843	70.646	16367	16369	0	316
54.165	69.131	16368	16451	0	316
46.123	64.587	16369	16630	0	316
40.606	57.771	16369	16751	0	316
36.351	50.090	16369	16762	0	316
33.429	46.015	16369	16727	0	316
30.617	42.481	16369	16667	0	316
29.643	43.238	16369	16590	0	316
28.489	41.796	16368	16503	0	316
27.299	39.452	16368	16449	0	316
24.378	35.737	16369	16556	0	316
22.286	32.312	16371	16880	0	316
19.185	30.797	16374	17239	0	316
20.519	33.141	16376	17435	0	316
22.755	32.348	16377	17467	0	316
20.988	29.968	16378	17415	0	316
18.608	22.755	16378	17314	0	316
13.018	17.490	16378	17171	0	316
12.514	16.372	16378	17003	0	316
17.093	24.630	16377	16820	0	316
25.135	32.203	16376	16630	0	316
30.004	39.524	16376	16435	0	316
27.840	37.613	16375	16285	0	316
20.700	30.653	16376	16307	0	316
11.179	21.998	16378	16556	0	316
9.917	17.779	16380	16887	0	316
12.441	17.815	16383	17183	0	316
15.398	20.736	16385	17421	0	316
15.939	21.781	16387	17532	0	316
9.196	19.005	16388	17491	0	316
4.796	17.346	16389	17358	0	316
6.203	18.067	16389	17207	0	316
15.723	23.729	16390	17137	0	316
22.647	29.174	16391	17135	0	316
24.486	28.633	16392	17062	0	316
17.166	20.339	16391	16876	0	316
4.904	10.819	16391	16645	0	316
-3.173	2.452	16390	16399	0	316
-5.554	1.046	16389	16148	0	316
-2.813	2.128	16388	15936	0	316
-0.108	2.272	16388	15851	0	316
0.938	2.524	16388	15910	0	316
2.092	1.334	16390	16053	0	316
-0.577	1.154	16391	16196	0	316
-3.318	0.072	16391	16248	0	316
-7.321	1.226	16391	16182	0	316
-10.314	-0.108	16390	16055	0	316
-15.398	-0.865	16390	15944	0	316
-15.290	-2.777	16390	15934	0	316
-16.733	-8.006	16390	16008	0	316
-13.920	-11.648	16390	16021	0	316
-14.821	-15.939	16389	15928	0	316
-16.625	-14.497	16389	15791	0	316
-17.887	-11.576	16388	15682	0	316
-19.762	-11.540	16388	15686	0	316
-19.978	-13.307	16388	15781	0	316
-15.687	-15.182	16387	15827	0	316
-15.471	-18.175	16387	15775	0	316
-14.497	-17.057	16385	15682	0	316
-14.605	-15.831	16384	15575	0	316
-16.336	-13.487	16383	15458	0	316
-13.379	-12.441	16383	15379	0	316
-11.287	-10.350	16382	15428	0	316
-7.465	-6.167	16382	15579	0	316
-2.957	-2.633	16382	15722	0	316
2.164	1.334	16383	15892	0	316
6.780	4.688	16383	16115	0	316
9.160	7.753	16384	16267	0	316
5.229	7.501	16384	16337	0	316
-3.029	1.659	16384	16463	0	316
-14.028	-6.816	16385	16647	0	316
-19.401	-13.668	16385	16749	0	316
-19.834	-17.887	16385	16725	0	316
-12.261	-12.333	16384	16637	0	316
-6.924	-4.472	16384	16520	0	316
-4.111	-0.361	16384	16384	0	316
-5.734	0.397	16382	16232	0	316
-6.780	-2.380	16381	16073	0	316
-5.950	-5.121	16379	15920	0	316
-2.380	-4.436	16378	15777	0	316
2.056	-0.541	16376	15648	0	316
4.652	4.003	16374	15535	0	316
5.445	7.212	16373	15438	0	316
5.554	8.943	16371	15398	0	316
6.924	11.612	16371	15500	0	316
7.862	12.333	16371	15716	0	316
8.871	16.336	16371	15890	0	316
9.232	19.654	16370	15970	0	316
7.573	24.702	16370	16009	0	316
6.383	27.371	16370	16033	0	316
6.491	27.876	16369	16045	0	316
6.203	27.083	16368	16089	0	316
9.088	27.587	16369	16248	0	316
10.350	27.984	16370	16489	0	316
12.261	30.581	16371	16713	0	316
14.281	30.472	16373	16951	0	316
12.946	26.830	16375	17229	0	316
10.710	23.008	16376	17417	0	316
6.888	16.625	16377	17469	0	316
-0.505	15.290	16377	17441	0	316
-2.813	11.900	16378	17405	0	316
-1.695	12.838	16379	17451	0	316
2.669	14.208	16381	17554	0	316
7.825	15.398	16382	17622	0	316
12.802	19.401	16384	17729	0	316
15.182	20.591	16388	18030	0	316
15.543	21.745	16392	18451	0	316
16.769	25.784	16396	18768	0	316
24.306	28.741	16398	18846	0	316
31.085	35.701	16400	18719	0	316
38.586	42.481	16401	18475	0	316
42.012	44.573	16402	18191	0	316
41.940	47.818	16403	17971	0	316
42.301	48.287	16404	17804	1	544
45.907	49.802	16404	17560	0	544
53.336	55.283	16403	17207	0	544
54.129	55.283	16402	16810	0	544
52.326	51.749	16401	16403	0	544
44.933	47.061	16399	16043	0	544
41.832	45.294	16399	15817	0	544
43.743	45.150	16398	15704	0	544
46.051	45.582	16397	15561	0	544
43.166	42.337	16396	15343	0	544
34.006	30.472	16394	15111	0	544
20.303	18.788	16392	14932	0	544
10.746	12.009	16392	14890	0	544
8.258	13.127	16391	14960	0	544
12.730	17.815	16390	14992	0	544
19.401	21.096	16390	14976	0	544
21.457	21.998	16390	15047	0	544
21.998	22.683	16389	15204	0	544
23.368	22.791	16389	15295	0	544
28.417	29.931	16388	15285	0	544
35.160	35.737	16387	15230	0	544
40.858	38.875	16385	15162	0	544
41.399	37.072	16384	15083	0	544
40.245	34.836	16382	15004	0	544
44.392	37.649	16380	14928	0	544
52.759	43.815	16379	14904	0	544
59.827	51.785	16378	15019	0	544
64.226	55.716	16378	15246	0	544
63.361	53.300	16377	15428	0	544
61.053	53.336	16377	15515	0	544
63.361	53.696	16376	15557	0	544
68.842	60.404	16374	15583	0	544
76.091	68.121	16373	15597	0	544
81.176	74.324	16371	15603	0	544
84.061	75.875	16370	15611	0	544
81.572	72.665	16370	15662	0	544
73.855	62.027	16370	15839	0	544
62.027	50.667	16371	16146	0	544
49.766	38.298	16372	16510	0	544
41.111	33.141	16374	16864	0	544
39.560	31.843	16375	17106	0	544
37.721	32.600	16376	17209	0	544
33.249	26.938	16376	17231	0	544
26.073	17.815	16376	17207	0	544
14.389	7.068	16376	17177	0	544
9.232	-1.587	16377	17237	0	544
9.304	-3.137	16378	17364	0	544
11.937	1.839	16379	17421	0	544
15.038	5.878	16379	17370	0	544
14.317	8.511	16379	17264	0	544
14.064	6.888	16379	17169	0	544
15.398	4.039	16380	17173	0	544
13.559	-0.865	16381	17298	0	544
12.874	-4.724	16383	17479	0	544
8.439	-6.167	16385	17681	0	544
7.717	-4.544	16388	17895	0	544
10.494	1.046	16390	18072	0	544
17.743	6.780	16392	18114	0	544
20.014	8.114	16393	18007	0	544
18.320	4.472	16393	17810	0	544
8.042	-4.327	16393	17558	0	544
1.154	-10.891	16393	17268	0	544
-1.803	-14.677	16392	16995	0	544
-0.144	-14.028	16393	16872	0	544
4.039	-12.333	16395	16957	0	544
5.085	-11.828	16396	17082	0	544
2.236	-12.910	16397	17052	0	544
-2.380	-18.031	16397	16878	0	544
-5.409	-21.132	16397	16645	0	544
-6.239	-25.604	16396	16423	0	544
-5.193	-23.585	16396	16307	0	544
-2.596	-19.546	16396	16277	0	544
-0.325	-16.985	16396	16192	0	544
-0.144	-14.713	16395	16011	0	544
-1.695	-15.471	16394	15795	0	544
-2.705	-19.077	16392	15575	0	544
-4.652	-19.546	16390	15355	0	544
-4.039	-18.103	16388	15140	0	544
-1.767	-15.939	16386	14942	0	544
-0.180	-11.973	16384	14763	0	544
0.288	-8.511	16383	14611	0	544
-0.757	-8.294	16380	14488	0	544
-2.092	-11.612	16378	14392	0	544
-3.426	-13.595	16376	14363	0	544
-3.462	-17.274	16376	14519	0	544
-5.409	-18.031	16377	14918	0	544
-9.196	-16.444	16378	15412	0	544
-13.668	-17.779	16381	15926	0	544
-14.100	-17.779	16384	16501	0	544
-14.172	-19.834	16386	17034	0	544
-13.812	-22.899	16389	17354	0	544
-17.310	-26.253	16390	17465	0	544
-23.260	-31.807	16392	17499	0	544
-26.974	-34.439	16393	17614	0	544
-23.296	-31.879	16397	17878	0	544
-14.028	-25.388	16399	18126	0	544
-6.527	-18.211	16401	18171	0	544
-8.583	-17.382	16401	18030	0	544
-16.444	-22.142	16401	17796	0	544
-25.027	-28.705	16401	17505	0	544
-28.850	-32.600	16400	17173	0	544
-24.089	-29.210	16398	16822	0	544
-17.346	-25.496	16396	16465	0	544
-13.559	-20.808	16394	16111	0	544
-13.199	-21.277	16392	15805	0	544
-16.877	-22.575	16391	15640	0	544
-17.238	-23.332	16390	15597	0	544
-18.680	-23.512	16389	15527	0	544
-15.507	-22.972	16387	15388	0	544
-14.461	-22.719	16386	15275	0	544
-12.694	-27.912	16386	15293	0	544
-15.290	-33.862	16385	15406	0	544
-17.418	-39.091	16384	15474	0	544
-16.697	-40.101	16384	15450	0	544
-13.559	-32.853	16383	15392	0	544
-7.285	-24.414	16382	15363	0	544
-3.354	-18.356	16382	15446	0	544
-4.508	-18.933	16382	15621	0	544
-8.150	-23.080	16382	15775	0	544
-9.556	-22.106	16383	15952	0	544
-5.373	-18.644	16383	16176	0	544
2.344	-7.501	16383	16327	0	544
10.422	1.118	16383	16355	0	544
15.074	7.212	16384	16361	0	544
18.283	10.963	16384	16453	0	544
19.762	10.602	16384	16649	0	544
25.279	12.045	16386	16927	0	544
27.227	11.287	16389	17294	0	544
29.427	11.143	16392	17635	0	544
32.059	14.569	16393	17778	0	544
38.045	21.421	16394	17729	0	544
43.851	27.768	16394	17578	0	544
48.756	30.004	16394	17362	0	544
48.071	29.895	16393	17100	0	544
42.734	25.388	16392	16812	0	544
38.045	24.198	16390	16509	0	544
35.665	23.188	16388	16206	0	544
33.177	24.198	16385	15908	0	544
31.122	23.224	16384	15629	0	544
29.895	18.536	16382	15377	0	544
31.987	19.041	16379	15156	0	544
36.603	21.132	16377	14970	0	544
41.219	26.650	16374	14817	0	544
38.370	29.282	16373	14738	0	544
30.436	27.624	16371	14817	0	544
22.539	21.998	16371	15017	0	544
20.808	20.087	16370	15194	0	544
26.902	22.575	16370	15291	0	544
35.990	26.686	16369	15400	0	544
39.957	29.282	16370	15621	0	544
37.000	25.893	16371	15962	0	544
30.328	20.087	16373	16359	0	544
28.056	18.103	16375	16764	0	544
32.312	24.775	16378	17215	0	544
39.740	30.148	16383	17772	0	544
44.032	32.744	16387	18395	0	544
45.041	31.266	16391	18884	0	544
38.082	24.378	16395	19100	0	544
33.321	20.303	16397	19082	0	544
28.345	15.290	16398	18917	0	544
25.748	16.264	16398	18651	0	544
27.227	17.670	16398	18308	0	544
29.859	22.647	16398	17915	1	648
33.718	25.676	16397	17497	0	648
35.016	26.433	16395	17066	0	648
32.528	23.549	16393	16639	0	648
26.758	16.985	16391	16232	0	648
24.414	16.841	16389	15847	0	648
27.155	17.346	16386	15492	0	648
31.590	20.447	16384	15174	0	648
34.800	21.241	16382	14896	0	648
36.964	20.159	16379	14670	0	648
35.593	20.483	16377	14488	0	648
35.774	20.123	16374	14349	0	648
35.737	21.854	16372	14250	0	648
33.934	20.339	16369	14188	0	648
29.246	18.247	16367	14164	0	648
21.601	14.353	16365	14176	0	648
18.788	11.756	16363	14222	0	648
14.245	8.583	16361	14295	0	648
15.290	5.626	16359	14390	0	648
10.710	1.046	16358	14543	0	648
8.078	-2.849	16358	14835	0	648
8.258	-3.678	16358	15234	0	648
10.819	-0.144	16359	15583	0	648
19.329	7.212	16359	15831	0	648
28.417	16.480	16359	16025	0	648
36.351	21.277	16358	16186	0	648
36.062	21.962	16358	16319	0	648
29.787	15.867	16358	16427	0	648
23.260	9.448	16358	16562	0	648
17.526	4.616	16360	16802	0	648
20.700	7.898	16361	17124	0	648
26.506	13.091	16363	17372	0	648
33.429	19.762	16363	17499	0	648
35.557	23.224	16364	17558	0	648
33.682	24.522	16365	17618	0	648
31.049	25.929	16368	17802	0	648
30.328	24.883	16371	18163	0	648
30.220	25.027	16375	18568	0	648
30.761	25.856	16379	18905	0	648
33.718	28.489	16384	19191	0	648
38.118	31.626	16386	19443	0	648
39.957	34.836	16390	19612	0	648
38.154	31.085	16394	19606	0	648
31.302	23.152	16395	19413	0	648
21.745	15.795	16397	19108	0	648
12.586	9.232	16397	18737	0	648
10.242	10.386	16397	18316	0	648
13.559	13.054	16397	17868	0	648
17.093	15.218	16396	17443	0	648
20.808	19.257	16396	17143	0	648
18.608	17.779	16397	16949	0	648
15.146	17.057	16396	16719	0	648
8.691	13.235	16395	16407	0	648
8.006	11.684	16394	16081	0	648
11.360	13.163	16393	15761	0	648
16.661	14.208	16392	15496	0	648
25.171	19.149	16391	15369	0	648
26.542	18.536	16391	15357	0	648
23.765	18.067	16390	15309	0	648
20.014	13.631	16390	15222	0	648
14.821	12.946	16390	15240	0	648
15.254	12.946	16390	15357	0	648
17.851	14.281	16390	15458	0	648
23.549	17.346	16391	15579	0	648
24.739	16.552	16393	15789	0	648
23.801	16.408	16394	16045	0	648
20.195	14.894	16396	16273	0	648
13.018	13.956	16397	16379	0	648
10.530	13.127	16397	16343	0	648
10.386	10.927	16396	16230	0	648
11.071	10.494	16395	16075	0	648
15.254	9.917	16394	15886	0	648
15.867	12.153	16393	15718	0	648
14.821	14.569	16393	15666	0	648
16.372	15.038	16392	15708	0	648
17.021	18.283	16391	15704	0	648
19.834	20.736	16390	15607	0	648
22.322	26.217	16389	15480	0	648
24.342	30.472	16388	15388	0	648
28.489	34.620	16388	15458	1	316
32.816	36.567	16389	15746	0	316
38.658	37.505	16390	16075	0	316
42.625	36.170	16391	16246	0	316
40.750	34.692	16390	16261	0	316
33.285	31.699	16390	16208	0	316
26.722	29.679	16389	16115	0	316
23.765	29.715	16388	16031	0	316
24.125	31.158	16389	16089	0	316
27.335	31.194	16390	16355	0	316
29.318	28.309	16392	16647	0	316
25.207	22.539	16392	16778	0	316
16.985	16.733	16392	16753	0	316
10.133	8.871	16392	16653	0	316
2.993	5.986	16391	16512	0	316
-1.226	2.596	16390	16339	0	316
-1.190	1.695	16388	16144	0	316
0.793	0.180	16387	15944	0	316
1.731	1.731	16385	15787	0	316
2.416	3.678	16385	15763	0	316
2.777	5.517	16385	15884	0	316
2.236	7.285	16385	16083	0	316
3.859	8.943	16386	16281	0	316
6.167	11.504	16386	16385	0	316
9.953	13.163	16386	16377	0	316
12.297	17.418	16385	16299	0	316
10.710	18.320	16384	16190	0	316
11.179	21.132	16384	16057	0	316
12.153	23.332	16383	15908	0	316
14.497	27.227	16381	15759	0	316
22.611	31.662	16379	15617	0	316
28.922	34.836	16377	15484	0	316
32.203	35.665	16375	15365	0	316
31.879	34.547	16373	15267	0	316
29.607	31.122	16371	15192	0	316
26.794	26.974	16369	15134	0	316
20.519	22.395	16367	15101	0	316
17.706	20.411	16365	15093	0	316
10.386	14.821	16364	15146	0	316
6.347	11.396	16363	15337	0	316
2.560	6.455	16364	15633	0	316
0.469	5.734	16364	15922	0	316
2.128	9.016	16366	16238	0	316
5.409	14.353	16367	16600	0	316
7.104	18.103	16368	16880	0	316
9.953	17.598	16369	17026	0	316
10.855	14.100	16370	17100	0	316
10.710	9.412	16370	17130	0	316
10.927	9.665	16370	17124	0	316
12.117	11.864	16370	17086	0	316
9.160	15.651	16370	17026	0	316
7.393	18.175	16369	16951	0	316
5.373	18.536	16368	16868	0	316
6.455	18.680	16367	16776	0	316
8.835	16.444	16367	16685	0	316
13.091	19.293	16366	16600	0	316
17.274	19.762	16366	16518	0	316
21.096	21.709	16365	16483	0	316
23.152	23.440	16366	16576	0	316
20.664	21.204	16367	16772	0	316
15.507	19.978	16368	16955	0	316
9.304	15.651	16371	17197	0	316
6.780	15.471	16374	17598	0	316
11.828	14.497	16378	18003	0	316
18.392	17.490	16380	18215	0	316
27.768	16.264	16382	18241	0	316
28.345	16.336	16384	18209	0	316
25.965	12.369	16386	18268	0	316
23.549	12.153	16390	18489	0	316
25.784	17.598	16393	18739	0	316
31.122	22.503	16397	18913	0	316
36.639	26.830	16400	18993	0	316
35.377	27.660	16403	18911	0	316
28.777	24.594	16404	18655	0	316
20.627	22.755	16405	18298	0	316
20.952	24.811	16404	17884	0	316
25.388	28.056	16403	17433	0	316
32.131	28.705	16402	16967	0	316
37.180	27.587	16401	16499	0	316
36.567	26.145	16399	16043	0	316
32.961	24.811	16397	15609	0	316
29.427	24.739	16394	15208	0	316
24.089	21.926	16392	14851	0	316
17.851	18.283	16389	14579	0	316
14.713	10.458	16389	14519	0	316
12.009	5.914	16389	14722	0	316
16.913	7.285	16390	15000	0	316
20.772	16.084	16390	15150	0	316
26.325	23.909	16390	15218	0	316
25.784	30.797	16391	15359	0	316
20.050	27.732	16392	15565	0	316
12.658	19.149	16392	15690	0	316
5.806	8.402	16392	15696	0	316
3.859	4.255	16391	15640	0	316
8.366	7.537	16390	15557	0	316
16.552	13.307	16388	15450	0	316
22.395	17.202	16387	15369	0	316
26.722	19.329	16387	15406	0	316
22.755	16.589	16387	15541	0	316
20.700	16.805	16386	15623	0	316
18.428	15.723	16385	15609	0	316
14.858	16.697	16384	15557	0	316
15.615	14.641	16384	15531	0	316
15.182	12.910	16384	15619	0	316
19.329	15.146	16384	15795	0	316
23.404	20.087	16384	15916	0	316
29.427	27.371	16383	15934	0	316
29.823	29.030	16383	15946	0	316
25.784	27.227	16383	16061	0	316
19.618	21.204	16384	16254	0	316
17.310	15.398	16384	16375	0	316
16.516	11.576	16384	16377	0	316
21.024	11.756	16383	16327	0	316
22.719	13.451	16383	16297	0	316
24.594	14.245	16383	16369	0	316
24.378	18.933	16383	16510	0	316
23.945	20.339	16383	16588	0	316
24.089	22.034	16383	16556	0	316
25.424	19.257	16382	16475	0	316
22.395	17.129	16381	16379	0	316
19.618	14.064	16380	16261	0	316
19.762	18.283	16379	16134	0	316
19.473	23.188	16377	16009	0	316
24.162	27.227	16376	15890	0	316
24.558	26.145	16374	15777	0	316
21.601	19.618	16372	15676	0	316
19.401	13.343	16371	15634	0	316
17.202	14.533	16371	15730	0	316
23.296	19.618	16371	15932	0	316
28.850	26.794	16371	16091	0	316
32.744	28.561	16371	16160	0	316
32.997	25.712	16371	16230	0	316
31.122	24.306	16372	16401	0	316
30.761	24.919	16373	16647	0	316
32.997	30.725	16374	16820	0	316
34.331	35.413	16374	16878	0	316
32.889	36.495	16375	16878	0	316
30.076	32.312	16374	16842	0	316
25.207	26.650	16374	16778	0	316
24.089	23.585	16373	16695	0	316
24.414	20.519	16373	16604	0	316
26.145	18.788	16372	16514	0	316
24.162	19.077	16371	16425	0	316
21.204	17.310	16370	16343	0	316
18.572	15.074	16369	16265	0	316
16.408	16.336	16369	16196	0	316
20.159	12.982	16368	16134	0	316
19.834	12.153	16367	16079	0	316
20.375	9.629	16366	16033	0	316
16.697	9.124	16366	16041	0	316
18.067	12.730	16367	16220	0	316
18.536	16.877	16370	16657	0	316
22.503	22.286	16374	17262	0	316
23.368	22.575	16378	17794	0	316
21.673	21.854	16381	18102	0	316
22.935	20.591	16383	18211	0	316
23.909	22.755	16384	18243	0	316
26.866	27.479	16387	18314	0	316
30.364	30.076	16389	18407	0	316
29.354	30.004	16391	18389	0	316
25.965	26.289	16392	18227	0	316
21.781	23.224	16392	17985	0	316
18.247	19.798	16392	17703	0	316
14.245	20.050	16392	17389	1	652
12.766	21.457	16392	17102	0	652
12.586	20.231	16392	16931	0	652
14.533	21.241	16393	16893	0	652
19.473	20.267	16394	16929	0	652
24.919	18.536	16395	16965	0	652
30.364	20.123	16397	16947	0	652
34.511	20.267	16398	16933	0	652
34.692	22.142	16399	16953	0	652
31.843	22.178	16400	16889	0	652
29.823	23.765	16400	16705	0	652
26.794	24.594	16400	16463	0	652
30.977	25.424	16398	16198	0	652
35.846	26.974	16397	15914	0	652
40.894	28.345	16396	15668	0	652
44.645	29.066	16395	15555	0	652
42.193	31.049	16395	15551	0	652
38.514	31.662	16395	15511	0	652
36.242	31.338	16393	15386	0	652
32.853	27.948	16392	15234	0	652
30.617	25.243	16391	15121	0	652
28.128	21.745	16390	15133	0	652
26.686	18.716	16390	15242	0	652
28.273	20.087	16390	15305	0	652
31.158	22.034	16389	15279	0	652
35.954	26.938	16387	15222	0	652
39.921	28.669	16386	15158	0	652
38.622	28.345	16384	15087	0	652
36.964	25.243	16384	15057	0	652
33.970	23.368	16384	15156	0	652
35.846	26.325	16384	15353	0	652
39.668	31.410	16383	15500	0	652
49.153	38.226	16383	15547	0	652
55.427	44.681	16382	15551	0	652
59.755	48.720	16380	15539	0	652
58.420	47.169	16379	15513	0	652
56.437	46.484	16378	15521	0	652
55.283	42.697	16378	15656	0	652
52.614	37.180	16378	15884	0	652
53.480	35.846	16378	16053	0	652
50.559	35.737	16378	16158	0	652
48.035	37.577	16379	16343	0	652
46.087	39.632	16381	16637	0	652
43.815	39.416	16383	16977	0	652
41.327	36.206	16384	17318	0	652
40.101	31.482	16387	17651	0	652
36.855	27.732	16390	17927	0	652
32.744	24.955	16391	18054	0	652
30.220	25.640	16392	18014	0	652
29.174	23.765	16392	17876	0	652
28.777	23.332	16392	17673	0	652
30.436	25.532	16392	17429	0	652
30.833	26.614	16391	17159	0	652
28.886	28.128	16390	16876	0	652
26.614	26.686	16388	16588	0	652
26.794	24.666	16386	16309	0	652
29.210	23.440	16385	16043	0	652
32.095	25.640	16384	15801	0	652
32.600	31.446	16382	15583	0	652
29.715	35.918	16380	15392	0	652
26.361	37.793	16378	15230	0	652
22.395	36.747	16376	15095	0	652
23.657	32.600	16374	14988	0	652
28.309	29.354	16372	14910	0	652
32.203	29.138	16370	14859	0	652
33.141	28.309	16368	14835	0	652
28.777	29.607	16366	14839	0	652
21.349	27.443	16365	14867	0	652
17.238	25.532	16363	14914	0	652
14.245	24.883	16362	14984	0	652
18.175	27.047	16360	15075	0	652
17.526	30.508	16359	15180	0	652
16.877	30.112	16358	15295	0	652
11.432	24.991	16357	15422	0	652
5.986	16.589	16357	15557	0	652
4.832	11.179	16356	15694	0	652
6.455	9.809	16355	15827	0	652
11.973	13.415	16355	15962	0	652
15.903	19.437	16354	16093	0	652
20.159	21.060	16354	16222	0	652
17.454	16.985	16354	16347	0	652
15.398	14.894	16354	16469	0	652
10.422	13.595	16354	16590	0	652
9.917	12.910	16355	16743	0	652
10.314	16.877	16357	17044	0	652
12.441	18.464	16360	17550	0	652
14.281	19.582	16364	18070	0	652
15.939	17.454	16367	18405	0	652
11.720	17.779	16369	18564	0	652
9.556	16.264	16371	18624	0	652
9.448	18.860	16373	18612	0	652
10.819	21.745	16374	18574	0	652
12.838	26.830	16378	18647	0	652
16.913	27.948	16381	18893	0	652
16.516	25.532	16384	19141	0	652
13.740	19.942	16387	19199	0	652
9.232	15.615	16389	19078	0	652
3.354	12.477	16390	18862	0	652
0.469	15.398	16392	18584	1	392
1.442	18.536	16392	18304	0	392
6.275	19.546	16395	18161	0	392
11.540	19.546	16398	18213	0	392
13.307	16.877	16401	18324	0	392
10.783	12.838	16404	18385	0	392
8.547	11.720	16407	18380	0	392
4.183	12.550	16409	18247	0	392
2.777	11.360	16411	18005	0	392
2.993	8.943	16413	17840	0	392
2.957	8.907	16416	17842	0	392
3.678	10.350	16418	17884	0	392
4.724	11.143	16422	17864	0	392
3.354	15.218	16424	17774	0	392
-1.154	14.930	16425	17592	0	392
-5.085	11.107	16427	17380	0	392
-8.979	10.206	16428	17177	0	392
-10.242	10.710	16428	16880	0	392
-10.458	11.323	16427	16457	0	392
-10.458	13.127	16426	15984	0	392
-12.225	10.855	16423	15498	0	392
-15.146	7.573	16422	15051	0	392
-19.726	3.282	16420	14740	0	392
-23.585	-0.288	16418	14549	0	392
-29.246	-2.236	16416	14339	0	392
-33.429	-6.635	16414	14069	0	392
-36.351	-10.097	16411	13791	0	392
-36.459	-12.838	16408	13531	0	392
-32.636	-13.523	16405	13297	0	392
-28.669	-10.891	16401	13097	0	392
-25.279	-4.508	16397	12934	0	392
-24.919	-0.361	16393	12813	0	392
-28.237	-0.685	16390	12777	0	392
-29.571	-4.400	16389	12952	0	392
-29.354	-8.150	16388	13381	0	392
-27.551	-10.674	16388	13877	0	392
-25.604	-8.222	16388	14234	0	392
-26.722	-4.472	16387	14456	0	392
-28.020	-2.128	16385	14621	0	392
-29.354	-2.633	16384	14750	0	392
-26.650	-3.282	16383	14841	0	392
-23.801	-3.101	16381	14906	0	392
-22.539	0.144	16379	14956	0	392
-19.510	2.019	16377	15000	0	392
-21.493	2.921	16375	15043	0	392
-19.798	-0.216	16373	15097	0	392
-21.241	-3.859	16371	15196	0	392
-21.349	-4.760	16371	15428	0	392
-20.411	-1.406	16371	15799	0	392
-21.493	5.013	16373	16242	0	392
-19.113	6.744	16374	16667	0	392
-20.195	6.527	16375	16987	0	392
-20.844	0.541	16376	17203	0	392
-20.231	-3.426	16378	17493	0	392
-16.985	-1.551	16381	17935	0	392
-10.602	5.914	16384	18358	0	392
-3.029	14.497	16385	18614	0	392
3.318	19.365	16388	18794	0	392
6.996	20.447	16390	18959	0	392
7.573	19.942	16392	18991	0	392
7.970	20.880	16393	18852	0	392
7.429	26.001	16394	18651	0	392
9.052	28.381	16396	18556	0	392
10.422	28.994	16398	18634	0	392
12.297	28.417	16400	18717	0	392
18.103	28.705	16401	18624	0	392
21.529	32.744	16402	18366	0	392
24.450	37.541	16402	18032	0	392
23.404	39.885	16401	17657	0	392
18.500	39.632	16400	17251	0	392
18.031	37.865	16398	16828	0	392
19.113	37.865	16397	16449	0	392
25.316	40.101	16396	16212	0	392
29.715	43.058	16395	16083	0	392
31.446	41.580	16394	15922	0	392
32.239	43.527	16392	15684	0	392
33.790	43.491	16391	15468	0	392
37.108	44.897	16391	15384	0	392
39.055	46.953	16390	15406	0	392
38.875	48.107	16389	15392	0	392
35.593	44.753	16388	15289	0	392
32.744	41.039	16387	15196	0	392
33.862	37.432	16387	15263	0	392
38.622	37.000	16388	15587	0	392
43.707	36.459	16392	16111	0	392
50.379	36.855	16395	16685	0	392
50.884	39.272	16398	17143	0	392
52.110	40.858	16401	17360	0	392
52.651	43.924	16402	17366	0	392
57.483	48.756	16402	17247	0	392
61.991	53.552	16402	17088	0	392
66.571	55.103	16403	16989	0	392
70.465	56.726	16403	16939	0	392
70.141	54.706	16402	16808	0	392
70.357	54.562	16401	16562	0	392
69.600	51.965	16400	16273	0	392
67.544	52.038	16397	15970	0	392
66.102	50.956	16395	15660	0	392
67.436	53.805	16392	15355	0	392
67.364	55.427	16390	15061	0	392
69.455	55.427	16387	14793	0	392
66.787	53.588	16384	14561	0	392
61.486	48.792	16383	14408	0	392
57.447	44.032	16381	14460	0	392
54.057	43.238	16382	14763	0	392
50.920	45.510	16382	15133	0	392
51.497	46.159	16382	15361	0	392
49.802	45.763	16381	15456	0	392
50.234	45.330	16380	15492	0	392
54.237	43.455	16379	15533	0	392
58.781	44.645	16379	15670	0	392
61.991	46.051	16380	15883	0	392
62.928	46.268	16379	16025	0	392
59.791	44.320	16379	16097	0	392
55.175	44.176	16380	16279	0	392
53.372	43.491	16382	16649	0	392
49.621	43.563	16384	17068	0	392
47.061	39.272	16386	17425	0	392
41.003	32.636	16388	17701	0	392
33.069	24.847	16390	17828	0	392
28.381	21.349	16390	17782	0	392
27.732	22.539	16390	17634	0	392
31.807	29.859	16390	17421	0	392
38.226	37.036	16389	17167	0	392
41.471	37.937	16387	16889	0	392
40.101	33.177	16385	16596	0	392
34.980	28.741	16384	16305	0	392
30.977	23.909	16382	16019	0	392
26.542	21.854	16380	15752	0	392
24.378	21.457	16377	15506	0	392
22.683	22.142	16375	15289	0	392
24.162	17.490	16373	15144	0	392
24.198	18.788	16372	15198	0	392
28.020	19.978	16374	15541	0	392
31.049	23.945	16376	16071	0	392
31.410	25.243	16379	16554	0	392
28.417	24.558	16380	16842	0	392
23.332	22.683	16381	16957	0	392
19.510	18.211	16382	16973	0	392
18.933	17.490	16382	16921	0	392
19.473	15.687	16382	16858	0	392
21.962	19.041	16382	16878	0	392
20.844	17.382	16383	16965	0	392
18.175	19.077	16383	16979	0	392
17.815	21.241	16383	16882	0	392
18.464	22.755	16382	16729	0	392
22.647	25.171	16381	16552	0	392
25.279	27.263	16381	16399	0	392
26.361	26.650	16380	16367	0	392
28.417	26.037	16380	16423	0	392
29.499	26.361	16380	16433	0	392
29.102	25.856	16380	16387	0	392
27.587	24.811	16381	16423	0	392
23.981	23.224	16382	16538	0	392
21.926	20.916	16382	16588	0	392
18.428	18.067	16381	16526	0	392
20.916	18.788	16380	16409	0	392
22.395	18.716	16380	16271	0	392
26.397	21.998	16379	16154	0	392
31.194	24.017	16379	16156	0	392
32.456	24.847	16379	16250	0	392
31.338	24.522	16379	16285	0	392
25.604	21.926	16378	16220	0	392
23.296	20.087	16378	16117	0	392
24.053	22.899	16377	16002	0	392
28.489	24.053	16375	15877	0	392
32.095	26.037	16374	15750	0	392
33.177	29.282	16372	15625	0	392
32.636	28.850	16371	15553	0	392
29.751	26.614	16371	15617	0	392
26.217	23.116	16371	15789	0	392
21.601	16.949	16371	15924	0	392
13.343	10.494	16371	16006	0	392
8.619	5.878	16371	16168	0	392
9.160	6.311	16373	16397	0	392
11.287	8.475	16373	16556	0	392
15.038	10.169	16374	16604	0	392
17.743	11.792	16373	16596	0	392
15.074	12.586	16373	16558	0	392
14.100	11.323	16372	16491	0	392
11.071	10.783	16371	16401	0	392
6.960	7.898	16371	16345	0	392
6.131	4.436	16372	16405	0	392
5.842	1.442	16372	16564	0	392
9.160	3.642	16373	16669	0	392
15.362	9.484	16374	16711	0	392
20.014	15.795	16374	16830	0	392
18.716	17.887	16376	17014	0	392
16.625	15.723	16377	17116	0	392
11.648	12.225	16377	17090	0	392
13.848	10.494	16378	17042	0	392
17.959	14.677	16380	17124	0	392
26.217	17.923	16382	17387	0	392
27.660	17.274	16384	17665	0	392
23.260	14.281	16385	17764	0	392
18.283	7.753	16386	17693	0	392
16.949	8.583	16386	17540	0	392
23.945	13.848	16386	17338	0	392
32.853	21.096	16386	17098	0	392
35.269	26.542	16385	16834	1	796
31.410	25.676	16384	16562	0	796
23.801	20.952	16384	16329	0	796
18.247	17.454	16384	16228	0	796
17.454	13.704	16384	16232	0	796
19.473	14.208	16384	16198	0	796
22.142	13.018	16384	16117	0	796
17.851	11.684	16384	16127	0	796
14.136	13.451	16384	16222	0	796
8.330	10.386	16384	16256	0	796
6.816	10.278	16384	16182	0	796
8.655	11.504	16384	16065	0	796
15.507	12.297	16383	15936	0	796
21.204	19.113	16382	15795	0	796
25.460	23.549	16380	15644	0	796
25.460	28.814	16379	15496	0	796
27.335	30.653	16377	15359	0	796
31.049	31.771	16376	15281	0	796
37.468	33.393	16376	15345	0	796
40.858	34.620	16376	15515	0	796
43.527	35.521	16376	15646	0	796
40.281	36.567	16375	15688	0	796
37.288	38.803	16375	15736	0	796
37.468	41.003	16376	15890	0	796
37.505	42.445	16377	16123	0	796
38.478	41.039	16377	16291	0	796
35.701	36.206	16377	16345	0	796
32.131	33.249	16378	16377	0	796
29.030	32.456	16378	16497	0	796
29.391	35.305	16379	16687	0	796
29.571	39.849	16380	16802	0	796
28.525	38.118	16381	16838	0	796
23.729	32.312	16382	16937	0	796
17.598	24.702	16383	17098	0	796
10.963	19.618	16384	17213	0	796
10.206	20.700	16386	17364	0	796
15.651	29.102	16389	17661	0	796
22.899	36.242	16392	17957	0	796
32.853	41.327	16394	18050	0	796
38.803	43.419	16395	17959	0	796
40.858	41.796	16395	17772	0	796
36.783	40.245	16395	17524	0	796
33.393	37.468	16394	17231	0	796
29.282	36.639	16393	16913	0	796
28.561	36.567	16392	16588	0	796
29.427	38.911	16390	16267	0	796
28.056	42.842	16388	15956	0	796
28.561	45.258	16386	15666	0	796
26.542	43.707	16384	15404	0	796
27.984	41.111	16383	15170	0	796
29.354	40.065	16381	14966	0	796
31.374	40.678	16378	14789	0	796
29.607	42.445	16376	14646	0	796
25.316	40.317	16375	14579	0	796
20.664	36.351	16374	14670	0	796
13.776	29.859	16374	14883	0	796
11.143	23.657	16373	15063	0	796
8.042	24.198	16372	15162	0	796
6.888	22.611	16371	15234	0	796
5.157	22.286	16371	15337	0	796
4.075	21.565	16371	15551	0	796
2.308	19.798	16372	15847	0	796
2.019	22.106	16372	16083	0	796
3.210	24.198	16373	16210	0	796
3.426	28.525	16373	16277	0	796
5.626	33.069	16372	16315	0	796
6.419	32.961	16372	16323	0	796
6.816	30.869	16371	16315	0	796
10.206	29.102	16371	16297	0	796
13.776	28.489	16370	16269	0	796
18.175	31.374	16369	16275	0	796
24.558	39.560	16370	16395	0	796
28.381	45.510	16370	16610	0	796
27.948	47.890	16371	16766	0	796
27.371	45.871	16371	16820	0	796
25.640	43.130	16372	16860	0	796
26.830	42.373	16374	17034	0	796
26.037	44.176	16377	17395	0	796
25.460	46.736	16379	17772	0	796
24.234	48.576	16382	17971	1	316
23.368	51.641	16383	18003	0	316
23.044	51.208	16384	17937	0	316
23.801	54.021	16384	17806	0	316
21.385	49.585	16384	17626	0	316
14.064	43.924	16384	17411	0	316
5.842	34.295	16384	17179	0	316
4.940	28.273	16383	16941	0	316
6.455	24.955	16382	16701	0	316
8.979	25.207	16381	16463	0	316
10.242	26.650	16380	16236	0	316
8.727	24.630	16379	16057	0	316
3.787	20.736	16379	16061	0	316
0.685	19.185	16381	16301	0	316
3.137	17.779	16383	16590	0	316
8.186	23.585	16384	16737	0	316
14.208	32.348	16384	16739	0	316
21.493	41.075	16384	16675	0	316
26.289	48.828	16384	16612	0	316
31.049	53.660	16386	16679	0	316
35.449	57.014	16388	16935	0	316
40.786	56.581	16390	17213	0	316
44.645	53.408	16392	17318	0	316
43.166	51.893	16393	17259	0	316
42.589	49.946	16393	17122	0	316
39.452	50.739	16393	16933	0	316
38.658	54.165	16393	16707	0	316
40.966	52.831	16391	16457	0	316
38.767	50.595	16390	16202	0	316
33.357	42.661	16389	15986	0	316
26.109	36.351	16389	15900	0	316
21.926	32.059	16389	15924	0	316
20.844	32.348	16389	15910	0	316
23.621	36.134	16388	15811	0	316
28.453	40.858	16387	15724	0	316
28.633	38.550	16387	15754	0	316
22.503	35.557	16388	15873	0	316
18.536	27.263	16388	15940	0	316
16.625	25.063	16388	15908	0	316
18.103	24.847	16386	15831	0	316
27.263	29.391	16386	15775	0	316
35.197	32.600	16386	15829	0	316
40.642	33.357	16387	15966	0	316
45.005	35.088	16387	16047	0	316
44.176	34.511	16386	16025	0	316
41.219	33.321	16385	15958	0	316
40.822	32.780	16385	15908	0	316
39.740	30.689	16385	15964	0	316
42.806	29.066	16386	16144	0	316
45.618	29.499	16388	16423	0	316
46.592	29.607	16391	16812	0	316
43.779	30.328	16393	17185	0	316
42.048	31.266	16395	17364	0	316
42.842	30.761	16397	17401	0	316
44.861	31.049	16398	17463	0	316
49.333	32.384	16400	17552	0	316
52.001	32.167	16401	17574	0	316
46.015	32.276	16403	17574	0	316
38.514	27.624	16404	17628	0	316
28.056	21.818	16407	17743	0	316
20.303	15.254	16410	17927	0	316
21.385	15.110	16413	18112	0	316
25.604	18.392	16416	18215	0	316
30.941	27.299	16418	18259	0	316
32.276	30.184	16421	18270	0	316
29.607	29.210	16423	18205	0	316
28.489	24.342	16424	17987	0	316
29.102	22.719	16424	17647	0	316
33.790	23.873	16424	17344	0	316
35.485	29.931	16424	17090	0	316
34.367	35.197	16423	16757	0	316
31.302	35.990	16421	16319	0	316
26.073	32.384	16419	15841	0	316
24.198	29.931	16416	15359	0	316
26.758	28.345	16413	14886	0	316
27.047	29.859	16409	14444	0	316
29.318	31.951	16405	14041	0	316
29.246	33.105	16402	13726	0	316
30.508	30.797	16399	13583	0	316
32.312	26.001	16397	13581	1	316
34.403	24.594	16394	13573	0	316
36.278	23.873	16391	13508	0	316
35.882	26.758	16388	13484	0	316
33.502	31.194	16388	13648	0	316
32.780	34.115	16388	14045	0	316
31.518	33.105	16388	14496	0	316
28.128	29.318	16388	14797	0	316
26.145	24.162	16386	14956	0	316
23.549	18.788	16386	15085	0	316
24.775	20.267	16385	15291	0	316
27.443	21.962	16385	15555	0	316
29.607	24.955	16385	15738	0	316
30.905	28.814	16384	15801	0	316
31.374	27.696	16383	15807	0	316
32.239	27.912	16382	15779	0	316
35.701	27.732	16380	15722	0	316
40.065	27.515	16378	15650	0	316
41.724	28.597	16376	15579	0	316
38.803	28.741	16373	15511	0	316
35.737	29.030	16371	15452	0	316
31.807	27.984	16369	15412	0	316
27.912	26.794	16367	15430	0	316
26.794	23.621	16366	15581	0	316
24.666	20.591	16366	15833	0	316
20.555	18.897	16366	16039	0	316
19.113	16.949	16365	16150	0	316
16.985	20.014	16364	16222	0	316
20.808	21.349	16363	16275	0	316
23.188	22.286	16362	16313	0	316
25.568	21.493	16361	16339	0	316
27.047	17.887	16361	16397	0	316
26.289	18.320	16362	16618	0	316
23.224	17.779	16364	17046	0	316
21.890	20.411	16366	17505	0	316
23.044	20.916	16369	17828	0	316
22.827	23.008	16371	18106	0	316
27.804	27.407	16374	18387	0	316
30.040	31.662	16376	18546	0	316
31.626	36.567	16377	18540	0	316
30.112	37.793	16378	18435	0	316
25.063	35.449	16378	18266	0	316
19.329	28.633	16378	18054	0	316
11.179	21.493	16378	17810	0	316
7.212	18.392	16377	17544	0	316
4.832	15.326	16376	17268	0	316
6.527	15.398	16376	17036	0	316
8.330	13.848	16376	16975	0	316
12.153	12.009	16378	17135	0	316
14.677	10.061	16380	17348	0	316
14.894	10.061	16381	17409	0	316
17.238	13.343	16383	17370	0	316
16.192	20.303	16384	17387	0	316
20.195	21.962	16385	17499	0	316
24.630	24.053	16388	17641	0	316
29.751	25.893	16390	17745	0	316
32.853	27.263	16391	17721	0	316
30.400	26.866	16392	17558	0	316
29.102	28.056	16392	17356	0	316
30.581	32.276	16394	17233	0	316
33.321	34.115	16394	17173	0	316
35.377	37.973	16395	17078	0	316
33.790	38.009	16396	16993	0	316
26.578	32.636	16397	16953	0	316
19.762	25.712	16397	16840	0	316
15.759	19.401	16398	16649	0	316
17.382	15.254	16398	16526	0	316
21.096	14.894	16398	16471	0	316
22.106	14.858	16398	16349	0	316
23.621	14.966	16397	16117	0	316
21.926	18.897	16396	15884	0	316
18.752	18.860	16396	15763	0	316
18.031	16.372	16396	15771	0	316
14.461	10.638	16397	15849	0	316
11.035	7.357	16398	15928	0	316
8.583	5.157	16397	15918	0	316
6.960	6.419	16397	15791	0	316
6.671	8.150	16395	15609	0	316
5.950	8.402	16394	15440	0	316
5.229	7.104	16394	15422	1	316
1.803	5.878	16395	15617	0	316
-1.587	5.842	16397	15892	0	316
-3.137	6.671	16399	16174	0	316
-3.823	8.583	16402	16556	0	316
-3.787	10.891	16405	17026	0	316
-3.210	13.523	16408	17382	0	316
-3.137	14.966	16410	17485	0	316
-4.580	17.995	16411	17378	0	316
-6.599	17.887	16410	17151	0	316
-8.511	18.752	16409	16852	0	316
-10.963	16.084	16408	16538	0	316
-14.569	12.550	16407	16323	0	316
-13.884	9.448	16407	16182	0	316
-13.451	8.763	16405	15984	0	316
-9.088	13.812	16403	15692	0	316
-4.436	18.139	16401	15412	0	316
-4.472	16.805	16400	15256	0	316
-5.517	17.057	16398	15200	0	316
-9.412	11.035	16396	15103	0	316
-9.845	10.530	16394	14926	0	316
-7.393	12.622	16392	14732	0	316
-4.111	16.012	16389	14545	0	316
-1.659	19.654	16386	14369	0	316
-2.813	19.257	16384	14252	0	316
-4.616	18.644	16383	14283	0	316
-4.977	17.959	16381	14434	0	316
-0.829	18.356	16380	14557	0	316
4.255	21.637	16377	14601	0	316
7.321	24.234	16375	14621	0	316
5.013	25.027	16373	14640	0	316
3.029	21.529	16371	14660	0	316
-1.406	16.156	16369	14684	0	316
0.613	16.336	16366	14716	0	316
7.537	20.664	16364	14759	0	316
17.887	29.318	16362	14819	0	316
23.008	37.396	16360	14888	0	316
27.732	39.452	16358	15009	0	316
27.191	37.757	16358	15265	0	316
24.775	33.321	16358	15623	0	316
23.152	29.571	16358	15926	0	316
21.890	28.705	16357	16125	0	316
23.981	27.299	16357	16277	0	316
22.827	26.001	16356	16401	0	316
23.440	26.109	16355	16499	0	316
25.279	26.001	16355	16568	0	316
26.650	26.722	16354	16620	0	316
29.174	28.777	16353	16655	0	316
31.338	31.338	16352	16687	0	316
32.636	28.958	16352	16759	0	316
31.085	29.174	16353	16949	0	316
30.112	28.777	16354	17225	0	316
31.194	30.436	16355	17439	0	316
32.780	33.646	16356	17538	0	316
33.970	37.468	16356	17578	0	316
34.908	40.173	16357	17584	0	316
32.239	41.435	16357	17600	0	316
24.847	42.517	16359	17715	0	316
16.985	40.678	16361	17905	0	316
7.393	38.045	16362	18026	0	316
1.947	33.466	16363	18066	0	316
0.649	31.338	16365	18161	0	316
2.380	30.436	16368	18308	0	316
0.505	32.853	16370	18368	0	316
-5.301	33.574	16371	18296	0	316
-17.454	31.085	16372	18153	0	316
-29.246	23.909	16372	18010	0	316
-36.783	18.752	16374	17957	0	316
-37.613	13.668	16376	17975	0	316
-34.295	15.110	16377	17919	0	316
-30.653	17.743	16378	17749	0	316
-28.922	21.745	16378	17566	0	316
-25.604	20.988	16380	17483	0	316
-24.017	20.195	16381	17475	0	316
-18.536	19.726	16383	17439	0	316
-16.625	16.228	16384	17415	0	316
-13.487	14.713	16385	17437	0	316
-15.723	13.271	16386	17385	0	316
-15.038	13.235	16387	17257	0	316
-12.622	16.985	16389	17233	0	316
-7.393	20.916	16392	17389	0	316
-0.252	26.289	16395	17552	0	316
6.022	29.499	16396	17536	0	316
7.068	26.722	16397	17356	0	316
3.823	24.630	16397	17094	0	316
-2.705	20.736	16397	16788	0	316
-9.340	16.156	16397	16499	0	316
-15.723	14.894	16397	16363	0	316
-16.048	13.199	16399	16435	0	316
-16.552	13.163	16401	16588	0	316
-13.379	13.307	16403	16707	0	316
-13.956	15.182	16405	16772	0	316
-14.064	18.969	16405	16715	0	316
-13.668	20.664	16405	16514	0	316
-14.785	20.123	16405	16283	0	316
-13.091	20.014	16405	16136	0	316
-14.136	18.283	16406	16059	0	316
-14.208	19.221	16405	15914	0	316
-14.605	18.536	16403	15662	0	316
-16.661	19.041	16402	15375	0	316
-15.254	17.526	16400	15087	0	316
-15.723	18.031	16397	14805	0	316
-12.910	19.978	16395	14535	0	316
-5.986	24.522	16392	14289	0	316
0.829	27.155	16389	14111	0	316
6.058	26.037	16388	14089	0	316
7.465	24.378	16386	14198	0	316
7.645	22.106	16385	14287	0	316
7.393	20.123	16384	14345	0	316
9.196	19.726	16384	14506	0	316
13.415	22.214	16384	14758	0	316
17.021	23.404	16383	14948	0	316
25.676	29.354	16382	15033	0	316
30.905	34.367	16381	15075	0	316
34.944	40.137	16379	15099	0	316
34.511	40.786	16378	15107	0	316
32.636	37.829	16376	15111	0	316
29.715	32.492	16374	15113	0	316
30.977	28.561	16372	15113	0	316
31.158	26.289	16370	15117	0	316
30.400	27.948	16368	15129	0	316
28.309	29.571	16367	15194	0	316
23.909	31.410	16367	15438	0	316
20.519	31.338	16369	15942	0	316
17.706	31.987	16372	16602	0	316
16.048	30.040	16375	17187	0	316
15.002	28.669	16378	17592	0	316
16.192	25.243	16381	17921	0	316
14.064	21.277	16383	18229	0	316
13.271	22.539	16384	18395	0	316
10.855	23.152	16385	18384	0	316
8.402	27.191	16386	18264	0	316
9.088	29.895	16386	18076	0	316
8.799	30.076	16385	17834	0	316
8.330	29.138	16384	17560	1	536
7.681	27.047	16384	17266	0	536
6.996	25.748	16383	16969	0	536
6.347	26.217	16382	16715	0	536
5.806	25.063	16381	16596	0	536
6.383	24.811	16381	16584	0	536
6.780	21.854	16381	16538	0	536
3.354	19.077	16380	16411	0	536
3.173	14.208	16379	16261	0	536
0.685	14.100	16378	16113	0	536
0.685	16.444	16377	16002	0	536
4.255	21.277	16377	16017	0	536
8.114	25.568	16378	16131	0	536
10.674	27.299	16378	16238	0	536
9.232	24.486	16380	16407	0	536
6.491	20.339	16383	16792	0	536
5.337	19.149	16385	17314	0	536
6.022	19.906	16389	17741	0	536
10.783	24.666	16391	17931	0	536
14.353	29.138	16393	17925	0	536
19.870	30.797	16394	17806	0	536
20.267	32.600	16394	17610	0	536
22.395	31.446	16394	17356	0	536
24.162	31.122	16393	17064	0	536
21.601	29.030	16392	16786	0	536
20.411	28.309	16392	16616	0	536
18.356	25.820	16392	16536	0	536
14.245	22.431	16391	16411	0	536
11.720	20.303	16390	16202	0	536
11.612	20.627	16389	15962	0	536
12.297	20.952	16387	15724	0	536
15.290	26.578	16385	15490	0	536
17.779	31.302	16384	15267	0	536
16.805	34.295	16382	15069	0	536
19.077	33.105	16380	14896	0	536
17.634	30.148	16378	14750	0	536
19.870	25.063	16376	14631	0	536
20.952	23.044	16373	14541	0	536
19.546	19.654	16371	14480	0	536
19.798	22.106	16369	14446	0	536
19.618	25.388	16367	14436	0	536
24.162	26.506	16365	14454	0	536
26.325	26.361	16363	14537	0	536
28.273	23.909	16363	14803	0	536
23.981	20.014	16365	15303	0	536
21.565	18.464	16367	15855	0	536
18.536	21.060	16368	16250	0	536
19.113	22.286	16369	16520	0	536
18.392	21.673	16372	16872	0	536
19.077	18.933	16375	17380	0	536
17.598	17.202	16379	17868	0	536
20.880	22.791	16381	18141	0	536
24.702	28.741	16383	18217	0	536
29.354	35.810	16384	18183	0	536
29.859	36.891	16384	18078	0	536
27.768	34.115	16384	17955	0	536
26.289	30.256	16385	17911	0	536
25.532	29.968	16387	17965	0	536
29.463	32.564	16389	18058	0	536
33.033	37.757	16392	18161	0	536
34.331	40.930	16394	18306	0	536
33.826	42.229	16398	18524	0	536
32.961	42.986	16401	18699	0	536
30.292	42.084	16403	18665	0	536
30.905	40.570	16404	18433	0	536
34.620	40.245	16405	18106	0	536
40.858	41.219	16404	17721	0	536
46.123	41.399	16403	17294	0	536
48.900	41.760	16402	16842	0	536
45.474	40.786	16400	16384	0	536
41.580	39.524	16398	15938	0	536
35.882	39.091	16395	15513	0	536
35.557	41.868	16393	15158	0	536
35.629	44.104	16392	14964	0	536
35.954	45.222	16390	14906	0	536
34.944	44.789	16389	14833	0	536
33.754	43.960	16388	14738	0	536
36.314	45.041	16387	14758	0	536
39.921	51.388	16387	14884	0	536
43.022	57.447	16386	14970	1	316
43.743	59.106	16385	14966	0	316
41.760	56.221	16384	14926	0	316
38.190	52.146	16383	14879	0	316
36.423	46.989	16381	14827	0	316
37.901	44.753	16379	14775	0	316
38.226	45.582	16377	14726	0	316
34.403	42.373	16375	14688	0	316
30.400	36.964	16373	14666	0	316
24.162	30.364	16371	14660	0	316
18.969	24.342	16370	14708	0	316
19.365	21.926	16369	14932	0	316
19.942	18.211	16371	15426	0	316
19.726	18.031	16374	16089	0	316
17.562	11.937	16377	16685	0	316
8.114	5.301	16380	17110	0	316
-3.029	-4.147	16383	17467	0	316
-15.146	-12.369	16384	17800	0	316
-25.171	-21.457	16386	17993	0	316
-33.466	-27.479	16387	18010	0	316
-39.127	-33.862	16388	17923	0	316
-42.193	-39.524	16387	17770	0	316
-45.258	-44.825	16387	17562	0	316
-46.051	-52.542	16386	17318	0	316
-50.595	-61.522	16385	17056	0	316
-60.584	-72.737	16384	16784	0	316
-72.953	-83.195	16383	16514	0	316
-85.719	-94.987	16381	16256	0	316
-95.023	-103.390	16379	16011	0	316
-98.954	-108.943	16377	15793	0	316
-101.226	-110.133	16375	15607	0	316
-99.459	-108.366	16373	15448	0	316
-98.918	-106.455	16372	15357	0	316
-100.144	-103.606	16371	15410	0	316
-98.377	-103.967	16371	15583	0	316
-96.646	-99.243	16371	15724	0	316
-89.362	-92.319	16371	15783	0	316
-80.923	-82.943	16370	15809	0	316
-71.078	-73.891	16369	15819	0	316
-64.948	-68.482	16368	15813	0	316
-63.000	-65.957	16367	15801	0	316
-62.423	-67.761	16366	15787	0	316
-62.784	-69.492	16365	15777	0	316
-64.118	-70.213	16365	15811	0	316
-64.876	-69.167	16365	15972	0	316
-61.125	-65.849	16366	16228	0	316
-55.932	-60.620	16366	16423	0	316
-48.720	-54.057	16366	16514	0	316
-43.310	-50.884	16367	16596	0	316
-41.327	-45.618	16368	16776	0	316
-44.104	-44.825	16371	17068	0	316
-46.484	-45.474	16373	17403	0	316
-49.513	-46.953	16375	17705	0	316
-51.821	-48.576	16377	17878	0	316
-49.730	-49.585	16378	17901	0	316
-48.215	-45.510	16379	17838	0	316
-42.878	-42.950	16380	17721	0	316
-35.088	-35.052	16380	17554	0	316
-27.119	-29.968	16380	17360	0	316
-19.798	-23.657	16380	17189	0	316
-10.566	-18.320	16380	17134	0	316
-7.825	-15.903	16381	17165	0	316
-7.248	-15.615	16382	17179	0	316
-9.953	-14.245	16384	17211	0	316
-12.405	-15.507	16385	17330	0	316
-12.766	-11.756	16387	17501	0	316
-7.285	-9.917	16390	17643	0	316
-2.092	-9.412	16391	17663	0	316
0.180	-9.520	16392	17584	0	316
0.685	-10.025	16394	17548	0	316
1.911	-8.258	16395	17566	0	316
6.131	-2.092	16397	17491	0	316
12.982	4.616	16397	17324	0	316
19.113	8.258	16398	17215	0	316
21.457	9.556	16399	17163	0	316
22.070	10.025	16400	17036	0	316
23.152	12.874	16399	16796	0	316
29.391	20.123	16398	16510	0	316
38.406	29.787	16398	16208	0	316
44.933	38.658	16396	15894	0	316
45.763	39.091	16394	15589	0	316
46.340	38.009	16392	15301	0	316
43.563	35.557	16390	15037	0	316
44.861	36.928	16388	14797	0	316
50.667	41.507	16385	14587	0	316
56.690	44.681	16384	14410	0	316
56.726	49.513	16381	14271	0	316
54.742	48.179	16379	14166	0	316
53.696	50.595	16377	14097	0	316
54.706	52.542	16374	14061	0	316
61.053	55.716	16372	14059	0	316
65.489	58.276	16370	14087	0	316
62.495	58.096	16368	14142	0	316
55.716	53.552	16366	14222	0	316
47.710	50.847	16364	14325	0	316
50.956	48.864	16363	14446	0	316
57.266	52.362	16361	14579	0	316
66.030	55.752	16360	14724	0	316
68.013	57.591	16358	14881	0	316
62.099	52.542	16357	15043	0	316
55.680	48.215	16356	15216	0	316
52.651	45.582	16355	15394	0	316
55.860	45.474	16355	15577	0	316
59.034	49.441	16354	15799	0	316
60.981	49.621	16355	16142	0	316
59.971	51.749	16357	16570	0	316
56.473	52.470	16358	16935	0	316
57.014	54.886	16360	17183	0	316
58.420	54.490	16361	17362	0	316
59.142	53.913	16361	17489	0	316
59.286	51.244	16362	17568	0	316
53.913	49.549	16362	17608	0	316
52.795	49.405	16363	17620	0	316
50.523	50.595	16363	17604	0	316
53.119	52.687	16363	17568	0	316
54.742	51.857	16364	17554	0	316
54.093	51.461	16365	17653	0	316
51.172	46.268	16367	17836	0	316
43.779	41.652	16369	17953	0	316
34.043	36.387	16370	17955	0	316
27.479	32.672	16371	17941	0	316
26.253	32.384	16374	18016	0	316
32.348	33.934	16376	18153	0	316
44.789	38.009	16377	18207	0	316
57.411	39.849	16378	18134	0	316
60.945	38.226	16380	18034	0	316
56.365	31.302	16382	18024	0	316
50.920	25.568	16384	18076	0	316
44.897	21.241	16385	18048	1	512
41.652	20.123	16386	17899	0	512
42.193	23.296	16386	17693	0	512
38.695	20.375	16387	17459	0	512
32.420	18.211	16386	17203	0	512
26.109	11.432	16386	16935	0	512
23.549	9.845	16385	16665	0	512
24.739	9.592	16385	16399	0	512
30.256	11.540	16384	16190	0	512
34.475	13.812	16385	16115	0	512
36.819	18.392	16385	16152	0	512
34.944	18.680	16385	16158	0	512
33.105	21.349	16385	16081	0	512
31.374	23.224	16385	15968	0	512
28.850	20.411	16385	15841	0	512
23.404	18.247	16384	15714	0	512
18.320	15.254	16384	15591	0	512
18.897	16.589	16383	15509	0	512
19.185	17.526	16384	15561	0	512
24.811	21.637	16384	15716	0	512
24.955	21.168	16384	15827	0	512
23.080	20.339	16384	15845	0	512
20.880	16.661	16384	15865	0	512
18.067	17.129	16385	15990	0	512
19.654	16.697	16387	16230	0	512
20.700	20.267	16389	16518	0	512
22.467	17.743	16392	16828	0	512
24.630	18.320	16394	17145	0	512
24.450	16.120	16398	17415	0	512
22.142	16.516	16399	17538	0	512
21.349	17.995	16400	17495	0	512
16.841	19.798	16401	17393	0	512
17.346	19.834	16403	17356	0	512
15.687	16.661	16404	17368	0	512
15.398	16.625	16405	17334	0	512
14.533	16.733	16407	17296	0	512
16.589	16.661	16408	17286	0	512
20.087	16.769	16408	17191	0	512
21.673	14.028	16408	16969	0	512
25.243	13.884	16407	16687	0	512
27.010	12.586	16406	16384	0	512
26.397	17.562	16405	16061	0	512
23.368	17.634	16403	15738	0	512
19.113	17.310	16401	15468	0	512
16.192	14.353	16400	15341	0	512
15.831	14.353	16400	15329	0	512
16.877	18.139	16399	15321	0	512
19.365	21.096	16399	15359	0	512
17.815	22.647	16400	15506	0	512
18.824	24.666	16401	15716	0	512
18.716	22.358	16401	15910	0	512
23.945	23.765	16402	16002	0	512
27.083	27.443	16402	16006	0	512
28.345	26.542	16403	16103	0	512
25.279	24.089	16405	16377	0	512
20.627	19.906	16407	16649	0	512
17.815	14.677	16407	16747	0	512
15.867	16.408	16407	16677	0	512
22.539	21.781	16407	16526	0	512
28.814	32.239	16406	16331	0	512
33.141	38.478	16405	16138	0	512
33.934	39.416	16404	16053	0	512
32.889	35.233	16404	16051	0	512
31.158	30.472	16403	15990	0	512
30.833	30.112	16402	15829	0	512
35.016	36.206	16400	15633	0	512
41.039	43.383	16398	15430	0	512
46.809	47.205	16395	15222	0	512
47.674	47.313	16393	15019	0	512
47.962	43.707	16390	14837	0	512
44.392	40.534	16388	14680	0	512
41.904	40.930	16385	14591	0	512
42.301	44.032	16384	14648	0	512
46.123	48.684	16384	14859	0	512
47.854	50.523	16384	15160	0	512
47.133	49.441	16384	15470	0	512
48.936	47.241	16384	15726	0	512
50.343	44.897	16385	15988	0	512
49.008	45.294	16386	16275	0	512
51.136	49.802	16387	16471	0	512
50.162	51.569	16386	16534	0	512
51.497	54.418	16386	16562	0	512
50.126	52.290	16387	16667	0	512
49.369	49.297	16388	16824	0	512
44.609	43.996	16388	16901	0	512
36.351	39.199	16387	16854	0	512
28.814	36.964	16387	16788	0	512
24.666	36.206	16388	16858	0	512
22.899	36.783	16390	17157	0	512
21.890	36.495	16393	17594	0	512
23.260	34.259	16397	17985	0	512
19.113	30.508	16400	18272	0	512
16.228	26.109	16403	18459	0	512
11.287	20.952	16404	18479	0	512
7.357	15.290	16405	18362	0	512
1.983	8.114	16407	18255	0	512
-5.914	0.288	16408	18175	0	512
-12.838	-4.544	16409	18030	0	512
-19.221	-7.032	16410	17872	1	392
-21.529	-8.691	16411	17731	0	392
-23.945	-10.746	16410	17501	0	392
-27.912	-16.228	16410	17187	0	392
-37.757	-23.512	16410	16943	0	392
-47.746	-32.564	16410	16774	0	392
-55.860	-40.317	16409	16536	0	392
-60.837	-45.727	16407	16200	0	392
-61.955	-53.047	16405	15825	0	392
-65.200	-56.149	16403	15486	0	392
-68.301	-59.971	16401	15277	0	392
-70.032	-56.942	16400	15178	0	392
-69.996	-54.345	16398	15047	0	392
-67.869	-49.549	16396	14843	0	392
-66.787	-48.287	16394	14629	0	392
-68.121	-48.539	16391	14466	0	392
-68.842	-50.451	16390	14486	0	392
-69.095	-49.441	16390	14742	0	392
-62.892	-44.356	16391	15051	0	392
-55.932	-41.147	16390	15218	0	392
-52.254	-39.524	16390	15285	0	392
-47.999	-39.596	16390	15458	0	392
-47.710	-38.045	16392	15859	0	392
-43.094	-32.492	16395	16387	0	392
-35.629	-25.784	16397	16830	0	392
-27.010	-18.536	16398	17040	0	392
-20.267	-15.182	16399	17054	0	392
-16.372	-15.471	16399	16999	0	392
-16.192	-12.045	16400	16991	0	392
-13.091	-6.058	16400	17016	0	392
-12.297	-0.649	16401	16987	0	392
-9.556	4.111	16401	16953	0	392
-7.104	5.481	16401	16987	0	392
-5.121	5.085	16403	17054	0	392
-1.010	4.977	16403	17084	0	392
4.364	7.068	16403	16997	0	392
9.340	9.160	16402	16776	0	392
12.586	10.746	16400	16491	0	392
12.189	10.350	16398	16222	0	392
11.937	10.133	16398	16059	0	392
11.035	11.323	16397	16027	0	392
15.002	15.326	16397	16067	0	392
21.457	16.480	16397	16150	0	392
24.630	19.690	16398	16263	0	392
25.316	17.995	16399	16393	0	392
24.234	20.555	16400	16534	0	392
23.512	21.565	16401	16637	0	392
24.991	25.640	16401	16616	0	392
28.453	28.056	16399	16457	0	392
29.679	26.325	16398	16230	0	392
30.256	22.755	16396	15964	0	392
30.220	23.801	16394	15678	0	392
34.511	27.948	16391	15388	0	392
39.416	33.934	16388	15107	0	392
41.507	37.288	16385	14843	0	392
40.281	34.475	16382	14607	0	392
34.980	29.210	16380	14444	0	392
31.771	24.919	16378	14438	0	392
32.276	28.309	16376	14597	0	392
36.351	32.276	16376	14853	0	392
40.029	33.177	16377	15168	0	392
41.363	30.689	16377	15525	0	392
37.901	23.188	16378	15869	0	392
33.033	16.877	16378	16099	0	392
30.400	15.146	16378	16190	0	392
29.787	16.516	16378	16244	0	392
32.528	17.706	16378	16379	0	392
34.944	22.719	16379	16604	0	392
36.098	23.837	16381	16870	0	392
37.432	23.332	16382	17102	0	392
37.505	24.594	16382	17209	0	392
40.353	29.715	16382	17173	0	392
45.186	37.288	16381	17058	0	392
48.143	44.537	16380	16901	0	392
47.890	48.503	16379	16709	0	392
48.864	44.753	16377	16497	0	392
45.005	36.026	16375	16281	0	392
44.248	33.466	16373	16067	0	392
43.094	31.482	16371	15865	0	392
41.688	31.374	16369	15682	0	392
37.613	28.201	16366	15517	0	392
34.728	22.539	16364	15379	0	392
32.636	17.670	16362	15263	0	392
31.518	15.471	16360	15178	0	392
35.846	19.798	16358	15119	0	392
36.675	22.395	16355	15089	0	392
37.721	25.352	16354	15089	0	392
36.314	26.542	16352	15117	0	392
33.502	25.424	16350	15166	0	392
31.446	26.542	16349	15238	0	392
30.508	27.299	16347	15321	0	392
30.977	31.338	16346	15414	0	392
33.502	35.629	16345	15515	0	392
37.937	37.793	16344	15629	0	392
42.084	37.937	16343	15754	0	392
44.068	36.531	16342	15881	0	392
42.301	34.295	16342	16053	0	392
39.957	36.098	16344	16384	0	392
38.082	39.596	16347	16925	0	392
35.701	41.363	16349	17493	0	392
33.285	39.127	16352	17884	0	392
26.289	32.203	16354	18102	0	392
19.221	25.893	16356	18266	0	392
13.091	20.664	16359	18477	0	392
10.963	19.005	16362	18711	0	392
11.287	20.772	16364	18834	0	392
10.963	19.113	16366	18808	0	392
6.996	16.048	16367	18703	0	392
2.380	10.386	16368	18552	0	392
-0.865	7.537	16369	18362	0	392
-0.793	7.357	16369	18139	1	440
3.318	9.232	16369	17895	0	440
7.285	11.432	16369	17635	0	440
11.396	15.182	16368	17372	0	440
14.533	18.392	16368	17112	0	440
17.418	23.440	16367	16864	0	440
23.981	28.092	16367	16667	0	440
26.866	32.636	16367	16610	0	440
28.381	34.331	16369	16705	0	440
25.568	33.033	16371	16887	0	440
24.450	32.889	16373	17070	0	440
24.162	33.826	16375	17195	0	440
25.820	31.879	16378	17320	0	440
28.201	30.292	16380	17467	0	440
28.164	31.735	16382	17518	0	440
29.318	34.620	16383	17431	0	440
36.891	39.235	16383	17268	0	440
43.743	46.159	16384	17064	0	440
47.602	48.107	16383	16828	0	440
42.409	41.543	16383	16576	0	440
31.085	32.492	16382	16323	0	440
19.690	25.135	16381	16071	0	440
14.389	23.188	16380	15829	0	440
19.257	26.181	16379	15603	0	440
23.981	28.741	16377	15400	0	440
23.801	27.984	16376	15222	0	440
21.818	23.332	16374	15069	0	440
15.002	19.726	16372	14946	0	440
15.074	18.824	16371	14853	0	440
19.510	23.260	16370	14789	0	440
28.309	26.902	16368	14754	0	440
36.206	32.672	16367	14742	0	440
40.029	35.990	16365	14752	0	440
40.426	37.865	16364	14781	0	440
36.819	37.649	16364	14873	0	440
32.708	35.449	16364	15103	0	440
29.318	34.511	16365	15438	0	440
30.004	34.908	16365	15726	0	440
35.088	37.468	16366	15908	0	440
42.445	40.245	16366	16039	0	440
47.926	41.507	16366	16144	0	440
49.838	43.455	16367	16226	0	440
49.008	44.428	16366	16281	0	440
46.592	46.015	16366	16319	0	440
44.176	46.412	16366	16341	0	440
44.897	45.366	16366	16389	0	440
44.573	41.183	16367	16554	0	440
41.147	36.098	16369	16848	0	440
35.774	29.282	16372	17203	0	440
27.479	22.034	16374	17532	0	440
19.329	17.887	16377	17782	0	440
16.985	14.966	16380	18012	0	440
15.723	13.920	16383	18249	0	440
14.569	15.038	16384	18374	0	440
14.713	12.874	16385	18340	0	440
8.547	11.107	16387	18211	0	440
4.508	10.674	16387	18022	0	440
1.947	8.835	16388	17788	0	440
2.705	12.045	16388	17568	0	440
6.239	14.281	16389	17451	0	440
11.576	14.100	16390	17415	0	440
15.182	13.704	16390	17320	0	440
14.605	11.864	16391	17161	0	440
9.232	11.937	16392	17082	0	440
5.662	16.949	16393	17076	0	440
5.265	20.844	16394	17003	0	440
9.448	24.414	16394	16822	0	440
14.677	24.811	16393	16594	0	440
19.834	22.250	16393	16353	0	440
20.267	22.827	16391	16101	0	440
20.519	23.549	16391	15886	0	440
17.166	23.188	16391	15839	0	440
16.120	22.899	16393	16057	0	440
13.631	18.283	16396	16443	0	440
8.439	13.523	16399	16776	0	440
7.212	7.898	16401	16913	0	440
4.904	3.426	16402	16919	0	440
4.724	0.433	16404	16953	0	440
5.373	0.505	16405	17022	0	440
6.491	3.426	16406	17028	0	440
4.111	6.347	16408	17014	0	440
2.488	7.429	16410	17054	0	440
-2.705	3.606	16411	17120	0	440
-5.590	0.902	16413	17143	0	440
-5.049	-0.577	16414	17084	0	440
-1.226	4.977	16415	17009	0	440
4.255	13.740	16416	16995	0	440
8.619	23.693	16418	17005	0	440
10.819	29.535	16419	16971	0	440
10.746	30.581	16419	16856	0	440
9.124	27.587	16420	16729	0	440
9.160	22.899	16420	16628	0	440
15.110	22.899	16420	16437	0	440
18.788	24.955	16419	16131	0	440
26.470	31.735	16417	15771	0	440
31.915	38.262	16414	15400	0	440
34.475	40.570	16412	15029	0	440
32.636	37.216	16409	14712	0	440
32.853	33.682	16407	14537	0	440
33.069	29.931	16406	14484	0	440
33.754	29.246	16404	14448	0	440
34.656	29.931	16403	14462	0	440
34.367	29.643	16402	14551	0	440
31.807	28.237	16400	14595	0	440
28.020	26.361	16398	14549	0	440
27.768	26.253	16396	14472	0	440
27.407	28.525	16394	14424	0	440
26.614	28.669	16393	14496	0	440
24.089	29.102	16392	14664	0	440
22.755	27.119	16391	14827	0	440
18.464	26.758	16390	15015	0	440
16.408	28.994	16390	15256	0	440
16.552	30.148	16390	15428	0	440
18.860	33.610	16388	15488	0	440
22.539	34.872	16387	15490	0	440
26.794	34.367	16385	15466	0	440
30.328	35.377	16384	15426	0	440
27.515	34.764	16382	15371	0	440
22.178	33.177	16380	15307	0	440
15.326	27.840	16377	15248	0	440
11.071	20.231	16375	15200	0	440
8.835	15.038	16373	15164	0	440
10.746	14.208	16371	15146	0	440
12.369	16.625	16368	15142	0	440
13.091	21.241	16366	15154	0	440
9.124	20.844	16364	15184	0	440
6.744	15.867	16362	15230	0	440
5.409	13.091	16360	15293	0	440
9.737	13.235	16358	15369	0	440
11.612	12.081	16357	15454	0	440
9.989	11.468	16355	15553	0	440
4.147	4.760	16354	15666	0	440
-3.714	-2.849	16352	15787	0	440
-8.907	-1.551	16351	15910	0	440
-5.517	4.436	16351	16077	0	440
1.118	12.477	16352	16407	0	440
6.635	16.589	16355	16951	0	440
9.953	17.057	16357	17524	0	440
9.232	11.071	16360	17921	0	440
4.039	8.691	16362	18183	0	440
-1.334	7.970	16365	18467	0	440
-2.813	7.573	16368	18808	0	440
0.649	9.088	16372	19145	0	440
7.465	13.271	16376	19409	0	440
14.064	16.048	16378	19516	0	440
18.356	20.988	16380	19451	0	440
15.795	21.132	16381	19278	0	440
12.838	19.798	16382	19038	0	440
10.602	14.858	16383	18745	0	440
9.592	14.641	16383	18415	1	596
12.045	13.956	16383	18108	0	596
13.812	15.110	16384	17913	0	596
11.251	12.946	16384	17810	0	596
3.390	5.481	16384	17653	0	596
-1.623	-2.849	16384	17437	0	596
-7.248	-8.619	16385	17306	0	596
-9.881	-8.943	16387	17300	0	596
-8.691	-6.924	16389	17350	0	596
-7.681	-3.642	16391	17387	0	596
-11.540	-4.832	16391	17324	0	596
-12.225	-7.104	16392	17141	0	596
-13.451	-11.215	16392	16933	0	596
-17.887	-12.694	16394	16854	0	596
-19.870	-14.749	16396	16961	0	596
-20.736	-13.668	16398	17132	0	596
-16.697	-8.402	16401	17259	0	596
-12.333	-4.472	16404	17364	0	596
-8.078	-0.180	16406	17461	0	596
-5.914	0.361	16408	17501	0	596
-6.960	-1.551	16410	17401	0	596
-7.717	-4.147	16410	17149	0	596
-6.996	-3.967	16409	16810	0	596
-6.347	-2.092	16408	16427	0	596
-4.832	-1.118	16406	16021	0	596
-4.472	-2.380	16404	15611	0	596
-1.659	-2.128	16402	15212	0	596
2.056	-1.370	16399	14837	0	596
5.013	0.361	16396	14496	0	596
4.436	2.849	16393	14194	0	596
2.524	2.705	16390	13938	0	596
-1.911	1.046	16387	13728	0	596
-4.616	-0.829	16384	13605	0	596
-3.714	-1.731	16384	13652	0	596
1.010	1.442	16383	13837	0	596
5.373	3.967	16382	14041	0	596
8.150	6.780	16381	14293	0	596
10.061	10.963	16382	14617	0	596
13.812	16.697	16381	14881	0	596
19.149	23.368	16380	15031	0	596
24.414	31.230	16380	15125	0	596
26.866	34.656	16379	15234	0	596
28.201	33.285	16379	15440	0	596
28.273	30.869	16379	15720	0	596
29.102	31.590	16379	15928	0	596
33.069	35.016	16379	16021	0	596
35.521	40.426	16378	16057	0	596
35.701	43.202	16377	16061	0	596
35.016	41.543	16376	16035	0	596
32.961	35.701	16375	16033	0	596
30.508	30.905	16375	16144	0	596
27.010	28.958	16376	16349	0	596
25.784	27.299	16375	16493	0	596
22.322	26.794	16376	16576	0	596
21.241	23.224	16376	16731	0	596
19.726	19.726	16377	16951	0	596
16.552	14.245	16378	17092	0	596
14.713	14.569	16378	17106	0	596
12.081	17.346	16378	17056	0	596
11.287	23.873	16377	16971	0	596
13.992	27.912	16377	16858	0	596
17.418	30.400	16376	16729	0	596
23.404	28.705	16375	16632	0	596
26.001	27.876	16376	16657	0	596
26.794	26.902	16376	16778	0	596
27.010	28.417	16376	16846	0	596
25.388	29.246	16376	16810	0	596
24.234	29.246	16376	16725	0	596
24.414	29.571	16375	16618	0	596
27.155	29.463	16374	16495	0	596
28.850	32.167	16373	16369	0	596
28.020	32.348	16372	16242	0	596
24.234	31.482	16371	16121	0	596
19.978	29.463	16369	16006	0	596
16.408	27.083	16368	15902	0	596
20.988	26.433	16367	15817	0	596
26.433	26.109	16365	15750	0	596
30.364	25.640	16364	15742	0	596
27.840	24.955	16365	15869	0	596
22.214	24.306	16365	16101	0	596
15.975	22.719	16366	16289	0	596
12.874	24.162	16366	16384	0	596
11.323	25.279	16366	16435	0	596
11.612	23.296	16366	16469	0	596
8.835	17.815	16367	16522	0	596
3.823	14.425	16368	16683	0	596
1.839	12.081	16369	16925	0	596
1.190	15.074	16370	17098	0	596
1.406	20.627	16371	17149	0	596
2.092	21.854	16371	17139	0	596
-0.757	18.283	16372	17096	0	596
-2.272	15.362	16372	17064	0	596
0.325	14.497	16374	17175	0	596
6.058	17.346	16378	17520	0	596
13.235	21.168	16382	18007	0	596
16.444	21.385	16385	18449	0	596
13.523	18.716	16390	18830	0	596
11.179	18.356	16396	19223	0	596
9.160	18.175	16401	19530	0	596
10.638	21.385	16404	19580	0	596
15.038	22.575	16406	19397	0	596
16.012	24.270	16408	19084	0	596
16.048	25.388	16408	18685	0	596
13.487	26.109	16408	18223	0	596
10.422	26.361	16407	17723	1	416
13.018	28.814	16406	17199	0	416
15.002	29.535	16404	16675	0	416
17.238	27.840	16402	16174	0	416
17.129	28.489	16400	15700	0	416
12.694	25.748	16398	15305	0	416
10.674	25.135	16397	15073	0	416
10.602	25.027	16396	14976	0	416
11.973	24.594	16394	14863	0	416
16.084	25.712	16393	14686	0	416
18.103	25.929	16390	14506	0	416
21.998	27.010	16389	14343	0	416
24.450	30.797	16387	14236	0	416
26.758	33.033	16386	14273	0	416
27.155	35.269	16386	14468	0	416
26.470	37.649	16386	14758	0	416
28.020	39.993	16387	15061	0	416
29.391	41.255	16387	15277	0	416
30.400	40.714	16387	15371	0	416
29.607	38.947	16386	15400	0	416
29.823	37.324	16386	15440	0	416
30.148	35.485	16386	15577	0	416
35.774	35.593	16387	15791	0	416
40.498	37.901	16387	15974	0	416
45.510	40.714	16388	16156	0	416
47.205	42.986	16389	16373	0	416
44.717	42.120	16389	16501	0	416
41.688	40.750	16389	16505	0	416
38.478	38.370	16389	16439	0	416
37.468	39.019	16388	16345	0	416
38.622	41.543	16386	16224	0	416
40.389	47.097	16385	16087	0	416
40.678	49.405	16384	15936	0	416
42.409	52.362	16383	15785	0	416
43.022	52.651	16381	15640	0	416
44.717	52.614	16379	15508	0	416
46.412	49.585	16377	15396	0	416
46.268	45.763	16375	15301	0	416
48.936	45.763	16373	15226	0	416
52.723	47.169	16371	15172	0	416
54.814	51.100	16369	15144	0	416
57.339	55.247	16367	15140	0	416
57.952	58.457	16366	15152	0	416
54.995	60.332	16364	15180	0	416
55.499	63.902	16363	15267	0	416
55.680	64.623	16363	15496	0	416
54.382	64.299	16364	15831	0	416
53.300	59.899	16364	16117	0	416
52.218	55.175	16364	16303	0	416
49.044	53.228	16365	16471	0	416
49.802	50.559	16366	16733	0	416
48.071	52.939	16368	17054	0	416
47.494	51.893	16369	17296	0	416
42.986	50.307	16370	17413	0	416
36.711	46.268	16370	17457	0	416
28.092	36.675	16371	17459	0	416
21.529	27.804	16371	17421	0	416
13.704	19.690	16371	17358	0	416
10.530	11.973	16371	17310	0	416
2.380	8.799	16373	17372	0	416
-3.246	6.419	16374	17510	0	416
-5.481	4.652	16375	17582	0	416
-5.770	6.239	16375	17538	0	416
-5.157	5.481	16376	17443	0	416
-4.688	5.481	16376	17322	0	416
-7.898	2.236	16376	17177	0	416
-11.323	0.216	16375	17020	0	416
-11.251	0.325	16375	16862	0	416
-8.943	3.534	16374	16743	0	416
-7.898	8.439	16376	16788	0	416
-9.268	8.330	16378	17052	0	416
-13.848	5.121	16381	17356	0	416
-19.834	-1.587	16383	17538	0	416
-21.673	-6.419	16385	17687	0	416
-22.503	-9.773	16388	17852	0	416
-21.204	-11.287	16389	17907	0	416
-24.378	-15.579	16390	17810	0	416
-32.853	-22.178	16391	17628	0	416
-40.353	-29.066	16391	17401	0	416
-45.582	-30.617	16390	17141	0	416
-42.734	-29.931	16390	16866	0	416
-38.118	-26.794	16389	16582	0	416
-34.836	-27.984	16389	16339	0	416
-36.747	-30.040	16389	16226	0	416
-44.032	-33.285	16389	16220	0	416
-51.641	-34.980	16389	16176	0	416
-55.391	-33.682	16388	16047	0	416
-59.971	-31.446	16388	15886	0	416
-61.269	-29.427	16386	15718	0	416
-60.043	-27.119	16385	15547	0	416
-60.188	-25.568	16384	15381	0	416
-62.892	-25.099	16383	15226	0	416
-65.525	-26.145	16382	15131	0	416
-66.643	-27.479	16382	15178	0	416
-64.226	-28.777	16382	15337	0	416
-57.735	-24.991	16382	15456	0	416
-53.300	-18.392	16382	15525	0	416
-51.569	-14.208	16383	15724	0	416
-55.608	-9.701	16384	16127	0	416
-58.024	-9.448	16387	16548	0	416
-57.375	-11.756	16388	16794	0	416
-55.644	-10.169	16389	16866	0	416
-51.100	-7.645	16390	16850	0	416
-50.307	-3.787	16390	16818	0	416
-48.612	-3.426	16392	16899	0	416
-44.284	-6.022	16394	17161	0	416
-43.599	-10.133	16397	17431	0	416
-42.589	-12.405	16398	17516	0	416
-43.851	-15.543	16399	17437	0	416
-46.556	-15.867	16399	17274	0	416
-49.730	-13.595	16398	17062	0	416
-48.900	-13.487	16398	16808	0	416
-43.779	-10.242	16397	16570	0	416
-38.622	-6.347	16397	16445	0	416
-34.259	-3.678	16397	16417	0	416
-30.761	-4.400	16397	16343	0	416
-28.886	-5.157	16395	16174	0	416
-25.676	-5.662	16394	15966	0	416
-21.241	-4.364	16393	15793	0	416
-12.658	-1.154	16393	15742	0	416
-8.763	2.921	16393	15789	0	416
-6.816	6.708	16392	15831	0	416
-7.465	5.806	16393	15898	0	416
-6.924	8.078	16394	16021	0	416
-0.865	10.566	16393	16079	0	416
6.383	15.687	16393	16021	0	416
16.012	19.870	16392	15914	0	416
20.087	25.279	16391	15783	0	416
21.349	28.273	16389	15636	0	416
19.365	27.371	16388	15523	0	416
19.329	25.424	16388	15535	0	416
18.752	24.198	16388	15688	0	416
19.870	20.483	16389	15914	0	416
18.320	19.293	16390	16134	0	416
19.437	20.916	16390	16256	0	416
23.332	21.781	16390	16254	0	416
26.397	24.486	16389	16226	0	416
30.653	29.715	16390	16329	0	416
34.547	33.646	16392	16618	0	416
33.502	37.000	16394	16929	0	416
32.744	38.334	16396	17104	0	416
31.590	35.052	16397	17229	0	416
32.023	35.052	16399	17364	0	416
30.761	33.285	16399	17385	0	416
31.518	33.249	16400	17260	0	416
29.571	34.583	16399	17056	0	416
26.145	35.557	16398	16810	0	416
24.486	36.531	16397	16572	0	416
21.890	36.855	16397	16479	0	416
22.070	36.278	16398	16598	0	416
21.962	35.124	16399	16759	0	416
17.959	32.492	16400	16808	0	416
15.218	32.276	16401	16836	0	416
10.133	33.105	16402	16895	0	416
8.006	33.249	16402	16862	0	416
8.475	31.807	16402	16695	0	416
9.953	29.859	16401	16461	0	416
12.658	28.814	16399	16202	0	416
15.579	29.030	16397	15924	0	416
15.579	31.626	16396	15682	0	416
15.579	33.610	16395	15565	0	416
12.766	34.836	16394	15551	0	416
8.871	34.403	16392	15500	0	416
6.816	34.439	16391	15369	0	416
6.455	33.790	16389	15214	0	416
6.888	32.853	16387	15059	0	416
5.373	32.348	16384	14910	0	416
4.183	34.800	16383	14815	0	416
4.111	40.822	16382	14861	0	416
3.750	46.917	16382	15017	0	416
6.816	52.759	16380	15136	0	416
3.390	48.756	16379	15170	0	416
-5.373	41.976	16378	15170	0	416
-13.704	33.898	16377	15206	0	416
-21.601	31.410	16376	15359	0	416
-19.113	33.790	16376	15601	0	416
-13.704	38.586	16376	15785	0	416
-5.481	41.147	16375	15869	0	416
-2.128	37.000	16374	15910	0	416
-1.875	29.354	16373	15930	0	416
-5.265	24.306	16372	15926	0	416
-4.544	21.565	16371	15910	0	416
-6.239	23.945	16369	15890	0	416
-7.609	28.850	16368	15912	0	416
-8.222	30.256	16369	16055	0	416
-10.278	30.977	16369	16329	0	416
-9.088	29.931	16371	16669	0	416
-1.911	33.141	16372	17001	0	416
9.881	37.577	16374	17262	0	416
19.582	42.337	16377	17554	0	416
26.325	44.392	16381	17977	0	416
28.669	43.130	16384	18382	0	416
25.893	40.570	16385	18572	0	416
22.142	38.442	16387	18560	0	416
24.017	39.272	16388	18437	0	416
27.479	39.740	16388	18276	0	416
31.013	42.084	16390	18177	0	416
34.692	42.734	16391	18130	1	788
37.216	43.166	16392	18001	0	788
38.478	42.770	16392	17790	0	788
39.524	41.399	16393	17647	0	788
41.688	42.625	16394	17574	0	788
41.075	42.553	16394	17425	0	788
38.622	41.796	16393	17161	0	788
36.062	40.966	16392	16850	0	788
36.711	40.426	16391	16528	0	788
40.281	39.885	16390	16208	0	788
46.592	42.229	16388	15896	0	788
51.100	43.671	16385	15601	0	788
49.910	42.120	16384	15327	0	788
41.183	37.324	16382	15081	0	788
28.381	30.653	16380	14906	0	788
20.483	27.010	16380	14924	0	788
21.096	26.470	16381	15188	0	788
27.299	29.859	16382	15519	0	788
35.918	33.321	16382	15714	0	788
39.849	32.239	16382	15773	0	788
37.901	28.922	16382	15771	0	788
34.043	27.551	16381	15742	0	788
36.170	29.535	16380	15694	0	788
38.658	36.278	16379	15631	0	788
45.078	39.993	16378	15551	0	788
47.458	38.586	16376	15468	0	788
44.176	32.239	16374	15388	0	788
40.606	26.217	16373	15319	0	788
34.908	21.493	16371	15263	0	788
33.321	22.683	16369	15220	0	788
34.295	24.125	16368	15192	0	788
34.511	24.342	16366	15184	0	788
35.846	22.467	16364	15188	0	788
34.764	16.480	16363	15204	0	788
32.816	10.061	16362	15234	0	788
27.804	3.390	16360	15281	0	788
22.395	-1.118	16359	15345	0	788
18.969	-0.541	16358	15426	0	788
14.677	0.613	16357	15521	0	788
15.074	2.272	16356	15625	0	788
14.281	3.570	16356	15775	0	788
15.975	4.291	16357	16047	0	788
15.435	3.318	16358	16405	0	788
16.228	4.832	16358	16703	0	788
16.697	2.633	16359	16887	0	788
15.218	1.623	16360	17007	0	788
17.706	3.029	16360	17088	0	788
21.493	7.465	16361	17139	0	788
26.578	13.235	16361	17207	0	788
28.092	18.211	16363	17372	0	788
27.732	17.382	16365	17647	0	788
25.640	14.966	16368	18012	0	788
27.515	12.441	16373	18471	0	788
32.708	13.848	16377	18929	0	788
36.459	19.473	16382	19298	0	788
35.197	21.565	16385	19554	0	788
27.876	20.844	16389	19637	0	788
16.913	15.651	16391	19528	0	788
12.946	10.133	16393	19298	0	788
11.468	5.698	16394	19028	0	788
16.192	6.527	16396	18818	0	788
18.392	13.487	16398	18655	0	788
18.247	17.670	16399	18453	0	788
13.848	23.729	16402	18298	0	788
11.864	23.080	16405	18344	0	788
13.704	19.942	16409	18524	0	788
16.913	15.398	16412	18618	0	788
23.585	15.362	16415	18485	0	788
24.486	17.418	16416	18165	0	788
20.952	22.431	16416	17751	0	788
16.480	23.116	16416	17282	0	788
12.874	22.719	16414	16778	0	788
11.864	23.152	16413	16299	0	788
18.211	22.250	16413	15946	0	788
21.890	23.909	16412	15740	0	788
22.575	26.614	16412	15623	0	788
23.188	27.407	16412	15521	0	788
18.680	28.381	16412	15388	0	788
18.031	29.823	16412	15285	0	788
16.264	32.095	16412	15283	1	316
18.788	30.148	16413	15341	0	316
19.005	28.669	16414	15424	0	316
21.096	23.260	16415	15569	0	316
22.899	16.408	16418	15811	0	316
22.539	13.271	16419	16025	0	316
23.296	13.920	16419	16049	0	316
21.493	15.939	16419	15930	0	316
22.863	21.493	16420	15849	0	316
26.037	22.250	16420	15853	0	316
27.047	21.385	16420	15888	0	316
25.965	20.808	16420	15888	0	316
22.503	19.293	16419	15773	0	316
17.346	21.637	16418	15537	0	316
13.704	21.781	16415	15244	0	316
14.208	22.178	16413	14964	0	316
18.680	24.991	16411	14803	0	316
20.303	25.532	16410	14746	0	316
20.339	28.489	16407	14650	0	316
20.339	31.194	16405	14476	0	316
17.202	33.033	16402	14277	0	316
17.057	34.006	16399	14087	0	316
16.372	34.728	16395	13910	0	316
17.526	33.177	16391	13752	0	316
14.100	26.938	16388	13623	0	316
11.360	19.257	16384	13527	0	316
7.934	15.687	16381	13464	0	316
6.816	13.848	16378	13478	0	316
7.068	20.087	16376	13650	0	316
10.746	24.414	16374	13946	0	316
15.543	26.217	16373	14216	0	316
16.949	26.289	16370	14404	0	316
18.608	21.962	16369	14563	0	316
15.723	19.834	16366	14714	0	316
16.480	22.827	16365	14859	0	316
17.346	23.260	16363	15002	0	316
18.680	24.162	16361	15136	0	316
22.178	21.168	16359	15267	0	316
24.234	16.733	16357	15402	0	316
23.693	14.677	16355	15535	0	316
24.234	14.569	16354	15708	0	316
26.578	16.985	16355	16045	0	316
27.119	19.257	16357	16634	0	316
30.328	17.706	16361	17374	0	316
33.934	16.985	16364	18028	0	316
36.567	16.985	16367	18493	0	316
36.098	16.480	16371	18874	0	316
33.429	14.713	16374	19213	0	316
28.922	13.163	16376	19395	0	316
26.722	10.350	16378	19384	0	316
25.712	8.366	16379	19257	0	316
26.289	7.501	16379	19056	0	316
26.217	6.996	16380	18844	0	316
24.919	2.669	16381	18713	0	316
21.926	1.082	16383	18683	0	316
20.772	-0.793	16384	18739	0	316
22.863	-0.829	16388	18935	0	316
22.647	1.406	16392	19229	0	316
23.224	4.400	16396	19419	0	316
24.414	5.842	16399	19407	0	316
23.945	5.806	16402	19320	0	316
24.991	9.629	16405	19215	0	316
26.361	12.405	16406	18979	0	316
27.624	14.605	16407	18624	0	316
27.624	17.887	16408	18308	0	316
27.768	16.408	16409	18040	0	316
31.626	16.913	16409	17691	0	316
36.242	18.752	16409	17264	0	316
42.337	24.270	16409	16915	0	316
45.186	26.001	16409	16647	0	316
44.176	29.174	16408	16325	0	316
40.245	28.958	16406	15906	0	316
37.793	29.535	16403	15462	0	316
38.370	29.679	16401	15027	0	316
39.127	31.302	16398	14615	0	316
37.036	29.318	16394	14236	0	316
33.718	25.279	16391	13902	0	316
28.201	20.880	16388	13617	0	316
25.388	15.795	16385	13420	0	316
24.342	13.812	16384	13396	0	316
23.440	10.458	16383	13551	0	316
23.260	11.937	16382	13815	0	316
22.791	11.323	16382	14109	0	316
21.926	10.242	16381	14329	0	316
21.349	11.684	16380	14450	0	316
18.139	12.441	16378	14521	0	316
17.526	12.333	16377	14569	0	316
18.572	15.795	16375	14597	0	316
27.624	20.664	16373	14615	0	316
39.488	28.850	16370	14631	0	316
50.920	35.269	16369	14650	0	316
53.768	39.596	16366	14684	0	316
53.011	39.308	16364	14730	0	316
46.051	38.154	16362	14791	0	316
45.222	38.082	16360	14859	0	316
46.881	38.839	16358	14932	0	316
53.408	41.039	16357	15055	0	316
56.401	40.606	16357	15351	0	316
55.932	37.072	16359	15875	0	316
50.956	34.439	16361	16435	0	316
44.428	32.023	16363	16872	0	316
39.993	29.859	16365	17306	0	316
36.567	29.535	16370	17866	0	316
36.639	30.076	16373	18391	0	316
36.170	31.302	16376	18695	0	316
34.259	31.879	16378	18792	0	316
29.787	31.085	16379	18764	0	316
27.155	30.725	16379	18649	0	316
23.260	27.371	16380	18465	0	316
23.116	23.693	16380	18266	0	316
26.794	24.053	16381	18155	0	316
26.866	23.512	16382	18112	0	316
27.335	22.322	16383	18001	0	316
23.621	23.873	16382	17778	0	316
21.277	22.719	16382	17509	0	316
20.664	24.378	16381	17225	0	316
25.027	28.056	16380	16931	0	316
29.463	30.905	16379	16683	0	316
30.617	31.446	16380	16604	0	316
26.758	28.561	16381	16753	0	316
21.998	27.155	16383	16951	0	316
19.546	27.010	16384	17003	0	316
17.779	27.876	16384	16913	0	316
18.644	29.138	16384	16766	0	316
16.156	25.784	16384	16588	0	316
14.569	21.060	16383	16423	0	316
13.199	22.178	16383	16363	0	316
14.172	25.135	16384	16384	0	316
16.192	29.246	16384	16355	0	316
15.651	32.528	16383	16230	0	316
16.228	28.886	16383	16109	0	316
16.444	26.397	16384	16134	0	316
19.834	25.748	16384	16371	0	316
20.736	28.381	16386	16635	0	316
19.582	30.004	16387	16741	0	316
14.208	29.318	16388	16685	0	316
9.052	25.279	16387	16554	0	316
5.734	23.693	16387	16385	0	316
8.186	23.404	16386	16230	0	316
11.468	25.424	16387	16220	0	316
12.838	24.811	16388	16417	0	316
7.898	20.700	16390	16647	0	316
2.200	14.353	16391	16715	0	316
-1.479	14.966	16391	16628	0	316
1.082	17.995	16391	16516	0	316
5.517	25.388	16392	16491	0	316
9.989	30.581	16392	16570	0	316
9.160	28.597	16394	16735	0	316
3.029	26.866	16397	16999	0	316
-0.433	22.142	16399	17237	0	316
-4.111	22.322	16400	17276	0	316
-5.590	20.844	16401	17132	0	316
-6.888	21.709	16401	16903	0	316
-7.825	21.673	16399	16630	0	316
-7.970	21.024	16398	16363	0	316
-8.294	21.168	16398	16196	0	316
-4.291	20.664	16397	16119	0	316
-0.252	22.395	16397	15988	0	316
4.724	25.532	16395	15765	0	316
6.960	28.309	16393	15513	0	316
6.671	29.282	16391	15263	0	316
3.173	28.417	16388	15017	0	316
-0.649	24.702	16386	14825	0	316
-3.210	19.401	16385	14775	0	316
-3.462	17.202	16384	14845	0	316
-2.669	13.018	16384	14886	0	316
-0.577	14.389	16382	14851	0	316
0.793	14.281	16380	14797	0	316
0.433	17.346	16378	14746	0	316
-1.370	15.615	16376	14742	0	316
-5.049	11.612	16376	14869	0	316
-6.852	8.871	16376	15138	0	316
-8.294	6.563	16376	15482	0	316
-6.058	7.393	16378	15819	0	316
-3.101	10.025	16378	16059	0	316
0.180	13.415	16378	16212	0	316
4.039	13.559	16379	16409	0	316
6.708	15.146	16380	16657	0	316
8.943	15.074	16381	16850	0	316
10.963	12.009	16383	17072	0	316
10.350	14.028	16385	17431	0	316
11.973	14.100	16387	17778	0	316
13.343	16.480	16388	17923	0	316
14.028	20.447	16390	17884	0	316
19.942	25.676	16390	17749	0	316
24.342	28.669	16390	17552	0	316
28.092	31.951	16389	17346	0	316
31.987	32.961	16389	17229	1	748
31.374	31.699	16390	17187	0	748
31.626	29.968	16389	17078	0	748
29.102	26.866	16389	16905	0	748
27.948	25.207	16389	16814	0	748
26.758	21.529	16389	16802	0	748
25.568	20.664	16389	16721	0	748
22.503	16.300	16388	16530	0	748
16.625	15.975	16387	16301	0	748
11.973	13.199	16385	16063	0	748
9.016	14.281	16384	15823	0	748
7.140	15.146	16382	15585	0	748
9.268	16.372	16380	15365	0	748
13.668	15.975	16378	15170	0	748
16.913	12.261	16375	15000	0	748
24.486	11.468	16373	14855	0	748
30.112	11.864	16370	14740	0	748
34.800	13.343	16369	14654	0	748
37.865	16.192	16366	14599	0	748
40.317	17.238	16365	14613	0	748
41.003	20.014	16364	14775	0	748
42.409	21.096	16364	15057	0	748
41.075	25.135	16363	15299	0	748
39.091	29.354	16363	15450	0	748
36.928	28.453	16362	15559	0	748
38.334	30.472	16361	15652	0	748
38.839	31.122	16360	15730	0	748
42.734	32.528	16359	15799	0	748
43.347	34.980	16358	15865	0	748
46.556	36.062	16358	15924	0	748
44.248	34.475	16357	15982	0	748
42.084	29.895	16356	16035	0	748
38.803	27.984	16355	16089	0	748
36.314	25.099	16355	16180	0	748
33.610	23.512	16356	16393	0	748
28.633	20.808	16357	16697	0	748
25.748	13.271	16358	16935	0	748
21.277	10.169	16359	17100	0	748
22.070	6.347	16361	17334	0	748
25.063	8.366	16363	17632	0	748
28.561	12.117	16365	17842	0	748
29.607	13.740	16366	17915	0	748
26.289	11.251	16367	17911	0	748
22.575	12.081	16367	17860	0	748
22.791	13.631	16368	17768	0	748
24.198	14.785	16368	17683	0	748
24.089	18.860	16370	17737	0	748
23.476	17.274	16373	17993	0	748
21.637	15.435	16377	18276	0	748
19.798	13.415	16378	18385	0	748
23.801	16.516	16381	18366	0	748
27.119	18.860	16383	18382	0	748
30.472	21.745	16385	18431	0	748
28.273	21.241	16386	18376	0	748
26.866	20.195	16387	18179	0	748
25.316	18.500	16388	17911	0	748
27.191	19.113	16388	17608	0	748
29.246	22.250	16387	17282	0	748
30.004	23.801	16387	16945	0	748
30.617	27.515	16385	16604	0	748
28.128	29.427	16385	16309	0	748
26.650	28.777	16385	16148	0	748
26.397	25.640	16385	16099	0	748
26.397	20.375	16385	16059	0	748
27.587	16.552	16386	16061	0	748
26.650	14.100	16387	16134	0	748
23.008	11.864	16387	16148	0	748
19.834	11.828	16387	16057	0	748
14.425	10.494	16386	15918	0	748
14.533	9.304	16385	15763	0	748
15.254	11.143	16385	15634	0	748
21.060	14.028	16385	15627	0	748
25.460	13.776	16385	15714	0	748
30.256	17.670	16385	15797	0	748
33.141	19.618	16387	15906	0	748
34.728	23.729	16388	16069	0	748
33.718	27.371	16388	16158	0	748
33.610	28.561	16388	16129	0	748
34.259	30.869	16388	16073	0	748
37.144	32.889	16389	16150	1	316
39.632	37.072	16391	16417	0	316
40.678	37.721	16393	16709	0	316
40.101	38.947	16394	16828	0	316
37.360	35.557	16395	16786	0	316
33.754	29.751	16394	16667	0	316
31.771	25.279	16394	16503	0	316
30.400	21.493	16393	16341	0	316
31.662	20.519	16394	16309	0	316
35.413	23.981	16396	16481	0	316
38.442	29.499	16397	16685	0	316
38.983	31.158	16397	16725	0	316
34.223	29.607	16397	16608	0	316
28.922	24.630	16397	16427	0	316
27.047	22.503	16396	16216	0	316
29.463	22.719	16394	15978	0	316
33.754	25.243	16393	15769	0	316
35.341	26.361	16392	15682	0	316
35.449	23.765	16391	15696	0	316
30.292	18.933	16391	15668	0	316
26.217	16.733	16389	15555	0	316
23.044	13.235	16388	15412	0	316
21.926	12.838	16386	15271	0	316
21.060	12.333	16385	15178	0	316
21.818	10.602	16384	15220	0	316
20.627	10.025	16384	15369	0	316
16.336	8.366	16384	15511	0	316
10.314	5.770	16384	15682	0	316
10.206	4.940	16385	15904	0	316
11.179	2.849	16385	16055	0	316
16.120	2.452	16384	16085	0	316
21.565	1.947	16384	16053	0	316
24.053	4.111	16384	16031	0	316
23.188	6.347	16384	16109	0	316
23.404	6.888	16384	16263	0	316
23.981	5.517	16384	16349	0	316
21.818	2.272	16384	16363	0	316
21.529	-1.803	16384	16443	0	316
18.211	-4.544	16385	16592	0	316
20.267	-4.652	16384	16665	0	316
20.411	-2.741	16384	16624	0	316
24.847	-1.767	16384	16526	0	316
26.938	-1.082	16383	16405	0	316
23.945	-0.649	16383	16309	0	316
18.680	-1.154	16383	16321	0	316
16.733	-0.577	16383	16419	0	316
14.281	0.685	16383	16459	0	316
16.516	2.344	16382	16401	0	316
16.480	0.577	16381	16307	0	316
16.048	-1.479	16380	16194	0	316
13.127	-3.246	16379	16067	0	316
13.235	-2.019	16377	15932	0	316
19.041	2.056	16376	15801	0	316
25.712	7.104	16374	15678	0	316
32.564	11.287	16372	15569	0	316
34.079	10.783	16370	15480	0	316
31.410	11.828	16369	15408	0	316
26.397	11.071	16368	15400	0	316
22.214	11.251	16367	15535	0	316
21.673	10.891	16368	15779	0	316
24.558	14.749	16368	16019	0	316
27.840	16.733	16370	16283	0	316
27.876	21.781	16371	16588	0	316
24.883	24.522	16372	16816	0	316
21.962	23.188	16373	16913	0	316
16.949	20.339	16373	16943	0	316
16.877	15.254	16373	16929	0	316
16.516	14.172	16372	16878	0	316
18.644	13.812	16372	16802	0	316
17.851	14.533	16371	16715	0	316
19.257	14.858	16371	16663	0	316
16.949	13.415	16372	16764	0	316
16.084	12.261	16375	17076	0	316
11.828	11.251	16377	17419	0	316
11.287	10.963	16379	17641	0	316
13.163	13.631	16382	17826	0	316
13.523	13.848	16384	18016	0	316
15.362	12.117	16385	18135	0	316
13.271	12.045	16388	18221	0	316
13.812	11.143	16391	18352	0	316
16.048	13.920	16394	18493	0	316
19.510	21.385	16397	18574	0	316
23.044	23.440	16398	18510	0	316
26.650	24.378	16399	18288	0	316
25.063	22.142	16400	17975	0	316
25.460	18.320	16399	17653	0	316
26.650	18.716	16400	17421	1	344
26.289	21.349	16401	17268	0	344
22.575	21.204	16401	17060	0	344
19.113	17.634	16400	16755	0	344
11.937	10.999	16399	16449	0	344
9.268	4.508	16399	16258	0	344
11.071	3.967	16399	16150	0	344
16.733	7.321	16398	15994	0	344
22.467	11.684	16398	15785	0	344
23.693	12.622	16397	15674	0	344
21.781	12.658	16397	15662	0	344
21.745	13.740	16397	15638	0	344
23.765	16.300	16397	15644	0	344
29.571	23.476	16398	15708	0	344
36.170	26.830	16398	15750	0	344
39.163	26.866	16399	15799	0	344
37.577	24.522	16399	15894	0	344
34.547	25.316	16399	15954	0	344
31.699	23.909	16400	16013	0	344
28.777	26.361	16401	16105	0	344
26.830	25.532	16401	16111	0	344
23.116	22.863	16400	15992	0	344
15.795	15.687	16398	15809	0	344
13.451	12.694	16397	15603	0	344
14.281	13.487	16395	15384	0	344
20.519	17.202	16393	15166	0	344
25.063	22.647	16390	14956	0	344
26.073	21.493	16388	14758	0	344
20.159	14.064	16385	14619	0	344
15.254	6.888	16384	14627	0	344
14.172	3.787	16384	14797	0	344
17.490	5.626	16384	15061	0	344
17.490	8.979	16384	15333	0	344
15.471	10.927	16384	15519	0	344
8.691	10.494	16384	15595	0	344
4.003	9.953	16383	15611	0	344
4.544	12.117	16382	15636	0	344
8.691	15.507	16383	15795	0	344
11.396	19.870	16384	16154	0	344
8.835	18.500	16384	16536	0	344
2.272	15.687	16385	16749	0	344
-4.940	8.979	16385	16798	0	344
-11.432	2.957	16385	16768	0	344
-12.297	0.505	16385	16693	0	344
-7.789	1.659	16384	16576	0	344
-3.426	4.436	16384	16473	0	344
3.210	6.708	16384	16520	0	344
10.133	7.681	16385	16776	0	344
13.415	8.006	16386	17062	0	344
13.523	9.304	16387	17181	0	344
13.235	8.150	16387	17139	0	344
10.278	4.400	16387	17064	0	344
7.465	1.370	16388	17068	0	344
3.678	-1.046	16389	17130	0	344
5.590	-0.144	16389	17151	0	344
8.042	4.436	16390	17175	0	344
9.592	9.773	16391	17235	0	344
13.054	16.444	16392	17209	0	344
16.913	17.598	16391	17054	0	344
17.202	17.959	16390	16840	0	344
21.349	14.389	16389	16602	0	344
20.375	8.258	16388	16349	0	344
19.618	5.698	16386	16087	0	344
15.290	5.878	16384	15825	0	344
17.562	9.520	16383	15613	0	344
22.322	14.389	16383	15589	0	344
30.545	18.788	16384	15847	0	344
39.127	21.277	16386	16323	0	344
41.363	24.053	16390	16864	0	344
41.435	26.253	16392	17296	0	344
37.937	27.263	16395	17536	0	344
33.898	26.758	16398	17739	0	344
31.338	25.171	16402	18034	0	344
31.194	22.539	16405	18278	0	344
30.977	18.716	16407	18296	0	344
31.122	19.546	16407	18110	0	344
30.364	18.211	16408	17858	0	344
26.397	18.644	16409	17657	0	344
23.044	16.769	16409	17495	0	344
16.985	14.569	16408	17247	0	344
14.353	10.927	16407	16876	0	344
11.648	10.386	16406	16499	0	344
8.583	11.864	16406	16273	0	344
7.645	12.225	16406	16259	0	344
3.895	13.307	16406	16289	0	344
-1.334	12.153	16406	16176	0	344
-5.481	10.350	16405	15934	0	344
-9.701	12.009	16403	15684	0	344
-11.864	13.235	16403	15537	0	344
-10.963	13.127	16402	15511	0	344
-8.475	12.477	16403	15597	0	344
-6.131	11.540	16404	15803	0	344
-2.921	8.835	16405	16008	0	344
1.226	12.441	16405	16041	0	344
8.691	19.149	16404	15912	0	344
18.428	24.342	16402	15714	0	344
23.116	27.696	16400	15476	0	344
25.496	27.335	16398	15214	0	344
21.421	25.027	16395	14944	0	344
16.661	22.034	16392	14682	0	344
16.300	23.476	16389	14438	0	344
17.526	29.535	16385	14222	0	344
21.854	32.456	16383	14043	0	344
21.168	36.134	16379	13908	0	344
21.132	37.144	16377	13851	0	344
18.572	36.567	16375	13950	0	344
18.500	33.898	16374	14212	0	344
17.382	31.374	16374	14567	0	344
18.464	31.266	16374	14934	0	344
16.336	29.931	16373	15216	0	344
18.464	31.013	16372	15386	0	344
17.923	31.049	16371	15496	0	344
20.375	31.302	16370	15571	0	344
18.860	30.256	16369	15658	0	344
17.274	28.128	16369	15849	0	344
16.300	26.974	16369	16117	0	344
17.202	23.549	16369	16351	0	344
19.762	21.385	16370	16592	0	344
24.162	20.808	16371	16870	0	344
32.203	22.214	16372	17100	0	344
37.757	29.354	16374	17360	0	344
45.835	37.108	16377	17759	0	344
48.107	42.950	16379	18147	0	344
47.638	43.779	16381	18328	0	344
45.005	41.868	16382	18318	0	344
41.147	37.180	16383	18203	0	344
40.065	32.456	16382	18018	0	344
37.973	27.984	16382	17780	0	344
34.872	24.630	16381	17510	1	512
33.285	21.709	16379	17223	0	512
34.331	19.906	16378	16927	0	512
36.351	22.899	16376	16628	0	512
39.632	24.306	16374	16341	0	512
38.370	21.349	16372	16071	0	512
36.206	19.473	16370	15825	0	512
31.194	14.605	16368	15609	0	512
27.696	16.697	16365	15426	0	512
28.128	19.906	16363	15279	0	512
29.499	25.352	16361	15162	0	512
32.203	26.289	16359	15077	0	512
32.348	23.729	16357	15023	0	512
33.466	20.087	16356	14998	0	512
35.197	17.670	16354	14998	0	512
37.216	21.024	16353	15063	0	512
40.966	27.624	16353	15273	0	512
44.573	32.203	16354	15634	0	512
45.871	34.620	16356	16075	0	512
46.268	34.511	16358	16509	0	512
48.323	33.718	16359	16842	0	512
46.087	31.699	16360	17040	0	512
45.691	30.328	16361	17153	0	512
44.356	28.958	16362	17213	0	512
43.527	26.938	16362	17225	0	512
43.455	25.784	16362	17197	0	512
42.157	25.207	16362	17141	0	512
39.416	25.171	16362	17072	0	512
36.387	24.594	16362	16993	0	512
36.134	22.611	16361	16907	0	512
37.108	21.998	16361	16856	0	512
38.370	23.404	16362	16925	0	512
37.901	23.765	16363	17088	0	512
35.124	25.712	16364	17193	0	512
33.321	28.417	16365	17239	0	512
33.177	29.066	16367	17358	0	512
32.492	27.227	16370	17578	0	512
33.754	26.866	16373	17876	0	512
37.072	29.931	16378	18262	0	512
41.796	32.853	16382	18655	0	512
49.225	37.685	16385	18965	0	512
54.021	42.770	16389	19159	0	512
56.870	43.310	16392	19179	0	512
56.437	43.563	16395	19012	0	512
53.336	43.238	16396	18770	0	512
51.785	41.219	16398	18582	0	512
48.143	38.550	16400	18429	0	512
43.347	35.954	16401	18181	0	512
43.815	35.737	16401	17814	0	512
45.979	35.557	16401	17393	0	512
47.566	36.747	16400	16995	0	512
52.182	38.875	16400	16707	0	512
51.172	40.894	16401	16514	0	512
50.811	41.327	16400	16289	0	512
47.566	42.084	16399	16015	0	512
43.996	40.822	16399	15839	0	512
43.383	39.235	16400	15799	0	512
43.671	39.019	16401	15835	0	512
45.871	40.137	16401	15873	0	512
48.792	40.353	16401	15817	0	512
50.451	39.632	16401	15650	0	512
49.297	40.462	16400	15472	0	512
50.920	40.822	16400	15396	0	512
