neuroNicle FX2
D3F25R12
Bluetooth SPP
2023년 11월 8일 수요일
오후 7:06
time interval = 4msec
EEG1	EEG2	PPG	sdPPG	pulse	peak_interval(msec)
-8.547	8.186	16246	16526	0	768
-11.071	16.552	16246	16669	0	768
-17.129	20.952	16246	16884	0	768
-21.385	16.300	16246	16955	0	768
-22.539	6.203	16246	16884	0	768
-22.647	-1.406	16246	16669	0	768
-17.526	-4.291	16246	16526	0	768
-18.320	-5.049	16384	16455	0	768
-19.113	-3.065	16384	16384	0	768
-22.539	-3.318	16384	16313	0	768
-26.650	-8.366	16384	16170	0	768
-30.040	-11.143	16384	16099	0	768
-32.348	-11.900	16384	16170	0	768
-30.220	-8.258	16384	16242	0	768
-28.561	-3.642	16384	16313	0	768
-29.679	-1.947	16384	16313	0	768
-35.557	-5.049	16384	16384	0	768
-40.786	-5.409	16384	16384	0	768
-41.904	-4.472	16384	16313	0	768
-36.495	2.488	16246	16242	0	768
-27.912	10.710	16384	16313	0	768
-20.736	14.858	16384	16384	0	768
-17.670	12.297	16384	16384	0	768
-23.476	6.671	16246	16313	0	768
-29.427	-0.505	16246	16170	0	768
-34.403	-3.750	16246	16099	0	768
-33.538	-3.750	16246	16099	0	768
-28.273	-0.433	16246	16242	0	768
-23.801	0.649	16246	16384	0	768
-24.162	0.361	16384	16526	0	768
-26.217	-0.361	16384	16669	0	768
-27.191	-0.252	16384	16741	0	768
-28.020	-0.793	16384	16741	0	768
-26.181	2.092	16384	16741	0	768
-27.263	3.462	16384	16741	0	768
-30.508	4.400	16384	16598	0	768
-32.925	8.294	16384	16384	0	768
-31.771	11.504	16384	16170	0	768
-31.013	12.694	16246	15956	0	768
-30.653	12.658	16246	15956	0	768
-30.184	10.927	16246	16027	0	768
-29.607	8.835	16246	16242	0	768
-29.066	9.881	16384	16455	0	768
-27.335	11.360	16384	16598	0	768
-27.624	12.730	16384	16741	0	768
-25.965	14.677	16384	16884	0	768
-23.981	12.658	16384	16955	0	768
-19.293	11.360	16384	16955	0	768
-18.572	12.802	16384	16955	0	768
-16.769	14.497	16384	16955	0	768
-15.398	21.132	16384	16812	0	768
-12.982	23.981	16384	16669	0	768
-10.025	24.594	16384	16455	0	768
-7.537	18.897	16384	16384	0	768
-8.511	17.274	16384	16313	0	768
-8.402	15.975	16384	16242	0	768
-7.934	19.978	16384	16242	0	768
-6.960	23.116	16384	16313	0	768
-9.052	19.582	16384	16384	0	768
-13.451	15.507	16384	16242	0	768
-20.916	9.016	16384	16170	0	768
-21.926	5.806	16384	16313	0	768
-21.854	7.357	16384	16384	0	768
-17.238	10.494	16522	16526	0	768
-13.235	12.369	16522	16598	0	768
-10.494	12.369	16522	16598	0	768
-12.261	9.232	16522	16598	0	768
-16.048	5.229	16384	16669	0	768
-17.706	6.239	16522	16598	0	768
-20.159	11.720	16522	16598	0	768
-16.264	18.824	16522	16526	0	768
-13.559	18.283	16522	16455	0	768
-11.179	14.785	16522	16384	0	768
-10.963	8.222	16522	16170	0	768
-13.631	6.203	16522	15956	0	768
-13.920	11.432	16384	15813	0	768
-15.038	16.949	16384	15813	0	768
-15.723	14.785	16384	15884	0	768
-17.815	10.242	16522	16027	0	768
-19.293	4.544	16384	16170	0	768
-20.916	3.354	16384	16170	0	768
-19.906	6.347	16246	16099	0	768
-19.726	8.475	16384	15956	0	768
-18.428	5.626	16384	15956	0	768
-20.483	1.154	16384	16027	0	768
-20.411	0.974	16522	16242	0	768
-20.952	3.823	16384	16384	0	768
-18.175	9.809	16384	16526	0	768
-13.956	12.946	16384	16526	0	768
-9.989	12.009	16384	16455	0	768
-8.871	6.888	16384	16384	0	768
-10.494	3.462	16246	16313	0	768
-11.323	2.921	16384	16099	0	768
-13.343	5.229	16384	16027	0	768
-12.766	10.566	16384	16027	0	768
-9.304	17.743	16384	16027	0	768
-9.737	21.818	16384	15956	0	768
-9.196	26.722	16384	15884	0	768
-8.835	28.958	16384	15884	0	768
-9.268	28.381	16384	16099	0	768
-11.468	25.856	16384	16313	0	768
-13.054	21.493	16384	16384	0	768
-14.425	19.365	16384	16313	0	768
-15.435	16.336	16384	16384	0	768
-14.569	16.697	16384	16384	0	768
-14.749	16.048	16384	16455	0	768
-14.245	15.903	16384	16455	0	768
-13.199	15.326	16384	16526	0	768
-11.792	20.050	16384	16669	0	768
-6.635	26.217	16522	16955	0	768
-4.580	30.905	16384	17241	0	768
-5.049	32.816	16384	17384	0	768
-7.393	29.607	16384	17455	0	768
-8.186	26.217	16384	17384	0	768
-6.780	23.368	16384	17169	0	768
-1.370	23.765	16384	16741	0	768
2.633	25.748	16384	16384	0	768
2.993	26.433	16384	16170	1	1028
-1.587	26.145	16246	16027	0	1028
-4.796	23.801	16384	15813	0	1028
-8.727	19.149	16384	15742	0	1028
-7.609	15.831	16384	15599	0	1028
-5.770	14.064	16246	15313	0	1028
-6.383	16.264	16246	15099	0	1028
-6.635	18.428	16246	15099	0	1028
-8.258	21.890	16246	15242	0	1028
-8.186	21.529	16246	15456	0	1028
-9.953	19.113	16246	15670	0	1028
-12.766	19.329	16246	16027	0	1028
-16.372	18.860	16384	16313	0	1028
-19.473	21.637	16246	16455	0	1028
-17.129	22.106	16246	16598	0	1028
-13.127	22.250	16384	16741	0	1028
-8.763	21.890	16384	16955	0	1028
-7.429	21.637	16384	17169	0	1028
-7.465	26.722	16384	17241	0	1028
-7.537	33.682	16384	17241	0	1028
-2.849	39.885	16384	17026	0	1028
0.108	41.147	16384	16812	0	1028
2.957	37.180	16384	16598	0	1028
0.180	32.384	16384	16384	0	1028
-0.902	27.912	16246	16242	0	1028
-3.173	29.066	16246	16027	0	1028
-1.515	33.249	16246	15813	0	1028
0.216	35.557	16037	15456	0	1028
1.154	36.639	16037	15170	0	1028
-0.144	34.006	16037	14956	0	1028
-0.793	33.285	15898	14742	0	1028
-1.839	30.184	15898	14384	0	1028
-2.344	26.794	15690	14099	0	1028
-3.606	24.125	15690	14027	0	1028
-5.193	21.565	15690	14242	0	1028
-9.124	18.428	15690	14742	0	1028
-12.838	21.168	15690	15170	0	1028
-13.163	23.260	15690	15599	0	1028
-12.802	27.191	15690	16099	0	1028
-8.655	30.761	15690	16455	0	1028
-5.806	32.925	15898	16884	0	1028
-5.626	34.367	15898	17098	0	1028
-8.583	35.774	15898	17241	0	1028
-9.701	33.826	15898	17384	0	1028
-10.710	31.049	15898	17455	0	1028
-9.989	22.719	15898	17455	0	1028
-10.169	14.858	15898	17384	0	1028
-10.566	11.684	15898	17241	0	1028
-10.458	16.733	15898	17169	0	1028
-11.323	24.630	15898	17169	0	1028
-10.422	32.167	16037	17455	0	1028
-10.638	32.095	16037	18026	0	1028
-13.199	26.938	16246	18741	0	1028
-16.985	20.844	16384	19241	0	1028
-13.343	19.221	16384	19598	0	1028
-9.989	21.493	16522	19741	0	1028
-4.688	19.870	16522	19812	0	1028
-3.714	19.510	16731	19884	0	1028
-6.167	16.661	16731	19812	0	1028
-10.891	18.572	16870	19598	0	1028
-11.504	21.421	16870	19312	0	1028
-9.304	23.224	16870	18884	0	1028
-6.744	19.654	16870	18526	0	1028
-8.006	8.727	16870	18312	0	1028
-14.605	-0.649	17078	18098	0	1028
-19.654	-2.236	17078	17884	0	1028
-23.116	4.832	17078	17526	0	1028
-18.824	14.713	17078	17312	0	1028
-14.533	23.945	17078	17098	0	1028
-9.484	24.306	17078	16884	0	1028
-14.136	15.038	17078	16669	0	1028
-19.401	6.888	17078	16455	0	1028
-25.207	4.255	17078	16170	0	1028
-24.919	7.537	17078	15742	0	1028
-20.988	12.297	17078	15242	0	1028
-15.038	16.372	16870	14670	0	1028
-16.552	13.307	16870	14170	0	1028
-18.644	7.429	16731	13742	0	1028
-22.647	7.285	16731	13384	0	1028
-24.306	9.232	16731	13242	1	316
-21.529	13.307	16522	13242	0	316
-20.339	13.235	16522	13313	0	316
-19.257	10.566	16522	13456	0	316
-22.863	2.741	16522	13527	0	316
-26.542	-3.354	16384	13527	0	316
-29.030	-3.859	16384	13384	0	316
-21.890	-0.829	16384	13313	0	316
-18.392	0.469	16246	13242	0	316
-16.120	-3.173	16246	13313	0	316
-23.801	-9.556	16246	13527	0	316
-38.009	-19.041	16246	13956	0	316
-51.677	-21.890	16246	14456	0	316
-55.932	-21.313	16246	14956	0	316
-53.444	-17.129	16246	15384	0	316
-45.510	-15.398	16246	15884	0	316
-39.272	-10.638	16246	16313	0	316
-35.846	-5.229	16246	16669	0	316
-35.233	0.288	16384	17098	0	316
-34.656	3.678	16384	17526	0	316
-33.285	7.789	16384	17884	0	316
-32.744	9.088	16522	18241	0	316
-32.564	10.025	16522	18526	0	316
-36.675	11.360	16522	18669	0	316
-37.829	10.855	16522	18741	0	316
-36.278	8.763	16731	18669	0	316
-29.823	11.828	16731	18598	0	316
-21.998	17.166	16731	18384	0	316
-20.267	21.926	16731	18241	0	316
-24.450	25.243	16522	18098	0	316
-27.660	19.185	16731	17884	0	316
-28.128	13.127	16731	17598	0	316
-25.171	6.455	16731	17312	0	316
-22.611	1.515	16731	16955	0	316
-19.401	4.147	16522	16598	0	316
-21.313	7.609	16522	16455	0	316
-17.057	10.746	16522	16384	0	316
-12.874	10.386	16522	16384	0	316
-9.701	9.304	16522	16384	0	316
-12.297	6.599	16522	16384	0	316
-17.418	1.370	16522	16384	0	316
-20.772	-1.587	16522	16313	0	316
-23.296	-3.787	16522	16170	0	316
-22.791	-2.885	16522	15884	0	316
-21.854	-0.541	16384	15599	0	316
-24.198	3.787	16384	15242	0	316
-26.830	4.364	16384	14813	0	316
-25.171	2.452	16246	14313	0	316
-24.486	0.036	16246	14099	0	316
-21.781	0.144	16037	14099	0	316
-20.159	-0.180	16037	14099	0	316
-23.801	-0.072	16037	14170	0	316
-30.689	-1.623	15898	14170	0	316
-36.062	-2.849	16037	14242	0	316
-36.459	-1.947	16037	14384	0	316
-36.819	0.829	16037	14527	0	316
-34.367	2.344	16037	14670	0	316
-38.695	-0.433	15898	14956	0	316
-44.248	-6.275	15898	15313	0	316
-49.297	-8.366	16037	15956	0	316
-43.851	-5.626	16037	16598	0	316
-36.639	3.390	16037	17312	0	316
-27.515	12.369	16246	17669	0	316
-24.234	16.336	16246	17884	0	316
-29.427	10.386	16246	18026	0	316
-35.701	-0.180	16246	18169	0	316
-40.173	-7.068	16246	18241	0	316
-40.894	-11.756	16384	18312	0	316
-36.783	-10.963	16384	18241	0	316
-33.285	-5.590	16384	18241	0	316
-29.246	-3.210	16384	18098	0	316
-27.696	-1.082	16384	17812	0	316
-27.587	-1.587	16384	17598	0	316
-29.571	-3.029	16384	17384	0	316
-26.758	-2.777	16384	17169	0	316
-25.604	-1.947	16384	16884	0	316
-25.568	-1.118	16246	16598	0	316
-29.895	-1.442	16246	16384	0	316
-33.646	-1.983	16246	16027	0	316
-37.865	-0.036	16037	15670	0	316
-35.701	4.003	16037	15242	0	316
-28.741	11.540	16037	14956	0	316
-23.152	13.848	16037	15027	0	316
-24.847	13.704	15898	15099	0	316
-28.669	9.160	15898	15099	0	316
-31.482	5.229	15898	15027	0	316
-33.033	7.248	15898	15027	0	316
-30.184	7.898	15898	15170	0	316
-27.010	7.609	15690	15313	0	316
-23.981	6.527	15690	15599	0	316
-19.401	4.652	16037	16027	0	316
-16.769	5.049	16037	16384	0	316
-11.107	11.107	16037	16812	0	316
-9.809	15.903	16037	17241	0	316
-10.710	17.815	16246	17455	0	316
-13.595	12.658	16246	17455	0	316
-16.012	7.393	16246	17384	0	316
-12.153	3.967	16246	17384	0	316
-8.691	7.357	16246	17384	0	316
-2.488	13.487	16246	17384	0	316
3.101	18.211	16246	17384	0	316
5.662	19.221	16246	17455	0	316
4.724	13.127	16246	17598	0	316
5.914	10.242	16384	17741	0	316
5.554	11.215	16384	17812	0	316
5.590	16.012	16384	17669	0	316
4.003	19.473	16384	17455	0	316
2.128	16.516	16384	17241	0	316
-0.685	11.287	16384	17026	0	316
-2.488	5.265	16384	16741	0	316
-1.587	3.678	16384	16455	0	316
-0.288	4.940	16384	16384	0	316
-1.803	6.239	16384	16384	0	316
-3.534	8.439	16384	16384	0	316
-3.570	12.189	16384	16384	0	316
-1.659	17.310	16384	16455	0	316
5.121	25.532	16384	16526	0	316
7.862	28.092	16384	16598	0	316
8.366	23.585	16384	16669	0	316
3.642	17.959	16522	16884	0	316
-2.741	11.143	16522	17241	0	316
-3.534	9.845	16522	17455	0	316
-3.137	11.612	16731	17526	0	316
-0.613	14.569	16731	17455	0	316
2.200	17.418	16731	17384	0	316
2.416	15.362	16731	17026	0	316
1.406	14.353	16731	16598	0	316
1.262	12.838	16522	16170	0	316
0.974	12.477	16522	15956	0	316
0.072	14.461	16522	15884	0	316
-2.560	12.802	16522	15742	0	316
-4.796	11.612	16522	15599	0	316
-8.907	5.986	16522	15456	0	316
-10.386	-2.019	16522	15384	0	316
-10.494	-6.022	16522	15384	0	316
-11.396	-6.491	16384	15384	0	316
-13.163	-4.868	16384	15242	0	316
-13.487	-2.452	16246	14956	0	316
-18.247	-4.291	16384	14742	0	316
-19.942	-10.674	16384	14884	0	316
-25.316	-18.320	16384	15242	0	316
-30.004	-26.722	16384	15599	0	316
-36.062	-30.292	16384	15813	0	316
-40.714	-31.302	16522	16170	0	316
-45.294	-30.905	16384	16526	0	316
-48.864	-32.059	16384	16812	0	316
-49.657	-34.115	16384	16884	0	316
-48.323	-38.118	16384	16955	0	316
-43.924	-41.796	16384	16812	0	316
-41.832	-43.996	16384	16598	0	316
-43.635	-45.294	16384	16384	0	316
-44.969	-46.592	16384	16170	0	316
-45.005	-44.789	16384	16170	0	316
-42.445	-41.183	16384	16313	0	316
-40.317	-37.577	16384	16384	0	316
-42.625	-40.678	16384	16242	0	316
-47.854	-46.736	16384	16099	0	316
-50.559	-56.437	16384	16027	0	316
-51.172	-66.318	16246	15956	0	316
-46.268	-69.419	16384	15742	0	316
-43.563	-70.285	16384	15599	0	316
-43.022	-67.256	16384	15599	0	316
-42.120	-64.803	16384	15742	0	316
-37.721	-59.971	16384	15742	0	316
-36.423	-63.397	16384	15884	0	316
-37.252	-70.429	16384	16242	0	316
-41.832	-80.707	16384	16455	0	316
-47.241	-84.962	16384	16598	0	316
-46.376	-82.149	16384	16598	0	316
-40.930	-72.521	16384	16669	0	316
-34.547	-62.459	16384	16741	0	316
-31.122	-58.997	16384	16812	0	316
-31.446	-58.060	16522	17098	0	316
-31.158	-60.656	16384	17455	0	316
-27.335	-62.459	16384	17669	0	316
-25.496	-65.380	16522	17741	0	316
-26.794	-70.754	16522	17741	0	316
-33.646	-76.596	16522	17669	0	316
-38.875	-80.887	16522	17526	0	316
-39.452	-78.002	16522	17384	0	316
-34.006	-72.160	16522	17241	0	316
-28.489	-66.282	16522	17098	0	316
-28.020	-64.226	16522	16955	0	316
-32.708	-67.111	16522	16741	0	316
-38.045	-72.485	16522	16526	0	316
-40.894	-73.675	16522	16384	0	316
-36.387	-68.301	16522	16242	0	316
-31.518	-61.666	16522	16099	0	316
-27.624	-57.230	16522	16027	0	316
-27.804	-60.476	16522	16027	0	316
-30.472	-66.426	16522	16099	0	316
-31.518	-71.367	16522	16242	0	316
-26.974	-69.528	16522	16099	0	316
-20.447	-61.269	16522	15956	0	316
-12.694	-52.651	16384	15742	0	316
-10.169	-49.333	16384	15527	0	316
-12.477	-51.136	16384	15384	0	316
-19.113	-57.339	16384	15313	0	316
-21.493	-59.250	16384	15384	0	316
-24.991	-59.178	16384	15527	0	316
-24.306	-56.870	16384	15670	0	316
-21.745	-53.660	16384	15742	0	316
-21.241	-55.175	16384	15813	0	316
-19.185	-54.598	16384	15742	0	316
-20.483	-55.644	16246	15599	0	316
-22.755	-57.916	16246	15456	0	316
-27.587	-56.978	16246	15242	0	316
-32.023	-60.440	16037	14956	0	316
-30.797	-60.260	16037	14813	0	316
-27.912	-59.791	16037	14742	0	316
-22.791	-58.853	15898	14670	0	316
-18.716	-57.230	15898	14670	0	316
-18.320	-54.093	15898	14884	0	316
-17.274	-51.352	15898	15099	0	316
-17.634	-49.477	15898	15242	0	316
-16.408	-50.234	15898	15384	0	316
-18.969	-55.391	15898	15527	0	316
-19.762	-59.791	15898	15742	0	316
-20.988	-58.348	15898	15956	0	316
-18.716	-53.624	15898	16242	0	316
-16.877	-42.986	15898	16526	0	316
-13.415	-36.242	15898	16955	0	316
-14.533	-34.475	16037	17384	0	316
-15.074	-37.108	16037	17812	0	316
-12.441	-43.383	16246	18241	0	316
-13.163	-48.539	16246	18598	0	316
-12.838	-50.956	16246	18812	0	316
-17.959	-56.185	16246	18884	0	316
-25.063	-59.358	16384	18812	0	316
-32.420	-63.541	16384	18741	0	316
-37.360	-66.318	16384	18598	0	316
-37.180	-64.443	16384	18455	0	316
-31.915	-59.755	16384	18312	1	928
-25.352	-53.264	16522	18241	0	928
-18.103	-53.336	16522	18098	0	928
-18.428	-57.483	16522	17741	0	928
-23.224	-68.085	16384	17312	0	928
-30.905	-74.324	16384	16955	0	928
-36.675	-73.242	16384	16741	0	928
-35.449	-65.236	16384	16741	0	928
-32.420	-56.004	16384	16741	0	928
-30.220	-50.451	16384	16669	0	928
-29.174	-54.706	16384	16455	0	928
-29.751	-57.591	16522	16384	0	928
-30.653	-60.765	16522	16455	0	928
-29.318	-61.918	16522	16455	0	928
-30.508	-62.423	16522	16313	0	928
-34.223	-64.299	16522	16170	0	928
-38.226	-65.994	16522	16099	0	928
-41.724	-65.020	16522	16099	0	928
-39.127	-60.043	16522	16027	0	928
-37.721	-54.706	16384	15813	0	928
-33.466	-51.136	16384	15599	0	928
-30.436	-47.999	16384	15527	0	928
-27.696	-46.700	16384	15670	0	928
-24.991	-42.084	16522	15884	0	928
-24.775	-39.019	16522	16027	0	928
-28.345	-35.341	16522	15956	0	928
-33.393	-34.475	16384	15884	0	928
-40.858	-35.990	16384	15742	0	928
-43.310	-38.478	16384	15742	0	928
-44.032	-41.399	16384	15670	0	928
-40.426	-43.671	16384	15599	0	928
-33.213	-42.661	16384	15384	0	928
-25.965	-37.252	16246	15099	0	928
-21.024	-33.177	16246	14857	0	17113
-7.212	23.404	16037	15956	0	868
-7.429	21.962	16246	16027	0	868
-9.484	16.156	16246	16170	0	868
-12.333	15.110	16384	16384	0	868
-13.956	15.074	16384	16669	0	868
-13.018	23.476	16384	16955	0	868
-8.006	31.266	16522	17241	0	868
-1.911	39.272	16522	17526	0	868
1.479	39.055	16522	17598	0	868
1.442	33.718	16522	17455	0	868
-2.669	28.886	16384	17312	0	868
-5.734	26.289	16384	17241	0	868
-6.167	27.515	16384	17098	0	868
0.721	31.518	16522	16955	0	868
7.032	32.853	16522	16884	0	868
11.215	32.925	16522	16812	0	868
9.953	33.790	16522	16741	0	868
4.147	35.701	16522	16598	0	868
-2.813	36.170	16522	16384	0	868
-8.655	35.954	16522	16099	0	868
-11.792	33.610	16522	16099	0	868
-14.569	30.797	16522	16313	0	868
-17.166	28.525	16522	16384	0	868
-20.014	26.578	16522	16099	0	868
-22.250	26.145	16384	15670	0	868
-25.279	28.381	16384	15456	0	868
-24.630	30.617	16384	15384	0	868
-24.450	32.059	16384	15384	0	868
-23.080	36.459	16384	15527	0	868
-13.523	39.235	16384	15813	0	868
-2.957	45.799	16522	16027	0	868
6.131	50.811	16522	16242	0	868
8.042	50.379	16522	16384	0	868
1.190	47.169	16522	16526	0	868
-8.078	40.570	16522	16669	0	868
-12.622	37.613	16731	16741	0	868
-6.599	39.055	16731	16741	0	868
2.416	43.094	16731	16598	0	868
10.386	49.080	16522	16384	0	868
9.340	52.146	16522	16099	0	868
5.806	55.788	16522	15956	0	868
0.433	52.759	16522	15884	0	868
-5.085	43.671	16522	15956	0	868
-11.900	28.453	16522	15884	0	868
-19.582	9.268	16522	15884	0	868
-26.722	-1.046	16522	16027	0	868
-25.676	-0.902	16522	16242	0	868
-18.103	9.881	16522	16313	0	868
-5.085	24.594	16731	16384	0	868
0.757	38.009	16731	16526	0	868
0.902	39.776	16731	16741	0	868
-7.898	36.495	16731	16884	0	868
-17.021	32.312	16731	16955	0	868
-19.978	31.302	16731	17026	0	868
-18.788	32.961	16870	17098	0	868
-12.766	36.783	16731	17169	0	868
-8.511	36.928	16870	17241	0	868
-6.671	32.384	16870	17312	0	868
-6.708	27.299	17078	17312	0	868
-7.104	27.299	16870	17241	0	868
-5.193	35.485	16870	17098	0	868
-2.993	46.051	16870	16812	0	868
-2.272	55.247	16870	16741	0	868
-5.626	52.398	16870	16812	0	868
-11.828	42.481	16870	16812	0	868
-17.382	29.607	16870	16669	0	868
-21.168	24.125	16870	16384	0	868
-21.349	25.893	16870	16384	0	868
-16.697	30.905	16870	16384	0	868
-16.516	32.997	17078	16526	0	868
-15.723	30.617	17078	16526	0	868
-13.884	26.037	17078	16384	0	868
-14.605	21.781	17078	16313	0	868
-12.946	20.087	17078	16170	0	868
-14.208	21.060	17078	16170	0	868
-16.264	22.070	17078	16170	0	868
-15.507	25.352	16870	16027	0	868
-15.326	27.696	16870	15813	0	868
-7.068	24.522	16870	15742	0	868
-0.252	20.087	16870	15956	0	868
13.487	16.408	16870	16242	0	868
25.243	11.468	17078	16384	0	868
36.278	9.052	17078	16598	0	868
42.157	11.612	17078	16741	0	868
41.580	15.146	17078	16598	0	868
37.396	20.014	17078	16384	0	868
33.718	24.558	17078	16242	0	868
29.715	26.289	17078	16027	0	868
26.542	20.375	16731	15599	0	868
25.460	14.245	16870	15099	0	868
23.549	11.360	16870	14742	0	868
23.260	16.192	16731	14456	0	868
24.739	22.972	16522	14170	0	868
25.929	34.475	16384	13956	0	868
27.696	39.812	16384	13742	0	868
29.787	39.704	16246	13527	0	868
28.705	38.009	16246	13384	0	868
22.575	33.141	16246	13313	0	868
10.746	26.470	16246	13242	0	868
-2.596	21.168	16037	13242	0	868
-12.189	13.054	16037	13456	0	868
-16.877	11.756	16037	13670	0	868
-16.228	14.172	15898	13956	0	868
-13.812	23.693	15898	14313	0	868
-11.179	31.879	15898	14813	0	868
-14.785	36.387	15898	15313	0	868
-14.605	35.846	15898	15670	0	868
-18.031	30.653	15898	16170	0	868
-19.221	24.991	15898	16669	0	868
-22.611	24.666	15898	17098	0	868
-23.693	25.568	16037	17455	0	868
-26.289	30.581	16037	17669	0	868
-28.561	36.819	16037	17884	0	868
-29.643	39.308	16037	18026	0	868
-31.915	37.180	16037	18026	0	868
-33.141	30.725	16037	18098	0	868
-33.610	26.181	16037	18169	0	868
-33.754	25.424	16037	18312	0	868
-35.305	30.328	16037	18312	0	868
-36.062	34.944	16037	18169	0	868
-37.036	38.658	16037	18026	0	868
-34.764	38.478	16037	17955	0	868
-31.194	35.737	16246	17884	0	868
-31.590	32.925	16246	17741	1	832
-35.737	28.128	16246	17669	0	832
-42.229	22.322	16384	17812	0	832
-43.635	20.627	16384	17955	0	832
-40.498	21.421	16384	18026	0	832
-36.495	24.522	16384	18098	0	832
-33.321	28.128	16522	18169	0	832
-34.006	29.066	16522	18241	0	832
-36.495	30.328	16522	18169	0	832
-35.233	29.535	16522	18026	0	832
-30.545	29.751	16522	17884	0	832
-27.407	30.472	16522	17669	0	832
-23.765	32.095	16522	17455	0	832
-24.955	31.446	16522	17384	0	832
-24.450	31.482	16522	17455	0	832
-23.729	30.256	16522	17526	0	832
-20.339	29.030	16731	17598	0	832
-14.064	30.581	16731	17526	0	832
-12.333	31.446	16731	17241	0	832
-14.425	28.814	16731	17026	0	832
-20.411	24.486	16731	16741	0	832
-22.142	20.195	16731	16384	0	832
-23.260	17.959	16731	16099	0	832
-21.024	18.139	16731	15670	0	832
-21.781	15.110	16522	15384	0	832
-23.260	14.064	16522	15170	0	832
-23.044	15.795	16522	14884	0	832
-20.375	17.238	16384	14456	0	832
-14.533	21.241	16384	14099	0	832
-16.985	17.670	16384	13813	0	832
-23.693	14.894	16246	13599	0	832
-31.879	11.143	16246	13599	0	832
-34.511	17.670	16246	13813	0	832
-26.253	30.004	16246	14099	0	832
-11.792	45.005	16246	14599	0	832
-0.649	55.211	16246	15027	0	832
5.409	54.995	16246	15242	0	832
5.662	50.162	16246	15313	0	832
2.200	39.416	16246	15527	0	832
-1.082	31.626	16246	15813	0	832
-4.400	26.325	16246	16027	0	832
-9.773	21.132	16246	16242	0	832
-10.494	17.129	16246	16313	0	832
-6.203	18.536	16246	16313	0	832
5.770	23.873	16246	16384	0	832
18.572	30.725	16246	16455	0	832
23.440	35.305	16246	16526	0	832
19.798	32.816	16246	16526	0	832
10.566	25.640	16246	16598	0	832
-0.902	18.356	16246	16741	0	832
-8.330	13.487	16246	16884	0	832
-12.081	8.799	16246	16955	0	832
-10.855	9.232	16246	16955	0	832
-6.491	15.218	16246	16884	0	832
0.397	23.440	16246	16884	0	832
5.373	32.167	16246	16955	0	832
3.823	34.728	16384	17098	0	832
-2.380	29.895	16384	17241	0	832
-9.268	23.080	16522	17384	0	832
-11.143	18.320	16384	17526	0	832
-10.494	19.942	16384	17526	0	832
-6.094	23.260	16384	17384	0	832
-5.337	28.128	16384	17312	0	832
-6.383	31.735	16384	17098	0	832
-7.970	34.187	16246	16669	0	832
-5.445	36.567	16384	16170	0	832
-2.488	38.803	16384	15599	0	832
-0.216	37.180	16246	15313	0	832
-2.993	32.853	16246	15099	0	832
-8.330	27.227	16246	14956	0	832
-13.415	22.250	16037	14884	0	832
-13.956	22.972	16037	15099	0	832
-7.609	28.237	16037	15313	0	832
-4.219	30.797	16037	15242	0	832
-3.390	29.499	16037	15027	0	832
-10.350	20.159	15898	14884	0	832
-16.913	11.143	15898	14884	0	832
-19.257	5.517	15898	14956	0	832
-16.949	9.520	15690	14956	0	832
-9.376	22.142	15690	14956	0	832
-6.780	33.105	15690	15099	0	832
-8.907	39.344	15690	15242	0	832
-13.595	37.973	15551	15313	0	832
-15.290	31.735	15551	15599	0	832
-13.307	25.532	15551	15884	0	832
-6.311	29.571	15551	16099	0	832
-0.649	40.462	15690	16384	0	832
0.577	51.352	16037	16812	0	832
-2.272	55.968	15898	17384	0	832
-6.131	47.025	15898	17741	0	832
-8.222	36.098	15898	17812	0	832
-6.635	24.198	15898	17884	0	832
-3.246	23.404	16037	18026	0	832
-3.210	27.804	16037	18312	0	832
-6.347	28.741	16037	18598	0	832
-12.117	24.089	16246	18741	0	832
-21.818	14.677	16246	18741	0	832
-29.607	3.931	16246	18598	0	832
-28.814	3.426	16246	18384	0	832
-20.844	9.629	16246	18169	0	832
-9.016	19.618	16246	17955	0	832
1.479	29.282	16246	17812	1	404
0.757	30.581	16246	17526	0	404
-9.160	22.142	16246	17169	0	404
-19.726	14.353	16246	16884	0	404
-24.162	9.052	16246	16741	0	404
-18.031	11.179	16246	16741	0	404
-10.927	18.824	16246	16669	0	404
-6.022	23.404	16246	16526	0	404
-7.789	23.296	16246	16384	0	404
-15.110	18.283	16246	16384	0	404
-19.834	11.396	16246	16384	0	404
-23.801	6.888	16246	16526	0	404
-20.627	10.530	16384	16669	0	404
-18.824	14.497	16384	16598	0	404
-14.064	21.818	16384	16526	0	404
-12.333	26.109	16384	16526	0	404
-8.871	28.922	16384	16669	0	404
-6.203	29.787	16384	16669	0	404
-3.678	30.689	16384	16598	0	404
-2.488	29.174	16384	16526	0	404
-5.157	25.784	16384	16455	0	404
-10.783	20.050	16384	16170	0	404
-15.759	14.461	16384	15742	0	404
-19.834	16.300	16246	15170	0	404
-15.651	19.978	16037	14599	0	404
-10.025	23.657	16037	14099	0	404
-5.914	26.361	15898	13813	0	404
-5.517	23.873	15898	13599	0	404
-9.232	22.827	15898	13599	0	404
-16.589	27.191	15898	13742	0	404
-18.067	29.823	15898	13884	0	404
-16.949	34.872	15898	13956	0	404
-15.939	35.233	15690	14170	0	404
-13.668	31.626	15690	14527	0	404
-19.077	24.522	15690	14884	0	404
-24.450	19.293	15690	15384	0	404
-29.607	13.451	15898	15884	0	404
-30.112	10.963	15898	16455	0	404
-22.827	12.982	15898	17026	0	404
-9.809	18.608	15898	17312	0	404
-0.072	25.063	16037	17669	0	404
1.983	30.977	16037	18241	0	404
-0.469	32.456	16246	18884	0	404
-11.756	31.446	16384	19312	0	404
-19.149	27.515	16384	19669	0	404
-21.277	21.277	16522	19812	0	404
-18.211	17.129	16522	19669	0	404
-15.687	12.694	16522	19312	0	404
-12.730	12.550	16522	18955	0	404
-10.530	15.471	16522	18669	0	404
-13.668	17.418	16522	18384	0	404
-15.146	20.555	16522	18026	0	404
-17.706	19.365	16522	17526	0	404
-16.841	18.103	16522	17026	0	404
-16.264	19.654	16522	16384	0	404
-12.874	22.431	16384	15599	0	404
-10.169	26.325	16246	14956	0	404
-10.530	28.489	16246	14813	0	404
-11.504	25.784	16246	14956	0	404
-10.314	22.395	16246	15170	0	404
-10.638	20.339	16246	15384	0	404
-9.484	16.661	16246	15456	0	404
-7.248	18.067	16384	15742	0	404
-5.229	17.743	16384	16027	0	404
-1.911	18.752	16384	16313	0	404
0.649	18.969	16384	16455	0	404
1.370	22.106	16522	16812	0	404
-0.325	24.811	16522	17241	0	404
-2.813	27.587	16731	17598	0	404
-3.678	29.715	16731	17955	0	404
-3.029	28.814	16870	18241	0	404
-1.479	27.335	16870	18384	0	404
0.144	25.027	17078	18384	0	404
0.108	23.116	17078	18241	0	404
0.902	25.568	17078	18241	0	404
1.803	25.820	17217	18312	0	404
2.236	26.181	17217	18241	0	404
-0.216	25.279	17217	17884	0	404
-4.255	22.034	17078	17312	0	404
-9.448	18.608	17078	16669	1	316
-10.783	17.923	16870	16099	0	316
-8.330	16.408	16870	15456	0	316
-4.436	18.824	16870	14884	0	316
-5.914	16.877	16731	14456	0	316
-13.163	16.264	16731	14242	0	316
-20.916	10.999	16731	14170	0	316
-26.073	7.465	16731	14099	0	316
-23.981	7.934	16522	13956	0	316
-16.444	11.107	16522	13742	0	316
-13.704	14.821	16384	13527	0	316
-13.740	18.824	16384	13384	0	316
-23.404	16.264	16384	13527	0	316
-27.407	15.326	16384	13742	0	316
-28.814	15.038	16246	13956	0	316
-21.457	15.687	16246	14242	0	316
-8.763	17.887	16384	14670	0	316
-3.823	15.543	16384	15170	0	316
-4.327	10.278	16384	15527	0	316
-12.441	4.147	16384	15813	0	316
-17.346	4.652	16384	15956	0	316
-17.129	13.271	16246	15956	0	316
-9.917	27.371	16246	15884	0	316
-3.859	38.442	16246	15884	0	316
-0.757	40.966	16246	15813	0	316
-4.940	32.492	16246	15670	0	316
-9.124	25.604	16037	15527	0	316
-16.048	19.329	16037	15313	0	316
-18.969	20.123	16037	15384	0	316
-19.221	23.657	15898	15599	0	316
-14.461	23.188	15898	15742	0	316
-9.448	20.844	15898	15742	0	316
-5.626	17.310	15898	15742	0	316
-7.862	12.982	15898	15884	0	316
-13.415	12.369	15898	15884	0	316
-16.949	17.202	15898	15742	0	316
-13.379	23.404	15898	15670	0	316
-9.160	28.922	15690	15599	0	316
-4.508	33.682	15690	15742	0	316
-3.173	31.879	15690	15956	0	316
-8.366	28.561	15690	16313	0	316
-13.379	21.024	15690	16526	0	316
-16.661	17.490	15690	16741	0	316
-15.218	17.634	15690	16884	0	316
-13.018	22.683	15690	17098	0	316
-10.133	30.400	15690	17384	0	316
-8.511	34.115	15690	17598	0	316
-13.307	32.961	15690	17812	0	316
-16.372	27.443	15898	18098	0	316
-20.087	24.053	15898	18384	0	316
-17.202	21.854	16037	18669	0	316
-13.668	19.473	16246	18955	0	316
-12.550	15.362	16246	19169	0	316
-12.766	12.081	16384	19169	0	316
-16.516	15.579	16384	19098	0	316
-16.589	20.483	16384	18955	0	316
-16.120	28.994	16384	18741	0	316
-13.018	28.994	16384	18598	0	316
-13.163	23.296	16522	18598	0	316
-17.202	14.389	16522	18741	0	316
-19.077	11.179	16522	18812	0	316
-18.464	15.074	16731	18812	0	316
-12.477	18.320	16731	18669	0	316
-10.855	19.906	16522	18455	0	316
-12.622	13.127	16522	18169	0	316
-17.418	7.032	16731	17884	0	316
-23.404	4.436	16731	17741	0	316
-23.404	8.402	16731	17598	0	316
-16.336	18.139	16731	17526	0	316
-10.314	26.325	16870	17312	0	316
-5.301	27.515	16870	17169	0	316
-4.508	23.008	16870	17026	0	316
-8.907	15.507	16870	16884	0	316
-12.297	9.592	16870	16598	0	316
-17.166	8.583	16870	16384	0	316
-16.012	11.576	16870	16242	0	316
-14.713	13.559	16870	16099	0	316
-11.468	15.615	16870	15884	0	316
-10.206	14.136	16870	15670	0	316
-12.441	14.425	16870	15384	0	316
-12.405	17.454	16870	14884	0	316
-13.884	17.346	16731	14313	0	316
-11.973	21.168	16731	13813	0	316
-9.953	22.106	16731	13456	0	316
-10.278	24.270	16522	13456	0	316
-9.665	24.775	16522	13456	0	316
-7.501	23.368	16522	13456	0	316
-4.219	21.998	16522	13599	0	316
2.019	24.739	16522	14099	0	316
6.744	27.479	16384	14884	0	316
4.616	34.475	16522	15527	0	316
-3.354	37.613	16522	16242	0	316
-10.638	35.810	16731	16812	0	316
-16.264	27.912	16731	17312	0	316
-17.310	17.562	16870	17741	0	316
-13.307	10.133	16870	18169	0	316
-13.343	4.291	17078	18384	0	316
-12.117	4.508	17078	18384	0	316
-15.146	5.770	17078	18169	0	316
-13.163	8.619	17078	17955	0	316
-9.160	11.540	17217	17812	0	316
-7.645	21.132	17217	17669	0	316
-4.364	27.876	17217	17526	0	316
-6.275	36.026	17217	17312	0	316
-11.504	35.557	17078	17026	0	316
-14.064	29.066	17217	16741	0	316
-16.480	21.565	17078	16384	0	316
-11.937	19.906	17078	16099	0	316
-5.481	19.834	17078	15813	0	316
2.200	24.089	16870	15527	0	316
5.770	24.522	16870	15384	0	316
6.455	21.673	16870	15242	0	316
1.082	21.132	16870	15384	0	316
-5.301	21.854	16870	15456	0	316
-10.350	25.207	16870	15527	0	316
-13.920	26.938	17078	15742	0	316
-12.514	26.650	17078	16027	0	316
-8.114	25.316	17078	16242	0	316
-3.210	26.361	17078	16099	0	316
0.721	28.273	17078	15884	0	316
1.334	26.686	17078	15813	0	316
-4.255	19.726	17078	15742	0	316
-11.396	14.100	16870	15599	0	316
-17.346	8.835	16731	15313	0	316
-20.519	11.360	16731	15027	0	316
-16.589	20.844	16522	14670	0	316
-13.343	27.119	16522	14313	0	316
-8.979	32.564	16384	13884	0	316
-7.248	31.230	16384	13670	0	316
-4.580	28.309	16384	13742	0	316
-1.046	24.342	16246	14027	0	316
0.180	17.598	16246	14170	0	316
-3.931	11.648	16246	14242	0	316
-12.405	7.429	16037	14242	0	316
-20.483	6.455	16037	14313	0	316
-24.739	8.294	16037	14456	0	316
-22.250	12.045	16037	14742	0	316
-15.326	12.874	16246	15099	0	316
-9.124	17.093	16246	15456	0	316
-1.154	22.142	16246	15884	0	316
5.229	29.823	16246	16242	0	316
5.590	32.420	16246	16455	0	316
0.577	30.472	16246	16741	0	316
-9.232	21.926	16246	16955	0	316
-18.680	18.031	16246	17312	0	316
-19.257	20.591	16246	17669	0	316
-12.946	30.004	16246	17741	0	316
-5.481	36.387	16246	17669	0	316
-5.481	37.108	16246	17741	0	316
-11.360	30.869	16246	17884	0	316
-19.365	23.332	16246	17955	0	316
-20.627	15.687	16246	17955	0	316
-18.247	9.268	16246	17741	0	316
-12.297	3.967	16246	17455	0	316
-11.648	0.541	16246	17098	0	316
-13.704	2.921	16246	16741	0	316
-16.264	12.874	16037	16455	0	316
-13.163	25.893	16037	16170	0	316
-8.547	32.023	15898	15813	0	316
-7.537	27.407	15898	15599	0	316
-12.261	14.641	15898	15456	0	316
-17.779	4.796	15690	15313	0	316
-22.791	1.262	15690	15384	0	316
-20.303	5.878	15690	15670	0	316
-16.697	13.631	15690	16027	0	316
-13.163	15.687	15898	16384	0	316
-13.631	14.208	15898	16812	0	316
-14.317	9.701	15898	17098	0	316
-15.110	5.806	16037	17241	0	316
-17.418	6.022	16037	17241	0	316
-19.618	5.662	16037	17384	0	316
-22.972	7.393	16246	17526	0	316
-23.657	11.648	16384	17598	0	316
-21.349	15.362	16246	17669	0	316
-19.834	15.290	16246	17669	0	316
-20.267	13.848	16246	17598	0	316
-19.365	11.143	16246	17384	0	316
-20.231	7.068	16246	17241	0	316
-14.136	5.842	16246	17098	0	316
-9.629	8.619	16246	16955	0	316
-5.878	11.504	16246	16812	0	316
-5.878	12.586	16246	16669	0	316
-9.412	11.648	16246	16669	0	316
-13.415	9.953	16246	16669	0	316
-17.887	9.520	16246	16669	0	316
-17.057	12.477	16246	16598	0	316
-16.985	20.483	16246	16669	0	316
-13.704	26.289	16246	16884	0	316
-12.694	27.876	16246	17026	0	316
-11.900	24.162	16246	17098	0	316
-12.622	17.129	16246	17026	0	316
-12.297	14.497	16384	17098	0	316
-8.979	14.245	16384	17241	0	316
-6.239	18.103	16384	17384	0	316
-5.481	18.500	16522	17526	0	316
-8.186	18.860	16522	17669	0	316
-11.648	15.543	16522	17884	0	316
-11.937	14.281	16731	18098	0	316
-11.720	12.658	16731	18312	0	316
-9.448	13.559	16870	18455	0	316
-8.366	13.631	16870	18384	0	316
-10.891	12.081	16870	18241	0	316
-15.651	13.091	16870	18169	0	316
-19.726	11.215	17078	18241	0	316
-23.260	10.422	17217	18241	1	816
-25.388	12.730	17078	17955	0	816
-19.221	14.208	17078	17384	0	816
-13.992	17.454	16870	16526	0	816
-10.278	19.437	16870	15813	0	816
-14.353	12.441	16731	15099	0	816
-25.532	3.570	16731	14599	0	816
-32.780	-5.301	16731	14313	0	816
-33.429	-8.475	16731	14170	0	816
-24.739	-4.616	16522	14099	0	816
-16.156	1.695	16522	14027	0	816
-15.831	3.390	16522	13956	0	816
-19.582	0.144	16522	14027	0	816
-25.965	-3.173	16522	14099	0	816
-28.633	-2.272	16384	14099	0	816
-28.128	0.938	16384	13956	0	816
-28.922	3.462	16384	13884	0	816
-30.112	2.524	16384	14027	0	816
-29.751	-0.252	16246	14170	0	816
-28.237	-0.829	16246	14313	0	816
-20.627	1.875	16246	14599	0	816
-20.483	7.248	16246	14956	0	816
-22.575	11.396	16246	15313	0	816
-26.542	10.710	16384	15599	0	816
-31.266	8.871	16384	15956	0	816
-32.564	8.294	16246	16099	0	816
-33.069	7.429	16246	16027	0	816
-32.997	5.878	16246	15884	0	816
-31.771	4.760	16246	15884	0	816
-23.296	3.895	16246	15884	0	816
-14.569	3.426	16037	15670	0	816
-6.527	5.878	16037	15384	0	816
-10.097	7.357	15898	15170	0	816
-19.293	3.967	15898	15027	0	816
-29.751	-0.938	15898	15099	0	816
-31.807	0.216	15898	15384	0	816
-24.847	5.121	15898	15742	0	816
-13.487	15.038	15898	16099	0	816
-4.291	24.702	16037	16384	0	816
-2.236	25.893	16037	16526	0	816
-6.599	21.241	16246	16741	0	816
-17.706	11.612	16037	17098	0	816
-27.299	1.118	16037	17384	0	816
-34.511	-5.013	16037	17598	0	816
-35.088	-5.806	16037	17741	0	816
-31.085	-3.678	16246	17884	0	816
-27.515	0.000	16246	18026	0	816
-29.030	0.721	16246	18169	0	816
-28.597	3.065	16246	18169	0	816
-25.929	6.167	16246	18241	0	816
-21.601	11.251	16384	18241	0	816
-14.389	14.245	16384	18384	0	816
-13.163	13.956	16384	18526	0	816
-14.208	7.970	16384	18526	0	816
-22.034	1.154	16384	18384	0	816
-26.181	-3.534	16384	17955	0	816
-29.571	-5.698	16384	17384	0	816
-32.744	-4.472	16384	16884	0	816
-30.400	-3.029	16384	16526	0	816
-26.253	0.144	16384	16384	0	816
-20.123	3.101	16246	16242	0	816
-18.067	3.787	16246	15884	0	816
-21.998	0.793	16246	15670	0	816
-29.030	-4.327	16246	15527	0	816
-39.163	-8.114	16246	15456	0	816
-43.491	-9.809	16037	15313	0	816
-40.534	-7.393	16037	15242	0	816
-35.557	-4.075	16037	15384	0	816
-31.518	-3.462	16037	15599	0	816
-28.020	-3.859	16246	15956	0	816
-26.037	-2.596	16246	16384	0	816
-24.666	-0.505	16246	16669	0	816
-23.981	1.767	16246	17026	0	816
-24.739	0.541	16384	17312	0	816
-29.138	-2.019	16384	17526	0	816
-32.600	-4.291	16384	17598	0	816
-33.538	-3.606	16384	17455	0	816
-32.239	-1.983	16384	17384	0	816
-29.643	0.541	16522	17241	0	816
-26.542	1.406	16384	17026	1	316
-25.352	-0.325	16384	16741	0	316
-24.594	-1.839	16384	16598	0	316
-26.397	-2.669	16384	16526	0	316
-26.866	-2.705	16384	16384	0	316
-29.499	-2.164	16384	16027	0	316
-31.194	-1.983	16246	15527	0	316
-29.427	-3.282	16246	15099	0	316
-29.318	-6.347	16246	14884	0	316
-31.374	-8.439	16037	14670	0	316
-34.151	-9.268	16037	14456	0	316
-38.622	-8.871	16037	14313	0	316
-40.894	-6.347	15898	14313	0	316
-38.875	-2.741	15898	14456	0	316
-33.357	0.433	15898	14527	0	316
-28.814	0.902	15898	14670	0	316
-29.607	-2.092	16037	15027	0	316
-31.554	-9.124	16037	15456	0	316
-36.891	-15.903	16037	15742	0	316
-39.668	-19.077	16037	16027	0	316
-40.065	-16.589	16037	16384	0	316
-34.223	-9.520	16037	16884	0	316
-31.951	-3.318	16246	17098	0	316
-28.056	-0.180	16246	17169	0	316
-28.561	-0.469	16246	17241	0	316
-31.230	-2.669	16246	17241	0	316
-31.879	-4.544	16037	17026	0	316
-29.246	-5.049	16037	16741	0	316
-24.089	-1.803	16037	16526	0	316
-19.978	-0.505	16037	16384	0	316
-22.178	-1.695	16037	16170	0	316
-31.590	-3.354	15898	16099	0	316
-36.098	-5.517	15898	16099	0	316
-37.000	-6.599	15898	16170	0	316
-29.318	-5.157	15898	16170	0	316
-22.431	-4.219	15898	16170	0	316
-22.358	-3.137	15898	16170	0	316
-27.948	-2.921	15898	16242	0	316
-33.213	-0.902	15898	16455	0	316
-32.672	2.885	15898	16455	0	316
-28.092	8.366	15690	16313	0	316
-23.332	10.638	15898	16027	0	316
-19.473	11.792	15898	15884	0	316
-14.136	10.350	16037	15813	0	316
-10.242	9.520	15690	15670	0	316
-5.986	5.517	15690	15599	0	316
-9.268	-0.685	15690	15742	0	316
-14.930	-7.429	15690	15956	0	316
-24.630	-13.956	15690	16170	0	316
-25.929	-18.428	15690	16313	0	316
-23.260	-14.064	15690	16313	0	316
-22.250	-7.970	15690	16384	0	316
-20.844	-1.118	15690	16526	0	316
-23.404	3.570	15690	16812	0	316
-23.693	4.724	15690	16955	0	316
-18.247	5.409	15690	17026	0	316
-12.189	3.606	15898	16955	0	316
-6.924	0.180	15898	16955	0	316
-9.845	-2.380	15898	16884	0	316
-15.398	-4.940	15898	16884	0	316
-17.490	-7.176	15898	16955	0	316
-15.038	-5.445	15898	17169	0	316
-6.852	-4.832	15898	17455	0	316
-1.406	-4.003	15898	17741	0	316
-1.803	-3.426	16037	18026	0	316
-6.455	-5.986	16037	18384	0	316
-13.271	-8.330	16246	18669	0	316
-16.120	-11.323	16246	18669	0	316
-13.379	-13.704	16246	18669	0	316
-12.405	-11.792	16384	18884	0	316
-10.242	-10.242	16522	19241	0	316
-11.792	-10.386	16522	19455	0	316
-15.254	-11.215	16731	19455	0	316
-15.218	-15.110	16731	19312	0	316
-14.966	-15.759	16731	19169	0	316
-10.133	-11.215	16870	18955	0	316
-4.364	-7.825	16870	18669	0	316
-1.803	-4.904	16870	18455	0	316
-0.793	-2.272	17078	18312	0	316
-2.524	-2.452	17078	18026	1	316
-7.140	-2.416	17078	17669	0	316
-9.917	-0.252	17078	17312	0	316
-11.648	0.721	16870	16884	0	316
-10.819	4.003	16870	16598	0	316
-7.681	6.203	16870	16384	0	316
-5.301	8.907	16870	16099	0	316
-4.436	8.475	16870	15813	0	316
-5.950	5.698	17078	15742	0	316
-8.547	2.056	17078	15813	0	316
-11.468	-1.010	17078	15813	0	316
-12.694	-2.452	17078	15742	0	316
-12.586	-3.246	17078	15813	0	316
-16.589	-2.200	17217	15956	0	316
-17.526	-2.669	17217	16099	0	316
-18.716	-1.442	17078	16099	0	316
-16.372	-0.144	17217	16099	0	316
-13.595	1.911	17217	15956	0	316
-10.133	3.931	17078	15670	0	316
-8.979	9.340	17078	15456	0	316
-10.494	13.740	17078	15456	0	316
-12.333	15.903	17078	15384	0	316
-9.304	17.923	17078	15170	0	316
-4.327	17.418	17078	15027	0	316
3.210	19.726	17078	14884	0	316
8.691	19.978	17078	14599	0	316
7.753	19.546	16870	14170	0	316
-1.659	13.848	16870	13813	0	316
-10.855	7.285	16870	13599	0	316
-11.612	6.022	16731	13527	0	316
-3.787	11.143	16731	13599	0	316
11.360	20.808	16731	13742	0	316
23.008	28.345	16731	13813	0	316
20.808	23.981	16522	13884	0	316
10.097	15.074	16522	13956	0	316
-4.183	5.229	16522	14099	0	316
-9.989	3.065	16522	14456	0	316
-6.383	10.530	16384	14884	0	316
0.613	22.827	16384	15313	0	316
4.508	28.777	16384	15527	0	316
2.921	28.489	16384	15527	0	316
-0.938	24.378	16384	15599	0	316
-1.226	17.418	16384	15742	0	316
2.308	18.103	16246	15956	0	316
5.662	20.988	16522	16170	0	316
6.383	22.539	16384	16526	0	316
5.986	24.594	16384	17026	0	316
6.239	25.496	16384	17384	0	316
6.419	26.830	16522	17669	0	316
5.517	28.128	16522	17955	0	316
3.606	28.345	16522	18098	0	316
3.101	25.640	16522	18169	0	316
6.996	22.503	16731	18241	0	316
11.179	21.277	16731	18241	0	316
11.828	20.375	16731	18098	0	316
2.524	16.552	16731	17812	0	316
-10.566	12.550	16731	17598	0	316
-17.238	8.258	16731	17384	0	316
-14.641	7.717	16731	17169	0	316
-2.344	13.487	16522	16884	0	316
9.881	20.844	16522	16598	0	316
14.497	22.899	16522	16384	0	316
11.143	19.041	16522	16242	0	316
2.921	12.802	16522	16027	0	316
-6.635	8.402	16384	15599	0	316
-10.783	9.448	16384	15170	0	316
-11.107	16.300	16246	14813	0	316
-8.402	22.611	16246	14742	0	316
-7.068	21.096	16246	14813	0	316
-10.602	11.143	16246	15099	0	316
-19.077	0.505	16246	15384	0	316
-25.604	-5.734	16246	15670	0	316
-26.073	-2.741	16246	16099	0	316
-20.808	7.357	16384	16455	0	316
-11.504	14.461	16384	16884	0	316
-8.907	15.687	16384	17098	0	316
-11.287	9.917	16384	17098	0	316
-14.136	2.957	16384	17098	0	316
-19.582	-1.082	16384	17026	0	316
-19.618	0.757	16384	16955	0	316
-19.654	5.445	16384	16812	0	316
-17.670	17.779	16384	16741	0	316
-17.706	26.145	16384	16812	0	316
-17.057	28.669	16384	16955	0	316
-18.897	24.378	16384	17098	0	316
-18.392	13.884	16522	17169	0	316
-18.247	9.520	16522	17169	0	316
-16.733	10.422	16522	17098	0	316
-14.713	14.569	16522	17169	0	316
-14.677	17.382	16522	17169	0	316
-19.041	9.845	16522	17169	0	316
-21.926	1.911	16522	17169	0	316
-25.784	-2.885	16731	17241	0	316
-25.856	-1.587	16731	17384	0	316
-19.437	6.563	16731	17598	0	316
-12.694	19.365	16870	17812	0	316
-3.318	26.542	16870	17955	0	316
-1.875	28.669	16870	17955	0	316
-5.229	23.044	17078	18026	0	316
-13.054	14.677	17078	18241	0	316
-18.716	8.511	17078	18526	0	316
-19.437	9.124	17217	18669	0	316
-15.651	14.317	17425	18669	0	316
-11.107	21.854	17217	18526	0	316
-12.477	20.411	17217	18241	0	316
-15.435	18.392	17217	17741	0	316
-23.368	13.451	17217	17241	0	316
-25.496	10.602	17217	16812	0	316
-24.053	10.963	17217	16384	0	316
-21.601	11.179	17217	15884	0	316
-18.500	12.081	17217	15242	0	316
-21.024	9.881	17078	14884	0	316
-23.152	8.150	17078	14742	0	316
-26.433	8.799	17078	14670	0	316
-27.984	9.989	17078	14599	0	316
-27.624	10.422	16870	14527	0	316
-28.417	6.780	16870	14456	0	316
-32.528	3.787	16870	14313	0	316
-34.872	-2.524	16731	14170	0	316
-35.052	-2.741	16731	14099	0	316
-29.823	3.354	16731	14170	0	316
-24.883	10.350	16731	14384	0	316
-23.260	9.484	16731	14456	0	316
-27.299	4.111	16731	14527	0	316
-34.331	-4.183	16731	14813	0	316
-36.855	-7.862	16731	15242	0	316
-32.312	-4.400	16731	15742	0	316
-23.657	0.361	16870	16099	0	316
-21.565	1.298	16870	16170	0	316
-23.296	-2.813	16731	16099	0	316
-29.643	-5.698	16731	16099	0	316
-33.718	-4.147	16731	16027	0	316
-30.545	1.659	16731	15884	0	316
-25.748	6.671	16731	15670	0	316
-19.906	6.852	16731	15527	0	316
-20.087	3.462	16384	15456	0	316
-24.089	1.226	16522	15670	0	316
-27.912	3.282	16522	15884	0	316
-31.158	6.708	16522	15884	0	316
-31.554	9.412	16522	15670	0	316
-28.309	10.242	16384	15384	0	316
-25.099	6.347	16384	15170	0	316
-20.519	5.590	16384	15099	0	316
-16.877	10.097	16246	15027	0	316
-11.251	18.283	16246	14884	0	316
-7.934	24.053	16246	14742	0	316
-5.914	26.506	16246	14599	0	316
-6.094	24.702	16037	14599	0	316
-6.527	19.870	15898	14670	0	316
-7.537	20.844	15898	14884	0	316
-8.294	24.089	15898	15242	0	316
-11.323	25.496	15898	15527	0	316
-16.480	24.558	15898	16027	0	316
-27.083	17.815	16037	16598	0	316
-31.446	12.441	16037	17384	0	316
-28.309	11.937	16037	17955	0	316
-17.851	17.454	16246	18384	0	316
-7.212	22.719	16246	18526	0	316
-0.252	24.125	16246	18526	0	316
-1.406	21.745	16246	18526	0	316
-8.366	15.759	16246	18455	0	316
-10.783	12.225	16246	18312	0	316
-9.088	12.369	16246	18098	0	316
-5.445	14.894	16246	17812	0	316
-1.551	18.752	16246	17526	1	656
-0.072	19.906	16246	17384	0	656
-0.829	24.089	16246	17312	0	656
1.010	27.191	16246	17312	0	656
5.337	31.049	16246	17241	0	656
9.809	35.737	16246	17098	0	656
13.812	38.045	16246	16884	0	656
10.963	36.855	16246	16526	0	656
3.462	31.482	16246	16313	0	656
-4.400	25.460	16246	16242	0	656
-7.321	20.267	16246	16313	0	656
-7.032	16.480	16246	16455	0	656
-2.921	15.218	16246	16669	0	656
-2.849	15.975	16246	16812	0	656
-5.554	20.627	16246	16884	0	656
-8.619	22.899	16246	16812	0	656
-12.838	26.686	16246	16669	0	656
-10.710	26.325	16246	16526	0	656
-7.789	23.693	16384	16455	0	656
-3.462	20.844	16384	16384	0	656
2.344	24.486	16384	16384	0	656
7.212	31.194	16384	16099	0	656
14.894	39.416	16246	15884	0	656
16.408	42.806	16246	15742	0	656
17.093	39.416	16246	15670	0	656
12.369	29.391	16246	15527	0	656
6.960	23.693	16246	15456	0	656
6.996	23.332	16246	15599	0	656
13.343	29.030	16246	15884	0	656
22.106	38.334	16246	16027	0	656
28.777	42.481	16246	16027	0	656
28.922	40.029	16246	15956	0	656
23.332	33.321	16246	16027	0	656
15.254	24.270	16246	16313	0	656
11.251	20.014	16246	16669	0	656
8.907	16.228	16384	17169	0	656
9.665	20.123	16384	17598	0	656
12.333	25.748	16384	17955	0	656
13.776	25.063	16522	18241	0	656
12.009	23.368	16522	18526	0	656
11.107	21.962	16731	18741	0	656
15.110	21.781	16731	18741	0	656
19.293	29.282	16731	18455	0	656
25.388	36.351	16731	18098	0	656
25.856	37.432	16731	17669	0	656
18.031	30.004	16731	17455	0	656
8.835	18.464	16522	17241	0	656
3.101	12.441	16522	16955	0	656
6.239	14.172	16522	16526	0	656
12.153	22.214	16522	16313	0	656
18.103	29.138	16522	16170	0	656
14.281	29.751	16522	16027	0	656
5.481	24.089	16522	15884	0	656
-5.626	15.759	16522	15742	0	656
-14.497	6.852	16522	15599	0	656
-16.769	1.803	16522	15670	0	656
-13.595	-2.777	16522	15742	0	656
-9.989	-6.094	16522	15956	0	656
-5.265	-11.648	16522	15956	0	656
-5.734	-14.208	16522	15813	0	656
-8.907	-17.310	16522	15599	0	656
-16.300	-15.687	16522	15527	0	656
-22.899	-11.612	16384	15313	0	656
-26.830	-8.763	16384	15170	0	656
-27.299	-7.501	16384	15242	0	656
-21.637	-7.465	16384	15384	0	656
-18.320	-8.475	16384	15456	0	656
-14.317	-8.619	16384	15599	0	656
-15.543	-7.862	16384	15813	0	656
-20.195	-9.592	16522	16099	0	656
-30.941	-12.009	16522	16242	0	656
-38.478	-14.785	16522	16526	0	656
-42.048	-13.235	16522	16955	0	656
-39.163	-11.432	16731	17241	0	656
-31.807	-6.599	16731	17169	0	656
-25.640	-0.902	16731	16884	0	656
-25.640	1.587	16522	16455	0	656
-29.859	-2.236	16522	16099	0	656
-32.925	-6.635	16522	15742	0	656
-34.115	-13.776	16384	15456	1	316
-31.085	-16.012	16384	15313	0	316
-28.237	-11.323	16384	15384	0	316
-28.201	-4.832	16384	15527	0	316
-29.102	-1.911	16384	15599	0	316
-32.131	-3.173	16384	15670	0	316
-33.610	-10.133	16384	15884	0	316
-33.466	-17.238	16384	16099	0	316
-34.367	-21.277	16384	16313	0	316
-29.571	-19.401	16384	16455	0	316
-25.243	-14.785	16522	16741	0	316
-20.808	-6.383	16522	16955	0	316
-18.608	-2.524	16522	17098	0	316
-19.473	-2.236	16522	17312	0	316
-26.974	-5.770	16522	17455	0	316
-30.400	-11.071	16731	17455	0	316
-32.131	-14.605	16731	17455	0	316
-30.833	-13.848	16731	17526	0	316
-28.633	-17.238	16731	17598	0	316
-30.364	-18.608	16870	17669	0	316
-34.583	-24.017	16870	17741	0	316
-42.193	-25.135	16731	17741	0	316
-48.215	-22.575	16870	17598	0	316
-49.044	-18.067	16870	17526	0	316
-47.854	-10.855	16731	17455	0	316
-42.337	-7.934	16731	17241	0	316
-38.226	-8.006	16731	16884	0	316
-35.197	-9.088	16731	16455	0	316
-33.105	-8.186	16731	16170	0	316
-34.151	-8.439	16731	15956	0	316
-36.567	-5.121	16731	15742	0	316
-37.793	-1.983	16731	15670	0	316
-35.305	2.452	16731	15599	0	316
-30.725	7.104	16731	15599	0	316
-24.594	9.016	16731	15670	0	316
-21.673	7.934	16731	15884	0	316
-22.791	3.750	16731	16099	0	316
-24.883	2.380	16731	16170	0	316
-24.342	5.013	16731	15956	0	316
-17.238	11.684	16731	15742	0	316
-10.783	17.851	16731	15527	0	316
-8.547	15.543	16522	15313	0	316
-12.658	6.635	16522	15099	0	316
-20.050	0.361	16522	15027	0	316
-20.555	-0.902	16522	14884	0	316
-15.903	5.049	16384	14670	0	316
-5.734	14.966	16384	14456	0	316
-1.659	18.175	16246	14170	0	316
-0.541	18.247	16246	13884	0	316
-3.534	12.910	16037	13670	0	316
-3.750	12.658	16037	13599	0	316
-0.721	13.415	15898	13527	0	316
4.508	14.605	15898	13527	0	316
5.445	16.156	15690	13670	0	316
0.902	13.379	15690	13884	0	316
-2.560	9.448	15690	14242	0	316
-11.179	1.659	15690	14884	0	316
-17.706	-6.347	15690	15742	0	316
-20.555	-10.819	15690	16455	0	316
-20.087	-13.343	15898	17169	0	316
-20.123	-11.251	16037	17669	0	316
-17.346	-8.402	16037	18026	0	316
-14.317	-4.868	16037	18169	0	316
-10.566	-2.993	16246	18312	0	316
-5.914	-0.613	16384	18526	0	316
-6.383	2.056	16246	18812	0	316
-9.268	2.380	16384	18955	0	316
-14.785	4.472	16384	18955	0	316
-16.120	4.183	16384	18884	0	316
-14.533	8.547	16384	18884	0	316
-7.609	12.586	16384	18598	0	316
-3.570	14.497	16384	18169	0	316
-4.400	15.795	16384	17669	0	316
-7.176	13.595	16384	17241	0	316
-9.556	10.602	16246	16955	0	316
-10.710	10.061	16246	16669	0	316
-10.097	8.222	16246	16384	0	316
-8.294	6.780	16246	16027	0	316
-8.583	2.308	16037	15884	0	316
-7.862	0.288	16037	15884	1	316
-10.674	1.226	16037	15956	0	316
-8.258	9.268	16037	16099	0	316
-4.436	19.329	16037	16242	0	316
0.613	25.676	16037	16170	0	316
4.904	28.814	16037	16027	0	316
3.606	20.627	16037	15884	0	316
-1.118	11.612	16037	15884	0	316
-7.176	2.488	16037	15956	0	316
-10.061	-1.262	16037	16099	0	316
-8.943	-0.938	16037	16242	0	316
-6.816	2.669	16037	16455	0	316
-6.419	6.491	16037	16812	0	316
-8.799	4.075	16246	17169	0	316
-10.133	-0.361	16246	17598	0	316
-12.514	-7.429	16384	18098	0	316
-13.523	-9.484	16384	18455	0	316
-12.766	-5.914	16522	18669	0	316
-15.038	0.325	16522	18884	0	316
-16.552	5.013	16731	19026	0	316
-21.673	3.029	16731	19026	0	316
-23.549	-3.137	16870	18884	0	316
-26.037	-6.924	16870	18669	0	316
-26.830	-5.878	16870	18384	0	316
-24.991	-0.361	16870	17884	0	316
-22.395	5.914	16870	17241	0	316
-21.854	12.009	16731	16455	0	316
-18.752	13.487	16731	15813	0	316
-20.014	12.225	16731	15313	0	316
-19.149	13.271	16522	14813	0	316
-20.303	12.045	16522	14313	0	316
-20.050	10.242	16384	14027	0	316
-19.185	9.304	16384	13884	0	316
-21.204	7.717	16384	13884	0	316
-22.683	3.354	16384	14027	0	316
-26.289	0.505	16384	14384	0	316
-27.299	-3.210	16384	14670	0	316
-27.732	-3.210	16384	14884	0	316
-20.267	0.108	16384	15170	0	316
-17.166	4.796	16384	15527	0	316
-18.247	5.698	16384	15956	0	316
-28.597	-1.911	16384	16170	0	316
-44.284	-14.100	16522	16384	0	316
-52.290	-20.988	16522	16455	0	316
-50.018	-20.988	16522	16598	0	316
-39.704	-12.369	16522	16598	0	316
-34.728	-11.864	16522	16526	0	316
-41.147	-17.238	16522	16384	0	316
-53.408	-28.345	16384	16242	0	316
-63.253	-32.095	16384	16027	0	316
-61.161	-22.070	16384	15884	0	316
-52.362	-8.763	16384	15813	0	316
-44.717	1.515	16384	15813	0	316
-42.625	-0.216	16384	15956	0	316
-43.022	-8.330	16384	16099	0	316
-44.717	-15.471	16384	16313	0	316
-45.582	-17.959	16384	16669	0	316
-46.123	-14.858	16384	17169	0	316
-46.376	-15.795	16522	17455	0	316
-47.133	-13.018	16522	17669	0	316
-42.337	-10.638	16731	17884	0	316
-31.158	-4.940	16731	18026	0	316
-24.666	1.370	16731	18026	0	316
-23.260	3.534	16522	17955	0	316
-31.230	-2.633	16731	17812	0	316
-43.960	-12.802	16731	17598	0	316
-54.418	-21.349	16522	17241	0	316
-53.841	-23.476	16522	16955	0	316
-46.772	-19.834	16522	16669	0	316
-39.199	-12.333	16522	16313	0	316
-36.783	-10.602	16522	16099	0	316
-41.796	-14.533	16522	16099	0	316
-46.520	-17.815	16522	16170	0	316
-48.359	-20.339	16522	16099	0	316
-44.284	-15.326	16522	15956	0	316
-36.062	-8.583	16522	15813	0	316
-28.958	-3.101	16522	15599	0	316
-25.820	-1.767	16384	15242	0	316
-25.748	-2.596	16384	14813	0	316
-27.876	-4.580	16246	14527	1	316
-30.905	-5.049	16246	14313	0	316
-33.466	-2.777	16246	14242	0	316
-35.269	-0.505	16037	14313	0	316
-34.439	-1.983	16037	14384	0	316
-33.249	-3.354	16037	14313	0	316
-32.889	-10.133	15898	14242	0	316
-31.626	-17.093	15898	14384	0	316
-31.807	-22.214	15898	14527	0	316
-30.833	-20.447	16037	14599	0	316
-32.744	-18.103	15898	14742	0	316
-33.285	-13.415	16037	14813	0	316
-39.596	-14.677	15898	14884	0	316
-46.087	-17.706	15898	14956	0	316
-46.772	-20.916	15690	15099	0	316
-41.688	-20.231	15690	15313	0	316
-34.439	-17.057	15690	15456	0	316
-28.814	-12.369	15690	15527	0	316
-26.614	-14.353	15551	15599	0	316
-26.758	-12.802	15551	15813	0	316
-23.801	-7.825	15551	16099	0	316
-16.012	-1.334	15551	16313	0	316
-11.973	3.318	15551	16455	0	316
-14.028	3.210	15551	16526	0	316
-19.582	-3.859	15690	16526	0	316
-29.174	-8.006	15551	16598	0	316
-35.341	-11.215	15551	16669	0	316
-34.547	-12.153	15551	16741	0	316
-30.364	-12.586	15551	16884	0	316
-22.286	-17.779	15551	17169	0	316
-13.415	-20.555	15551	17384	0	316
-9.016	-20.952	15551	17598	0	316
-7.104	-14.281	15551	17669	0	316
-5.373	-5.337	15551	17598	0	316
-4.075	5.662	15551	17598	0	316
-1.370	9.520	15690	17598	0	316
-2.885	7.140	15898	17669	0	316
-6.527	-0.325	15690	17669	0	316
-12.477	-6.816	15690	17741	0	316
-14.172	-6.852	15690	17741	0	316
-11.107	-4.364	15690	17812	0	316
-7.898	-1.154	15690	17741	0	316
-4.039	3.173	15898	17812	0	316
-1.334	4.652	15898	17884	0	316
-2.128	3.534	15898	18026	0	316
-4.868	2.777	15898	18098	0	316
-10.025	-2.164	15898	17955	0	316
-16.913	-6.708	15898	17812	0	316
-21.349	-11.287	15898	17669	0	316
-25.496	-13.920	15898	17455	0	316
-24.342	-14.569	15898	17241	0	316
-21.457	-16.697	15898	16955	0	316
-19.401	-15.398	16037	16884	0	316
-16.480	-14.858	16037	17026	0	316
-16.769	-14.713	16246	17098	0	316
-18.716	-16.949	16246	17169	0	316
-23.440	-17.093	16246	17098	0	316
-24.125	-15.723	16246	16955	0	316
-21.998	-10.855	16246	16884	0	316
-20.591	-4.904	16246	16884	0	316
-17.959	-4.147	16384	17098	0	316
-18.752	-5.121	16384	17526	0	316
-17.779	-6.708	16384	17812	0	316
-16.480	-5.409	16522	18026	0	316
-12.297	-0.541	16731	18312	0	316
-13.920	1.695	16731	18598	0	316
-21.385	-3.210	16870	18812	0	316
-30.941	-11.468	16870	18812	0	316
-37.829	-19.077	17078	18741	0	316
-38.478	-18.716	16870	18384	0	316
-29.823	-13.559	16870	18026	0	316
-19.510	-3.859	16870	17741	0	316
-11.684	0.649	16870	17455	0	316
-6.924	-0.108	17078	17241	0	316
-9.340	-4.111	17078	16884	0	316
-10.638	-4.724	16870	16384	0	316
-13.054	-3.210	16870	15742	0	316
-12.333	1.010	16870	15099	0	316
-12.550	3.210	16731	14456	0	316
-10.927	1.551	16731	13884	0	316
-14.641	-2.019	16522	13527	0	316
-13.884	-2.128	16522	13313	0	316
-9.556	1.118	16522	13242	0	316
-6.311	4.255	16384	13242	0	316
-4.183	3.318	16384	13313	0	316
-8.006	-3.570	16384	13527	0	316
-16.264	-11.792	16384	13813	0	316
-25.604	-17.995	16384	14099	0	316
-27.876	-18.392	16384	14599	0	316
-24.486	-16.048	16522	15384	0	316
-20.014	-12.730	16522	16099	0	316
-12.441	-12.261	16731	16455	0	316
-10.530	-16.444	16731	16812	0	316
-10.819	-17.743	16731	17026	0	316
-9.232	-20.880	16731	17169	0	316
-9.232	-19.113	16731	17241	0	316
-6.455	-18.824	16870	17312	0	316
-4.364	-16.985	16870	17241	0	316
-4.219	-20.050	16731	17026	0	316
-7.645	-20.411	16731	16598	0	316
-7.753	-21.313	16522	16313	0	316
-10.386	-22.106	16522	16027	0	316
-12.225	-22.322	16522	15813	0	316
-12.261	-25.568	16522	15599	0	316
-13.956	-27.443	16522	15456	0	316
-12.117	-26.289	16384	15456	0	316
-9.016	-24.198	16522	15742	0	316
-8.294	-23.837	16522	16242	0	316
-10.206	-26.001	16522	16669	0	316
-14.497	-31.049	16731	17026	0	316
-19.185	-35.665	16731	17241	0	316
-16.480	-34.331	16731	17312	0	316
-10.494	-29.246	16731	17241	0	316
-4.436	-24.234	16731	17098	0	316
-2.344	-23.621	16870	17169	0	316
-6.347	-25.929	16870	17241	0	316
-9.917	-30.328	16870	17241	0	316
-10.422	-29.030	16870	17169	0	316
-7.104	-26.217	16870	17169	0	316
-2.669	-21.096	16870	17169	0	316
-0.829	-20.772	17078	17169	0	316
-3.859	-24.162	17078	17241	0	316
-9.052	-26.506	17078	17169	0	316
-10.927	-26.397	17078	16812	0	316
-13.343	-22.899	16870	16313	0	316
-11.143	-18.897	16731	15742	0	316
-14.208	-21.132	16731	15170	0	316
-17.454	-26.686	16522	14670	0	316
-20.195	-29.138	16522	14456	0	316
-18.356	-28.597	16384	14313	0	316
-12.802	-23.224	16384	14313	0	316
-4.111	-16.480	16384	14384	0	316
0.216	-12.117	16384	14456	0	316
-1.839	-10.927	16384	14456	0	316
-5.842	-13.127	16246	14242	0	316
-9.412	-13.884	16246	14027	0	316
-10.674	-14.245	16037	14027	0	316
-10.206	-16.769	16037	14170	0	316
-9.268	-15.615	16037	14456	0	316
-7.537	-16.733	16037	14742	0	316
-10.169	-15.507	16246	15027	0	316
-7.465	-15.759	16246	15242	0	316
-2.849	-12.802	16246	15599	0	316
4.868	-7.789	16246	16242	0	316
8.655	-6.852	16384	16884	0	316
7.609	-10.061	16384	17455	0	316
2.272	-13.451	16384	17812	0	316
-4.147	-20.267	16522	18098	0	316
-7.645	-20.159	16522	18312	0	316
-4.147	-16.444	16522	18384	0	316
2.272	-8.691	16522	18384	0	316
6.635	-6.239	16522	18384	0	316
7.212	-7.501	16731	18384	0	316
4.436	-14.858	16522	18384	0	316
0.180	-19.942	16522	18455	0	316
-3.101	-24.017	16522	18455	0	316
-1.334	-21.601	16522	18312	0	316
1.947	-17.670	16731	18098	0	316
3.895	-16.228	16731	17884	0	316
4.652	-15.975	16731	17741	0	316
3.173	-16.084	16731	17598	1	640
0.649	-19.257	16731	17455	0	640
-2.128	-24.883	16731	17169	0	640
-7.104	-28.345	16731	16884	0	640
-11.143	-30.581	16731	16741	0	640
-13.668	-29.535	16731	16526	0	640
-12.910	-23.044	16731	16313	0	640
-8.222	-17.670	16731	16170	0	640
-4.868	-16.192	16731	16170	0	640
-2.128	-15.038	16731	16170	0	640
-1.370	-14.208	16731	16099	0	640
-3.282	-8.258	16731	16027	0	640
-4.904	-5.013	16731	16099	0	640
-4.580	-3.065	16731	16170	0	640
-3.498	-3.137	16731	16384	0	640
-2.741	-7.465	16870	16526	0	640
-0.505	-10.566	16870	16669	0	640
1.875	-10.530	16731	16741	0	640
4.147	-8.402	16870	16526	0	640
5.517	-9.376	16870	16313	0	640
4.039	-10.674	16870	15956	0	640
2.236	-13.848	16522	15742	0	640
-0.793	-17.923	16522	15456	0	640
-1.623	-18.788	16522	15170	0	640
-2.452	-20.844	16522	14884	0	640
-3.678	-23.044	16384	14884	0	640
-5.986	-30.256	16384	14956	0	640
-12.009	-38.478	16384	14956	0	640
-17.238	-44.356	16384	14742	0	640
-20.844	-47.674	16384	14599	0	640
-23.224	-45.618	16246	14670	0	640
-17.995	-41.327	16246	14884	0	640
-10.602	-33.934	16384	15313	0	640
-1.479	-30.148	16384	15884	0	640
2.452	-26.325	16384	16384	0	640
1.262	-25.856	16384	16669	0	640
-2.452	-26.614	16522	16812	0	640
-5.734	-27.047	16522	17098	0	640
-5.301	-26.578	16522	17312	0	640
-1.082	-25.207	16522	17455	0	640
2.596	-23.549	16522	17526	0	640
5.626	-20.700	16731	17526	0	640
6.058	-17.021	16731	17526	0	640
5.914	-13.127	16731	17526	0	640
8.475	-7.753	16731	17598	0	640
8.475	-7.537	16731	17669	0	640
10.710	-10.169	16870	17669	0	640
9.881	-13.054	16870	17598	0	640
6.383	-20.159	16870	17312	0	640
3.029	-19.329	16870	16955	0	640
-0.469	-20.411	16870	16741	0	640
-3.065	-18.897	16870	16598	0	640
-3.606	-20.844	16731	16455	0	640
0.072	-19.978	16731	16170	0	640
6.167	-18.933	16731	15599	0	640
11.432	-10.891	16522	15027	0	640
14.317	-5.626	16522	14599	0	640
11.900	-4.075	16522	14527	0	640
6.888	-8.475	16522	14813	0	640
1.551	-17.418	16522	15099	0	640
-0.938	-25.279	16522	15242	0	640
-1.118	-28.994	16522	15313	0	640
1.587	-22.755	16522	15456	0	640
7.429	-14.497	16522	15670	0	640
11.396	-6.022	16522	15884	0	640
11.468	-5.409	16522	15956	0	640
5.193	-14.821	16522	16027	0	640
-5.590	-27.010	16522	16170	0	640
-16.156	-35.593	16522	16313	0	640
-19.690	-34.403	16522	16384	0	640
-19.329	-28.489	16384	16384	0	640
-17.743	-24.089	16384	16313	0	640
-19.690	-22.972	16246	16313	0	640
-20.700	-28.020	16384	16313	0	640
-25.388	-31.915	16384	16242	0	640
-30.653	-35.341	16384	16170	0	640
-33.069	-37.468	16384	16242	0	640
-37.216	-38.947	16384	16242	0	640
-38.658	-38.514	16384	16099	0	640
-39.812	-36.639	16384	16027	0	640
-40.606	-34.980	16246	15956	0	640
-44.501	-37.036	16246	15884	0	640
-47.890	-41.904	16246	15742	0	640
-50.307	-48.359	16246	15742	0	640
-48.107	-54.021	16246	15742	0	640
-44.428	-52.614	16246	15813	0	640
-40.930	-50.667	16246	15884	0	640
-41.435	-47.638	16246	16170	0	640
-43.779	-46.881	16246	16455	0	640
-45.402	-46.989	16246	16669	0	640
-44.969	-46.664	16246	16669	0	640
-44.933	-46.664	16246	16598	0	640
-44.068	-46.809	16246	16598	0	640
-44.861	-47.638	16037	16526	0	640
-47.530	-48.576	16037	16384	0	640
-49.080	-50.090	16037	16313	0	640
-47.241	-48.467	16037	16384	0	640
-45.150	-48.323	16037	16455	0	640
-42.553	-48.431	16037	16526	0	640
-40.065	-45.655	16037	16526	0	640
-35.990	-46.628	16037	16526	0	640
-34.800	-47.494	16037	16669	0	640
-35.593	-48.539	16037	16669	0	640
-37.252	-53.913	16037	16526	0	640
-38.731	-56.221	16037	16384	0	640
-38.767	-57.411	15898	16170	0	640
-35.882	-53.913	15898	15956	0	640
-33.790	-50.270	15898	15742	0	640
-33.610	-44.861	15898	15742	0	640
-37.000	-44.248	15690	15884	0	640
-36.242	-45.871	15690	15813	0	640
-29.318	-44.392	15690	15884	0	640
-18.356	-38.839	15898	16099	0	640
-10.242	-34.151	16037	16242	0	640
-10.422	-27.804	15898	16170	0	640
-16.769	-29.679	15898	16242	0	640
-26.686	-36.170	15898	16384	0	640
-31.518	-40.930	15898	16384	0	640
-25.748	-41.471	15690	16170	0	640
-19.473	-40.173	15690	16099	0	640
-16.444	-34.872	15690	16099	0	640
-18.464	-32.780	15690	16027	0	640
-24.378	-31.482	15551	15884	0	640
-30.112	-32.816	15551	15884	0	640
-29.246	-35.701	15551	15956	0	640
-24.342	-36.819	15551	16099	0	640
-17.959	-36.855	15690	16313	0	640
-14.353	-34.187	15690	16384	0	640
-11.900	-30.256	15690	16526	0	640
-13.451	-27.191	15690	16669	0	640
-15.146	-27.840	15690	16955	0	640
-18.860	-30.761	15690	17312	0	640
-20.700	-35.233	15898	17526	0	640
-23.116	-39.235	15898	17598	0	640
-19.942	-38.226	15898	17598	0	640
-15.398	-33.538	15898	17741	0	640
-9.809	-27.443	15898	17884	0	640
-5.013	-22.755	15898	18026	0	640
-4.832	-20.916	16037	18169	0	640
-7.068	-24.053	16037	18384	0	640
-10.206	-28.345	16246	18669	0	640
-11.756	-29.246	16246	18955	0	640
-13.523	-30.328	16384	19169	0	640
-14.281	-31.554	16384	19241	0	640
-15.903	-32.528	16384	19169	0	640
-14.533	-31.771	16522	18884	0	640
-10.674	-28.489	16522	18455	0	640
-6.744	-21.313	16522	17884	0	640
-4.291	-16.480	16522	17526	1	592
-5.842	-15.290	16522	17384	0	592
-8.619	-18.608	16522	17169	0	592
-10.674	-18.680	16522	16598	0	592
-10.746	-17.634	16384	16099	0	592
-6.347	-14.605	16384	15527	0	592
-4.327	-11.179	16384	15027	0	592
-0.577	-10.278	16246	14670	0	592
3.967	-11.828	16246	14313	0	592
8.114	-10.494	16037	14027	0	592
7.934	-12.297	16037	13884	0	592
6.239	-14.136	16037	13884	0	592
2.596	-17.706	16037	14027	0	592
0.577	-15.615	16037	14242	0	592
-0.072	-15.290	16037	14527	0	592
5.301	-9.881	16037	14742	0	592
9.773	-5.986	16246	15027	0	592
13.848	-1.911	16246	15242	0	592
17.598	0.144	16246	15527	0	592
21.601	2.236	16246	15742	0	592
22.935	1.911	16246	15884	0	592
23.152	1.515	16246	16099	0	592
22.286	-2.272	16246	16384	0	592
20.159	-3.967	16384	16526	0	592
19.690	-6.167	16246	16669	0	592
22.106	-6.996	16246	16812	0	592
23.332	-6.527	16246	16741	0	592
24.739	-5.986	16246	16598	0	592
24.017	-4.291	16246	16384	0	592
22.034	-5.554	16246	16170	0	592
21.421	-7.681	16037	15956	0	592
21.745	-10.710	16037	15742	0	592
22.250	-11.251	16037	15670	0	592
23.080	-14.136	16037	15456	0	592
19.798	-14.677	15898	15313	0	592
17.310	-13.559	15898	15242	0	592
12.766	-15.290	15898	15384	0	592
12.441	-12.189	15898	15527	0	592
12.477	-11.937	15690	15456	0	592
17.562	-11.071	15690	15313	0	592
19.618	-10.206	15690	15242	0	592
19.185	-12.874	15690	15384	0	592
14.966	-13.415	15690	15670	0	592
10.314	-10.602	15690	16170	0	592
8.150	-8.475	15898	16669	0	592
11.215	-2.669	15898	16955	0	592
17.526	4.796	15898	17098	0	592
22.358	5.734	15898	17169	0	592
20.231	1.731	15898	17026	0	592
12.261	-9.412	15898	16884	0	592
4.868	-16.480	15898	16884	0	592
2.128	-18.067	15898	16955	0	592
6.888	-14.533	15898	17098	0	592
10.963	-7.285	15898	17098	0	592
6.239	-9.160	15898	16884	0	592
-4.940	-19.798	15898	16598	0	592
-15.651	-28.453	15690	16384	0	592
-19.329	-30.436	15690	16027	0	592
-10.278	-20.952	15551	15742	0	592
-0.649	-8.727	15551	15599	0	592
2.380	0.793	15551	15527	0	592
-3.931	-0.433	15690	15599	0	592
-15.867	-7.970	15898	15813	0	592
-27.443	-17.057	15690	16099	0	592
-33.033	-21.854	15690	16384	0	592
-32.889	-20.591	15690	16669	0	592
-28.092	-16.336	15690	16812	0	592
-21.385	-9.304	15690	16955	0	592
-17.779	-6.311	15690	17169	0	592
-17.274	-8.078	15898	17384	0	592
-20.627	-11.973	15898	17669	0	592
-25.027	-14.785	15898	18026	0	592
-24.883	-16.300	16037	18526	0	592
-25.820	-14.389	16037	18884	0	592
-25.712	-10.206	16246	19169	0	592
-26.830	-12.405	16246	19169	0	592
-29.968	-16.228	16384	19169	0	592
-35.160	-25.352	16384	19169	0	592
-38.695	-31.518	16384	19098	0	592
-39.957	-34.223	16522	19026	0	592
-38.767	-30.292	16522	18812	0	592
-30.328	-21.565	16522	18526	0	592
-20.339	-12.369	16522	18169	1	328
-17.129	-10.386	16522	17741	0	328
-19.726	-12.658	16522	17169	0	328
-28.705	-19.870	16522	16812	0	328
-31.194	-24.306	16522	16455	0	328
-28.381	-24.486	16522	16242	0	328
-19.906	-22.539	16522	15956	0	328
-16.480	-21.204	16522	15813	0	328
-18.933	-25.135	16522	15670	0	328
-26.253	-30.905	16522	15456	0	328
-27.984	-31.446	16384	15242	0	328
-21.349	-25.929	16384	15099	0	328
-15.182	-19.618	16384	15027	0	328
-10.494	-14.172	16384	15099	0	328
-15.435	-18.247	16384	15027	0	328
-21.745	-23.152	16384	15027	0	328
-25.496	-26.470	16384	15027	0	328
-26.181	-25.243	16384	14956	0	328
-22.503	-20.916	16384	15027	0	328
-22.827	-13.848	16384	15242	0	328
-23.368	-10.999	16384	15313	0	328
-23.188	-9.953	16384	15313	0	328
-23.008	-8.835	16384	15313	0	328
-18.247	-10.638	16384	15242	0	328
-17.310	-13.451	16246	15242	0	328
-15.579	-14.064	16246	15099	0	328
-17.202	-13.127	16246	14956	0	328
-15.615	-10.927	16037	14742	0	328
-13.631	-5.770	16037	14670	0	328
-10.819	-4.183	16037	14813	0	328
-9.088	-5.590	16037	15099	0	328
-9.989	-11.468	16037	15313	0	328
-12.189	-15.543	16037	15527	0	328
-10.710	-14.641	16037	15742	0	328
-10.242	-12.946	16037	15884	0	328
-8.294	-7.537	16037	16027	0	328
-8.439	-6.563	16246	16313	0	328
-11.684	-9.304	16246	16598	0	328
-16.516	-11.937	16246	16741	0	328
-18.247	-15.038	16246	16955	0	328
-18.933	-17.166	16384	17169	0	328
-16.805	-15.002	16384	17384	0	328
-16.228	-13.595	16384	17669	0	328
-14.641	-8.330	16522	18098	0	328
-15.074	-4.364	16522	18741	0	328
-13.379	-3.029	16731	19241	0	328
-10.206	-2.669	16731	19455	0	328
-7.429	-2.705	16731	19455	0	328
-8.511	-4.111	16731	19455	0	328
-13.163	-5.950	16870	19384	0	328
-23.116	-12.550	16870	19241	0	328
-27.804	-18.969	16870	18955	0	328
-28.092	-23.512	16870	18669	0	328
-24.125	-20.375	17078	18312	0	328
-18.788	-16.300	17078	18026	0	328
-15.362	-9.340	17078	17741	0	328
-16.120	-9.052	17078	17312	0	328
-16.733	-11.937	17078	16955	0	328
-14.353	-11.287	17078	16669	0	328
-11.937	-12.369	17078	16455	0	328
-10.566	-7.970	16870	16170	0	328
-11.179	-6.131	17078	15813	0	328
-15.002	-9.052	16870	15384	0	328
-19.473	-15.002	16870	15027	0	328
-22.719	-21.781	16731	14742	0	328
-20.772	-23.837	16731	14599	0	328
-17.706	-17.490	16731	14456	0	328
-9.268	-9.304	16731	14384	0	328
-7.321	-0.685	16522	14384	0	328
-9.989	-0.144	16522	14384	0	328
-17.021	-7.970	16522	14313	0	328
-29.895	-17.166	16522	14313	0	328
-40.786	-27.551	16522	14313	0	328
-47.566	-33.069	16384	14313	0	328
-49.008	-34.728	16384	14242	0	328
-46.412	-34.800	16384	14313	0	328
-41.471	-32.636	16384	14527	0	328
-33.357	-28.705	16384	14884	0	328
-28.020	-23.440	16384	15456	0	328
-20.988	-18.392	16522	16099	1	316
-12.946	-11.179	16522	16526	0	316
-7.068	-6.816	16522	16741	0	316
-2.813	-4.039	16522	16812	0	316
-1.839	-0.144	16522	16955	0	316
-1.839	1.803	16731	17098	0	316
-4.544	2.019	16731	17241	0	316
-6.527	-2.128	16731	17384	0	316
-8.511	-7.934	16731	17312	0	316
-12.009	-12.009	16731	17241	0	316
-13.595	-16.156	16731	17241	0	316
-14.172	-13.379	16731	17312	0	316
-16.048	-10.350	16731	17241	0	316
-15.507	-12.153	16731	17169	0	316
-19.077	-16.084	16870	17169	0	316
-19.473	-18.752	16870	17384	0	316
-22.935	-22.142	16870	17598	0	316
-24.594	-23.296	17078	17669	0	316
-26.974	-21.745	17078	17669	0	316
-28.814	-21.890	17078	17669	0	316
-25.352	-17.238	16870	17669	0	316
-16.480	-11.468	17078	17669	0	316
-8.186	-2.019	17078	17598	0	316
-3.282	2.993	17078	17598	0	316
-5.662	1.587	17078	17526	0	316
-10.061	-2.705	17078	17384	0	316
-15.651	-6.852	17217	17241	0	316
-12.838	-6.167	17217	16955	0	316
-6.022	-4.327	17217	16669	0	316
-1.010	-2.524	17217	16384	0	316
0.325	-5.517	17078	16170	0	316
-0.072	-10.746	16870	15884	0	316
-4.977	-11.864	17078	15527	0	316
-6.816	-9.376	17078	15313	0	316
-7.357	-3.750	16870	14956	0	316
-5.157	0.577	16731	14599	0	316
-6.671	0.757	16731	14313	0	316
-8.979	-3.137	16522	14099	0	316
-12.730	-8.186	16522	13884	0	316
-15.218	-9.556	16522	13742	0	316
-14.785	-11.107	16384	13670	0	316
-13.054	-9.124	16384	13884	0	316
-11.179	-5.950	16384	14099	0	316
-13.307	-5.445	16384	14313	0	316
-15.579	-3.750	16384	14384	0	316
-14.245	-4.977	16246	14384	0	316
-13.812	-7.032	16246	14456	0	316
-8.799	-10.133	16246	14599	0	316
-7.032	-10.783	16246	14742	0	316
-7.501	-7.789	16037	14884	0	316
-10.638	-6.383	16037	14956	0	316
-11.323	-5.301	16037	15170	0	316
-15.146	-9.052	16037	15313	0	316
-14.641	-12.766	16037	15456	0	316
-12.910	-17.202	16037	15527	0	316
-13.379	-13.776	16037	15599	0	316
-11.612	-11.720	16037	15670	0	316
-10.242	-11.035	16246	15813	0	316
-11.504	-11.179	16037	16027	0	316
-10.494	-14.641	16037	16313	0	316
-7.717	-14.821	16037	16598	0	316
-7.537	-11.540	16037	16955	0	316
-7.357	-10.386	16037	17312	0	316
-11.179	-11.360	16037	17598	0	316
-12.333	-13.054	16246	17884	0	316
-14.858	-14.605	16246	18384	0	316
-13.163	-9.809	16384	19098	0	316
-6.383	-3.823	16384	19669	0	316
-2.705	3.787	16522	20098	0	316
2.308	7.573	16731	20455	0	316
6.744	6.203	16731	20598	0	316
5.301	2.705	16870	20455	0	316
-0.541	-5.049	16870	20312	0	316
-8.222	-14.353	16870	20241	0	316
-13.163	-16.949	17078	19955	0	316
-9.232	-14.713	17078	19384	0	316
1.731	-2.452	16870	18812	0	316
10.891	8.835	16870	18312	0	316
10.783	12.477	16870	17812	0	316
2.921	8.078	16870	17241	1	316
-6.131	1.587	16870	16669	0	316
-10.133	-0.865	16870	16384	0	316
-5.013	4.219	16870	16099	0	316
1.983	12.045	16870	15956	0	316
6.527	15.795	16870	15884	0	316
8.475	17.310	16870	15956	0	316
10.061	13.487	16870	16099	0	316
11.612	9.448	16870	16170	0	316
9.665	7.465	17078	16099	0	316
9.701	5.265	17078	15956	0	316
8.943	8.294	17078	15956	0	316
9.665	13.595	17078	15956	0	316
11.287	20.483	17078	15956	0	316
13.884	19.041	17078	16099	0	316
12.766	14.461	17078	16384	0	316
8.979	6.599	17078	16669	0	316
6.888	2.669	17217	16955	0	316
4.616	2.019	17217	17169	0	316
2.957	2.885	17425	17384	0	316
1.623	5.517	17425	17455	0	316
2.885	7.825	17425	17455	0	316
5.698	11.612	17564	17384	0	316
9.484	15.831	17425	17169	0	316
13.487	20.267	17564	16884	0	316
12.153	15.615	17425	16455	0	316
7.609	10.674	17217	15956	0	316
1.551	7.825	17217	15384	0	316
-0.505	8.943	17217	15027	0	316
0.649	10.891	17217	14813	0	316
4.147	14.389	17217	14599	0	316
2.560	9.340	17078	14242	0	316
-1.695	2.993	17078	13956	0	316
-8.366	-4.400	16870	13670	0	316
-14.389	-7.970	16870	13384	0	316
-12.874	-7.825	16870	13242	0	316
-7.898	-5.373	16731	13384	0	316
-2.092	-5.373	16731	13670	0	316
-0.325	-6.888	16731	13884	0	316
-2.164	-11.684	16731	14027	0	316
-6.419	-14.677	16522	14170	0	316
-10.314	-14.497	16384	14099	0	316
-13.199	-14.425	16384	13956	0	316
-20.050	-14.353	16384	13884	0	316
-25.676	-20.988	16246	14027	0	316
-31.879	-27.840	16246	14313	0	316
-32.239	-32.276	16246	14742	0	316
-27.984	-31.771	16384	15242	0	316
-24.666	-24.847	16384	15599	0	316
-23.440	-20.123	16384	15884	0	316
-28.597	-20.736	16384	15956	0	316
-36.314	-26.758	16384	16027	0	316
-41.580	-33.249	16384	16027	0	316
-42.301	-35.269	16246	16170	0	316
-37.937	-29.102	16246	16170	0	316
-30.581	-18.969	16246	16170	0	316
-25.532	-14.136	16246	16170	0	316
-27.443	-14.858	16037	16170	0	316
-29.895	-21.998	16037	16170	0	316
-31.771	-25.748	16037	16242	0	316
-26.506	-24.198	16037	16384	0	316
-18.428	-17.706	16037	16598	0	316
-12.982	-14.533	16037	16812	0	316
-13.343	-14.785	16037	16955	0	316
-16.084	-18.031	16037	17169	0	316
-21.998	-17.238	16037	17455	0	316
-25.135	-15.146	16037	17598	0	316
-26.722	-9.665	16037	17669	0	316
-28.417	-8.907	16037	17669	0	316
-28.381	-9.773	16037	17741	0	316
-27.371	-11.360	16246	17812	0	316
-25.352	-11.864	16037	17741	0	316
-27.840	-13.668	16246	17669	0	316
-32.961	-14.136	16246	17669	0	316
-37.180	-18.752	16246	17669	0	316
-38.803	-18.500	16246	17598	0	316
-35.088	-17.418	16037	17312	0	316
-29.968	-12.802	16037	17026	0	316
-27.407	-10.458	16037	16812	0	316
-25.965	-10.530	16037	16669	0	316
-26.866	-12.117	16037	16526	0	316
-27.047	-13.235	16037	16455	0	316
-26.325	-12.297	16037	16598	0	316
-26.145	-8.547	16037	16741	0	316
-27.624	-7.104	16037	16884	0	316
-29.715	-7.681	16037	16955	0	316
-34.511	-9.592	16037	17026	0	316
-36.891	-9.304	16384	17098	0	316
-38.586	-7.176	16384	17169	0	316
-38.118	-4.472	16384	17241	0	316
-36.855	-2.813	16384	17455	0	316
-36.026	-3.534	16522	17741	0	316
-32.023	-3.823	16522	17955	0	316
-25.135	-0.649	16384	18026	0	316
-18.283	2.380	16384	18098	0	316
-14.821	1.479	16522	17955	0	316
-24.919	-7.068	16522	17741	0	316
-35.954	-16.192	16522	17598	0	316
-44.176	-21.493	16522	17669	0	316
-38.190	-14.713	16522	17741	0	316
-24.811	-5.193	16731	17526	0	316
-13.812	0.361	16731	17241	0	316
-15.543	-3.678	16731	16884	0	316
-22.972	-14.353	16522	16598	0	316
-29.102	-15.975	16522	16384	0	316
-24.666	-9.232	16522	15956	0	316
-11.756	3.534	16522	15456	0	316
-5.554	10.314	16384	14956	0	316
-9.881	4.039	16384	14599	0	316
-19.834	-6.491	16384	14242	0	316
-26.289	-13.559	16246	14027	0	316
-22.034	-6.852	16246	14099	0	316
-9.773	8.727	16246	14384	0	316
-0.433	18.175	16246	14670	0	316
0.288	19.726	16246	14956	0	316
-5.193	9.556	16246	15456	0	316
-11.828	-1.623	16384	15884	0	316
-10.242	-3.859	16384	16170	0	316
-2.885	2.560	16384	16313	0	316
2.885	11.071	16384	16313	0	316
2.128	14.930	16384	16384	0	316
-3.390	11.323	16384	16526	0	316
-9.953	5.590	16384	16526	0	316
-15.471	1.839	16384	16526	0	316
-11.035	3.678	16384	16384	0	316
-5.013	10.278	16384	16313	0	316
-0.216	14.966	16384	16099	0	316
3.426	21.168	16246	15884	0	316
6.960	20.880	16246	15527	0	316
6.419	19.618	16246	15099	0	316
4.111	13.127	16037	14742	0	316
-1.298	8.078	15898	14384	0	316
-5.626	3.606	15898	14027	0	316
-8.907	4.003	15898	13670	0	316
-6.022	8.114	15898	13384	0	316
-1.875	12.730	15690	13099	0	316
4.039	17.743	15551	12956	0	316
5.229	19.510	15343	12884	0	316
6.131	23.873	15343	13027	0	316
7.176	28.381	15204	13456	0	316
9.268	32.095	15204	14027	0	316
10.530	33.069	15204	14670	0	316
8.402	27.912	15204	15313	0	316
2.813	22.395	15343	15813	0	316
-0.757	15.831	15551	16455	0	316
-0.216	19.365	15551	17169	0	316
5.049	28.705	15551	17741	0	316
10.783	36.098	15690	18241	0	316
14.208	37.829	15690	18741	0	316
13.199	35.954	15690	19169	0	316
11.648	31.662	15898	19455	0	316
12.297	27.624	15898	19598	0	316
12.369	30.617	15898	19598	0	316
11.035	32.600	15898	19526	0	316
8.186	31.590	15898	19455	0	316
4.219	29.318	16037	19241	0	316
1.154	25.099	16037	18955	0	316
0.902	20.772	16037	18741	1	628
4.940	20.736	16037	18526	0	628
7.068	22.575	16037	18241	0	628
7.321	24.522	16246	17955	0	628
2.200	23.512	16246	17669	0	628
-4.760	17.562	16037	17312	0	628
-14.064	7.501	16037	16955	0	628
-17.274	-0.325	16246	16669	0	628
-16.769	-5.301	16037	16598	0	628
-14.569	-2.849	16037	16598	0	628
-7.032	2.488	16037	16526	0	628
0.180	10.530	16037	16526	0	628
4.688	15.723	16037	16455	0	628
3.895	16.264	16037	16384	0	628
-2.813	10.891	16037	16242	0	628
-10.169	8.475	16037	16027	0	628
-14.749	10.819	16037	15813	0	628
-12.838	13.235	15898	15527	0	628
-5.626	17.851	15898	15242	0	628
-1.875	16.589	15898	15170	0	628
0.072	11.323	15898	15313	0	628
-3.426	8.979	15898	15384	0	628
-4.832	10.494	15898	15527	0	628
-9.340	15.074	15898	15670	0	628
-9.412	18.103	15898	15813	0	628
-9.196	14.100	15898	15884	0	628
-8.186	11.179	15898	15956	0	628
-7.357	6.924	15898	16099	0	628
-6.996	6.708	16037	16313	0	628
-8.511	8.655	16037	16526	0	628
-11.648	12.946	16037	16884	0	628
-14.497	13.595	16246	17169	0	628
-14.425	11.576	16246	17455	0	628
-14.497	10.206	16246	17669	0	628
-12.550	7.681	16246	17812	0	628
-10.422	5.590	16246	17741	0	628
-8.871	5.373	16384	17741	0	628
-6.563	3.931	16384	17884	0	628
-5.626	1.226	16384	17884	0	628
-7.068	-1.623	16384	17812	0	628
-8.619	-1.839	16522	17812	0	628
-10.710	0.902	16522	17955	0	628
-10.783	10.746	16522	18169	0	628
-8.330	16.697	16731	18098	0	628
-10.097	18.969	16731	18026	0	628
-15.507	17.129	16731	18026	0	628
-21.024	7.645	16870	17884	0	628
-29.210	0.938	16870	17669	0	628
-30.436	-1.442	16731	17455	0	628
-26.830	0.144	16731	17169	0	628
-20.195	3.750	16731	16812	0	628
-15.723	9.592	16731	16384	0	628
-12.297	14.930	16731	16027	0	628
-13.343	17.670	16522	15742	0	628
-13.920	18.969	16522	15527	0	628
-12.369	15.290	16522	15384	0	628
-8.114	12.477	16522	15313	0	628
-3.282	9.917	16522	15313	0	628
2.669	9.737	16522	15242	0	628
5.157	15.471	16522	15027	0	628
8.871	17.598	16522	14813	0	628
10.097	21.493	16522	14670	0	628
10.458	20.123	16522	14813	0	628
8.691	18.428	16522	14884	0	628
5.554	12.586	16384	14813	0	628
-1.010	7.862	16384	14670	0	628
-6.635	3.065	16384	14742	0	628
-11.900	-0.577	16384	14813	0	628
-13.054	-0.216	16384	14884	0	628
-12.441	2.236	16384	14884	0	628
-11.576	4.868	16246	14956	0	628
-9.845	3.354	16246	15170	0	628
-14.353	-1.118	16384	15456	0	628
-18.428	-7.862	16384	15884	0	628
-24.089	-12.910	16384	16384	0	628
-28.201	-12.333	16522	16884	0	628
-29.246	-6.888	16522	17026	0	628
-25.568	1.551	16522	16955	0	628
-16.120	8.547	16522	16812	0	628
-7.970	13.523	16522	16741	0	628
-2.560	13.740	16522	16741	0	628
-4.940	10.386	16384	16598	0	628
-10.530	11.071	16384	16455	0	628
-16.985	13.091	16384	16384	0	628
-15.398	16.444	16384	16313	0	628
-12.009	21.241	16384	16099	0	628
-8.006	19.113	16246	15742	0	628
-8.042	14.749	16246	15456	0	628
-10.855	8.366	16246	15456	0	628
-16.841	2.560	16246	15813	0	628
-18.860	-4.688	16384	16313	0	628
-22.467	-7.537	16384	16884	0	628
-22.070	-7.573	16384	17384	0	628
-16.769	1.010	16522	17598	0	628
-10.458	12.622	16522	17812	0	628
-4.219	19.582	16522	18026	0	628
-7.176	17.959	16731	18312	0	628
-12.189	7.573	16731	18384	0	628
-16.336	-0.361	16731	18241	0	628
-10.566	-0.721	16731	17884	0	628
3.787	9.376	16731	17384	0	628
12.874	18.752	16731	16812	0	628
12.477	22.106	16522	16384	0	628
0.613	15.831	16522	16170	0	628
-10.278	11.287	16522	15956	0	628
-16.336	9.340	16522	15742	0	628
-12.838	11.396	16522	15599	0	628
-9.268	14.028	16522	15599	0	628
-11.396	15.759	16522	15742	0	628
-13.776	11.828	16522	16027	0	628
-18.464	11.504	16522	16170	0	628
-17.021	10.314	16522	16170	0	628
-14.713	7.681	16522	16242	0	628
-15.543	4.724	16522	16384	0	628
-15.939	1.623	16384	16313	0	628
-21.349	-0.397	16522	16313	0	628
-24.125	-2.164	16522	16242	0	628
-26.253	-6.455	16522	16242	0	628
-26.253	-10.927	16522	16170	0	628
-23.837	-10.097	16522	16242	0	628
-15.254	-3.570	16731	16455	0	628
-5.373	8.402	16731	16812	0	628
3.498	18.897	16522	16955	0	628
4.868	17.923	16522	16741	0	628
-1.010	13.776	16522	16384	0	628
-9.881	5.337	16522	16170	0	628
-15.939	3.931	16384	15956	0	628
-10.999	10.638	16384	15670	0	628
-5.013	17.490	16384	15242	0	628
0.613	19.005	16246	14813	0	628
-1.118	14.641	16246	14599	0	628
-10.710	6.816	16037	14313	0	628
-18.500	1.587	16037	14170	0	628
-23.981	2.741	16246	14170	0	628
-18.788	11.287	16246	14456	0	628
-14.894	16.516	16246	14813	0	628
-9.448	17.706	16246	15242	0	628
-10.061	17.129	16246	15527	0	628
-12.874	16.084	16246	15813	0	628
-12.550	16.264	16246	15956	0	628
-11.756	18.031	16384	16170	0	628
-9.088	21.060	16246	16384	0	628
-4.580	20.772	16246	16598	0	628
-2.452	23.440	16246	16812	0	628
1.154	26.506	16246	16955	0	628
4.508	29.571	16246	17241	0	628
7.934	28.597	16246	17526	0	628
7.681	26.614	16246	17598	0	628
5.409	24.234	16384	17598	0	628
0.685	22.467	16384	17669	0	628
-2.741	19.293	16384	17812	0	628
-6.347	18.788	16384	17955	0	628
-8.835	14.136	16384	18169	0	628
-9.232	13.307	16522	18312	0	628
-8.583	11.576	16522	18455	0	628
-6.455	10.350	16522	18526	0	628
-6.780	7.789	16731	18384	0	628
-8.078	3.678	16731	18169	0	628
-11.684	0.469	16522	17884	0	628
-18.788	-1.587	16731	17598	0	628
-19.221	-2.236	16731	17241	1	640
-18.356	1.046	16731	16884	0	640
-12.333	6.203	16522	16598	0	640
-5.121	13.668	16384	16455	0	640
-2.272	17.129	16384	16384	0	640
-4.039	18.067	16522	16384	0	640
-9.845	10.855	16522	16384	0	640
-14.677	8.150	16522	16384	0	640
-15.831	8.006	16522	16384	0	640
-10.566	12.550	16522	16384	0	640
-4.832	20.591	16522	16598	0	640
-2.452	21.637	16731	16812	0	640
-2.344	22.142	16731	16741	0	640
-3.029	18.356	16731	16598	0	640
-6.239	18.716	16731	16526	0	640
-7.717	20.303	16731	16384	0	640
-7.285	21.168	16731	16027	0	640
-3.462	24.162	16522	15670	0	640
-1.082	23.404	16522	15384	0	640
0.325	20.303	16522	15099	0	640
-5.734	15.218	16522	14884	0	640
-16.264	9.701	16384	14884	0	640
-23.188	8.979	16384	14884	0	640
-19.437	13.343	16384	14813	0	640
-5.157	25.568	16384	14813	0	640
11.071	33.574	16384	14884	0	640
19.257	36.206	16384	15170	0	640
20.087	34.656	16384	15670	0	640
11.432	31.662	16384	16099	0	640
2.813	30.545	16522	16455	0	640
-2.019	30.725	16522	16812	0	640
-2.092	30.689	16522	17026	0	640
2.164	27.696	16522	17098	0	640
8.078	26.686	16731	17169	0	640
14.064	27.587	16731	17241	0	640
16.913	32.095	16731	17312	0	640
21.529	36.423	16731	17312	0	640
20.483	35.449	16731	17241	0	640
18.356	31.699	16731	17241	0	640
11.504	24.522	16870	17384	0	640
2.272	19.113	16870	17455	0	640
-5.914	16.120	16870	17455	0	640
-12.369	16.949	16870	17312	0	640
-17.418	12.297	16870	17026	0	640
-17.670	8.979	16870	16598	0	640
-17.310	4.364	16731	16170	0	640
-9.556	6.347	16522	15599	0	640
-2.993	12.189	16522	15170	0	640
3.642	19.762	16384	14742	0	640
4.255	20.014	16384	14313	0	640
0.577	17.995	16246	13956	0	640
-5.770	11.720	16246	13742	0	640
-12.009	11.756	16037	13742	0	640
-16.372	14.100	16246	13813	0	640
-18.067	16.192	16246	13813	0	640
-19.113	11.973	16037	13813	0	640
-21.673	-0.072	16037	14099	0	640
-28.453	-12.766	16037	14599	0	640
-36.423	-18.464	16037	15242	0	640
-37.901	-19.870	16246	15813	0	640
-31.915	-11.071	16246	16384	0	640
-21.132	-3.931	16246	16884	0	640
-8.330	1.875	16384	17312	0	640
-4.724	5.698	16384	17669	0	640
-5.734	10.314	16384	17955	0	640
-9.232	13.487	16384	17955	0	640
-10.674	12.441	16384	17884	0	640
-12.297	8.547	16384	17884	0	640
-14.100	1.406	16522	17955	0	640
-14.749	-5.878	16522	17955	0	640
-17.526	-6.888	16522	17955	0	640
-13.379	-4.868	16522	18026	0	640
-6.744	-0.288	16522	17884	0	640
2.200	5.229	16522	17669	0	640
7.573	9.953	16522	17384	0	640
10.350	15.867	16522	17098	0	640
9.520	18.356	16522	16812	0	640
1.695	17.346	16522	16526	0	640
-5.337	9.124	16522	16384	0	640
-11.648	0.144	16384	16242	0	640
-13.992	-5.265	16384	16099	0	640
-10.855	-0.541	16384	15884	0	640
-4.183	8.979	16384	15742	0	640
0.685	19.726	16384	15527	0	640
2.019	22.322	16246	15456	0	640
-0.397	19.834	16246	15527	0	640
-5.157	12.081	16246	15742	0	640
-9.304	7.825	16246	15884	0	640
-10.097	9.124	16384	16027	0	640
-3.606	12.838	16384	16099	0	640
4.616	18.824	16384	16242	0	640
7.285	18.536	16384	16384	0	640
2.164	11.756	16384	16455	0	640
-11.215	1.262	16384	16384	0	640
-20.808	-8.006	16246	16242	0	640
-23.801	-9.845	16246	15956	0	640
-16.372	-8.402	16246	15742	0	640
-12.009	-4.075	16246	15599	0	640
-11.828	-2.849	16037	15527	0	640
-16.661	-1.947	16037	15456	0	640
-21.998	-1.010	16037	15384	0	640
-20.916	1.190	16037	15384	0	640
-18.211	3.570	16037	15456	0	640
-13.884	3.173	16037	15527	0	640
-16.516	2.560	15898	15670	0	640
-18.500	2.633	15898	15742	0	640
-21.709	3.931	15898	15742	0	640
-22.467	5.914	15898	15670	0	640
-20.231	4.219	15898	15670	0	640
-19.618	3.895	15690	15599	0	640
-18.139	1.947	15690	15599	0	640
-18.644	2.056	15690	15670	0	640
-15.831	5.409	15690	15884	0	640
-13.595	5.409	15690	16170	0	640
-11.576	4.111	15898	16526	0	640
-10.999	0.325	15898	17026	0	640
-11.432	-3.714	16246	17312	0	640
-9.989	-4.147	16037	17598	0	640
-6.924	-0.577	16037	17884	0	640
-2.993	3.606	16246	18241	0	640
-1.046	6.275	16246	18526	0	640
-2.669	2.633	16246	18741	0	640
-8.871	-5.013	16384	18741	0	640
-14.569	-12.369	16384	18526	0	640
-17.274	-16.120	16384	18098	0	640
-20.339	-17.959	16246	17669	0	640
-18.392	-14.317	16246	17241	0	640
-18.103	-12.009	16246	16741	1	508
-17.490	-7.753	16246	16384	0	508
-15.831	-1.587	16037	16170	0	508
-9.520	3.246	16037	16027	0	508
-5.842	4.039	16037	16027	0	508
-5.121	0.938	16037	16027	0	508
-10.242	-4.436	16037	16027	0	508
-17.562	-9.448	16037	15956	0	508
-27.010	-12.694	16037	15813	0	508
-28.958	-13.018	16037	15670	0	508
-25.424	-8.763	15898	15527	0	508
-12.477	-1.983	15898	15527	0	508
-3.354	6.635	15898	15742	0	508
2.705	12.009	16037	16170	0	508
-2.056	8.475	16037	16526	0	508
-14.930	-1.947	16246	17098	0	508
-26.650	-13.415	16246	17598	0	508
-31.879	-17.346	16246	17955	0	508
-26.866	-12.586	16384	18098	0	508
-17.274	-0.144	16384	18169	0	508
-11.828	10.386	16384	18312	0	508
-10.350	13.848	16522	18384	0	508
-18.788	5.013	16522	18598	0	508
-25.712	-8.979	16731	18669	0	508
-31.915	-19.798	16731	18526	0	508
-30.364	-23.404	16731	18241	0	508
-25.027	-17.995	16731	17812	0	508
-19.077	-9.412	16731	17384	0	508
-18.716	-3.101	16731	17026	0	508
-20.772	-5.085	16731	16812	0	508
-26.866	-9.340	16731	16669	0	508
-29.463	-14.821	16731	16598	0	508
-27.443	-13.127	16731	16455	0	508
-20.014	-8.691	16731	16384	0	508
-13.487	-1.010	16731	16242	0	508
-10.458	0.288	16870	16099	0	508
-20.519	-6.635	16870	16099	0	508
-29.391	-15.435	16870	16384	0	508
-38.370	-21.781	17078	16812	0	508
-39.560	-17.021	17078	17098	0	508
-35.305	-8.799	17078	17312	0	508
-28.381	0.865	17217	17669	0	508
-26.253	5.265	17217	17812	0	508
-25.207	3.534	17217	17598	0	508
-22.863	2.344	17217	17241	0	508
-17.887	2.344	17217	16884	0	508
-13.668	5.013	17217	16384	0	508
-11.973	4.219	17217	16099	0	508
-11.756	-0.288	17217	15813	0	508
-14.064	-5.517	17217	15670	0	508
-15.398	-8.619	17217	15527	0	508
-12.838	-7.248	17217	15313	0	508
-14.713	-3.065	17078	14956	0	508
-15.398	0.180	17078	14599	0	508
-17.995	2.236	16870	14242	0	508
-16.769	2.741	16731	13956	0	508
-16.048	3.210	16731	13813	0	508
-14.821	1.082	16731	13742	0	508
-17.959	-4.868	16731	13742	0	508
-20.772	-10.278	16522	13884	0	508
-23.729	-8.439	16522	14027	0	508
-20.050	-2.164	16522	14242	0	508
-15.038	7.429	16522	14456	0	508
-9.629	11.360	16522	14742	0	508
-9.989	7.970	16522	14956	0	508
-15.579	0.252	16522	15242	0	508
-20.159	-6.491	16522	15456	0	508
-25.316	-7.140	16522	15599	0	508
-23.368	-2.524	16522	15670	0	508
-16.913	2.777	16522	15742	0	508
-11.360	4.616	16522	15813	0	508
-9.701	1.262	16522	15956	0	508
-9.484	-3.823	16522	16242	0	508
-14.641	-7.645	16522	16384	0	508
-19.798	-4.508	16522	16598	0	508
-23.945	0.108	16522	16741	0	508
-25.279	4.111	16522	16812	0	508
-23.621	5.085	16522	16884	0	508
-20.844	4.075	16522	16955	0	508
-17.851	0.288	16522	16812	0	508
-21.457	-2.741	16522	16526	0	508
-24.486	-5.842	16522	16313	0	508
-25.207	-4.940	16384	16027	0	508
-23.404	-2.164	16384	15884	0	508
-17.923	3.137	16384	15742	0	508
-15.903	6.491	16384	15599	0	508
-12.838	4.904	16384	15742	0	508
-14.425	3.390	16384	15884	0	508
-13.668	2.380	16384	16099	0	508
-17.274	1.479	16246	16242	0	508
-18.644	1.370	16246	16242	0	508
-19.293	0.036	16246	16242	0	508
-15.723	-0.974	16246	16099	0	508
-15.182	-3.029	16246	15884	0	508
-13.307	-5.085	16037	15599	0	508
-15.579	-7.537	16037	15599	0	508
-19.149	-6.275	16037	15599	0	508
-16.769	-3.823	15898	15456	0	508
-15.146	-0.757	15898	15384	0	508
-13.740	-0.144	15898	15384	0	508
-16.697	-3.101	15898	15456	0	508
-15.759	-3.750	15690	15456	0	508
-14.930	-1.046	15690	15456	0	508
-11.792	3.246	15690	15527	0	508
-10.206	5.662	15690	15599	0	508
-15.975	1.983	15690	15670	0	508
-21.854	-4.616	15690	15670	0	508
-26.938	-6.275	15690	15670	0	508
-26.181	-4.904	15551	15742	0	508
-17.815	1.154	15551	15670	0	508
-11.323	4.364	15551	15527	0	508
-7.140	4.255	15343	15527	0	508
-5.698	0.108	15343	15884	0	508
-7.717	-2.885	15343	16384	0	508
-10.710	-5.013	15551	16669	0	508
-16.985	-3.967	15551	17026	0	508
-20.700	-2.452	15690	17669	0	508
-21.457	-1.154	15898	18384	0	508
-18.247	0.721	16037	18884	0	508
-14.713	1.731	16037	19312	0	508
-10.674	1.442	16037	19884	0	508
-14.930	-0.108	16246	20455	0	508
-16.877	-1.839	16384	20812	0	508
-17.093	0.036	16522	21098	0	508
-12.982	2.993	16522	21241	0	508
-8.799	6.635	16731	21241	0	508
-6.563	7.825	16731	20955	0	508
-9.340	5.373	16731	20384	0	508
-12.874	2.452	16870	19812	0	508
-18.860	0.108	16870	19312	0	508
-18.428	1.154	16870	18741	1	520
-15.398	3.787	16731	18098	0	520
-9.016	5.950	16731	17455	0	520
-4.147	8.078	16522	16741	0	520
-2.416	8.619	16522	16170	0	520
-4.688	12.045	16522	15384	0	520
-9.953	12.441	16384	14742	0	520
-13.343	15.002	16384	14170	0	520
-11.720	14.930	16246	13813	0	520
-9.448	11.251	16246	13599	0	520
-4.760	13.163	16246	13384	0	520
-0.325	16.372	16037	13313	0	520
0.397	22.755	16037	13313	0	520
-1.623	26.722	15898	13170	0	520
-4.075	28.417	16037	13099	0	520
-3.787	26.578	16037	13099	0	520
-1.298	27.083	15898	13242	0	520
2.416	26.361	16037	13384	0	520
4.832	25.279	15898	13527	0	520
1.479	23.981	15898	13884	0	520
-2.128	17.706	15898	14313	0	520
-5.878	14.641	15898	14956	0	520
-6.491	10.278	15898	15670	0	520
-3.859	4.652	16037	16384	0	520
-3.318	3.714	16037	17098	0	520
-2.128	7.357	16246	17598	0	520
-0.613	15.543	16246	18169	0	520
4.219	25.856	16384	18598	0	520
8.979	32.239	16384	18884	0	520
15.543	30.184	16384	18955	0	520
15.362	23.873	16522	18955	0	520
11.900	20.267	16522	18955	0	520
6.203	19.437	16731	19169	0	520
1.587	26.650	16731	19384	0	520
3.390	35.124	16731	19455	0	520
7.393	38.154	16870	19312	0	520
8.258	31.699	16870	19241	0	520
3.967	21.962	17078	19169	0	520
-1.370	14.389	17078	19026	0	520
-2.777	16.625	16870	18955	0	520
3.318	23.621	17217	18955	0	520
14.136	33.249	17217	18812	0	520
19.221	33.754	17217	18526	0	520
17.995	27.155	17217	18169	0	520
8.511	15.939	17217	17812	0	520
1.298	6.708	17217	17312	0	520
-2.056	0.721	17217	16741	0	520
-1.046	-1.803	17217	16384	0	520
3.210	0.361	17217	16170	0	520
8.402	5.013	17217	15813	0	520
13.307	8.439	17217	15384	0	520
15.651	13.091	17217	15027	0	520
18.175	14.677	17078	14884	0	520
15.579	10.530	16870	14742	0	520
10.025	1.839	16870	14527	0	520
1.226	-8.835	16870	14170	0	520
-6.708	-16.769	16870	13884	0	520
-6.780	-14.677	16731	13742	0	520
-2.633	-7.465	16731	13742	0	520
7.248	4.003	16731	13670	0	520
15.471	11.071	16731	13670	0	520
14.713	10.133	16522	13599	0	520
7.212	3.318	16522	13599	0	520
-2.993	-7.681	16522	13670	0	520
-13.595	-19.618	16522	13884	0	520
-18.500	-23.909	16522	14242	0	520
-18.103	-25.748	16522	14670	0	520
-14.713	-19.906	16522	15027	0	520
-10.963	-17.418	16522	15384	0	520
-14.136	-23.080	16522	15742	0	520
-20.411	-32.348	16522	15956	0	520
-29.931	-44.248	16522	15956	0	520
-36.567	-50.920	16522	15884	0	520
-37.108	-49.693	16522	15884	0	520
-32.564	-44.068	16384	15742	0	520
-30.076	-40.858	16384	15384	0	520
-30.004	-40.606	16246	14956	0	520
-33.574	-40.822	16037	14456	0	520
-37.757	-40.281	16037	14242	0	520
-38.370	-37.432	15898	14170	0	520
-38.442	-32.816	15898	14170	0	520
-34.006	-29.679	15898	14313	0	520
-28.164	-30.869	15690	14599	0	520
-24.522	-31.158	15690	15099	0	520
-23.476	-33.321	15690	15599	0	520
-27.587	-36.026	15690	15956	0	520
-35.124	-42.157	15690	16242	0	520
-39.452	-45.150	15690	16384	0	520
-36.531	-43.166	15898	16669	0	520
-28.741	-35.629	16037	17026	0	520
-21.745	-27.119	16037	17312	0	520
-21.890	-23.044	16037	17455	0	520
-29.463	-27.624	16037	17669	0	520
-38.190	-31.590	16037	17884	0	520
-43.094	-29.931	16037	18241	0	520
-38.370	-19.690	16037	18384	0	520
-27.263	-8.006	16037	18384	0	520
-16.661	-0.938	16037	18312	0	520
-14.208	-1.911	16037	18169	0	520
-17.346	-8.835	16037	18026	0	520
-25.965	-14.208	16037	17741	0	520
-30.977	-18.392	16037	17598	0	520
-32.997	-17.562	16037	17598	0	520
-33.357	-16.625	16037	17598	0	520
-31.735	-12.333	16037	17526	0	520
-30.581	-11.035	16037	17455	0	520
-27.984	-10.025	16246	17384	0	520
-26.830	-11.720	16246	17455	0	520
-26.397	-17.310	16246	17455	0	520
-31.951	-23.945	16246	17241	0	520
-37.216	-26.974	16246	16955	0	520
-35.557	-25.532	16037	16741	0	520
-28.345	-14.930	16037	16455	0	520
-15.867	-3.318	16037	16242	0	520
-10.746	6.275	16037	15884	0	520
-12.045	9.376	16037	15813	0	520
-18.392	5.770	15898	15813	0	520
-26.758	-0.541	16037	15670	0	520
-29.499	-4.977	16037	15527	0	520
-28.453	-7.465	16037	15670	0	520
-26.397	-8.294	16246	15884	0	520
-20.411	-6.635	16037	15884	0	520
-13.271	-2.236	16037	15599	0	520
-5.698	0.541	15898	15384	0	520
-7.285	-1.298	15898	15384	0	520
-17.923	-8.799	15898	15527	0	520
-32.456	-16.300	15898	15813	0	520
-39.308	-21.277	15898	16170	0	520
-31.879	-15.507	16037	16455	0	520
-17.526	-6.203	16037	16598	0	520
-6.491	0.829	16037	16741	0	520
-10.710	-2.200	16037	16812	0	520
-28.814	-13.704	16037	16955	0	520
-46.736	-20.591	16037	16955	0	520
-51.569	-21.096	16037	16955	0	520
-46.520	-12.766	16037	16884	0	520
-33.141	-0.361	16037	16884	0	520
-23.368	7.032	16037	16884	0	520
-17.851	7.321	16037	16669	0	520
-17.995	5.986	16037	16526	0	520
-17.021	4.652	16037	16669	0	520
-18.716	3.606	16037	17098	0	520
-18.356	0.757	16246	17598	0	520
-20.267	-2.308	16246	18098	0	520
-18.680	-6.275	16522	18598	0	520
-20.195	-9.196	16522	18955	0	520
-20.123	-9.376	16522	19098	0	520
-20.123	-5.409	16522	19026	0	520
-20.375	-3.426	16731	18955	0	520
-17.454	-2.164	16731	18955	0	520
-17.093	-1.406	16731	18741	0	520
-16.120	-2.308	16870	18455	0	520
-20.303	-5.914	16870	18169	0	520
-24.883	-7.176	16870	17812	0	520
-31.626	-9.448	16870	17526	0	520
-34.403	-10.602	16870	17169	0	520
-31.987	-8.222	16870	16812	0	520
-26.397	-6.491	16870	16455	0	520
-18.103	-2.128	16870	16170	0	520
-15.759	-2.236	16870	15742	0	520
-18.464	-5.265	16731	15242	0	520
-26.938	-9.052	16731	14956	0	520
-32.961	-13.812	16731	14670	0	520
-37.036	-16.192	16731	14313	0	520
-34.980	-16.877	16522	13956	0	520
-31.230	-12.333	16522	13670	0	520
-26.650	-9.917	16522	13670	0	520
-24.198	-8.078	16384	13742	0	520
-23.476	-6.671	16384	13813	0	520
-24.270	-6.094	16384	13813	0	520
-22.827	-6.239	16384	13884	0	520
-24.234	-6.563	16246	13956	0	520
-26.109	-7.248	16246	14027	0	520
-27.047	-9.016	16246	14242	0	520
-27.804	-10.674	16246	14670	0	520
-26.361	-11.396	16246	15170	0	520
-24.775	-9.196	16384	15742	0	520
-21.745	-6.816	16384	16313	0	520
-20.880	-5.481	16384	16741	0	520
-23.044	-0.216	16522	17026	0	520
-22.575	1.839	16522	17098	0	520
-25.929	-0.829	16384	16955	0	520
-28.273	-7.862	16384	16812	0	520
-29.859	-14.677	16522	16812	0	520
-27.371	-17.959	16522	16955	0	520
-24.414	-16.625	16522	16955	0	520
-23.152	-9.376	16522	17026	0	520
-22.972	-3.137	16522	17098	0	520
-25.748	-4.075	16384	17098	0	520
-29.968	-9.340	16522	17026	0	520
-31.049	-15.543	16522	16884	0	520
-31.049	-18.860	16522	16812	0	520
-34.115	-18.716	16522	16741	0	520
-34.043	-16.444	16384	16455	0	520
-32.997	-11.504	16384	16242	0	520
-25.532	-6.167	16384	16027	0	520
-14.677	-1.947	16384	15884	0	520
-3.065	4.075	16384	15884	0	520
1.442	8.150	16384	16099	0	520
-2.416	8.042	16384	16384	0	520
-6.491	6.239	16384	16741	0	520
-9.088	7.140	16522	17098	0	520
-4.688	9.124	16522	17455	0	520
3.029	16.300	16522	17598	0	520
6.167	17.057	16522	17526	0	520
2.164	16.264	16522	17384	0	520
-3.895	11.900	16522	17241	0	520
-8.294	5.373	16384	17026	0	520
-4.472	5.337	16384	16741	0	520
2.452	7.825	16384	16384	0	520
5.950	11.756	16384	16027	0	520
3.534	15.038	16246	15599	0	520
-1.803	17.310	16246	15313	0	520
-7.321	16.949	16246	15099	0	520
-7.789	17.310	16384	15027	0	520
-5.806	14.641	16246	15099	0	520
-2.380	14.497	16246	15170	0	520
-0.865	13.307	16246	15242	0	520
2.524	15.254	16246	15313	0	520
5.373	19.942	16246	15527	0	520
4.111	21.565	16246	15813	0	520
0.433	17.598	16246	15956	0	520
-3.606	14.713	16384	16170	0	520
-5.229	7.465	16384	16526	0	520
-1.731	6.239	16384	16812	0	520
6.311	6.383	16384	16884	0	520
13.776	10.314	16384	16884	0	520
18.103	13.163	16384	16884	0	520
25.640	17.166	16384	16884	0	520
30.256	24.883	16384	16812	0	520
34.800	29.931	16384	16812	0	520
31.915	27.732	16384	16884	0	520
21.349	18.788	16384	16955	0	520
7.681	6.708	16384	16955	0	520
-1.983	-2.200	16384	16812	0	520
-3.714	-5.013	16384	16669	0	520
0.072	-1.695	16384	16526	0	520
4.472	0.577	16384	16455	0	520
3.065	0.397	16384	16526	0	520
-0.902	-5.193	16384	16741	0	520
-6.888	-8.979	16384	16955	0	520
-11.071	-13.884	16384	16955	0	520
-13.812	-16.228	16384	16884	0	520
-14.785	-19.726	16384	16812	0	520
-17.743	-19.041	16384	16741	0	520
-17.057	-19.546	16384	16598	0	520
-14.136	-19.113	16384	16526	0	520
-13.812	-16.805	16384	16526	0	520
-11.684	-18.031	16384	16598	0	520
-14.605	-17.598	16522	16812	0	520
-16.192	-18.680	16522	17098	0	520
-18.320	-17.202	16731	17455	0	520
-16.300	-16.480	16731	17669	0	520
-13.704	-16.408	16731	17669	0	520
-13.091	-14.821	16522	17455	0	520
-10.999	-14.064	16522	17241	0	520
-7.645	-8.547	16522	17169	0	520
-6.203	-3.173	16731	17169	0	520
-7.357	-1.875	16731	17169	1	1032
-12.009	-8.222	16731	17169	0	1032
-23.873	-18.752	16731	17026	0	1032
-30.545	-33.069	16731	16741	0	1032
-33.357	-37.793	16731	16455	0	1032
-30.941	-39.849	16731	16384	0	1032
-27.876	-36.603	16731	16242	0	1032
-28.201	-36.783	16731	15884	0	1032
-34.079	-41.724	16522	15384	0	1032
-36.026	-46.520	16522	15027	0	1032
-33.321	-44.464	16522	14813	0	1032
-24.342	-39.560	16522	14742	0	1032
-17.166	-31.987	16384	14670	0	1032
-18.067	-29.066	16384	14670	0	1032
-21.818	-31.230	16384	14670	0	1032
-30.292	-34.475	16384	14670	0	1032
-31.951	-32.276	16384	14670	0	1032
-25.207	-27.191	16246	14527	0	1032
-16.300	-23.657	16246	14456	0	1032
-12.946	-23.945	16246	14670	0	1032
-13.812	-27.263	16246	15027	0	1032
-17.959	-30.256	16246	15242	0	1032
-22.647	-26.289	16246	15313	0	1032
-24.919	-22.358	16037	15313	0	1032
-24.378	-18.933	16037	15242	0	1032
-28.417	-25.207	16037	15099	0	1032
-32.708	-33.321	16037	15170	0	1032
-34.043	-40.029	16037	15527	0	1032
-32.312	-43.599	16037	15884	0	1032
-27.407	-41.832	16037	16099	0	1032
-22.575	-38.118	16037	16242	0	1032
-20.988	-35.449	15898	16242	0	1032
-21.421	-34.259	15898	16170	0	1032
-22.539	-34.079	16037	16242	0	1032
-25.135	-34.728	16037	16313	0	1032
-28.273	-37.793	16246	16313	0	1032
-27.443	-36.531	16037	16384	0	1032
-23.549	-30.725	16037	16526	0	1032
-16.480	-20.952	16037	16741	0	1032
-7.357	-9.232	16037	17026	0	1032
-2.236	-5.049	16037	17384	0	1032
-3.498	-8.943	16246	17812	0	1032
-8.943	-15.543	16246	18169	0	1032
-12.081	-25.856	16384	18526	0	1032
-14.425	-28.453	16384	19026	0	1032
-17.202	-28.237	16522	19526	0	1032
-16.264	-26.289	16522	19669	0	1032
-19.185	-24.306	16731	19598	0	1032
-18.067	-20.880	16731	19384	0	1032
-17.202	-19.473	16731	19098	0	1032
-13.956	-15.903	16731	18669	0	1032
-12.441	-16.661	16731	18241	0	1032
-12.730	-15.218	16522	17741	0	1032
-11.937	-13.956	16731	17169	0	1032
-9.845	-8.294	16522	16598	0	1032
-8.439	-4.147	16522	16099	0	1032
-8.727	-6.816	16522	15527	0	1032
-10.602	-11.360	16384	15027	0	1032
-17.238	-17.526	16384	14813	0	1032
-19.906	-22.575	16384	14742	0	1032
-23.224	-22.214	16246	14527	0	1032
-22.467	-21.457	16246	14384	0	1032
-22.070	-22.611	16246	14242	0	1032
-24.450	-23.188	16246	14170	0	1032
-28.453	-26.361	16037	14099	0	1032
-33.682	-30.725	16246	14170	0	1032
-35.990	-31.374	16037	14242	0	1032
-33.538	-30.581	16037	14384	0	1032
-28.020	-24.558	16037	14670	0	1032
-24.739	-21.024	16037	15027	0	1032
-23.404	-19.870	15898	15242	0	1032
-24.702	-23.152	15898	15384	0	1032
-28.669	-27.227	15898	15527	0	1032
-27.876	-28.092	15898	15742	0	1032
-26.145	-21.349	15898	16099	0	1032
-17.021	-17.779	15898	16384	0	1032
-12.441	-12.622	15898	16598	0	1032
-11.648	-14.930	16037	16741	0	1032
-16.336	-21.241	16037	16812	0	1032
-27.624	-30.328	15898	16884	1	316
-33.574	-34.079	15898	16884	0	316
-33.898	-32.059	15898	16884	0	316
-31.735	-27.551	15898	16812	0	316
-31.122	-26.578	15898	16741	0	316
-35.269	-32.203	15898	16598	0	316
-38.803	-38.839	16037	16384	0	316
-42.120	-42.265	15898	16313	0	316
-37.829	-40.894	15898	16099	0	316
-32.492	-35.377	15898	16027	0	316
-28.561	-31.158	15898	16170	0	316
-26.289	-31.085	15898	16455	0	316
-26.037	-30.184	16037	17026	0	316
-25.712	-27.371	16037	17741	0	316
-23.080	-24.125	16246	18526	0	316
-17.526	-18.247	16384	19384	0	316
-14.425	-15.579	16522	20169	0	316
-12.225	-13.704	16731	20669	0	316
-15.182	-16.408	16870	20955	0	316
-21.637	-20.627	17078	21098	0	316
-24.558	-24.666	17078	21026	0	316
-21.313	-22.899	17217	20812	0	316
-11.756	-13.559	17217	20598	0	316
1.623	-5.085	17425	20455	0	316
5.157	0.541	17217	20098	0	316
-1.587	-4.796	17425	19526	0	316
-16.516	-18.356	17425	18884	0	316
-28.922	-28.633	17425	18312	0	316
-30.941	-30.545	17425	17884	0	316
-23.549	-23.693	17425	17455	0	316
-13.992	-14.317	17425	16955	0	316
-8.907	-9.845	17217	16384	0	316
-9.592	-9.304	17425	15956	0	316
-15.182	-15.507	17217	15313	0	316
-17.743	-18.933	17217	14742	0	316
-20.736	-23.404	17078	14313	0	316
-20.014	-25.893	17078	13956	0	316
-19.906	-28.705	17078	13742	0	316
-13.559	-27.047	17078	13527	0	316
-8.871	-21.349	17078	13313	0	316
-2.488	-12.802	16870	13242	0	316
2.236	-6.888	16870	13313	0	316
2.813	-5.626	16870	13456	0	316
0.541	-11.432	16870	13670	0	316
-3.787	-19.257	16870	13813	0	316
-5.193	-23.332	16870	13813	0	316
-5.265	-18.211	16870	13742	0	316
-2.452	-9.665	16731	13670	0	316
1.587	0.649	16731	13670	0	316
5.590	4.832	16522	13527	0	316
10.602	5.662	16522	13384	0	316
11.612	6.527	16384	13242	0	316
12.225	6.635	16246	13384	0	316
7.825	6.094	16384	13670	0	316
-1.334	3.462	16384	13884	0	316
-7.176	-0.974	16246	13884	0	316
-7.970	-4.364	16246	13813	0	316
-4.147	-3.498	16037	13670	0	316
0.433	-1.983	16037	13742	0	316
2.056	-3.282	15898	13813	0	316
-0.974	-10.061	15898	14027	0	316
-7.140	-18.031	15898	14456	0	316
-9.124	-23.260	15898	15027	0	316
-10.819	-21.854	15898	15527	0	316
-8.402	-19.329	15898	16027	0	316
-8.150	-13.307	15898	16455	0	316
-8.799	-12.874	15898	16741	0	316
-9.917	-15.975	15898	16884	0	316
-9.520	-18.283	15898	17169	0	316
-9.845	-21.204	15898	17526	0	316
-8.114	-19.726	15898	17812	0	316
-3.931	-16.625	15898	17955	0	316
-1.334	-14.713	15898	18098	0	316
0.649	-12.910	15898	18241	0	316
0.036	-9.340	15898	18312	0	316
-2.200	-10.674	15898	18241	0	316
-5.806	-11.071	16037	18026	0	316
-6.383	-11.973	16037	17598	0	316
-6.816	-16.697	16037	17241	0	316
-10.133	-19.041	16037	17098	1	316
-12.622	-22.575	15898	17026	0	316
-14.389	-20.952	15898	16884	0	316
-13.018	-20.627	15898	16598	0	316
-7.862	-17.851	15690	16384	0	316
-5.662	-17.887	15690	16170	0	316
-8.979	-18.716	15690	16170	0	316
-14.317	-23.621	15690	16313	0	316
-15.218	-26.109	15690	16384	0	316
-11.937	-23.765	15690	16384	0	316
-4.508	-19.257	15551	16170	0	316
1.406	-18.897	15551	16170	0	316
-1.479	-19.618	15551	16384	0	316
-9.376	-24.630	15551	16526	0	316
-14.425	-27.407	15690	16741	0	316
-14.208	-24.306	15898	17026	0	316
-5.085	-16.552	15898	17455	0	316
5.590	-6.708	15898	17884	0	316
12.297	-2.200	16037	18098	0	316
13.018	-2.092	16037	18455	0	316
10.314	-2.236	16037	18669	0	316
7.573	-6.275	16246	18741	0	316
4.436	-11.143	16246	18526	0	316
1.659	-16.012	16246	18241	0	316
-4.724	-24.306	16246	17955	0	316
-10.710	-29.751	16246	17741	0	316
-12.441	-34.944	16246	17669	0	316
-11.396	-36.134	16246	17598	0	316
-8.114	-36.387	16246	17455	0	316
-4.724	-36.459	16246	17169	0	316
-5.049	-36.278	16246	17026	0	316
-4.580	-37.288	16246	16812	0	316
-6.239	-38.334	16246	16741	0	316
-11.360	-43.383	16246	16598	0	316
-14.966	-48.431	16246	16598	0	316
-22.286	-50.956	16246	16526	0	316
-23.837	-52.578	16246	16526	0	316
-22.755	-47.926	16246	16598	0	316
-16.877	-43.779	16246	16526	0	316
-9.845	-36.242	16246	16384	0	316
-4.039	-32.312	16246	16170	0	316
-3.823	-30.617	16384	16242	0	316
-9.592	-33.069	16384	16384	0	316
-18.500	-38.118	16384	16455	0	316
-24.450	-45.366	16384	16598	0	316
-24.522	-46.881	16384	16741	0	316
-18.608	-43.924	16384	16741	0	316
-10.602	-41.003	16522	16669	0	316
-10.458	-39.921	16522	16741	0	316
-18.608	-44.537	16522	16741	0	316
-28.381	-51.100	16522	16455	0	316
-34.908	-56.040	16522	16170	0	316
-31.554	-52.795	16384	15742	0	316
-22.214	-47.458	16384	15384	0	316
-13.451	-43.563	16246	14884	0	316
-10.746	-43.058	16246	14527	0	316
-11.900	-46.772	16246	14313	0	316
-17.887	-51.244	16037	14170	0	316
-20.087	-51.641	16037	14242	0	316
-22.755	-51.497	16037	14527	0	316
-22.250	-49.261	16037	14813	0	316
-22.395	-44.501	16037	15027	0	316
-19.834	-43.130	16037	15313	0	316
-14.821	-40.498	16037	15527	0	316
-10.855	-40.353	16037	15884	0	316
-7.429	-41.255	16384	16313	0	316
-7.032	-44.320	16384	16741	0	316
-10.278	-47.494	16384	17169	0	316
-13.559	-49.261	16522	17669	0	316
-14.425	-46.304	16522	18312	0	316
-10.350	-42.373	16522	18741	0	316
-7.753	-37.468	16522	18812	0	316
-6.455	-35.918	16731	18598	0	316
-7.104	-39.199	16731	18455	0	316
-11.035	-46.268	16731	18312	0	316
-17.562	-49.946	16731	18241	0	316
-20.555	-54.886	16870	18169	0	316
-25.820	-55.247	16870	18169	0	316
-29.715	-56.726	16870	18026	0	316
-28.092	-56.509	16870	17884	0	316
-24.522	-53.516	17078	17741	0	316
-17.887	-50.847	17078	17455	0	316
-5.662	-42.229	17078	17098	0	316
6.239	-33.393	17078	16741	0	316
12.477	-28.561	17078	16384	0	316
4.760	-34.259	16870	16170	0	316
-14.533	-49.838	16870	15884	0	316
-36.639	-64.515	16870	15527	0	316
-45.691	-71.114	16870	15170	0	316
-36.170	-63.541	16870	14884	0	316
-15.218	-50.992	16522	14742	0	316
-1.442	-41.832	16522	14813	0	316
-2.452	-47.169	16522	14884	0	316
-12.910	-55.536	16522	15027	0	316
-24.522	-61.053	16731	15384	0	316
-21.745	-56.690	16731	15670	0	316
-13.848	-47.097	16731	15813	0	316
-3.750	-38.082	16731	15884	0	316
-2.849	-37.468	16731	15956	0	316
-9.629	-44.501	16731	16170	0	316
-20.123	-54.814	16870	16313	0	316
-25.568	-58.060	16870	16455	0	316
-26.361	-57.086	16870	16455	0	316
-20.627	-47.061	16870	16384	0	316
-14.100	-37.829	16870	16170	0	316
-11.143	-30.941	16731	15813	0	316
-11.612	-32.239	16731	15527	0	316
-15.471	-38.803	16731	15242	0	316
-18.175	-45.727	16522	14884	0	316
-13.884	-45.474	16522	14599	0	316
-7.357	-40.101	16384	14313	0	316
-3.282	-34.295	16384	14099	0	316
-8.186	-35.449	16246	14027	0	316
-19.510	-43.022	16246	13884	0	316
-29.246	-54.237	16246	13884	0	316
-30.797	-58.276	16037	13956	0	316
-22.322	-56.545	16037	14099	0	316
-12.153	-45.799	16037	14170	0	316
-4.977	-37.216	15898	14242	0	316
-3.137	-30.905	15898	14456	0	316
-5.265	-29.787	15898	14813	0	316
-7.537	-32.023	15898	15027	0	316
-9.953	-34.908	15898	15527	0	316
-7.465	-33.646	15898	16242	0	316
-3.101	-28.850	16037	16884	0	316
4.868	-20.808	16037	17526	0	316
9.845	-17.166	16037	18026	0	316
7.609	-17.706	16246	18455	0	316
-1.515	-26.866	16246	18741	0	316
-12.730	-36.206	16246	18884	0	316
-16.552	-44.717	16246	18812	0	316
-15.038	-45.474	16246	18669	0	316
-6.491	-38.767	16246	18384	0	316
-0.397	-32.239	16246	18098	0	316
1.767	-28.741	16246	17955	0	316
-0.505	-27.227	16384	17741	0	316
-3.101	-28.850	16384	17598	0	316
-3.606	-28.164	16384	17384	0	316
-4.760	-26.974	16384	17098	0	316
-4.291	-29.246	16384	16812	0	316
-6.383	-31.879	16384	16669	0	316
-9.665	-37.252	16384	16455	0	316
-11.143	-40.462	16246	16170	0	316
-15.759	-41.652	16246	15884	0	316
-18.572	-41.327	16246	15670	0	316
-22.178	-41.471	16246	15599	0	316
-21.313	-36.891	16037	15313	0	316
-17.093	-31.049	16037	15099	0	316
-8.979	-19.690	16037	15027	0	316
-2.921	-12.874	15898	15099	0	316
-3.390	-10.674	15898	15242	0	316
-10.278	-16.084	15898	15527	0	316
-19.798	-27.371	15898	15884	0	316
-25.063	-35.593	16037	16170	0	316
-22.719	-37.829	16037	16384	0	316
-16.228	-32.348	16037	16455	0	316
-7.898	-25.856	16037	16526	0	316
-7.176	-22.503	16037	16598	0	316
-11.792	-24.739	16037	16669	0	316
-17.202	-32.961	16037	16955	0	316
-23.080	-38.406	16037	17241	0	316
-21.457	-38.839	16246	17598	0	316
-19.329	-35.233	16246	17884	0	316
-13.523	-28.958	16246	18169	0	316
-10.097	-25.388	16384	18455	0	316
-8.222	-25.676	16384	18812	0	316
-9.520	-30.112	16522	19098	0	316
-16.552	-35.774	16522	19026	0	316
-23.368	-43.491	16522	18884	0	316
-32.348	-48.323	16731	18598	0	316
-36.603	-50.956	16731	18312	0	316
-38.226	-47.782	16522	17884	0	316
-37.252	-43.094	16522	17384	0	316
-36.062	-39.272	16522	17026	1	692
-34.764	-38.334	16522	16884	0	692
-31.699	-40.029	16731	16741	0	692
-28.777	-39.885	16731	16741	0	692
-27.912	-40.822	16731	16741	0	692
-29.751	-41.724	16731	16598	0	692
-36.062	-45.727	16731	16384	0	692
-42.661	-50.992	16731	16170	0	692
-47.313	-53.336	16731	16027	0	692
-45.835	-52.795	16731	15956	0	692
-40.714	-47.241	16731	15742	0	692
-35.810	-43.599	16731	15456	0	692
-33.321	-41.471	16522	15242	0	692
-33.610	-40.029	16522	15099	0	692
-36.387	-41.580	16522	14956	0	692
-38.262	-41.616	16522	14813	0	692
-39.308	-44.428	16522	14599	0	692
-37.973	-45.294	16384	14384	0	692
-35.305	-41.543	16384	14242	0	692
-29.535	-33.429	16384	14170	0	692
-21.673	-21.493	16246	14099	0	692
-18.752	-16.012	16246	14170	0	692
-18.969	-16.949	16246	14456	0	692
-26.686	-27.443	16246	14813	0	692
-35.449	-39.776	16246	15170	0	692
-40.137	-47.386	16246	15527	0	692
-40.101	-48.792	16246	15742	0	692
-32.023	-43.563	16246	15956	0	692
-24.234	-36.783	16246	16242	0	692
-17.021	-31.446	16384	16526	0	692
-14.389	-30.040	16384	16669	0	692
-12.477	-30.725	16384	16598	0	692
-14.461	-30.941	16384	16598	0	692
-11.973	-28.705	16384	16741	0	692
-11.540	-28.489	16384	16884	0	692
-14.136	-30.689	16384	16812	0	692
-16.192	-35.593	16384	16884	0	692
-24.234	-41.147	16384	17169	0	692
-28.741	-44.789	16384	17455	0	692
-30.076	-44.825	16384	17526	0	692
-28.128	-40.281	16384	17455	0	692
-23.332	-38.442	16384	17169	0	692
-18.680	-33.754	16384	16812	0	692
-15.038	-34.836	16384	16526	0	692
-16.300	-35.990	16384	16313	0	692
-13.956	-35.377	16246	16099	0	692
-12.225	-34.908	16246	15884	0	692
-13.884	-31.374	16246	15884	0	692
-13.848	-27.515	16246	16027	0	692
-15.579	-26.037	16246	16313	0	692
-13.920	-26.866	16246	16526	0	692
-9.088	-27.840	16384	16812	0	692
-10.025	-29.138	16384	16955	0	692
-12.838	-33.357	16384	16955	0	692
-22.791	-36.423	16384	17098	0	692
-31.049	-40.317	16384	17384	0	692
-30.400	-40.173	16522	17526	0	692
-22.827	-39.596	16522	17598	0	692
-15.326	-36.819	16522	17598	0	692
-13.379	-34.151	16522	17526	0	692
-15.435	-34.944	16522	17455	0	692
-21.745	-37.757	16522	17312	0	692
-22.575	-37.288	16522	17026	0	692
-19.401	-34.583	16522	16669	0	692
-10.061	-29.138	16522	16384	0	692
-2.344	-23.044	16522	16313	0	692
2.092	-18.824	16522	16242	0	692
2.777	-21.060	16522	16099	0	692
-2.272	-27.768	16384	15813	0	692
-12.441	-36.855	16384	15384	0	692
-19.618	-44.032	16384	15099	0	692
-24.522	-46.845	16384	14884	0	692
-19.942	-43.058	16246	14813	0	692
-14.713	-35.197	16246	14599	0	692
-10.638	-32.744	16246	14456	0	692
-11.864	-32.059	16037	14456	0	692
-17.743	-35.665	16037	14599	0	692
-19.185	-37.360	16037	14813	0	692
-19.257	-36.062	16037	14956	0	692
-17.057	-34.836	16037	15027	0	692
-20.627	-36.423	15898	14884	0	692
-26.938	-40.029	15898	14742	0	692
-29.535	-44.032	15690	14670	0	692
-28.489	-43.743	15690	14813	0	692
-23.837	-41.976	15690	15242	0	692
-16.480	-37.108	15690	15742	0	692
-14.605	-34.367	15898	16099	0	692
-14.858	-33.898	15898	16384	0	692
-19.113	-34.764	15898	16598	0	692
-19.870	-37.901	15898	16669	0	692
-21.890	-41.219	15690	16669	0	692
-22.467	-41.183	15898	16669	0	692
-21.024	-38.082	16037	16741	0	692
-21.529	-34.151	15898	16741	0	692
-21.529	-32.203	15898	16741	0	692
-22.178	-31.807	15898	16955	0	692
-25.135	-36.206	16037	17312	0	692
-23.657	-38.478	16037	17741	0	692
-22.647	-39.380	16037	18098	0	692
-21.890	-37.901	16037	18169	0	692
-19.473	-37.288	16037	18169	0	692
-20.844	-37.216	16246	18098	0	692
-28.309	-39.452	16037	17884	0	692
-32.203	-41.507	16037	17669	0	692
-35.088	-40.173	16246	17598	0	692
-29.751	-34.006	16246	17526	0	692
-19.077	-27.155	16246	17526	0	692
-7.032	-20.483	16246	17526	0	692
-4.327	-20.123	16246	17741	0	692
-11.287	-27.551	16246	17812	0	692
-22.755	-36.495	16384	17741	0	692
-33.970	-41.327	16384	17526	0	692
-34.403	-42.409	16384	17384	0	692
-26.794	-38.154	16384	17384	0	692
-19.401	-36.062	16384	17455	0	692
-16.444	-39.668	16522	17598	0	692
-22.286	-45.041	16522	17884	0	692
-26.470	-50.631	16731	18241	0	692
-29.607	-50.054	16731	18384	0	692
-24.955	-44.248	16731	18312	0	692
-17.815	-40.678	16870	18098	0	692
-13.992	-37.685	16870	17955	0	692
-11.937	-38.045	16870	17669	0	692
-14.569	-38.262	16870	17312	0	692
-14.172	-36.314	16870	16884	0	692
-15.398	-31.338	16870	16526	0	692
-12.694	-26.722	16870	16313	0	692
-11.792	-27.047	16731	15884	0	692
-14.605	-29.138	16731	15456	0	692
-16.120	-33.862	16731	15242	0	692
-18.139	-35.521	16731	15099	0	692
-13.415	-32.384	16731	15027	0	692
-5.409	-26.433	16522	15099	0	692
2.200	-20.700	16522	15242	0	692
3.895	-17.779	16731	15527	0	692
-2.056	-21.565	16731	15742	0	692
-9.196	-22.647	16731	15884	0	692
-12.369	-21.313	16731	16027	0	692
-8.655	-17.887	16731	16027	0	692
-4.400	-13.704	16731	15884	0	692
-2.669	-15.687	16731	15456	0	692
-3.498	-19.473	16522	15099	0	692
-7.825	-26.181	16522	14742	0	692
-12.297	-29.607	16522	14384	0	692
-14.064	-33.610	16384	14027	0	692
-19.654	-37.901	16384	13670	0	692
-21.421	-40.065	16246	13670	0	692
-22.611	-36.423	16246	13742	0	692
-17.598	-28.381	16246	13884	0	692
-12.874	-19.978	16246	14027	0	692
-9.304	-19.221	16037	14313	0	692
-11.432	-24.739	16037	14599	0	692
-15.759	-33.249	16037	14813	0	692
-18.356	-35.737	16037	14956	0	692
-17.598	-30.112	16037	15170	0	692
-10.999	-21.493	16037	15456	0	692
-5.554	-13.379	16037	15670	0	692
-4.003	-13.271	16037	15884	0	692
-5.662	-15.867	16037	16170	0	692
-8.799	-19.005	16246	16384	0	692
-8.871	-16.516	16246	16455	0	692
-5.842	-12.550	16246	16526	0	692
-4.688	-8.222	16246	16812	0	692
-7.465	-9.629	16246	17169	0	692
-13.992	-16.408	16246	17241	0	692
-20.050	-25.352	16384	17098	0	692
-24.594	-29.679	16246	16955	0	692
-26.289	-32.420	16037	16741	0	692
-24.919	-26.470	16037	16526	0	692
-19.906	-19.762	16037	16384	0	692
-17.202	-15.110	16037	16384	0	692
-11.756	-13.559	15898	16313	0	692
-11.360	-15.579	15898	16099	0	692
-11.179	-20.700	15898	15742	0	692
-12.658	-24.450	15690	15456	0	692
-11.973	-24.775	15690	15384	0	692
-12.730	-25.063	15690	15527	0	692
-12.045	-23.837	15551	15670	0	692
-14.569	-20.808	15551	15670	0	692
-14.245	-17.815	15551	15742	0	692
-9.556	-13.956	15551	15813	0	692
-8.799	-14.930	15551	15813	0	692
-6.058	-13.631	15551	15813	0	692
-4.544	-16.012	15551	16027	0	692
-1.731	-16.012	15551	16242	0	692
1.983	-11.432	15551	16384	0	692
7.898	-7.609	15551	16598	0	692
10.386	-3.967	15551	17026	0	692
10.278	-3.426	15551	17312	0	692
8.583	-6.780	15551	17384	0	692
8.511	-10.169	15551	17312	0	692
9.556	-12.946	15551	17241	0	692
15.471	-12.622	15551	17098	0	692
15.759	-13.487	15690	17026	0	692
11.900	-17.454	15898	17026	1	776
6.058	-20.700	15690	17169	0	776
-1.226	-26.902	15690	17312	0	776
-4.364	-28.669	15690	17598	0	776
-1.370	-27.335	15898	17955	0	776
2.885	-23.260	15898	18098	0	776
5.842	-19.329	15898	18241	0	776
5.914	-16.156	15898	18312	0	776
5.770	-15.795	15898	18241	0	776
6.635	-16.048	15898	18098	0	776
7.609	-16.444	16037	17955	0	776
10.963	-13.415	16037	17884	0	776
13.271	-11.179	16037	17812	0	776
16.769	-10.242	16037	17598	0	776
20.988	-7.753	16037	17598	0	776
25.352	-5.662	16037	17669	0	776
27.407	-3.606	16246	17741	0	776
24.594	-3.895	16246	17884	0	776
18.428	-9.881	16246	18098	0	776
8.619	-16.444	16384	18241	0	776
5.806	-22.431	16384	18169	0	776
6.491	-18.247	16522	18312	0	776
14.172	-12.189	16522	18598	0	776
16.841	-8.907	16731	18741	0	776
17.743	-9.773	16731	18812	0	776
12.117	-19.834	16870	18884	0	776
4.436	-30.112	17078	18955	0	776
0.361	-38.911	17078	18955	0	776
-0.216	-42.625	17217	18955	0	776
1.587	-42.517	17217	18955	0	776
1.082	-42.878	17425	18884	0	776
-1.947	-43.707	17425	18669	0	776
-5.373	-45.294	17564	18241	0	776
-9.340	-44.933	17425	17884	0	776
-10.097	-41.183	17564	17526	0	776
-7.357	-35.557	17425	17241	0	776
-7.645	-32.997	17425	16812	0	776
-12.297	-34.692	17425	16099	0	776
-17.851	-41.363	17425	15242	0	776
-21.673	-47.169	17217	14456	0	776
-20.123	-47.566	17217	13813	0	776
-17.526	-47.638	17078	13313	0	776
-12.441	-46.268	17078	12956	0	776
-15.002	-45.979	17078	12813	0	776
-19.473	-51.749	17078	12813	0	776
-20.808	-53.985	16870	12813	0	776
-17.959	-54.093	16870	12742	0	776
-13.271	-50.739	16731	12813	0	776
-9.088	-49.585	16731	12884	0	776
-9.124	-51.569	16522	13027	0	776
-18.824	-55.211	16522	13242	0	776
-23.729	-55.139	16522	13456	0	776
-28.020	-52.975	16522	13742	0	776
-24.883	-47.061	16522	13884	0	776
-17.021	-44.248	16522	13956	0	776
-13.163	-50.126	16384	14099	0	776
-15.326	-55.031	16384	14242	0	776
-21.709	-59.034	16384	14384	0	776
-24.378	-53.011	16384	14527	0	776
-24.378	-45.474	16384	14670	0	776
-17.706	-37.685	16246	14884	0	776
-15.326	-36.639	16246	15170	0	776
-14.749	-41.904	16246	15456	0	776
-18.500	-45.727	16246	15742	0	776
-17.274	-46.376	16246	16099	0	776
-11.900	-40.930	16246	16384	0	776
-2.921	-32.564	16246	16526	0	776
2.308	-29.282	16384	16812	0	776
-0.757	-32.925	16384	17241	0	776
-9.953	-42.770	16384	17526	0	776
-22.467	-53.011	16384	17669	0	776
-29.174	-62.135	16384	17741	0	776
-25.856	-59.214	16384	17741	0	776
-19.365	-53.047	16384	17598	0	776
-14.389	-45.186	16384	17455	0	776
-16.444	-42.265	16384	17312	0	776
-21.890	-43.599	16384	17169	0	776
-24.811	-45.763	16384	17026	0	776
-22.286	-48.035	16384	16812	0	776
-15.290	-46.592	16384	16741	1	316
-11.900	-43.887	16384	16669	0	316
-12.658	-41.940	16246	16384	0	316
-14.028	-40.966	16246	16099	0	316
-17.634	-39.344	16246	15742	0	316
-14.821	-37.072	16037	15456	0	316
-9.448	-35.305	16246	15170	0	316
-2.633	-32.997	16037	15099	0	316
2.524	-31.266	16037	15170	0	316
4.832	-31.771	16037	15384	0	316
2.344	-34.872	16037	15670	0	316
-3.173	-39.380	16037	16027	0	316
-10.278	-43.130	16037	16313	0	316
-16.264	-46.015	16246	16669	0	316
-18.247	-46.376	16246	17098	0	316
-19.149	-47.277	16246	17455	0	316
-16.805	-45.005	16246	17598	0	316
-15.074	-41.580	16384	17812	0	316
-11.792	-38.370	16384	18241	0	316
-10.133	-33.790	16522	18741	0	316
-8.547	-30.004	16522	19241	0	316
-7.609	-28.345	16731	19384	0	316
-7.645	-27.155	16731	19384	0	316
-9.376	-25.316	16870	19241	0	316
-8.439	-22.214	16870	19098	0	316
-4.364	-21.601	16870	19026	0	316
-1.154	-24.666	17078	19026	0	316
1.010	-27.732	16870	18812	0	316
1.911	-32.528	16870	18598	0	316
1.370	-33.646	16870	18312	0	316
-0.433	-31.482	16870	18026	0	316
-1.947	-29.535	17078	17669	0	316
-7.357	-29.787	17078	17312	0	316
-13.992	-34.006	17078	16955	0	316
-20.123	-38.875	17078	16526	0	316
-21.709	-38.009	17078	16313	0	316
-14.677	-33.826	17078	16242	0	316
-4.832	-27.660	17078	16170	0	316
1.226	-21.601	17078	16099	0	316
2.596	-21.745	16870	16027	0	316
-0.469	-25.784	17078	15884	0	316
-7.537	-32.600	17078	15670	0	316
-11.468	-34.872	16870	15527	0	316
-13.379	-37.180	16870	15456	0	316
-16.444	-38.406	16870	15384	0	316
-19.942	-39.524	16870	15242	0	316
-20.772	-38.731	16870	15027	0	316
-19.546	-37.324	16731	14742	0	316
-18.031	-33.934	16731	14456	0	316
-14.785	-31.699	16731	14242	0	316
-14.713	-29.066	16731	14170	0	316
-13.163	-26.001	16522	14170	0	316
-8.511	-19.257	16522	14099	0	316
-5.770	-14.425	16522	13956	0	316
-6.708	-13.812	16384	13813	0	316
-13.127	-22.791	16384	13599	0	316
-21.349	-31.085	16246	13456	0	316
-26.145	-35.990	16246	13384	0	316
-23.657	-33.538	16037	13242	0	316
-15.398	-26.217	16037	13242	0	316
-10.061	-22.719	16037	13384	0	316
-9.737	-21.601	15898	13670	0	316
-9.376	-25.099	15898	14027	0	316
-12.766	-26.109	15898	14384	0	316
-12.189	-23.837	15898	14742	0	316
-6.924	-17.238	15898	15170	0	316
-2.452	-14.858	15898	15599	0	316
-3.065	-15.290	15898	16027	0	316
-3.895	-17.779	16037	16455	0	316
-8.366	-22.467	16037	17026	0	316
-10.061	-22.972	16246	17526	0	316
-7.140	-19.798	16384	18169	0	316
-4.904	-19.329	16384	18812	0	316
-5.662	-20.303	16384	19455	0	316
-8.042	-23.476	16384	19812	0	316
-9.701	-24.053	16522	19884	0	316
-7.393	-20.195	16522	19741	0	316
-4.291	-17.779	16731	19669	0	316
-3.570	-15.182	16731	19526	0	316
-8.402	-20.591	16731	19455	0	316
-17.743	-27.371	16731	19455	1	320
-26.289	-33.538	16731	19526	0	320
-28.777	-35.810	16731	19384	0	320
-23.044	-31.626	16870	19169	0	320
-13.704	-23.368	16870	18812	0	320
0.000	-16.480	16870	18241	0	320
8.475	-12.117	16731	17526	0	320
10.891	-11.756	16731	16812	0	320
9.052	-14.894	16731	16313	0	320
5.265	-14.425	16731	16027	0	320
1.515	-12.333	16522	15742	0	320
2.164	-7.717	16522	15384	0	320
3.750	-4.147	16522	15099	0	320
5.229	-5.373	16522	15099	0	320
5.229	-9.629	16522	15170	0	320
0.469	-18.464	16522	15242	0	320
-3.390	-23.404	16522	15242	0	320
-6.167	-23.512	16522	15384	0	320
-5.698	-18.392	16522	15599	0	320
-3.714	-12.297	16522	15742	0	320
-2.813	-11.504	16522	15884	0	320
-7.970	-18.428	16522	15884	0	320
-12.514	-26.866	16522	15670	0	320
-16.913	-32.167	16522	15384	0	320
-18.788	-32.420	16522	15384	0	320
-20.555	-31.626	16522	15527	0	320
-19.113	-30.184	16522	15527	0	320
-18.969	-30.653	16384	15384	0	320
-14.281	-31.879	16384	15242	0	320
-10.530	-33.538	16384	15027	0	320
-5.770	-33.538	16246	14884	0	320
-6.275	-36.206	16246	14813	0	320
-8.547	-38.262	16246	14813	0	320
-16.048	-42.337	16246	14956	0	320
-21.277	-45.655	16246	15242	0	320
-26.866	-47.674	16246	15599	0	320
-26.397	-47.566	16246	15884	0	320
-20.736	-44.392	16246	16099	0	320
-15.218	-41.435	16246	16242	0	320
-10.061	-39.452	16246	16384	0	320
-9.737	-40.498	16246	16526	0	320
-10.494	-37.180	16384	16884	0	320
-8.979	-33.754	16384	17312	0	320
-7.573	-27.155	16384	17741	0	320
-9.376	-26.361	16522	18026	0	320
-14.930	-30.725	16522	18384	0	320
-18.608	-36.134	16731	19026	0	320
-22.070	-41.219	16870	19669	0	320
-20.627	-41.580	17078	20169	0	320
-16.985	-39.993	17217	20455	0	320
-18.716	-38.550	17217	20669	0	320
-22.250	-40.534	17425	20669	0	320
-26.037	-46.412	17564	20526	0	320
-28.561	-50.884	17425	20312	0	320
-26.974	-50.884	17425	19741	0	320
-24.270	-50.920	17425	18884	0	320
-22.431	-45.041	17425	18098	0	320
-20.267	-42.878	17425	17526	0	320
-20.483	-41.940	17425	17169	0	320
