neuroNicle FX2
D3F25R12
Bluetooth SPP
2023년 3월 29일 수요일
오후 5:15
time interval = 4msec
EEG1	EEG2	PPG	sdPPG	pulse	peak_interval(msec)
360.909	160.801	16114	16588	0	724
349.153	139.019	16119	16573	0	724
328.561	117.346	16124	16559	0	724
310.422	103.065	16128	16546	0	724
292.283	91.706	16133	16534	0	724
278.219	80.058	16138	16522	0	724
262.459	67.544	16145	16511	0	724
245.222	51.388	16147	16501	0	724
222.214	30.833	16154	16493	0	724
202.669	12.622	16158	16485	0	724
184.025	0.216	16164	16477	0	724
167.292	-6.960	16166	16469	0	724
148.395	-11.035	16173	16460	0	724
123.116	-15.543	16177	16452	0	724
95.997	-26.217	16183	16445	0	724
73.206	-36.783	16186	16437	0	724
57.555	-45.222	16191	16429	0	724
48.864	-50.811	16195	16421	0	724
40.173	-52.759	16197	16412	0	724
31.807	-57.483	16200	16404	0	724
23.260	-60.909	16205	16396	0	724
17.093	-65.561	16209	16390	0	724
14.930	-67.328	16212	16385	0	724
14.353	-67.003	16214	16383	0	724
8.402	-70.537	16219	16379	0	724
-7.465	-78.327	16222	16378	0	724
-25.712	-86.549	16227	16381	0	724
-38.514	-93.148	16231	16385	0	724
-41.147	-88.821	16235	16389	0	724
-33.502	-80.527	16240	16390	0	724
-24.522	-73.494	16243	16394	0	724
-23.440	-74.793	16250	16401	0	724
-30.364	-83.303	16256	16414	0	724
-42.012	-98.269	16264	16431	0	724
-51.172	-106.347	16272	16447	0	724
-54.021	-111.792	16278	16463	0	724
-54.562	-108.150	16290	16484	0	724
-50.559	-104.400	16301	16513	0	724
-51.100	-101.983	16313	16548	0	724
-52.759	-104.291	16328	16584	0	724
-59.070	-108.763	16342	16617	0	724
-68.698	-112.225	16358	16650	0	724
-73.206	-111.468	16377	16687	0	724
-79.481	-107.176	16395	16726	0	724
-85.070	-104.472	16414	16760	0	724
-90.227	-105.229	16431	16787	0	724
-100.000	-108.114	16454	16811	0	724
-106.383	-110.746	16474	16836	0	724
-108.583	-108.871	16497	16866	0	724
-107.212	-105.085	16522	16898	0	724
-106.563	-100.469	16546	16926	0	724
-111.107	-101.046	16571	16946	0	724
-119.185	-102.092	16599	16968	0	724
-130.761	-105.626	16628	17002	0	724
-132.348	-104.183	16661	17044	0	724
-129.571	-99.026	16692	17074	0	724
-124.522	-91.237	16723	17089	0	724
-120.123	-88.640	16754	17099	0	724
-125.316	-90.840	16787	17117	0	724
-134.295	-98.449	16823	17136	0	724
-145.474	-106.888	16856	17147	0	724
-150.090	-110.566	16892	17150	0	724
-150.415	-106.852	16922	17146	0	724
-146.376	-100.505	16952	17121	0	724
-141.111	-95.168	16979	17073	0	724
-138.767	-94.302	17006	17024	0	724
-140.353	-96.863	17031	16985	1	3860
-143.058	-102.560	17061	16954	0	3860
-145.005	-103.931	17087	16922	0	3860
-144.140	-99.062	17113	16888	0	3860
-143.815	-93.329	17142	16856	0	3860
-144.320	-86.837	17170	16835	0	3860
-146.376	-87.631	17200	16819	0	3860
-148.936	-88.027	17223	16786	0	3860
-150.595	-91.525	17242	16729	0	3860
-148.936	-90.624	17264	16667	0	3860
-148.720	-90.119	17284	16618	0	3860
-149.693	-89.470	17300	16567	0	3860
-156.509	-91.634	17312	16498	0	3860
-159.827	-88.460	17323	16416	0	3860
-166.066	-80.527	17329	16336	0	3860
-169.672	-72.016	17338	16263	0	3860
-177.786	-69.167	17343	16201	0	3860
-186.837	-73.639	17348	16140	0	3860
-195.997	-78.723	17347	16071	0	3860
-196.935	-80.130	17347	16002	0	3860
-196.646	-74.901	17349	15954	0	3860
-188.965	-67.724	17351	15928	0	3860
-184.097	-66.102	17354	15911	0	3860
-175.838	-67.111	17352	15886	0	3860
-169.672	-67.508	17349	15856	0	3860
-163.541	-65.092	17348	15835	0	3860
-166.498	-57.952	17348	15826	0	3860
-177.209	-57.483	17344	15825	0	3860
-190.840	-60.188	17343	15826	0	3860
-196.574	-66.282	17339	15830	0	3860
-197.404	-69.600	17338	15837	0	3860
-190.408	-68.662	17334	15846	0	3860
-189.398	-62.459	17334	15863	0	3860
-189.073	-58.961	17331	15889	0	3860
-196.790	-58.132	17329	15910	0	3860
-201.118	-58.637	17319	15903	0	3860
-208.366	-59.430	17307	15871	0	3860
-213.091	-59.142	17290	15832	0	3860
-220.772	-59.394	17278	15805	0	3860
-228.381	-65.272	17262	15794	0	3860
-238.550	-68.987	17251	15791	0	3860
-245.871	-69.095	17231	15777	0	3860
-250.739	-62.027	17212	15755	0	3860
-252.831	-52.182	17195	15744	0	3860
-251.352	-47.890	17179	15748	0	3860
-250.595	-51.316	17161	15752	0	3860
-245.763	-62.063	17138	15747	0	3860
-235.954	-68.842	17116	15726	0	3860
-219.113	-69.636	17090	15695	0	3860
-201.334	-61.161	17061	15666	0	3860
-189.073	-53.588	17035	15648	0	3860
-186.441	-54.201	17006	15638	0	3860
-186.224	-58.132	16976	15624	0	3860
-184.457	-65.669	16945	15606	0	3860
-179.986	-68.301	16915	15592	0	3860
-172.268	-64.263	16885	15595	0	3860
-168.301	-58.384	16857	15610	0	3860
-166.679	-56.004	16826	15619	0	3860
-167.580	-61.846	16794	15620	0	3860
-168.806	-68.301	16763	15624	0	3860
-171.042	-73.278	16731	15641	0	3860
-175.911	-76.920	16702	15663	0	3860
-178.255	-77.317	16668	15672	0	3860
-170.357	-74.576	16630	15659	0	3860
-149.766	-70.501	16591	15637	0	3860
-116.480	-61.017	16553	15626	0	3860
-83.556	-52.146	16515	15629	0	3860
-61.991	-49.513	16478	15638	0	3860
-53.985	-56.113	16443	15653	0	3860
-51.388	-68.662	16407	15670	0	3860
-46.809	-77.281	16371	15683	0	3860
-38.226	-76.848	16335	15702	0	3860
-34.187	-72.881	16306	15748	0	3860
-39.380	-68.842	16277	15814	0	3860
-50.811	-69.347	16247	15869	0	3860
-61.486	-71.295	16217	15904	0	3860
-66.787	-71.259	16188	15933	0	3860
-70.862	-70.934	16155	15964	0	3860
-80.274	-65.885	16128	16003	0	3860
-92.896	-64.118	16102	16046	0	3860
-104.436	-62.856	16076	16088	0	3860
-110.746	-63.036	16048	16125	0	3860
-112.405	-62.784	16025	16160	0	3860
-115.507	-61.774	16001	16195	0	3860
-124.991	-60.188	15976	16235	0	3860
-140.353	-58.925	15955	16276	0	3860
-156.221	-58.781	15934	16314	0	3860
-171.078	-62.495	15915	16348	0	3860
-175.081	-67.580	15896	16384	0	3860
-171.980	-72.917	15879	16424	0	3860
-165.308	-73.314	15865	16465	0	3860
-162.135	-73.603	15850	16502	0	3860
-163.469	-72.413	15833	16527	0	3860
-169.672	-71.078	15819	16543	0	3860
-176.848	-71.836	15802	16555	0	3860
-182.294	-72.773	15788	16570	0	3860
-187.919	-72.376	15775	16583	0	3860
-197.764	-67.905	15761	16593	0	3860
-207.537	-61.414	15748	16602	0	3860
-218.320	-54.706	15738	16610	0	3860
-228.237	-53.191	15725	16618	0	3860
-237.360	-54.634	15716	16625	0	3860
-243.202	-62.495	15704	16633	0	3860
-245.799	-64.623	15698	16643	0	3860
-243.887	-60.512	15691	16654	0	3860
-239.199	-53.408	15683	16665	0	3860
-238.370	-46.159	15678	16675	0	3860
-245.186	-48.648	15673	16685	0	3860
-256.293	-54.490	15670	16696	0	3860
-269.347	-63.794	15666	16707	0	3860
-282.474	-69.816	15665	16719	0	3860
-286.152	-69.203	15663	16733	0	3860
-283.952	-66.967	15665	16746	0	3860
-277.750	-56.798	15666	16759	0	3860
-271.439	-49.657	15669	16772	0	3860
-265.597	-41.904	15670	16783	0	3860
-262.027	-37.685	15674	16794	0	3860
-258.565	-40.137	15679	16804	0	3860
-253.408	-42.193	15683	16812	0	3860
-247.818	-45.438	15691	16821	0	3860
-243.347	-46.917	15697	16829	0	3860
-240.462	-50.487	15703	16836	0	3860
-234.006	-54.309	15714	16841	0	3860
-223.440	-55.752	15721	16843	0	3860
-212.261	-54.309	15729	16843	0	3860
-197.944	-49.549	15739	16841	0	3860
-186.188	-41.724	15747	16839	0	3860
-176.560	-36.026	15757	16835	0	3860
-171.836	-37.432	15766	16829	0	3860
-175.334	-41.183	15779	16822	0	3860
-183.339	-44.212	15787	16813	0	3860
-193.725	-46.809	15797	16803	0	3860
-203.065	-43.851	15809	16792	0	3860
-204.832	-39.019	15819	16779	0	3860
-197.512	-37.973	15828	16763	0	3860
-184.782	-39.235	15838	16747	0	3860
-162.604	-43.815	15850	16731	0	3860
-139.127	-46.953	15858	16716	0	3860
-115.326	-49.766	15870	16701	0	3860
-97.223	-52.506	15880	16685	0	3860
-83.231	-56.221	15891	16667	0	3860
-73.314	-59.178	15899	16649	0	3860
-61.666	-58.781	15910	16632	0	3860
-48.215	-56.004	15919	16614	0	3860
-36.711	-48.395	15928	16595	0	3860
-32.023	-44.248	15937	16577	0	3860
-36.639	-41.580	15946	16559	0	3860
-47.638	-40.570	15953	16541	0	3860
-59.358	-38.658	15963	16524	0	3860
-67.652	-35.521	15970	16508	0	3860
-77.101	-35.774	15979	16494	0	3860
-92.427	-41.580	15987	16480	0	3860
-112.910	-49.044	15996	16469	0	3860
-133.718	-54.057	16002	16458	0	3860
-144.537	-55.211	16011	16447	0	3860
-144.248	-49.838	16017	16435	0	3860
-136.675	-47.710	16025	16424	0	3860
-125.784	-47.277	16030	16413	0	3860
-114.389	-46.881	16038	16404	0	3860
-108.439	-46.592	16045	16394	0	3860
-105.445	-44.861	16051	16385	0	3860
-107.176	-43.779	16056	16378	0	3860
-112.189	-47.782	16064	16372	0	3860
-112.369	-49.693	16068	16367	0	3860
-110.206	-49.080	16073	16363	0	3860
-108.871	-46.881	16081	16360	0	3860
-109.881	-42.229	16086	16358	0	3860
-114.677	-38.803	16092	16359	0	3860
-116.372	-39.127	16099	16363	0	3860
-111.396	-41.435	16106	16370	0	3860
-99.459	-44.969	16114	16381	0	3860
-90.047	-45.438	16123	16396	0	3860
-85.395	-41.363	16132	16415	0	3860
-88.713	-36.278	16143	16439	0	3860
-96.754	-31.951	16158	16466	0	3860
-108.258	-30.256	16169	16496	0	3860
-117.454	-32.420	16183	16525	0	3860
-124.198	-31.915	16199	16551	0	3860
-135.377	-31.446	16212	16577	0	3860
-147.097	-35.449	16227	16604	0	3860
-159.755	-45.186	16243	16628	0	3860
-173.386	-54.129	16260	16649	0	3860
-178.507	-59.574	16277	16675	0	3860
-178.976	-52.831	16295	16700	0	3860
-179.300	-44.176	16315	16723	0	3860
-184.493	-38.622	16335	16747	0	3860
-193.725	-41.219	16355	16767	0	3860
-203.931	-49.982	16373	16779	0	3860
-204.868	-58.276	16392	16787	0	3860
-198.197	-57.375	16414	16802	0	3860
-189.614	-54.670	16438	16824	0	3860
-180.058	-53.155	16462	16849	0	3860
-176.127	-51.749	16487	16873	0	3860
-173.242	-55.752	16513	16892	0	3860
-170.213	-56.040	16540	16909	0	3860
-165.236	-57.266	16568	16930	0	3860
-162.351	-54.021	16602	16967	0	3860
-154.237	-54.021	16635	17013	0	3860
-142.806	-49.549	16669	17047	0	3860
-126.109	-41.976	16702	17060	0	3860
-108.475	-35.377	16733	17066	0	3860
-96.358	-33.429	16767	17079	0	3860
-84.962	-39.488	16802	17095	0	3860
-73.026	-49.621	16835	17098	0	3860
-56.870	-53.696	16864	17085	0	3860
-34.980	-52.975	16899	17065	0	3860
-17.562	-45.186	16930	17048	0	3860
-6.960	-40.426	16962	17037	0	3860
-1.226	-39.776	16995	17026	1	832
6.708	-40.245	17025	17000	0	832
17.923	-39.957	17047	16942	0	832
31.951	-39.668	17065	16854	0	832
42.265	-38.695	17082	16751	0	832
44.573	-39.740	17092	16649	0	832
41.291	-41.543	17105	16559	0	832
42.373	-40.930	17113	16476	0	832
46.304	-37.757	17118	16384	0	832
51.424	-34.259	17121	16278	0	832
56.834	-30.545	17123	16177	0	832
55.427	-27.083	17124	16095	0	832
54.526	-22.863	17125	16030	0	832
51.424	-20.411	17124	15977	0	832
52.001	-20.303	17125	15928	0	832
51.352	-17.959	17125	15890	0	832
54.814	-17.238	17126	15870	0	832
58.060	-12.225	17130	15870	0	832
61.450	-9.737	17133	15873	0	832
63.361	-8.979	17133	15868	0	832
65.056	-9.592	17135	15867	0	832
67.400	-12.333	17138	15885	0	832
72.773	-14.966	17144	15918	0	832
77.137	-15.795	17147	15948	0	832
83.484	-17.779	17149	15963	0	832
88.244	-13.523	17151	15973	0	832
99.098	-4.724	17152	15989	0	832
110.278	5.986	17154	16012	0	832
122.575	10.133	17157	16035	0	832
123.080	5.157	17156	16052	0	832
115.759	-4.544	17156	16062	0	832
103.678	-12.333	17154	16069	0	832
92.824	-17.634	17151	16075	0	832
86.296	-15.975	17151	16082	0	832
86.946	-12.153	17146	16083	0	832
84.710	-11.504	17138	16067	0	832
81.536	-8.294	17125	16034	0	832
72.485	-5.698	17110	15984	0	832
61.991	-3.029	17090	15923	0	832
51.497	-4.904	17070	15865	0	832
43.058	-5.626	17049	15814	0	832
35.665	-7.212	17024	15766	0	832
27.948	-8.799	16999	15714	0	832
19.437	-8.799	16971	15661	0	832
5.301	-13.415	16944	15620	0	832
-8.258	-18.969	16920	15601	0	832
-20.952	-24.630	16895	15601	0	832
-33.285	-25.099	16872	15609	0	832
-45.005	-20.483	16844	15608	0	832
-57.735	-16.012	16820	15607	0	832
-70.970	-16.805	16798	15619	0	832
-83.880	-24.630	16774	15649	0	832
-92.499	-34.006	16751	15688	0	832
-102.092	-40.570	16730	15718	0	832
-111.504	-41.039	16705	15739	0	832
-122.322	-38.478	16680	15757	0	832
-130.689	-37.072	16654	15770	0	832
-135.197	-41.543	16626	15774	0	832
-139.091	-53.011	16598	15776	0	832
-142.553	-62.640	16569	15781	0	832
-145.618	-65.885	16543	15798	0	832
-145.510	-57.807	16522	15834	0	832
-138.803	-44.825	16497	15879	0	832
-127.155	-33.357	16474	15917	0	832
-115.939	-29.210	16451	15943	0	832
-101.479	-30.364	16427	15968	0	832
-79.264	-30.581	16404	15993	0	832
-48.792	-22.250	16381	16016	0	832
-10.566	-10.494	16356	16035	0	832
28.273	8.186	16336	16056	0	832
62.712	22.647	16310	16077	0	832
95.312	39.091	16287	16092	0	832
132.708	56.365	16263	16099	0	832
183.916	83.736	16237	16107	0	832
245.618	114.389	16213	16117	0	832
312.658	152.182	16189	16128	0	832
372.953	184.998	16165	16137	0	832
419.906	213.776	16142	16151	0	832
453.660	237.865	16127	16185	0	832
479.553	257.880	16109	16235	0	832
498.918	270.609	16092	16275	0	832
512.441	273.783	16074	16295	0	832
516.084	265.272	16055	16304	0	832
514.677	248.431	16035	16312	0	832
506.996	228.777	16015	16322	0	832
501.947	210.061	16000	16332	0	832
496.610	200.108	15981	16338	0	832
489.506	199.062	15961	16339	0	832
474.721	201.767	15943	16343	0	832
446.736	194.122	15927	16353	0	832
411.504	170.790	15911	16368	0	832
371.295	129.787	15897	16380	0	832
333.610	87.775	15880	16388	0	832
305.445	57.591	15866	16396	0	832
277.930	39.344	15852	16407	0	832
249.982	33.285	15839	16421	0	832
218.428	19.978	15827	16436	0	832
187.739	1.839	15815	16449	0	832
159.538	-18.247	15805	16460	0	832
132.925	-36.170	15793	16471	0	832
108.727	-50.847	15784	16484	0	832
82.257	-60.873	15774	16498	0	832
56.870	-70.105	15768	16512	0	832
35.088	-77.786	15760	16527	0	832
17.454	-81.320	15753	16543	0	832
-0.721	-84.025	15747	16561	0	832
-22.503	-87.270	15746	16581	0	832
-46.736	-98.666	15742	16603	0	832
-70.790	-113.776	15740	16624	0	832
-90.552	-129.535	15739	16646	0	832
-100.541	-140.065	15738	16667	0	832
-110.242	-147.782	15740	16687	0	832
-121.493	-155.788	15742	16706	0	832
-137.973	-163.866	15744	16724	0	832
-152.795	-171.223	15750	16741	0	832
-160.404	-169.996	15752	16756	0	832
-162.171	-164.082	15757	16771	0	832
-159.647	-154.959	15765	16783	0	832
-165.777	-153.805	15769	16794	0	832
-175.045	-155.067	15776	16802	0	832
-183.736	-157.014	15783	16808	0	832
-185.683	-157.483	15791	16812	0	832
-182.798	-154.201	15798	16813	0	832
-181.031	-153.588	15806	16812	0	832
-184.529	-154.706	15815	16809	0	832
-188.749	-151.388	15823	16805	0	832
-189.794	-145.186	15833	16799	0	832
-185.142	-134.872	15840	16791	0	832
-179.300	-125.135	15848	16782	0	832
-176.271	-123.188	15858	16772	0	832
-178.363	-124.053	15866	16761	0	832
-183.520	-126.542	15876	16749	0	832
-189.867	-128.994	15884	16737	0	832
-195.023	-129.174	15896	16724	0	832
-201.406	-135.160	15904	16710	0	832
-202.885	-140.786	15914	16695	0	832
-195.673	-146.448	15923	16681	0	832
-182.257	-146.772	15932	16665	0	832
-162.892	-140.173	15942	16649	0	832
-147.494	-133.069	15950	16631	0	832
-138.045	-130.436	15957	16613	0	832
-136.819	-131.122	15965	16595	0	832
-135.737	-135.052	15974	16578	0	832
-133.934	-133.970	15983	16563	0	832
-127.912	-122.683	15989	16547	0	832
-118.320	-106.924	15997	16531	0	832
-107.862	-91.201	16005	16515	0	832
-99.928	-85.106	16011	16501	0	832
-95.240	-86.801	16020	16491	0	832
-93.653	-92.968	16028	16484	0	832
-95.023	-97.187	16038	16481	0	832
-93.437	-95.168	16048	16486	0	832
-83.880	-88.244	16061	16502	0	832
-68.554	-81.608	16076	16526	0	832
-47.890	-77.569	16091	16554	0	832
-31.013	-77.281	16107	16581	0	832
-25.352	-83.808	16125	16610	0	832
-25.856	-93.545	16146	16645	0	832
-28.020	-103.750	16166	16686	0	832
-25.388	-105.265	16189	16726	0	832
-11.540	-95.709	16213	16761	0	832
-1.298	-79.120	16236	16796	0	832
2.344	-66.787	16261	16832	0	832
-3.390	-61.125	16287	16867	0	832
-9.160	-64.623	16317	16901	0	832
-5.770	-68.842	16342	16931	0	832
5.662	-66.823	16372	16954	0	832
22.070	-59.142	16400	16976	0	832
37.036	-49.693	16430	16996	0	832
46.304	-43.022	16458	17012	0	832
53.372	-38.731	16487	17020	0	832
61.522	-33.718	16514	17010	0	832
70.321	-29.066	16537	16985	0	832
80.310	-18.860	16566	16959	0	832
96.574	-3.570	16590	16941	0	832
123.476	16.480	16614	16922	1	700
154.886	37.036	16640	16899	0	700
189.145	60.548	16667	16878	0	700
217.743	77.750	16691	16862	0	700
241.075	97.512	16717	16848	0	700
265.921	119.546	16744	16827	0	700
295.240	144.717	16767	16801	0	700
334.511	169.672	16792	16775	0	700
372.953	190.624	16812	16743	0	700
402.741	206.708	16834	16706	0	700
420.555	219.437	16856	16673	0	700
430.400	229.715	16879	16653	0	700
436.314	242.409	16902	16642	0	700
445.727	250.956	16925	16632	0	700
452.434	256.870	16945	16614	0	700
457.086	256.978	16970	16594	0	700
459.466	251.100	16990	16581	0	700
460.728	242.265	17008	16558	0	700
464.695	233.538	17022	16507	0	700
465.020	231.590	17031	16440	0	700
461.774	232.528	17044	16384	0	700
453.768	237.829	17054	16341	0	700
442.986	240.353	17065	16304	0	700
436.711	236.855	17072	16265	0	700
430.581	229.354	17077	16213	0	700
425.243	217.129	17079	16152	0	700
417.743	204.688	17080	16093	0	700
410.710	193.581	17083	16049	0	700
406.131	190.299	17083	16018	0	700
403.029	189.903	17083	15988	0	700
403.173	190.263	17084	15961	0	700
402.488	186.080	17084	15946	0	700
397.692	175.406	17084	15936	0	700
392.427	163.505	17082	15924	0	700
383.916	153.913	17076	15903	0	700
376.704	150.234	17070	15872	0	700
369.023	148.251	17064	15843	0	700
365.236	147.025	17056	15829	0	700
360.656	143.527	17052	15834	0	700
358.276	136.531	17048	15848	0	700
351.893	128.345	17040	15860	0	700
341.111	118.644	17034	15864	0	700
330.905	109.484	17022	15852	0	700
321.457	105.265	17008	15826	0	700
317.490	107.573	16994	15800	0	700
316.372	111.432	16979	15781	0	700
314.389	108.114	16962	15765	0	700
311.360	-577.930	34367	15663	0	14922
-21.313	-46.123	16308	16056	0	668
-20.014	-42.553	16290	16071	0	668
-20.267	-42.048	16277	16090	0	668
-24.125	-44.681	16261	16111	0	668
-27.876	-49.008	16246	16131	0	668
-30.112	-51.028	16232	16148	0	668
-28.597	-53.877	16217	16163	0	668
-27.191	-54.526	16201	16177	0	668
-28.092	-56.509	16188	16192	0	668
-27.840	-53.083	16172	16207	0	668
-29.246	-50.775	16160	16225	0	668
-25.856	-43.527	16146	16244	0	668
-17.202	-35.413	16135	16264	0	668
-10.638	-27.624	16124	16287	0	668
-6.527	-23.296	16112	16311	0	668
-8.943	-22.719	16104	16337	0	668
-9.989	-19.906	16096	16365	0	668
-7.681	-15.723	16089	16393	0	668
1.659	-7.068	16083	16423	0	668
9.917	0.938	16077	16452	0	668
14.533	3.029	16073	16480	0	668
11.035	-1.298	16069	16507	0	668
2.957	-7.645	16066	16533	0	668
-7.465	-12.766	16065	16558	0	668
-17.562	-11.540	16063	16583	0	668
-24.955	-5.121	16063	16608	0	668
-29.787	-0.974	16063	16631	0	668
-31.626	0.721	16064	16653	0	668
-27.407	-1.983	16066	16671	0	668
-20.303	-3.318	16068	16687	0	668
-13.451	-1.731	16070	16702	0	668
-10.386	1.010	16073	16713	0	668
-13.848	4.147	16077	16722	0	668
-16.913	4.400	16079	16728	0	668
-20.700	3.065	16083	16731	0	668
-15.002	8.511	16087	16732	0	668
-8.475	17.995	16091	16732	0	668
0.505	30.869	16096	16730	0	668
5.914	40.173	16100	16725	0	668
8.439	43.238	16105	16719	0	668
8.583	40.822	16110	16711	0	668
7.934	37.577	16115	16701	0	668
6.852	38.009	16120	16691	0	668
8.150	43.022	16124	16681	0	668
13.595	50.559	16128	16669	0	668
19.510	54.165	16133	16656	0	668
25.640	54.021	16140	16644	0	668
27.587	47.710	16142	16631	0	668
23.404	41.868	16148	16620	0	668
20.159	39.199	16155	16609	0	668
13.163	42.084	16159	16598	0	668
12.369	50.667	16165	16586	0	668
11.287	56.581	16169	16572	0	668
9.953	61.666	16176	16559	0	668
14.713	63.541	16178	16544	0	668
20.267	66.607	16183	16530	0	668
29.463	70.032	16188	16517	0	668
37.505	78.687	16191	16503	0	668
46.123	85.215	16196	16490	0	668
50.234	90.948	16201	16480	0	668
53.841	97.187	16206	16477	0	668
58.853	100.036	16213	16480	0	668
63.325	100.685	16220	16485	0	668
64.731	100.793	16228	16493	0	668
65.525	101.226	16238	16506	0	668
65.597	102.885	16248	16527	0	668
67.905	106.491	16261	16552	0	668
73.530	112.297	16274	16578	0	668
78.651	116.625	16287	16603	0	668
83.808	120.375	16304	16631	0	668
87.306	122.322	16320	16663	0	668
87.523	126.650	16340	16699	0	668
95.600	131.987	16359	16736	0	668
102.128	136.639	16379	16770	0	668
109.448	136.098	16399	16798	0	668
113.018	130.400	16419	16818	0	668
114.785	119.149	16438	16832	0	668
114.064	109.016	16460	16842	0	668
111.864	101.911	16479	16851	0	668
108.691	96.358	16499	16849	0	668
106.347	95.636	16515	16836	0	668
103.354	96.358	16533	16817	0	668
102.957	98.449	16551	16804	0	668
103.246	97.223	16571	16795	0	668
101.695	92.427	16587	16787	0	668
99.459	85.467	16607	16774	0	668
97.512	78.507	16626	16762	0	668
96.141	76.235	16650	16770	0	668
94.627	74.576	16675	16794	0	668
92.679	73.458	16699	16812	0	668
91.742	70.501	16722	16813	0	668
90.083	67.111	16743	16804	0	668
90.732	63.541	16766	16790	0	668
87.054	56.365	16785	16775	0	668
83.808	48.071	16807	16759	0	668
74.684	39.127	16826	16739	0	668
65.200	31.158	16844	16714	0	668
53.949	21.926	16863	16685	0	668
42.914	12.874	16880	16661	0	668
34.079	2.524	16902	16652	0	668
31.771	-4.039	16921	16651	0	668
29.895	-7.645	16941	16642	0	668
26.758	-8.006	16958	16618	0	668
21.637	-9.412	16975	16589	0	668
10.206	-13.884	16992	16564	0	668
3.678	-18.572	17007	16539	0	668
3.426	-23.476	17017	16505	0	668
8.799	-24.414	17029	16462	0	668
16.949	-21.096	17039	16422	0	668
24.162	-20.267	17049	16384	0	668
25.388	-17.490	17057	16351	0	668
22.467	-19.113	17067	16323	0	668
18.788	-16.300	17074	16296	0	668
12.874	-14.245	17076	16255	0	668
12.297	-5.445	17077	16197	0	668
13.379	1.875	17075	16134	0	668
18.680	8.475	17070	16070	0	668
23.837	12.441	17062	16005	0	668
28.020	11.900	17054	15941	0	668
28.417	10.999	17040	15874	0	668
25.712	8.294	17028	15805	0	668
22.503	7.032	17011	15744	0	668
20.267	6.058	16997	15693	0	668
18.464	4.940	16980	15655	0	668
20.123	4.544	16964	15630	0	668
17.562	1.479	16948	15612	0	668
16.444	-3.895	16933	15601	0	668
13.271	-9.556	16917	15602	0	668
15.903	-15.795	16902	15614	0	668
18.969	-16.913	16888	15629	0	668
22.034	-16.516	16872	15640	0	668
20.195	-14.713	16856	15654	0	668
15.398	-16.841	16843	15682	0	668
10.638	-23.801	16833	15731	0	668
9.629	-34.872	16823	15792	0	668
13.776	-47.674	16813	15842	0	668
15.723	-58.745	16800	15878	0	668
17.057	-68.554	16789	15911	0	668
10.819	-73.494	16779	15946	0	668
3.931	-79.445	16766	15979	0	668
-6.347	-85.755	16753	16004	0	668
-16.120	-99.062	16738	16019	0	668
-22.827	-113.920	16723	16030	0	668
-26.073	-125.352	16707	16037	0	668
-25.460	-132.239	16689	16040	0	668
-23.945	-133.321	16675	16049	0	668
-25.207	-133.033	16661	16066	0	668
-30.112	-135.846	16643	16079	0	668
-34.187	-140.137	16623	16077	0	668
-36.747	-143.383	16604	16062	0	668
-38.947	-144.284	16582	16049	0	668
-40.966	-145.727	16562	16038	0	668
-44.140	-148.936	16540	16027	0	668
-50.559	-155.824	16517	16012	0	668
-55.319	-164.299	16492	15996	0	668
-55.860	-171.150	16469	15986	0	668
-60.440	-182.005	16448	15987	0	668
-71.439	-203.498	16427	15996	0	668
-88.316	-231.518	16407	16005	0	668
-112.982	-266.210	16384	16012	0	668
-131.915	-295.276	16364	16019	0	668
-146.484	-306.275	16343	16032	0	668
-152.939	-299.207	16324	16046	0	668
-154.418	-280.743	16301	16058	0	668
-154.850	-256.076	16281	16064	0	668
-152.939	-230.797	16260	16069	0	668
-145.835	-211.756	16238	16079	0	668
-139.416	-196.682	16219	16095	0	668
-133.502	-182.330	16201	16117	0	668
-130.905	-167.761	16183	16139	0	668
-129.066	-149.766	16164	16158	0	668
-127.191	-130.364	16147	16177	0	668
-124.702	-116.012	16129	16195	0	668
-119.041	-108.763	16114	16215	0	668
-115.759	-106.094	16096	16234	0	668
-111.900	-103.426	16081	16253	0	668
-110.314	-95.636	16066	16273	0	668
-108.078	-83.988	16051	16293	0	668
-105.193	-70.898	16035	16310	0	668
-101.046	-62.063	16022	16321	0	668
-95.348	-57.122	16006	16332	0	668
-96.105	-58.384	15993	16344	0	668
-103.534	-65.813	15981	16358	0	668
-117.382	-71.691	15966	16372	0	668
-126.289	-74.360	15955	16384	0	668
-124.234	-68.806	15943	16396	0	668
-107.717	-58.529	15932	16413	0	668
-89.362	-43.563	15923	16433	0	668
-72.917	-31.699	15915	16453	0	668
-65.777	-10.963	15906	16473	0	668
-57.843	12.405	15899	16494	0	668
-44.681	43.707	15893	16517	0	668
-22.142	75.947	15891	16543	0	668
-0.902	102.488	15887	16568	0	668
17.202	120.123	15883	16592	0	668
22.358	127.191	15883	16616	0	668
22.575	130.004	15882	16639	0	668
15.867	122.322	15883	16661	0	668
11.792	114.245	15883	16682	0	668
5.698	100.902	15887	16703	0	668
0.721	88.136	15889	16722	0	668
-3.859	68.301	15892	16738	0	668
-11.179	48.756	15897	16752	0	668
-19.582	27.191	15901	16764	0	668
-31.987	4.580	15906	16776	0	668
-42.806	-14.533	15912	16786	0	668
-52.001	-30.256	15919	16793	0	668
-56.401	-41.796	15924	16798	0	668
-53.011	-55.247	15930	16799	0	668
-48.071	-65.417	15938	16797	0	668
-41.616	-77.569	15946	16793	0	668
-39.957	-87.523	15952	16787	0	668
-42.229	-94.879	15960	16779	0	668
-49.189	-98.485	15966	16769	0	668
-54.634	-99.207	15973	16758	0	668
-57.807	-98.954	15979	16745	0	668
-55.103	-97.548	15987	16730	0	668
-52.867	-97.404	15994	16715	0	668
-49.730	-98.233	16001	16700	0	668
-54.093	-99.531	16009	16684	0	668
-60.007	-103.029	16017	16667	0	668
-66.787	-105.806	16023	16651	0	668
-71.763	-109.052	16029	16634	0	668
-74.973	-114.172	16035	16617	0	668
-80.130	-121.818	16042	16602	0	668
-87.378	-131.590	16050	16586	0	668
-101.370	-142.697	16058	16571	0	668
-114.064	-154.778	16063	16555	0	668
-123.044	-163.974	16068	16539	0	668
-130.076	-173.062	16076	16524	0	668
-131.662	-180.094	16081	16510	0	668
-132.600	-184.710	16087	16499	0	668
-136.314	-186.080	16093	16490	0	668
-139.452	-186.801	16101	16485	0	668
-143.743	-185.431	16109	16481	0	668
-144.681	-181.031	16115	16477	0	668
-141.868	-172.737	16124	16477	0	668
-132.492	-158.457	16135	16486	0	668
-122.755	-144.320	16145	16505	0	668
-115.435	-138.154	16160	16529	0	668
-111.143	-139.957	16173	16558	0	668
-112.225	-145.294	16189	16588	0	668
-115.326	-151.100	16207	16619	0	668
-116.661	-150.487	16223	16648	0	668
-116.480	-146.556	16241	16676	0	668
-118.464	-143.058	16260	16702	0	668
-121.349	-139.668	16279	16730	0	668
-123.837	-137.144	16302	16762	0	668
-128.850	-136.747	16324	16795	0	668
-130.112	-140.426	16346	16819	0	668
-128.597	-145.258	16368	16832	0	668
-128.741	-148.576	16387	16840	0	668
-126.794	-148.648	16409	16844	0	668
-128.561	-142.734	16430	16848	0	668
-130.833	-139.380	16451	16849	0	668
-127.768	-135.233	16471	16840	0	668
-123.549	-133.790	16491	16826	0	668
-114.028	-132.239	16514	16825	0	668
-105.013	-128.273	16537	16836	0	668
-98.738	-119.293	16562	16838	0	668
-94.230	-110.530	16582	16828	0	668
-89.939	-98.521	16600	16809	0	668
-82.402	-82.005	16621	16780	0	668
-67.905	-66.679	16636	16745	0	668
-53.732	-50.811	16654	16711	0	668
-40.209	-37.108	16671	16681	0	668
-31.085	-27.479	16686	16651	0	668
-29.571	-22.972	16703	16621	0	668
-30.112	-19.798	16720	16600	0	668
-29.391	-19.329	16739	16593	0	668
-27.155	-18.716	16761	16598	0	668
-23.693	-18.752	16777	16593	0	668
-22.178	-17.129	16793	16573	0	668
-21.601	-15.471	16809	16547	0	668
-15.903	-8.006	16823	16522	0	668
-7.862	-0.216	16836	16493	0	668
5.698	17.129	16846	16457	0	668
19.834	31.951	16854	16413	0	668
26.361	45.258	16861	16366	0	668
29.427	53.155	16866	16314	0	668
27.804	55.031	16871	16265	0	668
26.470	51.208	16872	16225	0	668
25.604	52.506	16874	16182	0	668
26.578	55.175	16869	16116	0	668
26.253	54.490	16858	16030	0	668
22.647	50.920	16848	15947	0	668
14.281	39.704	16838	15881	0	668
4.219	24.630	16827	15832	0	668
-4.760	14.785	16816	15792	0	668
-7.970	12.117	16803	15754	0	668
-9.665	8.871	16789	15718	0	668
-14.930	-0.469	16777	15691	0	668
-33.682	-28.525	16763	15681	0	668
-68.734	-78.255	16753	15685	0	668
-116.156	-141.940	16741	15698	0	668
-168.193	-208.330	16731	15714	0	668
-211.864	-266.102	16720	15734	0	668
-243.743	-309.484	16712	15759	0	668
-262.676	-338.298	16702	15791	0	668
-268.878	-349.369	16694	15826	0	668
-267.400	-347.999	16684	15862	0	668
-254.598	-331.843	16676	15899	0	668
-237.360	-304.796	16671	15944	0	668
-216.805	-279.733	16668	16004	0	668
-198.053	-257.735	16668	16075	0	668
-181.861	-238.658	16666	16133	0	668
-161.053	-209.665	16659	16162	0	668
-129.715	-167.147	16650	16171	0	668
-89.686	-106.347	16644	16181	0	668
-39.019	-32.925	16635	16198	0	668
17.238	43.130	16627	16217	0	668
77.678	121.998	16621	16230	0	668
143.130	203.210	16612	16239	0	668
207.825	283.484	16604	16248	0	668
267.220	364.912	16598	16259	0	668
316.480	433.393	16592	16279	0	668
357.627	491.814	16586	16303	0	668
394.735	538.658	16580	16317	0	668
428.525	581.933	16568	16311	0	668
459.466	590.804	16555	16288	0	668
482.366	590.804	16543	16261	0	668
495.456	590.804	16528	16237	0	668
499.207	590.804	16514	16214	0	668
494.915	590.804	16499	16189	0	668
480.779	589.326	16481	16159	0	668
456.798	542.481	16462	16128	0	668
421.890	486.873	16445	16102	0	668
378.868	431.049	16430	16083	0	668
339.380	379.084	16409	16069	0	668
301.551	334.656	16391	16052	0	668
271.114	295.709	16372	16033	0	668
239.776	255.247	16355	16018	0	668
207.393	212.802	16333	16008	0	668
173.567	170.609	16315	16002	0	668
138.190	129.751	16295	15997	0	668
107.681	95.204	16276	15994	0	668
78.471	63.649	16254	15990	0	668
51.821	39.776	16236	15993	0	668
27.155	17.815	16217	16003	0	668
6.347	-1.911	16200	16017	0	668
-13.812	-20.952	16183	16034	0	668
-32.456	-42.337	16165	16053	0	668
-46.700	-58.276	16150	16076	0	668
-56.581	-70.177	16133	16101	0	668
-62.676	-72.340	16120	16124	0	668
-63.505	-73.783	16104	16144	0	668
-63.902	-78.579	16088	16163	0	668
-68.229	-86.982	16074	16182	0	668
-73.855	-102.524	16060	16202	0	668
-83.448	-117.418	16046	16224	0	668
-94.987	-128.994	16033	16247	0	668
-105.049	-137.216	16023	16272	0	668
-112.982	-144.140	16010	16299	0	668
-116.877	-152.110	16001	16327	0	668
-122.899	-160.620	15993	16356	0	668
-129.715	-171.583	15983	16385	0	668
-139.235	-178.759	15976	16416	0	668
-146.448	-184.133	15971	16446	0	668
-148.828	-185.828	15968	16477	0	668
-146.772	-187.703	15963	16506	0	668
-146.087	-190.552	15959	16536	0	668
-149.189	-192.355	15957	16564	0	668
-156.293	-198.125	15956	16592	0	668
-165.921	-199.567	15956	16620	0	668
-172.990	-205.445	15955	16647	0	668
-177.209	-212.441	15959	16672	0	668
-180.058	-222.755	15960	16695	0	668
-183.808	-233.285	15963	16715	0	668
-193.473	-244.933	15966	16733	0	668
-203.498	-257.447	15970	16749	0	668
-220.195	-268.698	15974	16763	0	668
-231.879	-282.185	15979	16774	0	668
-241.003	-293.112	15984	16782	0	668
-241.039	-298.882	15991	16787	0	668
-239.668	-305.085	15997	16790	0	668
-238.406	-311.360	16002	16789	0	668
-246.772	-322.395	16009	16786	0	668
-258.240	-335.882	16014	16780	0	668
-274.107	-349.008	16022	16773	0	668
-280.166	-362.964	16027	16765	0	668
-280.238	-374.180	16034	16755	0	668
-276.055	-385.179	16041	16743	0	668
-273.711	-399.135	16047	16731	0	668
-275.370	-408.871	16055	16718	0	668
-281.897	-421.493	16061	16705	0	668
-289.686	-435.413	16066	16689	0	668
-297.872	-449.189	16074	16673	0	668
-300.216	-457.086	16081	16655	0	668
-299.712	-455.608	16086	16638	0	668
-289.578	-441.904	16092	16620	0	668
-276.307	-419.726	16099	16602	0	668
-264.515	-399.459	16104	16584	0	668
-256.798	-383.015	16110	16566	0	668
-250.307	-366.859	16115	16548	0	668
-240.353	-350.523	16120	16532	0	668
-225.640	-326.758	16125	16517	0	668
-207.068	-302.560	16130	16503	0	668
-190.588	-282.654	16136	16490	0	668
-179.805	-271.006	16142	16478	0	668
-171.691	-263.217	16146	16467	0	668
-167.544	-256.581	16153	16457	0	668
-164.371	-242.770	16156	16449	0	668
-161.269	-225.279	16163	16445	0	668
-161.522	-205.481	16169	16445	0	668
-157.880	-189.722	16178	16451	0	668
-151.028	-172.052	16186	16462	0	668
-137.108	-152.218	16196	16477	0	668
-124.342	-126.830	16207	16493	0	668
-112.225	-106.996	16217	16508	0	668
-105.157	-87.739	16228	16524	0	668
-101.839	-79.012	16240	16542	0	668
-97.187	-68.446	16253	16559	0	668
-88.929	-57.050	16265	16575	0	668
-75.586	-41.688	16277	16588	0	668
-67.580	-29.895	16291	16600	0	668
-59.899	-21.060	16305	16609	0	668
-55.572	-17.382	16317	16619	0	668
-52.362	-10.710	16333	16639	0	668
-45.763	-3.714	16351	16666	0	668
-39.127	4.111	16367	16685	0	668
-34.728	8.294	16383	16693	0	668
-35.269	10.206	16396	16694	0	668
-35.377	12.045	16410	16689	0	668
-33.285	15.074	16426	16682	0	668
-24.630	24.414	16438	16673	0	668
-17.346	29.535	16450	16660	0	668
-8.366	35.124	16463	16639	0	668
-8.294	36.242	16472	16616	0	668
-10.602	37.973	16485	16591	0	668
-10.819	40.245	16494	16567	0	668
-9.484	40.245	16502	16541	0	668
-8.330	33.862	16510	16512	0	668
-8.907	24.125	16518	16485	0	668
-9.592	12.045	16527	16465	0	668
-11.432	5.914	16536	16453	0	668
-9.232	3.173	16545	16446	0	668
-6.852	1.479	16555	16437	0	668
-8.114	-2.957	16563	16424	0	668
-15.471	-11.251	16571	16414	0	668
-18.572	-22.106	16580	16408	0	668
-19.726	-28.453	16589	16402	0	668
-13.884	-36.531	16595	16391	0	668
-8.042	-46.376	16602	16374	0	668
-8.763	-62.063	16605	16353	0	668
-16.444	-78.868	16610	16333	0	668
-24.847	-93.617	16612	16311	0	668
-31.662	-104.544	16613	16283	0	668
-32.853	-109.953	16612	16249	0	668
-32.853	-117.021	16608	16209	0	668
-32.780	-125.893	16605	16170	0	668
-35.737	-137.360	16599	16132	0	668
-40.750	-147.890	16594	16098	0	668
-47.386	-153.913	16587	16069	0	668
-54.526	-151.785	16582	16043	0	668
-59.863	-147.602	16573	16016	0	668
-61.017	-138.154	16563	15987	0	668
-54.562	-125.460	16554	15967	0	668
-47.854	-111.756	16546	15958	0	668
-42.373	-90.371	16537	15953	0	668
-41.904	-68.518	16527	15944	0	668
-45.618	-42.301	16517	15934	0	668
-51.893	-19.365	16507	15933	0	668
-50.451	0.649	16500	15945	0	668
-41.543	23.044	16492	15968	0	668
-24.270	44.176	16486	15996	0	668
-3.967	65.525	16482	16025	0	668
9.845	85.287	16476	16055	0	668
15.723	99.171	16472	16090	0	668
12.117	109.989	16471	16129	0	668
10.746	117.743	16467	16166	0	668
13.848	124.739	16466	16198	0	668
23.332	132.276	16462	16227	0	668
35.052	134.403	16459	16254	0	668
43.419	133.141	16459	16284	0	668
47.169	128.741	16455	16313	0	668
47.169	125.712	16454	16334	0	668
45.474	122.719	16451	16346	0	668
44.537	122.791	16445	16350	0	668
43.707	121.060	16440	16345	0	668
41.399	123.044	16432	16337	0	668
38.154	124.125	16427	16336	0	668
31.085	129.391	16423	16338	0	668
23.621	134.547	16417	16339	0	668
17.598	137.973	16409	16335	0	668
20.555	139.380	16402	16328	0	668
23.585	136.928	16396	16320	0	668
32.456	132.997	16390	16313	0	668
37.432	129.931	16383	16307	0	668
39.127	127.696	16376	16299	0	668
38.586	128.633	16367	16288	0	668
38.406	130.148	16359	16275	0	668
36.747	127.768	16350	16265	0	668
36.891	122.142	16340	16258	0	668
36.062	115.867	16331	16251	0	668
36.964	112.586	16322	16241	0	668
39.416	110.891	16310	16230	0	668
43.599	109.556	16301	16220	0	668
48.720	107.068	16292	16211	0	668
49.874	99.098	16279	16205	0	668
51.352	90.984	16269	16200	0	668
45.691	83.844	16259	16196	0	668
43.599	79.697	16250	16194	0	668
42.589	74.684	16238	16196	0	668
42.878	68.842	16228	16199	0	668
43.671	60.873	16220	16205	0	668
40.750	51.280	16210	16212	0	668
38.334	40.930	16202	16221	0	668
37.216	34.764	16194	16233	0	668
44.392	33.141	16186	16249	0	668
53.877	35.413	16181	16266	0	668
63.794	35.449	16174	16287	0	668
67.364	32.203	16170	16308	0	668
64.515	24.702	16164	16331	0	668
59.971	19.978	16161	16354	0	668
58.817	18.752	16158	16377	0	668
59.827	23.729	16156	16400	0	668
61.666	27.948	16153	16422	0	668
60.260	23.981	16153	16444	0	668
56.221	17.166	16150	16464	0	668
48.287	5.986	16151	16483	0	668
45.041	-3.101	16151	16502	0	668
45.546	-6.960	16150	16521	0	668
46.736	-8.619	16153	16539	0	668
47.566	-7.140	16153	16555	0	668
47.854	-7.825	16156	16569	0	668
44.320	-13.343	16158	16580	0	668
38.190	-21.493	16159	16590	0	668
32.961	-29.679	16163	16597	0	668
26.470	-35.088	16164	16602	0	668
22.106	-36.206	16168	16606	0	668
21.601	-34.259	16169	16607	0	668
19.762	-34.511	16173	16608	0	668
23.188	-33.970	16176	16607	0	668
28.273	-33.682	16179	16605	0	668
33.429	-31.158	16182	16601	0	668
38.839	-26.650	16184	16598	0	668
41.471	-21.637	16189	16595	0	668
37.793	-17.706	16194	16591	0	668
31.987	-15.146	16196	16585	0	668
27.587	-15.975	16200	16579	0	668
24.739	-17.851	16205	16574	0	668
24.775	-18.175	16209	16568	0	668
25.748	-20.772	16212	16562	0	668
23.837	-21.601	16217	16555	0	668
23.332	-19.834	16220	16546	0	668
24.558	-19.329	16224	16538	0	668
21.709	-12.694	16228	16530	0	668
22.972	-8.222	16235	16522	0	668
19.365	-6.924	16236	16512	0	668
10.710	-11.612	16240	16501	0	668
6.275	-18.175	16241	16489	0	668
4.219	-24.053	16246	16478	0	668
4.219	-24.847	16248	16468	0	668
3.895	-21.709	16250	16457	0	668
0.252	-19.834	16253	16446	0	668
-5.373	-19.906	16255	16436	0	668
-7.032	-21.385	16259	16428	0	668
-5.337	-26.325	16261	16420	0	668
-2.200	-28.020	16263	16414	0	668
1.839	-29.463	16265	16408	0	668
-0.252	-30.508	16269	16401	0	668
0.721	-30.545	16271	16396	0	668
0.036	-30.545	16273	16392	0	668
4.219	-31.410	16276	16388	0	668
4.832	-34.547	16277	16384	0	668
3.029	-39.776	16279	16383	0	668
-3.137	-44.212	16282	16380	0	668
-8.727	-47.458	16283	16377	0	668
-13.415	-43.851	16286	16376	0	668
-14.605	-35.990	16289	16375	0	668
-9.412	-30.400	16290	16374	0	668
-9.556	-29.427	16292	16373	0	668
-13.812	-38.045	16295	16371	0	668
-20.267	-48.720	16295	16368	0	668
-30.220	-58.529	16297	16367	0	668
-34.908	-62.928	16297	16367	0	668
-33.970	-59.214	16301	16367	0	668
-28.741	-54.454	16302	16367	0	668
-21.529	-46.159	16304	16367	0	668
-13.487	-42.301	16306	16367	0	668
-6.744	-40.137	16306	16367	0	668
-7.212	-41.003	16309	16367	0	668
-10.638	-43.527	16309	16365	0	668
-15.218	-45.691	16310	16364	0	668
-21.998	-46.881	16310	16362	0	668
-21.854	-42.734	16312	16360	0	668
-22.863	-39.163	16312	16356	0	668
-26.758	-35.918	16313	16354	0	668
-35.665	-37.036	16313	16353	0	668
-46.556	-41.255	16314	16355	0	668
-58.096	-47.602	16314	16358	0	668
-66.354	-51.533	16317	16362	0	668
-65.344	-51.929	16317	16365	0	668
-61.738	-51.280	16320	16368	0	668
-54.598	-48.215	16320	16372	0	668
-45.186	-47.602	16322	16376	0	668
-39.380	-45.582	16325	16382	0	668
-32.276	-42.193	16325	16391	0	668
-24.594	-38.045	16332	16407	0	668
-16.877	-32.564	16337	16428	0	668
-12.369	-28.273	16343	16451	0	668
-10.674	-28.020	16349	16473	0	668
-7.862	-31.122	16359	16494	0	668
-5.445	-34.295	16366	16516	0	668
-0.721	-35.052	16373	16539	0	668
2.705	-33.934	16382	16562	0	668
2.669	-33.502	16391	16581	0	668
1.262	-33.141	16401	16597	0	668
0.000	-33.249	16412	16615	0	668
2.813	-31.735	16423	16634	0	668
5.770	-29.968	16436	16653	0	668
8.835	-27.984	16446	16668	0	668
10.674	-29.787	16460	16677	0	668
10.422	-34.980	16469	16680	0	668
12.153	-41.760	16479	16674	0	668
12.333	-45.186	16487	16661	0	668
13.992	-45.330	16496	16643	0	668
18.680	-41.075	16503	16620	0	668
19.473	-33.285	16510	16598	0	668
21.313	-28.453	16517	16577	0	668
16.985	-26.650	16523	16560	0	668
13.740	-29.715	16533	16555	0	668
8.763	-30.256	16543	16556	0	668
10.891	-26.650	16549	16548	0	668
15.218	-20.519	16554	16523	0	668
20.555	-10.891	16558	16487	0	668
24.594	-6.203	16561	16449	0	668
24.017	-7.104	16561	16412	0	668
18.320	-9.304	16559	16374	0	668
12.838	-11.504	16558	16330	0	668
4.977	-14.064	16555	16287	0	668
-0.036	-13.668	16554	16253	0	668
-7.285	-15.687	16551	16229	0	668
-13.523	-21.565	16550	16213	0	668
-24.053	-26.866	16548	16202	0	668
-25.640	-29.030	16546	16190	0	668
-22.647	-26.686	16545	16181	0	668
-14.064	-22.142	16544	16177	0	668
-6.058	-21.421	16544	16178	0	668
-4.580	-24.342	16543	16181	0	668
-7.104	-34.764	16540	16180	0	668
-13.379	-42.589	16535	16170	0	668
-17.706	-45.186	16531	16156	0	668
-18.969	-43.996	16527	16150	0	668
-21.781	-39.308	16523	16154	0	668
-23.008	-35.052	16521	16160	0	668
-18.320	-33.141	16518	16168	0	668
-15.543	-32.276	16517	16177	0	668
-7.898	-32.816	16514	16189	0	668
-2.921	-30.436	16512	16203	0	668
-0.469	-29.030	16510	16218	0	668
-1.839	-27.732	16508	16229	0	668
-4.327	-29.715	16503	16229	0	668
-9.304	-31.446	16496	16221	0	668
-14.605	-35.918	16491	16211	0	668
-17.959	-37.757	16485	16203	0	668
-22.972	-39.668	16478	16200	0	668
-21.673	-41.255	16471	16197	0	668
-20.447	-44.645	16464	16193	0	668
-20.375	-48.395	16455	16185	0	668
-19.834	-53.047	16449	16182	0	668
-24.630	-52.506	16441	16183	0	668
-27.227	-49.333	16435	16188	0	668
-28.056	-41.039	16428	16193	0	668
-24.270	-35.413	16419	16194	0	668
-23.512	-34.043	16413	16193	0	668
-21.168	-38.550	16404	16193	0	668
-22.755	-42.553	16396	16197	0	668
-24.414	-42.842	16389	16199	0	668
-21.349	-38.370	16382	16200	0	668
-18.392	-32.023	16373	16199	0	668
-13.776	-28.922	16363	16198	0	668
-13.631	-30.400	16354	16197	0	668
-14.569	-32.672	16346	16198	0	668
-19.654	-31.735	16335	16200	0	668
-21.241	-29.246	16327	16205	0	668
-21.709	-23.152	16320	16212	0	668
-18.572	-21.854	16310	16223	0	668
-18.139	-24.775	16304	16237	0	668
-18.356	-33.285	16299	16252	0	668
-21.529	-43.094	16291	16268	0	668
-26.217	-50.234	16286	16284	0	668
-27.948	-55.211	16281	16301	0	668
-29.787	-54.093	16276	16318	0	668
-28.633	-52.651	16272	16335	0	668
-26.253	-47.710	16268	16352	0	668
-24.089	-45.727	16265	16371	0	668
-20.952	-43.996	16261	16387	0	668
-22.431	-42.409	16258	16404	0	668
-22.431	-42.878	16256	16420	0	668
-25.279	-43.996	16254	16435	0	668
-27.479	-45.330	16253	16450	0	668
-28.489	-43.563	16253	16464	0	668
-26.866	-41.111	16251	16478	0	668
-25.207	-35.629	16251	16491	0	668
-23.476	-32.059	16250	16503	0	668
-19.762	-32.636	16251	16514	0	668
-15.975	-33.285	16251	16524	0	668
-11.792	-32.312	16253	16533	0	668
-8.547	-28.958	16253	16540	0	668
-11.360	-28.381	16256	16546	0	668
-19.113	-31.374	16256	16549	0	668
-32.672	-39.668	16258	16551	0	668
-42.229	-46.520	16259	16552	0	668
-45.943	-45.871	16261	16551	0	668
-45.330	-43.274	16261	16550	0	668
-42.445	-39.740	16263	16549	0	668
-38.767	-39.199	16266	16548	0	668
-35.124	-43.455	16268	16545	0	668
-29.102	-44.068	16271	16541	0	668
-21.781	-41.507	16272	16536	0	668
-15.939	-39.091	16273	16530	0	668
-18.969	-38.478	16276	16525	0	668
-23.837	-40.894	16278	16518	0	668
-29.607	-43.635	16279	16510	0	668
-31.446	-42.265	16281	16502	0	668
-26.686	-37.396	16283	16494	0	668
-21.457	-31.302	16286	16487	0	668
-17.598	-27.804	16286	16480	0	668
-19.077	-27.155	16289	16473	0	668
-21.854	-29.463	16291	16465	0	668
-26.830	-29.859	16291	16460	0	668
-28.814	-28.489	16294	16455	0	668
-26.325	-25.496	16295	16449	0	668
-21.277	-22.395	16296	16443	0	668
-19.149	-24.125	16299	16437	0	668
-17.346	-29.102	16299	16430	0	668
-23.476	-37.829	16301	16423	0	668
-28.777	-45.222	16301	16418	0	668
-34.620	-50.884	16305	16412	0	668
-37.757	-49.766	16306	16407	0	668
-38.406	-50.920	16306	16403	0	668
-38.262	-47.674	16309	16399	0	668
-34.151	-42.770	16309	16394	0	668
-29.427	-38.370	16312	16391	0	668
-25.207	-34.115	16312	16388	0	668
-23.404	-30.112	16314	16386	0	668
-23.476	-28.922	16314	16385	0	668
-22.935	-28.886	16317	16385	0	668
-20.952	-27.948	16317	16386	0	668
-19.293	-25.063	16319	16388	0	668
-17.670	-23.621	16322	16388	0	668
-18.824	-23.549	16320	16389	0	668
-17.021	-25.568	16324	16388	0	668
-13.451	-25.676	16324	16386	0	668
-8.943	-25.316	16327	16385	0	668
-6.383	-24.306	16327	16384	0	668
-9.196	-22.539	16328	16383	0	668
-14.785	-21.204	16330	16381	0	668
-16.048	-22.467	16330	16381	0	668
-16.444	-24.342	16331	16381	0	668
-12.550	-23.440	16333	16382	0	668
-8.042	-27.119	16333	16382	0	668
-8.763	-31.554	16336	16383	0	668
-12.946	-36.639	16336	16384	0	668
-17.202	-40.534	16336	16384	0	668
-24.053	-43.130	16340	16384	0	668
-26.145	-43.347	16340	16384	0	668
-26.506	-41.363	16340	16383	0	668
-26.001	-39.272	16341	16382	0	668
-24.522	-37.901	16342	16380	0	668
-21.926	-35.377	16342	16378	0	668
-20.303	-33.285	16342	16376	0	668
-15.290	-29.210	16343	16375	0	668
-13.307	-26.938	16343	16372	0	668
-10.746	-26.722	16342	16371	0	668
-12.225	-28.958	16343	16369	0	668
-16.012	-32.961	16345	16367	0	668
-17.743	-36.639	16343	16367	0	668
-21.024	-35.954	16345	16368	0	668
-21.998	-33.321	16346	16369	0	668
-19.762	-31.699	16346	16372	0	668
-20.952	-31.554	16346	16373	0	668
-20.339	-37.505	16348	16375	0	668
-22.503	-44.320	16349	16376	0	668
-26.001	-49.946	16349	16377	0	668
-24.450	-48.576	16349	16379	0	668
-24.053	-44.969	16350	16381	0	668
-22.250	-41.760	16351	16384	0	668
-23.404	-40.786	16353	16385	0	668
-29.282	-45.005	16353	16388	0	668
-34.259	-47.999	16354	16390	0	668
-35.413	-48.143	16355	16392	0	668
-32.348	-42.986	16356	16396	0	668
-28.453	-39.957	16358	16398	0	668
-25.243	-37.685	16358	16399	0	668
-24.955	-36.747	16359	16400	0	668
-25.604	-38.226	16361	16402	0	668
-24.883	-38.009	16361	16403	0	668
-20.339	-35.197	16363	16402	0	668
-16.949	-29.571	16364	16402	0	668
-9.556	-21.673	16364	16401	0	668
-6.094	-15.723	16366	16401	0	668
-1.154	-12.333	16367	16401	0	668
-0.469	-13.415	16368	16402	0	668
-0.180	-14.713	16369	16404	0	668
-1.731	-17.057	16372	16409	0	668
-3.714	-16.336	16374	16420	0	668
-8.330	-18.536	16381	16436	0	668
-11.973	-22.647	16384	16453	0	668
-17.743	-28.814	16389	16467	0	668
-19.077	-31.158	16395	16483	0	668
-23.765	-27.263	16401	16504	0	668
-30.617	-15.975	16412	16530	0	668
-45.763	-5.770	16420	16555	0	668
-70.970	4.219	16428	16576	0	668
-97.367	8.943	16440	16594	0	668
-112.658	13.668	16450	16613	0	668
-110.999	16.156	16462	16636	0	668
-93.004	20.772	16474	16657	0	668
-68.265	17.166	16485	16670	0	668
-45.943	11.323	16495	16674	0	668
-31.807	3.101	16507	16675	0	668
-19.149	0.000	16517	16675	0	668
-13.307	2.344	16526	16672	0	668
-8.114	7.465	16535	16658	0	668
-3.318	10.169	16540	16631	0	668
4.400	8.799	16545	16594	0	668
13.523	4.832	16548	16555	0	668
21.204	2.596	16551	16520	0	668
27.047	2.416	16554	16488	0	668
28.453	0.180	16554	16457	0	668
24.125	-3.426	16556	16419	0	668
19.437	-5.842	16554	16380	0	668
17.815	-7.501	16554	16341	0	668
15.867	-5.914	16553	16310	0	668
19.473	-3.642	16551	16286	0	668
21.962	-3.606	16549	16264	0	668
24.847	-4.219	16548	16242	0	668
23.152	-3.426	16545	16221	0	668
20.808	-3.101	16544	16206	0	668
21.854	-5.409	16543	16200	0	668
20.772	-8.330	16543	16202	0	668
23.116	-12.694	16543	16207	0	668
24.630	-12.946	16541	16210	0	668
24.775	-10.999	16540	16213	0	668
21.096	-12.514	16540	16219	0	668
13.631	-14.533	16541	16229	0	668
9.124	-17.490	16540	16240	0	668
5.878	-20.411	16543	16250	0	668
7.934	-18.356	16541	16260	0	668
10.674	-18.067	16543	16271	0	668
11.396	-17.418	16544	16285	0	668
9.196	-17.779	16545	16299	0	668
9.484	-20.231	16545	16308	0	668
9.268	-16.949	16544	16311	0	668
9.196	-18.211	16544	16313	0	668
9.232	-16.625	16544	16315	0	668
9.124	-17.670	16543	16317	0	668
8.222	-17.706	16540	16315	0	668
5.590	-21.854	16538	16309	0	668
0.361	-23.801	16533	16299	0	668
-0.938	-27.768	16530	16288	0	668
-1.406	-30.364	16525	16275	0	668
1.479	-32.492	16518	16260	0	668
1.046	-35.629	16514	16243	0	668
0.144	-33.141	16505	16224	0	668
-2.560	-32.095	16496	16203	0	668
-1.190	-28.020	16487	16179	0	668
3.462	-24.702	16478	16158	0	668
9.412	-25.424	16467	16142	0	668
11.287	-27.660	16458	16128	0	668
9.340	-26.289	16446	16114	0	668
5.085	-24.089	16436	16100	0	668
1.370	-24.955	16422	16089	0	668
-2.596	-25.063	16413	16082	0	668
-5.770	-30.220	16401	16079	0	668
-7.789	-32.528	16391	16082	0	668
-8.727	-33.069	16382	16086	0	668
-10.386	-31.266	16371	16090	0	668
-13.451	-30.653	16360	16095	0	668
-14.028	-32.925	16350	16102	0	668
-17.021	-35.449	16340	16112	0	668
-15.903	-39.668	16328	16125	0	668
-17.598	-43.635	16320	16141	0	668
-18.067	-44.717	16312	16159	0	668
-18.860	-44.212	16305	16179	0	668
-15.074	-39.596	16296	16203	0	668
-12.694	-36.783	16291	16227	0	668
-11.937	-36.855	16286	16252	0	668
-11.251	-39.776	16278	16276	0	668
-12.189	-44.717	16276	16301	0	668
-6.347	-45.691	16271	16327	0	668
0.252	-41.435	16266	16351	0	668
2.596	-36.062	16263	16375	0	668
-0.685	-33.934	16259	16398	0	668
-7.465	-35.233	16259	16421	0	668
-11.360	-43.455	16256	16444	0	668
-14.497	-47.782	16255	16465	0	668
-13.523	-46.376	16254	16484	0	668
-18.175	-39.560	16254	16502	0	668
-19.870	-33.466	16253	16518	0	668
-20.627	-31.049	16254	16532	0	668
-16.661	-36.134	16254	16543	0	668
-15.218	-46.592	16254	16552	0	668
-17.706	-56.726	16255	16560	0	668
-27.083	-59.466	16255	16567	0	668
-36.134	-58.709	16258	16571	0	668
-39.921	-55.824	16259	16575	0	668
-36.062	-50.090	16260	16577	0	668
-32.203	-48.071	16261	16578	0	668
-32.348	-47.458	16263	16577	0	668
-33.898	-47.890	16264	16576	0	668
-37.216	-49.044	16266	16573	0	668
-37.432	-48.684	16269	16570	0	668
-35.774	-49.153	16272	16565	0	668
-36.314	-48.539	16273	16560	0	668
-38.586	-45.005	16274	16555	0	668
-39.452	-45.366	16277	16549	0	668
-39.776	-44.068	16279	16544	0	668
-39.019	-40.029	16281	16539	0	668
-37.793	-38.947	16286	16534	0	668
-40.462	-38.586	16287	16529	0	668
-43.130	-39.199	16289	16523	0	668
-48.864	-43.563	16294	16517	0	668
-53.913	-46.123	16295	16510	0	668
-56.076	-45.005	16296	16502	0	668
-56.653	-41.399	16300	16493	0	668
-58.817	-36.495	16300	16485	0	668
-58.168	-34.908	16305	16477	0	668
-59.827	-32.131	16306	16468	0	668
-59.574	-32.348	16308	16460	0	668
-55.391	-31.662	16310	16452	0	668
-53.444	-30.472	16312	16444	0	668
-47.566	-29.715	16314	16437	0	668
-44.248	-32.420	16314	16429	0	668
-40.462	-33.141	16318	16422	0	668
-38.586	-32.384	16318	16416	0	668
-38.190	-31.843	16319	16410	0	668
-36.819	-31.194	16322	16404	0	668
-34.331	-31.554	16322	16398	0	668
-30.292	-31.194	16324	16393	0	668
-25.027	-28.092	16324	16388	0	668
-21.096	-23.476	16325	16384	0	668
-17.021	-21.601	16328	16381	0	668
-18.608	-20.736	16327	16378	0	668
-23.044	-27.804	16330	16374	0	668
-30.689	-35.197	16330	16371	0	668
-36.747	-40.173	16331	16368	0	668
-37.577	-41.219	16332	16366	0	668
-32.384	-36.928	16332	16364	0	668
-27.804	-34.115	16333	16363	0	668
-24.450	-34.800	16336	16361	0	668
-23.621	-38.550	16333	16359	0	668
-23.044	-42.193	16336	16356	0	668
-21.818	-40.894	16335	16353	0	668
-15.471	-36.495	16335	16351	0	668
-13.415	-30.364	16336	16350	0	668
-14.569	-30.256	16336	16349	0	668
-22.503	-34.403	16335	16348	0	668
-29.571	-40.353	16337	16348	0	668
-34.295	-42.553	16336	16348	0	668
-33.574	-42.589	16336	16349	0	668
-30.076	-39.127	16337	16351	0	668
-26.433	-34.043	16337	16352	0	668
-26.001	-31.482	16336	16354	0	668
-26.686	-31.122	16337	16356	0	668
-24.955	-28.958	16338	16359	0	668
-25.424	-24.414	16337	16363	0	668
-22.791	-19.257	16338	16366	0	668
-19.618	-18.356	16341	16369	0	668
-18.536	-16.697	16338	16371	0	668
-14.677	-22.178	16340	16372	0	668
-17.346	-27.443	16341	16372	0	668
-19.077	-32.492	16340	16372	0	668
-24.017	-36.567	16341	16373	0	668
-21.890	-34.079	16341	16375	0	668
-16.805	-29.643	16341	16377	0	668
-5.842	-21.709	16341	16380	0	668
3.570	-14.677	16342	16384	0	668
10.025	-15.939	16345	16386	0	668
12.405	-20.772	16345	16391	0	668
11.576	-27.876	16346	16396	0	668
12.766	-31.554	16348	16400	0	668
10.566	-33.538	16349	16404	0	668
5.085	-34.800	16350	16408	0	668
-4.111	-36.278	16351	16411	0	668
-10.206	-35.413	16353	16412	0	668
-10.025	-30.725	16355	16413	0	668
-3.101	-17.887	16355	16414	0	668
7.537	-7.465	16356	16415	0	668
11.864	-2.272	16358	16416	0	668
6.888	-8.943	16359	16416	0	668
-4.724	-18.392	16361	16416	0	668
-17.166	-26.974	16361	16414	0	668
-24.198	-26.722	16361	16411	0	668
-25.460	-18.788	16361	16408	0	668
-25.316	-12.874	16364	16404	0	668
-26.181	-9.340	16364	16401	0	668
-26.289	-11.432	16364	16398	0	668
-28.814	-18.752	16367	16395	0	668
-25.856	-24.125	16366	16392	0	668
-23.080	-26.073	16366	16389	0	668
-17.346	-26.506	16366	16386	0	668
-17.274	-24.125	16367	16384	0	668
-19.077	-23.549	16367	16382	0	668
-28.669	-30.905	16367	16382	0	668
-43.022	-39.055	16368	16384	0	668
-54.093	-46.772	16372	16389	0	668
-55.283	-48.287	16372	16396	0	668
-47.097	-42.193	16376	16404	0	668
-34.583	-33.321	16379	16421	0	668
-27.948	-29.427	16385	16444	0	668
-35.052	-35.124	16391	16469	0	668
-48.323	-47.422	16397	16493	0	668
-64.335	-59.358	16405	16515	0	668
-71.223	-65.921	16415	16538	0	668
-69.960	-64.731	16425	16563	0	668
-66.138	-59.034	16435	16585	0	668
-66.787	-53.841	16443	16604	0	668
-73.026	-54.742	16455	16623	0	668
-84.169	-57.230	16467	16649	0	668
-95.673	-60.548	16482	16683	0	668
-99.062	-61.017	16500	16717	0	668
-96.177	-57.916	16513	16741	0	668
-90.876	-54.598	16527	16755	0	668
-83.808	-49.693	16543	16763	0	668
-83.484	-50.018	16556	16767	0	668
-84.421	-51.497	16568	16763	0	668
-90.480	-56.076	16581	16752	0	668
-91.778	-58.889	16591	16734	0	668
-89.794	-58.853	16604	16713	0	668
-79.445	-57.122	16613	16690	0	668
-68.121	-51.244	16622	16668	0	668
-55.463	-48.287	16631	16642	0	668
-53.264	-46.448	16639	16613	0	668
-55.067	-44.681	16645	16580	0	668
-61.486	-44.140	16651	16540	0	668
-64.371	-41.399	16653	16495	0	668
-61.125	-37.793	16657	16455	0	668
-52.506	-34.908	16662	16426	0	668
-44.825	-30.581	16666	16403	0	668
-39.740	-26.650	16669	16380	0	668
-38.045	-22.755	16672	16353	0	668
-40.822	-22.575	16676	16331	0	668
-44.933	-28.056	16680	16318	0	668
-49.693	-34.800	16684	16312	0	668
-49.766	-40.858	16689	16312	0	668
-45.907	-41.543	16694	16312	0	668
-41.183	-35.593	16697	16307	0	668
-39.488	-31.951	16700	16296	0	668
-44.176	-36.531	16700	16282	0	668
-52.326	-43.707	16703	16270	0	668
-58.384	-51.677	16704	16261	0	668
-54.922	-52.110	16707	16256	0	668
-49.657	-44.717	16709	16259	0	668
-41.147	-39.272	16713	16273	0	668
-34.043	-37.216	16718	16290	0	668
-30.256	-38.947	16723	16299	0	668
-29.102	-43.491	16723	16300	0	668
-31.554	-45.366	16725	16295	0	668
-38.226	-47.061	16727	16288	0	668
-41.543	-50.523	16726	16284	0	668
-41.039	-50.307	16727	16279	0	668
-36.928	-51.028	16726	16273	0	668
-26.506	-49.333	16725	16265	0	668
-18.536	-45.727	16723	16255	0	668
-17.779	-48.720	16721	16243	0	668
-20.050	-51.172	16716	16228	0	668
-28.345	-56.004	16710	16208	0	668
-34.836	-56.401	16704	16184	0	668
-37.144	-54.165	16695	16154	0	668
-35.629	-48.071	16686	16125	0	668
-34.872	-43.671	16682	16119	0	668
-37.649	-41.832	16679	16133	0	668
-42.950	-42.806	16671	16137	0	668
-45.114	-43.202	16662	16119	0	668
-45.655	-41.796	16649	16089	0	668
-43.202	-39.596	16635	16056	0	668
-40.606	-37.432	16622	16028	0	668
-39.272	-37.865	16609	16005	0	668
-37.396	-39.452	16591	15985	0	668
-34.547	-40.209	16577	15965	0	668
-29.859	-40.101	16562	15948	0	668
-22.935	-37.613	16546	15940	0	668
-18.500	-33.826	16530	15934	0	668
-14.533	-30.761	16513	15929	0	668
-14.425	-32.203	16496	15923	0	668
-17.959	-36.026	16479	15918	0	668
-15.326	-38.009	16462	15919	0	668
-9.448	-38.731	16446	15927	0	668
-1.623	-35.557	16428	15938	0	668
3.678	-32.744	16413	15946	0	668
-0.361	-33.718	16395	15952	0	668
-10.927	-38.658	16379	15960	0	668
-18.211	-42.048	16361	15971	0	668
-20.916	-40.714	16345	15985	0	668
-13.054	-38.442	16330	16002	0	668
-7.321	-35.377	16312	16020	0	668
-3.678	-36.747	16297	16038	0	668
-6.275	-42.625	16281	16058	0	668
-11.756	-49.513	16265	16078	0	668
-19.077	-53.480	16251	16099	0	668
-21.277	-56.726	16237	16123	0	668
-23.873	-57.735	16223	16148	0	668
-23.260	-57.266	16213	16176	0	668
-21.637	-56.726	16200	16205	0	668
-20.231	-52.362	16188	16236	0	668
-17.274	-48.828	16181	16268	0	668
-18.067	-45.727	16170	16301	0	668
-15.326	-49.008	16164	16335	0	668
-13.091	-51.172	16155	16368	0	668
-9.124	-52.038	16150	16399	0	668
-6.527	-53.624	16143	16432	0	668
-5.265	-49.910	16141	16464	0	668
-7.176	-48.756	16137	16495	0	668
-7.140	-47.494	16133	16525	0	668
-5.770	-45.402	16130	16553	0	668
-1.983	-45.258	16129	16579	0	668
0.902	-45.618	16129	16604	0	668
3.282	-42.806	16129	16626	0	668
2.452	-42.770	16128	16645	0	668
-0.180	-40.786	16130	16662	0	668
-3.642	-42.517	16132	16677	0	668
-7.681	-46.664	16133	16688	0	668
-12.982	-51.497	16135	16698	0	668
-17.923	-50.811	16137	16706	0	668
-18.356	-43.779	16140	16712	0	668
-19.077	-38.334	16143	16716	0	668
-14.785	-34.115	16147	16719	0	668
-13.091	-32.744	16150	16720	0	668
-9.268	-34.908	16156	16719	0	668
-7.645	-33.141	16160	16718	0	668
-9.268	-32.600	16163	16714	0	668
-10.097	-30.725	16169	16707	0	668
-10.963	-31.013	16172	16700	0	668
-9.809	-30.508	16177	16690	0	668
-6.383	-31.374	16183	16680	0	668
-2.019	-29.643	16184	16667	0	668
-2.236	-30.941	16191	16654	0	668
-5.301	-34.079	16195	16640	0	668
-7.212	-37.072	16199	16627	0	668
-7.140	-34.980	16202	16613	0	668
-3.967	-31.230	16207	16598	0	668
0.902	-21.998	16212	16583	0	668
2.705	-17.562	16214	16567	0	668
-0.469	-16.769	16219	16551	0	668
-2.560	-21.673	16222	16535	0	668
-4.544	-26.361	16225	16521	0	668
-2.416	-27.119	16228	16506	0	668
2.957	-22.972	16232	16493	0	668
3.678	-20.411	16235	16479	0	668
1.154	-18.175	16238	16466	0	668
-5.229	-20.844	16242	16453	0	668
-9.520	-21.493	16245	16440	0	668
-9.232	-20.844	16246	16428	0	668
-8.258	-19.473	16248	16416	0	668
-10.169	-16.805	16250	16405	0	668
-12.514	-17.634	16253	16396	0	668
-13.307	-17.598	16255	16388	0	668
-13.163	-20.087	16258	16382	0	668
-11.540	-21.024	16259	16375	0	668
-13.091	-25.965	16260	16369	0	668
-23.729	-31.122	16261	16366	0	668
-30.689	-33.718	16264	16363	0	668
-33.574	-32.348	16266	16361	0	668
-28.994	-28.669	16269	16359	0	668
-22.863	-22.611	16271	16356	0	668
-19.870	-23.044	16272	16354	0	668
-22.034	-23.260	16274	16353	0	668
-30.004	-27.876	16277	16354	0	668
-37.288	-33.646	16278	16356	0	668
-40.642	-36.242	16279	16358	0	668
-43.671	-40.137	16282	16360	0	668
-45.222	-42.337	16284	16362	0	668
-50.595	-44.428	16286	16364	0	668
-53.336	-46.772	16289	16367	0	668
-55.824	-49.225	16291	16370	0	668
-51.316	-50.631	16291	16372	0	668
-45.582	-52.831	16295	16373	0	668
-36.711	-51.821	16297	16375	0	668
-28.056	-50.343	16297	16376	0	668
-21.745	-47.241	16300	16376	0	668
-14.894	-43.383	16300	16376	0	668
-12.117	-41.471	16302	16377	0	668
-8.114	-42.084	16302	16378	0	668
-2.560	-44.392	16306	16378	0	668
5.229	-45.041	16308	16377	0	668
12.369	-44.573	16308	16377	0	668
13.199	-43.130	16310	16377	0	668
14.136	-41.363	16310	16377	0	668
10.350	-41.363	16313	16378	0	668
14.461	-39.704	16314	16379	0	668
20.014	-36.928	16315	16379	0	668
28.850	-28.345	16317	16379	0	668
35.774	-20.591	16318	16380	0	668
38.622	-13.704	16320	16380	0	668
42.770	-10.061	16319	16380	0	668
41.652	-12.766	16320	16380	0	668
40.606	-18.211	16322	16380	0	668
41.543	-21.313	16324	16381	0	668
42.229	-21.673	16324	16383	0	668
43.383	-19.654	16325	16384	0	668
45.835	-14.389	16330	16386	0	668
47.133	-12.730	16328	16387	0	668
47.458	-11.432	16331	16387	0	668
47.422	-10.710	16331	16387	0	668
46.159	-12.622	16332	16387	0	668
45.330	-11.107	16333	16388	0	668
43.347	-9.809	16335	16391	0	668
39.957	-9.989	16338	16401	0	668
34.475	-11.756	16343	16416	0	668
32.059	-11.432	16348	16434	0	668
31.843	-10.422	16353	16449	0	668
34.187	-6.058	16359	16465	0	668
39.235	0.108	16366	16486	0	668
40.822	4.255	16373	16510	0	668
37.577	5.013	16383	16534	0	668
34.439	2.993	16391	16554	0	668
32.456	1.334	16399	16573	0	668
32.564	0.865	16410	16596	0	668
33.213	1.046	16423	16623	0	668
29.391	4.219	16436	16652	0	668
24.089	9.809	16449	16675	0	668
17.815	14.461	16463	16692	0	668
15.543	19.618	16476	16707	0	668
14.894	19.401	16491	16727	0	668
16.480	20.664	16509	16756	0	668
14.136	21.637	16526	16783	0	668
7.393	24.594	16541	16795	0	668
-0.649	26.938	16556	16790	0	668
-6.022	26.974	16572	16782	0	668
-5.662	22.539	16585	16777	0	668
1.875	18.608	16599	16766	0	668
14.389	13.740	16610	16747	0	668
27.768	14.353	16625	16724	0	668
36.711	15.723	16633	16693	0	668
41.399	17.346	16643	16657	0	668
44.140	17.526	16650	16617	0	668
44.573	18.356	16657	16579	0	668
45.402	17.129	16666	16542	0	668
45.294	17.490	16668	16502	0	668
42.048	17.490	16672	16459	0	668
37.216	13.379	16676	16416	0	668
33.393	10.494	16679	16379	0	668
29.787	4.508	16681	16346	0	668
27.696	2.524	16681	16315	0	668
26.397	2.669	16685	16285	0	668
21.818	3.967	16686	16263	0	668
22.719	5.914	16689	16251	0	668
23.873	8.042	16690	16237	0	668
21.313	7.645	16690	16214	0	668
17.815	4.219	16689	16190	0	668
12.910	2.669	16689	16174	0	668
7.285	1.082	16689	16169	0	668
8.439	2.849	16690	16172	0	668
16.156	6.852	16692	16180	0	668
24.198	10.674	16691	16185	0	668
23.981	11.035	16694	16187	0	668
22.719	9.376	16694	16193	0	668
18.824	7.032	16697	16205	0	668
17.274	7.140	16699	16217	0	668
23.693	9.665	16698	16225	0	668
33.718	11.540	16699	16228	0	668
41.075	14.749	16698	16231	0	668
43.094	14.497	16699	16236	0	668
39.163	7.501	16699	16243	0	668
34.872	1.983	16698	16246	0	668
34.367	-4.039	16694	16239	0	668
35.052	-8.330	16687	16217	0	668
36.603	-8.078	16680	16183	0	668
36.567	-4.003	16673	16158	0	668
32.528	-3.246	16671	16162	0	668
30.292	-5.049	16669	16188	0	668
30.977	-8.258	16666	16204	0	668
36.531	-13.848	16659	16195	0	668
42.914	-16.733	16650	16172	0	668
46.809	-18.897	16640	16145	0	668
48.431	-18.716	16630	16119	0	668
45.005	-22.899	16618	16097	0	668
38.009	-25.893	16605	16073	0	668
29.499	-28.092	16590	16042	0	668
25.460	-30.076	16576	16014	0	668
21.529	-29.391	16559	15994	0	668
20.447	-28.850	16543	15977	0	668
22.178	-27.515	16528	15960	0	668
20.952	-24.125	16512	15942	0	668
19.834	-22.106	16491	15924	0	668
15.002	-19.329	16472	15911	0	668
11.828	-21.673	16455	15905	0	668
8.150	-24.630	16436	15904	0	668
5.409	-25.027	16418	15903	0	668
7.068	-23.116	16401	15905	0	668
8.943	-19.978	16384	15910	0	668
10.566	-16.300	16367	15920	0	668
13.307	-18.283	16349	15933	0	668
18.139	-21.709	16331	15947	0	668
20.014	-27.227	16313	15961	0	668
23.440	-31.879	16297	15977	0	668
22.358	-35.846	16279	15996	0	668
23.044	-37.432	16263	16018	0	668
25.532	-37.685	16248	16044	0	668
28.597	-37.685	16235	16072	0	668
33.898	-37.432	16222	16103	0	668
33.141	-36.314	16209	16137	0	668
29.607	-37.505	16196	16171	0	668
27.876	-37.432	16186	16206	0	668
31.915	-36.567	16177	16242	0	668
39.885	-35.593	16166	16278	0	668
47.097	-35.233	16159	16315	0	668
52.578	-32.023	16150	16351	0	668
54.382	-30.400	16146	16386	0	668
53.372	-27.696	16141	16421	0	668
57.050	-27.696	16135	16457	0	668
57.699	-29.535	16133	16491	0	668
59.070	-34.403	16129	16524	0	668
58.745	-38.045	16128	16555	0	668
54.886	-38.695	16125	16583	0	668
55.103	-34.439	16125	16609	0	668
54.670	-29.174	16125	16631	0	668
53.516	-24.089	16125	16649	0	668
55.968	-24.558	16125	16666	0	668
54.850	-25.099	16125	16681	0	668
55.896	-25.027	16128	16694	0	668
52.795	-24.811	16132	16706	0	668
48.395	-23.693	16133	16717	0	668
39.957	-23.621	16136	16725	0	668
31.122	-28.381	16141	16730	0	668
26.001	-29.535	16145	16734	0	668
26.145	-30.220	16147	16735	0	668
29.643	-26.542	16153	16734	0	668
30.653	-26.037	16155	16729	0	668
26.506	-26.470	16160	16722	0	668
20.195	-29.571	16164	16712	0	668
13.054	-34.295	16169	16702	0	668
13.163	-35.233	16173	16689	0	668
15.975	-34.043	16177	16676	0	668
23.945	-28.489	16179	16662	0	668
26.109	-24.378	16184	16649	0	668
27.479	-20.375	16188	16634	0	668
24.991	-15.326	16192	16620	0	668
24.955	-13.307	16197	16606	0	668
24.630	-10.927	16201	16594	0	668
29.463	-11.215	16204	16581	0	668
34.511	-11.828	16209	16567	0	668
40.029	-10.783	16213	16554	0	668
45.438	-7.645	16217	16541	0	668
46.520	-1.551	16220	16528	0	668
44.789	1.334	16224	16516	0	668
39.272	-1.623	16228	16503	0	668
32.708	-8.402	16231	16491	0	668
29.463	-14.317	16235	16480	0	668
28.922	-18.716	16240	16469	0	668
30.184	-17.598	16242	16458	0	668
31.807	-16.372	16245	16448	0	668
30.977	-15.110	16247	16437	0	668
28.777	-15.002	16251	16428	0	668
28.309	-18.824	16254	16419	0	668
28.850	-18.824	16258	16412	0	668
29.174	-22.070	16260	16407	0	668
27.876	-26.073	16263	16400	0	668
22.935	-26.614	16265	16393	0	668
18.031	-26.866	16268	16386	0	668
10.602	-25.676	16269	16380	0	668
6.996	-22.539	16271	16373	0	668
2.416	-20.303	16273	16367	0	668
-0.829	-21.385	16276	16362	0	668
-3.534	-21.998	16277	16356	0	668
-3.390	-21.349	16277	16352	0	668
-1.659	-22.935	16279	16347	0	668
-2.560	-21.313	16281	16343	0	668
-2.560	-24.017	16282	16340	0	668
-2.019	-25.243	16282	16337	0	668
-1.370	-29.246	16284	16336	0	668
1.190	-33.213	16284	16336	0	668
3.029	-35.269	16286	16335	0	668
2.272	-35.629	16287	16335	0	668
3.750	-32.420	16290	16337	0	668
3.101	-28.237	16289	16340	0	668
3.246	-24.378	16291	16344	0	668
1.983	-20.411	16292	16348	0	668
2.705	-19.329	16294	16352	0	668
2.308	-18.139	16296	16356	0	668
4.796	-14.894	16296	16361	0	668
4.400	-10.927	16299	16365	0	668
1.767	-8.475	16302	16369	0	668
2.813	-5.193	16302	16373	0	668
8.222	-4.688	16305	16377	0	668
18.175	-5.085	16305	16380	0	668
26.397	-6.599	16309	16384	0	668
28.597	-11.143	16309	16385	0	668
27.912	-15.651	16312	16388	0	668
26.145	-19.401	16313	16390	0	668
24.450	-23.476	16315	16393	0	668
21.926	-27.768	16317	16396	0	668
18.500	-32.312	16319	16398	0	668
12.405	-38.983	16320	16400	0	668
8.619	-43.094	16322	16400	0	668
13.668	-39.776	16325	16401	0	668
21.060	-32.023	16324	16402	0	668
30.328	-27.227	16328	16403	0	668
38.118	-23.549	16328	16403	0	668
40.606	-24.991	16330	16402	0	668
37.216	-25.676	16333	16401	0	668
33.610	-27.660	16332	16400	0	668
30.941	-25.171	16333	16398	0	668
30.256	-25.820	16337	16396	0	668
30.184	-26.542	16336	16394	0	668
31.843	-28.850	16337	16392	0	668
31.915	-29.391	16340	16389	0	668
34.475	-28.958	16338	16387	0	668
37.252	-25.784	16340	16386	0	668
37.613	-22.972	16342	16386	0	668
35.954	-19.185	16342	16386	0	668
31.771	-19.257	16343	16384	0	668
29.751	-18.969	16345	16382	0	668
29.571	-19.798	16345	16380	0	668
30.112	-20.014	16345	16379	0	668
31.410	-16.625	16346	16378	0	668
28.056	-14.677	16348	16377	0	668
27.119	-12.946	16348	16377	0	668
26.470	-12.081	16348	16376	0	668
27.047	-11.468	16349	16375	0	668
30.436	-9.412	16349	16374	0	668
31.987	-7.862	16349	16373	0	668
33.610	-8.006	16350	16374	0	668
33.610	-13.776	16351	16377	0	668
30.508	-15.795	16353	16380	0	668
24.702	-17.021	16353	16381	0	668
20.087	-12.802	16354	16383	0	668
18.067	-10.746	16356	16386	0	668
16.156	-14.317	16358	16392	0	668
13.776	-20.519	16359	16396	0	668
6.708	-27.047	16360	16399	0	668
0.613	-28.922	16363	16403	0	668
4.977	-27.371	16364	16410	0	668
15.398	-29.751	16368	16418	0	668
26.253	-33.466	16371	16423	0	668
23.981	-37.757	16372	16422	0	668
11.179	-42.373	16372	16419	0	668
0.469	-43.347	16373	16413	0	668
-4.436	-42.842	16376	16406	0	668
-0.974	-44.104	16374	16399	0	668
3.246	-41.688	16373	16391	0	668
3.137	-39.993	16373	16384	0	668
1.659	-36.675	16373	16380	0	668
3.282	-33.754	16373	16375	0	668
8.439	-31.266	16372	16369	0	668
11.576	-29.499	16373	16365	0	668
12.802	-29.174	16373	16364	0	668
15.290	-27.299	16373	16364	0	668
17.310	-22.791	16373	16364	0	668
20.700	-19.510	16373	16364	0	668
18.428	-17.562	16373	16366	0	668
14.136	-19.365	16377	16368	0	668
5.013	-26.506	16376	16371	0	668
0.144	-29.535	16376	16373	0	668
1.334	-27.876	16377	16374	0	668
7.248	-21.854	16377	16377	0	668
13.415	-18.788	16378	16382	0	668
15.687	-19.762	16379	16387	0	668
11.684	-26.758	16381	16393	0	668
2.993	-34.006	16382	16397	0	668
-2.236	-39.055	16384	16401	0	668
-8.943	-40.966	16385	16406	0	668
-11.035	-44.320	16386	16410	0	668
-9.412	-44.753	16389	16412	0	668
-6.347	-39.632	16390	16413	0	668
1.370	-36.747	16391	16412	0	668
9.232	-29.499	16391	16409	0	668
12.766	-31.013	16394	16408	0	668
10.314	-38.658	16395	16412	0	668
4.111	-45.582	16396	16418	0	668
0.938	-48.612	16399	16420	0	668
-0.072	-43.094	16400	16417	0	668
0.938	-34.006	16400	16410	0	668
0.072	-26.830	16400	16403	0	668
-1.190	-26.145	16400	16395	0	668
-6.708	-28.092	16399	16385	0	668
-5.265	-27.696	16397	16376	0	668
-2.488	-25.676	16396	16363	0	668
1.695	-22.142	16394	16349	0	668
2.885	-21.204	16391	16336	0	668
0.865	-25.352	16390	16326	0	668
-3.895	-30.941	16386	16317	0	668
-9.196	-36.242	16384	16310	0	668
-9.845	-37.288	16383	16305	0	668
-6.563	-36.459	16381	16302	0	668
-0.469	-35.701	16378	16299	0	668
4.436	-34.367	16378	16299	0	668
5.517	-32.961	16376	16301	0	668
2.993	-34.764	16374	16306	0	668
-0.974	-34.656	16373	16311	0	668
-3.137	-33.538	16372	16318	0	668
-3.137	-31.879	16371	16324	0	668
-3.678	-28.633	16371	16332	0	668
-2.813	-23.801	16371	16340	0	668
-5.301	-21.204	16371	16347	0	668
-7.609	-21.709	16369	16355	0	668
-11.756	-23.260	16369	16363	0	668
-15.290	-26.722	16371	16369	0	668
-20.267	-30.725	16369	16375	0	668
-20.555	-32.384	16369	16379	0	668
-21.060	-32.492	16369	16383	0	668
-22.106	-32.203	16368	16385	0	668
-23.512	-29.246	16369	16388	0	668
-28.345	-29.571	16368	16390	0	668
-32.276	-31.482	16368	16392	0	668
-34.187	-34.872	16367	16392	0	668
-32.672	-37.613	16368	16392	0	668
-31.049	-38.550	16367	16392	0	668
-28.958	-36.675	16367	16393	0	668
-31.158	-35.737	16366	16393	0	668
-32.780	-32.997	16364	16393	0	668
-34.043	-31.987	16366	16393	0	668
-32.889	-28.164	16364	16392	0	668
-31.230	-26.686	16364	16392	0	668
-29.174	-26.181	16366	16392	0	668
-27.191	-24.378	16364	16393	0	668
-24.594	-25.063	16363	16395	0	668
-23.260	-27.155	16363	16396	0	668
-25.135	-27.263	16364	16397	0	668
-29.571	-32.780	16364	16397	0	668
-34.908	-36.891	16363	16398	0	668
-38.082	-38.875	16366	16398	0	668
-34.836	-38.839	16364	16399	0	668
-29.607	-37.577	16364	16399	0	668
-29.427	-38.658	16364	16400	0	668
-34.692	-44.176	16366	16400	0	668
-42.842	-49.946	16366	16401	0	668
-47.313	-54.165	16364	16402	0	668
-47.674	-53.696	16366	16401	0	668
-44.501	-46.917	16366	16401	0	668
-42.193	-41.003	16366	16401	0	668
-44.284	-40.534	16366	16400	0	668
-49.693	-41.760	16367	16399	0	668
-48.287	-43.238	16367	16399	0	668
-45.005	-41.543	16367	16399	0	668
-36.387	-38.514	16367	16399	0	668
-32.384	-32.816	16368	16398	0	668
-36.855	-31.987	16368	16396	0	668
-47.349	-30.905	16368	16396	0	668
-57.303	-33.357	16368	16395	0	668
-61.197	-36.134	16368	16396	0	668
-54.418	-36.495	16369	16397	0	668
-42.950	-34.656	16369	16398	0	668
-34.836	-29.607	16371	16398	0	668
-33.610	-24.017	16371	16399	0	668
-35.990	-19.618	16371	16400	0	668
-36.170	-16.480	16373	16400	0	668
-31.194	-15.687	16373	16400	0	668
-22.358	-13.054	16373	16400	0	668
-16.480	-12.658	16373	16400	0	668
-18.247	-19.149	16374	16399	0	668
-31.158	-25.965	16374	16397	0	668
-44.681	-35.269	16376	16396	0	668
-54.418	-41.724	16376	16394	0	668
-51.280	-40.245	16376	16393	0	668
-40.137	-35.701	16376	16392	0	668
-25.640	-29.895	16376	16389	0	668
-19.978	-23.224	16376	16387	0	668
-20.700	-23.260	16376	16385	0	668
-28.741	-24.702	16376	16384	0	668
-32.708	-23.729	16377	16381	0	668
-32.131	-23.152	16377	16379	0	668
-27.227	-21.962	16376	16377	0	668
-26.542	-19.005	16376	16376	0	668
-29.859	-20.664	16376	16376	0	668
-32.203	-22.972	16376	16375	0	668
-34.908	-21.962	16376	16376	0	668
-32.600	-21.313	16376	16377	0	668
-29.751	-16.985	16376	16378	0	668
-26.217	-17.490	16377	16378	0	668
-26.109	-19.473	16377	16377	0	668
-29.607	-27.660	16377	16377	0	668
-30.725	-37.865	16376	16376	0	668
-33.177	-44.176	16376	16375	0	668
-33.393	-45.330	16376	16374	0	668
-29.823	-39.163	16376	16374	0	668
-22.034	-30.328	16376	16376	0	668
-14.785	-24.666	16378	16377	0	668
-6.275	-22.863	16377	16379	0	668
-0.433	-23.837	16377	16381	0	668
3.354	-23.152	16377	16382	0	668
6.094	-23.657	16377	16382	0	668
6.491	-24.089	16377	16383	0	668
7.609	-24.486	16377	16383	0	668
9.160	-25.171	16376	16383	0	668
10.169	-23.224	16376	16384	0	668
9.268	-17.995	16377	16383	0	668
4.940	-16.228	16377	16382	0	668
2.596	-14.641	16376	16379	0	668
1.334	-18.824	16376	16378	0	668
4.688	-18.247	16376	16377	0	668
9.665	-18.428	16374	16376	0	668
17.310	-13.848	16374	16375	0	668
19.582	-10.674	16373	16375	0	668
22.106	-9.016	16376	16376	0	668
18.788	-11.107	16374	16378	0	668
13.343	-20.808	16374	16381	0	668
8.655	-25.099	16374	16383	0	668
8.150	-25.712	16374	16384	0	668
14.136	-21.313	16374	16384	0	668
17.598	-14.749	16374	16385	0	668
18.716	-16.156	16377	16388	0	668
11.648	-20.519	16377	16390	0	668
7.717	-28.777	16377	16393	0	668
8.330	-28.056	16378	16396	0	668
13.740	-19.473	16378	16398	0	668
20.411	-7.248	16378	16399	0	668
24.811	4.436	16379	16399	0	668
26.037	7.970	16379	16400	0	668
19.906	7.032	16381	16402	0	668
14.389	-1.226	16381	16403	0	668
6.094	-7.717	16382	16404	0	668
-2.019	-11.937	16382	16404	0	668
-0.505	-6.527	16383	16404	0	668
2.993	2.092	16383	16402	0	668
6.996	10.999	16383	16401	0	668
6.960	13.235	16384	16400	0	668
3.282	7.537	16384	16399	0	668
-1.839	-2.777	16384	16397	0	668
0.505	-11.035	16384	16395	0	668
3.931	-15.903	16384	16393	0	668
8.330	-15.867	16384	16390	0	668
5.265	-20.050	16384	16387	0	668
-3.390	-21.060	16384	16384	0	668
-14.028	-24.234	16384	16384	0	668
-17.202	-21.709	16384	16381	0	668
-13.199	-16.516	16384	16378	0	668
-2.236	-7.609	16383	16374	0	668
8.979	-2.416	16383	16370	0	668
14.317	1.370	16382	16366	0	668
13.487	0.938	16383	16363	0	668
5.950	-2.777	16382	16362	0	668
-1.262	-8.439	16382	16361	0	668
-7.898	-15.543	16382	16362	0	668
-8.078	-17.382	16381	16362	0	668
-6.491	-17.670	16381	16364	0	668
-4.219	-8.907	16381	16365	0	668
-5.085	-3.714	16381	16368	0	668
-8.583	-1.479	16381	16370	0	668
-14.966	-7.681	16381	16374	0	668
-20.339	-19.185	16381	16376	0	668
-24.702	-28.741	16381	16380	0	668
-24.991	-32.636	16381	16382	0	668
-19.257	-25.243	16381	16384	0	668
-13.307	-16.012	16381	16384	0	668
-6.275	-6.275	16382	16386	0	668
-5.229	-4.291	16382	16388	0	668
-5.229	-2.056	16383	16392	0	668
-1.334	2.813	16383	16396	0	668
9.016	14.389	16383	16397	0	668
23.837	28.850	16384	16398	0	668
34.583	39.019	16384	16398	0	668
38.442	43.779	16384	16397	0	668
37.937	45.222	16384	16396	0	668
39.776	46.628	16384	16394	0	668
41.688	53.588	16384	16392	0	668
43.599	56.509	16384	16391	0	668
39.885	58.529	16384	16390	0	668
33.718	58.637	16385	16390	0	668
29.968	53.408	16385	16390	0	668
30.941	49.369	16385	16389	0	668
35.701	44.104	16385	16387	0	668
34.403	38.082	16385	16385	0	668
26.433	31.194	16385	16384	0	668
14.641	25.568	16385	16384	0	668
6.239	23.296	16385	16385	0	668
1.442	24.991	16385	16386	0	668
4.219	24.739	16385	16386	0	668
5.734	24.883	16385	16384	0	668
3.101	22.142	16385	16384	0	668
-5.554	14.064	16385	16382	0	668
-15.471	10.133	16385	16380	0	668
-21.529	8.907	16385	16379	0	668
-21.781	10.386	16384	16377	0	668
-15.687	14.064	16384	16376	0	668
-4.652	19.113	16384	16375	0	668
2.885	20.664	16384	16375	0	668
6.131	21.024	16384	16375	0	668
5.085	19.870	16383	16374	0	668
1.875	16.733	16383	16372	0	668
-1.587	14.713	16382	16370	0	668
-4.364	11.900	16382	16368	0	668
-7.645	7.321	16381	16368	0	668
-14.281	2.596	16381	16368	0	668
-20.844	-2.885	16381	16369	0	668
-26.253	-8.547	16381	16372	0	668
-29.607	-10.819	16381	16375	0	668
-31.626	-11.792	16381	16377	0	668
-35.016	-12.982	16382	16379	0	668
-39.524	-19.005	16382	16381	0	668
-44.068	-23.044	16382	16383	0	668
-46.845	-31.662	16382	16384	0	668
-44.717	-38.695	16382	16386	0	668
-44.861	-42.409	16382	16387	0	668
-43.310	-43.563	16382	16389	0	668
-40.101	-44.068	16383	16392	0	668
-38.442	-42.157	16383	16392	0	668
-33.970	-39.704	16383	16393	0	668
-29.174	-39.199	16383	16392	0	668
-29.138	-42.842	16383	16392	0	668
-33.285	-46.845	16383	16391	0	668
-40.101	-52.074	16383	16390	0	668
-44.284	-50.631	16383	16388	0	668
-41.760	-48.359	16383	16387	0	668
-37.072	-44.212	16383	16387	0	668
-31.771	-40.498	16382	16386	0	668
-31.735	-44.356	16383	16386	0	668
-36.278	-49.116	16383	16388	0	668
-41.399	-51.244	16383	16389	0	668
-43.347	-57.699	16383	16390	0	668
-44.717	-58.168	16383	16389	0	668
-45.114	-58.745	16383	16390	0	668
-45.078	-56.581	16384	16390	0	668
-49.838	-53.119	16384	16391	0	668
-52.723	-52.542	16384	16391	0	668
-55.175	-54.886	16384	16390	0	668
-57.230	-62.063	16384	16390	0	668
-59.574	-68.193	16384	16390	0	668
-58.024	-70.285	16384	16388	0	668
-58.312	-68.301	16384	16386	0	668
-57.483	-62.027	16384	16384	0	668
-56.401	-59.142	16383	16382	0	668
-56.870	-58.384	16383	16379	0	668
-55.572	-58.529	16383	16376	0	668
-52.434	-52.578	16382	16374	0	668
-48.720	-42.950	16382	16372	0	668
-43.960	-30.292	16381	16371	0	668
-42.301	-23.981	16381	16370	0	668
-45.510	-25.604	16381	16370	0	668
-47.746	-32.816	16379	16372	0	668
-46.736	-38.731	16379	16373	0	668
-42.373	-38.983	16379	16376	0	668
-39.055	-37.000	16381	16377	0	668
-38.911	-35.521	16382	16378	0	668
-42.012	-35.593	16381	16379	0	668
-48.107	-38.695	16381	16380	0	668
-50.992	-42.842	16381	16381	0	668
-53.696	-47.386	16381	16382	0	668
-54.526	-50.162	16381	16384	0	668
-59.358	-52.074	16381	16384	0	668
-64.587	-52.434	16381	16384	0	668
-64.335	-49.080	16379	16384	0	668
-62.964	-49.513	16379	16382	0	668
-60.188	-48.828	16379	16380	0	668
-59.755	-47.782	16378	16378	0	668
-59.574	-48.467	16377	16376	0	668
-60.224	-44.068	16377	16374	0	668
-62.495	-41.543	16378	16375	0	668
-67.544	-42.806	16377	16376	0	668
-71.439	-45.402	16377	16379	0	668
-78.110	-48.215	16378	16382	0	668
-78.796	-53.372	16378	16384	0	668
-74.144	-53.624	16378	16387	0	668
-66.571	-50.162	16378	16389	0	668
-62.964	-47.926	16378	16390	0	668
-61.378	-44.284	16378	16391	0	668
-61.774	-42.914	16378	16392	0	668
-64.767	-43.599	16378	16393	0	668
-69.455	-47.349	16381	16394	0	668
-71.367	-50.595	16381	16396	0	668
-71.114	-53.047	16382	16397	0	668
-65.994	-50.162	16382	16399	0	668
-61.342	-46.592	16382	16400	0	668
-56.942	-41.435	16382	16399	0	668
-55.968	-40.786	16382	16398	0	668
-61.918	-44.428	16382	16396	0	668
-67.508	-51.713	16382	16395	0	668
-73.278	-55.968	16383	16395	0	668
-76.343	-58.889	16383	16394	0	668
-79.156	-57.194	16383	16394	0	668
-79.913	-57.050	16383	16393	0	668
-80.887	-60.765	16383	16392	0	668
-83.339	-63.613	16383	16392	0	668
-87.450	-64.371	16384	16391	0	668
-87.667	-62.856	16384	16392	0	668
-90.876	-59.106	16384	16392	0	668
-97.548	-56.798	16384	16391	0	668
-107.609	-60.404	16384	16390	0	668
-121.349	-61.305	16385	16388	0	668
-135.233	-55.067	16385	16387	0	668
-142.661	-44.825	16385	16388	0	668
-146.736	-31.554	16385	16388	0	668
-149.189	-20.880	16386	16390	0	668
-156.004	-18.067	16386	16391	0	668
-169.852	-17.490	16387	16392	0	668
-189.326	-23.476	16387	16391	0	668
-210.927	-26.938	16387	16390	0	668
-230.869	-34.439	16387	16388	0	668
-246.520	-39.704	16386	16385	0	668
-257.122	-43.455	16387	16384	0	668
-265.669	-44.933	16387	16383	0	668
-272.953	-46.232	16386	16381	0	668
-278.868	-45.907	16386	16381	0	668
-282.690	-45.005	16386	16381	0	668
-285.395	-45.546	16386	16381	0	668
-286.621	-44.176	16386	16381	0	668
-285.792	-42.589	16387	16381	0	668
-284.061	-40.606	16387	16383	0	668
-282.618	-40.029	16387	16384	0	668
-279.805	-38.406	16389	16384	0	668
-275.983	-36.639	16389	16385	0	668
-270.285	-36.783	16389	16385	0	668
-261.305	-33.357	16390	16386	0	668
-254.382	-31.374	16390	16388	0	668
-247.746	-31.554	16391	16390	0	668
-245.655	-34.620	16392	16392	0	668
-242.481	-39.452	16392	16393	0	668
-236.278	-45.402	16391	16392	0	668
-225.965	-46.953	16392	16391	0	668
-217.526	-45.691	16392	16390	0	668
-211.684	-43.779	16392	16390	0	668
-210.422	-39.812	16392	16388	0	668
-209.773	-38.045	16394	16386	0	668
-205.085	-38.731	16392	16384	0	668
-194.014	-38.983	16392	16383	0	668
-181.536	-38.695	16391	16380	0	668
-171.439	-38.586	16391	16376	0	668
-168.121	-39.560	16390	16372	0	668
-168.157	-41.435	16390	16370	0	668
-167.688	-46.700	16390	16368	0	668
-163.072	-50.379	16389	16367	0	668
-148.972	-50.667	16389	16365	0	668
-137.468	-49.225	16389	16364	0	668
-127.371	-45.150	16387	16364	0	668
-123.296	-42.157	16387	16365	0	668
-122.575	-42.842	16389	16369	0	668
-118.860	-42.914	16389	16376	0	668
-112.658	-43.599	16390	16382	0	668
-105.409	-43.671	16389	16384	0	668
-97.764	-46.953	16390	16386	0	668
-93.004	-48.612	16390	16388	0	668
-90.588	-51.352	16391	16389	0	668
-86.982	-54.382	16391	16389	0	668
-84.746	-51.461	16391	16389	0	668
-81.428	-47.313	16391	16389	0	668
-75.225	-40.714	16391	16388	0	668
-64.948	-37.757	16390	16387	0	668
-54.670	-39.055	16391	16384	0	668
-48.864	-41.796	16390	16384	0	668
-46.845	-45.078	16390	16382	0	668
-46.953	-41.724	16389	16381	0	668
-46.772	-34.620	16390	16381	0	668
-42.986	-29.751	16390	16384	0	668
-40.930	-30.400	16391	16389	0	668
-39.344	-34.764	16392	16394	0	668
-40.858	-38.478	16392	16396	0	668
-40.281	-35.701	16394	16397	0	668
-36.351	-29.282	16394	16397	0	668
-30.833	-24.270	16394	16396	0	668
-24.702	-20.627	16394	16395	0	668
-17.815	-22.034	16394	16393	0	668
-15.254	-23.765	16394	16391	0	668
-10.061	-20.988	16394	16388	0	668
-6.996	-19.870	16392	16385	0	668
-3.931	-18.644	16394	16383	0	668
-2.092	-20.195	16391	16380	0	668
-3.029	-21.132	16391	16376	0	668
-8.042	-25.171	16390	16372	0	668
-12.405	-27.335	16390	16369	0	668
-15.975	-29.282	16389	16367	0	668
-15.939	-27.912	16389	16365	0	668
-14.389	-25.893	16387	16364	0	668
-13.379	-25.748	16387	16363	0	668
-14.425	-28.633	16387	16362	0	668
-21.818	-34.475	16386	16362	0	668
-29.715	-43.599	16386	16362	0	668
-34.511	-48.503	16385	16361	0	668
-32.456	-45.041	16384	16361	0	668
-25.460	-38.911	16384	16361	0	668
-19.690	-33.610	16383	16361	0	668
-16.264	-31.626	16383	16362	0	668
-22.178	-34.872	16382	16362	0	668
-26.758	-39.344	16382	16364	0	668
-26.686	-40.534	16381	16364	0	668
-21.745	-35.665	16379	16365	0	668
-13.054	-29.679	16379	16365	0	668
-7.537	-24.017	16378	16367	0	668
-6.419	-22.395	16378	16369	0	668
-10.061	-23.440	16378	16372	0	668
-14.930	-21.493	16377	16373	0	668
-16.589	-21.818	16377	16375	0	668
-14.245	-18.464	16376	16376	0	668
-10.133	-16.300	16378	16376	0	668
-6.780	-13.559	16376	16378	0	668
-5.662	-14.930	16376	16380	0	668
-5.013	-14.028	16376	16382	0	668
-5.842	-16.120	16374	16384	0	668
-3.426	-14.713	16374	16385	0	668
-0.974	-13.199	16374	16387	0	668
0.361	-10.422	16374	16388	0	668
-1.154	-8.583	16376	16389	0	668
-6.852	-9.340	16374	16390	0	668
-11.720	-16.192	16374	16391	0	668
-17.743	-21.565	16374	16392	0	668
-16.372	-24.955	16374	16392	0	668
-16.192	-23.440	16374	16393	0	668
-13.163	-18.067	16374	16394	0	668
-10.242	-16.913	16377	16395	0	668
-9.448	-19.510	16376	16397	0	668
-7.573	-27.047	16376	16398	0	668
-6.167	-33.177	16376	16399	0	668
-4.544	-35.052	16376	16399	0	668
-5.481	-31.987	16376	16399	0	668
-6.563	-27.696	16376	16399	0	668
-5.914	-25.640	16376	16398	0	668
-7.248	-26.542	16377	16397	0	668
-6.708	-27.119	16377	16397	0	668
-8.547	-27.660	16377	16397	0	668
-10.819	-26.253	16377	16398	0	668
-15.471	-24.775	16378	16400	0	668
-16.913	-25.712	16378	16403	0	668
-19.582	-25.784	16379	16406	0	668
-17.634	-30.004	16379	16408	0	668
-16.769	-31.843	16381	16409	0	668
-12.333	-31.915	16382	16408	0	668
-8.979	-28.922	16382	16408	0	668
-6.167	-24.053	16382	16406	0	668
-4.472	-15.254	16383	16405	0	668
-4.472	-11.684	16383	16404	0	668
-3.750	-10.855	16383	16403	0	668
-3.787	-15.110	16384	16401	0	668
-3.246	-21.529	16384	16400	0	668
-5.121	-22.683	16384	16398	0	668
-6.455	-21.493	16384	16395	0	668
-6.239	-16.805	16384	16390	0	668
-6.419	-12.441	16384	16387	0	668
-8.402	-10.674	16384	16385	0	668
-9.989	-13.776	16384	16384	0	668
-13.559	-17.923	16384	16383	0	668
-12.730	-21.565	16384	16382	0	668
-12.333	-20.772	16385	16381	0	668
-9.773	-19.510	16385	16382	0	668
-6.960	-14.172	16385	16383	0	668
-5.986	-11.828	16386	16384	0	668
-6.058	-9.556	16386	16384	0	668
-3.606	-8.475	16386	16384	0	668
-4.472	-12.045	16386	16384	0	668
-7.248	-15.435	16387	16384	0	668
-9.556	-19.654	16387	16384	0	668
-12.441	-24.486	16387	16384	0	668
-15.795	-30.545	16387	16384	0	668
-12.910	-30.761	16389	16384	0	668
-10.783	-33.357	16389	16382	0	668
-8.763	-33.538	16389	16380	0	668
-7.970	-31.843	16389	16380	0	668
-10.350	-32.420	16389	16381	0	668
-14.028	-36.242	16389	16381	0	668
-13.415	-38.875	16389	16381	0	668
-9.917	-35.665	16389	16380	0	668
-3.606	-28.237	16387	16379	0	668
1.767	-19.473	16389	16379	0	668
4.436	-16.408	16389	16380	0	668
1.010	-16.480	16390	16384	0	668
-2.813	-20.772	16390	16385	0	668
-5.590	-23.801	16390	16386	0	668
-5.121	-23.729	16391	16387	0	668
-5.950	-19.690	16392	16392	0	668
-7.934	-17.923	16395	16403	0	668
-9.340	-11.864	16397	16417	0	668
-8.330	-7.140	16401	16434	0	668
-1.731	-2.596	16408	16454	0	668
6.527	-3.859	16415	16481	0	668
9.052	-8.691	16423	16513	0	668
7.465	-12.586	16432	16543	0	668
1.803	-16.480	16443	16569	0	668
-1.262	-14.064	16451	16596	0	668
0.505	-11.251	16464	16625	0	668
5.481	-6.744	16476	16655	0	668
7.393	-6.780	16490	16683	0	668
9.088	-6.131	16505	16708	0	668
6.744	-5.121	16518	16730	0	668
9.232	-4.544	16532	16746	0	668
14.569	-0.361	16546	16757	0	668
19.762	3.931	16559	16764	0	668
23.188	7.862	16573	16769	0	668
22.683	14.858	16587	16769	0	668
17.274	17.995	16600	16767	0	668
14.605	21.854	16617	16768	0	668
13.379	23.621	16631	16769	0	668
17.057	25.965	16646	16771	0	668
18.860	26.650	16664	16775	0	668
20.411	23.008	16680	16777	0	668
15.507	17.851	16697	16773	0	668
11.504	11.720	16710	16759	0	668
6.852	6.275	16722	16735	0	668
6.491	6.311	16735	16705	0	668
10.746	9.124	16745	16668	0	668
16.877	13.199	16751	16623	0	668
18.824	18.139	16758	16576	0	668
20.627	18.103	16766	16532	0	668
18.428	16.769	16769	16493	0	668
17.995	10.242	16775	16455	0	668
17.382	8.186	16781	16416	0	668
20.591	8.330	16782	16380	0	668
20.231	11.468	16787	16347	0	668
21.024	17.634	16790	16321	0	668
17.310	18.680	16797	16304	0	668
17.670	15.254	16799	16289	0	668
16.300	15.362	16799	16261	0	668
18.969	12.838	16799	16224	0	668
17.995	15.723	16798	16193	0	668
19.113	18.392	16798	16177	0	668
17.887	25.027	16798	16164	0	668
19.942	27.155	16798	16152	0	668
24.522	23.873	16797	16144	0	668
27.010	19.690	16797	16140	0	668
28.994	13.884	16799	16147	0	668
29.354	11.504	16805	16179	0	668
28.741	12.658	16812	16223	0	668
29.282	12.622	16816	16248	0	668
26.001	10.927	16816	16245	0	668
18.211	2.128	16816	16230	0	668
5.914	-7.357	16815	16216	0	668
0.216	-12.946	16811	16207	0	668
1.406	-16.516	16808	16200	0	668
11.035	-12.874	16804	16191	0	668
20.303	-6.383	16799	16177	0	668
27.624	1.046	16795	16163	0	668
25.207	4.400	16789	16151	0	668
21.060	3.210	16784	16142	0	668
17.851	-0.865	16776	16132	0	668
15.651	-5.878	16767	16118	0	668
18.752	-4.327	16761	16102	0	668
20.267	-2.164	16750	16088	0	668
22.214	2.777	16743	16078	0	668
18.356	5.626	16731	16070	0	668
16.048	4.147	16721	16060	0	668
13.631	0.036	16710	16045	0	668
14.100	-2.849	16695	16026	0	668
12.946	-4.796	16680	16002	0	668
9.953	-5.842	16663	15974	0	668
2.092	-6.563	16644	15942	0	668
-4.796	-10.602	16622	15907	0	668
-8.330	-16.625	16602	15870	0	668
-10.494	-26.506	16579	15843	0	668
-8.907	-30.436	16559	15827	0	668
-5.409	-30.725	16536	15815	0	668
-2.777	-26.073	16514	15807	0	668
0.649	-21.745	16492	15803	0	668
1.983	-22.791	16469	15798	0	668
1.659	-25.748	16448	15793	0	668
-0.361	-31.915	16422	15794	0	668
-2.164	-34.908	16401	15804	0	668
-1.731	-32.708	16381	15819	0	668
-3.354	-31.699	16359	15836	0	668
-5.590	-30.112	16337	15854	0	668
-11.215	-31.554	16315	15875	0	668
-18.356	-31.771	16297	15901	0	668
-23.296	-33.934	16277	15933	0	668
-24.486	-36.639	16260	15968	0	668
-22.250	-38.767	16241	16002	0	668
-19.293	-41.832	16224	16035	0	668
-14.749	-39.704	16209	16070	0	668
-12.982	-35.810	16192	16105	0	668
-13.343	-31.194	16177	16142	0	668
-13.415	-31.626	16163	16179	0	668
-17.887	-36.675	16148	16217	0	668
-19.870	-43.383	16138	16254	0	668
-19.978	-44.933	16127	16294	0	668
-15.831	-41.507	16118	16335	0	668
-12.622	-35.593	16109	16376	0	668
-11.360	-30.905	16101	16416	0	668
-8.727	-30.833	16095	16457	0	668
-9.845	-31.122	16089	16497	0	668
-8.727	-33.393	16086	16535	0	668
-6.744	-34.259	16082	16571	0	668
-7.573	-34.403	16079	16604	0	668
-6.131	-33.790	16077	16634	0	668
-4.616	-31.951	16077	16660	0	668
-0.685	-30.545	16076	16685	0	668
6.022	-24.775	16076	16707	0	668
11.973	-21.781	16076	16727	0	668
16.192	-21.024	16078	16744	0	668
14.353	-21.998	16081	16760	0	668
11.576	-27.191	16083	16772	0	668
6.744	-32.384	16086	16781	0	668
3.534	-34.908	16088	16787	0	668
4.039	-31.590	16092	16789	0	668
4.436	-26.866	16096	16789	0	668
2.092	-20.159	16100	16787	0	668
3.750	-18.428	16104	16783	0	668
4.327	-18.247	16109	16776	0	668
7.032	-21.313	16111	16768	0	668
12.550	-24.342	16117	16759	0	668
17.454	-21.349	16122	16747	0	668
21.493	-19.582	16127	16736	0	668
22.106	-16.661	16132	16724	0	668
17.562	-18.428	16136	16710	0	668
14.245	-18.428	16141	16694	0	668
10.314	-18.644	16146	16679	0	668
11.396	-12.117	16150	16663	0	668
18.067	-4.904	16155	16647	0	668
21.277	0.685	16159	16629	0	668
25.640	1.587	16164	16612	0	668
25.388	0.505	16166	16593	0	668
23.332	-2.056	16173	16575	0	668
22.503	-2.236	16176	16559	0	668
22.899	1.370	16181	16543	0	668
27.227	6.131	16183	16528	0	668
33.682	10.566	16188	16513	0	668
39.596	15.435	16192	16498	0	668
39.272	14.317	16195	16485	0	668
33.502	13.740	16197	16472	0	668
22.972	11.540	16201	16459	0	668
14.064	7.176	16206	16446	0	668
6.491	1.983	16207	16434	0	668
5.806	-1.911	16210	16424	0	668
7.140	-9.232	16215	16416	0	668
7.573	-14.245	16218	16408	0	668
4.904	-16.841	16222	16400	0	668
-0.072	-22.358	16223	16393	0	668
-6.094	-23.585	16225	16385	0	668
-6.888	-24.522	16228	16380	0	668
-5.842	-23.693	16231	16375	0	668
0.685	-24.089	16233	16372	0	668
5.986	-21.745	16237	16372	0	668
9.232	-24.306	16241	16376	0	668
8.547	-25.820	16245	16381	0	668
3.570	-30.869	16248	16387	0	668
-1.695	-35.774	16255	16397	0	668
-3.426	-35.269	16261	16414	0	668
0.793	-29.138	16269	16436	0	668
8.799	-19.978	16279	16463	0	668
16.012	-7.465	16291	16494	0	668
19.510	-1.767	16302	16530	0	668
16.372	0.505	16318	16573	0	668
13.920	-3.498	16336	16625	0	668
10.206	-9.052	16355	16682	0	668
9.917	-15.038	16376	16737	0	668
8.475	-18.031	16396	16786	0	668
5.806	-21.890	16420	16834	0	668
-1.731	-27.587	16446	16884	0	668
-10.494	-31.446	16472	16932	0	668
-15.290	-35.377	16497	16973	0	668
-16.480	-33.141	16525	17004	0	668
-9.268	-27.696	16551	17028	0	668
-2.416	-25.027	16580	17048	0	668
0.613	-28.237	16605	17064	0	668
1.803	-36.891	16633	17071	0	668
1.587	-44.825	16661	17069	0	668
5.445	-48.864	16684	17056	0	668
11.323	-48.179	16709	17034	0	668
16.552	-45.294	16735	17017	0	668
20.591	-39.019	16763	17019	1	17668
17.057	-32.384	16795	17036	0	17668
14.208	-24.919	16825	17042	0	17668
10.674	-18.572	16851	17021	0	17668
9.592	-13.018	16876	16984	0	17668
11.071	-8.727	16899	16945	0	17668
12.802	-8.655	16925	16913	0	17668
14.749	-7.465	16951	16890	0	17668
16.516	-6.563	16975	16866	0	17668
15.218	-7.681	16997	16830	0	17668
14.966	-8.258	17018	16787	0	17668
12.009	-11.071	17041	16750	0	17668
11.143	-12.622	17065	16724	0	17668
8.294	-14.894	17087	16702	0	17668
5.986	-15.903	17107	16669	0	17668
3.137	-14.064	17124	16620	0	17668
-2.092	-19.077	17142	16571	0	17668
-6.960	-24.270	17157	16534	0	17668
-9.268	-32.528	17176	16503	0	17668
-11.864	-37.793	17189	16460	0	17668
-13.163	-39.993	17198	16402	0	17668
-11.251	-37.505	17207	16342	0	17668
-6.599	-34.043	17215	16287	0	17668
-1.298	-29.715	17220	16235	0	17668
6.347	-27.119	17223	16178	0	17668
9.773	-27.263	17224	16115	0	17668
9.448	-30.004	17226	16062	0	17668
6.996	-29.823	17229	16030	0	17668
5.157	-29.030	17234	16021	0	17668
4.868	-24.558	17243	16033	0	17668
5.157	-19.185	17251	16050	0	17668
5.373	-15.182	17253	16047	0	17668
4.291	-15.831	17249	16010	0	17668
3.173	-14.785	17244	15961	0	17668
2.885	-15.543	17238	15919	0	17668
2.560	-13.307	17230	15880	0	17668
2.849	-11.648	17219	15836	0	17668
2.200	-13.199	17205	15785	0	17668
1.046	-15.290	17189	15732	0	17668
-1.551	-21.998	17171	15684	0	17668
-0.721	-22.467	17156	15653	0	17668
-2.813	-21.998	17143	15641	0	17668
-3.354	-17.021	17126	15639	0	17668
-2.921	-18.031	17110	15632	0	17668
-2.633	-20.988	17093	15626	0	17668
-1.947	-31.013	17079	15640	0	17668
-2.019	-39.127	17069	15677	0	17668
0.433	-44.104	17058	15721	0	17668
3.210	-42.337	17043	15755	0	17668
6.347	-40.786	17033	15787	0	17668
9.484	-37.216	17020	15822	0	17668
10.386	-37.216	17007	15848	0	17668
9.088	-40.462	16990	15861	0	17668
6.455	-40.389	16972	15862	0	17668
6.455	-37.577	16949	15847	0	17668
5.301	-30.112	16925	15820	0	17668
9.088	-20.159	16904	15812	0	17668
10.819	-14.208	16882	15826	0	17668
8.366	-15.110	16863	15843	0	17668
3.642	-17.346	16843	15853	0	17668
-0.613	-21.709	16821	15860	0	17668
-5.590	-21.204	16798	15863	0	17668
-6.635	-19.257	16775	15867	0	17668
-4.832	-18.644	16758	15892	0	17668
-3.137	-18.788	16739	15937	0	17668
1.190	-21.060	16722	15970	0	17668
5.770	-20.195	16698	15977	0	17668
12.802	-18.897	16675	15970	0	17668
16.589	-15.471	16650	15964	0	17668
15.579	-17.995	16625	15961	0	17668
12.045	-20.231	16600	15960	0	17668
11.864	-22.647	16573	15954	0	17668
12.081	-22.395	16545	15940	0	17668
13.920	-18.644	16515	15925	0	17668
18.860	-19.582	16487	15918	0	17668
13.992	-22.972	16460	15918	0	17668
7.825	-29.210	16433	15919	0	17668
4.147	-30.977	16404	15918	0	17668
6.960	-26.938	16377	15917	0	17668
15.182	-17.995	16349	15921	0	17668
22.358	-15.687	16323	15932	0	17668
23.008	-16.480	16294	15945	0	17668
16.156	-23.837	16268	15957	0	17668
6.780	-29.571	16242	15971	0	17668
3.426	-28.705	16217	15988	0	17668
5.806	-26.650	16192	16011	0	17668
10.999	-24.991	16168	16040	0	17668
14.497	-25.243	16147	16070	0	17668
15.074	-27.587	16123	16099	0	17668
12.586	-29.499	16102	16126	0	17668
12.910	-26.830	16079	16152	0	17668
17.418	-24.558	16061	16177	0	17668
20.159	-20.591	16038	16201	0	17668
21.241	-21.132	16020	16223	0	17668
19.510	-22.683	15997	16241	0	17668
13.740	-23.260	15976	16251	0	17668
9.917	-24.450	15956	16259	0	17668
10.963	-23.188	15937	16271	0	17668
9.629	-19.185	15917	16289	0	17668
9.016	-20.014	15899	16307	0	17668
7.212	-19.870	15880	16324	0	17668
7.501	-21.313	15865	16339	0	17668
12.333	-19.473	15847	16356	0	17668
17.887	-18.536	15833	16378	0	17668
22.647	-15.903	15820	16402	0	17668
24.017	-18.356	15809	16428	0	17668
20.591	-20.050	15796	16454	0	17668
20.411	-21.385	15784	16479	0	17668
18.824	-20.519	15775	16504	0	17668
18.139	-18.608	15766	16530	0	17668
11.612	-23.729	15761	16555	0	17668
4.327	-28.633	15753	16583	0	17668
-0.108	-34.151	15748	16610	0	17668
0.721	-32.312	15746	16636	0	17668
8.475	-22.719	15742	16663	0	17668
15.867	-12.982	15742	16689	0	17668
18.644	-9.520	15739	16714	0	17668
10.891	-15.074	15740	16738	0	17668
1.190	-25.243	15743	16760	0	17668
-6.455	-33.285	15743	16781	0	17668
-9.881	-33.502	15748	16801	0	17668
-8.475	-28.164	15751	16818	0	17668
-9.701	-22.935	15757	16833	0	17668
-16.300	-23.188	15762	16847	0	17668
-23.260	-29.571	15769	16858	0	17668
-30.689	-32.636	15774	16866	0	17668
-30.941	-34.511	15781	16872	0	17668
-26.830	-28.489	15789	16875	0	17668
-19.762	-23.008	15797	16877	0	17668
-18.608	-21.204	15806	16876	0	17668
-16.408	-22.034	15815	16873	0	17668
-19.185	-24.270	15824	16868	0	17668
-18.933	-24.775	15833	16862	0	17668
-20.087	-23.332	15842	16854	0	17668
-22.972	-27.804	15852	16845	0	17668
-26.830	-35.269	15863	16834	0	17668
-29.823	-43.743	15871	16821	0	17668
-30.472	-46.881	15882	16806	0	17668
-25.568	-46.412	15891	16789	0	17668
-24.847	-40.101	15901	16773	0	17668
-30.797	-37.000	15911	16755	0	17668
-41.868	-37.396	15920	16738	0	17668
-47.818	-38.839	15929	16718	0	17668
-49.477	-38.695	15938	16698	0	17668
-44.501	-38.514	15947	16677	0	17668
-40.966	-38.514	15956	16655	0	17668
-40.173	-38.731	15965	16633	0	17668
-39.885	-35.954	15973	16612	0	17668
-37.901	-31.951	15981	16592	0	17668
-33.213	-27.948	15989	16572	0	17668
-31.302	-27.624	15999	16553	0	17668
-32.384	-30.256	16004	16534	0	17668
-34.836	-35.377	16012	16516	0	17668
-38.262	-38.586	16019	16500	0	17668
-38.442	-41.039	16027	16484	0	17668
-40.786	-42.625	16033	16470	0	17668
-39.704	-40.822	16042	16456	0	17668
-36.387	-37.973	16047	16444	0	17668
-25.604	-29.679	16053	16433	0	17668
-15.182	-20.880	16063	16428	0	17668
-8.691	-20.411	16071	16427	0	17668
-9.701	-22.214	16081	16433	0	17668
-19.906	-28.525	16091	16443	0	17668
-30.076	-34.511	16101	16454	0	17668
-35.016	-36.062	16111	16467	0	17668
-32.239	-35.629	16125	16487	0	17668
-25.929	-35.557	16140	16512	0	17668
-19.726	-36.891	16153	16535	0	17668
-17.021	-38.839	16169	16555	0	17668
-20.375	-38.803	16186	16583	0	17668
-21.349	-39.560	16212	16640	0	17668
-22.070	-38.695	16238	16719	0	17668
-16.625	-35.160	16264	16788	0	17668
-13.235	-31.807	16290	16835	0	17668
-10.999	-29.463	16315	16868	0	17668
-14.966	-28.777	16343	16897	0	17668
-20.375	-33.105	16371	16930	0	17668
-24.739	-40.281	16399	16966	0	17668
-23.260	-44.284	16427	16996	0	17668
-20.231	-43.635	16458	17018	0	17668
-19.041	-43.851	16486	17031	0	17668
-21.854	-43.851	16518	17046	0	17668
-26.650	-46.376	16553	17072	0	17668
-25.965	-45.799	16587	17101	0	17668
-19.041	-43.527	16620	17114	0	17668
-12.694	-35.954	16651	17112	0	17668
-9.232	-31.266	16685	17108	0	17668
-10.314	-30.581	16722	17114	0	17668
-16.841	-32.023	16756	17124	0	17668
-16.444	-34.475	16792	17121	0	17668
-14.028	-33.429	16823	17101	0	17668
-10.242	-32.816	16854	17072	1	764
-7.717	-29.715	16886	17043	0	764
-8.402	-31.987	16912	17004	0	764
-10.278	-33.862	16938	16945	0	764
-12.730	-36.242	16959	16875	0	764
-12.333	-36.314	16981	16805	0	764
-15.615	-31.879	16998	16727	0	764
-15.903	-28.669	17015	16647	0	764
-16.516	-28.525	17033	16587	0	764
-15.362	-31.699	17056	16555	0	764
-14.064	-36.819	17075	16532	0	764
-14.785	-38.622	17090	16485	0	764
-17.418	-39.019	17102	16411	0	764
-26.578	-39.704	17115	16347	0	764
-33.610	-42.229	17130	16315	0	764
-37.288	-45.546	17147	16303	0	764
-36.567	-48.792	17158	16280	0	764
-32.023	-48.684	17166	16234	0	764
-26.470	-47.422	17172	16173	0	764
-22.755	-47.349	17175	16115	0	764
-21.709	-47.061	17182	16070	0	764
-20.339	-45.330	17183	16034	0	764
-18.139	-43.815	17187	15998	0	764
-14.389	-38.082	17185	15964	0	764
-12.009	-33.141	17189	15939	0	764
-9.520	-32.203	17190	15932	0	764
-12.982	-34.583	17195	15934	0	764
-14.713	-38.983	17195	15933	0	764
-12.586	-40.353	17200	15935	0	764
-11.576	-34.800	17202	15946	0	764
-8.943	-25.316	17206	15967	0	764
-8.330	-12.333	17212	15996	0	764
-12.189	-8.691	17216	16028	0	764
-15.723	-12.586	17220	16052	0	764
-17.923	-21.926	17221	16059	0	764
-21.277	-34.043	17221	16058	0	764
-26.506	-41.363	17220	16059	0	764
-30.040	-40.966	17216	16053	0	764
-33.393	-40.029	17212	16037	0	764
-33.033	-38.154	17206	16026	0	764
-32.636	-37.468	17201	16022	0	764
-34.656	-41.724	17190	16002	0	764
-36.783	-44.392	17169	15939	0	764
-38.442	-46.376	17144	15832	0	764
-38.190	-47.349	17113	15723	0	764
-33.141	-43.058	17084	15638	0	764
-24.450	-34.872	17056	15573	0	764
-15.326	-25.316	17026	15528	0	764
-4.796	-18.933	17003	15514	0	764
-0.216	-17.274	16980	15520	0	764
-3.246	-21.745	16957	15535	0	764
-10.133	-24.198	16933	15545	0	764
-16.120	-25.171	16910	15553	0	764
-13.848	-23.368	16885	15571	0	764
-10.783	-21.565	16864	15604	0	764
-7.032	-25.748	16844	15642	0	764
-9.701	-32.708	16821	15676	0	764
-14.425	-39.488	16800	15714	0	764
-20.736	-41.760	16784	15763	0	764
-22.358	-41.363	16767	15819	0	764
-22.683	-37.721	16749	15874	0	764
-23.549	-38.550	16730	15913	0	764
-23.440	-41.904	16708	15934	0	764
-22.827	-48.359	16686	15950	0	764
-20.880	-49.225	16668	15973	0	764
-17.454	-41.940	16646	15999	0	764
-14.966	-33.646	16623	16017	0	764
-9.484	-21.024	16598	16014	0	764
-7.212	-18.680	16568	15994	0	764
-8.006	-20.267	16540	15973	0	764
-8.547	-24.811	16512	15960	0	764
-10.999	-25.135	16482	15944	0	764
-8.835	-21.313	16450	15927	0	764
-6.239	-14.100	16419	15911	0	764
-2.777	-8.583	16386	15890	0	764
-0.469	-9.629	16353	15864	0	764
-1.875	-12.477	16319	15844	0	764
-7.393	-16.661	16286	15838	0	764
-13.163	-22.539	16255	15844	0	764
-21.998	-26.470	16223	15851	0	764
-24.991	-30.256	16192	15858	0	764
-24.991	-33.393	16161	15870	0	764
-20.123	-34.728	16133	15890	0	764
-14.064	-35.485	16104	15918	0	764
-13.307	-36.531	16077	15948	0	764
-12.550	-36.891	16052	15980	0	764
-11.287	-39.127	16027	16014	0	764
-11.071	-37.937	16001	16051	0	764
-10.783	-38.442	15978	16083	0	764
-12.622	-40.137	15953	16109	0	764
-18.680	-44.464	15930	16136	0	764
-20.555	-46.232	15907	16167	0	764
-17.526	-42.625	15887	16203	0	764
-8.583	-33.898	15868	16245	0	764
1.118	-21.601	15852	16292	0	764
5.914	-13.631	15837	16340	0	764
5.373	-10.242	15823	16384	0	764
-0.865	-16.733	15810	16428	0	764
-6.527	-21.998	15797	16470	0	764
-8.294	-27.335	15787	16510	0	764
-9.304	-28.850	15776	16549	0	764
-11.828	-28.164	15766	16585	0	764
-12.874	-26.938	15758	16614	0	764
-16.156	-26.289	15750	16635	0	764
-18.572	-28.164	15740	16652	0	764
-15.254	-30.653	15733	16666	0	764
-15.507	-34.115	15724	16677	0	764
-12.874	-38.190	15719	16687	0	764
-15.579	-40.750	15711	16697	0	764
-18.320	-44.933	15707	16706	0	764
-24.198	-47.926	15703	16717	0	764
-25.352	-47.854	15698	16727	0	764
-25.424	-47.926	15697	16737	0	764
-23.693	-44.248	15697	16747	0	764
-21.421	-41.147	15696	16757	0	764
-24.414	-38.586	15694	16767	0	764
-27.948	-36.855	15697	16776	0	764
-29.968	-35.918	15699	16784	0	764
-24.775	-35.124	15701	16791	0	764
-18.680	-32.672	15704	16798	0	764
-15.218	-31.302	15710	16804	0	764
-16.084	-29.282	15712	16810	0	764
-20.339	-28.237	15719	16815	0	764
-24.053	-25.532	15724	16818	0	764
-24.270	-21.457	15732	16820	0	764
-16.733	-14.821	15738	16821	0	764
-13.523	-8.871	15747	16821	0	764
-9.881	-10.097	15753	16820	0	764
-13.956	-14.821	15762	16818	0	764
-17.310	-23.945	15770	16814	0	764
-23.368	-30.869	15781	16809	0	764
-30.040	-37.216	15789	16802	0	764
-37.432	-43.815	15798	16793	0	764
-41.471	-49.116	15807	16782	0	764
-45.294	-52.723	15816	16770	0	764
-42.842	-49.333	15825	16757	0	764
-36.314	-40.894	15834	16743	0	764
-32.925	-34.295	15845	16728	0	764
-35.124	-33.105	15853	16712	0	764
-43.238	-38.442	15861	16697	0	764
-49.693	-45.078	15873	16682	0	764
-54.165	-46.628	15880	16668	0	764
-53.696	-44.356	15889	16654	0	764
-48.539	-39.308	15901	16640	0	764
-43.924	-36.531	15909	16625	0	764
-40.714	-38.875	15917	16611	0	764
-39.849	-42.012	15927	16596	0	764
-40.029	-43.491	15935	16582	0	764
-36.819	-40.389	15946	16569	0	764
-35.990	-36.387	15956	16562	0	764
-35.160	-31.699	15966	16563	0	764
-34.403	-29.535	15979	16570	0	764
-37.973	-32.600	15994	16582	0	764
-40.678	-37.865	16007	16596	0	764
-39.272	-41.724	16025	16616	0	764
-38.298	-46.159	16043	16643	0	764
-40.173	-47.386	16064	16675	0	764
-44.573	-47.061	16084	16710	0	764
-52.038	-49.153	16107	16745	0	764
-55.968	-48.503	16130	16778	0	764
-56.906	-46.123	16158	16812	0	764
-52.326	-44.645	16183	16852	0	764
-50.523	-40.353	16212	16892	0	764
-51.461	-40.353	16240	16924	0	764
-50.703	-43.238	16268	16948	0	764
-49.477	-44.140	16299	16971	0	764
-45.330	-44.284	16327	16993	0	764
-41.976	-41.940	16358	17013	0	764
-44.464	-40.714	16386	17024	0	764
-47.782	-41.075	16415	17025	0	764
-46.448	-40.930	16444	17023	0	764
-41.580	-41.039	16477	17026	0	764
-31.626	-36.387	16507	17031	0	764
-25.856	-30.256	16537	17024	0	764
-23.801	-23.657	16564	17001	0	764
-25.929	-20.159	16589	16964	0	764
-28.417	-21.709	16612	16913	1	704
-32.780	-26.758	16631	16853	0	704
-37.793	-35.377	16651	16796	0	704
-45.474	-41.003	16671	16747	0	704
-51.821	-45.041	16691	16703	0	704
-53.480	-46.881	16709	16657	0	704
-53.191	-44.825	16725	16606	0	704
-46.159	-42.770	16740	16553	0	704
-42.409	-39.560	16756	16503	0	704
-40.281	-33.033	16769	16458	0	704
-39.812	-29.174	16782	16421	0	704
-40.426	-26.902	16797	16388	0	704
-37.036	-26.722	16811	16360	0	704
-31.807	-30.112	16823	16338	0	704
-28.201	-35.954	16838	16321	0	704
-29.535	-41.399	16852	16304	0	704
-31.915	-43.527	16863	16282	0	704
-34.187	-40.930	16871	16255	0	704
-32.853	-34.511	16881	16231	0	704
-27.335	-27.407	16892	16210	0	704
-21.241	-23.008	16897	16189	0	704
-17.202	-20.087	16902	16163	0	704
-11.756	-20.123	16905	16131	0	704
-11.612	-20.231	16908	16099	0	704
-13.235	-21.204	16913	16081	0	704
-21.854	-26.974	16915	16071	0	704
-30.581	-34.836	16916	16054	0	704
-35.629	-41.543	16915	16024	0	704
-35.737	-45.258	16910	15990	0	704
-33.177	-45.763	16905	15952	0	704
-31.843	-43.960	16899	15921	0	704
-36.351	-45.222	16898	15917	0	704
-42.157	-45.582	16899	15940	0	704
-44.140	-44.032	16894	15958	0	704
-39.452	-41.003	16890	15951	0	704
-33.285	-35.990	16882	15931	0	704
-26.470	-34.944	16875	15915	0	704
-27.479	-38.442	16870	15913	0	704
-33.105	-43.058	16864	15928	0	704
-39.416	-45.582	16859	15951	0	704
-42.553	-42.553	16854	15967	0	704
-41.255	-39.091	16848	15974	0	704
-37.108	-36.062	16841	15985	0	704
-37.865	-35.197	16836	16004	0	704
-40.462	-38.298	16830	16020	0	704
-47.674	-44.032	16822	16029	0	704
-50.992	-47.674	16815	16037	0	704
-50.234	-48.503	16809	16057	0	704
-45.078	-49.080	16805	16091	0	704
-39.524	-44.789	16802	16129	0	704
-38.983	-41.363	16797	16156	0	704
-40.786	-39.235	16793	16171	0	704
-44.212	-40.498	16787	16187	0	704
-45.979	-44.032	16787	16217	0	704
-45.655	-47.097	16784	16255	0	704
-44.392	-50.487	16779	16274	0	704
-45.510	-52.290	16768	16256	0	704
-46.304	-48.107	16754	16219	0	704
-47.530	-45.114	16745	16195	0	704
-49.080	-41.039	16733	16186	0	704
-49.153	-39.885	16721	16175	0	704
-47.999	-38.803	16707	16154	0	704
-44.140	-38.911	16691	16130	0	704
-34.439	-34.836	16676	16103	0	704
-27.407	-30.761	16661	16083	0	704
-24.919	-29.535	16649	16086	0	704
-30.292	-30.328	16639	16108	0	704
-37.973	-33.105	16626	16117	0	704
-37.757	-31.735	16609	16098	0	704
-31.915	-27.119	16587	16062	0	704
-19.185	-20.339	16569	16027	0	704
-13.956	-19.329	16548	15997	0	704
-14.677	-25.532	16526	15975	0	704
-23.224	-33.033	16503	15953	0	704
-29.715	-40.894	16479	15928	0	704
-33.754	-48.648	16454	15902	0	704
-33.285	-51.641	16431	15883	0	704
-30.472	-52.001	16407	15872	0	704
-27.768	-52.326	16383	15864	0	704
-25.784	-47.386	16358	15856	0	704
-24.702	-42.950	16332	15849	0	704
-26.073	-41.183	16309	15849	0	704
-30.617	-40.462	16284	15857	0	704
-34.439	-41.904	16261	15869	0	704
-37.324	-42.373	16237	15879	0	704
-39.776	-45.979	16212	15886	0	704
-38.695	-47.638	16189	15898	0	704
-36.855	-48.323	16165	15920	0	704
-34.764	-47.349	16146	15949	0	704
-30.328	-40.822	16124	15978	0	704
-25.893	-34.656	16104	16005	0	704
-22.935	-29.499	16083	16031	0	704
-21.998	-25.893	16064	16061	0	704
-21.168	-24.342	16045	16091	0	704
-20.014	-21.060	16028	16121	0	704
-13.812	-17.526	16009	16150	0	704
-5.878	-11.107	15992	16178	0	704
-2.308	-5.481	15975	16203	0	704
-2.596	-6.780	15957	16225	0	704
-9.701	-13.487	15941	16248	0	704
-16.480	-22.322	15925	16273	0	704
-22.683	-32.492	15910	16299	0	704
-21.998	-35.341	15896	16326	0	704
-23.404	-34.367	15884	16351	0	704
-24.630	-30.436	15870	16377	0	704
-28.561	-28.922	15860	16404	0	704
-33.682	-31.410	15852	16436	0	704
-34.908	-33.502	15842	16468	0	704
-33.393	-35.918	15834	16498	0	704
-27.804	-33.646	15828	16525	0	704
-21.060	-28.958	15823	16551	0	704
-15.002	-25.604	15816	16577	0	704
-15.543	-25.784	15812	16603	0	704
-16.733	-28.958	15810	16628	0	704
-22.322	-34.656	15807	16653	0	704
-26.506	-38.514	15806	16678	0	704
-33.285	-41.507	15806	16701	0	704
-38.118	-44.645	15806	16723	0	704
-40.353	-43.383	15810	16744	0	704
-40.209	-37.541	15811	16763	0	704
-35.810	-28.056	15814	16779	0	704
-32.744	-20.231	15819	16794	0	704
-33.646	-20.339	15823	16807	0	704
-39.560	-23.476	15829	16816	0	704
-44.861	-29.751	15833	16824	0	704
-46.845	-30.004	15838	16829	0	704
-42.445	-25.604	15846	16832	0	704
-36.206	-20.195	15853	16832	0	704
-33.141	-23.152	15858	16830	0	704
-34.223	-27.804	15866	16827	0	704
-39.235	-32.564	15873	16822	0	704
-43.671	-33.538	15883	16817	0	704
-46.195	-30.472	15889	16810	0	704
-45.979	-24.847	15898	16799	0	704
-44.140	-22.755	15906	16788	0	704
-43.383	-22.611	15914	16775	0	704
-44.681	-24.198	15923	16763	0	704
-46.953	-25.496	15932	16749	0	704
-47.999	-25.243	15940	16735	0	704
-52.470	-26.217	15947	16719	0	704
-51.821	-27.371	15956	16703	0	704
-51.569	-28.741	15965	16687	0	704
-51.965	-31.807	15974	16671	0	704
-54.093	-32.708	15982	16655	0	704
-59.574	-34.583	15988	16639	0	704
-64.876	-35.052	15999	16622	0	704
-68.987	-33.718	16006	16606	0	704
-70.465	-31.374	16012	16588	0	704
-68.626	-27.515	16022	16571	0	704
-65.525	-23.368	16028	16554	0	704
-60.873	-22.972	16037	16541	0	704
-58.276	-22.683	16045	16534	0	704
-53.660	-24.955	16053	16530	0	704
-49.513	-28.345	16064	16530	0	704
-47.782	-29.607	16076	16538	0	704
-46.772	-32.997	16089	16552	0	704
-44.032	-35.016	16104	16570	0	704
-43.851	-35.810	16118	16587	0	704
-45.655	-36.423	16133	16605	0	704
-47.566	-36.675	16150	16625	0	704
-45.438	-36.134	16166	16650	0	704
-41.580	-32.312	16186	16676	0	704
-34.367	-28.994	16206	16700	0	704
-29.823	-26.542	16224	16723	0	704
-31.554	-27.479	16245	16743	0	704
-37.613	-30.184	16263	16752	0	704
-41.580	-29.931	16283	16761	0	704
-38.622	-29.210	16310	16792	0	704
-32.095	-27.155	16336	16841	0	704
-30.004	-27.371	16361	16873	0	704
-30.220	-31.843	16384	16879	0	704
-36.459	-34.764	16407	16875	0	704
-40.570	-34.656	16431	16876	0	704
-43.310	-34.583	16454	16880	0	704
-41.363	-30.761	16478	16878	0	704
-38.334	-30.761	16500	16866	0	704
-35.882	-30.400	16521	16846	0	704
-33.141	-29.391	16541	16822	0	704
-30.833	-28.814	16562	16796	0	704
-28.705	-29.571	16581	16771	0	704
-28.417	-31.662	16600	16744	0	704
-27.047	-31.085	16617	16714	0	704
-26.253	-32.853	16636	16684	0	704
-27.119	-30.472	16656	16662	0	704
-26.650	-27.083	16677	16655	0	704
-24.234	-21.854	16698	16658	0	704
-19.870	-15.579	16718	16650	0	704
-16.552	-10.530	16738	16629	0	704
-12.514	-7.753	16756	16608	0	704
-16.697	-9.953	16776	16597	0	704
-20.483	-18.788	16795	16591	0	704
-25.424	-26.181	16812	16573	0	704
-25.893	-29.968	16826	16538	0	704
-22.611	-26.974	16838	16495	0	704
-18.428	-20.627	16846	16448	0	704
-12.694	-12.802	16858	16405	0	704
-12.550	-9.088	16871	16382	0	704
-12.586	-13.343	16881	16369	0	704
-13.740	-17.851	16890	16340	0	704
-17.670	-23.909	16892	16283	0	704
-20.627	-25.856	16892	16207	0	704
-24.702	-27.443	16886	16131	0	704
-26.722	-27.948	16882	16059	0	704
-26.001	-33.610	16876	15993	0	704
-26.542	-41.940	16867	15932	0	704
-27.768	-47.746	16857	15873	0	704
-31.194	-48.179	16846	15818	0	704
-34.439	-43.527	16835	15777	0	704
-34.223	-39.199	16828	15763	0	704
-31.013	-37.973	16822	15766	0	704
-27.155	-36.964	16813	15765	0	704
-24.414	-31.554	16803	15757	0	704
-26.037	-20.988	16794	15756	0	704
-29.823	-10.746	16785	15764	0	704
-37.396	-8.547	16777	15778	0	704
-41.688	-15.435	16767	15795	0	704
-43.527	-26.037	16759	15815	0	704
-42.661	-35.269	16754	15846	0	704
-44.140	-37.685	16749	15894	0	704
-48.251	-38.118	16748	15954	0	704
-57.952	-37.468	16744	16005	0	704
-63.181	-36.134	16741	16044	0	704
-61.702	-34.583	16738	16075	0	704
-55.283	-26.830	16730	16098	0	704
-43.455	-20.339	16722	16108	0	704
-35.990	-17.743	16716	16122	0	704
-34.295	-17.779	16709	16148	0	704
-36.351	-24.378	16704	16173	0	704
-39.524	-29.679	16699	16191	0	704
-38.370	-27.335	16694	16211	0	704
-30.617	-22.719	16692	16249	0	704
-22.611	-17.274	16692	16299	0	704
-14.930	-13.487	16689	16332	0	704
-12.441	-14.353	16684	16332	0	704
-12.009	-14.064	16673	16310	0	704
-7.176	-12.550	16664	16286	0	704
-0.757	-9.917	16651	16265	0	704
5.770	-8.979	16639	16248	0	704
7.501	-9.592	16627	16227	0	704
3.137	-12.117	16612	16198	0	704
-3.931	-14.821	16595	16166	0	704
-8.006	-12.261	16581	16140	0	704
-6.275	-11.396	16564	16119	0	704
-2.560	-7.140	16549	16099	0	704
2.308	-5.734	16532	16077	0	704
1.947	-4.868	16514	16058	0	704
2.488	-6.744	16496	16044	0	704
-2.344	-12.081	16478	16035	0	704
-6.563	-17.526	16463	16025	0	704
-10.855	-24.739	16441	16011	0	704
-11.937	-27.010	16422	15994	0	704
-7.429	-24.991	16401	15977	0	704
-0.974	-20.555	16379	15957	0	704
6.996	-16.012	16355	15934	0	704
6.780	-18.860	16331	15911	0	704
1.334	-21.745	16308	15894	0	704
-2.596	-24.847	16283	15883	0	704
-3.029	-25.243	16259	15880	0	704
2.452	-17.310	16236	15884	0	704
12.586	-10.999	16214	15895	0	704
18.680	-4.580	16192	15911	0	704
21.673	-4.039	16172	15929	0	704
19.510	-5.517	16150	15945	0	704
18.320	-6.852	16129	15961	0	704
16.661	-7.898	16107	15981	0	704
19.401	-6.167	16088	16006	0	704
18.716	-2.452	16069	16033	0	704
16.985	-1.587	16052	16061	0	704
16.480	0.829	16034	16091	0	704
18.356	4.003	16018	16125	0	704
22.431	8.943	16004	16162	0	704
30.112	9.773	15988	16201	0	704
32.384	11.576	15978	16241	0	704
30.112	10.061	15964	16279	0	704
25.640	8.475	15953	16316	0	704
24.125	13.343	15943	16353	0	704
25.965	19.329	15934	16389	0	704
33.754	26.758	15927	16428	0	704
42.337	31.446	15920	16466	0	704
48.864	31.338	15914	16503	0	704
51.821	29.210	15909	16538	0	704
50.270	24.342	15905	16570	0	704
47.241	22.719	15902	16601	0	704
49.225	19.185	15898	16630	0	704
50.090	22.358	15898	16658	0	704
55.536	25.712	15898	16684	0	704
57.158	30.148	15897	16708	0	704
57.411	32.853	15898	16730	0	704
52.362	32.059	15901	16750	0	704
52.038	29.282	15904	16768	0	704
52.470	28.525	15907	16784	0	704
57.519	28.309	15910	16799	0	704
62.135	29.030	15917	16812	0	704
61.774	28.489	15922	16822	0	704
54.922	23.044	15927	16831	0	704
44.573	17.418	15934	16836	0	704
36.351	12.441	15940	16838	0	704
32.420	10.458	15946	16836	0	704
34.115	10.783	15953	16832	0	704
35.160	8.222	15960	16824	0	704
32.239	3.462	15968	16816	0	704
30.545	-2.344	15974	16806	0	704
30.328	-3.354	15981	16795	0	704
33.213	0.144	15989	16782	0	704
38.442	5.842	15996	16768	0	704
39.596	7.934	16002	16752	0	704
36.098	3.246	16011	16736	0	704
36.206	-0.505	16019	16719	0	704
33.466	-2.524	16024	16702	0	704
34.331	0.144	16032	16684	0	704
34.547	4.688	16040	16667	0	704
31.085	9.665	16045	16649	0	704
27.912	11.251	16052	16631	0	704
28.237	10.891	16060	16612	0	704
30.292	8.114	16066	16595	0	704
31.122	4.364	16073	16577	0	704
29.968	0.144	16078	16560	0	704
26.542	-0.180	16086	16543	0	704
21.313	0.865	16091	16526	0	704
20.591	2.056	16097	16508	0	704
18.356	0.325	16102	16490	0	704
17.057	-4.219	16107	16473	0	704
10.963	-9.701	16111	16457	0	704
10.783	-13.595	16117	16444	0	704
14.641	-10.133	16120	16431	0	704
23.260	-2.705	16125	16420	0	704
29.679	3.931	16130	16410	0	704
29.174	5.986	16136	16401	0	704
24.847	2.488	16140	16392	0	704
17.959	-3.967	16145	16385	0	704
19.618	-8.547	16150	16380	0	704
18.608	-10.025	16153	16374	0	704
18.788	-13.631	16156	16368	0	704
10.891	-16.372	16159	16363	0	704
6.708	-21.601	16164	16359	0	704
4.039	-21.890	16166	16355	0	704
6.780	-21.421	16172	16354	0	704
12.694	-15.326	16177	16361	0	704
17.743	-13.487	16184	16373	0	704
15.651	-12.694	16188	16382	0	704
9.448	-14.966	16192	16385	0	704
0.288	-22.395	16199	16390	0	704
-7.357	-29.463	16207	16400	0	704
-10.169	-36.026	16214	16420	0	704
-10.819	-40.209	16223	16445	0	704
-10.494	-41.652	16235	16471	0	704
-11.828	-42.481	16246	16496	0	704
-17.057	-43.238	16258	16523	0	704
-18.211	-42.806	16272	16556	0	704
-18.536	-46.376	16287	16598	0	704
-13.848	-46.520	16305	16641	0	704
-11.720	-46.772	16322	16678	0	704
-9.989	-48.864	16341	16710	0	704
-9.304	-48.792	16359	16741	0	704
-13.487	-51.064	16381	16776	0	704
-20.808	-58.709	16401	16812	0	704
-26.578	-66.823	16422	16843	0	704
-31.338	-73.530	16445	16865	0	704
-33.502	-77.894	16467	16884	0	704
-32.203	-75.189	16491	16902	0	704
-35.377	-69.203	16514	16920	0	704
-43.707	-64.335	16538	16934	0	704
-58.997	-62.495	16562	16942	0	704
-74.865	-67.436	16587	16943	0	704
-87.018	-72.557	16610	16936	0	704
-94.699	-75.370	16631	16922	0	704
-100.902	-71.295	16651	16902	0	704
-104.255	-63.433	16672	16875	0	704
-108.727	-58.060	16690	16841	0	704
-114.317	-58.348	16705	16800	0	704
-119.906	-63.072	16721	16758	0	704
-121.890	-64.046	16743	16735	0	704
-126.001	-62.964	16764	16737	0	704
-126.650	-58.420	16789	16743	0	704
-127.551	-56.978	16811	16741	0	704
-129.968	-57.916	16833	16731	0	704
-128.417	-59.971	16854	16720	0	704
-128.886	-60.584	16877	16713	0	704
-124.089	-55.391	16899	16712	0	704
-118.824	-50.956	16922	16709	0	704
-113.379	-45.618	16941	16689	0	704
-109.232	-41.832	16959	16658	0	704
-109.917	-43.635	16977	16626	0	704
-112.586	-47.025	16995	16602	0	704
-117.057	-49.585	17011	16578	0	704
-116.444	-52.434	17025	16539	0	704
-115.543	-50.884	17034	16487	0	704
-107.970	-46.845	17047	16437	0	704
-103.606	-46.700	17056	16398	0	704
-101.010	-46.520	17066	16366	0	704
-102.993	-51.569	17072	16323	0	704
-104.688	-56.581	17077	16274	0	704
-106.311	-61.774	17080	16225	0	704
-104.436	-61.378	17082	16170	0	704
-96.610	-55.211	17080	16111	0	704
-87.126	-49.730	17075	16053	0	704
-82.618	-44.717	17071	15999	0	704
-80.130	-44.284	17066	15950	0	704
-80.310	-49.910	17057	15899	0	704
-80.346	-52.398	17047	15848	0	704
-78.399	-51.461	17039	15810	0	704
-76.235	-51.677	17033	15792	0	704
-75.478	-47.422	17022	15785	0	704
-75.045	-47.277	17013	15775	0	704
-74.793	-48.215	17002	15758	0	704
-71.223	-47.205	16992	15748	0	704
-66.462	-46.736	16982	15753	0	704
-59.178	-44.645	16976	15778	0	704
-53.768	-41.904	16970	15809	0	704
-46.051	-39.308	16961	15833	0	704
-42.842	-39.308	16952	15848	0	704
-43.202	-36.314	16945	15869	0	704
-42.445	-35.377	16938	15900	0	704
-42.373	-34.403	16930	15935	0	704
-38.190	-33.033	16922	15958	0	704
-36.206	-35.737	16912	15971	0	704
-34.944	-39.560	16902	15985	0	704
-38.154	-44.392	16897	16013	0	704
-43.058	-46.736	16888	16049	0	704
-46.809	-44.645	16881	16075	0	704
-44.464	-43.130	16872	16098	0	704
-39.127	-38.406	16867	16127	0	704
-35.846	-36.387	16863	16164	0	704
-32.420	-37.865	16858	16204	0	704
-36.387	-39.308	16854	16242	0	704
-39.885	-42.012	16851	16271	0	704
-42.265	-42.986	16844	16283	0	704
-39.993	-43.274	16835	16286	0	704
-37.288	-42.697	16826	16287	0	704
-35.737	-43.202	16815	16275	0	704
-35.593	-43.455	16800	16249	0	704
-34.800	-41.399	16785	16212	0	704
-33.105	-38.586	16764	16160	0	704
-29.751	-33.033	16739	16096	0	704
-27.876	-30.761	16716	16033	0	704
-26.217	-26.794	16690	15980	0	704
-25.604	-27.660	16663	15932	0	704
-23.945	-29.354	16635	15885	0	704
-22.395	-32.312	16609	15841	0	704
-19.546	-36.062	16580	15805	0	704
-20.591	-38.298	16553	15782	0	704
-22.539	-38.731	16526	15769	0	704
-24.702	-36.928	16499	15762	0	704
-28.309	-35.557	16472	15757	0	704
-29.787	-33.105	16444	15757	0	704
-26.361	-28.345	16419	15765	0	704
-20.627	-26.001	16394	15780	0	704
-18.067	-23.188	16369	15795	0	704
-13.920	-23.873	16343	15809	0	704
-15.579	-25.965	16318	15825	0	704
-16.733	-28.345	16292	15846	0	704
-19.582	-28.777	16271	15874	0	704
-21.565	-30.184	16247	15906	0	704
-26.253	-30.004	16224	15938	0	704
-28.886	-27.948	16204	15969	0	704
-24.017	-24.162	16182	16005	0	704
-18.500	-18.897	16161	16043	0	704
-10.927	-17.598	16145	16083	0	704
-12.333	-17.995	16125	16121	0	704
-17.382	-21.637	16106	16156	0	704
-26.397	-22.683	16089	16189	0	704
-30.040	-18.572	16071	16221	0	704
-26.866	-13.920	16056	16252	0	704
-22.395	-9.484	16041	16282	0	704
-17.598	-8.655	16024	16311	0	704
-14.641	-9.052	16011	16338	0	704
-19.906	-14.605	15994	16360	0	704
-24.811	-20.844	15981	16377	0	704
-34.800	-30.436	15968	16393	0	704
-42.229	-37.216	15953	16414	0	704
-44.284	-40.714	15942	16437	0	704
-41.327	-37.973	15930	16460	0	704
-36.026	-34.331	15922	16480	0	704
-31.951	-32.276	15911	16498	0	704
-29.535	-30.941	15902	16514	0	704
-30.545	-30.400	15892	16530	0	704
-30.436	-29.354	15887	16547	0	704
-29.679	-27.804	15878	16562	0	704
-27.732	-26.614	15873	16575	0	704
-25.388	-25.712	15865	16586	0	704
-21.962	-24.522	15860	16598	0	704
-20.591	-21.313	15855	16611	0	704
-19.834	-20.267	15851	16623	0	704
-21.709	-22.322	15848	16634	0	704
-24.306	-23.765	15845	16644	0	704
-23.116	-25.460	15843	16654	0	704
-21.349	-27.732	15843	16663	0	704
-18.247	-26.433	15840	16672	0	704
-17.418	-30.400	15843	16681	0	704
-26.217	-38.045	15843	16689	0	704
-36.278	-46.123	15845	16697	0	704
-45.943	-50.811	15846	16705	0	704
-42.517	-49.297	15850	16711	0	704
-30.508	-40.317	15853	16718	0	704
-17.021	-32.600	15856	16722	0	704
-10.855	-28.741	15861	16726	0	704
-15.867	-31.735	15864	16729	0	704
-24.378	-35.449	15870	16730	0	704
-27.299	-35.774	15875	16731	0	704
-22.575	-31.554	15882	16730	0	704
-16.480	-27.155	15887	16729	0	704
-12.622	-26.722	15894	16727	0	704
-16.661	-28.777	15899	16724	0	704
-20.339	-34.259	15907	16721	0	704
-21.673	-34.872	15914	16716	0	704
-15.543	-30.076	15924	16710	0	704
-5.914	-21.998	15929	16703	0	704
1.803	-15.651	15937	16694	0	704
3.318	-13.054	15943	16685	0	704
-1.875	-16.084	15951	16674	0	704
-9.881	-23.873	15959	16661	0	704
-10.458	-28.922	15966	16648	0	704
-9.088	-26.650	15971	16634	0	704
-2.813	-24.162	15981	16620	0	704
-1.479	-23.549	15987	16606	0	704
-6.491	-26.938	15994	16592	0	704
-15.218	-34.151	16000	16579	0	704
-23.693	-39.885	16007	16567	0	704
-25.748	-42.914	16014	16556	0	704
-22.899	-41.868	16022	16546	0	704
-19.437	-40.570	16028	16536	0	704
-14.425	-39.344	16035	16526	0	704
-13.812	-36.423	16042	16517	0	704
-15.362	-34.439	16050	16509	0	704
-15.759	-33.357	16058	16502	0	704
-18.644	-34.583	16065	16498	0	704
-17.454	-37.324	16073	16498	0	704
-17.418	-38.622	16082	16503	0	704
-13.379	-37.757	16093	16511	0	704
-10.494	-35.810	16104	16520	0	704
-7.393	-30.545	16114	16530	0	704
-5.409	-24.198	16127	16543	0	704
-7.465	-22.972	16141	16563	0	704
-11.756	-25.027	16156	16585	0	704
-17.129	-31.518	16169	16605	0	704
-21.060	-40.101	16187	16624	0	704
-24.342	-43.743	16204	16650	0	704
-26.470	-42.734	16223	16685	0	704
-27.984	-41.075	16246	16727	0	704
-29.427	-36.783	16269	16771	0	704
-33.357	-36.026	16294	16812	0	704
-37.216	-39.921	16320	16853	0	704
-41.183	-45.078	16348	16897	0	704
-42.517	-49.225	16378	16940	0	704
-40.029	-51.929	16407	16976	0	704
-29.535	-48.251	16435	17003	0	704
-17.562	-43.310	16464	17024	0	704
-8.006	-37.865	16497	17048	0	704
-5.265	-37.360	16532	17085	0	704
-6.852	-39.163	16569	17127	0	704
-9.881	-39.452	16604	17154	0	704
-8.078	-35.449	16640	17165	0	704
-5.157	-29.679	16675	17173	0	704
-0.361	-25.496	16713	17189	0	704
-0.180	-27.010	16753	17210	0	704
-5.373	-31.662	16790	17219	0	704
-9.448	-35.918	16827	17211	0	704
-10.025	-34.115	16864	17195	0	704
