neuroNicle FX2
D3F25R12
Bluetooth SPP
2023년 3월 29일 수요일
오전 10:11
time interval = 4msec
EEG1	EEG2	PPG	sdPPG	pulse	peak_interval(msec)
-14.028	5.842	16384	18670	0	316
-11.396	5.770	16584	18681	0	316
-11.251	10.314	16784	18751	0	316
-11.612	13.848	17064	18866	0	316
-13.163	18.320	17384	18970	0	316
-13.415	20.303	17464	18982	0	316
-14.858	19.005	17784	18924	0	316
-15.146	18.139	17864	18820	0	316
-15.579	14.821	18064	18635	0	316
-15.867	10.530	18184	18381	0	316
-17.526	4.977	18064	18023	0	316
-17.310	2.957	17984	17446	0	316
-15.218	5.734	17784	16695	0	316
-11.648	12.297	17464	16038	0	316
-7.681	17.274	17384	15553	0	316
-5.085	18.969	17064	15080	0	316
-2.344	18.175	16584	14364	0	316
0.541	19.618	16104	13498	0	316
2.380	25.532	15704	12816	0	316
3.534	31.482	15304	12516	0	316
1.515	34.259	15104	12481	0	316
0.613	32.816	14704	12389	0	316
3.606	30.545	14184	12054	0	316
7.501	29.246	13704	11731	0	316
11.648	30.040	13504	11685	0	316
13.127	30.725	13304	11939	0	316
12.550	31.013	12984	12320	0	316
13.704	30.797	12904	12701	0	316
16.552	33.105	12784	13117	0	316
19.798	34.403	12704	13590	0	316
18.897	32.816	12584	14110	0	316
14.749	29.463	12704	14595	0	316
10.999	27.191	12584	14976	0	316
9.340	31.771	12584	15391	0	316
13.127	41.291	12784	15980	0	316
16.661	49.297	12984	16672	0	316
17.310	50.667	13184	17377	0	316
13.740	41.291	13504	17954	0	316
4.904	27.479	13784	18427	0	316
1.226	17.743	14104	18935	0	316
-0.180	17.238	14504	19547	0	316
1.911	22.106	14904	20159	0	316
4.039	28.994	15304	20564	0	316
3.642	32.023	15584	20760	0	316
1.154	27.876	15984	20910	0	316
0.469	23.549	16304	21037	0	316
3.498	22.358	16664	21106	0	316
10.133	24.811	16984	21049	0	316
12.982	30.472	17264	20887	0	316
11.756	30.761	17464	20656	0	316
3.246	23.873	17664	20333	0	316
-6.383	15.723	17984	20009	1	540
-12.117	8.727	18264	19975	0	540
-10.025	11.251	18464	20032	0	540
-3.101	19.113	18664	19605	0	540
3.859	26.217	18384	18624	0	540
5.085	27.299	18184	17527	0	540
1.515	24.125	17864	16626	0	540
-3.210	20.483	17664	15946	0	540
-3.029	21.241	17584	15391	0	540
1.767	29.246	17264	14953	0	540
7.176	36.711	17264	14664	0	540
11.648	40.966	17264	14652	0	540
9.989	38.442	17384	14883	0	540
9.520	33.790	17464	15091	0	540
12.369	34.259	17464	15103	0	540
19.041	42.193	17384	14918	0	540
22.142	52.074	17264	14733	0	540
22.142	55.139	17184	14652	0	540
14.749	48.864	17184	14675	0	540
5.914	34.331	17064	14652	0	540
-1.803	23.116	16864	14456	0	540
-5.662	18.320	16664	14179	0	540
-9.592	19.185	16464	14029	0	540
-8.727	18.644	16384	14087	0	540
-7.032	16.444	16384	14283	0	540
-1.515	16.913	16304	14468	0	540
4.580	22.755	16304	14675	0	540
7.429	31.771	16384	14987	0	540
5.914	35.124	16464	15426	0	540
0.505	30.292	16664	15946	0	540
-2.164	20.519	16784	16315	0	540
0.433	13.235	16864	16464	0	540
5.121	14.317	16864	16580	0	540
10.819	20.808	17184	16799	0	540
12.658	26.037	17264	17169	0	540
11.684	25.784	17584	17654	0	540
9.881	23.296	17984	18150	0	540
10.386	21.745	18184	18450	0	540
9.665	22.647	18384	18554	0	540
9.448	28.128	18584	18520	0	540
8.114	31.699	18584	18347	0	540
7.140	34.331	18584	18046	0	540
7.898	32.276	18464	17561	0	540
9.629	29.499	18064	16753	0	540
8.258	29.030	17584	15761	0	540
8.150	29.318	17184	14941	0	540
5.517	30.004	16864	14410	0	540
1.154	27.587	16464	13994	0	540
-1.731	21.601	15984	13417	0	540
-2.596	17.310	15384	12724	0	540
-1.911	18.031	14904	12193	0	540
0.577	22.178	14504	12031	0	540
1.334	27.443	14304	12158	0	540
0.865	25.496	13984	12378	0	540
-1.803	20.411	13704	12528	0	540
-0.757	16.048	13384	12666	0	540
2.019	14.930	13104	12874	0	540
4.868	18.969	12984	13140	0	540
8.439	24.739	12904	13440	0	540
7.357	26.325	12584	13729	0	540
6.852	28.345	12504	14087	0	540
5.265	28.741	12584	14548	0	540
3.101	30.112	12384	15091	0	540
-1.659	27.840	12504	15576	0	540
-4.977	26.145	12384	15888	0	540
-7.032	22.972	12304	16154	0	540
-8.366	21.890	12504	16522	0	540
-7.501	20.014	12584	17065	0	540
-9.304	16.625	12784	17700	0	540
-13.595	10.963	13104	18185	0	540
-17.779	4.364	13184	18508	0	540
-20.916	1.479	13384	18855	0	540
-20.087	0.613	13784	19305	0	540
-15.867	3.895	13984	19744	0	540
-11.540	9.412	14504	20009	0	540
-8.150	15.579	14584	20102	0	540
-6.635	18.572	14784	20159	0	540
-10.783	15.867	15104	20229	0	540
-13.704	7.753	15304	20263	0	540
-14.497	2.885	15504	20136	0	540
-13.740	3.426	15584	19882	0	540
-9.665	10.674	15584	19547	0	540
-7.970	19.113	15504	19005	0	540
-4.940	21.132	15704	18427	0	540
-3.390	18.139	15784	18300	0	540
3.678	14.749	16104	18543	0	540
8.547	13.848	16104	18497	0	540
9.701	13.127	15984	17873	0	540
4.616	11.360	15704	17007	0	540
-7.321	5.301	15504	16292	0	540
-18.031	-0.649	15304	15796	0	540
-20.375	0.252	14984	15322	0	540
-14.353	6.708	14584	14641	0	540
-6.383	17.851	14104	13786	0	540
-0.252	25.676	13704	13117	0	540
0.902	27.047	13184	12701	0	540
-2.596	24.847	12704	12320	0	540
-2.741	18.788	12304	11858	0	540
-1.803	12.694	11704	11488	0	540
-0.036	8.763	11304	11350	0	540
-0.108	6.816	11104	11431	0	540
-0.938	9.665	10704	11719	0	540
-0.938	16.516	10584	12135	0	540
1.551	20.159	10384	12516	0	540
5.914	23.404	10384	12932	0	540
10.999	23.657	10384	13590	0	540
16.300	26.145	10504	14502	0	540
18.752	31.338	10784	15507	0	540
16.156	33.538	10984	16350	0	540
9.268	29.679	11184	17007	0	540
0.325	20.664	11504	17550	0	540
-4.868	13.487	11504	17896	0	540
-3.426	14.245	11784	18173	0	540
0.072	21.709	11784	18450	0	540
3.282	27.443	11784	18381	0	540
0.757	26.938	11584	17896	0	540
-1.551	20.159	11504	17538	0	540
-3.570	14.569	11504	17550	0	540
0.252	16.372	11504	17688	0	540
5.734	23.765	11704	17804	0	540
10.566	32.059	11704	17931	0	540
13.595	38.226	11784	18058	0	540
16.552	42.661	12304	18358	0	540
18.824	44.284	12704	19062	0	540
20.736	46.700	13384	20090	0	540
20.700	45.582	13984	20829	0	540
18.933	44.356	14184	20899	0	540
16.048	41.255	14304	20460	0	540
15.254	42.084	14384	19905	0	540
19.041	44.068	14384	19478	0	540
25.279	48.720	14504	19028	0	540
31.554	52.434	14184	18289	1	524
34.800	55.211	13904	17284	0	524
34.043	54.598	13584	16384	0	524
29.282	51.136	13384	15796	0	524
20.014	43.419	13384	15449	0	524
10.278	33.790	12984	15172	0	524
-0.397	25.352	12784	14768	0	524
-8.006	19.005	12584	14364	0	524
-10.638	19.365	12304	14144	0	524
-6.383	21.890	12184	14110	0	524
-2.596	23.188	12184	14202	0	524
-1.911	21.565	12104	14341	0	524
-4.760	16.372	12184	14537	0	524
-8.691	13.559	12104	14791	0	524
-11.396	12.946	12104	15057	0	524
-8.871	15.687	12304	15299	0	524
-5.914	15.398	12184	15495	0	524
-4.039	10.963	12304	15703	0	524
-2.128	2.921	12384	15911	0	524
-3.101	-1.226	12304	15992	0	524
-1.046	-0.397	12184	15900	0	524
1.154	6.888	12304	15865	0	524
4.111	16.733	12184	16003	0	524
6.924	23.945	12304	16188	0	524
6.419	26.974	12384	16373	0	524
3.678	25.099	12384	16591	0	524
0.685	20.664	12584	16741	0	524
-1.623	16.877	12584	16834	0	524
-2.633	13.379	12584	16972	0	524
-3.282	9.773	12904	17180	0	524
-2.885	10.422	12984	17434	0	524
-4.544	9.845	13104	17665	0	524
-5.445	11.107	13384	17850	0	524
-10.494	12.153	13504	17919	0	524
-16.372	10.097	13384	17677	0	524
-25.640	5.481	13304	17123	0	524
-31.158	-2.993	13104	16603	0	524
-30.797	-10.061	12904	16292	0	524
-24.558	-10.999	12704	16015	0	524
-18.933	-7.429	12504	15622	0	524
-15.254	0.793	12504	15299	0	524
-16.012	5.950	12384	15426	0	524
-19.510	7.104	12704	15980	0	524
-21.132	2.596	12784	16487	0	524
-18.428	-1.046	12904	16765	0	524
-14.894	-2.524	13104	16868	0	524
-13.127	-0.793	13184	16903	0	524
-10.963	2.308	13184	16984	0	524
-9.484	7.285	13384	17088	0	524
-6.311	13.740	13384	17088	0	524
-2.380	17.310	13304	16822	0	524
0.072	17.562	12984	16350	0	524
-2.092	11.792	12904	15934	0	524
-7.248	4.111	12784	15715	0	524
-12.117	-1.767	12584	15542	0	524
-10.602	-0.974	12384	15334	0	524
-7.537	5.842	12384	15207	0	524
-1.262	12.045	12304	15345	0	524
1.334	14.533	12584	15772	0	524
0.180	13.054	12904	16361	0	524
-2.705	10.674	12984	16811	0	524
-4.147	9.737	13184	17123	0	524
-4.616	11.360	13504	17469	0	524
-5.842	12.405	13784	17896	0	524
-5.878	11.432	14104	18347	0	524
-4.327	10.458	14384	18647	0	524
-1.118	11.864	14384	18497	0	524
3.823	16.516	14384	17919	0	524
8.655	19.618	14304	17423	0	524
8.150	18.897	14304	17226	0	524
6.744	12.477	14304	17111	0	524
5.662	7.212	14384	17007	0	524
5.590	6.491	14384	17007	0	524
8.619	12.622	14704	17053	0	524
10.602	21.385	14784	17215	0	524
14.064	29.318	15304	17804	0	524
15.687	32.853	15904	18774	0	524
13.704	32.492	16384	19490	0	524
12.117	31.338	16664	19524	0	524
8.727	27.335	16784	19074	0	524
5.373	22.539	16784	18520	0	524
3.678	19.329	16864	18058	0	524
3.498	17.382	16864	17688	0	524
5.229	18.608	16784	17215	0	524
7.825	21.709	16584	16557	0	524
12.369	25.279	16384	15911	0	524
16.877	28.741	16304	15484	0	524
17.310	33.574	16184	15230	0	524
12.045	35.810	15984	14964	0	524
5.013	34.583	15704	14548	0	524
-1.875	31.049	15504	14156	0	524
-2.705	28.345	15304	13913	0	524
1.046	27.263	15184	13809	0	524
8.078	29.607	14984	13717	0	524
12.910	31.338	14784	13625	0	524
13.992	29.354	14504	13567	0	524
13.199	27.335	14584	13625	0	524
10.963	24.234	14384	13856	0	524
10.855	24.378	14384	14237	0	524
8.907	25.027	14504	14618	0	524
10.097	27.587	14504	14953	0	524
10.494	29.138	14584	15368	0	524
11.973	30.617	14984	15900	0	524
11.648	30.004	15104	16441	0	524
9.412	25.352	15304	16926	0	524
5.878	20.123	15504	17296	0	524
2.849	16.228	15584	17492	0	524
2.560	16.048	15784	17573	0	524
5.157	19.257	15904	17642	0	524
8.979	24.558	15984	17688	0	524
10.133	26.758	16104	17688	0	524
9.448	26.902	16184	17677	0	524
7.717	25.929	16304	17654	0	524
8.186	28.345	16304	17584	0	524
10.169	32.203	16304	17492	0	524
14.136	36.206	16384	17388	0	524
15.831	39.199	16304	17192	0	524
14.858	37.252	15984	16661	0	524
13.163	35.557	15704	15865	0	524
12.081	36.026	15184	15091	0	524
13.127	38.514	14784	14398	0	524
14.569	40.966	14104	13451	0	524
14.497	39.993	13104	12204	0	524
13.920	38.154	12304	11073	0	524
12.369	35.197	11704	10484	0	524
13.271	33.105	11104	10438	0	524
14.894	33.826	10904	10749	0	524
18.572	34.187	10504	11154	0	524
22.250	35.954	10184	11442	0	524
25.171	36.314	9784	11719	0	524
23.296	35.341	9704	12135	0	524
17.995	30.725	9704	12724	0	524
12.369	25.893	9384	13336	0	524
8.511	22.683	9384	13879	0	524
8.835	22.070	9304	14514	0	524
12.045	23.260	9504	15357	0	524
12.910	22.250	9904	16384	0	524
10.386	21.132	10104	17446	0	524
9.809	19.401	10584	18312	0	524
8.366	21.385	10704	18935	0	524
11.035	24.342	11104	19432	0	524
13.163	27.083	11504	19998	0	524
12.982	26.361	11904	20610	0	524
13.956	26.397	12384	21060	0	524
14.317	26.037	12584	21280	0	524
16.480	28.814	12984	21430	0	524
20.339	31.302	13504	21603	0	524
20.880	35.810	13704	21741	0	524
20.159	37.793	13984	21765	0	524
17.815	37.036	14384	21638	0	524
15.435	33.610	14584	21372	0	524
16.012	29.427	14904	20956	0	524
17.490	27.010	14904	20506	0	524
20.014	29.499	15184	20263	1	612
21.132	36.170	15504	20252	0	612
20.483	40.642	15584	20067	0	612
20.087	40.065	15704	19386	0	612
20.844	34.980	15504	18393	0	612
21.637	30.004	15304	17469	0	612
21.781	28.056	15104	16730	0	612
21.277	31.266	14704	15957	0	612
18.139	34.006	14384	14999	0	612
15.543	33.574	13784	13983	0	612
12.910	28.164	13304	13140	0	612
12.730	21.493	12904	12574	0	612
12.910	19.401	12784	12320	0	612
13.523	23.296	12304	12227	0	612
15.038	30.761	12104	12066	0	612
15.146	36.134	11704	11950	0	612
13.956	34.980	11504	12066	0	612
13.415	30.400	11504	12412	0	612
13.812	27.227	11304	12805	0	612
17.526	32.023	11304	13140	0	612
20.014	41.147	11184	13509	0	612
22.899	48.756	11304	14029	0	612
21.024	49.008	11304	14641	0	612
18.572	42.048	11504	15195	0	612
16.697	32.708	11504	15622	0	612
17.166	29.210	11584	16015	0	612
19.582	29.354	11784	16418	0	612
20.447	32.528	11784	16730	0	612
17.815	32.997	11984	16892	0	612
13.271	30.725	11984	17030	0	612
7.789	27.047	11984	17296	0	612
5.085	23.332	12384	17677	0	612
2.849	21.349	12584	18116	0	612
6.094	22.250	12904	18531	0	612
8.655	24.125	13184	18797	0	612
9.484	27.083	13384	18970	0	612
7.862	30.220	13584	19190	0	612
4.327	31.951	13984	19467	0	612
1.911	30.797	14304	19732	0	612
4.688	31.771	14904	19963	0	612
10.638	33.898	15184	20206	0	612
18.500	37.288	15384	20275	0	612
20.952	41.219	15504	19940	0	612
20.664	42.193	15504	19305	0	612
17.923	41.580	15504	18647	0	612
13.956	36.242	15504	18116	0	612
10.927	29.787	15384	17619	0	612
6.599	23.476	15104	16915	0	612
1.911	18.680	14704	16050	0	612
-0.649	19.221	14584	15299	0	612
-1.551	23.224	14304	14872	0	612
-0.649	27.083	14104	14641	0	612
-0.793	26.217	13904	14329	0	612
-2.344	20.195	13584	13798	0	612
-5.806	14.172	13184	13382	0	612
-8.114	11.287	12984	13313	0	612
-8.655	12.045	12984	13521	0	612
-9.052	15.074	12984	13809	0	612
-7.789	15.543	12904	14029	0	612
-8.402	11.648	12984	14318	0	612
-8.186	7.104	13104	14745	0	612
-9.773	3.787	13104	15126	0	612
-8.078	3.173	12984	15357	0	612
-7.032	9.304	12984	15426	0	612
-2.777	16.697	13184	15518	0	612
1.875	25.171	13104	15738	0	612
6.671	29.859	13304	16142	0	612
8.871	30.941	13504	16638	0	612
9.160	27.407	13584	17030	0	612
5.770	26.614	13784	17261	0	612
2.524	24.811	13984	17515	0	612
-1.587	24.811	14304	17942	0	612
-5.157	23.008	14784	18416	0	612
-8.511	18.283	14904	18693	0	612
-10.999	15.435	15104	18774	0	612
-12.730	14.461	15304	18820	0	612
-10.061	16.949	15504	18889	0	612
-7.898	20.772	15784	18924	0	612
-3.823	21.998	15984	18855	0	612
-5.265	20.303	16104	18670	0	612
-6.491	16.625	16104	18335	0	612
-8.402	12.514	16104	17908	0	612
-8.294	11.468	15984	17538	0	612
-7.068	10.674	16104	17273	0	612
-6.960	10.530	15984	17007	0	612
-9.520	8.439	15784	16511	0	612
-13.559	5.626	15504	15784	0	612
-13.956	7.248	15184	15091	0	612
-10.891	10.891	14984	14629	0	612
-3.750	18.680	14704	14329	0	612
3.065	24.702	14384	14087	0	612
6.996	26.686	14184	13763	0	612
8.691	24.955	13784	13428	0	612
7.934	22.683	13784	13440	0	612
8.655	24.234	13704	13786	0	612
8.114	26.542	13584	14133	0	612
6.708	29.859	13584	14375	0	612
2.849	30.545	13584	14514	0	612
-0.541	30.364	13504	14652	0	612
-2.019	29.607	13504	14906	0	612
-0.829	28.092	13584	15241	0	612
0.288	27.876	13584	15484	0	612
1.659	28.633	13504	15542	0	612
0.902	27.551	13304	15576	0	612
0.721	28.777	13384	15749	0	612
1.226	29.246	13504	16073	0	612
1.479	28.092	13504	16373	0	612
-0.721	24.811	13384	16464	0	612
-4.796	21.060	13304	16281	0	612
-6.744	19.906	13104	15934	0	612
-4.616	23.008	12984	15796	0	612
1.947	30.400	12984	15900	0	612
6.383	37.432	12904	15992	0	612
7.573	42.842	12904	16096	0	612
1.370	40.317	12904	16384	0	612
-6.924	33.682	13304	16903	0	612
-11.215	26.397	13640	19882	0	464
14.425	34.692	19784	19524	0	464
12.045	31.410	19784	19097	0	464
11.973	27.551	19784	18612	0	464
12.009	25.099	19664	17954	0	464
13.631	24.630	19264	17123	0	464
11.828	25.532	19264	16373	0	464
9.304	26.109	18984	15807	0	464
6.491	25.352	18784	15311	0	464
4.219	23.801	18264	14606	0	464
4.255	21.998	17664	13729	0	464
6.383	21.745	17384	13047	0	464
9.124	20.411	16984	12793	0	464
13.487	22.863	16784	12839	0	464
15.615	25.279	16464	12805	0	464
15.218	26.686	15984	12447	0	464
14.245	28.994	15584	12100	0	464
14.785	29.823	15384	12170	0	464
16.300	27.696	15504	12632	0	464
19.942	27.371	15304	13151	0	464
21.962	26.866	15184	13509	0	464
22.827	27.768	14904	13659	0	464
23.837	30.004	14504	13521	0	464
23.693	32.997	14184	13197	0	464
23.080	34.043	13784	13094	0	464
21.781	31.843	13704	13232	0	464
17.779	27.732	13304	13486	0	464
15.254	23.512	13304	13971	0	464
15.002	20.483	13584	14837	0	464
14.208	19.726	13784	15911	0	464
12.045	19.329	14104	16845	0	464
7.970	18.644	14504	17665	0	464
2.164	16.120	14904	18497	0	464
-2.560	12.550	15304	19351	0	464
-4.544	10.710	15784	20102	0	464
-4.147	9.809	16184	20644	0	464
0.216	13.127	16664	21037	0	464
3.678	16.516	17184	21395	0	464
6.527	18.572	17664	21776	0	464
4.904	17.959	18184	22111	0	464
0.685	13.848	18664	22250	0	464
-2.272	10.169	18984	22180	0	464
-3.642	9.268	19264	21984	0	464
-1.082	8.366	19664	21730	0	464
3.534	11.251	19984	21453	0	464
8.114	13.812	20184	21129	1	332
12.514	19.798	20464	20760	0	332
15.723	24.775	20664	20240	0	332
16.841	28.309	20464	19420	0	332
15.218	27.119	20384	18370	0	332
11.828	23.549	20184	17400	0	332
10.386	20.664	19864	16626	0	332
10.819	22.142	19784	15957	0	332
12.297	27.587	19584	15299	0	332
16.372	32.348	19184	14606	0	332
17.743	34.043	18864	13983	0	332
16.084	31.518	18784	13671	0	332
12.405	25.099	18864	13752	0	332
7.140	19.798	18664	13890	0	332
1.623	16.661	18464	13821	0	332
-0.108	15.471	18464	13578	0	332
-2.056	13.956	17864	13036	0	332
-3.787	11.432	17384	12239	0	332
-4.904	6.996	16984	11719	0	332
-9.088	4.760	16584	11627	0	332
-8.222	4.436	16384	11754	0	332
-11.287	5.878	16304	12112	0	332
-12.910	6.599	16384	12805	0	332
-17.923	2.380	16464	13659	0	332
-20.627	-2.308	16584	14364	0	332
-19.870	-3.462	16784	14906	0	332
-13.451	0.216	16984	15518	0	332
-3.714	7.753	17184	16292	0	332
3.426	13.956	17584	17088	0	332
5.698	15.939	17864	17700	0	332
4.147	12.009	18064	18139	0	332
0.938	5.085	18464	18577	0	332
-1.875	0.108	18864	19097	0	332
-4.508	-2.416	19384	19594	0	332
-4.039	-0.252	19584	19905	0	332
-4.796	4.219	19864	19825	0	332
-2.164	9.340	19784	19282	0	332
-0.577	11.900	19584	18531	0	332
1.515	7.393	19384	17862	0	332
0.397	3.570	19264	17377	0	332
-4.364	-4.075	19184	17030	0	332
-11.684	-9.196	19064	16707	0	332
-17.743	-10.819	18864	16384	0	332
-20.808	-10.422	18864	16188	0	332
-18.752	-5.914	19184	16430	0	332
-12.622	-0.649	19584	17088	0	332
-7.573	3.101	19864	17746	0	332
-9.737	2.416	20184	18012	0	332
-13.992	-1.983	20264	17862	0	332
-21.277	-6.780	20184	17550	0	332
-24.486	-11.251	20264	17284	0	332
-24.089	-12.081	20184	16903	0	332
-20.375	-10.422	19664	16188	0	332
-17.454	-8.691	19384	15241	0	332
-15.074	-5.914	18984	14456	0	332
-15.290	-2.416	18584	13960	0	332
-15.975	-2.885	18264	13740	0	332
-17.598	-3.534	18184	13659	0	332
-19.077	-5.554	17864	13590	0	332
-20.087	-4.940	17664	13498	0	332
-18.211	-4.291	17584	13578	0	332
-15.471	-2.957	17664	13971	0	332
-13.740	-2.596	17784	14595	0	332
-12.658	-6.599	17864	15126	0	332
-13.415	-9.520	17864	15484	0	332
-12.694	-9.629	18184	15853	0	332
-11.756	-6.599	18264	16384	0	332
-10.314	-1.803	18664	17076	0	332
-9.484	0.433	19064	17769	0	332
-11.323	-1.551	19384	18404	0	332
-11.864	-6.203	19864	18924	0	332
-12.225	-9.520	20264	19305	0	332
-9.052	-8.258	20464	19547	0	332
-6.311	-0.649	20784	19605	0	332
-3.462	6.635	21064	19524	0	332
-0.938	11.792	21064	19351	0	332
-0.613	13.523	21184	19005	0	332
0.613	13.776	21184	18635	0	332
1.442	11.215	21584	18612	0	332
1.587	11.107	21664	18797	0	332
2.380	9.773	21784	18531	0	332
2.777	10.206	21584	17700	0	332
0.865	11.251	21064	16661	0	332
0.180	13.487	20864	15749	0	332
-0.577	17.021	20464	15091	0	332
-1.226	20.736	20184	14572	0	332
-0.613	21.854	19784	13936	0	332
0.938	25.856	19184	13209	0	332
4.291	26.866	19064	12909	0	332
5.986	29.715	18984	13186	0	332
7.248	30.148	19064	13694	0	332
5.842	28.958	18984	14075	0	332
2.488	25.712	18864	14248	0	332
-1.154	20.447	18864	14341	0	332
-1.803	19.257	18664	14352	0	332
-0.216	20.014	18184	14006	0	332
1.190	22.214	17784	13348	0	332
2.993	27.010	17264	12863	0	332
4.544	28.489	16864	12747	0	332
8.655	30.725	16784	12920	0	332
11.360	32.600	16784	13417	0	332
12.477	32.312	16784	14144	0	332
8.907	29.643	16784	14803	0	332
4.436	26.289	16864	15276	0	332
1.190	22.647	16984	15692	0	332
2.488	23.585	17064	16200	0	332
6.203	26.902	17264	16788	0	332
11.035	32.889	17464	17284	0	332
10.494	36.206	17664	17596	0	332
10.458	36.819	17784	17908	0	332
11.720	36.387	18064	18323	0	332
11.251	34.115	18264	18728	0	332
11.973	33.069	18584	18982	0	332
11.360	31.085	18784	19120	0	332
8.330	29.246	18984	19201	0	332
5.842	28.814	19064	19178	0	332
3.570	26.722	19064	19051	0	332
2.777	25.965	19264	18935	0	332
1.334	25.352	19464	18866	0	332
-0.938	24.955	19384	18647	0	332
-2.741	24.522	19064	18012	0	332
-5.157	24.775	18784	17088	0	332
-5.554	23.945	18464	16281	0	332
-3.390	23.837	18184	15772	0	332
3.750	26.902	18064	15461	0	332
10.891	31.699	17664	15126	0	332
15.759	37.216	17464	14664	0	332
15.543	37.577	17184	14294	0	332
10.494	33.249	17064	14260	0	332
2.164	25.171	17064	14572	0	332
-0.505	19.437	17064	14976	0	332
-1.262	16.949	17064	15241	0	332
1.226	18.680	17184	15426	0	332
3.859	22.539	17384	15784	0	332
4.039	24.594	17464	16338	0	332
4.147	27.191	17664	16845	0	332
1.190	26.974	17984	17215	0	332
-1.731	24.378	18064	17480	0	332
-3.642	20.050	18264	17677	0	332
-5.734	16.300	18264	17642	0	332
-5.842	14.353	18264	17342	0	332
-6.708	15.074	17864	16845	0	332
-7.104	16.372	17384	15957	0	332
-8.583	16.336	16864	14872	0	332
-11.215	12.189	16584	14341	0	332
-12.045	10.422	16464	14387	0	332
-9.773	8.186	16304	14514	0	332
-7.537	9.592	16184	14629	0	332
-3.678	13.199	16184	14883	0	332
-0.577	15.903	16304	15334	0	332
0.757	17.815	16464	15842	0	332
1.298	20.627	16584	16281	0	332
4.219	22.647	16784	16661	0	332
7.789	23.332	16984	17053	0	332
9.304	22.611	17184	17342	0	332
9.340	19.582	17184	17492	0	332
5.373	19.437	17384	17642	0	332
2.452	20.952	17584	17873	0	332
1.659	25.496	17664	18046	0	332
3.967	28.886	17664	17885	0	332
5.013	27.804	17584	17446	0	332
6.167	22.719	17464	17123	0	332
3.137	16.697	17464	17111	0	332
-2.200	12.117	17584	17157	0	332
-6.527	7.789	17464	16996	0	332
-11.107	8.186	17264	16638	0	332
-12.946	8.366	17184	16350	0	332
-15.290	8.907	17184	16257	0	332
-16.480	6.816	17184	16304	0	332
-15.759	4.724	17184	16257	0	332
-14.930	2.813	17064	16061	0	332
-12.153	3.462	17184	16096	0	332
-6.419	6.996	17384	16476	0	332
-1.479	13.054	17584	16984	0	332
1.515	16.733	17864	17423	0	332
5.013	21.277	18064	17723	0	332
6.239	25.352	18264	17885	0	332
6.708	27.083	18584	18035	0	332
10.350	31.374	18864	18312	0	332
13.848	33.105	19184	18589	0	332
17.562	35.233	19264	18681	0	332
20.591	36.495	19664	18624	0	332
21.168	36.278	19784	18589	0	332
18.608	35.485	20064	18705	0	332
17.129	34.872	20384	18889	0	332
13.920	36.747	20664	18947	0	332
11.143	38.767	20864	18912	0	332
8.583	39.127	21264	18947	0	332
5.049	34.836	21664	19062	0	332
1.839	28.237	21864	19166	0	332
-2.452	19.546	22264	19155	0	332
-8.871	14.785	22464	19016	0	332
-12.766	14.677	22664	18808	0	332
-15.903	15.831	22864	18508	0	332
-15.759	18.103	22984	18243	1	776
-13.956	16.625	23384	18220	0	776
-10.530	12.081	23384	18012	0	776
-11.360	7.537	23064	17111	0	776
-12.730	5.734	22784	15819	0	776
-11.540	6.924	22064	14606	0	776
-11.251	12.009	21784	13694	0	776
-10.278	16.012	21264	13128	0	776
-8.799	15.146	21064	12678	0	776
-9.304	14.136	20464	12020	0	776
-8.475	12.153	19664	11177	0	776
-7.393	13.379	19184	10542	0	776
-3.570	17.634	18784	10322	0	776
-0.721	21.998	18464	10403	0	776
0.613	24.089	18064	10588	0	776
0.505	23.368	17784	10738	0	776
-1.406	23.296	17464	11003	0	776
-2.705	20.483	17384	11488	0	776
-6.744	18.211	17264	12135	0	776
-8.835	16.156	17264	12782	0	776
-9.052	14.605	17184	13278	0	776
-8.619	15.074	17064	13717	0	776
-8.402	16.769	17064	14248	0	776
-10.530	13.992	17264	14987	0	776
-16.913	10.494	17384	15807	0	776
-21.818	6.599	17464	16441	0	776
-21.529	5.914	17664	16845	0	776
-16.552	8.366	17664	17238	0	776
-9.376	11.792	18064	17758	0	776
-6.058	12.405	18384	18404	0	776
-6.852	10.674	18784	19109	0	776
-9.340	11.468	18984	19547	0	776
-10.097	13.307	18784	19282	0	776
-8.366	15.290	18664	18508	0	776
-6.635	16.877	18584	18035	0	776
-5.337	16.949	18664	18093	0	776
-5.698	15.507	18784	18300	0	776
-7.104	14.461	18784	18381	0	776
-5.770	13.848	18984	18358	0	776
-3.859	14.100	19064	18358	0	776
0.361	12.730	19264	18370	0	776
4.940	13.018	19384	18370	0	776
9.556	13.776	19264	18266	0	776
10.350	14.064	19184	17827	0	776
11.468	15.723	18984	17099	0	776
11.828	17.851	18664	16476	0	776
8.655	18.933	18464	16177	0	776
6.671	19.113	18384	16003	0	776
4.400	16.733	18184	15692	0	776
3.065	15.471	17984	15276	0	776
4.111	13.812	17784	15022	0	776
8.583	15.254	17784	15091	0	776
8.835	17.706	17864	15438	0	776
6.780	19.473	17864	15796	0	776
5.301	19.978	17984	15969	0	776
3.173	19.978	18064	16073	0	776
4.472	18.933	18184	16338	0	776
8.330	19.113	18384	16695	0	776
9.592	19.473	18464	16949	0	776
10.061	18.211	18464	17019	0	776
8.150	16.949	18664	17180	0	776
7.609	17.526	18984	17561	0	776
5.013	18.283	19384	18058	0	776
2.669	19.149	19584	18520	0	776
-1.803	18.824	19984	18808	0	776
-3.318	18.031	20184	18820	0	776
-3.823	19.005	19984	18393	0	776
0.649	21.565	19864	17584	0	776
3.606	23.512	19584	16811	0	776
3.967	22.286	19384	16315	0	776
1.551	16.552	19264	16015	0	776
-1.154	14.533	19264	15923	0	776
-1.082	15.831	19384	16027	0	776
2.488	24.666	19464	16257	0	776
6.383	34.006	19584	16441	0	776
6.635	36.675	19664	16580	0	776
3.714	31.662	19864	16684	0	776
-2.452	22.431	19864	16765	0	776
-8.439	13.668	19984	16776	0	776
-11.035	12.081	20064	16776	0	776
-11.720	13.848	20064	16811	0	776
-9.052	17.490	20184	16788	0	776
-7.681	19.654	20064	16441	0	776
-5.481	19.113	19784	15969	0	776
-6.275	18.716	20184	16050	0	776
-7.321	17.129	20464	16730	0	776
-6.960	16.264	20584	17296	0	776
-7.753	15.435	20784	17330	0	776
-5.914	14.208	20784	17030	0	776
-7.248	13.812	20664	16765	0	776
-10.494	13.091	20864	16707	0	776
-16.841	9.917	20864	16822	0	776
-22.755	7.717	21064	16961	0	776
-23.440	6.022	21264	17019	0	776
-19.726	8.186	21384	17157	0	776
-14.425	12.117	21784	17504	0	776
-8.763	15.254	22064	17989	0	776
-8.763	18.211	22584	18381	0	776
-9.448	16.913	22664	18497	0	776
-12.622	15.615	22864	18416	0	776
-13.956	14.172	23264	18347	0	776
-16.949	12.766	23384	18427	0	776
-18.536	11.251	23784	18520	0	776
-17.706	11.071	23784	18427	0	776
-13.740	11.612	23984	18162	0	776
-9.809	13.343	24184	17896	0	776
-6.996	14.461	24264	17758	0	776
-7.789	14.136	24384	17700	0	776
-8.763	12.946	24584	17515	0	776
-9.268	11.828	24584	17203	0	776
-7.681	13.992	24584	16915	0	776
-7.357	16.949	24664	16753	0	776
-8.294	19.437	24864	16730	0	776
-13.740	17.743	24984	16695	0	776
-18.464	12.802	24664	16304	0	776
-22.719	5.445	24064	15114	0	776
-23.512	2.741	23384	13440	0	776
-21.457	3.390	22584	12147	0	776
-17.959	7.285	22464	11789	0	776
-17.418	9.304	22184	12135	0	776
-19.726	8.186	22184	12516	0	776
-22.358	5.950	21984	12689	0	776
-24.342	8.042	21864	12816	0	776
-22.322	10.242	21584	12909	0	776
-19.510	13.199	21464	13001	0	776
-18.175	13.163	21184	13105	0	776
-21.349	10.746	20984	13047	0	776
-22.899	8.943	20664	12828	0	776
-23.476	10.278	20184	12736	0	776
-21.024	12.225	20064	12966	0	776
-19.834	12.622	20184	13463	0	776
-20.880	9.340	19984	13994	0	776
-25.171	5.878	19864	14341	0	776
-28.994	3.750	19864	14606	0	776
-30.941	3.282	19784	15033	0	776
-29.282	7.140	19984	15588	0	776
-26.578	10.206	20064	16130	0	776
-22.827	12.982	19984	16499	0	776
-19.221	16.985	20184	16788	0	776
-14.461	17.959	20384	17180	0	776
-10.710	22.719	20464	17746	0	776
-7.681	23.981	20864	18358	0	776
-8.619	21.529	21184	18762	0	776
-11.504	16.048	21264	18993	0	776
-16.336	9.701	21584	19178	0	776
-19.906	6.744	21664	19363	0	776
-19.077	8.655	21984	19478	0	776
-15.615	13.812	21984	19420	0	776
-12.297	16.444	22264	19270	0	776
-9.232	16.336	22264	19166	0	776
-8.979	15.110	22584	19155	0	776
-9.124	14.208	22664	19166	1	604
-9.412	15.795	22864	19051	0	604
-11.792	16.336	22984	18832	0	604
-13.415	15.507	22984	18612	0	604
-15.110	13.884	23184	18393	0	604
-14.713	12.766	23064	18127	0	604
-11.251	16.949	23184	17781	0	604
-5.121	23.549	23064	17377	0	604
0.433	29.246	22864	16868	0	604
2.596	29.787	22464	16050	0	604
-0.216	25.856	21864	14987	0	604
-4.508	20.988	21584	14121	0	604
-7.032	18.716	21184	13636	0	604
-7.789	22.395	20784	13313	0	604
-3.714	26.794	20384	12874	0	604
-1.479	31.266	19784	12320	0	604
-3.065	29.499	19464	11916	0	604
-7.970	24.558	18984	11742	0	604
-13.884	17.310	18584	11627	0	604
-19.870	10.350	18064	11523	0	604
-21.601	7.104	17784	11558	0	604
-20.447	6.996	17464	11869	0	604
-17.490	9.088	17384	12412	0	604
-14.317	12.081	17264	13013	0	604
-12.189	13.776	17264	13555	0	604
-11.900	16.192	17184	14006	0	604
-8.222	18.716	17064	14433	0	604
-7.645	22.719	17184	14964	0	604
-6.996	22.647	17384	15657	0	604
-9.989	21.637	17384	16407	0	604
-11.576	18.716	17584	17007	0	604
-10.891	18.067	17784	17434	0	604
-5.986	21.421	17864	17908	0	604
-2.272	26.433	18264	18577	0	604
0.938	30.148	18664	19293	0	604
-1.298	32.023	19064	19767	0	604
-4.580	30.400	19264	19986	0	604
-6.347	28.705	19464	20113	0	604
-10.422	26.433	19784	20240	0	604
-14.136	22.611	20184	20367	0	604
-18.608	17.382	20264	20390	0	604
-20.411	14.281	20464	20298	0	604
-19.401	12.405	20784	20136	0	604
-16.408	13.848	20784	19905	0	604
-15.975	12.730	20984	19628	0	604
-20.591	10.638	20864	19293	0	604
-28.994	6.167	20984	18912	0	604
-38.767	1.442	21064	18427	0	604
-41.111	0.865	20784	17873	0	604
-38.839	2.777	20784	17307	0	604
-31.807	7.212	20464	16788	0	604
-27.371	11.179	20464	16361	0	604
-22.395	16.805	20384	15957	0	604
-19.113	21.457	19864	15357	0	604
-14.894	25.027	19584	14652	0	604
-11.323	28.164	19584	14352	0	604
-10.638	25.604	19384	14456	0	604
-10.530	24.558	19184	14421	0	604
-12.550	23.909	18864	14075	0	604
-10.927	24.378	18664	13717	0	604
-9.052	26.650	18384	13544	0	604
-11.432	26.578	18264	13567	0	604
-17.779	23.332	18064	13763	0	604
-24.017	18.933	18064	14029	0	604
-27.335	16.012	17984	14271	0	604
-27.624	15.975	18064	14537	0	604
-23.657	19.149	18184	14941	0	604
-20.303	23.080	18264	15518	0	604
-21.709	25.207	18384	16130	0	604
-21.565	25.027	18664	16511	0	604
-23.008	22.791	18664	16695	0	604
-21.673	20.952	18864	16915	0	604
-21.313	20.700	19064	17330	0	604
-21.637	20.447	19264	17862	0	604
-23.188	21.854	19664	18323	0	604
-23.440	22.647	19984	18658	0	604
-22.178	27.696	20064	18889	0	604
-17.743	31.771	20464	19051	0	604
-13.992	37.793	20784	19166	0	604
-12.477	37.793	20784	19120	1	316
-12.658	32.708	20984	18878	0	316
-16.300	26.686	20784	18497	0	316
-20.483	21.781	20864	17977	0	316
-25.135	18.139	20664	17353	0	316
-30.617	17.129	20384	16741	0	316
-31.518	16.733	20184	16246	0	316
-31.230	14.461	19984	15726	0	316
-30.004	16.300	19384	14987	0	316
-31.482	16.805	19064	14133	0	316
-36.170	19.329	18584	13475	0	316
-44.897	18.139	18264	13140	0	316
-49.982	16.589	17784	12909	0	316
-52.434	14.930	17264	12516	0	316
-46.736	16.156	16784	12008	0	316
-37.793	20.123	16304	11708	0	316
-28.381	25.820	15984	11777	0	316
-23.116	26.181	15904	12181	0	316
-20.700	25.279	15704	12689	0	316
-22.972	21.529	15584	13128	0	316
-19.401	20.591	15584	13625	0	316
-12.622	23.549	15584	14306	0	316
-5.986	27.515	15784	15068	0	316
-3.462	25.676	15904	15680	0	316
-8.619	21.349	15904	16084	0	316
-16.192	15.290	15984	16453	0	316
-20.447	12.910	16184	16984	0	316
-18.536	14.389	16464	17688	0	316
-12.477	18.752	16864	18439	0	316
-9.052	20.483	17264	19074	0	316
-8.258	19.834	17464	19409	0	316
-10.746	20.880	17464	19236	0	316
-15.290	19.834	17184	18612	0	316
-19.726	20.772	17064	18035	0	316
-24.847	20.555	16984	17723	0	316
-31.230	17.815	16864	17573	0	316
-33.610	15.074	16984	17561	0	316
-33.610	15.146	17064	17804	0	316
-31.554	15.903	17464	18185	0	316
-27.660	18.572	17584	18485	0	316
-27.515	20.159	17784	18601	0	316
-28.561	21.493	17984	18635	0	316
-29.607	22.286	18264	18658	0	316
-30.148	24.450	18264	18670	0	316
-28.994	27.804	18464	18601	0	316
-26.506	29.499	18584	18485	0	316
-26.686	28.814	18664	18289	0	316
-29.895	26.506	18464	17792	0	316
-36.098	22.972	18184	17042	0	316
-43.527	20.736	18064	16453	0	316
-48.576	17.923	17984	16200	0	316
-52.470	15.939	17984	16003	0	316
-52.470	13.415	17584	15530	0	316
-53.480	10.494	17264	14860	0	316
-55.283	8.439	17064	14445	0	316
-57.591	6.419	17064	14514	0	316
-57.988	5.734	17184	14930	0	316
-59.827	3.823	17264	15380	0	316
-60.332	2.056	17264	15634	0	316
-60.981	3.282	17264	15738	0	316
-59.394	5.662	17384	15900	0	316
-55.680	11.576	17584	16200	0	316
-49.838	18.500	17584	16464	0	316
-44.464	24.234	17664	16603	0	316
-40.209	26.686	17784	16661	0	316
-39.091	29.066	17984	16788	0	316
-40.462	26.542	18184	17065	0	316
-41.580	24.955	18384	17388	0	316
-43.238	22.683	18464	17584	0	316
-41.688	22.611	18584	17619	0	316
-37.613	24.702	18784	17665	0	316
-30.797	28.741	19064	17885	0	316
-27.732	31.158	19384	18208	0	316
-32.780	30.400	19464	18370	0	316
-41.868	23.549	19784	18381	0	316
-52.074	19.329	20064	18416	0	316
-60.404	14.930	20264	18577	0	316
-61.450	12.694	20664	18774	0	316
-59.394	13.523	20984	18832	0	316
-61.810	11.937	20984	18670	0	316
-65.056	10.783	21184	18370	0	316
-68.915	9.196	20984	17896	0	316
-68.374	10.963	20864	17238	0	316
-64.335	14.136	20984	16765	0	316
-57.303	19.221	20984	16765	0	316
-53.660	22.719	21064	16765	0	316
-52.975	25.676	20784	16281	0	316
-53.985	24.955	20584	15484	0	316
-53.624	23.909	20384	14826	0	316
-51.208	23.657	20064	14491	0	316
-46.051	23.296	19864	14237	0	316
-44.140	25.604	19584	13798	0	316
-44.609	26.938	19064	13244	0	316
-46.412	29.066	18864	12920	0	316
-50.667	27.119	18664	12920	0	316
-55.716	27.840	18584	13128	0	316
-61.414	25.352	18384	13371	0	316
-67.184	24.630	18384	13544	0	316
-73.675	23.801	18184	13786	0	316
-79.445	21.565	18264	14191	0	316
-83.628	18.897	18384	14687	0	316
-88.893	13.523	18464	15149	0	316
-96.322	6.419	18464	15495	0	316
-101.875	1.515	18584	15819	0	316
-106.996	-2.344	18864	16234	0	316
-112.081	-5.013	18984	16753	0	316
-112.982	-5.842	19264	17273	0	316
-113.343	-4.327	19384	17665	0	316
-110.314	-2.236	19784	17977	0	316
-106.708	0.433	20064	18404	0	316
-103.426	5.770	20464	18982	0	316
-103.787	7.934	20864	19513	0	316
-102.993	7.393	21064	19617	0	316
-104.364	5.445	20784	18924	0	316
-103.678	3.173	20464	17746	0	316
-104.039	1.010	20264	16845	0	316
-103.823	3.173	19864	16395	0	316
-102.705	11.900	19784	16038	0	316
-99.712	19.365	19664	15715	0	316
-97.079	27.155	19384	15542	0	316
-97.800	25.965	19464	15495	0	316
-104.219	19.834	19384	15495	0	316
-112.658	12.514	19264	15495	0	316
-120.700	8.475	19264	15576	0	316
-125.171	10.638	19264	15657	0	316
-127.335	11.720	19064	15426	0	316
-129.607	10.855	18664	14872	0	316
-133.466	7.176	18384	14410	0	316
-139.596	0.902	18064	14260	0	316
-145.618	-1.947	17984	14283	0	316
-153.228	-3.570	17664	14202	0	316
-157.952	-3.210	17464	13971	0	316
-160.981	-5.337	17184	13809	0	316
-160.151	-4.904	17064	13960	0	316
-157.194	-4.075	17064	14421	0	316
-154.886	-0.793	17064	14964	0	316
-152.831	0.685	17064	15322	0	316
-154.742	0.757	17184	15599	0	316
-154.814	0.793	17184	15865	0	316
-155.175	0.288	17184	16096	0	316
-153.696	4.003	16984	16200	0	316
-155.139	8.042	17064	16223	0	316
-157.988	12.045	16864	16234	0	316
-160.981	12.045	16584	15992	0	316
-163.181	12.586	16184	15449	0	316
-162.063	14.605	15904	15033	0	316
-161.414	15.723	15704	14930	0	316
-162.135	17.634	15704	15033	0	316
-164.010	18.392	15584	15345	0	316
-168.915	16.192	15784	15923	0	316
-171.475	12.874	15984	16649	0	316
-176.451	9.412	16304	17319	0	316
-181.500	6.167	16464	17850	0	316
-187.234	4.688	16784	18347	0	316
-188.640	3.606	17264	18924	0	316
-187.919	2.633	17584	19513	0	316
-185.070	-0.541	18064	19975	0	316
-182.366	-1.767	18384	20275	0	316
-180.707	-0.577	18784	20517	0	316
-177.425	2.957	19184	20725	0	316
-171.114	8.402	19464	20829	0	316
-164.082	12.081	19784	20795	0	316
-157.339	14.389	20184	20656	0	316
-154.778	14.136	20264	20471	0	316
-153.264	14.821	20464	20183	0	316
-150.775	16.480	20584	19594	1	660
-146.881	18.103	20384	18785	0	660
-140.281	19.834	20264	18023	0	660
-135.737	21.060	20264	17377	0	660
-135.810	19.437	19784	16580	0	660
-137.180	17.346	19464	15599	0	660
-139.596	16.949	19184	14733	0	660
-140.498	19.005	18784	14179	0	660
-137.036	23.116	18464	13809	0	660
-135.197	22.972	18184	13498	0	660
-139.199	19.546	17984	13278	0	660
-144.320	11.720	17864	13255	0	660
-150.595	5.481	17864	13475	0	660
-153.660	2.019	17864	13902	0	660
-152.146	2.993	17984	14352	0	660
-149.008	4.904	17984	14629	0	660
-145.222	8.547	18064	14814	0	660
-142.986	10.169	18184	15137	0	660
-140.642	14.136	18384	15634	0	660
-138.226	17.382	18584	16177	0	660
-132.239	18.392	18784	16591	0	660
-121.421	19.221	18864	16903	0	660
-106.094	20.627	19184	17226	0	660
-92.463	22.791	19584	17677	0	660
-85.215	24.053	19784	18150	0	660
-87.018	27.155	20064	18450	0	660
-93.906	26.506	20384	18612	0	660
-101.190	27.191	20584	18739	0	660
-106.455	26.433	20984	18912	0	660
-109.701	27.912	21184	19016	0	660
-112.189	26.722	21064	18716	0	660
-115.326	26.758	20784	17815	0	660
-114.749	25.424	20384	16626	0	660
-110.819	25.279	20064	15784	0	660
-104.832	22.503	19984	15391	0	660
-97.656	19.834	19784	15207	0	660
-92.463	15.795	19584	15080	0	660
-88.677	9.629	19584	14987	0	660
-83.484	7.681	19584	14930	0	660
-73.999	6.131	19384	14941	0	660
-63.613	9.196	19464	15068	0	660
-54.021	12.081	19584	15311	0	660
-48.143	15.543	19464	15449	0	660
-45.835	18.211	19184	15230	0	660
-42.337	19.546	18984	14768	0	660
-37.901	20.411	18864	14537	0	660
-33.393	19.618	18784	14687	0	660
-29.246	19.293	18784	15103	0	660
-28.453	17.779	19064	15530	0	660
-27.191	19.149	19064	15796	0	660
-21.998	25.496	19184	16027	0	660
-16.480	29.607	19264	16373	0	660
-15.038	30.797	19584	16868	0	660
-19.618	28.056	19864	17411	0	660
-29.715	20.375	20184	17827	0	660
-40.786	14.894	20384	18220	0	660
-45.835	14.172	20864	18681	0	660
-44.825	17.743	21184	19132	0	660
-41.291	21.168	21584	19490	0	660
-40.173	22.972	21984	19686	0	660
-42.373	20.808	22384	19778	0	660
-47.241	18.356	22664	19882	0	660
-48.864	16.697	23064	20090	0	660
-48.972	15.507	23464	20275	0	660
-45.799	14.966	23864	20287	0	660
-41.327	15.723	24064	20090	0	660
-38.731	14.894	24184	19686	0	660
-34.439	17.310	24264	19178	0	660
-30.797	21.962	24584	18751	0	660
-28.453	26.506	24464	18358	0	660
-24.162	30.004	24584	17908	0	660
-23.801	33.862	24664	17527	0	660
-25.171	35.016	24784	17273	0	660
-27.299	34.692	24784	17065	0	660
-28.453	35.269	24864	16799	0	660
-28.164	33.538	24984	16499	0	660
-27.299	32.348	24784	16119	0	660
-24.378	29.643	24464	15449	0	660
-25.965	25.929	24184	14583	0	660
-28.020	21.024	23984	13856	0	660
-29.318	16.408	23464	13405	0	660
-30.869	13.884	23264	13024	0	660
-28.597	11.937	22664	12458	0	660
-28.056	11.251	22264	11846	0	660
-27.551	10.422	21984	11488	0	660
-25.352	11.900	21584	11408	0	660
-23.945	13.127	21264	11558	0	660
-21.241	17.346	21264	11962	0	660
-16.697	20.195	21184	12562	0	660
-12.586	19.906	21464	13348	0	660
-12.369	19.329	21584	14248	0	660
-12.730	17.851	21984	15103	0	660
-15.218	17.779	22064	15865	0	660
-17.418	17.995	22384	16407	0	660
-16.841	20.916	22384	16707	0	660
-12.081	23.476	22664	16915	0	660
-3.246	27.804	22664	17146	0	660
2.849	33.069	22864	17353	0	660
6.708	35.449	22784	17388	0	660
5.554	34.692	22784	17296	0	660
0.397	32.203	22984	17250	0	660
-2.777	31.302	22864	17353	0	660
-3.282	30.364	23064	17550	0	660
-5.049	32.276	23064	17619	0	660
-6.960	31.699	23264	17550	0	660
-10.386	28.201	23264	17515	0	660
-13.163	22.755	23384	17596	0	660
-14.461	17.562	23584	17746	0	660
-14.930	14.389	23584	17804	0	660
-17.166	14.208	23664	17735	0	660
-20.664	15.435	23784	17608	0	660
-23.260	17.382	23784	17504	0	660
-22.539	19.437	23784	17388	0	660
-21.132	18.320	23864	17169	0	660
-19.005	16.048	23584	16799	0	660
-21.385	12.802	23584	16373	0	660
-25.352	10.746	23384	16038	0	660
-30.472	8.655	23184	15842	0	660
-34.583	9.232	23184	15749	0	660
-34.583	10.602	23064	15726	0	660
-34.331	12.441	23064	15645	0	660
-32.780	15.471	22664	15230	0	660
-32.708	16.841	22184	14468	0	660
-31.879	18.175	21864	13786	0	660
-31.194	18.067	21584	13463	0	660
-29.354	18.572	21184	13417	0	660
-27.191	18.283	20984	13417	0	660
-26.433	18.464	20464	13255	0	660
-26.109	17.598	20264	13070	0	660
-26.686	16.480	20064	13082	0	660
-24.883	15.723	19784	13348	0	660
-25.424	14.064	19664	13694	0	660
-25.748	12.081	19664	13994	0	660
-29.210	7.393	19584	14387	0	660
-32.780	3.029	19664	14953	0	660
-36.783	-0.072	19864	15634	0	660
-38.875	-1.226	19984	16281	0	660
-39.596	-0.144	20064	16707	0	660
-38.514	2.777	20064	16938	0	660
-35.557	5.517	20064	16938	0	660
-32.059	7.789	19864	16822	0	660
-31.662	5.878	19864	16776	0	660
-32.312	2.633	19784	16707	0	660
-34.908	-1.803	19464	16557	0	660
-37.180	-2.813	19584	16522	0	660
-33.718	1.839	19464	16661	0	660
-28.201	11.360	19464	16857	0	660
-22.106	18.175	19464	16984	0	660
-17.057	23.512	19464	17042	0	660
-15.002	23.657	19584	17134	0	660
-13.595	21.313	19584	17284	0	660
-12.514	20.808	19584	17423	0	660
-11.107	20.916	19664	17492	0	660
-9.016	21.601	19864	17561	0	660
-8.006	22.070	19664	17573	0	660
-6.383	22.250	19464	17238	0	660
-5.626	21.421	19264	16591	0	660
-4.940	19.690	18984	16050	0	660
-8.799	15.435	18664	15749	0	660
-12.910	9.052	18384	15484	0	660
-16.589	4.219	17984	14987	0	660
-16.625	1.947	17584	14318	0	660
-12.333	1.623	17184	13844	0	660
-7.681	2.993	16864	13763	0	660
-2.524	4.940	16664	14017	0	660
-1.479	5.265	16584	14306	0	660
0.613	7.573	16464	14502	0	660
2.885	10.855	16584	14906	0	660
4.508	12.405	16664	15553	0	660
3.462	10.674	16784	16107	0	660
3.750	9.520	16784	16407	0	660
1.983	8.655	16784	16534	0	660
3.246	12.333	16784	16626	0	660
4.472	19.185	16864	16868	0	660
6.924	26.361	16984	17192	0	660
8.583	29.607	16984	17365	0	660
8.907	29.823	16984	17342	0	660
8.763	27.587	16984	17307	0	660
5.590	26.145	17064	17446	0	660
2.777	23.729	17264	17781	0	660
-2.777	22.034	17464	18196	0	660
-8.619	20.447	17784	18485	0	660
-11.684	17.923	17984	18624	0	660
-15.074	16.913	18064	18774	0	660
-15.435	18.824	18464	19039	0	660
-12.550	19.582	18784	19397	0	660
-8.979	20.123	19064	19651	0	660
-6.131	16.697	19384	19674	0	660
-1.118	14.569	19584	19559	0	660
2.272	12.045	19664	19432	0	660
6.022	10.783	19984	19328	0	660
8.078	9.088	20064	19132	0	660
6.167	9.268	20184	18878	1	768
3.426	7.573	20184	18508	0	768
1.190	10.061	19984	17769	0	768
1.334	12.009	19464	16684	0	768
3.390	16.877	19184	15692	0	768
4.039	19.185	18864	14964	0	768
3.714	21.529	18384	14294	0	768
0.216	25.099	17864	13555	0	768
-0.649	29.354	17384	12828	0	768
1.731	33.429	16984	12251	0	768
8.583	36.351	16384	11835	0	768
18.500	38.298	15984	11615	0	768
25.568	37.288	15784	11581	0	768
29.282	33.249	15384	11673	0	768
28.489	27.696	15184	11927	0	768
28.633	22.935	15104	12447	0	768
31.735	22.647	15104	13163	0	768
39.416	25.424	15104	13856	0	768
47.241	29.643	15184	14364	0	768
47.999	31.735	15304	14837	0	768
47.133	30.364	15384	15484	0	768
44.537	27.479	15704	16315	0	768
47.277	25.929	15984	17157	0	768
52.326	27.732	16304	17862	0	768
58.889	29.679	16784	18485	0	768
63.000	31.085	17184	19213	0	768
65.308	33.790	17784	20021	0	768
66.643	34.115	18384	20737	0	768
66.498	33.574	18864	21199	0	768
63.361	31.158	19264	21430	0	768
59.719	28.777	19664	21557	0	768
57.230	25.820	20184	21695	0	768
57.483	24.775	20664	21845	0	768
61.702	25.965	20984	21845	0	768
63.758	26.902	21064	21349	0	768
61.918	28.922	20984	20379	0	768
56.617	30.040	21064	19513	0	768
51.497	31.158	20984	18924	0	768
44.356	31.590	20984	18370	0	768
39.596	29.354	20984	17769	0	768
33.321	25.496	20784	17157	0	768
24.955	20.267	20464	16373	0	768
16.697	13.812	20264	15438	0	768
9.737	7.645	19784	14629	0	768
3.029	5.986	19464	14040	0	768
0.072	4.760	19184	13544	0	768
-2.056	6.058	18664	12943	0	768
-2.957	9.520	18184	12262	0	768
-1.118	11.360	17984	11881	0	768
-0.974	12.297	17664	11950	0	768
-3.065	12.261	17584	12274	0	768
-5.914	10.278	17464	12585	0	768
-7.104	11.071	17264	12724	0	768
-6.888	11.179	16984	12839	0	768
-4.580	12.261	16984	13094	0	768
-2.452	12.514	16864	13463	0	768
-2.560	11.215	16784	13809	0	768
-2.705	11.215	16664	13994	0	768
1.623	15.471	16584	14144	0	768
7.032	20.447	16464	14387	0	768
13.884	25.388	16384	14675	0	768
18.536	24.450	16304	14895	0	768
17.815	21.673	16184	15103	0	768
15.182	18.933	16304	15438	0	768
12.225	18.139	16304	15853	0	768
9.448	18.824	16384	16327	0	768
7.573	19.654	16584	16834	0	768
4.796	15.579	16784	17330	0	768
-0.180	11.071	16864	17608	0	768
-4.183	10.133	16584	17319	0	768
-9.196	10.566	16304	16638	0	768
-11.756	12.405	16184	16315	0	768
-12.153	12.441	16184	16430	0	768
-13.848	9.629	16184	16730	0	768
-14.100	5.517	16384	17088	0	768
-15.254	4.544	16584	17504	0	768
-14.605	5.445	16784	17896	0	768
-12.477	9.412	16984	18220	0	768
-9.124	11.684	17064	18462	0	768
-4.147	12.550	17384	18577	1	316
-0.505	12.189	17184	18335	0	316
4.796	10.891	17064	17827	0	316
9.953	11.432	16984	17388	0	316
13.127	14.281	16864	17099	0	316
17.129	17.490	16664	16765	0	316
15.435	18.933	16384	16246	0	316
12.622	17.202	16104	15634	0	316
10.350	14.353	15784	15207	0	316
8.835	12.658	15584	14941	0	316
10.314	14.353	15304	14733	0	316
8.439	17.310	15104	14560	0	316
4.724	20.231	14904	14433	0	316
-2.056	20.483	14704	14433	0	316
-8.475	19.365	14584	14629	0	316
-12.369	19.870	14704	14953	0	316
-9.953	21.998	14584	15264	0	316
-8.114	25.279	14584	15472	0	316
-5.770	26.866	14784	15761	0	316
-7.970	26.470	14904	16281	0	316
-12.477	22.935	15184	16972	0	316
-17.238	17.995	15584	17723	0	316
-20.627	16.552	15904	18312	0	316
-18.536	17.670	16304	18774	0	316
-13.343	19.437	16664	19317	0	316
-9.268	20.519	17264	19998	0	316
-7.248	18.644	17864	20644	0	316
-9.989	12.838	18384	21049	0	316
-12.477	9.953	18784	21280	0	316
-12.189	10.025	19384	21487	0	316
-7.681	14.533	19984	21730	0	316
-2.019	18.824	20384	21949	0	316
-0.541	18.175	20984	21961	0	316
-4.652	11.684	21384	21776	0	316
-12.405	4.039	21664	21499	0	316
-16.733	-0.685	22184	21222	0	316
-14.208	2.560	22264	20841	0	316
-8.835	10.242	22384	20183	0	316
-1.479	17.310	22464	19247	0	316
0.902	19.546	22064	18081	0	316
0.144	17.418	21984	16880	0	316
-4.508	13.776	21584	15934	0	316
-6.852	11.937	21464	15230	0	316
-7.104	11.035	21264	14675	0	316
-7.140	13.559	20864	14133	0	316
-3.534	14.605	20464	13336	0	316
-3.787	13.631	20064	12458	0	316
-3.750	9.737	19864	12204	0	316
-6.094	8.294	20064	12689	0	316
-6.744	5.698	20184	13348	0	316
-5.121	7.753	20184	13775	0	316
-5.121	7.898	20264	13960	0	316
-3.750	7.501	20384	14156	0	316
-6.635	1.875	20464	14502	0	316
-11.937	-3.173	20664	14930	0	316
-13.812	-5.517	20664	15253	0	316
-10.891	-2.777	20784	15403	0	316
-3.101	5.301	20984	15530	0	316
5.265	13.776	20984	15853	0	316
11.071	17.923	21384	16338	0	316
8.402	15.759	21464	16753	0	316
4.255	10.242	21664	16961	0	316
1.479	7.537	21784	17065	0	316
3.714	9.304	22184	17296	0	316
9.016	15.615	22384	17723	0	316
12.477	19.762	22864	18173	0	316
14.821	19.510	22984	18393	0	316
9.160	15.903	23384	18404	0	316
4.580	11.143	23384	18300	0	316
0.072	8.907	23384	17977	0	316
-0.397	7.681	23264	17411	0	316
3.642	9.484	23184	16938	0	316
10.350	10.422	23264	16741	0	316
16.408	11.937	23264	16591	0	316
17.238	13.091	23264	16430	0	316
14.281	13.740	23264	16304	0	316
10.314	12.586	23184	16130	0	316
7.681	11.576	23264	15934	0	316
9.196	7.789	22984	15634	0	316
10.169	5.698	22584	14987	1	316
10.386	4.075	22184	14144	0	316
7.825	6.239	21664	13521	0	316
6.455	12.441	21464	13209	0	316
7.104	16.877	21184	12955	0	316
12.946	20.375	20464	12435	0	316
19.365	20.339	19864	11696	0	316
26.037	19.077	19184	11107	0	316
33.826	19.401	18664	10911	0	316
41.471	22.899	18384	11050	0	316
48.215	25.171	17984	11257	0	316
54.670	26.109	17664	11419	0	316
56.004	24.089	17464	11719	0	316
57.014	20.700	17184	12274	0	316
53.624	18.644	17184	13013	0	316
52.290	16.336	17064	13682	0	316
48.792	14.785	16984	14075	0	316
46.412	9.376	16864	14421	0	316
43.491	5.734	16864	14953	0	316
43.022	1.839	17064	15680	0	316
42.517	1.587	17064	16418	0	316
41.976	3.967	17384	16996	0	316
42.986	7.825	17384	17377	0	316
43.202	10.927	17584	17827	0	316
45.258	13.415	17984	18531	0	316
45.222	16.300	18384	19317	0	316
45.979	15.290	18584	19859	0	316
42.084	14.749	18784	20171	0	316
39.452	12.802	19184	20425	0	316
37.721	12.622	19584	20737	0	316
38.082	13.631	19864	21002	0	316
39.740	17.129	20184	21060	0	316
40.894	18.716	20384	20899	0	316
37.468	18.356	20584	20644	0	316
31.554	15.615	20784	20448	0	316
24.630	10.025	20984	20298	0	316
18.644	7.248	21064	20079	0	316
18.860	7.465	21264	19744	0	316
21.096	10.458	21184	19282	0	316
21.132	12.405	21064	18497	0	316
16.805	10.458	20664	17411	0	316
8.150	4.291	20264	16430	0	316
-0.649	-1.623	20064	15726	0	316
-3.246	-3.426	19664	15068	0	316
1.082	1.298	19064	14237	0	316
9.629	8.294	18664	13336	0	316
14.821	13.199	18064	12678	0	316
13.668	13.595	17864	12447	0	316
7.212	8.691	17664	12551	0	316
0.938	4.255	17384	12701	0	316
0.721	2.236	17184	12782	0	316
6.383	5.265	17184	13105	0	316
15.326	10.963	17384	13856	0	316
21.854	16.625	17464	14722	0	316
23.693	20.231	17784	15391	0	316
24.125	21.421	17864	15830	0	316
23.152	23.188	17984	16177	0	316
23.188	23.549	18184	16522	0	316
21.565	22.431	18264	16938	0	316
19.329	21.060	18584	17377	0	316
16.444	18.356	18664	17711	0	316
14.821	15.543	18864	17965	0	316
15.795	17.382	19184	18231	0	316
15.146	19.510	19464	18577	0	316
15.579	21.204	19664	18924	0	316
14.930	23.549	19984	19016	0	316
14.497	20.916	20184	18947	0	316
14.569	18.536	20184	18889	0	316
16.408	15.543	20464	18912	0	316
18.680	16.841	20864	18993	0	316
20.195	20.627	20864	19028	0	316
24.162	27.191	21184	18912	0	316
26.614	30.761	20984	18520	0	316
26.722	31.590	20664	17584	0	316
27.912	28.056	20384	16361	0	316
27.912	24.125	20064	15657	0	316
26.614	21.709	20064	15599	0	316
26.614	20.844	20064	15599	0	316
27.443	22.827	19664	15299	0	316
28.381	24.053	19384	14710	0	316
28.850	26.289	19064	14087	0	316
30.725	25.424	18784	13775	0	316
29.354	24.702	18464	13636	0	316
24.666	22.935	18064	13267	0	316
20.916	21.096	17584	12689	0	316
18.680	20.808	17184	12354	0	316
19.473	23.332	16984	12424	0	316
23.873	25.424	16864	12747	0	316
27.984	27.804	16664	13082	0	316
29.066	26.542	16464	13313	0	316
26.181	24.811	16384	13532	0	316
22.431	18.247	16304	13867	0	316
20.014	14.208	16304	14364	0	316
20.087	12.405	16304	14883	0	316
24.089	12.477	16304	15241	0	316
27.876	14.100	16304	15565	0	316
32.095	15.795	16384	15992	0	316
31.626	17.779	16584	16522	0	316
31.122	19.293	16664	17065	0	316
30.797	21.637	16864	17457	0	316
30.076	24.162	16984	17688	0	316
32.853	26.217	17064	17931	0	316
32.925	25.316	17384	18393	0	316
34.367	25.712	17784	19028	0	316
33.826	24.919	18184	19536	0	316
33.826	23.801	18464	19871	0	316
34.259	25.784	18784	20090	0	316
36.098	26.289	19064	20136	0	316
38.622	27.876	19184	19998	0	316
39.885	27.804	19384	19917	0	316
41.688	26.794	19784	19975	0	316
36.459	20.808	20064	19986	0	316
30.869	16.156	20184	19917	0	316
26.181	9.737	20464	19802	0	316
24.955	10.350	20664	19536	0	316
27.984	12.477	20664	19143	0	316
32.780	18.320	20784	18658	0	316
37.288	23.116	20464	17896	0	316
39.885	25.640	20184	16892	0	316
41.039	26.001	19864	16015	0	316
44.537	27.948	19664	15415	0	316
47.674	29.787	19264	14918	0	316
54.526	33.934	18984	14271	0	316
60.079	37.901	18584	13555	0	316
64.623	39.776	18184	13094	0	316
63.974	39.235	18064	13024	0	316
61.991	35.305	17864	13174	0	316
57.375	31.626	17664	13209	0	316
57.519	29.102	17264	12978	0	316
57.266	28.201	17184	12932	0	316
56.906	25.893	17064	13232	0	316
53.372	20.808	16864	13475	0	316
48.648	13.956	16584	13348	0	316
46.015	9.484	16304	13059	0	316
46.736	7.862	15984	12978	0	316
48.107	9.016	15704	13036	0	316
48.215	10.097	15384	13094	0	316
45.474	9.376	15184	13336	0	316
41.940	6.816	15184	13809	0	316
40.750	6.311	15184	14375	0	316
41.580	4.472	15304	15045	0	316
40.534	3.318	15584	15911	0	316
40.714	1.947	15984	16880	0	316
37.036	2.236	16304	17700	0	316
34.295	6.275	16664	18370	0	316
31.915	10.746	17064	19062	0	316
30.508	16.589	17664	19848	0	316
31.662	21.060	18064	20598	0	316
35.810	21.745	18784	21141	0	316
38.839	22.863	19184	21430	0	316
41.616	22.070	19584	21591	0	316
40.281	19.077	19864	21661	0	316
36.783	17.093	20264	21603	0	316
34.547	17.887	20584	21407	0	316
33.033	21.096	20664	21002	0	316
29.859	25.604	20584	20194	0	316
24.702	27.010	20184	18808	1	624
18.067	24.378	19464	17203	0	624
12.225	19.041	19064	15946	0	624
11.360	16.408	18784	15080	0	624
11.900	16.012	18264	14421	0	624
13.054	18.644	17784	13717	0	624
11.864	19.113	17384	13013	0	624
9.701	18.536	16984	12597	0	624
10.350	16.264	16784	12470	0	624
13.523	14.425	16384	12470	0	624
17.490	14.930	16104	12470	0	624
21.457	17.346	15984	12458	0	624
25.135	19.942	15904	12632	0	624
26.037	22.070	15784	13140	0	624
29.318	19.834	15904	13856	0	624
32.744	19.618	15984	14525	0	624
37.829	20.555	16104	15045	0	624
45.005	26.614	16184	15484	0	624
52.110	32.203	16384	15969	0	624
55.716	34.872	16664	16568	0	624
55.031	31.915	16984	17273	0	624
53.444	28.777	17264	17931	0	624
52.578	29.823	17584	18474	0	624
55.463	33.393	18064	18959	0	624
58.745	36.567	18464	19490	0	624
60.332	34.836	18864	19952	0	624
58.529	31.482	18984	19986	0	624
54.922	29.463	18664	19270	0	624
53.264	30.292	18584	18139	0	624
49.874	32.312	18384	17423	0	624
45.186	31.302	18384	17296	0	624
39.344	27.083	18384	17319	0	624
32.889	20.050	18464	17307	0	624
27.948	16.552	18584	17377	0	624
24.017	16.264	18864	17561	0	624
24.558	16.589	19064	17746	0	624
22.972	18.067	19184	17735	0	624
20.159	16.120	19064	17446	0	624
17.418	12.045	18984	16880	0	624
13.487	7.862	18664	16165	0	624
13.343	7.285	18384	15380	0	624
15.867	12.045	17984	14791	0	624
22.755	15.687	17784	14502	0	624
25.496	20.303	17464	14352	0	624
25.460	21.060	17264	14075	0	624
22.178	22.286	16864	13717	0	624
21.457	24.847	16664	13555	0	624
20.988	29.138	16664	13775	0	624
24.053	32.564	16784	14283	0	624
25.640	33.321	16864	14837	0	624
26.397	32.312	16984	15288	0	624
27.083	32.420	17184	15726	0	624
28.453	33.105	17464	16327	0	624
26.217	32.816	17864	17053	0	624
24.450	31.013	18064	17723	0	624
17.634	26.650	18464	18150	0	624
11.432	22.935	18664	18485	0	624
6.924	17.274	19064	18855	0	624
5.301	15.038	19464	19120	0	624
5.337	12.441	19664	19224	0	624
8.871	14.281	19864	19270	0	624
12.838	19.546	20184	19293	0	624
16.769	25.640	20384	19340	0	624
19.401	32.744	20784	19547	0	624
19.654	36.855	21384	19882	0	624
19.870	36.964	21584	20090	0	624
17.706	35.233	22064	20102	0	624
16.516	31.194	22384	20125	0	624
13.127	26.866	22984	20240	0	624
8.727	23.837	23264	20333	0	624
6.203	24.883	23664	20263	0	624
4.147	27.299	23984	20079	0	624
6.239	29.427	24264	19882	0	624
9.701	31.410	24664	19732	0	624
13.740	33.502	25064	19571	0	624
16.697	34.836	25264	19317	0	624
16.841	36.134	25464	18947	0	624
14.425	36.459	25584	18404	0	624
10.061	34.800	25264	17504	0	624
6.744	32.492	25064	16361	0	624
1.262	29.968	24784	15357	0	624
-4.616	25.316	24464	14629	0	624
-11.792	20.591	24184	13971	0	624
-17.562	15.435	23664	13059	0	624
-20.303	13.415	23064	12100	0	624
-20.339	11.504	22984	11742	0	624
-19.113	10.819	22864	12100	0	624
-21.349	7.501	22984	12643	0	624
-27.624	1.875	22984	12932	0	624
-32.023	-2.344	22664	12943	0	624
-37.000	-5.157	22664	12909	0	624
-37.432	-2.705	22464	12966	0	624
-35.016	-0.036	22384	13094	0	624
-31.879	5.013	22064	13094	0	624
-30.472	7.357	21864	12874	0	624
-30.472	4.616	21384	12678	0	624
-34.403	-1.911	21264	12689	0	624
-37.432	-9.953	20984	12909	0	624
-37.757	-12.838	21064	13255	0	624
-33.790	-11.323	20864	13555	0	624
-28.273	-3.642	20664	13833	0	624
-21.204	5.554	20784	14248	0	624
-16.552	12.225	20784	14883	0	624
-14.569	10.061	21184	15622	0	624
-16.769	4.616	21384	16257	0	624
-21.998	-4.327	21464	16765	0	624
-28.669	-11.504	21784	17261	0	624
-32.997	-14.136	21984	17827	0	624
-30.148	-10.206	22384	18404	0	624
-21.060	-3.678	22464	18774	0	624
-12.694	0.974	22784	18866	0	624
-8.727	2.705	22784	18855	0	624
-10.819	0.649	22984	18889	0	624
-17.166	-4.688	23264	18901	0	624
-20.880	-7.862	23064	18751	0	624
-19.510	-9.953	23184	18439	0	624
-13.559	-10.602	23064	18023	0	624
-7.212	-9.701	22984	17631	0	624
-2.416	-7.429	22984	17319	0	624
-0.288	-3.678	22784	17065	0	624
-0.144	3.137	22864	16868	0	624
-0.793	7.825	22664	16672	0	624
-2.885	9.484	22584	16292	0	624
-5.698	6.022	22064	15645	0	624
-7.573	1.587	21984	15103	0	624
-4.436	-0.216	21664	14872	0	624
1.911	1.479	21664	14918	0	624
10.097	8.150	21464	14987	0	624
14.894	14.100	21384	14918	0	624
13.343	16.913	21184	14849	0	624
8.439	15.687	21264	14964	0	624
2.524	11.323	21384	15241	0	624
-1.406	7.898	21264	15542	0	624
-0.757	6.852	21384	15703	0	624
-0.144	6.527	21184	15772	0	624
2.344	6.383	21264	15842	0	624
5.013	6.455	21184	15969	0	624
6.708	6.491	21184	16073	0	624
8.186	8.006	21264	16096	0	624
8.943	9.917	20984	15969	0	624
9.989	11.143	20784	15645	0	624
10.458	10.963	20384	15264	0	624
13.487	12.261	20264	15149	0	624
17.454	17.454	20264	15172	0	624
26.109	24.450	19984	15172	0	624
31.735	28.489	19984	15264	0	624
36.062	30.112	20184	15622	0	624
36.747	27.227	20184	16223	0	624
35.701	25.063	20664	16949	0	624
36.098	26.073	21064	17746	0	624
38.550	30.833	21264	18370	0	624
39.812	35.377	21664	18728	0	624
40.786	38.154	21864	18912	0	624
35.665	38.262	22064	18982	0	624
31.446	34.331	22184	18959	0	624
28.525	29.174	22384	18797	0	624
28.850	26.542	22064	18312	0	624
33.321	26.217	21864	17538	0	624
39.416	27.912	21584	16868	0	624
41.760	30.004	21584	16464	0	624
36.855	29.030	21184	16154	0	624
25.820	25.424	20984	15622	0	624
17.815	23.080	20664	14964	0	624
16.516	23.224	20264	14514	0	624
19.257	25.676	20184	14410	0	624
24.558	26.433	20184	14525	0	624
22.250	25.965	19864	14652	0	624
14.641	23.801	19664	14514	0	624
9.052	24.739	19264	13983	0	624
9.629	29.210	18784	13382	0	624
14.930	33.574	18384	13163	0	624
23.476	36.964	18184	13244	0	624
29.607	35.377	17864	13278	0	624
32.564	31.194	17784	13394	0	624
39.091	29.391	17664	13729	0	624
48.539	31.049	17464	14121	0	624
57.916	34.944	17384	14352	0	624
65.813	37.901	17184	14514	0	624
66.174	35.701	17184	14768	0	624
58.853	29.318	17064	15184	0	624
50.090	20.808	17384	15784	0	624
46.087	16.697	17464	16511	0	624
47.133	15.795	17784	17192	0	624
50.884	16.733	18064	17804	0	624
53.264	14.461	18464	18439	0	624
52.795	11.035	18784	19143	0	624
52.614	9.196	19184	19825	0	624
52.254	10.819	19664	20298	0	624
55.175	17.166	20064	20552	0	624
57.483	21.565	20264	20725	0	624
57.122	23.512	20784	20933	0	624
55.067	19.582	21264	21141	0	624
54.201	16.985	21464	21222	0	624
52.542	15.543	21984	21164	0	624
53.264	19.365	21984	20922	0	624
56.906	22.935	22064	20287	0	624
60.620	29.499	22064	19536	0	624
61.955	31.807	22464	19363	1	788
61.666	31.879	22784	19617	0	788
54.634	30.004	22864	19467	0	788
45.943	26.433	22864	18647	0	788
38.370	21.601	22464	17608	0	788
36.459	18.824	22384	16765	0	788
37.288	16.480	22184	16281	0	788
37.180	14.353	22264	16027	0	788
36.783	13.848	21984	15680	0	788
33.033	12.477	21784	15033	0	788
29.787	14.461	21464	14433	0	788
29.787	14.821	21464	14191	0	788
31.410	18.608	21264	14248	0	788
33.033	20.375	21464	14352	0	788
32.095	21.421	21384	14329	0	788
32.925	20.736	21184	14248	0	788
33.826	20.267	21184	14248	0	788
34.620	20.627	21064	14410	0	788
35.737	21.096	21184	14652	0	788
34.836	19.546	21184	14860	0	788
33.862	18.680	21264	15103	0	788
36.242	20.087	21584	15542	0	788
43.202	23.945	21784	16223	0	788
53.300	32.312	22264	16926	0	788
59.250	39.416	22464	17457	0	788
61.774	40.606	22984	17850	0	788
57.447	39.380	23264	18289	0	788
52.218	34.151	23664	18774	0	788
49.044	32.312	24184	19190	0	788
47.602	31.302	24584	19559	0	788
47.566	27.407	24984	19905	0	788
45.402	24.558	25464	20125	0	788
43.383	21.745	25864	20183	0	788
40.750	19.365	26384	20125	0	788
39.235	20.844	26464	19917	0	788
35.882	21.385	26584	19582	0	788
32.131	18.031	26664	19074	0	788
26.938	14.569	26384	18173	0	788
26.506	14.281	26064	16972	0	788
28.092	17.093	25784	15911	0	788
32.744	22.178	25584	15172	0	788
37.072	26.181	25184	14606	0	788
38.839	24.775	24664	13844	0	788
37.937	24.089	24184	12874	0	788
36.711	22.467	23664	12066	0	788
34.728	24.594	23184	11650	0	788
33.610	28.201	22984	11535	0	788
31.194	27.948	22464	11477	0	788
29.138	24.702	22064	11292	0	788
27.732	19.437	21864	11200	0	788
26.578	14.100	21584	11350	0	788
27.624	12.838	21384	11731	0	788
27.551	15.543	21264	12181	0	788
26.830	21.204	20984	12493	0	788
24.883	25.135	20864	12770	0	788
23.476	26.866	20664	13232	0	788
22.358	27.768	20864	13856	0	788
20.375	25.388	20864	14468	0	788
18.247	23.621	20784	14930	0	788
13.848	19.077	20864	15322	0	788
10.458	15.182	20864	15784	0	788
11.828	14.245	21064	16384	0	788
15.903	16.480	21384	17053	0	788
22.791	20.087	21464	17573	0	788
27.083	23.837	21664	17954	0	788
26.902	23.008	21864	18370	0	788
24.378	20.627	22264	18866	0	788
19.005	16.697	22584	19363	0	788
16.372	17.021	22984	19709	0	788
20.014	18.752	23064	19882	0	788
24.991	23.116	23384	19952	0	788
30.292	25.316	23664	20009	0	788
33.574	25.171	23784	20021	0	788
33.502	23.368	23984	19929	0	788
28.597	20.195	24264	19674	0	788
26.542	21.601	23984	19190	0	788
25.135	24.414	23784	18312	0	788
25.568	25.676	23384	17192	0	788
26.470	24.270	22984	16292	0	788
28.597	21.818	22784	15715	0	788
30.941	19.293	22384	15195	0	788
31.013	20.050	21984	14456	0	788
33.754	22.214	21384	13694	0	788
36.062	26.001	21264	13428	0	788
38.009	26.542	20864	13521	0	788
38.550	27.083	20584	13313	0	788
37.829	25.712	20184	12782	0	788
37.793	25.099	19664	12470	0	788
37.649	24.558	19584	12632	0	788
40.101	23.224	19584	13117	0	788
41.363	23.188	19464	13636	0	788
37.288	19.546	19264	14017	0	788
31.626	15.182	19264	14306	0	788
24.666	10.602	19384	14687	0	788
23.008	8.222	19384	15253	0	788
25.135	9.520	19584	15911	0	788
28.273	15.398	19784	16522	0	788
31.013	20.591	19984	16984	0	788
31.915	22.719	19984	17330	0	788
29.318	20.123	20264	17735	0	788
28.128	13.668	20784	18300	0	788
27.119	9.124	20984	18924	0	788
26.506	10.097	21384	19340	0	788
27.083	14.389	21464	19513	0	788
28.381	20.952	21864	19628	0	788
28.597	24.198	22064	19825	0	788
27.840	20.050	22464	19986	0	788
25.243	12.910	22584	19963	0	788
22.683	7.645	22864	19836	0	788
20.123	6.924	23064	19755	0	788
21.421	12.081	23264	19755	0	788
24.558	19.942	23784	19813	0	788
28.850	23.765	24064	19998	0	788
31.735	22.899	24464	20240	0	788
32.456	20.014	24784	20171	0	788
29.968	16.516	24664	19478	0	788
25.856	14.281	24464	18370	0	788
21.709	12.369	24184	17307	0	788
18.356	10.819	23864	16441	0	788
16.300	8.727	23384	15576	0	788
16.480	6.563	22864	14445	0	788
18.788	6.960	22184	13221	0	788
20.808	9.160	21664	12251	0	788
21.277	11.828	21064	11662	0	788
21.313	15.471	20664	11373	0	788
21.313	17.021	20184	11211	0	788
20.808	14.821	19784	11050	0	788
19.510	10.530	19464	10980	0	788
17.959	4.508	19184	11130	0	788
15.795	2.308	18984	11523	0	788
14.858	2.092	18784	12020	0	788
16.372	3.318	18664	12447	0	788
18.969	4.472	18584	12863	0	788
19.834	3.534	18584	13440	0	788
19.149	0.829	18664	14156	0	788
17.670	-2.236	18664	14826	0	788
15.146	-3.426	18784	15334	0	788
15.002	-4.472	18864	15784	0	788
14.785	-3.642	18864	16177	0	788
16.949	-1.226	18664	16384	0	788
20.014	-0.829	18784	16430	0	788
23.260	3.173	18584	16384	0	788
25.568	5.770	18464	16327	0	788
27.948	8.042	18184	16246	0	788
27.335	9.809	17984	16130	0	788
26.542	10.097	17784	16027	0	788
26.902	9.701	17664	15969	0	788
28.489	9.629	17464	15992	0	788
30.148	10.963	17384	16027	0	788
33.429	13.776	17184	15992	0	788
38.586	17.093	17064	15957	0	788
43.599	20.627	16984	15980	0	788
47.890	21.024	16864	16096	0	788
48.467	21.024	16784	16234	0	788
42.265	17.202	16464	16177	0	788
35.124	14.281	16184	15888	0	788
27.551	11.684	16104	15738	0	788
25.316	10.169	16104	15853	0	788
27.551	6.960	15984	16038	0	788
27.335	3.246	15784	16027	0	788
27.984	-0.685	15504	15865	0	788
25.171	-3.137	15384	15865	0	788
25.460	-2.669	15504	16211	0	788
26.325	1.911	15704	16822	0	788
30.148	9.088	15904	17480	0	788
34.475	14.749	16104	17931	0	788
37.613	17.093	16304	18254	0	788
39.524	16.733	16664	18658	0	788
38.045	13.776	16984	19213	0	788
37.288	13.379	17264	19663	0	788
37.108	15.615	17584	19825	0	788
40.317	17.815	17864	19894	0	788
45.871	21.493	18264	20090	0	788
53.552	23.008	18664	20448	0	788
56.113	24.594	19064	20795	0	788
55.247	27.804	19584	20968	0	788
53.660	29.823	19984	21026	0	788
48.323	31.194	20264	21026	0	788
45.366	30.220	20464	20795	0	788
41.219	30.545	20664	20287	0	788
38.514	26.902	20584	19663	0	788
34.079	24.919	20784	19120	0	788
31.951	19.185	20984	18716	1	728
31.013	13.054	21064	18497	0	728
31.013	9.701	21384	18416	0	728
30.328	11.432	21464	18323	0	728
27.948	14.064	21784	18127	0	728
22.575	12.441	21784	17919	0	728
15.471	5.734	22064	17758	0	728
13.307	-5.085	22184	17619	0	728
15.471	-9.737	22464	17457	0	728
25.460	-2.452	22584	17319	0	728
39.163	12.297	22664	17088	0	728
49.116	26.397	22464	16522	0	728
53.624	29.463	22264	15669	0	728
53.119	27.083	21864	14779	0	728
49.874	23.621	21264	13682	0	728
52.001	26.830	20384	12320	0	728
57.988	34.583	19784	11211	0	728
64.767	43.274	19384	10703	0	728
69.636	43.058	19184	10830	0	728
66.751	36.819	19184	11512	0	728
62.928	30.112	19264	12343	0	728
57.339	26.217	19464	13013	0	728
54.886	26.145	19464	13486	0	728
52.074	25.207	19464	13936	0	728
46.232	22.755	19664	14456	0	728
40.389	18.933	19864	15068	0	728
33.934	12.441	19984	15669	0	728
30.508	7.321	20184	16130	0	728
32.095	6.275	20464	16522	0	728
36.423	2.344	20584	16996	0	728
36.206	1.334	20984	17515	0	728
36.387	1.190	21064	17977	0	728
34.764	3.065	21584	18277	0	728
36.314	5.517	21784	18485	0	728
40.029	10.819	22064	18774	0	728
44.428	14.028	22464	19201	0	728
45.727	13.163	22984	19640	0	728
42.806	10.206	23184	19859	0	728
42.553	7.573	23584	19905	0	728
45.222	8.763	23864	19963	0	728
52.759	17.887	24264	20113	0	728
60.440	26.974	24784	20275	0	728
64.587	33.934	25184	20425	0	728
65.128	36.567	25584	20552	0	728
64.263	34.295	26064	20552	0	728
62.423	33.393	26384	20390	0	728
63.361	34.728	26664	20183	0	728
65.489	38.118	26864	19848	0	728
64.443	40.822	26784	19097	0	728
64.226	43.130	26264	17631	0	728
60.079	40.714	25464	15703	0	728
56.113	34.620	24864	14087	0	728
51.641	28.633	24384	13082	0	728
47.710	22.683	23984	12401	0	728
41.580	15.795	23384	11812	0	728
36.387	12.550	22864	11130	0	728
30.797	10.097	22184	10415	0	728
26.614	6.563	21784	9976	0	728
24.630	5.265	21264	10010	0	728
21.565	6.094	21184	10449	0	728
22.935	5.517	20864	10992	0	728
23.585	4.183	20864	11431	0	728
25.568	4.183	20664	11869	0	728
28.561	3.390	20664	12493	0	728
28.164	4.724	20864	13244	0	728
29.138	5.914	20784	13960	0	728
27.443	10.494	20864	14514	0	728
26.217	10.458	20984	14964	0	728
27.371	10.206	20984	15472	0	728
27.696	7.609	21264	16073	0	728
28.850	5.842	21264	16638	0	728
27.732	4.904	21384	16926	0	728
26.037	4.003	21184	16880	0	728
21.421	5.445	21064	16707	0	728
19.618	4.760	21184	16707	0	728
21.204	6.455	21064	16938	0	728
23.801	8.150	21184	17146	0	728
25.784	7.681	21184	17319	0	728
27.624	5.914	21384	17550	0	728
26.217	2.741	21384	17746	0	728
23.801	1.082	21584	17769	0	728
23.368	0.793	21464	17608	0	728
21.168	0.325	21264	17377	0	728
21.926	-1.262	21264	17226	0	728
21.890	-2.164	21184	17226	0	728
23.801	-0.361	21264	17284	0	728
26.325	5.229	21184	17273	0	728
30.833	11.432	21264	17250	0	728
34.331	13.451	21384	17192	0	728
36.206	13.163	20984	16857	0	728
35.954	10.386	20784	16269	0	728
33.718	9.989	20464	15819	0	728
33.682	12.622	20464	15715	0	728
35.990	15.290	20384	15749	0	728
41.940	18.139	20064	15576	0	728
45.835	18.933	19864	15207	0	728
47.205	16.733	19664	14964	0	728
45.546	15.146	19384	14918	0	728
42.625	15.759	19184	14722	0	728
39.776	16.877	18664	14237	0	728
39.776	20.195	18464	13902	0	728
38.298	22.358	18264	14098	0	728
35.990	20.303	18384	14687	0	728
34.187	16.120	18464	15299	0	728
33.682	13.451	18584	15830	0	728
35.665	13.992	18784	16246	0	728
38.045	16.769	18864	16649	0	728
40.786	20.627	19064	17203	0	728
39.704	20.808	19584	17931	0	728
38.190	17.057	19984	18658	0	728
34.547	11.035	20264	19178	0	728
34.187	8.366	20584	19478	0	728
33.718	7.970	20984	19744	0	728
34.800	11.468	21384	20159	0	728
35.197	12.838	21984	20668	0	728
35.088	13.271	22384	21037	0	728
32.384	8.511	22864	21199	0	728
31.843	4.544	23184	21256	0	728
33.105	1.767	23664	21280	0	728
36.387	3.137	24184	21222	0	728
40.462	7.537	24264	20968	0	728
43.635	11.792	24464	20529	0	728
43.274	14.641	24664	20032	0	728
40.245	14.425	24784	19559	1	492
39.524	13.091	24864	19109	0	492
39.921	14.389	24984	18601	0	492
44.140	18.392	24984	18000	0	492
48.395	21.565	24864	17353	0	492
48.684	20.736	24664	16730	0	492
44.392	13.812	24584	16142	0	492
38.262	5.373	24584	15553	0	492
32.276	1.118	24264	14999	0	492
32.528	2.452	23984	14456	0	492
35.557	8.763	23584	13717	0	492
41.219	15.182	22984	12805	0	492
45.150	18.788	22584	12020	0	492
46.268	19.906	21984	11431	0	492
46.520	18.860	21464	10865	0	492
46.520	19.365	20664	10218	0	492
43.851	16.625	20064	9710	0	492
43.130	14.569	19664	9572	0	492
39.632	11.179	19184	9814	0	492
35.593	8.475	19064	10322	0	492
35.954	6.744	18864	10957	0	492
38.226	7.789	18784	11569	0	492
43.310	11.973	18664	12204	0	492
46.628	16.408	18664	12955	0	492
47.674	20.772	18864	13856	0	492
48.467	23.368	19064	14779	0	492
48.035	24.883	19064	15518	0	492
49.766	23.404	19184	16107	0	492
51.569	20.736	19464	16695	0	492
48.684	19.077	19784	17377	0	492
44.176	17.057	19984	18000	0	492
39.163	17.490	20064	18347	0	492
37.613	21.096	20184	18416	0	492
38.118	24.342	20184	18474	0	492
38.875	24.594	20384	18681	0	492
38.226	21.962	20664	18993	0	492
35.160	18.211	20664	19213	0	492
32.131	14.028	20984	19270	0	492
32.780	8.943	21064	19201	0	492
34.259	8.042	20984	18959	0	492
36.242	6.455	21064	18647	0	492
35.882	7.862	21184	18681	0	492
34.656	10.097	21584	19062	0	492
31.915	12.694	21584	19178	0	492
32.528	12.081	21584	18601	0	492
31.482	10.746	21264	17631	0	492
32.239	10.242	20864	16753	0	492
32.528	13.054	20664	16188	0	492
32.276	18.536	20184	15692	0	492
33.466	20.483	19864	15010	0	492
35.269	21.493	19384	14167	0	492
35.485	17.923	18864	13509	0	492
35.160	13.992	18464	13255	0	492
33.033	9.881	18464	13359	0	492
32.348	10.783	18184	13486	0	492
31.879	9.881	17864	13463	0	492
33.177	10.566	17784	13498	0	492
34.439	12.081	17664	13821	0	492
33.249	10.206	17664	14375	0	492
30.076	10.386	17784	14930	0	492
27.407	10.602	17464	15045	0	492
27.371	11.612	16664	14237	0	492
27.660	12.514	15704	12655	0	492
28.922	9.737	14704	11073	0	492
25.965	5.373	13584	10045	0	492
23.080	0.649	12704	9583	0	492
21.529	0.938	12184	9583	0	492
23.404	5.698	11784	10033	0	492
29.859	11.937	11704	10992	0	492
32.492	13.631	11784	12285	0	492
32.636	11.900	11904	13636	0	492
31.482	9.845	12304	14964	0	492
29.210	8.366	12704	16373	0	492
30.256	10.999	13304	17885	0	492
31.374	15.002	13984	19409	0	492
32.348	15.903	14704	20737	0	492
32.167	16.661	15384	21799	0	492
33.177	18.247	15984	22677	0	492
35.124	19.942	16664	23439	0	492
37.505	23.404	17384	24016	0	492
38.298	23.945	17864	24386	0	492
38.586	23.476	18584	24582	0	492
38.803	22.431	19064	24547	0	492
37.649	22.214	19384	24062	0	492
37.216	25.496	19384	23266	0	492
37.541	28.958	19584	22550	0	492
36.134	31.518	19664	21892	1	344
36.387	31.735	19464	20829	0	344
37.541	29.679	18864	19155	0	344
36.387	27.010	18384	17388	0	344
32.600	24.270	17984	16073	0	344
27.191	18.860	17664	15253	0	344
22.106	11.828	17384	14791	0	344
17.382	5.337	17184	14502	0	344
16.769	0.036	16984	14248	0	344
16.156	-1.082	16984	14110	0	344
14.858	-1.046	16864	14144	0	344
11.504	-1.983	16784	14167	0	344
7.825	-4.039	16584	13983	0	344
6.094	-6.058	16384	13648	0	344
5.734	-7.032	16184	13509	0	344
7.501	-4.075	16184	13763	0	344
9.665	-0.108	16384	14375	0	344
11.792	2.560	16664	15126	0	344
16.192	4.977	16864	15738	0	344
20.591	7.681	16984	16165	0	344
29.138	13.091	17464	16626	0	344
33.357	16.228	17784	17284	0	344
36.964	22.539	18264	18035	0	344
39.127	24.630	18784	18670	0	344
40.822	24.089	19184	19120	0	344
41.976	24.811	19584	19524	0	344
42.950	26.614	20184	19963	0	344
39.091	26.325	20784	20414	0	344
33.069	25.712	21184	20748	0	344
27.191	20.916	21664	20899	0	344
23.837	16.913	21984	20887	0	344
25.063	13.415	22384	20702	0	344
25.460	12.225	22664	20517	0	344
26.542	13.054	23464	20714	0	344
23.909	14.353	24064	21222	0	344
20.844	12.514	24584	21487	0	344
17.779	12.225	25064	21337	0	344
18.211	11.396	25664	21129	0	344
23.549	10.855	26184	21095	0	344
27.227	14.028	26664	21049	0	344
31.590	15.975	26864	20587	0	344
32.095	17.598	26864	19617	0	344
31.374	17.202	26864	18404	0	344
30.436	15.254	26664	17307	0	344
31.482	15.074	26584	16476	0	344
31.662	14.749	26464	15830	0	344
34.295	17.166	26264	15149	0	344
35.593	19.978	26184	14294	0	344
38.695	20.952	25664	13451	0	344
40.281	23.332	25464	12897	0	344
40.606	23.945	25264	12585	0	344
40.029	22.358	24984	12308	0	344
37.360	20.772	24784	11927	0	344
34.836	16.444	24384	11581	0	344
30.833	13.415	24184	11431	0	344
25.279	9.016	24064	11535	0	344
19.329	7.465	23864	11766	0	344
15.795	5.590	23784	11916	0	344
13.884	4.472	23584	11997	0	344
14.317	2.344	23264	12054	0	344
15.759	0.974	23064	12077	0	344
17.490	0.505	22864	12066	0	344
19.329	2.092	22464	12193	0	344
20.988	7.609	22464	12493	0	344
22.719	14.064	22184	12770	0	344
24.089	16.336	22184	13024	0	344
23.368	15.326	21984	13382	0	344
20.916	13.199	21864	13717	0	344
20.050	11.828	21664	13960	0	344
21.168	15.182	21664	14202	0	344
27.876	20.880	21384	14479	0	344
31.879	23.512	21464	14733	0	344
35.918	23.801	21384	14941	0	344
34.872	20.664	21064	15137	0	344
30.977	19.690	20984	15241	0	344
27.984	21.060	20584	15068	0	344
26.325	23.296	20184	14675	0	344
27.551	24.162	19984	14421	0	344
27.660	25.099	19584	14491	0	344
29.138	22.719	19464	14687	0	344
28.164	19.618	19064	14675	0	344
24.919	15.759	18784	14410	0	344
19.798	11.107	18384	14237	0	344
15.507	6.131	18064	14352	0	344
14.966	2.416	17984	14733	0	344
16.444	0.721	17864	15114	0	344
19.870	0.433	17664	15311	0	344
22.791	2.272	17584	15507	0	344
22.863	3.823	17464	15819	0	344
21.385	7.248	17384	16107	0	344
20.447	5.842	17264	16211	0	344
18.860	3.390	17064	16177	0	344
20.880	3.714	16984	16257	0	344
23.440	4.832	16984	16591	0	344
27.010	9.520	17264	17203	0	344
30.617	16.552	17384	17919	0	344
32.023	20.591	17664	18485	0	344
36.855	24.666	17984	18924	0	344
40.714	27.371	18264	19409	0	344
45.618	30.256	18664	19998	0	344
46.015	32.636	18984	20541	0	344
43.851	31.302	19464	20829	0	344
38.731	28.489	19784	20945	0	344
38.947	26.397	20064	21037	0	344
39.740	24.053	20384	21164	0	344
42.661	22.539	20784	21245	0	344
42.986	21.132	20984	21164	0	344
38.586	17.851	21264	20979	0	344
32.816	14.605	21664	20748	0	344
28.453	11.900	21664	20414	0	344
24.198	12.874	21864	19975	0	344
23.332	13.343	21864	19501	0	344
23.693	14.894	21984	18982	0	344
25.171	16.985	21664	18243	0	344
28.958	18.031	21184	16857	0	344
31.879	18.644	20384	15149	0	344
30.725	17.779	20064	14133	0	344
28.309	15.326	19984	13948	0	344
22.431	11.720	19584	13856	0	344
15.218	7.176	19664	13752	0	344
12.333	3.642	19584	13867	0	344
11.756	3.173	19664	14294	0	344
14.245	5.121	19984	14987	0	344
17.202	9.989	20264	15692	0	344
20.411	14.425	20464	16084	0	344
19.329	16.408	20464	16096	0	344
16.228	14.533	20464	15980	0	344
12.225	10.891	20384	15969	0	344
8.871	5.229	20664	16073	0	344
7.032	2.596	20664	16130	0	344
7.429	1.154	20464	16038	0	344
9.340	1.659	20464	15888	0	344
11.937	3.137	20584	15865	0	344
14.389	4.580	20464	16027	0	344
14.136	5.049	20664	16200	0	344
11.251	4.760	20584	16200	0	344
6.131	2.056	20464	16050	0	344
3.967	-0.325	20584	15969	0	344
2.813	-2.452	20464	16096	0	344
4.940	-3.173	20784	16350	0	344
4.508	-4.111	20784	16453	0	344
3.570	-3.173	20664	16384	0	344
0.288	-4.039	20664	16246	0	344
-1.551	-6.058	20664	16165	0	344
-1.154	-9.701	20464	16084	0	344
0.072	-12.297	20464	15853	0	344
0.685	-16.300	20184	15588	0	344
2.849	-16.949	20184	15368	0	344
4.436	-13.127	19864	15137	0	344
7.248	-8.475	19664	14930	0	344
9.484	-2.416	19464	14826	0	344
11.540	0.000	19384	14837	0	344
12.586	0.938	19264	14768	0	344
12.081	-0.829	18784	14352	0	344
9.809	-1.767	18184	13671	0	344
8.258	-2.452	17784	13140	0	344
5.517	-2.596	17384	12978	0	344
1.659	-2.596	17064	13013	0	344
2.993	-3.173	16664	12897	0	344
5.049	-2.705	16184	12585	0	344
9.917	0.288	15784	12366	0	344
15.471	4.291	15504	12493	0	344
18.500	7.393	15304	12966	0	344
18.644	9.196	15184	13544	0	344
15.615	8.294	15184	14006	0	344
15.038	8.475	15104	14445	0	344
11.612	8.727	15104	14999	0	344
10.530	11.937	15104	15622	0	344
9.160	13.018	15104	16165	0	344
6.924	10.566	15184	16545	0	344
2.957	7.753	15184	16880	0	344
2.056	1.911	15184	17180	0	344
1.370	-0.469	15184	17330	0	344
3.318	0.721	15104	17307	0	344
9.124	6.491	14984	17238	0	344
14.605	14.208	14904	17261	0	344
18.067	20.700	14984	17423	0	344
20.267	22.647	15104	17792	0	344
19.798	21.132	15384	18231	0	344
19.149	18.464	15504	18531	0	344
17.526	17.923	15584	18716	0	344
17.093	19.401	15784	18901	0	344
16.192	20.375	15984	19132	0	344
14.497	18.788	16184	19351	0	344
14.677	16.192	16384	19432	0	344
13.451	15.435	16584	19386	0	344
15.687	17.057	16664	19282	0	344
17.887	22.250	16664	19086	0	344
19.293	26.542	16664	18762	0	344
18.031	27.696	16664	18404	0	344
15.182	24.414	16664	18104	0	344
12.009	19.077	16584	17758	0	344
9.376	15.254	16304	17123	0	344
8.258	13.091	15984	16269	0	344
11.143	14.821	15704	15576	0	344
11.756	16.228	15384	15218	0	344
12.153	17.923	15304	15045	0	344
12.009	16.156	15184	14837	0	344
8.402	16.084	14904	14595	0	344
8.330	17.129	14784	14641	0	344
8.619	19.798	14904	15045	0	344
13.091	22.142	15104	15507	0	344
17.454	24.558	15184	15865	0	344
21.204	25.316	15184	16130	0	344
25.893	26.758	15304	16384	0	344
30.581	28.164	15584	16672	0	344
34.259	30.869	15704	16961	0	344
36.531	31.410	15784	17099	0	344
36.891	30.833	15704	16972	0	344
35.269	30.905	15704	16822	0	344
34.043	30.941	15784	16868	0	344
33.213	30.436	15984	17180	0	344
31.122	28.850	16304	17654	0	344
27.335	24.378	16464	18000	0	344
21.132	19.293	16664	18127	0	344
16.408	14.569	16984	18208	0	344
10.746	10.025	17264	18439	0	344
8.547	7.862	17664	18797	0	344
6.239	6.816	17864	19062	0	344
7.825	9.268	18184	19166	0	344
8.258	10.710	18464	19166	0	344
10.061	12.441	18784	19178	0	344
9.953	10.819	19064	19213	0	344
7.898	5.878	19184	19155	0	344
4.472	2.380	19464	18982	0	344
2.308	2.993	19664	18762	0	344
3.173	7.862	19664	18439	0	344
10.025	14.425	19864	18127	1	908
17.057	21.385	20384	18254	0	908
25.063	25.532	20784	18820	0	908
28.273	26.181	21264	19120	0	908
26.866	25.460	21464	18901	0	908
23.585	24.991	21464	18497	0	908
21.349	24.198	21584	18012	0	908
23.512	25.496	21464	17457	0	908
25.640	27.696	21464	16915	0	908
29.138	27.840	21184	16246	0	908
30.617	30.076	20984	15368	0	908
29.138	29.427	20664	14537	0	908
23.873	27.587	20264	13960	0	908
19.149	23.332	20184	13648	0	908
12.874	18.175	19864	13394	0	908
6.203	12.153	19584	13024	0	908
3.823	9.376	19264	12678	0	908
0.180	7.285	19064	12493	0	908
0.252	7.140	18864	12481	0	908
0.721	5.626	18584	12481	0	908
2.669	4.868	18264	12412	0	908
4.436	7.393	18064	12378	0	908
5.481	8.691	17984	12528	0	908
-357.663	-357.771	16393	11	0	15384
8.186	4.255	15504	15091	0	908
8.114	8.222	15504	15669	0	908
8.006	11.143	15504	16130	0	908
6.780	10.242	15384	16246	0	908
2.813	4.255	15384	16246	0	908
3.065	0.721	15384	16395	0	908
3.318	0.288	15504	16741	0	908
6.563	4.219	15584	17180	0	908
9.881	9.917	15784	17654	0	908
11.504	15.038	15704	17781	0	908
10.314	15.110	15504	17215	0	908
6.888	13.271	14984	16281	0	908
6.671	10.746	14704	15807	0	908
7.753	11.648	14584	15957	0	908
10.710	9.881	14704	16223	0	908
9.340	8.655	14704	16407	0	908
5.662	4.291	14704	16695	0	908
-0.865	1.875	14984	17134	0	908
-3.101	3.029	15184	17642	0	908
-1.623	6.239	15384	18093	0	908
2.056	9.268	15584	18404	0	908
4.147	9.556	15784	18577	0	908
2.560	7.248	15784	18485	0	908
0.144	5.049	15784	18208	0	908
-0.721	2.452	15904	17977	0	908
-0.144	0.541	15904	17919	0	908
3.246	-0.757	15904	17804	0	908
5.373	1.406	15704	17411	0	908
7.609	4.364	15384	16765	0	908
8.583	8.258	15184	16211	0	908
7.862	10.133	14984	15934	0	908
7.681	8.475	15104	15853	0	908
5.409	3.426	14784	15715	0	908
4.544	1.190	14504	15415	0	908
5.445	1.406	14384	15218	0	908
8.799	5.157	14384	15322	0	908
12.694	12.514	14504	15669	0	908
17.382	16.985	14584	16050	0	908
19.546	20.664	14784	16373	0	908
21.060	22.358	14984	16822	0	908
21.132	21.313	15304	17457	0	908
20.664	19.834	15704	18058	0	908
17.670	15.687	16184	18543	0	908
14.028	9.773	16464	18901	0	908
10.783	7.248	16784	19178	0	908
8.907	6.419	17264	19467	0	908
9.556	8.006	17664	19894	0	908
11.720	11.071	18184	20333	0	908
12.874	10.097	18464	20517	0	908
13.992	9.160	18864	20448	0	908
13.631	6.780	19264	20333	0	908
13.199	7.212	19664	20287	0	908
11.035	7.862	19864	20217	0	908
12.009	10.638	20184	19975	1	432
13.379	13.163	20464	19640	0	432
14.894	15.471	20584	19374	0	432
18.464	16.192	20864	19178	0	432
18.175	15.759	21064	19005	0	432
15.759	14.389	21464	18774	0	432
12.874	12.009	21384	18254	0	432
10.999	8.547	21064	17342	0	432
11.576	7.393	20984	16327	0	432
13.379	8.835	20664	15553	0	432
15.362	12.694	20864	15391	0	432
16.084	17.021	21184	15715	0	432
15.831	18.608	21184	15934	0	432
13.884	16.408	21384	15796	0	432
11.504	10.746	21184	15472	0	432
8.907	6.131	21184	15068	0	432
5.770	4.688	20864	14664	0	432
4.688	6.022	20984	14375	0	432
6.167	9.845	20664	14017	0	432
8.727	13.704	20184	13440	0	432
11.756	14.605	19864	12897	0	432
14.136	15.651	19664	12643	0	432
14.389	15.398	19384	12655	0	432
15.975	16.300	19384	12747	0	432
18.247	18.464	19064	12759	0	432
18.247	19.077	18984	12828	0	432
17.779	19.618	18864	13105	0	432
15.759	17.995	18864	13532	0	432
15.002	16.552	18864	13971	0	432
12.477	13.992	18864	14271	0	432
13.595	13.631	18784	14525	0	432
14.785	12.694	18784	14895	0	432
15.326	14.245	19064	15403	0	432
17.995	16.552	19184	15911	0	432
16.805	16.625	19264	16188	0	432
13.091	14.966	19064	16281	0	432
5.662	11.468	19264	16338	0	432
-1.551	7.285	19264	16464	0	432
-3.895	5.878	19384	16649	0	432
-1.118	5.626	19184	16741	0	432
3.354	7.429	19384	16741	0	432
7.609	8.258	19264	16741	0	432
8.186	9.160	19384	16776	0	432
7.573	8.979	19184	16788	0	432
5.950	7.212	19264	16718	0	432
5.445	7.429	19064	16580	0	432
5.265	6.852	18984	16327	0	432
5.121	7.537	18464	15738	0	432
4.580	7.789	17864	14837	0	432
5.157	8.402	17384	14063	0	432
6.167	6.960	16984	13636	0	432
5.734	6.491	16464	13301	0	432
6.455	7.753	15904	12793	0	432
6.239	8.979	15184	12193	0	432
4.832	13.199	14784	11846	0	432
6.527	16.300	14384	11916	0	432
3.931	17.598	14184	12320	0	432
1.334	17.959	13904	12793	0	432
-0.577	16.300	13704	13117	0	432
-1.803	14.100	13584	13428	0	432
-0.793	15.975	13384	13856	0	432
3.931	17.310	13304	14421	0	432
4.904	18.175	13384	15033	0	432
5.301	17.598	13384	15530	0	432
0.180	12.982	13304	15923	0	432
-4.580	7.825	13304	16327	0	432
-8.366	2.272	13304	16649	0	432
-9.520	0.613	13304	16811	0	432
-4.111	3.246	13104	16868	0	432
-0.072	7.501	13104	17088	0	432
5.193	13.631	13304	17584	0	432
6.599	16.480	13584	18243	0	432
5.373	16.156	13904	18924	0	432
5.626	14.461	14184	19501	0	432
6.852	14.064	14584	19952	0	432
8.727	14.894	15104	20356	0	432
8.078	14.713	15384	20783	0	432
4.364	12.189	15784	21187	0	432
-0.577	9.881	16184	21418	0	432
-2.019	5.806	16464	21430	0	432
-0.757	5.373	16784	21395	0	432
2.128	8.511	17184	21395	0	432
4.904	8.763	17584	21395	0	432
6.455	10.783	17784	21245	0	432
7.862	8.799	17984	20933	1	336
10.458	6.239	18184	20471	0	336
11.540	3.101	18064	19686	0	336
10.963	1.551	17984	18785	0	336
5.950	1.839	18184	18439	0	336
2.272	3.210	18384	18601	0	336
-2.705	4.400	18384	18266	0	336
-5.950	2.236	17784	16915	0	336
-8.727	-1.731	17384	15345	0	336
-7.573	-5.301	17184	14583	0	336
-5.950	-4.400	17184	14652	0	336
-1.298	-1.551	17184	14941	0	336
3.173	2.560	17384	15195	0	336
5.842	4.688	17464	15461	0	336
4.147	3.173	17664	15634	0	336
1.911	-2.741	17664	15715	0	336
-3.606	-6.383	17784	15772	0	336
-8.006	-7.717	17864	15796	0	336
-7.825	-6.094	17864	15680	0	336
-2.092	2.019	17864	15530	0	336
4.652	9.917	17784	15461	0	336
12.117	14.785	17864	15495	0	336
15.435	13.307	17864	15565	0	336
12.694	8.006	17784	15553	0	336
7.537	2.236	17784	15495	0	336
3.606	0.361	17864	15588	0	336
4.472	3.570	18184	15969	0	336
5.481	10.169	18464	16487	0	336
8.006	15.038	18584	16857	0	336
8.150	14.208	18784	17007	0	336
3.967	9.917	18984	17123	0	336
-1.695	2.993	19264	17319	0	336
-1.803	1.875	19464	17619	0	336
0.072	5.049	19584	17838	0	336
3.967	10.602	19584	17573	0	336
5.265	14.461	19384	16811	0	336
4.255	15.795	19184	16084	0	336
0.974	13.631	18864	15680	0	336
-1.010	15.867	18784	15403	0	336
-0.865	17.634	18784	15230	0	336
-1.334	20.159	18384	14941	0	336
-1.190	20.231	17664	13983	0	336
-1.911	19.906	16784	12424	0	336
-2.236	18.067	16304	11500	0	336
-2.200	15.903	16104	11719	0	336
-2.236	14.533	15784	12204	0	336
-1.767	12.586	15384	12227	0	336
0.433	14.677	14984	12008	0	336
2.921	18.283	14704	11985	0	336
3.137	20.050	14584	12331	0	336
0.721	19.834	14504	12978	0	336
-4.400	15.615	14584	13648	0	336
-6.924	11.612	14504	14133	0	336
-5.914	10.097	14384	14595	0	336
-3.606	9.556	14504	15218	0	336
-4.616	7.717	14784	15946	0	336
-9.016	1.767	14904	16557	0	336
-15.110	-2.200	14904	16949	0	336
-17.166	-4.111	15304	17330	0	336
-15.687	0.252	15384	17862	0	336
-12.766	4.436	15704	18497	0	336
-12.477	5.734	15984	19086	0	336
-17.166	-0.613	16304	19478	0	336
-20.483	-7.501	16464	19674	0	336
-20.555	-12.874	16784	19836	0	336
-16.444	-12.225	17184	20067	0	336
-8.835	-6.383	17464	20287	0	336
-2.777	0.108	17664	20367	0	336
0.216	3.318	17864	20287	0	336
-0.974	2.380	17864	19859	0	336
-3.354	1.406	17664	19016	0	336
-7.934	-2.019	17464	18116	0	336
-10.386	-0.649	17384	17457	0	336
-10.278	0.685	17184	17065	0	336
-7.537	2.452	17184	16892	0	336
-5.590	2.164	17264	16961	0	336
-2.128	1.262	17464	17146	0	336
-0.072	0.325	17584	17319	0	336
-1.479	0.072	17864	17492	0	336
-4.147	-1.082	18064	17584	0	336
-7.573	-1.947	17984	17319	0	336
-8.871	-2.272	17864	16695	0	336
-6.708	-1.190	17584	16165	0	336
-2.344	-0.397	17584	15900	0	336
-0.216	0.397	17464	15726	0	336
-3.065	-1.659	17184	15299	0	336
-7.898	-5.049	16664	14606	0	336
-10.494	-7.501	16464	14017	0	336
-9.376	-6.780	16304	13786	0	336
-7.609	-7.717	16304	13948	0	336
-6.131	-7.032	16304	14398	0	336
-7.176	-7.140	16304	14756	0	336
-7.898	-7.285	16384	14906	0	336
-5.517	-6.491	16384	15137	0	336
-4.472	-7.717	16464	15611	0	336
-2.416	-7.970	16664	16107	0	336
-4.508	-11.071	16864	16418	0	336
-5.662	-11.215	16864	16626	0	336
-8.691	-10.602	16984	16811	0	336
-8.763	-8.330	17064	16903	0	336
-8.511	-5.734	17064	16926	0	336
-6.275	-2.164	17264	16996	0	336
-2.128	0.829	17384	17169	0	336
3.246	5.373	17664	17504	0	336
6.419	7.357	17984	18023	0	336
6.635	6.563	18384	18554	0	336
2.019	4.688	18584	18808	0	336
-2.921	0.000	18864	18843	0	336
-6.635	-1.154	19184	18889	0	336
-7.862	0.829	19584	19062	0	336
-5.409	5.301	19664	19259	0	336
-3.895	7.609	20064	19317	0	336
-2.957	9.304	20384	19236	0	336
-5.013	7.645	20584	19201	0	336
-6.275	8.042	20864	19247	0	336
-10.710	5.770	21184	19224	0	336
-15.975	2.957	21264	18947	0	336
-18.752	-1.190	21384	18462	0	336
-19.329	-5.481	21264	17919	0	336
-14.245	-3.859	21184	17273	0	336
-4.472	3.570	20784	16384	0	336
2.452	11.792	20464	15415	0	336
7.537	17.454	20184	14641	0	336
7.176	18.247	19584	13971	0	336
5.626	16.480	19064	13070	0	336
5.337	14.821	18464	12031	0	336
7.212	15.759	17864	11257	0	336
10.746	18.788	17384	10923	0	336
12.550	19.401	16984	10888	0	336
11.287	16.589	16584	10911	0	336
6.203	12.658	16184	10819	0	336
2.056	9.953	15784	10784	0	336
1.947	13.018	15504	11003	0	336
6.131	20.267	15304	11454	0	336
10.638	26.433	15104	11916	0	336
12.910	28.958	14904	12262	0	336
9.016	25.893	14704	12666	0	336
5.481	22.250	14704	13244	0	336
2.019	19.618	14704	13971	0	336
2.849	20.447	14704	14687	0	336
3.895	22.467	14784	15299	0	336
5.914	21.637	14904	15819	0	336
6.635	21.709	14984	16384	0	336
8.475	21.529	15304	17111	0	336
8.042	22.863	15504	17908	0	336
8.871	22.719	15584	18323	0	336
8.222	23.404	15504	17931	0	336
8.402	22.863	14904	17076	0	336
10.783	23.152	14704	16534	0	336
15.110	27.047	14504	16476	0	336
22.719	33.718	14384	16557	0	336
28.886	38.695	14384	16672	0	336
33.466	43.924	14384	16845	0	336
35.810	44.609	14304	16949	0	336
35.593	45.005	14184	16938	0	336
32.780	43.310	14104	16949	0	336
31.446	42.914	14184	17030	0	336
27.227	40.822	14104	17076	0	336
23.332	36.891	13984	16857	0	336
17.851	30.545	13584	16407	0	336
12.153	21.890	13304	16107	0	336
3.895	13.668	13304	16061	0	336
-2.777	8.907	13184	16084	0	336
-6.996	7.068	12784	15876	0	336
-8.114	9.196	12584	15495	0	336
-6.094	10.602	12384	15311	0	336
-6.022	12.333	12384	15553	0	336
-7.753	10.386	12504	16130	0	336
-11.864	7.537	12784	16695	0	336
-14.713	5.986	12704	17007	0	336
-12.333	5.085	12904	17261	0	336
-5.157	9.953	13304	17746	0	336
4.255	16.192	13584	18381	0	336
14.533	23.080	13784	18912	0	336
19.546	28.417	14104	19178	0	336
22.395	31.085	14504	19409	0	336
23.585	29.174	14904	19767	0	336
25.820	29.679	15304	20125	0	336
30.400	29.138	15704	20437	0	336
32.925	29.282	16104	20644	0	336
32.276	30.076	16384	20714	0	336
29.102	28.020	16784	20725	0	336
23.188	25.207	17184	20795	0	336
19.510	23.765	17584	20864	0	336
17.093	22.034	17864	20783	0	336
16.661	20.014	18264	20552	0	336
15.471	18.572	18584	20321	0	336
14.966	15.218	18984	20194	0	336
13.740	13.054	19264	20125	1	752
11.540	11.720	19584	19952	0	752
9.052	12.874	19864	19651	0	752
7.789	12.514	20184	19305	0	752
6.924	16.012	20184	18935	0	752
7.609	18.464	20464	18543	0	752
8.799	20.952	20664	18116	0	752
7.537	20.627	20584	17677	0	752
6.780	19.437	20664	17146	0	752
6.419	18.860	20384	16292	0	752
11.648	19.942	20064	15253	0	752
16.805	24.919	19864	14421	0	752
22.178	28.705	19464	13821	0	752
25.568	32.023	18984	13070	0	752
23.296	31.807	18464	12239	0	752
20.483	31.158	18064	11592	0	752
19.149	27.984	17664	11188	0	752
18.464	27.768	17464	11038	0	752
19.762	28.741	17064	11119	0	752
18.933	30.436	16784	11165	0	752
17.779	33.393	16384	11003	0	752
14.353	34.656	16104	10946	0	752
10.602	32.492	15904	11246	0	752
6.167	29.282	15904	11869	0	752
1.623	22.214	15904	12609	0	752
-3.137	13.199	15984	13232	0	752
-4.111	8.583	15984	13775	0	752
-1.983	5.337	16104	14398	0	752
3.642	9.484	16384	15207	0	752
9.592	12.802	16584	16050	0	752
12.586	15.362	16864	16695	0	752
15.326	14.677	17064	17215	0	752
14.749	13.415	17264	17723	0	752
15.290	11.323	17664	18335	0	752
12.261	9.701	18064	18912	0	752
8.547	8.294	18264	19259	0	752
5.806	8.042	18464	19397	0	752
5.265	12.730	18784	19536	0	752
10.350	17.057	19184	19732	0	752
14.641	23.729	19384	19929	0	752
19.690	26.902	19784	19998	0	752
19.870	27.191	19984	19940	0	752
20.591	27.732	20064	19778	0	752
19.834	29.354	20184	19513	0	752
20.844	28.633	20264	19132	0	752
19.582	28.669	20264	18658	0	752
16.949	25.243	20184	18127	0	752
10.963	21.132	20064	17527	0	752
7.393	17.238	19664	16695	0	752
4.652	16.697	19264	15772	0	752
2.596	17.274	19264	15322	0	752
0.649	16.589	19464	15507	0	752
-3.606	14.533	19384	15726	0	752
-10.458	8.907	19184	15507	0	752
-17.382	2.344	18984	15022	0	752
-23.981	-4.255	18864	14687	0	752
-26.542	-8.006	18784	14595	0	752
-28.345	-9.629	18664	14664	0	752
-25.676	-8.150	18584	14675	0	752
-23.476	-4.327	18384	14491	0	752
-20.844	0.072	18184	14260	0	752
-20.736	2.128	17984	14156	0	752
-21.601	1.154	17864	14237	0	752
-22.250	-3.318	17864	14433	0	752
-24.162	-8.114	17664	14583	0	752
-24.089	-11.287	17664	14664	0	752
-20.844	-9.052	17664	14849	0	752
-17.238	-5.157	17784	15276	0	752
-11.684	1.551	17984	15796	0	752
-6.635	6.022	17984	16130	0	752
-3.534	9.845	17984	16281	0	752
-2.272	8.511	17864	16234	0	752
-2.993	6.816	17864	16096	0	752
-4.183	3.534	17864	16142	0	752
-8.006	-2.560	17784	16257	0	752
-13.595	-6.275	17464	15911	0	752
-16.877	-8.583	16984	15091	0	752
-18.897	-9.448	16584	14387	0	752
-19.654	-7.681	16104	14052	0	752
-19.654	-6.167	15904	13890	0	752
-19.582	-6.960	15704	13890	0	752
-24.378	-10.783	15584	14167	0	752
-26.830	-16.805	15504	14618	0	752
-28.489	-21.168	15584	15103	0	752
-28.958	-22.719	15584	15565	0	752
-29.174	-21.277	15704	16050	0	752
-30.076	-18.428	15704	16407	0	752
-32.853	-17.346	15784	16407	0	752
-31.951	-17.490	15384	16119	0	752
-31.662	-17.382	15184	15888	0	752
-27.299	-16.228	15104	15865	0	752
-22.972	-13.343	14904	15946	0	752
-19.257	-12.766	14784	15923	0	752
-17.887	-12.297	14584	15738	0	752
-15.903	-13.956	14384	15669	0	752
-16.805	-13.848	14504	15888	0	752
-17.310	-14.353	14584	16384	0	752
-18.716	-11.107	14784	17007	0	752
-19.221	-9.592	14984	17515	0	752
-19.221	-6.888	15384	17989	0	752
-18.933	-6.058	15704	18624	0	752
-18.067	-4.616	16104	19282	0	752
-18.139	-3.137	16464	19732	0	752
-18.644	-2.596	16784	19929	0	752
-19.618	-1.226	17064	19986	0	752
-20.375	-2.164	17384	20079	0	752
-21.132	-5.914	17784	20310	0	752
-22.899	-10.422	18064	20564	0	752
-23.837	-13.848	18464	20633	0	752
-23.729	-14.461	18664	20506	0	752
-23.657	-12.622	18984	20356	0	752
-22.142	-7.609	19384	20275	0	752
-19.654	-3.931	19584	20159	0	752
-16.985	-0.216	19784	19882	1	452
-15.831	-0.288	19984	19478	0	452
-14.569	-2.596	20184	19109	0	452
-15.218	-5.373	20184	18832	0	452
-15.290	-5.590	20464	18589	0	452
-16.480	-6.347	20584	18300	0	452
-14.858	-4.472	20664	17954	0	452
-16.300	-3.678	20784	17527	0	452
-18.897	-6.599	20584	16996	0	452
-19.437	-6.816	20464	16395	0	452
-20.195	-5.770	20464	15842	0	452
-17.418	-2.128	20184	15368	0	452
-14.894	1.947	20064	14906	0	452
-12.405	5.265	19864	14433	0	452
-12.622	6.022	19664	14167	0	452
-13.776	4.364	19984	14352	0	452
-14.605	2.308	20184	14883	0	452
-15.398	1.767	20184	15230	0	452
-12.441	2.669	20184	15068	0	452
-8.979	6.563	19864	14525	0	452
-4.183	11.287	19584	14017	0	452
-1.623	14.353	19264	13659	0	452
0.469	16.552	18984	13371	0	452
3.101	17.526	18664	13070	0	452
3.967	17.887	18264	12701	0	452
4.616	18.969	17864	12389	0	452
4.688	20.700	17584	12297	0	452
3.750	24.017	17464	12412	0	452
1.118	26.181	17064	12562	0	452
1.262	27.696	16864	12643	0	452
-0.721	26.289	16584	12736	0	452
-1.803	23.512	16464	13001	0	452
0.000	23.440	16464	13544	0	452
3.462	26.433	16584	14225	0	452
6.671	30.256	16584	14768	0	452
8.439	33.970	16584	15137	0	452
9.232	33.069	16664	15565	0	452
7.825	30.797	16864	16200	0	452
7.140	25.784	17064	16857	0	452
5.878	24.594	17184	17273	0	452
5.445	23.765	17264	17457	0	452
6.635	24.414	17184	17550	0	452
7.212	25.316	17184	17538	0	452
6.599	24.125	17064	17400	0	452
5.049	22.791	16984	17215	0	452
2.921	20.050	16984	17076	0	452
1.190	20.159	16864	16972	0	452
2.669	21.096	16664	16845	0	452
3.137	19.834	16664	16707	0	452
2.705	19.798	16584	16580	0	452
1.731	18.933	16384	16384	0	452
0.469	20.231	16104	16027	0	452
0.757	23.909	15904	15576	0	452
1.695	25.604	15504	15276	0	452
2.344	27.407	15304	15184	0	452
2.633	24.234	15184	15264	0	452
1.406	22.142	14984	15380	0	452
1.262	21.926	14704	15253	0	452
0.974	24.053	14384	14837	0	452
3.318	31.338	14104	14491	0	452
8.979	34.944	13984	14491	0	452
12.297	38.045	13904	14814	0	452
15.759	38.514	13704	15172	0	452
16.877	37.505	13704	15334	0	452
16.444	37.649	13584	15345	0	452
16.661	39.524	13384	15415	0	452
16.913	37.505	13304	15622	0	452
14.785	34.223	13304	15888	0	452
11.360	29.787	13304	16061	0	452
7.104	27.696	13184	16200	0	452
3.426	27.155	13304	16487	0	452
3.714	28.958	13504	17053	0	452
5.770	31.446	13904	17723	0	452
7.681	30.833	13784	17989	0	452
9.773	31.554	13504	17515	0	452
9.340	29.391	13104	16638	0	452
7.862	26.433	12984	16188	0	452
5.842	21.385	12784	16292	0	452
2.019	17.093	12784	16499	0	452
-0.108	12.514	12904	16695	0	452
-3.426	11.432	12984	16984	0	452
-6.744	14.245	13184	17342	0	452
-9.196	16.444	13384	17700	0	452
-10.927	19.329	13584	18000	0	452
-10.386	21.745	13704	18220	0	452
-9.160	22.286	13904	18370	0	452
-5.481	22.106	13904	18381	0	452
-7.248	22.178	14184	18277	0	452
-9.809	19.798	14104	18208	0	452
-16.733	16.012	14184	18231	0	452
-23.260	10.927	14304	18196	0	452
-29.823	6.599	14184	17885	0	452
-34.223	1.623	14184	17342	0	452
-37.000	-1.623	13984	16892	0	452
-36.819	-2.921	13904	16741	0	452
-35.016	-2.813	13984	16741	0	452
-30.364	-1.118	13904	16522	0	452
-26.217	-1.082	13704	16107	0	452
-23.837	0.000	13704	16015	0	452
-24.666	0.829	13984	16430	0	452
-25.893	0.757	14184	16984	0	452
-28.381	1.226	14504	17400	0	452
-30.400	0.649	14704	17619	0	452
-30.581	-0.685	14904	17804	0	452
-31.662	-0.613	15104	18046	0	452
-33.105	1.190	15504	18254	0	452
-33.682	4.327	15584	18300	0	452
-33.646	4.688	15704	18150	0	452
-30.472	8.727	15784	17954	0	452
-25.316	10.206	15984	17873	0	452
-18.644	13.848	16184	17989	0	452
-11.792	16.012	16384	18150	0	452
-9.052	15.903	16584	18081	0	452
-5.986	13.812	16584	17838	0	452
-2.092	13.415	16784	17677	0	452
-0.361	11.973	17064	17735	0	452
2.885	12.658	17264	17885	0	452
0.829	8.258	17464	17942	0	452
-2.308	6.058	17784	17942	0	452
-6.275	3.714	17984	18000	0	452
-6.780	5.914	18264	18150	0	452
-5.626	11.684	18584	18312	0	452
-2.741	14.317	18864	18312	0	452
-2.885	16.120	19064	18127	0	452
-1.406	12.802	19064	17862	0	452
-1.010	12.658	19064	17538	0	452
-1.154	13.343	19264	17273	0	452
-1.190	15.110	19784	17457	0	452
-2.921	16.336	20184	18046	0	452
-7.393	13.054	20464	18358	0	452
-12.622	7.789	20584	17965	0	452
-15.759	2.380	20384	17169	0	452
-19.978	-1.334	20384	16499	0	452
-20.880	-0.829	20264	16038	0	452
-20.447	1.587	19984	15542	0	452
-18.824	5.373	19864	15022	0	452
-18.031	6.383	19784	14618	0	452
-17.202	7.140	19584	14352	0	452
-17.779	5.265	19464	14237	0	452
-19.329	3.823	19584	14294	0	452
-19.834	3.823	19464	14341	0	452
-19.798	3.246	19184	14167	0	452
-19.582	5.481	19184	13890	0	452
-18.572	11.251	18984	13717	0	452
-17.634	15.615	18784	13636	0	452
-17.382	19.041	18584	13555	0	452
-18.572	18.572	18264	13440	0	452
-20.159	15.290	18064	13359	0	452
-21.673	14.569	17984	13451	0	452
-22.178	15.651	18064	13821	0	452
-22.214	18.933	18064	14283	0	452
-23.260	20.375	17984	14548	0	452
-25.460	18.392	17864	14572	0	452
-26.686	16.336	17664	14606	0	452
-25.496	16.444	17784	14814	0	452
-19.437	18.680	17784	15218	0	452
-11.864	21.745	17864	15622	0	452
-6.563	21.890	17664	15599	0	452
-5.842	21.204	17384	15184	0	452
-6.563	15.579	17184	14941	0	452
-11.035	12.261	16984	15022	0	452
-13.451	10.819	16864	15126	0	452
-11.900	12.369	16784	15207	0	452
-8.475	16.589	16664	15264	0	452
0.613	22.539	16464	15230	0	452
8.583	27.624	16304	15160	0	452
12.730	30.797	16104	15184	0	452
9.412	28.201	15984	15345	0	452
2.777	25.243	15904	15438	0	452
-1.479	21.277	15504	15218	0	452
-2.164	19.582	15104	14779	0	452
1.659	20.627	14904	14514	0	452
5.373	22.431	14584	14525	0	452
4.436	21.565	14384	14687	0	452
3.282	18.860	14304	14826	0	452
1.731	16.300	13984	14860	0	452
2.957	15.110	13784	14906	0	452
4.616	17.021	13784	15149	0	452
5.337	20.772	13704	15518	0	452
5.626	24.666	13704	15726	0	452
3.606	28.453	13384	15715	0	452
3.967	28.886	13304	15772	0	452
1.911	26.433	13384	16073	0	452
2.128	22.142	13384	16522	0	452
1.587	20.736	13384	16915	0	452
3.390	22.106	13504	17099	0	452
8.078	28.922	13504	17215	0	452
14.533	37.685	13584	17480	0	452
17.670	41.363	13784	18012	0	452
16.480	39.524	14184	18670	0	452
15.435	37.216	14384	19132	0	452
14.425	35.629	14704	19305	0	452
17.238	37.288	14784	19293	0	452
20.087	41.039	14984	19305	0	452
23.404	42.734	15184	19420	0	452
22.863	41.652	15304	19490	0	452
22.214	41.616	15584	19467	0	452
22.142	41.255	15784	19444	0	452
20.375	43.491	15984	19478	0	452
18.067	43.851	16304	19536	0	452
15.218	42.157	16384	19455	1	800
14.713	39.452	16584	19247	0	800
15.290	36.351	16584	18901	0	800
14.281	33.393	16384	18277	0	800
11.504	29.499	16184	17411	0	800
5.409	26.181	15984	16649	0	800
-0.505	22.178	15784	16188	0	800
-3.678	19.149	15584	15819	0	800
-4.688	16.841	15184	15218	0	800
-3.967	14.930	14904	14375	0	800
-4.544	14.749	14304	13602	0	800
-5.373	14.172	13904	13151	0	800
-5.157	15.110	13704	12955	0	800
-3.318	17.346	13184	12759	0	800
1.911	22.611	12984	12470	0	800
8.583	27.479	12504	12354	0	800
11.792	32.564	12384	12574	0	800
14.100	34.620	12504	13047	0	800
12.441	35.629	12304	13555	0	800
13.307	33.790	12384	14017	0	800
16.625	35.377	12504	14583	0	800
23.621	37.432	12584	15357	0	800
28.814	41.760	12984	16119	0	800
30.220	42.986	13184	16695	0	800
25.784	42.048	13304	17180	0	800
17.851	38.731	13584	17608	0	800
10.025	32.925	13904	18046	0	800
4.327	30.400	14304	18589	0	800
2.849	27.010	14584	19178	0	800
1.262	26.722	14904	19571	0	800
-0.108	24.234	15304	19732	0	800
-2.633	20.700	15584	19894	0	800
-4.147	18.067	15984	20136	0	800
-8.006	15.903	16304	20379	0	800
-7.501	14.641	16584	20437	0	800
-7.573	14.858	16864	20298	0	800
-9.845	14.389	17064	20067	0	800
-12.730	13.668	17184	19755	0	800
-13.668	10.458	17264	19363	0	800
-13.199	9.665	17264	18843	0	800
-9.737	8.475	16984	18035	0	800
-5.157	10.783	16584	16915	0	800
-1.587	11.468	16104	15669	0	800
-0.252	13.523	15504	14456	0	800
-0.288	15.182	14984	13555	0	800
1.623	15.975	14704	13047	0	800
4.904	18.572	14304	12701	0	800
8.042	23.008	13904	12366	0	800
8.835	26.722	13504	12043	0	800
8.294	28.489	13104	11893	0	800
3.246	26.866	12984	12077	0	800
-5.626	20.014	12984	12609	0	800
-12.261	12.045	12904	13197	0	800
-17.959	6.816	12904	13613	0	800
-20.014	6.960	12984	14052	0	800
-21.926	9.556	13104	14629	0	800
-22.611	11.828	13304	15334	0	800
-25.604	9.340	13504	15992	0	800
-27.299	5.626	13784	16441	0	800
-30.256	0.757	13784	16811	0	800
-29.895	-0.036	13904	17192	0	800
-33.069	-0.469	14184	17608	0	800
-34.908	0.000	14504	17965	0	800
-36.711	-0.721	14584	18208	0	800
-34.511	-0.938	14784	18381	0	800
-29.354	0.577	14984	18589	0	800
-22.719	4.436	15304	18947	0	800
-14.028	7.645	15784	19444	0	800
-4.904	12.514	16184	19871	0	800
2.308	15.362	16464	20067	0	800
10.602	17.202	16784	20044	0	800
12.982	19.473	17064	19975	0	800
12.802	19.798	17384	19952	0	800
9.340	20.844	17664	19975	0	800
3.462	20.050	17984	19998	0	800
-2.560	18.680	18264	19975	0	800
-7.212	18.320	18664	19871	0	800
-11.287	19.401	18784	19651	0	800
-15.002	23.368	18984	19259	0	800
-15.687	25.856	18984	18762	1	316
-17.959	27.227	18864	18196	0	316
-18.356	22.972	18664	17342	0	316
-18.788	16.156	18384	16223	0	316
-16.733	9.989	17984	15184	0	316
-14.497	5.734	17584	14445	0	316
-13.307	3.859	17184	13809	0	316
-9.376	4.436	16664	13013	0	316
-3.606	9.881	16184	12170	0	316
2.705	15.074	15704	11592	0	316
8.691	22.286	15304	11373	0	316
12.009	26.830	15104	11442	0	316
11.720	25.712	14904	11615	0	316
11.612	25.352	14584	11777	0	316
12.261	24.630	14384	11997	0	316
14.894	25.893	13984	12020	0	316
14.028	29.246	13384	11615	0	316
9.809	30.797	12784	11188	0	316
3.678	31.049	12384	10992	0	316
-2.669	27.732	11984	11084	0	316
-8.366	26.506	11704	11488	0	316
-9.484	25.604	11704	12193	0	316
-7.501	26.361	11584	13024	0	316
-6.203	26.253	11704	13821	0	316
-5.517	24.919	11784	14618	0	316
-9.232	19.510	11984	15542	0	316
-18.392	12.117	12504	16638	0	316
-28.453	6.708	12784	17781	0	316
-35.449	2.957	13304	18728	0	316
-37.144	2.019	13784	19478	0	316
-35.305	1.695	14184	20171	0	316
-32.925	2.596	14704	20910	0	316
-32.961	1.442	15184	21591	0	316
-35.665	2.056	15784	22030	0	316
-38.695	2.272	16184	22238	0	316
-38.839	3.426	16664	22319	0	316
-35.774	6.347	17064	22342	0	316
-31.879	8.763	17464	22296	0	316
-30.040	12.441	17664	22099	0	316
-29.571	15.362	17984	21799	0	316
-31.230	17.887	18064	21395	0	316
-31.302	18.680	18184	20679	0	316
-31.771	20.700	18184	19802	0	316
-29.643	22.142	18384	19328	0	316
-28.633	22.863	18664	19270	0	316
-28.777	20.447	18584	18912	0	316
-31.482	17.454	18384	18035	0	316
-32.708	11.323	18184	16996	0	316
-35.665	7.104	17984	16165	0	316
-37.901	3.462	17864	15622	0	316
-37.432	2.777	17864	15334	0	316
-35.341	2.849	17664	15126	0	316
-32.708	4.904	17584	14814	0	316
-29.751	7.321	17464	14468	0	316
-26.253	10.169	17264	14271	0	316
-24.378	11.432	17384	14260	0	316
-24.270	12.081	17184	14294	0	316
-22.611	13.199	17184	14271	0	316
-22.322	13.992	17184	14283	0	316
-20.123	14.605	17264	14525	0	316
-18.752	15.759	17464	15033	0	316
-16.300	17.382	17784	15622	0	316
-13.451	21.168	17864	16038	0	316
-9.881	25.243	18184	16350	0	316
-7.357	29.210	18384	16741	0	316
-7.681	27.696	18864	17284	0	316
-8.402	23.981	19264	17838	0	316
-12.225	18.464	19584	18139	0	316
-16.661	13.631	19664	18208	0	316
-19.257	11.684	19984	18220	0	316
-21.096	12.550	20264	18254	0	316
-20.988	12.225	20384	18277	0	316
-20.195	12.225	20664	18300	0	316
-18.644	8.835	20864	18300	0	316
-21.024	3.029	20984	18196	0	316
-26.506	-4.075	21184	18000	0	316
-32.636	-7.501	21264	17873	0	316
-35.269	-7.032	21664	18000	0	316
-35.160	-3.246	21984	18335	0	316
-31.987	0.793	22184	18323	1	316
-30.364	1.298	21864	17631	0	316
-30.869	-1.262	21664	16568	0	316
-31.554	-2.633	21264	15645	0	316
-31.013	-2.236	21184	14999	0	316
-27.227	1.515	20784	14387	0	316
-25.424	5.409	20064	13521	0	316
-21.998	8.402	19464	12447	0	316
-22.395	9.953	18864	11604	0	316
-21.493	9.665	18384	11177	0	316
-21.601	11.648	17984	11061	0	316
-21.132	12.946	17464	11027	0	316
-19.221	15.795	17064	10911	0	316
-16.805	19.149	16664	10842	0	316
-12.261	23.621	16384	11027	0	316
-9.809	27.804	16304	11488	0	316
-9.448	27.587	16104	12020	0	316
-10.710	27.624	15904	12378	0	316
-13.451	22.034	15584	12609	0	316
-18.860	16.733	15584	12932	0	316
-24.630	9.773	15384	13440	0	316
-32.167	5.950	15304	13994	0	316
-37.108	3.390	15104	14364	0	316
-37.396	3.173	14984	14618	0	316
-32.131	6.419	14984	15045	0	316
-28.056	7.393	15184	15772	0	316
-26.073	7.248	15384	16603	0	316
-29.102	3.426	15504	17238	0	316
-33.970	1.082	15584	17619	0	316
-35.557	2.344	15904	17896	0	316
-32.420	5.193	15904	18162	0	316
-26.866	10.963	15984	18439	0	316
-19.113	14.172	16104	18647	0	316
-14.605	14.461	16104	18751	0	316
-13.163	13.559	16184	18728	0	316
-14.677	14.894	16184	18601	0	316
-14.136	16.048	16104	18439	0	316
-11.937	20.844	15984	18208	0	316
-7.645	25.784	15984	17965	0	316
-2.128	29.391	15784	17688	0	316
0.541	32.600	15504	17157	0	316
1.623	33.466	15104	16430	0	316
-0.433	31.554	14904	15888	0	316
-3.065	26.686	14584	15599	0	316
-8.763	21.421	14304	15357	0	316
-18.572	15.398	13984	14953	0	316
-26.470	9.953	13504	14456	0	316
-33.538	5.842	13304	14179	0	316
-35.485	3.065	13104	14202	0	316
-36.387	0.505	12904	14410	0	316
-39.849	-2.236	12584	14560	0	316
-46.340	-3.859	12504	14502	0	316
-52.687	-5.157	12184	14387	0	316
-52.903	-3.570	11904	14421	0	316
-47.458	1.370	11904	14652	0	316
-38.514	6.491	11784	14999	0	316
-35.449	9.809	11784	15322	0	316
-38.767	6.167	11904	15657	0	316
-46.881	0.325	11704	16003	0	316
-54.201	-3.354	11904	16338	0	316
-53.660	-2.452	11784	16626	0	316
-48.143	3.101	11904	16949	0	316
-39.740	10.855	12184	17342	0	316
-33.213	15.795	12304	17850	0	316
-30.977	17.851	12784	18508	0	316
-31.446	17.562	13104	19178	0	316
-32.167	16.084	13384	19628	0	316
-35.016	14.136	13784	19905	0	316
-37.288	14.641	14184	20183	0	316
-41.904	14.641	14584	20541	0	316
-48.684	17.706	14984	20910	0	316
-53.480	20.014	15384	21129	0	316
-56.221	22.286	15704	21141	0	316
-58.168	24.270	15984	20968	0	316
-60.584	23.260	16304	20644	0	316
-62.171	19.870	16384	20252	0	316
-65.453	16.697	16584	19848	0	316
-64.407	11.251	16664	19467	0	316
-62.640	9.989	16584	19005	0	316
-57.627	8.727	16464	18266	0	316
-54.886	7.609	16184	17296	0	316
-52.831	5.770	15984	16499	0	316
-53.660	4.688	15984	16050	0	316
-52.254	5.193	15904	15715	0	316
-48.972	7.717	15504	15149	0	316
-45.546	12.405	15104	14283	0	316
-41.760	15.723	14584	13417	0	316
-39.127	15.903	14304	12886	0	316
-40.426	15.002	14104	12747	0	316
-39.812	15.398	13904	12874	0	316
-40.353	17.887	13784	13024	0	316
-38.334	21.385	13584	13174	0	316
-37.577	24.125	13784	13498	0	316
-36.495	24.378	13784	14017	0	316
-35.413	23.080	13784	14583	0	316
-38.118	20.700	13984	15068	0	316
-41.796	20.014	14304	15553	0	316
-47.169	17.418	14504	16177	0	316
-52.470	16.120	14904	16949	0	316
-56.149	13.415	15304	17723	0	316
-57.988	12.622	15704	18254	0	316
-62.676	12.117	15984	18554	0	316
-65.128	10.422	16304	18774	0	316
-68.265	10.314	16664	19097	0	316
-71.223	10.746	17184	19628	0	316
-72.917	11.684	17784	20240	0	316
-75.514	12.117	18264	20771	0	316
-78.723	13.091	18784	21095	0	316
-82.005	15.507	19384	21256	0	316
-84.746	16.048	19864	21326	0	316
-84.782	18.031	20184	21233	0	316
-85.287	18.428	20464	20933	0	316
-84.926	17.851	20664	20425	0	316
-83.592	17.346	20664	19802	0	316
-85.179	17.815	20864	19190	1	456
-85.503	18.428	20984	18612	0	456
-86.008	19.473	20864	18046	0	456
-87.414	21.241	20864	17400	0	456
-87.919	23.945	20384	16441	0	456
-90.624	25.856	20184	15253	0	456
-92.824	26.542	19664	14156	0	456
-97.476	22.647	19264	13382	0	456
-98.810	18.824	18864	12828	0	456
-100.865	14.749	18384	12251	0	456
-101.010	13.379	17864	11581	0	456
-98.269	11.107	17464	11027	0	456
-96.250	9.737	17064	10772	0	456
-94.987	5.734	16664	10830	0	456
-95.276	2.741	16384	10992	0	456
-96.790	3.714	16104	11073	0	456
-96.718	6.058	15784	11188	0	456
-97.115	10.530	15704	11465	0	456
-95.096	13.054	15384	11754	0	456
-94.843	15.218	15184	11973	0	456
-96.286	16.661	14984	12297	0	456
-99.243	17.706	14904	12863	0	456
-103.029	19.365	15184	13636	0	456
-107.465	19.582	15304	14641	0	456
-107.465	19.654	15584	15738	0	456
-106.383	19.113	15904	16580	0	456
-104.364	19.726	16104	17180	0	456
-103.967	19.077	16304	17654	0	456
-107.285	17.490	16384	17977	0	456
-113.848	15.110	16464	18093	0	456
-121.313	12.982	16584	18150	0	456
-127.083	9.160	16664	18266	0	456
-132.348	7.537	16784	18416	0	456
-137.577	3.354	16984	18543	0	456
-140.642	0.325	17064	18670	0	456
-143.887	-3.606	17264	18762	0	456
-145.871	-4.724	17264	18808	0	456
-145.078	-1.659	17464	18774	0	456
-143.130	3.101	17464	18554	0	456
-140.786	8.439	17464	18220	0	456
-138.262	11.540	17464	18023	0	456
-136.928	10.746	17664	18023	0	456
-137.072	9.232	17664	17954	0	456
-134.583	7.825	17384	17538	0	456
-133.249	7.681	17184	16834	0	456
-130.112	10.530	16984	16211	0	456
-126.938	14.605	16784	15819	0	456
-124.666	20.050	16584	15542	0	456
-120.195	24.450	16184	15114	0	456
-115.579	27.047	15784	14433	0	456
-110.242	26.145	15504	13936	0	456
-106.419	24.486	15304	13960	0	456
-102.308	22.467	15384	14387	0	456
-98.341	20.988	15384	14918	0	456
-94.374	20.519	15584	15380	0	456
-89.578	21.241	15784	15865	0	456
-86.946	22.899	15984	16384	0	456
-86.441	24.125	16304	16880	0	456
-84.349	26.073	16464	17250	0	456
-84.169	24.991	16584	17480	0	456
-81.248	22.647	16784	17642	0	456
-79.481	20.736	16984	17885	0	456
-76.632	18.860	17384	18312	0	456
-75.802	16.949	17664	18751	0	456
-74.288	16.372	17864	18970	0	456
-74.468	14.605	18184	19028	0	456
-74.107	14.389	18384	19120	0	456
-74.360	13.343	18784	19340	0	456
-72.196	13.127	19184	19571	0	456
-70.682	14.172	19464	19582	0	456
-67.364	13.704	19464	19351	0	456
-63.902	15.543	19664	19062	0	456
-57.880	19.437	19864	18820	0	456
-53.083	23.765	19864	18624	0	456
-47.530	27.768	20184	18358	0	456
-47.638	29.931	20184	18000	0	456
-51.749	25.532	20064	17619	0	456
-56.581	17.670	20264	17261	0	456
-58.997	11.684	20184	16903	0	456
-53.913	11.035	20064	16511	0	456
-43.455	16.048	19984	16084	0	456
-34.656	22.431	19864	15622	0	456
-31.374	22.106	19584	15080	0	456
-34.259	16.120	19264	14525	0	456
-38.514	7.104	18984	14063	0	456
-41.760	3.029	18864	13763	0	456
-40.498	5.842	18584	13625	0	456
-40.029	10.710	18384	13498	0	456
-43.960	12.225	17984	13221	0	456
-47.133	6.239	17784	12920	0	456
-49.189	-2.308	17584	12839	0	456
-47.277	-9.232	17464	13013	0	456
-40.858	-8.835	17264	13255	0	456
-36.567	-5.517	17184	13348	0	456
-36.098	-2.308	16864	13382	0	456
-37.577	-1.947	16664	13509	0	456
-38.406	-3.570	16584	13694	0	456
-34.115	-5.409	16384	13809	0	456
-27.912	-3.065	16104	13775	0	456
-20.087	-0.397	15904	13786	0	456
-15.759	1.154	15784	14029	0	456
-17.093	1.442	15784	14572	0	456
-21.132	0.252	15984	15195	0	456
-23.801	-0.144	15984	15622	0	456
-26.470	2.633	15904	15865	0	456
-25.532	5.445	15984	16096	0	456
-26.578	10.783	15984	16384	0	456
-26.253	10.783	15984	16614	0	456
-28.453	9.232	15784	16626	0	456
-25.748	5.554	15384	16246	0	456
-21.457	4.400	14904	15507	0	456
-15.182	4.183	14704	14953	0	456
-13.992	4.580	14384	14860	0	456
-16.012	5.626	14104	14964	0	456
-25.532	5.806	14104	15149	0	456
-33.682	5.193	13904	15322	0	456
-40.462	5.085	13704	15288	0	456
-41.688	5.373	13304	15057	0	456
-42.337	5.914	13104	14918	0	456
-41.976	7.321	12984	15022	0	456
-42.445	11.720	12704	15149	0	456
-44.104	15.903	12304	15033	0	456
-40.894	18.428	12104	14756	0	456
-31.735	21.204	11784	14699	0	456
-18.103	25.135	11784	14999	0	456
-3.318	27.155	11784	15553	0	456
9.124	29.607	11784	16107	0	456
14.641	28.237	11904	16441	0	456
16.697	26.866	11904	16730	0	456
17.238	25.820	12104	17203	0	456
18.716	23.909	12384	17804	0	456
22.683	21.781	12384	18231	0	456
25.929	21.565	12504	18289	0	456
29.138	19.473	12584	18277	0	456
30.977	22.070	12584	18404	0	456
31.626	24.089	12584	18439	0	456
29.787	25.676	12584	18196	0	456
27.912	23.909	12504	17908	0	456
25.893	21.457	12504	17827	0	456
22.214	19.221	12784	17977	0	456
18.175	17.274	12904	18358	0	456
11.107	13.018	13304	18935	0	456
4.760	7.789	13784	19420	0	456
-1.190	5.914	14104	19755	0	456
-1.551	8.547	14504	20113	0	456
1.515	14.425	15104	20598	0	456
3.895	22.250	15704	21095	0	456
4.977	27.371	16104	21360	0	456
2.344	26.758	16584	21453	0	456
-0.505	25.893	17064	21511	0	456
-3.570	25.388	17584	21591	0	456
-3.498	26.109	18064	21626	0	456
-2.452	25.388	18464	21499	0	456
-1.623	24.847	18784	21245	0	456
0.685	25.856	18984	20818	0	456
4.111	29.174	18984	19963	0	456
9.665	35.088	18864	18774	1	624
14.966	40.570	18664	17723	0	624
21.529	45.005	18584	16984	0	624
22.972	44.392	18464	16395	0	624
23.801	44.176	18464	15923	0	624
22.178	43.383	18464	15542	0	624
19.113	42.517	18384	15264	0	624
15.074	40.894	18384	15080	0	624
11.864	37.180	18584	15080	0	624
7.140	33.249	18584	15045	0	624
4.400	28.850	18584	14849	0	624
1.479	25.388	18464	14652	0	624
-1.911	22.647	18384	14560	0	624
-5.373	18.572	18384	14410	0	624
-8.475	15.507	18184	14167	0	624
-8.006	13.559	18064	13948	0	624
-6.852	14.677	17984	13821	0	624
-0.974	16.805	17864	13809	0	624
4.039	19.906	17864	13960	0	624
9.376	20.627	17864	14214	0	624
10.963	19.654	17984	14421	0	624
10.242	18.969	17984	14595	0	624
8.078	18.933	18184	14906	0	624
7.537	21.854	18384	15449	0	624
8.979	24.522	18584	16073	0	624
14.172	25.424	18784	16487	0	624
17.526	26.938	19064	16718	0	624
19.978	27.263	19264	16938	0	624
17.851	29.174	19584	17226	0	624
13.199	30.905	19584	17492	0	624
6.275	33.898	19784	17573	0	624
3.606	33.249	19984	17515	0	624
0.000	30.364	19864	17411	0	624
0.361	25.568	20064	17250	0	624
-1.010	19.582	20064	17042	0	624
-2.633	13.523	19864	16684	0	624
-6.022	10.386	19464	16061	0	624
-7.429	10.206	19064	15184	0	624
-5.229	12.658	18584	14248	0	624
-3.859	14.208	17984	13371	0	624
-3.678	16.192	17584	12805	0	624
-3.931	13.812	17184	12655	0	624
-5.662	11.828	16984	12643	0	624
-7.212	8.439	16464	12412	0	624
-7.357	5.445	15904	12031	0	624
-8.078	5.049	15784	11893	0	624
-10.891	2.596	15504	12227	0	624
-15.398	1.298	15384	12863	0	624
-15.867	1.154	15304	13405	0	624
-13.343	3.029	15104	13706	0	624
-10.746	5.445	15104	14098	0	624
-7.970	10.386	15304	14791	0	624
-8.006	11.828	15584	15715	0	624
-10.891	13.956	15904	16626	0	624
-12.045	14.353	16104	17365	0	624
-12.189	13.163	16384	17954	0	624
-11.251	10.566	16784	18554	0	624
-12.441	9.701	17184	19213	0	624
-13.559	6.455	17464	19744	0	624
-15.831	5.806	17784	20021	0	624
-18.969	4.724	18184	20148	0	624
-23.044	2.993	18464	20333	0	624
-24.739	1.298	18784	20691	0	624
-23.729	1.731	19264	21060	0	624
-19.365	4.219	19664	21199	0	624
-11.107	6.563	19984	21060	0	624
-3.678	8.475	20184	20818	0	624
-0.144	8.222	20464	20575	0	624
-0.361	7.717	20584	20321	0	624
-1.190	8.907	20864	19917	0	624
-3.534	10.314	20984	19432	0	624
-0.757	13.776	20984	19074	0	624
3.606	18.067	21264	18889	0	624
11.071	19.654	21384	18728	0	624
15.110	21.781	21584	18508	0	624
17.346	23.621	21584	18231	0	624
17.923	22.358	21784	17758	0	624
17.238	24.594	21464	16903	0	624
18.824	25.604	20984	15819	0	624
22.178	27.912	20784	14941	0	624
24.414	28.056	20384	14410	0	624
27.551	26.578	20184	13948	0	624
28.092	23.801	19784	13278	0	624
26.433	20.808	19184	12470	0	624
25.027	19.041	18664	11846	0	624
21.277	18.644	18384	11581	0	624
20.808	21.060	18064	11512	0	624
21.385	22.286	17584	11350	0	624
22.070	21.926	17064	11003	0	624
23.224	22.611	16664	10842	0	624
22.431	20.591	16384	11107	0	624
21.637	19.582	16304	11650	0	624
21.493	18.860	16184	12216	0	624
20.555	16.625	15984	12620	0	624
21.313	13.451	15904	12966	0	624
21.024	12.658	15784	13394	0	624
21.818	14.930	15704	13775	0	624
24.342	21.060	15504	13971	0	624
26.830	29.499	15184	14052	0	624
27.155	33.393	14984	14248	0	624
25.965	34.944	14984	14699	0	624
21.781	31.590	15304	15461	0	624
17.238	26.650	15504	16407	0	624
13.343	23.729	15784	17296	0	624
11.504	22.106	16104	18012	0	624
13.559	23.837	16384	18601	0	624
15.290	27.443	16664	19190	0	624
16.949	28.489	17064	19721	0	624
15.435	30.004	17384	20067	0	624
11.828	30.076	17464	20194	0	624
8.402	32.239	17784	20240	0	624
7.862	34.764	17984	20252	0	624
8.258	34.403	18264	20240	0	624
5.770	30.797	18464	20194	0	624
-0.577	22.755	18664	20113	0	624
-6.563	16.444	18784	20009	0	624
-10.314	14.028	19064	19894	0	624
-6.563	14.749	19264	19755	0	624
-1.010	17.887	19264	19478	0	624
3.101	18.175	19184	18959	0	624
3.426	17.129	19064	18208	0	624
0.902	14.821	18784	17226	0	624
-2.921	12.441	18384	16107	0	624
-5.950	9.773	17864	15126	0	624
-7.573	9.124	17584	14502	0	624
-5.662	10.819	17184	14156	0	624
-4.796	13.884	16864	13740	0	624
-3.498	17.238	16384	13163	0	624
-5.193	18.897	15984	12747	0	624
-7.609	17.598	15984	12724	0	624
-7.321	15.218	15784	13001	0	624
-0.469	16.012	15704	13405	0	624
11.107	19.654	15704	13775	0	624
25.027	25.424	15704	14121	0	624
33.646	29.679	15784	14629	0	624
37.865	29.787	15984	15403	0	624
35.593	25.640	16304	16223	0	624
31.662	19.726	16464	16799	0	624
27.083	14.461	16664	17169	0	624
26.253	12.514	16984	17527	0	624
23.729	12.874	17264	18000	0	624
20.087	11.900	17664	18531	0	624
12.117	10.206	17864	18924	0	624
5.265	4.039	18264	19178	0	624
0.902	1.875	18664	19444	0	624
1.082	3.534	19064	19744	0	624
4.544	10.999	19384	19986	0	624
7.934	18.608	19584	20044	0	624
7.176	23.693	19984	19952	0	624
3.065	25.568	20264	19836	0	624
0.072	23.729	20384	19674	0	624
-3.210	23.080	20584	19432	0	624
-6.996	22.106	20664	19062	1	608
-7.393	23.296	20664	18635	0	608
-8.691	24.270	20664	18127	0	608
-10.169	28.020	20264	17342	0	608
-11.143	32.312	20064	16327	0	608
-15.723	33.466	19784	15403	0	608
-20.303	34.980	19384	14779	0	608
-22.791	34.367	19064	14283	0	608
-23.332	34.151	18664	13740	0	608
-22.935	32.925	18384	13140	0	608
-27.047	28.886	17984	12724	0	608
-35.990	23.260	17784	12655	0	608
-45.041	18.067	17664	12863	0	608
-49.874	16.589	17464	13105	0	608
-47.674	17.743	17264	13163	0	608
-44.789	18.680	17184	13221	0	608
-46.051	16.048	17064	13440	0	608
-51.605	11.287	17064	13786	0	608
-58.601	6.275	17064	14202	0	608
-63.938	3.318	17184	14595	0	608
-61.269	7.068	17184	14987	0	608
-55.572	11.179	17384	15495	0	608
-47.999	14.208	17584	16200	0	608
-44.068	16.805	17864	16915	0	608
-42.409	15.507	18064	17388	0	608
-44.068	13.235	18384	17654	0	608
-44.753	12.838	18584	17954	0	608
-41.868	14.785	18864	18381	0	608
-37.685	18.139	19064	18785	0	608
-30.761	21.781	19264	18970	0	608
-27.551	25.171	19584	19062	0	608
-25.460	28.020	19864	19178	0	608
-24.883	30.256	20064	19340	0	608
-26.361	32.600	20584	19513	0	608
-29.535	31.915	20864	19651	0	608
-37.613	27.083	21064	19732	0	608
-47.133	17.706	21384	19674	0	608
-56.834	10.097	21384	19374	0	608
-60.151	6.311	21384	18843	0	608
-57.086	10.422	21464	18254	0	608
-50.487	16.264	21264	17688	0	608
-46.087	20.411	21184	17088	0	608
-45.871	17.815	20664	16223	0	608
-51.244	10.314	20264	15184	0	608
-54.093	1.046	19984	14352	0	608
-55.536	-3.426	19464	13844	0	608
-53.552	-4.832	19264	13532	0	608
-51.316	-2.019	19184	13417	0	608
-52.651	-1.515	18864	13417	0	608
-54.237	0.829	18664	13394	0	608
-51.497	3.426	18584	13255	0	608
-45.691	9.124	18184	13140	0	608
-36.928	12.153	17984	13094	0	608
-31.446	14.641	17864	13151	0	608
-33.249	11.792	17664	13428	0	608
-37.865	7.681	17784	13925	0	608
-42.301	8.439	17784	14421	0	608
-39.993	13.812	17864	14872	0	608
-32.600	21.096	17864	15230	0	608
-25.676	26.578	17864	15495	0	608
-22.719	27.660	17984	15761	0	608
-23.512	25.640	18064	16177	0	608
-26.181	24.198	18264	16684	0	608
-26.722	24.630	18264	17053	0	608
-23.981	28.164	18584	17273	0	608
-21.168	28.777	18664	17550	0	608
-20.988	25.929	18984	17965	0	608
-26.109	20.880	19184	18381	0	608
-30.112	15.507	19264	18577	0	608
-35.124	11.828	19464	18554	0	608
-38.911	10.999	19584	18439	0	608
-41.543	11.828	19584	18312	0	608
-45.114	11.107	19664	18150	0	608
-46.376	12.838	19664	17896	0	608
-45.186	14.569	19584	17561	0	608
-40.389	17.310	19384	17203	0	608
-35.629	19.293	19384	16880	0	608
-32.023	18.428	19264	16626	0	608
-32.456	16.913	19184	16395	0	608
-32.492	16.516	18984	16177	0	608
-32.167	17.562	18784	15807	0	608
-31.266	20.736	18384	15137	0	608
-30.076	22.899	17864	14294	0	608
-29.138	23.729	17384	13659	0	608
-30.328	20.952	17064	13382	0	608
-34.403	19.870	16864	13336	0	608
-35.593	18.139	16464	13209	0	608
-33.898	20.231	16104	12897	0	608
-28.814	25.424	15704	12666	0	608
-22.142	30.328	15504	12770	0	608
-20.087	31.626	15384	13221	0	608
-24.883	27.515	15304	13763	0	608
-34.980	17.093	15304	14179	0	608
-43.563	9.629	15184	14502	0	608
-45.294	8.979	15184	14953	0	608
-42.012	12.297	15304	15495	0	608
-38.658	16.552	15304	16003	0	608
-41.940	14.353	15504	16338	0	608
-46.989	8.042	15504	16603	0	608
-52.398	2.272	15584	17030	0	608
-50.775	4.364	15984	17688	0	608
