neuroNicle FX2
D3F25R0
Bluetooth SPP
2023년 3월 30일 목요일
오후 2:42
time interval = 4msec
EEG1	EEG2	PPG	sdPPG	pulse	peak_interval(msec)
-6.022	1.442	16463	14873	0	580
8.078	16.769	16463	15105	0	580
24.270	33.754	16497	15454	0	580
32.384	42.084	16497	15919	0	580
30.436	39.524	16497	15919	0	580
17.274	29.030	16497	15919	0	580
8.583	22.683	16497	15919	0	580
5.337	20.591	16497	15919	0	580
9.052	23.873	16463	15803	0	580
11.828	26.758	16497	15687	0	580
10.783	21.962	16497	15687	0	580
2.921	15.002	16497	15687	0	580
0.252	10.169	16497	15919	0	580
2.524	10.819	16497	16152	0	580
6.455	13.271	16497	16384	0	580
6.167	14.064	16497	16384	0	580
3.642	12.514	16497	16384	0	580
-3.137	7.970	16497	16152	0	580
-5.481	6.924	16497	15687	0	580
-4.832	9.953	16497	15105	0	580
-2.200	14.497	16497	14524	0	580
-1.551	14.533	16497	14291	0	580
-4.147	12.694	16497	14291	0	580
-6.563	7.825	16463	14291	0	580
-5.986	2.885	16463	14175	0	580
-3.534	4.183	16463	14059	0	580
0.072	4.724	16440	14059	0	580
1.623	5.950	16440	14059	0	580
-1.839	3.714	16406	13826	0	580
-4.904	-0.144	16406	13245	0	580
-8.511	-4.436	16384	12431	0	580
-8.366	-4.760	16362	11733	0	580
-4.003	-3.895	16362	11036	0	580
-0.288	0.180	16328	10803	0	580
4.616	4.580	16328	10803	0	580
7.104	8.691	16305	11036	0	580
8.583	12.405	16328	11384	0	580
9.665	13.451	16305	11733	0	580
11.540	14.894	16305	12082	0	580
12.802	15.218	16305	12547	0	580
11.612	14.100	16271	13012	0	580
8.835	13.812	16271	13361	0	580
2.813	9.845	16249	13594	0	580
-1.118	4.327	16249	13710	0	580
-2.957	0.216	16249	14059	0	580
-1.370	-2.128	16215	14175	0	580
1.875	-0.397	16215	14291	0	580
2.921	0.469	16215	14757	0	580
-1.082	0.433	16192	15338	0	580
-6.635	-3.101	16249	15919	0	580
-11.828	-7.104	16215	16268	0	580
-11.179	-9.556	16215	16616	0	580
0.974	-4.904	16215	17081	0	580
17.923	5.301	16215	17663	0	580
31.122	16.589	16192	17895	0	580
33.754	24.522	16192	18011	0	580
27.984	20.195	16192	18128	0	580
19.005	10.963	16192	18360	0	580
18.392	0.865	16215	18709	0	580
20.483	-2.019	16215	18942	0	580
23.404	0.036	16215	19174	0	580
19.510	-0.541	16215	19407	0	580
9.556	-4.508	16215	19988	0	580
3.101	-12.946	16249	20570	0	580
0.036	-18.356	16249	21151	0	580
-0.325	-17.634	16249	21500	0	580
0.036	-14.858	16271	21500	0	580
-3.570	-12.225	16271	21267	0	580
-3.859	-10.061	16271	20918	0	580
-1.515	-10.097	16305	20570	0	580
3.354	-7.789	16328	20221	0	580
8.691	-3.859	16305	19872	0	580
10.494	-1.479	16305	19407	0	580
7.898	1.731	16305	18709	0	580
3.606	4.904	16271	18011	0	580
2.308	6.527	16271	17663	0	580
4.183	8.330	16271	17546	0	580
6.058	7.321	16305	17546	0	580
6.888	5.085	16305	17779	0	580
4.796	0.865	16305	18011	0	580
2.200	-2.488	16305	18244	0	580
0.541	-2.524	16328	18593	0	580
0.288	-1.334	16328	18709	0	580
0.577	-1.334	16328	18825	0	580
-1.046	-1.911	16362	18942	0	580
-1.298	-5.662	16362	19058	0	580
-2.308	-10.314	16362	19174	0	580
-1.154	-10.819	16384	19174	0	580
0.649	-10.602	16384	18825	0	580
0.865	-8.186	16384	18244	0	580
2.452	-4.364	16384	17430	0	580
4.219	-1.262	16362	16732	0	580
5.121	1.911	16384	16384	0	580
3.029	1.911	16384	16384	0	580
-0.433	-1.082	16384	16732	0	580
-4.904	-5.986	16384	16965	0	580
-8.511	-8.042	16384	16849	0	580
-7.393	-5.842	16406	16732	0	580
-4.039	-1.515	16406	16384	0	580
0.072	4.940	16384	15919	0	580
3.750	5.013	16384	15105	0	580
4.940	2.596	16384	14524	0	580
4.327	-0.361	16384	14291	0	580
3.426	-2.813	16384	14175	0	580
3.823	-2.849	16384	14175	0	580
3.462	-1.046	16384	14408	0	580
4.183	1.983	16384	14408	0	580
3.462	5.554	16384	14291	0	580
1.046	9.196	16362	14059	0	580
0.613	10.746	16362	14059	0	580
-0.757	8.475	16362	14408	0	580
-2.452	2.596	16384	14989	0	580
-1.406	-4.724	16384	15571	0	580
-2.164	-6.708	16384	16152	0	580
-2.019	-5.698	16406	16616	0	580
0.433	-0.469	16406	17314	0	580
1.334	0.974	16440	18011	0	580
-0.252	0.505	16440	18593	0	580
-1.731	-3.354	16440	18825	0	580
-2.705	-4.255	16463	18825	0	580
-2.849	-2.813	16463	18593	0	580
-4.075	-1.154	16463	18593	0	580
-6.635	-1.803	16463	18709	0	580
-8.691	-7.681	16497	18942	0	580
-11.107	-11.287	16497	19174	0	580
-5.013	-9.520	16519	19407	0	580
6.383	0.541	16519	19407	0	580
15.867	10.133	16519	19058	0	580
20.014	15.290	16519	18825	0	580
13.848	10.999	16553	18477	0	580
6.167	0.613	16519	18128	0	580
1.190	-4.580	16519	17663	0	580
3.065	-0.793	16519	17197	0	580
7.609	5.554	16519	16616	0	580
7.825	10.242	16519	16152	0	580
2.993	8.366	16519	15454	0	580
-3.282	0.144	16519	14757	0	580
-2.308	-4.832	16519	14524	0	580
1.875	-1.370	16519	14408	0	580
8.294	3.029	16519	14291	0	580
12.477	9.701	16519	14175	0	580
10.999	8.835	16519	13943	0	580
7.068	2.308	16497	13943	0	580
6.167	-1.010	16497	13826	0	580
5.806	-2.669	16497	13826	0	580
5.337	-0.613	16497	13943	0	580
2.885	0.793	16497	14059	0	580
-1.442	-1.262	16497	14059	0	580
-7.645	-6.094	16497	14408	0	580
-9.809	-7.934	16497	14873	0	580
-10.494	-5.842	16497	15222	0	580
-5.986	0.397	16497	15338	0	580
-2.524	4.039	16497	15338	0	580
0.144	7.645	16463	15338	0	580
0.757	6.058	16497	15338	0	580
-1.875	2.560	16497	15338	0	580
-4.255	-0.108	16463	15571	0	580
-5.554	-1.695	16463	15803	0	580
-4.075	-1.082	16463	16036	0	580
-1.154	0.036	16463	16036	0	580
-0.036	1.767	16463	16036	0	580
-1.046	0.108	16463	16036	0	580
-1.839	-2.164	16463	16268	0	580
-1.298	-0.144	16497	16384	0	580
1.154	3.246	16497	16384	0	580
3.750	9.665	16463	16152	0	580
7.032	14.281	16463	15687	0	580
5.265	15.867	16463	15338	0	580
1.118	9.845	16440	14757	0	580
-2.488	2.957	16440	14059	0	580
-7.537	-1.767	16406	13361	0	580
-8.150	-5.157	16406	12547	0	580
-7.609	-2.885	16384	11733	0	580
-4.219	0.577	16362	11268	0	580
-0.649	2.993	16362	11268	0	580
1.875	3.534	16362	11733	0	580
1.442	3.823	16328	12547	0	580
-0.180	2.488	16328	13129	0	580
-2.777	-0.613	16328	13478	0	580
-4.796	-3.534	16328	14059	0	580
-3.101	-4.400	16328	14757	0	580
1.226	-3.534	16328	15454	0	580
5.950	0.865	16328	16152	0	580
8.871	4.327	16328	16616	0	580
11.576	9.196	16328	17081	0	580
14.353	12.586	16328	17430	0	580
12.441	13.054	16328	17895	0	580
9.701	10.891	16362	18360	0	580
8.258	7.898	16362	18593	0	580
11.756	9.124	16362	18709	0	580
23.981	19.437	16362	18825	0	580
41.976	36.891	16362	18825	0	580
54.490	47.782	16362	18709	0	580
54.345	49.116	16362	18593	0	580
43.058	36.062	16362	18477	0	580
32.131	22.034	16362	18477	0	580
22.755	13.992	16362	18244	1	868
20.411	15.579	16328	17663	0	868
20.375	17.418	16328	17081	0	868
14.425	17.706	16328	16732	0	868
10.530	12.730	16328	16500	0	868
7.573	6.455	16305	16384	0	868
7.140	4.760	16305	16152	0	868
8.366	4.147	16328	15687	0	868
6.960	3.570	16305	15222	0	868
5.121	1.262	16328	14989	0	868
4.904	0.541	16305	15105	0	868
6.996	0.865	16305	15338	0	868
10.169	4.291	16305	15571	0	868
13.776	7.212	16305	16036	0	868
14.497	8.871	16305	16500	0	868
12.910	10.602	16305	17081	0	868
14.425	12.297	16328	17663	0	868
14.461	12.153	16328	18011	0	868
17.202	13.127	16328	18477	0	868
16.264	10.242	16328	18942	0	868
14.605	7.501	16362	19407	0	868
10.458	4.688	16362	19639	0	868
5.554	4.652	16384	19988	0	868
4.364	2.560	16384	20570	0	868
3.895	1.623	16406	21151	0	868
2.885	-0.685	16406	21384	0	868
1.298	-2.921	16440	21384	0	868
0.974	-3.462	16440	21035	0	868
-0.036	-3.029	16440	20337	0	868
-1.659	-1.587	16440	19639	0	868
-1.803	-0.721	16440	19174	0	868
-0.757	0.144	16440	18709	0	868
0.072	1.370	16440	18128	0	868
5.265	5.626	16440	17546	0	868
8.727	8.763	16463	17197	0	868
9.124	8.835	16463	17081	0	868
7.717	7.753	16463	17081	0	868
4.544	4.760	16463	17081	0	868
2.524	3.426	16463	17081	0	868
1.695	3.426	16497	16965	0	868
1.118	3.426	16497	16965	0	868
-1.118	0.685	16463	16732	0	868
-1.587	-4.075	16463	16500	0	868
-1.190	-6.239	16463	16384	0	868
1.839	-8.078	16497	16384	0	868
4.580	-5.626	16497	16384	0	868
5.698	-4.147	16497	16268	0	868
4.832	-1.911	16497	16036	0	868
1.911	0.829	16497	15571	0	868
1.442	3.101	16497	14873	0	868
-1.334	2.380	16463	14175	0	868
-4.724	-0.902	16463	13594	0	868
-4.832	-4.364	16463	13012	0	868
-3.750	-5.373	16440	12547	0	868
1.082	-0.216	16440	12082	0	868
6.419	6.419	16406	11617	0	868
7.176	10.855	16406	11036	0	868
3.570	10.386	16384	10571	0	868
-0.902	5.409	16362	9989	0	868
-3.426	0.757	16362	9640	0	868
-2.452	-1.839	16328	9524	0	868
-1.695	-3.606	16328	9640	0	868
-2.164	-4.580	16305	9989	0	868
-4.436	-9.052	16305	10222	0	868
-8.186	-9.376	16271	10803	0	868
-7.789	-8.547	16271	11501	0	868
-8.186	-6.491	16271	12431	0	868
-7.285	-3.823	16271	13943	0	868
-4.940	-3.101	16305	15454	0	868
-1.911	-3.173	16305	16616	0	868
2.164	0.974	16328	17895	0	868
6.131	4.904	16328	18942	0	868
4.580	8.114	16328	19756	0	868
0.902	5.626	16362	20453	0	868
-4.075	0.469	16362	20686	0	868
-7.537	-5.734	16362	20570	0	868
-7.970	-8.186	16362	20570	0	868
-8.439	-8.835	16362	20337	0	868
-9.124	-10.025	16362	20104	0	868
-9.737	-11.360	16384	19988	1	316
-8.330	-11.504	16384	19988	0	316
-6.058	-11.792	16384	19988	0	316
-4.147	-7.862	16384	19872	0	316
-1.659	-4.616	16384	19407	0	316
-2.885	-3.282	16384	18825	0	316
-4.652	-2.596	16384	18244	0	316
-5.806	-4.544	16384	17779	0	316
-5.626	-6.022	16384	17430	0	316
-5.806	-6.563	16384	16965	0	316
-2.957	-5.626	16362	16384	0	316
-1.875	-4.400	16362	16036	0	316
-1.911	-1.046	16362	15687	0	316
0.397	4.003	16362	15454	0	316
1.298	8.439	16362	15222	0	316
2.524	11.720	16362	15338	0	316
2.993	9.881	16384	15687	0	316
1.334	4.904	16384	15919	0	316
-0.938	-2.669	16384	15803	0	316
-1.911	-5.409	16362	15571	0	316
-0.469	-5.229	16362	15222	0	316
-2.633	-3.210	16362	14989	0	316
-4.364	-4.039	16362	14873	0	316
-8.691	-5.409	16362	15105	0	316
-9.737	-7.934	16362	15687	0	316
-4.977	-5.193	16362	16500	0	316
2.524	-0.577	16384	17314	0	316
8.222	4.436	16384	17779	0	316
9.160	7.248	16384	18011	0	316
7.248	5.842	16384	18128	0	316
3.498	4.868	16406	18011	0	316
3.642	4.688	16384	17779	0	316
4.291	4.291	16384	17430	0	316
3.354	3.606	16384	17197	0	316
-0.793	0.180	16384	16732	0	316
-4.111	-2.344	16384	16384	0	316
-5.373	-2.200	16384	16268	0	316
-5.193	-2.488	16384	16384	0	316
-2.200	0.577	16384	16384	0	316
-3.101	-1.046	16384	16384	0	316
-6.167	-3.246	16384	16384	0	316
-8.511	-5.121	16384	16268	0	316
-7.537	-3.678	16384	16036	0	316
-4.111	0.469	16384	15571	0	316
0.180	4.291	16362	15105	0	316
2.885	6.491	16384	14408	0	316
2.957	4.075	16328	13826	0	316
3.895	2.524	16328	13245	0	316
5.626	2.921	16305	13012	0	316
5.986	5.770	16305	12780	0	316
5.049	7.645	16305	12664	0	316
-334.728	-579.336	16218	0	0	16362
-3.642	-5.229	16362	16616	0	316
-2.164	-3.606	16362	15803	0	316
-1.298	-0.361	16362	15454	0	316
-1.442	3.282	16362	15454	0	316
-1.118	6.022	16362	15454	0	316
0.000	6.671	16362	15803	0	316
-1.190	2.849	16362	16152	0	316
-4.760	-1.623	16362	16384	0	316
-13.595	-6.816	16362	16384	0	316
-18.897	-7.645	16384	16384	0	316
-19.942	-0.325	16384	16268	0	316
-9.881	12.586	16384	16036	0	316
4.400	27.984	16384	15803	0	316
14.461	34.259	16384	15571	0	316
12.982	31.951	16384	15454	0	316
5.265	22.719	16384	15687	0	316
-4.868	16.913	16384	15919	0	316
-6.852	16.084	16384	15919	0	316
-3.823	20.267	16384	15803	0	316
-2.164	22.178	16384	15687	0	316
-3.895	19.365	16384	15454	0	316
-7.970	16.985	16384	15105	0	316
-8.114	14.858	16384	14873	0	316
-5.554	12.550	16384	14873	0	316
-0.433	12.261	16362	14873	0	316
0.108	8.042	16362	14757	0	316
-1.406	5.265	16362	14408	0	316
-3.931	4.183	16362	14059	0	316
-3.101	5.986	16328	13943	0	316
-2.272	9.665	16362	13826	0	316
-1.659	10.458	16328	13826	0	316
-5.085	7.140	16305	13826	0	316
-11.396	1.839	16305	13943	0	316
-16.877	-5.770	16305	14059	0	316
-19.401	-9.124	16305	14291	0	316
-15.831	-8.835	16305	14640	0	316
-13.235	-7.465	16305	15338	0	316
-9.592	-6.563	16305	16268	0	316
-11.071	-5.481	16305	16849	0	316
-12.694	-5.229	16328	17314	0	316
-11.035	-5.121	16328	17663	0	316
-7.176	-5.157	16328	18011	0	316
-2.272	-4.183	16328	18360	0	316
2.164	-3.282	16328	18825	0	316
3.570	0.757	16362	19290	0	316
1.334	5.049	16362	19756	0	316
1.515	7.321	16362	19872	0	316
0.180	4.508	16384	19756	0	316
-1.082	1.983	16384	19756	0	316
-0.252	-1.154	16384	19523	0	316
0.721	-2.488	16384	19058	0	316
0.252	-0.216	16384	18593	0	316
-0.433	0.757	16384	18244	0	316
0.793	0.144	16384	18011	1	544
2.128	0.505	16384	17663	0	544
3.282	1.839	16384	17546	0	544
4.472	2.452	16384	17314	0	544
2.705	2.596	16384	17197	0	544
-1.082	-0.541	16384	17197	0	544
-3.714	-5.445	16406	17546	0	544
-5.085	-9.304	16406	17779	0	544
-3.390	-9.088	16406	17779	0	544
-1.515	-5.481	16406	17430	0	544
-1.551	-1.623	16406	17314	0	544
-1.695	-0.036	16440	17314	0	544
-1.803	0.252	16440	17197	0	544
-0.974	-0.938	16440	17197	0	544
2.056	-1.190	16440	17314	0	544
4.616	-0.361	16463	17663	0	544
2.596	-0.144	16463	17895	0	544
1.803	-0.685	16463	18128	0	544
-2.741	-4.688	16497	18128	0	544
-10.927	-11.035	16497	17779	0	544
-17.310	-18.031	16497	17314	0	544
-20.591	-26.433	16497	17081	0	544
-14.749	-25.640	16463	16732	0	544
4.760	-14.317	16497	16384	0	544
22.286	0.469	16497	15919	0	544
31.915	14.389	16463	15454	0	544
27.263	15.651	16463	15105	0	544
15.687	7.393	16463	14757	0	544
9.448	-2.669	16463	14640	0	544
11.071	-9.268	16440	14291	0	544
14.569	-8.294	16440	13826	0	544
17.021	-6.275	16440	13594	0	544
11.828	-5.806	16440	13594	0	544
6.852	-5.409	16440	13826	0	544
5.265	-5.914	16440	14175	0	544
6.780	-2.200	16440	14291	0	544
6.203	-0.793	16440	14059	0	544
4.291	-3.318	16440	13826	0	544
-0.252	-7.104	16406	13710	0	544
-3.967	-11.179	16406	13943	0	544
-2.813	-11.720	16406	14291	0	544
0.649	-8.186	16406	14640	0	544
4.688	-1.875	16406	14873	0	544
8.294	0.829	16406	15222	0	544
7.645	-1.370	16406	15454	0	544
4.183	-9.088	16406	15687	0	544
-0.288	-13.523	16406	15687	0	544
-3.859	-19.149	16406	15571	0	544
-4.724	-16.156	16406	15571	0	544
-4.255	-12.297	16406	15803	0	544
-4.580	-9.448	16406	15687	0	544
-5.770	-7.970	16406	15687	0	544
-6.455	-10.855	16406	15687	0	544
-4.868	-11.973	16406	15687	0	544
-2.596	-9.232	16406	15687	0	544
0.361	-5.662	16406	16036	0	544
0.974	-2.488	16406	16384	0	544
-0.108	-0.793	16406	16500	0	544
-0.721	-1.082	16406	16616	0	544
-0.072	-3.426	16406	16732	0	544
1.442	-3.210	16406	16500	0	544
1.082	-2.452	16384	16268	0	544
-0.902	-1.695	16384	15803	0	544
-1.659	-0.325	16384	15338	0	544
-3.318	1.118	16362	15222	0	544
-2.813	1.262	16362	15338	0	544
-2.596	-0.685	16362	15454	0	544
-4.832	-5.626	16362	15687	0	544
-5.878	-8.186	16362	15919	0	544
-8.330	-9.809	16362	16152	0	544
-7.717	-10.097	16362	16268	0	544
-7.032	-8.871	16362	16268	0	544
-8.294	-7.573	16362	15919	0	544
-7.681	-6.527	16328	15454	0	544
-7.934	-4.652	16328	15222	0	544
-7.537	-1.442	16328	15222	0	544
-8.222	-1.623	16328	15222	0	544
-10.206	-5.662	16305	15222	0	544
-10.783	-10.350	16305	15222	0	544
-6.816	-11.648	16305	15222	0	544
1.190	-9.701	16305	15105	0	544
8.402	-4.904	16271	15222	0	544
6.239	-1.082	16271	15687	0	544
1.515	-2.236	16271	16152	0	544
-4.147	-3.967	16271	16384	0	544
-1.406	-3.390	16271	16500	0	544
4.327	1.479	16271	16732	0	544
10.674	6.058	16271	16849	0	544
7.140	4.940	16305	16849	0	544
-0.108	2.056	16305	16616	0	544
-4.868	-3.246	16328	16384	0	544
-7.032	-7.429	16271	16268	0	544
-8.511	-9.592	16271	16036	0	544
-9.520	-10.350	16271	15803	0	544
-10.458	-10.855	16249	15571	0	544
-12.153	-7.681	16249	15222	0	544
-8.655	-5.445	16215	14989	0	544
-2.344	-2.488	16215	14640	0	544
-0.793	-3.787	16215	14291	0	544
-0.288	-6.960	16192	14175	0	544
-1.298	-9.160	16215	14175	0	544
-2.669	-6.996	16192	14175	0	544
-2.056	-4.508	16192	14059	0	544
0.721	-1.082	16158	14175	0	544
2.272	0.216	16158	14640	0	544
1.551	-1.118	16158	15454	0	544
-1.334	-1.983	16158	16152	0	544
-3.895	-4.111	16158	16616	0	544
-3.137	-1.659	16215	17081	0	544
-1.406	-0.180	16215	17663	0	544
1.190	1.118	16215	18360	0	544
1.118	2.164	16215	19058	0	544
-0.757	1.226	16215	19756	0	544
-1.731	-0.541	16249	20337	0	544
-2.452	-0.829	16249	20918	0	544
-2.705	0.361	16249	21151	0	544
-2.164	0.469	16271	21267	0	544
-3.967	1.659	16271	21384	0	544
-4.327	0.757	16271	21384	0	544
-4.111	-1.046	16328	21384	0	544
-2.957	-5.373	16328	21267	0	544
-1.154	-4.111	16328	21035	0	544
-1.839	-1.298	16328	20570	0	544
-1.046	3.570	16328	19988	0	544
-0.685	7.609	16328	19407	1	496
0.577	8.439	16328	18942	0	496
3.318	5.698	16328	18477	0	496
4.508	2.993	16328	17779	0	496
3.642	1.803	16328	16732	0	496
-0.108	1.767	16328	16152	0	496
-3.390	-1.154	16305	15571	0	496
-6.708	-4.003	16305	15222	0	496
-9.412	-5.986	16305	14873	0	496
-10.025	-6.167	16305	14524	0	496
-10.097	-1.875	16305	14408	0	496
-6.780	3.210	16305	14873	0	496
-2.957	8.042	16305	15454	0	496
0.649	9.484	16305	16268	0	496
2.128	7.248	16328	16965	0	496
0.721	6.311	16328	17430	0	496
1.515	6.635	16362	17779	0	496
2.236	9.016	16362	18128	0	496
3.714	8.979	16362	18244	0	496
3.462	7.717	16362	18244	0	496
1.551	3.823	16406	18128	0	496
0.541	2.380	16384	18360	0	496
1.659	3.931	16384	18477	0	496
0.757	3.498	16362	17430	0	316
-1.911	-0.469	16362	18128	0	316
-7.248	-7.934	16384	18942	0	316
-9.376	-16.949	16384	19523	0	316
-9.701	-22.827	16406	20104	0	316
-7.357	-21.709	16406	20453	0	316
-5.085	-12.838	16406	20453	0	316
-5.590	-6.708	16440	20337	0	316
-9.953	-2.813	16440	20221	0	316
-14.461	-5.770	16440	19988	0	316
-19.473	-11.468	16440	19872	0	316
-17.490	-10.710	16463	19756	0	316
-16.012	-8.078	16463	19174	0	316
-14.317	-6.455	16440	18593	0	316
-17.995	-8.727	16440	18011	0	316
-19.185	-11.684	16440	17546	0	316
-18.897	-14.605	16440	17314	0	316
-15.398	-10.927	16440	17197	0	316
-9.520	-2.813	16440	16965	0	316
-6.780	-0.180	16440	16732	0	316
-5.986	-1.767	16440	16500	0	316
-6.058	-4.580	16440	16384	0	316
-6.708	-8.547	16440	16036	0	316
-5.517	-8.619	16440	15687	0	316
-7.032	-6.852	16440	15454	0	316
-8.835	-4.832	16440	15222	0	316
-10.710	-4.039	16440	15105	0	316
-9.520	-4.364	16440	14873	0	316
-8.330	-6.888	16440	14989	0	316
-7.212	-9.592	16440	14989	0	316
-5.878	-10.819	16440	14989	0	316
-7.573	-10.025	16440	14524	0	316
-7.645	-5.373	16406	14059	0	316
-6.599	0.865	16406	13594	1	316
-3.606	4.616	16384	13129	0	316
0.613	3.462	16384	12547	0	316
5.373	0.974	16362	12198	0	316
7.285	-2.308	16362	12082	0	316
7.104	0.108	16362	12082	0	316
7.825	5.229	16328	12198	0	316
10.674	12.477	16328	12198	0	316
13.740	13.054	16328	12315	0	316
19.798	6.311	16305	12547	0	316
16.084	-0.829	16305	13129	0	316
10.169	-5.301	16305	13478	0	316
4.688	-1.803	16305	13826	0	316
1.515	5.157	16305	14175	0	316
3.318	9.052	16271	14408	0	316
2.921	5.626	16271	14408	0	316
-2.957	-1.983	16271	14291	0	316
-10.494	-8.727	16249	14408	0	316
-14.497	-12.477	16249	14757	0	316
-14.497	-12.586	16271	15222	0	316
-5.914	-8.943	16271	15687	0	316
2.019	-3.173	16271	16268	0	316
7.970	0.036	16271	16732	0	316
8.511	5.121	16271	17314	0	316
8.330	3.137	16271	17779	0	316
4.904	-4.291	16271	18128	0	316
0.108	-10.746	16271	18477	0	316
-5.157	-13.595	16271	18709	0	316
-7.717	-11.360	16271	18942	0	316
-8.258	-5.554	16271	18942	0	316
-6.671	-1.010	16271	18709	0	316
-3.101	-1.803	16271	18709	0	316
-2.092	-5.842	16271	18709	0	316
-3.606	-10.386	16305	18709	0	316
-4.436	-8.799	16305	18709	0	316
-2.452	-6.708	16328	18593	0	316
-1.911	-4.724	16328	18709	0	316
0.685	-4.904	16328	19058	0	316
-1.551	-8.258	16328	19290	0	316
-3.282	-8.330	16328	19407	0	316
-5.662	-7.176	16328	19407	0	316
-4.688	-4.147	16328	19174	0	316
-1.154	-3.714	16362	18942	0	316
3.101	-3.787	16362	18825	0	316
6.671	-1.370	16362	18709	0	316
7.681	3.318	16362	18709	0	316
7.140	8.511	16362	18825	0	316
7.393	10.530	16362	18709	0	316
6.780	8.078	16362	18360	0	316
5.626	2.633	16384	18128	0	316
3.210	-1.695	16384	18244	0	316
-2.741	-4.760	16384	18360	0	316
-7.898	-6.563	16384	18128	0	316
-10.783	-6.455	16384	17779	0	316
-8.402	-8.222	16384	17430	0	316
-8.402	-5.301	16384	17314	0	316
-6.780	-5.049	16406	17314	0	316
-8.583	-3.210	16406	17081	0	316
-9.917	-4.327	16406	16616	0	316
-12.766	-7.429	16406	16384	0	316
-10.710	-13.379	16406	16384	0	316
-8.691	-15.254	16406	16616	0	316
-5.409	-9.520	16406	16849	0	316
-2.957	-1.659	16440	17081	0	316
1.803	7.357	16440	17314	0	316
1.190	14.064	16440	17546	0	316
-0.216	9.809	16463	17663	0	316
-1.731	4.111	16463	17663	0	316
-2.777	-0.757	16440	17430	0	316
-1.767	-2.885	16463	16849	0	316
-0.144	-2.596	16463	16384	0	316
0.216	-1.046	16463	16152	0	316
-0.757	-2.957	16440	16036	0	316
-2.921	-5.878	16440	15687	0	316
-4.364	-7.645	16440	15338	0	316
-4.904	-6.888	16440	14989	0	316
-4.796	-2.705	16440	14640	0	316
-9.160	-3.029	16440	14408	0	316
-14.028	-5.698	16440	14291	0	316
-18.933	-13.235	16440	14408	0	316
-18.716	-18.428	16440	14524	0	316
-17.418	-20.231	16440	14408	0	316
-12.550	-15.795	16406	14291	0	316
-10.350	-12.550	16406	13943	0	316
-9.773	-8.583	16406	13710	0	316
-10.386	-7.789	16406	13478	0	316
-10.855	-8.691	16384	13478	0	316
-9.448	-9.304	16384	13594	0	316
-8.150	-9.592	16384	13710	0	316
-7.176	-10.097	16384	13710	0	316
-6.058	-9.953	16384	13478	0	316
-6.708	-8.691	16362	13245	0	316
-8.439	-6.852	16362	13361	0	316
-8.979	-6.671	16362	13826	0	316
-9.809	-8.835	16362	14291	0	316
-8.511	-7.970	16362	14640	0	316
-8.835	-9.592	16362	15105	0	316
-6.744	-8.294	16362	15803	0	316
-3.678	-6.058	16362	16384	0	316
0.541	-6.924	16362	16965	0	316
2.452	-8.439	16384	17197	0	316
3.714	-9.773	16384	17430	0	316
-0.505	-10.783	16384	18011	0	316
-5.409	-9.917	16384	18593	0	316
-8.439	-8.222	16406	18825	0	316
-8.979	-5.842	16406	18825	0	316
-5.013	-4.075	16406	18709	0	316
0.108	-1.839	16406	18709	0	316
4.291	-1.118	16406	18942	0	316
2.993	-3.534	16406	18942	0	316
-0.685	-2.993	16406	18709	0	316
-4.868	-2.488	16406	18360	0	316
-4.616	-0.108	16440	18011	0	316
-2.741	0.685	16440	18128	0	316
0.252	-0.649	16440	18244	0	316
1.082	-5.121	16440	18244	0	316
0.829	-8.330	16440	18360	0	316
-1.803	-7.393	16463	18360	0	316
-5.373	-3.173	16463	18360	0	316
-6.347	1.118	16463	18128	0	316
-6.094	4.147	16463	17546	0	316
-4.688	5.157	16463	16849	0	316
-1.731	3.065	16463	16384	0	316
-1.442	2.380	16440	15687	0	316
-3.534	-0.180	16440	15105	0	316
-6.852	-3.570	16440	14873	0	316
-7.393	-6.563	16406	14757	0	316
-6.960	-8.186	16406	14640	0	316
-3.750	-5.373	16406	14408	0	316
-1.190	-0.505	16406	14524	0	316
1.551	3.606	16406	14757	0	316
3.823	4.472	16406	14989	0	316
5.806	4.544	16406	15105	0	316
5.049	5.590	16406	15338	0	316
4.796	6.347	16406	15571	0	316
0.613	4.003	16406	15571	0	316
-6.022	-2.019	16384	15338	0	316
-7.212	-12.189	16384	15105	0	316
-4.832	-14.281	16384	14989	0	316
-0.216	-8.583	16384	14757	0	316
2.344	1.587	16384	14640	0	316
-0.505	8.799	16384	14757	0	316
-7.176	5.121	16384	15105	0	316
-11.323	-1.659	16384	15571	0	316
-9.953	-11.215	16384	15803	0	316
-10.927	-15.651	16384	16152	0	316
-18.247	-14.858	16384	16384	0	316
-28.850	-13.559	16384	16384	0	316
-39.776	-7.321	16384	16268	0	316
-42.878	1.298	16384	16152	0	316
-39.344	9.556	16362	15919	0	316
-36.747	10.855	16362	15687	0	316
-38.767	4.688	16362	15338	0	316
-43.635	-5.049	16362	14989	0	316
-42.625	-10.169	16328	14989	0	316
-36.603	-5.806	16328	15222	0	316
-27.443	1.767	16362	15687	0	316
-20.519	5.049	16362	16268	0	316
-19.870	0.180	16362	16732	0	316
-19.798	-7.032	16384	17197	0	316
-20.447	-8.979	16384	17663	0	316
-15.795	-9.196	16384	17779	0	316
-14.317	-4.724	16384	17779	0	316
-11.432	-5.121	16384	17663	0	316
-12.369	-9.160	16384	17546	0	316
-11.612	-11.035	16384	17430	0	316
-8.222	-12.441	16384	17314	0	316
-4.796	-11.035	16384	17197	0	316
-3.065	-8.871	16384	16965	0	316
-1.406	-9.881	16384	16849	0	316
2.056	-6.635	16384	16732	0	316
5.554	-3.065	16384	16732	0	316
10.133	1.515	16384	16849	0	316
57.916	57.411	16362	18128	0	316
57.375	56.185	16362	18709	0	316
54.922	55.175	16384	19174	0	316
52.038	54.922	16384	19523	0	316
52.542	54.345	16406	19988	0	316
54.670	57.483	16406	20337	0	316
57.447	57.194	16406	20570	0	316
58.817	55.139	16440	20453	0	316
59.755	49.405	16440	20104	0	316
61.774	47.746	16440	19639	0	316
62.171	49.657	16440	19290	0	316
64.659	59.394	16440	18942	1	860
68.157	67.797	16440	18593	0	860
69.347	72.088	16440	18360	0	860
71.042	70.609	16440	17779	0	860
69.347	64.731	16440	17081	0	860
66.102	57.555	16440	16500	0	860
60.404	53.660	16440	16036	0	860
52.074	47.133	16440	15222	0	860
44.392	39.344	16384	14524	0	860
35.341	31.122	16384	14059	0	860
26.830	23.512	16384	13710	0	860
22.467	20.339	16362	13361	0	860
15.723	19.870	16362	13129	0	860
10.891	13.343	16384	13245	0	860
4.796	6.022	16384	13361	0	860
1.334	-3.065	16384	13361	0	860
-0.397	-7.068	16362	13129	0	860
0.902	-3.101	16362	13245	0	860
2.092	4.436	16362	13245	0	860
0.433	6.960	16362	13245	0	860
-4.075	7.140	16328	13245	0	860
-8.871	-1.515	16328	13478	0	860
-11.900	-9.809	16328	14175	0	860
-10.638	-16.552	16328	14757	0	860
-9.412	-18.500	16328	15105	0	860
-9.124	-19.834	16328	14989	0	860
-14.785	-15.723	16305	14524	0	860
-22.755	-15.723	16305	13943	0	860
-29.607	-16.300	16271	13594	0	860
-29.246	-21.962	16271	13710	0	860
-25.820	-27.660	16271	14175	0	860
-21.998	-31.771	16271	14989	0	860
-19.978	-28.814	16271	15571	0	860
-20.591	-23.116	16271	15919	0	860
-24.306	-14.497	16271	16036	0	860
-21.132	-11.468	16271	15803	0	860
-18.428	-14.136	16249	15687	0	860
-14.677	-19.906	16271	15571	0	860
-14.569	-25.279	16305	15454	0	860
-15.182	-25.604	16249	15338	0	860
-17.166	-17.021	16249	15105	0	860
-14.894	-10.746	16215	14873	0	860
-12.730	-5.770	16215	14989	0	860
-8.439	-7.068	16215	15571	0	860
-8.655	-13.343	16215	16036	0	860
-12.405	-18.320	16215	16616	0	860
-18.211	-23.008	16215	17430	0	860
-20.736	-20.700	16249	18244	0	860
-22.719	-21.349	16271	19174	0	860
-24.702	-20.700	16271	19872	0	860
-28.958	-25.027	16305	20570	0	860
-38.298	-32.384	16305	21384	0	860
-51.965	-44.032	16328	22197	0	860
-65.957	-57.303	16362	22779	0	860
-78.976	-73.603	16362	22895	0	860
-87.126	-88.027	16362	22430	0	860
-95.781	-98.413	16384	21849	0	860
-101.695	-106.058	16384	21384	0	860
-111.107	-113.451	16384	21035	0	860
-122.683	-121.637	16384	20802	0	860
-133.862	-130.184	16384	20570	0	860
-136.711	-133.502	16406	19988	0	860
-130.256	-128.922	16406	19290	0	860
-116.877	-117.995	16406	18709	0	860
-101.659	-106.347	16406	18244	0	860
-89.939	-96.935	16406	17663	0	860
-86.585	-91.273	16406	17081	0	860
-85.070	-88.208	16406	16732	0	860
-85.647	-84.349	16406	16732	0	860
-82.762	-81.500	16406	17081	0	860
-73.603	-74.396	16440	17197	0	860
-60.260	-60.115	16440	16849	0	860
-40.426	-40.966	16406	16268	0	860
-26.037	-25.243	16406	15687	0	860
-20.627	-20.231	16406	15338	0	860
-21.457	-25.712	16406	15222	0	860
-26.506	-34.403	16406	15105	0	860
-25.460	-31.338	16406	14873	0	860
-15.254	-17.995	16406	14757	0	860
-5.157	-1.334	16406	14640	1	316
3.678	6.744	16406	14989	0	316
4.724	3.498	16440	15454	0	316
1.587	-4.219	16406	16036	0	316
-4.111	-10.314	16440	16616	0	316
-9.845	-11.035	16440	17197	0	316
-13.740	-10.458	16463	17663	0	316
-15.615	-14.569	16463	18011	0	316
-14.028	-15.975	16463	18360	0	316
-6.022	-10.602	16497	18477	0	316
4.472	-0.288	16497	18360	0	316
19.510	17.598	16497	17779	0	316
34.764	37.144	16497	17197	0	316
48.756	52.074	16497	16732	0	316
61.702	61.991	16497	16384	0	316
69.708	69.455	16497	15803	0	316
77.425	74.396	16463	14873	0	316
85.431	85.539	16440	13826	0	316
93.581	94.483	16463	13012	0	316
103.678	105.554	16440	12431	0	316
110.927	112.514	16440	12198	0	316
112.838	111.720	16440	12315	0	316
108.943	108.655	16406	12547	0	316
102.777	105.265	16384	12547	0	316
96.574	100.649	16384	12547	0	316
94.735	94.230	16384	12664	0	316
95.023	88.640	16384	13129	0	316
94.519	82.257	16384	13594	0	316
90.660	83.123	16384	13826	0	316
85.215	85.395	16384	14291	0	316
77.894	85.792	16384	14757	0	316
71.836	81.717	16384	14989	0	316
66.282	71.980	16362	14873	0	316
59.791	61.882	16362	14640	0	316
52.831	53.516	16362	14408	0	316
43.635	45.871	16384	14640	0	316
35.846	36.495	16384	14989	0	316
29.499	24.378	16384	15454	0	316
23.945	14.894	16384	16036	0	316
19.546	11.179	16384	16384	0	316
11.900	10.927	16384	16500	0	316
3.390	8.979	16384	16616	0	316
-4.147	4.436	16384	16732	0	316
-10.278	-4.075	16384	16732	0	316
-15.759	-14.713	16384	16500	0	316
-19.041	-21.457	16362	16268	0	316
-26.974	-29.751	16362	15803	0	316
-33.610	-36.891	16362	15454	0	316
-41.796	-43.743	16328	15222	0	316
-49.802	-48.539	16328	14989	0	316
-55.824	-52.723	16328	14757	0	316
-61.233	-52.434	16305	14640	0	316
-56.257	-45.691	16305	14989	0	316
-39.091	-33.357	16305	15454	0	316
-14.569	-15.723	16305	16152	0	316
10.746	3.137	16305	16849	0	316
26.650	17.598	16328	17546	0	316
35.016	26.289	16328	17895	0	316
38.370	32.816	16328	18128	0	316
45.655	42.120	16328	18477	0	316
53.985	52.074	16328	18709	0	316
62.171	59.502	16362	19058	0	316
65.453	62.820	16362	19639	0	316
64.407	61.594	16362	20104	0	316
66.823	57.122	16384	20337	0	316
67.616	53.011	16384	20221	0	316
68.049	55.247	16384	19988	0	316
66.607	57.916	16384	19639	0	316
64.226	63.000	16384	19290	0	316
59.358	64.299	16384	18942	0	316
54.309	60.188	16384	18593	0	316
49.910	49.693	16384	18128	0	316
44.464	38.622	16384	17430	0	316
41.543	34.836	16384	16500	0	316
39.560	34.475	16362	15919	0	316
36.711	39.163	16362	15454	0	316
32.276	36.747	16362	15222	0	316
26.470	28.922	16362	15338	0	316
18.824	16.048	16362	15571	0	316
13.018	5.554	16362	15803	0	316
3.606	-2.452	16362	15919	0	316
-6.888	-8.835	16362	15919	0	316
-18.752	-17.598	16362	16036	0	316
-30.184	-28.597	16384	16268	0	316
-37.829	-41.327	16384	16384	0	316
-43.671	-47.602	16384	16616	0	316
-45.041	-47.746	16384	16849	0	316
-42.048	-42.481	16384	16965	0	316
-39.416	-36.495	16384	16849	0	316
-36.531	-36.026	16384	16500	0	316
-37.901	-39.849	16384	16152	0	316
-44.645	-44.068	16362	15338	0	316
-49.766	-45.763	16362	14291	0	316
-51.316	-42.120	16328	13129	0	316
-51.713	-38.803	16305	12315	0	316
-49.369	-40.894	16305	11966	0	316
-52.867	-47.926	16305	11733	0	316
-56.509	-57.411	16305	11617	0	316
-62.928	-60.656	16271	11733	0	316
-63.361	-59.106	16271	12082	0	316
-62.964	-58.781	16271	12664	0	316
-66.607	-61.414	16271	12896	0	316
-73.314	-70.177	16249	13245	0	316
-83.231	-83.087	16249	13826	0	316
-96.466	-94.879	16271	14873	0	316
-101.695	-98.738	16271	15919	0	316
-100.397	-96.610	16271	16732	0	316
-93.869	-89.181	16271	17663	0	316
-83.051	-75.045	16305	18244	0	316
-72.953	-66.390	16305	18593	0	316
-65.633	-62.207	16305	18825	0	316
-62.604	-63.036	16328	18942	0	316
-62.748	-63.217	16328	18942	0	316
-64.046	-64.010	16328	18825	0	316
-66.967	-63.830	16362	18709	0	316
-69.816	-67.724	16328	18477	0	316
-73.567	-73.567	16328	18360	0	316
-76.632	-79.986	16328	18360	0	316
-80.959	-84.998	16328	18593	0	316
-88.424	-88.172	16328	18942	0	316
-97.836	-96.105	16362	19290	0	316
-111.287	-106.599	16362	19639	0	316
-124.486	-121.673	16362	19872	0	316
-135.737	-134.944	16384	19756	0	316
-140.281	-142.120	16384	19523	0	316
-135.701	-139.199	16384	19058	0	316
-123.188	-124.883	16384	18593	0	316
-99.062	-98.702	16384	18244	0	316
-67.616	-66.498	16384	17895	0	316
-32.672	-28.922	16384	17430	0	316
0.252	4.364	16384	16965	0	316
25.243	28.453	16384	16732	0	316
38.118	44.068	16384	16384	0	316
42.445	47.061	16384	16152	0	316
43.996	49.621	16362	16036	0	316
53.300	54.057	16362	15803	0	316
70.537	69.744	16362	15571	0	316
95.276	90.948	16362	15338	0	316
119.618	117.093	16362	15105	0	316
142.770	142.589	16362	14989	0	316
166.030	169.636	16362	15105	0	316
195.564	196.790	16362	15338	0	316
231.771	231.410	16362	15222	0	316
275.730	270.032	16362	14757	0	316
321.241	314.533	16328	14291	0	316
360.296	359.250	16328	13826	0	316
396.286	396.790	16305	13478	0	316
419.185	426.650	16305	12780	0	316
431.662	440.209	16271	12198	0	316
434.692	438.442	16249	11733	0	316
428.922	426.217	16249	11501	0	316
414.028	407.717	16249	11617	0	316
391.922	384.854	16249	12082	0	316
362.532	361.666	16249	12547	0	316
332.816	335.593	16249	13012	0	316
300.974	304.688	16249	13478	0	316
271.727	276.920	16215	13943	0	316
246.232	248.431	16215	14408	0	316
219.546	221.601	16215	14757	0	316
190.083	192.571	16215	15105	0	316
158.961	161.630	16215	15222	0	316
125.027	127.119	16192	15222	0	316
93.689	97.512	16249	15454	0	316
63.974	74.144	16215	15803	0	316
42.553	53.552	16215	16384	0	316
21.421	35.882	16215	16732	0	316
-2.596	12.261	16215	17314	0	316
-27.047	-13.595	16215	17779	0	316
-50.595	-42.229	16215	18244	0	316
-68.049	-64.407	16215	18709	0	316
-78.255	-79.048	16215	18942	0	316
-85.828	-85.575	16215	19174	0	316
-94.194	-89.037	16249	19174	0	316
-105.229	-94.843	16249	18825	0	316
-120.880	-106.780	16249	18244	0	316
-133.970	-122.395	16249	17663	0	316
-144.825	-137.793	16215	17081	0	316
-153.300	-152.398	16215	16616	0	316
-162.243	-162.207	16192	16384	0	316
-169.996	-172.665	16192	16152	0	316
-181.464	-182.546	16192	16152	0	316
-194.591	-192.715	16215	16384	0	316
-207.934	-203.390	16249	16616	0	316
-221.421	-212.117	16215	17081	0	316
-228.092	-217.634	16215	17663	0	316
-234.547	-225.207	16249	18360	0	316
-237.541	-232.816	16249	18942	0	316
-242.589	-242.157	16249	19174	0	316
-252.290	-251.749	16249	19290	0	316
-262.495	-259.106	16271	19407	0	316
-271.403	-260.224	16271	19523	0	316
-274.288	-262.027	16271	19639	0	316
-272.304	-259.358	16271	19639	0	316
-267.400	-257.122	16305	19756	0	316
-259.755	-254.995	16328	19872	0	316
-252.290	-250.667	16328	19988	0	316
-245.114	-246.376	16362	20221	0	316
-241.507	-243.563	16362	20104	0	316
-238.334	-239.488	16362	19756	0	316
-237.793	-233.646	16362	19523	0	316
-230.581	-227.948	16362	19290	0	316
-221.601	-219.329	16362	18825	1	804
-208.871	-213.271	16362	18128	0	804
-202.885	-210.278	16362	17546	0	804
-199.784	-207.681	16384	17197	0	804
-200.252	-206.058	16384	16965	0	804
-197.800	-204.904	16384	16849	0	804
-190.624	-204.832	16384	16732	0	804
-185.395	-203.642	16384	16616	0	804
-184.349	-202.993	16384	16384	0	804
-185.828	-200.000	16384	16152	0	804
-186.621	-196.394	16384	16036	0	804
-184.998	-194.410	16384	15919	0	804
-178.723	-192.102	16384	16036	0	804
-171.836	-187.739	16406	16152	0	804
-166.210	-179.733	16406	16036	0	804
-164.154	-169.059	16406	15687	0	804
-158.420	-157.988	16406	15454	0	804
-155.031	-155.391	16406	15454	0	804
-152.038	-154.995	16406	15454	0	804
-144.501	-155.788	16406	15454	0	804
-137.108	-151.677	16406	15454	0	804
-125.929	-141.688	16406	15571	0	804
-116.228	-127.768	16406	15687	0	804
-108.979	-119.654	16406	15919	0	804
-107.825	-114.461	16406	16152	0	804
-109.052	-112.369	16406	16152	0	804
-107.934	-107.465	16406	15919	0	804
-102.344	-99.207	16406	15454	0	804
-91.598	-88.893	16406	15222	0	804
-76.055	-81.753	16406	14989	0	804
-64.767	-76.091	16406	14989	0	804
-56.617	-70.321	16406	15105	0	804
-55.499	-63.686	16384	15338	0	804
-57.375	-57.988	16384	15222	0	804
-54.418	-51.605	16384	14989	0	804
-48.431	-47.602	16362	14524	0	804
-37.865	-42.481	16384	14175	0	804
-28.201	-41.435	16384	14175	0	804
-26.433	-36.964	16384	14175	0	804
-31.879	-34.620	16384	14175	0	804
-40.822	-32.095	16384	14175	0	804
-48.143	-27.010	16362	14175	0	804
-50.090	-20.880	16362	14175	0	804
-48.900	-18.356	16362	14291	0	804
-44.428	-14.785	16362	14408	0	804
-44.212	-13.704	16362	14757	0	804
-47.277	-11.360	16362	15222	0	804
-51.244	-8.114	16362	15687	0	804
-49.225	-6.780	16362	16036	0	804
-44.933	-6.094	16362	16384	0	804
-34.728	-6.960	16362	16732	0	804
-22.791	-6.455	16384	17314	0	804
-13.992	-3.065	16384	17895	0	804
-10.602	4.183	16384	18128	0	804
-13.668	11.648	16384	18244	0	804
-21.601	12.766	16384	18011	0	804
-35.016	9.881	16384	17663	0	804
-48.251	1.262	16384	17197	0	804
-58.745	-6.780	16362	16500	0	804
-62.351	-14.569	16362	15919	0	804
-64.876	-17.706	16362	15687	0	804
-69.131	-22.106	16362	15571	0	804
-74.937	-26.794	16362	15571	0	804
-84.602	-35.341	16362	15687	0	804
-89.578	-40.714	16362	15803	0	804
-89.109	-42.878	16362	15919	0	804
-79.986	-39.596	16362	16036	0	804
-69.455	-30.256	16328	16152	0	804
-60.873	-21.493	16362	16384	0	804
-53.372	-17.995	16362	16616	0	804
-49.693	-15.254	16362	16849	0	804
-45.186	-17.815	16362	16965	0	804
-40.822	-19.654	16362	16965	0	804
-36.134	-22.683	16362	16849	0	804
-29.463	-22.467	16362	16849	0	804
-17.238	-15.759	16362	16849	0	804
-4.400	-3.462	16362	16732	0	804
9.701	12.441	16362	16500	0	804
19.618	25.676	16328	16384	0	804
19.834	29.607	16328	16384	0	804
17.959	25.532	16328	16500	0	804
13.776	17.923	16328	16384	0	804
16.697	15.579	16328	16384	0	804
23.296	15.579	16328	16616	0	804
35.990	26.938	16362	16965	0	804
51.028	42.625	16362	17663	0	804
68.518	62.928	16384	18360	0	804
84.385	84.241	16384	18942	0	804
100.757	99.712	16384	19407	0	804
112.405	108.799	16406	19756	0	804
120.627	110.963	16406	19872	0	804
126.217	110.242	16440	19872	0	804
125.460	111.504	16440	19756	0	804
124.702	118.788	16440	19639	0	804
121.277	124.739	16463	19639	0	804
120.627	127.624	16463	19639	0	804
118.031	122.863	16463	19639	1	384
116.733	112.297	16463	19290	0	384
114.785	104.688	16463	18477	0	384
111.540	100.721	16463	17430	0	384
105.986	100.000	16463	16384	0	384
99.712	98.305	16463	15803	0	384
92.968	90.408	16463	15338	0	384
82.438	79.733	16440	14989	0	384
76.235	72.124	16440	14873	0	384
69.924	70.573	16463	14989	0	384
63.541	71.006	16463	15222	0	384
54.273	69.347	16463	15338	0	384
46.015	62.423	16440	15222	0	384
39.668	49.982	16440	15222	0	384
37.396	41.039	16440	15222	0	384
38.695	34.656	16440	15454	0	384
40.389	33.790	16440	15687	0	384
40.678	34.511	16463	15919	0	384
37.649	34.367	16463	16152	0	384
34.403	32.853	16463	16152	0	384
32.492	31.807	16463	16268	0	384
29.859	31.843	16463	16384	0	384
25.460	30.761	16463	16384	0	384
25.388	26.902	16463	16384	0	384
24.270	21.854	16497	16384	0	384
25.171	17.598	16497	16384	0	384
25.243	14.136	16497	16500	0	384
21.890	11.215	16463	16500	0	384
16.913	10.783	16497	16384	0	384
12.189	6.960	16497	16384	0	384
11.648	6.239	16463	16268	0	384
15.867	9.737	16463	16036	0	384
18.139	16.841	16463	15687	0	384
20.267	19.401	16463	15338	0	384
16.012	19.834	16463	15222	0	384
11.648	11.468	16463	15454	0	384
7.501	8.907	16463	15919	0	384
8.330	10.242	16463	16152	0	384
9.268	14.821	16497	16384	0	384
12.838	17.382	16497	16384	0	384
11.251	10.746	16497	16616	0	384
10.674	2.056	16497	16965	0	384
14.605	1.262	16519	17314	0	384
19.690	12.586	16519	17430	0	384
26.722	26.758	16519	17081	0	384
28.381	33.249	16519	16616	0	384
21.890	27.119	16497	16384	0	384
13.054	11.900	16497	16268	0	384
0.613	3.750	16497	15919	0	384
-9.088	4.832	16497	15687	0	384
-15.002	13.451	16463	15338	0	384
-19.005	19.149	16463	15105	0	384
-16.120	19.401	16463	14873	0	384
-10.674	10.422	16463	14640	0	384
-6.635	4.255	16463	14524	0	384
-6.022	0.613	16463	14408	0	384
-7.753	0.829	16440	14059	0	384
-6.671	3.318	16440	13594	0	384
-1.911	6.203	16440	13594	0	384
6.311	6.599	16440	13943	0	384
13.127	7.501	16440	14524	0	384
11.396	9.052	16440	14989	0	384
6.708	11.251	16406	15571	0	384
3.029	12.261	16463	16268	0	384
1.190	12.874	16463	16965	0	384
3.498	13.054	16497	18011	0	384
-511.360	500.793	16342	1	0	16362
9.737	3.462	16362	15803	0	384
16.120	9.520	16362	16036	0	384
21.637	16.985	16362	16384	0	384
20.267	21.781	16362	16616	0	384
21.204	21.565	16362	16849	0	384
20.050	17.238	16362	16732	0	384
21.349	16.444	16328	16500	0	384
23.260	15.362	16328	16384	0	384
24.270	21.529	16328	16500	0	384
24.847	27.191	16328	16732	0	384
24.198	28.056	16328	16732	0	384
21.024	25.496	16328	16849	0	384
20.483	19.906	16328	17081	0	384
17.562	17.382	16362	17197	0	384
17.959	16.228	16362	17197	0	384
15.254	18.247	16362	17197	0	384
13.127	12.405	16328	16965	0	384
9.016	6.203	16328	16732	0	384
6.491	-0.613	16328	16616	0	384
5.481	-3.390	16328	16732	0	384
5.301	-0.757	16328	16849	0	384
5.950	5.049	16328	16965	0	384
5.085	8.258	16328	17430	0	384
3.787	8.366	16328	18128	0	384
2.452	7.176	16362	18942	0	384
2.236	5.914	16362	19290	0	384
2.056	5.590	16362	19639	0	384
0.433	1.803	16384	19756	0	384
-1.190	-2.596	16384	19756	0	384
-5.085	-6.888	16384	19872	0	384
-6.094	-7.212	16406	20104	0	384
-6.347	-4.364	16406	20570	0	384
-3.606	1.010	16440	20918	0	384
-3.426	3.173	16440	20918	0	384
-4.327	0.397	16440	20570	0	384
-5.337	-0.180	16463	19988	0	384
-5.698	-1.262	16463	19407	0	384
-1.334	0.974	16463	18709	0	384
6.563	4.652	16440	18011	1	544
15.326	11.900	16463	17546	0	544
17.995	14.208	16463	17314	0	544
18.969	16.192	16440	17081	0	544
16.012	15.723	16440	16732	0	544
15.074	11.360	16440	16384	0	544
15.182	11.576	16440	16036	0	544
12.081	12.514	16440	15803	0	544
10.242	16.228	16440	15919	0	544
9.268	22.503	16440	16268	0	544
10.242	29.679	16463	16500	0	544
18.716	37.901	16463	16732	0	544
24.017	46.628	16463	16965	0	544
25.207	50.847	16497	17314	0	544
16.913	47.999	16497	17430	0	544
7.393	46.159	16497	17430	0	544
-5.662	42.950	16519	17430	0	544
-11.035	42.012	16519	17430	0	544
-10.927	42.481	16497	17314	0	544
-4.327	43.383	16519	16732	0	544
4.364	41.940	16519	16152	0	544
10.674	39.199	16497	15222	0	544
12.730	36.459	16463	14291	0	544
10.458	32.672	16463	13594	0	544
9.845	27.624	16440	13012	0	544
10.133	21.313	16440	12431	0	544
12.477	14.208	16440	11850	0	544
11.612	9.917	16406	11268	0	544
10.169	9.665	16384	10803	0	544
5.734	11.287	16384	10571	0	544
2.596	16.516	16362	10454	0	544
-0.072	14.858	16362	10338	0	544
0.252	7.537	16328	9989	0	544
-0.938	-0.252	16305	9640	0	544
-0.325	-4.327	16305	9408	0	544
-0.325	-4.940	16271	9291	0	544
-0.649	-1.010	16249	9408	0	544
-3.570	2.452	16249	9873	0	544
-8.294	4.580	16271	10687	0	544
-11.071	2.236	16271	11733	0	544
-13.704	0.902	16249	12664	0	544
-12.946	-3.354	16249	13826	0	544
-14.064	-8.439	16249	14757	0	544
-12.477	-12.261	16249	15687	0	544
-12.586	-10.710	16249	16384	0	544
-16.769	-8.294	16249	17081	0	544
-21.493	-5.517	16249	17663	0	544
-30.076	-7.789	16249	17895	0	544
-34.692	-12.333	16249	17895	0	544
-32.131	-18.788	16249	17779	0	544
-21.529	-16.156	16271	17779	0	544
-9.448	-6.058	16249	17779	0	544
-0.613	2.092	16249	18128	0	544
0.036	7.285	16271	18593	0	544
-2.380	3.859	16271	19058	0	544
-4.003	-3.859	16271	19407	0	544
-3.318	-8.511	16271	19639	0	544
-3.101	-10.133	16271	19872	0	544
-1.551	-8.871	16271	19988	0	544
-1.731	-6.708	16271	19872	0	544
-0.902	-6.527	16271	19523	0	544
0.216	-8.006	16271	19174	0	544
1.551	-7.140	16271	18825	0	544
0.865	-8.186	16305	18477	0	544
-2.921	-8.763	16271	18128	0	544
-5.301	-10.819	16305	17895	0	544
-6.780	-15.254	16305	18011	0	544
-3.390	-15.867	16305	18477	0	544
-1.370	-15.002	16305	18825	0	544
0.469	-10.746	16305	19058	0	544
-0.793	-7.248	16305	19174	0	544
-4.147	-11.864	16328	19174	0	544
-7.285	-18.031	16328	19290	0	544
-10.746	-20.916	16328	19523	0	544
-12.405	-18.139	16362	19756	0	544
-12.081	-13.343	16362	19872	0	544
-12.081	-7.898	16362	19756	0	544
-9.304	-7.970	16362	19639	0	544
-6.239	-10.025	16384	19290	0	544
-5.301	-12.225	16384	18942	0	544
-8.402	-10.746	16384	18593	0	544
-10.783	-8.078	16384	18360	0	544
-12.586	-5.301	16384	17779	0	544
-11.251	-3.354	16384	17197	0	544
-6.275	-0.252	16384	16849	0	544
-2.092	1.442	16384	16732	0	544
-1.334	2.128	16384	16732	0	544
-5.157	1.839	16384	16732	0	544
-9.737	-1.406	16406	16965	0	544
-11.143	-4.940	16406	17314	0	544
-9.989	-9.629	16440	17779	0	544
-7.068	-9.412	16440	18128	0	544
-5.806	-7.248	16463	18477	0	544
-7.681	-6.239	16463	18593	0	544
-11.396	-8.439	16463	18709	0	544
-13.163	-11.071	16497	18709	0	544
-11.828	-10.819	16497	18593	0	544
-9.665	-9.232	16497	18244	0	544
-7.429	-3.426	16463	17663	0	544
-6.816	2.524	16497	16965	0	544
-5.590	5.265	16497	16384	0	544
-5.229	5.049	16463	15803	0	544
0.829	8.150	16463	15687	0	544
2.633	11.107	16497	15687	0	544
3.354	11.720	16497	15454	0	544
0.288	12.838	16497	15222	0	544
-2.164	10.674	16497	15222	0	544
-5.085	6.888	16497	15105	0	544
-5.445	6.203	16497	14757	0	544
-4.327	4.832	16497	14408	0	544
-4.003	5.517	16463	13943	0	544
-3.787	4.616	16463	13361	0	544
-6.022	2.056	16463	13129	0	544
-6.131	1.659	16463	13012	0	544
-7.501	1.479	16463	13245	0	544
-4.616	3.714	16463	13594	0	544
-0.865	8.619	16463	13943	0	544
3.029	11.900	16440	14059	0	544
6.491	15.471	16440	13943	0	544
8.727	15.362	16440	13943	0	544
12.982	14.785	16440	14059	0	544
14.245	12.766	16440	14291	0	544
14.533	11.215	16406	14291	0	544
10.963	10.746	16406	14059	0	544
4.796	9.845	16406	13943	0	544
2.092	8.150	16406	14175	0	544
3.354	7.862	16406	14757	0	544
5.265	7.104	16406	15338	0	544
8.439	7.248	16406	15919	0	544
7.176	3.823	16440	16384	0	544
0.180	-0.938	16440	16500	0	544
-7.573	-8.222	16440	16616	0	544
-13.595	-11.937	16440	16732	0	544
-18.356	-11.179	16440	16732	0	544
-16.228	-8.655	16440	16732	0	544
-15.651	-4.940	16440	16732	0	544
-13.091	-1.623	16440	16732	0	544
-11.648	-1.515	16440	16616	0	544
-10.602	-1.947	16440	16500	0	544
-8.547	-2.741	16440	16384	0	544
-6.239	-4.291	16406	16152	0	544
-3.895	-2.092	16406	15919	0	544
-0.721	3.570	16406	15803	0	544
-1.262	8.042	16406	15687	0	544
-2.200	7.501	16406	15687	0	544
-7.717	0.793	16406	15919	0	544
-13.054	-6.924	16406	16384	0	544
-12.297	-10.458	16406	16384	0	544
-12.586	-8.186	16406	16384	0	544
-9.196	-1.731	16406	16384	0	544
-5.914	5.590	16384	16384	0	544
-5.337	7.970	16406	16268	0	544
-7.573	8.907	16406	16036	0	544
-6.924	3.498	16406	15919	0	544
-6.491	-2.993	16384	16036	0	544
-4.183	-5.265	16384	16152	0	544
-2.416	-5.013	16384	16268	0	544
-2.849	-1.515	16406	16384	0	544
-4.977	-0.433	16406	16732	0	544
-10.674	-3.534	16406	17081	0	544
-12.189	-9.232	16406	17081	0	544
-9.304	-11.287	16406	16965	0	544
-3.570	-7.573	16384	16616	0	544
1.334	-3.173	16362	16268	0	544
8.366	2.308	16384	16152	0	544
9.917	6.203	16384	16152	0	544
7.898	7.140	16384	16268	0	544
5.914	2.524	16384	16384	0	544
3.462	-1.695	16384	16384	0	544
3.678	-5.373	16384	16152	0	544
6.167	-2.019	16384	15919	0	544
8.042	5.085	16384	16036	0	544
6.635	12.910	16384	16036	0	544
3.534	14.389	16384	16036	0	544
1.298	9.052	16384	16152	0	544
2.200	0.902	16384	16500	0	544
5.734	-1.442	16384	17197	0	544
14.100	3.101	16384	17663	0	544
17.418	11.396	16406	17895	0	544
19.437	19.041	16384	17895	0	544
15.471	19.582	16384	17779	0	544
10.350	13.668	16384	17663	0	544
5.013	4.400	16384	17430	0	544
-12.333	-9.124	16362	12896	0	768
-3.750	-4.003	16362	12896	0	768
4.327	-0.721	16328	13012	0	768
8.330	-0.216	16328	13245	0	768
4.183	-3.065	16328	13594	0	768
0.613	-7.321	16328	13826	0	768
-8.727	-10.638	16328	14059	0	768
-10.458	-7.934	16328	14408	0	768
-11.576	-4.472	16328	14873	0	768
-12.153	-6.094	16305	15222	0	768
-14.353	-9.304	16305	15571	0	768
-13.163	-13.235	16305	15919	0	768
-9.773	-12.297	16328	16384	0	768
-6.635	-5.806	16328	16732	0	768
-4.904	0.469	16328	16849	0	768
-5.049	2.128	16362	16965	0	768
-7.285	-1.947	16362	17314	0	768
-5.337	-8.042	16362	17663	0	768
-1.983	-8.475	16362	17895	0	768
-0.361	-5.554	16362	17895	0	768
-3.354	-0.216	16362	18011	0	768
-9.124	2.056	16362	17895	0	768
-13.163	0.433	16362	17779	0	768
-12.550	-2.308	16362	17895	0	768
-8.835	-5.265	16362	18244	0	768
-5.950	-7.176	16362	18477	0	768
-5.337	-9.881	16362	18593	0	768
-7.501	-11.540	16362	18360	0	768
-11.071	-12.766	16362	18244	0	768
-9.448	-12.622	16384	18244	0	768
-8.907	-8.763	16384	18244	0	768
-9.160	-4.039	16384	18360	0	768
-10.422	-0.974	16384	18593	0	768
-13.018	-0.108	16384	18709	0	768
-13.163	-3.931	16406	18825	0	768
-12.658	-7.465	16406	18942	0	768
-9.665	-10.061	16406	19174	0	768
-6.816	-6.816	16440	19174	0	768
-7.789	-1.046	16440	19174	0	768
-9.845	2.741	16440	18942	0	768
-11.251	0.865	16440	18593	0	768
-10.819	-2.633	16440	18011	0	768
-11.756	-4.400	16406	17546	0	768
-12.946	-2.308	16440	17546	0	768
-14.208	1.731	16463	17430	0	768
-19.293	3.534	16463	17197	0	768
-22.322	0.108	16440	16849	0	768
-23.693	-5.085	16440	16616	0	768
-24.666	-9.917	16440	16500	0	768
-26.614	-8.439	16440	16268	0	768
-30.581	-5.013	16440	15919	0	768
-35.990	-2.019	16440	15571	0	768
-36.423	-0.397	16440	15338	0	768
-33.033	-1.479	16440	15222	0	768
-24.991	-3.570	16440	14989	0	768
-15.326	-3.823	16406	14640	0	768
-11.937	-5.409	16406	14524	0	768
-9.773	-6.167	16440	14757	1	316
-13.127	-6.888	16440	14989	0	316
-15.615	-9.304	16406	14873	0	316
-17.202	-9.881	16406	14640	0	316
-19.510	-6.347	16406	14524	0	316
-18.428	-3.101	16406	14640	0	316
-13.920	-0.577	16406	14757	0	316
-7.970	-0.649	16406	15105	0	316
-3.246	-6.203	16406	15454	0	316
-1.262	-10.097	16440	15687	0	316
0.505	-10.422	16440	16036	0	316
0.829	-6.996	16440	16384	0	316
3.318	-1.803	16463	17081	0	316
4.219	1.983	16463	17779	0	316
4.760	1.406	16497	18477	0	316
2.128	-0.325	16497	19290	0	316
-1.370	-1.983	16519	19988	0	316
-3.462	-2.705	16519	20221	0	316
-2.885	-4.472	16519	20104	0	316
-5.409	-6.852	16519	19639	0	316
-4.904	-11.468	16519	18709	0	316
-6.960	-14.677	16497	17663	0	316
-8.258	-17.418	16497	16732	0	316
-6.888	-12.477	16497	16152	0	316
-4.255	-8.727	16497	15687	0	316
1.623	-4.183	16497	15571	0	316
6.780	-3.498	16497	15687	0	316
8.691	-3.750	16497	15803	0	316
8.078	-2.560	16463	15687	0	316
4.832	-0.577	16497	15454	0	316
1.334	2.705	16497	15338	0	316
-1.334	3.498	16463	15222	0	316
-1.010	2.092	16463	14989	0	316
-0.180	-3.390	16463	14873	0	316
0.649	-8.114	16463	14757	0	316
0.216	-9.232	16463	14408	0	316
-1.334	-9.196	16463	14059	0	316
-2.128	-4.688	16440	13710	0	316
-4.003	-2.452	16440	13478	0	316
-4.364	-5.265	16440	13245	0	316
-5.013	-8.763	16406	13012	0	316
-4.832	-11.071	16406	12780	0	316
-4.436	-7.934	16406	12780	0	316
-1.587	-2.308	16406	12896	0	316
2.993	3.498	16406	13361	0	316
6.780	5.590	16384	13826	0	316
9.592	4.472	16384	14291	0	316
9.124	3.065	16406	14873	0	316
8.186	5.698	16406	15454	0	316
7.321	8.366	16406	15919	0	316
6.888	6.671	16406	16152	0	316
4.724	2.344	16406	16152	0	316
2.308	-5.121	16406	16152	0	316
-2.164	-10.422	16384	16268	0	316
-5.590	-6.635	16384	16268	0	316
-4.472	0.974	16384	15919	0	316
-4.003	7.465	16362	15222	0	316
-2.777	8.330	16362	14408	0	316
-4.003	1.911	16328	13478	0	316
-6.744	-5.517	16305	12780	0	316
-8.835	-10.999	16305	12431	0	316
-9.989	-12.910	16271	12315	0	316
-7.681	-8.258	16249	12198	0	316
-3.967	-1.046	16249	12198	0	316
-2.524	5.554	16215	12315	0	316
-0.108	6.599	16215	12780	0	316
0.829	5.193	16215	13361	0	316
1.911	1.515	16271	14175	0	316
0.361	3.137	16249	15222	0	316
0.757	7.357	16249	16384	0	316
-1.118	10.314	16271	17663	0	316
-2.560	7.898	16271	18942	0	316
-1.262	1.154	16271	19872	0	316
1.767	-4.400	16305	20570	0	316
1.803	-5.049	16305	21267	0	316
-0.180	-3.065	16328	21732	0	316
-0.108	0.685	16328	21849	0	316
-3.750	1.298	16328	21732	0	316
-6.852	-0.541	16328	21500	0	316
-9.989	-2.849	16328	21151	0	316
-11.720	-7.248	16328	20686	0	316
-14.605	-8.619	16328	20453	1	324
-13.523	-9.773	16328	20104	0	324
-11.432	-7.934	16328	19523	0	324
-11.107	-6.852	16328	18825	0	324
-9.629	-5.085	16362	18128	0	324
-5.085	-3.101	16362	17430	0	324
-2.344	1.298	16362	16732	0	324
1.515	5.914	16362	16384	0	324
2.777	8.006	16362	16500	0	324
2.957	7.789	16328	16500	0	324
2.885	6.203	16328	16268	0	324
3.714	3.354	16328	15919	0	324
4.904	1.623	16328	15687	0	324
4.327	-0.288	16328	15687	0	324
1.515	-2.092	16328	15803	0	324
-2.921	-5.698	16328	15919	0	324
-7.717	-7.248	16328	16036	0	324
-12.550	-7.717	16328	16384	0	324
-17.166	-4.904	16328	16732	0	324
-21.565	-1.731	16362	17314	0	324
-24.125	-0.505	16362	18011	0	324
-22.178	-1.479	16384	18593	0	324
-20.700	-5.337	16384	18942	0	324
-17.057	-8.763	16384	18709	0	324
-18.644	-11.035	16384	18244	0	324
-21.096	-9.520	16384	18011	0	324
-22.250	-8.042	16384	17779	0	324
-18.933	-6.239	16384	17546	0	324
-9.304	-3.282	16406	17430	0	324
-2.596	-0.541	16406	17197	0	324
0.649	0.288	16406	16965	0	324
0.036	0.361	16406	16849	0	324
-2.272	-1.082	16406	16849	0	324
-1.046	-0.180	16406	16965	0	324
-0.577	2.560	16406	17081	0	324
1.659	7.645	16406	16965	0	324
-2.344	10.819	16440	16849	0	324
-9.629	10.530	16440	16849	0	324
-16.733	3.534	16440	16616	0	324
-16.877	-3.210	16440	16384	0	324
-17.995	-7.321	16440	16268	0	324
-14.749	-6.744	16440	16384	0	324
-17.562	-2.957	16440	16616	0	324
-18.860	-0.288	16440	16849	0	324
-22.070	-1.695	16463	16849	0	324
-18.392	-5.409	16463	16616	0	324
-13.235	-9.448	16440	16384	0	324
-7.862	-7.176	16440	16152	0	324
-5.481	-1.587	16440	15919	0	324
-6.167	2.813	16440	15803	0	324
-8.799	2.236	16440	15803	0	324
-11.323	-4.472	16440	15687	0	324
-13.487	-11.035	16440	15803	0	324
-13.668	-15.579	16440	15803	0	324
-9.304	-10.242	16440	15803	0	324
-2.488	0.685	16440	15571	0	324
6.131	8.799	16440	15454	0	324
14.317	11.323	16440	15338	0	324
18.283	12.802	16440	15222	0	324
20.483	11.756	16440	15105	0	324
15.687	9.448	16440	15222	0	324
10.422	7.465	16440	15571	0	324
3.065	6.491	16440	15803	0	324
-1.262	0.829	16440	15919	0	324
-2.344	-2.669	16440	15919	0	324
0.649	-2.560	16440	15803	0	324
-0.325	-2.019	16440	15803	0	324
-1.154	-3.101	16440	16152	0	324
-5.445	-4.472	16440	16268	0	324
-7.104	-9.412	16406	16268	0	324
-4.219	-14.281	16440	16152	0	324
-3.029	-14.894	16440	16036	0	324
-2.849	-13.848	16440	16036	0	324
-5.517	-8.511	16463	16268	0	324
-7.681	-5.013	16440	16384	0	324
-6.094	-2.741	16440	16384	0	324
-1.767	-2.380	16440	16152	0	324
2.164	0.793	16440	16152	0	324
4.291	3.498	16440	16152	0	324
3.534	6.311	16406	15919	0	324
1.911	6.419	16406	15454	0	324
3.318	4.508	16406	14989	0	324
5.409	3.462	16406	14524	0	324
8.366	5.626	16384	14291	0	324
9.881	9.088	16384	14059	0	324
6.022	11.576	16384	13943	0	324
-1.659	9.520	16362	13710	0	324
-7.789	2.164	16362	13245	0	324
-9.665	-4.436	16328	13012	0	324
-8.691	-8.475	16328	13012	0	324
-6.131	-8.871	16328	13129	0	324
-6.419	-9.737	16328	13361	0	324
-9.160	-7.393	16305	13594	0	324
-15.146	-5.049	16305	13943	0	324
-16.156	-2.019	16305	14408	0	324
-13.920	-0.469	16328	14989	0	324
-12.369	-2.236	16328	15687	0	324
-9.088	-4.327	16362	16384	0	324
-7.032	-2.524	16328	16849	0	324
-7.248	1.623	16362	17314	0	324
-6.816	5.554	16362	17779	0	324
-5.842	3.101	16362	18128	0	324
-4.183	-2.452	16362	18128	0	324
-3.714	-6.960	16362	18128	0	324
-3.823	-3.498	16362	18011	0	324
-2.344	4.436	16362	18128	0	324
0.505	11.071	16362	18360	0	324
2.488	11.792	16362	18477	0	324
2.705	8.294	16362	18477	0	324
0.433	2.705	16362	18360	0	324
-2.777	-0.938	16362	18244	0	324
-4.291	-0.974	16362	18128	0	324
-6.924	0.613	16362	18244	0	324
-8.655	0.613	16362	18360	0	324
-11.684	-2.308	16384	18593	0	324
-13.523	-5.085	16384	18709	0	324
-14.461	-7.104	16384	18477	0	324
-9.268	-4.508	16384	18128	0	324
-4.760	1.659	16384	17895	0	324
-0.541	8.835	16384	17663	0	324
0.433	8.763	16384	17197	0	324
-1.370	3.967	16384	16616	0	324
-7.934	-6.708	16362	15919	0	324
-16.480	-19.113	16362	15338	0	324
-21.709	-24.558	16362	15105	0	324
-23.765	-23.116	16362	14989	0	324
-19.437	-12.802	16328	14989	0	324
-10.278	-2.957	16328	14873	0	324
0.541	3.065	16328	14873	0	324
8.042	2.416	16328	14989	0	324
8.511	-1.911	16328	15222	0	324
4.472	-4.688	16328	15454	0	324
1.154	-5.662	16328	15571	0	324
-1.262	-3.570	16328	15338	0	324
-2.993	-6.744	16328	15222	0	324
-6.852	-11.035	16328	15454	0	324
-11.215	-16.625	16328	15919	0	324
-14.677	-16.733	16328	16732	0	324
-13.127	-15.146	16362	17546	0	324
-5.842	-10.169	16362	18360	0	324
-1.695	-7.032	16384	19058	0	324
-2.488	-8.366	16384	19407	0	324
-6.383	-14.461	16384	19523	0	324
-9.989	-17.562	16384	19523	0	324
-11.360	-20.267	16406	19523	0	324
-8.799	-18.247	16406	19407	0	324
-9.737	-16.372	16406	19058	0	324
-9.448	-11.828	16406	18709	0	324
-8.835	-11.107	16406	18244	0	324
-6.275	-9.340	16406	17779	0	324
-0.974	-6.960	16406	17197	0	324
4.255	-4.400	16406	16849	0	324
2.741	-2.092	16406	16384	0	324
-5.517	-0.793	16406	16268	0	324
-16.120	-2.344	16406	16268	0	324
-29.174	-4.291	16406	16384	0	324
-39.596	-7.140	16406	16384	0	324
-45.186	-7.753	16406	16268	0	324
-46.845	-5.878	16406	16152	0	324
-47.962	-3.570	16406	15803	0	324
-49.621	-3.823	16406	15338	0	324
-47.674	-7.032	16406	14757	0	324
-44.789	-13.668	16384	14291	0	324
-36.711	-16.552	16384	14175	0	324
-25.027	-16.192	16384	14059	0	324
-14.749	-8.366	16384	13943	0	324
-7.970	-1.659	16384	13943	0	324
-6.311	-0.974	16384	14059	0	324
-8.078	-5.373	16384	14408	0	324
-13.018	-10.710	16384	14873	0	324
-14.749	-11.035	16384	15454	0	324
-14.533	-2.849	16384	15803	0	324
-15.435	4.255	16384	15919	0	324
-16.228	3.173	16384	15919	0	324
-22.142	-6.131	16384	15687	0	324
-24.702	-14.461	16362	15222	0	324
-23.044	-18.608	16362	14757	0	324
-18.500	-11.107	16362	14524	0	324
-8.547	-1.947	16362	14524	0	324
-3.714	2.957	16328	14524	0	324
0.000	3.498	16328	14408	0	324
-0.397	-0.036	16328	14408	0	324
-2.777	-2.344	16328	14640	0	324
-8.222	-2.849	16328	15105	0	324
-14.533	-2.380	16328	15919	0	324
-18.752	-1.082	16328	16616	0	324
-22.214	-0.288	16362	17314	0	324
-21.204	-1.082	16362	17779	0	324
-15.975	-2.669	16384	18244	0	324
-11.035	-3.173	16384	18709	0	324
-6.671	-3.101	16406	19058	0	324
-8.727	-3.642	16384	18942	0	324
-14.533	-5.590	16384	18825	0	324
-24.053	-7.140	16384	18825	0	324
-30.004	-7.862	16384	18942	0	324
-23.549	-5.950	16406	19174	0	324
-14.821	0.361	16406	19407	0	324
-3.678	3.029	16406	19639	0	324
2.524	3.750	16440	19756	0	324
0.036	-0.829	16440	19639	1	796
-5.337	-5.337	16440	19174	0	796
-10.819	-9.232	16440	18709	0	796
-9.196	-7.212	16440	18128	0	796
-3.426	-0.649	16440	17546	0	796
0.361	6.708	16440	17197	0	796
4.327	8.186	16440	17197	0	796
2.849	3.498	16440	17197	0	796
1.082	-5.157	16463	17081	0	796
-0.974	-9.160	16440	16616	0	796
-1.839	-4.760	16440	16152	0	796
-3.246	3.823	16440	15687	0	796
-4.436	7.212	16440	15222	0	796
-8.402	3.787	16440	14757	0	796
-7.717	-5.517	16440	14408	0	796
-6.996	-11.468	16406	14291	0	796
-4.508	-9.196	16406	14059	0	796
-0.036	-1.154	16406	13826	0	796
3.065	6.203	16406	13826	0	796
3.859	7.681	16406	13826	0	796
0.974	0.902	16406	13710	0	796
-3.354	-6.852	16406	13943	0	796
-4.508	-10.314	16406	14291	0	796
-0.938	-7.429	16406	14640	0	796
5.662	-0.108	16406	15105	0	796
8.475	4.183	16406	15338	0	796
3.318	1.442	16406	15454	0	796
-4.436	-7.465	16384	15222	0	796
-15.867	-16.480	16384	14989	0	796
-20.447	-19.293	16384	14989	0	796
-22.286	-20.014	16384	15222	0	796
-18.139	-13.235	16384	15571	0	796
-13.091	-6.816	16384	15919	0	796
-6.239	-2.669	16384	16268	0	796
-1.731	-1.046	16384	16500	0	796
-2.344	-1.911	16384	16616	0	796
-6.347	-6.058	16384	16616	0	796
-12.874	-6.491	16384	16616	0	796
-15.146	-7.609	16384	16732	0	796
-14.677	-8.258	16384	16732	0	796
-15.002	-11.251	16384	16732	0	796
-13.199	-14.605	16384	16732	0	796
-17.779	-20.447	16384	16500	0	796
-22.935	-24.089	16384	16268	0	796
-30.508	-26.866	16384	16152	0	796
-34.764	-28.237	16384	16268	0	796
-33.682	-27.335	16384	16384	0	796
-28.994	-25.496	16384	16616	0	796
-24.775	-23.152	16384	16849	0	796
-22.719	-23.296	16384	17081	0	796
-23.585	-20.952	16384	17546	0	796
-27.227	-19.113	16406	17663	0	796
-26.794	-16.949	16406	17546	0	796
-25.171	-12.189	16406	17314	0	796
-22.467	-7.717	16384	16965	0	796
-17.779	-9.232	16384	16500	0	796
-15.831	-10.206	16384	16152	0	796
-15.038	-16.769	16384	15571	0	796
-20.014	-25.856	16362	15338	0	796
-25.460	-29.318	16362	15454	0	796
-31.987	-29.246	16384	15803	0	796
-37.144	-27.840	16384	16152	0	796
-36.423	-25.568	16384	16500	0	796
-30.040	-24.450	16384	16732	0	796
-21.096	-21.421	16384	16849	0	796
-10.819	-18.572	16384	17197	0	796
-5.842	-13.595	16384	17430	0	796
-8.691	-14.281	16406	17663	0	796
-11.323	-15.759	16406	17895	0	796
-16.552	-20.375	16406	18128	0	796
-16.769	-21.385	16406	18477	0	796
-17.743	-23.008	16440	18709	0	796
-18.500	-20.303	16440	18825	0	796
-19.942	-19.329	16406	18709	0	796
-17.598	-13.451	16406	18128	0	796
-16.589	-12.081	16406	17663	0	796
-16.084	-12.045	16406	17314	0	796
-20.555	-21.601	16406	17314	0	796
-26.722	-31.302	16440	17546	0	796
-31.554	-36.675	16440	17546	0	796
-31.410	-34.367	16440	17663	0	796
-27.263	-23.981	16440	17663	0	796
-19.473	-14.533	16440	17546	0	796
-16.336	-8.583	16440	17314	0	796
-14.677	-9.196	16463	17314	0	796
-19.762	-14.461	16463	17430	0	796
-24.847	-17.021	16463	17663	0	796
-27.299	-21.168	16497	18011	0	796
-25.929	-20.447	16497	18128	0	796
-21.421	-21.565	16497	18128	0	796
-17.310	-21.024	16497	17779	0	796
-20.159	-23.981	16497	17314	0	796
-24.775	-27.263	16497	16616	0	796
-31.771	-29.246	16497	15919	0	796
-35.665	-29.138	16497	15222	0	796
-33.826	-25.784	16463	14640	0	796
-30.112	-22.863	16440	13943	0	796
-26.470	-17.310	16440	13245	0	796
-25.027	-15.507	16406	12431	0	796
-24.522	-14.389	16406	11501	0	796
-25.604	-14.497	16384	10919	0	796
-25.063	-13.415	16384	10803	0	796
-22.395	-14.497	16362	10919	0	796
-20.808	-14.208	16362	11152	0	796
-21.565	-14.245	16362	11268	0	796
-21.565	-19.329	16328	11501	0	796
-26.974	-22.286	16328	11733	0	796
-31.843	-22.755	16328	11850	0	796
-35.846	-21.854	16305	12082	0	796
-35.557	-19.546	16328	12431	0	796
-35.954	-20.952	16328	13012	0	796
-30.184	-22.358	16328	13594	0	796
-24.919	-21.565	16328	14175	0	796
-22.142	-17.093	16328	14989	0	796
-22.755	-9.845	16328	15687	0	796
-24.522	-7.645	16328	16384	0	796
-28.958	-15.182	16328	16849	0	796
-28.994	-24.486	16328	17430	0	796
-28.994	-32.420	16328	18128	0	796
-27.876	-30.292	16362	18825	0	796
-30.472	-23.837	16362	19407	0	796
-35.160	-15.290	16362	19756	0	796
-37.468	-12.694	16362	19988	0	796
-34.475	-13.668	16384	20104	0	796
-28.056	-12.622	16384	20104	0	796
-21.168	-14.136	16384	20104	0	796
-19.582	-12.838	16384	20221	0	796
-18.320	-14.497	16406	20453	0	796
-22.503	-18.247	16406	20686	0	796
-20.591	-16.336	16406	20686	0	796
-16.841	-14.064	16440	20802	0	796
-13.307	-9.484	16440	20686	0	796
-15.579	-8.655	16440	20686	0	796
-19.690	-12.622	16463	20802	0	796
-26.073	-17.310	16463	20802	0	796
-28.489	-22.611	16463	20453	0	796
-26.181	-24.198	16463	19756	0	796
-24.306	-22.395	16463	18825	1	548
-24.666	-17.598	16463	18011	0	548
-29.823	-12.153	16440	17314	0	548
-35.521	-10.350	16440	16732	0	548
-38.911	-15.615	16440	16152	0	548
-37.036	-21.673	16440	15687	0	548
-32.853	-29.246	16440	15454	0	548
-29.174	-30.220	16440	15105	0	548
-26.974	-24.847	16406	14524	0	548
-28.453	-17.274	16406	14059	0	548
-29.138	-14.172	16406	13710	0	548
-30.184	-14.353	16406	13245	0	548
-26.794	-16.228	16384	12780	0	548
-21.168	-20.195	16384	12547	0	548
-18.716	-20.195	16384	12315	0	548
-14.641	-14.569	16362	12198	0	548
-15.218	-9.592	16362	12082	0	548
-15.182	-8.402	16362	12082	0	548
-17.815	-8.799	16328	12082	0	548
-16.841	-10.674	16328	12082	0	548
-15.975	-12.550	16328	12315	0	548
-15.723	-14.172	16328	12664	0	548
-13.379	-11.756	16305	13245	0	548
-13.523	-12.622	16305	13826	0	548
-13.127	-11.468	16305	14291	0	548
-16.913	-9.845	16328	14757	0	548
-19.113	-12.550	16328	14989	0	548
-24.342	-19.329	16328	15105	0	548
-27.696	-27.083	16328	15222	0	548
-27.119	-32.384	16328	15571	0	548
-24.955	-28.453	16328	16036	0	548
-18.572	-21.024	16328	16384	0	548
-15.975	-13.668	16328	17197	0	548
-14.353	-11.504	16362	18128	0	548
-17.093	-11.756	16362	19174	0	548
-18.356	-15.543	16362	19872	0	548
-18.536	-15.435	16384	20453	0	548
-13.776	-11.684	16384	20686	0	548
-9.773	-9.917	16406	20686	0	548
-6.167	-6.671	16406	20686	0	548
-5.806	-3.895	16406	20570	0	548
-6.311	-4.075	16406	20570	0	548
-5.734	-3.101	16406	20337	0	548
-2.669	-3.101	16406	19872	0	548
-0.072	-3.750	16440	19290	0	548
-0.974	-3.642	16440	18825	0	548
-3.570	-3.173	16440	18593	0	548
-7.032	-1.515	16440	18360	0	548
-8.439	-2.777	16440	18128	0	548
-7.934	-7.537	16440	18011	0	548
-7.789	-12.333	16440	17546	0	548
-9.016	-15.254	16440	16965	0	548
-13.127	-12.369	16406	16500	0	548
-20.014	-8.294	16406	16268	0	548
-24.883	-8.835	16406	15687	0	548
-29.030	-13.343	16384	15105	0	548
-27.876	-17.166	16384	14757	0	548
-23.152	-20.339	16384	14757	0	548
-20.844	-17.634	16384	14640	0	548
-23.765	-18.031	16384	14408	0	548
-31.085	-19.798	16384	14059	0	548
-38.045	-22.575	16362	13826	0	548
-37.252	-21.601	16362	13710	0	548
-27.840	-12.946	16362	13594	0	548
-15.651	-6.816	16362	13710	0	548
-8.114	-0.829	16384	14059	0	548
-7.393	-0.902	16384	14408	0	548
-11.612	-3.137	16384	14989	0	548
-12.477	-6.239	16384	15571	0	548
-12.766	-6.744	16406	16384	0	548
-9.088	-5.481	16384	16732	0	548
-6.635	-5.085	16384	16849	0	548
-8.258	-5.950	16384	16616	0	548
-12.946	-10.025	16362	16384	0	548
-17.562	-14.245	16384	16152	0	548
-21.168	-13.487	16384	15687	0	548
-23.044	-10.963	16384	15338	0	548
-23.621	-7.573	16362	15105	0	548
-22.142	-5.914	16362	14757	0	548
-22.611	-9.052	16362	14757	1	316
-24.666	-13.379	16362	14757	0	316
-23.440	-14.425	16362	14989	0	316
-20.159	-13.343	16362	15338	0	316
-16.156	-9.556	16362	15919	0	316
-7.645	-1.587	16362	16732	0	316
-1.623	5.301	16384	17430	0	316
0.361	8.727	16384	17895	0	316
-0.613	6.455	16384	17895	0	316
-4.832	-2.560	16384	17546	0	316
-7.321	-12.081	16362	17081	0	316
-6.599	-15.002	16362	16616	0	316
-1.983	-9.520	16362	16268	0	316
4.472	-1.623	16362	15919	0	316
7.212	5.517	16362	15919	0	316
8.655	8.042	16362	16152	0	316
7.825	4.219	16362	16384	0	316
6.744	-1.442	16362	16732	0	316
5.301	-3.859	16362	16849	0	316
5.085	-4.039	16362	16965	0	316
4.183	-1.442	16362	16965	0	316
5.265	1.803	16362	16965	0	316
6.744	4.003	16362	17081	0	316
6.022	1.695	16362	17197	0	316
0.397	-4.580	16362	17197	0	316
-5.734	-10.638	16362	17081	0	316
-10.891	-14.281	16362	16849	0	316
-10.025	-11.468	16362	16732	0	316
-4.544	-2.308	16362	16849	0	316
0.036	2.885	16362	17314	0	316
-1.515	4.796	16384	17546	0	316
-8.511	-2.524	16384	17779	0	316
-13.415	-8.042	16384	17895	0	316
-14.749	-9.160	16384	17895	0	316
-7.681	-4.544	16384	17663	0	316
1.082	-1.623	16384	17546	0	316
4.291	-3.462	16384	17314	0	316
3.534	-5.337	16384	17081	0	316
-1.695	-5.481	16384	16732	0	316
-2.524	2.200	16384	16268	0	316
0.793	13.127	16362	15687	0	316
7.357	17.057	16362	15222	0	316
11.215	14.785	16362	15105	0	316
10.710	6.167	16362	15338	0	316
8.006	-2.380	16362	15454	0	316
2.416	-4.400	16362	15571	0	316
2.308	-1.442	16362	15454	0	316
6.022	4.760	16362	15571	0	316
11.756	10.602	16362	15687	0	316
16.192	14.281	16362	15687	0	316
15.543	12.333	16362	15803	0	316
11.612	6.924	16362	16036	0	316
4.977	-0.541	16362	16384	0	316
3.534	-3.750	16362	16616	0	316
5.193	-2.741	16384	16965	0	316
5.301	2.308	16384	17430	0	316
4.364	6.635	16384	17779	0	316
0.433	5.445	16384	18128	0	316
-2.921	1.587	16406	18477	0	316
-1.406	0.216	16406	18477	0	316
0.829	1.515	16406	18360	0	316
4.796	7.357	16406	18011	0	316
5.409	9.737	16406	17663	0	316
2.705	6.888	16406	17314	0	316
-0.721	1.334	16406	16965	0	316
-4.760	-4.724	16406	16616	0	316
-6.311	-6.888	16406	16268	0	316
-5.517	-5.626	16406	16152	0	316
1.262	-0.252	16406	16268	0	316
8.402	8.583	16406	16384	0	316
16.552	17.490	16406	16384	0	316
20.627	29.030	16406	16036	0	316
22.863	30.869	16406	15687	0	316
17.995	27.047	16384	15338	0	316
15.543	18.175	16384	15105	0	316
11.107	9.773	16384	15105	0	316
7.789	12.514	16384	15105	0	316
4.003	17.129	16384	14873	0	316
0.541	24.342	16384	14524	0	316
-2.633	25.568	16362	14175	0	316
-4.291	20.591	16362	14059	0	316
-5.157	15.579	16362	14059	0	316
-3.895	9.124	16362	14059	0	316
-0.288	7.789	16328	13826	0	316
1.623	7.393	16328	13826	0	316
6.888	12.009	16328	13710	0	316
10.530	14.136	16328	13710	0	316
11.900	18.067	16305	13943	0	316
14.281	16.805	16305	14175	0	316
18.031	13.018	16305	14408	0	316
21.132	13.704	16305	14757	0	316
24.558	15.182	16305	15105	0	316
27.479	22.539	16305	15454	0	316
27.912	27.443	16305	15803	0	316
25.820	29.354	16328	16036	0	316
24.702	26.145	16328	16384	0	316
24.270	20.952	16362	16616	0	316
23.801	15.182	16328	17081	0	316
25.965	16.625	16328	17546	0	316
30.328	19.473	16362	18244	0	316
30.869	25.424	16362	19290	0	316
27.912	25.640	16384	20221	0	316
18.897	17.887	16384	20802	0	316
9.340	7.140	16406	21035	0	316
-0.216	-2.380	16406	21151	0	316
-0.793	-6.131	16406	21267	0	316
2.669	-4.544	16440	21035	0	316
9.124	-1.695	16406	20453	0	316
9.989	-0.613	16440	19756	0	316
9.592	-0.685	16440	19174	0	316
7.789	0.288	16440	18593	1	440
5.914	1.334	16440	18244	0	440
7.248	3.750	16406	17546	0	440
11.576	5.013	16384	16616	0	440
14.389	9.052	16384	15919	0	440
16.228	11.973	16384	15571	0	440
19.437	12.261	16384	15687	0	440
20.123	13.415	16384	15803	0	440
22.575	12.117	16384	15803	0	440
23.981	12.009	16384	15687	0	440
21.529	13.956	16384	15338	0	440
16.949	12.297	16384	15105	0	440
9.737	8.150	16384	14873	0	440
7.717	7.248	16384	14873	0	440
11.504	9.737	16384	14873	0	440
13.956	14.136	16384	14873	0	440
15.579	17.634	16362	14989	0	440
10.206	10.133	16362	14873	0	440
-0.757	-5.770	16384	14640	0	440
-7.862	-19.293	16384	14291	0	440
-10.278	-25.424	16384	14175	0	440
-7.537	-19.437	16362	14175	0	440
-3.823	-10.206	16362	14175	0	440
0.397	-0.216	16362	13943	0	440
2.777	2.416	16362	13826	0	440
3.534	-0.685	16328	13943	0	440
6.744	-3.534	16362	14059	0	440
12.117	-2.452	16328	14175	0	440
14.785	3.210	16328	14291	0	440
18.897	10.133	16328	14640	0	440
19.077	16.228	16328	15105	0	440
21.168	19.546	16328	15338	0	440
22.863	18.247	16328	15803	0	440
28.128	19.582	16328	16384	0	440
31.843	20.411	16328	16965	0	440
34.295	21.565	16362	17663	0	440
32.816	22.142	16362	18128	0	440
29.138	18.356	16362	18477	0	440
24.198	14.966	16362	18477	0	440
19.942	9.881	16362	18244	0	440
17.490	5.373	16362	18011	0	440
13.523	1.983	16362	17779	0	440
6.491	-0.865	16362	17663	0	440
-0.288	-5.265	16362	17663	0	440
-9.124	-11.864	16362	17546	0	440
-14.497	-17.598	16362	17314	0	440
-11.468	-20.123	16362	17081	0	440
-6.852	-15.471	16362	16849	0	440
-0.974	-7.898	16362	16732	0	440
3.823	-2.092	16362	16965	0	440
4.652	-2.128	16362	17430	0	440
7.104	-5.085	16362	17895	0	440
10.350	-4.364	16362	18011	0	440
15.398	4.075	16384	18128	0	440
21.998	12.297	16384	18244	0	440
25.424	20.591	16384	18244	0	440
28.777	21.168	16384	18011	0	440
30.292	20.087	16384	17895	0	440
31.771	17.382	16384	17779	0	440
31.735	19.149	16406	18011	0	440
28.886	16.408	16406	18477	0	440
27.047	15.290	16440	18942	0	440
27.840	12.117	16440	19174	0	440
33.682	12.694	16440	19174	0	440
39.957	15.903	16463	19058	0	440
41.183	14.641	16463	18825	0	440
33.357	10.674	16463	18244	0	440
17.959	-1.947	16463	17430	0	440
5.517	-13.848	16440	16500	0	440
2.993	-21.024	16440	15687	0	440
11.251	-15.254	16440	14873	0	440
20.916	-4.652	16406	13943	0	440
31.302	4.436	16406	13012	0	440
34.583	8.475	16384	12082	0	440
35.990	5.157	16384	11617	0	440
34.547	0.000	16362	11384	0	440
33.718	-2.741	16362	11152	0	440
32.889	-2.921	16328	11036	0	440
33.249	-1.947	16328	11268	0	440
37.505	0.000	16328	11617	0	440
40.245	5.049	16328	12198	0	440
44.428	12.550	16328	12896	0	440
43.599	16.913	16328	13710	0	440
40.534	21.637	16328	14524	0	440
39.199	19.654	16328	15454	0	440
39.308	19.329	16328	16384	0	440
41.111	16.697	16362	17081	0	440
43.924	16.805	16362	17663	0	440
42.842	12.874	16362	17895	0	440
37.252	9.052	16362	18011	0	440
32.203	4.977	16362	18128	0	440
29.823	4.364	16362	18011	0	440
32.023	7.970	16362	17895	0	440
33.862	13.379	16362	17779	0	440
34.692	15.038	16362	17546	0	440
31.518	10.530	16362	17546	0	440
28.705	5.481	16362	17779	0	440
28.777	1.551	16362	17895	0	440
30.833	2.813	16362	18011	0	440
31.843	9.376	16362	17895	0	440
29.535	12.586	16362	17779	0	440
25.929	16.120	16362	17430	0	440
21.673	14.858	16362	17197	0	440
17.238	11.287	16362	16965	0	440
16.228	9.268	16362	16849	0	440
15.362	5.950	16362	16849	0	440
17.995	4.364	16362	16849	0	440
20.519	8.439	16384	17081	0	440
25.496	13.307	16384	17314	0	440
27.732	20.339	16384	17314	0	440
27.335	23.080	16384	17081	0	440
27.804	23.188	16384	17081	0	440
27.912	24.089	16384	17081	0	440
30.328	21.926	16384	16965	0	440
31.338	23.296	16384	16500	0	440
30.905	23.981	16384	16268	0	440
27.335	20.014	16362	16036	0	440
22.611	15.759	16362	15687	0	440
18.175	10.746	16384	15571	0	440
17.562	12.514	16384	15571	0	440
16.697	15.651	16384	15571	0	440
16.084	23.224	16384	15454	0	440
14.858	26.361	16384	15454	0	440
14.353	22.322	16384	15687	0	440
10.242	16.228	16384	15919	0	440
9.592	8.042	16384	15919	0	440
9.520	3.354	16384	15803	0	440
8.907	3.210	16384	15687	0	440
9.989	5.373	16384	15454	0	440
9.484	10.278	16362	15338	0	440
7.789	12.766	16362	15222	0	440
5.229	12.550	16362	14873	0	440
6.347	11.900	16328	14408	0	440
7.934	9.845	16328	13943	0	440
13.018	8.222	16305	13478	0	440
15.939	6.888	16305	13245	0	440
16.480	6.203	16305	13245	0	440
12.586	5.986	16305	13478	0	440
4.400	5.265	16305	14059	0	440
-2.633	2.705	16305	14873	0	440
-5.914	1.515	16305	15571	0	440
-4.255	1.154	16305	16384	0	440
1.839	7.357	16305	17197	0	440
8.691	16.336	16328	18244	0	440
11.504	23.152	16328	19058	0	440
10.746	21.277	16362	19756	0	440
7.753	9.809	16362	20453	0	440
5.301	0.216	16384	21035	0	440
6.275	-4.904	16384	21267	0	440
5.013	-3.462	16406	21267	0	440
3.498	0.216	16406	21035	0	440
0.685	3.462	16406	20570	0	440
-4.255	2.019	16406	20104	0	440
-5.409	-0.397	16406	19407	0	440
-5.013	-2.416	16406	18709	1	616
-1.190	-1.695	16406	18128	0	616
3.426	1.623	16406	17546	0	616
8.511	5.878	16406	17314	0	616
14.100	12.333	16406	17197	0	616
15.579	17.346	16406	17081	0	616
17.706	16.949	16406	17081	0	616
16.589	19.401	16406	17081	0	616
15.975	17.526	16406	16849	0	616
17.779	19.618	16406	16500	0	616
16.300	19.113	16440	16384	0	616
18.969	19.726	16440	16268	0	616
18.933	19.978	16440	16152	0	616
18.067	18.464	16440	16152	0	616
19.221	20.339	16440	16384	0	616
16.841	17.598	16440	16616	0	616
15.939	15.326	16463	16965	0	616
11.792	9.412	16463	17197	0	616
7.681	6.094	16463	17197	0	616
3.714	3.282	16463	16965	0	616
2.380	5.409	16463	16732	0	616
5.013	7.321	16440	16384	0	616
8.943	8.943	16440	16268	0	616
12.189	8.763	16440	16152	0	616
14.353	8.547	16463	16152	0	616
16.913	11.360	16463	16268	0	616
16.336	14.353	16463	16268	0	616
15.687	19.437	16463	15919	0	616
12.333	16.552	16463	15571	0	616
10.674	12.189	16463	15338	0	616
8.907	7.285	16440	14873	0	616
11.035	6.131	16440	14408	0	616
13.343	10.278	16440	13943	0	616
15.795	16.985	16406	13361	0	616
14.208	18.283	16406	13012	0	616
13.559	16.841	16406	12896	0	616
9.845	11.035	16406	12896	0	616
6.311	6.888	16384	13129	0	616
2.993	3.029	16384	13478	0	616
0.541	3.065	16384	13710	0	616
5.698	5.734	16384	13710	0	616
10.061	10.350	16384	13710	0	616
14.389	13.379	16384	13943	0	616
17.598	17.346	16384	14291	0	616
16.661	16.336	16362	14408	0	616
13.199	13.451	16362	14524	0	616
14.713	11.143	16362	14640	0	616
14.208	8.330	16362	14989	0	616
15.254	6.058	16362	15454	0	616
11.756	3.065	16362	15919	0	616
7.140	3.570	16362	16500	0	616
4.688	3.678	16384	17081	0	616
5.698	5.301	16384	17546	0	616
10.133	8.186	16384	17663	0	616
13.451	9.953	16384	17430	0	616
14.641	11.864	16384	17430	0	616
12.477	12.658	16384	17546	0	616
8.439	10.422	16384	17663	0	616
10.746	10.855	16384	17895	0	616
14.461	9.376	16384	18244	0	616
16.877	9.953	16384	18477	0	616
19.365	12.045	16406	18593	0	616
15.795	14.569	16406	18593	0	616
12.081	13.127	16406	18360	0	616
8.691	13.451	16406	18128	0	616
7.212	12.477	16406	18011	0	616
10.422	9.232	16406	18011	0	616
12.441	7.970	16406	17895	0	616
12.333	6.419	16406	17779	0	616
10.169	6.167	16406	17546	0	616
11.107	4.255	16406	17197	0	616
11.251	4.544	16406	16849	0	616
15.507	4.940	16406	16616	0	616
21.493	8.475	16406	16500	0	616
23.512	17.706	16406	16500	0	616
22.214	24.089	16406	16384	0	616
22.863	26.866	16406	16268	0	616
19.834	23.765	16406	16384	0	616
18.356	13.920	16406	16384	0	616
17.526	7.032	16406	16500	0	616
15.615	4.940	16406	16616	0	616
13.307	5.698	16384	16849	0	616
9.809	7.212	16440	16965	0	616
2.633	3.967	16440	17081	0	616
-1.731	-2.705	16440	17081	0	616
1.082	-6.419	16440	16965	0	616
11.468	-2.308	16384	16384	0	616
26.938	6.744	16384	15571	0	616
35.846	15.975	16384	14873	0	616
37.468	18.103	16362	14408	0	616
30.400	12.874	16384	14059	0	616
23.909	6.167	16384	13943	0	616
21.637	0.721	16384	13943	0	616
20.447	0.541	16384	14059	0	616
18.392	2.452	16362	13826	0	616
14.389	4.400	16362	13478	0	616
8.763	1.190	16362	13245	0	616
5.590	-4.724	16328	13361	0	616
2.777	-12.117	16328	13710	0	616
0.108	-17.238	16362	14291	0	616
-1.875	-16.372	16328	14989	0	616
-3.029	-7.934	16328	15571	0	616
1.226	-2.452	16362	16152	0	616
5.806	-0.288	16362	16616	0	616
13.595	-1.983	16362	17197	0	616
18.392	-6.491	16362	17546	0	616
17.057	-7.429	16362	17779	0	616
17.779	-2.560	16362	17895	0	616
14.569	5.770	16362	18011	0	616
17.779	13.271	16362	18011	0	616
20.988	17.562	16362	17895	0	616
22.827	16.444	16362	17663	0	616
23.693	11.432	16362	17430	0	616
18.500	6.275	16362	17314	0	616
13.956	2.885	16362	17081	0	616
8.763	-0.469	16362	16732	0	616
4.039	-1.983	16362	16500	0	616
-2.092	-4.508	16362	16384	0	616
-4.652	-6.347	16362	16384	0	616
-7.321	-7.609	16362	16732	0	616
-9.592	-7.393	16362	17430	0	616
-9.556	-8.402	16384	18128	0	616
-11.792	-10.422	16384	18709	0	616
-12.874	-13.559	16406	19058	0	616
-10.458	-12.333	16406	19174	0	616
-10.783	-10.386	16406	19174	0	616
-9.304	-7.285	16406	19174	0	616
-9.917	-6.383	16440	19058	0	616
-11.107	-5.517	16440	18709	0	616
-10.855	-6.347	16406	18011	0	616
-8.006	-5.157	16406	17197	0	616
-3.282	-4.436	16406	16500	0	616
1.515	-3.137	16406	16036	0	616
5.085	-4.688	16384	15338	0	616
6.816	-2.813	16384	14757	0	616
8.366	2.092	16384	14408	0	616
7.970	4.724	16384	14059	0	616
8.727	4.472	16362	13943	0	616
11.071	-0.974	16362	13943	0	616
10.602	-4.796	16362	13943	0	616
10.927	-6.311	16362	13943	0	616
14.064	-2.885	16362	14059	0	616
10.891	0.361	16362	14408	0	616
10.891	-0.685	16362	14757	0	616
7.357	-4.832	16362	14757	0	616
5.157	-6.347	16328	14524	0	616
6.455	-3.750	16328	14408	0	616
7.068	4.075	16328	14408	0	616
9.268	11.251	16328	14408	0	616
8.871	11.900	16305	14291	0	616
7.212	6.203	16305	14175	0	616
7.501	-1.046	16305	14408	0	616
9.629	-5.229	16305	14757	0	616
12.261	-3.534	16305	15105	0	616
12.766	3.282	16305	15454	0	616
9.268	11.143	16305	15454	0	616
8.042	15.362	16305	15454	0	616
5.265	12.874	16305	15454	0	616
2.957	8.114	16305	15803	0	616
3.246	1.118	16305	16268	0	616
2.128	-2.633	16305	16616	0	616
2.596	-1.010	16328	17314	0	616
4.111	4.436	16328	17895	0	616
7.825	8.439	16328	18477	0	616
6.131	6.888	16328	18942	0	616
2.633	3.246	16362	19290	0	616
-0.288	-2.741	16362	19407	0	616
1.875	-6.239	16362	19290	0	616
5.806	-5.986	16362	19290	0	616
10.350	-1.623	16362	19407	0	616
11.720	2.957	16384	19756	0	616
9.592	7.825	16384	19988	0	616
5.626	11.684	16384	19988	0	616
6.022	15.146	16406	19988	0	616
5.734	12.369	16406	19872	0	616
6.491	6.239	16406	19872	0	616
4.003	-1.298	16440	19872	1	704
1.551	-8.006	16440	20221	0	704
-0.793	-8.150	16463	20453	0	704
-1.226	-4.652	16463	20686	0	704
-0.469	-1.226	16497	20686	0	704
-0.036	-1.370	16497	20686	0	704
1.334	-4.796	16519	20686	0	704
4.760	-5.013	16519	20104	0	704
8.655	-1.803	16497	19174	0	704
13.235	0.397	16497	18244	0	704
16.516	6.203	16497	17314	0	704
14.317	6.563	16497	16732	0	704
14.028	7.393	16497	16268	0	704
13.559	9.160	16497	15803	0	704
13.595	10.494	16497	15571	0	704
15.903	12.153	16497	15338	0	704
13.127	10.314	16497	15105	0	704
9.737	7.393	16497	14757	0	704
3.787	0.902	16497	14757	0	704
-0.902	-5.013	16497	14640	0	704
-2.669	-9.412	16519	14640	0	704
-2.344	-12.189	16519	14408	0	704
-2.092	-9.124	16463	14175	0	704
-1.334	-7.357	16463	13826	0	704
-2.416	-5.517	16463	13478	0	704
-5.806	-4.544	16463	13012	0	704
-5.085	-6.780	16463	12780	0	704
-3.931	-7.609	16440	12780	0	704
-0.649	-7.140	16440	13012	0	704
4.616	-5.554	16440	13361	0	704
8.294	-1.875	16440	13594	0	704
6.563	0.865	16440	13710	0	704
6.094	0.252	16440	13826	0	704
1.479	-1.406	16440	14059	0	704
0.721	-3.859	16440	14059	0	704
4.652	-2.993	16440	13710	0	704
8.943	1.334	16406	13245	0	704
12.333	6.708	16406	12664	0	704
11.648	8.943	16384	12431	0	704
6.383	5.409	16384	12315	0	704
2.705	3.714	16384	12664	0	704
0.361	0.036	16362	13129	0	704
0.036	-0.721	16362	13478	0	704
-1.154	-2.813	16362	13710	0	704
-4.796	-5.193	16362	13943	0	704
-8.835	-8.763	16328	14059	0	704
-9.376	-9.196	16328	13943	0	704
-5.806	-4.760	16328	13943	0	704
0.325	-1.623	16305	14059	0	704
3.931	1.262	16305	14175	0	704
3.931	1.262	16305	14408	0	704
-0.469	-1.659	16305	14640	0	704
-2.705	-2.777	16271	14873	0	704
-3.750	-1.911	16271	15222	0	704
-1.190	3.678	16271	15919	0	704
0.685	8.042	16271	16616	0	704
1.839	8.222	16271	17314	0	704
2.452	5.445	16328	17779	0	704
3.570	2.344	16328	18128	0	704
8.979	1.010	16362	18360	0	704
12.982	4.940	16328	18593	0	704
13.235	8.907	16328	18942	0	704
12.766	9.412	16328	19290	0	704
7.717	7.753	16328	19639	0	704
6.744	4.291	16328	19639	0	704
7.104	2.344	16328	19523	0	704
9.845	3.787	16328	19407	0	704
10.855	7.104	16362	19407	0	704
7.970	10.927	16362	19407	0	704
3.318	9.665	16362	19523	0	704
1.406	6.383	16362	19639	0	704
-1.334	-1.442	16362	19639	0	704
2.813	-6.275	16362	19407	0	704
6.563	-7.068	16362	19058	0	704
7.717	-4.688	16362	18709	0	704
4.508	-0.974	16362	18360	0	704
-0.108	-0.541	16362	18011	0	704
-4.075	-3.173	16362	17546	0	704
-4.111	-5.409	16362	16849	0	704
-3.210	-8.439	16362	16268	1	316
-0.938	-8.006	16328	15571	0	316
-1.587	-5.049	16328	15222	0	316
-2.344	-1.479	16328	14757	0	316
-0.938	2.488	16328	14524	0	316
2.560	4.039	16328	14640	0	316
6.419	4.147	16305	14873	0	316
7.898	2.092	16305	14989	0	316
7.393	0.144	16305	14873	0	316
5.481	-4.255	16305	14640	0	316
3.714	-2.993	16328	14640	0	316
5.770	-0.180	16328	14757	0	316
8.943	4.724	16328	15105	0	316
11.612	9.845	16328	15571	0	316
13.451	11.504	16328	16152	0	316
13.451	6.996	16328	16732	0	316
12.117	1.983	16362	17430	0	316
12.225	-0.829	16362	17779	0	316
12.189	0.433	16362	17895	0	316
11.035	5.157	16362	18128	0	316
11.071	7.393	16384	18593	0	316
12.910	8.402	16384	18942	0	316
12.802	3.931	16384	19174	0	316
13.487	-2.813	16384	19058	0	316
10.746	-6.599	16384	18942	0	316
3.606	-8.763	16406	18825	0	316
-2.308	-10.133	16406	18942	0	316
-7.357	-9.629	16406	19174	0	316
-6.419	-8.619	16440	19756	0	316
-3.895	-7.970	16440	19988	0	316
1.479	-6.780	16463	19988	0	316
6.563	-3.354	16463	19523	0	316
11.540	-1.262	16463	18825	0	316
15.831	2.308	16463	18244	0	316
21.313	4.796	16440	17546	0	316
23.224	7.140	16440	16849	0	316
22.358	8.366	16440	16152	0	316
23.116	8.763	16406	15454	0	316
20.700	6.022	16406	14989	0	316
21.060	6.671	16406	14873	0	316
21.745	5.517	16406	14873	0	316
19.618	6.996	16406	14757	0	316
17.346	7.934	16406	14524	0	316
12.910	6.960	16406	14291	0	316
7.537	1.479	16406	14175	0	316
7.645	-5.554	16406	14408	0	316
7.393	-10.566	16406	15105	0	316
6.311	-8.979	16406	15571	0	316
4.760	-4.832	16406	15571	0	316
-1.190	1.118	16440	15571	0	316
-9.953	2.596	16440	15571	0	316
-15.687	-0.433	16440	15571	0	316
-22.431	-3.678	16406	15454	0	316
-22.358	-5.698	16406	15222	0	316
-22.647	-5.337	16406	15105	0	316
-15.939	-4.760	16406	15105	0	316
-11.864	-6.022	16406	14989	0	316
-8.511	-8.402	16406	15105	0	316
-9.124	-8.475	16406	15222	0	316
-10.530	-4.977	16406	15222	0	316
-9.412	1.659	16406	14989	0	316
-5.662	6.094	16406	14873	0	316
-2.380	5.842	16406	15105	0	316
0.144	-1.767	16406	15454	0	316
1.767	-7.645	16406	15803	0	316
1.731	-9.737	16406	15919	0	316
2.596	-4.940	16406	16152	0	316
3.750	0.721	16406	16384	0	316
4.147	4.544	16406	16616	0	316
5.121	2.596	16406	17081	0	316
6.780	0.793	16440	17546	0	316
9.124	0.144	16440	17895	0	316
9.016	1.334	16406	18244	0	316
6.455	2.777	16463	18593	0	316
1.695	4.904	16463	18825	0	316
-0.433	5.914	16463	18942	0	316
1.659	6.383	16440	18825	0	316
4.868	5.698	16463	18593	0	316
7.537	3.462	16463	18477	0	316
6.671	-1.839	16463	18011	0	316
-0.974	-6.167	16463	17430	0	316
-8.402	-9.448	16440	16732	0	316
-14.930	-10.494	16440	16268	0	316
-14.749	-11.107	16440	15687	0	316
-10.350	-8.330	16440	15222	0	316
-2.813	-6.996	16440	14873	0	316
4.039	-6.094	16440	14989	0	316
5.986	-4.904	16406	14873	0	316
6.275	-2.524	16406	14640	0	316
3.714	0.361	16406	14291	0	316
5.265	1.551	16406	13943	0	316
6.094	4.688	16384	13710	0	316
10.061	5.914	16384	13710	0	316
12.369	6.455	16384	13826	0	316
13.451	6.491	16384	13943	0	316
10.025	4.400	16384	13943	0	316
5.662	-1.262	16384	13943	0	316
1.082	-6.744	16384	14291	0	316
0.793	-6.094	16384	14757	0	316
5.734	-3.498	16384	15105	0	316
11.973	0.144	16384	15454	0	316
13.704	2.633	16384	15803	0	316
12.441	0.072	16384	16036	0	316
7.285	-0.865	16384	16384	0	316
3.137	0.793	16384	16616	0	316
4.688	4.364	16384	16965	0	316
6.419	7.176	16384	17197	0	316
8.366	5.842	16384	17314	0	316
7.429	0.144	16384	17314	0	316
4.219	-5.734	16384	17197	0	316
0.757	-7.934	16384	17197	0	316
0.829	-8.006	16384	17197	0	316
4.183	-4.436	16384	17314	0	316
8.114	-1.226	16384	17546	0	316
10.746	1.154	16384	17779	0	316
12.982	3.678	16406	18128	0	316
12.117	5.914	16406	18477	0	316
9.592	6.311	16440	19058	0	316
9.268	4.832	16440	19523	0	316
5.085	-1.298	16440	19872	0	316
1.442	-6.167	16463	20104	0	316
-0.469	-9.773	16463	20337	0	316
-0.036	-10.458	16497	20337	0	316
2.993	-7.104	16497	19756	0	316
7.645	-2.669	16497	19058	0	316
9.665	1.947	16463	18360	0	316
13.379	5.734	16463	17779	0	316
11.792	8.366	16440	16965	1	508
8.258	8.691	16440	16036	0	508
5.734	6.058	16406	14873	0	508
2.272	2.957	16406	13710	0	508
1.695	-2.164	16384	12896	0	508
3.065	-3.065	16384	12198	0	508
6.635	-4.436	16362	11617	0	508
7.753	-1.803	16362	11152	0	508
7.140	1.046	16328	10803	0	508
8.222	4.075	16328	10803	0	508
9.665	7.032	16305	11152	0	508
7.970	8.943	16305	11617	0	508
6.094	5.950	16305	11966	0	508
3.426	0.829	16305	12082	0	508
0.649	-4.868	16305	11966	0	508
-0.469	-6.419	16305	11966	0	508
-0.505	-5.698	16271	12198	0	508
0.361	-1.659	16271	12780	0	508
0.361	2.056	16271	13361	0	508
1.659	2.272	16271	13826	0	508
4.580	3.462	16249	14175	0	508
7.537	4.183	16249	14408	0	508
5.626	1.515	16249	14989	0	508
0.865	-6.491	16249	15687	0	508
-9.412	-17.202	16249	16384	0	508
-15.074	-27.551	16249	16732	0	508
-15.146	-27.371	16249	17197	0	508
-4.688	-14.677	16305	17430	0	508
10.999	1.695	16271	17663	0	508
19.654	11.900	16271	17895	0	508
20.087	12.982	16271	17895	0	508
11.396	0.288	16249	17546	0	508
5.878	-9.665	16249	17197	0	508
3.498	-12.189	16249	16965	0	508
5.301	-10.386	16215	16849	0	508
7.465	-7.248	16215	16965	0	508
5.445	-7.104	16215	17081	0	508
0.757	-11.360	16215	17314	0	508
-2.921	-15.651	16249	17779	0	508
-4.436	-13.704	16271	18477	0	508
-3.750	-9.773	16271	19407	0	508
-0.974	-4.364	16305	20221	0	508
1.370	-1.118	16305	21035	0	508
3.570	-2.669	16328	21616	0	508
4.147	-5.770	16328	22314	0	508
1.515	-9.773	16362	22779	0	508
0.974	-11.792	16384	22895	0	508
0.829	-12.838	16384	23011	0	508
0.361	-9.340	16406	23011	0	508
1.442	-5.842	16406	23011	0	508
3.570	-1.623	16440	22546	0	508
5.662	0.072	16440	21965	0	508
5.337	-0.541	16440	21616	0	508
2.164	-3.750	16463	21267	0	508
0.397	-4.616	16463	21035	0	508
1.262	-1.587	16463	20686	0	508
6.203	2.092	16497	20104	0	508
10.674	6.022	16497	19407	0	508
12.514	7.357	16497	18709	0	508
6.563	8.475	16463	18011	0	508
3.210	8.547	16463	17430	0	508
3.137	6.888	16463	16732	0	508
4.327	2.993	16463	16384	0	508
5.590	-1.695	16463	15803	0	508
1.226	-7.825	16463	15338	0	508
-3.570	-10.530	16463	14757	0	508
-7.717	-8.330	16463	14291	0	508
-8.511	-6.599	16463	13710	0	508
-8.402	-5.986	16463	13245	0	508
-8.583	-9.809	16463	12780	0	508
-9.737	-13.163	16463	12547	0	508
-9.773	-14.785	16440	12431	0	508
-7.068	-12.730	16440	12315	0	508
-2.092	-6.527	16440	12315	0	508
-0.036	-3.823	16440	12431	0	508
0.505	-7.032	16440	12431	0	508
-1.767	-14.677	16406	12315	0	508
-3.137	-19.293	16406	12315	0	508
-1.803	-19.257	16406	12315	0	508
0.938	-10.566	16406	12431	1	316
4.111	-1.731	16406	12547	0	316
4.400	7.321	16406	12896	0	316
4.111	7.321	16406	13361	0	316
5.626	0.974	16406	13943	0	316
10.566	-4.904	16384	14291	0	316
12.586	-7.465	16384	14640	0	316
13.379	-6.563	16384	14873	0	316
7.212	-1.947	16384	14873	0	316
0.685	2.524	16362	14640	0	316
-1.082	4.400	16384	14408	0	316
3.137	3.246	16362	14059	0	316
10.133	5.734	16362	13594	0	316
18.211	6.383	16328	13245	0	316
18.536	5.770	16328	13012	0	316
17.923	3.642	16328	12896	0	316
14.569	2.993	16305	12896	0	316
15.759	4.075	16305	13012	0	316
17.093	9.304	16271	13245	0	316
21.277	18.536	16271	13594	0	316
20.411	20.916	16271	14175	0	316
18.572	19.510	16271	14640	0	316
12.405	12.189	16271	15222	0	316
9.737	5.301	16249	15687	0	316
8.871	1.334	16249	15919	0	316
12.514	4.796	16249	16268	0	316
16.156	10.494	16249	16500	0	316
16.841	15.182	16249	17197	0	316
17.310	17.346	16271	17895	0	316
14.713	12.117	16305	18477	0	316
14.281	8.619	16305	19058	0	316
13.271	6.311	16305	19407	0	316
9.773	4.688	16305	19523	0	316
8.511	7.212	16305	19639	0	316
6.852	8.439	16305	19756	0	316
5.698	6.780	16328	20221	0	316
6.996	4.075	16328	20686	0	316
6.852	0.325	16328	21151	0	316
4.904	-1.839	16362	21616	0	316
6.960	-0.325	16362	21616	0	316
9.196	5.013	16362	21267	0	316
10.674	11.720	16384	20802	0	316
12.225	15.975	16384	20453	0	316
12.261	16.444	16384	19988	0	316
11.107	12.658	16384	19407	0	316
11.937	9.232	16384	18593	0	316
13.704	5.806	16384	18011	0	316
10.350	2.344	16384	17663	0	316
4.436	-0.938	16384	17430	0	316
-1.947	-4.400	16384	17430	0	316
-7.934	-7.212	16384	17546	0	316
-9.592	-8.799	16384	17779	0	316
-5.373	-9.629	16406	18011	0	316
-1.298	-11.360	16406	18011	0	316
0.721	-11.864	16406	17779	0	316
0.000	-12.766	16406	17430	0	316
-0.325	-9.448	16406	16965	0	316
0.938	-3.931	16406	16384	0	316
4.832	0.505	16406	15571	0	316
6.996	2.669	16384	14640	0	316
7.609	1.803	16384	13826	0	316
5.193	-1.587	16362	13012	0	316
2.524	-4.183	16362	12547	0	316
0.144	-5.878	16362	12431	0	316
-0.721	-4.940	16328	12780	0	316
-2.813	-4.652	16362	13361	0	316
-5.337	-3.426	16362	14059	0	316
-5.013	-0.829	16362	14757	0	316
-1.334	2.236	16362	15454	0	316
3.354	4.472	16384	16152	0	316
7.681	3.426	16384	16616	0	316
11.323	1.875	16384	16965	0	316
10.386	-0.397	16384	17314	0	316
7.934	-1.370	16384	17430	0	316
6.599	0.180	16406	17663	0	316
7.068	1.839	16406	17895	0	316
5.986	3.750	16406	18011	0	316
5.950	5.554	16406	17663	0	316
2.921	6.167	16406	17430	0	316
0.829	4.940	16406	17314	0	316
-0.216	1.695	16440	17546	0	316
3.210	-2.272	16440	17779	0	316
5.986	-5.049	16440	17663	0	316
7.537	-3.462	16440	17314	0	316
7.645	-1.587	16440	17197	0	316
6.563	-0.541	16440	16965	0	316
5.481	-1.623	16440	16732	0	316
7.104	-4.400	16440	16268	0	316
9.737	-4.796	16406	15571	0	316
15.471	-2.993	16406	14640	0	316
18.572	4.147	16384	13826	0	316
22.503	9.737	16384	13129	0	316
22.358	13.668	16362	12664	0	316
19.654	11.973	16362	12431	0	316
18.824	8.402	16362	12547	0	316
14.713	5.481	16362	13012	0	316
11.396	3.750	16362	13361	0	316
10.458	5.806	16362	13594	0	316
7.753	6.239	16328	13943	0	316
6.347	2.019	16362	14408	0	316
2.488	-6.996	16362	15105	0	316
-3.173	-13.848	16362	15454	0	316
-6.419	-14.713	16362	15687	0	316
-6.744	-11.360	16362	16036	0	316
-1.803	-3.823	16362	16268	0	316
3.534	0.108	16362	16384	0	316
7.212	0.036	16362	16616	0	316
7.429	-0.938	16362	17081	0	316
6.708	-3.101	16362	17546	0	316
3.606	-3.318	16362	18011	0	316
0.397	-5.481	16362	18244	0	316
-3.318	-6.347	16384	18360	0	316
-5.193	-5.157	16384	18360	0	316
-3.750	-1.731	16384	18477	0	316
-1.406	0.613	16384	18709	0	316
2.596	0.433	16384	18942	0	316
4.868	-0.288	16406	19058	0	316
7.898	0.541	16406	19058	0	316
7.321	1.911	16406	18825	0	316
4.436	3.534	16406	18244	0	316
1.983	1.803	16406	17779	0	316
0.829	-3.246	16406	17430	0	316
0.325	-9.917	16406	17546	0	316
2.272	-12.333	16406	18128	0	316
1.875	-8.871	16440	18709	0	316
-3.354	-6.419	16440	18942	0	316
-7.032	-2.741	16463	18942	0	316
-8.475	-4.075	16463	18942	0	316
-5.085	-10.494	16463	19174	0	316
-1.190	-13.704	16497	19174	0	316
3.498	-15.362	16497	18825	0	316
5.806	-11.215	16497	18360	0	316
6.419	-5.085	16463	17779	0	316
3.787	-3.029	16463	17546	0	316
2.524	-1.262	16463	17314	0	316
1.370	-1.659	16463	16965	0	316
2.056	-2.056	16463	16384	0	316
3.750	-0.938	16463	16036	0	316
6.347	-0.577	16463	15687	0	316
5.373	-1.226	16463	15454	0	316
4.472	-0.505	16463	14989	0	316
2.128	0.721	16463	14291	0	316
-0.180	3.065	16440	13594	0	316
0.541	4.400	16440	13129	0	316
3.967	3.895	16440	12896	0	316
10.061	0.000	16440	12780	0	316
13.631	-3.642	16406	12780	0	316
17.598	-5.806	16406	12896	0	316
13.307	-4.327	16406	13361	0	316
10.350	-0.108	16406	13943	0	316
7.357	5.698	16406	14408	0	316
5.481	8.835	16440	14873	0	316
4.760	9.917	16440	15222	0	316
2.128	7.681	16406	15571	0	316
-0.325	1.911	16440	16036	0	316
-4.327	-2.272	16440	16384	0	316
-4.580	-6.996	16463	16965	0	316
-4.904	-6.275	16463	17197	0	316
-2.849	-3.282	16440	17314	0	316
-1.515	1.190	16440	17546	0	316
-0.865	3.354	16440	17779	0	316
1.082	1.370	16440	17779	0	316
1.406	-1.262	16440	17546	0	316
1.154	-2.993	16440	17197	0	316
0.180	-5.049	16440	16965	0	316
-3.570	-4.688	16440	16616	0	316
-3.137	-6.239	16440	16500	0	316
-2.596	-5.626	16440	16384	0	316
0.144	-3.570	16440	16384	0	316
0.938	1.839	16463	16500	0	316
-0.974	3.354	16463	16732	0	316
-2.524	4.652	16463	16616	0	316
-2.272	1.803	16463	16384	0	316
2.596	-1.118	16463	16268	0	316
10.097	0.577	16463	16036	0	316
14.641	4.400	16440	15919	0	316
16.589	9.196	16440	15454	0	316
12.622	9.773	16440	14989	0	316
7.212	5.626	16440	14640	0	316
2.957	-0.685	16406	14524	0	316
1.767	-3.859	16406	14291	0	316
1.839	-1.659	16406	13943	0	316
4.580	6.239	16384	13594	0	316
5.481	11.648	16384	13478	0	316
2.741	13.379	16384	13710	0	316
-1.551	8.907	16384	14059	0	316
-6.563	0.757	16384	14524	0	316
-9.737	-4.219	16384	14989	0	316
-10.314	-3.606	16384	15338	0	316
-6.960	-3.137	16384	15687	0	316
-4.580	-1.406	16384	16036	0	316
-3.065	-2.560	16384	16384	0	316
-4.616	-4.760	16384	16732	0	316
-4.580	-8.006	16406	17197	0	316
-2.633	-3.642	16406	17546	0	316
-1.010	-0.505	16406	17663	0	316
2.633	2.380	16406	17546	0	316
3.787	3.426	16406	17546	0	316
1.298	1.479	16384	17546	0	316
-0.649	-0.433	16384	17663	0	316
-0.036	-1.154	16384	17430	0	316
1.298	-1.695	16384	17197	0	316
2.957	-0.108	16384	16849	0	316
3.065	0.180	16384	16732	0	316
-0.036	-1.010	16384	16849	0	316
-3.931	-3.931	16362	16732	0	316
-5.734	-7.825	16384	16500	0	316
-2.308	-7.970	16384	16384	0	316
3.606	-6.599	16384	16384	0	316
11.143	-0.613	16384	16384	0	316
13.235	4.580	16384	16616	0	316
12.081	5.445	16384	16849	0	316
8.547	2.777	16406	17197	0	316
6.203	1.190	16384	17430	0	316
5.698	1.010	16384	17779	0	316
7.429	5.842	16384	18128	0	316
5.842	9.809	16406	18244	0	316
5.662	10.602	16406	18128	0	316
2.885	7.248	16406	17779	0	316
0.974	-2.128	16384	17081	0	316
-0.974	-10.746	16384	16500	0	316
-4.544	-15.182	16384	16036	1	884
-7.032	-12.225	16362	15222	0	884
-7.573	-1.551	16362	14757	0	884
-5.085	10.927	16362	14757	0	884
-0.865	18.464	16362	14873	0	884
3.462	20.159	16384	15105	0	884
5.554	13.091	16384	15222	0	884
5.481	8.619	16384	15338	0	884
5.914	10.169	16384	15571	0	884
5.914	13.235	16384	15687	0	884
6.635	16.408	16384	15687	0	884
5.698	19.401	16384	15687	0	884
4.255	17.923	16384	15571	0	884
2.921	16.697	16384	15919	0	884
1.911	15.002	16384	16500	0	884
3.750	14.028	16384	17081	0	884
4.472	8.186	16406	17546	0	884
2.344	5.914	16384	17895	0	884
-1.911	6.094	16384	18360	0	884
-4.364	7.537	16406	18825	0	884
-4.688	10.242	16406	19174	0	884
-2.128	12.333	16406	19290	0	884
2.200	12.550	16406	19290	0	884
3.534	11.107	16440	19290	0	884
5.373	8.835	16440	19290	0	884
2.380	9.881	16440	19407	0	884
2.164	9.484	16463	19523	0	884
3.354	10.710	16463	19639	0	884
3.282	12.946	16497	19523	0	884
5.337	15.939	16497	19290	0	884
5.554	13.487	16497	18942	0	884
4.291	11.648	16497	18825	0	884
-0.793	4.616	16519	18825	0	884
-1.947	-1.118	16519	18593	0	884
-1.479	-5.193	16519	17895	0	884
0.216	-2.272	16497	17197	0	884
2.921	2.380	16519	16616	0	884
2.885	7.248	16463	15803	0	884
1.010	9.160	16463	14757	0	884
-1.911	8.871	16440	13478	0	884
-0.721	7.429	16440	12431	0	884
-0.757	7.393	16406	11733	0	884
2.380	6.491	16406	11733	0	884
2.524	7.681	16406	11966	0	884
0.397	6.347	16406	12315	0	884
-3.570	5.337	16406	12431	0	884
-5.085	4.364	16406	12896	0	884
-5.445	4.183	16406	13361	0	884
-1.587	0.938	16406	13943	0	884
0.721	-0.902	16406	14059	0	884
-0.757	-4.508	16406	13943	0	884
-5.085	-6.131	16384	13826	0	884
-8.150	-7.609	16384	13594	0	884
-8.402	-9.484	16384	13710	0	884
-6.347	-12.225	16384	14059	0	884
-4.904	-12.838	16384	14524	0	884
-6.131	-15.002	16384	14989	0	884
-8.222	-11.792	16384	15338	0	884
-9.556	-6.383	16384	15454	0	884
-9.088	-3.642	16384	15338	0	884
-8.006	-4.255	16362	15222	0	884
-7.321	-6.058	16362	15222	0	884
-7.176	-9.665	16362	15222	0	884
-6.708	-11.540	16362	15105	0	884
-7.681	-14.858	16328	14873	0	884
-6.996	-13.379	16328	14640	0	884
-7.393	-12.189	16328	14757	0	884
-5.049	-11.468	16328	15105	0	884
-2.777	-6.311	16305	15454	0	884
-0.433	-0.829	16305	15687	0	884
0.000	-0.577	16305	15803	0	884
0.325	-1.334	16328	15919	0	884
1.911	-5.229	16328	16152	0	884
2.596	-7.717	16328	16268	0	884
2.560	-9.196	16362	16268	0	884
0.288	-6.599	16305	16268	0	884
-0.649	-2.488	16305	16268	0	884
-0.325	-0.288	16305	16268	0	884
3.137	-2.128	16305	16384	0	884
5.013	-4.580	16305	16616	1	316
2.921	-4.327	16305	16732	0	316
0.685	-0.938	16305	16965	0	316
-0.144	3.642	16305	17314	0	316
4.075	5.481	16305	17663	0	316
10.566	3.678	16305	18128	0	316
17.670	-0.577	16328	18709	0	316
17.166	-0.721	16328	19407	0	316
12.369	1.046	16328	19988	0	316
6.960	2.416	16362	20221	0	316
3.246	1.551	16362	19988	0	316
6.635	-2.416	16362	19639	0	316
11.071	-4.111	16362	19290	0	316
15.867	-0.505	16362	19058	0	316
12.189	4.652	16362	18825	0	316
6.924	7.140	16362	18825	0	316
3.318	7.645	16362	18709	0	316
3.714	3.029	16362	18360	0	316
9.160	-1.262	16362	17779	0	316
12.982	-1.154	16362	17197	0	316
14.281	0.649	16362	16616	0	316
8.763	6.455	16328	16152	0	316
3.029	9.304	16362	15571	0	316
-0.108	9.340	16362	14873	0	316
-0.325	7.357	16328	14059	0	316
5.662	3.354	16328	13478	0	316
10.819	2.705	16305	13245	0	316
14.677	5.409	16305	13245	0	316
12.189	10.602	16305	13361	0	316
11.468	14.641	16305	13594	0	316
12.009	20.050	16305	14059	0	316
14.245	20.231	16305	14524	0	316
18.860	18.356	16305	14989	0	316
15.687	10.566	16271	15105	0	316
6.888	0.361	16271	15338	0	316
-2.633	-7.970	16305	15919	0	316
-7.717	-7.285	16305	16384	0	316
-5.409	2.921	16305	16965	0	316
3.029	15.254	16305	17197	0	316
8.547	24.414	16305	17430	0	316
9.809	24.017	16305	17546	0	316
4.111	17.562	16305	17895	0	316
-5.590	11.756	16305	18011	0	316
-8.547	9.268	16362	18128	0	316
-10.963	8.366	16362	18128	0	316
-7.068	8.222	16362	18128	0	316
-4.183	6.996	16328	17779	0	316
-1.803	8.006	16362	17081	0	316
-1.911	9.665	16328	16384	0	316
-1.767	9.917	16328	16036	0	316
-1.659	10.999	16328	15919	0	316
-1.623	8.979	16328	16152	0	316
-1.695	6.058	16328	16384	0	316
-3.787	7.357	16328	16384	0	316
-4.688	6.455	16305	16384	0	316
-4.147	5.734	16305	16152	0	316
-1.731	6.383	16305	15919	0	316
2.633	6.671	16305	15919	0	316
4.977	7.104	16305	16268	0	316
3.282	5.265	16305	16616	0	316
1.731	2.200	16328	16965	0	316
-0.361	-1.587	16328	17314	0	316
0.469	-2.669	16328	17779	0	316
2.128	-1.010	16328	18128	0	316
0.865	0.865	16362	18477	0	316
-1.298	1.731	16362	18942	0	316
-1.623	0.397	16362	18942	0	316
-0.288	-2.128	16362	18709	0	316
3.967	-4.075	16362	18244	0	316
6.094	-3.390	16362	17895	0	316
5.121	-1.262	16362	17546	0	316
-0.144	1.226	16362	17197	0	316
-7.212	0.974	16362	16849	0	316
-13.379	-3.498	16362	16500	0	316
-19.437	-9.268	16384	16384	0	316
-20.087	-12.225	16384	16500	0	316
-18.824	-12.333	16384	16732	0	316
-11.612	-8.294	16406	17081	0	316
-3.859	-3.246	16384	17314	0	316
3.931	-1.118	16384	17546	1	316
5.698	-1.587	16384	17430	0	316
5.373	-2.019	16384	17197	0	316
2.019	-3.750	16384	17081	0	316
-0.902	-2.596	16384	16965	0	316
-0.469	-1.406	16406	16849	0	316
-0.325	0.829	16406	16732	0	316
-0.649	0.036	16406	16849	0	316
-1.731	-5.337	16406	17314	0	316
-3.390	-11.504	16440	17663	0	316
-2.669	-13.740	16440	17663	0	316
0.252	-13.776	16440	17430	0	316
5.481	-7.429	16440	17314	0	316
8.511	-0.361	16440	17197	0	316
8.114	3.282	16440	16965	0	316
4.147	2.308	16440	16616	0	316
1.298	-0.180	16440	16384	0	316
-0.072	-3.498	16440	16036	0	316
1.911	-3.787	16440	15803	0	316
3.967	-1.623	16440	15803	0	316
4.580	-0.469	16463	15919	0	316
3.173	0.216	16463	16036	0	316
-1.118	-1.442	16463	15803	0	316
-4.003	-0.144	16463	15571	0	316
-6.022	1.731	16463	15454	0	316
-6.167	3.823	16463	15338	0	316
-2.813	2.921	16440	15105	0	316
2.236	0.577	16440	14757	0	316
4.796	-2.993	16406	14640	0	316
4.364	-4.472	16440	14524	0	316
3.714	-2.849	16440	14291	0	316
2.921	-0.757	16440	14059	0	316
6.022	1.911	16406	13943	0	316
10.422	4.291	16384	13594	0	316
12.441	3.606	16384	13245	0	316
13.523	3.101	16362	13012	0	316
11.035	-1.406	16384	13012	0	316
8.114	-5.085	16384	13012	0	316
6.996	-5.878	16384	13129	0	316
7.140	-6.239	16362	13245	0	316
7.789	-3.859	16362	13361	0	316
6.635	-1.659	16362	13245	0	316
4.472	-5.085	16328	13245	0	316
-1.370	-9.268	16328	13361	0	316
-6.816	-12.838	16362	13826	0	316
-6.996	-10.422	16328	14408	0	316
-0.505	-3.318	16328	14873	0	316
7.465	5.986	16328	15454	0	316
11.071	11.215	16328	16152	0	316
12.694	9.737	16328	16849	0	316
9.124	2.200	16328	17546	0	316
4.832	-4.580	16362	17895	0	316
3.390	-7.285	16362	18244	0	316
1.587	-7.825	16362	18825	0	316
-2.272	-3.029	16362	19058	0	316
-4.904	0.505	16362	19174	0	316
-6.239	1.262	16362	18942	0	316
-4.544	0.721	16362	18942	0	316
-2.669	0.072	16362	18942	0	316
-1.695	-0.577	16384	18709	0	316
0.974	-3.895	16384	18477	0	316
3.065	-4.327	16362	18244	0	316
4.977	-6.094	16362	17779	0	316
5.698	-4.039	16362	17546	0	316
3.642	-1.767	16362	17430	0	316
1.082	-0.108	16362	17546	0	316
0.288	-2.524	16384	17895	0	316
2.957	-5.662	16384	18360	0	316
5.590	-7.032	16384	18709	0	316
7.789	-7.934	16406	18942	0	316
5.950	-5.950	16406	18942	0	316
3.462	-4.255	16406	18942	0	316
-2.056	-3.678	16406	18825	0	316
-3.246	-2.921	16440	18593	0	316
-5.481	-2.344	16440	18593	0	316
-2.813	-2.813	16440	18825	0	316
1.731	-1.262	16440	18825	0	316
6.744	-1.046	16463	18593	0	316
8.511	0.793	16463	18128	0	316
6.203	1.695	16463	17546	0	316
3.173	0.505	16463	16965	0	316
0.685	-0.144	16440	16384	0	316
1.479	-0.361	16406	16036	0	316
5.121	0.974	16440	15803	0	316
10.674	4.075	16440	15803	0	316
13.091	8.042	16440	15571	0	316
11.179	9.809	16440	15222	0	316
9.592	7.212	16406	14640	0	316
5.121	2.272	16406	14059	0	316
2.200	-3.787	16384	13478	0	316
0.288	-8.439	16384	13129	0	316
1.334	-9.268	16384	12664	0	316
1.731	-5.950	16362	12431	0	316
2.993	-1.479	16362	12431	0	316
4.616	3.967	16362	12547	0	316
4.688	7.753	16362	12780	0	316
4.652	5.193	16384	13245	0	316
2.741	-0.144	16362	13710	0	316
0.721	-6.275	16362	13826	0	316
0.036	-11.720	16362	13826	0	316
0.397	-10.494	16362	13943	0	316
1.911	-8.583	16362	14291	0	316
4.580	-4.472	16362	14757	0	316
6.419	-0.938	16362	15338	0	316
5.626	2.019	16384	15919	0	316
2.560	5.517	16362	16384	0	316
-1.731	6.419	16362	16732	0	316
-4.688	5.986	16362	16732	0	316
-4.796	2.488	16362	16616	0	316
0.144	-1.082	16362	16384	0	316
4.147	-0.721	16328	16036	0	316
7.681	1.515	16328	16036	0	316
6.996	5.121	16328	16268	0	316
4.616	5.842	16328	16384	0	316
2.056	3.570	16328	16384	0	316
1.587	0.000	16328	16384	0	316
2.380	-2.596	16328	16384	0	316
2.813	-3.065	16328	16500	0	316
3.318	-1.118	16328	16849	0	316
1.983	0.180	16328	17197	0	316
1.587	-0.288	16328	17314	0	316
-0.397	-1.046	16328	17314	0	316
-1.983	-2.560	16328	17197	0	316
-3.570	-5.049	16328	17197	0	316
-3.570	-5.121	16328	17314	0	316
-3.462	-3.426	16328	17314	0	316
-2.416	-2.344	16328	17430	0	316
-1.479	-3.426	16328	17779	0	316
-2.236	-6.996	16328	18128	0	316
-2.885	-12.117	16362	18477	0	316
-3.318	-12.694	16362	18709	0	316
0.974	-9.412	16362	18825	0	316
5.950	-2.308	16384	19290	0	316
11.792	5.409	16384	19988	0	316
11.612	9.484	16406	20686	0	316
7.862	7.140	16440	21384	0	316
-0.902	3.354	16440	21732	0	316
-8.330	-2.849	16463	21616	0	316
-9.232	-7.140	16463	21384	0	316
-6.131	-8.799	16497	21267	0	316
-0.649	-7.862	16497	21267	0	316
2.200	-4.760	16519	21151	1	564
2.596	-3.354	16519	20802	0	564
1.587	1.370	16519	20221	0	564
0.108	5.157	16519	19523	0	564
1.659	6.708	16519	18825	0	564
4.724	7.285	16497	18011	0	564
8.619	3.426	16553	17081	0	564
10.350	-1.010	16497	16384	0	564
12.550	-3.426	16497	15687	0	564
11.432	-2.380	16497	15105	0	564
9.989	2.236	16497	14524	0	564
7.789	6.383	16497	13826	0	564
4.760	9.124	16463	12896	0	564
-0.433	4.508	16463	11966	0	564
-5.013	-4.940	16440	11268	0	564
-8.366	-13.523	16440	11036	0	564
-10.386	-19.113	16440	11152	0	564
-6.131	-15.435	16440	11501	0	564
-1.695	-8.583	16440	11617	0	564
2.272	-1.082	16440	11733	0	564
3.137	1.154	16406	11733	0	564
2.452	-1.046	16406	11617	0	564
-1.046	-4.580	16406	11733	0	564
-1.623	-6.094	16406	12198	0	564
1.551	-6.708	16384	12664	0	564
5.734	-3.714	16384	13012	0	564
7.645	-1.226	16384	13245	0	564
8.006	3.534	16384	13478	0	564
3.714	7.573	16384	13594	0	564
0.288	9.160	16362	13710	0	564
0.288	6.635	16362	13710	0	564
2.633	1.803	16362	13826	0	564
6.527	-1.551	16362	14059	0	564
7.862	-2.452	16328	14408	0	564
7.285	-0.144	16328	14873	0	564
4.508	1.767	16328	15338	0	564
2.813	2.236	16328	15919	0	564
3.534	0.757	16328	16384	0	564
4.724	1.298	16362	16849	0	564
6.383	1.406	16362	17546	0	564
6.635	1.118	16362	18477	0	564
4.400	-0.902	16384	19407	0	564
4.183	-4.616	16384	20104	0	564
2.849	-7.140	16406	20453	0	564
2.993	-7.537	16406	20686	0	564
3.859	-4.003	16406	20802	0	564
2.741	-0.829	16406	20802	0	564
2.272	2.741	16440	20686	0	564
0.180	1.731	16440	20570	0	564
-2.524	-3.678	16440	20570	0	564
-5.013	-8.835	16440	20337	0	564
-4.111	-12.081	16463	19988	0	564
-3.426	-9.665	16440	19290	0	564
-1.190	-1.731	16440	18593	0	564
0.397	4.472	16440	17895	0	564
0.902	6.167	16440	17314	0	564
1.731	3.137	16440	16616	0	564
3.173	-3.065	16440	16036	0	564
7.429	-9.088	16406	15338	0	564
7.537	-8.727	16406	14524	0	564
7.681	-6.491	16384	13710	0	564
2.777	-0.938	16384	13245	0	564
2.524	3.354	16384	13129	0	564
0.865	5.517	16384	13245	0	564
2.993	3.750	16384	13478	0	564
6.239	-2.633	16362	13594	0	564
6.708	-5.445	16362	13594	0	564
4.508	-7.104	16362	13826	0	564
3.318	-1.370	16362	14059	0	564
3.750	5.662	16362	14524	0	564
3.390	9.629	16362	15105	0	564
3.173	9.917	16362	15803	0	564
0.829	2.452	16362	16268	0	564
-2.921	-4.652	16362	16384	0	564
-4.544	-5.662	16384	16384	0	564
-5.013	-2.993	16384	16616	0	564
-2.777	2.633	16384	16849	0	564
-4.183	4.147	16384	16965	0	564
-7.717	-0.505	16362	16732	0	564
-10.710	-10.350	16362	16384	0	564
-16.156	-20.014	16362	16152	0	564
-15.975	-21.168	16362	15919	0	564
-10.422	-15.759	16362	16036	0	564
-2.993	-6.311	16362	16384	0	564
6.888	2.921	16362	16849	0	564
12.874	4.580	16362	17314	0	564
12.081	-1.659	16384	17779	0	564
7.898	-7.789	16384	18360	0	564
3.426	-11.612	16384	18709	0	564
3.282	-9.556	16406	18942	0	564
2.380	-4.868	16406	18942	0	564
1.623	-2.164	16406	18825	0	564
-2.416	-3.282	16406	18942	0	564
-5.806	-7.104	16406	19058	0	564
-7.176	-9.412	16440	19058	0	564
-5.049	-13.704	16440	19058	0	564
-1.983	-15.867	16440	18825	0	564
-2.236	-17.706	16440	18477	0	564
-5.229	-15.435	16440	18244	0	564
-7.176	-10.530	16463	18244	0	564
-7.248	-6.131	16463	18128	0	564
-5.914	-3.318	16440	17546	0	564
-0.865	-4.291	16440	16965	0	564
3.065	-3.606	16440	16500	0	564
4.364	-3.137	16406	16152	0	564
3.823	-2.452	16406	15571	0	564
0.144	-3.426	16406	14989	0	564
-2.524	-5.950	16406	14291	0	564
-6.094	-9.412	16384	13943	0	564
-3.282	-10.602	16384	13710	0	564
-0.721	-9.052	16384	13594	0	564
2.200	-9.268	16384	13710	0	564
4.364	-7.501	16384	13826	0	564
3.426	-4.364	16384	14059	0	564
1.983	-1.659	16384	14175	0	564
-0.325	0.072	16384	14291	0	564
-2.380	-0.757	16384	14524	0	564
-0.793	-2.813	16384	14873	0	564
0.613	-8.114	16384	15105	0	564
0.505	-10.710	16362	15222	0	564
1.587	-11.071	16362	15222	0	564
-0.252	-7.429	16362	15222	0	564
-1.118	-3.210	16362	15454	0	564
1.082	0.216	16362	15571	0	564
5.481	1.334	16362	15454	0	564
6.924	-0.036	16362	15338	0	564
6.094	-2.777	16362	15222	0	564
2.308	-3.859	16328	15222	0	564
-2.164	-3.029	16328	15105	0	564
-4.652	-1.334	16362	15222	0	564
-1.551	0.108	16362	15222	0	564
0.180	1.947	16362	15222	0	564
2.056	-0.036	16362	15338	0	564
0.000	-6.131	16328	15571	0	564
0.649	-11.432	16328	15687	0	564
2.813	-12.261	16328	15687	0	564
8.042	-9.088	16328	15687	0	564
13.487	1.190	16328	15338	0	564
16.048	7.140	16305	14989	0	564
12.369	7.285	16305	14873	0	564
9.520	1.298	16305	14989	0	564
7.032	-5.914	16305	15222	0	564
5.013	-8.799	16305	15571	0	564
4.904	-7.789	16305	16036	0	564
4.436	-2.849	16271	16268	0	564
2.452	1.370	16271	16268	0	564
0.829	1.947	16271	16152	0	564
0.325	0.216	16271	16384	0	564
0.397	-3.137	16271	16849	0	564
0.649	-6.022	16271	17314	0	564
1.659	-7.717	16271	17663	0	564
3.498	-7.573	16305	17663	0	564
5.662	-5.373	16328	17779	0	564
8.186	-3.678	16328	18244	0	564
6.816	-2.272	16328	18942	0	564
2.416	-0.325	16328	19407	0	564
-2.452	-0.288	16362	19639	0	564
-5.626	-0.757	16362	19639	0	564
-4.472	-0.829	16362	19407	0	564
0.793	-1.406	16362	19290	0	564
3.101	-1.298	16362	19058	0	564
1.551	-1.010	16362	18709	0	564
-0.036	-0.180	16362	18593	1	648
-1.082	0.685	16362	18942	0	648
1.803	1.154	16384	19174	0	648
6.383	2.452	16384	19174	0	648
8.475	3.967	16384	18825	0	648
7.501	5.049	16384	18593	0	648
4.111	3.210	16384	18360	0	648
2.596	0.613	16406	18244	0	648
3.787	-1.190	16406	18128	0	648
6.852	-1.551	16406	18128	0	648
12.009	2.596	16406	18128	0	648
16.697	9.737	16406	17895	0	648
16.949	13.668	16406	17546	0	648
15.903	10.891	16406	17197	0	648
9.088	5.590	16406	16849	0	648
2.885	-3.282	16406	16500	0	648
-1.479	-10.746	16406	16268	0	648
-5.085	-12.586	16406	16152	0	648
-5.770	-8.294	16406	16036	0	648
-3.210	-3.173	16440	15919	0	648
-0.144	2.633	16406	16036	0	648
4.868	5.085	16440	16036	0	648
7.934	2.308	16440	15919	0	648
7.645	-2.236	16440	15571	0	648
5.409	-6.419	16406	14989	0	648
3.390	-4.544	16406	14175	0	648
2.993	-0.685	16384	13478	0	648
2.596	5.013	16362	12896	0	648
3.859	9.304	16384	12664	0	648
4.940	11.179	16384	12664	0	648
5.986	9.160	16362	12664	0	648
7.357	5.157	16362	12896	0	648
5.770	-0.252	16362	13129	0	648
4.724	-3.534	16362	13594	0	648
3.787	-3.931	16362	13943	0	648
5.445	-0.685	16362	14175	0	648
8.078	4.616	16362	14408	0	648
9.845	5.337	16384	14640	0	648
9.088	4.724	16362	14989	0	648
6.058	1.370	16362	15338	0	648
2.633	-1.226	16362	15687	0	648
0.685	-0.072	16328	15687	0	648
0.000	3.570	16328	15687	0	648
-0.505	5.806	16328	15803	0	648
-4.724	5.517	16328	16036	0	648
-11.107	4.039	16328	16268	0	648
-22.863	1.082	16328	16384	0	648
-28.273	0.974	16328	16500	0	648
-31.122	1.154	16328	16384	0	648
-31.482	-0.577	16328	16036	0	648
-30.256	-3.570	16305	16036	0	648
-32.636	-5.409	16305	16152	0	648
-35.485	-3.534	16328	16500	0	648
-36.062	1.551	16328	17081	0	648
-31.374	8.150	16328	17546	0	648
-22.142	9.701	16328	17895	0	648
-15.543	6.311	16328	18244	0	648
-10.999	-0.541	16362	18477	0	648
-10.566	-7.176	16362	18942	0	648
-9.845	-8.511	16362	19523	0	648
-8.402	-4.111	16384	19872	0	648
-3.173	2.705	16384	20221	0	648
0.829	6.671	16406	20453	0	648
2.272	4.219	16406	20337	0	648
0.613	0.577	16406	20221	0	648
0.433	-2.885	16406	20104	0	648
-0.577	-1.659	16440	20337	0	648
-0.397	1.767	16440	20337	0	648
-0.469	3.173	16440	19988	0	648
-0.613	4.832	16440	19174	0	648
1.190	1.731	16440	18360	0	648
0.252	0.469	16440	17663	0	648
-0.685	-0.144	16440	16965	0	648
-4.760	0.685	16440	16384	0	648
-13.054	0.974	16440	16036	0	648
-17.166	1.370	16440	15803	0	648
-21.241	2.344	16440	15571	0	648
-19.401	2.092	16440	15454	0	648
-18.644	3.173	16440	15571	0	648
-16.913	2.344	16440	15919	1	316
-19.185	-1.082	16463	16268	0	316
-19.365	-7.140	16463	16616	0	316
-17.093	-10.819	16440	16965	0	316
-8.511	-11.900	16497	17197	0	316
-2.164	-3.606	16497	17546	0	316
3.065	4.111	16497	17895	0	316
0.865	8.330	16497	18011	0	316
-2.957	6.167	16497	18011	0	316
-7.501	-2.488	16519	17779	0	316
-7.753	-11.792	16519	17197	0	316
-5.554	-18.752	16497	16384	0	316
-4.508	-17.418	16497	15571	0	316
-4.003	-13.668	16497	14640	0	316
-3.606	-5.698	16463	13826	0	316
-5.914	-0.361	16463	13361	0	316
-3.426	2.957	16440	12664	0	316
-0.974	3.246	16440	11733	0	316
5.157	2.921	16406	10919	0	316
9.448	4.580	16406	10338	0	316
13.054	6.599	16384	9989	0	316
11.071	7.465	16362	9757	0	316
7.717	6.347	16362	9757	0	316
4.255	1.911	16328	10105	0	316
1.442	-2.380	16328	10803	0	316
1.767	-4.327	16328	11733	0	316
2.813	-5.265	16328	12547	0	316
6.635	-1.875	16328	13361	0	316
7.753	1.587	16328	14059	0	316
9.953	2.128	16328	14757	0	316
11.251	1.947	16328	15454	0	316
10.783	-0.252	16328	15803	0	316
8.871	-1.334	16328	16036	0	316
6.239	-1.046	16328	16152	0	316
3.678	-1.118	16328	16036	0	316
0.649	-3.895	16305	16036	0	316
-0.577	-6.780	16305	16152	0	316
-1.479	-8.114	16305	16384	0	316
-0.613	-3.462	16305	16732	0	316
1.010	0.541	16305	17081	0	316
3.318	2.488	16305	17546	0	316
3.137	-0.108	16305	18011	0	316
0.757	-5.481	16328	18360	0	316
-2.885	-6.780	16328	18360	0	316
-4.364	-4.183	16328	18128	0	316
-2.164	2.488	16362	18011	0	316
1.767	4.760	16328	17663	0	316
4.472	6.275	16328	17430	0	316
3.895	2.813	16328	17430	0	316
1.911	0.541	16328	17430	0	316
1.082	2.741	16328	17314	0	316
-0.433	5.301	16305	17197	0	316
-1.623	5.914	16305	17197	0	316
-6.347	3.390	16305	17197	0	316
-10.494	-4.796	16305	17197	0	316
-14.172	-10.999	16305	16965	0	316
-12.333	-10.422	16305	16616	0	316
-8.907	-4.508	16305	16268	0	316
-6.275	0.036	16271	15803	0	316
-6.419	5.193	16271	15571	0	316
-6.167	5.157	16271	15803	0	316
-3.426	5.157	16271	16152	0	316
3.859	6.888	16271	16384	0	316
10.819	6.131	16305	16616	0	316
14.100	4.327	16305	16732	0	316
13.379	0.865	16305	16616	0	316
8.907	0.757	16305	16616	0	316
7.176	2.993	16305	16849	0	316
4.544	7.212	16305	17197	0	316
5.914	4.940	16305	17314	0	316
4.688	1.082	16305	17081	0	316
4.544	-4.291	16305	16965	0	316
4.580	-5.698	16305	17197	0	316
5.734	-2.128	16305	17663	0	316
5.626	2.741	16305	18128	0	316
7.609	4.364	16305	18360	0	316
10.674	2.272	16328	18360	0	316
10.386	-1.767	16328	18477	0	316
8.366	-3.570	16328	18593	0	316
4.688	-2.957	16328	18709	0	316
1.118	-2.488	16328	18593	0	316
-1.334	-0.721	16328	18128	0	316
-0.829	-2.092	16328	17779	0	316
-2.019	-4.472	16328	17663	0	316
-5.193	-9.232	16362	17663	0	316
-11.071	-15.146	16384	17779	0	316
-14.821	-15.903	16384	17779	0	316
-10.061	-13.307	16384	17546	0	316
-1.947	-2.200	16384	17081	0	316
7.573	7.068	16384	16965	0	316
13.235	10.494	16384	17081	0	316
9.773	8.114	16384	17081	0	316
2.813	5.554	16384	16965	0	316
-2.813	2.056	16384	16849	0	316
-4.977	0.938	16384	16849	0	316
-4.003	-2.236	16384	16500	0	316
-1.479	-5.337	16384	16152	0	316
1.731	-7.248	16384	15919	0	316
4.868	-4.364	16384	15803	0	316
7.537	0.865	16384	15571	0	316
8.366	2.056	16384	15222	0	316
7.573	-1.298	16362	14989	0	316
7.934	-5.049	16362	14757	0	316
6.419	-5.049	16362	14757	0	316
5.229	-1.803	16362	14640	0	316
2.560	-0.541	16362	14408	0	316
-0.541	-2.308	16362	14291	0	316
-3.714	-7.032	16362	14408	0	316
-3.606	-9.232	16328	14524	0	316
-2.380	-6.275	16328	14640	0	316
0.505	0.288	16328	14873	0	316
1.623	4.400	16328	15105	0	316
2.596	1.911	16328	15338	0	316
1.875	-2.849	16328	15571	0	316
1.190	-6.094	16328	15919	0	316
3.498	-4.977	16362	16384	0	316
4.868	1.947	16362	17081	0	316
6.311	6.131	16362	17779	0	316
5.590	6.635	16384	18477	0	316
2.633	1.082	16384	19058	0	316
-1.875	-8.222	16406	19639	0	316
-1.839	-12.514	16406	19988	0	316
-0.757	-9.196	16406	20104	0	316
3.065	-2.416	16440	20104	0	316
6.275	5.193	16440	19872	0	316
6.744	9.520	16440	19523	0	316
4.616	8.330	16440	19174	0	316
1.334	4.327	16440	18942	0	316
-0.325	0.180	16463	18825	1	512
-0.036	-2.019	16440	18825	0	512
1.118	-1.154	16463	18709	0	512
2.019	3.210	16463	18360	0	512
5.085	6.491	16497	17895	0	512
4.400	7.537	16463	17663	0	512
3.354	3.570	16463	17663	0	512
2.993	-1.983	16463	17546	0	512
3.570	-4.436	16463	17314	0	512
6.455	-0.902	16463	16732	0	512
7.140	5.662	16463	16268	0	512
6.491	10.350	16463	15803	0	512
2.236	9.016	16463	15222	0	512
-1.551	3.859	16463	14524	0	512
-0.793	-2.236	16463	13943	0	512
1.875	-4.688	16440	13361	0	512
4.472	-4.472	16440	12547	0	512
1.767	-3.642	16406	11733	0	512
-1.947	-2.705	16384	11036	0	512
-4.075	-4.219	16384	10571	0	512
-2.741	-3.029	16362	10222	0	512
0.613	-0.144	16362	10105	0	512
2.813	2.885	16328	10222	0	512
1.767	4.977	16328	10454	0	512
1.154	4.977	16328	10919	0	512
1.587	2.524	16305	11501	0	512
5.734	0.469	16305	12198	0	512
9.556	0.180	16305	12780	0	512
10.819	0.613	16305	13594	0	512
7.212	-0.144	16305	14640	0	512
0.433	-3.246	16328	15803	0	512
-5.806	-6.527	16328	16732	0	512
-8.042	-4.580	16328	17546	0	512
-5.013	0.252	16328	17895	0	512
3.210	8.655	16328	18128	0	512
11.035	12.550	16362	18244	0	512
16.444	9.052	16362	18477	0	512
13.091	3.390	16362	18709	0	512
8.366	-3.318	16362	18942	0	512
3.750	-5.445	16362	19290	0	512
1.947	-3.606	16384	19523	0	512
4.075	-0.180	16406	19639	0	512
7.321	4.327	16384	19756	0	512
9.881	5.878	16384	19872	0	512
10.638	6.888	16406	20221	0	512
10.746	3.967	16406	20337	0	512
8.222	-1.731	16406	20337	0	512
4.364	-5.590	16440	20221	0	512
1.334	-5.626	16440	20104	0	512
-0.108	-4.111	16440	19872	0	512
0.793	0.757	16440	19756	0	512
0.938	2.813	16463	19639	0	512
0.613	1.587	16463	19523	0	512
-0.469	-0.757	16463	19174	0	512
0.397	-2.092	16463	18593	0	512
4.904	-0.649	16463	18011	0	512
7.465	0.361	16463	17314	0	512
4.652	0.577	16463	16500	0	512
1.010	1.839	16440	15687	0	512
-1.226	2.416	16440	14989	0	512
-0.036	4.400	16440	14640	0	512
6.455	5.193	16440	14757	0	512
12.658	1.082	16440	15105	0	512
13.163	-4.364	16463	15571	0	512
8.042	-8.511	16463	15803	0	512
1.911	-6.924	16463	15919	0	512
-0.577	-0.252	16463	15919	0	512
2.236	7.465	16463	15571	0	512
8.799	14.785	16440	15105	0	512
14.966	16.408	16440	14757	0	512
14.677	15.290	16440	14757	0	512
10.422	10.242	16440	14873	0	512
6.527	1.298	16440	14873	0	512
5.373	-4.904	16406	14640	0	512
7.032	-3.859	16406	14408	0	512
7.970	3.859	16406	14175	0	512
8.907	10.963	16406	14059	0	512
8.222	15.074	16406	13826	0	512
7.429	12.514	16384	13478	0	512
9.881	5.373	16384	13245	1	316
8.511	2.813	16362	13012	0	316
8.871	4.832	16362	12780	0	316
5.914	6.816	16362	12780	0	316
1.695	5.554	16362	13012	0	316
-0.108	0.325	16328	13361	0	316
-1.190	-4.652	16328	13478	0	316
2.849	-6.022	16328	13594	0	316
7.393	-1.947	16328	13826	0	316
10.638	5.734	16328	14291	0	316
9.737	9.052	16328	14989	0	316
4.616	6.131	16362	15571	0	316
0.180	-1.911	16362	16268	0	316
-3.282	-8.078	16362	16500	0	316
-3.137	-8.727	16362	16965	0	316
-1.623	-4.472	16362	17546	0	316
0.180	-0.865	16362	18244	0	316
2.056	0.325	16384	18825	0	316
1.839	-2.200	16384	19523	0	316
2.596	-5.049	16406	20104	0	316
4.580	-6.311	16406	20570	0	316
6.816	-4.364	16440	20918	0	316
6.491	-1.587	16440	21267	0	316
5.301	0.036	16440	21384	0	316
0.649	1.154	16440	21500	0	316
-1.731	1.046	16440	21151	0	316
-1.623	0.180	16440	20453	0	316
1.082	2.128	16440	19756	0	316
5.049	3.714	16440	19174	0	316
6.058	3.390	16440	18709	0	316
4.327	-1.406	16440	18593	0	316
0.865	-8.871	16463	18477	0	316
-2.777	-11.576	16463	18477	0	316
-4.544	-8.835	16463	18360	0	316
-3.173	-1.262	16497	18477	0	316
-1.839	5.013	16497	18942	0	316
-1.587	3.173	16519	19290	0	316
-2.488	-0.144	16519	19407	0	316
-2.849	-5.121	16553	19290	0	316
-2.344	-4.075	16519	19058	0	316
-2.921	-0.541	16553	18593	0	316
-3.101	2.849	16553	18360	0	316
-5.734	1.442	16553	18011	0	316
-5.734	-1.839	16553	17430	0	316
-2.993	-4.760	16553	16849	0	316
1.875	-4.652	16553	16268	0	316
3.931	-2.777	16553	15338	0	316
4.652	2.092	16519	14291	0	316
4.255	4.868	16519	13478	0	316
3.606	4.508	16519	13012	0	316
2.741	3.534	16497	12547	0	316
2.416	2.777	16463	12198	0	316
-0.721	0.433	16463	11850	0	316
-2.524	1.046	16463	11733	0	316
-4.472	-1.226	16440	11733	0	316
-1.334	-4.580	16440	11617	0	316
1.082	-9.737	16440	11617	0	316
2.885	-10.422	16406	11617	0	316
1.262	-7.140	16406	11501	0	316
-0.902	-1.983	16406	11268	0	316
-3.714	1.911	16384	11268	0	316
-4.291	3.606	16384	11501	0	316
-0.505	0.829	16384	11966	0	316
3.787	-1.623	16384	12431	0	316
6.167	-0.685	16362	12896	0	316
4.400	-0.829	16362	13245	0	316
0.865	-2.380	16362	13826	0	316
-3.967	-4.219	16362	14524	0	316
-6.527	-4.219	16384	15338	0	316
-4.183	-3.065	16384	16152	0	316
0.469	-0.144	16384	16849	0	316
5.626	-0.793	16384	17430	0	316
4.544	-4.580	16384	18011	0	316
4.219	-8.979	16406	18360	0	316
1.911	-7.645	16406	18709	0	316
2.705	-2.019	16406	18593	0	316
4.255	4.977	16406	18477	0	316
3.101	4.508	16384	18011	0	316
-3.498	-4.796	16384	17663	0	316
-9.701	-14.389	16384	17197	1	316
-11.432	-19.257	16384	17081	0	316
-6.383	-10.133	16384	16965	0	316
1.803	-0.865	16384	16616	0	316
4.472	6.996	16362	16152	0	316
1.010	3.029	16362	15687	0	316
-5.698	-4.400	16362	15571	0	316
-10.386	-10.855	16328	15454	0	316
-7.068	-8.042	16328	15338	0	316
-2.957	-4.544	16328	15105	0	316
0.938	-2.200	16328	15222	0	316
0.397	-5.301	16328	15454	0	316
-3.354	-8.979	16328	15687	0	316
-6.203	-9.196	16328	15803	0	316
-7.573	-6.780	16328	16036	0	316
-5.445	-1.551	16362	16384	0	316
-1.623	-0.072	16362	16849	0	316
0.649	-2.705	16362	17197	0	316
2.993	-4.724	16362	17663	0	316
2.669	-6.924	16362	17663	0	316
0.072	-3.678	16362	17430	0	316
-1.839	-0.288	16362	17081	0	316
-2.128	1.479	16362	16965	0	316
-1.695	-0.577	16328	16732	0	316
-1.406	-3.678	16328	16500	0	316
-2.705	-8.366	16328	16384	0	316
-4.868	-12.225	16328	16384	0	316
-5.914	-10.783	16328	16500	0	316
-4.436	-11.071	16328	16616	0	316
-2.921	-8.258	16328	16500	0	316
0.036	-5.157	16328	16500	0	316
0.144	-3.101	16328	16616	0	316
-2.777	-2.200	16328	16965	0	316
-5.842	-1.695	16328	17314	0	316
-6.888	-1.479	16328	17779	0	316
-2.957	-2.777	16362	18244	0	316
1.623	-6.671	16362	18709	0	316
6.816	-10.530	16362	18942	0	316
7.753	-12.946	16362	19058	0	316
6.203	-10.530	16384	19174	0	316
