neuroNicle FX2
D3F25R12
Bluetooth SPP
2023년 11월 1일 수요일
오전 10:04
time interval = 4msec
EEG1	EEG2	PPG	sdPPG	pulse	peak_interval(msec)
-91.742	-97.800	17704	13783	0	464
-91.778	-95.745	17682	14025	0	464
-91.670	-96.358	17650	14348	0	464
-94.483	-98.521	17542	14597	0	464
-95.636	-98.161	17542	14854	0	464
-89.037	-94.122	17487	15184	0	464
-81.680	-87.739	17487	15451	0	464
-74.324	-81.392	17520	15703	0	464
-72.088	-83.448	17466	15988	0	464
-75.117	-88.749	17412	16111	0	464
-79.877	-91.598	17271	16002	0	464
-81.897	-90.227	17054	15770	0	464
-80.527	-87.234	16762	15482	0	464
-79.986	-81.969	16492	15163	0	464
-79.950	-78.146	16168	14836	0	464
-80.310	-80.058	15876	14520	0	464
-81.356	-81.608	15465	14225	0	464
-81.103	-85.864	15086	13965	0	464
-83.303	-92.679	14761	13751	0	464
-83.411	-94.843	14382	13586	0	464
-82.907	-93.256	14036	13477	0	464
-83.952	-88.821	13733	13439	0	464
-82.294	-86.801	13495	13537	0	464
-80.490	-88.677	13387	13895	0	464
-84.565	-90.083	13387	14524	0	464
-86.693	-91.958	13495	15300	0	464
-88.785	-91.165	13679	16163	0	464
-87.523	-90.624	13949	17058	0	464
-83.303	-88.100	14198	17872	0	464
-81.103	-90.552	14469	18511	0	464
-79.841	-89.470	14815	19154	0	464
-83.231	-90.624	15302	19979	0	464
-91.093	-94.158	15681	20723	0	464
-93.653	-95.276	15984	21050	0	464
-95.132	-97.908	16168	21004	0	464
-92.571	-97.259	16255	20744	0	464
-87.631	-95.312	16276	20334	0	464
-83.411	-92.752	16222	19810	0	464
-78.940	-88.388	16114	19210	1	704
-77.028	-79.589	16092	18652	0	704
-73.350	-73.819	16060	18311	0	704
-75.586	-75.658	16060	18136	0	704
-76.956	-83.087	16006	17858	0	704
-85.106	-93.617	15952	17483	0	704
-92.066	-103.642	16060	17342	0	704
-98.233	-104.364	16363	17655	0	704
-97.476	-100.252	16708	18237	0	704
-92.391	-95.781	17087	18761	0	704
-85.179	-88.857	17412	19122	0	704
-77.714	-88.027	17790	19329	0	704
-75.658	-85.864	18029	19347	0	704
-77.858	-86.332	18277	19305	0	704
-81.248	-86.080	18461	19252	0	704
-83.772	-87.775	18570	18985	0	704
-87.342	-88.749	18624	18448	0	704
-88.424	-92.319	18548	17855	0	704
-91.778	-91.814	18570	17402	0	704
-89.145	-91.561	18570	17065	0	704
-85.106	-86.080	18440	16605	0	704
-78.219	-84.025	18245	15974	0	704
-73.927	-86.693	18083	15345	0	704
-80.274	-94.843	17920	14931	0	704
-88.929	-98.954	17812	14699	0	704
-96.502	-98.521	17596	14401	0	704
-96.971	-94.050	17379	13962	0	704
-90.876	-87.270	17087	13495	0	704
-80.490	-83.159	16730	13049	0	704
-76.632	-81.969	16384	12634	0	704
-75.009	-81.176	16006	12269	0	704
-77.678	-77.209	15627	11964	0	704
-80.815	-72.809	15302	11722	0	704
-88.640	-77.281	14902	11553	0	704
-100.000	-87.847	14545	11444	0	704
-110.133	-101.226	14144	11402	0	704
-115.254	-108.979	13820	11427	0	704
-110.674	-105.193	13495	11535	0	704
-96.574	-93.184	13278	11799	0	704
-81.933	-78.832	13170	12336	0	704
-72.737	-75.875	13138	13070	0	704
-71.872	-81.644	13084	13734	0	704
-73.422	-84.854	13084	14309	0	704
-78.146	-87.270	13192	15012	0	704
-78.146	-82.330	13333	15819	0	704
-78.687	-77.353	13441	16464	0	704
-78.687	-77.497	13495	16861	0	704
-80.238	-83.844	13571	17184	0	704
-84.097	-86.837	13733	17630	0	704
-85.936	-89.542	13928	18150	0	704
-91.165	-85.611	14004	18497	0	704
-95.745	-85.539	14058	18606	0	704
-99.784	-86.044	14090	18585	0	704
-99.675	-87.991	14090	18487	0	704
-94.266	-89.867	14036	18325	0	704
-85.719	-88.677	14036	18188	0	704
-86.152	-90.155	14144	18234	0	704
-93.365	-96.502	14252	18417	0	704
-105.662	-104.183	14307	18490	0	704
-107.321	-107.898	14382	18441	0	704
-93.725	-103.101	14577	18518	0	704
-73.134	-92.788	14707	18722	0	704
-59.214	-85.972	14869	18799	0	704
-63.830	-84.818	14902	18673	0	704
-78.219	-94.302	15010	18501	0	704
-93.220	-102.164	15140	18480	0	704
-99.531	-105.698	15389	18662	0	704
-97.908	-104.364	15735	18957	0	704
-94.158	-101.767	15952	19207	0	704
-95.096	-103.354	16146	19231	0	704
-97.764	-107.898	16255	18999	0	704
-98.197	-109.016	16363	18687	0	704
-96.502	-106.239	16513	18511	0	704
-94.266	-100.685	16622	18438	0	704
-93.329	-96.322	16676	18223	0	704
-94.735	-97.944	16676	17809	0	704
-100.252	-106.852	16622	17314	0	704
-108.078	-114.605	16513	16801	0	704
-112.081	-118.356	16405	16346	0	704
-109.809	-115.182	16438	16104	0	704
-104.436	-107.862	16459	16044	0	704
-97.115	-101.118	16405	15914	0	704
-93.581	-98.017	16384	15700	0	704
-97.404	-102.524	16438	15647	0	704
-106.780	-110.602	16459	15745	0	704
-115.002	-114.461	16459	15735	0	704
-120.375	-117.851	16384	15545	0	704
-118.716	-113.343	16309	15296	0	704
-115.146	-108.979	16146	15040	0	704
-109.376	-103.246	16038	14766	0	704
-104.796	-99.315	15822	14492	0	704
-102.885	-96.466	15681	14316	0	704
-100.288	-93.365	15659	14390	0	704
-99.748	-93.401	15714	14727	0	704
-97.548	-97.331	15984	15268	0	704
-96.863	-102.019	16255	16023	0	704
-96.502	-105.337	16546	16763	0	704
-95.096	-107.321	16708	17170	0	704
-94.338	-104.977	16838	17240	0	704
-96.177	-103.390	16871	17145	0	704
-98.558	-101.046	16838	16945	0	704
-97.404	-97.476	16816	16735	0	704
-95.060	-94.338	16871	16682	0	704
-91.994	-93.653	16925	16756	0	704
-88.388	-95.528	16871	16714	0	704
-91.345	-102.849	16871	16552	0	704
-95.853	-105.698	16946	16520	0	704
-96.899	-104.724	17000	16622	0	704
-94.951	-100.902	16979	16598	0	704
-94.230	-96.502	16892	16384	0	704
-93.329	-93.112	16816	16083	0	704
-96.574	-92.319	16622	15745	0	704
-98.377	-91.814	16438	15384	0	704
-96.430	-86.549	16201	15015	0	704
-89.398	-83.051	15952	14653	0	704
-85.719	-80.779	15714	14313	0	704
-84.385	-80.058	15410	14011	0	704
-88.785	-84.493	15140	13776	0	704
-90.876	-88.965	14869	13607	0	704
-93.942	-90.876	14599	13488	0	704
-92.463	-90.876	14415	13418	0	704
-93.112	-93.401	14220	13488	0	704
-97.908	-96.069	14166	13825	0	704
-105.229	-102.993	14166	14341	0	704
-110.710	-108.186	14166	14773	0	704
-112.766	-107.573	14144	15043	0	704
-113.018	-103.101	14090	15310	0	704
-111.432	-99.495	14252	15752	0	704
-110.061	-97.404	14361	16307	0	704
-110.278	-98.882	14382	16728	0	704
-108.475	-100.505	14491	16935	0	704
-106.383	-100.577	14469	17019	0	704
-104.544	-98.449	14469	17103	0	704
-102.056	-96.394	14685	17412	0	704
-98.594	-93.978	14978	18058	0	704
-93.617	-90.552	15389	18803	0	704
-91.958	-90.263	15768	19452	0	704
-90.227	-88.604	16201	20046	0	704
-92.391	-90.696	16730	20664	0	704
-93.833	-90.948	17325	21341	0	704
-89.506	-91.561	17812	21865	0	704
-90.408	-89.470	18191	21970	0	704
-91.201	-88.965	18494	21703	0	704
-97.223	-93.220	18656	21289	0	704
-102.669	-97.295	18894	20934	0	704
-104.652	-101.334	19089	20629	0	704
-102.957	-103.678	19219	20214	1	584
-96.610	-100.902	19381	19772	0	584
-93.761	-98.161	19522	19365	0	584
-93.184	-94.158	19576	18884	0	584
-91.201	-88.388	19684	18406	0	584
-91.742	-84.421	19793	18069	0	584
-94.122	-85.287	19922	17813	0	584
-98.377	-90.552	20031	17521	0	584
-104.436	-97.800	19977	17054	0	584
-107.573	-102.380	19847	16387	0	584
-105.698	-97.728	19630	15630	0	584
-97.728	-91.525	19381	14847	0	584
-92.932	-85.683	19089	14130	0	584
-90.335	-84.818	18948	13737	0	584
-92.607	-89.903	18948	13779	0	584
-93.653	-94.446	19003	14018	0	584
-92.283	-93.040	19057	14257	0	584
-91.525	-92.066	19089	14453	0	584
-93.184	-87.162	19035	14478	0	584
-97.440	-87.486	18948	14274	0	584
-103.318	-89.758	18710	13969	0	584
-104.508	-95.492	18440	13625	0	584
-102.488	-99.964	18169	13256	0	584
-99.603	-100.902	17866	12947	0	584
-101.767	-97.836	17704	12877	0	584
-103.606	-89.542	17520	13007	0	584
-105.229	-80.094	17379	13133	0	584
-105.229	-69.023	17303	13319	0	584
-102.128	-64.587	17195	13618	0	584
-101.839	-63.325	17087	13811	0	584
-104.832	-63.541	16871	13821	0	584
-110.927	-61.738	16654	13755	0	584
-114.894	-60.656	16384	13660	0	584
-120.483	-62.676	16092	13540	0	584
-122.539	-63.145	15822	13484	0	584
-126.433	-66.859	15681	13656	0	584
-128.020	-68.770	15573	14007	0	584
-131.230	-69.023	15465	14348	0	584
-132.023	-70.393	15519	14811	0	584
-131.735	-76.055	15735	15587	0	584
-129.391	-80.058	15897	16405	0	584
-125.748	-82.149	15984	16924	0	584
-121.421	-84.313	16006	17149	0	584
-122.755	-85.647	16006	17202	0	584
-123.729	-89.867	15930	17138	0	584
-124.883	-91.922	15789	17005	0	584
-122.539	-94.086	15681	16826	0	584
-115.939	-91.778	15465	16608	0	584
-109.629	-90.191	15281	16363	0	584
-104.255	-88.749	15086	16114	0	584
-101.767	-86.909	14848	15879	0	584
-103.534	-89.001	14631	15651	0	584
-107.140	-87.270	14361	15440	0	584
-108.763	-89.686	14220	15335	0	584
-111.396	-89.939	14166	15482	0	584
-109.448	-93.148	14144	15823	0	584
-106.563	-93.942	14090	16079	0	584
-105.842	-96.574	14036	16163	0	584
-107.717	-98.017	13949	16177	0	584
-111.143	-97.187	13841	16163	0	584
-110.963	-95.312	13787	16202	0	584
-105.878	-91.994	13820	16433	0	584
-97.367	-85.431	13928	16819	0	584
-90.912	-84.782	13949	17103	0	584
-91.525	-83.339	13949	17191	0	584
-95.781	-87.559	13928	17188	0	584
-106.311	-90.588	13874	17135	0	584
-111.432	-95.600	13820	17044	0	584
-111.071	-95.492	13733	16935	0	584
-103.750	-91.093	13657	16819	0	584
-90.480	-85.503	13571	16707	0	584
-78.904	-75.838	13462	16601	0	584
-74.035	-71.727	13408	16559	0	584
-77.678	-73.242	13495	16738	0	584
-85.972	-78.868	13625	17100	0	584
-92.679	-84.854	13711	17374	0	584
-93.112	-88.100	13765	17458	0	584
-92.283	-88.893	13820	17451	0	584
-93.581	-88.388	13820	17409	0	584
-95.023	-92.571	13820	17328	0	584
-99.243	-93.942	13787	17212	0	584
-97.476	-95.132	13787	17142	0	584
-91.634	-91.417	13895	17279	0	584
-85.034	-83.736	14166	17641	0	584
-77.281	-80.346	14436	18111	0	584
-75.875	-80.563	14685	18553	0	584
-75.225	-84.674	14956	18796	0	584
-79.120	-86.657	15086	18799	0	584
-80.671	-89.037	15226	18659	0	584
-80.094	-82.798	15248	18434	0	584
-77.101	-78.074	15281	18143	0	584
-74.504	-74.504	15248	17809	0	584
-77.353	-74.757	15194	17454	0	584
-82.871	-79.084	15172	17096	0	584
-92.643	-85.719	15064	16745	0	584
-93.942	-90.588	14978	16412	0	584
-91.453	-89.217	14869	16104	0	584
-83.808	-85.070	14739	15809	0	584
-80.274	-79.084	14631	15535	0	584
-81.284	-79.589	14599	15370	0	584
-84.746	-83.556	14631	15472	0	584
-89.290	-86.296	14739	15781	0	584
-87.991	-88.857	14794	16005	0	584
-86.657	-83.087	14848	16061	0	584
-83.556	-77.245	14848	16054	0	584
-83.556	-73.350	14848	16009	0	584
-80.851	-72.449	14848	15988	0	584
-76.019	-75.081	14978	16156	0	584
-73.062	-77.605	15086	16471	0	584
-72.376	-82.726	15194	16682	0	584
-74.180	-84.926	15281	16703	0	584
-80.490	-87.234	15248	16640	0	584
-82.402	-84.782	15281	16534	0	584
-80.202	-83.267	15226	16394	0	584
-76.019	-80.058	15172	16241	0	584
-72.413	-78.038	15118	16076	0	584
-70.213	-77.281	15064	15977	0	584
-70.898	-76.848	15194	16104	0	584
-70.609	-76.415	15281	16398	0	584
-72.052	-73.783	15443	16675	0	584
-74.973	-75.009	15659	16984	0	584
-80.743	-76.776	15897	17363	0	584
-83.736	-83.628	16038	17595	0	584
-86.801	-87.270	16114	17595	0	584
-82.798	-89.578	16168	17486	0	584
-78.687	-88.280	16201	17317	0	584
-75.550	-82.654	16255	17167	0	584
-76.307	-78.543	16384	17188	0	584
-77.353	-78.435	16546	17360	0	584
-80.887	-81.248	16622	17423	0	584
-82.257	-87.090	16654	17286	0	584
-84.674	-93.004	16654	17051	0	584
-84.565	-93.040	16600	16766	0	584
-80.058	-85.359	16513	16443	0	584
-75.586	-73.783	16405	16111	0	584
-68.878	-64.154	16276	15774	0	584
-66.679	-59.971	16114	15443	0	584
-70.141	-64.587	15952	15124	0	584
-73.747	-72.521	15768	14833	0	584
-74.612	-76.343	15573	14583	0	584
-73.206	-77.822	15410	14373	0	584
-72.376	-79.084	15194	14204	0	584
-72.160	-76.920	15032	14078	0	584
-71.872	-77.966	14869	13997	0	584
-70.357	-77.642	14739	14028	0	584
-67.616	-76.956	14794	14323	0	584
-67.400	-77.101	14869	14818	0	584
-71.078	-80.382	14869	15236	0	584
-77.137	-83.123	14902	15479	0	584
-81.644	-80.130	14923	15647	0	584
-80.490	-76.596	14869	15791	0	584
-79.373	-71.727	14956	15960	0	584
-77.101	-70.754	15032	16311	0	584
-76.776	-76.884	15302	16872	0	584
-78.363	-84.602	15605	17539	0	584
-80.635	-88.388	15930	18150	0	584
-83.411	-90.948	16146	18532	0	584
-84.710	-91.165	16330	18659	0	584
-85.792	-87.342	16438	18631	0	584
-84.998	-85.467	16513	18490	0	584
-78.435	-78.399	16513	18251	0	584
-74.144	-71.799	16492	17953	0	584
-67.869	-68.770	16459	17623	0	584
-68.698	-71.186	16384	17268	0	584
-68.987	-76.091	16276	16907	0	584
-72.449	-81.392	16146	16545	0	584
-77.281	-83.195	16006	16202	0	584
-79.661	-80.599	15843	15875	0	584
-80.166	-76.307	15735	15580	0	584
-75.838	-75.009	15551	15314	0	584
-67.941	-72.088	15389	15078	0	584
-60.079	-73.062	15302	14948	0	584
-60.188	-71.223	15281	15078	0	584
-67.256	-72.413	15356	15412	0	584
-77.101	-73.639	15410	15689	0	584
-83.411	-74.757	15410	15819	0	584
-80.707	-75.983	15410	15879	0	584
-75.334	-76.199	15389	15903	0	584
-70.141	-73.386	15335	15903	0	584
-67.833	-70.357	15302	15886	0	584
-66.571	-67.472	15248	15844	0	584
-68.301	-67.472	15140	15788	0	584
-70.105	-70.249	15086	15742	0	584
-68.806	-74.144	15086	15777	0	584
-68.662	-73.458	15140	16026	0	584
-65.813	-70.069	15302	16422	0	584
-62.892	-62.676	15356	16710	0	584
-61.774	-60.837	15497	16882	0	584
-67.580	-64.695	15714	17181	0	584
-71.259	-75.658	15897	17591	0	584
-77.173	-81.969	16038	17848	0	584
-76.776	-83.556	16146	17876	0	584
-75.622	-78.435	16168	17792	0	584
-74.793	-72.232	16201	17655	0	584
-70.573	-67.616	16222	17465	0	584
-66.462	-67.003	16168	17233	0	584
-61.774	-64.551	16114	16963	0	584
-56.617	-64.154	16006	16682	0	584
-56.653	-65.633	15897	16401	0	584
-59.214	-66.607	15843	16153	0	584
-63.253	-70.646	15714	15932	0	584
-64.551	-72.196	15573	15731	0	584
-63.722	-72.304	15465	15552	0	584
-63.722	-71.980	15465	15472	0	584
-60.368	-72.881	15551	15714	0	584
-58.457	-72.268	15930	16429	0	584
-51.172	-65.921	16384	17440	0	584
-46.628	-59.611	16892	18402	0	584
-40.786	-55.031	17433	19200	0	584
-38.911	-50.379	17953	19881	0	584
-39.055	-52.578	18494	20457	0	584
-36.567	-50.126	19003	20846	0	584
-29.787	-41.940	19360	20980	0	584
-18.969	-32.131	19760	20983	0	584
-2.200	-14.245	20063	20934	0	584
15.723	1.515	20280	20650	0	584
32.456	19.365	20388	20070	0	584
46.592	39.632	20334	19329	0	584
60.476	58.457	20301	18501	1	872
73.026	77.714	20117	17619	0	872
88.604	97.043	19977	16801	0	872
110.169	116.805	19955	16293	0	872
131.554	139.380	20085	16262	0	872
150.884	162.784	20388	16549	0	872
163.758	182.510	20626	16843	0	872
165.308	192.968	20929	17096	0	872
156.581	190.371	21329	17447	0	872
138.947	179.409	21654	17795	0	872
120.519	163.541	22065	18065	0	872
100.325	143.527	22498	18381	0	872
78.868	122.395	22790	18575	0	872
54.995	98.413	22953	18350	0	872
31.915	71.078	22931	17763	0	872
8.186	50.343	22877	17072	0	872
-10.314	33.754	22845	16496	0	872
-19.329	22.647	22790	16090	0	872
-23.224	14.858	22823	15774	0	872
-27.768	4.075	22715	15436	0	872
-36.495	-9.088	22606	15012	0	872
-51.497	-23.080	22498	14625	0	872
-69.852	-40.281	22358	14330	0	872
-85.287	-54.021	22141	13923	0	872
-90.516	-68.662	21795	13330	0	872
-92.607	-79.697	21384	12673	0	872
-92.607	-88.100	20951	12017	0	872
-99.639	-98.954	20409	11392	0	872
-111.287	-105.842	19955	10889	0	872
-123.080	-116.877	19598	10668	0	872
-135.737	-125.784	19251	10686	0	872
-147.133	-138.550	18840	10693	0	872
-156.762	-147.999	18440	10609	0	872
-164.515	-158.817	17974	10510	0	872
-169.816	-163.145	17542	10440	0	872
-169.455	-164.551	17054	10408	0	872
-169.600	-163.541	16600	10429	0	872
-169.672	-162.459	16146	10493	0	872
-172.413	-164.010	15714	10605	0	872
-169.636	-161.846	15302	10851	0	872
-164.118	-159.070	15118	11370	0	872
-154.382	-153.841	14923	12090	0	872
-152.001	-152.578	14739	12729	0	872
-153.444	-151.965	14491	13207	0	872
-156.076	-154.922	14307	13628	0	872
-159.538	-151.785	14144	14095	0	872
-154.021	-145.041	14112	14734	0	872
-149.441	-140.209	14112	15493	0	872
-147.133	-138.586	14090	16111	0	872
-149.225	-143.779	14004	16503	0	872
-152.903	-149.946	13928	16784	0	872
-156.437	-155.355	13820	17001	0	872
-154.886	-153.119	13711	17156	0	872
-154.454	-147.494	13603	17254	0	872
-150.667	-142.265	13462	17321	0	872
-147.962	-139.091	13333	17360	0	872
-144.717	-136.603	13192	17377	0	872
-140.750	-136.062	13062	17377	0	872
-134.295	-134.115	12975	17440	0	872
-127.335	-129.571	13030	17711	0	872
-123.873	-126.830	13116	18150	0	872
-123.585	-128.886	13246	18564	0	872
-129.751	-132.708	13517	19070	0	872
-134.944	-136.206	13949	19842	0	872
-133.898	-136.675	14361	20622	0	872
-129.607	-135.377	14653	21060	0	872
-123.368	-133.934	14923	21155	0	872
-121.998	-132.672	15064	21057	0	872
-128.020	-133.682	15226	20829	0	872
-134.006	-129.895	15281	20502	0	872
-137.036	-125.460	15302	20095	0	872
-135.052	-117.274	15356	19688	0	872
-130.869	-113.307	15519	19526	0	872
-128.092	-113.992	15843	19730	0	872
-128.020	-114.713	16114	19986	0	872
-129.066	-119.257	16330	19944	0	872
-123.368	-118.824	16438	19624	0	872
-116.985	-115.759	16492	19178	0	872
-46.304	-41.039	16060	13979	0	816
-47.638	-47.241	15876	14028	0	816
-43.238	-50.559	15714	14053	0	816
-37.396	-47.638	15551	14067	0	816
-34.656	-39.668	15410	14172	0	816
-34.620	-29.715	15410	14509	0	816
-36.278	-29.030	15465	15012	0	816
-39.380	-32.744	15443	15412	0	816
-38.550	-39.199	15410	15630	0	816
-35.521	-42.806	15389	15770	0	816
-31.951	-39.560	15356	15935	0	816
-30.941	-34.079	15443	16262	0	816
-31.482	-29.318	15573	16707	0	816
-31.374	-28.994	15605	17023	0	816
-30.076	-29.354	15605	17128	0	816
-29.102	-32.636	15605	17131	0	816
-31.807	-33.466	15573	17079	0	816
-34.367	-34.980	15551	17044	0	816
-37.468	-36.314	15627	17184	0	816
-34.006	-39.199	15735	17461	0	816
-31.013	-37.360	15768	17619	0	816
-25.388	-36.459	15822	17577	0	816
-27.155	-34.764	15768	17454	0	816
-33.862	-36.170	15681	17289	0	816
-41.471	-40.137	15627	17089	0	816
-46.845	-47.025	15551	16872	0	816
-44.717	-49.333	15497	16731	0	816
-41.075	-51.533	15573	16798	0	816
-36.531	-48.972	15659	17026	0	816
-37.793	-48.287	15714	17174	0	816
-44.681	-51.929	15789	17226	0	816
-51.713	-54.237	16006	17479	0	816
-58.889	-58.709	16384	18065	0	816
-60.981	-61.161	16708	18680	0	816
-62.748	-62.892	16946	18982	0	816
-65.092	-64.010	17163	19038	0	816
-67.761	-66.715	17466	19143	0	816
-66.246	-66.066	17736	19305	0	816
-62.712	-63.289	17845	19266	0	816
-51.136	-54.129	17953	18968	0	816
-41.796	-43.383	17953	18532	0	816
-34.006	-35.016	17974	18100	0	816
-34.331	-35.233	18083	17907	1	620
-37.685	-39.740	18353	18062	0	620
-39.596	-44.645	18570	18255	0	620
-38.586	-43.094	18656	18157	0	620
-33.393	-33.105	18710	17792	0	620
-28.994	-24.162	18656	17314	0	620
-27.515	-19.834	18624	16850	0	620
-29.571	-24.847	18624	16570	0	620
-31.662	-35.774	18656	16429	0	620
-38.082	-43.202	18602	16191	0	620
-43.310	-48.503	18461	15777	0	620
-48.612	-47.422	18277	15307	0	620
-50.126	-46.628	18137	14910	0	620
-51.533	-45.258	18061	14741	0	620
-46.412	-43.779	18115	14829	0	620
-44.356	-43.887	18169	15054	0	620
-44.032	-42.084	18245	15293	0	620
-44.428	-40.894	18332	15465	0	620
-42.697	-40.101	18407	15654	0	620
-41.616	-40.966	18516	15882	0	620
-42.806	-44.464	18548	15946	0	620
-48.107	-50.559	18461	15795	0	620
-53.949	-57.771	18353	15549	0	620
-55.499	-60.584	18191	15247	0	620
-51.028	-58.925	17974	14899	0	620
-43.094	-54.093	17758	14534	0	620
-40.714	-51.965	17433	14172	0	620
-48.684	-52.038	17195	13828	0	620
-58.240	-56.617	16871	13509	0	620
-64.984	-55.896	16546	13224	0	620
-60.692	-53.805	16222	12982	0	620
-51.100	-46.412	15952	12866	0	620
-40.173	-42.878	15789	13017	0	620
-36.819	-40.137	15714	13382	0	620
-39.308	-43.419	15551	13688	0	620
-44.501	-46.232	15356	13849	0	620
-53.732	-50.884	15226	13958	0	620
-58.024	-53.011	15032	14074	0	620
-57.555	-51.749	14956	14260	0	620
-50.884	-48.359	14923	14657	0	620
-37.721	-42.445	14956	15212	0	620
-25.676	-35.052	14978	15675	0	620
-19.726	-32.239	14902	15949	0	620
-28.597	-33.177	14902	16118	0	620
-45.186	-40.822	14794	16230	0	620
-59.863	-49.008	14739	16297	0	620
-65.597	-55.680	14599	16339	0	620
-56.870	-53.191	14599	16412	0	620
-40.101	-46.736	14739	16745	0	620
-27.263	-38.622	14956	17437	0	620
-23.729	-35.918	15226	18174	0	620
-30.436	-37.396	15465	18603	0	620
-38.875	-41.291	15551	18743	0	620
-42.481	-46.448	15627	18740	0	620
-39.885	-46.664	15681	18641	0	620
-34.331	-45.979	15659	18452	0	620
-32.853	-47.782	15573	18188	0	620
-39.344	-47.241	15519	17872	0	620
-44.320	-46.015	15410	17525	0	620
-49.946	-46.484	15248	17170	0	620
-45.799	-42.445	15118	16826	0	620
-38.947	-40.101	14978	16506	0	620
-36.711	-38.045	14794	16234	0	620
-39.127	-40.534	14685	15998	0	620
-42.589	-41.832	14599	15861	0	620
-43.310	-44.140	14631	15963	0	620
-41.255	-43.455	14707	16265	0	620
-37.541	-44.753	14739	16489	0	620
-38.550	-44.032	14815	16615	0	620
-41.075	-45.979	14978	16893	0	620
-42.734	-44.789	15194	17317	0	620
-41.183	-40.678	15335	17616	0	620
-35.954	-36.567	15410	17683	0	620
-34.908	-33.285	15465	17623	0	620
-36.495	-34.079	15519	17490	0	620
-37.252	-36.423	15443	17296	0	620
-36.314	-37.000	15410	17068	0	620
-32.059	-34.439	15356	16826	0	620
-27.768	-32.131	15248	16570	0	620
-25.604	-31.807	15140	16318	0	620
-30.328	-34.187	15064	16065	0	620
-36.711	-36.387	14956	15893	0	620
-38.478	-37.937	15086	16026	0	620
-36.387	-35.557	15302	16559	0	620
-32.276	-35.341	15573	17177	0	620
-29.463	-36.711	15768	17518	0	620
-33.934	-42.661	15897	17591	0	620
-42.734	-47.710	15984	17556	0	620
-46.700	-49.621	16006	17454	0	620
-48.756	-47.241	16092	17353	0	620
-46.051	-44.897	16222	17405	0	620
-43.347	-43.455	16384	17591	0	620
-47.025	-47.818	16492	17676	0	620
-50.811	-49.802	16567	17563	0	620
-49.477	-50.956	16567	17349	0	620
-46.195	-46.881	16567	17093	0	620
-41.219	-41.111	16513	16801	0	620
-39.163	-39.740	16405	16478	0	620
-43.347	-42.553	16276	16139	0	620
-51.749	-50.343	16168	15798	0	620
-60.692	-54.418	16006	15468	0	620
-64.695	-56.113	15843	15156	0	620
-64.479	-54.345	15681	14875	0	620
-58.024	-48.179	15465	14629	0	620
-49.441	-45.402	15335	14502	0	620
-39.055	-41.868	15389	14625	0	620
-33.141	-39.849	15389	14945	0	620
-34.367	-40.353	15356	15194	0	620
-40.281	-42.625	15410	15356	0	620
-47.169	-46.123	15573	15665	0	620
-52.146	-47.602	15681	16118	0	620
-46.736	-43.455	15789	16433	0	620
-37.613	-37.685	15843	16552	0	620
-29.391	-33.502	15952	16647	0	620
-26.433	-34.187	16114	16896	0	620
-32.961	-39.921	16330	17328	0	620
-42.914	-46.484	16654	17834	0	620
-48.395	-49.585	16979	18360	0	620
-49.549	-47.061	17433	18936	0	620
-43.960	-42.012	18007	19684	0	620
-36.242	-38.803	18678	20555	0	620
-30.184	-36.278	19165	21197	0	620
-27.551	-35.485	19576	21348	0	620
-29.751	-34.475	19868	21159	0	620
-33.502	-36.062	20171	20938	0	620
-38.839	-37.541	20442	20713	0	620
-42.193	-41.183	20572	20260	0	620
-38.658	-42.301	20550	19533	1	508
-32.636	-39.127	20496	18680	0	508
-26.253	-33.502	20334	17774	0	508
-25.099	-30.545	20171	16914	0	508
-31.230	-32.167	20063	16279	0	508
-36.026	-39.127	19955	15830	0	508
-44.861	-46.953	19793	15324	0	508
-45.510	-53.913	19544	14682	0	508
-45.078	-52.470	19251	14014	0	508
-41.796	-47.890	18927	13386	0	508
-37.360	-38.298	18570	12814	0	508
-28.886	-28.561	18191	12311	0	508
-19.221	-24.198	17866	11946	0	508
-16.228	-24.919	17682	11862	0	508
-17.743	-30.905	17520	12027	0	508
-28.309	-39.199	17271	12175	0	508
-40.029	-44.861	17054	12199	0	508
-49.657	-48.071	16816	12185	0	508
-49.693	-48.215	16546	12185	0	508
-47.926	-44.969	16276	12206	0	508
-41.832	-40.858	15984	12238	0	508
-37.072	-39.199	15681	12290	0	508
-35.557	-39.091	15443	12382	0	508
-36.819	-43.960	15140	12512	0	508
-40.570	-50.775	14902	12663	0	508
-45.582	-57.266	14631	12828	0	508
-45.222	-57.735	14382	13017	0	508
-42.986	-55.355	14144	13221	0	508
-40.137	-48.107	13895	13435	0	508
-42.229	-44.681	13679	13660	0	508
-47.025	-43.743	13495	13899	0	508
-51.713	-44.140	13300	14158	0	508
-48.792	-45.871	13138	14429	0	508
-43.635	-46.628	12975	14710	0	508
-40.498	-46.376	12813	14994	0	508
-41.724	-43.887	12737	15282	0	508
-45.871	-42.229	12597	15570	0	508
-46.376	-36.170	12488	15858	0	508
-37.036	-27.587	12413	16142	0	508
-25.027	-21.060	12413	16412	0	508
-20.375	-21.890	12304	16678	0	508
-24.162	-29.859	12272	16931	0	508
-37.973	-39.957	12272	17159	0	508
-48.467	-48.612	12250	17377	0	508
-53.119	-47.926	12272	17588	0	508
-48.900	-43.815	12304	17799	0	508
-42.481	-40.029	12304	17992	0	508
-38.334	-41.652	12380	18167	0	508
-36.928	-47.277	12434	18336	0	508
-37.901	-51.172	12488	18480	0	508
-39.812	-52.290	12575	18578	0	508
-42.986	-48.720	12629	18641	0	508
-46.520	-45.979	12705	18683	0	508
-46.412	-40.498	12791	18708	0	508
-43.166	-35.557	12846	18704	0	508
-37.432	-31.662	12900	18676	0	508
-33.646	-30.148	12975	18631	0	508
-31.554	-29.679	13030	18575	0	508
-30.292	-29.715	13116	18504	0	508
-31.013	-31.302	13224	18487	0	508
-29.895	-28.417	13462	18669	0	508
-28.273	-24.306	13733	19013	0	508
-28.092	-22.322	14058	19322	0	508
-30.256	-26.073	14436	19656	0	508
-34.187	-30.184	14815	20049	0	508
-39.344	-39.308	15172	20288	0	508
-46.484	-46.412	15465	20270	0	508
-49.946	-49.982	15659	20098	0	508
-52.867	-50.018	15843	19846	0	508
-53.300	-49.477	15984	19540	0	508
-55.103	-49.297	16092	19185	0	508
-55.824	-47.710	16168	18782	0	508
-59.538	-51.785	16255	18353	0	508
-64.731	-56.690	16255	17914	0	508
-68.878	-66.318	16222	17461	0	508
-74.252	-73.747	16201	16998	0	508
-69.708	-74.288	16146	16552	0	508
-63.217	-66.643	16060	16135	0	508
-49.693	-54.490	15952	15749	0	508
-38.406	-43.779	15897	15394	0	508
-33.033	-40.173	15768	15078	0	508
-32.744	-43.671	15768	14878	0	508
-36.387	-46.232	15822	14934	0	508
-41.652	-45.041	15897	15194	0	508
-44.212	-41.507	15984	15387	0	508
-45.438	-40.245	16038	15419	0	508
-44.537	-39.344	16038	15377	0	508
-43.707	-41.219	16006	15310	0	508
-39.596	-40.281	15984	15233	0	508
-32.420	-34.331	15952	15163	0	508
-27.443	-29.895	15897	15103	0	508
-26.325	-26.830	15822	15043	0	508
-25.640	-29.859	15768	14980	0	508
-32.420	-32.167	15714	14941	0	508
-36.891	-35.052	15659	14927	0	508
-39.993	-37.288	15573	14917	0	508
-41.832	-43.924	15497	14910	0	508
-42.697	-49.116	15465	14920	0	508
-44.248	-52.542	15389	14955	0	508
-41.652	-51.208	15302	14998	0	508
-35.882	-42.084	15281	15040	0	508
-28.164	-32.203	15194	15089	0	508
-25.135	-29.463	15140	15138	0	508
-26.974	-34.944	15064	15194	0	508
-34.800	-43.527	14978	15254	0	508
-42.734	-48.936	15032	15394	0	508
-46.448	-50.343	15118	15752	0	508
-43.815	-44.573	15302	16276	0	508
-43.022	-37.396	15465	16692	0	508
-41.868	-35.485	15519	16924	0	508
-43.383	-37.541	15605	17047	0	508
-45.222	-41.652	15681	17100	0	508
-45.114	-46.051	15768	17174	0	508
-43.960	-46.376	15930	17426	0	508
-40.209	-42.625	16146	17813	0	508
-38.983	-36.531	16330	18065	0	508
-37.468	-32.961	16438	18097	0	508
-38.298	-34.043	16513	18023	0	508
-40.462	-39.488	16546	17900	0	508
-43.779	-44.681	16567	17739	0	508
-47.999	-50.739	16567	17542	0	508
-53.480	-52.975	16567	17317	0	508
-54.634	-53.768	16622	17163	0	508
-54.021	-51.316	16730	17226	0	508
-49.297	-48.864	16925	17444	0	508
-47.566	-45.510	17033	17549	0	508
-48.684	-44.248	17109	17475	0	508
-53.732	-47.494	17141	17317	0	508
-57.988	-50.270	17109	17114	0	508
-58.565	-50.018	17109	16865	0	508
-50.920	-49.405	17109	16657	0	508
-41.868	-44.681	17195	16647	0	508
-32.348	-39.055	17303	16798	0	508
-29.499	-36.387	17433	16921	0	508
-31.013	-34.475	17704	17152	0	508
-37.000	-34.367	18061	17676	0	508
-41.003	-34.656	18407	18220	0	508
-43.779	-37.613	18710	18504	0	508
-46.772	-43.274	19089	18757	0	508
-49.621	-48.972	19544	19228	0	508
-52.470	-50.992	19955	19645	0	508
-47.782	-49.297	20225	19681	0	508
-38.334	-39.344	20388	19375	0	508
-28.850	-26.794	20550	18982	0	508
-27.083	-22.647	20680	18694	0	508
-35.052	-23.080	20821	18473	0	508
-46.123	-29.787	20821	18086	0	508
-52.939	-37.649	20875	17567	0	508
-49.621	-38.154	20896	17181	0	508
-39.921	-36.603	21005	16994	0	508
-31.158	-33.249	21113	16900	0	508
-26.938	-29.318	21254	16787	0	508
-28.092	-27.768	21200	16506	0	508
-28.128	-27.587	21145	16012	0	508
-28.417	-28.525	20929	15408	0	508
-25.568	-26.722	20767	14847	0	508
-24.342	-28.164	20626	14495	0	508
-25.135	-30.400	20550	14323	0	508
-32.672	-34.944	20355	14074	0	508
-39.921	-42.120	20117	13674	0	508
-45.655	-49.910	19814	13238	0	508
-47.746	-51.028	19490	12817	0	508
-42.842	-48.648	19111	12420	0	508
-37.432	-43.960	18786	12062	0	508
-34.836	-40.534	18440	11816	0	508
-35.449	-41.688	18223	11848	0	508
-39.127	-43.996	18029	12111	0	508
-43.743	-46.268	17812	12343	0	508
-49.116	-46.772	17596	12452	0	508
-48.792	-46.159	17379	12533	0	508
-48.071	-43.743	17087	12603	0	508
-41.652	-39.344	16838	12673	0	508
-34.367	-37.252	16567	12761	0	508
-31.771	-36.278	16309	12887	0	508
-34.475	-37.432	16038	13035	0	508
-41.075	-39.127	15822	13186	0	508
-44.428	-40.606	15551	13351	0	508
-44.176	-39.488	15302	13537	0	508
-39.812	-36.314	15118	13730	0	508
-34.800	-34.115	14869	13923	0	508
-32.853	-33.502	14685	14120	0	508
-35.449	-34.006	14436	14334	0	508
-40.606	-39.127	14274	14559	0	508
-49.369	-46.448	14112	14790	0	508
-54.670	-52.795	14004	15092	0	508
-57.771	-56.834	14090	15682	0	508
-51.388	-54.454	14361	16650	0	508
-44.284	-51.605	14599	17672	0	508
-39.596	-49.225	14869	18388	0	508
-41.327	-50.126	15010	18792	0	508
-48.431	-50.775	15140	19034	0	508
-53.264	-52.218	15194	19157	0	508
-53.516	-49.946	15248	19164	0	508
-50.379	-44.104	15248	19080	0	508
-42.193	-39.776	15248	18933	0	508
-40.281	-36.855	15226	18740	0	508
-37.072	-35.774	15140	18508	0	508
-39.416	-38.839	15172	18332	1	788
-43.635	-44.464	15248	18378	0	788
-48.684	-50.054	15356	18585	0	788
-57.447	-57.916	15497	18683	0	788
-58.997	-59.070	15551	18599	0	788
-57.122	-55.860	15551	18434	0	788
-47.458	-50.270	15573	18223	0	788
-37.865	-43.455	15551	17967	0	788
-29.643	-40.245	15465	17683	0	788
-31.230	-42.012	15389	17391	0	788
-34.872	-48.179	15356	17103	0	788
-43.599	-52.759	15248	16826	0	788
-52.903	-60.260	15194	16636	0	788
-56.617	-64.046	15356	16752	0	788
-58.168	-65.741	15627	17268	0	788
-56.726	-61.269	15930	17869	0	788
-52.614	-55.319	16168	18195	0	788
-53.408	-49.549	16330	18237	0	788
-55.175	-48.539	16405	18136	0	788
-58.601	-52.290	16459	17950	0	788
-55.644	-56.040	16459	17683	0	788
-54.418	-59.611	16438	17367	0	788
-51.352	-60.007	16384	17023	0	788
-53.841	-58.312	16309	16671	0	788
-57.916	-56.040	16201	16335	0	788
-54.562	-50.595	16092	16019	0	788
-47.277	-39.668	15952	15735	0	788
-33.970	-27.840	15843	15465	0	788
-26.866	-23.368	15681	15219	0	788
-31.699	-28.164	15551	15012	0	788
-45.222	-40.786	15465	14917	0	788
-57.735	-55.355	15519	15057	0	788
-62.640	-61.738	15659	15454	0	788
-56.293	-58.709	15876	15998	0	788
-44.933	-52.326	16114	16542	0	788
-35.305	-45.330	16276	16900	0	788
-35.052	-42.734	16384	17016	0	788
-43.563	-47.566	16492	17065	0	788
-52.470	-55.103	16676	17254	0	788
-62.495	-60.548	16892	17546	0	788
-63.433	-63.469	17000	17690	0	788
-62.459	-60.945	17033	17602	0	788
-55.824	-56.834	17087	17395	0	788
-54.382	-54.382	17033	17124	0	788
-51.136	-56.149	16979	16815	0	788
-51.208	-57.014	16871	16478	0	788
-48.648	-56.942	16730	16135	0	788
-49.549	-57.303	16567	15795	0	788
-50.234	-54.237	16438	15468	0	788
-48.612	-52.110	16330	15236	0	788
-46.412	-46.628	16330	15268	0	788
-40.858	-42.229	16384	15503	0	788
-35.341	-38.983	16384	15668	0	788
-35.088	-40.858	16405	15738	0	788
-39.704	-45.078	16546	15967	0	788
-44.825	-46.881	16708	16339	0	788
-47.710	-48.035	16816	16640	0	788
-45.366	-43.851	17109	17001	0	788
-39.452	-40.065	17487	17641	0	788
-38.947	-40.930	17812	18287	0	788
-42.697	-46.268	18137	18659	0	788
-52.687	-54.309	18461	18908	0	788
-60.079	-61.558	18732	19143	0	788
-64.263	-65.056	18927	19154	0	788
-59.286	-62.099	19003	18880	0	788
-50.487	-54.742	19089	18511	0	788
-45.979	-46.989	19197	18262	0	788
-44.969	-44.212	19306	18108	0	788
-50.811	-47.313	19360	17893	0	788
-58.457	-53.913	19468	17693	0	788
-65.344	-63.686	19544	17563	0	788
-70.898	-69.167	19544	17300	0	788
-68.987	-68.374	19544	16910	0	788
-63.361	-63.613	19576	16643	0	788
-54.201	-52.506	19598	16510	0	788
-46.232	-44.140	19576	16339	0	788
-41.435	-38.911	19652	16202	0	788
-41.904	-37.541	19684	16139	0	788
-42.553	-40.173	19598	15946	0	788
-42.481	-44.356	19490	15570	1	316
-39.019	-43.563	19381	15212	0	316
-36.964	-41.616	19381	15120	0	316
-37.360	-39.235	19522	15380	0	316
-39.776	-36.675	19630	15707	0	316
-42.373	-36.278	19630	15759	0	316
-43.707	-38.947	19544	15542	0	316
-46.881	-44.032	19435	15268	0	316
-46.917	-49.044	19468	15219	0	316
-47.566	-52.506	19598	15507	0	316
-52.434	-51.100	19684	15847	0	316
-53.877	-52.651	19684	15896	0	316
-56.401	-52.434	19652	15745	0	316
-57.483	-56.076	19652	15686	0	316
-59.611	-58.348	19630	15724	0	316
-60.656	-57.988	19522	15623	0	316
-55.391	-55.536	19381	15380	0	316
-50.126	-49.766	19327	15261	0	316
-39.199	-45.546	19251	15264	0	316
-25.965	-37.937	19165	15212	0	316
-19.726	-27.371	19197	15264	0	316
-18.103	-21.854	19327	15633	0	316
-23.188	-22.863	19414	16054	0	316
-32.059	-31.158	19468	16234	0	316
-39.380	-41.399	19544	16335	0	316
-42.373	-44.032	19598	16468	0	316
-39.416	-40.173	19544	16433	0	316
-30.472	-31.302	19381	16153	0	316
-21.673	-22.899	19251	15819	0	316
-16.120	-21.204	19219	15721	0	316
-18.031	-21.204	19306	15974	0	316
-25.568	-26.181	19327	16269	0	316
-37.865	-31.987	19273	16283	0	316
-46.628	-39.308	19143	16037	0	316
-49.153	-43.274	18981	15682	0	316
-44.212	-40.353	18678	15264	0	316
-33.610	-33.862	18353	14804	0	316
-24.270	-26.037	18029	14337	0	316
-20.700	-25.316	17628	13881	0	316
-23.909	-32.312	17249	13453	0	316
-35.990	-42.553	16892	13133	0	316
-45.618	-50.775	16654	13084	0	316
-54.201	-48.972	16438	13249	0	316
-50.739	-44.320	16255	13449	0	316
-41.904	-36.531	16146	13734	0	316
-34.475	-32.672	16146	14218	0	316
-31.446	-32.239	16276	14892	0	316
-29.499	-31.085	16513	15749	0	316
-31.879	-30.472	16784	16636	0	316
-35.413	-28.309	17054	17409	0	316
-37.432	-29.643	17358	18093	0	316
-41.580	-33.934	17736	18789	0	316
-40.462	-35.918	18137	19537	0	316
-34.151	-35.160	18602	20200	0	316
-22.322	-31.158	18981	20660	0	316
-17.418	-28.561	19306	20892	0	316
-25.027	-29.895	19468	20797	0	316
-37.973	-37.432	19490	20358	0	316
-53.696	-41.688	19490	19786	0	316
-53.119	-39.812	19598	19393	0	316
-44.501	-30.184	19760	19305	0	316
-27.227	-19.582	19847	19224	0	316
-12.333	-13.271	19922	18901	0	316
-11.251	-18.356	19955	18508	0	316
-20.231	-27.443	19977	18153	0	316
-34.547	-41.616	19868	17644	0	316
-49.225	-51.244	19630	16921	0	316
-57.303	-57.194	19360	16114	0	316
-58.889	-56.437	19003	15293	0	316
-58.060	-55.211	18602	14471	0	316
-52.975	-56.653	18169	13688	0	316
-52.687	-57.303	17682	12965	0	316
-49.297	-63.109	17217	12322	0	316
-48.395	-64.803	16730	11767	0	316
-44.969	-63.866	16222	11318	0	316
-41.868	-55.968	15735	10984	0	316
-36.423	-49.766	15335	10833	0	316
-31.590	-39.452	15086	10984	0	316
-27.479	-30.076	14815	11381	0	316
-26.037	-22.719	14685	11834	1	316
-26.866	-21.204	14631	12396	0	316
-30.617	-23.981	14577	13080	0	316
-37.793	-33.718	14577	13719	0	316
-43.094	-43.779	14599	14373	0	316
-46.159	-48.035	14707	15089	0	316
-43.599	-49.946	14685	15640	0	316
-38.550	-46.917	14685	15932	0	316
-37.252	-43.563	14577	16076	0	316
-37.577	-43.707	14491	16198	0	316
-40.353	-42.986	14545	16461	0	316
-43.310	-41.904	14545	16843	0	316
-44.464	-42.589	14545	17089	0	316
-45.186	-44.248	14469	17128	0	316
-42.373	-47.458	14361	17068	0	316
-40.101	-47.277	14252	16970	0	316
-34.439	-45.474	14090	16829	0	316
-30.941	-38.947	13895	16654	0	316
-28.741	-33.069	13733	16464	0	316
-30.148	-29.463	13517	16276	0	316
-28.994	-29.715	13333	16100	0	316
-25.243	-26.578	13224	16026	0	316
-22.070	-26.506	13192	16198	0	316
-21.493	-28.381	13224	16549	0	316
-24.522	-31.122	13224	16808	0	316
-29.895	-37.829	13192	16910	0	316
-34.764	-43.960	13170	16942	0	316
-38.875	-49.910	13192	17005	0	316
-43.238	-54.309	13300	17244	0	316
-47.169	-59.106	13441	17634	0	316
-47.169	-58.276	13517	17907	0	316
-48.576	-53.047	13625	18030	0	316
-44.609	-48.684	13820	18255	0	316
-43.491	-46.232	14036	18592	0	316
-47.097	-46.159	14144	18778	0	316
-52.687	-50.884	14274	18806	0	316
-53.191	-51.064	14599	18996	0	316
-48.756	-50.811	14956	19494	0	316
-38.875	-46.845	15356	19993	0	316
-25.099	-41.075	15605	20158	0	316
-19.906	-37.973	15876	20081	0	316
-18.464	-35.990	16146	20053	0	316
-26.001	-36.062	16384	20081	0	316
-32.925	-40.389	16546	19912	0	316
-36.639	-42.337	16622	19494	0	316
-37.901	-44.320	16708	19020	0	316
-35.377	-42.084	16838	18711	0	316
-31.446	-39.740	16946	18532	0	316
-29.210	-37.324	16946	18216	0	316
-27.047	-32.997	17000	17767	0	316
-27.624	-33.754	17163	17532	0	316
-30.977	-31.843	17433	17662	0	316
-31.482	-32.239	17596	17834	0	316
-31.302	-31.662	17736	17714	0	316
-29.246	-30.472	17736	17342	0	316
-29.174	-32.780	17736	16875	0	316
-31.194	-34.403	17596	16349	0	316
-36.134	-36.711	17433	15777	0	316
-38.983	-38.731	17271	15205	0	316
-40.642	-40.101	17087	14727	0	316
-43.274	-43.383	17054	14559	0	316
-51.569	-50.090	17217	14797	0	316
-58.529	-53.768	17271	15131	0	316
-62.964	-52.434	17271	15212	0	316
-57.555	-47.205	17195	15047	0	316
-45.691	-37.180	17087	14783	0	316
-33.610	-31.735	16925	14478	0	316
-24.053	-29.787	16676	14141	0	316
-21.529	-31.626	16438	13804	0	316
-21.313	-32.059	16168	13484	0	316
-24.053	-31.843	15930	13274	0	316
-28.164	-31.590	15822	13312	0	316
-32.095	-32.600	15735	13558	0	316
-36.062	-34.583	15627	13741	0	316
-38.298	-38.839	15519	13846	0	316
-37.613	-40.498	15605	14190	0	316
-38.045	-43.455	15768	14913	0	316
-40.281	-45.150	16038	15745	0	316
-42.770	-43.058	16330	16482	0	316
-45.294	-41.183	16546	17103	0	316
-44.789	-34.908	16730	17483	0	316
-39.163	-30.184	16784	17563	0	316
-33.574	-27.479	16784	17465	0	316
-30.508	-29.751	16762	17265	0	316
-31.302	-34.547	16654	16984	0	316
-35.305	-38.839	16492	16643	0	316
-39.704	-39.524	16309	16269	0	316
-40.065	-37.757	16060	15875	0	316
-37.180	-31.482	15843	15486	0	316
-32.059	-26.686	15573	15117	0	316
-28.958	-26.938	15335	14780	0	316
-28.453	-31.049	15032	14481	0	316
-32.528	-35.846	14794	14232	0	316
-33.934	-39.055	14469	14025	0	316
-35.160	-38.839	14220	13860	0	316
-37.144	-37.505	13949	13734	0	316
-39.019	-39.416	13679	13656	0	316
-46.268	-44.104	13495	13695	0	316
-52.867	-50.631	13441	13997	0	316
-58.745	-57.303	13441	14509	0	316
-59.214	-58.745	13408	14969	0	316
-58.096	-60.007	13354	15275	0	316
-56.690	-59.971	13387	15577	0	316
-50.595	-58.024	13462	16051	0	316
-48.756	-52.326	13657	16657	0	316
-44.212	-47.025	13765	17156	0	316
-42.337	-42.048	13874	17440	0	316
-42.517	-41.471	13928	17598	0	316
-46.772	-45.763	13928	17679	0	316
-48.612	-53.155	13928	17686	0	316
-50.595	-54.273	13895	17634	0	316
-53.336	-54.237	13874	17539	0	316
-51.857	-48.539	13895	17493	0	316
-50.018	-44.537	14004	17637	0	316
-43.383	-38.658	14112	17925	0	316
-31.158	-31.735	14220	18104	0	316
-22.070	-27.155	14307	18093	0	316
-18.428	-23.945	14307	17995	0	316
-21.349	-23.909	14328	17841	0	316
-29.859	-26.217	14307	17644	0	316
-34.079	-28.417	14274	17490	0	316
-35.269	-27.876	14436	17546	0	316
-34.151	-29.138	14577	17756	0	316
-33.069	-32.276	14631	17858	0	316
-35.810	-37.252	14761	17841	0	316
-38.622	-44.933	14923	17964	0	316
-43.491	-50.270	15172	18216	0	316
-48.287	-54.742	15302	18332	0	316
-48.864	-51.208	15410	18230	0	316
-47.818	-43.527	15519	18086	0	316
-42.625	-32.348	15714	18111	0	316
-36.314	-24.630	15897	18259	0	316
-36.783	-29.030	16038	18276	0	316
-41.003	-37.072	16114	18093	0	316
-47.530	-50.847	16146	17823	0	316
-47.746	-54.490	16146	17504	0	316
-41.688	-51.100	16146	17198	0	316
-31.879	-42.734	16309	17145	0	316
-26.866	-35.990	16676	17546	0	316
-32.131	-34.620	17109	18230	0	316
-43.310	-38.298	17520	18782	0	316
-52.795	-42.337	17758	18940	0	316
-57.230	-45.799	17974	18764	0	316
-51.641	-48.828	18007	18402	0	316
-44.501	-48.287	18029	17921	0	316
-37.577	-48.251	18007	17426	0	316
-31.735	-42.914	18083	17100	0	316
-29.643	-38.082	18169	16984	0	316
-30.653	-33.826	18332	16991	0	316
-32.997	-34.043	18461	16980	0	316
-37.288	-37.901	18461	16798	0	316
-41.580	-43.671	18440	16408	0	316
-45.402	-45.979	18332	15932	0	316
-46.340	-47.025	18115	15412	0	316
-44.825	-44.464	17953	14882	0	316
-44.284	-38.803	17650	14359	0	316
-41.219	-33.790	17412	13867	0	316
-35.701	-27.948	17141	13418	0	316
-31.230	-24.486	16816	13017	0	316
-25.352	-22.539	16513	12687	0	316
-19.401	-21.060	16255	12501	0	316
-16.480	-21.565	16146	12592	0	316
-20.664	-22.539	16038	12898	0	316
-26.470	-23.008	15897	13161	0	316
-35.160	-27.263	15768	13295	0	316
-43.022	-30.905	15681	13446	0	316
-46.051	-36.711	15681	13790	0	316
-44.681	-41.904	15735	14344	0	316
-41.507	-49.621	15897	15008	0	316
-41.255	-51.028	16060	15647	0	316
-43.347	-52.687	16146	16090	0	316
-45.546	-47.854	16222	16363	0	316
-46.232	-45.618	16384	16707	0	316
-43.851	-39.127	16567	17198	0	316
-39.380	-35.882	16838	17725	0	316
-39.957	-36.459	17141	18230	0	316
-43.779	-41.291	17412	18718	0	316
-50.162	-45.655	17704	19094	0	316
-50.703	-49.513	17866	19200	0	316
-49.621	-48.828	17953	19013	0	316
-43.310	-44.032	17920	18659	0	316
-37.865	-40.353	17866	18213	0	316
-37.252	-36.819	17736	17693	0	316
-36.242	-33.718	17520	17142	1	732
-33.898	-33.249	17358	16591	0	732
-30.725	-30.256	17109	16065	0	732
-27.371	-31.518	16838	15552	0	732
-28.417	-32.816	16600	15078	0	732
-30.653	-30.977	16309	14653	0	732
-33.898	-30.076	16038	14271	0	732
-34.511	-28.381	15735	13930	0	732
-31.374	-28.958	15410	13646	0	732
-27.984	-32.023	15140	13421	0	732
-27.047	-37.396	14869	13259	0	732
-31.194	-44.068	14599	13154	0	732
-36.675	-45.366	14307	13105	0	732
-41.760	-44.897	14058	13112	0	732
-42.120	-39.163	13820	13175	0	732
-39.668	-32.492	13603	13281	0	732
-34.439	-29.535	13387	13425	0	732
-33.033	-30.112	13192	13600	0	732
-35.557	-35.954	13008	13811	0	732
-38.442	-41.435	12846	14050	0	732
-42.734	-42.481	12737	14306	0	732
-39.921	-38.045	12597	14583	0	732
-34.151	-29.535	12521	14878	0	732
-26.361	-20.664	12434	15177	0	732
-18.464	-20.411	12359	15465	0	732
-18.752	-24.450	12326	15749	0	732
-24.991	-33.393	12272	16047	0	732
-31.554	-42.517	12250	16335	0	732
-37.360	-46.232	12272	16594	0	732
-37.973	-46.845	12250	16843	0	732
-37.757	-45.294	12272	17086	0	732
-38.983	-42.770	12304	17303	0	732
-45.835	-46.664	12380	17560	0	732
-52.903	-50.234	12575	18002	0	732
-56.149	-54.418	12846	18582	0	732
-55.355	-57.086	13030	19031	0	732
-50.198	-52.362	13224	19266	0	732
-43.815	-49.513	13441	19449	0	732
-44.320	-46.736	13765	19772	0	732
-48.503	-48.539	14166	20256	0	732
-52.975	-49.513	14653	20787	0	732
-48.576	-42.734	15064	21225	0	732
-40.101	-36.495	15410	21412	0	732
-28.381	-30.184	15659	21320	0	732
-21.854	-26.181	15930	21064	0	732
-24.811	-30.545	16114	20773	0	732
-30.545	-33.646	16384	20618	0	732
-28.886	-30.761	16676	20569	0	732
-23.224	-23.837	16925	20432	0	732
-15.435	-17.021	17271	20292	0	732
-15.002	-16.661	17574	20218	0	732
-22.034	-22.972	17736	19993	0	732
-31.194	-32.889	17899	19526	0	732
-36.531	-39.704	17974	19003	0	732
-35.377	-40.065	18191	18645	0	732
-32.564	-35.341	18332	18427	0	732
-32.961	-34.728	18440	18097	0	732
-36.675	-39.632	18548	17648	0	732
-45.366	-46.917	18710	17402	0	732
-52.687	-54.526	19089	17574	0	732
-57.375	-54.598	19576	18072	0	732
-59.214	-53.264	20117	18655	0	732
-59.070	-50.162	20550	19017	0	732
-55.824	-51.893	20842	18957	0	732
-54.814	-54.922	21005	18539	0	732
-55.932	-56.762	21037	17928	0	732
-52.759	-53.011	21059	17265	0	732
-51.316	-45.078	21059	16731	0	732
-47.674	-35.810	21113	16384	0	732
-43.527	-32.203	21221	16135	0	732
-44.933	-36.423	21200	15875	0	732
-46.917	-43.743	21145	15454	0	732
-46.051	-53.732	20951	14843	0	732
-47.710	-54.742	20713	14158	0	732
-44.320	-50.992	20409	13463	0	732
-42.157	-43.491	20031	12793	0	732
-37.757	-36.062	19652	12171	0	732
-33.466	-33.249	19251	11613	0	732
-29.607	-34.439	18840	11118	0	732
-29.463	-36.459	18386	10710	1	316
-31.085	-38.658	17920	10391	0	316
-34.187	-38.262	17487	10149	0	316
-35.160	-36.783	17087	9987	0	316
-36.928	-36.098	16654	9924	0	316
-39.993	-36.964	16309	10019	0	316
-43.527	-38.334	16060	10394	0	316
-44.501	-40.750	15897	10984	0	316
-43.347	-40.930	15714	11525	0	316
-40.678	-42.157	15519	11922	0	316
-41.147	-43.815	15281	12262	0	316
-46.700	-42.950	15032	12585	0	316
-52.326	-44.933	14848	12898	0	316
-57.591	-44.573	14599	13203	0	316
-58.637	-46.881	14382	13495	0	316
-52.975	-48.035	14198	13776	0	316
-47.494	-49.585	13982	14046	0	316
-40.714	-47.999	13765	14313	0	316
-36.459	-45.835	13571	14580	0	316
-38.009	-47.710	13408	14850	0	316
-44.789	-50.090	13246	15124	0	316
-56.437	-55.716	13116	15405	0	316
-63.505	-57.158	12975	15693	0	316
-70.321	-57.230	12921	15974	0	316
-67.580	-52.362	12791	16234	0	316
-60.007	-50.343	12683	16482	0	316
-54.057	-47.710	12651	16731	0	316
-47.277	-48.972	12629	17033	0	316
-44.464	-47.962	12791	17539	0	316
-43.455	-43.383	12975	18195	0	316
-41.543	-39.344	13192	18803	0	316
-39.272	-34.475	13517	19400	0	316
-36.675	-32.131	13841	20028	0	316
-34.367	-34.620	14090	20467	0	316
-34.223	-36.351	14328	20632	0	316
-33.718	-35.629	14491	20632	0	316
-30.004	-33.538	14599	20523	0	316
-25.712	-29.210	14707	20330	0	316
-20.519	-21.854	14761	20077	0	316
-18.247	-20.880	14815	19775	0	316
-22.575	-22.791	14815	19438	0	316
-31.013	-30.076	14815	19073	0	316
-37.973	-39.596	14794	18697	0	316
-41.075	-43.635	14761	18311	0	316
-40.281	-40.245	14739	17992	0	316
-33.249	-31.735	14956	17971	0	316
-30.869	-24.089	15302	18427	0	316
-30.617	-24.739	15822	19182	0	316
-35.918	-31.662	16255	19814	0	316
-41.075	-42.084	16622	20070	0	316
-43.599	-47.422	16892	20018	0	316
-39.272	-44.428	17163	19863	0	316
-33.502	-38.803	17433	19786	0	316
-29.463	-33.754	17758	19765	0	316
-31.302	-32.492	17953	19582	0	316
-33.069	-34.079	18029	19171	0	316
-36.891	-39.055	18061	18627	0	316
-38.731	-40.822	18115	18076	0	316
-40.822	-44.140	18169	17700	0	316
-44.284	-48.792	18299	17490	0	316
-47.746	-47.530	18299	17205	0	316
-47.530	-45.510	18277	16745	0	316
-46.268	-40.570	18223	16205	0	316
-42.373	-34.944	18029	15640	0	316
-38.190	-33.321	17866	15078	0	316
-37.108	-33.321	17628	14538	0	316
-37.072	-35.449	17412	14032	0	316
-38.658	-38.406	17195	13583	0	316
-41.507	-39.812	16925	13193	0	316
-42.553	-40.786	16708	12926	0	316
-39.812	-37.973	16600	12929	0	316
-33.285	-34.439	16567	13154	0	316
-28.201	-32.348	16438	13333	0	316
-26.650	-30.725	16330	13379	0	316
-26.181	-29.282	16168	13382	0	316
-29.318	-30.581	16060	13379	0	316
-32.672	-29.571	15843	13393	0	316
-33.321	-27.551	15681	13428	0	316
-33.069	-30.292	15573	13540	0	316
-35.593	-32.636	15605	13881	0	316
-40.462	-39.380	15627	14411	0	316
-48.215	-49.405	15627	14857	0	316
-55.716	-54.562	15681	15177	0	316
-56.617	-59.683	15822	15616	0	316
-55.572	-54.273	15984	16177	0	316
-47.890	-49.730	16060	16587	0	316
-43.491	-41.580	16168	16843	0	316
-40.101	-38.803	16363	17181	0	316
-41.183	-40.462	16513	17602	0	316
-45.330	-44.176	16708	17921	0	316
-46.412	-46.051	16925	18216	0	316
-47.746	-42.878	17163	18546	0	316
-45.330	-37.865	17303	18690	0	316
-40.317	-32.925	17358	18578	0	316
-37.829	-32.095	17379	18336	0	316
-36.423	-35.557	17358	18020	0	316
-37.324	-38.370	17249	17644	0	316
-37.324	-38.983	17141	17223	0	316
-37.577	-37.937	17054	16854	0	316
-39.524	-37.396	17109	16763	0	316
-40.389	-37.180	17303	17072	0	316
-40.029	-39.524	17487	17465	0	316
-40.462	-41.543	17682	17662	0	316
-41.580	-44.789	17866	17816	0	316
-42.193	-46.412	18115	18023	0	316
-43.419	-46.232	18191	18062	0	316
-40.245	-43.166	18245	17841	0	316
-34.620	-35.521	18191	17483	0	316
-27.047	-27.984	18191	17138	0	316
-24.883	-23.404	18245	16970	0	316
-25.965	-24.378	18277	16935	0	316
-30.364	-34.115	18277	16777	0	316
-36.675	-44.284	18169	16436	0	316
-40.534	-53.480	18083	16097	0	316
-43.887	-58.384	18169	16016	0	316
-46.087	-55.824	18299	16290	0	316
-44.861	-49.549	18461	16619	0	316
-41.507	-42.661	18494	16671	0	316
-35.557	-34.223	18461	16468	0	316
-31.843	-29.968	18407	16156	0	316
-32.889	-30.833	18245	15788	0	316
-36.314	-34.728	18029	15373	0	316
-39.596	-39.091	17812	14938	0	316
-40.426	-39.488	17542	14502	0	316
-35.341	-36.603	17249	14092	0	316
-27.876	-32.456	16979	13734	0	316
-24.450	-28.345	16676	13432	0	316
-25.460	-31.085	16438	13249	0	316
-33.502	-35.810	16309	13330	0	316
-40.678	-40.822	16309	13705	0	316
-46.159	-42.661	16363	14253	0	316
-43.419	-40.281	16438	14804	0	316
-33.826	-34.151	16438	15187	0	316
-26.830	-27.912	16405	15366	0	316
-24.342	-24.234	16405	15507	0	316
-28.886	-23.549	16459	15784	0	316
-31.699	-28.958	16546	16167	0	316
-33.898	-35.233	16600	16475	0	316
-30.184	-41.291	16730	16791	0	316
-25.460	-44.032	16871	17156	0	316
-24.847	-39.993	16925	17353	0	316
-28.092	-32.312	16925	17321	0	316
-34.403	-26.181	16871	17167	0	316
-40.029	-23.404	16784	16942	0	316
-39.632	-26.506	16622	16661	0	316
-36.026	-30.472	16459	16356	0	316
-29.571	-33.429	16276	16033	0	316
-19.113	-30.833	16060	15710	0	316
-18.536	-25.893	15897	15482	0	316
-21.709	-21.745	15843	15496	0	316
-30.761	-21.998	15822	15714	0	316
-40.389	-31.482	15822	15872	0	316
-46.087	-40.966	15714	15861	0	316
-46.484	-47.422	15573	15788	0	316
-38.658	-48.179	15465	15703	0	316
-30.581	-41.760	15356	15605	0	316
-24.125	-34.115	15226	15556	0	316
-20.736	-27.696	15248	15717	0	316
-23.152	-26.217	15335	16058	0	316
-31.338	-28.633	15389	16384	0	316
-37.468	-36.242	15551	16745	0	316
-43.635	-46.195	15822	17247	0	316
-44.501	-55.824	16114	17886	0	316
-42.229	-58.961	16567	18669	0	316
-42.481	-59.214	16925	19379	0	316
-43.815	-55.932	17249	19712	0	316
-49.441	-52.723	17433	19688	0	316
-51.641	-49.189	17487	19470	0	316
-48.972	-42.734	17628	19189	0	316
-41.760	-35.485	17845	19094	0	316
-34.656	-31.049	18191	19382	1	680
-38.298	-35.774	18656	19895	0	680
-44.789	-44.356	19003	20242	0	680
-53.228	-53.011	19251	20186	0	680
-52.254	-56.437	19414	19803	0	680
-44.825	-47.782	19414	19252	0	680
-33.466	-37.468	19360	18596	0	680
-28.381	-28.489	19251	17855	0	680
-29.246	-30.472	19035	17065	0	680
-35.846	-35.593	18786	16272	0	680
-42.157	-46.015	18516	15496	0	680
-46.376	-53.408	18223	14755	0	680
-46.015	-51.280	17845	14067	0	680
-44.284	-47.349	17596	13526	0	680
-44.428	-43.815	17379	13277	0	680
-50.126	-46.051	17325	13333	0	680
-55.680	-53.155	17303	13572	0	680
-59.971	-56.834	17271	13870	0	680
-53.696	-57.303	17195	14057	0	680
-44.897	-50.884	17109	14060	0	680
-34.187	-45.294	16946	13969	0	680
-33.105	-41.760	16730	13839	0	680
-34.692	-41.832	16513	13688	0	680
-40.462	-39.524	16255	13533	0	680
-43.383	-38.514	15984	13382	0	680
-45.258	-38.009	15714	13242	0	680
-45.186	-40.570	15410	13126	0	680
-43.924	-42.878	15226	13123	0	680
-42.012	-43.238	15140	13446	0	680
-39.957	-40.822	15302	14186	0	680
-41.183	-37.613	15410	15015	0	680
-41.543	-36.134	15443	15577	0	680
-44.645	-36.314	15551	15942	0	680
-44.537	-39.344	15789	16464	0	680
-40.534	-39.344	16092	17293	0	680
-35.774	-35.341	16405	18118	0	680
-31.590	-30.581	16600	18575	0	680
-31.735	-29.354	16730	18683	0	680
-39.344	-34.223	16784	18617	0	680
-50.884	-42.661	16816	18431	0	680
-55.536	-52.254	16730	18139	0	680
-53.949	-50.811	16622	17777	0	680
-45.186	-45.366	16492	17377	0	680
-35.160	-38.298	16309	16956	0	680
-33.862	-36.711	16092	16517	0	680
-39.632	-40.498	15876	16086	0	680
-45.655	-44.789	15627	15679	0	680
-49.838	-52.110	15443	15377	0	680
-49.621	-52.903	15389	15331	0	680
-50.415	-54.634	15335	15496	0	680
-49.477	-49.477	15248	15594	0	680
-47.169	-44.573	15140	15552	0	680
-45.114	-39.127	15032	15468	0	680
-39.740	-37.288	14869	15370	0	680
-35.088	-37.180	14739	15261	0	680
-32.059	-34.872	14545	15152	0	680
-28.561	-29.282	14415	15054	0	680
-24.775	-22.935	14220	14962	0	680
-22.178	-17.743	14036	14899	0	680
-21.854	-18.175	13874	14871	0	680
-20.736	-18.897	13711	14875	0	680
-18.139	-21.565	13571	14903	0	680
-17.995	-22.070	13441	14945	0	680
-19.582	-26.037	13300	15005	0	680
-28.201	-32.420	13170	15089	0	680
-38.803	-41.219	13116	15268	0	680
-45.799	-48.648	13278	15749	0	680
-44.717	-49.693	13571	16619	0	680
-39.019	-47.710	13928	17577	0	680
-31.699	-40.029	14220	18237	0	680
-29.427	-36.278	14436	18655	0	680
-32.492	-36.603	14815	19115	0	680
-39.019	-41.111	15140	19628	0	680
-43.815	-46.736	15443	19930	0	680
-49.116	-53.480	15605	19940	0	680
-49.730	-54.562	15714	19772	0	680
-47.133	-53.913	15789	19505	0	680
-42.914	-43.527	15822	19157	0	680
-32.997	-33.321	15876	18813	0	680
-26.109	-22.863	15984	18648	1	316
-23.080	-18.824	16114	18624	0	316
-27.551	-24.811	16201	18497	0	316
-33.429	-33.429	16201	18192	0	316
-39.416	-39.380	16255	17879	0	316
-40.606	-42.553	16384	17753	0	316
-36.423	-36.459	16513	17767	0	316
-30.545	-29.246	16622	17735	0	316
-26.542	-21.781	16816	17732	0	316
-24.775	-18.897	16979	17809	0	316
-24.522	-22.791	17109	17770	0	316
-28.597	-29.463	17217	17591	0	316
-35.557	-39.632	17379	17525	0	316
-37.649	-43.166	17520	17577	0	316
-34.187	-42.157	17628	17504	0	316
-23.296	-31.879	17628	17219	0	316
-11.900	-21.890	17628	16826	0	316
-4.327	-13.307	17520	16384	0	316
-7.934	-10.133	17412	15995	0	316
-15.182	-16.769	17466	15819	0	316
-26.578	-25.784	17487	15802	0	316
-31.482	-34.151	17412	15696	0	316
-37.252	-40.858	17325	15422	0	316
-42.589	-42.806	17217	15085	0	316
-49.189	-47.746	17033	14738	0	316
-51.424	-49.297	16784	14394	0	316
-52.038	-49.982	16654	14134	0	316
-45.763	-51.028	16567	14109	0	316
-37.396	-46.484	16600	14348	0	316
-31.843	-41.832	16708	14738	0	316
-32.564	-37.324	16871	15208	0	316
-36.278	-32.708	17054	15735	0	316
-41.724	-32.672	17249	16223	0	316
-44.284	-34.692	17358	16492	0	316
-44.537	-39.704	17466	16577	0	316
-39.776	-42.409	17574	16728	0	316
-32.744	-37.108	17736	16959	0	316
-21.565	-27.624	17812	17100	0	316
-10.891	-16.661	18029	17233	0	316
-8.583	-13.127	18115	17423	0	316
-14.425	-15.362	18223	17447	0	316
-25.640	-23.657	18169	17230	0	316
-32.889	-30.328	18115	16889	0	316
-30.617	-26.866	17974	16499	0	316
-20.736	-20.411	17845	16083	0	316
-11.143	-17.634	17596	15637	0	316
-10.783	-18.716	17358	15180	0	316
-17.310	-28.345	17087	14727	0	316
-30.292	-39.560	16784	14295	0	316
-42.445	-48.684	16459	13906	0	316
-52.146	-50.775	16201	13572	0	316
-51.785	-49.441	15843	13288	0	316
-47.277	-43.202	15519	13056	0	316
-37.721	-36.278	15226	12891	0	316
-33.718	-32.600	14923	12793	0	316
-37.000	-37.144	14599	12764	0	316
-46.520	-44.392	14382	12793	0	316
-58.096	-56.040	14090	12863	0	316
-61.594	-59.142	13895	13049	0	316
-57.771	-58.168	13841	13498	0	316
-46.628	-49.225	13895	14148	0	316
-34.511	-40.966	13841	14713	0	316
-27.299	-35.269	13841	15103	0	316
-26.686	-34.980	13874	15482	0	316
-34.475	-38.839	13982	16040	0	316
-40.822	-42.048	14112	16710	0	316
-44.501	-38.658	14252	17240	0	316
-38.514	-30.869	14361	17549	0	316
-30.148	-21.457	14415	17753	0	316
-20.339	-14.713	14469	17886	0	316
-14.136	-15.110	14469	17928	0	316
-15.110	-17.923	14436	17893	0	316
-14.533	-22.755	14491	17869	0	316
-15.903	-24.739	14631	18097	0	316
-20.195	-25.243	15010	18683	0	316
-23.008	-26.794	15302	19312	0	316
-26.866	-30.364	15551	19631	0	316
-30.977	-34.006	15735	19656	0	316
-32.239	-38.406	15843	19526	0	316
-35.160	-42.842	15897	19298	0	316
-40.966	-45.727	15930	18996	0	316
-48.648	-49.369	15930	18638	0	316
-55.427	-57.988	15930	18311	0	316
-61.053	-63.217	16060	18174	0	316
-62.279	-67.256	16168	18188	0	316
-56.437	-63.938	16222	18097	0	316
-49.910	-55.355	16222	17823	0	316
-40.317	-45.763	16255	17542	0	316
-36.747	-37.865	16363	17458	0	316
-38.190	-36.567	16492	17532	0	316
-42.553	-37.108	16546	17507	0	316
-43.887	-36.098	16567	17293	0	316
-39.272	-35.016	16567	17009	0	316
-34.367	-31.843	16513	16707	0	316
-30.328	-30.400	16405	16384	0	316
-31.554	-31.482	16363	16040	0	316
-31.662	-33.538	16201	15689	0	316
-28.201	-32.023	16060	15359	0	316
-21.385	-25.856	15897	15057	0	316
-13.776	-21.998	15714	14776	0	316
-11.468	-21.060	15605	14594	0	316
-16.589	-22.503	15681	14734	0	316
-21.060	-27.263	15876	15289	0	316
-25.532	-28.489	16060	15935	0	316
-28.561	-31.987	16201	16311	0	316
-32.167	-36.711	16276	16422	0	316
-40.426	-50.631	16309	16412	0	316
-51.497	-59.214	16309	16332	0	316
-53.949	-60.801	16255	16184	0	316
-46.917	-52.434	16146	15984	0	316
-33.682	-37.541	16038	15752	0	316
-25.279	-29.174	15876	15507	0	316
-26.866	-31.194	15735	15271	0	316
-38.514	-42.734	15551	15057	0	316
-48.612	-55.211	15389	14885	0	316
-51.749	-62.243	15248	14755	0	316
-44.825	-57.807	15064	14657	0	316
-38.622	-52.038	14923	14594	0	316
-32.420	-45.041	14869	14646	0	316
-27.840	-41.868	14902	14941	0	316
-24.486	-40.930	14978	15401	0	316
-23.837	-39.524	14978	15759	0	316
-27.804	-40.137	15118	16019	0	316
-35.774	-43.707	15281	16419	0	316
-48.756	-48.936	15465	16938	0	316
-54.309	-54.598	15605	17293	0	316
-50.559	-52.326	15681	17412	0	316
-42.950	-47.494	15768	17479	0	316
-34.511	-41.039	16038	17767	0	316
-32.528	-37.288	16459	18441	0	316
-36.314	-35.016	16979	19340	0	316
-40.786	-33.826	17466	20056	0	316
-41.399	-31.518	17758	20344	0	316
-39.380	-33.177	18083	20334	0	316
-38.767	-37.541	18461	20400	0	316
-40.858	-44.176	18927	20699	0	316
-46.123	-50.090	19306	20941	0	316
-50.775	-49.621	19544	20804	0	316
-51.172	-45.655	19684	20327	0	316
-50.920	-42.012	19706	19670	0	316
-45.655	-39.560	19652	18915	1	560
-41.976	-39.091	19544	18093	0	560
-36.928	-39.993	19327	17247	0	560
-36.387	-40.462	19143	16426	0	560
-42.553	-42.553	18873	15640	0	560
-50.523	-50.811	18570	14885	0	560
-61.161	-59.034	18245	14179	0	560
-61.846	-67.220	17899	13558	0	560
-51.857	-67.724	17596	13024	0	560
-36.855	-61.197	17271	12568	0	560
-21.096	-48.179	16892	12185	0	560
-18.247	-34.115	16567	11883	0	560
-26.794	-23.440	16222	11658	0	560
-36.567	-19.257	15876	11504	0	560
-44.969	-22.503	15605	11490	0	560
-45.474	-27.371	15465	11764	0	560
-41.327	-33.213	15389	12269	0	560
-38.658	-34.908	15281	12729	0	560
-39.560	-33.718	15140	13045	0	560
-41.616	-35.377	15010	13302	0	560
-43.924	-39.957	14848	13540	0	560
-45.330	-44.609	14739	13762	0	560
-47.638	-48.467	14545	13972	0	560
-47.746	-49.369	14436	14179	0	560
-49.116	-46.664	14307	14376	0	560
-46.015	-45.907	14144	14569	0	560
-45.114	-43.779	14036	14826	0	560
-40.498	-42.445	14112	15296	0	560
-37.216	-40.137	14220	15939	0	560
-36.387	-37.108	14328	16552	0	560
-36.567	-32.744	14577	17184	0	560
-37.180	-30.977	14815	17883	0	560
-37.288	-30.112	15064	18431	0	560
-35.882	-33.105	15172	18715	0	560
-35.701	-38.478	15356	18901	0	560
-36.531	-43.274	15605	19178	0	560
-38.695	-46.664	15822	19523	0	560
-40.173	-46.376	16006	19684	0	560
-38.731	-44.861	16168	19663	0	560
-38.658	-43.058	16384	19726	0	560
-35.665	-41.219	16622	19870	0	560
-32.816	-39.632	16762	19846	0	560
-30.112	-35.016	16871	19582	0	560
-26.181	-33.177	16925	19259	0	560
-30.797	-35.269	17087	19087	0	560
-38.118	-39.272	17271	19101	0	560
-44.717	-43.707	17542	19200	0	560
-45.078	-43.238	17736	19256	0	560
-37.000	-37.505	17899	19122	0	560
-25.856	-30.905	17920	18761	0	560
-19.221	-28.597	17920	18273	0	560
-22.719	-33.898	17845	17732	0	560
-31.266	-41.435	17758	17170	0	560
-39.740	-46.845	17650	16605	0	560
-44.825	-49.585	17433	16040	0	560
-46.809	-50.667	17249	15496	0	560
-44.212	-48.576	17109	15068	0	560
-43.779	-46.989	17087	14980	0	560
-40.714	-40.822	17271	15303	0	560
-37.144	-33.141	17412	15721	0	560
-34.439	-29.427	17466	15889	0	560
-33.862	-31.482	17520	15893	0	560
-35.521	-37.793	17682	16016	0	560
-36.964	-46.376	17758	16237	0	560
-37.036	-49.116	17812	16304	0	560
-36.134	-51.064	17758	16156	0	560
-36.819	-49.982	17704	15903	0	560
-39.199	-47.566	17650	15668	0	560
-39.812	-44.609	17650	15616	0	560
-39.488	-37.649	17682	15717	0	560
-34.223	-27.912	17628	15721	0	560
-30.292	-24.775	17542	15535	0	560
-29.895	-26.361	17379	15278	0	560
-33.538	-31.302	17271	15082	0	560
-36.783	-37.288	17271	15092	0	560
-37.360	-39.055	17358	15328	0	560
-33.321	-36.891	17433	15686	0	560
-30.040	-35.485	17574	16040	0	560
-30.545	-37.757	17682	16304	0	560
-38.334	-45.474	17812	16556	0	560
-49.693	-49.838	18007	16847	0	560
-57.339	-51.605	18029	16977	0	560
-57.663	-49.766	18029	16868	0	560
-51.497	-43.527	17974	16622	0	560
-45.222	-38.767	17790	16304	0	560
-40.426	-38.190	17682	15932	0	560
-41.760	-37.541	17520	15609	0	560
-45.150	-39.885	17412	15493	0	560
-47.205	-40.389	17379	15549	0	560
-45.005	-40.786	17303	15531	0	560
-43.707	-42.373	17141	15359	0	560
-41.183	-43.924	17054	15198	0	560
-40.858	-47.674	17000	15236	0	560
-40.714	-45.727	17000	15429	0	560
-38.226	-40.534	16925	15524	0	560
-36.459	-35.088	16816	15440	0	560
-35.016	-32.456	16654	15282	0	560
-37.000	-37.793	16492	15103	0	560
-40.065	-45.510	16276	14906	0	560
-42.806	-52.939	16092	14706	0	560
-42.697	-51.749	15822	14513	0	560
-44.573	-50.487	15573	14341	0	560
-44.537	-46.232	15335	14204	0	560
-44.320	-44.032	15118	14109	0	560
-41.616	-41.291	14848	14043	0	560
-38.803	-38.983	14631	14011	0	560
-39.452	-37.829	14382	14021	0	560
-43.130	-38.262	14220	14078	0	560
-44.789	-40.065	14036	14162	0	560
-45.546	-40.930	13895	14334	0	560
-40.570	-38.803	13895	14755	0	560
-35.918	-37.144	13949	15366	0	560
-34.295	-35.593	14058	15953	0	560
-38.442	-35.701	14328	16629	0	560
-43.455	-37.829	14707	17591	0	560
-46.484	-38.731	15086	18557	0	560
-48.143	-41.147	15443	19228	0	560
-44.176	-39.596	15843	19772	0	560
-38.118	-39.019	16201	20277	0	560
-33.934	-37.144	16513	20604	0	560
-32.131	-35.449	16871	20822	0	560
-32.023	-35.737	17217	21015	0	560
-34.331	-36.964	17466	21060	0	560
-38.334	-41.616	17812	21039	0	560
-40.570	-43.599	18061	21015	0	560
-40.786	-48.251	18245	20787	0	560
-37.505	-46.087	18353	20365	0	560
-36.423	-43.960	18624	20109	1	508
-37.360	-43.383	19003	20169	0	508
-41.760	-44.501	19251	20232	0	508
-48.143	-45.907	19414	19951	0	508
-50.343	-45.474	19468	19382	0	508
-50.847	-45.655	19435	18690	0	508
-50.090	-45.582	19327	17918	0	508
-47.674	-48.107	19165	17100	0	508
-47.458	-48.467	18948	16286	0	508
-42.373	-46.159	18710	15500	0	508
-39.488	-40.966	18407	14741	0	508
-37.000	-35.341	18061	14018	0	508
-37.000	-36.855	17790	13428	0	508
-38.803	-37.937	17574	13130	0	508
-37.865	-38.983	17433	13066	0	508
-36.675	-36.351	17271	13056	0	508
-34.439	-35.593	17217	13154	0	508
-36.098	-36.278	17249	13470	0	508
-43.274	-40.534	17325	13920	0	508
-51.749	-47.890	17379	14351	0	508
-57.807	-51.929	17379	14611	0	508
-56.257	-50.956	17325	14664	0	508
-50.234	-47.313	17163	14608	0	508
-42.229	-41.976	17054	14492	0	508
-42.193	-43.274	16892	14401	0	508
-46.628	-48.720	16871	14513	0	508
-55.499	-54.706	16925	14857	0	508
-57.519	-59.070	17000	15310	0	508
-52.687	-54.201	17141	15805	0	508
-42.697	-47.313	17412	16408	0	508
-30.184	-37.793	17790	17181	0	508
-25.965	-35.521	18083	17876	0	508
-30.508	-39.019	18277	18195	0	508
-41.147	-46.376	18440	18244	0	508
-50.884	-56.726	18602	18329	0	508
-56.509	-60.620	18764	18441	0	508
-49.080	-56.653	18764	18339	0	508
-35.593	-45.438	18732	17971	0	508
-23.080	-31.518	18602	17465	0	508
-18.211	-23.260	18386	16900	0	508
-25.424	-22.791	18245	16377	0	508
-37.613	-29.391	18115	16051	0	508
-46.772	-37.757	18029	15900	0	508
-47.530	-43.130	17845	15672	0	508
-42.229	-43.310	17650	15293	0	508
-37.468	-40.606	17379	14875	0	508
-36.964	-38.478	17109	14467	0	508
-38.298	-34.331	16816	14071	0	508
-36.964	-31.951	16546	13769	0	508
-33.357	-31.987	16405	13790	0	508
-29.282	-31.554	16459	14236	0	508
-32.348	-37.216	16492	14783	0	508
-34.980	-44.284	16459	15078	0	508
-44.861	-51.208	16384	15134	0	508
-47.169	-50.487	16255	15096	0	508
-46.195	-46.917	16092	15015	0	508
-39.776	-36.639	15984	14969	0	508
-34.656	-27.227	16006	15194	0	508
-27.263	-23.440	16168	15802	0	508
-26.686	-25.893	16330	16482	0	508
-32.636	-35.124	16438	16879	0	508
-40.714	-44.248	16459	16980	0	508
-45.618	-48.900	16405	16924	0	508
-52.074	-50.739	16330	16787	0	508
-50.559	-46.412	16222	16591	0	508
-46.953	-44.897	16114	16422	0	508
-46.123	-47.818	16114	16436	0	508
-45.655	-50.775	16201	16661	0	508
-45.078	-55.716	16384	17065	0	508
-47.386	-53.768	16654	17658	0	508
-46.953	-48.576	16925	18223	0	508
-42.517	-41.183	17054	18452	0	508
-38.947	-34.800	17141	18367	0	508
-34.079	-31.879	17195	18202	0	508
-29.607	-30.472	17303	18146	0	508
-24.342	-27.840	17412	18171	0	508
-20.700	-25.965	17412	18034	0	508
-22.214	-25.640	17379	17746	0	508
-27.263	-30.545	17433	17574	0	508
-37.901	-38.586	17574	17591	0	508
-46.448	-43.202	17736	17767	0	508
-48.143	-43.815	18061	18115	0	508
-45.258	-39.704	18277	18431	0	508
-39.091	-35.197	18386	18420	0	508
-34.115	-32.961	18407	18111	0	508
-34.439	-35.088	18353	17669	0	508
-38.695	-38.622	18223	17135	0	508
-42.301	-43.022	18029	16531	0	508
-46.412	-44.501	17758	15914	0	508
-43.202	-40.642	17574	15377	0	508
-35.557	-33.970	17466	15064	0	508
-27.912	-27.768	17303	14938	0	508
-26.109	-29.030	17217	14822	0	508
-29.174	-36.891	17163	14780	0	508
-35.341	-46.881	17163	14934	0	508
-41.291	-50.739	17217	15212	0	508
-45.943	-50.920	17303	15475	0	508
-49.477	-44.140	17271	15563	0	508
-46.195	-37.937	17141	15440	0	508
-43.130	-34.908	17033	15201	0	508
-31.951	-30.472	16784	14906	0	508
-24.089	-30.508	16546	14576	0	508
-19.690	-33.429	16276	14246	0	508
-26.902	-37.252	15952	13927	0	508
-37.757	-42.229	15627	13632	0	508
-43.707	-42.661	15335	13368	0	508
-44.428	-41.219	14956	13151	0	508
-36.639	-35.990	14653	12986	0	508
-30.040	-34.043	14328	12880	0	508
-31.049	-34.583	14004	12838	0	508
-38.226	-37.721	13711	12859	0	508
-46.556	-42.301	13441	12933	0	508
-49.910	-43.274	13246	13126	0	508
-48.215	-43.166	13192	13593	0	508
-43.671	-42.373	13192	14260	0	508
-39.740	-44.176	13170	14833	0	508
-39.091	-46.628	13138	15219	0	508
-39.921	-48.503	13138	15598	0	508
-41.183	-48.900	13246	16149	0	508
-44.464	-45.618	13387	16798	0	508
-45.691	-41.363	13495	17293	0	508
-43.599	-38.803	13549	17556	0	508
-38.911	-37.757	13571	17693	0	508
-31.482	-33.610	13625	17827	0	508
-24.919	-31.554	13787	18115	0	508
-20.267	-26.758	13928	18511	0	508
-19.834	-23.152	14090	18838	0	508
-22.899	-24.342	14382	19157	0	508
-27.083	-27.660	14707	19593	0	508
-33.898	-35.701	15032	20067	0	508
-38.839	-42.265	15443	20513	0	508
-41.868	-46.520	15876	20927	0	508
-42.481	-46.015	16255	21215	0	508
-41.471	-41.291	16513	21225	0	508
-41.003	-37.685	16654	20955	0	508
-38.586	-35.774	16784	20513	0	508
-38.947	-35.160	16871	20039	0	508
-37.829	-35.737	17033	19709	0	508
-35.593	-34.439	17195	19512	1	552
-35.305	-32.961	17217	19182	0	552
-36.783	-34.583	17249	18638	0	552
-38.911	-39.416	17195	18013	0	552
-38.983	-42.373	17054	17374	0	552
-38.622	-41.219	16925	16731	0	552
-34.656	-36.387	16708	16093	0	552
-30.941	-29.246	16492	15465	0	552
-25.856	-25.568	16255	14875	0	552
-23.585	-24.558	16006	14344	0	552
-22.142	-25.171	15735	13867	0	552
-21.673	-26.974	15497	13519	0	552
-30.400	-32.348	15389	13446	0	552
-41.291	-37.721	15335	13604	0	552
-51.785	-48.612	15194	13730	0	552
-56.365	-55.788	15140	13797	0	552
-55.391	-58.240	15194	14043	0	552
-49.189	-55.391	15194	14453	0	552
-43.599	-50.703	15248	14766	0	552
-42.914	-45.655	15194	14903	0	552
-44.933	-42.950	15226	15036	0	552
-49.333	-43.563	15302	15349	0	552
-50.775	-43.491	15410	15774	0	552
-47.926	-42.084	15465	16061	0	552
-41.363	-41.291	15465	16146	0	552
-35.521	-40.245	15497	16195	0	552
-35.629	-42.589	15659	16464	0	552
-41.291	-46.159	15952	17061	0	552
-47.349	-48.539	16201	17693	0	552
-50.775	-49.261	16384	18016	0	552
-47.638	-47.602	16492	18034	0	552
-42.048	-42.120	16513	17886	0	552
-38.262	-37.396	16567	17707	0	552
-37.324	-36.387	16676	17669	0	552
-32.131	-35.521	16838	17806	0	552
-32.816	-38.045	17054	18020	0	552
-31.446	-41.724	17217	18181	0	552
-32.816	-43.058	17303	18143	0	552
-35.774	-42.481	17325	17876	0	552
-37.829	-38.586	17249	17483	0	552
-38.731	-37.072	17195	17107	0	552
-35.413	-34.836	17249	16910	0	552
-29.030	-31.879	17271	16861	0	552
-20.664	-28.669	17217	16707	0	552
-16.192	-25.965	17109	16381	0	552
-15.759	-25.099	17054	16061	0	552
-25.496	-27.696	17087	15949	0	552
-35.593	-35.052	17054	15981	0	552
-45.727	-40.281	16979	15907	0	552
-52.614	-43.202	16946	15738	0	552
-56.221	-46.448	17087	15809	0	552
-59.178	-50.018	17303	16241	0	552
-58.745	-54.490	17466	16707	0	552
-51.100	-54.237	17650	16959	0	552
-42.770	-51.497	17845	17149	0	552
-37.036	-46.700	18029	17356	0	552
-35.521	-41.399	18137	17447	0	552
-39.452	-37.865	18332	17497	0	552
-43.779	-35.918	18440	17570	0	552
-42.193	-33.538	18548	17546	0	552
-38.226	-28.777	18678	17493	0	552
-35.305	-29.463	18819	17542	0	552
-30.112	-29.859	18981	17634	0	552
-28.309	-31.302	19111	17655	0	552
-27.119	-32.997	19143	17465	0	552
-28.164	-33.970	19057	17040	0	552
-30.833	-34.800	18894	16492	0	552
-34.079	-33.141	18678	15896	0	552
-32.492	-28.705	18386	15264	0	552
-25.532	-19.329	18115	14646	0	552
-18.788	-10.710	17758	14067	0	552
-18.392	-6.203	17487	13607	0	552
-19.762	-9.773	17249	13407	0	552
-25.135	-18.680	17109	13425	0	552
-27.515	-25.316	16892	13418	0	552
-24.811	-28.345	16676	13309	0	552
-23.981	-27.624	16405	13172	0	552
-25.604	-28.128	16146	13042	0	552
-29.102	-28.525	15843	12933	0	552
-32.059	-30.328	15551	12859	0	552
-31.735	-33.141	15281	12800	0	552
-30.653	-34.583	14923	12757	0	552
-31.662	-38.334	14707	12814	0	552
-35.197	-42.373	14577	13123	0	552
-38.442	-41.904	14545	13632	0	552
-37.252	-39.235	14436	14064	0	552
-32.312	-33.646	14274	14327	0	552
-29.066	-32.384	14144	14520	0	552
-33.033	-36.098	14004	14685	0	552
-41.832	-41.688	13820	14829	0	552
-52.038	-50.054	13657	14966	0	552
-54.273	-51.280	13517	15089	0	552
-50.343	-49.549	13354	15208	0	552
-40.822	-43.815	13246	15394	0	552
-31.590	-35.124	13278	15802	0	552
-24.522	-28.381	13408	16450	0	552
-20.195	-24.594	13733	17289	0	552
-18.139	-25.135	14144	18304	0	552
-18.103	-29.571	14545	19266	0	552
-25.388	-37.072	14848	19867	0	552
-30.220	-41.976	15118	20119	0	552
-35.052	-43.743	15302	20228	0	552
-32.961	-36.567	15605	20404	0	552
-23.981	-28.669	15876	20629	0	552
-13.668	-18.897	16060	20667	0	552
-5.914	-15.254	16222	20435	0	552
-4.940	-14.930	16255	20042	0	552
-11.251	-22.431	16222	19565	0	552
-21.745	-28.597	16168	19031	0	552
-31.049	-36.098	16060	18459	1	436
-39.560	-42.589	15930	17872	0	436
-46.881	-49.153	15789	17286	0	436
-46.845	-48.648	15573	16717	0	436
-40.966	-42.409	15389	16181	0	436
-30.545	-31.230	15172	15689	0	436
-17.959	-18.824	15032	15328	0	436
-11.071	-16.372	14978	15243	0	436
-20.303	-23.549	14978	15380	0	436
-36.495	-40.786	14978	15472	0	436
-55.716	-55.644	14902	15419	0	436
-67.544	-64.623	14848	15321	0	436
-72.124	-64.335	14707	15208	0	436
-67.724	-60.945	14685	15159	0	436
-57.591	-51.208	14707	15321	0	436
-44.284	-41.976	14761	15658	0	436
-26.073	-30.328	14848	15907	0	436
-14.569	-23.873	14815	15970	0	436
-11.973	-24.666	14869	16023	0	436
-21.457	-34.692	14978	16265	0	436
-38.045	-43.094	15118	16636	0	436
-45.618	-46.484	15248	16893	0	436
-45.366	-41.940	15335	17016	0	436
-37.288	-32.564	15519	17261	0	436
-29.282	-28.489	15768	17616	0	436
-22.827	-26.073	15876	17809	0	436
-17.779	-25.171	15930	17760	0	436
-16.661	-25.099	15984	17584	0	436
-16.985	-25.568	15930	17346	0	436
-20.303	-27.299	15876	17054	0	436
-27.010	-30.004	15822	16731	0	436
-30.004	-29.102	15659	16394	0	436
-28.453	-25.388	15573	16132	0	436
-26.217	-23.873	15605	16086	0	436
-21.241	-23.188	15659	16219	0	436
-22.827	-29.138	15659	16276	0	436
-24.342	-35.593	15605	16174	0	436
-29.895	-41.255	15551	16009	0	436
-35.629	-42.697	15465	15826	0	436
-37.865	-39.957	15335	15644	0	436
-36.134	-33.213	15248	15475	0	436
-33.610	-27.227	15118	15328	0	436
-34.439	-23.765	14978	15180	0	436
-37.901	-23.909	14848	15026	0	436
-43.347	-28.345	14685	14896	0	436
-49.044	-34.151	14545	14801	0	436
-49.153	-43.635	14436	14741	0	436
-47.097	-50.270	14274	14710	0	436
-47.133	-56.653	14166	14703	0	436
-47.494	-55.247	14058	14734	0	436
-47.313	-51.857	13928	14783	0	436
-50.054	-44.861	13787	14836	0	436
-50.307	-43.166	13679	14899	0	436
-53.228	-45.943	13603	14976	0	436
-52.939	-49.946	13517	15068	0	436
-52.939	-55.932	13408	15170	0	436
-50.451	-55.355	13333	15275	0	436
-43.635	-50.415	13333	15468	0	436
-39.380	-42.048	13441	15879	0	436
-36.134	-33.574	13603	16447	0	436
-32.239	-28.453	13711	16910	0	436
-30.761	-27.443	13820	17174	0	436
-32.420	-31.915	13874	17339	0	436
-35.124	-37.432	13982	17447	0	436
-39.776	-42.229	14058	17570	0	436
-44.068	-43.527	14274	17869	0	436
-44.897	-41.327	14469	18290	0	436
-43.779	-36.423	14739	18638	0	436
-42.120	-32.925	15010	18982	0	436
-42.914	-33.321	15389	19386	0	436
-43.094	-35.665	15681	19709	0	436
-42.517	-37.360	16060	19997	0	436
-38.622	-38.839	16438	20292	0	436
-34.259	-33.862	16708	20397	0	436
-31.013	-28.020	16979	20306	0	436
-32.744	-23.549	17271	20267	0	436
-36.819	-23.440	17596	20284	0	436
-40.714	-26.397	17758	20109	0	436
-41.111	-30.508	17920	19688	0	436
-38.442	-33.574	17920	19136	0	436
-34.079	-33.682	17953	18522	0	436
-32.925	-31.446	17845	17851	1	324
-32.023	-31.374	17736	17163	0	324
-32.853	-29.030	17574	16482	0	324
-35.413	-28.092	17358	15837	0	324
-37.685	-27.804	17141	15229	0	324
-40.822	-30.256	16925	14675	0	324
-45.150	-34.295	16676	14183	0	324
-43.996	-35.593	16438	13765	0	324
-40.173	-35.016	16222	13418	0	324
-32.348	-33.213	15984	13151	0	324
-28.020	-33.321	15768	12958	0	324
-27.191	-35.305	15519	12817	0	324
-32.961	-37.360	15356	12733	0	324
-40.534	-40.209	15086	12712	0	324
-45.582	-39.668	15010	12824	0	324
-47.241	-40.389	15032	13270	0	324
-44.681	-43.671	15281	14127	0	324
-44.501	-46.232	15573	15082	0	324
-44.212	-45.979	15714	15767	0	324
-43.310	-45.222	15876	16163	0	324
-42.697	-44.356	15952	16405	0	324
-44.356	-45.763	15984	16545	0	324
-44.537	-46.304	16092	16664	0	324
-45.294	-48.395	16222	16938	0	324
-44.428	-46.159	16384	17317	0	324
-40.245	-40.894	16546	17619	0	324
-35.774	-35.593	16871	17978	0	324
-33.538	-30.328	17249	18596	0	324
-34.620	-26.109	17628	19210	0	324
-37.288	-26.830	17866	19466	0	324
-40.498	-31.590	18061	19393	0	324
-44.392	-40.642	18137	19143	0	324
-45.078	-48.143	18169	18778	0	324
-39.740	-46.195	18169	18315	0	324
-30.797	-38.586	18083	17862	0	324
-18.716	-26.109	18169	17595	0	324
-14.749	-20.050	18191	17479	0	324
-14.966	-24.414	18191	17261	0	324
-23.657	-33.538	18115	16875	0	324
-33.429	-44.501	17974	16433	0	324
-42.048	-52.975	17845	15984	0	324
-49.008	-56.076	17682	15531	0	324
-50.956	-56.113	17487	15177	0	324
-47.349	-54.165	17487	15068	0	324
-42.157	-48.251	17433	15145	0	324
-37.613	-41.688	17379	15149	0	324
-37.036	-38.911	17271	15005	0	324
-44.933	-42.301	17195	14889	0	324
-54.165	-49.838	17195	14973	0	324
-61.522	-57.303	17249	15205	0	324
-63.217	-62.243	17217	15335	0	324
-60.224	-60.260	17141	15282	0	324
-50.234	-52.831	17000	15152	0	324
-44.392	-46.268	16925	15068	0	324
-35.557	-39.632	16946	15184	0	324
-26.938	-31.518	16979	15458	0	324
-18.608	-25.460	17000	15696	0	324
-13.776	-22.214	17109	15963	0	324
-14.245	-25.099	17249	16311	0	324
-23.188	-33.069	17303	16513	0	324
-33.718	-39.993	17325	16570	0	324
-37.721	-40.750	17520	16794	0	324
-32.744	-34.295	17812	17339	0	324
-26.073	-24.847	18061	17897	0	324
-21.241	-22.106	18299	18195	0	324
-23.549	-23.440	18602	18469	0	324
-26.037	-27.407	19003	18961	0	324
-28.777	-29.787	19360	19421	0	324
-30.040	-30.040	19576	19509	0	324
-28.814	-28.164	19652	19252	0	324
-30.761	-29.823	19652	18806	0	324
-34.728	-32.203	19598	18262	0	324
-39.272	-37.901	19490	17644	0	324
-40.281	-40.101	19306	16970	0	324
-37.288	-40.137	19111	16339	0	324
-30.112	-35.016	18981	15914	0	324
-22.431	-29.174	18948	15742	0	324
-20.050	-23.621	19035	15795	0	324
-25.965	-23.512	19197	16090	0	324
-35.521	-27.371	19414	16464	0	324
-44.537	-33.466	19630	16773	0	324
-48.828	-40.498	19760	16966	0	324
-49.297	-47.926	19868	17005	0	324
-50.162	-50.920	20063	17068	0	324
-46.953	-51.929	20334	17356	0	324
-41.652	-46.087	20550	17686	0	324
-32.239	-35.557	20821	17876	0	324
-21.204	-23.981	20951	17921	0	324
-18.752	-20.447	21005	17725	0	324
-24.991	-24.089	20983	17328	0	324
-36.206	-35.990	21005	16984	0	324
-44.933	-47.386	20951	16721	0	324
-45.655	-52.470	20896	16384	0	324
-39.704	-47.746	20842	16068	0	324
-34.836	-43.996	20788	15826	0	324
-36.567	-44.825	20604	15458	0	324
-40.966	-48.215	20301	14906	0	324
-41.183	-47.097	20009	14299	0	324
-35.521	-42.337	19630	13681	0	324
-31.338	-34.223	19219	13070	0	324
-33.754	-32.023	18764	12505	0	324
-40.209	-38.262	18353	12002	0	324
-48.648	-45.871	17812	11557	0	324
-45.763	-46.953	17325	11167	0	324
-35.269	-42.950	16838	10858	0	324
-29.138	-35.088	16330	10644	0	324
-28.850	-32.600	15876	10517	0	324
-35.846	-35.016	15410	10472	0	324
-43.419	-36.855	15032	10577	0	324
-44.861	-38.370	14739	10974	0	324
-41.471	-38.082	14577	11592	0	324
-39.199	-37.829	14382	12160	0	324
-38.550	-38.947	14144	12589	0	324
-39.235	-41.147	13928	12968	0	324
-38.803	-39.488	13711	13326	0	324
-34.439	-33.213	13549	13737	0	324
-27.984	-24.739	13517	14351	0	324
-25.171	-21.096	13517	15124	0	324
-24.450	-23.585	13571	15865	0	324
-32.961	-33.682	13733	16601	0	324
-41.291	-43.924	13895	17381	0	324
-44.573	-47.169	14004	17992	0	324
-42.120	-44.212	14090	18336	0	324
-38.803	-39.812	14144	18518	0	324
-36.098	-37.577	14166	18666	0	324
-40.137	-39.560	14328	18954	0	324
-47.097	-45.186	14523	19347	0	324
-52.290	-50.667	14577	19575	0	324
-55.319	-52.614	14653	19558	0	324
-51.749	-52.867	14653	19407	0	324
-47.818	-50.667	14631	19182	0	324
-42.517	-44.609	14653	18964	0	324
-37.180	-40.173	14739	18929	1	528
-33.934	-34.583	14923	19101	0	528
-29.931	-28.922	15140	19372	0	528
-26.470	-24.053	15335	19607	0	528
-24.270	-20.087	15519	19638	0	528
-27.371	-21.313	15573	19431	0	528
-32.672	-26.866	15573	19094	0	528
-40.426	-33.790	15573	18694	0	528
-39.019	-37.036	15497	18244	0	528
-32.925	-32.564	15389	17777	0	528
-19.329	-22.647	15281	17325	0	528
-12.550	-16.733	15226	16956	0	528
-9.809	-12.369	15226	16822	0	528
-15.326	-14.461	15281	16868	0	528
-18.428	-15.867	15335	16850	0	528
-21.854	-15.579	15281	16689	0	528
-21.601	-20.267	15248	16457	0	528
-26.686	-27.840	15194	16276	0	528
-36.387	-40.173	15335	16360	0	528
-45.691	-53.841	15659	16893	0	528
-52.038	-57.230	16146	17707	0	528
-51.641	-59.611	16492	18385	0	528
-51.028	-57.158	16730	18680	0	528
-48.107	-56.329	17000	18715	0	528
-45.691	-51.208	17358	18848	0	528
-39.199	-43.274	17790	19301	0	528
-26.397	-29.463	18353	19930	0	528
-16.156	-19.185	18840	20425	0	528
-13.884	-14.605	19327	20692	0	528
-20.483	-21.385	19706	20751	0	528
-36.711	-33.393	19955	20495	0	528
-51.929	-43.635	20031	19912	0	528
-58.637	-46.340	20009	19140	0	528
-55.211	-40.462	19901	18269	0	528
-42.914	-31.735	19738	17346	0	528
-32.420	-24.847	19522	16415	0	528
-29.751	-25.640	19219	15507	0	528
-35.593	-32.203	18873	14622	0	528
-46.304	-41.580	18516	13786	0	528
-52.542	-47.061	18169	13101	0	528
-53.228	-45.618	17974	12733	0	528
-43.996	-38.045	17758	12620	0	528
-36.531	-30.220	17542	12487	0	528
-28.237	-23.512	17249	12252	0	528
-21.601	-24.775	16946	12017	0	528
-19.546	-29.282	16622	11813	0	528
-18.175	-34.475	16363	11704	0	528
-21.493	-36.459	16255	11922	0	528
-28.273	-36.855	16309	12557	0	528
-32.780	-37.216	16363	13298	0	528
-38.947	-40.678	16330	13786	0	528
-40.858	-41.471	16276	14025	0	528
-39.488	-42.265	16146	14151	0	528
-35.269	-37.901	16038	14211	0	528
-29.463	-28.489	15876	14292	0	528
-23.585	-20.808	15897	14632	0	528
-22.539	-16.516	16060	15328	0	528
-27.335	-21.493	16255	16065	0	528
-31.879	-28.092	16309	16489	0	528
-31.915	-31.807	16309	16626	0	528
-23.368	-26.938	16255	16622	0	528
-13.559	-18.644	16146	16538	0	528
-6.239	-8.727	16006	16384	0	528
-10.674	-12.045	15843	16174	0	528
-19.654	-21.818	15659	15946	0	528
-30.545	-32.420	15410	15717	0	528
-38.190	-41.543	15194	15496	0	528
-41.363	-44.032	15010	15285	0	528
-42.914	-42.589	14739	15113	0	528
-45.582	-41.868	14545	14973	0	528
-45.438	-39.849	14307	14854	0	528
-47.530	-39.272	14058	14748	0	528
-46.700	-38.803	13820	14671	0	528
-44.320	-38.298	13603	14625	0	528
-42.950	-38.550	13387	14611	0	528
-42.553	-39.812	13192	14625	0	528
-43.347	-40.606	12975	14675	0	528
-46.592	-42.770	12846	14755	0	528
-45.186	-42.265	12651	14864	0	528
-41.183	-38.767	12488	14994	1	316
-33.466	-32.456	12380	15145	0	316
-27.299	-28.092	12326	15384	0	316
-24.558	-26.325	12380	15851	0	316
-29.679	-30.977	12488	16482	0	316
-37.396	-38.082	12597	17005	0	316
-43.743	-43.960	12683	17325	0	316
-49.369	-45.078	12737	17549	0	316
-51.857	-46.809	12759	17718	0	316
-48.828	-45.799	12813	17834	0	316
-43.347	-42.734	12846	17907	0	316
-31.987	-36.928	12846	17950	0	316
-20.159	-29.354	12900	17953	0	316
-11.179	-21.349	12954	17992	0	316
-9.232	-20.483	13116	18237	0	316
-18.247	-26.938	13333	18641	0	316
-27.407	-33.393	13517	18919	0	316
-37.036	-42.734	13657	18982	0	316
-43.599	-49.153	13765	18940	0	316
-44.753	-50.487	13874	18848	0	316
-42.120	-45.222	13982	18771	0	316
-36.567	-38.658	14274	18933	0	316
-29.715	-30.436	14685	19445	0	316
-27.479	-29.715	15086	19990	0	316
-32.816	-36.098	15389	20214	0	316
-42.950	-46.412	15714	20214	0	316
-52.254	-56.942	16060	20270	0	316
-55.463	-61.666	16384	20383	0	316
-52.074	-58.348	16622	20302	0	316
-41.868	-54.237	16784	19968	0	316
-32.420	-43.815	16892	19501	0	316
-22.972	-35.810	16946	18961	0	316
-16.697	-31.194	16925	18360	0	316
-10.386	-25.893	16816	17728	0	316
-11.792	-25.279	16762	17089	0	316
-18.031	-28.958	16600	16471	0	316
-31.482	-38.803	16459	15893	0	316
-44.645	-51.677	16276	15349	0	316
-56.185	-61.774	16092	14847	0	316
-56.329	-65.092	15930	14401	0	316
-50.415	-60.188	15714	14028	0	316
-40.353	-51.785	15519	13730	0	316
-34.403	-43.274	15389	13561	0	316
-32.492	-37.468	15410	13677	0	316
-32.708	-35.521	15410	14021	0	316
-31.230	-36.423	15443	14306	0	316
-26.361	-38.622	15443	14425	0	316
-21.601	-39.235	15356	14474	0	316
-16.949	-38.947	15302	14499	0	316
-21.926	-37.396	15226	14506	0	316
-32.780	-39.235	15118	14506	0	316
-43.022	-43.202	15086	14583	0	316
-49.585	-46.989	15140	14878	0	316
-45.799	-48.323	15226	15335	0	316
-42.193	-47.638	15302	15679	0	316
-34.692	-44.645	15302	15830	0	316
-34.043	-41.291	15302	15893	0	316
-35.485	-41.435	15302	15914	0	316
-36.026	-41.652	15226	15896	0	316
-36.026	-45.294	15172	15861	0	316
-37.541	-47.241	15194	15893	0	316
-42.301	-51.713	15302	16212	0	316
-46.087	-49.369	15627	16886	0	316
-45.907	-49.153	16038	17676	0	316
-43.599	-45.979	16405	18392	0	316
-39.704	-46.087	16762	18996	0	316
-37.072	-46.232	17087	19336	0	316
-36.747	-45.114	17271	19361	0	316
-35.918	-40.389	17433	19203	0	316
-33.393	-32.600	17466	18933	0	316
-31.843	-29.823	17487	18560	0	316
-35.233	-32.708	17433	18104	0	316
-42.048	-44.176	17325	17602	0	316
-45.799	-52.290	17217	17079	0	316
-43.419	-54.706	17087	16559	0	316
-35.160	-44.392	16892	16061	0	316
-28.741	-32.780	16654	15587	0	316
-26.217	-26.902	16546	15222	0	316
-32.456	-29.643	16546	15180	0	316
-41.183	-37.577	16708	15559	0	316
-45.835	-45.727	16946	16118	0	316
-46.809	-46.484	17217	16640	0	316
-45.582	-45.799	17433	17086	0	316
-45.691	-43.058	17650	17314	0	316
-47.349	-42.337	17790	17356	0	316
-52.182	-44.356	17974	17479	0	316
-54.129	-46.917	18223	17742	0	316
-55.752	-49.297	18602	18104	0	316
-53.408	-52.326	19035	18659	0	316
-53.191	-57.591	19630	19435	0	316
-53.805	-57.519	20247	20228	0	316
-52.939	-54.995	20734	20723	0	316
-53.624	-52.218	21091	20727	0	316
-51.352	-45.979	21254	20327	0	316
-46.917	-41.940	21384	19775	0	316
-40.750	-37.541	21524	19280	0	316
-32.167	-31.662	21632	18905	0	316
-27.624	-25.929	21849	18648	1	388
-28.381	-23.044	22087	18546	0	388
-35.124	-27.732	22228	18402	0	388
-42.517	-34.439	22303	17939	0	388
-46.087	-40.173	22228	17254	0	388
-42.229	-40.822	22249	16731	0	388
-34.764	-36.026	22358	16527	0	388
-31.302	-32.384	22390	16367	0	388
-32.348	-32.456	22282	15914	0	388
-37.613	-34.944	22087	15208	0	388
-42.950	-38.045	21816	14481	0	388
-44.320	-38.478	21632	13941	0	388
-39.812	-34.295	21384	13558	0	388
-35.954	-31.049	21091	13098	0	388
-31.085	-30.004	20734	12508	0	388
-29.679	-31.122	20280	11897	0	388
-31.122	-35.665	19793	11318	0	388
-35.052	-39.849	19327	10865	0	388
-39.849	-43.671	19003	10700	0	388
-42.950	-43.779	18656	10767	0	388
-45.691	-43.058	18299	10805	0	388
-43.671	-42.012	17953	10749	0	388
-41.760	-42.409	17520	10689	0	388
-41.039	-42.157	17141	10728	0	388
-41.255	-39.993	16946	11072	0	388
-41.868	-35.485	16925	11837	0	388
-40.894	-33.033	16892	12701	0	388
-39.488	-30.004	16838	13368	0	388
-38.082	-32.564	16871	13986	0	388
-38.009	-35.774	16871	14639	0	388
-39.055	-38.009	16871	15180	0	388
-38.190	-36.819	16925	15675	0	388
-36.531	-31.410	16979	16184	0	388
-35.160	-25.532	16925	16506	0	388
-35.233	-18.464	16816	16577	0	388
-38.009	-18.392	16622	16510	0	388
-37.036	-19.185	16459	16374	0	388
-34.403	-22.286	16201	16177	0	388
-25.496	-23.981	15984	15953	0	388
-16.480	-19.906	15659	15717	0	388
-13.559	-16.697	15356	15486	0	388
-13.704	-13.595	15140	15345	0	388
-17.706	-14.749	15010	15447	0	388
-22.791	-16.805	14956	15749	0	388
-25.856	-21.854	14869	16037	0	388
-24.198	-25.424	14902	16367	0	388
-24.162	-26.902	14978	16794	0	388
-23.404	-26.433	14956	17103	0	388
-22.286	-29.246	14923	17195	0	388
-22.719	-29.391	14815	17167	0	388
-26.542	-32.384	14739	17089	0	388
-27.191	-36.314	14653	17037	0	388
-30.436	-40.966	14685	17167	0	388
-33.862	-43.022	14739	17426	0	388
-35.485	-45.835	14761	17651	0	388
-38.082	-47.494	14923	17897	0	388
-41.868	-47.349	15032	18216	0	388
-42.878	-49.946	15118	18385	0	388
-46.123	-47.241	15172	18332	0	388
-43.635	-41.832	15172	18227	0	388
-40.534	-37.000	15302	18266	0	388
-37.324	-32.492	15389	18406	0	388
-38.190	-32.636	15465	18480	0	388
-41.255	-35.954	15659	18564	0	388
-41.832	-37.072	15930	18778	0	388
-38.154	-34.800	16146	19049	0	388
-31.013	-32.961	16384	19252	0	388
-27.335	-32.492	16567	19319	0	388
-27.010	-32.744	16816	19365	0	388
-31.590	-33.141	17054	19421	0	388
-34.079	-30.148	17217	19361	0	388
-32.997	-27.047	17466	19284	0	388
-31.158	-23.152	17628	19259	0	388
-30.761	-20.267	17758	19066	0	388
-31.987	-21.024	17736	18606	0	388
-35.269	-24.017	17704	18023	0	388
-36.423	-26.325	17574	17395	0	388
-36.134	-34.006	17379	16735	0	388
-32.492	-39.235	17163	16058	0	388
-28.850	-40.858	16925	15391	0	388
-26.361	-40.426	16600	14755	0	388
-28.705	-36.387	16309	14165	0	388
-32.276	-31.626	15984	13632	0	388
-32.816	-28.489	15681	13238	0	388
-30.689	-25.965	15551	13140	0	388
-29.282	-26.217	15443	13284	0	388
-29.354	-30.725	15281	13396	0	388
-36.928	-36.206	15086	13379	0	388
-46.809	-46.845	14923	13326	0	388
-57.375	-55.860	14653	13284	0	388
-60.332	-61.233	14469	13252	0	388
-58.060	-61.017	14252	13238	0	388
-55.211	-57.447	14004	13245	0	388
-46.881	-49.802	13765	13281	0	388
-39.885	-43.310	13517	13340	0	388
-34.043	-36.819	13333	13421	0	388
-29.138	-32.564	13116	13533	0	388
-25.279	-31.230	12954	13684	0	388
-25.604	-31.049	12759	13870	0	388
-27.263	-31.915	12597	14078	0	388
-27.155	-31.266	12467	14306	0	388
-26.181	-30.833	12359	14569	0	388
-24.270	-33.033	12250	14847	0	388
-26.686	-34.980	12196	15180	0	388
-30.761	-41.363	12380	15788	0	388
-35.052	-42.265	12705	16773	0	388
-35.485	-39.957	13084	17900	0	388
-35.557	-36.314	13625	18992	0	388
-34.980	-36.711	14307	20204	0	388
-43.383	-43.887	15140	21580	0	388
-50.595	-52.326	15984	22893	0	388
-53.913	-58.384	16762	23915	0	388
-49.405	-55.860	17520	24586	0	388
-39.308	-47.926	18191	24930	0	388
-32.239	-38.695	18656	24856	0	388
-32.023	-35.016	19003	24365	0	388
-37.865	-36.423	19197	23606	0	388
-44.104	-42.950	19273	22669	0	388
-49.008	-46.953	19327	21675	1	472
-51.533	-48.395	19435	20818	0	472
-49.044	-50.631	19544	20176	0	472
-48.431	-47.602	19684	19659	0	472
-47.205	-45.041	19847	19214	0	472
-45.474	-49.116	20031	18824	0	472
-49.225	-52.614	20171	18409	0	472
-51.424	-56.509	20171	17834	0	472
-50.884	-59.322	20063	17068	0	472
-46.628	-56.870	19955	16283	0	472
-38.334	-45.150	19901	15675	0	472
-32.348	-36.098	19847	15243	0	472
-30.941	-31.338	19684	14748	0	472
-37.793	-32.348	19414	14106	0	472
-45.618	-40.389	19111	13418	0	472
-53.841	-51.605	18786	12747	0	472
-54.490	-57.916	18407	12108	0	472
-48.900	-56.221	17974	11525	0	472
-39.704	-47.205	17574	11016	0	472
-30.833	-37.685	17087	10584	0	472
-26.181	-28.886	16622	10236	0	472
-30.148	-25.424	16255	10057	0	472
-34.259	-28.633	16006	10194	0	472
-37.685	-31.194	15789	10577	0	472
-41.003	-33.862	15551	10935	0	472
-41.327	-36.928	15281	11174	0	472
-46.520	-41.868	15032	11384	0	472
-50.234	-46.556	14794	11679	0	472
-52.831	-47.169	14815	12273	0	472
-48.539	-47.061	14923	13263	0	472
-40.822	-40.822	15086	14302	0	472
-33.898	-31.049	15140	15040	0	472
-33.213	-26.614	15172	15496	0	472
-34.872	-28.201	15172	15812	0	472
-42.193	-34.836	15118	16090	0	472
-42.229	-38.767	15248	16485	0	472
-37.505	-37.721	15335	16991	0	472
-28.850	-32.348	15389	17353	0	472
-25.893	-29.571	15389	17472	0	472
-28.417	-33.682	15389	17525	0	472
-36.278	-41.580	15497	17721	0	472
-39.921	-46.159	15605	18020	0	472
-38.803	-40.029	15627	18174	0	472
-31.266	-30.905	15605	18104	0	472
-22.972	-23.116	15551	17921	0	472
-25.171	-21.385	15443	17672	0	472
-29.751	-27.696	15302	17374	0	472
-38.839	-36.639	15140	17054	0	472
-46.628	-44.104	14978	16731	0	472
-49.405	-50.847	14761	16415	0	472
-51.893	-55.463	14577	16118	0	472
-51.677	-56.509	14382	15844	0	472
-56.617	-58.240	14220	15679	0	472
-56.906	-55.716	14220	15774	0	472
-57.663	-49.730	14252	16079	0	472
-52.651	-45.582	14220	16311	0	472
-50.956	-41.688	14198	16374	0	472
-51.280	-43.455	14166	16377	0	472
-57.266	-48.143	14112	16374	0	472
-59.106	-56.653	14004	16339	0	472
-56.221	-60.260	13949	16276	0	472
-51.280	-60.476	13874	16216	0	472
-43.238	-52.398	13787	16160	0	472
-37.613	-40.570	13657	16097	0	472
-36.387	-30.292	13571	16026	0	472
-35.521	-26.470	13462	15960	0	472
-32.456	-26.578	13354	15903	0	472
-31.085	-29.427	13246	15868	0	472
-30.256	-29.535	13170	15851	0	472
-30.184	-26.686	13062	15847	0	472
-29.787	-26.470	12975	15861	0	472
-30.905	-29.174	12900	15882	0	472
-33.069	-34.115	12846	15914	0	472
-32.203	-39.272	12759	15953	0	472
-32.780	-40.966	12759	16076	0	472
-34.439	-39.344	12954	16422	0	472
-35.810	-38.082	13062	16935	0	472
-39.416	-39.091	13192	17335	0	472
-43.491	-42.842	13333	17560	0	472
-48.900	-48.936	13408	17693	0	472
-50.884	-57.086	13549	17837	0	472
-53.011	-59.755	13787	18136	0	472
-51.749	-60.224	14058	18564	0	472
-51.352	-58.493	14274	18855	0	472
-47.205	-51.136	14415	18912	0	472
-43.563	-44.537	14577	18838	0	472
-43.563	-38.009	14707	18775	0	472
-41.111	-35.665	15010	18943	0	472
-41.039	-34.980	15443	19435	0	472
-41.868	-36.567	15843	19937	0	472
-40.930	-38.370	16146	20126	0	472
-40.389	-37.360	16384	20011	0	472
-41.940	-34.980	16546	19733	0	472
-38.406	-33.610	16622	19340	0	472
-33.610	-29.499	16654	18866	0	472
-27.479	-23.837	16622	18329	0	472
-22.719	-21.745	16600	17763	0	472
-24.666	-20.411	16567	17265	0	472
-29.823	-27.551	16708	17065	0	472
-34.620	-33.538	16946	17261	0	472
-37.144	-39.524	17163	17542	0	472
-36.711	-43.274	17325	17553	0	472
-38.622	-44.825	17466	17381	0	472
-42.734	-46.123	17682	17317	0	472
-45.402	-48.071	17812	17353	0	472
-43.779	-44.284	17953	17247	0	472
-38.226	-40.101	17920	16931	0	472
-30.436	-33.970	18007	16601	0	472
-24.306	-31.807	18061	16454	0	472
-26.614	-33.862	18169	16440	0	472
-35.593	-41.147	18223	16318	0	472
-48.503	-50.559	18115	16012	0	472
-61.955	-59.286	18061	15637	0	472
-70.898	-63.577	17899	15222	0	472
-68.662	-64.515	17736	14787	0	472
-59.719	-55.860	17520	14366	0	472
-50.451	-49.441	17325	13972	0	472
-44.537	-45.366	17054	13607	0	472
-45.763	-46.448	16784	13274	0	472
-49.008	-51.244	16492	12982	0	472
-46.556	-49.982	16222	12740	0	472
-40.714	-43.094	15930	12554	0	472
-27.696	-30.256	15735	12498	0	472
-17.815	-20.050	15627	12719	0	472
-15.903	-14.064	15659	13221	0	472
-19.582	-19.113	15768	13884	0	472
-28.633	-24.125	15930	14625	0	472
-37.036	-33.393	16201	15405	0	472
-43.707	-41.832	16405	16121	0	472
-46.700	-46.159	16546	16598	0	472
-43.022	-44.320	16676	16879	0	472
-38.190	-36.711	16871	17223	0	472
-29.138	-26.361	17054	17634	0	472
-19.654	-14.821	17163	17851	0	472
-15.939	-12.838	17217	17816	0	472
-16.444	-17.706	17271	17707	0	472
-23.873	-26.866	17358	17735	0	472
-31.374	-36.423	17487	17879	0	472
-37.108	-41.003	17542	17890	0	472
-36.026	-41.327	17574	17749	0	472
-32.239	-36.242	17704	17728	0	472
-26.974	-31.122	17790	17837	0	472
-25.424	-27.696	17845	17806	0	472
-28.922	-26.181	17790	17535	0	472
-33.033	-27.551	17758	17156	0	472
-36.639	-31.626	17628	16738	0	472
-39.704	-34.547	17412	16304	0	472
-41.940	-38.586	17303	15925	0	472
-41.760	-41.471	17249	15763	0	472
-41.363	-41.652	17195	15784	0	472
-37.721	-41.688	17109	15728	0	472
-35.882	-40.534	17000	15517	0	472
-34.295	-35.593	16838	15254	0	472
-30.761	-32.600	16622	14980	0	472
-28.237	-30.148	16492	14783	0	472
-23.837	-28.092	16492	14885	0	472
-21.385	-29.751	16730	15465	0	472
-23.296	-35.160	17109	16419	0	472
-31.879	-41.760	17628	17493	0	472
-39.344	-48.684	18007	18343	0	472
-42.265	-54.021	18299	18750	0	472
-41.363	-52.398	18461	18792	0	472
-34.583	-46.917	18624	18694	0	472
-26.217	-38.190	18894	18725	0	472
-20.952	-31.013	19219	19010	0	472
-23.693	-30.112	19544	19347	0	472
-29.174	-34.944	19847	19558	0	472
-36.098	-45.222	20117	19600	0	472
-40.317	-51.713	20225	19365	0	472
-40.642	-54.778	20225	18838	0	472
-38.658	-49.549	20117	18150	0	472
-38.226	-43.419	20009	17454	0	472
-39.452	-39.812	19955	16928	0	472
-40.858	-41.940	19868	16542	0	472
-40.173	-44.537	19684	16061	0	472
-38.262	-45.294	19435	15422	0	472
-37.613	-45.510	19143	14741	0	472
-38.767	-44.789	18786	14078	0	472
-41.219	-44.501	18440	13446	0	472
-41.543	-44.176	18061	12933	0	472
-38.009	-41.652	17866	12708	0	472
-31.013	-36.026	17628	12719	0	472
-23.657	-32.744	17379	12701	0	472
-17.634	-32.564	17087	12561	0	472
-18.644	-34.764	16784	12396	0	472
-21.745	-36.964	16459	12266	0	472
-29.823	-38.514	16146	12182	0	472
-36.603	-38.911	15822	12136	0	472
-38.911	-39.668	15551	12192	0	472
-33.466	-40.353	15410	12491	0	472
-27.155	-40.930	15302	12993	0	472
-22.863	-41.471	15172	13435	0	472
-24.775	-44.861	15032	13716	0	472
-31.554	-43.383	14848	13934	0	472
-37.468	-42.265	14707	14137	0	472
-35.088	-35.774	14491	14316	0	472
-33.934	-31.482	14328	14467	0	472
-35.160	-32.636	14166	14664	0	472
-41.435	-39.272	14144	15061	0	472
-48.648	-46.520	14252	15686	0	472
-52.542	-52.038	14436	16419	0	472
-48.684	-50.018	14631	17202	0	472
-42.878	-48.035	14956	17988	0	472
-42.409	-50.270	15194	18687	0	472
-46.195	-52.470	15410	19126	0	472
-48.503	-54.922	15551	19277	0	472
-49.189	-50.811	15605	19238	0	472
-43.960	-44.428	15659	19154	0	472
-38.406	-38.226	15822	19189	0	472
-38.731	-37.360	15930	19312	0	472
-44.320	-44.428	16114	19350	0	472
-53.985	-51.064	16276	19400	0	472
-57.194	-57.158	16513	19586	0	472
-56.617	-56.545	16784	19832	0	472
-49.585	-53.336	17054	20004	0	472
-41.075	-46.953	17217	19951	0	472
-30.220	-37.468	17325	19638	1	864
-21.529	-27.299	17358	19249	0	864
-14.389	-20.123	17487	18982	0	864
-17.202	-17.166	17650	18894	0	864
-26.614	-25.748	17899	18957	0	864
-45.078	-37.396	18245	19182	0	864
-56.509	-52.146	18602	19438	0	864
-58.961	-56.221	18894	19579	0	864
-53.264	-52.218	19143	19565	0	864
-40.498	-42.589	19306	19291	0	864
-32.420	-32.348	19381	18806	0	864
-26.614	-28.958	19490	18392	0	864
-26.361	-28.201	19544	18065	0	864
-30.256	-33.538	19522	17591	0	864
-39.993	-40.894	19381	16903	0	864
-49.008	-49.730	19165	16146	0	864
-55.283	-56.437	18894	15373	0	864
-57.158	-59.394	18656	14685	0	864
-48.864	-51.136	18494	14253	0	864
-38.767	-36.531	18299	14035	0	864
-30.869	-23.585	18137	13783	0	864
-30.689	-22.431	17845	13414	0	864
-32.853	-27.912	17596	13017	0	864
-38.045	-38.622	17249	12645	0	864
-39.957	-43.347	16892	12315	0	864
-34.547	-38.226	16567	12048	0	864
-32.961	-28.922	16222	11834	0	864
-31.518	-22.322	15897	11669	0	864
-33.610	-22.719	15573	11627	0	864
-34.908	-28.273	15465	11929	0	864
-35.485	-30.977	15573	12733	0	864
-36.314	-36.134	15843	13849	0	864
-38.731	-39.163	16038	14868	0	864
-41.147	-42.193	16222	15594	0	864
-45.510	-46.917	16438	16216	0	864
-47.638	-49.874	16622	16805	0	864
-43.635	-45.799	16708	17167	0	864
-36.603	-38.082	16730	17240	0	864
-27.876	-29.102	16654	17145	0	864
-18.716	-24.414	16546	16952	0	864
-23.332	-24.522	16384	16671	0	864
-35.269	-34.547	16201	16335	0	864
-50.703	-46.159	15930	15974	0	864
-57.591	-53.011	15714	15619	0	864
-54.237	-53.228	15465	15349	0	864
-42.734	-44.897	15389	15331	0	864
-31.951	-34.800	15335	15517	0	864
-27.804	-28.417	15248	15703	0	864
-30.292	-26.433	15302	15953	0	864
-33.357	-28.092	15389	16304	0	864
-36.711	-30.617	15356	16538	0	864
-43.274	-37.072	15389	16640	0	864
-49.477	-47.746	15573	16931	0	864
-58.601	-56.942	15843	17560	0	864
-59.538	-61.702	16114	18206	0	864
-53.624	-57.699	16276	18515	0	864
-41.291	-46.556	16363	18511	0	864
-34.295	-37.324	16384	18350	0	864
-33.574	-35.016	16363	18086	0	864
-38.298	-37.324	16276	17732	0	864
-42.157	-41.976	16146	17321	0	864
-39.235	-42.589	15984	16879	0	864
-31.735	-38.586	15768	16426	0	864
-28.525	-34.187	15551	15977	0	864
-31.446	-30.869	15335	15612	0	864
-37.468	-32.780	15281	15496	0	864
-45.510	-36.098	15226	15584	0	864
-46.484	-39.776	15118	15623	0	864
-43.887	-40.498	15032	15521	0	864
-40.209	-38.947	14869	15370	0	864
-38.911	-36.495	14739	15212	0	864
-33.574	-31.699	14523	15054	0	864
-27.912	-23.693	14415	14973	0	864
-13.343	-15.435	14415	15124	0	864
-4.472	-7.248	14415	15458	0	864
-3.282	-6.780	14469	15774	0	864
-15.687	-14.100	14577	16128	0	864
-32.203	-27.047	14739	16566	0	864
-45.691	-40.786	14794	16893	0	864
-51.316	-48.684	14923	17079	0	864
-46.736	-49.080	15086	17360	0	864
-40.750	-44.681	15302	17732	0	864
-37.036	-39.452	15410	17950	0	864
-36.206	-34.475	15465	17935	0	864
-38.622	-36.026	15573	17862	0	864
-43.094	-38.442	15681	17928	0	864
-44.537	-40.389	15822	18090	0	864
-41.652	-40.858	15897	18104	0	864
-40.678	-38.586	15897	17890	0	864
-41.363	-38.118	15843	17567	0	864
-45.691	-38.586	15789	17202	0	864
-48.359	-39.885	15627	16815	0	864
-42.914	-39.740	15465	16415	0	864
-34.439	-37.036	15335	16019	0	864
-23.260	-32.167	15172	15707	0	864
-22.791	-31.013	15172	15651	0	864
-28.381	-32.239	15194	15795	0	864
-36.675	-34.006	15140	15872	0	864
-38.082	-31.446	15172	15865	0	864
-30.725	-25.640	15248	16026	0	864
-20.952	-17.562	15356	16342	0	864
-11.035	-14.425	15443	16534	0	864
-8.727	-15.831	15497	16601	0	864
-14.533	-24.883	15659	16794	0	864
-23.945	-31.843	15876	17170	0	864
-35.557	-37.432	16146	17609	0	864
-43.815	-39.560	16384	17981	0	864
-46.736	-38.622	16546	18136	0	864
-44.140	-39.055	16622	18044	0	864
-38.190	-39.596	16654	17802	0	864
-31.049	-40.245	16676	17542	0	864
-31.122	-41.940	16784	17437	0	864
-34.908	-44.428	16925	17528	0	864
-45.474	-46.989	17087	17711	0	864
-53.696	-51.100	17303	17855	0	864
-58.420	-51.424	17379	17799	0	864
-60.728	-54.598	17358	17511	0	864
-63.072	-56.149	17303	17103	0	864
-64.082	-61.522	17195	16643	0	864
-64.623	-64.443	17033	16160	0	864
-54.670	-61.125	16838	15665	0	864
-43.743	-51.569	16600	15180	0	864
-33.610	-42.012	16363	14717	0	864
-29.895	-31.590	16092	14292	0	864
-31.085	-27.407	15822	13927	0	864
-29.246	-24.125	15551	13625	0	864
-20.880	-22.178	15281	13365	0	864
-16.156	-19.401	15086	13228	0	864
-14.605	-19.726	14978	13379	0	864
-22.503	-24.558	14978	13769	0	864
-31.590	-26.253	14902	14109	0	864
-29.499	-27.876	14848	14285	0	864
-21.673	-25.965	14761	14474	0	864
-11.287	-21.926	14869	14861	0	864
-5.337	-17.238	14923	15384	0	864
-9.268	-17.959	15010	15774	0	864
-19.401	-21.096	14978	15960	0	864
-28.633	-28.381	14956	16044	0	864
-35.377	-34.079	14869	16076	0	864
-35.846	-37.000	14815	16061	0	864
-33.285	-34.259	14707	16009	0	864
-30.112	-29.354	14599	15935	0	864
-28.705	-29.066	14436	15851	0	864
-33.538	-33.069	14328	15763	0	864
-37.468	-41.976	14274	15752	0	864
-42.265	-52.182	14274	15970	0	864
-42.625	-54.021	14382	16363	0	864
-41.111	-52.001	14491	16728	0	864
-39.740	-45.835	14653	17131	0	864
-39.885	-41.219	14902	17616	0	864
-39.885	-38.478	15032	17960	0	864
-39.740	-39.668	15140	18058	0	864
-39.740	-40.714	15194	18023	0	864
-37.937	-40.930	15226	17935	0	864
-35.088	-40.245	15226	17788	0	864
-33.393	-40.029	15172	17584	0	864
-34.223	-40.426	15140	17342	0	864
-35.305	-39.668	15118	17170	0	864
-35.846	-36.531	15226	17216	0	864
-33.393	-31.338	15335	17423	0	864
-30.112	-24.666	15389	17528	0	864
-29.571	-21.313	15443	17454	0	864
-30.653	-24.739	15443	17296	0	864
-35.990	-30.797	15465	17163	0	864
-40.317	-38.334	15551	17205	0	864
-43.455	-43.202	15714	17388	0	864
-44.284	-42.012	15789	17458	0	864
-44.140	-40.498	15789	17332	0	864
-39.812	-38.298	15843	17188	0	864
-34.115	-35.377	15984	17223	0	864
-29.174	-33.141	16168	17451	0	864
-28.958	-32.239	16438	17774	0	864
-30.328	-30.689	16676	18062	0	864
-33.574	-30.328	16838	18153	0	864
-36.675	-33.466	16892	18009	0	864
-38.262	-36.567	17000	17802	0	864
-38.947	-40.101	17141	17732	0	864
-37.973	-41.039	17271	17777	0	864
-35.701	-38.839	17358	17693	0	864
-33.357	-36.278	17325	17409	0	864
-32.780	-35.521	17379	17100	0	864
-35.305	-35.124	17487	16970	0	864
-36.819	-36.928	17542	16977	0	864
-40.065	-39.344	17574	16882	0	864
-42.842	-41.760	17542	16591	0	864
-45.330	-46.664	17433	16212	0	864
-49.333	-52.939	17325	15812	0	864
-49.730	-53.732	17163	15419	0	864
-49.946	-52.470	16946	15022	0	864
-44.753	-44.969	16838	14710	0	864
-39.740	-41.868	16838	14703	0	864
-37.505	-40.101	17000	15103	0	864
-40.678	-42.120	17141	15587	0	864
-48.792	-48.215	17163	15809	0	864
-55.499	-54.670	17271	15851	0	864
-61.089	-59.286	17379	16002	0	864
-53.768	-58.889	17487	16318	0	864
-45.907	-51.028	17758	16692	0	864
-38.082	-42.625	17920	17005	0	864
-37.360	-35.124	18007	17103	0	864
-43.635	-37.541	18007	16959	0	864
-50.956	-46.484	18029	16752	0	864
-55.680	-54.778	18061	16696	0	864
-51.893	-55.932	18137	16766	0	864
-44.825	-50.415	18115	16717	0	864
-35.521	-42.589	18061	16454	0	864
-31.374	-35.341	17920	16097	0	864
-27.984	-31.951	17790	15714	0	864
-27.119	-32.203	17542	15321	0	864
-25.676	-29.643	17325	14913	0	864
-22.250	-26.542	17087	14520	0	864
-23.224	-21.637	16784	14176	0	864
-22.575	-17.923	16546	13895	0	864
-24.883	-20.087	16276	13663	0	864
-28.273	-23.368	15984	13456	0	864
-29.535	-29.823	15714	13291	0	864
-32.131	-32.780	15465	13186	0	864
-27.479	-31.302	15194	13133	0	864
-22.935	-26.217	14923	13119	0	864
-18.283	-20.411	14685	13137	0	864
-16.192	-18.067	14415	13179	0	864
-21.241	-17.057	14198	13252	0	864
-29.571	-24.342	13982	13361	0	864
-38.875	-36.639	13733	13505	0	864
-47.782	-47.277	13549	13681	0	864
-54.021	-53.696	13354	13881	0	864
-52.903	-52.578	13246	14176	0	864
-47.890	-43.274	13278	14696	0	864
-39.921	-35.088	13354	15391	0	864
-38.118	-34.403	13408	15988	0	864
-40.317	-40.678	13441	16391	0	864
-46.520	-47.061	13462	16703	0	864
-46.448	-50.054	13517	17037	0	864
-41.471	-46.953	13765	17539	0	864
-33.538	-39.812	13949	18160	0	864
-26.902	-33.826	14166	18631	0	864
-24.486	-30.941	14307	18873	0	864
-27.227	-28.417	14415	19003	0	864
-29.823	-25.568	14523	19042	0	864
-30.833	-22.358	14545	18985	0	864
-28.273	-17.490	14599	18859	0	864
-23.909	-16.841	14653	18701	0	864
-20.627	-16.192	14631	18515	0	864
-19.365	-23.260	14631	18304	1	972
-26.433	-29.463	14577	18069	0	972
-35.197	-35.521	14599	17890	0	972
-40.173	-38.370	14707	17921	0	972
-45.979	-36.098	14869	18115	0	972
-50.343	-37.865	14956	18209	0	972
-51.028	-39.235	15064	18118	0	972
-55.896	-43.924	15140	18020	0	972
-58.457	-48.035	15356	18097	0	972
-56.040	-47.782	15551	18301	0	972
-55.355	-47.890	15659	18374	0	972
-51.172	-48.936	15768	18244	0	972
-50.487	-49.693	15876	18093	0	972
-49.441	-52.939	16060	18115	0	972
-49.946	-50.595	16330	18255	0	972
-45.943	-45.582	16405	18266	0	972
-35.990	-35.557	16492	18065	0	972
-25.207	-27.227	16600	17837	0	972
-19.185	-23.224	16762	17792	0	972
-18.356	-23.873	16946	17890	0	972
-23.404	-24.739	17087	17865	0	972
-24.378	-24.594	17109	17619	0	972
-19.401	-17.382	17087	17265	0	972
-13.776	-13.451	17054	16879	0	972
-12.766	-15.146	17000	16475	0	972
-20.159	-23.368	16892	16061	0	972
-28.886	-31.158	16730	15644	0	972
-33.069	-34.800	16654	15314	0	972
-32.131	-32.528	16654	15222	0	972
-28.958	-27.804	16730	15387	0	972
-30.292	-30.004	16946	15759	0	972
-40.173	-38.009	17303	16356	0	972
-51.929	-48.251	17574	16949	0	972
-57.952	-53.696	17790	17244	0	972
-58.060	-54.706	17920	17244	0	972
-50.234	-48.071	18007	17149	0	972
-39.163	-42.373	18169	17163	0	972
-31.590	-37.973	18407	17321	0	972
-29.391	-34.043	18602	17535	0	972
-31.699	-36.242	18873	17756	0	972
-39.019	-38.875	19143	17981	0	972
-47.097	-42.048	19360	18122	0	972
-49.044	-45.258	19468	18023	0	972
-44.897	-43.347	19490	17676	0	972
-34.006	-39.235	19435	17195	0	972
-25.784	-35.485	19306	16654	0	972
-24.991	-37.072	19197	16072	0	972
-31.482	-40.570	18927	15472	0	972
-39.127	-40.678	18678	14896	0	972
-37.973	-37.649	18407	14344	0	972
-31.951	-29.787	18083	13811	0	972
-21.854	-21.890	17736	13316	0	972
-17.887	-21.241	17466	12947	0	972
-18.716	-21.745	17303	12856	0	972
-25.460	-25.243	17141	13000	0	972
-28.020	-25.099	16979	13116	0	972
-26.506	-22.719	16784	13109	0	972
-26.722	-22.719	16567	13070	0	972
-27.407	-26.073	16330	13035	0	972
-30.977	-32.780	16092	13000	0	972
-36.567	-38.442	15822	12982	0	972
-37.288	-42.842	15573	12989	0	972
-33.466	-41.904	15302	13024	0	972
-29.030	-37.793	15064	13091	0	972
-24.702	-33.574	14815	13193	0	972
-23.801	-28.633	14577	13319	0	972
-24.811	-25.604	14382	13477	0	972
-24.522	-23.080	14198	13663	0	972
-26.830	-24.198	13982	13867	0	972
-29.859	-29.823	13787	14099	0	972
-35.882	-34.764	13733	14415	0	972
-39.668	-37.829	13765	14962	0	972
-40.678	-38.622	13874	15686	0	972
-38.298	-37.541	13949	16328	0	972
-35.413	-36.675	14004	16770	0	972
-35.774	-39.199	14036	17089	0	972
-38.731	-41.904	14058	17321	0	972
-39.668	-42.337	14090	17479	0	972
-36.891	-38.550	14144	17655	0	972
-32.312	-38.154	14274	18002	0	972
-31.085	-37.613	14491	18469	0	972
-34.980	-42.734	14599	18799	0	972
-44.537	-50.920	14739	18901	0	972
-50.811	-54.237	14848	18957	0	972
-51.352	-56.617	15086	19161	0	972
-42.409	-50.595	15281	19463	0	972
-35.124	-42.157	15497	19610	0	972
-28.164	-33.466	15573	19526	0	972
-30.040	-32.276	15627	19319	0	972
-37.865	-35.124	15681	19052	0	972
-43.527	-40.822	15735	18806	0	972
-46.087	-43.094	15930	18740	1	364
-38.478	-39.416	16060	18813	0	364
-27.155	-31.049	16255	18866	0	364
-17.634	-22.647	16492	18954	0	364
-14.208	-21.385	16762	19105	0	364
-21.457	-27.010	16946	19164	0	364
-34.656	-34.656	17303	19217	0	364
-45.546	-42.697	17542	19322	0	364
-46.448	-44.501	17704	19256	0	364
-37.288	-38.118	17899	19003	0	364
-23.116	-26.181	18083	18838	0	364
-9.629	-18.788	18299	18764	0	364
-5.265	-13.992	18386	18536	0	364
-10.458	-15.939	18407	18079	0	364
-16.552	-20.447	18353	17518	0	364
-21.132	-23.224	18223	16914	0	364
-20.050	-24.053	18115	16290	0	364
-22.539	-27.804	17899	15661	0	364
-24.883	-30.004	17758	15134	0	364
-33.862	-36.278	17650	14861	0	364
-43.166	-38.839	17628	14794	0	364
-49.766	-43.274	17487	14671	0	364
-53.119	-47.205	17412	14415	0	364
-52.506	-49.946	17271	14193	0	364
-50.270	-52.290	17249	14197	0	364
-42.878	-46.700	17217	14362	0	364
-32.816	-38.334	17217	14520	0	364
-23.332	-28.453	17325	14748	0	364
-21.277	-22.286	17379	15092	0	364
-25.424	-25.965	17412	15310	0	364
-35.557	-30.076	17412	15310	0	364
-41.868	-35.557	17303	15222	0	364
-40.209	-35.088	17195	15103	0	364
-34.908	-34.259	17141	15012	0	364
-32.672	-32.312	17109	15103	0	364
-35.954	-36.531	17141	15359	0	364
-43.419	-43.815	17141	15528	0	364
-48.395	-48.864	17087	15503	0	364
-46.376	-47.890	16946	15380	0	364
-42.914	-46.484	16816	15215	0	364
-36.278	-40.209	16622	15022	0	364
-31.807	-36.170	16405	14811	0	364
-30.617	-32.708	16255	14611	0	364
-27.768	-31.626	15984	14436	0	364
-31.410	-33.934	15735	14285	0	364
-37.180	-38.406	15497	14158	0	364
-40.534	-41.760	15302	14060	0	364
-40.786	-40.894	15064	14000	0	364
-36.747	-35.918	14848	13976	0	364
-35.377	-32.420	14653	13979	0	364
-37.685	-35.377	14436	14011	0	364
-46.340	-41.507	14198	14088	0	364
-51.929	-47.638	14036	14208	0	364
-47.349	-47.746	13895	14362	0	364
-36.891	-41.580	13820	14604	0	364
-26.145	-34.439	13841	15075	0	364
-20.195	-32.672	13949	15724	0	364
-26.433	-37.468	14090	16356	0	364
-36.423	-43.491	14361	17005	0	364
-46.953	-49.116	14631	17781	0	364
-50.054	-48.215	15118	18690	0	364
-50.775	-40.606	15659	19712	0	364
-45.582	-32.312	16168	20618	0	364
-40.101	-27.515	16622	21187	0	364
-36.855	-29.102	17109	21591	0	364
-35.737	-32.456	17520	21917	0	364
-33.970	-33.574	17845	21963	0	364
-37.685	-33.429	18115	21742	0	364
-39.885	-33.466	18407	21545	0	364
-46.051	-35.197	18656	21387	0	364
-50.343	-43.887	18819	21022	0	364
-51.100	-47.746	18873	20407	0	364
-42.589	-46.953	18873	19670	0	364
-31.590	-38.658	18764	18884	0	364
-23.512	-33.213	18602	18058	0	364
-25.568	-28.741	18494	17300	0	364
-30.941	-30.400	18461	16791	0	364
-39.812	-33.754	18407	16492	0	364
-40.462	-34.728	18407	16223	0	364
-39.091	-34.331	18440	16023	1	316
-34.367	-35.449	18461	15942	0	316
-34.367	-35.701	18440	15781	0	316
-36.783	-36.964	18353	15468	0	316
-36.711	-37.865	18277	15166	0	316
-40.822	-38.839	18299	15064	0	316
-42.878	-39.127	18353	15124	0	316
-43.996	-39.524	18245	15092	0	316
-42.697	-42.301	18169	14875	0	316
-43.815	-41.904	18061	14639	0	316
-45.510	-44.825	18115	14664	0	316
-47.566	-46.159	18245	15047	0	316
-48.576	-48.107	18353	15489	0	316
-48.323	-46.159	18407	15647	0	316
-47.494	-44.897	18353	15552	0	316
-47.422	-44.284	18245	15345	0	316
-50.920	-45.005	18169	15145	0	316
-49.225	-46.304	18115	15113	0	316
-43.166	-42.120	18115	15219	0	316
-34.656	-35.701	18061	15285	0	316
-27.840	-26.866	18115	15384	0	316
-28.489	-21.096	18115	15563	0	316
-31.194	-24.053	18061	15616	0	316
-35.882	-28.092	17974	15475	0	316
-38.118	-32.167	17866	15321	0	316
-36.747	-34.403	17866	15342	0	316
-35.124	-33.429	17845	15493	0	316
-33.177	-31.771	17736	15531	0	316
-31.410	-32.564	17628	15387	0	316
-31.699	-33.646	17466	15226	0	316
-33.754	-37.829	17520	15328	0	316
-37.468	-42.914	17682	15802	0	316
-40.065	-45.041	17790	16335	0	316
-41.507	-45.655	17845	16566	0	316
-38.767	-41.291	17790	16513	0	316
-38.695	-38.767	17736	16346	0	316
-39.488	-38.695	17542	16107	0	316
-44.284	-40.353	17379	15805	0	316
-47.674	-41.507	17163	15461	0	316
-47.566	-41.507	16892	15096	0	316
-45.402	-36.819	16600	14741	0	316
-43.347	-34.800	16309	14408	0	316
-43.527	-35.918	16006	14109	0	316
-49.802	-40.101	15681	13853	0	316
-51.821	-44.284	15335	13649	0	316
-47.782	-43.635	15064	13498	0	316
-40.714	-39.957	14739	13400	0	316
-34.511	-36.387	14469	13354	0	316
-33.069	-36.567	14252	13428	0	316
-40.173	-42.806	14166	13769	0	316
-48.143	-47.710	14144	14306	0	316
-48.431	-45.763	14112	14773	0	316
-42.265	-37.721	14004	15078	0	316
-31.374	-28.237	13949	15317	0	316
-24.522	-23.585	13841	15517	0	316
-22.899	-27.948	13765	15686	0	316
-31.482	-35.088	13679	15837	0	316
-39.560	-43.094	13549	15970	0	316
-42.661	-44.212	13462	16093	0	316
-40.281	-38.767	13441	16276	0	316
-31.374	-31.194	13517	16657	0	316
-22.106	-26.037	13711	17268	0	316
-21.168	-25.099	14036	17981	0	316
-25.352	-31.446	14274	18638	0	316
-33.790	-39.019	14491	19080	0	316
-40.966	-43.635	14653	19263	0	316
-41.255	-43.491	14794	19284	0	316
-36.387	-37.396	14902	19270	0	316
-32.167	-28.705	15118	19389	0	316
-28.453	-24.017	15356	19600	0	316
-30.292	-21.998	15465	19656	0	316
-31.951	-24.125	15627	19554	0	316
-34.692	-30.508	15876	19554	0	316
-37.432	-36.928	16092	19652	0	316
-43.202	-44.140	16222	19589	0	316
-52.867	-50.451	16309	19301	0	316
-62.568	-57.230	16309	18901	0	316
-66.859	-57.880	16276	18448	0	316
-62.495	-57.194	16222	17960	0	316
-46.087	-52.867	16114	17458	0	316
-29.535	-44.501	16038	16952	0	316
-17.057	-37.793	15876	16468	0	316
-21.096	-33.754	15714	16026	0	316
-31.410	-32.276	15627	15693	0	316
-40.714	-32.095	15627	15612	0	316
-42.120	-32.384	15735	15809	0	316
-35.918	-30.689	16006	16251	0	316
-28.561	-30.328	16438	16987	0	316
-29.463	-32.239	16946	17921	0	316
-32.600	-35.449	17487	18761	0	316
-36.278	-37.288	17974	19389	0	316
-36.278	-36.170	18461	19814	0	316
-33.574	-31.915	18764	19916	0	316
-30.472	-29.679	18948	19681	0	316
-31.410	-25.712	19035	19235	0	316
-34.511	-28.273	19035	18645	0	316
-36.675	-30.905	18948	17957	0	316
-39.488	-34.908	18873	17286	0	316
-40.173	-38.154	18840	16808	0	316
-39.163	-38.442	18873	16570	0	316
-38.586	-39.127	18948	16475	0	316
-43.058	-39.704	19089	16457	0	316
-50.198	-42.084	19219	16510	0	316
-55.896	-46.664	19381	16601	0	316
-56.113	-49.946	19576	16721	0	316
-47.674	-46.809	19738	16773	0	316
-31.049	-42.806	19760	16608	0	316
-18.103	-35.269	19706	16226	0	316
-17.382	-30.941	19576	15731	0	316
-24.847	-30.076	19360	15180	0	316
-37.288	-33.033	19111	14601	0	316
-43.491	-35.810	18819	14043	0	316
-42.048	-37.757	18516	13509	0	316
-32.708	-36.747	18137	12996	0	316
-25.640	-34.439	17790	12522	0	316
-20.303	-31.302	17358	12115	0	316
-20.303	-27.047	16979	11785	0	316
-23.873	-28.128	16654	11592	0	316
-28.669	-31.807	16459	11679	0	316
-37.973	-38.839	16276	11995	0	316
-42.553	-45.258	16060	12276	0	316
-43.094	-44.537	15843	12427	0	316
-39.163	-39.272	15605	12540	0	316
-31.951	-35.810	15356	12659	0	316
-27.624	-30.328	15086	12782	0	316
-22.647	-29.715	14923	12993	0	316
-24.775	-30.797	14815	13425	0	316
-29.210	-33.177	14869	14095	0	316
-34.367	-37.072	14978	14885	0	316
-41.075	-40.281	15140	15658	0	316
-42.661	-40.786	15194	16230	0	316
-37.324	-34.980	15226	16563	0	316
-30.400	-27.732	15281	16826	0	316
-25.965	-24.558	15389	17209	0	316
-26.506	-26.361	15519	17679	0	316
-28.669	-31.554	15627	17999	0	316
-31.554	-35.485	15714	18171	0	316
-33.033	-35.918	15876	18427	0	316
-34.692	-35.088	16060	18754	0	316
-37.432	-32.708	16146	18901	0	316
-41.363	-35.233	16168	18820	0	316
-41.543	-37.793	16168	18620	0	316
-39.849	-42.842	16114	18332	0	316
-37.685	-45.041	16038	17978	0	316
-33.934	-42.734	15876	17591	0	316
-28.669	-35.521	15714	17191	0	316
-21.673	-24.450	15519	16787	0	316
-17.454	-17.526	15356	16398	0	316
-18.067	-17.093	15140	16037	0	316
-27.515	-27.443	14902	15703	0	316
-39.776	-40.426	14707	15408	0	316
-46.304	-48.215	14523	15152	0	316
-44.140	-46.628	14328	15019	0	316
-36.783	-40.389	14328	15142	0	316
-27.191	-30.364	14361	15468	0	316
-21.277	-22.647	14328	15728	0	316
-20.159	-20.014	14307	15830	0	316
-19.473	-19.582	14307	15935	0	316
-23.116	-21.168	14415	16234	0	316
-27.335	-27.155	14545	16671	0	316
-28.741	-31.085	14631	16998	0	316
-30.076	-35.016	14707	17135	0	316
-31.085	-33.321	14739	17174	0	316
-32.744	-33.393	14815	17223	0	316
-38.658	-36.351	14956	17440	0	316
-45.546	-37.252	15172	17799	0	316
-46.592	-39.308	15248	18027	0	316
-45.835	-38.839	15389	18027	0	316
-44.969	-40.209	15465	17971	0	316
-45.222	-44.140	15605	18065	0	316
-48.792	-49.044	15789	18266	0	316
-50.739	-52.470	15984	18395	0	316
-47.422	-48.359	16201	18525	0	316
-42.265	-38.262	16438	18708	0	316
-35.665	-31.194	16567	18725	0	316
-33.213	-29.066	16622	18501	0	316
-34.692	-34.620	16622	18157	0	316
-40.245	-42.048	16600	17763	0	316
-45.186	-48.287	16546	17325	0	316
-45.402	-47.313	16405	16858	0	316
-40.281	-41.039	16276	16384	0	316
-33.321	-33.826	16168	15998	0	316
-26.902	-31.194	16168	15858	0	316
-25.568	-32.023	16168	15914	0	316
-29.030	-33.826	16146	15907	0	316
-29.102	-33.538	16146	15745	0	316
-27.948	-28.633	16038	15538	0	316
-21.132	-23.873	15897	15335	0	316
-16.913	-17.202	15768	15127	0	316
-13.595	-18.500	15659	14927	0	316
-18.356	-19.257	15519	14755	0	316
-24.558	-23.260	15410	14675	0	316
-32.997	-24.702	15410	14818	0	316
-39.560	-27.804	15465	15138	0	316
-42.625	-33.646	15519	15398	0	316
-43.022	-40.065	15465	15507	0	316
-42.842	-46.736	15497	15609	0	316
-43.419	-54.273	15714	15942	0	316
-44.428	-51.749	15984	16605	0	316
-43.166	-48.612	16276	17300	0	316
-41.688	-41.507	16459	17679	0	316
-35.701	-37.649	16600	17756	0	316
-33.682	-38.514	16676	17753	0	316
-34.728	-41.075	16892	17869	0	316
-37.000	-43.563	17054	18062	0	316
-37.468	-41.075	17163	18083	0	316
-34.187	-34.620	17163	17865	0	316
-31.915	-31.302	17109	17528	0	316
-31.843	-29.535	17033	17138	0	316
-31.302	-29.823	16925	16721	0	316
-31.699	-28.489	16784	16307	0	316
-28.489	-25.568	16600	15903	0	316
-26.037	-23.296	16438	15521	0	316
-25.893	-24.955	16276	15229	0	316
-27.624	-29.499	16276	15194	0	316
-28.092	-32.564	16276	15377	0	316
-25.099	-28.633	16255	15500	0	316
-20.664	-22.647	16168	15458	0	316
-18.644	-18.356	16168	15412	0	316
-23.621	-21.204	16255	15570	0	316
-30.797	-28.850	16309	15882	0	316
-35.160	-37.757	16330	16079	0	316
-42.193	-39.704	16330	16072	0	316
-42.193	-37.721	16330	16040	0	316
-39.199	-33.249	16405	16181	0	316
-33.393	-27.479	16492	16443	0	316
-26.794	-25.784	16513	16584	0	316
-20.988	-23.116	16513	16520	0	316
-16.516	-22.250	16438	16363	0	316
-21.421	-22.899	16330	16160	0	316
-27.371	-29.282	16201	15918	0	316
-34.764	-32.816	16038	15665	0	316
-40.606	-36.387	15876	15412	0	316
-45.294	-38.911	15714	15180	0	316
-48.972	-40.173	15497	14966	0	316
-50.559	-41.291	15281	14776	0	316
-48.215	-41.507	15172	14685	0	316
-44.392	-38.947	15140	14843	0	316
-38.118	-34.872	15172	15194	0	316
-34.620	-31.662	15194	15479	0	316
-37.865	-34.295	15118	15612	0	316
-44.140	-41.255	15086	15686	0	316
-49.802	-48.251	14978	15717	0	316
-52.506	-52.470	15010	15791	0	316
-48.756	-48.900	15140	16149	0	316
-42.986	-45.005	15443	16872	0	316
-36.675	-39.416	15735	17634	0	316
-31.735	-35.088	15952	18072	0	316
-29.282	-33.321	16092	18202	0	316
-30.761	-32.456	16222	18255	0	316
-32.348	-33.502	16438	18424	0	316
-33.285	-35.882	16622	18673	0	316
-31.410	-37.252	16838	18827	0	316
-27.047	-35.918	17087	18964	0	316
-23.296	-33.033	17325	19140	0	316
-26.001	-30.761	17487	19136	0	316
-34.223	-33.538	17520	18869	0	316
-44.176	-38.082	17542	18469	0	316
-50.523	-42.157	17466	17999	0	316
-48.792	-44.032	17433	17556	1	1036
-46.340	-44.140	17487	17307	0	1036
-40.462	-44.681	17487	17223	0	1036
-39.091	-47.458	17520	17044	0	1036
-40.281	-49.044	17433	16692	0	1036
-43.202	-53.047	17303	16286	0	1036
-45.222	-54.922	17195	15875	0	1036
-49.153	-54.057	17000	15479	0	1036
-48.792	-50.956	16838	15096	0	1036
-50.054	-48.720	16622	14741	0	1036
-51.172	-47.710	16405	14436	0	1036
-50.162	-47.097	16201	14172	0	1036
-47.602	-46.953	15952	13934	0	1036
-37.865	-42.878	15735	13716	0	1036
-26.073	-32.276	15497	13537	0	1036
-20.772	-27.155	15302	13407	0	1036
-20.627	-26.289	15032	13330	0	1036
-31.013	-31.554	14902	13368	0	1036
-39.235	-37.252	14848	13670	0	1036
-39.272	-42.734	14869	14169	0	1036
-33.826	-38.839	14848	14597	0	1036
-23.873	-34.043	14815	14857	0	1036
-20.483	-30.869	14739	15040	0	1036
-23.188	-31.987	14685	15184	0	1036
-33.285	-36.891	14631	15363	0	1036
-42.337	-42.084	14815	15809	0	1036
-46.304	-45.835	15118	16605	0	1036
-48.071	-44.284	15410	17440	0	1036
-41.327	-41.580	15605	17967	0	1036
-34.223	-39.596	15768	18199	0	1036
-29.174	-37.577	15876	18280	0	1036
-28.994	-39.957	15930	18266	0	1036
-36.062	-45.114	16006	18171	0	1036
-46.845	-50.162	16038	18076	0	1036
-53.985	-55.572	16168	18143	0	1036
-58.637	-57.230	16330	18353	0	1036
-53.696	-58.348	16438	18445	0	1036
-50.307	-55.031	16492	18311	0	1036
-44.861	-53.336	16513	18065	0	1036
-43.310	-53.841	16492	17777	0	1036
-46.051	-52.867	16405	17451	0	1036
-51.749	-58.204	16330	17093	0	1036
-54.742	-60.837	16201	16710	0	1036
-56.113	-60.368	16060	16332	0	1036
-50.379	-53.949	15876	15970	0	1036
-41.471	-45.438	15735	15633	0	1036
-32.528	-38.839	15551	15331	0	1036
-29.895	-35.737	15410	15068	0	1036
-29.174	-36.459	15172	14854	0	1036
-32.816	-39.704	15032	14685	0	1036
-36.314	-40.137	14848	14552	0	1036
-36.855	-39.885	14707	14450	0	1036
-31.771	-36.783	14491	14383	0	1036
-26.506	-31.194	14382	14359	0	1036
-20.050	-26.397	14274	14439	0	1036
-21.529	-24.270	14307	14766	0	1036
-25.893	-28.381	14436	15289	0	1036
-34.656	-36.603	14545	15809	0	1036
-41.507	-42.625	14794	16370	0	1036
-45.330	-45.078	15032	17009	0	1036
-42.697	-43.058	15281	17518	0	1036
-37.216	-38.298	15389	17784	0	1036
-32.131	-34.583	15519	17893	0	1036
-29.823	-35.882	15627	17911	0	1036
-35.088	-40.389	15659	17865	0	1036
-42.517	-48.179	15659	17767	0	1036
-47.818	-50.956	15659	17609	0	1036
-44.068	-49.838	15714	17475	0	1036
-36.711	-38.478	15822	17528	0	1036
-25.460	-27.443	15952	17732	0	1036
-20.375	-23.116	16146	17900	0	1036
-24.089	-26.361	16438	18171	0	1036
-28.561	-33.393	16838	18725	0	1036
-33.105	-40.389	17271	19361	0	1036
-34.115	-38.658	17736	19867	0	1036
-30.004	-33.718	18169	20207	0	1036
-25.279	-29.968	18407	20263	0	1036
-20.303	-27.371	18602	20007	0	1036
-16.733	-26.037	18764	19635	0	1036
-19.113	-27.912	19035	19442	0	1036
-25.243	-30.761	19381	19544	0	1036
-38.118	-37.108	19630	19645	1	324
-49.621	-46.772	19901	19487	0	324
-54.706	-51.280	20117	19242	0	324
-48.107	-52.759	20334	19024	0	324
-38.839	-46.917	20409	18645	0	324
-33.213	-42.734	20388	18041	0	324
-37.072	-43.491	20301	17310	0	324
-46.700	-51.064	20139	16524	0	324
-58.168	-58.493	19901	15731	0	324
-62.604	-65.272	19652	14959	0	324
-58.601	-64.190	19414	14285	0	324
-50.595	-59.466	19251	13863	0	324
