neuroNicle FX2
D3F25R12
Bluetooth SPP
2023년 6월 7일 수요일
오전 10:19
time interval = 4msec
EEG1	EEG2	PPG	sdPPG	pulse	peak_interval(msec)
5.301	2.596	24858	16620	0	316
8.258	5.409	24999	16993	0	316
8.114	4.291	25141	16841	0	316
7.970	3.101	24999	16399	0	316
7.032	5.626	24717	15805	0	316
6.203	7.429	24350	15089	0	316
4.003	8.835	23926	14311	0	316
3.570	6.816	23502	13663	0	316
4.003	3.750	23643	13663	0	316
4.219	2.056	23926	14509	0	316
6.022	3.137	24293	15523	0	316
6.924	5.337	24350	15935	0	316
7.537	5.626	24293	15775	0	316
6.852	6.131	24067	15378	0	316
6.563	4.940	23728	14845	0	316
5.121	2.596	23220	14227	0	316
2.344	0.541	22739	13564	0	316
0.325	-1.731	22090	12901	0	316
0.361	-2.308	21468	12253	0	316
1.695	-3.750	20762	11651	0	316
3.534	-1.370	20112	11125	0	316
4.652	0.613	19265	10668	0	316
4.472	2.813	18785	10439	0	316
1.803	3.462	18559	10775	0	316
0.829	5.914	18361	11560	0	316
1.551	5.445	18078	12223	0	316
4.183	4.652	17852	12566	0	316
4.760	2.200	17513	12787	0	316
6.996	2.777	17231	12970	0	316
8.439	2.308	16807	13099	0	316
9.665	4.724	16328	13176	0	316
11.684	6.167	15904	13229	0	316
13.920	7.609	15678	13427	0	316
13.415	9.412	15678	14106	0	316
12.802	10.169	15763	15142	0	316
13.199	11.937	15820	15958	0	316
10.710	10.710	15763	16369	0	316
8.511	5.626	15622	16582	0	316
7.285	3.426	15537	16696	0	316
7.717	4.724	15255	16726	0	316
8.511	7.140	14972	16696	0	316
10.242	9.376	14690	16620	0	316
11.756	8.006	14492	16498	0	316
12.441	2.488	14209	16362	0	316
9.376	-0.613	13842	16194	0	316
10.025	0.072	13503	16042	0	316
10.169	5.049	13221	15912	0	316
10.458	10.494	12995	15965	0	316
12.369	14.100	13277	16505	0	316
15.254	12.405	13503	17443	0	316
14.894	9.953	13644	18175	0	316
16.733	8.042	13842	18518	0	316
15.038	5.698	13927	18662	0	316
12.910	3.246	13842	18708	0	316
9.340	2.092	13927	18662	0	316
3.859	2.669	13927	18541	0	316
2.308	6.094	13786	18358	0	316
2.128	9.629	13644	18144	0	316
4.183	11.504	13644	17916	0	316
3.426	7.321	13362	17679	0	316
6.924	2.957	13277	17420	0	316
7.357	1.659	13079	17161	0	316
7.753	4.544	12938	16917	0	316
7.681	7.501	12797	16688	0	316
6.527	9.665	12514	16490	0	316
7.357	7.681	12430	16339	0	316
11.828	4.147	12232	16224	0	316
18.067	2.524	12147	16133	0	316
24.955	2.921	12091	16202	0	316
27.624	2.092	12514	16749	0	316
25.784	2.885	12853	17679	0	316
22.034	-0.361	13362	18411	0	316
20.339	-2.885	13560	18739	0	316
16.913	-5.590	13842	18861	0	316
15.146	-6.852	13983	18861	0	316
12.802	-7.862	14068	18739	0	316
9.196	-7.934	14125	18533	0	316
6.780	-8.186	14266	18419	0	316
7.176	-9.196	14774	18716	0	316
7.862	-8.943	15198	19326	0	316
8.727	-7.321	15678	19836	0	316
5.445	-5.626	16440	20370	0	316
4.832	-1.875	17287	21208	0	316
4.940	-0.072	18276	22207	0	316
6.203	0.397	19208	23037	0	316
7.321	0.144	19915	23327	0	316
7.609	-5.121	20338	23022	0	316
3.823	-6.816	20762	22390	0	316
2.524	-10.061	20819	21559	0	316
1.226	-9.052	21101	20728	0	316
1.154	-6.888	21384	20255	1	412
-0.793	-3.606	21807	20080	0	412
-3.642	-3.931	22033	19661	0	412
-4.255	-6.131	21948	18853	0	412
-5.373	-8.871	21807	17847	0	412
-2.092	-9.484	21666	16772	0	412
2.633	-10.566	21242	15668	0	412
4.291	-10.963	20903	14570	0	412
5.085	-10.133	20395	13526	0	412
2.056	-8.114	19773	12566	0	412
-0.505	-4.977	19406	11720	0	412
-1.479	-0.361	18785	10988	0	412
-0.757	0.613	18220	10378	0	412
1.911	-1.515	17570	9883	0	412
3.462	-5.229	17005	9487	0	412
3.606	-8.691	16440	9205	0	412
3.498	-9.088	15904	9022	0	412
5.301	-7.717	15396	8938	0	412
7.248	-5.554	14831	8961	0	412
7.970	-3.498	14266	9083	0	412
6.816	-1.947	13842	9281	0	412
3.462	-2.416	13418	9563	0	412
2.164	0.325	12938	9906	0	412
7.140	1.515	12656	10295	0	412
14.713	4.580	12232	10729	0	412
23.188	3.895	11949	11202	0	412
22.214	-1.046	11526	11705	0	412
17.598	-7.357	11300	12223	0	412
9.304	-11.864	11102	12749	0	412
7.212	-13.595	10820	13275	0	412
8.835	-12.514	10678	13801	0	412
11.432	-9.196	10594	14319	0	412
9.701	-7.898	10311	14830	0	412
8.006	-7.285	10255	15302	0	412
6.888	-5.337	10311	15904	0	412
8.763	-0.938	10820	16955	0	412
12.658	2.560	11159	18335	0	412
14.569	4.544	11667	19470	0	412
11.900	5.193	12006	20149	0	412
8.511	2.813	12373	20583	0	412
6.419	0.325	12571	20858	0	412
3.859	-2.921	12853	20995	0	412
2.452	-7.898	12995	21010	0	412
0.288	-11.468	13221	20926	0	412
-0.685	-11.143	13277	20766	0	412
-0.216	-9.917	13362	20537	0	412
0.397	-3.246	13560	20408	0	412
3.029	0.036	13983	20682	0	412
5.554	1.370	14633	21277	0	412
7.609	1.010	14972	21627	0	412
7.862	0.000	15481	21551	0	412
8.475	-1.695	15622	21277	0	412
8.294	-1.875	15820	20903	0	412
7.753	-3.678	16102	20591	0	412
6.924	-3.606	16581	20659	0	412
7.393	-2.380	17146	21025	0	412
5.986	-3.390	17570	21132	0	412
4.652	-5.085	17796	20789	0	412
3.678	-4.400	17994	20240	0	412
4.616	-3.426	18135	19608	0	412
6.167	-0.144	18078	18891	0	412
8.402	3.282	17994	18121	0	412
11.323	5.085	17852	17336	0	412
10.855	4.652	17852	16696	0	412
9.845	6.167	18078	16551	0	412
9.124	6.419	18502	16948	0	412
6.780	8.402	19067	17641	0	412
5.409	6.419	19773	18319	0	412
4.219	5.013	20112	18632	0	412
3.101	2.416	20480	18487	0	412
2.849	2.344	20536	18091	0	412
4.616	3.173	20677	17542	0	412
5.842	6.131	20480	16864	0	412
6.599	8.475	20338	16118	0	412
7.645	11.323	20056	15325	0	412
9.052	12.694	19915	14692	0	412
12.225	12.694	20056	14563	0	412
17.057	15.615	20112	14830	0	412
22.611	24.198	20197	14913	0	412
34.872	39.488	19971	14639	0	412
49.405	58.853	19830	14227	0	412
65.236	75.875	19491	13778	0	412
79.805	88.208	19208	13305	0	412
90.624	94.086	18926	12856	0	412
97.151	102.921	18361	12421	0	412
106.058	115.110	17937	12017	0	412
115.038	128.453	17513	11659	0	412
124.558	138.911	17090	11369	0	412
128.417	142.734	16581	11148	0	412
128.814	143.274	16102	10996	0	412
123.188	143.238	15678	10942	0	412
119.834	143.743	15198	10958	0	412
112.982	143.996	14774	11049	0	412
108.511	139.019	14548	11339	0	412
104.508	130.076	14633	12147	0	412
98.666	123.621	14774	13343	0	412
92.715	115.939	14916	14349	0	412
87.126	112.622	14972	14974	0	412
80.490	108.258	15057	15417	0	412
73.458	100.865	14972	15759	0	412
68.338	91.273	14916	15996	0	412
59.611	77.894	14831	16148	0	412
48.648	64.046	14690	16240	0	412
38.118	51.713	14633	16293	0	412
28.886	41.616	14407	16316	0	412
22.358	34.475	14209	16308	0	412
18.067	27.876	14068	16270	0	412
11.035	20.231	13927	16209	0	412
3.390	13.091	13786	16293	0	412
-2.633	4.652	14125	16841	0	412
-8.294	-2.164	14492	17771	0	412
-9.016	-8.006	14774	18472	0	412
-12.766	-14.028	14916	18746	0	412
-16.048	-17.851	14972	18815	0	412
-22.286	-20.555	15255	18937	0	412
-24.991	-21.854	15763	19440	0	412
-24.702	-21.926	16243	20210	0	412
-23.873	-23.909	16666	20690	0	412
-21.998	-25.748	16948	20698	0	412
-21.457	-30.220	17090	20431	0	412
-25.712	-34.800	17146	20034	0	412
-30.905	-40.498	17372	19691	0	412
-33.826	-41.291	17711	19760	0	412
-34.331	-41.399	18135	20141	0	412
-32.492	-38.009	18417	20271	0	412
-31.987	-33.898	18643	19958	0	412
-31.987	-33.177	18785	19448	0	412
-35.269	-34.980	18643	18845	0	412
-37.468	-37.432	18559	18175	0	412
-36.278	-40.209	18559	17626	0	412
-33.718	-41.507	18785	17527	0	412
-32.492	-41.507	19067	17778	0	412
-33.213	-42.517	19265	17816	0	412
-35.016	-41.543	19265	17473	0	412
-38.478	-40.894	19208	16963	0	412
-41.147	-38.695	19067	16384	0	412
-39.776	-36.170	18785	15744	0	412
-37.108	-32.780	18502	15089	0	412
-30.292	-30.653	18135	14441	0	412
-25.207	-28.128	17796	13839	0	412
-21.926	-25.640	17287	13275	0	412
-21.457	-24.486	16864	12772	0	412
-19.942	-24.234	16440	12345	0	412
-20.411	-22.106	16046	12017	0	412
-16.552	-20.411	15622	11781	0	412
-17.093	-20.916	15198	11621	0	412
-16.769	-19.942	14831	11537	0	412
-18.392	-20.555	14407	11506	0	412
-15.795	-16.552	14068	11552	0	412
-12.838	-12.441	13842	11819	0	412
-8.727	-6.275	14125	12764	0	412
-3.787	-2.993	14831	14578	0	412
-3.678	-3.318	15763	16544	0	412
-3.210	-7.609	16243	17885	0	412
-5.193	-10.314	16666	18601	0	412
-8.475	-15.146	16948	18998	0	412
-12.910	-21.096	17231	19158	0	412
-14.569	-23.585	17287	19112	0	412
-15.543	-23.512	17287	18906	0	412
-11.576	-19.077	17287	18579	0	412
-5.049	-11.323	17146	18159	0	412
1.046	-3.534	17005	17694	0	412
4.436	2.957	16722	17199	0	412
5.265	4.436	16666	16818	0	412
4.832	4.832	16807	16909	0	412
3.173	2.885	17005	17382	0	412
2.452	2.560	17231	17679	0	412
1.767	1.839	17146	17603	0	412
3.210	4.003	17231	17351	0	412
5.481	6.491	17090	17009	0	412
11.215	9.881	16864	16605	0	412
18.500	13.018	16666	16194	0	412
19.546	13.631	16440	15775	0	412
19.618	14.497	16187	15348	0	412
14.064	11.215	15820	14929	0	412
8.979	7.609	15481	14540	0	412
5.878	4.977	15198	14182	0	412
3.498	2.524	14831	13900	0	412
4.724	1.406	14492	13694	0	412
6.347	1.190	14209	13557	0	412
6.383	3.859	13927	13458	0	412
9.268	6.816	13560	13420	0	412
10.278	9.881	13221	13427	0	412
8.222	10.963	12995	13488	0	412
6.635	8.943	12712	13587	0	412
8.078	5.229	12571	13709	0	412
8.907	1.623	12288	13869	0	412
10.819	0.252	12147	14052	0	412
12.441	-0.180	11865	14258	0	412
16.084	2.669	11808	14487	0	412
15.651	6.816	11582	14731	0	412
18.933	9.737	11526	14990	0	412
19.473	11.900	11441	15241	0	412
17.346	10.025	11300	15493	0	412
12.045	6.527	11300	15767	0	412
10.458	4.796	11243	16049	0	412
11.071	4.183	11159	16324	0	412
11.143	2.452	11243	16574	0	412
12.910	3.065	11159	16803	0	412
12.910	4.219	11243	17009	0	412
10.602	6.455	11243	17199	0	412
11.540	11.504	11159	17374	0	412
12.153	15.975	11243	17534	0	412
12.477	15.579	11384	17664	0	412
16.012	15.435	11300	17748	0	412
15.687	13.668	11384	17816	0	412
15.254	9.773	11667	18030	0	412
12.730	5.337	12232	18868	0	412
8.150	1.298	13503	20682	0	412
2.019	0.180	15113	23053	0	412
0.216	4.616	16581	25080	0	412
-1.442	11.251	17711	26201	0	412
-0.252	12.477	18700	26536	0	412
-1.911	10.169	19547	26399	0	412
0.252	3.390	20056	25926	0	412
1.298	-1.262	20536	25187	0	412
4.508	-0.577	20762	24219	0	412
7.789	3.642	21101	23251	1	868
9.665	8.150	21525	22634	0	868
7.429	9.196	22090	22313	0	868
4.147	8.150	22316	21757	0	868
0.793	3.606	22598	20804	0	868
-1.875	-1.623	22513	19699	0	868
-0.577	-4.436	22457	18548	0	868
5.049	-3.859	22231	17351	0	868
14.713	-1.010	22033	16156	0	868
20.700	-0.325	21525	14990	0	868
25.063	-1.118	21186	13877	0	868
22.142	-7.321	20677	12856	0	868
18.933	-13.704	20338	12093	0	868
19.690	-17.382	20338	11895	0	868
22.755	-20.916	20254	12139	0	868
26.289	-22.178	20254	12276	0	868
26.397	-23.476	20056	12116	0	868
23.044	-25.640	19773	11865	0	868
22.755	-24.847	19491	11606	0	868
19.978	-24.342	19067	11331	0	868
21.277	-26.722	18700	11057	0	868
19.510	-31.735	18276	10820	0	868
15.687	-35.954	17796	10630	0	868
14.821	-38.658	17372	10493	0	868
14.389	-37.865	16948	10394	0	868
14.064	-35.810	16440	10340	0	868
13.595	-34.223	15961	10340	0	868
8.006	-36.639	15537	10409	0	868
3.426	-37.793	15057	10546	0	868
2.272	-37.180	14633	10767	0	868
3.282	-32.528	14266	11049	0	868
6.058	-27.227	13983	11369	0	868
7.537	-20.591	13560	11720	0	868
5.734	-18.247	13277	12086	0	868
5.626	-16.841	12995	12474	0	868
5.626	-17.562	12712	12871	0	868
8.619	-14.785	12514	13282	0	868
10.746	-14.353	12232	13702	0	868
8.835	-12.189	12091	14121	0	868
5.445	-13.343	11865	14548	0	868
4.688	-14.930	11723	14959	0	868
3.895	-14.245	11582	15348	0	868
4.436	-14.172	11667	15866	0	868
4.255	-10.674	12091	16833	0	868
1.010	-11.648	12430	18137	0	868
-0.938	-14.028	12938	19188	0	868
-0.793	-14.281	13221	19806	0	868
-0.469	-18.608	13503	20187	0	868
1.551	-16.552	13701	20416	0	868
0.433	-15.507	13842	20499	0	868
0.902	-11.107	13983	20446	0	868
0.613	-5.986	14068	20286	0	868
1.262	-3.173	14068	20042	0	868
1.587	-0.685	14068	19737	0	868
2.092	-3.498	14068	19417	0	868
1.767	-7.176	14266	19249	0	868
3.354	-10.206	14548	19539	0	868
4.616	-9.773	15113	20164	0	868
5.481	-7.753	15481	20560	0	868
5.590	-5.049	15763	20545	0	868
5.013	-4.327	15961	20347	0	868
3.029	-5.193	16102	20057	0	868
-0.469	-5.770	16187	19691	0	868
-0.072	-5.301	16243	19249	0	868
1.154	-1.983	16187	18739	0	868
3.750	-0.288	16187	18205	0	868
7.934	3.354	16102	17664	0	868
8.258	5.085	16046	17138	0	868
9.196	5.445	15820	16627	0	868
7.934	6.275	15622	16156	0	868
6.311	4.147	15481	15706	0	868
5.337	2.524	15255	15310	0	868
3.534	2.957	15113	14967	0	868
3.065	3.967	14831	14677	0	868
4.291	5.698	14690	14449	0	868
7.573	8.042	14492	14273	0	868
9.665	8.763	14266	14136	0	868
9.412	9.052	14125	14037	0	868
9.052	7.609	13983	13976	0	868
5.337	7.501	13786	13961	0	868
1.587	5.481	13644	13976	0	868
1.226	4.508	13560	14045	0	868
3.678	4.003	13362	14144	0	868
5.806	3.750	13418	14418	0	868
8.186	3.101	13842	15165	0	868
6.924	4.183	14266	16278	0	868
5.229	4.652	14690	17184	0	868
2.019	7.825	14972	17679	0	868
2.128	10.386	15198	17954	0	868
5.373	12.081	15481	18098	0	868
10.133	14.317	15537	18114	0	868
14.641	12.261	15622	18037	0	868
20.267	7.789	15622	17877	0	868
22.142	4.364	15622	17649	0	868
22.178	2.416	15622	17390	0	868
23.765	2.669	15537	17115	0	868
24.558	4.075	15396	16833	0	868
26.397	5.986	15255	16544	0	868
27.948	4.111	15255	16278	0	868
27.696	2.741	15198	16179	0	868
25.604	2.993	15537	16566	0	868
22.863	3.823	15961	17344	0	868
21.421	5.662	16243	17923	0	868
19.329	9.088	16581	18106	0	868
20.231	10.710	16666	18076	0	868
18.788	11.215	16722	17946	0	868
18.283	12.189	16807	17725	0	868
17.346	11.828	16807	17435	0	868
14.641	10.133	16722	17108	0	868
13.343	9.376	16666	16742	0	868
12.405	9.629	16525	16384	0	868
9.376	7.176	16384	16042	0	868
8.042	6.058	16243	15706	0	868
12.009	7.753	16046	15401	0	868
16.661	13.199	15904	15142	0	868
18.824	18.716	15678	14936	0	868
20.880	26.866	15481	14761	0	868
19.437	28.164	15396	14609	0	868
13.884	26.506	15198	14487	0	868
12.838	22.611	14972	14388	0	868
10.927	16.805	14831	14327	0	868
7.789	12.730	14633	14296	0	868
4.255	8.979	14492	14311	0	868
1.515	5.842	14548	14502	0	868
-1.010	6.419	14831	15188	0	868
-0.108	6.599	15396	16240	0	868
-0.325	7.285	15820	17230	0	868
-0.902	7.248	16525	18289	0	868
-1.623	5.734	17287	19501	0	868
-0.361	6.635	17937	20355	0	868
1.947	8.619	18417	20667	0	868
4.940	9.953	18982	20812	0	868
5.554	9.701	19547	21223	0	868
1.695	6.960	20480	21955	0	868
-2.669	3.173	21384	22794	0	868
-4.147	0.072	22316	23464	0	868
-2.308	-1.298	23078	23617	0	868
0.757	-1.082	23446	23190	0	868
1.695	-1.046	23643	22428	0	868
2.560	-1.190	23785	21475	0	868
3.678	0.721	23785	20362	0	868
8.727	4.616	23587	19150	1	564
11.900	9.088	23304	17900	0	564
12.658	10.422	22881	16666	0	564
9.629	10.494	22598	15485	0	564
4.075	7.645	22174	14502	0	564
3.967	3.462	22090	14060	0	564
6.708	-1.406	22090	14060	0	564
9.809	-5.157	21948	13938	0	564
12.009	-9.629	21666	13503	0	564
9.016	-13.054	21384	12962	0	564
5.481	-15.867	20960	12436	0	564
2.560	-16.300	20677	12070	0	564
2.957	-20.159	20762	12215	0	564
-3.462	-7.537	15763	17214	0	2908
-9.340	-11.648	15763	17161	0	2908
-13.163	-14.281	15820	17115	0	2908
-16.012	-18.356	15820	17077	0	2908
-15.362	-17.454	15820	17039	0	2908
-14.389	-15.651	15820	16993	0	2908
-12.802	-15.398	15820	16948	0	2908
-10.530	-12.586	15904	16917	0	2908
-11.648	-13.668	15904	16902	0	2908
-10.278	-11.756	15904	16887	0	2908
-6.599	-8.258	16102	16871	0	2908
-1.875	-1.911	16046	16841	0	2908
6.275	3.606	16046	16803	0	2908
11.937	8.222	16046	16757	0	2908
13.307	8.366	16046	16711	0	2908
9.556	6.058	16102	16658	0	2908
6.599	4.039	16102	16597	0	2908
2.128	3.642	16102	16551	0	2908
0.216	2.993	16102	16521	0	2908
-0.469	1.334	16102	16475	0	2908
-2.993	-0.974	16046	16422	0	2908
-5.517	-4.652	16046	16384	0	2908
-5.770	-6.131	16102	16354	0	2908
-7.970	-6.708	16102	16331	0	2908
-5.770	-3.678	16102	16316	0	2908
-7.176	-4.075	16102	16301	0	2908
-5.770	-6.094	16102	16270	0	2908
-7.681	-9.737	16102	16247	0	2908
-8.619	-12.369	16102	16224	0	2908
-9.268	-10.927	16102	16217	0	2908
-7.789	-10.133	16046	16202	0	2908
-4.508	-5.193	16046	16194	0	2908
-1.551	-3.714	16046	16186	0	2908
-1.695	-4.219	16046	16186	0	2908
-2.669	-3.210	16046	16186	0	2908
-5.626	-2.957	16102	16194	0	2908
-5.085	-1.839	16187	16217	0	2908
-3.065	1.983	16102	16247	0	2908
0.505	5.121	16102	16285	0	2908
5.986	9.304	16102	16316	0	2908
8.330	11.035	16102	16339	0	2908
9.520	11.179	16102	16346	0	2908
6.131	7.212	16102	16346	0	2908
-3.354	-2.596	16102	16339	0	2908
-10.783	-10.602	16102	16324	0	2908
-17.166	-16.661	16046	16285	0	2908
-19.077	-18.247	16046	16263	0	2908
-13.668	-10.206	16046	16247	0	2908
-9.376	-0.361	16046	16255	0	2908
-5.265	5.914	16046	16255	0	2908
-4.183	9.196	16046	16247	0	2908
-3.065	7.934	16046	16240	0	2908
-0.108	6.347	16046	16247	0	2908
5.770	9.881	16046	16293	0	2908
13.487	15.831	16046	16331	0	2908
16.516	21.385	16046	16362	0	2908
15.326	25.279	16046	16377	0	2908
12.261	24.342	16046	16384	0	2908
12.730	24.522	16046	16406	0	2908
17.526	28.958	16046	16452	0	2908
23.152	32.600	16187	16505	0	2908
27.010	36.459	16243	16544	0	2908
28.128	36.206	16187	16551	0	2908
27.191	32.672	16187	16559	0	2908
25.316	27.768	16243	16582	0	2908
24.198	25.135	16243	16605	0	2908
23.657	25.604	16243	16620	0	2908
18.428	26.506	16328	16627	0	2908
18.752	25.243	16328	16620	0	2908
16.552	24.702	16328	16597	0	2908
17.274	24.558	16328	16566	0	2908
13.956	24.811	16328	16536	0	2908
13.487	24.919	16328	16505	0	2908
9.953	25.856	16328	16460	0	2908
8.222	25.784	16328	16422	0	2908
7.753	22.142	16328	16384	0	2908
7.898	18.356	16243	16346	0	2908
7.321	17.057	16243	16316	0	2908
8.258	15.579	16243	16301	0	2908
8.583	17.274	16243	16301	0	2908
15.615	24.234	16243	16308	0	2908
19.185	31.879	16243	16316	0	2908
24.270	36.783	16243	16316	0	2908
25.027	37.541	16243	16308	0	2908
20.483	32.456	16243	16293	0	2908
16.949	25.135	16187	16270	0	2908
12.189	17.634	16187	16263	0	2908
9.773	14.677	16187	16278	0	2908
8.186	12.117	16243	16308	0	2908
4.977	8.547	16328	16354	0	2908
2.200	1.623	16328	16391	0	2908
-1.370	-3.823	16328	16414	0	2908
-4.400	-5.121	16328	16422	0	2908
-4.977	-1.551	16384	16429	0	2908
-1.983	3.354	16384	16452	0	2908
-0.613	8.871	16384	16467	0	2908
0.433	8.511	16384	16460	0	2908
0.577	4.724	16384	16437	0	2908
0.685	2.056	16384	16414	0	2908
3.318	2.524	16384	16399	0	2908
8.114	6.094	16384	16384	0	2908
11.323	9.737	16384	16384	0	2908
13.018	14.425	16384	16377	0	2908
10.819	11.973	16384	16354	0	2908
9.592	8.655	16328	16324	0	2908
10.061	10.278	16328	16301	0	2908
13.704	12.369	16328	16308	0	2908
16.300	18.031	16328	16331	0	2908
19.798	19.762	16328	16354	0	2908
17.202	19.005	16384	16369	0	2908
13.812	11.973	16384	16377	0	2908
8.727	5.517	16384	16369	0	2908
6.058	1.479	16384	16369	0	2908
5.626	0.000	16384	16377	0	2908
5.517	-0.144	16328	16377	0	2908
3.931	0.000	16328	16362	0	2908
1.226	-0.829	16328	16339	0	2908
-3.570	-3.859	16328	16324	0	2908
-6.671	-5.229	16328	16316	0	2908
-5.445	-5.157	16328	16324	0	2908
-3.390	-2.380	16328	16339	0	2908
-2.164	-0.469	16328	16354	0	2908
-2.380	-0.252	16328	16362	0	2908
-4.183	0.505	16328	16362	0	2908
-1.370	2.092	16243	16331	0	2908
8.366	10.061	16243	16293	0	2908
20.014	21.601	16243	16263	0	2908
31.158	30.941	16187	16240	0	2908
37.072	35.954	16187	16232	0	2908
36.242	35.449	16187	16232	0	2908
35.918	32.816	16102	16224	0	2908
37.324	32.023	16102	16217	0	2908
40.389	32.816	16102	16217	0	2908
41.471	35.377	16046	16224	0	2908
38.622	34.908	16046	16240	0	2908
31.194	31.302	16046	16270	0	2908
21.349	27.804	16187	16301	0	2908
19.437	23.332	16102	16331	0	2908
20.087	23.621	16102	16354	0	2908
27.227	28.561	16102	16377	0	2908
31.915	33.249	16102	16391	0	2908
32.095	35.882	16102	16422	0	2908
31.807	35.774	16243	16589	0	2908
34.331	34.872	16722	17214	0	2908
40.101	36.639	17287	18190	0	2908
46.268	40.029	17711	18922	0	2908
48.576	44.861	18135	19226	0	2908
46.412	45.655	18502	19310	0	2908
43.635	44.284	18700	19280	0	2908
42.842	41.688	18841	19135	0	2908
45.763	41.543	18982	18891	0	2908
50.379	42.337	19067	18563	0	2908
52.290	44.428	18982	18205	1	812
51.064	47.782	19067	17816	0	812
50.847	47.349	19067	17428	0	812
41.940	41.255	18926	17047	0	812
34.367	31.122	18841	16658	0	812
26.866	19.690	18785	16285	0	812
21.096	14.569	18559	15935	0	812
19.329	14.281	18559	15607	0	812
16.589	16.985	18417	15325	0	812
14.136	17.634	18220	15074	0	812
7.248	12.009	17994	14860	0	812
3.967	6.491	17937	14670	0	812
2.669	3.318	17796	14502	0	812
3.931	3.137	17655	14372	0	812
6.888	3.534	17513	14296	0	812
6.131	3.787	17287	14258	0	812
4.147	4.436	17146	14243	0	812
2.669	5.085	17005	14243	0	812
4.868	6.599	16807	14258	0	812
6.708	9.196	16807	14304	0	812
10.206	10.097	16581	14365	0	812
13.054	10.206	16440	14449	0	812
12.514	12.514	16384	14555	0	812
12.405	15.362	16243	14692	0	812
14.749	14.677	16187	14860	0	812
11.900	14.858	16102	15035	0	812
9.448	10.530	16102	15211	0	812
3.714	5.481	16187	15378	0	812
-1.587	1.515	16046	15538	0	812
-6.491	-1.839	15961	15676	0	812
-8.691	-4.940	15904	15813	0	812
-11.071	-8.366	15904	15942	0	812
-12.514	-11.143	15820	16064	0	812
-9.953	-10.855	15820	16186	0	812
-10.061	-9.052	15763	16308	0	812
-7.789	-8.222	15820	16414	0	812
-6.599	-8.258	15820	16521	0	812
-6.311	-8.799	15763	16612	0	812
-4.327	-9.016	15763	16681	0	812
-3.534	-8.763	15763	16742	0	812
-0.829	-8.402	15763	16787	0	812
-0.433	-7.429	15763	16841	0	812
-1.406	-8.835	15904	16902	0	812
-1.623	-8.655	15820	16963	0	812
-2.849	-7.573	15820	16993	0	812
-2.777	-3.714	15820	17016	0	812
0.865	0.252	15820	17031	0	812
7.537	7.212	15763	17031	0	812
11.937	11.432	15763	17016	0	812
13.415	12.766	15820	16986	0	812
10.566	9.917	15820	16948	0	812
4.544	3.967	15820	16902	0	812
-1.442	0.000	15763	16864	0	812
-9.917	-6.599	15763	16833	0	812
-16.336	-11.576	15763	16803	0	812
-21.277	-15.831	15904	16780	0	812
-22.070	-17.454	15763	16749	0	812
-18.752	-14.605	15763	16734	0	812
-12.189	-11.504	15763	16726	0	812
-9.412	-7.501	15763	16719	0	812
-9.052	-5.662	15763	16711	0	812
-9.016	-3.606	15763	16704	0	812
-7.465	-3.967	15820	16681	0	812
-4.652	-3.354	15820	16650	0	812
-1.767	-3.029	15820	16643	0	812
1.298	-2.596	15820	16643	0	812
2.272	0.036	15904	16650	0	812
2.957	2.633	15904	16666	0	812
5.229	5.842	15904	16688	0	812
5.734	6.022	16046	16696	0	812
5.229	5.770	16102	16688	0	812
3.967	5.590	16046	16681	0	812
3.246	4.760	16046	16658	0	812
2.056	4.904	16046	16627	0	812
0.685	1.659	16046	16597	0	812
-3.210	-0.361	16046	16574	0	812
-9.052	-5.914	16046	16544	0	812
-13.307	-9.448	16046	16505	0	812
-15.326	-11.504	16046	16460	0	812
-14.353	-11.107	16046	16406	0	812
-9.989	-9.737	16046	16369	0	812
-8.655	-7.970	16102	16331	0	812
-7.717	-9.773	16046	16301	0	812
-7.573	-12.910	16046	16263	0	812
-6.383	-11.720	16046	16232	0	812
-3.678	-10.819	15961	16217	0	812
3.246	-3.895	15961	16224	0	812
11.179	4.436	15961	16240	0	812
15.218	9.448	15961	16263	0	812
17.743	11.612	15961	16285	0	812
14.100	11.143	15961	16308	0	812
8.402	7.717	16102	16324	0	812
5.950	5.986	16187	16354	0	812
4.760	6.311	16102	16384	0	812
4.508	5.481	16102	16406	0	812
1.695	3.498	16102	16422	0	812
-3.787	-3.498	16102	16422	0	812
-9.773	-9.016	16187	16437	0	812
-13.091	-14.208	16187	16444	0	812
-13.884	-16.408	16187	16444	0	812
-11.468	-14.605	16187	16437	0	812
-9.881	-14.930	16187	16437	0	812
-7.753	-13.307	16187	16429	0	812
-4.003	-10.278	16187	16414	0	812
-0.577	-7.537	16187	16391	0	812
0.793	-5.554	16187	16377	0	812
1.442	-4.436	16102	16354	0	812
0.505	-2.957	16102	16354	0	812
3.823	0.938	16187	16362	0	812
8.186	6.708	16187	16362	0	812
14.713	14.858	16187	16346	0	812
20.664	17.779	16187	16331	0	812
20.195	20.050	16187	16324	0	812
18.067	20.014	16187	16331	0	812
17.346	18.356	16187	16362	0	812
16.661	20.267	16187	16391	0	812
17.129	19.437	16243	16406	0	812
16.877	19.185	16243	16422	0	812
11.792	12.117	16243	16437	0	812
3.210	4.580	16243	16460	0	812
-4.075	-2.344	16243	16460	0	812
-9.989	-9.124	16243	16452	0	812
-11.937	-9.232	16243	16437	0	812
-10.783	-9.340	16328	16437	0	812
-7.429	-7.321	16328	16437	0	812
-3.390	-4.327	16328	16437	0	812
1.154	-0.938	16328	16429	0	812
5.193	1.983	16328	16414	0	812
11.864	4.580	16328	16399	0	812
11.937	3.570	16328	16377	0	812
10.422	1.767	16243	16346	0	812
8.619	1.479	16243	16316	0	812
6.491	1.659	16243	16301	0	812
7.429	4.688	16243	16285	0	812
11.900	7.537	16243	16293	0	812
16.336	10.458	16328	16301	0	812
15.290	11.432	16328	16301	0	812
13.235	11.323	16243	16293	0	812
10.025	10.638	16243	16293	0	812
5.517	8.799	16328	16308	0	812
2.885	6.383	16328	16339	0	812
1.082	4.688	16328	16362	0	812
-0.072	2.380	16328	16369	0	812
-0.793	0.649	16328	16369	0	812
-3.787	-4.472	16328	16377	0	812
-7.104	-9.052	16328	16399	0	812
-10.927	-13.415	16328	16429	0	812
-10.746	-17.238	16328	16452	0	812
-10.206	-14.245	16384	16467	0	812
-7.285	-13.559	16384	16483	0	812
-4.616	-11.648	16384	16490	0	812
-5.662	-9.124	16384	16498	0	812
-5.590	-10.494	16384	16490	0	812
-5.842	-9.340	16384	16483	0	812
-4.977	-6.455	16384	16475	0	812
-2.849	-4.400	16440	16467	0	812
-1.515	-1.479	16384	16452	0	812
1.983	2.092	16384	16429	0	812
4.904	5.878	16384	16414	0	812
7.321	9.124	16384	16399	0	812
10.242	10.494	16440	16399	0	812
9.629	9.484	16440	16406	0	812
4.760	6.599	16440	16414	0	812
1.334	3.210	16440	16414	0	812
-3.246	2.128	16440	16406	0	812
-4.940	1.623	16440	16406	0	812
-4.652	-1.370	16440	16422	0	812
-6.275	-5.842	16440	16437	0	812
-7.393	-10.638	16525	16460	0	812
-9.268	-14.533	16525	16467	0	812
-8.655	-13.235	16581	16475	0	812
-5.409	-9.629	16581	16467	0	812
-1.947	-4.688	16525	16452	0	812
-0.144	-0.216	16525	16429	0	812
2.380	1.370	16666	16559	0	812
4.003	3.137	17146	17153	0	812
7.970	4.868	17711	18091	0	812
10.746	10.350	18220	18800	0	812
16.949	15.975	18559	19089	0	812
19.870	19.149	18785	19158	0	812
22.358	20.303	19067	19097	0	812
22.395	19.113	19265	18906	0	812
20.808	16.192	19265	18617	0	812
14.930	13.127	19350	18266	0	812
10.133	9.412	19208	17870	1	736
3.426	3.787	19265	17443	0	736
-0.108	-1.515	19208	17009	0	736
-3.318	-5.554	18982	16582	0	736
-4.868	-5.842	18926	16163	0	736
-3.606	-5.013	18700	15752	0	736
-4.472	-3.823	18559	15378	0	736
-4.291	-1.406	18361	15066	0	736
-3.678	-2.200	18135	14792	0	736
-4.868	-5.770	17994	14578	0	736
-6.239	-9.989	17796	14410	0	736
-6.275	-12.477	17655	14281	0	736
-4.472	-10.855	17429	14174	0	736
0.180	-5.373	17372	14098	0	736
5.770	1.479	17146	14075	0	736
6.744	4.760	17005	14083	0	736
6.058	4.039	16864	14098	0	736
4.255	2.669	16722	14121	0	736
4.364	5.914	16525	14159	0	736
11.396	10.566	16384	14220	0	736
16.372	14.281	16243	14304	0	736
15.651	16.300	16102	14426	0	736
15.326	12.838	16046	14570	0	736
8.835	7.357	15904	14723	0	736
5.950	6.671	15763	14868	0	736
4.580	7.465	15678	15005	0	736
3.714	6.996	15537	15150	0	736
1.731	3.787	15622	15302	0	736
-2.488	-0.649	15481	15485	0	736
-4.039	-4.508	15396	15691	0	736
-5.157	-5.626	15396	15920	0	736
-4.219	-2.921	15396	16141	0	736
-1.406	-1.010	15481	16331	0	736
0.036	-0.793	15481	16498	0	736
0.036	-2.164	15481	16658	0	736
0.974	-2.380	15481	16803	0	736
3.787	-0.505	15622	16925	0	736
7.934	1.551	15537	17031	0	736
12.874	6.167	15537	17108	0	736
15.975	10.566	15537	17169	0	736
20.411	12.261	15537	17207	0	736
20.123	15.182	15622	17230	0	736
20.050	14.064	15622	17237	0	736
13.595	8.150	15537	17214	0	736
11.756	6.094	15537	17176	0	736
7.140	4.147	15622	17138	0	736
7.212	5.301	15537	17115	0	736
7.717	5.770	15537	17108	0	736
3.967	5.301	15622	17115	0	736
-4.111	-0.757	15622	17138	0	736
-9.412	-6.491	15622	17161	0	736
-12.874	-9.304	15763	17169	0	736
-12.261	-7.393	15763	17161	0	736
-7.789	-3.498	15763	17130	0	736
-3.282	0.144	15820	17100	0	736
0.433	0.505	15820	17069	0	736
2.236	3.931	15820	17031	0	736
5.590	3.498	15961	16978	0	736
7.248	4.940	15904	16917	0	736
7.753	9.304	15904	16856	0	736
7.717	12.189	15904	16818	0	736
9.376	13.920	15961	16795	0	736
15.038	19.798	15961	16772	0	736
25.316	24.450	15961	16749	0	736
39.957	29.138	15961	16719	0	736
48.756	33.790	16046	16696	0	736
55.536	37.432	16102	16673	0	736
53.336	40.065	16102	16650	0	736
52.398	40.462	16102	16612	0	736
48.972	38.731	16102	16582	0	736
44.825	35.629	16187	16544	0	736
41.471	32.853	16187	16498	0	736
36.423	28.056	16187	16467	0	736
32.780	25.135	16187	16452	0	736
30.436	23.657	16187	16437	0	736
31.013	21.637	16187	16399	0	736
28.705	18.716	16187	16362	0	736
29.282	19.257	16187	16316	0	736
26.109	16.408	16187	16278	0	736
23.765	17.887	16102	16240	0	736
21.060	16.841	16102	16202	0	736
19.618	18.860	16102	16171	0	736
22.431	17.706	16187	16163	0	736
23.404	17.274	16102	16156	0	736
23.549	15.074	16187	16163	0	736
23.044	14.425	16102	16163	0	736
16.084	12.045	16102	16156	0	736
12.477	9.629	16102	16141	0	736
8.439	9.268	16046	16118	0	736
8.871	8.907	16046	16110	0	736
12.550	10.097	16046	16125	0	736
15.182	9.484	16046	16163	0	736
14.821	8.763	16046	16209	0	736
12.225	6.203	16046	16247	0	736
5.554	1.767	16046	16285	0	736
0.325	0.649	16102	16308	0	736
-1.947	-1.190	16102	16331	0	736
-2.236	-1.479	16102	16354	0	736
-2.596	-2.164	16187	16384	0	736
-2.380	-2.813	16187	16437	0	736
-2.056	-5.229	16187	16483	0	736
-2.272	-6.816	16243	16498	0	736
-1.551	-4.255	16243	16505	0	736
2.488	0.577	16243	16498	0	736
7.717	5.662	16243	16490	0	736
11.792	11.323	16243	16483	0	736
13.235	10.819	16243	16483	0	736
13.559	8.907	16243	16475	0	736
11.396	5.301	16243	16467	0	736
9.088	3.606	16243	16437	0	736
10.602	2.128	16243	16406	0	736
8.402	1.370	16243	16384	0	736
5.445	-0.433	16187	16369	0	736
1.154	-2.813	16187	16354	0	736
-2.705	-4.580	16187	16346	0	736
-4.760	-3.029	16187	16331	0	736
-4.075	-2.813	16187	16316	0	736
-3.606	-0.829	16243	16308	0	736
-3.967	-2.813	16187	16301	0	736
-5.193	-5.193	16243	16293	0	736
-6.960	-7.789	16187	16293	0	736
-10.097	-9.124	16187	16293	0	736
-9.773	-10.242	16187	16293	0	736
-10.566	-11.215	16187	16278	0	736
-9.881	-11.396	16102	16263	0	736
-9.304	-8.907	16102	16247	0	736
-8.727	-6.924	16102	16255	0	736
-6.239	-2.705	16102	16285	0	736
-2.885	2.849	16102	16324	0	736
4.075	6.671	16102	16354	0	736
9.665	10.566	16102	16377	0	736
11.864	12.982	16102	16391	0	736
10.097	9.448	16102	16414	0	736
6.599	6.852	16187	16437	0	736
4.724	3.282	16243	16444	0	736
3.101	2.921	16243	16460	0	736
5.481	4.472	16243	16483	0	736
7.609	5.806	16243	16513	0	736
8.871	7.681	16243	16528	0	736
11.287	8.619	16328	16544	0	736
13.379	12.153	16328	16544	0	736
15.579	14.461	16328	16544	0	736
19.005	17.923	16328	16528	0	736
21.349	21.204	16328	16483	0	736
23.909	24.594	16243	16429	0	736
29.138	25.279	16243	16384	0	736
33.105	26.037	16243	16354	0	736
37.288	27.515	16243	16331	0	736
38.658	30.653	16187	16308	0	736
35.918	34.403	16187	16293	0	736
33.934	38.298	16187	16285	0	736
35.557	38.875	16187	16293	0	736
42.553	38.045	16187	16301	0	736
49.297	37.468	16187	16308	0	736
53.624	39.921	16187	16316	0	736
53.047	42.373	16187	16331	0	736
47.999	42.697	16187	16346	0	736
45.294	40.137	16187	16346	0	736
41.904	34.115	16187	16346	0	736
38.983	27.083	16187	16346	0	736
32.672	21.421	16243	16354	0	736
25.929	18.320	16187	16362	0	736
21.421	14.389	16187	16377	0	736
15.182	10.891	16243	16391	0	736
12.550	7.789	16243	16406	0	736
6.275	4.183	16243	16414	0	736
2.236	5.193	16243	16414	0	736
0.505	6.744	16243	16414	0	736
3.101	9.088	16384	16566	0	736
9.196	10.999	16864	17199	0	736
14.389	11.251	17372	18182	0	736
14.208	11.900	17937	18929	0	736
12.694	10.819	18276	19226	0	736
8.835	8.439	18643	19287	0	736
4.868	6.239	18700	19226	0	736
3.606	2.957	18982	19044	0	736
3.462	2.488	19067	18769	0	736
4.291	4.724	19067	18434	0	736
8.258	9.809	19208	18068	1	712
11.540	13.163	19124	17672	0	712
12.802	13.812	18982	17252	0	712
13.631	11.684	18982	16833	0	712
9.845	6.239	18841	16422	0	712
5.265	2.633	18700	16034	0	712
0.108	-0.433	18502	15653	0	712
-4.508	-2.741	18361	15310	0	712
-6.888	-5.445	18220	15013	0	712
-6.780	-6.888	17994	14776	0	712
-4.183	-7.032	17852	14586	0	712
-4.111	-6.996	17711	14426	0	712
-3.787	-7.753	17513	14304	0	712
-6.780	-7.753	17429	14212	0	712
-8.150	-8.330	17287	14182	0	712
-8.078	-7.465	17090	14197	0	712
-6.131	-5.049	16948	14227	0	712
-2.308	-2.669	16807	14258	0	712
2.164	1.479	16722	14296	0	712
7.321	4.652	16581	14349	0	712
11.143	7.681	16440	14433	0	712
9.665	8.583	16384	14555	0	712
8.114	6.527	16243	14700	0	712
4.183	4.868	16187	14860	0	712
1.190	2.272	16102	15013	0	712
0.000	0.541	16046	15165	0	712
-1.767	-2.452	15961	15295	0	712
-3.787	-5.121	15904	15417	0	712
-6.527	-8.042	15820	15538	0	712
-10.061	-6.311	15763	15653	0	712
-11.071	-5.301	15678	15767	0	712
-9.665	-4.472	15622	15874	0	712
-7.176	-3.029	15622	15988	0	712
-2.272	-3.714	15537	16110	0	712
1.983	-2.885	15481	16240	0	712
3.570	-1.406	15537	16354	0	712
1.623	-0.902	15481	16429	0	712
-0.397	-0.902	15481	16505	0	712
-4.003	-2.272	15396	16582	0	712
-6.563	-3.282	15396	16673	0	712
-8.943	-4.291	15481	16757	0	712
-7.176	-2.596	15396	16841	0	712
-3.714	-0.072	15396	16917	0	712
3.750	6.491	15396	16986	0	712
13.091	13.523	15537	17031	0	712
18.824	19.834	15481	17047	0	712
23.260	21.926	15481	17054	0	712
22.250	22.539	15481	17047	0	712
22.034	19.113	15537	17054	0	712
20.700	17.634	15537	17062	0	712
17.959	14.136	15537	17069	0	712
16.084	14.172	15537	17054	0	712
11.143	14.605	15537	17047	0	712
10.386	19.329	15678	17031	0	712
10.710	22.899	15622	17024	0	712
12.189	25.640	15622	17001	0	712
13.127	23.440	15622	16970	0	712
17.995	17.634	15622	16940	0	712
20.050	16.084	15678	16917	0	712
26.361	17.815	15678	16902	0	712
34.872	27.551	15678	16879	0	712
42.229	36.242	15678	16856	0	712
47.025	44.392	15678	16841	0	712
52.759	48.251	15678	16826	0	712
55.355	47.422	15820	16795	0	712
57.194	49.621	15820	16757	0	712
56.365	52.038	15820	16734	0	712
57.122	51.461	15820	16726	0	712
54.778	51.929	15820	16711	0	712
52.254	44.717	15820	16681	0	712
47.133	37.541	15904	16666	0	712
42.120	31.626	15961	16650	0	712
34.872	27.624	15961	16650	0	712
27.551	24.919	15961	16627	0	712
21.818	22.034	16046	16597	0	712
16.156	13.235	16046	16551	0	712
8.402	5.481	15961	16505	0	712
3.606	-2.200	15961	16452	0	712
-1.839	-5.806	15961	16414	0	712
-1.623	-4.472	15961	16406	0	712
1.082	-0.072	16046	16414	0	712
7.753	3.967	16102	16444	0	712
10.891	6.888	16243	16475	0	712
11.360	6.167	16187	16505	0	712
9.268	4.147	16243	16536	0	712
4.904	2.633	16243	16544	0	712
3.282	2.921	16328	16528	0	712
6.275	3.931	16328	16513	0	712
11.215	9.629	16328	16490	0	712
18.897	14.749	16328	16460	0	712
23.368	18.572	16328	16414	0	712
26.073	22.034	16328	16384	0	712
24.053	19.546	16328	16362	0	712
18.211	16.156	16328	16354	0	712
14.713	9.052	16328	16339	0	712
9.881	4.508	16328	16316	0	712
4.472	-1.334	16328	16278	0	712
-0.829	-6.960	16328	16263	0	712
-9.737	-14.569	16328	16255	0	712
-19.726	-20.411	16328	16247	0	712
-26.325	-28.886	16328	16224	0	712
-30.328	-33.682	16328	16194	0	712
-29.823	-34.692	16328	16171	0	712
-25.063	-34.439	16243	16133	0	712
-20.447	-27.948	16243	16087	0	712
-13.992	-22.214	16187	16042	0	712
-10.350	-17.851	16102	16019	0	712
-7.898	-12.874	16102	16011	0	712
-7.357	-11.071	16102	16003	0	712
-5.193	-6.816	16046	16011	0	712
-3.823	-2.236	16102	16026	0	712
-0.469	-0.216	16046	16049	0	712
1.731	0.685	16046	16072	0	712
2.380	1.262	16046	16102	0	712
3.678	2.380	16046	16133	0	712
7.934	5.770	16046	16179	0	712
12.874	11.900	16046	16240	0	712
16.913	16.480	16046	16293	0	712
18.536	16.156	16046	16331	0	712
13.848	15.110	16046	16346	0	712
8.835	9.520	16046	16369	0	712
2.272	2.344	16046	16384	0	712
-2.200	-2.596	16102	16406	0	712
-2.633	-6.491	16187	16437	0	712
-4.436	-8.042	16102	16467	0	712
-5.950	-10.169	16102	16513	0	712
-8.475	-10.963	16102	16544	0	712
-11.432	-12.405	16102	16544	0	712
-11.792	-9.088	16102	16536	0	712
-6.888	-5.301	16102	16521	0	712
-1.803	0.252	16102	16505	0	712
1.731	2.777	16102	16498	0	712
5.265	2.921	16102	16490	0	712
4.760	0.108	16102	16505	0	712
4.147	-0.108	16102	16528	0	712
4.508	-0.144	16187	16544	0	712
4.003	1.010	16243	16551	0	712
4.724	4.977	16243	16544	0	712
5.986	7.032	16243	16536	0	712
7.357	9.196	16243	16528	0	712
12.405	9.881	16243	16528	0	712
13.415	9.376	16243	16528	0	712
13.884	9.737	16328	16521	0	712
13.307	8.078	16328	16513	0	712
9.016	5.049	16328	16498	0	712
4.544	0.541	16328	16475	0	712
0.685	-6.275	16328	16452	0	712
-2.128	-10.169	16243	16429	0	712
-2.488	-9.448	16243	16406	0	712
-2.524	-6.780	16243	16391	0	712
-1.190	-3.318	16243	16384	0	712
-0.180	0.757	16243	16384	0	712
0.793	1.334	16440	16544	0	712
1.046	1.479	16948	17184	0	712
1.406	1.082	17513	18167	0	712
3.210	1.875	18078	18914	0	712
6.708	5.950	18361	19226	0	712
14.100	11.179	18700	19303	0	712
20.519	15.290	18926	19234	0	712
26.361	21.601	19067	19021	0	712
27.912	23.585	19124	18723	0	712
25.784	26.001	19208	18365	0	712
24.666	27.624	19208	17984	1	648
25.099	25.063	19124	17595	0	648
21.926	21.096	19124	17191	0	648
20.808	16.985	18982	16780	0	648
17.238	11.756	18926	16362	0	648
11.035	8.727	18785	15942	0	648
7.645	5.590	18559	15546	0	648
6.058	1.839	18361	15188	0	648
6.347	0.072	18220	14875	0	648
5.481	2.524	18078	14616	0	648
6.383	6.563	17796	14410	0	648
6.094	10.783	17655	14250	0	648
3.354	14.064	17429	14128	0	648
3.606	13.163	17372	14037	0	648
2.560	10.819	17090	13984	0	648
2.416	8.475	16948	13976	0	648
4.039	11.035	16807	14014	0	648
7.970	13.487	16722	14083	0	648
10.710	17.598	16581	14174	0	648
14.966	20.952	16440	14273	0	648
15.110	24.017	16328	14372	0	648
14.136	23.549	16187	14471	0	648
15.903	26.289	16102	14586	0	648
17.418	27.624	15961	14715	0	648
22.034	26.722	15904	14860	0	648
21.132	25.893	15763	15020	0	648
19.185	23.585	15678	15188	0	648
12.009	21.132	15622	15371	0	648
5.373	15.939	15678	15554	0	648
1.442	11.900	15763	15889	0	648
0.108	6.708	16187	16666	0	648
-0.072	2.488	16722	17786	0	648
-1.046	1.154	17146	18662	0	648
-1.839	2.128	17429	19089	0	648
-4.111	2.128	17711	19287	0	648
-5.554	1.479	17994	19364	0	648
-4.039	1.551	18220	19318	0	648
-1.190	0.938	18276	19166	0	648
2.633	2.741	18276	18929	0	648
6.635	5.121	18361	18647	0	648
8.943	8.763	18361	18327	0	648
10.061	12.045	18276	17976	0	648
10.386	12.441	18220	17618	0	648
10.638	14.172	18135	17260	0	648
11.360	11.973	18078	16909	0	648
11.179	11.684	17994	16574	0	648
13.559	12.189	17796	16263	0	648
13.704	11.360	17655	15973	0	648
10.169	9.196	17513	15691	0	648
5.409	5.049	17372	15439	0	648
-0.974	-0.325	17231	15234	0	648
-3.787	-4.472	17090	15066	0	648
-6.347	-3.787	16948	14936	0	648
-3.282	-2.885	16722	14860	0	648
-2.380	-2.308	16581	14822	0	648
-2.596	-1.803	16525	14807	0	648
-1.298	-3.210	16384	14807	0	648
0.793	-1.731	16243	14792	0	648
3.714	1.118	16102	14784	0	648
6.203	6.924	15961	14792	0	648
7.212	8.943	15820	14837	0	648
7.537	10.927	15820	14913	0	648
5.806	7.609	15678	14997	0	648
3.570	4.255	15622	15096	0	648
3.823	2.560	15481	15211	0	648
5.337	2.813	15396	15317	0	648
8.907	5.878	15481	15424	0	648
14.677	11.612	15339	15538	0	648
19.149	15.362	15255	15660	0	648
21.132	16.372	15198	15798	0	648
18.139	15.867	15198	15935	0	648
13.848	12.225	15113	16049	0	648
9.052	9.556	15057	16141	0	648
6.022	8.114	15113	16240	0	648
0.541	4.111	15057	16354	0	648
-0.144	-0.541	14972	16467	0	648
-6.131	-8.475	15057	16574	0	648
-11.540	-13.163	15057	16681	0	648
-12.261	-18.644	15057	16772	0	648
-11.648	-15.435	15198	16871	1	316
-9.340	-13.559	15113	16955	0	316
-5.662	-10.891	15113	17047	0	316
-2.236	-5.265	15255	17146	0	316
0.974	-0.397	15255	17230	0	316
6.203	6.347	15339	17291	0	316
11.864	9.953	15339	17313	0	316
15.254	11.396	15481	17329	0	316
16.336	8.943	15481	17329	0	316
12.009	6.816	15481	17329	0	316
11.215	6.383	15481	17313	0	316
9.268	7.898	15622	17298	0	316
6.816	8.294	15622	17268	0	316
5.373	8.294	15622	17214	0	316
3.210	6.996	15622	17153	0	316
1.154	4.977	15622	17077	0	316
1.587	6.852	15678	17001	0	316
3.029	7.212	15678	16909	0	316
5.734	7.862	15678	16818	0	316
5.698	6.816	15622	16742	0	316
3.895	2.560	15622	16673	0	316
2.019	-0.685	15622	16627	0	316
-0.685	-2.777	15678	16597	0	316
-2.416	-2.596	15678	16574	0	316
-3.498	-1.046	15678	16559	0	316
-4.147	-3.029	15763	16566	0	316
-4.364	-4.039	15763	16566	0	316
-4.977	-5.698	15763	16536	0	316
-2.921	-5.121	15904	16483	0	316
-0.541	-4.940	15820	16429	0	316
2.921	-2.272	15763	16384	0	316
7.140	-0.469	15763	16331	0	316
10.566	4.364	15763	16301	0	316
11.648	8.907	15678	16278	0	316
14.245	13.523	15763	16270	0	316
12.477	14.461	15763	16270	0	316
10.638	12.297	15763	16270	0	316
9.016	8.619	15763	16270	0	316
5.409	4.219	15763	16278	0	316
1.623	-0.036	15763	16270	0	316
0.180	-3.823	15763	16255	0	316
-0.180	-4.832	15904	16263	0	316
-0.216	-4.327	15961	16414	0	316
1.082	-0.685	16581	17191	0	316
3.101	3.895	17570	18784	0	316
6.960	9.196	18785	20652	0	316
10.386	12.838	20197	22336	0	316
16.552	16.048	21384	23723	0	316
19.185	19.473	22457	24531	0	316
24.666	22.070	23163	24653	0	316
27.624	24.486	23869	24333	0	316
31.626	29.607	24208	23708	0	316
32.672	30.869	24434	22832	0	316
29.066	31.302	24576	21780	0	316
23.512	26.650	24434	20614	0	316
19.041	22.467	24350	19387	0	316
18.752	18.716	24208	18152	0	316
23.657	17.490	23785	16940	0	316
27.840	21.998	23446	15782	0	316
31.518	24.883	23022	14677	0	316
29.751	26.758	22513	13671	0	316
26.181	23.945	22090	12779	0	316
20.483	19.726	21609	12009	0	316
15.146	12.838	21101	11346	0	316
9.376	8.835	20677	10790	0	316
7.140	5.734	20056	10340	0	316
5.121	4.580	19632	10005	0	316
5.662	3.823	19067	9784	0	316
7.212	4.652	18700	9677	0	316
7.825	6.094	18220	9647	0	316
9.592	8.366	17711	9700	0	316
11.071	12.333	17372	9822	0	316
11.900	13.704	16948	10020	0	316
12.910	12.045	16581	10295	0	316
9.412	9.232	16243	10615	0	316
7.717	4.472	15904	10973	0	316
3.318	1.442	15622	11362	0	316
-0.397	-0.252	15339	11804	0	316
-2.272	-1.010	15113	12276	0	316
-1.767	-0.793	14916	12756	1	316
1.406	-1.226	14690	13237	0	316
5.950	-1.442	14633	13717	0	316
9.737	-0.144	14407	14197	0	316
10.566	0.000	14266	14662	0	316
8.979	0.108	14209	15112	0	316
5.481	1.010	14209	15538	0	316
4.544	1.839	14068	15935	0	316
3.895	2.164	14068	16308	0	316
4.544	3.606	14068	16643	0	316
4.183	3.426	13983	16970	0	316
3.823	4.327	13927	17268	0	316
4.904	7.321	13983	17542	0	316
5.950	8.619	14125	17794	0	316
7.285	6.671	13983	18007	0	316
3.859	1.190	14068	18182	0	316
-0.865	-5.301	14125	18312	0	316
-3.570	-7.717	14125	18419	0	316
-2.596	-5.445	14125	18487	0	316
3.173	2.128	14209	18533	0	316
9.520	8.619	14351	18571	0	316
12.514	9.340	14266	18594	0	316
12.081	9.809	14351	18601	0	316
12.910	6.311	14407	18571	0	316
11.107	6.852	14548	18510	0	316
9.592	6.311	14492	18434	0	316
8.042	5.013	14548	18342	0	316
5.193	3.606	14492	18236	0	316
2.200	0.577	14548	18114	0	316
4.147	-1.551	14548	18007	0	316
8.114	-0.505	14548	17893	0	316
8.691	1.010	14633	17786	0	316
10.097	2.272	14690	17679	0	316
6.888	1.298	14690	17588	0	316
3.823	1.406	14690	17489	0	316
3.931	1.983	14774	17382	0	316
5.013	2.813	14690	17268	0	316
8.943	6.347	14774	17146	0	316
11.215	8.799	14774	17024	0	316
11.396	8.294	14690	16932	0	316
8.907	6.708	14774	16856	0	316
7.862	4.147	14774	16787	0	316
4.616	0.288	14774	16719	0	316
2.308	0.000	14774	16650	0	316
1.731	-0.252	14774	16605	0	316
0.397	-0.036	14831	16582	0	316
-0.216	0.216	14831	16566	0	316
0.649	-1.839	14916	16566	0	316
2.993	-1.118	14972	16566	0	316
7.285	0.216	14972	16566	0	316
9.556	2.560	14972	16551	0	316
13.523	7.609	15255	16696	0	316
13.956	10.891	15763	17336	0	316
15.074	13.235	16328	18327	0	316
14.749	13.956	16864	19066	0	316
12.045	12.405	17287	19348	0	316
8.475	7.068	17570	19402	0	316
2.596	1.334	17852	19326	0	316
-2.849	-2.849	17994	19120	0	316
-6.708	-4.904	18078	18830	0	316
-5.878	-3.065	18220	18480	0	316
-7.176	-1.587	18276	18091	0	316
-6.671	-2.705	18220	17672	0	316
-8.583	-4.580	18135	17245	0	316
-9.016	-6.852	18220	16826	0	316
-4.940	-4.796	18078	16414	0	316
-0.902	1.515	17994	16019	0	316
8.114	9.917	17796	15630	0	316
13.307	16.444	17570	15272	0	316
13.956	17.634	17513	14967	0	316
13.379	18.103	17287	14692	0	316
9.989	13.271	17146	14471	0	316
7.357	10.927	17005	14296	0	316
7.681	10.350	16864	14151	0	316
10.386	10.891	16722	14045	0	316
15.002	13.235	16581	13984	0	316
15.218	13.920	16440	13968	0	316
13.235	13.379	16243	13991	0	316
9.268	12.946	16187	14045	0	316
5.481	12.153	16046	14121	0	316
6.094	10.494	15904	14205	0	316
7.789	11.179	15763	14304	0	316
7.573	6.527	15678	14410	0	316
3.606	3.101	15537	14540	0	316
-0.180	-0.541	15481	14670	0	316
-3.498	-3.137	15481	14822	0	316
-3.931	-2.596	15339	14990	0	316
-1.551	-0.829	15255	15165	0	316
2.669	1.695	15198	15340	0	316
3.931	3.498	15396	15676	0	316
6.924	4.724	15820	16483	0	316
8.078	6.383	16384	17649	0	316
10.819	10.278	16807	18548	0	316
11.864	14.930	17231	18998	0	316
11.071	15.290	17513	19234	0	316
12.441	17.238	17711	19326	0	316
13.848	15.903	17937	19287	0	316
17.454	19.149	17994	19127	0	316
25.352	22.899	18078	18884	0	316
30.833	25.784	18276	18716	0	316
32.348	25.388	18700	18960	0	316
26.686	18.500	19208	19516	0	316
17.959	11.828	19547	19836	0	316
10.097	6.780	19773	19737	0	316
3.173	3.498	19971	19425	0	316
0.649	1.118	20112	19005	0	316
-1.226	-1.370	20056	18502	0	316
-8.042	-8.402	20056	17954	0	316
-15.435	-16.372	19830	17374	0	316
-21.637	-20.411	19773	16780	0	316
-22.683	-21.096	19491	16202	0	316
-17.526	-15.507	19265	15645	0	316
-11.828	-10.927	19067	15142	0	316
-5.445	-7.681	18700	14685	0	316
-0.577	-5.950	18502	14288	0	316
2.705	-4.544	18276	13953	0	316
7.140	0.000	17994	13686	0	316
11.756	4.977	17711	13481	0	316
16.516	7.825	17513	13328	0	316
19.149	13.199	17231	13221	0	316
22.719	15.939	17005	13160	0	316
21.926	20.952	16807	13153	0	316
20.483	20.267	16581	13191	0	316
18.139	17.995	16384	13259	0	316
13.199	9.665	16187	13351	0	316
8.979	2.308	15961	13465	0	316
5.626	0.108	15763	13625	0	316
1.623	-2.705	15622	13808	0	316
-1.983	-1.118	15396	13999	0	316
-4.977	-1.010	15396	14205	0	316
-5.409	-0.180	15198	14410	0	316
-6.383	-0.325	15057	14631	0	316
-6.131	0.108	14916	14852	0	316
-2.416	1.226	14831	15066	0	316
1.262	2.813	14774	15287	0	316
8.294	6.816	14774	15500	0	316
15.507	17.346	14633	15706	0	316
22.503	25.243	14548	15897	0	316
28.381	31.807	14492	16080	0	316
32.239	33.538	14492	16255	0	316
38.803	33.862	14407	16414	0	316
45.835	37.180	14351	16566	0	316
54.021	46.412	14351	16704	0	316
57.086	55.932	14407	16826	0	316
61.305	61.666	14351	16925	0	316
63.036	64.082	14266	17009	0	316
62.892	61.882	14266	17085	0	316
62.784	60.981	14351	17153	0	316
55.319	59.683	14266	17222	0	316
43.851	54.634	14266	17291	0	316
30.436	42.986	14266	17336	0	316
18.572	29.931	14407	17382	0	316
10.133	16.372	14351	17412	0	316
4.724	4.724	14407	17443	0	316
-2.993	-2.560	14407	17466	0	316
-9.917	-9.052	14548	17466	0	316
-13.487	-14.749	14407	17466	0	316
-16.733	-15.182	14407	17466	0	316
-16.192	-14.389	14492	17458	0	316
-12.802	-7.321	14633	17458	0	316
-11.287	-1.875	14633	17451	0	316
-5.950	2.164	14633	17443	0	316
-0.180	5.301	14690	17420	0	316
3.029	7.248	14690	17390	0	316
4.147	8.907	14831	17321	0	316
2.957	8.691	14774	17252	0	316
3.967	9.629	14774	17184	0	316
8.439	11.540	14831	17130	0	316
15.543	14.569	14831	17085	0	316
18.536	20.123	15057	17047	0	316
17.815	22.214	14972	17009	0	316
15.759	20.411	14972	16963	0	316
12.009	18.933	15057	16925	0	316
12.369	16.084	15057	16871	0	316
11.215	16.084	15057	16810	0	316
7.248	14.281	15198	16742	0	316
0.288	10.494	15113	16673	0	316
-4.904	4.940	15113	16627	0	316
-10.025	-2.272	15198	16589	0	316
-11.287	-5.337	15198	16536	0	316
-9.665	-8.258	15198	16483	0	316
-11.756	-10.025	15255	16460	0	316
-10.855	-10.819	15255	16460	0	316
-9.376	-10.566	15255	16475	0	316
-6.311	-9.232	15255	16490	0	316
0.397	-4.580	15396	16513	0	316
5.193	1.370	15396	16536	0	316
9.556	6.022	15481	16536	0	316
9.232	7.862	15481	16513	0	316
5.193	8.619	15622	16467	0	316
2.524	7.321	15481	16422	0	316
-0.577	5.770	15481	16384	0	316
0.108	3.714	15481	16346	0	316
2.200	3.859	15481	16316	0	316
5.662	5.193	15537	16293	0	316
9.268	6.924	15537	16263	0	316
13.631	11.937	15481	16224	0	316
17.851	17.598	15481	16209	0	316
26.542	22.863	15622	16202	0	316
32.456	25.784	15537	16194	0	316
35.305	26.253	15537	16186	0	316
37.252	27.227	15481	16171	0	316
39.091	25.748	15481	16156	0	316
40.462	27.840	15537	16148	0	316
42.120	30.905	15537	16163	0	316
44.356	33.466	15537	16202	0	316
47.097	34.259	15537	16240	0	316
53.047	37.360	15537	16278	0	316
59.791	42.517	15678	16293	0	316
68.590	47.169	15622	16324	0	316
72.990	52.506	15622	16369	0	316
71.763	52.398	15678	16414	0	316
69.672	51.713	15678	16452	0	316
67.544	51.641	15763	16490	0	316
66.967	52.867	15820	16521	0	316
69.347	56.870	15820	16551	0	316
70.682	58.132	15820	16559	0	316
69.203	54.562	15820	16551	0	316
62.676	49.838	15904	16536	0	316
50.126	44.320	15904	16536	0	316
41.796	40.606	15961	16551	0	316
34.547	39.560	16102	16589	0	316
33.321	36.387	16046	16635	0	316
33.646	31.338	16102	16666	0	316
33.646	24.811	16187	16673	0	316
33.393	18.464	16187	16658	0	316
32.312	14.064	16187	16643	0	316
29.643	11.576	16243	16635	0	316
22.755	8.835	16243	16612	0	316
16.913	8.655	16243	16574	0	316
12.622	7.537	16243	16513	0	316
12.441	8.511	16243	16452	0	316
14.497	11.323	16243	16391	0	316
18.788	13.595	16243	16354	0	316
17.418	12.694	16187	16308	0	316
17.274	11.215	16328	16399	0	316
15.290	8.907	16807	16970	0	316
16.372	7.862	17372	17900	0	316
15.759	8.330	17711	18601	0	316
17.923	10.097	18220	18868	0	316
17.382	11.828	18417	18929	0	316
17.923	10.638	18700	18876	0	316
14.425	8.475	18785	18723	0	316
9.196	2.524	18926	18480	0	316
4.796	1.118	18982	18167	0	316
1.479	-1.803	18926	17809	1	980
-1.479	-2.885	18982	17428	0	980
-1.046	-1.659	18926	17031	0	980
-1.875	-3.750	18785	16635	0	980
-3.137	-6.563	18643	16270	0	980
-4.544	-9.088	18559	15897	0	980
-6.599	-9.124	18417	15531	0	980
-7.537	-9.376	18135	15195	0	980
-9.088	-9.340	18078	14898	0	980
-7.501	-9.052	17852	14639	0	980
-5.554	-7.212	17655	14426	0	980
-1.731	-5.590	17513	14250	0	980
2.813	-1.983	17231	14113	0	980
6.022	2.849	17090	14029	0	980
12.622	7.212	16948	13999	0	980
15.218	11.576	16722	13999	0	980
17.598	13.487	16666	14022	0	980
16.012	14.533	16525	14067	0	980
13.379	15.182	16328	14121	0	980
10.422	12.369	16187	14189	0	980
7.285	10.963	16102	14281	0	980
5.517	9.124	15904	14395	0	980
4.832	4.255	15820	14532	0	980
4.904	1.551	15678	14692	0	980
6.275	-1.010	15622	14860	0	980
6.347	-3.065	15481	15043	0	980
3.642	-5.121	15481	15241	0	980
-0.288	-6.599	15396	15432	0	980
-4.472	-8.150	15339	15615	0	980
-6.708	-9.160	15339	15798	0	980
-5.734	-10.927	15396	15958	0	980
-5.121	-12.117	15255	16102	0	980
-4.832	-9.989	15255	16247	0	980
-1.334	-8.439	15198	16384	0	980
0.325	-4.003	15255	16536	0	980
2.777	0.036	15255	16681	0	980
4.688	2.813	15396	16978	0	980
6.888	5.734	15904	17710	0	980
8.402	7.717	16525	18746	0	980
11.684	11.648	17005	19539	0	980
18.500	16.156	17372	19905	0	980
27.840	21.998	17655	20042	0	980
34.764	32.492	17937	20034	0	980
41.183	41.183	18078	19905	0	980
41.580	44.897	18220	19669	0	980
41.976	43.996	18361	19356	0	980
42.409	39.488	18417	18990	0	980
46.809	34.043	18417	18579	0	980
50.559	29.246	18276	18144	0	980
50.739	28.237	18276	17694	0	980
46.304	25.712	18135	17245	0	980
39.272	21.493	18078	16803	0	980
34.403	17.490	17937	16406	0	980
29.427	10.674	17711	16057	0	980
24.089	5.590	17655	15729	0	980
17.923	4.291	17513	15432	0	980
9.881	6.671	17372	15180	0	980
4.255	10.494	17231	14974	0	980
1.839	10.061	17005	14807	0	980
4.688	7.681	16864	14670	0	980
9.268	2.993	16722	14578	0	980
12.297	-0.505	16666	14525	0	980
10.314	1.659	16525	14502	0	980
4.508	3.173	16384	14509	0	980
-1.046	2.813	16328	14555	0	980
-9.016	-0.072	16187	14616	0	980
-10.097	-4.724	16102	14677	0	980
-9.412	-7.753	15961	14746	0	980
-8.727	-6.599	15904	14822	0	980
-8.186	-5.517	15763	14929	0	980
-8.547	-3.282	15763	15051	0	980
-11.792	-4.832	15678	15173	0	980
-12.586	-8.330	15622	15302	0	980
-15.326	-11.215	15678	15561	0	980
-15.723	-14.785	16102	16285	0	980
-18.572	-15.687	16581	17336	0	980
-21.204	-19.978	17005	18144	0	980
-24.198	-21.241	17287	18525	0	980
-25.424	-23.260	17570	18685	0	980
-22.395	-21.565	17711	18716	1	316
-21.565	-20.159	17796	18609	0	316
-17.743	-15.362	17796	18411	0	316
-16.300	-14.353	17852	18159	0	316
-14.100	-13.812	17796	17862	0	316
-15.110	-15.362	17796	17542	0	316
-14.569	-15.723	17655	17207	0	316
-17.743	-17.670	17570	16894	0	316
-18.175	-15.579	17372	16589	0	316
-19.978	-14.208	17372	16301	0	316
-16.805	-12.658	17146	16019	0	316
-11.684	-8.691	17005	15744	0	316
-5.193	-4.039	16864	15516	0	316
2.092	0.902	16722	15325	0	316
5.517	5.698	16581	15157	0	316
6.491	6.347	16384	15028	0	316
2.200	4.039	16243	14921	0	316
-2.416	-0.397	16102	14852	0	316
-9.232	-4.688	15961	14830	0	316
-13.884	-9.412	15820	14845	0	316
-15.074	-14.245	15763	14883	0	316
-15.939	-15.903	15622	14944	0	316
-11.179	-11.756	15537	15020	0	316
-7.609	-6.888	15537	15112	0	316
-4.003	-0.829	15396	15226	0	316
-1.551	3.931	15339	15348	0	316
0.829	4.616	15255	15485	0	316
2.019	5.049	15255	15638	0	316
2.344	3.570	15255	15782	0	316
3.534	7.321	15198	15927	0	316
4.219	10.169	15255	16057	0	316
7.212	13.271	15198	16163	0	316
14.461	21.168	15113	16255	0	316
21.132	24.991	15113	16346	0	316
27.948	28.309	15198	16437	0	316
31.302	30.581	15113	16536	0	316
32.528	32.131	15113	16612	0	316
32.997	33.502	15255	16688	0	316
35.016	31.482	15198	16749	0	316
36.603	28.705	15113	16795	0	316
35.377	27.155	15198	16841	0	316
30.545	26.902	15198	16879	0	316
23.621	27.840	15198	16932	0	316
19.942	27.263	15255	16986	0	316
16.697	24.919	15255	17024	0	316
19.257	20.375	15339	17047	0	316
22.611	14.930	15339	17054	0	316
20.844	14.172	15339	17039	0	316
19.618	12.153	15339	17009	0	316
15.074	11.720	15339	16986	0	316
12.802	12.081	15339	16963	0	316
9.989	9.412	15481	16925	0	316
7.717	8.330	15396	16887	0	316
2.056	5.373	15396	16864	0	316
-3.137	3.029	15396	16848	0	316
-9.196	2.056	15481	16833	0	316
-11.648	-0.144	15481	16818	0	316
-9.340	-3.210	15481	16803	0	316
-10.530	-5.590	15481	16787	0	316
-10.061	-7.609	15622	16772	0	316
-10.206	-9.917	15622	16765	0	316
-12.586	-12.189	15622	16757	0	316
-14.425	-14.389	15622	16734	0	316
-13.631	-18.897	15622	16719	0	316
-15.435	-17.490	15622	16696	0	316
-15.038	-17.274	15763	16673	0	316
-13.740	-16.192	15763	16627	0	316
-14.930	-16.264	15678	16582	0	316
-13.884	-15.146	15678	16536	0	316
-14.100	-13.271	15678	16505	0	316
-11.937	-10.133	15678	16467	0	316
-6.960	-5.481	15820	16437	0	316
-3.606	-1.803	15763	16422	0	316
1.803	-0.144	15763	16399	0	316
5.409	1.262	15763	16384	0	316
6.563	0.180	15763	16369	0	316
6.058	-0.829	15763	16362	0	316
1.479	-4.039	15820	16362	0	316
-3.029	-5.265	15820	16354	0	316
-7.789	-7.898	15820	16339	0	316
-9.737	-9.052	15820	16308	0	316
-10.350	-8.222	15763	16285	0	316
-8.871	-8.475	15763	16285	0	316
-8.439	-8.006	15763	16301	0	316
-7.573	-8.691	15904	16316	0	316
-7.862	-10.025	15820	16331	0	316
-8.366	-8.691	15904	16346	0	316
-6.239	-6.888	15904	16369	0	316
-3.173	-1.911	15904	16399	0	316
1.154	0.829	15904	16429	0	316
2.200	1.370	15961	16452	0	316
-1.479	-1.406	15961	16467	0	316
-8.042	-3.750	16046	16483	0	316
-11.648	-5.842	16046	16483	0	316
-12.225	-6.311	16046	16460	0	316
-8.727	-4.796	16046	16437	0	316
-6.167	-3.426	16046	16422	0	316
-3.678	-2.524	16046	16414	0	316
-1.623	-1.587	16046	16414	0	316
0.469	0.721	16046	16406	0	316
2.056	1.046	16046	16391	0	316
1.731	-0.433	16046	16377	0	316
-1.262	-3.498	16046	16346	0	316
-5.986	-8.366	16102	16324	0	316
-10.783	-13.163	16187	16308	0	316
-12.405	-12.802	16102	16285	0	316
-11.179	-12.477	16046	16255	0	316
-8.222	-9.809	16046	16240	0	316
-4.111	-6.022	16046	16224	0	316
-0.108	-3.967	16046	16217	0	316
0.938	-2.705	15961	16209	0	316
1.046	-0.180	16102	16354	0	316
-1.551	-0.072	16581	16970	0	316
-0.613	0.144	17146	17961	0	316
0.036	1.082	17655	18716	0	316
4.111	2.777	17994	19044	0	316
9.556	6.924	18361	19150	0	316
13.776	11.612	18643	19143	0	316
13.956	13.704	18785	19013	0	316
12.045	15.543	18841	18784	0	316
8.979	14.028	18982	18480	0	316
8.258	12.658	18982	18137	1	484
8.330	12.730	18926	17763	0	484
8.799	11.720	18926	17367	0	484
9.917	9.809	18841	16963	0	484
9.629	8.583	18700	16566	0	484
6.816	5.914	18643	16194	0	484
6.058	4.796	18559	15820	0	484
4.111	7.573	18361	15477	0	484
2.669	11.179	18135	15188	0	484
2.993	17.021	18078	14944	0	484
7.789	20.519	17937	14746	0	484
15.254	23.476	17711	14578	0	484
22.683	24.919	17570	14441	0	484
28.489	28.525	17372	14334	0	484
29.391	33.285	17287	14250	0	484
25.352	35.846	17090	14212	0	484
19.834	34.728	17005	14205	0	484
20.555	31.122	16864	14220	0	484
25.063	28.705	16722	14250	0	484
34.151	30.977	16581	14304	0	484
42.048	36.495	16440	14372	0	484
40.065	41.904	16384	14464	0	484
32.925	39.344	16243	14570	0	484
18.536	32.853	16102	14677	0	484
10.494	21.926	16046	14792	0	484
5.590	11.540	15904	14913	0	484
6.239	8.186	15820	15058	0	484
5.878	8.439	15763	15218	0	484
7.501	9.809	15678	15386	0	484
6.708	10.783	15678	15561	0	484
5.481	8.042	15622	15729	0	484
5.157	1.479	15622	15904	0	484
2.200	-4.472	15537	16064	0	484
-2.488	-8.799	15537	16217	0	484
-5.337	-9.701	15537	16362	0	484
-6.131	-7.717	15537	16483	0	484
-4.255	-3.173	15537	16612	0	484
1.154	1.370	15537	16726	0	484
4.796	6.996	15537	16818	0	484
7.970	9.737	15678	16887	0	484
10.422	13.704	15622	16948	0	484
10.097	13.812	15622	17016	0	484
6.491	13.018	15622	17077	0	484
0.108	9.088	15622	17115	0	484
-8.078	3.823	15622	17130	0	484
-11.720	-1.262	15678	17146	0	484
-13.235	-5.554	15678	17153	0	484
-9.701	-6.996	15678	17146	0	484
-6.419	-7.934	15678	17146	0	484
-6.816	-10.746	15678	17153	0	484
-9.160	-14.858	15904	17161	0	484
-11.828	-16.841	15820	17153	0	484
-12.153	-19.113	15820	17100	0	484
-12.369	-16.841	15820	17024	0	484
-10.242	-14.172	15763	16955	0	484
-8.078	-12.730	15763	16894	0	484
-7.537	-14.533	15763	16848	0	484
-9.953	-15.507	15820	16795	0	484
-10.314	-12.405	15820	16749	0	484
-8.799	-9.052	15763	16688	0	484
-5.770	-2.380	15763	16635	0	484
-2.813	2.380	15763	16582	0	484
0.180	4.688	15763	16551	0	484
4.940	6.167	15763	16536	0	484
10.350	10.314	15904	16528	0	484
16.769	15.074	15820	16528	0	484
20.195	17.238	15820	16521	0	484
18.969	17.057	15820	16521	0	484
12.622	13.668	15820	16528	0	484
8.366	7.789	15820	16551	0	484
6.816	7.104	15820	16566	0	484
7.753	7.212	15961	16574	0	484
7.970	8.619	15961	16559	0	484
7.393	8.727	15961	16521	0	484
5.337	8.835	15961	16490	0	484
3.714	5.734	16102	16612	0	484
6.960	4.616	16581	17214	0	484
14.749	5.770	17146	18152	0	484
23.152	8.439	17570	18853	0	484
28.777	13.415	17994	19127	0	484
28.164	17.454	18276	19188	0	484
23.368	21.962	18417	19135	0	484
24.450	23.116	18643	18975	0	484
29.282	24.847	18841	18731	0	484
39.272	27.876	18785	18434	0	484
48.972	31.482	18841	18091	1	340
52.074	36.278	18926	17710	0	340
48.287	39.704	18785	17306	0	340
46.123	42.265	18785	16887	0	340
42.734	42.842	18700	16483	0	340
43.130	42.048	18502	16087	0	340
41.616	38.803	18361	15706	0	340
42.481	36.423	18220	15356	0	340
39.632	33.718	18078	15051	0	340
37.000	30.400	17852	14776	0	340
34.115	28.453	17711	14532	0	340
31.122	24.955	17429	14334	0	340
27.227	18.464	17287	14182	0	340
23.404	14.100	17146	14067	0	340
18.320	6.852	17005	13999	0	340
16.120	2.993	16807	13968	0	340
11.756	1.118	16666	13984	0	340
10.278	-0.216	16525	14037	0	340
12.333	0.180	16440	14121	0	340
12.297	0.216	16328	14220	0	340
12.910	-0.072	16187	14357	0	340
12.117	0.793	16102	14502	0	340
9.701	3.859	16046	14639	0	340
10.133	7.140	15904	14769	0	340
13.631	9.953	15763	14898	0	340
16.228	9.773	15678	15028	0	340
18.897	7.898	15622	15180	0	340
17.274	6.022	15678	15340	0	340
15.362	5.229	15537	15500	0	340
13.379	5.481	15481	15660	0	340
12.730	5.193	15396	15813	0	340
14.172	5.085	15339	15965	0	340
10.783	3.282	15396	16110	0	340
5.950	1.334	15339	16247	0	340
0.577	0.685	15339	16362	0	340
-5.986	-1.839	15339	16452	0	340
-9.232	-5.301	15339	16551	0	340
-8.655	-7.465	15255	16643	0	340
-4.508	-9.016	15255	16726	0	340
-1.983	-6.671	15255	16795	0	340
0.180	-4.652	15255	16856	0	340
0.541	-2.272	15255	16909	0	340
-0.072	-1.551	15339	16970	0	340
1.479	-0.325	15339	17016	0	340
3.823	2.885	15339	17069	0	340
7.717	9.737	15339	17130	0	340
10.061	18.320	15339	17191	0	340
12.225	22.503	15481	17237	0	340
18.320	25.532	15481	17260	0	340
22.575	28.453	15481	17260	0	340
26.289	29.066	15481	17252	0	340
26.506	28.056	15678	17237	0	340
22.106	23.080	15622	17207	0	340
15.002	18.031	15622	17161	0	340
10.169	10.422	15622	17115	0	340
6.239	11.684	15622	17062	0	340
1.731	15.002	15678	16993	0	340
-1.298	17.202	15678	16925	0	340
-4.039	19.041	15622	16856	0	340
-5.986	14.605	15622	16787	0	340
-3.210	11.323	15622	16742	0	340
2.019	8.475	15820	16848	0	340
5.013	6.780	16384	17428	0	340
6.491	6.780	16807	18342	0	340
2.633	6.058	17287	19013	0	340
-2.344	4.147	17655	19272	0	340
-2.813	2.741	17937	19326	0	340
-3.498	2.957	18220	19249	0	340
-2.092	4.796	18361	19059	0	340
-1.334	6.599	18417	18792	0	340
-1.370	5.554	18502	18449	0	340
0.757	7.321	18559	18068	0	340
4.616	7.789	18417	17656	0	340
8.186	9.304	18502	17245	0	340
5.770	9.268	18417	16848	0	340
2.380	5.590	18361	16475	0	340
-1.947	-2.236	18135	16125	0	340
-5.662	-5.806	18135	15790	0	340
-8.402	-9.376	17994	15493	0	340
-10.566	-9.701	17852	15226	1	316
-12.658	-9.016	17655	14990	0	316
-11.360	-8.907	17570	14784	0	316
-7.104	-8.547	17372	14616	0	316
-2.993	-6.563	17287	14471	0	316
-0.865	-6.708	17090	14365	0	316
-1.695	-9.052	16948	14273	0	316
-6.131	-12.838	16807	14227	0	316
-9.484	-17.057	16666	14212	0	316
-12.297	-17.454	16525	14227	0	316
-12.045	-17.634	16440	14266	0	316
-11.143	-12.514	16328	14327	0	316
-7.393	-9.340	16187	14395	0	316
-4.039	-6.924	16046	14479	0	316
-0.793	-5.193	15961	14593	0	316
4.652	-3.065	15904	14723	0	316
11.143	-0.469	15763	14868	0	316
15.182	3.029	15678	15013	0	316
18.680	7.140	15678	15150	0	316
16.048	8.583	15622	15287	0	316
12.622	9.701	15537	15424	0	316
8.475	7.825	15481	15561	0	316
2.957	3.210	15396	15706	0	316
-1.839	-2.344	15396	15866	0	316
-7.717	-6.058	15339	16019	0	316
-12.297	-11.107	15339	16148	0	316
-17.202	-11.468	15255	16263	0	316
-16.913	-10.855	15396	16377	0	316
-16.444	-7.825	15255	16475	0	316
-14.749	-5.301	15255	16574	0	316
-9.232	-1.442	15255	16666	0	316
-4.580	1.767	15339	16765	0	316
0.433	4.832	15339	16856	0	316
4.147	8.402	15339	16932	0	316
7.537	12.225	15396	17009	0	316
9.773	14.677	15396	17069	0	316
12.297	17.923	15396	17123	0	316
15.687	20.988	15396	17146	0	316
18.788	27.479	15396	17146	0	316
21.277	32.203	15481	17123	0	316
23.080	34.656	15481	17100	0	316
26.289	35.485	15481	17085	0	316
28.886	34.692	15481	17085	0	316
31.446	33.934	15622	17108	0	316
30.797	34.475	15622	17123	0	316
25.352	31.266	15622	17138	0	316
20.952	26.181	15678	17130	0	316
14.677	23.440	15678	17108	0	316
12.658	20.772	15763	17062	0	316
10.350	19.690	15763	17001	0	316
6.094	20.880	15763	16925	0	316
2.777	14.894	15763	16856	0	316
1.551	12.045	15763	16795	0	316
8.511	12.081	15763	16749	0	316
13.271	11.937	15763	16711	0	316
14.641	15.002	15763	16658	0	316
14.641	15.290	15763	16605	0	316
11.504	14.100	15763	16551	0	316
13.018	14.749	15763	16505	0	316
21.962	17.454	15763	16467	0	316
28.850	23.801	15678	16422	0	316
32.708	29.751	15763	16406	0	316
30.076	31.338	15763	16414	0	316
25.424	28.453	15820	16437	0	316
23.152	21.601	15820	16483	0	316
22.250	17.526	15904	16521	0	316
23.909	14.136	15904	16536	0	316
26.614	16.949	15904	16544	0	316
23.549	17.562	16102	16559	0	316
16.877	15.759	16046	16574	0	316
9.376	13.379	16102	16582	0	316
1.190	5.770	16102	16574	0	316
-4.616	1.587	16102	16566	0	316
-5.842	-2.885	16102	16544	0	316
-7.573	-6.022	16187	16528	0	316
-9.520	-8.799	16187	16528	0	316
-10.278	-12.333	16187	16528	0	316
-8.150	-14.245	16187	16505	0	316
-4.868	-15.903	16243	16467	0	316
-1.298	-10.891	16243	16422	0	316
-0.397	-5.842	16243	16391	0	316
-2.849	-2.272	16187	16362	0	316
-2.669	0.325	16187	16316	0	316
-1.154	0.649	16187	16270	0	316
3.606	2.560	16243	16224	0	316
7.609	5.265	16243	16202	0	316
10.242	7.068	16187	16186	0	316
13.307	11.107	16187	16179	0	316
14.281	12.586	16187	16171	0	316
17.093	14.605	16187	16163	0	316
15.543	14.821	16187	16171	0	316
8.871	8.691	16187	16171	0	316
2.236	0.757	16102	16171	0	316
-5.013	-6.852	16328	16324	0	316
-8.511	-13.271	16722	16917	0	316
-9.376	-14.821	17287	17855	0	316
-10.674	-17.202	17711	18556	0	316
-10.963	-19.005	17994	18838	0	316
-15.975	-23.152	18276	18914	0	316
-14.894	-25.784	18502	18884	0	316
-16.336	-25.965	18700	18746	0	316
-13.199	-25.279	18785	18525	0	316
-9.268	-22.178	18785	18228	0	316
-6.599	-18.608	18841	17893	1	412
-5.301	-17.851	18841	17527	0	412
-2.164	-13.523	18700	17138	0	412
0.685	-8.294	18700	16757	0	412
6.094	-3.498	18643	16384	0	412
8.186	0.829	18417	16026	0	412
9.665	3.498	18276	15699	0	412
7.248	3.354	18135	15401	0	412
5.950	3.390	17994	15127	0	412
7.465	4.508	17852	14891	0	412
9.448	5.445	17711	14685	0	412
9.592	4.688	17429	14509	0	412
9.196	3.137	17287	14357	0	412
5.121	-1.154	17146	14235	0	412
1.479	-3.065	16948	14159	0	412
-6.275	-8.042	16807	14128	0	412
-16.372	-10.566	16666	14144	0	412
-23.765	-15.759	16525	14189	0	412
-28.741	-17.923	16440	14273	0	412
-29.679	-19.437	16328	14388	0	412
-25.135	-15.146	16243	14517	0	412
-19.582	-11.143	16102	14654	0	412
-14.966	-7.068	16187	14967	0	412
-8.042	-2.957	16581	15744	0	412
-3.390	-1.046	17090	16864	0	412
0.649	0.974	17513	17755	0	412
2.380	2.705	17937	18365	0	412
0.577	2.344	18643	19219	0	412
-1.515	0.108	19406	20286	0	412
-2.308	0.325	20056	21002	0	412
-2.019	-0.108	20536	21201	0	412
1.406	0.685	20819	21086	0	412
3.282	2.993	21045	20759	0	412
4.977	5.337	21045	20263	0	412
3.678	7.609	21186	19661	0	412
1.479	6.094	21045	18998	0	412
-0.541	6.599	20960	18289	0	412
-1.947	4.652	20762	17550	0	412
-3.534	3.137	20536	16818	0	412
-4.544	1.659	20338	16141	0	412
-7.285	-0.072	20056	15500	0	412
-9.448	-3.931	19689	14906	0	412
-9.556	-5.806	19547	14532	0	412
-8.294	-8.078	19632	14685	0	412
-5.265	-5.770	19915	15264	0	412
-2.056	-5.193	19971	15676	0	412
-2.092	-4.832	20254	15859	0	412
-2.416	-3.210	20621	16339	0	412
-1.515	-1.515	21101	17092	0	412
1.551	2.092	21384	17573	0	412
5.806	6.744	21666	17595	0	412
8.655	9.268	21666	17382	0	412
7.789	9.160	21525	17039	0	412
3.029	5.517	21525	16582	0	412
-1.298	2.524	21242	16064	0	412
-4.075	1.010	20960	15500	0	412
-2.236	3.967	20677	14944	0	412
-0.252	6.022	20254	14418	0	412
2.560	6.996	19971	13930	0	412
3.210	7.681	19547	13488	0	412
4.039	6.924	19124	13115	0	412
7.429	8.258	18785	12810	0	412
8.799	9.737	18361	12574	0	412
8.583	9.953	17937	12391	0	412
9.701	11.937	17570	12269	0	412
10.602	10.674	17231	12231	0	412
12.586	13.091	16864	12253	0	412
16.985	17.923	16525	12330	0	412
17.743	20.159	16187	12444	0	412
18.644	21.781	15904	12596	0	412
16.012	21.313	15622	12772	0	412
17.346	19.185	15255	12977	0	412
19.149	19.401	15113	13199	0	412
23.044	19.798	14774	13435	0	412
24.702	24.522	14548	13709	0	412
26.109	26.253	14407	14022	0	412
26.001	27.948	14266	14365	0	412
24.919	27.804	14068	14723	0	412
24.847	29.463	13927	15051	0	412
27.624	31.410	13842	15371	1	316
27.696	34.151	13842	15676	0	316
28.741	33.970	13644	15981	0	316
27.732	32.203	13560	16270	0	316
27.948	27.407	13644	16536	0	316
27.660	22.647	13503	16787	0	316
27.515	21.096	13560	17031	0	316
25.820	18.464	13503	17260	0	316
23.080	18.608	13418	17466	0	316
22.250	17.490	13701	17786	0	316
20.087	19.329	14125	18548	0	316
21.637	20.988	14690	19646	0	316
29.968	24.594	15255	20499	0	316
36.495	31.266	15622	20888	0	316
47.313	37.505	15961	21033	0	316
52.831	45.546	16187	21018	0	316
56.293	50.126	16525	21018	0	316
55.355	53.516	17146	21384	0	316
57.627	52.326	17852	22016	0	316
60.115	50.920	18559	22496	0	316
59.647	46.772	19265	22976	0	316
55.355	42.012	20254	23563	0	316
45.979	35.197	20819	23769	0	316
39.957	28.669	21327	23449	0	316
39.235	23.512	21609	22824	0	316
43.274	22.070	21807	22024	0	316
47.890	20.772	21948	21079	0	316
48.323	20.880	21751	20050	0	316
45.186	21.781	21666	18960	0	316
38.911	19.690	21525	17855	0	316
34.151	20.087	21101	16765	0	316
34.583	19.618	20819	15721	0	316
37.721	23.152	20338	14731	0	316
40.245	27.227	19971	13839	0	316
41.291	30.689	19491	13046	0	316
35.918	28.201	19067	12360	0	316
29.318	23.080	18700	11788	0	316
24.919	18.752	18135	11339	0	316
26.289	16.012	17796	11011	0	316
30.364	19.942	17287	10782	0	316
33.574	23.044	16948	10645	0	316
32.853	24.378	16581	10599	0	316
28.669	23.188	16187	10630	0	316
23.260	19.293	15820	10721	0	316
20.231	16.264	15481	10881	0	316
16.120	11.179	15198	11102	0	316
16.228	9.268	14972	11369	0	316
13.271	7.789	14633	11682	0	316
14.172	8.114	14351	12009	0	316
15.182	9.268	14125	12345	0	316
17.346	11.937	13927	12688	0	316
20.664	14.966	13644	13046	0	316
24.125	16.012	13503	13427	0	316
22.827	17.093	13362	13824	0	316
22.431	13.523	13136	14235	0	316
21.385	11.684	13136	14609	0	316
20.555	12.009	12938	14952	0	316
25.099	15.146	12995	15439	0	316
27.587	20.844	13503	16384	0	316
29.463	23.657	13842	17679	0	316
26.073	21.781	14351	18731	0	316
20.880	18.031	14690	19356	0	316
12.333	9.520	14972	19737	0	316
9.953	4.219	15198	19966	0	316
9.917	3.101	15339	20042	0	316
9.556	2.741	15537	19989	0	316
13.631	6.527	15622	19844	0	316
14.894	5.950	15622	19638	0	316
12.982	5.373	15622	19387	0	316
13.199	2.777	15763	19074	0	316
13.523	2.128	15622	18731	0	316
13.199	3.823	15537	18396	0	316
13.992	4.291	15481	18068	0	316
10.530	3.282	15537	17908	0	316
5.229	1.118	15961	18213	0	316
2.633	-1.226	16440	18868	0	316
-1.839	-4.760	16807	19310	0	316
-2.921	-5.013	17090	19348	0	316
-8.294	-5.409	17146	19196	0	316
-11.360	-2.452	17287	18937	1	316
-11.900	3.498	17372	18594	0	316
-7.212	10.206	17287	18182	0	316
2.056	18.031	17231	17725	0	316
11.792	20.339	17146	17245	0	316
17.129	23.693	17005	16765	0	316
16.228	23.008	16864	16316	0	316
15.651	22.647	16722	15889	0	316
9.484	18.392	16581	15516	0	316
6.816	12.838	16384	15195	0	316
7.970	9.809	16243	14921	0	316
12.586	9.520	16046	14685	0	316
16.805	11.504	15820	14487	0	316
21.637	13.884	15678	14342	0	316
23.585	16.589	15481	14243	0	316
23.044	17.743	15339	14197	0	316
23.729	20.555	15255	14174	0	316
21.241	21.818	15057	14174	0	316
19.798	22.034	14831	14182	0	316
20.411	21.204	14774	14220	0	316
18.392	18.897	14633	14296	0	316
19.077	21.313	14492	14388	0	316
15.759	23.945	14351	14494	0	316
16.156	25.279	14209	14616	0	316
14.353	26.470	14125	14753	0	316
16.048	24.558	14125	14913	0	316
17.454	23.693	14209	15249	0	316
17.274	24.991	14633	16064	0	316
18.175	22.575	15113	17214	0	316
16.300	21.818	15537	18121	0	316
15.795	18.752	16046	18586	0	316
9.376	10.386	16187	18807	0	316
2.921	3.750	16384	18891	0	316
-3.426	-2.164	16525	18853	0	316
-10.819	-10.386	16525	18716	0	316
-11.323	-14.064	16666	18495	0	316
-10.169	-14.281	16666	18213	0	316
-7.970	-14.821	16525	17893	0	316
-8.583	-12.694	16440	17557	0	316
-10.819	-13.091	16384	17222	0	316
-12.405	-15.471	16328	16894	0	316
-13.199	-13.379	16187	16566	0	316
-10.242	-11.973	16102	16270	0	316
-4.580	-7.573	16046	15988	0	316
-2.596	-3.354	15763	15744	0	316
0.252	-1.515	15820	15691	0	316
4.616	0.325	16102	16133	0	316
10.386	3.823	16525	16940	0	316
11.360	5.554	16864	17557	0	316
7.717	3.318	17090	17786	0	316
4.219	-0.649	17231	17816	0	316
-2.380	-6.058	17372	17748	0	316
-5.085	-9.412	17429	17580	0	316
-3.282	-9.592	17429	17359	0	316
-3.246	-8.186	17429	17123	0	316
-4.544	-7.970	17372	16864	0	316
-5.517	-7.970	17287	16574	0	316
-6.599	-8.150	17146	16278	0	316
-4.977	-8.186	17005	15958	0	316
-5.301	-8.042	16807	15645	0	316
-4.364	-7.032	16722	15363	0	316
-5.986	-8.114	16440	15104	0	316
-8.583	-6.816	16328	14883	0	316
-8.547	-6.131	16102	14700	0	316
-4.003	-4.147	15961	14563	0	316
0.757	-0.721	15904	14471	0	316
4.688	0.865	15820	14570	0	316
5.517	0.541	16102	15165	0	316
3.787	0.505	16525	16133	0	316
3.931	1.551	16807	16879	0	316
7.898	5.301	17090	17237	0	316
10.783	10.422	17146	17397	0	316
14.100	13.884	17287	17443	0	316
11.251	12.477	17372	17382	0	316
7.970	7.212	17372	17222	0	316
4.940	4.183	17287	17016	0	316
2.236	0.793	17146	16772	0	316
0.469	-1.046	17090	16505	0	316
-2.416	-4.327	16948	16247	0	316
-8.006	-9.773	16807	15988	0	316
-11.864	-16.372	16807	15889	0	316
-14.966	-17.706	17090	16278	0	316
-13.379	-17.166	17513	17024	0	316
-12.225	-12.297	17796	17573	0	316
-10.278	-10.602	17994	17740	0	316
-9.989	-9.917	18135	17717	0	316
-10.422	-10.133	18135	17588	0	316
-9.773	-9.773	18135	17374	0	316
-5.626	-7.753	18078	17100	0	316
-1.190	-5.013	18078	16795	0	316
3.787	-1.442	17852	16452	0	316
4.760	-1.406	17711	16110	0	316
3.390	-1.875	17513	15782	0	316
0.757	-2.813	17372	15485	0	316
-1.370	-1.623	17146	15211	0	316
-0.649	1.767	16948	14936	0	316
1.803	6.744	16722	14685	0	316
5.301	9.484	16440	14441	0	316
6.527	11.107	16243	14235	0	316
8.078	10.133	15961	14083	0	316
9.160	9.773	15763	13999	0	316
6.131	8.547	15481	13961	0	316
5.481	6.996	15255	13968	0	316
4.616	4.977	15198	13999	0	316
4.868	3.895	14916	14045	0	316
9.304	5.193	14690	14121	0	316
15.038	6.022	14548	14227	0	316
16.949	8.222	14351	14357	0	316
19.942	9.520	14351	14517	0	316
19.582	13.704	14068	14692	0	316
20.339	16.661	13983	14875	0	316
23.440	20.808	13927	15058	0	316
25.856	19.834	13786	15241	0	316
26.722	19.870	13701	15424	0	316
29.066	16.516	13644	15599	0	316
30.292	17.454	13503	15775	0	316
31.482	15.903	13503	15958	0	316
31.735	17.202	13644	16301	0	316
26.289	14.389	14068	17092	0	316
20.303	11.612	14633	18243	0	316
11.251	5.842	15057	19166	0	316
7.357	-0.108	15396	19638	0	316
4.832	-4.003	15904	19867	0	316
1.731	-5.878	16046	19951	0	316
-0.288	-6.131	16243	19905	0	316
-3.065	-4.724	16384	19760	0	316
-2.813	-4.544	16440	19516	0	316
-1.947	-5.481	16440	19204	0	316
-1.010	-7.537	16525	18838	0	316
-1.442	-7.825	16440	18441	0	316
-4.075	-8.475	16384	18045	0	316
-4.868	-6.419	16328	17664	0	316
-3.173	-3.967	16243	17298	0	316
0.288	-0.469	16187	16948	0	316
3.101	2.705	16046	16612	0	316
5.698	7.068	15961	16331	0	316
7.645	9.737	15820	16095	0	316
8.691	11.720	15763	15881	0	316
7.393	10.963	15622	15706	0	316
5.878	8.583	15622	15561	0	316
4.796	8.042	15481	15432	0	316
4.616	8.619	15396	15333	0	316
5.301	8.979	15255	15256	0	316
4.688	7.789	15339	15218	0	316
1.479	3.750	15113	15203	0	316
-4.039	-2.272	15057	15195	0	316
-7.862	-6.455	14972	15211	0	316
-8.006	-7.285	14916	15234	0	316
-5.373	-4.472	14831	15272	0	316
-2.380	-0.974	14916	15310	0	316
1.731	0.180	14690	15348	0	316
2.633	-0.144	14633	15394	0	316
0.865	-2.921	14633	15439	0	316
0.252	-2.849	14633	15493	0	316
-0.613	-2.056	14492	15569	0	316
-0.325	0.902	14407	15653	0	316
3.318	3.390	14407	15744	0	316
7.032	5.265	14407	15851	0	316
13.199	7.357	14492	15950	0	316
17.418	10.927	14351	16049	0	316
22.106	14.353	14407	16133	0	316
19.365	13.920	14351	16209	0	316
16.192	11.720	14407	16278	0	316
9.196	7.176	14266	16339	0	316
4.436	2.705	14351	16391	0	316
1.442	-2.092	14351	16444	0	316
0.793	-1.839	14351	16490	0	316
1.875	-2.452	14266	16551	0	316
4.255	-0.757	14492	16765	0	316
7.429	3.570	14972	17451	0	316
8.763	7.248	15678	18480	0	316
9.556	8.258	16102	19249	0	316
9.629	5.878	16440	19585	0	316
8.042	3.282	16807	19691	0	316
6.996	-1.118	16948	19676	0	316
8.150	-1.406	17146	19531	0	316
10.710	1.659	17287	19295	0	316
14.677	6.708	17429	18998	0	316
16.913	11.396	17513	18655	1	712
21.168	14.858	17570	18274	0	712
20.591	18.536	17513	17870	0	712
24.306	19.005	17429	17451	0	712
30.472	24.162	17287	17039	0	712
35.701	25.748	17231	16635	0	712
38.478	25.279	17146	16255	0	712
34.151	23.440	17005	15904	0	712
26.433	17.815	16948	15592	0	712
16.589	15.939	16807	15325	0	712
10.999	12.946	16666	15096	0	712
6.022	11.468	16525	14898	0	712
5.085	6.852	16384	14723	0	712
6.599	4.868	16243	14570	0	712
10.963	4.868	16102	14464	0	712
18.572	10.999	15961	14403	0	712
27.371	16.913	15820	14388	0	712
30.112	19.726	15678	14395	0	712
27.191	19.762	15537	14418	0	712
21.457	15.795	15396	14456	0	712
12.550	14.605	15396	14502	0	712
11.432	12.369	15198	14563	0	712
11.648	13.307	15113	14631	0	712
14.389	12.982	14972	14708	0	712
19.293	12.261	14916	14814	0	712
19.329	16.300	14831	14944	0	712
22.755	17.743	14774	15081	0	712
25.604	19.942	14690	15234	0	712
26.109	20.087	14633	15401	0	712
26.289	21.421	14633	15577	0	712
23.116	21.096	14633	15759	0	712
19.005	23.152	14690	15935	0	712
14.245	21.637	14633	16095	0	712
9.340	14.461	14633	16240	0	712
3.967	4.868	14633	16362	0	712
-5.301	-4.904	14633	16467	0	712
-11.396	-13.127	14633	16574	0	712
-15.867	-17.166	14633	16688	0	712
-13.776	-15.398	14690	16803	0	712
-8.799	-12.694	14690	16887	0	712
-1.370	-7.104	14774	16948	0	712
6.058	-0.108	14690	16993	0	712
11.648	6.780	14690	17047	0	712
17.202	11.684	14774	17092	0	712
21.132	15.795	14831	17130	0	712
25.171	20.267	14972	17153	0	712
26.397	22.214	14916	17161	0	712
24.594	23.981	14831	17146	0	712
21.890	24.702	14916	17123	0	712
18.247	19.654	14916	17092	0	712
14.136	15.326	14972	17077	0	712
11.756	9.953	14972	17077	0	712
13.631	8.835	14972	17054	0	712
11.287	8.583	14972	17016	0	712
11.107	8.511	15057	16970	0	712
6.996	4.977	15057	16932	0	712
-0.649	0.216	15198	16894	0	712
-6.635	-8.222	15113	16864	0	712
-10.278	-11.828	15113	16841	0	712
-13.127	-12.874	15113	16803	0	712
-12.477	-16.336	15198	16749	0	712
-8.475	-14.497	15198	16696	0	712
-8.078	-12.081	15255	16643	0	712
-4.940	-11.612	15198	16597	0	712
-2.164	-9.304	15198	16566	0	712
-1.442	-5.517	15198	16536	0	712
1.442	-4.327	15255	16505	0	712
5.770	-1.190	15255	16475	0	712
10.566	3.859	15255	16460	0	712
16.408	8.583	15339	16467	0	712
17.093	10.963	15339	16490	0	712
18.031	10.710	15339	16513	0	712
14.677	10.133	15339	16536	0	712
12.910	9.232	15396	16551	0	712
12.261	7.537	15481	16566	0	712
9.556	7.248	15481	16566	0	712
3.390	3.714	15537	16574	0	712
-0.433	0.036	15537	16582	0	712
-8.150	-4.472	15678	16597	0	712
-10.566	-6.924	15678	16597	0	712
-9.088	-6.708	15678	16582	0	712
-8.330	-6.960	15678	16559	0	712
-9.340	-7.068	15678	16544	0	712
-8.799	-4.940	15678	16528	0	712
-7.212	-3.967	15763	16505	0	712
-8.727	-3.498	15820	16475	0	712
-8.655	-4.977	15820	16452	0	712
-12.297	-6.203	15820	16422	0	712
-13.379	-7.321	15820	16399	0	712
-14.100	-6.599	15820	16399	0	712
-9.556	-1.911	15820	16399	0	712
-1.118	2.560	15961	16391	0	712
3.606	7.104	15904	16384	0	712
6.635	9.881	15904	16369	0	712
9.340	10.746	15904	16354	0	712
10.061	9.881	15904	16346	0	712
10.061	8.258	15904	16331	0	712
7.717	5.842	15904	16316	0	712
5.914	2.128	15904	16301	0	712
1.587	-1.947	15961	16278	0	712
-0.252	-5.229	15961	16255	0	712
0.757	-7.501	15961	16232	0	712
1.118	-6.311	16102	16362	0	712
1.479	-6.563	16525	16948	0	712
-2.596	-6.275	17090	17893	0	712
-5.770	-7.068	17570	18601	0	712
-9.845	-7.465	17852	18876	0	712
-12.658	-6.924	18135	18944	0	712
-11.792	-7.501	18361	18891	0	712
-10.819	-7.789	18559	18739	0	712
-6.563	-7.501	18700	18510	0	712
-3.354	-4.544	18643	18228	0	712
-0.397	-1.803	18700	17900	1	448
3.318	2.164	18785	17550	0	448
8.042	7.140	18643	17169	0	448
13.127	11.973	18559	16765	0	448
20.627	18.247	18502	16384	0	448
25.063	22.899	18417	16011	0	448
26.830	23.657	18220	15683	0	448
24.775	19.473	18078	15386	0	448
21.565	15.975	17937	15112	0	448
19.978	10.963	17796	14860	0	448
14.353	8.475	17796	14807	0	448
11.648	7.104	18078	15272	0	448
4.904	4.904	18417	16133	0	448
-1.118	1.010	18785	16787	0	448
-6.275	-3.210	19067	17054	0	448
-8.042	-6.419	19124	17115	0	448
-7.465	-8.583	19265	17062	0	448
-6.275	-8.366	19350	16909	0	448
-1.731	-4.832	19265	16711	0	448
-0.613	-1.082	19265	16475	0	448
-0.757	2.236	19124	16202	0	448
-3.318	3.642	18982	15904	0	448
-5.193	4.436	18841	15599	0	448
-5.590	4.400	18643	15310	0	448
-0.541	7.537	18417	15043	0	448
7.537	13.271	18276	14807	0	448
11.973	16.120	18078	14586	0	448
16.372	17.346	17796	14395	0	448
17.202	12.550	17655	14243	0	448
15.002	8.583	17372	14136	0	448
14.461	4.940	17231	14067	0	448
10.242	1.839	16948	14029	0	448
5.770	-0.361	16807	14022	0	448
1.803	-3.101	16581	14052	0	448
-1.082	-5.662	16440	14113	0	448
-1.334	-4.760	16243	14205	0	448
-1.226	-5.878	16102	14311	0	448
-1.010	-6.419	15961	14433	0	448
-2.056	-7.537	15820	14578	0	448
-5.121	-8.294	15678	14738	0	448
-4.364	-6.599	15678	14898	0	448
-3.354	-4.111	15481	15043	0	448
-1.082	-2.272	15339	15188	0	448
1.298	-1.947	15255	15325	0	448
1.839	-4.219	15198	15470	0	448
1.154	-4.436	15057	15630	0	448
2.560	-0.108	14972	15798	0	448
6.816	7.645	14972	15958	0	448
13.668	17.310	14916	16095	0	448
18.608	23.981	14831	16240	0	448
24.739	28.237	14831	16391	0	448
26.181	26.470	14774	16544	0	448
26.830	25.352	14831	16688	0	448
26.866	24.630	14774	16818	0	448
19.618	20.591	14774	16955	0	448
14.821	13.415	14831	17092	0	448
6.167	6.527	14831	17214	0	448
0.505	1.515	14916	17313	0	448
-1.406	1.118	14916	17382	0	448
-0.469	5.517	14916	17428	0	448
5.734	12.766	14916	17435	0	448
12.802	17.634	14972	17428	0	448
20.231	24.306	14972	17420	0	448
28.201	25.820	15113	17420	0	448
32.853	27.155	15057	17420	0	448
34.187	28.164	15057	17412	0	448
38.803	28.056	15113	17405	0	448
43.599	32.059	15113	17405	0	448
50.992	35.088	15198	17397	0	448
55.572	40.281	15255	17382	0	448
58.565	43.094	15255	17344	0	448
59.358	44.320	15255	17291	0	448
56.113	44.392	15255	17237	0	448
55.499	42.661	15339	17191	0	448
53.011	38.731	15339	17123	0	448
49.621	34.006	15339	17039	0	448
43.491	28.922	15339	16940	0	448
38.009	23.440	15481	16848	0	448
33.429	19.149	15339	16772	0	448
26.470	17.923	15339	16696	0	448
19.942	15.903	15339	16643	0	448
15.038	12.009	15396	16597	0	448
9.629	8.799	15396	16559	0	448
6.131	3.534	15339	16528	0	448
5.085	3.534	15396	16490	0	448
4.580	6.058	15396	16460	0	448
5.193	9.196	15396	16444	0	448
6.491	12.514	15396	16437	0	448
8.114	12.225	15396	16444	0	448
8.258	12.766	15678	16589	0	448
9.052	12.982	16102	17184	0	448
9.845	10.746	16864	18274	0	448
9.268	9.665	17796	19600	0	448
9.845	8.222	18700	20850	0	448
11.215	7.862	19406	21658	0	448
11.612	8.871	20112	21894	0	448
11.684	8.258	20480	21772	0	448
10.638	6.635	20903	21437	0	448
6.780	3.137	21045	20941	0	448
1.479	-0.649	21186	20332	0	448
-0.793	-2.164	21327	19630	1	400
-1.082	-2.524	21186	18861	0	400
-1.479	-1.515	21186	18068	0	400
-0.216	-1.226	20960	17291	0	400
1.983	-1.803	20819	16528	0	400
3.967	-2.957	20536	15798	0	400
4.400	-5.590	20338	15096	0	400
3.210	-7.717	19971	14464	0	400
1.046	-7.825	19773	13923	0	400
-3.173	-8.330	19406	13473	0	400
-4.688	-7.357	19208	13107	0	400
-4.688	-6.960	18926	12802	0	400
-3.606	-6.563	18502	12543	0	400
-1.659	-4.904	18276	12337	0	400
2.380	-0.469	17937	12170	0	400
6.888	4.147	17655	12063	0	400
10.927	8.042	17287	12017	0	400
13.812	9.016	17090	12025	0	400
12.045	7.285	16807	12093	0	400
8.150	3.534	16525	12223	0	400
4.508	0.793	16328	12383	0	400
3.137	-0.397	16102	12581	0	400
3.534	-1.515	15820	12817	0	400
5.554	-3.678	15820	13237	0	400
2.560	-5.734	16102	14144	0	400
-1.587	-8.042	16525	15401	0	400
-7.465	-12.550	16864	16422	0	400
-10.674	-12.045	17090	17016	0	400
-10.602	-10.963	17372	17542	0	400
-8.294	-8.366	18078	18411	0	400
-5.373	-6.094	18643	19501	0	400
-2.164	-2.957	19208	20248	0	400
0.685	-0.757	19491	20484	0	400
1.479	0.974	19773	20454	0	400
0.613	1.551	19915	20271	0	400
-1.875	0.433	20056	19958	0	400
-4.327	-1.010	19971	19531	0	400
-4.616	-2.308	20056	19021	0	400
-3.895	-1.298	19915	18449	0	400
-2.705	-0.361	19689	17839	0	400
0.721	0.902	19491	17222	0	400
1.803	2.200	19208	16612	0	400
2.380	2.272	18982	16042	0	400
1.803	1.442	18700	15500	0	400
1.370	1.406	18361	15005	0	400
2.560	1.911	17994	14555	0	400
5.698	3.750	17711	14167	0	400
10.783	7.357	17372	13854	0	400
12.658	10.061	17090	13610	0	400
13.127	11.540	16807	13420	0	400
13.740	11.612	16384	13298	0	400
9.448	9.629	16102	13221	0	400
8.150	10.566	15904	13206	0	400
5.337	9.881	15678	13267	0	400
3.137	10.169	15396	13381	0	400
5.950	10.783	15198	13519	0	400
11.287	13.487	15057	13671	0	400
18.139	16.805	14831	13839	0	400
23.332	21.673	14633	14045	0	400
26.542	22.539	14492	14273	0	400
21.096	19.437	14351	14525	0	400
17.021	11.107	14266	14784	0	400
10.927	9.088	14125	15035	0	400
11.504	13.451	14068	15279	0	400
12.658	20.555	14068	15531	0	400
16.372	26.758	13927	15775	0	400
16.769	27.155	13842	16011	0	400
14.208	22.791	13842	16240	0	400
13.776	20.195	13927	16444	0	400
14.461	24.955	13786	16658	0	400
18.608	29.679	13842	16864	0	400
22.142	37.324	13927	17069	0	400
27.119	40.029	13842	17260	0	400
29.571	41.543	13927	17428	0	400
29.066	42.589	13983	17573	0	400
29.463	42.481	13983	17679	0	400
27.804	43.743	14068	17771	0	400
26.433	41.904	14125	17839	0	400
27.551	40.101	14125	17877	0	400
27.587	38.442	14209	17893	0	400
27.804	36.675	14266	17900	0	400
26.830	35.810	14351	17893	0	400
25.676	35.197	14351	17877	0	400
22.467	32.889	14351	17832	0	400
20.375	29.427	14407	17771	0	400
19.654	25.135	14492	17710	0	400
14.172	16.841	14492	17656	0	400
10.927	10.169	14492	17595	0	400
4.111	1.190	14548	17527	0	400
-3.498	-5.049	14633	17458	0	400
-7.717	-8.655	14633	17397	0	400
-6.491	-8.258	14633	17313	0	400
-3.642	-6.816	14690	17214	0	400
-0.505	-4.147	14633	17115	0	400
1.659	-1.154	14690	17024	0	400
1.442	-0.036	14690	16925	0	400
-0.180	-0.144	14633	16841	0	400
-1.046	0.072	14690	16765	0	400
-0.829	-0.865	14690	16726	0	400
-2.200	-1.010	14831	16704	0	400
-4.291	-2.344	14774	16681	0	400
-6.239	-3.173	14774	16635	0	400
-6.744	-5.157	14972	16742	0	400
-8.439	-5.590	15481	17321	0	400
-6.131	-7.176	16046	18236	0	400
-3.967	-5.914	16525	18914	0	400
-1.695	-4.796	16864	19181	0	400
-0.216	-2.813	17146	19219	0	400
-0.721	-3.534	17429	19135	0	400
-2.669	-5.734	17655	18944	0	400
-6.239	-9.088	17796	18678	0	400
-7.898	-14.497	17796	18350	0	400
-8.439	-14.281	17796	17976	0	400
-7.321	-12.586	17796	17580	0	400
-5.914	-8.835	17796	17161	0	400
-6.599	-5.986	17711	16757	0	400
-6.563	-5.517	17570	16362	0	400
-9.052	-6.527	17513	15981	0	400
-10.097	-7.862	17287	15630	0	400
-8.366	-8.222	17231	15317	0	400
-3.895	-4.400	17090	15051	0	400
1.659	-0.325	16948	14822	0	400
8.402	4.832	16807	14616	0	400
9.665	7.068	16666	14449	0	400
7.068	6.563	16525	14334	0	400
2.308	3.065	16384	14250	0	400
-4.832	-1.551	16243	14212	0	400
-8.402	-5.013	16102	14205	0	400
-11.287	-5.770	15961	14243	0	400
-9.845	-6.383	15904	14304	0	400
-7.934	-5.842	15763	14357	0	400
-7.898	-7.248	15678	14433	0	400
-9.953	-7.573	15678	14548	0	400
-11.864	-9.629	15537	14692	0	400
-10.746	-8.511	15481	14830	0	400
-6.780	-5.157	15396	14974	0	400
-0.577	-2.019	15339	15134	0	400
3.823	0.577	15339	15295	0	400
4.472	1.442	15255	15455	0	400
3.210	2.596	15255	15592	0	400
2.741	3.823	15255	15721	0	400
6.527	6.852	15198	15859	0	400
8.727	9.953	15198	16019	0	400
10.963	10.927	15198	16156	0	400
10.674	10.783	15198	16285	0	400
7.285	7.140	15198	16406	0	400
3.462	6.239	15198	16528	0	400
1.731	4.832	15339	16643	0	400
2.380	5.409	15255	16749	0	400
1.731	5.409	15255	16833	0	400
0.433	4.111	15339	16902	0	400
-2.056	1.262	15537	17130	0	400
-4.219	-3.714	16046	17816	0	400
-5.481	-7.645	16666	18823	0	400
-5.878	-7.248	17146	19585	0	400
-2.092	-4.652	17570	19905	0	400
0.000	0.902	17852	19989	0	400
6.167	6.058	18078	19928	0	400
9.701	10.169	18502	19882	0	400
10.458	11.468	19067	20217	0	400
10.025	10.566	19632	20819	0	400
9.412	8.763	20197	21140	0	400
9.556	8.402	20480	20995	0	400
9.989	7.537	20819	20598	0	400
13.920	8.727	20903	20065	1	656
18.428	13.271	20960	19440	0	656
21.385	20.195	20819	18746	0	656
24.306	24.739	20819	18015	0	656
24.450	28.922	20621	17260	0	656
19.473	29.931	20480	16528	0	656
17.310	26.037	20197	15828	0	656
15.723	24.234	19971	15165	0	656
18.175	21.962	19632	14540	0	656
18.356	23.224	19350	13991	0	656
21.637	20.952	19067	13519	0	656
21.457	18.211	18643	13115	0	656
24.017	18.824	18361	12787	0	656
25.135	17.562	18078	12520	0	656
25.352	20.952	17711	12345	0	656
23.693	21.998	17429	12261	0	656
23.549	22.719	17146	12246	0	656
22.575	18.103	16948	12292	0	656
21.673	17.526	16666	12368	0	656
21.529	17.670	16440	12490	0	656
17.346	19.906	16243	12642	0	656
13.523	21.890	15961	12825	0	656
8.511	19.546	15904	13023	0	656
6.275	18.247	15678	13244	0	656
5.806	12.874	15481	13488	0	656
5.337	11.720	15255	13747	0	656
7.645	11.576	15113	14006	0	656
8.979	11.396	15057	14273	0	656
9.340	14.425	14916	14548	0	656
7.537	14.497	14831	14807	0	656
1.515	9.592	14690	15058	0	656
-7.862	2.056	14774	15462	0	656
-15.435	-8.222	15198	16346	0	656
-21.890	-16.048	15678	17565	0	656
-19.798	-14.100	16102	18541	0	656
-16.336	-9.737	16384	19059	0	656
-8.871	-4.039	16666	19333	0	656
-6.239	-0.938	16864	19455	0	656
-6.455	-2.921	17005	19455	0	656
-6.275	-4.183	17146	19356	0	656
-9.196	-5.806	17146	19173	0	656
-9.376	-5.950	17287	19051	0	656
-9.268	-4.760	17711	19348	0	656
-9.124	-4.688	18135	19958	0	656
-6.311	-4.508	18559	20324	0	656
-2.596	-2.596	19067	20423	0	656
2.236	0.108	19632	20781	0	656
7.609	4.544	20338	21384	0	656
8.258	7.645	20762	21658	0	656
5.626	5.734	21186	21444	0	656
0.361	3.787	21525	21124	0	656
-4.724	-2.849	22090	21124	0	656
-9.052	-6.563	22655	21345	0	656
-9.484	-9.737	23022	21246	0	656
-9.412	-11.035	23220	20682	0	656
-9.052	-10.819	23304	19897	0	656
-10.025	-10.999	23304	19021	0	656
-10.278	-12.045	23078	18068	0	656
-12.586	-11.756	22881	17085	0	656
-13.379	-14.028	22598	16095	0	656
-9.845	-12.441	22174	15112	0	656
-7.537	-8.042	21751	14182	0	656
-2.164	-3.246	21327	13328	0	656
2.272	-1.298	20762	12551	0	656
3.534	1.406	20338	11888	0	656
3.354	-0.036	19773	11346	0	656
4.400	3.787	19265	10889	0	656
7.357	8.619	18785	10516	0	656
12.405	14.749	18220	10226	0	656
16.264	19.401	17711	10066	0	656
20.736	23.044	17287	10013	0	656
21.060	24.630	16807	10051	0	656
22.755	26.902	16384	10150	0	656
21.493	29.751	15961	10317	0	656
22.322	31.158	15622	10561	0	656
17.454	26.361	15198	10859	0	656
8.222	17.779	14916	11202	0	656
-1.010	7.537	14548	11583	0	656
-5.590	-3.390	14266	11994	0	656
-1.623	-7.285	14068	12429	1	316
8.186	-4.724	13842	12878	0	316
16.552	0.902	13560	13336	0	316
19.005	6.058	13418	13770	0	316
13.379	8.222	13277	14182	0	316
8.439	7.681	13079	14586	0	316
6.203	7.068	12995	14982	0	316
9.556	10.169	12797	15363	0	316
13.199	15.362	12797	15737	0	316
20.700	20.159	12656	16118	0	316
23.945	22.683	12571	16490	0	316
31.410	23.332	12656	16833	0	316
37.072	24.270	12430	17130	0	316
39.740	28.561	12514	17390	0	316
40.822	34.764	12430	17634	0	316
39.019	38.767	12514	17847	0	316
40.137	40.498	12430	18037	0	316
40.209	39.668	12514	18190	0	316
41.435	37.432	12514	18327	0	316
37.757	32.131	12656	18457	0	316
31.230	26.037	12656	18571	0	316
23.873	20.916	12797	18662	0	316
18.356	13.235	12797	18731	0	316
14.605	9.881	12938	18777	0	316
10.819	4.580	12938	18807	0	316
7.645	-0.829	12995	18815	0	316
4.255	-3.065	13136	18784	0	316
3.354	-2.524	13136	18723	0	316
6.744	0.865	13277	18662	0	316
8.366	5.554	13277	18594	0	316
10.927	7.321	13362	18518	0	316
13.740	7.970	13503	18434	0	316
13.884	8.547	13503	18358	0	316
14.894	9.989	13644	18289	0	316
13.884	11.648	13786	18205	0	316
15.110	12.694	13786	18098	0	316
14.713	14.389	13842	17992	0	316
14.858	13.595	13927	17885	0	316
17.202	15.398	13983	17771	0	316
17.057	15.074	14068	17679	0	316
18.283	13.740	14209	17603	0	316
16.516	12.081	14266	17527	0	316
14.821	10.061	14266	17435	0	316
11.143	6.347	14407	17336	0	316
6.383	4.796	14492	17222	0	316
3.029	1.442	14492	17100	0	316
-3.354	-3.282	14492	16955	0	316
-9.737	-9.592	14774	16986	0	316
-16.084	-17.021	15198	17504	0	316
-18.680	-20.664	15904	18396	0	316
-19.329	-22.539	16384	19066	0	316
-17.454	-20.050	16807	19303	0	316
-17.779	-19.510	17287	19478	0	316
-18.067	-19.221	17994	19989	0	316
-18.933	-17.706	18926	20888	0	316
-13.054	-15.182	19915	21917	0	316
-7.681	-9.448	20960	22801	0	316
-1.839	-3.246	21751	23198	0	316
1.551	-0.288	22372	23015	0	316
3.354	1.334	22796	22481	0	316
5.662	3.173	23022	21734	0	316
11.107	6.780	23163	20812	0	316
16.444	10.314	23078	19768	0	316
17.743	12.838	23022	18655	0	316
15.218	12.550	22796	17527	0	316
6.527	5.013	22655	16391	0	316
-2.524	-3.570	22174	15310	0	316
-12.189	-13.018	21807	14281	0	316
-16.769	-17.995	21384	13336	0	316
-19.005	-21.385	20903	12490	0	316
-15.903	-17.959	20536	11758	0	316
-13.307	-15.543	20112	11308	0	316
-11.432	-12.982	20197	11415	0	316
-11.179	-14.569	20197	11964	0	316
-13.487	-14.317	20197	12383	0	316
-13.740	-17.238	20056	12497	0	316
-12.225	-14.605	19915	12482	0	316
-9.196	-10.710	19632	12429	0	316
-4.364	-4.688	19406	12345	0	316
1.406	0.505	19208	12238	1	316
5.842	6.167	18785	12124	0	316
10.674	9.376	18417	12017	0	316
12.550	13.235	18078	11941	0	316
15.110	15.002	17711	11910	0	316
10.927	14.353	17372	11903	0	316
9.196	12.225	16948	11926	0	316
8.150	7.753	16525	11971	0	316
6.203	6.239	16328	12070	0	316
8.871	6.275	15904	12223	0	316
8.439	6.275	15622	12413	0	316
7.609	5.445	15255	12642	0	316
2.092	-0.216	14972	12901	0	316
-5.121	-8.366	14774	13183	0	316
-10.061	-13.415	14492	13496	0	316
-14.028	-15.831	14266	13808	0	316
-13.740	-12.441	14068	14121	0	316
-7.068	-8.655	13927	14433	0	316
-4.327	-6.022	13786	14753	0	316
-0.938	-5.626	13560	15074	0	316
-1.731	-6.527	13418	15401	0	316
-4.147	-6.816	13362	15706	0	316
-5.626	-7.212	13221	15988	0	316
-5.986	-6.996	13136	16240	0	316
-2.993	-4.760	12995	16467	0	316
0.144	-3.029	12853	16688	0	316
3.931	0.252	12938	16902	0	316
8.655	4.977	12797	17108	0	316
10.927	9.484	12853	17306	0	316
16.408	14.028	12797	17481	0	316
17.743	18.752	12853	17641	0	316
20.844	21.493	12797	17786	0	316
20.988	22.214	12797	17916	0	316
20.772	23.260	12853	18015	0	316
18.680	18.824	12797	18106	0	316
17.887	17.202	12853	18190	0	316
11.576	9.556	12853	18251	0	316
7.357	3.895	12995	18274	0	316
0.938	-2.596	12938	18281	0	316
-3.173	-6.599	13079	18281	0	316
-3.642	-8.979	13079	18274	0	316
-2.777	-10.097	13079	18251	0	316
-0.469	-9.376	13221	18236	0	316
2.849	-4.832	13221	18236	0	316
6.094	0.397	13362	18236	0	316
10.602	8.979	13503	18243	0	316
12.333	15.290	13503	18243	0	316
15.146	17.274	13701	18228	0	316
15.903	19.798	13701	18190	0	316
15.831	19.293	13927	18289	0	316
18.247	22.322	14548	18838	0	316
18.320	26.578	15198	19714	0	316
21.529	29.354	15763	20339	0	316
21.457	28.561	16187	20522	0	316
21.241	24.811	16525	20492	0	316
18.500	19.510	16807	20355	0	316
11.828	14.064	17090	20088	0	316
5.914	12.802	17146	19714	0	316
-0.288	11.684	17287	19257	0	316
-3.137	7.789	17287	18769	0	316
-8.583	3.823	17372	18251	0	316
-9.448	-2.308	17372	17725	0	316
-11.576	-6.563	17287	17214	0	316
-12.117	-6.311	17146	16719	0	316
-11.612	-4.400	17090	16263	0	316
-10.133	-1.587	16948	15828	0	316
-6.599	0.144	16864	15462	0	316
-3.895	0.180	16666	15142	0	316
1.479	0.902	16666	14868	0	316
7.573	3.678	16525	14639	0	316
10.674	7.032	16384	14456	0	316
11.360	10.061	16328	14311	0	316
11.287	12.766	16187	14197	0	316
10.783	13.559	16102	14121	0	316
9.701	10.674	15904	14067	0	316
11.973	11.179	15763	14052	0	316
16.625	12.189	15678	14052	0	316
17.995	13.559	15537	14083	0	316
18.788	16.841	15396	14128	0	316
16.048	15.110	15339	14205	0	316
11.540	11.071	15255	14296	0	316
5.554	5.373	15113	14403	0	316
-1.082	1.082	15057	14517	0	316
-4.688	-0.902	14972	14654	0	316
-7.068	1.190	14916	14807	0	316
-6.671	-0.361	14831	14974	0	316
-5.986	0.180	14831	15150	0	316
-5.049	-1.659	14831	15310	0	316
-3.570	-2.056	14774	15462	0	316
-3.426	-1.839	14690	15615	0	316
0.361	-0.613	14633	15759	0	316
1.370	1.226	14690	15889	0	316
1.803	2.380	14690	16019	0	316
-0.829	3.065	14633	16133	0	316
-2.200	2.272	14633	16247	0	316
-0.469	3.750	14633	16362	0	316
2.344	4.255	14633	16460	0	316
5.121	6.094	14774	16559	0	316
10.133	7.753	14633	16643	0	316
11.071	12.369	14633	16704	0	316
15.362	14.064	14633	16742	0	316
16.661	17.706	14690	16772	0	316
19.618	17.670	14633	16810	0	316
19.762	17.166	14633	16833	0	316
17.706	12.297	14690	16856	0	316
10.891	7.717	14633	16871	0	316
3.678	2.344	14690	16909	0	316
-3.426	-2.308	14690	16955	0	316
-7.501	-7.429	14690	17001	0	316
-7.609	-8.150	14774	17031	0	316
-4.652	-4.760	14774	17024	0	316
-2.560	2.416	14831	17016	0	316
-0.721	7.934	14831	17009	0	316
1.695	13.018	14831	16978	0	316
5.301	16.156	14916	16948	0	316
11.396	19.221	14916	16925	0	316
20.519	26.578	14972	16925	0	316
27.010	35.269	14972	16932	0	316
30.725	41.111	14972	16932	0	316
31.374	41.183	15057	16940	0	316
28.705	38.190	15113	16932	0	316
28.958	35.052	15339	17077	0	316
31.699	35.918	15820	17679	0	316
35.521	38.009	16384	18617	0	316
37.649	40.498	16864	19326	0	316
38.947	40.245	17287	19592	0	316
35.485	36.567	17655	19630	0	316
32.744	32.744	17937	19547	0	316
25.424	28.381	18078	19333	0	316
20.447	24.270	18135	19028	0	316
19.510	22.431	18276	18662	0	316
16.913	19.293	18276	18251	0	316
15.795	19.546	18276	17809	0	316
11.035	17.887	18361	17504	0	316
5.914	16.805	18700	17672	0	316
1.118	13.091	19265	18205	0	316
0.613	11.828	19491	18533	0	316
3.029	11.396	19915	18464	0	316
6.383	11.251	20056	18205	0	316
8.583	13.595	20056	17847	0	316
10.206	14.677	20056	17405	0	316
11.684	18.824	19971	16925	0	316
12.477	19.005	19915	16422	0	316
13.343	22.142	19689	15904	0	316
15.687	20.159	19547	15394	0	316
19.005	20.844	19406	14913	0	316
20.303	20.159	19067	14479	0	316
20.087	20.627	18841	14060	0	316
21.204	24.162	18785	13831	0	316
20.267	24.739	18841	14136	0	316
23.260	26.181	19124	14845	0	316
23.008	27.804	19406	15378	0	316
21.132	26.830	19406	15546	0	316
16.552	23.801	19491	15577	0	316
9.917	19.654	19406	15531	0	316
5.121	12.009	19406	15409	0	316
0.000	8.006	19265	15218	0	316
-2.452	5.301	19067	15005	0	316
-3.859	5.986	18926	14792	0	316
-2.344	6.960	18700	14578	0	316
1.515	8.619	18502	14388	0	316
6.455	8.907	18220	14212	0	316
7.753	8.619	17994	14045	0	316
11.215	11.360	17796	13907	0	316
12.153	15.471	17429	13793	0	316
15.543	19.365	17231	13702	0	316
21.745	26.289	16948	13641	0	316
27.155	31.410	16666	13602	0	316
31.699	34.511	16384	13595	0	316
33.970	35.954	16187	13618	0	316
34.800	34.800	15904	13694	0	316
35.052	34.692	15678	13801	0	316
35.377	31.518	15481	13945	0	316
31.410	25.893	15255	14098	0	316
22.719	18.536	15113	14258	0	316
14.785	6.744	14916	14418	0	316
6.744	-0.036	14774	14601	0	316
5.085	-1.875	14548	14784	0	316
6.888	-1.190	14407	14990	0	316
7.285	0.252	14351	15203	0	316
6.131	0.036	14266	15432	0	316
2.849	-2.957	14125	15668	0	316
-2.272	-4.904	13983	15904	0	316
-5.770	-5.878	13983	16125	0	316
-7.140	-5.409	13983	16339	0	316
-7.862	-5.662	13842	16513	0	316
-4.977	-4.075	13842	16673	0	316
-1.406	-3.967	13842	16818	0	316
2.452	0.793	13786	16970	0	316
4.832	1.731	13842	17123	0	316
5.121	0.469	13842	17268	0	316
0.757	-1.947	13842	17382	0	316
-3.282	-3.137	13842	17489	0	316
-6.311	-3.714	13927	17565	0	316
-4.832	-0.974	13842	17626	0	316
0.216	2.560	13842	17664	0	316
6.203	5.626	13983	17687	0	316
7.717	6.960	13927	17717	0	316
9.448	9.665	13927	17733	0	316
9.304	8.871	13983	17725	0	316
6.131	7.140	14068	17710	0	316
4.436	2.813	14068	17702	0	316
0.793	-1.983	14125	17687	0	316
-3.065	-3.895	14209	17679	1	812
-5.481	-6.419	14209	17672	0	812
-7.609	-8.042	14209	17672	0	812
-7.862	-9.196	14351	17664	0	812
-8.439	-10.061	14407	17649	0	812
-7.357	-10.278	14492	17611	0	812
-4.940	-9.665	14633	17702	0	812
-1.767	-6.599	15198	18243	0	812
1.370	-3.210	15763	19135	0	812
5.049	-0.433	16243	19791	0	812
8.763	3.210	16666	20012	0	812
11.143	7.140	17005	20019	0	812
15.362	10.350	17287	19912	0	812
16.625	12.514	17513	19691	0	812
19.582	12.477	17711	19371	0	812
17.887	12.982	17711	18990	0	812
14.894	7.970	17937	18723	0	812
9.268	3.714	18417	18891	0	812
4.436	1.515	18982	19402	0	812
2.380	-0.577	19350	19699	0	812
3.642	-1.226	19830	19592	0	812
3.101	0.325	20056	19265	0	812
1.479	-2.921	20056	18823	0	812
-2.849	-8.727	20197	18289	0	812
-8.691	-14.389	20056	17687	0	812
-11.756	-16.516	20056	17069	0	812
-12.622	-16.625	20056	16605	0	812
-10.458	-15.002	20395	16627	0	812
-8.871	-13.740	20677	17016	0	812
-6.491	-12.045	21045	17191	0	812
-2.705	-10.169	21101	16993	0	812
-1.406	-8.402	21101	16627	0	812
-0.072	-6.527	21186	16202	0	812
1.046	-6.744	20903	15714	0	812
1.010	-7.212	20819	15211	0	812
1.190	-10.025	20536	14700	0	812
0.325	-9.556	20395	14220	0	812
1.190	-8.619	20056	13770	0	812
2.669	-6.275	19971	13519	0	812
5.806	-2.056	19971	13747	0	812
7.825	1.406	20254	14357	0	812
6.852	0.613	20338	14784	0	812
2.633	-0.865	20395	14845	0	812
-2.669	-1.406	20254	14746	0	812
-3.823	-0.505	20112	14586	0	812
-1.298	2.813	19971	14365	0	812
2.488	5.229	19773	14113	0	812
6.744	6.852	19491	13854	0	812
7.176	7.140	19067	13610	0	812
6.167	5.049	18785	13381	0	812
3.895	4.868	18502	13183	0	812
3.570	3.318	18135	13008	0	812
1.190	3.390	17937	13038	0	812
4.364	4.508	18078	13572	0	812
5.914	5.445	18276	14494	0	812
8.583	6.635	18502	15211	0	812
10.566	5.986	18417	15538	0	812
9.809	6.203	18417	15699	0	812
9.376	3.714	18361	15775	0	812
8.799	3.534	18220	15767	0	812
9.052	4.219	17994	15699	0	812
9.520	6.203	17937	15577	0	812
10.386	6.780	17655	15432	0	812
7.104	4.616	17429	15272	0	812
3.642	1.406	17231	15127	0	812
-1.767	-4.075	16864	15005	0	812
-7.285	-6.852	16666	14898	0	812
-7.609	-6.022	16384	14799	0	812
-6.888	-4.147	16102	14715	0	812
-2.705	-0.793	15820	14647	0	812
-0.072	1.839	15537	14609	0	812
0.974	3.498	15396	14616	0	812
1.046	3.642	15255	14799	0	812
2.236	4.436	15537	15477	0	812
5.049	3.318	15820	16513	0	812
8.114	5.698	16187	17351	0	812
12.045	8.402	16384	17778	0	812
13.920	11.540	16525	17984	0	812
14.172	14.641	16581	18076	0	812
10.963	13.595	16666	18213	1	316
5.013	9.592	17146	18731	0	316
2.308	4.436	17655	19547	0	316
-2.524	-0.757	18078	20080	0	316
-3.678	-3.137	18276	20164	0	316
-4.075	-3.426	18417	20019	0	316
-4.219	-4.688	18643	19752	0	316
-3.065	-4.436	18643	19371	0	316
0.829	-1.659	18502	18906	0	316
7.789	0.938	18361	18373	0	316
10.061	6.816	18276	17801	0	316
11.323	8.114	18078	17222	0	316
5.986	6.203	17796	16643	0	316
2.056	2.452	17570	16095	0	316
1.623	1.551	17231	15569	0	316
4.147	5.806	17005	15081	0	316
8.475	11.287	16581	14654	0	316
11.828	15.507	16328	14296	0	316
9.917	13.956	16046	14006	0	316
8.511	11.900	15763	13785	0	316
9.701	10.746	15481	13648	0	316
11.504	10.097	15198	13580	0	316
11.720	11.143	14972	13564	0	316
9.809	10.746	14774	13580	0	316
7.753	6.960	14492	13625	0	316
5.806	5.229	14351	13702	0	316
6.094	5.914	14068	13816	0	316
8.619	7.032	13927	13953	0	316
9.592	7.501	13786	14113	0	316
8.727	5.950	13560	14296	0	316
7.970	3.823	13362	14487	0	316
7.645	-1.082	13362	14708	0	316
7.248	-2.705	13362	15096	0	316
4.508	-4.183	13786	15965	0	316
0.902	-6.852	14266	17161	0	316
-3.967	-7.717	14633	18121	0	316
-6.383	-6.996	14916	18632	0	316
-6.167	-3.714	15198	18922	0	316
-0.757	2.705	15396	19059	0	316
6.022	6.455	15481	19051	0	316
13.163	11.864	15678	18929	0	316
17.346	14.028	15622	18746	0	316
19.221	17.057	15622	18510	0	316
21.241	20.555	15537	18243	0	316
20.880	21.421	15481	17954	0	316
17.562	20.952	15481	17649	0	316
16.913	22.322	15339	17344	0	316
16.192	21.565	15198	17047	0	316
18.356	22.575	15057	16772	0	316
16.985	24.125	15057	16544	0	316
16.769	19.582	14831	16346	0	316
12.910	15.723	14774	16171	0	316
9.845	10.097	14690	16026	0	316
12.297	11.504	14548	15920	0	316
14.497	15.110	14548	15828	0	316
16.913	18.139	14407	15752	0	316
15.507	20.014	14351	15676	0	316
12.802	15.110	14209	15615	0	316
10.746	10.638	14209	15577	0	316
5.806	5.049	13983	15554	0	316
-0.433	1.479	13983	15546	0	316
-7.681	-2.344	13927	15554	0	316
-11.360	-5.806	13786	15584	0	316
-9.592	-5.373	13786	15645	0	316
-5.157	-1.082	13786	15721	0	316
-0.252	2.596	13701	15820	0	316
1.803	5.662	13842	16072	0	316
1.262	5.157	14351	16780	0	316
0.649	5.878	14831	17839	0	316
0.974	4.147	15339	18647	0	316
2.524	3.714	15820	19181	0	316
3.246	4.075	16666	19958	0	316
1.190	2.344	17372	20964	0	316
2.669	1.046	18078	21612	0	316
1.154	0.361	18502	21719	0	316
-0.902	-1.623	18926	21521	0	316
-1.695	-2.164	19208	21132	0	316
-1.298	-1.875	19265	20606	0	316
0.072	1.370	19350	19958	0	316
2.705	3.173	19406	19242	1	316
3.895	4.003	19208	18502	0	316
1.226	2.849	19124	17755	0	316
-2.524	-1.695	18926	17024	0	316
-4.724	-2.885	18700	16316	0	316
-8.150	-5.662	18502	15638	0	316
-8.439	-8.763	18276	15028	0	316
-10.855	-13.487	17937	14487	0	316
-11.684	-17.202	17570	13999	0	316
-12.117	-20.916	17372	13580	0	316
-9.592	-19.510	17090	13237	0	316
-5.373	-16.913	16948	13138	0	316
-1.262	-12.874	17146	13572	0	316
2.633	-7.825	17429	14410	0	316
6.708	-1.983	17655	15066	0	316
12.766	6.167	17796	15340	0	316
15.723	14.858	17796	15439	0	316
21.349	20.123	17796	15470	0	316
22.395	23.008	17711	15417	0	316
19.546	20.375	17655	15325	0	316
17.887	20.303	17513	15203	0	316
14.785	18.103	17513	15211	0	316
14.858	19.978	17796	15683	0	316
18.969	20.627	18220	16490	0	316
18.933	20.375	18502	17062	0	316
20.123	20.014	18643	17214	0	316
20.231	16.192	18643	17161	0	316
17.310	17.382	18643	17009	0	316
18.175	16.084	18785	16917	0	316
16.336	17.202	19067	17245	0	316
15.795	15.254	19547	17885	0	316
12.225	14.533	19830	18281	0	316
10.602	12.910	19830	18228	0	316
12.009	9.412	19971	17954	0	316
15.903	10.638	19830	17573	0	316
22.719	13.956	19773	17115	0	316
26.037	15.831	19547	16620	0	316
27.371	20.519	19350	16125	0	316
27.083	20.411	19265	15775	0	316
26.866	21.096	19406	15904	0	316
29.895	20.014	19689	16384	0	316
34.944	23.296	19830	16673	0	316
39.812	27.984	19773	16589	0	316
42.193	32.600	19773	16346	0	316
44.717	32.384	19547	16026	0	316
44.032	33.213	19406	15660	0	316
41.363	28.453	19124	15264	0	316
36.098	21.998	18841	14852	0	316
28.201	16.589	18559	14456	0	316
22.972	10.314	18276	14075	0	316
14.641	5.085	17852	13732	0	316
11.468	0.685	17429	13450	0	316
5.590	0.433	17146	13221	0	316
0.938	-3.426	16722	13046	0	316
-4.760	-8.078	16384	12924	0	316
-8.402	-13.054	16102	12856	0	316
-12.297	-15.759	15763	12833	0	316
-13.740	-19.437	15481	12856	0	316
-15.903	-17.562	15113	12901	0	316
-13.920	-17.743	14774	12985	0	316
-12.514	-16.048	14492	13107	0	316
-10.025	-16.084	14209	13267	0	316
-5.049	-11.504	13983	13450	0	316
-2.885	-6.599	13701	13663	0	316
-3.354	-2.849	13503	13900	0	316
-1.803	1.695	13277	14159	0	316
0.361	4.868	13079	14449	0	316
2.993	10.422	12995	14746	0	316
7.429	15.038	12797	15051	0	316
12.622	16.228	12797	15356	0	316
13.451	17.129	12656	15668	0	316
14.677	14.281	12712	16125	0	316
17.021	12.477	13221	17039	0	316
15.218	9.629	13644	18281	0	316
13.704	8.078	14125	19257	0	316
8.222	2.272	14548	19760	0	316
4.327	-0.649	14690	20012	0	316
0.144	-3.570	14916	20126	0	316
-0.144	-4.508	15113	20111	0	316
-0.144	-4.364	15198	19996	0	316
1.082	-3.714	15255	19791	0	316
5.914	-2.885	15339	19516	0	316
8.835	-0.433	15255	19188	0	316
11.432	1.947	15198	18823	0	316
12.622	2.236	15198	18441	0	316
12.730	4.580	15057	18053	0	316
10.710	6.239	14916	17656	0	316
13.523	8.402	14916	17291	0	316
15.975	12.225	14690	16963	0	316
16.985	13.740	14548	16673	0	316
18.247	13.091	14492	16437	0	316
16.589	13.018	14407	16255	0	316
15.723	9.520	14266	16102	0	316
12.982	7.609	14209	15981	0	316
9.665	6.203	14125	15874	0	316
6.744	3.498	14068	15759	0	316
3.173	1.551	13927	15660	0	316
-0.721	-0.397	13842	15599	0	316
-4.111	-2.957	13786	15569	0	316
-7.248	-6.527	13701	15546	0	316
-10.783	-7.681	13644	15531	0	316
-13.523	-10.133	13560	15546	0	316
-12.081	-10.314	13503	15584	0	316
-11.287	-7.681	13418	15645	0	316
-4.472	-5.698	13418	15721	0	316
0.829	-3.534	13362	15805	0	316
4.977	-1.803	13418	15897	0	316
7.321	1.515	13418	16003	0	316
9.340	4.977	13362	16133	0	316
11.468	12.369	13503	16255	0	316
14.821	18.933	13418	16377	0	316
20.303	21.745	13503	16444	0	316
23.909	23.152	13503	16490	0	316
25.965	24.991	13418	16513	0	316
29.318	24.883	13503	16536	0	316
30.761	24.666	13560	16574	0	316
32.420	26.866	13503	16620	0	316
29.571	26.866	13560	16688	0	316
23.657	26.181	13560	16757	0	316
18.824	24.450	13786	16986	0	316
12.910	22.142	14351	17664	0	316
12.225	18.320	15057	18685	0	316
13.415	19.654	15481	19463	0	316
13.992	22.250	15904	19806	0	316
13.235	25.388	16243	19912	0	316
9.953	24.775	16525	19890	0	316
6.563	20.700	16722	19730	0	316
6.780	15.218	16864	19478	0	316
10.891	11.107	17005	19166	0	316
14.569	11.828	17090	18792	0	316
19.798	13.595	17090	18373	0	316
20.375	19.978	17090	17931	0	316
19.618	21.818	17090	17489	0	316
16.156	24.342	17005	17062	0	316
16.697	24.053	16948	16650	0	316
14.245	23.152	16864	16255	0	316
15.759	24.342	16722	15889	0	316
18.356	24.955	16581	15546	0	316
23.080	26.073	16525	15241	0	316
25.279	26.686	16384	14982	0	316
24.198	26.902	16243	14753	0	316
18.897	21.637	16102	14578	0	316
11.756	16.733	15961	14441	0	316
4.508	10.638	15820	14349	0	316
0.685	5.986	15678	14288	0	316
-2.164	3.282	15481	14250	0	316
-2.452	0.757	15537	14388	0	316
-3.462	0.793	15904	15028	0	316
-5.121	-0.505	16384	16034	0	316
-7.248	-0.685	16722	16818	0	316
-9.088	-0.649	17005	17199	0	316
-9.701	-1.334	17146	17359	0	316
-7.501	-0.469	17287	17390	0	316
-3.137	-0.216	17372	17313	0	316
-0.721	3.101	17372	17169	0	316
2.164	3.137	17287	16986	0	316
3.462	2.885	17287	16757	0	316
3.390	1.803	17372	16666	0	316
4.436	1.803	17711	17031	0	316
3.534	3.534	18135	17755	0	316
5.734	4.652	18559	18274	0	316
9.196	7.321	18785	18388	0	316
12.441	11.323	18926	18304	0	316
16.012	13.307	19067	18091	0	316
16.877	15.615	19067	17755	0	316
9.592	11.540	18926	17359	0	316
3.246	4.075	18926	16932	0	316
-2.560	-2.921	18785	16490	0	316
-7.248	-7.717	18502	16057	0	316
-9.088	-9.809	18361	15622	0	316
-10.530	-10.350	18135	15226	0	316
-12.117	-12.658	17994	14868	0	316
-14.208	-16.120	17711	14563	0	316
-12.225	-14.641	17429	14311	0	316
-6.888	-12.550	17287	14090	0	316
-1.479	-5.770	16948	13884	0	316
1.767	-1.118	16666	13709	0	316
2.128	0.216	16440	13580	0	316
3.823	1.839	16243	13519	0	316
5.265	4.616	15961	13503	0	316
9.773	9.232	15763	13526	0	316
14.821	11.396	15537	13580	0	316
20.664	14.281	15481	13663	0	316
20.014	12.730	15198	13785	0	316
19.870	9.592	14972	13930	0	316
16.552	9.773	14774	14090	0	316
13.740	9.989	14690	14266	0	316
10.025	9.737	14548	14449	0	316
8.979	8.691	14407	14647	0	316
8.655	6.094	14209	14837	0	316
8.475	2.921	14125	15035	0	316
6.744	1.587	14068	15234	0	316
6.852	3.642	13927	15424	0	316
6.058	5.590	13927	15630	0	316
2.092	5.373	13842	15828	0	316
-3.029	1.262	13786	16011	0	316
-7.104	-4.508	13644	16171	0	316
-8.727	-7.681	13701	16324	0	316
-3.246	-6.816	13786	16635	0	316
6.671	-2.705	14209	17435	0	316
15.723	3.606	14831	18571	0	316
21.781	8.655	15339	19463	0	316
20.519	12.117	15678	19912	0	316
18.283	15.471	16046	20134	0	316
17.093	19.870	16328	20210	0	316
17.454	20.447	16440	20141	0	316
21.204	20.483	16581	19966	0	316
23.044	19.257	16722	19699	0	316
23.512	14.208	16807	19371	0	316
20.303	13.992	16722	19005	1	836
17.959	16.408	16807	18617	0	836
15.254	17.490	16722	18213	0	836
18.752	18.897	16666	17794	0	836
18.572	17.382	16581	17382	0	836
19.221	14.353	16440	16986	0	836
19.582	10.386	16328	16620	0	836
17.995	11.504	16243	16278	0	836
20.447	14.208	16102	15965	0	836
23.476	17.274	16102	15851	0	836
25.856	21.349	16440	16240	0	836
25.893	23.260	16864	17016	0	836
25.135	22.395	17231	17611	0	836
26.902	23.008	17513	17794	0	836
31.194	23.476	17711	17778	0	836
32.997	25.965	17796	17656	0	836
32.276	27.660	17852	17451	0	836
29.174	27.010	17796	17184	0	836
24.594	23.981	17796	16887	0	836
21.673	20.483	17711	16566	0	836
22.935	18.572	17655	16240	0	836
23.080	16.985	17429	15889	0	836
24.162	20.267	17287	15554	0	836
26.938	22.358	17146	15256	0	836
28.092	24.955	16948	14990	0	836
28.201	26.506	16807	14761	0	836
24.666	24.811	16581	14578	0	836
21.673	18.897	16440	14433	0	836
16.120	13.343	16243	14319	0	836
15.182	7.501	16046	14235	0	836
13.235	3.390	15961	14182	0	836
12.009	2.560	15820	14159	0	836
8.475	0.613	15622	14159	0	836
3.498	-2.633	15622	14349	0	836
0.108	-7.140	15904	15028	0	836
-4.327	-9.809	16525	16240	0	836
-4.039	-10.746	17287	17710	0	836
-1.046	-9.953	18078	19120	0	836
2.633	-7.285	18841	20073	0	836
4.616	-3.859	19350	20469	0	836
7.104	-1.875	19632	20530	0	836
6.635	-0.325	19971	20385	0	836
8.655	2.308	20112	20065	0	836
10.927	4.111	20254	19600	0	836
10.602	3.246	20197	19051	0	836
9.196	1.154	20197	18594	0	836
6.491	-1.046	20621	18571	0	836
5.301	-1.767	20960	18884	0	836
7.068	-0.469	21186	18967	0	836
10.855	4.904	21327	18632	0	836
12.694	8.150	21242	18114	0	836
15.975	7.465	21242	17519	0	836
11.756	4.291	21045	16871	0	836
10.530	-0.180	20819	16194	0	836
9.556	-1.983	20536	15493	0	836
8.222	-0.974	20112	14799	0	836
7.898	1.226	19773	14144	0	836
8.078	2.596	19491	13549	0	836
5.409	2.236	18926	13031	0	836
1.298	0.288	18559	12589	0	836
1.118	-0.577	18220	12238	0	836
3.895	0.685	17711	11971	0	836
7.825	2.272	17287	11788	0	836
10.855	4.436	16948	11667	0	836
14.208	5.265	16525	11621	0	836
14.064	7.645	16187	11644	0	836
15.507	9.917	15820	11727	0	836
16.516	15.110	15622	11865	0	836
17.562	16.480	15198	12048	0	836
17.959	18.860	14916	12269	0	836
13.307	16.048	14633	12535	0	836
10.133	8.583	14407	12840	0	836
3.606	4.724	14266	13191	0	836
0.865	-0.072	14068	13564	0	836
-0.577	-1.479	13927	13938	0	836
2.164	-0.036	13786	14296	0	836
4.183	1.046	13644	14639	0	836
4.436	1.010	13560	15127	0	836
0.252	-0.721	14068	16072	0	836
-3.859	-2.596	14492	17344	1	316
-7.032	-4.327	14831	18380	0	316
-7.248	-4.111	15198	18975	0	316
-4.977	-2.993	15481	19326	0	316
-4.724	-2.092	15622	19524	0	316
-6.239	-2.705	15763	19577	0	316
-5.409	-3.318	15820	19509	0	316
-5.554	-2.092	15961	19341	0	316
-2.272	1.082	15904	19120	0	316
2.777	4.255	15820	18868	0	316
6.419	6.167	15763	18601	0	316
7.825	5.013	15678	18319	0	316
8.330	5.517	15622	18037	0	316
8.330	7.104	15622	17763	0	316
7.898	9.701	15481	17504	0	316
7.862	13.631	15396	17260	0	316
11.107	16.733	15255	17031	0	316
14.028	15.903	15255	16818	0	316
15.615	16.769	15113	16605	0	316
18.644	14.497	14972	16399	0	316
15.651	12.838	14831	16217	0	316
15.507	12.369	14774	16026	0	316
13.559	10.566	14633	15866	0	316
15.507	12.946	14492	15744	0	316
15.903	13.163	14351	15668	0	316
16.661	12.441	14266	15622	0	316
15.471	13.379	14266	15607	0	316
10.963	12.946	14125	15615	0	316
11.792	11.215	13983	15622	0	316
13.776	14.425	13983	15622	0	316
16.985	17.526	13927	15638	0	316
22.611	23.044	13786	15683	0	316
26.361	26.866	13786	15744	0	316
28.309	29.968	13786	15820	0	316
30.508	32.239	13701	15897	0	316
31.158	32.889	13701	15981	0	316
31.626	33.285	13644	16057	0	316
31.230	32.961	13560	16118	0	316
30.797	31.735	13560	16171	0	316
32.023	31.843	13560	16224	0	316
33.285	31.590	13503	16285	0	316
31.554	32.600	13503	16339	0	316
28.850	32.889	13560	16384	0	316
24.234	28.309	13418	16429	0	316
20.087	22.286	13560	16505	0	316
16.372	16.733	13503	16589	0	316
16.372	10.025	13503	16681	0	316
14.064	7.862	13644	16780	0	316
13.091	9.520	13644	16871	0	316
9.845	10.999	13701	16948	0	316
7.609	11.937	13786	17039	0	316
5.914	11.071	13786	17123	0	316
7.357	11.323	13927	17191	0	316
9.448	11.720	13983	17214	0	316
11.468	13.487	13983	17214	0	316
12.117	15.362	14125	17359	0	316
11.684	14.208	14690	17954	0	316
11.107	13.848	15255	18884	0	316
11.360	13.523	15904	19569	0	316
12.802	13.776	16243	19836	0	316
12.658	14.100	16722	20050	0	316
9.737	11.071	17429	20614	0	316
9.881	8.907	18361	21551	0	316
7.898	7.970	19491	22618	0	316
7.717	7.393	20480	23510	0	316
8.186	7.140	21327	23906	0	316
9.340	6.744	21892	23739	0	316
8.943	4.940	22372	23236	0	316
7.176	2.164	22655	22496	0	316
5.626	2.416	22881	21589	0	316
2.957	1.442	22881	20560	0	316
-0.974	0.288	22739	19470	0	316
-2.056	-0.938	22655	18327	0	316
-4.183	-3.101	22372	17199	0	316
-1.515	-3.246	22174	16110	0	316
2.741	-0.865	21751	15074	0	316
10.530	6.924	21384	14106	0	316
20.375	17.815	21045	13229	0	316
23.909	26.217	20480	12444	0	316
26.109	31.699	20056	11766	1	316
26.578	31.915	19547	11186	0	316
26.758	29.931	19067	10706	0	316
28.309	30.508	18643	10317	0	316
28.381	30.905	18135	10051	0	316
26.506	29.679	17711	9906	0	316
25.388	24.775	17287	9868	0	316
23.512	16.805	16864	9929	0	316
25.279	12.225	16525	10058	0	316
25.748	8.727	16187	10272	0	316
24.594	6.094	15820	10546	0	316
21.313	4.832	15622	10874	0	316
21.096	3.714	15339	11255	0	316
20.339	2.380	15057	11659	0	316
21.421	5.049	14831	12086	0	316
24.955	9.052	14633	12520	0	316
22.250	9.196	14633	13107	0	316
19.942	9.448	15057	14159	0	316
18.933	7.393	15339	15561	0	316
16.372	6.203	15820	16856	0	316
17.959	5.590	16525	18182	0	316
18.933	7.357	17287	19623	0	316
22.791	10.674	17937	20675	0	316
25.856	16.264	18361	21170	0	316
33.754	19.834	18785	21345	0	316
42.445	25.820	19067	21307	0	316
45.907	29.210	19067	21048	0	316
46.015	31.879	19208	20644	0	316
40.750	31.554	19208	20134	0	316
33.682	28.850	18982	19554	0	316
28.453	27.155	18926	18929	0	316
28.381	24.883	18785	18297	0	316
29.968	24.053	18502	17672	0	316
32.925	23.801	18276	17077	0	316
33.970	21.601	18078	16505	0	316
30.112	15.867	17711	15988	0	316
23.585	12.477	17513	15523	0	316
18.356	7.609	17231	15104	0	316
12.910	6.960	17005	14906	0	316
11.612	7.357	17287	15211	0	316
12.550	10.674	17513	15912	0	316
9.520	12.405	17711	16422	0	316
7.032	9.304	17852	16559	0	316
5.265	8.258	17796	16528	0	316
3.859	6.311	17711	16429	0	316
5.950	8.655	17711	16270	0	316
5.085	11.035	17570	16064	0	316
2.921	12.694	17429	15828	0	316
-2.272	10.206	17287	15584	0	316
-5.878	4.003	17005	15348	0	316
-4.472	2.705	16807	15119	0	316
0.902	3.931	16581	14906	0	316
5.878	5.770	16384	14738	0	316
8.222	8.943	16187	14586	0	316
5.878	8.799	15904	14449	0	316
1.298	5.662	15622	14334	0	316
-2.056	1.839	15481	14243	0	316
-4.868	-2.885	15198	14182	0	316
-6.419	-8.042	14916	14144	0	316
-7.285	-11.576	14774	14151	0	316
-9.160	-14.894	14492	14197	0	316
-10.602	-17.418	14266	14281	0	316
-12.225	-16.084	14266	14548	0	316
-14.064	-16.300	14633	15295	0	316
-14.930	-15.254	14972	16384	0	316
-17.634	-16.985	15255	17268	0	316
-17.021	-15.723	15537	17748	0	316
-17.093	-15.651	15904	18159	0	316
-12.694	-10.783	16440	18914	0	316
-9.845	-5.950	17090	19890	0	316
-5.950	-0.397	17570	20537	0	316
-2.885	2.200	17937	20690	0	316
-4.580	3.246	18135	20583	0	316
-6.744	3.390	18276	20316	0	316
-8.475	2.633	18559	20073	0	316
-11.900	0.613	18982	20202	0	316
-12.658	-1.731	19491	20598	0	316
-12.297	-4.255	19830	20705	0	316
-11.828	-4.688	19971	20377	0	316
-8.114	-3.029	20112	19844	0	316
-6.491	-0.793	20056	19219	0	316
-4.183	0.144	20056	18502	0	316
-1.370	-0.288	19773	17740	0	316
-0.072	-0.974	19689	16955	0	316
-0.036	-1.803	19350	16194	0	316
0.108	-0.397	18982	15439	0	316
-0.902	1.226	18643	14731	0	316
-1.082	1.262	18276	14090	0	316
-1.370	1.118	18078	13686	0	316
-1.226	2.056	18078	13824	0	316
0.000	4.003	18361	14380	0	316
0.793	6.275	18361	14799	0	316
2.813	9.881	18417	14875	0	316
7.176	10.314	18361	14974	0	316
14.533	12.730	18841	15477	0	316
19.221	17.202	19208	16278	0	316
24.053	22.214	19350	16780	0	316
23.008	26.037	19491	16856	0	316
19.690	26.794	19547	16711	0	316
12.514	22.286	19406	16452	0	316
9.809	14.821	19265	16110	0	316
6.924	9.989	19067	15706	0	316
6.816	7.285	18785	15279	0	316
4.039	4.724	18502	14852	0	316
1.298	1.875	18220	14433	0	316
-1.695	-0.216	17796	14029	0	316
-3.859	-2.236	17372	13656	0	316
-0.938	-1.947	17090	13343	0	316
1.551	0.469	16807	13237	0	316
2.560	1.334	16864	13656	0	316
2.019	0.757	17090	14479	0	316
-0.685	-1.803	17146	15119	0	316
-4.327	-3.426	17146	15378	0	316
-3.462	-3.678	17146	15477	0	316
-2.957	-1.623	16948	15493	0	316
-0.613	0.541	17005	15592	0	316
1.046	3.029	17287	16110	0	316
3.354	5.481	17570	16940	0	316
6.058	7.609	17852	17542	0	316
10.242	8.835	17937	17702	0	316
12.297	10.350	17994	17634	0	316
10.602	9.556	17937	17451	0	316
7.393	5.590	17796	17169	0	316
2.560	2.308	17570	16833	0	316
0.649	0.072	17372	16452	0	316
1.010	-0.757	17090	16049	0	316
0.541	-1.154	16807	15630	0	316
-0.577	-2.308	16440	15226	0	316
-1.262	-4.868	16187	14868	0	316
-0.685	-8.114	15820	14563	0	316
0.721	-9.412	15481	14311	0	316
0.505	-11.035	15113	14106	0	316
-0.325	-13.884	14916	13961	0	316
-3.210	-13.704	14633	14014	0	316
-4.724	-13.920	14774	14578	0	316
-2.741	-10.278	15113	15546	0	316
-0.721	-6.058	15255	16316	0	316
1.839	-2.596	15481	16696	0	316
4.400	0.325	15481	16894	0	316
6.491	2.669	15481	16986	0	316
8.619	6.527	15396	16978	0	316
11.071	9.845	15339	16902	0	316
11.612	9.160	15255	16787	0	316
10.963	6.996	15113	16643	0	316
6.744	2.633	14972	16483	0	316
3.318	-0.865	14916	16308	0	316
1.226	-2.849	14633	16133	0	316
0.505	0.469	14407	15965	0	316
1.010	1.875	14266	15820	0	316
0.685	1.623	14068	15699	0	316
-0.577	-0.108	13842	15599	0	316
-1.442	-1.010	13701	15500	0	316
1.226	-1.046	13503	15417	0	316
3.750	1.479	13277	15371	0	316
5.950	3.642	13136	15348	0	316
5.337	2.056	13079	15363	0	316
0.902	-2.380	12938	15546	0	316
-2.633	-5.265	13362	16217	0	316
-4.544	-6.239	13786	17252	0	316
-3.173	-3.354	14209	18076	0	316
2.957	2.200	14492	18487	0	316
9.809	8.078	14690	18678	0	316
17.346	14.966	14774	18754	0	316
20.555	16.841	14916	18708	0	316
20.375	17.057	14972	18571	0	316
18.175	18.788	14972	18380	0	316
14.281	14.497	15057	18129	0	316
9.881	16.228	14916	17839	0	316
8.727	12.477	14831	17534	0	316
6.852	10.386	14774	17222	0	316
7.537	8.042	14633	16925	0	316
9.809	8.294	14633	16643	0	316
14.245	11.828	14407	16399	0	316
18.500	17.562	14266	16194	0	316
26.145	21.060	14125	16003	0	316
30.977	25.929	14125	15836	0	316
32.672	27.407	13927	15699	0	316
30.545	26.974	13842	15592	0	316
26.470	25.099	13786	15516	0	316
25.676	23.440	13644	15470	0	316
29.210	25.496	13560	15455	0	316
33.718	29.391	13503	15462	0	316
37.468	34.872	13362	15485	0	316
37.396	39.272	13503	15660	0	316
39.524	40.389	13983	16316	0	316
43.166	42.120	14407	17336	0	316
47.602	44.176	14831	18129	0	316
49.297	45.943	15198	18495	0	316
49.333	46.628	15396	18655	0	316
45.041	45.438	15763	18685	0	316
41.003	41.976	15763	18594	0	316
