neuroNicle FX2
D3F25R12
Bluetooth SPP
2023년 3월 28일 화요일
오후 1:13
time interval = 4msec
EEG1	EEG2	PPG	sdPPG	pulse	peak_interval(msec)
-40.245	-35.701	16360	15464	0	756
-39.632	-39.488	16358	15512	0	756
-37.432	-41.435	16354	15421	0	756
-36.170	-40.245	16351	15230	0	756
-33.862	-35.233	16348	15104	0	756
-29.643	-27.948	16345	15108	0	756
-29.174	-27.155	16342	15200	0	756
-33.141	-33.069	16341	15343	0	756
-36.314	-42.445	16339	15499	0	756
-37.505	-47.277	16336	15556	0	756
-37.505	-46.015	16334	15521	0	756
-32.853	-38.009	16331	15516	0	756
-28.814	-28.020	16329	15590	0	756
-29.859	-23.440	16326	15686	0	756
-31.590	-26.145	16324	15716	0	756
-34.908	-32.276	16322	15690	0	756
-36.819	-39.416	16319	15733	0	756
-37.432	-45.078	16318	15890	0	756
-39.849	-47.854	16318	16111	0	756
-42.301	-48.792	16316	16319	0	756
-44.645	-47.025	16315	16457	0	756
-43.094	-40.642	16314	16570	0	756
-38.622	-33.105	16313	16700	0	756
-31.879	-26.650	16313	16835	0	756
-27.047	-27.696	16312	16913	0	756
-26.686	-32.961	16311	16904	0	756
-28.922	-39.127	16309	16883	0	756
-34.115	-41.724	16309	16913	0	756
-37.541	-41.543	16308	16974	0	756
-38.947	-41.471	16307	17022	0	756
-37.577	-42.265	16306	17009	0	756
-34.656	-46.304	16305	16974	0	756
-31.662	-45.078	16304	16965	0	756
-29.715	-41.471	16304	17035	0	756
-26.866	-37.288	16303	17147	0	756
-27.299	-35.629	16303	17217	0	756
-27.299	-37.432	16304	17243	0	756
-28.814	-40.678	16303	17278	0	756
-31.807	-43.419	16304	17369	0	756
-32.780	-40.281	16304	17503	0	756
-33.718	-36.495	16305	17603	0	756
-34.944	-33.790	16306	17651	0	756
-36.134	-34.187	16306	17720	0	756
-36.278	-36.855	16309	17885	0	756
-34.692	-41.652	16310	18137	0	756
-32.672	-45.835	16313	18376	0	756
-32.600	-46.376	16316	18597	0	756
-34.764	-48.287	16319	18827	0	756
-37.829	-44.104	16323	19114	0	756
-37.541	-39.055	16327	19439	0	756
-34.583	-31.266	16332	19734	0	756
-28.850	-26.722	16336	19916	0	756
-26.830	-26.938	16340	19990	0	756
-27.732	-31.049	16343	19995	0	756
-32.023	-35.918	16348	19969	0	756
-35.377	-37.180	16351	19990	0	756
-35.521	-37.757	16356	20086	0	756
-32.348	-38.695	16362	20207	0	756
-30.220	-40.101	16367	20324	0	756
-27.335	-39.524	16373	20494	0	756
-26.830	-34.980	16381	20841	0	756
-26.037	-27.660	16388	21323	0	756
-28.381	-25.640	16397	21726	0	756
-28.705	-29.246	16404	21913	0	756
-29.030	-37.468	16412	21922	0	756
-28.128	-42.229	16419	21883	0	756
-25.027	-44.717	16427	21857	0	756
-23.512	-42.229	16434	21839	1	792
-25.424	-40.173	16442	21770	0	792
-28.453	-38.082	16449	21614	0	792
-31.266	-36.783	16455	21414	0	792
-31.230	-33.321	16462	21197	0	792
-30.184	-30.148	16468	20936	0	792
-29.138	-33.466	16474	20598	0	792
-29.859	-37.541	16479	20147	0	792
-28.669	-42.048	16484	19639	0	792
-28.237	-44.320	16488	19170	0	792
-29.030	-41.435	16492	18745	0	792
-32.095	-36.928	16496	18285	0	792
-35.341	-35.774	16499	17746	0	792
-39.272	-37.649	16501	17199	0	792
-40.101	-42.409	16503	16718	0	792
-39.308	-44.284	16506	16358	0	792
-39.560	-46.015	16509	16098	0	792
-39.091	-42.625	16512	15859	0	792
-37.108	-40.389	16513	15573	0	792
-32.708	-35.052	16516	15265	0	792
-27.227	-29.823	16517	15013	0	792
-26.145	-26.614	16520	14852	0	792
-29.715	-27.047	16521	14666	0	792
-36.314	-33.033	16520	14301	0	792
-41.832	-37.721	16519	13806	0	792
-41.435	-42.589	16519	13424	0	792
-36.747	-39.488	16518	13220	0	792
-29.138	-35.160	16517	13086	0	792
-27.263	-33.285	16517	12986	0	792
-27.443	-34.043	16517	12930	0	792
-30.725	-37.252	16516	12908	0	792
-32.780	-38.911	16516	12904	0	792
-33.574	-35.016	16515	12917	0	792
-33.934	-28.994	16515	12982	0	792
-35.233	-26.578	16513	13073	0	792
-36.964	-25.568	16512	13086	0	792
-39.127	-31.158	16511	13029	0	792
-37.937	-37.865	16510	13034	0	792
-35.449	-38.947	16508	13147	0	792
-32.456	-37.396	16508	13294	0	792
-30.220	-33.862	16506	13455	0	792
-31.158	-30.833	16505	13624	0	792
-32.600	-31.049	16504	13802	0	792
-34.043	-33.177	16504	14032	0	792
-31.302	-35.160	16504	14323	0	792
-29.354	-35.774	16504	14588	0	792
-27.119	-35.233	16503	14740	0	792
-27.335	-32.816	16502	14809	0	792
-28.994	-32.312	16500	14818	0	792
-30.004	-31.085	16499	14796	0	792
-31.699	-31.266	16497	14796	0	792
-31.879	-33.033	16495	14818	0	792
-33.646	-34.944	16493	14861	0	792
-35.593	-36.747	16492	14978	0	792
-35.305	-37.360	16492	15174	0	792
-33.934	-36.062	16491	15373	0	792
-34.223	-34.764	16491	15521	0	792
-35.088	-33.718	16490	15651	0	792
-36.711	-33.502	16489	15829	0	792
-38.118	-34.151	16490	16076	0	792
-37.216	-34.403	16491	16358	0	792
-36.278	-33.141	16491	16579	0	792
-35.737	-33.862	16491	16726	0	792
-38.154	-37.432	16491	16844	0	792
-40.570	-41.688	16492	17000	0	792
-42.012	-46.304	16493	17178	0	792
-40.389	-45.546	16493	17265	0	792
-36.387	-41.399	16492	17221	0	792
-35.557	-36.928	16492	17082	0	792
-33.357	-35.737	16490	16861	0	792
-35.846	-37.721	16487	16501	0	792
-37.360	-39.560	16484	16063	0	792
-38.622	-35.521	16480	15603	0	792
-38.658	-30.581	16477	15161	0	792
-37.793	-26.397	16473	14852	0	792
-37.649	-30.220	16470	14727	0	792
-38.226	-39.776	16468	14683	0	792
-39.344	-48.179	16465	14666	0	792
-38.009	-53.768	16463	14687	0	792
-37.324	-50.920	16461	14744	0	792
-35.233	-48.720	16459	14818	0	792
-32.744	-47.674	16458	14883	0	792
-33.213	-47.241	16455	14944	0	792
-34.872	-50.018	16453	14970	0	792
-35.485	-49.297	16450	14878	0	792
-34.475	-50.307	16446	14709	0	792
-33.249	-47.962	16443	14609	0	792
-28.020	-45.366	16441	14627	0	792
-25.784	-44.032	16438	14713	0	792
-24.522	-42.734	16436	14787	0	792
-26.974	-44.609	16433	14796	0	792
-30.761	-46.520	16430	14796	0	792
-32.961	-47.241	16427	14848	0	792
-32.492	-45.005	16425	14961	0	792
-29.174	-41.652	16423	15091	0	792
-25.496	-41.147	16420	15178	0	792
-23.621	-44.212	16418	15226	0	792
-26.109	-46.412	16416	15269	0	792
-29.427	-45.618	16413	15338	0	792
-31.699	-40.534	16412	15430	0	792
-31.446	-34.115	16409	15495	0	792
-30.869	-31.338	16407	15556	0	792
-30.004	-35.593	16405	15660	0	792
-33.177	-40.606	16404	15816	0	792
-35.701	-48.612	16401	15942	0	792
-36.567	-49.044	16400	15972	0	792
-36.026	-46.484	16397	15933	0	792
-33.429	-44.392	16395	15907	0	792
-32.564	-40.173	16393	15981	0	792
-35.269	-39.452	16392	16159	0	792
-38.839	-40.426	16391	16328	0	792
-40.029	-42.012	16390	16440	0	792
-36.711	-41.435	16389	16574	0	792
-32.095	-37.396	16389	16748	0	792
-27.443	-34.908	16388	16909	0	792
-27.443	-32.744	16387	16987	0	792
-31.518	-31.374	16387	17000	0	792
-34.547	-30.977	16385	17000	0	792
-33.033	-29.174	16384	17000	0	792
-29.138	-28.489	16384	16969	0	792
-26.037	-29.535	16382	16874	0	792
-29.354	-33.718	16381	16739	0	792
-33.357	-36.062	16380	16635	0	792
-37.288	-36.423	16378	16579	0	792
-37.721	-33.862	16377	16605	0	792
-33.898	-31.410	16377	16757	0	792
-31.446	-33.970	16377	16922	0	792
-32.095	-36.675	16376	16922	0	792
-33.826	-38.009	16375	16805	0	792
-33.429	-33.393	16374	16726	0	792
-29.427	-25.748	16374	16774	0	792
-21.096	-15.182	16374	16900	0	792
-15.002	-11.504	16373	16913	0	792
-9.737	-12.658	16371	16705	0	792
-10.855	-19.005	16368	16380	0	792
-15.543	-23.332	16366	16081	0	792
-19.762	-26.073	16364	15872	0	792
-25.316	-25.027	16361	15729	0	792
-29.210	-25.820	16359	15577	0	792
-30.256	-27.407	16356	15369	0	792
-28.741	-30.869	16353	15161	0	792
-25.171	-31.879	16350	15026	0	792
-21.204	-32.384	16348	14978	0	792
-18.644	-29.715	16345	14952	0	792
-20.375	-30.328	16342	14870	0	792
-25.063	-30.148	16339	14757	0	792
-26.758	-28.741	16336	14674	0	792
-29.535	-28.020	16334	14661	0	792
-30.436	-28.056	16331	14683	0	792
-30.328	-29.282	16328	14674	0	792
-29.607	-33.069	16325	14640	0	792
-28.850	-35.305	16322	14614	0	792
-26.506	-32.023	16318	14579	0	792
-25.965	-26.650	16314	14496	0	792
-27.371	-23.801	16312	14414	0	792
-29.679	-22.322	16308	14405	0	792
-31.843	-26.289	16306	14496	0	792
-32.312	-28.489	16303	14692	0	792
-29.751	-27.840	16301	14939	0	792
-29.354	-23.368	16300	15169	0	792
-30.148	-19.942	16298	15373	0	792
-33.285	-19.942	16297	15560	0	792
-37.541	-23.080	16294	15703	0	792
-41.327	-30.833	16292	15790	0	792
-41.435	-34.728	16290	15855	0	792
-38.009	-33.502	16289	15933	0	792
-34.944	-28.056	16287	16050	0	792
-33.213	-19.978	16286	16211	0	792
-31.302	-14.749	16285	16392	0	792
-32.672	-14.353	16284	16557	0	792
-31.158	-18.897	16284	16705	0	792
-28.201	-21.132	16283	16822	0	792
-25.352	-22.142	16281	16852	0	792
-21.565	-18.824	16280	16831	0	792
-20.555	-13.163	16279	16878	0	792
-18.247	-4.580	16279	17065	0	792
-18.933	0.216	16280	17334	0	792
-17.670	9.881	16281	17586	0	792
-17.202	18.247	16282	17824	0	792
-11.287	25.243	16284	18172	0	792
-0.072	35.160	16288	18653	0	792
16.084	43.924	16292	19222	0	792
32.816	50.631	16297	19808	0	792
45.438	54.526	16303	20372	0	792
53.624	61.774	16310	20967	0	792
60.332	70.465	16318	21631	0	792
66.102	83.628	16326	22278	0	792
72.268	98.269	16334	22803	0	792
76.379	106.203	16343	23185	0	792
75.153	103.246	16351	23489	0	792
71.223	95.817	16360	23792	0	792
66.210	86.873	16370	24087	0	792
58.240	82.005	16379	24313	0	792
46.195	75.514	16387	24422	0	792
35.233	62.640	16396	24430	0	792
23.837	45.041	16406	24396	0	792
18.500	28.381	16415	24322	0	792
19.401	20.411	16424	24144	0	792
17.346	17.887	16431	23810	0	792
12.153	18.969	16439	23367	1	796
2.164	11.468	16445	22907	0	796
-8.150	1.046	16454	22486	0	796
-13.343	-10.746	16460	22074	0	796
-18.031	-19.401	16467	21566	0	796
-21.890	-24.775	16472	20989	0	796
-29.138	-30.328	16478	20433	0	796
-37.360	-37.396	16483	19908	0	796
-44.356	-44.356	16488	19357	0	796
-49.369	-52.110	16492	18727	0	796
-57.014	-59.899	16495	18055	0	796
-62.243	-65.380	16498	17412	0	796
-65.994	-67.941	16500	16809	0	796
-66.534	-69.131	16503	16246	0	796
-62.856	-67.256	16504	15703	0	796
-60.332	-67.292	16506	15200	0	796
-59.899	-69.600	16507	14709	0	796
-63.613	-73.386	16507	14206	0	796
-67.761	-76.704	16507	13707	0	796
-70.069	-80.022	16506	13286	0	796
-71.331	-78.832	16506	12934	0	796
-68.842	-78.471	16506	12582	0	796
-64.984	-76.307	16503	12170	0	796
-64.587	-74.540	16501	11758	0	796
-63.289	-77.028	16500	11493	0	796
-63.649	-78.182	16498	11419	0	796
-62.712	-79.373	16497	11441	0	796
-61.486	-79.733	16495	11432	0	796
-59.070	-77.028	16493	11367	0	796
-59.935	-79.553	16491	11354	0	796
-60.620	-80.202	16490	11450	0	796
-61.955	-81.500	16488	11619	0	796
-62.495	-83.339	16487	11788	0	796
-62.604	-81.428	16484	11914	0	796
-62.243	-79.913	16483	12040	0	796
-59.178	-78.327	16481	12240	0	796
-55.644	-77.605	16479	12517	0	796
-54.850	-75.766	16478	12773	0	796
-51.244	-73.170	16476	12947	0	796
-49.838	-71.547	16474	13121	0	796
-47.638	-65.705	16473	13372	0	796
-46.664	-60.079	16472	13676	0	796
-46.051	-58.096	16471	13989	0	796
-45.618	-56.798	16470	14284	0	796
-45.330	-60.151	16470	14566	0	796
-43.815	-59.394	16469	14861	0	796
-40.930	-58.168	16469	15187	0	796
-39.885	-56.617	16469	15512	0	796
-40.930	-52.362	16468	15786	0	796
-42.697	-53.552	16468	16016	0	796
-45.835	-52.687	16469	16250	0	796
-47.458	-53.696	16469	16518	0	796
-46.412	-48.431	16470	16805	0	796
-43.563	-44.104	16471	17030	0	796
-37.396	-37.108	16471	17169	0	796
-31.374	-30.040	16471	17278	0	796
-28.777	-26.938	16472	17390	0	796
-23.224	-24.053	16473	17469	0	796
-16.372	-16.697	16472	17495	0	796
-8.583	-6.167	16472	17477	0	796
5.265	9.232	16473	17456	0	796
20.339	24.522	16473	17421	0	796
32.131	33.538	16472	17343	0	796
42.481	39.776	16471	17195	0	796
48.215	49.116	16471	17004	0	796
53.624	58.024	16469	16778	0	796
58.168	70.032	16467	16514	0	796
65.200	80.851	16465	16237	0	796
74.901	85.503	16464	16085	0	796
81.680	91.561	16463	16107	0	796
88.568	97.728	16462	16102	0	796
94.771	106.203	16460	15881	0	796
98.846	110.061	16457	15512	0	796
99.423	109.412	16454	15174	0	796
99.567	105.662	16451	14939	0	796
97.259	103.859	16448	14731	0	796
91.345	104.364	16443	14462	0	796
82.257	102.849	16439	14167	0	796
73.747	97.944	16436	13967	0	796
64.299	87.378	16433	13902	0	796
59.250	77.894	16430	13941	0	796
55.968	74.180	16427	14015	0	796
54.634	76.632	16424	14049	0	796
49.261	82.185	16421	14080	0	796
46.340	81.717	16419	14167	0	796
44.032	78.182	16417	14323	0	796
40.966	69.708	16414	14505	0	796
35.990	62.135	16412	14666	0	796
26.758	57.122	16410	14809	0	796
17.418	54.598	16409	14957	0	796
10.674	53.264	16406	15139	0	796
11.071	53.011	16405	15325	0	796
12.009	51.893	16403	15456	0	796
11.071	56.004	16401	15516	0	796
9.484	56.762	16399	15516	0	796
6.960	54.959	16395	15534	0	796
3.101	48.864	16394	15634	0	796
1.154	43.310	16392	15755	0	796
0.000	38.406	16391	15833	0	796
-0.902	39.055	16388	15911	0	796
0.757	42.553	16387	16037	0	796
3.498	44.284	16386	16202	0	796
2.524	43.924	16385	16380	0	796
-3.210	39.740	16385	16527	0	796
-11.287	35.124	16384	16618	0	796
-16.156	28.309	16383	16618	0	796
-17.706	25.604	16381	16553	0	796
-14.497	21.349	16379	16466	0	796
-10.350	20.267	16376	16376	0	796
-12.261	18.500	16375	16280	0	796
-15.939	13.451	16372	16167	0	796
-22.575	7.862	16370	16037	0	796
-25.171	3.462	16367	15916	0	796
-28.417	-0.577	16365	15816	0	796
-29.391	-0.505	16361	15707	0	796
-30.977	0.325	16357	15512	0	796
-34.331	0.325	16355	15256	0	796
-35.233	-1.118	16351	15069	0	796
-38.695	-3.967	16348	15026	0	796
-39.921	-7.934	16345	15043	0	796
-42.517	-8.979	16342	15009	0	796
-41.760	-9.232	16338	14896	0	796
-37.144	-5.590	16334	14787	0	796
-30.869	0.397	16331	14696	0	796
-27.155	4.688	16327	14618	0	796
-26.361	5.626	16324	14609	0	796
-25.929	1.911	16321	14670	0	796
-27.696	-3.606	16318	14774	0	796
-29.066	-7.176	16316	14935	0	796
-31.518	-9.412	16315	15200	0	796
-36.206	-10.674	16313	15512	0	796
-39.560	-10.891	16312	15777	0	796
-40.534	-11.107	16312	16007	0	796
-38.226	-13.127	16310	16233	0	796
-38.298	-13.812	16309	16453	0	796
-39.704	-15.110	16308	16653	0	796
-40.750	-20.591	16308	16822	0	796
-43.924	-22.755	16307	16991	0	796
-45.078	-24.847	16308	17208	0	796
-46.556	-25.279	16308	17482	0	796
-47.818	-23.837	16309	17764	0	796
-46.989	-24.522	16309	17955	0	796
-44.248	-23.549	16310	18024	0	796
-40.750	-23.981	16310	18046	0	796
-39.596	-22.755	16311	18076	0	796
-40.101	-24.486	16311	18107	0	796
-40.894	-22.286	16311	18085	0	796
-41.580	-22.070	16311	18033	0	796
-38.154	-20.772	16312	18002	0	796
-32.889	-16.084	16312	17989	0	796
-28.453	-15.002	16312	17976	0	796
-24.089	-14.208	16312	17898	0	796
-24.089	-16.769	16310	17651	0	796
-27.155	-17.418	16309	17239	0	796
-30.112	-19.726	16306	16848	0	796
-31.013	-17.310	16305	16566	0	796
-29.066	-17.598	16302	16332	0	796
-23.657	-15.326	16301	16102	0	796
-19.077	-14.208	16298	15825	0	796
-17.743	-10.025	16293	15338	0	796
-15.903	-4.940	16289	14718	0	796
-18.933	-0.974	16284	14266	0	796
-19.293	0.541	16282	14088	0	796
-21.998	-2.092	16278	14054	0	796
-21.673	-4.147	16275	14041	0	796
-21.890	-7.357	16272	14071	0	796
-19.329	-6.996	16272	14249	0	796
-15.218	-6.635	16272	14648	0	796
-13.956	-5.878	16273	15230	0	796
-15.687	-5.157	16275	15864	0	796
-15.579	-6.671	16277	16457	0	796
-16.516	-10.025	16280	17087	0	796
-10.927	-9.845	16284	17807	0	796
-6.347	-7.825	16290	18597	0	796
-4.147	-5.229	16296	19370	0	796
-8.006	-5.373	16302	20055	0	796
-12.441	-11.576	16309	20654	0	796
-18.824	-21.204	16315	21175	0	796
-17.923	-27.155	16321	21509	0	796
-15.435	-28.633	16326	21640	0	796
-13.992	-21.493	16331	21709	0	796
-13.631	-18.320	16337	21835	0	796
-17.490	-18.211	16344	22035	0	796
-21.709	-21.277	16351	22304	0	796
-25.929	-27.263	16359	22581	0	796
-25.063	-26.289	16367	22764	0	796
-19.401	-25.316	16375	22842	0	796
-14.208	-22.034	16382	22872	0	796
-8.114	-20.411	16389	22890	0	796
-7.537	-21.637	16397	22851	0	796
-13.704	-23.909	16404	22686	0	796
-20.916	-23.188	16411	22412	0	796
-27.479	-23.549	16417	22108	0	796
-28.561	-25.820	16424	21844	1	772
-25.207	-24.558	16430	21596	0	772
-22.431	-26.145	16437	21284	0	772
-22.467	-27.083	16442	20893	0	772
-26.109	-28.633	16448	20468	0	772
-31.194	-30.833	16452	20029	0	772
-37.685	-35.810	16458	19569	0	772
-39.921	-39.235	16461	19079	0	772
-42.157	-39.596	16466	18597	0	772
-39.812	-39.235	16469	18115	0	772
-35.557	-34.295	16471	17573	0	772
-28.345	-28.705	16474	17043	0	772
-24.162	-21.277	16478	16731	0	772
-23.188	-19.149	16482	16614	0	772
-23.188	-16.444	16484	16345	0	772
-24.991	-17.959	16484	15716	0	772
-27.876	-16.949	16484	14948	0	772
-29.391	-16.913	16484	14423	0	772
-31.410	-13.704	16484	14123	0	772
-31.518	-14.713	16482	13611	0	772
-31.122	-14.821	16479	12778	0	772
-28.922	-19.906	16475	11979	0	772
-29.174	-22.827	16471	11476	0	772
-29.787	-25.316	16469	11220	0	772
-29.607	-26.289	16467	11133	0	772
-31.122	-21.601	16465	11102	0	772
-29.282	-18.067	16462	11072	0	772
-26.361	-13.523	16461	11111	0	772
-24.811	-10.927	16459	11311	0	772
-22.755	-11.035	16459	11623	0	772
-23.657	-10.927	16457	11940	0	772
-29.030	-14.858	16456	12192	0	772
-33.285	-15.831	16455	12439	0	772
-33.610	-17.923	16454	12739	0	772
-31.843	-16.444	16454	13095	0	772
-30.653	-18.031	16453	13446	0	772
-28.633	-16.913	16453	13750	0	772
-29.354	-18.536	16452	14023	0	772
-27.119	-15.651	16452	14336	0	772
-22.935	-12.874	16453	14722	0	772
-18.500	-7.934	16453	15113	0	772
-17.129	-7.537	16454	15399	0	772
-21.096	-9.809	16454	15599	0	772
-25.099	-14.245	16453	15781	0	772
-28.417	-13.848	16454	15998	0	772
-27.624	-11.792	16454	16233	0	772
-27.227	-10.963	16454	16427	0	772
-21.926	-9.304	16455	16570	0	772
-20.339	-8.006	16455	16692	0	772
-16.156	-8.330	16456	16818	0	772
-15.182	-4.327	16455	16922	0	772
-11.251	0.829	16456	16969	0	772
-10.097	5.770	16456	16982	0	772
-7.934	7.140	16456	16974	0	772
-7.573	5.950	16456	16939	0	772
-13.848	0.252	16455	16878	0	772
-22.791	-6.888	16454	16774	0	772
-29.246	-8.979	16453	16627	0	772
-30.220	-10.061	16451	16423	0	772
-589.217	1.623	748	65534	0	358
-24.630	-16.228	16429	16718	0	748
-26.470	-17.923	16427	16640	0	748
-28.777	-18.103	16425	16505	0	748
-24.883	-16.084	16423	16267	0	748
-17.526	-11.504	16420	15864	0	748
-9.340	-7.501	16416	15343	0	748
-8.294	-6.671	16410	14813	0	748
-12.730	-8.330	16406	14345	0	748
-21.277	-12.261	16401	14023	0	748
-30.148	-17.562	16397	13858	0	748
-33.213	-21.745	16393	13746	0	748
-35.882	-25.893	16388	13568	0	748
-35.629	-29.282	16384	13342	0	748
-36.603	-31.374	16380	13203	0	748
-35.882	-30.581	16375	13160	0	748
-37.252	-27.768	16370	13034	0	748
-34.764	-23.404	16363	12726	0	748
-31.843	-17.959	16357	12431	0	748
-27.804	-16.084	16352	12391	0	748
-26.902	-16.805	16347	12474	0	748
-25.532	-18.969	16342	12543	0	748
-27.083	-20.519	16337	12713	0	748
-27.263	-19.726	16334	12995	0	748
-26.325	-18.211	16330	13329	0	748
-23.224	-15.615	16327	13741	0	748
-21.745	-15.579	16326	14245	0	748
-19.041	-16.985	16324	14766	0	748
-23.044	-19.473	16323	15252	0	748
-23.837	-19.942	16323	15751	0	748
-26.830	-20.700	16323	16298	0	748
-26.506	-18.031	16323	16844	0	748
-24.630	-16.084	16324	17338	0	748
-17.959	-15.831	16324	17742	0	748
-16.192	-17.959	16325	18059	0	748
-15.759	-22.070	16326	18350	0	748
-19.870	-23.693	16327	18658	0	748
-20.267	-21.998	16328	18953	0	748
-20.555	-16.985	16328	19105	0	748
-15.507	-13.199	16328	19001	0	748
-14.172	-10.638	16326	18693	0	748
-11.576	-13.668	16325	18445	0	748
-12.514	-13.992	16325	18341	0	748
-10.638	-13.559	16324	18263	0	748
-6.203	-9.592	16323	18163	0	748
-3.498	-3.462	16323	18068	0	748
-3.390	-3.065	16322	17898	0	748
-7.068	-4.688	16320	17564	0	748
-15.074	-8.871	16317	17126	0	748
-18.464	-14.317	16314	16765	0	748
-22.791	-14.425	16313	16505	0	748
-19.546	-12.189	16309	16228	0	748
-16.625	-8.258	16307	15924	0	748
-11.035	-5.337	16304	15707	0	748
-8.042	-4.940	16302	15629	0	748
-7.898	-5.445	16301	15634	0	748
-8.006	-6.816	16299	15664	0	748
-9.196	-8.042	16298	15716	0	748
-11.107	-7.970	16298	15794	0	748
-10.206	-9.016	16297	15924	0	748
-10.855	-9.124	16297	16081	0	748
-12.514	-10.422	16296	16181	0	748
-15.867	-11.251	16296	16224	0	748
-18.500	-14.641	16295	16293	0	748
-23.152	-18.428	16293	16289	0	748
-26.289	-22.034	16292	16150	0	748
-23.080	-23.404	16290	16024	0	748
-19.077	-20.483	16289	15977	0	748
-12.586	-16.661	16287	15972	0	748
-10.278	-11.792	16286	16029	0	748
-10.566	-9.448	16286	16137	0	748
-12.153	-8.799	16285	16241	0	748
-15.254	-9.016	16285	16302	0	748
-12.297	-9.556	16284	16384	0	748
-13.884	-10.386	16285	16518	0	748
-16.661	-11.828	16285	16705	0	748
-19.437	-12.261	16286	16900	0	748
-23.693	-14.785	16286	17065	0	748
-25.748	-16.913	16287	17204	0	748
-25.496	-20.844	16289	17395	0	748
-27.010	-25.712	16291	17668	0	748
-27.335	-29.463	16294	17989	0	748
-27.299	-28.237	16296	18254	0	748
-23.116	-24.739	16297	18324	0	748
-21.204	-17.238	16298	18241	0	748
-20.231	-13.235	16301	18254	0	748
-18.428	-11.432	16303	18471	0	748
-22.034	-14.569	16307	18775	0	748
-21.385	-17.310	16310	19114	0	748
-20.014	-18.752	16316	19465	0	748
-16.625	-17.490	16321	19821	0	748
-13.523	-14.461	16327	20207	0	748
-11.828	-12.261	16334	20650	0	748
-12.081	-10.458	16342	21123	0	748
-11.360	-7.681	16349	21514	0	748
-9.304	-5.085	16355	21709	0	748
-8.799	-2.560	16362	21752	0	748
-8.186	-2.236	16368	21774	0	748
-9.412	-5.445	16375	21805	0	748
-11.864	-11.468	16381	21800	0	748
-16.877	-17.562	16387	21735	0	748
-17.093	-19.365	16393	21605	0	748
-18.608	-18.320	16398	21357	0	748
-17.598	-14.677	16403	21019	1	760
-17.454	-10.783	16409	20702	0	760
-15.110	-9.737	16413	20398	0	760
-15.254	-10.530	16418	20038	0	760
-15.002	-12.802	16422	19665	0	760
-16.769	-14.641	16426	19348	0	760
-17.815	-16.444	16431	19101	0	760
-19.582	-19.149	16435	18853	0	760
-22.899	-21.781	16440	18571	0	760
-23.512	-23.296	16444	18319	0	760
-20.267	-22.034	16448	18102	0	760
-18.067	-18.716	16452	17855	0	760
-13.523	-13.776	16456	17547	0	760
-11.828	-9.520	16458	17208	0	760
-11.900	-8.907	16461	16883	0	760
-11.287	-9.881	16464	16614	0	760
-14.389	-12.838	16467	16410	0	760
-15.579	-15.579	16469	16215	0	760
-17.129	-17.418	16471	15911	0	760
-17.490	-15.110	16470	15421	0	760
-17.706	-12.586	16471	14883	0	760
-16.300	-11.612	16471	14536	0	760
-17.779	-11.576	16471	14401	0	760
-16.877	-12.730	16472	14301	0	760
-18.139	-12.622	16473	14188	0	760
-14.930	-11.468	16474	14149	0	760
-10.819	-12.225	16476	14214	0	760
-11.071	-12.261	16477	14327	0	760
-10.061	-15.362	16479	14410	0	760
-8.979	-15.146	16479	14457	0	760
-10.638	-14.858	16480	14496	0	760
-10.278	-12.333	16481	14518	0	760
-8.222	-10.169	16482	14505	0	760
-3.859	-9.196	16481	14449	0	760
-0.397	-7.681	16481	14375	0	760
3.714	-6.167	16480	14266	0	760
6.311	-6.816	16478	14041	0	760
3.282	-8.042	16476	13728	0	760
-1.406	-9.448	16473	13463	0	760
-3.967	-10.422	16471	13268	0	760
-3.859	-6.671	16467	13086	0	760
0.397	-0.974	16464	12904	0	760
6.203	5.265	16461	12778	0	760
12.477	9.556	16458	12765	0	760
10.602	6.924	16457	12891	0	760
3.246	0.397	16455	13116	0	760
-3.246	-7.645	16453	13342	0	760
-9.953	-12.369	16452	13555	0	760
-7.609	-11.792	16452	13863	0	760
-0.325	-5.950	16452	14292	0	760
8.763	1.911	16452	14727	0	760
11.035	5.085	16452	15087	0	760
7.140	2.993	16452	15356	0	760
-3.318	-3.210	16452	15599	0	760
-9.809	-10.386	16452	15881	0	760
-12.586	-12.550	16453	16181	0	760
-6.131	-8.511	16454	16414	0	760
-0.252	-2.308	16453	16544	0	760
2.200	3.642	16453	16627	0	760
-1.551	4.580	16454	16744	0	760
-7.934	-2.092	16454	16935	0	760
-14.389	-12.477	16455	17143	0	760
-14.281	-19.005	16455	17269	0	760
-8.907	-18.536	16456	17317	0	760
-4.868	-12.586	16456	17343	0	760
-2.452	-6.347	16457	17325	0	760
-5.229	-2.885	16456	17226	0	760
-9.917	-7.140	16454	17009	0	760
-11.973	-12.441	16451	16601	0	760
-12.694	-14.966	16448	16085	0	760
-10.386	-15.507	16444	15655	0	760
-8.871	-12.333	16441	15321	0	760
-9.340	-10.278	16438	15017	0	760
-11.287	-10.350	16435	14848	0	760
-12.982	-13.271	16433	14809	0	760
-12.802	-16.697	16431	14826	0	760
-10.674	-17.166	16429	14865	0	760
-4.904	-12.009	16428	14922	0	760
-0.541	-5.554	16427	14991	0	760
-2.488	-1.154	16424	15052	0	760
-8.078	-3.678	16421	15022	0	760
-15.435	-8.943	16419	14922	0	760
-16.877	-15.398	16417	14887	0	760
-11.323	-14.641	16415	14983	0	760
-3.390	-10.638	16414	15091	0	760
4.977	-3.101	16411	15100	0	760
6.527	1.515	16408	15026	0	760
4.400	3.065	16406	15004	0	760
-1.587	0.974	16405	15091	0	760
-3.823	-3.787	16403	15234	0	760
-8.547	-8.799	16401	15356	0	760
-10.169	-11.107	16399	15421	0	760
-7.898	-8.799	16396	15430	0	760
-0.902	-0.325	16393	15273	0	760
7.176	9.773	16389	14944	0	760
14.064	16.120	16385	14679	0	760
11.756	12.946	16383	14622	0	760
6.419	3.606	16380	14713	0	760
-3.859	-6.563	16378	14870	0	760
-7.537	-11.504	16376	15052	0	760
-8.439	-8.655	16374	15217	0	760
-4.652	-3.895	16372	15330	0	760
-0.865	-0.144	16370	15425	0	760
1.190	0.865	16368	15586	0	760
-0.505	-1.983	16368	15859	0	760
-5.481	-6.888	16368	16181	0	760
-12.874	-13.379	16367	16418	0	760
-22.431	-19.437	16367	16596	0	760
-25.424	-25.063	16366	16774	0	760
-24.702	-24.775	16367	17009	0	760
-21.529	-22.178	16367	17247	0	760
-17.093	-19.978	16366	17403	0	760
-17.382	-18.428	16367	17464	0	760
-19.293	-19.329	16366	17482	0	760
-22.863	-20.231	16366	17499	0	760
-22.755	-18.824	16365	17508	0	760
-20.591	-17.490	16364	17469	0	760
-20.591	-16.408	16364	17382	0	760
-21.565	-17.887	16363	17282	0	760
-24.450	-18.680	16361	17191	0	760
-28.128	-20.014	16361	17143	0	760
-27.299	-20.519	16361	17199	0	760
-26.433	-19.690	16362	17278	0	760
-24.883	-20.700	16361	17256	0	760
-25.640	-22.070	16361	17152	0	760
-26.830	-23.945	16359	17030	0	760
-31.951	-27.083	16359	16878	0	760
-37.721	-33.357	16357	16700	0	760
-43.130	-37.757	16355	16492	0	760
-45.330	-41.507	16352	16189	0	760
-45.546	-39.957	16350	15820	0	760
-39.885	-36.675	16347	15512	0	760
-32.961	-31.013	16344	15299	0	760
-28.345	-26.578	16341	15148	0	760
-25.099	-24.486	16338	14991	0	760
-21.132	-22.431	16335	14813	0	760
-21.601	-22.972	16332	14661	0	760
-21.673	-22.214	16331	14601	0	760
-25.063	-24.702	16328	14640	0	760
-29.571	-28.309	16326	14705	0	760
-33.213	-30.472	16323	14722	0	760
-31.554	-29.391	16321	14722	0	760
-26.289	-24.270	16319	14792	0	760
-17.346	-15.975	16317	14931	0	760
-13.884	-11.396	16315	15065	0	760
-14.245	-11.251	16314	15143	0	760
-19.546	-15.939	16311	15191	0	760
-26.037	-22.286	16310	15278	0	760
-30.256	-24.450	16309	15456	0	760
-30.941	-26.686	16308	15668	0	760
-31.085	-25.279	16306	15803	0	760
-28.381	-26.397	16305	15868	0	760
-28.128	-26.217	16303	15933	0	760
-28.201	-28.561	16303	16055	0	760
-28.489	-28.886	16302	16215	0	760
-27.335	-28.128	16301	16341	0	760
-24.162	-23.873	16300	16418	0	760
-19.329	-18.752	16299	16488	0	760
-14.785	-14.028	16298	16557	0	760
-11.035	-9.484	16297	16609	0	760
-10.061	-9.124	16296	16640	0	760
-10.855	-10.386	16295	16670	0	760
-13.631	-13.271	16295	16709	0	760
-16.841	-17.670	16294	16770	0	760
-22.539	-21.818	16294	16848	0	760
-27.263	-24.270	16294	16961	0	760
-28.453	-27.083	16294	17126	0	760
-29.174	-27.263	16295	17312	0	760
-27.155	-27.010	16296	17456	0	760
-25.604	-24.053	16297	17573	0	760
-22.286	-22.575	16298	17768	0	760
-19.582	-19.185	16301	18072	0	760
-17.779	-18.392	16303	18415	0	760
-13.631	-19.726	16307	18714	0	760
-11.179	-21.493	16310	18962	0	760
-13.199	-22.106	16314	19235	0	760
-14.533	-23.188	16318	19587	0	760
-17.851	-21.204	16323	19960	0	760
-19.257	-20.195	16328	20259	0	760
-23.080	-19.690	16333	20476	0	760
-21.781	-20.555	16339	20759	0	760
-21.854	-23.188	16346	21153	0	760
-22.106	-23.332	16354	21548	0	760
-19.329	-23.260	16360	21839	0	760
-18.933	-20.591	16368	22013	0	760
-15.723	-17.923	16375	22126	0	760
-15.218	-14.028	16382	22230	0	760
-12.802	-9.340	16388	22308	0	760
-10.061	-8.042	16395	22286	0	760
-12.405	-8.871	16401	22130	0	760
-15.218	-13.091	16408	21909	0	760
-23.549	-21.132	16414	21687	0	760
-27.515	-25.171	16420	21505	1	768
-30.508	-26.830	16427	21318	0	768
-27.948	-25.568	16433	21028	0	768
-25.027	-23.116	16437	20646	0	768
-19.834	-20.050	16443	20251	0	768
-19.654	-20.050	16448	19899	0	768
-15.435	-17.706	16452	19539	0	768
-14.858	-16.480	16456	19101	0	768
-10.999	-16.264	16459	18597	0	768
-11.107	-15.831	16462	18120	0	768
-9.737	-16.336	16466	17703	0	768
-8.943	-14.497	16469	17321	0	768
-6.203	-10.999	16471	16930	0	768
-4.616	-7.212	16473	16518	0	768
-2.344	-1.479	16475	16072	0	768
-1.623	2.056	16476	15595	0	768
-0.505	3.714	16476	15121	0	768
3.895	5.878	16476	14661	0	768
12.009	11.251	16475	14197	0	768
23.404	18.211	16474	13728	0	768
32.312	25.893	16471	13212	0	768
36.495	31.699	16469	12669	0	768
32.780	32.744	16467	12235	0	768
27.876	30.112	16464	11957	0	768
22.106	27.443	16461	11736	0	768
22.395	27.263	16458	11467	0	768
21.781	26.001	16454	11181	0	768
22.791	25.279	16451	10994	0	768
23.044	23.008	16448	10972	0	768
21.132	20.447	16445	11089	0	768
21.168	18.824	16443	11276	0	768
19.762	16.336	16441	11463	0	768
16.661	13.812	16438	11675	0	768
13.559	11.071	16437	11966	0	768
10.963	10.999	16436	12322	0	768
12.189	11.937	16434	12669	0	768
13.776	15.182	16433	12973	0	768
18.644	16.913	16432	13294	0	768
18.752	16.949	16431	13681	0	768
17.670	13.018	16431	14106	0	768
11.720	9.412	16431	14509	0	768
7.285	5.517	16430	14839	0	768
4.472	5.121	16429	15130	0	768
4.688	3.570	16429	15443	0	768
4.724	3.354	16430	15786	0	768
0.685	0.433	16430	16133	0	768
-4.075	-3.246	16430	16414	0	768
-7.104	-5.950	16431	16648	0	768
-7.068	-4.111	16431	16835	0	768
-2.272	-1.082	16430	16878	0	768
2.741	1.154	16429	16757	0	768
2.741	-0.902	16428	16657	0	768
-2.524	-9.124	16427	16631	0	768
-12.405	-19.185	16424	16453	0	768
-26.397	-28.850	16421	16124	0	768
-34.115	-33.069	16419	15885	0	768
-36.423	-30.833	16417	15803	0	768
-31.518	-26.722	16415	15781	0	768
-23.080	-23.368	16414	15794	0	768
-20.087	-23.765	16412	15812	0	768
-19.726	-25.893	16410	15816	0	768
-24.955	-28.922	16409	15829	0	768
-28.489	-28.273	16408	15877	0	768
-29.679	-26.001	16407	15916	0	768
-27.083	-25.171	16405	15885	0	768
-28.345	-28.705	16403	15790	0	768
-28.201	-32.312	16402	15751	0	768
-28.128	-35.305	16400	15807	0	768
-28.273	-33.321	16399	15898	0	768
-21.709	-27.047	16398	15924	0	768
-17.851	-19.726	16396	15898	0	768
-14.317	-15.543	16395	15972	0	768
-16.589	-15.362	16395	16198	0	768
-19.113	-17.310	16395	16444	0	768
-21.854	-19.690	16395	16618	0	768
-21.168	-20.411	16395	16700	0	768
-20.952	-21.926	16394	16687	0	768
-23.224	-24.739	16391	16449	0	768
-25.424	-29.607	16387	16011	0	768
-28.922	-33.177	16384	15595	0	768
-29.318	-34.223	16382	15330	0	768
-26.866	-31.302	16379	15174	0	768
-24.739	-27.263	16376	15113	0	768
-22.539	-25.316	16375	15174	0	768
-22.827	-25.856	16373	15291	0	768
-24.270	-28.597	16372	15408	0	768
-23.260	-30.400	16371	15534	0	768
-24.414	-29.210	16370	15720	0	768
-25.893	-28.381	16370	15985	0	768
-25.820	-27.010	16370	16259	0	768
-28.850	-25.640	16370	16440	0	768
-28.201	-24.847	16370	16544	0	768
-26.037	-24.378	16369	16622	0	768
-20.519	-22.250	16369	16718	0	768
-18.175	-19.654	16369	16822	0	768
-16.120	-20.844	16368	16909	0	768
-18.536	-20.123	16368	16961	0	768
-18.897	-18.644	16368	16961	0	768
-19.437	-15.435	16366	16891	0	768
-15.507	-12.261	16366	16809	0	768
-15.975	-9.917	16365	16800	0	768
-16.336	-11.251	16364	16831	0	768
-23.765	-17.238	16364	16805	0	768
-31.590	-24.342	16363	16718	0	768
-36.278	-29.571	16361	16618	0	768
-42.553	-32.456	16360	16462	0	768
-45.114	-34.187	16357	16215	0	768
-46.664	-36.170	16355	15894	0	768
-47.025	-38.767	16351	15525	0	768
-47.818	-39.308	16347	15152	0	768
-44.501	-36.711	16344	14857	0	768
-38.262	-28.814	16341	14700	0	768
-32.059	-21.313	16339	14648	0	768
-25.460	-16.625	16335	14614	0	768
-21.565	-18.103	16332	14549	0	768
-23.188	-21.493	16330	14505	0	768
-22.178	-22.719	16328	14562	0	768
-22.214	-17.598	16326	14713	0	768
-16.985	-8.006	16324	14878	0	768
-15.867	-1.190	16323	14991	0	768
-14.533	1.226	16320	15078	0	768
-18.175	-3.678	16319	15195	0	768
-20.123	-10.783	16318	15347	0	768
-22.539	-14.064	16316	15499	0	768
-20.375	-10.458	16314	15612	0	768
-18.716	-5.229	16312	15651	0	768
-16.228	0.902	16309	15542	0	768
-12.405	4.724	16306	15347	0	768
-10.314	3.787	16303	15278	0	768
-12.009	1.623	16301	15330	0	768
-11.251	0.469	16300	15421	0	768
-10.133	0.361	16297	15573	0	768
-10.025	4.796	16297	15829	0	768
-8.763	7.789	16297	16146	0	768
-9.484	7.032	16297	16444	0	768
-10.314	5.734	16296	16627	0	768
-13.054	3.534	16294	16561	0	768
-9.665	4.003	16292	16363	0	768
-2.813	9.989	16290	16254	0	768
2.669	14.785	16289	16259	0	768
7.717	18.031	16287	16298	0	768
7.032	17.093	16286	16380	0	768
2.741	13.956	16285	16505	0	768
-1.731	13.235	16285	16640	0	768
-3.931	11.792	16284	16752	0	768
-2.957	12.622	16284	16848	0	768
-0.288	15.218	16284	16917	0	768
2.164	18.644	16283	16904	0	768
4.111	21.601	16281	16826	0	768
5.229	23.585	16281	16765	0	768
4.003	23.188	16280	16752	0	768
0.541	19.582	16279	16744	0	768
-3.534	13.415	16277	16657	0	768
-6.275	8.439	16276	16522	0	768
-10.386	3.859	16275	16475	0	768
-13.091	1.046	16275	16583	0	768
-18.897	-0.649	16276	16835	0	768
-19.221	-0.793	16277	17204	0	768
-20.375	-1.587	16281	17625	0	768
-15.218	-3.282	16284	18072	0	768
-12.225	-3.642	16287	18558	0	768
-13.776	-5.085	16292	19092	0	768
-16.769	-8.330	16297	19617	0	768
-21.601	-10.963	16303	20064	0	768
-25.460	-13.992	16308	20463	0	768
-24.198	-17.815	16314	20850	0	768
-25.496	-19.726	16321	21214	0	768
-28.128	-21.781	16327	21548	0	768
-32.816	-21.818	16334	21844	0	768
-34.079	-20.159	16341	22091	0	768
-30.328	-15.471	16348	22308	0	768
-20.844	-9.665	16357	22508	0	768
-9.484	-5.806	16364	22668	0	768
-3.029	-5.373	16372	22729	0	768
-4.940	-6.203	16379	22703	0	768
-11.323	-10.891	16386	22642	0	768
-20.736	-14.100	16393	22603	0	768
-26.217	-17.238	16401	22547	0	768
-29.715	-18.644	16409	22403	1	712
-29.895	-19.473	16415	22165	0	712
-29.210	-19.726	16422	21861	0	712
-28.994	-22.503	16429	21548	0	712
-28.597	-23.873	16435	21266	0	712
-26.902	-25.027	16441	20962	0	712
-24.234	-25.532	16446	20494	0	712
-23.332	-23.657	16450	19838	0	712
-23.188	-23.332	16453	19161	0	712
-26.722	-24.198	16456	18558	0	712
-29.751	-24.306	16459	17998	0	712
-31.230	-23.224	16462	17460	0	712
-26.433	-18.969	16464	16961	0	712
-21.673	-13.487	16467	16475	0	712
-16.985	-9.917	16467	15924	0	712
-13.127	-8.042	16465	15130	0	712
-17.346	-11.504	16463	14145	0	712
-19.185	-13.920	16459	13233	0	712
-22.142	-16.012	16457	12504	0	712
-23.801	-16.733	16453	11901	0	712
-25.640	-15.290	16451	11458	0	712
-28.381	-15.795	16449	11220	0	712
-29.066	-16.769	16447	11159	0	712
-29.210	-17.274	16445	11211	0	712
-28.814	-17.670	16444	11306	0	712
-28.597	-17.454	16444	11480	0	712
-29.715	-18.067	16444	11766	0	712
-30.869	-17.093	16444	12148	0	712
-30.292	-16.733	16444	12543	0	712
-25.712	-16.156	16444	12873	0	712
-22.142	-15.795	16445	13173	0	712
-22.178	-16.516	16445	13511	0	712
-22.539	-18.211	16446	13884	0	712
-26.542	-18.897	16446	14227	0	712
-30.328	-19.257	16447	14514	0	712
-31.374	-21.024	16448	14792	0	712
-31.699	-20.195	16449	15100	0	712
-28.201	-20.627	16450	15412	0	712
-24.162	-18.464	16451	15699	0	712
-20.591	-15.074	16452	15907	0	712
-18.283	-12.514	16452	16063	0	712
-18.824	-11.504	16454	16220	0	712
-16.697	-8.979	16454	16423	0	712
-17.346	-8.691	16456	16653	0	712
-12.874	-7.429	16458	16848	0	712
-14.317	-7.573	16459	16991	0	712
-14.461	-8.547	16460	17100	0	712
-19.293	-10.386	16461	17199	0	712
-20.123	-11.576	16462	17295	0	712
-21.854	-11.360	16463	17325	0	712
-21.349	-11.612	16463	17286	0	712
-22.935	-14.136	16464	17212	0	712
-26.974	-17.093	16464	17130	0	712
-29.823	-19.329	16465	17026	0	712
-32.203	-20.519	16464	16878	0	712
-32.276	-20.050	16463	16692	0	712
-30.436	-19.401	16462	16440	0	712
-27.371	-21.060	16460	16076	0	712
-23.044	-19.257	16458	15638	0	712
-15.543	-15.507	16455	15286	0	712
-10.566	-9.412	16453	15056	0	712
-8.619	-6.780	16451	14852	0	712
-10.999	-6.888	16447	14592	0	712
-16.372	-11.251	16445	14362	0	712
-16.841	-13.307	16443	14332	0	712
-16.120	-9.917	16442	14509	0	712
-13.884	-5.662	16442	14718	0	712
-13.199	-4.472	16441	14848	0	712
-17.526	-5.121	16439	14891	0	712
-19.942	-10.278	16438	14913	0	712
-23.044	-13.992	16436	14948	0	712
-19.618	-16.949	16434	14926	0	712
-18.356	-16.697	16432	14792	0	712
-18.536	-16.480	16428	14592	0	712
-19.257	-16.769	16425	14431	0	712
-24.234	-16.012	16422	14366	0	712
-23.837	-16.733	16420	14392	0	712
-22.358	-17.129	16417	14462	0	712
-20.664	-18.644	16414	14518	0	712
-16.769	-19.437	16412	14557	0	712
-16.949	-19.365	16410	14614	0	712
-13.740	-18.716	16408	14705	0	712
-13.704	-14.930	16405	14796	0	712
-12.982	-11.143	16403	14822	0	712
-11.973	-7.393	16400	14796	0	712
-13.415	-4.868	16397	14787	0	712
-12.225	-4.039	16395	14852	0	712
-11.287	-4.472	16392	14987	0	712
-12.081	-5.590	16390	15087	0	712
-12.550	-9.484	16387	15126	0	712
-13.956	-11.540	16385	15143	0	712
-17.706	-14.425	16383	15152	0	712
-19.618	-16.625	16380	15143	0	712
-24.702	-17.310	16377	15091	0	712
-28.237	-19.546	16373	15017	0	712
-26.902	-20.195	16370	14961	0	712
-25.676	-20.808	16367	14931	0	712
-24.450	-19.798	16364	14935	0	712
-22.972	-21.601	16361	15009	0	712
-23.909	-21.745	16358	15056	0	712
-24.306	-22.214	16354	14957	0	712
-19.762	-22.214	16348	14722	0	712
-18.320	-20.231	16343	14457	0	712
-20.339	-19.654	16339	14258	0	712
-21.313	-19.690	16334	14175	0	712
-25.965	-19.654	16330	14154	0	712
-26.361	-20.519	16325	14088	0	712
-22.142	-19.473	16320	13976	0	712
-18.067	-19.041	16315	13924	0	712
-12.189	-16.913	16310	13976	0	712
-9.917	-14.208	16307	14123	0	712
-7.032	-11.684	16303	14297	0	712
-7.753	-11.143	16300	14431	0	712
-8.871	-11.432	16297	14588	0	712
-14.028	-14.172	16293	14835	0	712
-17.995	-18.320	16292	15169	0	712
-23.368	-20.375	16289	15438	0	712
-21.926	-20.627	16284	15434	0	712
-17.310	-19.257	16281	15291	0	712
-10.386	-16.048	16278	15317	0	712
-11.360	-16.877	16275	15521	0	712
-15.903	-20.014	16272	15768	0	712
-23.981	-24.775	16271	16055	0	712
-29.968	-29.030	16270	16388	0	712
-28.561	-26.902	16270	16765	0	712
-22.539	-24.089	16270	17204	0	712
-15.543	-20.087	16271	17664	0	712
-14.569	-18.356	16272	18046	0	712
-15.362	-17.202	16272	18263	0	712
-20.988	-17.634	16271	18232	0	712
-21.601	-16.552	16269	18072	0	712
-20.808	-15.110	16268	18011	0	712
-16.480	-13.884	16268	18068	0	712
-14.930	-14.966	16268	18163	0	712
-14.785	-15.795	16269	18293	0	712
-16.877	-14.461	16270	18471	0	712
-15.218	-10.638	16271	18645	0	712
-13.956	-6.852	16272	18766	0	712
-12.009	-3.967	16273	18836	0	712
-12.622	-6.203	16275	18884	0	712
-15.939	-11.107	16276	18892	0	712
-16.661	-16.156	16276	18840	0	712
-18.392	-16.444	16277	18753	0	712
-17.743	-13.379	16278	18658	0	712
-18.392	-10.638	16279	18575	0	712
-18.933	-9.737	16280	18484	0	712
-21.493	-10.097	16281	18415	0	712
-21.060	-14.172	16283	18445	0	712
-22.142	-15.398	16285	18575	0	712
-22.575	-17.526	16287	18610	0	712
-21.818	-16.769	16287	18419	0	712
-20.519	-16.228	16287	18059	0	712
-20.050	-13.307	16286	17664	0	712
-17.057	-9.376	16286	17321	0	712
-18.392	-7.537	16285	17026	0	712
-17.418	-8.078	16284	16705	0	712
-17.454	-10.133	16282	16302	0	712
-15.362	-9.953	16280	15911	0	712
-11.540	-8.871	16278	15651	0	712
-11.900	-5.554	16277	15521	0	712
-14.208	-3.967	16276	15451	0	712
-18.824	-6.671	16276	15404	0	712
-19.510	-8.907	16276	15425	0	712
-19.510	-11.107	16276	15560	0	712
-13.992	-8.583	16277	15781	0	712
-10.819	-6.022	16279	16050	0	712
-9.809	-3.426	16281	16367	0	712
-11.071	-2.669	16284	16739	0	712
-12.694	-5.806	16287	17204	0	712
-16.625	-9.665	16292	17764	0	712
-16.552	-11.576	16297	18363	0	712
-17.923	-11.540	16303	18897	0	712
-16.012	-11.179	16307	19300	0	712
-14.894	-8.547	16312	19522	0	712
-14.245	-8.763	16316	19652	0	712
-15.074	-10.710	16321	19856	0	712
-14.569	-10.999	16327	20129	0	712
-13.018	-10.602	16333	20403	0	712
-11.468	-7.645	16339	20672	0	712
-8.619	-3.137	16347	20962	0	712
-6.744	-0.685	16354	21279	0	712
-3.787	0.829	16361	21579	0	712
-4.147	1.587	16368	21731	0	712
-3.210	0.793	16375	21683	0	712
-2.921	0.757	16381	21548	0	712
-2.669	-0.433	16386	21401	0	712
-0.974	-2.308	16392	21223	0	712
-0.144	-4.111	16398	21032	1	748
0.721	-3.426	16404	20793	0	748
0.144	-1.154	16408	20437	0	748
0.433	0.397	16412	19973	0	748
-1.118	-0.144	16416	19517	0	748
-3.173	-5.049	16420	19148	0	748
-7.825	-9.917	16424	18827	0	748
-8.475	-13.487	16427	18462	0	748
-8.439	-10.422	16430	18037	0	748
-3.173	-4.219	16433	17651	0	748
-2.019	1.190	16436	17364	0	748
-3.426	1.190	16440	17160	0	748
-9.052	-2.921	16443	16974	0	748
-15.074	-12.369	16446	16774	0	748
-20.123	-16.516	16450	16653	0	748
-17.923	-17.382	16454	16622	0	748
-15.507	-14.172	16457	16579	0	748
-11.179	-9.629	16461	16462	0	748
-9.737	-5.337	16463	16306	0	748
-11.576	-1.587	16466	16150	0	748
-11.648	0.721	16469	16050	0	748
-9.701	2.957	16471	16003	0	748
-8.799	2.488	16474	15946	0	748
-5.914	-0.865	16476	15816	0	748
-6.347	-4.472	16478	15625	0	748
-7.573	-6.275	16479	15438	0	748
-10.386	-6.347	16481	15330	0	748
-9.376	-6.455	16483	15291	0	748
-9.304	-4.760	16484	15200	0	748
-10.133	-4.796	16485	15048	0	748
-11.179	-6.563	16485	14896	0	748
-11.432	-8.799	16486	14796	0	748
-10.746	-10.386	16487	14727	0	748
-12.694	-11.973	16487	14627	0	748
-12.117	-12.982	16487	14475	0	748
-12.586	-11.287	16486	14314	0	748
-16.913	-12.838	16486	14206	0	748
-17.598	-13.595	16485	14145	0	748
-20.519	-15.543	16485	14088	0	748
-20.050	-15.543	16484	14028	0	748
-19.978	-12.694	16483	13958	0	748
-15.507	-8.871	16481	13832	0	748
-13.668	-4.075	16479	13715	0	748
-10.783	-4.580	16479	13824	0	748
-12.838	-7.140	16480	14149	0	748
-13.848	-11.684	16480	14423	0	748
-13.631	-15.110	16480	14540	0	748
-14.028	-14.569	16479	14575	0	748
-11.107	-10.638	16478	14523	0	748
-8.727	-5.554	16474	14271	0	748
-9.953	-4.436	16470	13854	0	748
-12.477	-5.337	16465	13437	0	748
-15.362	-9.845	16460	13056	0	748
-21.457	-15.146	16455	12773	0	748
-22.575	-18.608	16452	12669	0	748
-22.395	-17.995	16449	12739	0	748
-22.575	-16.516	16445	12878	0	748
-21.457	-13.884	16442	13034	0	748
-24.270	-13.451	16441	13246	0	748
-28.056	-13.812	16439	13572	0	748
-28.092	-14.569	16438	13976	0	748
-25.568	-15.795	16437	14384	0	748
-23.729	-15.326	16437	14744	0	748
-18.500	-15.002	16436	15082	0	748
-18.644	-14.785	16436	15430	0	748
-19.329	-14.425	16436	15807	0	748
-18.320	-12.225	16436	16202	0	748
-19.005	-10.169	16436	16553	0	748
-16.661	-9.196	16437	16852	0	748
-17.057	-9.881	16437	17121	0	748
-16.733	-12.477	16438	17403	0	748
-17.526	-14.641	16440	17655	0	748
-16.769	-14.425	16440	17837	0	748
-18.103	-12.441	16441	17955	0	748
-16.625	-11.973	16441	18002	0	748
-18.716	-12.766	16442	17981	0	748
-17.815	-15.543	16442	17929	0	748
-19.221	-19.401	16441	17842	0	748
-16.012	-19.510	16441	17703	0	748
-16.084	-19.870	16440	17516	0	748
-16.300	-20.736	16437	17265	0	748
-18.933	-22.719	16437	16974	0	748
-23.657	-26.470	16434	16726	0	748
-25.965	-27.227	16433	16548	0	748
-25.784	-26.794	16432	16345	0	748
-25.099	-25.243	16428	16024	0	748
-25.027	-25.279	16425	15625	0	748
-25.460	-25.316	16421	15260	0	748
-23.765	-27.443	16418	14983	0	748
-22.611	-28.453	16415	14735	0	748
-19.762	-29.282	16410	14423	0	748
-15.471	-30.472	16406	14062	0	748
-16.625	-29.571	16401	13806	0	748
-14.713	-25.027	16398	13720	0	748
-11.937	-18.356	16395	13733	0	748
-14.281	-12.081	16391	13737	0	748
-16.048	-11.107	16387	13711	0	748
-22.106	-15.795	16384	13724	0	748
-25.856	-21.313	16382	13837	0	748
-27.768	-25.171	16380	14049	0	748
-24.306	-24.522	16378	14319	0	748
-20.916	-20.880	16376	14575	0	748
-17.310	-16.733	16375	14796	0	748
-17.670	-15.254	16373	15017	0	748
-19.221	-16.661	16372	15269	0	748
-24.775	-21.565	16370	15538	0	748
-28.525	-26.361	16369	15773	0	748
-30.653	-27.948	16369	15985	0	748
-29.282	-29.787	16368	16233	0	748
-27.804	-29.607	16368	16509	0	748
-27.479	-31.446	16368	16757	0	748
-28.381	-32.961	16367	16904	0	748
-27.876	-32.997	16366	16969	0	748
-27.479	-30.689	16365	17039	0	748
-26.686	-26.109	16365	17160	0	748
-25.676	-22.575	16365	17295	0	748
-21.529	-20.483	16364	17364	0	748
-18.752	-17.706	16363	17356	0	748
-10.783	-14.245	16363	17317	0	748
-8.402	-13.127	16362	17269	0	748
-9.845	-12.982	16361	17217	0	748
-14.533	-14.281	16359	17130	0	748
-20.519	-17.851	16359	17017	0	748
-22.106	-19.834	16357	16896	0	748
-22.899	-21.745	16356	16800	0	748
-21.926	-19.077	16354	16718	0	748
-18.428	-16.408	16353	16574	0	748
-18.031	-13.740	16351	16371	0	748
-16.480	-10.963	16348	16146	0	748
-18.716	-11.396	16346	15933	0	748
-20.772	-13.451	16344	15799	0	748
-24.053	-14.533	16343	15846	0	748
-23.657	-15.507	16343	16029	0	748
-24.486	-18.247	16341	16124	0	748
-24.702	-19.546	16339	15985	0	748
-24.883	-19.077	16336	15707	0	748
-24.775	-17.310	16333	15456	0	748
-24.883	-13.812	16331	15291	0	748
-25.929	-12.009	16328	15169	0	748
-25.568	-11.792	16325	15009	0	748
-25.820	-14.461	16321	14792	0	748
-24.486	-12.369	16318	14635	0	748
-16.589	-10.278	16315	14631	0	748
-10.566	-6.744	16313	14748	0	748
-7.970	-4.940	16311	14874	0	748
-7.104	-3.931	16309	14926	0	748
-11.973	-4.003	16307	14983	0	748
-16.516	-6.203	16306	15108	0	748
-23.801	-8.763	16304	15278	0	748
-26.506	-13.956	16301	15417	0	748
-26.578	-16.372	16300	15495	0	748
-23.945	-14.569	16298	15564	0	748
-15.939	-9.448	16297	15690	0	748
-12.730	-4.111	16297	15911	0	748
-12.297	-1.659	16296	16172	0	748
-16.372	-3.931	16294	16289	0	748
-22.539	-6.094	16291	16111	0	748
-27.624	-6.960	16288	15764	0	748
-27.443	-8.078	16284	15560	0	748
-27.912	-7.465	16282	15564	0	748
-28.850	-8.006	16280	15629	0	748
-30.220	-7.429	16279	15699	0	748
-29.751	-6.239	16277	15773	0	748
-29.138	-4.327	16274	15773	0	748
-23.585	-3.534	16271	15647	0	748
-20.808	-4.147	16269	15525	0	748
-20.627	-8.150	16267	15577	0	748
-19.690	-8.871	16267	15812	0	748
-20.014	-8.150	16267	16194	0	748
-16.769	-5.229	16269	16670	0	748
-16.408	-1.226	16271	17204	0	748
-13.704	0.649	16273	17790	0	748
-15.975	-0.072	16277	18406	0	748
-13.992	-1.298	16281	18953	0	748
-10.494	-2.344	16285	19417	0	748
-9.953	-3.101	16290	19903	0	748
-7.357	-1.875	16296	20446	0	748
-6.635	0.216	16301	20949	0	748
-5.698	2.236	16307	21310	0	748
-4.327	1.731	16313	21570	0	748
-9.665	-1.442	16320	21883	0	748
-16.120	-8.691	16327	22269	0	748
-23.224	-13.884	16335	22686	0	748
-26.109	-14.136	16343	23028	0	748
-21.493	-7.898	16351	23263	0	748
-8.583	1.190	16361	23506	0	748
0.072	8.402	16370	23805	0	748
3.029	9.592	16380	24061	0	748
2.200	6.058	16387	24157	0	748
-4.724	-1.082	16396	24066	0	748
-11.179	-5.013	16404	23849	0	748
-10.494	-6.167	16412	23580	0	748
-6.203	0.216	16420	23267	0	748
-1.767	6.888	16426	22885	1	772
0.469	11.071	16434	22430	0	772
-2.416	11.107	16440	21969	0	772
-7.934	2.849	16447	21570	0	772
-15.867	-6.491	16453	21197	0	772
-17.923	-13.054	16459	20789	0	772
-20.303	-14.641	16464	20272	0	772
-19.942	-14.172	16469	19682	0	772
-21.096	-11.468	16473	19101	0	772
-22.214	-14.894	16477	18558	0	772
-22.431	-19.113	16481	18046	0	772
-22.827	-24.270	16485	17521	0	772
-21.673	-27.912	16487	17000	0	772
-23.188	-28.164	16491	16514	0	772
-26.794	-27.515	16493	16081	0	772
-28.741	-27.371	16495	15673	0	772
-31.374	-27.876	16496	15269	0	772
-29.066	-25.929	16498	14861	0	772
-24.270	-24.666	16499	14414	0	772
-21.024	-22.214	16498	13863	0	772
-19.365	-22.034	16496	13255	0	772
-21.421	-23.044	16495	12752	0	772
-22.503	-25.099	16494	12400	0	772
-24.270	-26.073	16492	12109	0	772
-20.772	-23.332	16490	11784	0	772
-14.641	-20.159	16487	11445	0	772
-12.045	-18.500	16484	11202	0	772
-13.163	-21.998	16482	11055	0	772
-15.831	-26.542	16477	10812	0	772
-21.060	-31.013	16471	10338	0	772
-22.322	-32.997	16466	9831	0	772
-18.788	-29.499	16460	9588	0	772
-17.887	-25.676	16457	9683	0	772
-18.175	-25.460	16454	10004	0	772
-23.440	-28.850	16452	10430	0	772
-26.289	-32.889	16450	10855	0	772
-27.840	-35.233	16448	11298	0	772
-25.063	-37.000	16447	11827	0	772
-23.729	-37.108	16447	12444	0	772
-22.503	-38.154	16446	13082	0	772
-24.486	-42.553	16446	13694	0	772
-28.417	-44.428	16448	14306	0	772
-26.974	-44.284	16449	14961	0	772
-27.191	-43.527	16451	15647	0	772
-25.352	-39.704	16453	16302	0	772
-24.198	-37.324	16456	16883	0	772
-21.457	-34.547	16458	17421	0	772
-20.375	-32.239	16462	17920	0	772
-15.543	-27.876	16464	18337	0	772
-10.494	-24.702	16466	18632	0	772
-4.039	-20.844	16467	18749	0	772
0.397	-17.995	16467	18636	0	772
0.902	-17.743	16467	18389	0	772
-3.029	-17.815	16468	18272	0	772
-8.186	-20.880	16469	18319	0	772
-15.326	-24.630	16471	18371	0	772
-16.841	-26.433	16472	18358	0	772
-17.851	-28.922	16473	18298	0	772
-15.759	-29.679	16473	18176	0	772
-14.930	-28.273	16474	18033	0	772
-12.514	-27.732	16475	17911	0	772
-12.225	-28.345	16476	17829	0	772
-15.759	-30.112	16476	17751	0	772
-19.582	-35.846	16477	17660	0	772
-26.938	-38.478	16478	17547	0	772
-27.515	-37.793	16478	17425	0	772
-23.693	-31.410	16479	17304	0	772
-16.408	-21.529	16479	17139	0	772
-5.157	-12.441	16477	16844	0	772
4.436	-8.439	16476	16436	0	772
9.232	-10.819	16474	16063	0	772
9.701	-14.461	16472	15781	0	772
4.760	-18.680	16471	15538	0	772
-6.383	-24.162	16468	15230	0	772
-15.867	-27.624	16465	14857	0	772
-19.077	-28.597	16462	14514	0	772
-18.536	-29.174	16459	14249	0	772
-12.405	-25.784	16456	14036	0	772
-9.737	-22.467	16453	13841	0	772
-12.730	-20.736	16449	13646	0	772
-18.247	-25.207	16445	13494	0	772
-25.171	-29.318	16443	13455	0	772
-30.472	-34.764	16441	13537	0	772
-28.633	-37.468	16438	13681	0	772
-28.741	-38.406	16436	13785	0	772
-29.895	-39.380	16434	13837	0	772
-31.699	-39.308	16431	13893	0	772
-33.934	-41.183	16428	14006	0	772
-32.853	-39.668	16426	14158	0	772
-28.453	-35.954	16424	14314	0	772
-22.358	-29.391	16422	14466	0	772
-15.543	-22.791	16420	14657	0	772
-14.785	-20.159	16419	14913	0	772
-16.408	-22.935	16418	15191	0	772
-19.834	-29.174	16417	15417	0	772
-24.739	-35.377	16416	15599	0	772
-26.397	-36.603	16415	15781	0	772
-26.866	-35.197	16414	15994	0	772
-23.765	-35.233	16413	16207	0	772
-23.440	-35.124	16412	16332	0	772
-22.611	-36.062	16411	16363	0	772
-18.860	-35.305	16409	16345	0	772
-18.608	-32.780	16408	16328	0	772
-15.398	-30.328	16406	16319	0	772
-16.336	-29.463	16404	16276	0	772
-17.490	-29.643	16402	16172	0	772
-21.781	-29.895	16399	16007	0	772
-23.080	-28.886	16395	15825	0	772
-26.001	-29.138	16393	15664	0	772
-26.938	-31.122	16390	15538	0	772
-24.919	-32.384	16387	15434	0	772
-21.565	-31.266	16384	15304	0	772
-16.228	-29.102	16381	15087	0	772
-9.556	-23.873	16377	14852	0	772
-5.301	-18.897	16375	14835	0	772
-6.058	-17.670	16373	15043	0	772
-6.022	-18.175	16371	15226	0	772
-8.402	-19.365	16368	15230	0	772
-10.458	-19.546	16365	15130	0	772
-9.809	-18.500	16361	15048	0	772
-9.448	-14.497	16359	15043	0	772
-6.924	-9.701	16356	15100	0	772
-3.282	-6.527	16354	15165	0	772
-0.180	-4.039	16350	15174	0	772
1.226	-5.265	16348	15161	0	772
-0.721	-8.294	16345	15195	0	772
-6.455	-13.235	16343	15291	0	772
-11.035	-20.014	16340	15395	0	772
-18.031	-22.611	16338	15447	0	772
-19.726	-24.306	16336	15503	0	772
-20.700	-23.008	16334	15634	0	772
-19.618	-20.339	16333	15855	0	772
-18.969	-18.824	16332	16111	0	772
-18.644	-19.077	16331	16324	0	772
-15.074	-18.572	16330	16475	0	772
-12.622	-16.120	16328	16566	0	772
-7.393	-12.297	16326	16596	0	772
-4.003	-8.547	16325	16609	0	772
-5.409	-9.881	16323	16592	0	772
-9.665	-12.297	16320	16392	0	772
-15.687	-15.074	16316	16046	0	772
-16.805	-17.093	16313	15820	0	772
-18.572	-16.985	16311	15786	0	772
-15.759	-16.300	16308	15799	0	772
-16.444	-16.480	16306	15825	0	772
-15.398	-16.192	16304	15898	0	772
-14.966	-13.595	16303	16007	0	772
-15.759	-11.215	16302	16115	0	772
-14.064	-11.540	16301	16215	0	772
-15.398	-15.615	16300	16311	0	772
-18.500	-20.123	16298	16358	0	772
-23.368	-23.224	16295	16276	0	772
-23.224	-24.270	16292	16081	0	772
-21.132	-21.745	16290	15911	0	772
-17.418	-19.365	16288	15838	0	772
-10.819	-18.500	16285	15781	0	772
-9.304	-19.690	16282	15664	0	772
-14.821	-22.358	16279	15529	0	772
-19.690	-24.883	16277	15503	0	772
-25.676	-28.345	16275	15629	0	772
-26.506	-26.686	16275	15838	0	772
-23.476	-24.558	16273	16029	0	772
-18.933	-17.418	16272	16181	0	772
-13.992	-12.333	16272	16384	0	772
-11.251	-9.809	16273	16692	0	772
-9.917	-9.917	16275	17113	0	772
-7.862	-12.694	16277	17599	0	772
-5.842	-15.543	16280	18081	0	772
-6.275	-17.021	16283	18575	0	772
-4.724	-16.661	16288	19118	0	772
-6.383	-15.687	16292	19717	0	772
-8.366	-14.858	16298	20324	0	772
-8.222	-13.451	16305	20884	0	772
-10.819	-12.658	16311	21384	0	772
-9.989	-9.376	16318	21861	0	772
-9.088	-6.996	16326	22343	0	772
-6.816	-4.219	16334	22781	0	772
-6.491	-4.832	16342	23089	0	772
-5.986	-7.248	16349	23272	0	772
-9.989	-12.658	16358	23410	0	772
-15.218	-16.805	16366	23549	0	772
-20.339	-19.510	16374	23640	0	772
-21.745	-20.700	16381	23601	0	772
-22.178	-18.824	16388	23458	0	772
-19.221	-15.939	16395	23272	0	772
-14.966	-13.379	16403	23072	0	772
-11.215	-11.468	16410	22820	1	744
-11.143	-11.720	16417	22460	0	744
-11.612	-12.441	16422	21991	0	744
-12.622	-14.749	16427	21418	0	744
-18.356	-15.831	16430	20715	0	744
-19.582	-16.192	16434	19956	0	744
-19.437	-15.398	16437	19265	0	744
-18.788	-12.766	16440	18680	0	744
-14.100	-9.016	16442	18124	0	744
-10.530	-8.835	16444	17495	0	744
-11.648	-10.206	16446	16857	0	744
-12.009	-12.658	16450	16470	0	744
-12.405	-14.930	16452	16345	0	744
-13.379	-13.920	16455	16167	0	744
-12.946	-11.720	16457	15777	0	744
-12.982	-10.746	16458	15291	0	744
-17.274	-10.819	16459	14861	0	744
-17.418	-10.169	16459	14536	0	744
-16.480	-8.258	16460	14323	0	744
-11.504	-4.291	16461	14162	0	744
-7.248	-0.180	16462	13993	0	744
-3.787	-0.974	16462	13845	0	744
-4.652	-1.695	16463	13785	0	744
-5.986	-3.570	16465	13819	0	744
-6.491	-3.787	16465	13871	0	744
-6.744	-1.154	16466	13863	0	744
-7.321	-0.361	16466	13819	0	744
-10.746	-2.921	16466	13811	0	744
-14.208	-7.753	16467	13850	0	744
-18.933	-12.550	16467	13902	0	744
-16.733	-11.396	16467	13945	0	744
-13.451	-9.124	16467	14010	0	744
-7.068	-1.983	16467	14119	0	744
-6.311	-1.479	16469	14279	0	744
-10.566	-4.796	16469	14449	0	744
-20.627	-10.855	16469	14527	0	744
-29.463	-17.526	16468	14514	0	744
-35.593	-19.942	16468	14496	0	744
-35.593	-18.356	16467	14523	0	744
-30.256	-16.552	16467	14583	0	744
-27.119	-15.543	16466	14566	0	744
-25.856	-15.290	16463	14410	0	744
-26.073	-14.677	16462	14188	0	744
-29.895	-16.372	16459	14058	0	744
-31.662	-18.067	16458	14041	0	744
-31.049	-18.752	16455	14071	0	744
-29.030	-20.267	16454	14149	0	744
-26.506	-19.437	16454	14284	0	744
-23.765	-16.769	16452	14436	0	744
-24.486	-14.317	16451	14570	0	744
-26.470	-11.864	16450	14683	0	744
-26.037	-12.117	16449	14779	0	744
-25.676	-11.756	16447	14844	0	744
-23.080	-10.999	16445	14805	0	744
-22.286	-12.910	16442	14700	0	744
-20.123	-14.425	16440	14666	0	744
-21.637	-14.389	16438	14687	0	744
-21.204	-15.831	16435	14609	0	744
-21.168	-16.480	16432	14453	0	744
-23.404	-15.471	16429	14358	0	744
-22.358	-13.956	16425	14375	0	744
-22.863	-12.730	16423	14479	0	744
-24.630	-11.396	16422	14648	0	744
-23.188	-10.746	16420	14826	0	744
-25.820	-12.081	16418	14952	0	744
-27.840	-15.362	16416	15095	0	744
-28.020	-17.923	16416	15325	0	744
-30.545	-21.601	16415	15608	0	744
-33.249	-25.676	16414	15833	0	744
-34.367	-24.955	16413	15950	0	744
-33.682	-24.306	16412	16046	0	744
-32.095	-21.529	16411	16202	0	744
-32.420	-20.339	16411	16397	0	744
-33.177	-19.041	16411	16587	0	744
-34.043	-20.014	16409	16696	0	744
-33.898	-18.716	16409	16765	0	744
-31.374	-18.500	16409	16874	0	744
-29.210	-17.670	16409	17043	0	744
-26.938	-19.221	16409	17208	0	744
-25.748	-20.014	16409	17282	0	744
-23.549	-19.077	16409	17273	0	744
-19.329	-17.454	16409	17252	0	744
-18.752	-16.985	16408	17273	0	744
-20.736	-17.129	16408	17299	0	744
-23.044	-18.500	16407	17239	0	744
-26.614	-19.365	16406	17108	0	744
-27.948	-18.428	16404	16956	0	744
-24.630	-15.939	16404	16818	0	744
-20.916	-12.297	16402	16666	0	744
-19.185	-9.520	16400	16483	0	744
-16.589	-8.006	16398	16276	0	744
-19.762	-7.934	16396	16059	0	744
-20.772	-9.592	16394	15838	0	744
-20.555	-9.629	16391	15647	0	744
-16.012	-8.042	16391	15647	0	744
-14.208	-7.068	16390	15833	0	744
-12.369	-6.671	16389	15950	0	744
-17.310	-9.124	16387	15829	0	744
-21.421	-11.287	16384	15564	0	744
-25.099	-13.704	16382	15321	0	744
-22.539	-12.838	16380	15156	0	744
-19.041	-11.576	16377	15009	0	744
-16.625	-12.045	16373	14800	0	744
-14.930	-10.422	16369	14536	0	744
-14.858	-11.287	16365	14327	0	744
-17.166	-11.432	16363	14236	0	744
-16.048	-13.091	16359	14227	0	744
-16.300	-14.389	16356	14236	0	744
-16.300	-14.425	16352	14214	0	744
-17.166	-14.172	16350	14227	0	744
-16.985	-13.487	16347	14306	0	744
-20.159	-14.894	16344	14427	0	744
-24.270	-19.798	16342	14562	0	744
-27.047	-24.306	16339	14687	0	744
-28.128	-29.210	16337	14831	0	744
-27.227	-28.092	16335	15000	0	744
-20.700	-24.847	16334	15187	0	744
-14.605	-18.464	16332	15382	0	744
-8.294	-12.225	16331	15560	0	744
-3.498	-9.088	16329	15729	0	744
-3.895	-7.032	16327	15916	0	744
-3.390	-7.429	16327	16141	0	744
-3.173	-6.419	16326	16388	0	744
-3.570	-4.147	16326	16605	0	744
-4.580	-5.301	16325	16757	0	744
-7.140	-7.321	16325	16883	0	744
-10.386	-10.314	16324	17017	0	744
-13.595	-13.884	16324	17147	0	744
-13.343	-13.415	16323	17221	0	744
-12.117	-12.550	16322	17239	0	744
-14.208	-11.251	16322	17252	0	744
-14.894	-13.127	16322	17273	0	744
-19.293	-17.418	16321	17278	0	744
-19.978	-21.096	16319	17239	0	744
-22.863	-25.099	16318	17165	0	744
-22.286	-24.955	16317	17030	0	744
-22.178	-24.630	16314	16778	0	744
-22.683	-22.863	16312	16431	0	744
-22.791	-20.123	16309	16120	0	744
-22.322	-17.887	16306	15877	0	744
-22.250	-16.372	16303	15699	0	744
-20.736	-15.435	16301	15586	0	744
-20.808	-15.975	16299	15573	0	744
-18.824	-19.005	16299	15729	0	744
-19.690	-18.644	16299	15994	0	744
-16.300	-18.644	16298	16189	0	744
-16.805	-15.110	16297	16237	0	744
-14.136	-13.018	16296	16181	0	744
-15.579	-10.927	16294	16137	0	744
-13.595	-9.953	16293	16146	0	744
-13.776	-8.150	16291	16163	0	744
-10.242	-6.888	16290	16115	0	744
-7.032	-4.580	16288	16024	0	744
-4.616	-3.967	16287	15985	0	744
-5.878	-5.121	16286	16055	0	744
-8.402	-8.943	16285	16172	0	744
-12.297	-10.927	16285	16276	0	744
-12.694	-12.802	16284	16337	0	744
-10.314	-10.674	16284	16384	0	744
-4.183	-6.960	16283	16462	0	744
-0.685	-5.301	16283	16618	0	744
-0.829	-6.203	16284	16818	0	744
-4.255	-8.366	16284	16982	0	744
-7.212	-12.802	16284	17126	0	744
-7.862	-15.218	16286	17321	0	744
-8.763	-13.523	16288	17599	0	744
-7.248	-14.461	16290	17933	0	744
-9.520	-14.136	16293	18263	0	744
-10.530	-14.317	16296	18580	0	744
-11.937	-15.471	16300	18914	0	744
-11.323	-16.012	16304	19283	0	744
-8.439	-16.733	16309	19643	0	744
-6.888	-17.670	16313	19947	0	744
-2.957	-16.625	16318	20207	0	744
0.793	-13.271	16323	20463	0	744
2.885	-6.888	16329	20711	0	744
3.390	-0.288	16334	20906	0	744
2.092	2.957	16340	21058	0	744
1.659	3.354	16346	21197	0	744
2.272	3.823	16351	21284	0	744
8.402	3.859	16357	21214	0	744
11.973	8.006	16361	20989	0	744
13.776	9.088	16365	20719	0	744
13.379	10.097	16369	20450	0	744
9.088	7.934	16372	20112	1	736
7.357	7.248	16374	19643	0	736
7.357	9.629	16376	19101	0	736
10.386	13.776	16378	18623	0	736
10.422	16.589	16381	18276	0	736
9.520	15.543	16384	18046	0	736
4.760	11.360	16385	17837	0	736
0.361	6.455	16387	17590	0	736
-2.416	3.173	16390	17364	0	736
-6.203	2.272	16393	17230	0	736
-6.996	3.750	16396	17199	0	736
-8.258	3.823	16400	17199	0	736
-8.943	6.022	16403	17147	0	736
-8.078	7.032	16406	17069	0	736
-11.287	4.760	16409	16987	0	736
-15.579	-1.154	16412	16909	0	736
-22.250	-8.439	16414	16844	0	736
-25.424	-11.396	16417	16735	0	736
-21.926	-9.520	16419	16548	0	736
-12.009	-1.695	16420	16315	0	736
-6.599	4.436	16421	16107	0	736
-5.265	5.193	16423	15990	0	736
-10.566	0.216	16425	15898	0	736
-17.526	-7.212	16426	15829	0	736
-23.080	-11.432	16429	15829	0	736
-25.207	-14.245	16431	15911	0	736
-23.044	-14.100	16434	16037	0	736
-22.503	-12.477	16436	16124	0	736
-23.188	-12.261	16438	16154	0	736
-18.680	-11.504	16441	16176	0	736
-20.087	-10.999	16443	16224	0	736
-20.159	-14.785	16445	16263	0	736
-23.981	-20.519	16447	16263	0	736
-28.922	-25.279	16449	16215	0	736
-29.282	-27.840	16450	16115	0	736
-27.948	-24.666	16450	15972	0	736
-25.820	-19.546	16451	15825	0	736
-25.532	-13.812	16451	15681	0	736
-26.794	-13.235	16451	15538	0	736
-30.040	-13.668	16451	15360	0	736
-31.374	-15.146	16450	15074	0	736
-30.112	-16.084	16448	14757	0	736
-28.092	-15.471	16448	14661	0	736
-27.912	-15.146	16449	14796	0	736
-24.522	-16.084	16449	14913	0	736
-23.765	-17.851	16449	14909	0	736
-24.053	-20.123	16448	14852	0	736
-25.316	-21.241	16448	14783	0	736
-28.128	-23.152	16446	14709	0	736
-29.427	-21.024	16445	14635	0	736
-29.463	-19.257	16444	14544	0	736
-28.417	-17.706	16442	14397	0	736
-26.397	-17.815	16440	14266	0	736
-27.263	-20.808	16438	14236	0	736
-28.597	-25.171	16437	14301	0	736
-28.814	-28.020	16436	14358	0	736
-28.994	-24.162	16434	14349	0	736
-23.260	-15.615	16432	14332	0	736
-18.283	-6.635	16431	14375	0	736
-18.067	-2.344	16429	14488	0	736
-19.149	-6.167	16428	14614	0	736
-25.352	-16.012	16427	14709	0	736
-26.902	-24.919	16425	14783	0	736
-24.702	-25.243	16425	14883	0	736
-19.582	-20.195	16424	15069	0	736
-15.146	-13.054	16424	15308	0	736
-17.634	-10.422	16423	15503	0	736
-21.493	-13.127	16422	15634	0	736
-26.578	-16.949	16422	15759	0	736
-30.076	-18.356	16422	15937	0	736
-29.643	-17.382	16421	16137	0	736
-26.181	-14.713	16422	16315	0	736
-24.378	-13.668	16422	16453	0	736
-23.801	-15.074	16421	16496	0	736
-21.204	-15.038	16418	16337	0	736
-21.673	-15.038	16416	16003	0	736
-24.342	-15.903	16413	15677	0	736
-27.696	-18.716	16410	15434	0	736
-33.718	-23.044	16407	15230	0	736
-40.389	-26.542	16404	15048	0	736
-24.883	-8.691	16289	15573	0	736
-24.775	-12.441	16289	15825	0	736
-23.909	-13.595	16288	16020	0	736
-20.267	-11.684	16287	16172	0	736
-14.821	-7.321	16286	16332	0	736
-14.136	-6.419	16287	16548	0	736
-16.913	-5.986	16287	16774	0	736
-19.401	-6.780	16286	16917	0	736
-22.503	-7.681	16286	16995	0	736
-23.693	-6.996	16286	17074	0	736
-23.440	-8.258	16286	17195	0	736
-24.594	-10.746	16286	17347	0	736
-26.722	-16.192	16286	17443	0	736
-27.768	-19.726	16286	17464	0	736
-29.318	-21.926	16287	17477	0	736
-30.653	-21.673	16287	17521	0	736
-31.482	-19.185	16287	17568	0	736
-31.410	-17.202	16287	17577	0	736
-31.915	-14.930	16288	17568	0	736
-30.112	-12.586	16288	17573	0	736
-28.777	-10.819	16289	17612	0	736
-25.027	-8.871	16290	17694	0	736
-24.017	-8.943	16292	17794	0	736
-23.729	-9.412	16292	17907	0	736
-22.395	-11.468	16294	17998	0	736
-22.575	-11.071	16295	18011	0	736
-21.637	-8.150	16297	17972	0	736
-16.697	-3.750	16298	18028	0	736
-14.461	0.974	16301	18232	0	736
-13.812	3.065	16305	18497	0	736
-15.146	1.551	16307	18688	0	736
-18.644	-1.911	16311	18805	0	736
-18.897	-5.049	16314	18962	0	736
-19.473	-4.183	16319	19226	0	736
-19.113	-3.390	16324	19561	0	736
-15.723	-0.974	16329	19851	0	736
-14.245	1.334	16334	20042	0	736
-10.819	1.587	16340	20216	0	736
-10.602	0.144	16346	20463	0	736
-14.677	-4.760	16353	20763	0	736
-22.647	-9.196	16359	20993	0	736
-29.751	-13.812	16366	21110	0	736
-34.187	-14.245	16373	21223	0	736
-31.302	-12.477	16380	21349	0	736
-28.309	-8.763	16385	21397	0	736
-28.201	-9.016	16392	21349	0	736
-28.958	-10.422	16398	21214	0	736
-30.076	-10.674	16403	21019	0	736
-28.020	-9.016	16409	20789	0	736
-19.654	-3.246	16413	20494	1	764
-12.081	3.101	16418	20129	0	764
-7.753	6.744	16422	19726	0	764
-8.979	5.878	16426	19318	0	764
-15.975	2.741	16429	18918	0	764
-20.014	-2.092	16434	18571	0	764
-24.053	-3.787	16437	18276	0	764
-21.421	-3.895	16441	17972	0	764
-18.716	-4.364	16444	17660	0	764
-17.454	-3.678	16447	17395	0	764
-17.057	-5.626	16450	17160	0	764
-20.952	-8.511	16454	16913	0	764
-21.421	-13.163	16455	16631	0	764
-21.781	-15.579	16458	16332	0	764
-19.365	-16.264	16459	16024	0	764
-17.093	-15.146	16461	15716	0	764
-15.939	-11.360	16462	15408	0	764
-17.454	-10.602	16463	15087	0	764
-18.139	-11.035	16463	14796	0	764
-21.962	-12.009	16464	14544	0	764
-24.558	-15.326	16463	14306	0	764
-23.909	-16.192	16464	14123	0	764
-24.089	-17.634	16465	14115	0	764
-24.450	-16.048	16466	14197	0	764
-21.349	-16.192	16467	14167	0	764
-23.152	-14.930	16466	13971	0	764
-23.332	-13.127	16464	13715	0	764
-22.935	-15.435	16463	13507	0	764
-23.873	-15.290	16462	13394	0	764
-20.375	-14.785	16461	13333	0	764
-19.726	-13.920	16459	13225	0	764
-19.041	-13.631	16457	13042	0	764
-19.365	-11.756	16454	12904	0	764
-23.837	-13.559	16453	12912	0	764
-27.587	-16.264	16452	13042	0	764
-31.230	-20.664	16450	13216	0	764
-33.574	-25.640	16449	13372	0	764
-35.088	-29.174	16448	13529	0	764
-36.387	-32.672	16447	13715	0	764
-35.233	-30.581	16446	13937	0	764
-32.420	-27.696	16446	14167	0	764
-29.499	-22.539	16445	14362	0	764
-25.532	-18.139	16445	14544	0	764
-25.352	-16.516	16444	14774	0	764
-24.125	-17.454	16445	15082	0	764
-25.424	-20.231	16445	15417	0	764
-24.486	-22.178	16445	15655	0	764
-20.519	-20.736	16445	15794	0	764
-16.300	-18.824	16444	15885	0	764
-11.323	-15.038	16443	15916	0	764
-10.314	-12.009	16442	15846	0	764
-9.556	-9.124	16439	15681	0	764
-11.215	-8.222	16436	15404	0	764
-14.894	-6.347	16433	15065	0	764
-13.812	-7.104	16430	14874	0	764
-14.136	-7.321	16428	14861	0	764
-16.733	-11.540	16425	14891	0	764
-19.365	-16.228	16424	14931	0	764
-23.476	-20.772	16421	14970	0	764
-27.624	-23.476	16418	14944	0	764
-25.748	-23.765	16416	14835	0	764
-23.044	-21.385	16413	14744	0	764
-20.447	-18.788	16410	14744	0	764
-17.202	-17.490	16408	14792	0	764
-20.772	-17.202	16405	14779	0	764
-23.080	-15.146	16402	14705	0	764
-22.755	-13.595	16400	14696	0	764
-22.322	-11.179	16397	14805	0	764
-17.562	-10.566	16395	14944	0	764
-16.733	-12.550	16392	15030	0	764
-15.110	-15.507	16390	15091	0	764
-19.618	-18.716	16388	15204	0	764
-19.726	-19.582	16387	15399	0	764
-19.618	-16.372	16386	15660	0	764
-13.920	-12.946	16385	15920	0	764
-10.133	-9.845	16384	16111	0	764
-8.835	-9.520	16384	16306	0	764
-11.179	-12.441	16384	16540	0	764
-20.014	-16.661	16384	16713	0	764
-24.450	-21.709	16383	16752	0	764
-27.227	-24.630	16381	16726	0	764
-29.066	-24.450	16380	16718	0	764
-27.984	-23.549	16380	16774	0	764
-30.617	-25.207	16379	16874	0	764
-34.259	-24.630	16378	16965	0	764
-36.314	-28.237	16377	16987	0	764
-34.908	-27.840	16377	16956	0	764
-33.718	-28.525	16376	16956	0	764
-32.564	-26.722	16376	17043	0	764
-33.069	-26.506	16376	17152	0	764
-34.872	-26.794	16376	17186	0	764
-33.862	-23.296	16375	17178	0	764
-29.859	-16.913	16375	17182	0	764
-25.496	-11.396	16375	17217	0	764
-20.267	-9.160	16374	17230	0	764
-19.437	-10.422	16374	17152	0	764
-17.274	-13.595	16373	16982	0	764
-16.841	-16.300	16371	16796	0	764
-15.326	-14.569	16369	16627	0	764
-16.661	-12.225	16368	16479	0	764
-16.733	-11.937	16367	16341	0	764
-17.743	-11.468	16365	16194	0	764
-14.821	-9.232	16363	16016	0	764
-13.271	-7.825	16360	15751	0	764
-12.261	-7.465	16358	15495	0	764
-14.064	-10.963	16356	15430	0	764
-20.519	-14.966	16355	15486	0	764
-21.421	-18.247	16351	15373	0	764
-22.142	-17.346	16348	15061	0	764
-21.529	-16.841	16344	14709	0	764
-23.549	-18.969	16340	14470	0	764
-28.669	-24.558	16336	14310	0	764
-33.393	-29.318	16331	14045	0	764
-32.131	-28.669	16326	13641	0	764
-26.037	-21.457	16320	13281	0	764
-16.048	-12.586	16316	13138	0	764
-11.323	-5.301	16313	13242	0	764
-11.215	-4.436	16310	13516	0	764
-13.379	-6.275	16308	13806	0	764
-17.526	-9.412	16305	14032	0	764
-14.317	-9.448	16303	14262	0	764
-9.629	-5.517	16302	14566	0	764
-2.957	-1.875	16300	14939	0	764
0.865	0.072	16299	15308	0	764
2.200	-1.479	16299	15625	0	764
-1.515	-4.400	16297	15924	0	764
-5.301	-7.753	16297	16250	0	764
-10.530	-9.556	16298	16596	0	764
-12.874	-10.242	16298	16913	0	764
-15.254	-8.150	16297	17130	0	764
-10.746	-5.734	16297	17286	0	764
-10.025	-3.642	16298	17456	0	764
-10.097	-4.688	16297	17651	0	764
-13.307	-8.547	16298	17811	0	764
-22.070	-14.641	16298	17911	0	764
-24.847	-16.480	16298	17968	0	764
-23.945	-14.894	16298	18007	0	764
-20.267	-8.475	16299	18046	0	764
-16.697	-4.508	16299	18081	0	764
-18.897	-5.662	16299	18072	0	764
-22.322	-10.169	16300	18015	0	764
-26.974	-16.444	16299	17920	0	764
-27.696	-19.978	16298	17768	0	764
-23.404	-19.005	16297	17551	0	764
-20.916	-17.454	16297	17312	0	764
-18.969	-16.120	16295	17091	0	764
-17.670	-16.228	16293	16835	0	764
-19.005	-15.182	16290	16470	0	764
-17.057	-11.287	16287	16050	0	764
-17.238	-7.753	16284	15703	0	764
-14.605	-4.508	16282	15482	0	764
-16.300	-4.724	16280	15321	0	764
-17.093	-9.340	16276	15126	0	764
-22.827	-14.172	16273	14896	0	764
-25.207	-18.464	16272	14740	0	764
-29.066	-21.493	16269	14731	0	764
-31.374	-21.349	16267	14857	0	764
-29.751	-19.365	16267	15035	0	764
-23.368	-14.713	16265	15178	0	764
-18.752	-11.179	16265	15343	0	764
-15.110	-7.825	16265	15612	0	764
-13.163	-6.780	16265	15950	0	764
-12.874	-8.258	16266	16285	0	764
-13.523	-8.042	16267	16579	0	764
-12.694	-7.970	16268	16939	0	764
-11.035	-6.671	16272	17412	0	764
-15.507	-5.770	16275	17955	0	764
-17.670	-8.078	16279	18493	0	764
-21.457	-11.432	16283	18992	0	764
-20.050	-14.245	16288	19478	0	764
-19.473	-16.589	16294	19995	0	764
-15.543	-16.661	16301	20568	0	764
-12.910	-13.451	16307	21145	0	764
-6.852	-9.953	16315	21631	0	764
-3.931	-7.429	16322	22022	0	764
-1.190	-4.904	16330	22395	0	764
-2.957	-6.455	16339	22798	0	764
-4.796	-8.114	16348	23189	0	764
-8.691	-10.169	16356	23454	0	764
-12.441	-11.143	16364	23541	0	764
-16.336	-11.540	16372	23528	0	764
-20.447	-9.773	16380	23476	0	764
-25.748	-10.566	16387	23389	0	764
-25.063	-9.953	16395	23219	0	764
-24.342	-11.684	16402	22968	1	736
-23.657	-14.425	16409	22655	0	736
-20.123	-17.202	16415	22299	0	736
-20.808	-16.985	16422	21909	0	736
-16.480	-14.677	16428	21479	0	736
-14.930	-11.287	16433	20997	0	736
-12.946	-8.835	16437	20459	0	736
-14.966	-8.727	16442	19864	0	736
-17.346	-10.927	16445	19239	0	736
-19.834	-13.884	16449	18640	0	736
-20.231	-12.874	16452	18094	0	736
-21.529	-12.514	16455	17555	0	736
-20.195	-12.225	16457	16943	0	736
-22.142	-12.658	16458	16285	0	736
-24.991	-17.166	16459	15668	0	736
-24.666	-21.421	16459	15152	0	736
-23.837	-20.916	16461	14740	0	736
-22.142	-20.483	16461	14388	0	736
-17.670	-16.336	16462	14036	0	736
-19.762	-16.048	16461	13724	0	736
-19.906	-16.913	16462	13520	0	736
-21.385	-20.050	16463	13450	0	736
-22.431	-20.447	16464	13455	0	736
-18.500	-19.437	16465	13463	0	736
-17.779	-18.211	16466	13459	0	736
-16.480	-17.743	16467	13490	0	736
-18.788	-19.437	16468	13581	0	736
-18.788	-19.870	16468	13685	0	736
-20.303	-18.933	16469	13763	0	736
-20.303	-17.634	16470	13832	0	736
-20.988	-15.146	16471	13945	0	736
-20.014	-14.064	16471	14110	0	736
-21.673	-13.992	16473	14288	0	736
-22.322	-15.687	16473	14431	0	736
-19.077	-16.516	16474	14527	0	736
-18.752	-15.867	16474	14601	0	736
-12.405	-13.199	16475	14687	0	736
-9.665	-9.304	16475	14787	0	736
-8.907	-9.845	16475	14857	0	736
-11.576	-13.668	16475	14891	0	736
-16.156	-19.762	16475	14926	0	736
-20.375	-24.342	16475	14970	0	736
-21.096	-23.621	16475	14991	0	736
-19.113	-19.870	16473	14913	0	736
-19.654	-16.877	16471	14683	0	736
-19.978	-18.464	16467	14362	0	736
-24.270	-21.313	16465	14071	0	736
-28.922	-26.542	16462	13884	0	736
-31.049	-31.590	16460	13811	0	736
-31.951	-32.492	16457	13832	0	736
-30.364	-32.420	16455	13871	0	736
-27.587	-30.256	16452	13828	0	736
-26.830	-27.876	16449	13720	0	736
-24.955	-25.532	16447	13694	0	736
-20.555	-21.277	16445	13806	0	736
-18.897	-16.589	16443	13993	0	736
-15.074	-10.783	16441	14154	0	736
-13.307	-7.645	16438	14262	0	736
-12.045	-6.599	16437	14388	0	736
-11.251	-9.592	16436	14609	0	736
-13.091	-12.405	16435	14913	0	736
-13.631	-13.920	16434	15221	0	736
-14.353	-14.497	16433	15417	0	736
-18.897	-14.713	16430	15365	0	736
-21.168	-15.723	16426	15013	0	736
-23.909	-18.103	16421	14579	0	736
-26.397	-21.313	16417	14340	0	736
-28.453	-24.955	16413	14262	0	736
-26.578	-28.561	16409	14271	0	736
-25.243	-30.076	16408	14392	0	736
-23.729	-27.263	16405	14640	0	736
-20.664	-25.243	16404	14974	0	736
-22.539	-22.611	16403	15312	0	736
-26.506	-23.837	16403	15655	0	736
-33.970	-29.607	16404	16033	0	736
-39.163	-36.062	16404	16462	0	736
-42.914	-40.930	16405	16900	0	736
-42.373	-43.455	16405	17269	0	736
-40.678	-43.563	16407	17568	0	736
-38.082	-44.176	16408	17829	0	736
-35.341	-41.039	16409	18050	0	736
-30.400	-36.891	16409	18206	0	736
-25.496	-31.482	16410	18272	0	736
-21.024	-23.440	16410	18267	0	736
-16.480	-20.123	16411	18245	0	736
-14.713	-18.320	16411	18241	0	736
-13.054	-20.195	16412	18241	0	736
-13.235	-21.493	16412	18198	0	736
-11.396	-21.168	16412	18085	0	736
-8.475	-18.428	16412	17885	0	736
-5.013	-15.795	16411	17599	0	736
-4.940	-14.641	16409	17247	0	736
-4.075	-15.218	16407	16839	0	736
-5.229	-14.172	16403	16392	0	736
-4.219	-12.622	16400	15916	0	736
-3.426	-9.016	16395	15408	0	736
-2.813	-7.789	16391	14913	0	736
-4.183	-8.150	16387	14514	0	736
-4.904	-11.143	16384	14240	0	736
-7.068	-11.107	16380	14015	0	736
-7.285	-12.405	16376	13741	0	736
-10.458	-11.756	16371	13463	0	736
-12.441	-11.360	16367	13316	0	736
-13.451	-10.566	16364	13359	0	736
-10.097	-9.845	16361	13546	0	736
-5.373	-5.337	16359	13789	0	736
1.046	-0.577	16357	14015	0	736
6.455	4.904	16356	14258	0	736
8.979	7.609	16354	14562	0	736
7.465	4.688	16353	14900	0	736
2.849	0.036	16352	15217	0	736
-3.137	-6.094	16351	15495	0	736
-6.924	-7.068	16351	15742	0	736
-6.635	-3.282	16350	15990	0	736
-5.049	-1.010	16350	16276	0	736
-4.291	-0.108	16350	16557	0	736
-3.282	-3.065	16350	16778	0	736
-7.609	-7.609	16349	16956	0	736
-12.189	-11.937	16349	17113	0	736
-16.156	-15.723	16349	17195	0	736
-22.827	-20.988	16348	17204	0	736
-27.768	-26.542	16348	17221	0	736
-32.816	-30.689	16347	17278	0	736
-33.538	-31.049	16347	17334	0	736
-31.266	-26.902	16347	17382	0	736
-26.794	-21.673	16347	17425	0	736
-22.250	-16.985	16347	17434	0	736
-18.464	-15.146	16346	17395	0	736
-16.913	-15.579	16346	17334	0	736
-14.641	-16.372	16345	17265	0	736
-13.631	-15.543	16344	17191	0	736
-12.225	-13.595	16344	17104	0	736
-9.196	-10.891	16343	17009	0	736
-4.436	-8.727	16342	16874	0	736
-2.524	-6.058	16339	16614	0	736
-0.685	-6.599	16336	16241	0	736
-2.921	-7.068	16334	15898	0	736
-8.294	-9.556	16331	15664	0	736
-12.586	-13.992	16329	15482	0	736
-15.651	-19.582	16326	15256	0	736
-20.555	-23.440	16322	14991	0	736
-21.421	-27.010	16319	14800	0	736
-23.873	-28.705	16317	14735	0	736
-24.234	-27.155	16315	14766	0	736
-23.512	-26.109	16312	14813	0	736
-19.437	-21.385	16311	14852	0	736
-16.156	-17.670	16309	14970	0	736
-10.061	-11.107	16309	15195	0	736
-6.383	-8.330	16308	15434	0	736
-8.583	-7.934	16307	15612	0	736
-11.035	-10.133	16306	15716	0	736
-10.530	-11.396	16305	15803	0	736
-8.258	-8.763	16304	15920	0	736
-4.724	-4.183	16303	16063	0	736
-0.108	1.515	16303	16176	0	736
-0.397	2.128	16301	16211	0	736
-0.829	2.092	16300	16202	0	736
1.082	0.902	16299	16224	0	736
1.406	-0.649	16298	16332	0	736
-0.613	-1.515	16298	16501	0	736
-4.544	-5.157	16298	16640	0	736
-9.232	-6.239	16297	16709	0	736
-8.763	-4.940	16297	16752	0	736
-4.616	-1.767	16297	16809	0	736
0.072	0.036	16297	16861	0	736
1.298	-0.505	16296	16865	0	736
-0.829	-4.796	16295	16835	0	736
-4.652	-7.465	16294	16813	0	736
-6.275	-6.996	16294	16813	0	736
-6.671	-5.698	16293	16831	0	736
-5.481	-4.508	16292	16835	0	736
-6.058	-2.344	16292	16809	0	736
-5.878	-2.705	16292	16757	0	736
-6.599	-3.787	16291	16713	0	736
-8.691	-7.789	16291	16709	0	736
-10.927	-12.297	16290	16722	0	736
-12.369	-16.444	16290	16696	0	736
-12.045	-15.074	16289	16657	0	736
-10.242	-11.864	16289	16705	0	736
-9.268	-10.169	16292	16956	0	736
-11.215	-12.477	16296	17490	0	736
-18.716	-18.969	16301	18241	0	736
-19.510	-25.460	16306	18970	0	736
-19.510	-26.542	16312	19495	0	736
-12.189	-23.585	16316	19860	0	736
-6.167	-15.507	16322	20203	0	736
-3.210	-11.179	16328	20589	0	736
-7.212	-10.206	16334	21006	0	736
-11.179	-12.477	16341	21366	0	736
-16.444	-16.661	16348	21605	0	736
-15.831	-18.824	16354	21774	0	736
-15.146	-19.870	16361	21935	0	736
-12.477	-20.123	16368	22082	0	736
-9.016	-18.356	16375	22182	0	736
-9.016	-16.480	16382	22191	0	736
-7.465	-14.858	16388	22134	0	736
-8.294	-12.982	16395	22069	0	736
-9.376	-13.884	16402	22000	0	736
-6.996	-14.894	16409	21887	0	736
-5.409	-13.018	16415	21679	1	796
-3.029	-9.881	16420	21379	0	796
-2.921	-9.989	16425	20958	0	796
-7.501	-11.468	16429	20411	0	796
-10.566	-16.841	16433	19821	0	796
-14.353	-20.339	16436	19278	0	796
-13.271	-18.716	16440	18788	0	796
-9.737	-15.398	16443	18345	0	796
-10.458	-12.550	16446	17976	0	796
-11.648	-14.569	16450	17694	0	796
-14.930	-19.293	16454	17460	0	796
-20.231	-23.945	16456	17139	0	796
-19.113	-25.388	16459	16683	0	796
-20.303	-24.630	16460	16276	0	796
-18.897	-21.926	16463	16003	0	796
-18.067	-19.942	16464	15777	0	796
-13.415	-17.129	16467	15569	0	796
-10.242	-14.677	16468	15369	0	796
-6.347	-12.550	16470	15126	0	796
-6.347	-13.595	16471	14848	0	796
-11.035	-14.641	16471	14627	0	796
-17.995	-17.454	16472	14492	0	796
-20.555	-17.238	16473	14388	0	796
-20.808	-15.254	16473	14219	0	796
-17.274	-11.612	16473	14002	0	796
-13.127	-9.592	16473	13845	0	796
-8.511	-6.599	16473	13811	0	796
-8.366	-4.977	16474	13841	0	796
-6.816	-3.787	16474	13837	0	796
-6.022	-3.498	16473	13767	0	796
-6.058	-3.173	16472	13685	0	796
-7.429	-2.849	16472	13659	0	796
-9.340	-3.714	16472	13685	0	796
-13.415	-3.498	16470	13702	0	796
-16.949	-5.193	16469	13663	0	796
-22.791	-8.619	16469	13672	0	796
-27.155	-13.379	16468	13811	0	796
-30.112	-14.569	16468	14028	0	796
-30.184	-14.821	16469	14258	0	796
-29.066	-12.441	16469	14462	0	796
-27.876	-11.720	16469	14657	0	796
-29.571	-13.271	16470	14883	0	796
-34.295	-16.661	16470	15143	0	796
-37.973	-22.431	16471	15408	0	796
-39.704	-25.027	16471	15612	0	796
-42.157	-25.099	16472	15746	0	796
-40.930	-24.811	16472	15872	0	796
-41.039	-23.152	16473	16029	0	796
-40.029	-21.277	16474	16211	0	796
-37.108	-20.123	16475	16337	0	796
-32.023	-16.156	16475	16388	0	796
-28.128	-12.045	16475	16423	0	796
-23.693	-7.393	16476	16457	0	796
-22.467	-5.337	16476	16470	0	796
-23.585	-6.058	16476	16444	0	796
-27.263	-10.314	16475	16388	0	796
-31.338	-12.730	16474	16328	0	796
-35.737	-16.300	16474	16263	0	796
-38.911	-19.618	16473	16185	0	796
-41.688	-23.729	16472	16081	0	796
-41.363	-25.748	16471	15950	0	796
-37.613	-24.666	16469	15799	0	796
-32.203	-18.247	16468	15651	0	796
-26.866	-13.451	16467	15495	0	796
-28.309	-12.045	16464	15321	0	796
-33.682	-16.625	16462	15126	0	796
-41.688	-22.755	16459	14926	0	796
-45.114	-26.722	16457	14744	0	796
-43.671	-24.414	16454	14596	0	796
-38.262	-20.664	16451	14470	0	796
-34.259	-16.913	16449	14384	0	796
-34.006	-16.949	16446	14379	0	796
-33.754	-18.356	16443	14392	0	796
-33.105	-18.392	16441	14353	0	796
-29.535	-17.238	16438	14327	0	796
-24.162	-10.025	16436	14375	0	796
-19.618	-3.823	16434	14488	0	796
-15.398	0.649	16432	14596	0	796
-10.855	2.741	16429	14644	0	796
-9.052	3.462	16427	14696	0	796
-6.167	1.947	16426	14796	0	796
-8.222	-0.325	16424	14917	0	796
-14.064	-3.137	16421	15004	0	796
-23.440	-6.563	16419	15022	0	796
-29.138	-9.124	16416	15009	0	796
-29.715	-10.097	16413	15039	0	796
-28.994	-10.278	16412	15165	0	796
-29.354	-13.018	16410	15304	0	796
-32.312	-18.175	16408	15360	0	796
-39.812	-22.972	16405	15369	0	796
-43.094	-23.945	16404	15421	0	796
-39.235	-21.493	16401	15534	0	796
-32.023	-16.444	16400	15655	0	796
-27.515	-12.910	16398	15764	0	796
-28.345	-13.704	16396	15864	0	796
-34.403	-19.690	16394	15881	0	796
-41.760	-26.073	16392	15799	0	796
-47.422	-30.689	16389	15738	0	796
-48.251	-32.708	16387	15786	0	796
-46.448	-31.122	16386	15916	0	796
-42.914	-28.345	16384	16029	0	796
-39.163	-27.299	16383	16050	0	796
-36.639	-25.135	16381	15998	0	796
-33.466	-25.027	16378	15907	0	796
-32.348	-22.322	16376	15799	0	796
-32.456	-18.933	16373	15668	0	796
-35.990	-18.175	16368	15482	0	796
-38.875	-20.880	16364	15256	0	796
-41.507	-24.811	16361	15091	0	796
-38.695	-27.010	16358	15017	0	796
-34.908	-27.876	16355	14961	0	796
-29.931	-24.414	16350	14831	0	796
-27.551	-22.755	16346	14653	0	796
-29.968	-21.637	16342	14536	0	796
-32.492	-22.250	16339	14518	0	796
-33.862	-19.726	16335	14523	0	796
-33.321	-18.933	16331	14518	0	796
-32.384	-17.166	16328	14549	0	796
-31.554	-17.021	16325	14648	0	796
-32.095	-18.283	16323	14818	0	796
-34.764	-21.457	16321	15052	0	796
-37.396	-26.325	16318	15295	0	796
-40.281	-30.328	16317	15499	0	796
-41.363	-34.872	16315	15712	0	796
-41.507	-34.800	16314	15946	0	796
-40.858	-32.708	16313	16176	0	796
-39.632	-28.705	16311	16384	0	796
-38.947	-28.525	16311	16570	0	796
-41.832	-29.823	16309	16726	0	796
-40.462	-30.472	16309	16883	0	796
-36.603	-30.689	16308	17069	0	796
-30.797	-25.929	16308	17265	0	796
-26.542	-20.916	16307	17421	0	796
-24.450	-17.779	16308	17542	0	796
-27.299	-17.598	16307	17655	0	796
-28.850	-20.700	16308	17781	0	796
-29.066	-20.988	16307	17885	0	796
-24.162	-21.024	16307	17894	0	796
-21.962	-20.267	16306	17807	0	796
-21.241	-20.483	16306	17694	0	796
-19.762	-20.483	16305	17603	0	796
-21.493	-22.034	16304	17525	0	796
-23.512	-23.044	16303	17425	0	796
-24.991	-23.224	16302	17317	0	796
-28.417	-24.919	16301	17199	0	796
-30.581	-24.991	16300	17065	0	796
-30.256	-25.856	16300	16974	0	796
-29.679	-24.198	16301	17052	0	796
-27.804	-22.575	16301	17282	0	796
-28.237	-24.306	16301	17412	0	796
-29.607	-25.388	16301	17269	0	796
-29.246	-28.922	16298	16935	0	796
-26.361	-29.210	16297	16583	0	796
-21.962	-27.010	16295	16302	0	796
-20.014	-23.044	16292	16076	0	796
-19.798	-22.322	16290	15890	0	796
-23.873	-23.260	16288	15703	0	796
-30.112	-28.741	16286	15516	0	796
-35.269	-34.223	16284	15373	0	796
-37.721	-37.721	16282	15304	0	796
-38.983	-40.642	16280	15260	0	796
-39.344	-40.714	16278	15178	0	796
-36.603	-41.327	16276	15100	0	796
-33.429	-39.776	16274	15091	0	796
-29.391	-37.757	16272	15143	0	796
-25.712	-35.918	16271	15178	0	796
-20.772	-33.538	16269	15169	0	796
-18.428	-32.853	16266	15148	0	796
-19.726	-32.312	16264	15169	0	796
-20.231	-32.780	16264	15256	0	796
-24.342	-34.295	16262	15378	0	796
-24.198	-33.069	16261	15460	0	796
-21.385	-31.915	16259	15529	0	796
-17.562	-29.354	16259	15660	0	796
-13.559	-26.325	16258	15881	0	796
-12.225	-21.313	16259	16167	0	796
-15.867	-19.942	16259	16436	0	796
-15.759	-17.851	16259	16679	0	796
-15.435	-18.320	16260	16935	0	796
-10.891	-18.897	16261	17239	0	796
-6.094	-19.582	16264	17603	0	796
-6.022	-21.024	16266	17998	0	796
-10.097	-23.909	16268	18276	0	796
-17.093	-29.246	16270	18371	0	796
-23.260	-33.141	16272	18449	0	796
-23.404	-33.934	16274	18658	0	796
-21.168	-31.915	16277	18944	0	796
-19.113	-27.948	16282	19265	0	796
-14.605	-24.775	16286	19587	0	796
-11.179	-24.450	16290	19821	0	796
-10.494	-22.827	16293	19956	0	796
-7.898	-23.224	16298	20129	0	796
-8.258	-22.827	16304	20394	0	796
-12.009	-23.368	16309	20646	0	796
-14.713	-26.037	16314	20785	0	796
-14.136	-27.768	16319	20832	0	796
-14.389	-28.886	16325	20906	0	796
-10.819	-27.696	16331	21058	0	796
-6.635	-24.955	16338	21253	0	796
-6.203	-22.431	16345	21449	0	796
-7.068	-20.375	16352	21596	0	796
-8.258	-19.546	16359	21692	0	796
-9.701	-19.510	16367	21761	0	796
-11.973	-20.664	16374	21805	0	796
-16.661	-25.496	16381	21748	0	796
-21.673	-32.780	16386	21540	0	796
-28.309	-39.632	16392	21249	0	796
-30.040	-42.770	16396	20915	0	796
-27.551	-40.786	16402	20550	1	832
-20.411	-34.115	16407	20190	0	832
-14.208	-27.443	16412	19834	0	832
-8.366	-23.693	16416	19478	0	832
-8.727	-25.388	16420	19131	0	832
-12.550	-28.814	16425	18844	0	832
-17.093	-33.466	16430	18606	0	832
-21.565	-36.675	16434	18328	0	832
-19.654	-33.682	16437	17989	0	832
-16.552	-28.597	16441	17647	0	832
-9.881	-22.214	16445	17338	0	832
-7.104	-17.779	16448	17061	0	832
-4.904	-16.805	16451	16787	0	832
-4.832	-19.834	16454	16518	0	832
-3.390	-21.421	16456	16272	0	832
-1.587	-19.473	16459	16037	0	832
0.216	-15.723	16461	15803	0	832
-1.803	-11.143	16463	15538	0	832
-7.645	-11.900	16464	15243	0	832
-13.091	-14.353	16464	14944	0	832
-16.264	-19.473	16465	14635	0	832
-9.881	-20.050	16465	14332	0	832
-4.688	-19.870	16466	14136	0	832
-0.902	-18.752	16467	14093	0	832
-4.219	-19.293	16467	14006	0	832
-12.730	-21.204	16466	13711	0	832
-18.464	-22.791	16463	13294	0	832
-19.618	-22.899	16462	12943	0	832
-13.848	-22.286	16459	12682	0	832
-10.061	-20.880	16457	12444	0	832
-8.871	-21.745	16454	12222	0	832
-12.225	-23.008	16451	12057	0	832
-19.041	-24.811	16448	11966	0	832
-21.854	-25.640	16445	11966	0	832
-23.116	-24.486	16444	12070	0	832
-20.123	-22.358	16442	12200	0	832
-17.238	-21.529	16439	12300	0	832
-12.514	-20.591	16437	12439	0	832
-11.576	-20.808	16435	12656	0	832
-9.845	-19.978	16434	12925	0	832
-9.448	-17.346	16433	13199	0	832
-10.783	-16.480	16431	13446	0	832
-10.133	-14.894	16430	13715	0	832
-10.133	-13.956	16429	14036	0	832
-8.583	-14.533	16429	14379	0	832
-9.629	-15.687	16428	14687	0	832
-11.576	-19.149	16427	14935	0	832
-15.615	-23.657	16427	15161	0	832
-20.123	-26.650	16426	15421	0	832
-21.421	-26.650	16427	15751	0	832
-22.358	-24.739	16427	16085	0	832
-22.322	-22.178	16427	16345	0	832
-21.493	-19.870	16427	16522	0	832
-21.601	-20.700	16427	16700	0	832
-22.358	-22.863	16428	16909	0	832
-21.204	-24.666	16429	17104	0	832
-22.503	-23.188	16429	17212	0	832
-20.411	-21.132	16428	17226	0	832
-20.664	-17.851	16428	17186	0	832
-16.264	-15.146	16428	17143	0	832
-15.002	-13.848	16427	17091	0	832
-13.091	-14.389	16426	17000	0	832
-15.939	-14.930	16425	16865	0	832
-19.149	-16.372	16423	16700	0	832
-23.008	-17.815	16421	16470	0	832
-24.775	-17.923	16419	16185	0	832
-21.349	-16.192	16417	15929	0	832
-19.221	-14.136	16414	15733	0	832
-15.507	-13.595	16412	15551	0	832
-16.769	-15.362	16409	15304	0	832
-17.454	-18.356	16405	15022	0	832
-19.690	-18.752	16402	14805	0	832
-18.283	-18.608	16399	14692	0	832
-16.661	-15.326	16397	14635	0	832
-12.766	-12.586	16393	14557	0	832
-12.009	-10.963	16390	14457	0	832
-11.648	-13.199	16388	14466	0	832
-11.071	-14.605	16386	14627	0	832
-14.353	-17.670	16385	14831	0	832
-16.769	-18.392	16384	14991	0	832
-19.257	-17.166	16382	15100	0	832
-21.529	-16.516	16381	15200	0	832
-22.827	-15.398	16380	15343	0	832
-21.349	-15.002	16379	15525	0	832
-20.375	-15.795	16376	15642	0	832
-17.418	-15.867	16373	15529	0	832
-18.103	-14.858	16369	15239	0	832
-15.290	-13.595	16366	15043	0	832
-17.743	-12.802	16364	15043	0	832
-17.670	-12.946	16362	15143	0	832
-19.870	-15.326	16359	15234	0	832
-18.103	-17.382	16357	15299	0	832
-16.697	-16.913	16355	15395	0	832
-12.009	-15.903	16354	15577	0	832
-9.953	-14.605	16353	15812	0	832
-10.169	-16.697	16352	16016	0	832
-13.487	-20.087	16351	16181	0	832
-19.149	-23.008	16350	16337	0	832
-21.818	-25.171	16350	16505	0	832
-22.972	-24.666	16350	16670	0	832
-25.063	-23.188	16348	16783	0	832
-25.965	-24.919	16348	16835	0	832
-30.256	-26.722	16347	16865	0	832
-33.718	-28.994	16345	16852	0	832
-33.862	-28.958	16344	16805	0	832
-28.597	-26.037	16343	16813	0	832
-22.683	-22.070	16343	16904	0	832
-13.559	-17.598	16342	16930	0	832
-11.684	-15.975	16340	16778	0	832
-12.910	-16.120	16337	16492	0	832
-13.127	-15.723	16334	16233	0	832
-14.605	-13.235	16332	16037	0	832
-11.720	-11.251	16330	15868	0	832
-7.573	-10.927	16326	15673	0	832
-9.304	-9.592	16323	15451	0	832
-9.196	-11.323	16320	15286	0	832
-9.232	-12.477	16318	15234	0	832
-7.573	-11.792	16316	15278	0	832
-8.294	-11.323	16314	15330	0	832
-10.061	-14.677	16313	15347	0	832
-15.471	-16.444	16310	15404	0	832
-21.385	-19.113	16309	15556	0	832
-20.627	-20.880	16308	15759	0	832
-20.447	-17.562	16308	15942	0	832
-16.048	-14.461	16306	16046	0	832
-16.156	-11.432	16306	16107	0	832
-15.182	-9.953	16305	16202	0	832
-16.048	-9.989	16304	16311	0	832
-13.920	-9.701	16303	16376	0	832
-13.451	-10.783	16301	16380	0	832
-12.838	-10.891	16300	16380	0	832
-13.920	-15.290	16300	16444	0	832
-20.231	-19.618	16299	16605	0	832
-22.539	-22.611	16299	16787	0	832
-22.214	-20.808	16298	16818	0	832
-16.877	-12.910	16296	16574	0	832
-9.304	-5.842	16292	16211	0	832
-4.003	-0.361	16291	16007	0	832
-4.147	-2.092	16289	15994	0	832
-7.681	-9.160	16288	16011	0	832
-10.710	-13.018	16286	16029	0	832
-8.547	-12.874	16285	16072	0	832
-3.642	-12.369	16284	16115	0	832
-0.036	-9.592	16282	16055	0	832
-1.154	-12.117	16279	15890	0	832
-6.491	-18.536	16277	15738	0	832
-15.651	-25.748	16275	15660	0	832
-21.854	-30.545	16273	15629	0	832
-27.227	-32.420	16272	15629	0	832
-27.840	-32.672	16270	15660	0	832
-29.066	-29.968	16268	15716	0	832
-25.712	-24.306	16267	15764	0	832
-20.988	-20.339	16265	15729	0	832
-13.631	-15.002	16263	15638	0	832
-9.088	-10.891	16261	15595	0	832
-6.131	-9.160	16259	15642	0	832
-6.203	-8.979	16258	15716	0	832
-7.393	-9.232	16256	15725	0	832
-7.537	-9.448	16254	15673	0	832
-8.619	-9.304	16252	15677	0	832
-6.419	-9.052	16251	15781	0	832
-4.760	-6.239	16250	15859	0	832
-1.623	-5.554	16247	15794	0	832
2.164	-4.039	16245	15707	0	832
7.032	-1.947	16245	15812	0	832
9.268	-0.108	16244	16098	0	832
9.701	3.137	16245	16444	0	832
11.179	5.806	16247	16835	0	832
9.953	6.203	16249	17247	0	832
8.907	5.914	16251	17694	0	832
7.753	4.039	16255	18206	0	832
10.386	2.633	16259	18762	0	832
12.081	3.534	16263	19300	0	832
15.182	5.986	16267	19782	0	832
17.995	8.186	16273	20233	0	832
16.877	10.386	16279	20698	0	832
15.939	10.061	16286	21214	0	832
12.802	9.592	16293	21748	0	832
13.343	8.655	16301	22204	0	832
10.602	7.862	16309	22555	0	832
7.429	6.203	16317	22868	0	832
4.616	2.128	16326	23176	0	832
0.793	-0.216	16334	23432	0	832
1.515	-0.144	16342	23554	0	832
3.173	1.839	16350	23532	0	832
5.770	4.940	16358	23449	0	832
7.645	5.734	16365	23345	0	832
7.717	3.498	16373	23224	0	832
6.383	0.902	16381	23055	1	752
2.596	-1.406	16387	22816	0	752
0.649	-2.524	16393	22403	0	752
-3.714	-2.957	16397	21705	0	752
-4.472	-3.210	16400	20798	0	752
-3.318	-3.823	16402	19934	0	752
-1.803	-4.039	16405	19205	0	752
-0.685	-7.104	16407	18528	0	752
-0.685	-8.907	16409	17811	0	752
-2.380	-12.586	16410	17087	0	752
-7.176	-15.218	16411	16457	0	752
-11.900	-20.050	16412	15968	0	752
-17.418	-23.080	16414	15564	0	752
-19.113	-28.020	16415	15169	0	752
-20.267	-27.912	16416	14766	0	752
-18.103	-27.587	16417	14440	0	752
-19.185	-24.775	16417	14249	0	752
-17.634	-23.837	16419	14171	0	752
-18.897	-22.719	16420	14128	0	752
-16.228	-22.539	16421	14067	0	752
-14.389	-21.998	16422	14010	0	752
-13.199	-21.565	16424	14006	0	752
-14.317	-20.772	16425	14049	0	752
-15.182	-19.221	16426	14119	0	752
-14.605	-16.084	16427	14184	0	752
-14.064	-12.261	16429	14253	0	752
-10.422	-10.278	16430	14358	0	752
-8.763	-13.271	16432	14509	0	752
-9.412	-17.129	16433	14653	0	752
-10.458	-21.060	16433	14653	0	752
-9.989	-23.368	16432	14470	0	752
-11.360	-22.070	16431	14236	0	752
-11.720	-20.014	16430	14145	0	752
-11.612	-18.969	16430	14193	0	752
-14.245	-17.382	16429	14245	0	752
-14.389	-15.146	16430	14284	0	752
-11.756	-13.451	16429	14349	0	752
-9.773	-12.081	16429	14427	0	752
-7.501	-12.586	16429	14492	0	752
-7.717	-12.009	16429	14596	0	752
-6.455	-11.360	16429	14770	0	752
-7.501	-8.042	16429	14957	0	752
-2.488	-3.498	16429	15130	0	752
3.173	0.721	16430	15295	0	752
8.402	4.364	16430	15421	0	752
12.333	3.823	16430	15499	0	752
9.953	2.921	16429	15529	0	752
4.472	-0.469	16428	15464	0	752
-0.829	-3.895	16427	15312	0	752
-4.219	-3.210	16425	15187	0	752
-0.685	0.505	16424	15130	0	752
7.609	7.429	16422	15091	0	752
13.956	13.704	16420	14983	0	752
18.139	15.831	16417	14813	0	752
12.045	11.215	16416	14713	0	752
2.596	2.128	16415	14753	0	752
-8.006	-6.491	16413	14891	0	752
-14.605	-12.297	16413	15052	0	752
-14.281	-10.458	16412	15182	0	752
-8.619	-7.285	16412	15343	0	752
-6.744	-3.029	16411	15551	0	752
-6.635	-2.705	16412	15777	0	752
-8.835	-4.183	16411	15977	0	752
-11.937	-8.763	16411	16120	0	752
-11.540	-8.691	16411	16237	0	752
-6.599	-7.717	16411	16367	0	752
-1.983	-5.481	16411	16483	0	752
-0.325	-3.931	16411	16570	0	752
-2.272	-6.708	16411	16618	0	752
-6.383	-8.799	16410	16657	0	752
-9.196	-11.107	16411	16713	0	752
-10.386	-9.737	16411	16809	0	752
-7.393	-7.970	16412	16926	0	752
-4.544	-5.409	16411	16991	0	752
-3.750	-3.823	16412	16991	0	752
-3.642	-4.183	16412	16987	0	752
-7.032	-2.669	16412	17013	0	752
-10.025	-2.885	16412	17056	0	752
-12.694	-4.075	16412	17039	0	752
-15.579	-6.311	16412	16974	0	752
-19.473	-10.206	16412	16913	0	752
-18.356	-13.523	16412	16870	0	752
-16.913	-12.550	16411	16809	0	752
-9.160	-8.547	16410	16692	0	752
-1.226	-0.829	16410	16540	0	752
3.462	4.940	16409	16384	0	752
4.977	6.527	16408	16211	0	752
-1.262	4.039	16406	16003	0	752
-6.239	0.505	16403	15777	0	752
-10.710	-2.741	16401	15534	0	752
-11.360	-3.354	16398	15282	0	752
-8.439	-0.685	16395	15052	0	752
-3.101	2.200	16393	14870	0	752
0.938	4.868	16391	14722	0	752
3.210	7.321	16388	14609	0	752
3.318	6.888	16385	14496	0	752
0.721	4.255	16382	14319	0	752
-2.200	4.147	16378	14080	0	752
-3.318	3.390	16375	13884	0	752
-2.452	5.698	16371	13793	0	752
-0.865	8.763	16369	13824	0	752
2.633	11.215	16365	13884	0	752
3.642	10.133	16362	13889	0	752
-0.721	5.517	16359	13893	0	752
-4.327	0.000	16356	13971	0	752
-11.071	-5.626	16353	14132	0	752
-13.559	-8.799	16351	14314	0	752
-14.858	-8.475	16349	14479	0	752
-16.120	-8.655	16346	14635	0	752
-16.012	-7.717	16345	14822	0	752
-19.906	-9.520	16343	15056	0	752
-23.008	-10.314	16342	15308	0	752
-26.253	-13.451	16340	15499	0	752
-28.020	-16.192	16338	15616	0	752
-26.758	-18.860	16336	15690	0	752
-26.578	-20.087	16334	15742	0	752
-24.522	-19.365	16332	15786	0	752
-23.585	-18.392	16329	15764	0	752
-22.034	-14.858	16324	15503	0	752
-20.844	-11.756	16317	14909	0	752
-18.031	-8.006	16310	14236	0	752
-17.815	-7.032	16304	13845	0	752
-20.555	-8.366	16301	13850	0	752
-22.611	-12.946	16297	14088	0	752
-22.899	-16.661	16295	14401	0	752
-17.851	-15.579	16294	14753	0	752
-11.792	-11.576	16292	15156	0	752
-6.203	-6.419	16292	15560	0	752
-6.311	-4.219	16291	15946	0	752
-12.081	-8.042	16291	16311	0	752
-16.949	-12.405	16290	16574	0	752
-18.031	-17.274	16289	16722	0	752
-19.726	-17.995	16288	16865	0	752
-18.824	-17.526	16288	17052	0	752
-21.277	-17.743	16287	17195	0	752
-24.847	-20.844	16285	17212	0	752
-27.299	-24.234	16284	17156	0	752
-28.814	-29.571	16282	17173	0	752
-28.958	-31.013	16283	17317	0	752
-30.689	-31.735	16283	17490	0	752
-30.689	-28.922	16282	17573	0	752
-29.643	-24.162	16281	17534	0	752
-22.899	-19.149	16281	17503	0	752
-16.769	-13.992	16281	17564	0	752
-9.665	-11.612	16281	17681	0	752
-7.898	-8.943	16281	17790	0	752
-8.763	-9.556	16281	17842	0	752
-11.937	-11.251	16282	17877	0	752
-17.310	-13.271	16282	17942	0	752
-20.050	-16.625	16283	17998	0	752
-25.063	-18.211	16283	18002	0	752
-24.162	-16.805	16284	17972	0	752
-20.916	-14.317	16284	17950	0	752
-15.831	-8.078	16285	17972	0	752
-10.061	-7.789	16287	18072	0	752
-8.366	-7.862	16289	18185	0	752
-13.343	-13.307	16290	18215	0	752
-19.401	-18.860	16291	18176	0	752
-23.873	-24.089	16292	18137	0	752
-28.561	-25.532	16293	18150	0	752
-30.400	-26.217	16295	18176	0	752
-30.977	-26.794	16297	18128	0	752
-30.689	-26.325	16297	18002	0	752
-31.338	-25.856	16297	17842	0	752
-26.650	-24.234	16299	17694	0	752
-24.306	-21.709	16300	17568	0	752
-21.637	-18.536	16300	17447	0	752
-16.300	-12.405	16301	17317	0	752
-13.415	-8.222	16301	17208	0	752
-7.465	-3.714	16302	17139	0	752
-2.524	-3.065	16303	17095	0	752
-3.534	-4.616	16304	17065	0	752
-5.806	-7.465	16305	17052	0	752
-10.061	-7.573	16307	17035	0	752
-11.684	-5.806	16306	16939	0	752
-11.756	-4.183	16308	16796	0	752
-11.432	-4.616	16308	16752	0	752
-11.251	-5.193	16310	16839	0	752
-10.602	-7.573	16312	16974	0	752
-13.776	-9.232	16314	17074	0	752
-14.100	-11.287	16316	17178	0	752
-15.687	-12.946	16319	17386	0	752
-16.625	-15.146	16323	17725	0	752
-15.651	-13.668	16328	18124	0	752
-13.992	-12.586	16332	18497	0	752
-9.629	-9.052	16337	18771	0	752
-8.907	-8.835	16342	18996	0	752
-7.068	-8.402	16347	19252	0	752
-5.517	-7.537	16353	19565	0	752
-3.895	-6.852	16359	19860	0	752
-4.039	-9.412	16364	20060	0	752
-6.058	-11.720	16370	20181	0	752
-9.701	-15.290	16376	20290	0	752
-12.261	-16.300	16381	20385	0	752
-10.025	-12.586	16386	20437	0	752
-5.554	-4.616	16392	20416	0	752
-1.010	-0.216	16397	20337	0	752
2.092	2.380	16403	20246	0	752
-0.072	2.308	16409	20181	0	752
-4.364	-1.154	16414	20103	1	796
-7.717	-3.101	16418	19856	0	796
-8.619	-4.977	16420	19331	0	796
-8.402	-3.173	16422	18658	0	796
-5.950	-2.560	16424	18120	0	796
-5.950	-2.813	16426	17742	0	796
-8.366	-2.452	16428	17369	0	796
-14.172	-7.609	16429	16969	0	796
-16.661	-9.989	16431	16548	0	796
-18.680	-12.405	16432	16111	0	796
-14.966	-10.710	16432	15668	0	796
-15.362	-11.432	16432	15273	0	796
-14.930	-12.550	16432	14961	0	796
-19.546	-14.425	16432	14700	0	796
-21.818	-18.103	16432	14444	0	796
-22.611	-18.320	16431	14184	0	796
-23.116	-16.841	16430	13958	0	796
-18.608	-14.785	16430	13802	0	796
-16.264	-10.819	16429	13672	0	796
-13.523	-8.799	16428	13481	0	796
-10.242	-6.708	16426	13251	0	796
-11.143	-7.104	16425	13095	0	796
-12.333	-9.881	16423	13064	0	796
-13.631	-12.477	16422	13108	0	796
-16.877	-13.163	16420	13134	0	796
-16.985	-13.054	16419	13116	0	796
-18.536	-11.973	16417	13129	0	796
-19.401	-12.297	16416	13212	0	796
-20.339	-13.523	16415	13368	0	796
-20.808	-15.002	16414	13572	0	796
-23.008	-16.120	16413	13772	0	796
-24.522	-16.408	16413	13997	0	796
-27.912	-16.084	16412	14288	0	796
-27.984	-15.579	16413	14644	0	796
-28.633	-15.362	16414	15022	0	796
-27.515	-14.533	16415	15373	0	796
-27.010	-15.579	16416	15694	0	796
-25.893	-18.211	16417	15985	0	796
-27.263	-20.447	16418	16246	0	796
-26.974	-20.555	16418	16466	0	796
-25.027	-18.103	16419	16631	0	796
-18.644	-14.317	16420	16735	0	796
-13.307	-10.566	16420	16831	0	796
-7.681	-8.547	16421	16982	0	796
-5.193	-10.566	16423	17169	0	796
-11.107	-14.497	16424	17286	0	796
-15.795	-17.093	16425	17330	0	796
-18.608	-18.283	16425	17360	0	796
-19.437	-17.526	16426	17408	0	796
-13.704	-14.281	16427	17451	0	796
-10.169	-10.458	16428	17430	0	796
-8.078	-8.691	16428	17347	0	796
-10.278	-8.294	16428	17234	0	796
-16.661	-11.432	16429	17134	0	796
-22.106	-13.704	16429	17052	0	796
-25.568	-16.012	16428	16913	0	796
-26.722	-17.887	16426	16627	0	796
-24.378	-17.238	16421	16016	0	796
-21.637	-16.913	16415	14996	0	796
-22.214	-18.392	16409	13963	0	796
-20.988	-18.500	16404	13416	0	796
-24.558	-17.526	16400	13299	0	796
-24.558	-17.598	16396	13216	0	796
-25.063	-16.264	16392	13034	0	796
-24.017	-16.048	16387	12869	0	796
-25.568	-17.923	16384	12838	0	796
-23.368	-19.113	16382	12973	0	796
-23.404	-22.250	16380	13233	0	796
-23.945	-23.801	16378	13542	0	796
-19.870	-22.142	16376	13811	0	796
-19.582	-18.860	16375	14080	0	796
-17.634	-15.182	16374	14414	0	796
-17.670	-13.271	16373	14835	0	796
-16.012	-13.631	16373	15265	0	796
-15.146	-15.651	16373	15599	0	796
-11.576	-16.084	16373	15859	0	796
-12.081	-16.120	16372	16115	0	796
-13.235	-15.146	16372	16384	0	796
-16.769	-16.084	16372	16631	0	796
-22.106	-18.824	16372	16822	0	796
-22.683	-21.998	16372	16969	0	796
-23.765	-24.414	16372	17139	0	796
-23.296	-24.775	16373	17369	0	796
-20.664	-22.827	16374	17620	0	796
-19.185	-18.175	16373	17725	0	796
-15.074	-14.461	16371	17516	0	796
-13.992	-12.730	16369	17134	0	796
-11.937	-11.432	16368	16909	0	796
-12.802	-14.136	16367	16878	0	796
-12.261	-14.461	16366	16844	0	796
-10.638	-16.012	16364	16731	0	796
-12.045	-15.471	16363	16579	0	796
-14.064	-15.398	16361	16405	0	796
-13.992	-15.615	16359	16272	0	796
-17.598	-15.579	16358	16220	0	796
-15.759	-16.048	16357	16220	0	796
-15.218	-12.802	16356	16198	0	796
-11.576	-9.052	16354	16146	0	796
-7.140	-5.337	16353	16068	0	796
-2.885	-1.046	16351	15963	0	796
0.938	1.695	16349	15846	0	796
4.039	1.623	16347	15720	0	796
2.344	0.902	16344	15529	0	796
2.128	-1.911	16341	15286	0	796
-0.613	-6.419	16338	15082	0	796
-4.364	-9.881	16335	14978	0	796
-6.275	-10.169	16332	14900	0	796
-5.806	-4.977	16329	14761	0	796
-2.705	-0.108	16326	14588	0	796
-2.957	2.344	16323	14496	0	796
-7.609	-2.019	16320	14544	0	796
-17.959	-14.749	16318	14687	0	796
-29.607	-27.587	16316	14848	0	796
-36.495	-34.295	16314	14957	0	796
-32.492	-32.492	16313	15061	0	796
-24.919	-23.945	16311	15226	0	796
-14.894	-15.290	16310	15434	0	796
-12.009	-12.658	16309	15638	0	796
-13.776	-15.471	16308	15794	0	796
-20.627	-20.231	16306	15942	0	796
-24.594	-22.503	16306	16107	0	796
-24.017	-20.483	16305	16311	0	796
-20.303	-13.956	16305	16522	0	796
-11.792	-7.825	16305	16705	0	796
-5.590	-4.003	16304	16831	0	796
-2.669	-3.318	16304	16926	0	796
-2.849	-4.472	16304	17069	0	796
-5.698	-6.852	16305	17252	0	796
-10.638	-10.530	16304	17351	0	796
-13.704	-14.749	16304	17338	0	796
-20.916	-20.411	16304	17299	0	796
-25.388	-24.306	16303	17304	0	796
-31.230	-28.814	16303	17343	0	796
-33.357	-28.201	16302	17347	0	796
-29.391	-27.515	16303	17299	0	796
-23.909	-23.945	16302	17230	0	796
-16.841	-19.582	16301	17139	0	796
-12.802	-15.795	16300	17009	0	796
-8.871	-12.369	16299	16831	0	796
-4.796	-8.547	16296	16583	0	796
-0.793	-6.094	16294	16246	0	796
1.226	-6.383	16290	15851	0	796
-0.325	-7.898	16288	15521	0	796
-6.347	-12.405	16284	15269	0	796
-14.136	-14.930	16282	15082	0	796
-16.156	-14.569	16279	14935	0	796
-11.071	-7.537	16275	14748	0	796
-2.849	-1.803	16272	14557	0	796
4.652	2.813	16271	14566	0	796
6.058	2.849	16269	14800	0	796
4.832	1.082	16268	15056	0	796
-1.190	-3.859	16267	15204	0	796
-2.380	-7.501	16265	15265	0	796
-4.111	-8.006	16263	15330	0	796
-1.370	-6.708	16263	15473	0	796
-1.118	-4.904	16262	15673	0	796
-2.921	-3.137	16261	15851	0	796
-7.789	-3.750	16260	15942	0	796
-13.379	-10.386	16259	16007	0	796
-17.057	-14.858	16258	16102	0	796
-18.283	-19.546	16258	16224	0	796
-14.713	-20.087	16257	16350	0	796
-16.625	-22.250	16257	16466	0	796
-21.818	-27.984	16256	16627	0	796
-29.174	-32.059	16258	16874	0	796
-31.735	-34.728	16259	17221	0	796
-27.083	-28.092	16261	17603	0	796
-16.625	-19.005	16264	17946	0	796
-9.737	-11.828	16265	18280	0	796
-4.796	-9.881	16269	18671	0	796
-5.698	-13.523	16274	19144	0	796
-4.616	-14.785	16279	19647	0	796
-1.190	-10.855	16284	20081	0	796
3.101	-6.996	16289	20442	0	796
6.780	-3.714	16294	20793	0	796
2.849	-6.744	16301	21153	0	796
-2.560	-10.891	16308	21479	0	796
-6.635	-14.245	16314	21739	0	796
-9.016	-15.543	16320	21948	0	796
-8.366	-11.864	16327	22113	0	796
-5.590	-12.225	16334	22234	0	796
-5.806	-15.002	16341	22304	0	796
-8.619	-18.608	16348	22317	0	796
-15.398	-21.890	16355	22299	0	796
-16.408	-20.555	16361	22239	0	796
-17.743	-17.202	16367	22048	0	796
-14.208	-14.064	16373	21726	0	796
-10.314	-14.389	16378	21384	1	748
-10.638	-19.437	16384	21093	0	748
-11.215	-22.070	16388	20806	0	748
-10.133	-22.683	16392	20433	0	748
-10.061	-17.274	16396	19964	0	748
-5.878	-10.999	16401	19500	0	748
-3.678	-5.121	16404	19101	0	748
-2.669	-3.390	16408	18727	0	748
-2.380	-3.678	16411	18350	0	748
-3.137	-5.554	16415	18002	0	748
-3.173	-6.708	16419	17703	0	748
-4.544	-8.222	16423	17473	0	748
-8.547	-10.927	16427	17321	0	748
-8.583	-12.910	16431	17186	0	748
-9.701	-15.362	16434	17009	0	748
-8.763	-16.372	16437	16844	0	748
-10.891	-15.723	16441	16718	0	748
-11.432	-15.182	16445	16587	0	748
-14.785	-16.480	16448	16427	0	748
-21.313	-18.536	16450	16237	0	748
-21.926	-20.627	16453	16037	0	748
-22.395	-22.467	16456	15894	0	748
-22.106	-22.034	16458	15833	0	748
-17.743	-19.077	16461	15799	0	748
-17.851	-20.808	16463	15707	0	748
-16.985	-22.395	16466	15577	0	748
-19.798	-23.621	16467	15460	0	748
-20.411	-24.053	16469	15395	0	748
-21.457	-23.765	16471	15365	0	748
-20.123	-21.024	16474	15295	0	748
-19.401	-19.690	16474	15178	0	748
-17.310	-17.670	16475	15056	0	748
-13.956	-13.740	16476	14965	0	748
-8.691	-9.917	16477	14878	0	748
-6.131	-5.265	16478	14761	0	748
-3.642	-6.708	16477	14622	0	748
-6.275	-8.799	16477	14466	0	748
-10.061	-12.766	16476	14288	0	748
-13.235	-15.507	16476	14093	0	748
-15.507	-15.182	16474	13911	0	748
-14.245	-12.730	16473	13776	0	748
-11.792	-7.609	16471	13654	0	748
-6.924	-4.544	16469	13459	0	748
-2.705	-2.092	16467	13264	0	748
-1.983	-5.409	16466	13294	0	748
-4.760	-9.989	16466	13546	0	748
-10.133	-16.192	16465	13772	0	748
-17.129	-19.546	16463	13837	0	748
-17.418	-19.149	16462	13802	0	748
-16.625	-14.894	16460	13780	0	748
-14.497	-10.855	16459	13832	0	748
-10.927	-6.888	16457	13976	0	748
-10.350	-3.642	16456	14149	0	748
-8.114	-2.957	16454	14292	0	748
-3.750	-0.938	16454	14414	0	748
-1.370	-0.974	16453	14553	0	748
0.721	-1.262	16452	14735	0	748
-0.829	-1.154	16451	14948	0	748
-3.354	-2.092	16451	15139	0	748
-7.248	-3.210	16450	15291	0	748
-10.314	-3.895	16450	15456	0	748
-13.415	-7.357	16450	15668	0	748
-11.432	-8.943	16449	15885	0	748
-10.494	-10.602	16449	16020	0	748
-5.914	-10.494	16448	16059	0	748
-2.416	-10.206	16446	15977	0	748
-3.642	-9.268	16443	15703	0	748
-7.032	-10.566	16439	15356	0	748
-13.884	-12.117	16437	15161	0	748
-19.329	-12.586	16434	15134	0	748
-24.522	-11.143	16433	15169	0	748
-25.820	-10.530	16431	15269	0	748
-24.125	-8.006	16430	15412	0	748
-22.214	-9.160	16429	15516	0	748
-17.490	-10.891	16427	15547	0	748
-15.975	-13.668	16425	15547	0	748
-11.360	-14.533	16424	15569	0	748
-10.386	-13.018	16422	15612	0	748
-8.691	-10.963	16421	15651	0	748
-8.439	-10.097	16419	15668	0	748
-9.592	-8.042	16416	15625	0	748
-13.559	-6.635	16413	15456	0	748
-15.651	-3.787	16409	15195	0	748
-16.985	-0.433	16407	15004	0	748
-18.644	1.587	16404	14948	0	748
-16.589	0.433	16401	14917	0	748
-16.300	-4.760	16397	14813	0	748
-13.956	-8.475	16394	14666	0	748
-12.333	-10.927	16390	14596	0	748
-8.006	-11.360	16387	14640	0	748
-4.147	-8.078	16385	14731	0	748
-0.397	-5.842	16383	14796	0	748
-0.144	-3.750	16381	14826	0	748
-1.587	-2.813	16379	14944	0	748
-3.570	-1.262	16377	15200	0	748
-6.708	-0.036	16376	15482	0	748
-8.402	0.757	16374	15703	0	748
-9.052	0.036	16373	15833	0	748
-11.612	0.577	16372	15920	0	748
-15.110	-0.974	16370	15994	0	748
-15.435	-1.479	16368	16072	0	748
-14.100	-0.325	16366	16128	0	748
-9.016	-0.865	16364	16150	0	748
-3.029	1.190	16362	16189	0	748
0.288	2.452	16362	16302	0	748
1.190	2.056	16361	16492	0	748
-1.010	1.406	16361	16713	0	748
-4.616	-0.288	16359	16870	0	748
-6.167	-0.072	16359	16952	0	748
-3.750	1.947	16359	17026	0	748
-1.731	5.842	16359	17139	0	748
3.534	10.855	16358	17252	0	748
6.094	14.894	16358	17278	0	748
6.347	14.821	16356	17217	0	748
-0.144	9.917	16356	17147	0	748
-7.970	-0.505	16354	17108	0	748
-16.228	-9.016	16354	17078	0	748
-17.093	-14.461	16353	17009	0	748
-10.674	-10.710	16351	16900	0	748
-2.236	-3.895	16350	16774	0	748
3.498	1.983	16349	16627	0	748
1.875	5.157	16347	16514	0	748
-6.022	3.642	16347	16553	0	748
-12.874	-0.974	16347	16696	0	748
-14.461	-4.796	16346	16735	0	748
-15.687	-7.140	16345	16653	0	748
-10.566	-6.131	16344	16557	0	748
-5.770	-2.524	16343	16466	0	748
-1.623	-0.685	16342	16384	0	748
-0.938	-2.524	16340	16289	0	748
-3.534	-9.016	16337	16089	0	748
-11.684	-16.084	16334	15799	0	748
-15.002	-16.697	16332	15538	0	748
-11.720	-10.746	16330	15391	0	748
-6.708	-1.118	16327	15338	0	748
0.216	6.383	16326	15295	0	748
2.957	8.871	16323	15174	0	748
1.947	4.147	16320	15022	0	748
-0.180	-1.154	16317	14917	0	748
0.541	-3.859	16315	14887	0	748
1.154	-3.173	16313	14887	0	748
0.613	1.515	16309	14857	0	748
0.180	5.914	16307	14822	0	748
-0.397	10.169	16305	14844	0	748
-1.046	11.143	16303	14935	0	748
-2.633	9.196	16301	15048	0	748
-5.085	2.633	16299	15152	0	748
-5.878	-3.210	16297	15226	0	748
-5.301	-6.094	16295	15260	0	748
-1.983	-3.859	16293	15295	0	748
1.551	0.902	16291	15382	0	748
1.442	5.517	16290	15516	0	748
-4.652	4.075	16289	15686	0	748
-9.484	0.361	16288	15890	0	748
-15.362	-3.823	16288	16141	0	748
-13.199	-3.354	16287	16392	0	748
-9.088	0.541	16287	16583	0	748
-0.757	6.131	16287	16700	0	748
5.157	11.684	16286	16770	0	748
8.294	12.802	16285	16805	0	748
6.347	10.169	16284	16813	0	748
-0.541	3.678	16283	16783	0	748
-6.167	-1.046	16281	16722	0	748
-7.537	-2.705	16280	16631	0	748
-4.868	0.469	16277	16457	0	748
4.977	7.573	16275	16280	0	748
11.035	13.740	16275	16293	0	748
14.136	14.713	16275	16496	0	748
10.169	11.215	16274	16679	0	748
3.210	5.301	16274	16726	0	748
-1.046	-1.298	16273	16700	0	748
-2.416	-2.849	16272	16661	0	748
-0.541	-1.262	16270	16579	0	748
2.669	0.000	16269	16410	0	748
3.426	0.000	16267	16259	0	748
-1.767	-3.282	16265	16176	0	748
-5.193	-8.691	16264	16163	0	748
-11.360	-12.261	16264	16298	0	748
-13.956	-14.930	16266	16614	0	748
-13.740	-16.985	16268	17074	0	748
-13.920	-18.933	16270	17555	0	748
-10.999	-18.428	16274	18024	0	748
-6.924	-16.228	16278	18549	0	748
-5.265	-13.379	16284	19157	0	748
-4.075	-9.376	16289	19808	0	748
-4.940	-8.655	16296	20420	0	748
-7.717	-11.396	16303	20984	0	748
-9.340	-11.576	16311	21527	0	748
-8.511	-12.766	16318	22074	0	748
-4.364	-12.550	16327	22599	0	748
-2.885	-13.018	16336	23007	0	748
-3.750	-13.668	16345	23293	0	748
-6.635	-15.471	16354	23519	0	748
-8.979	-15.975	16362	23727	0	748
-11.035	-15.110	16372	23875	0	748
-8.583	-11.468	16380	23901	0	748
-7.104	-10.710	16387	23805	0	748
-10.530	-14.497	16395	23627	0	748
-21.998	-21.421	16404	23410	0	748
-30.328	-30.112	16411	23163	0	748
-34.620	-35.593	16418	22851	1	800
-31.302	-34.187	16426	22490	0	800
-23.260	-28.741	16432	22091	0	800
-17.274	-23.693	16439	21653	0	800
-14.894	-20.627	16445	21197	0	800
-18.247	-20.700	16451	20806	0	800
-17.057	-21.277	16458	20411	0	800
-15.723	-20.736	16461	19804	0	800
-11.720	-20.519	16464	19014	0	800
-7.789	-17.057	16468	18259	0	800
-4.616	-15.110	16469	17577	0	800
-5.265	-13.523	16472	16935	0	800
-7.393	-13.884	16473	16311	0	800
-9.917	-15.543	16474	15616	0	800
-11.540	-16.697	16473	14883	0	800
-12.730	-19.437	16473	14245	0	800
-14.425	-23.549	16473	13754	0	800
-16.408	-26.470	16473	13381	0	800
-20.231	-29.535	16473	13077	0	800
-18.969	-29.571	16472	12786	0	800
-18.356	-27.551	16472	12548	0	800
-15.290	-24.558	16472	12426	0	800
-16.480	-23.873	16472	12413	0	800
-17.562	-23.873	16472	12426	0	800
-20.736	-24.450	16472	12439	0	800
-24.955	-23.116	16472	12483	0	800
-23.693	-21.277	16471	12591	0	800
-19.906	-18.175	16472	12721	0	800
-13.199	-15.543	16471	12812	0	800
-7.934	-16.733	16470	12825	0	800
-8.258	-20.375	16469	12821	0	800
-12.622	-25.748	16468	12878	0	800
-20.447	-28.273	16467	13034	0	800
-22.647	-26.866	16467	13238	0	800
-22.214	-21.277	16466	13394	0	800
-21.457	-15.651	16465	13507	0	800
-17.706	-13.451	16464	13637	0	800
-17.418	-13.920	16464	13832	0	800
-15.254	-15.110	16463	14062	0	800
-12.369	-16.264	16463	14245	0	800
-14.749	-17.815	16462	14366	0	800
-14.749	-18.933	16461	14488	0	800
-19.041	-20.339	16460	14653	0	800
-20.087	-24.017	16460	14826	0	800
-20.988	-25.388	16459	14983	0	800
-17.418	-23.837	16459	15121	0	800
-16.877	-22.647	16457	15239	0	800
-11.432	-18.356	16456	15286	0	800
-10.746	-14.569	16454	15278	0	800
-10.602	-13.595	16454	15291	0	800
-10.061	-16.192	16453	15356	0	800
-14.136	-19.762	16451	15412	0	800
-15.398	-21.890	16449	15360	0	800
-13.631	-21.565	16447	15221	0	800
-13.956	-18.283	16444	15126	0	800
-10.206	-14.497	16442	15143	0	800
-6.888	-12.658	16441	15191	0	800
-9.484	-13.740	16438	15156	0	800
-10.746	-16.552	16435	15009	0	800
-11.900	-18.320	16433	14878	0	800
-15.038	-17.851	16430	14878	0	800
-13.307	-14.749	16429	14996	0	800
-11.107	-12.225	16427	15152	0	800
-13.271	-11.251	16426	15295	0	800
-14.605	-15.254	16425	15438	0	800
-16.012	-17.851	16423	15577	0	800
-17.310	-21.241	16422	15664	0	800
-15.471	-20.555	16420	15690	0	800
-15.362	-17.598	16418	15694	0	800
-14.497	-15.975	16417	15773	0	800
-17.598	-15.146	16417	15955	0	800
-18.320	-15.795	16417	16198	0	800
-21.024	-16.805	16416	16449	0	800
-21.421	-17.815	16417	16644	0	800
-20.591	-16.697	16416	16783	0	800
-20.483	-13.199	16416	16904	0	800
-15.146	-10.061	16417	17061	0	800
-13.199	-6.960	16417	17221	0	800
-11.937	-6.094	16417	17312	0	800
-13.235	-8.330	16417	17334	0	800
-16.985	-12.802	16417	17347	0	800
-18.103	-16.552	16417	17399	0	800
-18.608	-19.401	16418	17473	0	800
-18.860	-20.880	16417	17486	0	800
-21.204	-22.791	16417	17430	0	800
-22.827	-23.008	16417	17334	0	800
-23.368	-21.277	16416	17212	0	800
-20.627	-17.021	16415	17039	0	800
-15.290	-11.468	16413	16800	0	800
-15.867	-8.691	16411	16531	0	800
-18.356	-12.694	16409	16267	0	800
-23.008	-17.129	16406	16007	0	800
-22.611	-21.529	16405	15816	0	800
-20.483	-20.627	16404	15786	0	800
-15.687	-16.480	16402	15794	0	800
-15.975	-13.559	16400	15590	0	800
-16.336	-13.920	16395	15161	0	800
-19.185	-16.336	16392	14744	0	800
-17.093	-17.598	16388	14505	0	800
-15.182	-18.067	16386	14440	0	800
-9.737	-16.300	16384	14414	0	800
-8.078	-14.858	16381	14340	0	800
-7.862	-13.992	16378	14223	0	800
-9.917	-13.127	16374	14128	0	800
-13.018	-13.343	16371	14119	0	800
-17.526	-11.468	16369	14197	0	800
-16.372	-9.268	16366	14297	0	800
-12.441	-5.806	16363	14358	0	800
-4.616	-4.472	16361	14418	0	800
0.613	-4.255	16358	14536	0	800
0.469	-6.924	16357	14709	0	800
-3.931	-11.540	16354	14887	0	800
-10.855	-12.838	16352	15026	0	800
-13.018	-13.163	16351	15139	0	800
-14.172	-11.648	16349	15299	0	800
-11.504	-10.819	16348	15551	0	800
-12.550	-10.458	16348	15851	0	800
-13.451	-12.045	16347	16102	0	800
-14.749	-14.172	16345	16211	0	800
-17.057	-18.356	16342	16072	0	800
-17.093	-19.401	16338	15725	0	800
-19.401	-20.159	16334	15417	0	800
-19.437	-19.906	16331	15312	0	800
-21.709	-19.654	16328	15352	0	800
-22.611	-21.204	16326	15438	0	800
-25.893	-24.414	16324	15564	0	800
-26.289	-26.830	16323	15729	0	800
-23.188	-27.515	16321	15872	0	800
-15.290	-24.919	16319	15963	0	800
-8.619	-20.700	16318	16007	0	800
-3.065	-17.093	16315	16020	0	800
-3.534	-13.956	16313	16029	0	800
-7.465	-15.326	16311	16059	0	800
-13.127	-18.572	16309	16120	0	800
-19.185	-23.512	16308	16154	0	800
-19.149	-24.702	16305	16094	0	800
-19.077	-23.837	16302	15959	0	800
-12.441	-19.762	16301	15885	0	800
-10.350	-16.841	16298	15929	0	800
-9.737	-15.507	16297	16003	0	800
-13.018	-17.418	16294	15994	0	800
-18.608	-17.562	16292	15942	0	800
-18.428	-16.444	16292	16042	0	800
-20.411	-13.884	16291	16354	0	800
-17.454	-10.061	16292	16709	0	800
-19.041	-8.907	16292	16995	0	800
-16.264	-7.717	16292	17191	0	800
-12.297	-7.537	16292	17343	0	800
-4.580	-5.373	16293	17499	0	800
3.426	-5.554	16294	17681	0	800
5.085	-5.590	16294	17811	0	800
-0.036	-7.321	16295	17833	0	800
-8.871	-9.701	16294	17803	0	800
-13.559	-10.566	16294	17798	0	800
-13.812	-10.025	16295	17837	0	800
-7.609	-7.465	16296	17868	0	800
-1.190	-5.770	16296	17824	0	800
1.479	-3.101	16295	17720	0	800
-0.144	-3.859	16296	17620	0	800
-4.868	-7.068	16296	17568	0	800
-7.501	-12.225	16296	17529	0	800
-11.215	-15.435	16295	17434	0	800
-10.602	-14.641	16295	17282	0	800
-7.068	-9.232	16295	17156	0	800
-6.347	-4.688	16295	17078	0	800
-5.698	-3.642	16294	17004	0	800
-10.133	-8.655	16294	16904	0	800
-13.559	-15.362	16294	16791	0	800
-13.487	-20.375	16294	16705	0	800
-12.261	-19.726	16293	16644	0	800
-6.491	-16.336	16293	16618	0	800
-2.344	-12.910	16294	16679	0	800
-2.236	-12.550	16296	16813	0	800
-4.977	-11.360	16297	16948	0	800
-6.131	-13.271	16297	17065	0	800
-7.429	-13.307	16300	17260	0	800
-4.724	-10.386	16304	17590	0	800
-1.731	-8.366	16306	17890	0	800
0.361	-3.606	16307	17950	0	800
-0.721	-2.164	16308	17851	0	800
-3.101	-1.875	16310	17755	0	800
-5.229	-5.049	16311	17746	0	800
-5.698	-7.825	16314	17872	0	800
-1.479	-9.340	16318	18107	0	800
1.767	-6.022	16320	18324	0	800
4.940	-2.885	16323	18454	0	800
5.770	-1.623	16327	18601	0	800
4.472	-2.272	16331	18866	0	800
2.777	-3.714	16337	19231	0	800
-0.144	-5.265	16343	19608	0	800
-1.767	-3.823	16349	19921	0	800
-2.813	-2.308	16355	20181	0	800
-1.875	0.108	16361	20446	0	800
2.741	2.092	16368	20702	0	800
6.094	4.796	16375	20906	0	800
5.986	4.832	16382	21023	0	800
-0.108	1.623	16387	21110	0	800
-6.780	-4.039	16394	21193	0	800
-10.602	-9.196	16401	21258	0	800
-5.409	-9.088	16407	21253	0	800
5.806	-4.327	16413	21110	0	800
14.208	3.101	16419	20889	0	800
13.848	6.022	16425	20685	0	800
5.445	4.940	16431	20533	1	812
-8.258	-0.108	16437	20381	0	812
-17.454	-4.327	16442	20142	0	812
-15.038	-6.744	16446	19778	0	812
-4.940	-3.895	16451	19344	0	812
7.032	0.541	16454	18892	0	812
15.038	5.445	16458	18458	0	812
13.091	6.527	16460	17998	0	812
5.698	2.380	16462	17529	0	812
-4.977	-4.255	16465	17087	0	812
-10.891	-9.881	16467	16679	0	812
-10.386	-12.802	16469	16293	0	812
-6.311	-8.943	16470	15920	0	812
-0.829	-6.924	16471	15564	0	812
3.318	-5.049	16472	15204	0	812
0.721	-7.248	16472	14774	0	812
-4.868	-12.405	16471	14310	0	812
-11.973	-18.320	16471	13937	0	812
-18.139	-22.611	16471	13685	0	812
-17.238	-22.503	16470	13503	0	812
-13.956	-18.716	16469	13299	0	812
-8.727	-12.009	16468	13069	0	812
-4.075	-7.212	16467	12921	0	812
-3.678	-7.176	16467	12908	0	812
-2.885	-10.350	16466	12951	0	812
-5.229	-12.514	16465	13008	0	812
-3.931	-14.028	16465	13077	0	812
-2.344	-12.477	16464	13173	0	812
-0.252	-9.773	16464	13316	0	812
-1.262	-8.871	16464	13520	0	812
-2.596	-6.022	16463	13698	0	812
-5.842	-4.724	16463	13815	0	812
-6.996	-3.137	16462	13911	0	812
-4.868	-1.515	16461	13898	0	812
-3.101	-2.705	16458	13737	0	812
-2.488	-5.301	16456	13607	0	812
-6.419	-10.133	16453	13615	0	812
-11.720	-16.084	16452	13720	0	812
-17.923	-21.709	16451	13919	0	812
-22.178	-26.542	16451	14236	0	812
-19.870	-26.037	16451	14627	0	812
-14.136	-19.798	16452	14983	0	812
-3.210	-9.701	16452	15291	0	812
5.626	1.082	16453	15616	0	812
8.186	7.681	16454	15981	0	812
3.354	4.039	16456	16345	0	812
-4.327	-2.452	16457	16631	0	812
-10.133	-10.061	16458	16844	0	812
-9.917	-12.189	16459	17026	0	812
-7.825	-9.809	16460	17186	0	812
-1.911	-7.212	16461	17286	0	812
-0.433	-7.789	16461	17299	0	812
-1.587	-9.520	16462	17260	0	812
-3.462	-12.550	16461	17217	0	812
-7.537	-13.451	16461	17160	0	812
-9.340	-11.937	16461	17022	0	812
-12.441	-10.819	16459	16800	0	812
-13.054	-11.684	16459	16605	0	812
-12.766	-12.838	16458	16444	0	812
-14.425	-14.821	16455	16202	0	812
-15.615	-15.651	16453	15881	0	812
-16.264	-15.182	16450	15634	0	812
-18.428	-17.418	16449	15499	0	812
-21.926	-18.644	16448	15443	0	812
-23.332	-22.070	16446	15382	0	812
-23.837	-21.349	16444	15295	0	812
-23.945	-19.978	16444	15308	0	812
-18.788	-15.615	16444	15460	0	812
-13.848	-12.622	16444	15655	0	812
-7.609	-11.179	16443	15794	0	812
-2.164	-9.737	16442	15851	0	812
-0.577	-9.340	16441	15846	0	812
-1.334	-9.448	16440	15842	0	812
-4.291	-8.186	16440	15851	0	812
-6.780	-10.025	16438	15829	0	812
-10.746	-10.855	16437	15746	0	812
-12.874	-14.028	16435	15655	0	812
-14.894	-14.425	16434	15612	0	812
-16.444	-11.828	16433	15642	0	812
-15.182	-9.737	16432	15694	0	812
-15.110	-6.527	16430	15694	0	812
-14.785	-8.727	16428	15642	0	812
-18.644	-11.828	16427	15608	0	812
-17.995	-16.805	16426	15634	0	812
-18.536	-18.283	16425	15686	0	812
-15.074	-17.779	16423	15694	0	812
-12.514	-17.634	16421	15629	0	812
-13.848	-15.939	16419	15538	0	812
-11.792	-15.146	16417	15456	0	812
-12.982	-13.487	16415	15421	0	812
-9.520	-11.504	16414	15425	0	812
-5.698	-7.248	16412	15460	0	812
-5.157	-6.744	16411	15482	0	812
-6.744	-7.176	16408	15473	0	812
-14.713	-9.304	16407	15443	0	812
-19.473	-11.973	16404	15369	0	812
-22.070	-11.720	16401	15269	0	812
-14.317	-6.599	16398	15130	0	812
-6.635	-4.760	16394	14883	0	812
0.108	-4.544	16389	14553	0	812
-1.875	-9.556	16385	14288	0	812
-10.458	-16.697	16382	14145	0	812
-16.120	-19.798	16378	14054	0	812
-17.346	-15.975	16374	13919	0	812
-11.648	-7.609	16369	13746	0	812
-5.806	-2.380	16364	13637	0	812
-5.517	-1.406	16361	13650	0	812
-10.242	-6.239	16357	13759	0	812
-15.435	-13.956	16354	13889	0	812
-21.313	-18.247	16350	13976	0	812
-17.851	-16.913	16346	14071	0	812
-13.704	-14.353	16343	14232	0	812
-10.169	-11.756	16341	14457	0	812
-8.979	-10.999	16339	14705	0	812
-14.245	-14.713	16336	14917	0	812
-16.048	-15.687	16334	15117	0	812
-18.500	-15.723	16332	15356	0	812
-13.595	-11.864	16331	15616	0	812
-6.996	-8.366	16329	15851	0	812
-3.318	-6.347	16326	16007	0	812
-2.777	-8.619	16324	16115	0	812
-3.390	-8.222	16323	16207	0	812
-5.950	-7.898	16320	16272	0	812
-6.563	-4.760	16318	16302	0	812
-5.626	-2.308	16316	16337	0	812
-6.167	-2.921	16314	16405	0	812
-9.773	-6.131	16313	16553	0	812
-12.225	-9.629	16312	16787	0	812
-12.658	-13.271	16312	17056	0	812
-14.136	-12.874	16312	17286	0	812
-9.953	-11.973	16311	17456	0	812
-4.940	-10.278	16312	17599	0	812
-2.921	-6.347	16312	17733	0	812
-1.442	-5.554	16312	17855	0	812
-3.714	-3.967	16312	17929	0	812
-9.592	-5.914	16311	17916	0	812
-15.795	-9.304	16310	17772	0	812
-19.654	-13.776	16308	17547	0	812
-22.358	-16.985	16307	17343	0	812
-22.611	-19.870	16305	17204	0	812
-19.654	-19.510	16304	17117	0	812
-16.625	-16.480	16303	17017	0	812
-10.999	-10.133	16301	16813	0	812
-5.265	-5.013	16299	16583	0	812
-5.049	0.613	16298	16548	0	812
-4.904	0.757	16298	16705	0	812
-8.078	-1.226	16298	16818	0	812
-8.439	-4.472	16297	16735	0	812
-6.275	-4.111	16295	16522	0	812
-1.118	-1.875	16293	16388	0	812
-0.541	1.731	16293	16431	0	812
-3.029	3.137	16293	16548	0	812
-6.203	3.750	16292	16596	0	812
-8.619	2.849	16292	16548	0	812
-6.708	2.272	16290	16457	0	812
-2.128	2.272	16289	16401	0	812
2.669	5.229	16289	16384	0	812
4.508	7.717	16288	16358	0	812
6.960	10.458	16287	16280	0	812
9.448	13.595	16286	16215	0	812
9.701	12.297	16285	16233	0	812
9.232	8.871	16285	16363	0	812
