neuroNicle FX2
D3F25R12
Bluetooth SPP
2023년 3월 27일 월요일
오후 12:46
time interval = 4msec
EEG1	EEG2	PPG	sdPPG	pulse	peak_interval(msec)
-54.706	-54.526	16394	16387	0	320
-54.165	-52.001	16395	16386	0	320
-52.038	-49.657	16395	16384	0	320
-48.467	-44.681	16395	16382	0	320
-47.494	-40.029	16395	16378	0	320
-46.953	-35.557	16396	16376	0	320
-48.071	-33.213	16396	16376	0	320
-46.556	-33.357	16396	16376	0	320
-46.412	-34.115	16397	16375	0	320
-44.537	-33.574	16397	16373	0	320
-46.376	-31.626	16397	16372	0	320
-50.018	-27.624	16397	16371	0	320
-55.644	-25.099	16397	16369	0	320
-55.752	-21.926	16397	16367	0	320
-49.153	-20.159	16397	16365	0	320
-37.036	-19.005	16397	16364	0	320
-24.883	-15.903	16397	16362	0	320
-17.779	-11.396	16397	16361	0	320
-18.608	-8.150	16397	16359	0	320
-21.096	-6.708	16397	16358	0	320
-20.411	-5.950	16396	16352	0	320
-14.569	-5.590	16394	16341	0	320
-7.645	-4.832	16393	16330	0	320
-3.498	-1.118	16392	16326	0	320
-6.094	2.344	16392	16327	0	320
-8.619	3.678	16391	16329	0	320
-7.609	5.229	16390	16328	0	320
-1.731	3.859	16389	16327	0	320
6.960	2.308	16389	16328	0	320
14.821	1.298	16388	16332	0	320
19.149	1.767	16388	16337	0	320
20.988	3.390	16388	16343	0	320
20.447	5.554	16388	16349	0	320
16.336	3.101	16388	16356	0	320
8.547	-1.190	16388	16363	0	320
-1.298	-5.878	16388	16370	0	320
-9.196	-7.032	16388	16376	0	320
-13.343	-5.481	16388	16379	0	320
-10.422	-1.623	16388	16383	0	320
-4.183	1.406	16388	16385	0	320
3.606	3.642	16388	16389	0	320
7.285	5.301	16388	16393	0	320
8.402	7.609	16389	16396	0	320
4.904	10.494	16389	16398	0	320
2.560	13.307	16389	16401	0	320
4.291	14.172	16389	16402	0	320
8.258	16.625	16389	16401	0	320
13.920	17.057	16388	16394	0	320
18.716	16.372	16387	16382	0	320
20.700	17.526	16385	16368	0	320
22.683	21.745	16384	16358	0	320
26.578	28.597	16384	16351	0	320
30.977	37.432	16382	16346	0	320
34.728	42.661	16382	16344	0	320
34.800	44.068	16381	16345	0	320
33.285	41.435	16380	16346	0	320
33.069	38.406	16380	16347	0	320
35.341	38.622	16379	16349	0	320
37.432	38.695	16379	16353	0	320
37.144	38.190	16378	16358	0	320
32.528	34.908	16378	16363	0	320
27.227	30.869	16378	16366	0	320
23.296	29.499	16377	16370	0	320
23.476	28.705	16378	16376	0	320
22.431	31.230	16378	16383	0	320
20.050	32.925	16378	16389	0	320
15.398	35.016	16378	16394	0	320
13.018	38.586	16378	16398	0	320
12.153	43.924	16379	16403	0	320
14.785	47.890	16379	16406	0	320
16.913	46.340	16379	16408	0	320
16.661	42.301	16379	16407	0	320
16.697	35.990	16379	16405	0	320
19.690	33.177	16378	16400	0	320
27.191	35.413	16378	16396	0	320
35.810	39.776	16378	16394	0	320
40.209	44.284	16377	16392	0	320
39.993	46.268	16377	16390	0	320
35.954	48.972	16377	16387	0	320
34.223	50.847	16376	16385	0	320
37.288	54.345	16376	16383	0	320
42.012	56.113	16375	16380	0	320
42.625	55.247	16375	16379	0	320
39.524	50.162	16374	16378	0	320
31.771	43.924	16374	16376	0	320
27.407	36.206	16373	16373	0	320
26.253	29.715	16373	16372	0	320
29.138	23.765	16372	16371	0	320
30.076	21.890	16372	16371	0	320
26.866	21.060	16372	16370	0	320
18.139	22.791	16371	16367	0	320
9.953	25.388	16370	16365	0	320
7.862	26.686	16370	16365	0	320
12.225	28.850	16369	16366	0	320
21.060	30.328	16369	16367	0	320
28.092	32.636	16368	16367	0	320
30.977	34.151	16368	16368	0	320
29.535	34.115	16368	16370	0	320
26.470	32.131	16368	16372	0	320
23.549	29.679	16367	16372	0	320
20.772	29.499	16366	16370	0	320
16.949	30.148	16366	16370	0	320
15.471	32.239	16365	16370	0	320
14.569	33.321	16365	16372	0	320
13.631	33.898	16365	16373	0	320
13.848	34.079	16364	16374	0	320
15.038	35.052	16364	16375	0	320
16.697	38.767	16364	16376	0	320
20.159	41.543	16363	16378	0	320
25.460	45.366	16363	16380	0	320
28.020	45.510	16363	16382	0	320
30.256	45.799	16363	16384	0	320
29.463	44.717	16363	16384	0	320
27.912	42.048	16362	16386	0	320
25.604	39.416	16362	16386	0	320
22.214	40.281	16362	16386	0	320
21.854	41.904	16362	16387	0	320
22.611	46.556	16362	16388	0	320
26.722	51.965	16361	16387	0	320
29.643	55.211	16361	16384	0	320
30.364	53.949	16361	16383	0	320
27.515	48.359	16360	16383	0	320
22.647	41.039	16360	16382	0	320
20.519	33.610	16359	16380	0	320
26.073	29.174	16358	16376	0	320
33.249	30.725	16358	16372	0	320
39.380	33.790	16357	16371	0	320
41.688	38.226	16357	16371	0	320
37.973	38.695	16356	16371	0	320
35.160	39.055	16356	16371	0	320
37.937	38.190	16355	16370	0	320
44.176	38.803	16355	16371	0	320
49.730	39.416	16355	16374	0	320
49.621	40.029	16355	16375	0	320
43.094	37.721	16354	16376	0	320
37.216	33.898	16354	16376	0	320
34.511	32.059	16353	16378	0	320
38.803	30.184	16353	16379	0	320
46.628	32.348	16353	16380	0	320
54.634	35.160	16352	16380	0	320
57.591	37.144	16352	16380	0	320
55.536	36.278	16352	16381	0	320
48.251	31.590	16352	16381	0	320
39.524	25.388	16351	16381	0	320
33.105	20.231	16351	16381	0	320
33.934	18.464	16351	16382	0	320
40.642	19.005	16351	16384	0	320
47.061	21.818	16350	16384	0	320
48.684	21.529	16350	16385	0	320
46.845	20.159	16350	16385	0	320
42.120	18.356	16350	16386	0	320
41.652	17.743	16350	16386	0	320
42.445	19.401	16349	16385	0	320
42.445	21.313	16349	16384	0	320
40.642	23.188	16349	16383	0	320
36.206	20.988	16348	16382	0	320
33.393	20.195	16348	16382	0	320
34.367	21.096	16347	16382	0	320
38.262	24.378	16347	16381	0	320
43.455	29.138	16347	16380	0	320
48.648	31.013	16347	16381	0	320
51.929	25.965	16347	16383	0	320
50.379	18.428	16346	16384	0	320
43.851	10.999	16346	16385	0	320
34.800	6.671	16346	16386	0	320
25.496	10.242	16346	16388	0	320
24.630	19.041	16346	16390	0	320
28.850	29.246	16347	16391	0	320
37.757	37.937	16347	16392	0	320
42.950	38.947	16346	16393	0	320
42.950	36.098	16347	16395	0	320
39.849	31.374	16347	16397	0	320
37.649	30.040	16347	16398	0	320
39.055	34.115	16347	16399	0	320
42.589	37.613	16347	16398	0	320
40.894	35.124	16347	16396	0	320
34.800	27.119	16347	16392	0	320
26.722	18.969	16346	16389	0	320
22.286	16.733	16346	16387	0	320
21.241	21.096	16346	16386	0	320
23.440	29.138	16346	16386	0	320
24.955	34.259	16346	16386	0	320
22.503	32.312	16346	16385	0	320
18.464	28.741	16346	16385	0	320
14.245	25.965	16346	16386	0	320
11.684	24.883	16346	16388	0	320
11.612	25.388	16346	16388	0	320
12.261	23.873	16346	16389	0	320
13.848	20.664	16346	16389	0	320
13.054	19.654	16346	16390	0	320
12.045	20.195	16346	16391	0	320
9.520	21.385	16346	16391	0	320
9.160	20.267	16347	16390	0	320
8.006	14.785	16347	16390	0	320
5.481	6.744	16347	16390	0	320
0.000	1.515	16347	16391	0	320
-4.147	0.541	16347	16392	0	320
-2.524	3.642	16347	16393	0	320
2.993	10.242	16348	16394	0	320
12.622	13.523	16348	16394	0	320
18.392	14.930	16348	16394	0	320
17.418	14.245	16348	16392	0	320
12.009	14.136	16348	16390	0	320
7.104	13.920	16348	16388	0	320
6.167	15.002	16348	16387	0	320
7.068	13.415	16348	16387	0	320
6.996	8.402	16348	16387	0	320
7.501	3.570	16348	16388	0	320
6.419	0.505	16348	16389	0	320
9.737	0.793	16349	16389	0	320
14.858	3.462	16349	16389	0	320
19.546	8.186	16349	16388	0	320
22.034	10.242	16349	16388	0	320
20.267	11.900	16349	16388	0	320
19.473	10.133	16349	16389	0	320
18.644	7.537	16350	16390	0	320
19.113	4.760	16350	16391	0	320
20.267	6.888	16350	16392	0	320
20.952	9.665	16350	16393	0	320
20.664	14.605	16351	16395	0	320
18.211	16.769	16351	16396	0	320
15.579	13.956	16351	16398	0	320
12.405	8.619	16352	16399	0	320
10.206	4.147	16353	16401	0	320
9.881	2.741	16353	16403	0	320
9.953	5.193	16354	16405	0	320
10.278	8.222	16354	16405	0	320
10.710	13.018	16355	16405	0	320
15.723	17.238	16355	16405	0	320
23.044	21.096	16356	16405	0	320
28.417	23.585	16356	16405	0	320
30.581	22.178	16357	16405	0	320
25.604	17.634	16357	16405	0	320
19.618	11.648	16358	16405	0	320
14.930	9.701	16358	16405	0	320
14.569	9.809	16359	16404	0	320
16.444	9.809	16359	16403	0	320
16.805	9.448	16360	16403	0	320
16.516	7.970	16360	16403	0	320
16.228	9.484	16361	16403	0	320
17.779	12.802	16361	16402	0	320
21.349	15.759	16362	16402	0	320
28.056	15.218	16363	16402	0	320
33.898	11.323	16363	16402	0	320
36.170	5.698	16363	16401	0	320
33.862	6.203	16364	16400	0	320
27.515	8.042	16365	16399	0	320
20.700	11.648	16365	16397	0	320
17.021	10.674	16365	16395	0	320
18.211	7.789	16366	16394	0	320
20.808	2.524	16366	16392	0	320
21.096	0.865	16366	16389	0	320
17.995	2.957	16366	16386	0	320
12.441	9.448	16367	16384	0	320
9.556	15.867	16367	16382	0	320
8.799	21.204	16367	16379	0	320
11.251	20.844	16367	16378	0	320
10.494	16.805	16367	16377	0	320
6.635	7.825	16367	16377	0	320
1.298	4.580	16368	16377	0	320
1.695	8.006	16368	16377	0	320
9.412	18.752	16368	16377	0	320
21.277	31.158	16368	16378	0	320
29.968	36.891	16369	16379	0	320
30.004	35.449	16369	16381	0	320
25.063	30.400	16370	16382	0	320
19.834	26.650	16370	16383	0	320
19.041	27.047	16370	16384	0	320
23.116	28.814	16371	16385	0	320
27.768	30.653	16371	16385	0	320
27.551	30.869	16371	16386	0	320
26.361	30.977	16372	16387	0	320
23.008	30.833	16372	16388	0	320
23.693	31.338	16372	16388	0	320
24.414	32.384	16373	16389	0	320
23.116	34.331	16373	16388	0	320
20.447	37.036	16373	16387	0	320
14.028	38.695	16373	16386	0	320
9.809	36.964	16373	16384	0	320
9.160	35.341	16373	16383	0	320
14.497	35.918	16373	16381	0	320
21.781	40.209	16373	16380	0	320
30.797	47.097	16373	16379	0	320
37.072	51.172	16373	16378	0	320
34.944	48.179	16373	16377	0	320
25.063	39.199	16373	16377	0	320
9.088	27.479	16374	16376	0	320
-4.868	18.824	16373	16376	0	320
-10.855	16.949	16374	16377	0	320
-8.763	21.385	16374	16377	0	320
-2.524	30.472	16374	16377	0	320
3.606	37.252	16374	16378	0	320
7.212	41.471	16374	16378	0	320
8.691	38.406	16374	16378	0	320
11.540	32.095	16374	16379	0	320
13.451	26.758	16374	16379	0	320
13.523	23.116	16374	16379	0	320
14.208	25.279	16374	16379	0	320
15.543	29.246	16374	16380	0	320
17.346	32.672	16375	16381	0	320
17.959	33.502	16375	16381	0	320
15.002	30.292	16375	16382	0	320
9.340	27.732	16375	16382	0	320
2.452	27.804	16375	16381	0	320
0.288	30.797	16375	16381	0	320
3.462	36.242	16375	16380	0	320
12.225	41.183	16375	16380	0	320
19.329	44.284	16375	16380	0	320
24.234	46.159	16375	16380	0	320
21.998	50.307	16375	16380	0	320
16.264	54.382	16374	16380	0	320
12.225	57.843	16375	16380	0	320
12.946	58.565	16374	16381	0	320
15.651	55.319	16375	16381	0	320
18.824	50.956	16375	16381	0	320
18.680	48.143	16375	16382	0	320
16.408	49.477	16375	16383	0	320
14.858	53.805	16375	16384	0	320
14.894	57.952	16375	16384	0	320
13.163	59.971	16375	16385	0	320
8.907	60.079	16375	16386	0	320
-0.036	57.122	16375	16386	0	320
-7.934	54.634	16375	16387	0	320
-9.268	53.768	16376	16388	0	320
-0.288	58.240	16376	16389	0	320
14.569	67.833	16376	16389	0	320
26.253	76.956	16376	16391	0	320
26.866	81.464	16376	16392	0	320
16.733	78.002	16377	16393	0	320
2.849	69.455	16377	16393	0	320
-3.390	62.243	16377	16394	0	320
-0.974	61.053	16377	16394	0	320
6.888	64.587	16378	16394	0	320
12.405	68.446	16378	16393	0	320
14.461	69.095	16378	16392	0	320
13.956	64.154	16378	16391	0	320
14.317	57.411	16378	16389	0	320
13.668	49.982	16378	16387	0	320
12.658	45.150	16378	16386	0	320
8.799	41.976	16378	16385	0	320
4.544	39.560	16378	16384	0	320
3.606	35.990	16378	16384	0	320
4.508	31.771	16378	16383	0	320
6.671	30.725	16378	16382	0	320
7.645	30.148	16378	16381	0	320
6.203	29.931	16378	16380	0	320
3.101	28.056	16378	16380	0	320
0.144	25.352	16378	16379	0	320
-0.180	27.443	16378	16379	0	320
3.173	34.800	16378	16379	0	320
11.576	48.864	16378	16380	0	320
19.510	60.584	16378	16380	0	320
28.994	63.974	16378	16380	0	320
31.482	59.611	16378	16381	0	320
28.922	49.802	16378	16382	0	320
21.962	43.238	16378	16383	0	320
12.477	39.560	16378	16384	0	320
5.409	38.803	16378	16384	0	320
4.940	36.675	16378	16384	0	320
7.681	33.357	16379	16385	0	320
13.487	31.771	16379	16385	0	320
13.776	32.420	16379	16386	0	320
10.963	34.006	16379	16386	0	320
4.868	35.701	16379	16386	0	320
-1.695	34.692	16379	16386	0	320
-4.400	31.987	16379	16386	0	320
-8.114	29.679	16379	16386	0	320
-8.114	26.217	16379	16387	0	320
-6.599	25.424	16379	16387	0	320
-1.947	25.279	16380	16387	0	320
3.390	28.128	16380	16388	0	320
5.265	31.158	16380	16388	0	320
5.734	35.197	16380	16387	0	320
3.282	36.098	16380	16387	0	320
4.183	35.701	16380	16387	0	320
5.842	33.177	16380	16386	0	320
7.825	30.545	16380	16385	0	320
5.373	28.381	16380	16385	0	320
0.613	25.676	16380	16384	0	320
-4.111	25.243	16380	16384	0	320
-5.842	23.296	16380	16384	0	320
-2.236	21.637	16380	16384	0	320
6.671	25.820	16380	16384	0	320
16.877	33.033	16380	16384	0	320
25.532	43.707	16380	16384	0	320
32.780	54.598	16380	16384	0	320
39.921	63.036	16380	16384	0	320
46.881	67.184	16380	16384	0	320
53.191	67.652	16381	16384	0	320
53.083	62.532	16381	16385	0	320
45.150	54.598	16381	16385	0	320
33.069	45.835	16381	16386	0	320
22.611	39.776	16381	16386	0	320
18.428	41.255	16381	16386	0	320
19.221	44.501	16381	16386	0	320
20.880	45.618	16381	16385	0	320
22.431	45.078	16381	16385	0	320
22.214	42.301	16381	16385	0	320
23.404	39.091	16381	16385	0	320
24.558	37.541	16382	16385	0	320
25.820	36.964	16382	16386	0	320
25.099	37.541	16382	16386	0	320
25.135	38.767	16382	16386	0	320
25.027	43.166	16382	16385	0	320
25.532	44.825	16382	16385	0	320
23.260	44.897	16382	16385	0	320
19.618	41.435	16382	16385	0	320
16.264	38.803	16382	16384	0	320
17.093	41.003	16382	16384	0	320
21.673	45.582	16382	16384	0	320
28.453	50.559	16382	16384	0	320
30.400	51.064	16382	16384	0	320
26.506	46.340	16382	16383	0	320
17.887	39.091	16382	16383	0	320
11.576	33.862	16382	16383	0	320
10.386	31.410	16382	16382	0	320
13.163	30.653	16382	16382	0	320
16.661	31.482	16382	16382	0	320
19.834	30.545	16382	16382	0	320
19.762	31.879	16382	16382	0	320
21.818	32.961	16382	16382	0	320
23.296	34.980	16382	16383	0	320
24.919	37.721	16382	16383	0	320
27.876	39.235	16382	16384	0	320
30.472	41.688	16382	16384	0	320
36.170	45.041	16382	16384	0	320
42.697	48.684	16382	16384	0	320
48.612	54.165	16382	16384	0	320
49.080	58.493	16382	16384	0	320
46.592	59.178	16382	16384	0	320
42.409	56.365	16382	16384	0	320
38.586	52.038	16383	16384	0	320
38.334	48.900	16383	16385	0	320
38.082	50.162	16383	16385	0	320
36.026	50.415	16383	16385	0	320
30.508	47.926	16383	16385	0	320
26.470	44.068	16383	16385	0	320
29.968	42.084	16383	16385	0	320
40.714	50.126	16383	16385	0	320
56.870	62.495	16383	16384	0	320
66.859	74.396	16383	16384	0	320
67.869	76.163	16383	16384	0	320
59.214	71.042	16383	16384	0	320
49.477	63.686	16383	16384	0	320
44.825	60.476	16383	16384	0	320
45.474	59.178	16383	16384	0	320
48.395	56.329	16383	16384	0	320
48.251	51.641	16383	16384	0	320
43.887	46.592	16383	16384	0	320
38.045	44.645	16383	16384	0	320
31.662	45.150	16383	16384	0	320
26.433	45.294	16383	16384	0	320
22.106	42.697	16383	16384	0	320
19.834	36.170	16383	16384	0	320
19.762	30.581	16383	16385	0	320
21.781	28.669	16383	16385	0	320
23.368	28.020	16384	16385	0	320
24.558	31.266	16384	16385	0	320
25.388	36.134	16384	16385	0	320
25.893	39.308	16384	16385	0	320
28.705	40.894	16384	16385	0	320
28.922	39.308	16384	16385	0	320
26.650	37.252	16384	16384	0	320
22.178	34.367	16384	16384	0	320
19.726	34.692	16384	16384	0	320
23.008	39.560	16384	16384	0	320
27.984	45.114	16384	16384	0	320
33.718	48.684	16384	16384	0	320
33.574	49.008	16384	16384	0	320
26.289	44.681	16384	16384	0	320
18.536	38.009	16384	16384	0	320
13.054	34.511	16384	16384	0	320
10.927	31.699	16384	16384	0	320
11.828	31.735	16384	16384	0	320
10.566	30.797	16384	16384	0	320
5.193	30.797	16384	16384	0	320
0.721	29.931	16384	16384	0	320
-1.659	32.312	16384	16383	0	320
1.190	34.367	16384	16383	0	320
7.717	34.692	16384	16382	0	320
12.766	32.997	16384	16382	0	320
14.785	30.833	16384	16381	0	320
13.307	29.391	16384	16382	0	320
10.350	31.662	16384	16382	0	320
8.366	36.098	16384	16382	0	320
8.439	41.003	16384	16382	0	320
11.684	44.356	16384	16382	0	320
15.975	44.356	16384	16382	0	320
20.087	43.599	16384	16382	0	320
23.621	41.183	16384	16382	0	320
26.650	38.695	16384	16383	0	320
28.489	36.423	16384	16383	0	320
26.902	35.197	16384	16383	0	320
23.440	31.013	16384	16384	0	320
15.903	26.542	16384	16384	0	320
8.330	22.142	16384	16384	0	320
4.544	18.716	16384	16384	0	320
9.124	19.726	16384	16384	0	320
16.552	24.486	16384	16384	0	320
25.640	31.554	16384	16384	0	320
31.482	38.550	16384	16385	0	320
33.682	43.563	16384	16385	0	320
31.049	43.238	16384	16385	0	320
30.905	42.301	16384	16385	0	320
33.538	40.930	16384	16385	0	320
39.849	44.753	16384	16385	0	320
1772.449	-578.074	63	16785	0	16450
15.759	5.950	16384	16379	0	320
14.461	4.868	16384	16379	0	320
11.576	3.354	16384	16380	0	320
8.655	-0.938	16384	16380	0	320
2.380	-4.255	16384	16381	0	320
-2.452	-7.501	16384	16381	0	320
-5.013	-10.638	16384	16382	0	320
-4.796	-12.910	16384	16382	0	320
-1.587	-11.287	16384	16383	0	320
0.793	-11.612	16384	16384	0	320
0.216	-12.622	16384	16384	0	320
-2.813	-13.307	16384	16384	0	320
-6.888	-15.651	16384	16384	0	320
-7.393	-15.290	16384	16385	0	320
-3.750	-14.136	16384	16384	0	320
0.000	-13.812	16384	16384	0	320
2.092	-14.100	16384	16384	0	320
0.685	-16.733	16384	16384	0	320
-1.767	-17.057	16384	16384	0	320
-1.551	-14.858	16384	16385	0	320
2.921	-8.943	16384	16385	0	320
9.160	-1.190	16384	16385	0	320
12.622	4.652	16384	16385	0	320
15.290	7.789	16384	16385	0	320
18.608	9.088	16384	16385	0	320
23.837	11.143	16384	16385	0	320
31.771	15.002	16384	16385	0	320
35.701	17.093	16384	16384	0	320
35.846	18.067	16384	16384	0	320
32.167	16.192	16384	16384	0	320
28.922	13.415	16384	16384	0	320
28.886	12.189	16384	16384	0	320
30.148	12.658	16384	16384	0	320
31.771	13.018	16384	16384	0	320
30.472	12.225	16384	16384	0	320
28.381	10.566	16384	16384	0	320
24.378	7.248	16384	16384	0	320
22.358	4.003	16384	16384	0	320
21.204	2.308	16384	16384	0	320
22.503	3.498	16384	16384	0	320
24.270	6.094	16384	16384	0	320
29.282	12.117	16384	16384	0	320
33.393	18.608	16384	16385	0	320
39.668	24.666	16384	16385	0	320
47.566	30.508	16384	16385	0	320
52.470	35.160	16384	16385	0	320
59.791	40.353	16384	16386	0	320
64.226	44.356	16384	16386	0	320
68.842	49.116	16384	16386	0	320
71.691	52.759	16384	16386	0	320
73.458	55.355	16384	16387	0	320
73.494	58.132	16384	16387	0	320
73.170	60.224	16384	16387	0	320
70.177	59.358	16384	16387	0	320
63.722	52.723	16384	16387	0	320
54.273	42.770	16384	16388	0	320
42.625	32.600	16384	16388	0	320
36.206	26.037	16384	16388	0	320
35.665	24.558	16384	16388	0	320
40.065	27.732	16384	16388	0	320
43.563	27.443	16384	16388	0	320
43.743	25.856	16384	16387	0	320
38.947	22.178	16384	16387	0	320
34.764	21.132	16384	16386	0	320
35.449	24.486	16384	16385	0	320
37.649	29.535	16384	16384	0	320
41.255	31.807	16384	16384	0	320
39.524	30.112	16384	16384	0	320
33.285	21.745	16384	16383	0	320
26.578	14.028	16384	16383	0	320
21.349	8.366	16384	16383	0	320
17.129	4.832	16384	16383	0	320
12.153	1.082	16384	16383	0	320
5.517	-3.642	16384	16383	0	320
-1.875	-7.934	16384	16383	0	320
-6.347	-12.189	16384	16383	0	320
-6.671	-13.668	16384	16384	0	320
-7.898	-13.054	16384	16384	0	320
-9.412	-15.903	16384	16384	0	320
-14.353	-19.185	16384	16384	0	320
-20.231	-23.981	16384	16384	0	320
-22.250	-29.102	16384	16384	0	320
-23.224	-32.203	16384	16384	0	320
-21.818	-34.115	16384	16384	0	320
-21.998	-34.367	16384	16384	0	320
-21.421	-33.033	16384	16384	0	320
-20.880	-29.499	16384	16384	0	320
-16.120	-24.666	16384	16384	0	320
-11.143	-19.762	16384	16384	0	320
-6.960	-16.589	16384	16384	0	320
-6.275	-16.480	16384	16384	0	320
-7.717	-17.238	16384	16384	0	320
-8.835	-16.444	16384	16383	0	320
-6.022	-15.038	16384	16383	0	320
-2.344	-10.674	16384	16382	0	320
2.633	-8.186	16384	16382	0	320
4.111	-5.301	16384	16381	0	320
4.147	-5.049	16384	16381	0	320
2.128	-5.085	16384	16381	0	320
0.072	-4.796	16384	16381	0	320
-1.010	-6.744	16384	16381	0	320
-1.551	-7.393	16384	16381	0	320
-1.767	-7.465	16384	16382	0	320
0.072	-7.140	16384	16382	0	320
2.128	-4.219	16384	16383	0	320
4.760	-1.947	16384	16384	0	320
6.347	-2.416	16384	16384	0	320
7.032	-3.390	16384	16384	0	320
5.914	-5.085	16384	16385	0	320
4.904	-5.085	16384	16386	0	320
6.131	-4.868	16384	16386	0	320
6.275	-3.318	16384	16386	0	320
6.960	-2.416	16384	16386	0	320
8.402	-2.128	16385	16386	0	320
8.366	-0.361	16385	16387	0	320
11.648	2.885	16385	16388	0	320
15.074	6.527	16385	16389	0	320
19.185	9.160	16385	16390	0	320
20.375	11.612	16385	16391	0	320
20.988	12.297	16385	16390	0	320
21.096	10.566	16385	16390	0	320
21.024	10.566	16385	16389	0	320
22.467	10.710	16385	16388	0	320
21.132	10.674	16385	16388	0	320
20.195	10.638	16385	16387	0	320
17.166	7.393	16386	16387	0	320
14.821	4.508	16386	16387	0	320
12.045	0.793	16386	16388	0	320
9.809	-1.226	16386	16388	0	320
6.383	-2.019	16386	16389	0	320
2.056	-3.498	16386	16388	0	320
-1.875	-6.347	16386	16388	0	320
-4.291	-8.727	16386	16387	0	320
-4.147	-8.799	16386	16386	0	320
-4.003	-9.196	16386	16386	0	320
-2.019	-8.114	16386	16385	0	320
-1.551	-9.160	16387	16385	0	320
-0.072	-9.881	16387	16385	0	320
2.416	-10.746	16387	16385	0	320
5.770	-8.439	16387	16385	0	320
9.556	-3.462	16387	16386	0	320
11.179	1.334	16387	16387	0	320
13.415	4.796	16387	16387	0	320
17.093	6.960	16387	16387	0	320
21.818	11.792	16387	16388	0	320
26.614	15.471	16388	16388	0	320
29.823	19.978	16388	16389	0	320
31.446	22.575	16388	16390	0	320
31.158	21.493	16388	16389	0	320
31.879	19.618	16388	16389	0	320
31.122	17.779	16388	16388	0	320
26.830	15.218	16388	16386	0	320
19.726	11.756	16388	16384	0	320
10.999	6.744	16388	16382	0	320
4.940	5.554	16388	16380	0	320
3.931	6.852	16388	16378	0	320
7.104	10.097	16388	16376	0	320
8.439	10.422	16387	16375	0	320
9.376	7.465	16387	16375	0	320
7.970	3.246	16387	16375	0	320
7.140	0.144	16387	16376	0	320
5.121	-0.974	16387	16377	0	320
1.983	-1.551	16387	16379	0	320
-2.308	-4.508	16388	16381	0	320
-4.688	-6.599	16388	16382	0	320
-2.560	-6.239	16388	16384	0	320
4.364	-2.488	16388	16384	0	320
10.891	0.288	16388	16385	0	320
12.730	-0.072	16388	16385	0	320
11.251	-3.859	16388	16386	0	320
6.924	-7.645	16388	16387	0	320
3.426	-10.133	16389	16387	0	320
2.524	-9.484	16389	16387	0	320
2.019	-8.619	16389	16388	0	320
2.633	-7.573	16389	16389	0	320
3.462	-9.160	16389	16389	0	320
1.623	-10.350	16389	16388	0	320
-1.298	-12.622	16389	16387	0	320
-4.400	-15.218	16389	16386	0	320
-6.924	-17.129	16389	16386	0	320
-5.409	-16.841	16389	16387	0	320
-4.147	-16.048	16389	16388	0	320
-2.596	-14.785	16389	16387	0	320
-4.327	-14.749	16390	16386	0	320
-6.888	-16.048	16389	16386	0	320
-9.701	-19.005	16390	16386	0	320
-8.475	-21.060	16390	16385	0	320
-6.599	-20.555	16389	16384	0	320
-3.029	-17.274	16390	16383	0	320
0.144	-12.333	16389	16382	0	320
2.092	-7.645	16389	16382	0	320
2.849	-4.147	16389	16381	0	320
3.931	-4.868	16389	16381	0	320
5.337	-4.400	16389	16381	0	320
8.439	-2.993	16389	16381	0	320
11.360	1.406	16389	16380	0	320
14.605	6.780	16389	16380	0	320
17.057	10.710	16389	16380	0	320
17.238	12.514	16389	16379	0	320
16.084	11.251	16389	16377	0	320
12.117	7.970	16388	16375	0	320
9.016	7.393	16388	16373	0	320
8.222	6.671	16388	16372	0	320
9.665	8.943	16388	16372	0	320
13.668	9.484	16388	16372	0	320
13.343	8.511	16387	16371	0	320
10.314	2.452	16387	16371	0	320
4.688	-4.688	16387	16371	0	320
-1.262	-10.386	16387	16371	0	320
-3.787	-12.514	16387	16372	0	320
-2.633	-11.035	16386	16374	0	320
-2.344	-8.006	16386	16375	0	320
-0.649	-6.022	16386	16375	0	320
0.649	-4.688	16386	16377	0	320
1.406	-4.616	16386	16379	0	320
1.442	-3.137	16386	16381	0	320
2.957	-4.147	16386	16383	0	320
2.416	-4.147	16386	16384	0	320
0.902	-5.842	16386	16384	0	320
-0.144	-5.914	16386	16386	0	320
-1.551	-6.744	16386	16387	0	320
-1.911	-6.203	16386	16387	0	320
-0.469	-5.049	16386	16386	0	320
2.705	-5.013	16386	16386	0	320
6.094	-4.364	16386	16385	0	320
9.304	-3.354	16386	16384	0	320
9.484	-3.318	16386	16384	0	320
7.357	-4.977	16385	16383	0	320
4.327	-5.914	16385	16383	0	320
-0.180	-6.780	16385	16382	0	320
-1.587	-9.124	16385	16381	0	320
-0.433	-8.943	16385	16380	0	320
1.479	-9.773	16384	16379	0	320
3.173	-8.475	16384	16379	0	320
3.426	-8.439	16384	16379	0	320
0.865	-7.321	16384	16378	0	320
-1.803	-9.196	16384	16378	0	320
-2.560	-9.484	16384	16377	0	320
0.108	-9.773	16384	16377	0	320
5.481	-7.717	16384	16377	0	320
10.025	-5.986	16384	16377	0	320
12.369	-5.337	16383	16378	0	320
9.845	-7.429	16383	16378	0	320
4.327	-10.386	16383	16379	0	320
1.118	-9.520	16383	16380	0	320
3.210	-5.193	16383	16380	0	320
12.045	3.823	16383	16381	0	320
21.818	12.658	16383	16382	0	320
28.237	17.851	16383	16384	0	320
28.164	17.815	16383	16384	0	320
23.224	14.713	16383	16384	0	320
18.139	13.054	16383	16385	0	320
16.516	15.507	16383	16387	0	320
16.625	18.572	16383	16388	0	320
15.939	23.873	16383	16390	0	320
14.966	25.784	16383	16392	0	320
13.920	25.965	16383	16393	0	320
13.956	25.604	16383	16393	0	320
12.297	22.611	16384	16393	0	320
11.432	19.473	16383	16392	0	320
11.143	17.166	16384	16392	0	320
11.973	16.697	16384	16394	0	320
16.913	18.716	16384	16395	0	320
20.411	20.087	16384	16396	0	320
20.159	17.959	16384	16397	0	320
16.408	13.668	16384	16398	0	320
12.045	6.780	16384	16399	0	320
10.025	5.157	16385	16401	0	320
11.973	5.878	16385	16403	0	320
12.982	7.501	16385	16403	0	320
11.323	7.717	16386	16404	0	320
8.330	3.354	16386	16405	0	320
3.967	-1.226	16386	16406	0	320
2.957	-3.787	16387	16407	0	320
3.462	-3.246	16387	16408	0	320
6.708	-0.433	16388	16407	0	320
7.357	2.741	16388	16404	0	320
6.635	5.193	16388	16401	0	320
6.708	6.347	16388	16399	0	320
4.688	7.609	16388	16397	0	320
2.669	6.888	16388	16396	0	320
1.695	5.085	16389	16396	0	320
1.118	3.101	16389	16397	0	320
2.128	2.777	16390	16397	0	320
5.445	4.580	16390	16398	0	320
9.665	6.744	16391	16400	0	320
12.802	9.989	16391	16402	0	320
11.937	11.937	16392	16403	0	320
9.845	10.206	16392	16403	0	320
7.501	9.917	16393	16403	0	320
6.311	9.088	16394	16403	0	320
7.825	10.133	16394	16403	0	320
11.179	11.143	16395	16402	0	320
14.100	11.107	16395	16400	0	320
13.271	9.052	16395	16399	0	320
11.828	4.652	16396	16399	0	320
9.016	1.082	16397	16400	0	320
4.544	-1.731	16397	16400	0	320
1.587	-4.616	16397	16399	0	320
-0.180	-7.970	16398	16398	0	320
-1.118	-10.422	16398	16398	0	320
-1.406	-10.602	16399	16398	0	320
-3.137	-10.025	16399	16397	0	320
-6.239	-9.340	16399	16394	0	320
-12.297	-11.504	16400	16390	0	320
-18.031	-15.290	16399	16384	0	320
-20.303	-17.346	16399	16379	0	320
-17.959	-16.444	16399	16373	0	320
-13.054	-11.684	16399	16368	0	320
-7.681	-6.275	16398	16363	0	320
-3.606	-2.128	16398	16359	0	320
-0.974	1.442	16397	16357	0	320
0.505	3.354	16397	16357	0	320
4.977	6.275	16398	16359	0	320
9.809	8.439	16398	16362	0	320
15.471	11.756	16398	16366	0	320
20.483	15.507	16398	16369	0	320
26.361	18.608	16399	16373	0	320
28.741	21.493	16399	16378	0	320
30.112	22.358	16400	16383	0	320
31.951	23.693	16400	16388	0	320
31.879	24.955	16401	16391	0	320
34.908	27.948	16401	16393	0	320
37.865	31.049	16402	16395	0	320
38.334	32.384	16403	16398	0	320
36.423	32.239	16403	16401	0	320
30.328	28.020	16403	16402	0	320
21.818	22.322	16403	16398	0	320
14.281	15.903	16403	16392	0	320
9.845	11.396	16403	16384	0	320
7.104	8.439	16402	16376	0	320
5.806	6.275	16401	16367	0	320
2.957	2.092	16400	16360	0	320
-0.902	-2.236	16399	16356	0	320
-4.400	-5.770	16399	16354	0	320
-2.921	-6.852	16399	16355	0	320
1.803	-3.967	16399	16358	0	320
8.186	0.216	16399	16362	0	320
12.910	1.731	16399	16369	0	320
12.514	-0.505	16400	16376	0	320
12.189	-5.806	16401	16384	0	320
12.802	-10.242	16402	16390	0	320
17.238	-11.215	16402	16397	0	320
23.621	-8.799	16403	16403	0	320
26.109	-6.960	16404	16408	0	320
21.529	-8.871	16405	16413	0	320
13.631	-16.336	16406	16416	0	320
6.275	-22.467	16407	16419	0	320
4.508	-21.998	16407	16422	0	320
9.484	-16.120	16408	16423	0	320
13.343	-4.688	16409	16422	0	320
15.543	5.193	16409	16420	0	320
15.867	10.169	16409	16418	0	320
16.012	11.648	16410	16417	0	320
16.661	11.071	16411	16415	0	320
16.264	9.016	16411	16410	0	320
13.091	4.616	16411	16405	0	320
7.032	-0.180	16411	16402	0	320
2.669	-4.039	16411	16400	0	320
2.813	-2.921	16412	16399	0	320
7.717	3.462	16412	16396	0	320
15.867	12.946	16412	16391	0	320
23.765	21.421	16412	16388	0	320
27.083	22.863	16412	16386	0	320
27.191	21.529	16412	16385	0	320
21.529	15.615	16413	16384	0	320
15.507	11.035	16413	16383	0	320
12.441	8.691	16413	16381	0	320
14.533	10.819	16413	16380	0	320
18.969	13.379	16413	16379	0	320
21.565	14.894	16413	16378	0	320
18.824	10.458	16413	16376	0	320
10.891	2.272	16413	16375	0	320
1.370	-7.429	16414	16374	0	320
-3.210	-13.776	16413	16372	0	320
-3.642	-14.605	16413	16369	0	320
-3.750	-15.002	16413	16366	0	320
-7.068	-16.156	16412	16361	0	320
-14.172	-20.591	16411	16351	0	320
-21.313	-27.263	16410	16340	0	320
-23.981	-29.174	16409	16331	0	320
-23.549	-30.076	16407	16326	0	320
-19.654	-29.210	16406	16325	0	320
-18.320	-26.506	16406	16325	0	320
-18.031	-25.171	16405	16326	0	320
-17.057	-23.224	16404	16326	0	320
-13.992	-18.320	16404	16328	0	320
-6.491	-11.864	16403	16332	0	320
2.128	-4.580	16403	16337	0	320
12.622	4.183	16402	16342	0	320
21.349	12.838	16402	16347	0	320
27.804	19.473	16402	16352	0	320
30.653	24.270	16402	16358	0	320
31.158	27.587	16402	16365	0	320
29.679	28.128	16402	16370	0	320
29.679	29.246	16402	16375	0	320
29.174	27.407	16402	16379	0	320
29.246	25.748	16401	16383	0	320
27.263	21.204	16401	16385	0	320
23.332	17.923	16401	16388	0	320
19.293	13.631	16401	16391	0	320
16.589	12.009	16401	16393	0	320
13.956	9.629	16401	16395	0	320
10.530	4.472	16401	16396	0	320
7.068	0.829	16401	16394	0	320
4.039	-2.524	16400	16390	0	320
4.291	-2.164	16399	16384	0	320
6.744	2.957	16398	16375	0	320
9.629	9.629	16396	16363	0	320
7.645	12.081	16395	16353	0	320
2.416	9.196	16394	16348	0	320
-4.616	2.236	16393	16347	0	320
-9.016	-4.724	16392	16347	0	320
-10.133	-7.032	16391	16348	0	320
-8.042	-3.859	16391	16350	0	320
-3.282	0.793	16390	16354	0	320
0.072	4.147	16390	16359	0	320
2.236	3.534	16390	16365	0	320
1.983	2.128	16390	16371	0	320
-0.397	0.469	16390	16376	0	320
-3.282	-0.541	16389	16381	0	320
-5.626	-0.793	16390	16385	0	320
-5.590	-1.983	16390	16391	0	320
-7.321	-2.344	16390	16396	0	320
-6.816	-3.065	16391	16400	0	320
-8.583	-2.308	16391	16404	0	320
-9.917	-5.662	16391	16408	0	320
-13.487	-9.448	16391	16411	0	320
-16.408	-13.992	16392	16414	0	320
-18.428	-17.382	16392	16415	0	320
-17.093	-15.867	16392	16413	0	320
-13.812	-12.550	16391	16409	0	320
-11.648	-9.124	16391	16405	0	320
-12.261	-7.862	16391	16402	0	320
-14.677	-10.638	16391	16400	0	320
-16.372	-13.451	16391	16399	0	320
-14.425	-15.074	16390	16396	0	320
-9.376	-14.281	16390	16393	0	320
-2.344	-8.799	16390	16390	0	320
3.967	-1.046	16389	16388	0	320
10.350	5.914	16390	16388	0	320
12.333	10.422	16389	16388	0	320
13.920	11.648	16389	16387	0	320
12.586	9.556	16389	16384	0	320
12.369	7.645	16389	16383	0	320
13.631	7.465	16389	16382	0	320
19.618	13.091	16388	16382	0	320
27.479	22.395	16388	16382	0	320
35.052	31.662	16388	16381	0	320
39.993	38.622	16388	16380	0	320
39.849	40.281	16388	16381	0	320
37.468	36.495	16388	16382	0	320
34.006	30.869	16388	16383	0	320
31.122	27.010	16388	16384	0	320
30.617	23.981	16388	16385	0	320
28.345	20.844	16388	16389	0	320
24.306	18.175	16389	16393	0	320
21.493	14.461	16389	16395	0	320
18.824	12.333	16389	16396	0	320
18.716	13.343	16389	16395	0	320
20.591	13.343	16388	16390	0	320
21.673	13.271	16388	16384	0	320
23.837	11.432	16388	16382	0	320
24.089	9.953	16388	16383	0	320
24.486	11.973	16388	16384	0	320
27.263	16.805	16388	16388	0	320
25.965	19.401	16389	16391	0	320
25.604	17.382	16389	16394	0	320
22.683	12.802	16390	16398	0	320
20.411	7.140	16391	16404	0	320
21.313	7.032	16391	16410	0	320
21.818	8.006	16392	16414	0	320
22.827	9.773	16393	16417	0	320
21.204	8.330	16394	16420	0	320
18.500	7.970	16395	16424	0	320
16.552	7.753	16396	16429	0	320
15.867	9.953	16397	16433	0	320
14.894	9.340	16398	16435	0	320
12.081	5.554	16399	16437	0	320
7.429	-1.334	16400	16439	0	320
4.868	-4.291	16401	16440	0	320
5.013	-4.147	16402	16439	0	320
10.097	-1.190	16403	16438	0	320
13.451	2.344	16405	16437	0	320
17.454	1.442	16405	16436	0	320
18.139	-1.947	16407	16435	0	320
18.211	-5.770	16408	16435	0	320
19.582	-6.527	16409	16433	0	320
21.493	-4.940	16409	16428	0	320
24.017	-3.426	16410	16421	0	320
23.224	-4.327	16410	16414	0	320
18.680	-8.619	16411	16409	0	320
13.920	-14.389	16411	16406	0	320
10.133	-16.048	16412	16404	0	320
9.737	-12.730	16413	16403	0	320
8.907	-8.691	16413	16400	0	320
7.537	-6.275	16414	16395	0	320
1.947	-9.304	16414	16392	0	320
-4.075	-12.009	16415	16390	0	320
-5.373	-13.199	16415	16388	0	320
-5.229	-10.025	16416	16386	0	320
-2.200	-4.688	16416	16384	0	320
-0.685	-2.272	16416	16382	0	320
0.577	-1.515	16417	16381	0	320
1.839	-3.750	16418	16382	0	320
2.957	-6.239	16418	16381	0	320
3.173	-7.104	16418	16377	0	320
4.868	-7.393	16418	16372	0	320
7.465	-4.472	16418	16368	0	320
12.514	0.072	16418	16367	0	320
19.113	5.409	16419	16367	0	320
21.637	7.248	16419	16365	0	320
21.565	5.662	16418	16362	0	320
17.887	3.931	16419	16358	0	320
15.398	1.947	16418	16357	0	320
15.831	4.400	16418	16358	0	320
18.428	8.727	16419	16360	0	320
22.106	11.071	16419	16363	0	320
21.962	9.737	16420	16366	0	320
20.519	7.176	16420	16371	0	320
19.077	5.013	16420	16375	0	320
18.860	6.563	16421	16379	0	320
19.834	8.078	16422	16383	0	320
18.716	8.691	16422	16385	0	320
16.264	5.373	16422	16386	0	320
11.107	0.505	16422	16385	0	320
9.196	-3.678	16423	16385	0	320
8.330	-6.744	16423	16388	0	320
7.753	-8.655	16424	16391	0	320
4.147	-12.802	16424	16391	0	320
1.659	-15.362	16425	16390	0	320
-0.902	-17.021	16425	16390	0	320
0.144	-15.398	16425	16389	0	320
4.400	-9.881	16425	16384	0	320
9.124	-5.590	16424	16380	0	320
13.054	-1.479	16424	16377	0	320
16.589	0.505	16424	16375	0	320
17.815	0.072	16425	16376	0	320
17.851	0.144	16425	16382	0	320
19.005	2.849	16426	16388	0	320
20.267	7.537	16427	16394	0	320
24.739	13.415	16427	16397	0	320
26.866	18.139	16428	16400	0	320
26.938	18.680	16429	16403	0	320
23.621	16.444	16429	16406	0	320
20.050	13.018	16430	16407	0	320
16.300	9.592	16431	16406	0	320
13.920	8.547	16431	16405	0	320
11.756	6.563	16431	16403	0	320
9.484	4.868	16431	16400	0	320
7.934	4.724	16432	16396	0	320
8.475	4.400	16432	16392	0	320
8.619	4.977	16431	16386	0	320
8.799	3.823	16431	16380	0	320
7.753	3.498	16430	16371	0	320
8.042	2.741	16430	16364	0	320
8.222	2.849	16429	16359	0	320
9.989	4.400	16429	16356	0	320
9.917	2.957	16428	16351	0	320
9.268	1.983	16427	16344	0	320
8.799	0.469	16426	16339	0	320
11.071	2.921	16425	16336	0	320
14.677	8.258	16425	16334	0	320
21.457	13.920	16424	16332	0	320
25.424	19.185	16423	16328	0	320
29.138	21.204	16422	16326	0	320
32.203	24.811	16421	16326	0	320
34.439	26.722	16420	16329	0	320
37.180	30.076	16420	16333	0	320
36.747	29.427	16419	16337	0	320
33.502	26.722	16419	16340	0	320
26.506	20.808	16419	16345	0	320
21.385	17.202	16419	16354	0	320
16.769	13.379	16419	16365	0	320
15.362	12.009	16419	16375	0	320
18.572	11.792	16420	16382	0	320
23.873	13.127	16420	16387	0	320
29.391	17.562	16421	16394	0	320
32.708	20.988	16421	16401	0	320
29.679	22.539	16422	16407	0	320
21.204	17.454	16422	16411	0	320
11.468	10.097	16422	16412	0	320
5.337	2.236	16422	16411	0	320
6.455	0.216	16422	16408	0	320
11.648	3.570	16422	16404	0	320
17.815	9.376	16422	16400	0	320
18.860	11.179	16421	16395	0	320
12.369	6.491	16420	16389	0	320
1.046	-3.390	16419	16381	0	320
-9.737	-13.523	16418	16373	0	320
-13.992	-17.779	16417	16364	0	320
-9.268	-12.946	16416	16355	0	320
0.469	-2.236	16414	16347	0	320
10.638	7.717	16413	16341	0	320
12.477	13.307	16412	16337	0	320
7.609	12.514	16411	16336	0	320
0.000	7.609	16410	16336	0	320
-4.724	5.049	16409	16335	0	320
-2.741	6.275	16408	16335	0	320
4.364	10.422	16407	16337	0	320
10.566	13.163	16407	16341	0	320
12.261	14.894	16406	16348	0	320
9.520	13.451	16406	16356	0	320
7.717	12.622	16406	16363	0	320
6.455	12.586	16406	16368	0	320
7.717	13.704	16406	16372	0	320
7.285	12.297	16405	16374	0	320
5.554	10.133	16404	16370	0	320
1.875	7.212	16402	16359	0	320
-0.433	4.219	16399	16344	0	320
-0.865	3.282	16397	16330	0	320
-0.721	1.911	16395	16321	0	320
-2.308	0.721	16393	16316	0	320
-3.318	-2.200	16392	16315	0	320
-5.662	-5.301	16390	16318	0	320
-4.616	-6.275	16389	16323	0	320
-2.560	-5.229	16388	16328	0	320
-0.325	-5.049	16387	16332	0	320
0.829	-2.705	16386	16338	0	320
0.325	-2.777	16386	16346	0	320
-0.541	-3.498	16386	16174	0	16385
14.353	3.787	16385	16363	0	320
11.756	0.902	16384	16364	0	320
10.458	1.082	16384	16365	0	320
9.484	1.262	16384	16368	0	320
7.068	0.361	16384	16372	0	320
2.308	-3.606	16384	16376	0	320
-1.442	-7.501	16385	16382	0	320
-3.498	-8.330	16385	16388	0	320
-2.957	-7.140	16386	16395	0	320
-1.623	-4.075	16387	16400	0	320
1.479	-1.442	16387	16401	0	320
4.544	0.397	16387	16399	0	320
6.311	1.983	16387	16401	0	320
8.042	4.075	16388	16407	0	320
11.215	4.940	16389	16412	0	320
11.973	4.508	16390	16416	0	320
14.208	3.534	16390	16419	0	320
16.625	3.282	16391	16423	0	320
21.781	6.203	16392	16425	0	320
29.282	12.622	16393	16428	0	320
36.459	20.411	16394	16430	0	320
41.724	23.476	16395	16432	0	320
40.822	24.630	16396	16431	0	320
36.783	20.555	16396	16428	0	320
29.535	16.192	16397	16426	0	320
21.998	12.622	16398	16428	0	320
16.264	8.835	16399	16434	0	320
11.179	5.013	16401	16440	0	320
8.258	1.803	16403	16445	0	320
5.409	-0.072	16404	16448	0	320
4.580	-0.829	16406	16452	0	320
2.128	-2.416	16408	16455	0	320
1.262	-4.652	16409	16456	0	320
1.442	-7.465	16410	16453	0	320
3.426	-9.484	16412	16448	0	320
5.734	-7.645	16413	16444	0	320
9.773	-3.823	16414	16442	0	320
12.586	-1.118	16415	16441	0	320
17.093	1.731	16417	16440	0	320
20.952	3.282	16418	16435	0	320
23.729	5.590	16418	16426	0	320
26.037	6.924	16418	16415	0	320
23.693	6.419	16419	16408	0	320
19.221	4.688	16420	16404	0	320
15.975	2.019	16421	16401	0	320
12.586	1.082	16422	16399	0	320
13.704	3.823	16423	16398	0	320
16.048	5.517	16424	16398	0	320
18.283	8.114	16425	16399	0	320
20.159	7.970	16426	16398	0	320
21.060	9.016	16427	16397	0	320
20.195	9.556	16427	16392	0	320
17.238	11.287	16428	16386	0	320
14.028	10.963	16428	16383	0	320
10.169	11.756	16429	16381	0	320
9.232	10.963	16430	16382	0	320
7.501	8.439	16431	16384	0	320
6.383	6.671	16432	16386	0	320
1.875	3.534	16433	16388	0	320
-2.813	0.757	16434	16389	0	320
-3.318	-1.010	16435	16389	0	320
-2.669	-0.541	16435	16387	0	320
0.685	0.685	16435	16383	0	320
4.327	3.210	16435	16376	0	320
8.294	6.275	16436	16372	0	320
12.477	10.422	16436	16371	0	320
17.562	14.641	16437	16372	0	320
21.637	14.713	16437	16371	0	320
21.132	14.389	16437	16368	0	320
18.860	10.530	16437	16366	0	320
15.759	5.265	16438	16366	0	320
12.333	3.426	16438	16370	0	320
12.477	3.065	16439	16374	0	320
14.821	4.832	16440	16377	0	320
17.598	5.662	16441	16381	0	320
18.536	5.517	16442	16384	0	320
16.769	3.967	16442	16386	0	320
16.156	3.029	16443	16388	0	320
17.093	3.534	16444	16393	0	320
24.594	7.537	16445	16397	0	320
31.807	8.655	16446	16398	0	320
36.675	8.006	16446	16394	0	320
36.819	3.570	16446	16391	0	320
36.278	0.000	16447	16391	0	320
36.351	-1.118	16447	16392	0	320
37.180	-0.757	16448	16391	0	320
33.069	-3.570	16448	16388	0	320
25.460	-10.314	16448	16386	0	320
16.012	-18.175	16449	16388	0	320
13.018	-20.339	16450	16391	0	320
16.841	-15.218	16451	16393	0	320
24.342	-6.780	16451	16392	0	320
29.859	-1.623	16452	16391	0	320
28.777	-1.875	16453	16393	0	320
23.981	-4.580	16453	16396	0	320
20.231	-8.042	16454	16398	0	320
18.428	-6.708	16455	16400	0	320
19.546	-5.265	16456	16401	0	320
20.411	-3.210	16457	16402	0	320
20.267	-3.173	16457	16402	0	320
17.238	-3.570	16458	16401	0	320
14.353	-3.137	16458	16400	0	320
12.009	-1.046	16459	16398	0	320
12.009	1.046	16459	16397	0	320
12.586	4.147	16460	16394	0	320
15.507	5.193	16460	16389	0	320
17.598	6.419	16460	16384	0	320
20.952	8.511	16459	16378	0	320
22.431	10.566	16459	16372	0	320
19.185	8.799	16459	16366	0	320
11.612	1.731	16458	16359	0	320
0.793	-8.150	16458	16352	0	320
-11.215	-17.598	16457	16343	0	320
-15.290	-21.349	16455	16332	0	320
-13.992	-18.860	16454	16319	0	320
-8.727	-14.245	16451	16305	0	320
-3.570	-11.360	16449	16291	0	320
-4.075	-11.468	16447	16282	0	320
-7.104	-14.461	16446	16278	0	320
-10.710	-16.949	16444	16275	0	320
-12.730	-16.408	16442	16272	0	320
-11.323	-14.749	16441	16272	0	320
-7.393	-11.215	16439	16276	0	320
-4.904	-9.340	16438	16283	0	320
-1.695	-8.763	16437	16290	0	320
1.875	-7.176	16436	16295	0	320
5.950	-3.318	16435	16300	0	320
10.314	0.325	16434	16306	0	320
12.982	6.131	16433	16314	0	320
15.867	8.655	16432	16322	0	320
18.824	8.511	16431	16328	0	320
21.096	9.160	16430	16333	0	320
21.601	8.727	16429	16339	0	320
20.736	8.294	16428	16345	0	320
16.949	5.770	16427	16350	0	320
14.461	5.121	16427	16355	0	320
13.091	2.849	16426	16357	0	320
12.405	1.731	16424	16354	0	320
9.592	0.036	16422	16347	0	320
3.787	-4.003	16420	16340	0	320
-3.534	-9.160	16418	16337	0	320
-9.845	-15.687	16417	16339	0	320
-15.146	-21.421	16416	16343	0	320
-17.166	-24.702	16415	16346	0	320
-17.382	-25.712	16413	16349	0	320
-16.985	-25.027	16412	16351	0	320
-15.831	-22.322	16411	16355	0	320
-14.641	-19.293	16410	16359	0	320
-12.982	-18.716	16409	16361	0	320
-11.900	-17.887	16407	16361	0	320
-7.645	-15.831	16406	16362	0	320
-2.633	-10.206	16405	16365	0	320
6.058	-2.993	16405	16369	0	320
16.733	6.852	16404	16375	0	320
25.388	15.651	16403	16379	0	320
29.427	17.743	16402	16384	0	320
27.119	15.723	16402	16389	0	320
19.510	9.953	16402	16395	0	320
9.773	4.904	16402	16399	0	320
3.137	0.361	16401	16402	0	320
0.974	1.370	16400	16402	0	320
3.967	5.049	16399	16399	0	320
10.819	8.186	16398	16391	0	320
17.562	12.045	16396	16383	0	320
22.719	15.326	16395	16375	0	320
24.558	18.500	16393	16370	0	320
25.856	22.503	16392	16367	0	320
24.955	25.640	16390	16362	0	320
26.001	29.354	16388	16355	0	320
24.739	30.148	16387	16350	0	320
23.621	29.066	16386	16350	0	320
20.050	25.604	16385	16354	0	320
15.471	21.529	16384	16357	0	320
11.143	15.615	16384	16357	0	320
4.544	10.566	16383	16357	0	320
-0.288	5.337	16381	16358	0	320
-3.137	2.957	16381	16360	0	320
-3.787	-0.288	16379	16361	0	320
-1.875	-1.082	16378	16361	0	320
2.056	0.180	16377	16358	0	320
5.121	0.180	16376	16357	0	320
4.436	-3.498	16375	16358	0	320
1.983	-10.566	16374	16361	0	320
-3.823	-20.627	16372	16362	0	320
-9.556	-31.590	16371	16361	0	320
-12.045	-35.593	16370	16357	0	320
-11.576	-35.413	16367	16350	0	320
-8.402	-31.699	16365	16341	0	320
-5.265	-27.299	16363	16337	0	320
-1.046	-22.503	16362	16337	0	320
3.570	-16.805	16360	16339	0	320
6.455	-11.937	16359	16343	0	320
9.232	-7.501	16358	16347	0	320
8.835	-6.780	16357	16351	0	320
6.419	-7.825	16356	16354	0	320
5.626	-10.386	16355	16357	0	320
5.698	-7.862	16354	16358	0	320
8.691	-5.229	16352	16356	0	320
11.143	0.433	16351	16355	0	320
13.523	4.111	16350	16358	0	320
13.307	4.147	16349	16361	0	320
13.631	5.517	16347	16364	0	320
13.740	5.914	16346	16365	0	320
15.903	7.285	16345	16367	0	320
17.706	10.494	16344	16370	0	320
19.726	11.576	16344	16378	0	320
19.546	11.828	16344	16386	0	320
20.591	13.018	16344	16395	0	320
22.503	15.182	16344	16403	0	320
26.578	18.644	16344	16412	0	320
31.194	23.585	16345	16424	0	320
33.862	25.171	16345	16433	0	320
33.682	23.332	16345	16437	0	320
30.364	19.401	16346	16439	0	320
24.666	14.245	16346	16443	0	320
20.627	9.052	16347	16447	0	320
17.093	8.655	16347	16452	0	320
14.930	7.357	16349	16458	0	320
13.054	6.671	16350	16465	0	320
8.871	2.344	16351	16472	0	320
4.291	-3.426	16352	16478	0	320
0.721	-6.852	16354	16484	0	320
0.325	-6.563	16356	16490	0	320
1.803	-0.469	16357	16494	0	320
4.111	6.275	16359	16496	0	320
6.094	11.107	16360	16494	0	320
10.278	9.989	16361	16488	0	320
14.172	11.468	16362	16482	0	320
21.024	14.894	16363	16479	0	320
24.306	21.493	16365	16478	0	320
25.604	28.128	16366	16477	0	320
22.395	29.715	16368	16473	0	320
18.536	27.660	16369	16467	0	320
17.670	25.424	16371	16465	0	320
19.221	24.162	16373	16468	0	320
23.224	25.243	16375	16471	0	320
23.765	25.316	16377	16472	0	320
19.798	20.772	16379	16472	0	320
10.746	12.477	16381	16473	0	320
0.216	4.436	16383	16476	0	320
-6.455	-2.705	16385	16479	0	320
-10.061	-6.563	16386	16476	0	320
-8.835	-7.032	16388	16467	0	320
-7.717	-8.150	16388	16452	0	320
-6.563	-8.258	16389	16438	0	320
-5.373	-9.448	16390	16430	0	320
-5.734	-8.511	16392	16423	0	320
-6.996	-9.629	16393	16420	0	320
-9.592	-11.107	16395	16418	0	320
-12.153	-13.668	16396	16416	0	320
-11.937	-13.307	16397	16415	0	320
-5.950	-7.862	16399	16414	0	320
3.029	2.452	16401	16413	0	320
14.605	12.045	16402	16413	0	320
22.719	18.356	16403	16410	0	320
26.109	18.716	16404	16403	0	320
25.460	16.264	16405	16396	0	320
24.486	15.362	16407	16395	0	320
25.748	18.392	16408	16396	0	320
31.158	23.801	16409	16395	0	320
35.197	29.138	16410	16390	0	320
37.577	28.994	16411	16387	0	320
32.564	24.558	16412	16387	0	320
22.178	17.815	16414	16388	0	320
14.317	12.333	16415	16387	0	320
9.016	11.432	16415	16381	0	320
8.871	11.828	16416	16373	0	320
7.825	11.648	16416	16369	0	320
5.770	9.088	16417	16369	0	320
0.216	5.229	16418	16373	0	320
-3.967	2.019	16420	16377	0	320
-3.750	0.252	16421	16381	0	320
-2.344	0.072	16422	16384	0	320
1.118	-0.180	16423	16386	0	320
1.190	-1.983	16424	16386	0	320
1.731	-3.210	16425	16383	0	320
2.524	-3.462	16425	16378	0	320
5.049	-1.298	16426	16374	0	320
9.376	4.111	16426	16372	0	320
13.523	10.025	16427	16369	0	320
15.471	12.802	16427	16366	0	320
15.146	13.235	16427	16365	0	320
15.795	10.819	16427	16362	0	320
16.805	10.350	16427	16356	0	320
20.123	12.405	16427	16346	0	320
22.935	15.146	16426	16339	0	320
24.270	17.274	16426	16335	0	320
20.411	16.985	16425	16332	0	320
15.074	13.559	16424	16325	0	320
10.855	11.251	16423	16315	0	320
8.583	11.540	16422	16306	0	320
9.917	13.523	16421	16303	0	320
13.451	14.858	16420	16305	0	320
14.100	14.677	16419	16306	0	320
14.245	12.333	16418	16306	0	320
11.396	9.412	16418	16309	0	320
7.248	7.970	16418	16315	0	320
3.859	5.157	16418	16324	0	320
0.902	1.947	16418	16334	0	320
-0.180	-0.469	16418	16343	0	320
2.669	-1.406	16418	16353	0	320
6.744	1.082	16419	16363	0	320
10.746	4.255	16419	16373	0	320
10.133	7.140	16420	16382	0	320
9.881	7.862	16421	16389	0	320
10.530	10.133	16421	16395	0	320
15.290	12.477	16422	16400	0	320
20.772	14.389	16422	16404	0	320
24.162	14.425	16422	16406	0	320
25.388	13.127	16422	16407	0	320
21.890	9.088	16423	16407	0	320
17.057	5.590	16423	16406	0	320
9.448	-0.793	16422	16400	0	320
-0.216	-8.078	16422	16391	0	320
-9.268	-14.425	16421	16384	0	320
-11.215	-16.444	16420	16378	0	320
-8.547	-13.199	16419	16371	0	320
-4.183	-8.871	16418	16363	0	320
-1.298	-5.986	16417	16358	0	320
-1.803	-6.311	16417	16355	0	320
-2.957	-7.934	16416	16355	0	320
-0.829	-8.907	16416	16355	0	320
2.849	-5.914	16415	16354	0	320
4.904	-2.236	16414	16351	0	320
6.455	1.154	16413	16348	0	320
5.986	3.967	16412	16348	0	320
6.708	8.439	16412	16350	0	320
11.287	12.261	16411	16352	0	320
17.634	17.021	16411	16355	0	320
20.411	18.860	16411	16358	0	320
17.779	16.192	16410	16361	0	320
12.117	11.107	16410	16365	0	320
3.534	3.606	16410	16367	0	320
-0.144	0.649	16409	16370	0	320
0.288	1.226	16409	16372	0	320
4.327	2.741	16409	16374	0	320
6.599	4.544	16408	16376	0	320
5.878	2.669	16408	16377	0	320
1.010	-2.488	16408	16378	0	320
-5.337	-6.671	16407	16375	0	320
-10.386	-9.520	16405	16366	0	320
-12.982	-10.566	16403	16353	0	320
-9.088	-8.114	16402	16343	0	320
-3.895	-4.508	16400	16335	0	320
1.731	-0.397	16398	16332	0	320
3.714	2.128	16397	16329	0	320
4.364	3.282	16395	16325	0	320
3.354	3.498	16393	16320	0	320
6.131	5.950	16392	16317	0	320
12.081	11.504	16390	16316	0	320
19.005	17.670	16389	16317	0	320
21.421	19.365	16387	16317	0	320
18.788	16.372	16027	0	0	16341
-11.828	-15.038	16341	16363	0	320
-16.697	-14.966	16341	16376	0	320
-21.457	-17.779	16340	16386	0	320
-25.027	-21.277	16340	16395	0	320
-27.191	-26.181	16340	16404	0	320
-27.624	-28.633	16340	16410	0	320
-27.551	-29.715	16339	16413	0	320
-26.289	-29.607	16339	16415	0	320
-26.397	-26.866	16338	16416	0	320
-25.279	-25.893	16338	16419	0	320
-24.666	-25.279	16338	16424	0	320
-26.902	-26.938	16338	16429	0	320
-26.830	-27.371	16338	16435	0	320
-25.820	-27.732	16338	16437	0	320
-21.168	-23.621	16337	16431	0	320
-13.631	-19.077	16336	16418	0	320
-6.527	-11.143	16335	16405	0	320
-0.325	-4.940	16333	16398	0	320
3.101	1.839	16333	16393	0	320
5.590	6.780	16332	16390	0	320
8.979	10.855	16331	16387	0	320
12.153	12.910	16330	16384	0	320
12.333	13.559	16330	16383	0	320
11.720	10.674	16329	16384	0	320
9.629	9.232	16329	16390	0	320
6.491	8.222	16329	16396	0	320
5.517	6.239	16329	16401	0	320
2.380	3.137	16330	16404	0	320
-1.731	0.252	16330	16408	0	320
-7.825	-7.393	16330	16411	0	320
-13.343	-11.828	16330	16413	0	320
-16.552	-14.894	16330	16412	0	320
-15.290	-15.831	16329	16408	0	320
-13.127	-14.677	16329	16400	0	320
-10.963	-12.045	16328	16392	0	320
-10.314	-10.386	16327	16384	0	320
-8.943	-8.294	16326	16382	0	320
-7.140	-6.491	16326	16380	0	320
-2.344	-3.570	16325	16377	0	320
2.416	-2.452	16325	16377	0	320
5.085	-1.442	16325	16382	0	320
5.229	-1.623	16325	16387	0	320
6.780	-2.849	16326	16394	0	320
8.943	-1.875	16326	16401	0	320
14.677	2.813	16327	16406	0	320
21.962	9.376	16327	16408	0	320
27.804	16.444	16328	16412	0	320
32.167	21.781	16328	16418	0	320
33.069	25.279	16329	16423	0	320
33.934	26.433	16330	16427	0	320
35.160	27.876	16331	16430	0	320
36.928	30.941	16332	16434	0	320
39.091	32.853	16333	16440	0	320
37.505	34.223	16335	16448	0	320
34.620	31.085	16337	16458	0	320
28.381	24.378	16339	16465	0	320
21.060	15.362	16340	16470	0	320
14.641	6.203	16342	16474	0	320
9.917	0.144	16344	16476	0	320
6.888	-2.885	16346	16479	0	320
6.708	-1.190	16347	16479	0	320
8.366	3.318	16349	16479	0	320
11.396	7.970	16351	16480	0	320
13.199	12.297	16353	16483	0	320
14.533	11.684	16355	16487	0	320
10.999	9.232	16358	16489	0	320
6.744	5.698	16360	16487	0	320
2.741	3.823	16362	16485	0	320
4.940	6.671	16364	16483	0	320
11.900	11.828	16366	16480	0	320
21.168	17.670	16368	16476	0	320
24.991	20.591	16370	16470	0	320
23.729	21.565	16371	16463	0	320
18.644	19.077	16372	16453	0	320
15.290	16.841	16373	16441	0	320
16.625	16.516	16374	16430	0	320
19.978	16.589	16375	16420	0	320
21.709	16.372	16376	16411	0	320
18.608	13.523	16376	16399	0	320
13.054	9.809	16376	16386	0	320
7.248	4.904	16376	16375	0	320
1.695	0.072	16377	16365	0	320
-3.029	-5.301	16376	16353	0	320
-7.393	-9.665	16375	16337	0	320
-10.494	-13.848	16374	16322	0	320
-11.576	-13.884	16374	16312	0	320
-8.511	-11.107	16373	16310	0	320
-3.859	-6.203	16374	16312	0	320
-1.479	-5.013	16375	16319	0	320
-2.596	-8.186	16375	16328	0	320
-5.590	-13.812	16376	16339	0	320
-8.835	-18.644	16378	16349	0	320
-6.527	-15.543	16379	16361	0	320
0.902	-6.563	16381	16373	0	320
13.451	5.517	16382	16383	0	320
22.106	13.740	16383	16389	0	320
27.876	16.408	16384	16396	0	320
29.318	15.110	16385	16403	0	320
29.571	15.002	16387	16410	0	320
31.302	16.192	16388	16418	0	320
33.610	20.700	16390	16423	0	320
35.016	23.945	16391	16425	0	320
31.590	24.775	16392	16422	0	320
27.191	24.486	16392	16413	0	320
21.709	20.988	16393	16406	0	320
15.867	16.841	16393	16402	0	320
10.927	11.035	16394	16402	0	320
6.239	5.517	16395	16401	0	320
5.157	5.049	16395	16395	0	320
6.744	6.239	16395	16389	0	320
11.323	9.520	16396	16387	0	320
13.812	9.412	16397	16388	0	320
10.422	2.993	16397	16389	0	320
2.524	-8.078	16398	16385	0	320
-4.544	-16.949	16398	16381	0	320
-6.275	-18.933	16398	16378	0	320
-2.596	-14.064	16399	16379	0	320
2.164	-7.212	16399	16382	0	320
2.921	-4.832	16400	16383	0	320
0.288	-6.852	16401	16384	0	320
-3.390	-13.523	16401	16383	0	320
-3.787	-18.247	16402	16383	0	320
-4.183	-19.546	16402	16384	0	320
-6.058	-20.591	16403	16384	0	320
-11.937	-23.008	16404	16384	0	320
-19.041	-24.198	16404	16384	0	320
-21.565	-25.099	16405	16384	0	320
-17.851	-22.467	16405	16384	0	320
-9.809	-16.516	16406	16384	0	320
-1.983	-10.458	16406	16382	0	320
4.364	-4.255	16405	16376	0	320
9.232	1.334	16405	16366	0	320
12.009	5.301	16404	16353	0	320
15.471	9.773	16402	16341	0	320
18.536	11.937	16401	16330	0	320
21.060	14.245	16399	16317	0	320
23.729	17.093	16397	16302	0	320
27.768	20.267	16395	16286	0	320
34.223	24.198	16393	16275	0	320
38.298	26.974	16391	16272	0	320
38.803	27.732	16390	16274	0	320
36.675	25.820	16388	16280	0	320
30.004	23.368	16387	16285	0	320
24.486	19.293	16387	16290	0	320
19.726	15.146	16386	16297	0	320
19.113	11.612	16385	16306	0	320
19.005	10.999	16385	16316	0	320
19.437	9.917	16384	16324	0	320
19.582	9.917	16384	16332	0	320
17.815	5.481	16384	16340	0	320
12.946	0.216	16384	16351	0	320
6.419	-8.979	16384	16362	0	320
0.505	-14.749	16384	16371	0	320
-2.019	-16.300	16384	16379	0	320
-0.577	-14.858	16384	16386	0	320
2.200	-11.828	16384	16393	0	320
2.380	-10.206	16384	16401	0	320
1.154	-11.215	16385	16409	0	320
-1.082	-13.307	16385	16415	0	320
0.036	-12.297	16385	16416	0	320
5.373	-9.052	16384	16414	0	320
10.566	-4.364	16384	16409	0	320
15.326	-0.072	16384	16401	0	320
17.634	2.596	16382	16389	0	320
19.149	4.400	16380	16375	0	320
21.890	9.304	16378	16359	0	320
22.827	11.937	16376	16344	0	320
22.972	14.100	16374	16336	0	320
18.536	12.405	16373	16335	0	320
13.091	9.917	16373	16339	0	320
9.701	7.032	16372	16345	0	320
8.871	4.796	16371	16349	0	320
13.559	5.878	16371	16352	0	320
16.156	4.003	16370	16357	0	320
15.651	1.334	16370	16361	0	320
9.629	-4.075	16369	16366	0	320
1.154	-10.458	16369	16371	0	320
-5.626	-16.625	16369	16378	0	320
-9.196	-20.627	16369	16385	0	320
-8.402	-22.250	16369	16393	0	320
-6.888	-20.880	16370	16401	0	320
-3.967	-17.382	16370	16406	0	320
-1.154	-14.028	16370	16408	0	320
0.252	-11.468	16370	16410	0	320
1.298	-11.648	16370	16411	0	320
0.397	-11.937	16370	16411	0	320
0.108	-12.982	16369	16409	0	320
0.649	-9.953	16369	16405	0	320
3.210	-5.770	16369	16401	0	320
6.275	-3.390	16368	16395	0	320
7.537	-2.308	16367	16387	0	320
8.402	-2.452	16366	16384	0	320
6.563	-3.282	16365	16381	0	320
6.383	-2.741	16364	16375	0	320
5.662	-0.216	16363	16365	0	320
5.337	1.839	16361	16356	0	320
7.321	2.596	16360	16350	0	320
6.996	1.767	16359	16348	0	320
7.609	-1.190	16359	16351	0	320
5.481	-5.554	16359	16357	0	320
2.200	-9.845	16358	16361	0	320
-2.236	-15.110	16358	16364	0	320
-5.409	-18.969	16357	16367	0	320
-7.753	-22.683	16357	16370	0	320
-9.412	-24.017	16357	16372	0	320
-8.294	-23.873	16356	16374	0	320
-7.212	-21.529	16356	16375	0	320
-4.183	-17.238	16356	16378	0	320
-1.875	-14.966	16356	16383	0	320
0.000	-12.441	16356	16388	0	320
0.829	-11.504	16356	16392	0	320
2.380	-9.448	16355	16388	0	320
5.193	-6.347	16354	16382	0	320
9.016	-1.406	16353	16375	0	320
13.415	4.327	16352	16371	0	320
18.572	10.206	16351	16368	0	320
22.827	16.877	16350	16367	0	320
25.171	22.575	16350	16366	0	320
28.201	27.840	16349	16366	0	320
29.931	30.797	16348	16364	0	320
32.131	31.049	16347	16364	0	320
34.403	29.499	16347	16366	0	320
35.413	27.876	16346	16368	0	320
33.898	24.558	16346	16369	0	320
30.761	21.241	16345	16368	0	320
25.460	15.795	16344	16368	0	320
19.870	7.934	16344	16370	0	320
15.687	1.010	16344	16372	0	320
13.559	-2.524	16343	16375	0	320
16.336	-0.469	16343	16375	0	320
20.700	2.921	16342	16376	0	320
22.322	3.750	16342	16379	0	320
21.493	-0.685	16342	16383	0	320
16.552	-7.176	16341	16384	0	320
11.107	-11.251	16341	16386	0	320
8.511	-9.953	16341	16384	0	320
10.710	-4.616	16339	16379	0	320
13.487	0.000	16338	16372	0	320
17.418	5.662	16337	16368	0	320
20.952	8.691	16337	16367	0	320
24.053	11.576	16336	16368	0	320
24.955	13.054	16336	16371	0	320
24.414	12.117	16336	16376	0	320
23.404	8.619	16336	16382	0	320
20.736	5.337	16336	16387	0	320
19.365	1.406	16336	16395	0	320
18.320	-2.669	16337	16403	0	320
16.949	-6.744	16337	16409	0	320
13.776	-9.340	16338	16414	0	320
9.809	-11.937	16339	16419	0	320
7.573	-13.091	16340	16426	0	320
5.409	-10.783	16340	16432	0	320
5.914	-9.124	16341	16436	0	320
7.429	-5.842	16342	16438	0	320
8.042	-5.409	16343	16441	0	320
5.662	-7.032	16344	16445	0	320
2.921	-9.304	16345	16450	0	320
-1.875	-11.756	16346	16455	0	320
-3.065	-11.251	16347	16458	0	320
-2.272	-9.016	16349	16459	0	320
-0.433	-7.393	16350	16461	0	320
2.560	-5.013	16351	16462	0	320
6.131	-1.767	16352	16461	0	320
8.835	-0.036	16353	16457	0	320
13.235	4.580	16354	16451	0	320
16.805	8.294	16354	16439	0	320
21.096	11.396	16353	16423	0	320
26.325	15.218	16353	16406	0	320
30.148	18.969	16352	16394	0	320
34.980	23.549	16352	16387	0	320
38.731	27.768	16352	16384	0	320
40.678	30.040	16353	16384	0	320
40.029	29.751	16354	16386	0	320
38.875	25.279	16355	16389	0	320
33.502	21.998	16356	16393	0	320
28.345	17.634	16357	16398	0	320
22.719	15.507	16357	16401	0	320
17.057	13.235	16359	16404	0	320
11.756	11.792	16360	16407	0	320
8.799	12.297	16361	16412	0	320
7.862	14.172	16362	16417	0	320
9.845	17.238	16364	16420	0	320
10.169	16.120	16365	16421	0	320
6.563	11.720	16366	16422	0	320
1.551	5.229	16368	16425	0	320
-1.046	0.721	16369	16429	0	320
-0.325	0.577	16370	16432	0	320
2.416	2.705	16371	16431	0	320
3.714	4.472	16373	16429	0	320
-0.433	1.262	16374	16429	0	320
-5.734	-2.380	16376	16430	0	320
-8.042	-3.787	16377	16431	0	320
-5.085	-2.019	16378	16430	0	320
0.902	2.380	16380	16429	0	320
2.993	4.832	16381	16428	0	320
0.613	3.895	16382	16429	0	320
-3.714	1.226	16384	16432	0	320
-6.780	0.180	16385	16433	0	320
-6.960	0.469	16386	16432	0	320
-6.167	0.288	16387	16431	0	320
-9.629	-3.101	16389	16428	0	320
-13.956	-8.727	16390	16425	0	320
-18.175	-14.353	16391	16420	0	320
-17.418	-15.543	16392	16415	0	320
-13.523	-14.208	16393	16409	0	320
-9.917	-12.297	16393	16401	0	320
-8.583	-11.540	16393	16391	0	320
-9.160	-11.396	16393	16383	0	320
-8.727	-11.576	16393	16375	0	320
-8.871	-10.314	16393	16367	0	320
-8.114	-8.114	16393	16358	0	320
-9.412	-9.881	16393	16349	0	320
-10.891	-12.297	16393	16343	0	320
-12.009	-16.480	16392	16338	0	320
-12.045	-17.851	16392	16334	0	320
-8.871	-16.552	16392	16329	0	320
-6.419	-12.730	16391	16324	0	320
-3.173	-9.124	16391	16320	0	320
0.036	-6.275	16390	16319	0	320
2.633	-4.868	16390	16319	0	320
4.796	-5.409	16390	16320	0	320
5.013	-3.498	16389	16320	0	320
6.058	-1.659	16389	16321	0	320
6.311	2.308	16388	16322	0	320
8.366	5.409	16388	16326	0	320
11.143	7.212	16388	16331	0	320
12.766	9.052	16388	16335	0	320
12.369	6.780	16387	16337	0	320
10.278	6.419	16387	16340	0	320
6.635	5.590	16387	16344	0	320
6.094	4.832	16387	16350	0	320
6.094	4.904	16387	16355	0	320
7.862	4.436	16387	16359	0	320
11.360	4.904	16387	16361	0	320
13.595	4.255	16387	16362	0	320
14.100	5.409	16386	16362	0	320
15.038	5.770	16386	16363	0	320
14.677	5.986	16386	16366	0	320
13.992	6.311	16386	16369	0	320
13.776	4.688	16386	16373	0	320
12.297	4.436	16385	16375	0	320
12.441	5.013	16385	16372	0	320
11.973	7.609	16384	16364	0	320
12.802	7.717	16383	16355	0	320
11.251	6.527	16382	16347	0	320
8.835	1.731	16381	16342	0	320
4.580	-3.390	16380	16341	0	320
2.236	-5.590	16379	16344	0	320
1.118	-5.662	16379	16349	0	320
1.298	-3.570	16379	16353	0	320
0.288	-4.327	16378	16357	0	320
-1.262	-6.635	16378	16362	0	320
-3.101	-10.566	16378	16369	0	320
-4.111	-12.045	16378	16378	0	320
-5.698	-12.802	16379	16388	0	320
-6.347	-12.189	16379	16398	0	320
-5.301	-12.081	16380	16404	0	320
-2.633	-11.071	16380	16410	0	320
1.983	-10.242	16381	16414	0	320
4.255	-7.104	16381	16417	0	320
4.183	-4.688	16381	16418	0	320
1.587	-1.947	16382	16418	0	320
1.442	0.288	16382	16418	0	320
6.022	2.741	16382	16416	0	320
12.405	5.554	16381	16410	0	320
19.149	9.268	16381	16404	0	320
21.277	11.251	16381	16399	0	320
20.627	13.127	16380	16394	0	320
20.519	14.677	16379	16387	0	320
20.736	14.821	16378	16378	0	320
23.224	14.749	16377	16369	0	320
22.791	12.261	16376	16359	0	320
19.293	8.475	16374	16349	0	320
13.740	4.291	16373	16341	0	320
8.150	1.947	16372	16335	0	320
6.058	1.334	16371	16332	0	320
5.517	1.515	16370	16332	0	320
4.580	2.019	16369	16334	0	320
4.544	0.036	16368	16336	0	320
4.183	-0.865	16368	16338	0	320
6.996	0.902	16367	16342	0	320
13.487	6.708	16366	16346	0	320
18.860	12.766	16366	16352	0	320
22.395	16.805	16366	16359	0	320
18.933	16.264	16366	16365	0	320
14.533	13.018	16366	16370	0	320
13.776	11.179	16366	16375	0	320
16.913	13.740	16366	16380	0	320
23.332	17.923	16365	16384	0	320
27.840	22.178	16365	16384	0	320
25.604	20.916	16364	16384	0	320
20.050	17.093	16363	16379	0	320
13.631	11.071	16362	16374	0	320
10.963	8.222	16362	16370	0	320
9.989	6.383	16361	16368	0	320
8.979	7.393	16360	16368	0	320
5.409	5.878	16360	16369	0	320
0.361	1.875	16359	16369	0	320
-6.058	-2.416	16358	16367	0	320
-7.609	-4.688	16357	16367	0	320
-4.291	-3.859	16357	16369	0	320
0.577	-0.361	16356	16373	0	320
7.717	3.606	16356	16376	0	320
10.386	5.662	16356	16379	0	320
11.360	4.868	16356	16380	0	320
9.016	4.940	16355	16383	0	320
8.258	2.488	16355	16386	0	320
6.455	0.505	16355	16390	0	320
6.455	-0.216	16355	16392	0	320
7.248	0.577	16355	16394	0	320
8.150	2.921	16355	16396	0	320
9.592	3.895	16355	16398	0	320
8.042	3.462	16355	16400	0	320
4.760	-1.515	16355	16400	0	320
-0.505	-7.140	16354	16397	0	320
-4.688	-11.612	16353	16391	0	320
-5.590	-14.605	16353	16384	0	320
-4.724	-13.487	16352	16380	0	320
-1.082	-12.405	16351	16376	0	320
0.829	-9.340	16350	16372	0	320
0.793	-6.563	16350	16370	0	320
-0.469	-7.176	16349	16367	0	320
-1.442	-6.563	16348	16363	0	320
0.252	-7.212	16347	16362	0	320
5.193	-4.832	16346	16361	0	320
12.297	-0.072	16346	16362	0	320
17.310	7.104	16345	16361	0	320
21.349	13.595	16344	16360	0	320
25.171	19.437	16344	16360	0	320
28.525	22.322	16343	16362	0	320
33.177	23.693	16343	16366	0	320
34.980	22.214	16342	16368	0	320
34.331	20.267	16342	16371	0	320
31.122	19.329	16342	16373	0	320
29.931	19.113	16342	16377	0	320
30.581	21.168	16342	16381	0	320
31.410	21.385	16341	16385	0	320
27.263	18.644	16341	16389	0	320
20.555	11.360	16341	16393	0	320
9.737	2.019	16341	16395	0	320
-1.406	-7.212	16341	16394	0	320
-9.160	-14.569	16340	16388	0	320
-13.631	-18.933	16339	16381	0	320
-15.218	-19.726	16338	16373	0	320
-11.684	-16.336	16337	16367	0	320
-3.859	-9.088	16336	16364	0	320
4.400	0.288	16336	16365	0	320
10.891	5.229	16335	16368	0	320
9.340	4.904	16335	16372	0	320
5.013	-1.334	16335	16376	0	320
0.072	-6.131	16335	16380	0	320
0.721	-4.652	16335	16382	0	320
6.419	3.318	16335	16384	0	320
14.425	12.153	16335	16388	0	320
18.067	18.752	16335	16391	0	320
19.978	19.185	16335	16393	0	320
21.204	18.356	16334	16393	0	320
24.558	19.329	16334	16394	0	320
25.676	20.808	16334	16396	0	320
24.666	21.781	16335	16400	0	320
18.680	18.031	16335	16404	0	320
10.963	11.504	16335	16406	0	320
4.616	4.724	16335	16407	0	320
0.685	-0.649	16335	16408	0	320
-2.164	-4.291	16336	16410	0	320
-6.239	-7.789	16336	16409	0	320
-10.602	-13.018	16336	16406	0	320
-12.730	-16.444	16335	16399	0	320
-12.261	-18.356	16335	16392	0	320
-7.501	-14.677	16334	16387	0	320
-0.505	-9.016	16334	16384	0	320
5.554	-3.137	16333	16383	0	320
7.753	0.433	16333	16383	0	320
7.068	0.793	16333	16384	0	320
4.544	-0.216	16333	16384	0	320
4.364	-0.072	16333	16386	0	320
7.898	2.019	16333	16388	0	320
12.874	5.770	16334	16391	0	320
19.798	12.622	16334	16393	0	320
25.712	19.762	16334	16396	0	320
31.122	24.811	16335	16397	0	320
33.393	26.866	16335	16400	0	320
35.160	24.522	16336	16404	0	320
34.151	20.664	16336	16408	0	320
32.816	18.175	16337	16410	0	320
34.367	20.195	16337	16411	0	320
36.206	23.368	16338	16412	0	320
36.206	25.532	16339	16416	0	320
31.771	22.575	16340	16420	0	320
23.116	14.353	16340	16423	0	320
12.910	5.121	16341	16425	0	320
6.491	-3.967	16342	16427	0	320
3.606	-8.006	16343	16429	0	320
6.563	-6.671	16344	16431	0	320
12.009	-2.488	16345	16430	0	320
15.831	2.524	16346	16428	0	320
17.093	4.652	16346	16427	0	320
15.110	5.229	16347	16427	0	320
9.340	1.298	16348	16428	0	320
3.318	-2.560	16349	16428	0	320
1.334	-3.787	16350	16428	0	320
1.947	-1.731	16351	16427	0	320
5.229	1.406	16352	16426	0	320
9.809	7.429	16353	16424	0	320
13.451	10.278	16354	16422	0	320
16.156	12.477	16355	16419	0	320
17.021	11.937	16356	16418	0	320
15.723	12.369	16356	16417	0	320
15.218	12.261	16357	16414	0	320
15.471	12.441	16358	16411	0	320
17.598	13.451	16359	16408	0	320
20.880	12.369	16359	16406	0	320
20.123	10.314	16360	16405	0	320
15.110	4.796	16361	16401	0	320
7.321	-2.056	16361	16397	0	320
0.829	-7.140	16361	16392	0	320
-3.210	-9.845	16362	16387	0	320
-5.049	-11.792	16361	16380	0	320
-4.580	-10.746	16361	16371	0	320
-4.796	-11.792	16361	16365	0	320
-5.626	-12.550	16361	16359	0	320
-5.445	-13.812	16360	16351	0	320
-5.337	-12.802	16359	16343	0	320
-5.049	-13.415	16359	16338	0	320
-6.094	-14.064	16358	16334	0	320
-5.698	-15.038	16358	16332	0	320
-4.039	-13.199	16357	16331	0	320
-2.560	-11.720	16357	16333	0	320
0.216	-9.088	16357	16339	0	320
0.361	-8.402	16358	16346	0	320
-3.390	-11.576	16358	16354	0	320
-7.393	-14.064	16359	16363	0	320
-7.465	-13.559	16360	16371	0	320
-4.904	-10.025	16361	16379	0	320
0.541	-4.940	16361	16384	0	320
4.868	-0.865	16362	16391	0	320
5.121	-0.865	16363	16397	0	320
4.544	-1.767	16364	16401	0	320
2.813	-3.750	16364	16404	0	320
3.606	-4.652	16365	16407	0	320
3.859	-3.787	16366	16411	0	320
4.364	-4.616	16367	16414	0	320
4.688	-4.183	16367	16416	0	320
4.796	-4.544	16368	16415	0	320
5.986	-2.993	16368	16413	0	320
8.366	-2.813	16369	16413	0	320
8.042	-0.865	16370	16414	0	320
7.465	-1.875	16371	16415	0	320
5.301	-4.219	16371	16413	0	320
4.111	-5.481	16371	16410	0	320
4.075	-5.445	16371	16403	0	320
6.311	-3.137	16371	16396	0	320
6.455	-2.164	16371	16389	0	320
5.986	-1.659	16371	16385	0	320
3.462	-2.741	16371	16382	0	320
2.705	-3.246	16371	16380	0	320
2.885	-3.101	16371	16379	0	320
4.364	-0.757	16371	16379	0	320
7.753	1.190	16372	16379	0	320
9.629	2.957	16372	16378	0	320
12.117	5.481	16372	16379	0	320
11.396	7.140	16372	16378	0	320
10.278	6.491	16373	16378	0	320
6.419	4.508	16373	16377	0	320
3.642	0.036	16373	16376	0	320
2.849	-2.128	16373	16376	0	320
3.246	-2.092	16373	16375	0	320
3.859	0.361	16373	16373	0	320
7.501	3.787	16373	16374	0	320
9.448	6.563	16373	16376	0	320
13.235	7.645	16373	16376	0	320
14.461	9.160	16373	16374	0	320
15.831	7.898	16373	16372	0	320
14.930	8.799	16373	16371	0	320
13.415	6.780	16373	16371	0	320
12.622	4.688	16373	16372	0	320
9.340	2.705	16373	16373	0	320
8.402	1.659	16373	16372	0	320
6.671	1.947	16373	16372	0	320
7.248	2.705	16373	16373	0	320
7.068	3.065	16373	16375	0	320
7.717	4.039	16373	16376	0	320
8.799	5.626	16373	16376	0	320
13.054	8.763	16373	16375	0	320
18.608	14.533	16373	16376	0	320
23.549	18.283	16373	16377	0	320
24.342	16.841	16373	16377	0	320
19.113	11.540	16373	16378	0	320
10.783	2.344	16373	16379	0	320
5.950	-4.940	16373	16379	0	320
4.580	-7.104	16373	16380	0	320
8.763	-6.131	16373	16379	0	320
14.245	-2.488	16373	16379	0	320
15.471	-2.524	16372	16378	0	320
11.360	-5.445	16372	16375	0	320
5.157	-9.845	16371	16371	0	320
0.505	-10.855	16371	16366	0	320
1.623	-8.042	16370	16363	0	320
8.114	-1.587	16370	16361	0	320
14.281	5.373	16369	16360	0	320
16.913	7.501	16369	16358	0	320
13.379	6.744	16368	16355	0	320
8.547	4.219	16367	16355	0	320
5.842	5.013	16367	16356	0	320
8.006	9.520	16367	16358	0	320
15.254	14.425	16366	16361	0	320
22.647	18.788	16366	16364	0	320
27.479	20.880	16366	16367	0	320
30.761	21.168	16366	16370	0	320
30.869	20.664	16366	16374	0	320
31.446	21.962	16366	16378	0	320
29.859	20.411	16366	16381	0	320
26.650	17.093	16366	16384	0	320
18.139	10.963	16366	16386	0	320
7.285	2.560	16366	16389	0	320
-2.596	-5.950	16366	16392	0	320
-6.599	-10.061	16366	16394	0	320
-5.337	-11.648	16367	16396	0	320
-1.010	-9.809	16367	16397	0	320
0.325	-9.520	16367	16398	0	320
-0.541	-11.612	16367	16398	0	320
-6.888	-16.192	16367	16398	0	320
-11.251	-21.168	16367	16397	0	320
-13.307	-22.972	16367	16397	0	320
-10.891	-19.654	16367	16395	0	320
-6.635	-16.048	16366	16392	0	320
-0.397	-8.979	16366	16388	0	320
4.544	-4.977	16366	16384	0	320
7.140	-2.056	16365	16382	0	320
9.556	1.947	16365	16378	0	320
13.559	7.140	16364	16376	0	320
18.139	13.595	16364	16374	0	320
23.657	16.985	16364	16373	0	320
27.479	19.546	16363	16374	0	320
30.076	19.113	16363	16375	0	320
31.302	19.618	16363	16375	0	320
30.400	20.339	16363	16376	0	320
28.669	19.149	16363	16378	0	320
23.585	14.930	16363	16380	0	320
15.507	8.006	16363	16382	0	320
8.727	0.505	16363	16383	0	320
4.868	-4.075	16363	16384	0	320
4.544	-4.327	16363	16385	0	320
8.186	-5.085	16363	16387	0	320
8.042	-5.770	16363	16388	0	320
5.265	-10.458	16363	16388	0	320
-2.777	-17.238	16363	16388	0	320
-9.773	-22.431	16363	16388	0	320
-13.271	-22.827	16363	16387	0	320
-9.629	-19.401	16363	16387	0	320
-2.308	-12.694	16363	16386	0	320
4.580	-6.635	16362	16386	0	320
8.006	-3.390	16362	16386	0	320
7.753	-1.731	16362	16386	0	320
7.717	-1.046	16362	16386	0	320
8.691	-0.288	16362	16385	0	320
12.514	1.154	16362	16385	0	320
16.841	3.065	16362	16385	0	320
18.716	3.101	16362	16384	0	320
18.247	4.291	16362	16384	0	320
16.913	2.777	16362	16384	0	320
15.182	1.406	16362	16385	0	320
11.756	-0.397	16362	16385	0	320
8.655	-3.354	16362	16386	0	320
5.193	-5.517	16362	16387	0	320
2.777	-7.934	16362	16388	0	320
2.633	-8.402	16362	16389	0	320
3.859	-7.248	16362	16389	0	320
4.039	-5.986	16362	16390	0	320
3.714	-4.327	16362	16390	0	320
1.659	-2.200	16363	16390	0	320
1.334	-2.849	16363	16390	0	320
4.652	-0.433	16363	16390	0	320
12.009	4.327	16363	16390	0	320
23.296	13.199	16363	16391	0	320
34.908	23.080	16363	16391	0	320
42.409	30.797	16363	16391	0	320
43.851	33.970	16363	16391	0	320
41.652	31.626	16363	16392	0	320
36.675	25.460	16364	16392	0	320
31.699	21.673	16364	16393	0	320
27.876	16.552	16364	16394	0	320
22.575	13.307	16364	16394	0	320
18.428	13.487	16365	16394	0	320
16.625	13.163	16365	16394	0	320
18.320	15.435	16365	16394	0	320
19.077	15.290	16365	16395	0	320
16.697	11.432	16366	16395	0	320
8.186	2.921	16366	16395	0	320
-1.442	-8.114	16366	16396	0	320
-10.530	-16.516	16366	16396	0	320
-12.369	-21.313	16367	16396	0	320
-10.458	-22.395	16367	16396	0	320
-8.583	-23.368	16367	16396	0	320
-10.242	-24.883	16367	16396	0	320
-13.848	-28.092	16368	16395	0	320
-18.139	-30.112	16368	16395	0	320
-17.851	-27.047	16368	16395	0	320
-10.710	-19.906	16369	16395	0	320
1.695	-8.907	16369	16395	0	320
14.461	2.344	16369	16395	0	320
23.693	12.874	16370	16395	0	320
29.643	18.392	16370	16394	0	320
30.076	22.863	16370	16393	0	320
31.230	24.414	16370	16393	0	320
31.879	25.171	16371	16392	0	320
32.528	26.073	16371	16392	0	320
30.689	22.683	16371	16391	0	320
25.496	16.336	16371	16391	0	320
20.014	8.511	16372	16391	0	320
14.641	1.046	16372	16391	0	320
10.963	-2.560	16372	16391	0	320
11.287	-2.849	16372	16390	0	320
11.468	-1.226	16373	16390	0	320
9.773	-1.406	16373	16389	0	320
9.232	-3.462	16373	16388	0	320
7.465	-6.275	16373	16387	0	320
7.248	-7.357	16373	16387	0	320
6.996	-8.439	16374	16386	0	320
6.708	-9.088	16374	16386	0	320
4.075	-11.143	16374	16385	0	320
-0.108	-14.533	16374	16384	0	320
-2.741	-15.687	16375	16384	0	320
-2.452	-14.028	16375	16384	0	320
1.190	-10.350	16375	16384	0	320
6.419	-5.517	16375	16384	0	320
11.323	-1.082	16375	16384	0	320
15.579	2.308	16375	16384	0	320
17.526	4.075	16376	16384	0	320
18.500	7.681	16376	16384	0	320
19.185	8.439	16376	16384	0	320
19.942	10.278	16376	16384	0	320
20.844	12.622	16376	16384	0	320
25.135	15.759	16377	16384	0	320
27.479	18.536	16377	16384	0	320
29.463	19.365	16377	16384	0	320
27.010	17.995	16377	16384	0	320
21.781	13.595	16377	16384	0	320
13.704	8.655	16377	16384	0	320
7.970	2.885	16377	16384	0	320
4.652	0.829	16378	16384	0	320
4.580	-0.108	16378	16384	0	320
6.924	-0.180	16378	16383	0	320
7.068	-2.308	16378	16383	0	320
4.147	-6.996	16378	16383	0	320
0.180	-12.333	16378	16383	0	320
-3.787	-17.093	16378	16382	0	320
-4.147	-16.480	16378	16382	0	320
-0.974	-12.297	16378	16382	0	320
3.714	-8.258	16379	16382	0	320
7.934	-4.183	16379	16382	0	320
12.045	-2.019	16379	16382	0	320
13.992	-1.046	16379	16382	0	320
16.048	0.829	16379	16382	0	320
19.113	5.049	16379	16383	0	320
22.503	10.999	16379	16383	0	320
30.545	19.257	16379	16383	0	320
35.990	26.397	16379	16382	0	320
42.265	30.148	16379	16383	0	320
43.563	29.787	16379	16383	0	320
41.183	25.712	16379	16383	0	320
38.298	20.952	16380	16383	0	320
33.538	16.877	16380	16384	0	320
29.679	15.290	16380	16384	0	320
24.234	13.704	16380	16384	0	320
20.591	12.369	16380	16384	0	320
16.913	12.045	16380	16384	0	320
15.471	10.999	16380	16384	0	320
15.579	11.179	16380	16384	0	320
14.713	12.838	16380	16384	0	320
10.278	11.756	16380	16384	0	320
4.688	8.799	16380	16384	0	320
-2.524	3.823	16380	16384	0	320
-8.547	-1.551	16380	16384	0	320
-11.973	-4.147	16380	16384	0	320
-10.746	-2.993	16380	16384	0	320
-9.881	-0.649	16380	16383	0	320
-7.753	1.082	16380	16383	0	320
-7.753	0.541	16380	16383	0	320
-5.806	-1.154	16380	16383	0	320
-4.472	-1.839	16380	16383	0	320
-0.541	-0.288	16381	16383	0	320
5.914	4.039	16381	16384	0	320
11.504	9.809	16381	16384	0	320
18.247	15.182	16381	16384	0	320
20.772	18.103	16381	16384	0	320
21.132	17.418	16381	16384	0	320
16.589	13.992	16381	16384	0	320
9.484	7.645	16381	16384	0	320
3.750	4.544	16381	16384	0	320
0.216	1.947	16381	16384	0	320
-0.721	2.092	16381	16384	0	320
-0.685	2.056	16381	16383	0	320
-0.433	0.613	16381	16384	0	320
0.505	-1.334	16381	16384	0	320
2.669	-1.406	16381	16384	0	320
4.904	-0.649	16381	16384	0	320
8.366	-0.541	16381	16384	0	320
7.393	-1.875	16381	16385	0	320
5.085	-5.301	16381	16385	0	320
4.724	-6.491	16381	16385	0	320
5.626	-4.796	16381	16385	0	320
8.691	0.361	16382	16385	0	320
12.658	5.193	16382	16385	0	320
14.569	8.583	16382	16385	0	320
13.776	8.691	16382	16385	0	320
15.759	9.196	16382	16385	0	320
19.149	11.504	16382	16386	0	320
23.585	14.966	16382	16386	0	320
27.696	18.283	16382	16385	0	320
26.253	18.031	16382	16386	0	320
22.575	15.362	16382	16386	0	320
17.166	9.665	16382	16386	0	320
13.668	7.429	16382	16386	0	320
14.353	7.321	16382	16386	0	320
16.769	10.314	16382	16386	0	320
17.851	12.477	16382	16386	0	320
18.752	13.415	16382	16386	0	320
17.490	11.973	16383	16386	0	320
14.858	10.278	16383	16386	0	320
13.812	7.862	16383	16386	0	320
15.110	9.016	16383	16386	0	320
16.661	10.566	16383	16386	0	320
19.654	14.136	16383	16386	0	320
22.647	16.048	16383	16386	0	320
23.080	15.723	16383	16387	0	320
26.325	14.894	16383	16387	0	320
27.840	15.471	16383	16386	0	320
29.066	16.841	16383	16386	0	320
26.794	19.473	16383	16386	0	320
23.585	19.690	16384	16386	0	320
21.024	17.418	16384	16386	0	320
21.565	15.218	16384	16386	0	320
26.253	14.713	16384	16385	0	320
28.489	16.697	16384	16385	0	320
28.309	18.536	16384	16384	0	320
24.414	18.752	16384	16384	0	320
21.024	17.562	16384	16384	0	320
17.743	14.930	16384	16384	0	320
17.093	13.704	16384	16384	0	320
17.490	13.992	16384	16384	0	320
16.516	12.441	16384	16383	0	320
13.848	9.953	16384	16383	0	320
11.143	4.796	16384	16383	0	320
7.104	-0.938	16384	16383	0	320
3.065	-4.291	16384	16382	0	320
2.452	-4.327	16384	16381	0	320
2.200	-0.108	16384	16381	0	320
4.544	4.760	16384	16381	0	320
8.150	10.710	16384	16380	0	320
13.379	15.254	16384	16380	0	320
18.644	18.464	16384	16380	0	320
23.296	20.664	16384	16380	0	320
23.260	20.880	16384	16380	0	320
18.788	19.473	16384	16381	0	320
11.071	13.559	16384	16381	0	320
4.688	5.301	16384	16381	0	320
4.400	1.046	16384	16381	0	320
10.133	1.551	16384	16382	0	320
20.087	6.203	16384	16382	0	320
25.099	10.927	16384	16382	0	320
23.909	10.097	16384	16383	0	320
14.353	2.633	16384	16383	0	320
5.301	-4.796	16384	16383	0	320
0.721	-7.825	16384	16383	0	320
4.219	-6.275	16384	16383	0	320
8.979	-5.445	16384	16383	0	320
10.855	-8.583	16384	16383	0	320
8.763	-13.956	16384	16383	0	320
7.212	-17.454	16384	16384	0	320
8.799	-15.038	16384	16384	0	320
12.297	-9.737	16384	16384	0	320
15.435	-5.734	16384	16384	0	320
15.146	-3.318	16384	16384	0	320
16.228	-1.839	16384	16384	0	320
20.988	2.560	16384	16384	0	320
27.515	8.799	16384	16384	0	320
34.223	15.759	16384	16384	0	320
35.341	18.428	16384	16384	0	320
33.141	19.437	16384	16384	0	320
31.735	21.890	16383	16384	0	320
32.564	24.486	16383	16384	0	320
34.980	26.722	16383	16384	0	320
37.468	29.499	16383	16384	0	320
37.396	28.453	16384	16384	0	320
34.223	26.470	16384	16384	0	320
31.807	22.863	16384	16384	0	320
26.145	16.949	16384	16385	0	320
19.113	10.242	16384	16385	0	320
9.052	0.144	16384	16385	0	320
-3.173	-9.340	16384	16385	0	320
-11.973	-17.021	16384	16385	0	320
-13.091	-19.942	16384	16385	0	320
-8.691	-17.274	16384	16385	0	320
-1.010	-11.864	16384	16385	0	320
2.633	-7.645	16384	16386	0	320
0.505	-8.186	16384	16386	0	320
-4.003	-11.071	16384	16387	0	320
-7.681	-13.343	16384	16387	0	320
-5.734	-13.992	16384	16387	0	320
-1.731	-9.484	16384	16387	0	320
2.921	-6.996	16384	16387	0	320
4.688	-5.121	16384	16387	0	320
6.347	-2.921	16384	16386	0	320
7.429	-1.370	16384	16386	0	320
11.576	1.875	16384	16386	0	320
14.749	4.796	16384	16385	0	320
16.877	5.590	16384	16385	0	320
15.795	4.616	16384	16385	0	320
12.874	1.587	16384	16385	0	320
10.097	-1.190	16384	16386	0	320
6.203	-4.472	16384	16386	0	320
0.902	-8.871	16384	16386	0	320
-6.022	-16.264	16384	16386	0	320
-12.153	-22.935	16384	16386	0	320
-15.903	-26.722	16384	16385	0	320
-15.218	-27.768	16384	16385	0	320
-10.133	-24.198	16384	16384	0	320
-6.167	-19.437	16384	16384	0	320
-2.272	-17.382	16384	16384	0	320
0.361	-15.795	16384	16383	0	320
3.029	-13.848	16384	16382	0	320
5.517	-12.117	16384	16382	0	320
8.114	-9.989	16384	16382	0	320
9.845	-6.239	16384	16382	0	320
10.530	-2.452	16384	16381	0	320
12.225	3.173	16384	16381	0	320
17.490	10.819	16384	16381	0	320
24.486	16.264	16384	16381	0	320
30.689	20.844	16384	16381	0	320
32.925	23.440	16384	16381	0	320
29.823	22.214	16384	16382	0	320
20.916	18.067	16384	16382	0	320
12.730	11.720	16384	16383	0	320
7.537	5.734	16384	16383	0	320
6.203	1.587	16384	16383	0	320
10.206	2.200	16384	16383	0	320
15.074	4.147	16384	16383	0	320
18.752	4.364	16384	16383	0	320
17.995	2.633	16384	16383	0	320
13.595	-2.380	16384	16383	0	320
7.753	-6.131	16384	16382	0	320
3.787	-8.150	16384	16382	0	320
2.813	-7.104	16384	16383	0	320
4.544	-5.698	16384	16383	0	320
6.816	-3.859	16384	16383	0	320
8.114	-3.318	16384	16383	0	320
8.006	-2.200	16384	16384	0	320
9.520	-0.252	16384	16384	0	320
11.468	3.354	16384	16384	0	320
15.254	6.455	16384	16384	0	320
17.887	7.465	16384	16384	0	320
20.700	9.268	16384	16384	0	320
22.322	11.396	16384	16384	0	320
25.171	16.372	16384	16384	0	320
30.292	23.621	16384	16384	0	320
34.187	30.040	16384	16384	0	320
37.144	32.961	16384	16384	0	320
38.478	32.095	16384	16384	0	320
37.324	30.040	16384	16384	0	320
35.341	25.171	16384	16384	0	320
33.754	24.089	16384	16384	0	320
32.744	21.637	16384	16385	0	320
28.850	19.473	16384	16385	0	320
25.243	15.398	16384	16385	0	320
20.231	11.071	16384	16385	0	320
15.867	8.439	16384	16386	0	320
14.281	7.393	16384	16386	0	320
18.103	10.602	16384	16386	0	320
22.106	13.812	16384	16386	0	320
25.027	14.641	16384	16386	0	320
22.972	13.523	16384	16386	0	320
19.005	11.468	16384	16386	0	320
14.894	9.160	16384	16386	0	320
12.117	9.052	16384	16386	0	320
10.638	8.294	16384	16386	0	320
9.268	8.943	16384	16386	0	320
8.799	6.996	16384	16385	0	320
9.124	6.022	16384	16384	0	320
10.855	3.498	16384	16384	0	320
11.756	-0.649	16384	16384	0	320
6.816	-6.635	16384	16384	0	320
0.938	-11.612	16384	16383	0	320
-5.986	-13.956	16384	16383	0	320
-7.104	-11.179	16384	16382	0	320
-2.488	-6.203	16384	16382	0	320
4.616	-1.623	16384	16382	0	320
9.484	-0.469	16384	16382	0	320
10.638	-3.534	16384	16383	0	320
5.878	-8.294	16384	16383	0	320
0.108	-13.595	16384	16383	0	320
-3.534	-15.218	16384	16384	0	320
-4.039	-15.543	16384	16384	0	320
-2.128	-14.461	16384	16384	0	320
0.757	-11.720	16384	16384	0	320
2.488	-10.963	16384	16384	0	320
2.488	-8.979	16384	16384	0	320
2.236	-9.520	16384	16384	0	320
0.721	-9.881	16384	16384	0	320
0.902	-10.422	16384	16384	0	320
0.974	-10.710	16384	16384	0	320
0.793	-8.511	16384	16384	0	320
2.200	-5.878	16384	16384	0	320
3.354	-3.895	16384	16384	0	320
3.318	-5.085	16384	16384	0	320
4.075	-5.950	16384	16384	0	320
3.570	-6.744	16384	16384	0	320
4.003	-2.885	16384	16384	0	320
6.744	3.462	16384	16384	0	320
10.278	10.133	16384	16384	0	320
14.749	14.677	16384	16384	0	320
17.779	15.543	16384	16384	0	320
17.202	13.884	16384	16384	0	320
14.677	12.730	16384	16384	0	320
11.612	11.828	16384	16384	0	320
10.314	13.091	16384	16384	0	320
10.891	11.360	16384	16384	0	320
9.412	8.186	16384	16384	0	320
6.311	0.685	16384	16384	0	320
1.551	-5.986	16384	16384	0	320
-1.875	-7.825	16384	16384	0	320
0.649	-5.409	16384	16384	0	320
5.878	0.721	16384	16384	0	320
11.648	2.741	16384	16384	0	320
11.684	1.226	16384	16384	0	320
8.330	-5.986	16384	16384	0	320
4.760	-11.035	16384	16385	0	320
2.452	-12.586	16384	16385	0	320
5.770	-8.222	16384	16386	0	320
9.881	-3.678	16384	16386	0	320
14.497	2.236	16384	16386	0	320
14.208	3.101	16384	16386	0	320
12.081	2.452	16384	16386	0	320
7.898	-1.515	16384	16386	0	320
4.364	-6.491	16384	16386	0	320
3.714	-9.592	16384	16386	0	320
5.157	-11.179	16384	16386	0	320
6.635	-9.592	16384	16385	0	320
5.770	-7.970	16384	16385	0	320
4.832	-6.491	16384	16385	0	320
2.416	-7.068	16384	16385	0	320
0.505	-10.566	16384	16384	0	320
-1.154	-12.622	16384	16384	0	320
-2.705	-16.048	16384	16384	0	320
-3.534	-17.129	16384	16384	0	320
-1.659	-15.795	16384	16384	0	320
2.741	-11.720	16384	16384	0	320
6.888	-7.789	16384	16384	0	320
8.402	-5.085	16384	16384	0	320
7.609	-4.255	16384	16383	0	320
5.517	-6.635	16384	16382	0	320
5.409	-6.347	16384	16382	0	320
9.232	-4.291	16384	16382	0	320
13.163	-1.154	16384	16381	0	320
18.464	3.390	16384	16381	0	320
21.673	7.140	16384	16381	0	320
22.395	7.429	16384	16381	0	320
25.063	9.737	16384	16381	0	320
25.929	11.432	16384	16381	0	320
27.984	13.668	16384	16382	0	320
27.948	14.966	16384	16382	0	320
26.614	13.595	16384	16383	0	320
24.198	9.845	16384	16383	0	320
23.080	7.789	16384	16384	0	320
22.214	7.717	16384	16384	0	320
22.539	11.468	16384	16384	0	320
22.250	13.127	16384	16384	0	320
19.618	11.251	16384	16384	0	320
14.966	5.842	16384	16384	0	320
10.963	-1.767	16384	16384	0	320
7.248	-3.606	16384	16384	0	320
7.934	-2.380	16384	16384	0	320
10.422	2.272	16384	16384	0	320
15.362	8.402	16384	16385	0	320
18.139	11.107	16384	16385	0	320
19.221	13.235	16384	16385	0	320
19.726	15.759	16384	16385	0	320
21.313	17.093	16384	16385	0	320
25.243	22.683	16384	16385	0	320
29.499	26.145	16384	16386	0	320
27.984	26.758	16384	16386	0	320
22.863	25.532	16384	16386	0	320
14.677	22.683	16384	16386	0	320
11.035	23.260	16384	16386	0	320
12.441	27.010	16384	16386	0	320
17.923	30.076	16384	16386	0	320
19.257	28.345	16384	16385	0	320
13.812	19.654	16384	16385	0	320
4.652	7.573	16384	16385	0	320
-5.013	-2.272	16384	16385	0	320
-9.160	-5.409	16384	16384	0	320
-9.376	-4.977	16384	16384	0	320
-6.455	-3.678	16384	16384	0	320
-7.176	-7.140	16384	16384	0	320
-9.520	-12.766	16384	16383	0	320
-14.353	-19.293	16384	16383	0	320
-16.300	-21.024	16384	16383	0	320
-16.120	-19.618	16384	16383	0	320
-13.812	-16.805	16384	16383	0	320
-12.261	-16.084	16384	16383	0	320
-11.792	-15.579	16384	16383	0	320
-11.504	-14.317	16384	16383	0	320
-10.530	-10.927	16384	16383	0	320
-9.196	-7.285	16384	16383	0	320
-6.311	-4.075	16384	16383	0	320
-4.832	-2.200	16384	16383	0	320
-2.092	-0.685	16384	16383	0	320
2.272	1.911	16384	16383	0	320
5.301	5.337	16384	16383	0	320
9.196	7.465	16384	16382	0	320
10.458	9.484	16384	16381	0	320
10.710	9.016	16384	16381	0	320
7.501	7.212	16384	16381	0	320
3.498	3.210	16384	16381	0	320
-1.659	-0.974	16384	16382	0	320
-5.373	-4.616	16384	16382	0	320
-6.239	-6.167	16384	16383	0	320
-7.068	-8.511	16384	16383	0	320
-7.393	-10.783	16384	16384	0	320
-10.674	-14.497	16384	16384	0	320
-11.396	-18.320	16384	16384	0	320
-12.189	-20.231	16384	16384	0	320
-10.350	-19.149	16384	16385	0	320
-5.842	-15.435	16384	16385	0	320
-1.190	-11.287	16384	16385	0	320
1.551	-6.455	16384	16385	0	320
6.203	-3.426	16384	16385	0	320
9.124	-1.406	16384	16386	0	320
12.730	0.397	16384	16386	0	320
13.704	1.947	16384	16386	0	320
13.740	3.606	16384	16386	0	320
12.586	5.445	16384	16387	0	320
11.937	8.222	16384	16387	0	320
11.684	8.871	16384	16387	0	320
11.720	9.484	16384	16387	0	320
11.504	5.193	16384	16387	0	320
7.104	1.442	16384	16387	0	320
0.938	-6.888	16384	16387	0	320
-6.167	-14.064	16384	16386	0	320
-13.704	-20.014	16384	16386	0	320
-17.238	-24.919	16384	16385	0	320
-17.021	-24.811	16384	16384	0	320
-15.074	-21.998	16384	16384	0	320
-10.710	-17.166	16384	16384	0	320
-8.114	-12.189	16384	16384	0	320
-5.337	-10.061	16384	16384	0	320
-1.298	-8.114	16384	16384	0	320
1.659	-7.681	16384	16384	0	320
4.291	-4.724	16384	16384	0	320
9.124	0.757	16384	16384	0	320
13.054	6.960	16384	16384	0	320
17.454	11.107	16384	16384	0	320
19.762	12.874	16384	16384	0	320
18.860	12.009	16384	16384	0	320
15.290	9.196	16384	16384	0	320
11.900	9.701	16384	16384	0	320
11.792	9.701	16384	16384	0	320
12.622	10.855	16384	16384	0	320
15.218	12.369	16384	16383	0	320
16.661	12.009	16384	16383	0	320
15.867	11.973	16384	16383	0	320
12.477	8.871	16384	16383	0	320
4.832	1.659	16384	16382	0	320
-2.019	-6.347	16384	16382	0	320
-10.061	-13.199	16384	16382	0	320
-11.864	-17.166	16384	16382	0	320
-10.314	-15.002	16384	16383	0	320
-6.599	-11.215	16384	16383	0	320
-5.554	-8.186	16384	16383	0	320
-6.960	-9.232	16384	16383	0	320
-11.107	-10.783	16384	16383	0	320
-11.287	-12.117	16384	16383	0	320
-9.124	-10.746	16384	16384	0	320
-2.705	-6.455	16384	16384	0	320
4.255	-2.885	16384	16384	0	320
8.691	0.108	16384	16384	0	320
10.278	0.613	16384	16384	0	320
12.081	1.839	16384	16384	0	320
14.317	4.832	16384	16384	0	320
17.851	11.720	16384	16385	0	320
23.152	17.454	16384	16385	0	320
28.092	23.044	16384	16386	0	320
32.276	27.551	16384	16386	0	320
35.197	29.931	16384	16386	0	320
36.747	32.600	16384	16386	0	320
37.180	34.367	16384	16385	0	320
33.718	33.646	16384	16385	0	320
27.155	28.633	16384	16385	0	320
17.923	20.411	16384	16385	0	320
11.648	13.559	16384	16385	0	320
10.422	11.215	16384	16385	0	320
16.949	14.245	16384	16384	0	320
25.171	19.762	16384	16384	0	320
29.282	20.880	16384	16384	0	320
24.955	16.444	16384	16383	0	320
18.211	9.340	16384	16383	0	320
14.028	5.698	16384	16382	0	320
16.805	9.737	16384	16382	0	320
24.089	15.687	16384	16382	0	320
29.823	20.591	16384	16382	0	320
28.994	18.283	16384	16382	0	320
21.673	10.458	16384	16382	0	320
12.874	2.633	16384	16382	0	320
7.032	-3.823	16384	16382	0	320
3.678	-6.275	16384	16383	0	320
5.734	-7.176	16384	16383	0	320
6.671	-5.481	16384	16384	0	320
6.311	-4.364	16384	16384	0	320
5.301	-6.419	16384	16384	0	320
2.524	-8.006	16384	16384	0	320
2.164	-10.061	16384	16384	0	320
3.029	-9.232	16384	16384	0	320
4.796	-6.924	16384	16384	0	320
7.140	-3.895	16384	16384	0	320
7.429	-4.327	16384	16384	0	320
6.311	-5.445	16384	16384	0	320
6.635	-6.311	16384	16384	0	320
6.347	-4.652	16384	16384	0	320
8.943	-1.118	16384	16384	0	320
12.117	0.757	16384	16384	0	320
14.281	1.767	16384	16384	0	320
15.579	1.983	16384	16384	0	320
14.569	1.695	16384	16384	0	320
11.215	1.046	16384	16385	0	320
9.052	0.829	16384	16386	0	320
6.419	0.793	16384	16386	0	320
6.816	-0.108	16384	16386	0	320
8.114	0.397	16384	16386	0	320
8.439	-0.433	16384	16386	0	320
4.291	-4.075	16384	16385	0	320
-3.101	-9.773	16384	16385	0	320
-9.124	-16.516	16384	16385	0	320
-13.054	-20.555	16384	16385	0	320
-10.061	-20.952	16384	16385	0	320
-6.275	-18.680	16384	16385	0	320
-3.282	-16.300	16384	16385	0	320
-2.813	-14.821	16384	16385	0	320
-3.498	-13.559	16384	16385	0	320
-4.436	-12.766	16384	16385	0	320
-2.524	-9.268	16384	16385	0	320
-1.334	-7.789	16384	16385	0	320
-1.154	-6.239	16384	16385	0	320
-1.947	-8.186	16384	16385	0	320
-2.056	-8.330	16384	16384	0	320
-2.596	-9.484	16384	16384	0	320
-2.056	-7.032	16384	16384	0	320
0.829	-5.734	16384	16384	0	320
2.849	-3.931	16384	16384	0	320
5.698	-3.787	16384	16384	0	320
6.311	-4.075	16384	16384	0	320
4.940	-3.282	16384	16384	0	320
4.075	-2.633	16384	16384	0	320
1.442	-0.685	16384	16384	0	320
1.983	-0.108	16384	16384	0	320
3.354	-0.469	16384	16384	0	320
4.003	-2.308	16384	16384	0	320
3.101	-4.977	16384	16384	0	320
2.669	-6.635	16384	16384	0	320
2.272	-8.330	16384	16383	0	320
1.983	-6.708	16384	16383	0	320
3.750	-5.554	16384	16383	0	320
4.940	-4.147	16384	16383	0	320
6.635	-2.488	16384	16382	0	320
7.285	-1.515	16384	16382	0	320
7.609	0.685	16384	16382	0	320
10.097	1.515	16384	16382	0	320
11.720	2.993	16384	16382	0	320
15.326	3.390	16384	16382	0	320
18.211	3.750	16384	16383	0	320
18.247	5.878	16384	16383	0	320
15.362	7.104	16384	16384	0	320
12.405	7.645	16384	16384	0	320
9.881	8.799	16384	16384	0	320
10.819	7.898	16384	16384	0	320
14.461	9.484	16384	16384	0	320
16.805	10.133	16384	16384	0	320
16.913	10.025	16384	16385	0	320
13.451	7.248	16384	16385	0	320
7.501	4.436	16384	16386	0	320
2.452	-1.515	16384	16386	0	320
-1.298	-6.888	16384	16386	0	320
-2.236	-12.009	16384	16386	0	320
-0.144	-13.235	16384	16385	0	320
5.770	-13.307	16384	16385	0	320
12.550	-10.530	16384	16385	0	320
17.851	-8.835	16384	16384	0	320
17.815	-11.576	16384	16384	0	320
13.343	-18.536	16384	16384	0	320
5.950	-25.965	16384	16384	0	320
2.019	-31.518	16384	16384	0	320
3.029	-32.456	16384	16384	0	320
8.619	-28.201	16384	16384	0	320
14.785	-21.673	16384	16384	0	320
16.516	-20.087	16384	16384	0	320
12.009	-22.322	16384	16384	0	320
4.544	-27.263	16384	16384	0	320
-1.334	-29.427	16384	16384	0	320
0.036	-23.945	16384	16384	0	320
7.825	-14.281	16384	16384	0	320
17.743	-2.669	16384	16383	0	320
25.316	4.580	16384	16383	0	320
28.850	8.258	16384	16383	0	320
30.400	10.999	16384	16383	0	320
32.672	15.651	16384	16383	0	320
34.006	19.582	16384	16383	0	320
34.547	22.827	16384	16383	0	320
33.718	22.178	16384	16383	0	320
31.807	20.483	16384	16383	0	320
28.850	16.444	16384	16383	0	320
24.883	13.163	16384	16383	0	320
17.382	8.727	16384	16383	0	320
10.386	8.078	16384	16384	0	320
7.032	9.989	16384	16384	0	320
11.504	16.516	16384	16384	0	320
18.680	23.116	16384	16384	0	320
22.719	22.358	16384	16384	0	320
17.743	15.723	16384	16384	0	320
5.337	1.587	16384	16384	0	320
-7.104	-9.737	16384	16384	0	320
-13.559	-14.353	16384	16384	0	320
-10.097	-12.081	16384	16384	0	320
-3.642	-5.950	16384	16385	0	320
0.577	-1.479	16384	16385	0	320
-1.118	-3.029	16384	16386	0	320
-6.419	-8.439	16384	16386	0	320
-10.386	-15.759	16384	16387	0	320
-11.864	-19.582	16384	16388	0	320
-11.035	-20.014	16384	16388	0	320
-8.330	-16.372	16384	16389	0	320
-9.376	-12.117	16384	16389	0	320
-8.402	-8.727	16384	16388	0	320
-8.222	-7.248	16384	16388	0	320
-6.924	-8.042	16384	16387	0	320
-7.465	-10.494	16384	16387	0	320
-8.330	-13.884	16384	16386	0	320
-10.891	-14.208	16384	16386	0	320
-12.730	-14.389	16384	16385	0	320
-13.451	-12.225	16384	16385	0	320
-12.730	-8.619	16384	16385	0	320
-7.393	-4.291	16384	16384	0	320
-2.596	-0.036	16384	16384	0	320
1.118	1.442	16384	16384	0	320
1.442	-0.325	16384	16384	0	320
-4.400	-5.590	16384	16383	0	320
-11.504	-13.307	16384	16383	0	320
-17.382	-18.103	16384	16383	0	320
-19.473	-20.627	16384	16383	0	320
-18.392	-19.762	16384	16383	0	320
-15.867	-18.500	16384	16383	0	320
-14.605	-15.651	16384	16383	0	320
-14.821	-13.595	16384	16383	0	320
-13.307	-12.586	16384	16383	0	320
-11.792	-12.982	16384	16383	0	320
-7.068	-11.756	16384	16383	0	320
-1.731	-10.133	16384	16383	0	320
1.911	-6.671	16384	16383	0	320
3.210	-2.813	16384	16383	0	320
3.173	-1.695	16384	16382	0	320
3.642	0.072	16384	16382	0	320
4.039	0.649	16384	16382	0	320
7.140	2.272	16384	16382	0	320
7.465	4.868	16384	16382	0	320
8.294	6.744	16384	16382	0	320
8.078	8.835	16384	16382	0	320
9.340	10.891	16384	16382	0	320
9.953	12.369	16384	16382	0	320
11.612	14.425	16384	16383	0	320
8.835	13.451	16384	16383	0	320
5.770	10.602	16384	16383	0	320
1.803	5.481	16384	16383	0	320
-0.613	1.587	16384	16383	0	320
0.108	-0.397	16384	16384	0	320
2.741	1.623	16384	16384	0	320
4.724	5.481	16384	16384	0	320
7.862	7.176	16384	16384	0	320
8.943	5.193	16384	16384	0	320
11.107	1.587	16384	16384	0	320
11.360	-3.029	16384	16385	0	320
11.396	-6.058	16384	16385	0	320
10.314	-5.265	16384	16386	0	320
8.763	-4.183	16384	16386	0	320
7.970	-3.282	16384	16386	0	320
7.573	-4.400	16384	16385	0	320
7.212	-6.852	16384	16385	0	320
6.996	-10.025	16384	16384	0	320
5.265	-12.405	16384	16384	0	320
1.551	-13.631	16384	16384	0	320
0.397	-11.937	16384	16384	0	320
-2.524	-10.602	16384	16384	0	320
-1.370	-8.439	16384	16384	0	320
2.092	-5.409	16384	16384	0	320
3.787	-4.400	16384	16384	0	320
4.472	-7.393	16384	16384	0	320
2.885	-9.484	16384	16384	0	320
2.813	-10.963	16384	16384	0	320
4.688	-7.789	16384	16384	0	320
8.114	-3.426	16384	16384	0	320
8.943	0.938	16384	16385	0	320
8.258	2.524	16384	16385	0	320
4.724	0.469	16384	16385	0	320
4.003	-1.262	16384	16385	0	320
5.806	-2.308	16384	16385	0	320
10.242	-1.587	16384	16385	0	320
13.054	-0.361	16384	16385	0	320
14.461	1.515	16384	16385	0	320
13.992	3.137	16384	16385	0	320
12.946	5.301	16384	16385	0	320
12.297	4.688	16384	16386	0	320
12.045	3.246	16384	16386	0	320
12.477	2.200	16384	16386	0	320
15.038	1.659	16384	16386	0	320
18.572	3.750	16384	16386	0	320
22.178	8.475	16384	16385	0	320
24.234	11.937	16384	16385	0	320
23.801	13.704	16384	16385	0	320
22.863	12.874	16384	16385	0	320
20.123	9.665	16384	16385	0	320
19.293	8.691	16384	16385	0	320
18.320	8.366	16384	16385	0	320
17.887	10.494	16384	16384	0	320
18.031	13.704	16384	16384	0	320
19.762	15.651	16384	16384	0	320
21.132	18.320	16384	16383	0	320
23.404	17.526	16384	16383	0	320
21.998	13.776	16384	16384	0	320
17.634	6.671	16384	16384	0	320
10.422	-3.426	16384	16384	0	320
2.669	-12.766	16384	16383	0	320
-2.813	-19.582	16384	16383	0	320
-6.852	-22.972	16384	16383	0	320
-7.825	-23.621	16384	16383	0	320
-8.366	-24.630	16384	16383	0	320
-9.737	-24.630	16384	16383	0	320
-8.402	-24.414	16384	16383	0	320
-8.439	-25.496	16384	16384	0	320
-8.799	-25.063	16384	16384	0	320
-9.701	-25.748	16384	16383	0	320
-8.583	-22.683	16384	16383	0	320
-5.662	-17.995	16384	16382	0	320
-2.524	-11.864	16384	16382	0	320
0.974	-7.104	16384	16382	0	320
3.318	-3.354	16384	16382	0	320
6.094	-1.406	16384	16382	0	320
11.684	1.226	16384	16382	0	320
19.473	7.176	16384	16382	0	320
24.522	11.287	16384	16383	0	320
27.155	13.595	16384	16383	0	320
23.260	12.802	16384	16384	0	320
17.526	9.304	16384	16384	0	320
14.245	6.852	16384	16384	0	320
14.569	4.760	16384	16384	0	320
15.795	3.967	16384	16384	0	320
16.769	5.013	16384	16383	0	320
14.677	4.111	16384	16383	0	320
12.946	3.859	16384	16383	0	320
11.179	4.472	16384	16383	0	320
13.776	4.616	16384	16383	0	320
15.182	3.282	16384	16383	0	320
14.028	1.298	16384	16383	0	320
9.701	-2.633	16384	16383	0	320
4.111	-5.734	16384	16383	0	320
1.623	-7.970	16384	16383	0	320
2.416	-6.347	16384	16384	0	320
5.517	-3.390	16384	16384	0	320
10.422	-0.144	16384	16384	0	320
11.360	2.344	16384	16384	0	320
9.052	2.633	16384	16384	0	320
4.039	1.406	16384	16384	0	320
-0.288	0.649	16384	16384	0	320
-1.370	1.406	16384	16384	0	320
1.479	3.859	16384	16384	0	320
7.104	6.744	16384	16384	0	320
10.602	9.016	16384	16384	0	320
9.881	6.635	16384	16384	0	320
3.678	1.298	16384	16384	0	320
-3.642	-6.275	16384	16384	0	320
-7.898	-12.045	16384	16384	0	320
-6.960	-14.317	16384	16384	0	320
-3.101	-10.422	16384	16384	0	320
1.803	-7.321	16384	16384	0	320
2.272	-4.977	16384	16384	0	320
1.334	-7.429	16384	16384	0	320
0.902	-9.592	16384	16385	0	320
1.875	-10.999	16384	16385	0	320
5.554	-9.665	16384	16385	0	320
7.465	-7.609	16384	16385	0	320
7.970	-5.914	16384	16386	0	320
7.140	-5.878	16384	16386	0	320
5.229	-4.255	16384	16386	0	320
6.239	-1.442	16384	16386	0	320
6.563	2.344	16384	16386	0	320
6.419	4.904	16384	16386	0	320
6.744	4.327	16384	16385	0	320
5.373	4.508	16384	16385	0	320
4.580	3.823	16384	16386	0	320
7.465	5.554	16384	16385	0	320
8.907	7.032	16384	16385	0	320
11.360	8.366	16384	16385	0	320
9.556	5.950	16384	16385	0	320
7.465	2.633	16384	16384	0	320
6.167	-0.144	16384	16384	0	320
6.383	-0.902	16384	16384	0	320
11.179	1.406	16384	16384	0	320
16.012	6.311	16384	16384	0	320
19.582	9.701	16384	16384	0	320
22.142	12.730	16384	16384	0	320
23.549	11.937	16384	16384	0	320
24.702	12.225	16384	16383	0	320
27.624	13.668	16384	16383	0	320
29.210	17.743	16384	16383	0	320
31.626	22.575	16384	16382	0	320
31.590	24.811	16384	16382	0	320
29.499	24.558	16384	16382	0	320
24.630	24.450	16384	16382	0	320
22.178	24.414	16384	16382	0	320
21.926	29.210	16384	16382	0	320
25.929	33.718	16384	16382	0	320
31.446	37.396	16384	16382	0	320
35.233	36.819	16384	16383	0	320
35.016	34.295	16384	16383	0	320
30.004	30.256	16384	16383	0	320
25.207	25.604	16384	16384	0	320
18.356	18.680	16384	16384	0	320
11.432	9.809	16384	16384	0	320
5.049	0.505	16384	16384	0	320
-0.974	-6.708	16384	16384	0	320
-3.065	-10.710	16384	16384	0	320
-0.974	-7.753	16384	16384	0	320
3.390	-5.445	16384	16384	0	320
5.986	-2.488	16384	16384	0	320
6.094	-2.488	16384	16385	0	320
3.354	-2.596	16384	16385	0	320
1.695	-1.731	16384	16386	0	320
1.947	1.154	16384	16387	0	320
4.039	4.003	16384	16387	0	320
3.065	4.616	16384	16387	0	320
0.829	2.777	16384	16387	0	320
-3.895	-0.649	16384	16388	0	320
-7.898	-2.885	16384	16388	0	320
-6.671	-2.560	16384	16387	0	320
-4.436	-0.505	16384	16387	0	320
-0.865	2.200	16384	16387	0	320
1.623	4.724	16384	16387	0	320
2.596	5.806	16384	16387	0	320
3.787	7.501	16384	16387	0	320
4.472	6.239	16384	16387	0	320
5.157	4.147	16384	16386	0	320
2.849	1.190	16384	16386	0	320
-2.380	-4.219	16384	16385	0	320
-8.114	-10.025	16384	16384	0	320
-11.504	-12.153	16384	16384	0	320
-11.143	-14.100	16384	16384	0	320
-9.304	-15.110	16384	16383	0	320
-7.429	-16.048	16384	16383	0	320
-8.078	-18.680	16384	16382	0	320
-10.855	-21.998	16384	16382	0	320
-13.884	-23.224	16384	16382	0	320
-13.018	-22.467	16384	16381	0	320
-10.061	-19.654	16384	16381	0	320
-4.868	-15.759	16384	16381	0	320
1.947	-8.475	16384	16381	0	320
7.717	-1.515	16384	16381	0	320
13.235	6.167	16384	16380	0	320
16.048	10.819	16384	16380	0	320
14.821	9.556	16384	16380	0	320
8.691	6.419	16384	16380	0	320
2.741	1.803	16384	16381	0	320
-2.596	-0.577	16384	16382	0	320
-1.659	-0.361	16384	16382	0	320
1.082	1.298	16384	16383	0	320
3.101	1.695	16384	16384	0	320
1.370	0.613	16384	16384	0	320
-1.515	-2.019	16384	16384	0	320
-3.895	-4.255	16384	16384	0	320
-2.993	-5.445	16384	16385	0	320
-1.803	-3.967	16384	16385	0	320
0.108	-4.075	16384	16385	0	320
0.361	-3.534	16384	16386	0	320
-1.010	-5.373	16384	16386	0	320
-3.137	-7.285	16384	16386	0	320
-6.058	-10.927	16384	16386	0	320
-8.475	-13.884	16384	16386	0	320
-10.458	-14.821	16384	16386	0	320
-7.429	-14.425	16384	16386	0	320
-1.767	-10.458	16384	16386	0	320
5.409	-3.823	16384	16385	0	320
11.900	0.361	16384	16385	0	320
14.389	3.642	16384	16384	0	320
14.821	5.662	16384	16384	0	320
13.523	6.239	16384	16384	0	320
14.100	6.816	16384	16384	0	320
16.408	9.809	16384	16384	0	320
21.349	12.766	16384	16384	0	320
28.056	18.428	16384	16384	0	320
34.403	24.234	16384	16384	0	320
40.065	30.112	16384	16384	0	320
42.625	32.528	16384	16384	0	320
42.157	33.898	16384	16383	0	320
40.930	31.771	16384	16383	0	320
38.695	28.381	16384	16383	0	320
37.072	25.929	16384	16383	0	320
36.206	24.306	16384	16384	0	320
36.855	25.424	16384	16384	0	320
38.803	30.400	16384	16384	0	320
42.193	36.891	16384	16384	0	320
43.851	40.822	16384	16384	0	320
42.697	42.409	16384	16384	0	320
39.668	39.849	16384	16384	0	320
35.449	36.170	16384	16384	0	320
31.554	33.393	16384	16384	0	320
28.201	32.023	16384	16384	0	320
22.719	28.201	16384	16384	0	320
16.300	23.945	16384	16384	0	320
10.242	17.743	16384	16384	0	320
6.275	11.756	16384	16384	0	320
3.606	9.196	16384	16384	0	320
2.488	8.439	16384	16384	0	320
3.859	10.638	16384	16384	0	320
5.986	13.559	16384	16384	0	320
11.792	18.428	16384	16384	0	320
17.670	21.313	16384	16384	0	320
22.070	23.873	16384	16384	0	320
22.539	24.306	16384	16384	0	320
20.519	23.549	16384	16385	0	320
19.654	24.702	16384	16385	0	320
20.808	26.073	16384	16385	0	320
24.739	31.085	16384	16385	0	320
28.453	34.079	16384	16384	0	320
31.266	35.665	16384	16384	0	320
30.653	34.187	16384	16384	0	320
30.617	31.554	16384	16384	0	320
28.561	29.535	16384	16384	0	320
27.660	29.354	16384	16384	0	320
23.296	26.433	16384	16384	0	320
19.546	23.801	16384	16384	0	320
14.245	19.437	16384	16384	0	320
11.396	13.343	16384	16384	0	320
9.160	7.573	16384	16384	0	320
7.717	1.190	16384	16384	0	320
5.914	-4.616	16384	16384	0	320
3.065	-7.681	16384	16384	0	320
0.829	-8.691	16384	16384	0	320
-1.154	-7.934	16384	16384	0	320
-3.534	-9.520	16384	16383	0	320
-2.092	-9.520	16384	16383	0	320
1.875	-6.671	16384	16383	0	320
8.943	1.839	16384	16383	0	320
17.959	10.602	16384	16383	0	320
23.549	18.247	16384	16383	0	320
24.378	19.726	16384	16383	0	320
24.847	18.788	16384	16383	0	320
25.027	18.500	16384	16384	0	320
28.958	20.988	16384	16384	0	320
31.879	27.083	16384	16384	0	320
34.728	31.266	16384	16384	0	320
34.656	33.502	16384	16384	0	320
34.511	32.203	16384	16384	0	320
34.547	30.184	16384	16384	0	320
35.160	27.047	16384	16385	0	320
35.665	26.397	16384	16385	0	320
33.754	23.260	16384	16386	0	320
29.102	18.500	16384	16386	0	320
20.339	9.556	16384	16386	0	320
8.979	-1.334	16384	16386	0	320
-1.190	-8.943	16384	16386	0	320
-7.717	-13.776	16384	16386	0	320
-11.504	-15.435	16384	16386	0	320
-10.819	-13.956	16384	16386	0	320
-10.097	-13.235	16384	16386	0	320
-8.691	-11.828	16384	16386	0	320
-4.832	-10.891	16384	16385	0	320
0.036	-7.465	16384	16385	0	320
5.193	-4.255	16384	16384	0	320
10.169	0.685	16384	16384	0	320
15.435	4.796	16384	16384	0	320
20.700	10.710	16384	16384	0	320
25.784	15.615	16384	16384	0	320
30.977	21.277	16384	16384	0	320
35.846	26.686	16384	16384	0	320
37.613	31.626	16384	16383	0	320
38.658	33.285	16384	16383	0	320
40.894	33.357	16384	16383	0	320
42.481	33.213	16384	16383	0	320
43.851	31.122	16384	16382	0	320
44.825	30.184	16384	16382	0	320
40.606	27.335	16384	16381	0	320
34.151	22.214	16384	16382	0	320
26.289	16.408	16384	16382	0	320
18.897	9.629	16384	16382	0	320
14.533	4.291	16384	16382	0	320
11.792	0.685	16384	16382	0	320
8.511	-1.983	16384	16382	0	320
7.537	-3.426	16384	16382	0	320
6.816	-4.508	16384	16382	0	320
8.835	-3.498	16384	16382	0	320
12.189	-3.246	16384	16383	0	320
15.795	-0.541	16384	16383	0	320
17.490	1.695	16384	16383	0	320
17.454	3.750	16384	16384	0	320
18.680	6.635	16384	16384	0	320
20.050	8.114	16384	16384	0	320
21.168	8.547	16384	16384	0	320
20.844	10.025	16384	16384	0	320
19.185	12.117	16384	16384	0	320
18.788	14.894	16384	16384	0	320
22.178	19.293	16384	16384	0	320
25.784	21.385	16384	16384	0	320
27.587	20.447	16384	16384	0	320
24.883	15.651	16384	16384	0	320
17.815	8.006	16384	16384	0	320
11.684	2.488	16384	16385	0	320
9.088	-1.659	16384	16385	0	320
7.429	-3.787	16384	16385	0	320
6.455	-4.724	16384	16384	0	320
2.344	-8.979	16384	16384	0	320
-2.849	-14.100	16384	16384	0	320
-6.960	-20.519	16384	16384	0	320
-10.783	-23.440	16384	16384	0	320
-11.792	-25.929	16384	16384	0	320
-12.550	-25.820	16384	16384	0	320
-13.307	-24.991	16384	16384	0	320
-9.917	-22.214	16384	16384	0	320
-6.058	-17.057	16384	16384	0	320
0.325	-11.648	16384	16383	0	320
7.032	-6.311	16384	16383	0	320
10.494	-3.101	16384	16384	0	320
11.792	-1.947	16384	16384	0	320
11.864	-2.272	16384	16384	0	320
10.891	-2.056	16384	16384	0	320
11.251	-4.219	16384	16384	0	320
12.441	-4.400	16384	16384	0	320
11.251	-3.931	16384	16384	0	320
10.530	0.433	16384	16385	0	320
9.845	5.481	16384	16385	0	320
9.701	9.845	16384	16385	0	320
12.081	12.405	16384	16386	0	320
11.792	10.855	16384	16387	0	320
9.845	9.556	16384	16387	0	320
5.698	9.556	16384	16387	0	320
0.577	9.881	16384	16388	0	320
-2.488	10.422	16384	16388	0	320
-4.832	7.429	16384	16388	0	320
-9.917	1.803	16384	16387	0	320
-13.091	-3.967	16384	16387	0	320
-15.038	-7.609	16384	16387	0	320
-14.100	-6.203	16384	16386	0	320
-10.819	-2.741	16384	16386	0	320
-5.878	0.325	16384	16385	0	320
-3.678	1.479	16384	16384	0	320
-2.272	1.334	16384	16384	0	320
-0.902	0.433	16384	16384	0	320
0.577	0.000	16384	16384	0	320
2.092	0.216	16384	16384	0	320
3.967	1.479	16384	16384	0	320
7.753	3.678	16384	16384	0	320
9.340	6.671	16384	16384	0	320
10.278	9.592	16384	16384	0	320
7.862	8.655	16384	16383	0	320
4.255	5.734	16384	16383	0	320
-1.479	-0.469	16384	16383	0	320
-4.868	-4.364	16384	16384	0	320
-9.665	-7.537	16384	16384	0	320
-10.746	-7.789	16384	16384	0	320
-12.405	-7.032	16384	16383	0	320
-14.100	-8.258	16384	16382	0	320
-14.749	-10.169	16384	16382	0	320
-16.516	-13.704	16384	16381	0	320
-17.634	-16.336	16384	16381	0	320
-16.012	-17.418	16384	16381	0	320
-12.297	-15.146	16384	16381	0	320
-6.635	-10.061	16384	16381	0	320
0.541	-2.416	16384	16381	0	320
8.799	6.275	16384	16382	0	320
15.615	12.297	16384	16382	0	320
18.320	15.723	16384	16383	0	320
18.175	14.605	16384	16383	0	320
15.326	11.720	16384	16384	0	320
13.307	10.891	16384	16384	0	320
14.641	15.182	16384	16384	0	320
19.401	22.395	16384	16385	0	320
23.404	29.787	16384	16384	0	320
25.640	32.889	16384	16384	0	320
21.096	28.020	16384	16384	0	320
13.307	20.050	16384	16384	0	320
3.714	11.035	16384	16384	0	320
-4.724	4.652	16384	16384	0	320
-9.953	-0.361	16384	16384	0	320
-14.785	-5.049	16384	16384	0	320
-17.923	-9.845	16384	16384	0	320
-21.890	-14.028	16384	16384	0	320
-25.676	-17.634	16384	16384	0	320
-29.751	-21.529	16384	16383	0	320
-31.951	-25.712	16384	16383	0	320
-34.043	-28.922	16384	16383	0	320
-32.672	-30.148	16384	16383	0	320
-28.345	-27.047	16384	16383	0	320
-23.404	-22.250	16384	16384	0	320
-17.526	-16.949	16384	16384	0	320
-12.153	-10.999	16384	16384	0	320
-4.111	-4.508	16384	16384	0	320
4.255	4.472	16384	16384	0	320
15.326	13.199	16384	16384	0	320
25.243	21.204	16384	16384	0	320
31.807	25.063	16384	16383	0	320
35.774	26.902	16384	16383	0	320
35.701	25.207	16384	16383	0	320
31.987	24.847	16384	16383	0	320
28.128	24.486	16384	16383	0	320
25.748	26.145	16384	16383	0	320
23.873	26.938	16384	16383	0	320
23.585	27.335	16384	16383	0	320
23.080	24.414	16384	16384	0	320
19.437	19.798	16384	16384	0	320
13.451	13.523	16384	16384	0	320
8.186	5.950	16384	16385	0	320
1.983	0.974	16384	16386	0	320
-1.767	-4.580	16384	16386	0	320
-4.291	-7.537	16384	16387	0	320
-5.157	-9.016	16384	16388	0	320
-5.842	-10.422	16384	16388	0	320
-5.734	-10.855	16384	16388	0	320
-5.734	-12.297	16384	16388	0	320
-5.301	-13.415	16384	16388	0	320
-2.416	-11.504	16384	16388	0	320
2.560	-7.970	16384	16388	0	320
8.330	-0.577	16384	16388	0	320
15.218	6.347	16384	16388	0	320
19.149	10.169	16384	16388	0	320
21.241	11.828	16384	16388	0	320
20.988	10.602	16384	16388	0	320
19.546	11.323	16384	16388	0	320
19.690	14.028	16384	16387	0	320
23.008	18.860	16384	16387	0	320
27.155	23.368	16384	16386	0	320
32.744	26.974	16384	16385	0	320
34.006	26.866	16384	16384	0	320
32.203	25.352	16384	16384	0	320
27.407	20.555	16384	16384	0	320
21.204	14.317	16384	16383	0	320
13.343	5.986	16384	16383	0	320
4.075	-4.327	16384	16382	0	320
-3.642	-13.235	16384	16382	0	320
-7.248	-18.428	16384	16382	0	320
-5.590	-18.320	16384	16382	0	320
-0.144	-13.848	16384	16382	0	320
3.823	-10.891	16384	16381	0	320
2.236	-11.251	16384	16381	0	320
-0.469	-15.110	16384	16382	0	320
-2.488	-17.490	16384	16382	0	320
1.551	-14.208	16384	16382	0	320
7.248	-7.321	16384	16382	0	320
11.540	-1.515	16384	16381	0	320
12.297	-1.551	16384	16381	0	320
9.809	-5.914	16384	16380	0	320
8.042	-8.114	16384	16380	0	320
11.071	-6.419	16384	16381	0	320
14.281	-0.577	16384	16381	0	320
17.238	4.868	16384	16382	0	320
16.625	5.445	16384	16382	0	320
13.595	1.731	16384	16383	0	320
10.999	-1.695	16384	16383	0	320
7.681	-4.147	16384	16383	0	320
4.111	-5.265	16384	16384	0	320
-0.757	-7.825	16384	16384	0	320
-6.599	-12.297	16384	16384	0	320
-11.107	-16.372	16384	16385	0	320
-12.117	-19.365	16384	16385	0	320
-10.999	-20.050	16384	16385	0	320
-9.737	-18.392	16384	16385	0	320
-9.376	-16.841	16384	16385	0	320
-10.746	-16.084	16384	16386	0	320
-10.602	-15.723	16384	16385	0	320
-8.799	-14.245	16384	16385	0	320
-5.517	-13.054	16384	16385	0	320
-0.793	-11.215	16384	16385	0	320
2.813	-8.114	16384	16385	0	320
4.436	-6.924	16384	16384	0	320
4.940	-5.085	16384	16384	0	320
5.301	-4.436	16384	16384	0	320
6.816	-0.469	16384	16384	0	320
9.845	5.337	16384	16384	0	320
16.120	13.271	16384	16384	0	320
21.385	18.211	16384	16383	0	320
26.397	22.611	16384	16383	0	320
29.643	24.089	16384	16383	0	320
33.934	27.227	16384	16383	0	320
37.973	32.420	16384	16383	0	320
41.796	38.118	16384	16382	0	320
45.979	41.507	16384	16382	0	320
46.304	41.580	16384	16382	0	320
45.366	38.298	16384	16382	0	320
41.760	33.321	16384	16382	0	320
38.009	27.263	16384	16382	0	320
30.761	20.988	16384	16383	0	320
24.594	15.398	16384	16383	0	320
18.860	10.422	16384	16382	0	320
15.651	8.835	16384	16382	0	320
16.589	8.330	16384	16382	0	320
18.320	7.970	16384	16382	0	320
17.346	6.491	16384	16383	0	320
12.946	1.479	16384	16383	0	320
1.983	-6.744	16384	16383	0	320
-7.248	-14.497	16384	16384	0	320
-13.091	-19.690	16384	16384	0	320
-13.271	-20.375	16384	16384	0	320
-9.737	-17.346	16384	16384	0	320
-4.544	-11.900	16384	16384	0	320
-0.072	-7.068	16384	16384	0	320
3.570	-2.056	16384	16384	0	320
8.258	0.902	16384	16384	0	320
12.586	3.823	16384	16384	0	320
15.759	4.796	16384	16385	0	320
16.228	3.787	16384	16385	0	320
13.595	1.154	16384	16386	0	320
9.881	-2.056	16384	16386	0	320
5.337	-6.094	16384	16387	0	320
3.390	-8.799	16384	16387	0	320
3.534	-11.396	16384	16387	0	320
3.895	-12.009	16384	16387	0	320
3.931	-13.091	16384	16387	0	320
-0.108	-14.100	16384	16387	0	320
-5.481	-15.759	16384	16387	0	320
-9.556	-16.552	16384	16387	0	320
-12.874	-17.418	16384	16387	0	320
-11.071	-16.877	16384	16387	0	320
-9.268	-15.759	16384	16387	0	320
-7.501	-15.182	16384	16387	0	320
-7.212	-14.966	16384	16386	0	320
-6.491	-14.858	16384	16386	0	320
-5.806	-14.533	16384	16386	0	320
-1.515	-13.199	16384	16385	0	320
3.390	-8.114	16384	16384	0	320
7.789	-4.688	16384	16384	0	320
11.792	0.180	16384	16383	0	320
13.199	3.787	16384	16383	0	320
16.697	5.229	16384	16382	0	320
18.103	8.547	16384	16382	0	320
18.175	8.547	16384	16382	0	320
15.471	7.825	16384	16382	0	320
10.097	5.013	16384	16382	0	320
6.924	1.983	16384	16383	0	320
6.022	-0.108	16384	16383	0	320
6.780	0.036	16384	16383	0	320
7.609	0.072	16384	16383	0	320
4.760	0.505	16384	16384	0	320
3.137	0.938	16384	16384	0	320
4.436	3.967	16384	16384	0	320
10.278	7.537	16384	16384	0	320
17.670	12.730	16384	16384	0	320
25.532	17.202	16384	16384	0	320
27.876	19.005	16384	16384	0	320
27.407	18.933	16384	16384	0	320
24.306	17.670	16384	16384	0	320
21.132	15.723	16384	16384	0	320
20.736	14.100	16384	16384	0	320
19.005	12.550	16384	16384	0	320
16.444	11.287	16384	16384	0	320
10.494	6.491	16384	16385	0	320
0.613	1.623	16384	16385	0	320
-9.520	-5.770	16384	16385	0	320
-15.507	-10.783	16384	16385	0	320
-15.543	-13.631	16384	16385	0	320
-12.045	-12.225	16384	16385	0	320
-7.934	-12.622	16384	16385	0	320
-6.671	-13.884	16384	16384	0	320
-9.917	-17.418	16384	16384	0	320
-11.864	-20.123	16384	16384	0	320
-12.766	-20.303	16384	16384	0	320
-10.999	-16.985	16384	16384	0	320
-6.347	-13.343	16384	16384	0	320
-3.173	-9.737	16384	16383	0	320
-1.010	-8.330	16384	16383	0	320
0.757	-5.986	16384	16382	0	320
1.226	-3.570	16384	16382	0	320
2.416	0.144	16384	16382	0	320
4.904	4.327	16384	16382	0	320
7.970	6.708	16384	16382	0	320
9.737	8.799	16384	16382	0	320
10.169	8.583	16384	16382	0	320
8.979	8.547	16384	16383	0	320
7.609	9.160	16384	16383	0	320
7.898	10.638	16384	16383	0	320
10.278	11.684	16384	16383	0	320
9.629	12.153	16384	16384	0	320
5.698	7.140	16384	16384	0	320
-2.416	-1.298	16384	16384	0	320
-10.999	-11.432	16384	16384	0	320
-14.461	-18.031	16384	16384	0	320
-12.225	-18.680	16384	16385	0	320
-6.383	-15.182	16384	16385	0	320
-4.219	-12.514	16384	16385	0	320
-9.917	-14.172	16384	16386	0	320
-16.228	-17.454	16384	16386	0	320
-20.447	-18.536	16384	16386	0	320
-17.490	-12.658	16384	16386	0	320
-6.311	-3.173	16384	16386	0	320
4.075	7.104	16384	16386	0	320
13.163	12.009	16384	16386	0	320
15.831	13.812	16384	16386	0	320
16.336	11.792	16384	16385	0	320
15.471	11.432	16384	16385	0	320
14.569	11.792	16384	16385	0	320
13.668	13.487	16384	16384	0	320
14.281	15.723	16384	16384	0	320
15.398	15.543	16384	16384	0	320
12.550	12.622	16384	16384	0	320
7.573	6.563	16384	16384	0	320
-1.046	-0.721	16384	16383	0	320
-12.333	-6.419	16384	16383	0	320
-18.247	-7.898	16384	16383	0	320
-21.385	-7.898	16384	16383	0	320
-20.267	-6.275	16384	16383	0	320
-19.906	-7.140	16384	16382	0	320
-23.404	-9.737	16384	16382	0	320
-28.958	-12.081	16384	16383	0	320
-36.855	-13.307	16384	16383	0	320
-40.498	-12.730	16384	16383	0	320
-42.914	-9.448	16384	16383	0	320
-41.399	-6.888	16384	16383	0	320
-38.695	-3.750	16384	16383	0	320
-36.351	-2.056	16384	16383	0	320
-34.259	0.613	16384	16383	0	320
-30.508	3.787	16384	16384	0	320
-29.571	8.222	16384	16384	0	320
-29.174	10.494	16384	16384	0	320
-31.158	11.468	16384	16384	0	320
-33.826	11.396	16384	16384	0	320
-34.583	12.045	16384	16384	0	320
-32.889	13.920	16384	16385	0	320
-28.958	18.392	16384	16385	0	320
-27.010	21.096	16384	16385	0	320
-26.722	21.493	16384	16386	0	320
-31.446	19.185	16384	16386	0	320
-37.036	13.595	16384	16386	0	320
-47.349	4.977	16384	16386	0	320
-55.175	-4.291	16384	16385	0	320
-63.758	-10.638	16384	16385	0	320
-68.301	-15.182	16384	16385	0	320
-71.150	-15.218	16384	16385	0	320
-72.809	-14.425	16384	16385	0	320
-75.658	-12.369	16384	16384	0	320
-77.461	-12.982	16384	16384	0	320
-78.976	-13.379	16384	16384	0	320
-80.202	-14.389	16384	16384	0	320
-79.084	-15.110	16384	16384	0	320
-78.723	-14.028	16384	16384	0	320
-77.137	-12.117	16384	16383	0	320
-73.963	-8.907	16384	16382	0	320
-70.213	-5.301	16384	16382	0	320
-67.508	-3.678	16384	16382	0	320
-65.597	-2.669	16384	16382	0	320
-65.489	-2.272	16384	16382	0	320
-63.938	-2.019	16384	16382	0	320
-58.817	1.479	16384	16382	0	320
-52.687	6.563	16384	16383	0	320
-47.782	12.009	16384	16384	0	320
-46.376	13.091	16384	16384	0	320
-49.657	11.432	16384	16384	0	320
-54.670	9.160	16384	16384	0	320
-58.384	6.167	16384	16384	0	320
-61.269	3.823	16384	16384	0	320
-65.957	1.695	16384	16384	0	320
-72.593	-3.931	16384	16384	0	320
-78.615	-11.287	16384	16384	0	320
-83.015	-15.759	16384	16383	0	320
-86.332	-20.014	16384	16383	0	320
-86.585	-21.854	16384	16383	0	320
-87.595	-22.755	16384	16382	0	320
-87.486	-22.431	16384	16382	0	320
-85.467	-19.978	16384	16382	0	320
-81.680	-15.867	16384	16382	0	320
-77.569	-11.215	16384	16383	0	320
-74.288	-7.068	16384	16383	0	320
-72.737	-4.400	16384	16383	0	320
-70.177	-1.479	16384	16384	0	320
-67.364	1.947	16384	16384	0	320
-64.263	7.753	16384	16384	0	320
-59.863	12.225	16384	16384	0	320
-55.680	15.110	16384	16385	0	320
-55.283	16.048	16384	16385	0	320
-55.067	15.002	16384	16385	0	320
-56.798	13.343	16384	16385	0	320
-59.502	12.045	16384	16385	0	320
-61.774	10.314	16384	16385	0	320
-67.075	7.862	16384	16385	0	320
-75.117	2.741	16384	16385	0	320
-84.638	-2.849	16384	16385	0	320
-92.896	-7.645	16384	16385	0	320
-96.754	-12.658	16384	16384	0	320
-96.935	-13.776	16384	16384	0	320
-93.761	-14.245	16384	16384	0	320
-91.634	-13.956	16384	16384	0	320
-90.335	-14.533	16384	16384	0	320
-90.263	-18.536	16384	16384	0	320
-85.900	-21.998	16384	16384	0	320
-74.540	-25.171	16384	16384	0	320
-53.949	-23.476	16384	16384	0	320
-30.581	-19.437	16384	16384	0	320
-9.809	-12.694	16384	16384	0	320
-0.180	-7.104	16384	16385	0	320
-0.180	-3.895	16384	16385	0	320
-5.914	-1.442	16384	16385	0	320
-9.088	0.721	16384	16385	0	320
-10.242	2.885	16384	16385	0	320
-8.042	5.770	16384	16385	0	320
-5.121	10.133	16384	16385	0	320
-1.731	14.930	16384	16385	0	320
3.390	20.195	16384	16385	0	320
11.648	22.827	16384	16385	0	320
22.286	23.729	16384	16386	0	320
31.338	20.014	16384	16386	0	320
34.872	14.497	16384	16386	0	320
32.708	8.727	16384	16385	0	320
24.522	1.767	16384	16385	0	320
11.828	-5.445	16384	16385	0	320
0.793	-10.855	16384	16385	0	320
-8.619	-14.245	16384	16385	0	320
-15.723	-14.100	16384	16385	0	320
-22.791	-9.376	16384	16385	0	320
-30.436	-5.986	16384	16385	0	320
-39.199	-5.193	16384	16385	0	320
-45.258	-8.799	16384	16385	0	320
-47.169	-11.828	16384	16385	0	320
-43.094	-12.550	16384	16385	0	320
-37.865	-8.691	16384	16385	0	320
-30.797	-0.829	16384	16385	0	320
-23.116	5.950	16384	16384	0	320
-15.939	11.323	16384	16384	0	320
-8.114	14.425	16384	16384	0	320
0.180	18.969	16384	16384	0	320
6.563	24.053	16384	16383	0	320
12.982	29.643	16384	16382	0	320
17.310	31.626	16384	16382	0	320
23.152	30.436	16384	16382	0	320
23.657	25.712	16384	16382	0	320
19.762	21.493	16384	16382	0	320
10.314	19.185	16384	16382	0	320
-3.029	17.743	16384	16381	0	320
-16.192	14.172	16384	16381	0	320
-23.260	6.058	16384	16381	0	320
-25.604	-4.147	16384	16381	0	320
-24.125	-13.307	16384	16382	0	320
-24.739	-20.087	16384	16382	0	320
-26.542	-22.106	16384	16381	0	320
-31.518	-20.844	16384	16381	0	320
-39.668	-18.969	16384	16381	0	320
-47.349	-18.788	16384	16382	0	320
-55.788	-18.969	16384	16382	0	320
-59.899	-20.591	16384	16383	0	320
-55.355	-19.618	16384	16383	0	320
-45.943	-18.139	16384	16384	0	320
-32.816	-15.290	16384	16384	0	320
-21.926	-13.740	16384	16384	0	320
-14.317	-11.323	16384	16384	0	320
-10.746	-10.566	16384	16384	0	320
-8.691	-8.835	16384	16384	0	320
-10.999	-7.285	16384	16384	0	320
-14.749	-7.970	16384	16384	0	320
-18.608	-9.088	16384	16384	0	320
-16.805	-11.071	16384	16384	0	320
-10.386	-11.251	16384	16384	0	320
-1.839	-12.369	16384	16384	0	320
2.813	-14.208	16384	16384	0	320
1.515	-14.317	16384	16384	0	320
-3.606	-16.012	16384	16384	0	320
-8.763	-15.543	16384	16384	0	320
-9.340	-13.415	16384	16385	0	320
-9.737	-12.261	16384	16385	0	320
-12.045	-10.710	16384	16386	0	320
-18.824	-13.379	16384	16387	0	320
-25.532	-15.903	16384	16387	0	320
-29.499	-18.969	16384	16387	0	320
-27.587	-19.762	16384	16387	0	320
-23.729	-18.247	16384	16387	0	320
-19.906	-14.281	16384	16387	0	320
-15.687	-9.917	16384	16387	0	320
-7.898	-4.327	16384	16387	0	320
4.544	1.875	16384	16387	0	320
19.257	9.665	16384	16387	0	320
30.977	18.031	16384	16386	0	320
38.045	28.814	16384	16386	0	320
39.199	35.701	16384	16386	0	320
33.826	40.065	16384	16385	0	320
23.476	39.416	16384	16384	0	320
7.825	31.626	16384	16384	0	320
-3.750	22.791	16384	16384	0	320
-9.953	15.362	16384	16383	0	320
-6.131	11.468	16384	16383	0	320
0.721	7.789	16384	16383	0	320
2.813	4.364	16384	16383	0	320
-3.534	-2.200	16384	16382	0	320
-14.641	-8.727	16384	16382	0	320
-25.676	-13.631	16384	16382	0	320
-31.482	-14.569	16384	16382	0	320
-31.771	-15.507	16384	16382	0	320
-29.066	-13.812	16384	16381	0	320
-22.972	-13.199	16384	16381	0	320
-16.192	-11.071	16384	16381	0	320
-8.799	-8.979	16384	16382	0	320
-4.977	-6.022	16384	16382	0	320
-4.904	-3.101	16384	16382	0	320
-6.599	0.649	16384	16382	0	320
-6.960	6.888	16384	16382	0	320
-3.029	12.622	16384	16383	0	320
0.252	17.634	16384	16383	0	320
3.173	19.618	16384	16383	0	320
6.744	19.149	16384	16383	0	320
12.225	17.779	16384	16383	0	320
18.392	17.490	16384	16383	0	320
19.365	19.798	16384	16383	0	320
12.153	21.962	16384	16384	0	320
-4.472	20.519	16384	16384	0	320
-19.798	15.831	16384	16384	0	320
-30.148	5.626	16384	16384	0	320
-34.872	-1.515	16384	16384	0	320
-37.757	-8.799	16384	16384	0	320
-47.349	-11.720	16384	16384	0	320
-62.243	-12.910	16384	16384	0	320
-77.605	-15.290	16384	16384	0	320
-87.703	-16.408	16384	16385	0	320
-87.703	-18.211	16384	16385	0	320
-80.815	-18.428	16384	16386	0	320
-71.836	-17.202	16384	16386	0	320
-65.597	-14.677	16384	16386	0	320
-62.459	-12.081	16384	16386	0	320
-57.158	-10.819	16384	16386	0	320
-49.297	-8.655	16384	16386	0	320
-35.990	-6.708	16384	16386	0	320
-22.791	-2.019	16384	16385	0	320
-12.261	3.498	16384	16385	0	320
-6.599	7.212	16384	16384	0	320
-2.633	7.934	16384	16384	0	320
2.560	7.825	16384	16384	0	320
8.402	7.176	16384	16384	0	320
16.120	8.150	16384	16384	0	320
19.582	8.655	16384	16384	0	320
20.736	9.088	16384	16384	0	320
18.283	6.780	16384	16383	0	320
14.966	3.065	16384	16383	0	320
11.323	1.226	16384	16383	0	320
5.842	-2.092	16384	16384	0	320
-1.803	-4.760	16384	16384	0	320
-10.206	-9.196	16384	16384	0	320
-17.202	-12.658	16384	16384	0	320
-20.808	-17.021	16384	16384	0	320
-21.457	-18.644	16384	16384	0	320
-18.428	-19.041	16384	16384	0	320
-17.887	-18.356	16384	16384	0	320
-19.870	-19.510	16384	16384	0	320
-22.070	-19.473	16384	16384	0	320
-20.411	-19.221	16384	16384	0	320
-12.910	-17.382	16384	16384	0	320
-1.479	-15.110	16384	16384	0	320
9.232	-12.405	16384	16384	0	320
16.300	-10.999	16384	16384	0	320
18.175	-8.979	16384	16384	0	320
20.411	-4.219	16384	16385	0	320
23.873	2.596	16384	16385	0	320
27.263	9.556	16384	16386	0	320
28.453	16.228	16384	16386	0	320
27.624	18.860	16384	16386	0	320
27.732	21.024	16384	16386	0	320
30.040	22.070	16384	16386	0	320
31.879	21.529	16384	16386	0	320
31.013	19.005	16384	16386	0	320
25.135	12.658	16384	16386	0	320
17.418	5.121	16384	16385	0	320
13.343	0.108	16384	16385	0	320
14.966	-1.731	16384	16384	0	320
19.293	-1.190	16384	16384	0	320
19.005	-0.757	16384	16384	0	320
13.848	-2.452	16384	16384	0	320
8.150	-4.219	16384	16384	0	320
5.445	-6.167	16384	16384	0	320
7.681	-4.508	16384	16384	0	320
12.658	-2.164	16384	16383	0	320
15.759	0.649	16384	16383	0	320
12.405	4.868	16384	16382	0	320
7.321	8.727	16384	16381	0	320
-0.108	13.127	16384	16381	0	320
-5.445	16.877	16384	16380	0	320
-6.780	18.788	16384	16380	0	320
-3.750	20.087	16384	16380	0	320
-0.397	19.221	16384	16380	0	320
1.623	15.939	16384	16381	0	320
-3.859	12.730	16384	16382	0	320
-18.283	6.671	16384	16382	0	320
-37.829	2.957	16384	16383	0	320
-55.283	-1.695	16384	16383	0	320
-64.154	-5.409	16384	16383	0	320
