neuroNicle FX2
D3F25R12
Bluetooth SPP
2023년 11월 10일 금요일
오전 10:27
time interval = 4msec
EEG1	EEG2	PPG	sdPPG	pulse	peak_interval(msec)
-30.184	23.909	15976	16545	0	748
-25.929	29.895	16044	17190	0	748
-33.105	26.830	16044	17996	0	748
-49.405	14.245	16214	18561	0	748
-62.820	2.308	16214	18884	0	748
-66.030	-3.354	16316	19206	0	748
-56.653	1.839	16316	19367	0	748
-39.416	13.812	16316	19367	0	748
-24.522	28.814	16316	19367	0	748
-17.887	38.947	16384	19367	0	748
-20.772	39.632	16384	19448	0	748
-28.850	35.124	16384	19448	0	748
-39.091	24.811	16384	19125	0	748
-44.861	15.651	16384	18642	0	748
-46.376	9.953	16384	18077	0	748
-45.835	9.737	16384	17513	0	748
-42.986	12.694	16384	16948	1	432
-39.921	14.497	16384	16384	0	432
-36.928	19.293	16316	15901	0	432
-34.583	22.322	16316	15497	0	432
-30.833	27.732	16316	15417	0	432
-27.191	29.246	16316	15578	0	432
-23.981	33.357	16316	15820	0	432
-21.926	33.646	16384	15981	0	432
-21.060	35.701	16384	16062	0	432
-21.096	37.072	16384	16143	0	432
-20.014	38.478	16384	16384	0	432
-21.421	35.990	16452	16867	0	432
-26.614	32.384	16452	17109	0	432
-33.754	24.991	16452	17029	0	432
-39.380	18.428	16452	17109	0	432
-42.193	16.913	16554	17513	0	432
-39.957	16.661	16554	17916	0	432
-36.278	17.418	16554	17996	0	432
-37.072	16.625	16622	17754	0	432
-43.094	10.638	16622	17432	0	432
-48.864	3.642	16622	17029	0	432
-52.038	3.426	16554	16706	0	432
-45.943	11.432	16554	16464	0	432
-34.944	22.358	16554	16384	0	432
-24.775	31.266	16554	16304	0	432
-23.224	31.879	16554	16223	0	432
-27.587	26.397	16554	16062	0	432
-32.744	19.834	16554	15901	0	432
-34.547	20.808	16554	15820	0	432
-33.970	22.322	16554	15739	0	432
-33.826	25.388	16554	15739	0	432
-37.973	23.585	16554	15739	0	432
-42.589	19.942	16554	15739	0	432
-45.763	12.297	16554	15901	0	432
-47.926	7.609	16622	16143	0	432
-46.700	6.888	16622	16384	0	432
-48.612	7.393	16622	16706	0	432
-46.484	10.927	16622	16625	0	432
-44.681	16.228	16622	16384	0	432
-42.481	17.562	16622	16062	0	432
-47.962	10.458	16622	15739	0	432
-57.663	1.226	16622	15417	0	432
-69.888	-10.783	16554	15014	0	432
-75.622	-15.831	16554	14610	0	432
-71.223	-11.540	16554	14368	0	432
-60.115	-2.885	16452	14288	0	432
-50.415	6.960	16384	14207	0	432
-47.349	12.622	16384	14046	0	432
-51.749	9.881	16384	13884	0	432
-62.351	3.426	16316	13723	0	432
-74.180	-7.357	16316	13643	0	432
-82.907	-17.959	16316	13723	0	432
-84.565	-21.421	16316	13965	0	432
-80.382	-18.933	16316	14126	0	432
-69.600	-10.783	16316	14207	0	432
-61.918	0.072	16316	14449	0	432
-59.286	4.364	16316	14691	0	432
-64.010	3.173	16316	15014	0	432
-74.648	-4.436	16214	15255	0	432
-83.592	-15.687	16214	15578	0	432
-91.057	-21.421	16316	16143	0	432
-89.542	-22.467	16316	16948	0	432
-82.510	-16.589	16384	17916	0	432
-71.331	-8.186	16452	18803	0	432
-66.318	-4.327	16452	19448	0	432
-67.364	-6.780	16554	20013	0	432
-76.343	-12.117	16554	20335	0	432
-86.008	-17.634	16622	20416	0	432
-93.040	-21.241	16622	20496	0	432
-95.817	-24.991	16724	20658	0	432
-97.331	-26.902	16724	20658	0	432
-97.620	-31.302	16724	20577	0	432
-97.981	-31.410	16724	20335	0	432
-95.673	-30.364	16792	19932	0	432
-93.076	-26.037	16792	19529	0	432
-88.965	-24.739	16792	19045	0	432
-88.208	-24.017	16792	18400	0	432
-85.972	-24.919	16792	17593	0	432
-87.054	-23.296	16724	16787	0	432
-81.933	-16.949	16724	16143	1	316
-76.920	-10.638	16622	15497	0	316
-71.619	-4.183	16724	14933	0	316
-68.518	-3.137	16622	14610	0	316
-70.970	-5.481	16554	14288	0	316
-74.648	-10.458	16554	13965	0	316
-78.074	-14.966	16554	13804	0	316
-75.261	-12.261	16452	13884	0	316
-71.799	-9.196	16452	14046	0	316
-67.256	-2.524	16554	14288	0	316
-64.803	1.226	16554	14933	0	316
-67.472	0.000	16554	15497	0	316
-72.773	-6.239	16554	15659	0	316
-78.146	-12.477	16554	15659	0	316
-83.664	-18.356	16554	15497	0	316
-82.690	-15.939	16554	15336	0	316
-74.793	-7.898	16554	15014	0	316
-63.253	2.885	16452	14772	0	316
-55.247	10.927	16452	14449	0	316
-52.723	13.740	16384	14126	0	316
-60.512	7.645	16384	13884	0	316
-68.518	1.587	16316	13562	0	316
-69.852	1.298	16316	13401	0	316
-58.745	6.203	16316	13401	0	316
-42.770	19.365	16214	13481	0	316
-27.768	31.735	16214	13643	0	316
-20.267	41.039	16214	13723	0	316
-15.867	44.356	16146	13804	0	316
-17.021	46.087	16146	13965	0	316
-18.175	42.770	16044	14126	0	316
-19.546	38.334	16044	14449	0	316
-22.611	36.747	16044	15014	0	316
-25.352	35.052	16146	15739	0	316
-26.181	36.098	16214	16384	0	316
-26.578	39.019	16214	16948	0	316
-27.948	36.423	16316	17835	0	316
-30.184	31.915	16384	18803	0	316
-33.069	25.063	16384	19367	0	316
-34.836	19.870	16384	19448	0	316
-38.875	16.516	16384	19448	0	316
-43.058	13.595	16384	19529	0	316
-47.854	9.448	16384	19529	0	316
-53.191	6.347	16452	19287	0	316
-56.040	1.983	16452	19045	0	316
-55.968	1.334	16452	18722	0	316
-50.884	6.599	16452	18319	0	316
-42.553	13.523	16384	17754	0	316
-35.629	20.303	16384	17109	0	316
-33.970	23.765	16384	16625	0	316
-38.118	21.637	16316	16304	0	316
-42.481	15.182	16316	15820	0	316
-43.419	16.012	16316	15497	0	316
-38.478	18.283	16316	15417	0	316
-33.321	23.945	16214	15497	0	316
-32.564	25.712	16214	15739	0	316
-35.449	23.585	16316	16062	0	316
-38.118	22.142	16316	16384	0	316
-35.990	22.647	16316	17029	0	316
-30.328	26.614	16384	17754	0	316
-25.207	29.102	16452	18480	0	316
-25.965	27.479	16554	19367	0	316
-30.869	21.168	16622	20174	0	316
-36.206	18.428	16622	20738	0	316
-38.442	19.329	16792	21061	0	316
-37.937	20.880	16792	21384	0	316
-36.819	23.729	16792	21706	0	316
-35.774	24.089	16894	21706	0	316
-36.062	21.745	16962	21384	0	316
-39.091	21.096	16962	20900	0	316
-38.442	19.005	16962	20335	0	316
-40.858	19.906	17064	19609	0	316
-41.724	17.238	17064	18803	0	316
-43.383	18.175	17064	17996	0	316
-45.366	17.202	16962	17109	0	316
-48.612	16.949	16962	16384	0	316
-55.283	12.766	16894	15739	0	316
-58.348	9.701	16894	14933	0	316
-61.486	6.635	16894	14046	0	316
-61.955	6.058	16792	13239	0	316
-58.889	7.212	16724	12514	1	316
-57.050	7.357	16724	11868	0	316
-54.201	9.520	16554	11384	0	316
-53.011	7.717	16622	11143	0	316
-53.985	8.258	16554	10901	0	316
-52.326	7.321	16452	10578	0	316
-52.795	6.780	16384	10578	0	316
-53.480	4.796	16384	10981	0	316
-55.824	4.327	16384	11626	0	316
-56.690	3.498	16384	12272	0	316
-60.296	4.544	16384	12997	0	316
-59.358	5.337	16384	13723	0	316
-58.529	4.904	16384	14207	0	316
-58.565	4.219	16384	14530	0	316
-57.411	3.282	16384	14772	0	316
-55.175	3.787	16316	14852	0	316
-53.805	7.537	16384	14772	0	316
-48.756	11.973	16384	14610	0	316
-48.972	16.012	16316	14368	0	316
-52.110	14.172	16316	14207	0	316
-57.303	8.871	16214	14288	0	316
-64.263	0.361	16214	14530	0	316
-66.138	-2.344	16316	14691	0	316
-62.315	-1.659	16146	14852	0	316
-55.788	5.301	16146	14852	0	316
-51.533	9.989	16146	14933	0	316
-54.165	7.176	16044	14933	0	316
-60.765	-1.767	16044	15014	0	316
-69.455	-8.511	16044	15255	0	316
-73.062	-9.520	15976	15578	0	316
-71.511	-7.357	15976	16062	0	316
-67.977	-3.462	15976	16545	0	316
-63.577	-2.344	16044	17109	0	316
-63.938	-5.986	16044	17674	0	316
-70.249	-12.117	16044	18238	0	316
-81.608	-20.375	16146	18884	0	316
-95.312	-28.345	16214	19448	0	316
-104.183	-36.242	16214	19771	0	316
-106.239	-38.154	16316	19851	0	316
-102.380	-36.964	16316	19851	0	316
-96.394	-32.276	16316	19771	0	316
-93.725	-29.751	16316	19609	0	316
-94.302	-30.256	16316	19367	0	316
-98.449	-32.312	16316	19125	0	316
-98.702	-34.692	16316	18884	0	316
-98.558	-34.006	16316	18722	0	316
-96.827	-33.646	16384	18642	0	316
-92.319	-29.571	16384	18722	0	316
-90.227	-28.561	16384	18803	0	316
-90.984	-28.020	16384	18722	0	316
-89.650	-28.814	16452	18561	0	316
-89.686	-28.705	16452	18319	0	316
-88.568	-28.164	16452	17916	0	316
-90.912	-29.715	16384	17432	0	316
-92.571	-31.915	16384	16867	0	316
-93.473	-33.177	16384	16384	0	316
-93.545	-32.925	16384	16223	0	316
-88.604	-29.823	16384	16223	0	316
-84.457	-25.856	16384	16223	0	316
-79.445	-22.395	16384	16384	0	316
-76.596	-18.500	16452	16625	0	316
-75.730	-18.716	16452	16948	0	316
-75.478	-16.228	16452	16948	0	316
-78.399	-19.185	16452	16787	0	316
-80.779	-22.106	16452	16545	0	316
-81.428	-24.739	16452	16223	0	316
-76.704	-22.611	16384	15659	0	316
-68.915	-16.336	16384	15014	0	316
-62.676	-10.278	16384	14449	0	316
-62.532	-6.311	16316	14126	0	316
-66.210	-7.970	16316	13884	0	316
-73.530	-9.989	16214	13723	0	316
-74.684	-11.396	16214	13723	0	316
-73.530	-10.025	16214	13804	0	316
-68.229	-7.537	16214	13804	0	316
-68.951	-9.376	16146	13884	0	316
-69.996	-13.343	16146	14046	0	316
-70.537	-14.136	16146	14207	0	316
-67.724	-12.261	16146	14530	0	316
-63.505	-9.845	16146	14933	0	316
-60.728	-7.285	16146	15175	0	316
-61.522	-4.904	16146	15417	0	316
-61.125	-4.616	16146	15739	0	316
-58.925	-1.479	16146	16223	0	316
-56.726	1.010	16146	16625	0	316
-55.103	5.770	16214	17190	0	316
-53.083	5.265	16214	17754	0	316
-55.319	5.950	16214	18158	0	316
-54.345	4.147	16316	18480	0	316
-53.805	4.508	16316	18803	0	316
-51.064	4.940	16384	19367	0	316
-47.494	10.566	16384	19690	0	316
-39.235	18.752	16384	19609	0	316
-32.131	23.549	16384	19206	0	316
-27.443	25.207	16384	18722	0	316
-26.974	25.207	16384	18077	0	316
-27.732	24.558	16384	17432	0	316
-24.775	26.037	16316	16625	0	316
-21.132	29.679	16316	15901	0	316
-17.779	34.006	16214	15255	0	316
-17.310	34.223	16316	14691	0	316
-23.909	32.925	16214	14207	0	316
-26.109	31.013	16214	13884	0	316
-29.138	29.246	16214	13643	0	316
-26.902	29.354	16146	13643	0	316
-26.073	31.158	16146	13804	0	316
-23.476	33.177	16146	13965	0	316
-24.630	33.393	16044	14126	0	316
-24.594	33.934	16044	14207	0	316
-22.286	33.321	16044	14610	0	316
-22.322	31.951	16044	15336	0	316
-24.378	29.895	16146	16304	0	316
-26.073	29.030	16146	16948	0	316
-29.102	26.974	16146	17271	0	316
-31.158	26.433	16214	17432	0	316
-30.581	24.450	16214	17754	0	316
-30.869	22.142	16214	18077	0	316
-32.564	20.159	16214	18319	0	316
-33.574	22.322	16316	18480	0	316
-33.069	24.919	16316	18561	0	316
-32.239	26.758	16316	18400	0	316
-30.869	26.866	16316	18077	0	316
-31.590	23.332	16316	17593	0	316
-36.098	17.526	16214	17109	0	316
-37.252	17.382	16214	16706	0	316
-38.514	17.129	16316	16464	0	316
-36.206	22.647	16316	16223	0	316
-34.006	24.991	16316	15981	0	316
-32.167	26.650	16214	15820	0	316
-31.951	25.063	16214	15739	0	316
-33.682	23.368	16214	15659	0	316
-35.593	21.421	16214	15578	0	316
-40.714	21.132	16214	15497	0	316
-44.356	17.706	16214	15578	0	316
-46.268	16.589	16214	15820	0	316
-46.809	15.759	16214	16223	0	316
-44.969	18.752	16214	16545	0	316
-44.428	19.510	16214	16787	0	316
-46.123	19.293	16316	17109	0	316
-47.566	19.618	16316	17593	0	316
-45.078	18.860	16384	18077	0	316
-43.166	21.601	16384	18319	0	316
-43.202	22.034	16384	18480	0	316
-44.392	20.159	16452	18803	0	316
-46.881	16.228	16452	19125	0	316
-50.090	15.579	16554	19125	0	316
-48.828	13.956	16554	18803	0	316
-48.648	15.290	16554	18158	0	316
-51.929	11.973	16452	17432	0	316
-50.811	9.376	16452	16706	0	316
-47.241	13.163	16452	16143	0	316
-38.839	19.185	16384	15578	0	316
-32.925	27.587	16384	15094	0	316
-34.980	27.191	16384	14691	0	316
-42.986	19.654	16316	14449	0	316
-48.179	12.586	16316	14288	0	316
-48.864	9.448	16316	14046	0	316
-41.039	16.336	16214	13723	0	316
-29.679	26.506	16214	13481	0	316
-25.532	30.545	16146	13320	0	316
-26.361	30.581	16146	13401	0	316
-26.758	27.083	16146	13723	0	316
-27.443	25.856	16146	14126	0	316
-26.866	27.804	16146	14691	0	316
-27.155	27.696	16214	15578	0	316
-30.725	23.080	16214	16464	0	316
-37.288	17.562	16214	16948	0	316
-40.426	12.333	16214	17109	0	316
-41.111	11.720	16316	17351	0	316
-38.442	13.740	16316	17674	0	316
-37.577	17.562	16316	17835	0	316
-37.829	15.975	16316	17996	0	316
-41.652	15.939	16384	18158	0	316
-44.969	12.369	16384	18319	0	316
-46.917	9.809	16384	18319	0	316
-47.061	12.045	16384	18158	0	316
-40.317	16.156	16384	18077	0	316
-36.098	18.608	16384	17916	0	316
-34.223	21.385	16384	17674	0	316
-37.072	15.939	16384	17351	0	316
-41.760	13.487	16384	17029	0	316
-43.851	11.071	16384	16787	0	316
-43.310	15.002	16384	16625	0	316
-42.770	14.966	16384	16464	0	316
-43.310	11.179	16384	16464	0	316
-47.530	8.294	16384	16545	0	316
-49.874	5.986	16452	16625	0	316
-49.008	8.799	16452	16545	0	316
-50.739	10.242	16452	16706	0	316
-52.110	7.609	16452	17109	0	316
-55.283	1.190	16554	17432	0	316
-58.384	-5.878	16554	17432	0	316
-60.620	-9.809	16554	17351	0	316
-61.414	-8.042	16554	17432	0	316
-63.253	-4.003	16622	17674	0	316
-64.551	-1.118	16622	17754	0	316
-65.741	-0.180	16622	17835	0	316
-67.941	-3.210	16724	17674	0	316
-73.386	-12.297	16724	17432	0	316
-81.248	-20.700	16724	16948	0	316
-85.755	-26.542	16622	16384	0	316
-85.864	-27.155	16622	15739	0	316
-84.529	-25.856	16622	15175	0	316
-80.851	-20.988	16554	14691	0	316
-81.825	-22.935	16554	14207	0	316
-84.818	-25.604	16452	13481	0	316
-84.133	-25.171	16384	12755	0	316
-83.736	-25.171	16316	12191	0	316
-81.320	-23.657	16316	11868	0	316
-82.798	-21.781	16214	11868	0	316
-88.172	-24.594	16214	12030	0	316
-91.670	-29.535	16214	12272	0	316
-94.050	-32.528	16146	12433	0	316
-92.247	-30.581	16146	12675	0	316
-87.595	-26.758	16146	13159	0	316
-86.296	-23.765	16146	13884	0	316
-85.467	-24.053	16146	14449	0	316
-88.713	-25.352	16146	15014	0	316
-88.532	-28.489	16146	15820	0	316
-90.840	-29.427	16146	16545	0	316
-87.883	-26.001	16214	17190	0	316
-90.516	-25.568	16214	17513	0	316
-91.670	-25.171	16214	17754	0	316
-96.286	-29.066	16214	17835	0	316
-99.243	-30.076	16214	17754	0	316
-95.564	-29.679	16146	17513	0	316
-89.145	-24.630	16146	17190	0	316
-78.687	-15.939	16146	16867	0	316
-73.747	-12.117	16044	16545	1	912
-73.170	-13.054	16146	16304	0	912
-76.848	-15.903	16146	15901	0	912
-80.238	-20.339	16146	15659	0	912
-76.560	-17.346	16044	15497	0	912
-73.494	-13.379	15976	15336	0	912
-69.347	-11.612	15976	15255	0	912
-70.105	-13.127	15976	15094	0	912
-73.567	-18.897	15874	15014	0	912
-77.209	-20.988	15874	14933	0	912
-77.281	-19.510	15806	15014	0	912
-76.704	-16.192	15806	15336	0	912
-74.216	-13.704	15806	15820	0	912
-74.540	-13.776	15976	16464	0	912
-74.684	-16.841	15976	17351	0	912
-73.603	-17.093	16044	18561	0	912
-73.206	-15.759	16146	19690	0	912
-70.934	-12.477	16214	20496	0	912
-69.528	-13.523	16214	21061	0	912
-71.186	-14.858	16316	21464	0	912
-68.915	-13.956	16384	21706	0	912
-68.698	-11.179	16384	21706	0	912
-65.777	-3.390	16452	21545	0	912
-64.046	0.577	16452	21384	0	912
-63.686	3.498	16554	21222	0	912
-61.774	1.983	16554	20738	0	912
-57.627	1.479	16554	20174	0	912
-53.444	4.075	16554	19609	0	912
-51.929	7.609	16554	19045	0	912
-50.379	7.212	16554	18642	0	912
-49.838	10.602	16622	18158	0	912
-43.815	13.271	16622	17754	0	912
-31.410	19.546	16622	17351	0	912
-21.421	27.912	16622	16948	0	912
-17.093	32.492	16622	16545	0	912
-21.132	28.561	16554	16223	0	912
-30.905	22.611	16554	16143	0	912
-37.757	17.706	16554	16304	0	912
-38.190	18.500	16622	16384	0	912
-34.944	21.385	16622	16384	0	912
-32.456	24.053	16622	16625	0	912
-33.934	22.755	16724	16867	0	912
-35.629	18.933	16724	16867	0	912
-33.429	22.034	16792	16787	0	912
-28.741	28.201	16792	16706	0	912
-23.765	33.393	16792	16545	0	912
-22.503	32.780	16792	16384	0	912
-26.289	29.030	16724	16223	0	912
-25.748	27.840	16792	16062	0	912
-20.159	31.230	16792	15739	0	912
-15.398	38.226	16724	15336	0	912
-11.323	41.039	16724	14933	0	912
-15.615	38.082	16724	14772	0	912
-23.152	32.312	16724	14610	0	912
-26.974	28.489	16724	14530	0	912
-27.083	29.318	16724	14449	0	912
-23.837	32.636	16724	14449	0	912
-22.358	36.170	16724	14368	0	912
-20.195	38.154	16622	14126	0	912
-22.431	36.675	16622	13723	0	912
-29.210	31.158	16622	13320	0	912
-33.213	24.486	16554	12917	0	912
-38.875	18.752	16452	12433	0	912
-35.629	20.159	16384	11949	0	912
-30.400	26.506	16384	11626	0	912
-22.647	34.331	16316	11626	0	912
-22.467	37.505	16316	12110	0	912
-26.650	35.377	16316	12675	0	912
-31.338	30.797	16316	13159	0	912
-31.843	29.859	16316	13643	0	912
-28.237	33.141	16316	14207	0	912
-22.683	37.000	16316	14691	0	912
-19.582	39.596	16316	15014	0	912
-34.764	17.418	16214	15014	0	640
-33.538	17.454	16316	15094	0	640
-34.511	17.418	16214	15175	0	640
-36.855	12.766	16214	15336	0	640
-38.442	6.599	16214	15336	0	640
-37.432	5.554	16214	15417	0	640
-34.259	7.934	16214	15578	0	640
-32.456	10.819	16214	15820	0	640
-32.600	13.091	16214	16223	0	640
-34.295	14.894	16214	16625	0	640
-35.305	12.405	16316	17351	0	640
-34.728	9.412	16384	18238	0	640
-32.997	6.275	16384	18964	0	640
-31.807	9.917	16452	19287	0	640
-29.174	11.828	16452	19367	0	640
-28.669	12.658	16554	19609	0	640
-26.397	14.677	16622	20093	0	640
-23.224	15.723	16622	20335	0	640
-19.221	22.503	16622	20254	0	640
-14.281	27.768	16724	19690	0	640
-13.740	31.554	16622	18964	0	640
-19.185	27.119	16724	18238	0	640
-24.594	21.241	16622	17593	1	624
-30.581	14.281	16554	16948	0	624
-33.682	12.658	16554	16384	0	624
-36.459	11.684	16554	15901	0	624
-38.226	8.763	16554	15497	0	624
-42.012	4.616	16452	15094	0	624
-44.645	1.983	16452	14691	0	624
-44.176	0.793	16452	14368	0	624
-42.589	0.361	16452	14126	0	624
-42.734	1.262	16384	13965	0	624
-41.543	3.823	16384	13804	0	624
-39.668	5.049	16384	13965	0	624
-37.973	6.888	16384	14207	0	624
-37.180	9.052	16384	14610	0	624
-38.803	9.052	16452	15175	0	624
-40.353	9.556	16452	15739	0	624
-40.714	9.232	16452	16143	0	624
-39.849	9.809	16452	16223	0	624
-38.118	11.251	16452	16223	0	624
-36.567	11.937	16452	16304	0	624
-39.055	8.763	16452	16384	0	624
-43.238	5.409	16452	16384	0	624
-49.838	-1.875	16452	16384	0	624
-51.677	-7.357	16452	16384	0	624
-50.667	-4.688	16452	16143	0	624
-43.022	3.534	16452	15739	0	624
-35.485	9.701	16452	15336	0	624
-34.259	12.550	16384	14933	0	624
-41.363	6.527	16384	14691	0	624
-51.316	-2.705	16316	14530	0	624
-61.161	-9.520	16316	14610	0	624
-63.000	-7.934	16316	14610	0	624
-59.358	-4.327	16316	14610	0	624
-49.657	4.219	16316	14772	0	624
-43.202	8.655	16214	14933	0	624
-43.455	8.006	16214	15094	0	624
-52.470	-1.623	16214	15255	0	624
-66.246	-12.982	16214	15578	0	624
-77.930	-24.162	16214	15820	0	624
-79.228	-27.263	16214	16223	0	624
-70.393	-20.664	16316	16625	0	624
-58.024	-10.855	16316	17109	0	624
-48.251	-1.587	16316	17432	0	624
-49.297	-0.108	16384	17835	0	624
-54.814	-5.301	16384	18158	0	624
-66.246	-15.254	16384	18158	0	624
-73.567	-21.709	16384	17996	0	624
-73.350	-23.765	16384	17593	0	624
-71.150	-23.224	16384	17190	0	624
-69.492	-18.788	16316	16787	0	624
-71.836	-21.024	16316	16464	0	624
-75.550	-25.856	16316	16304	0	624
-76.019	-25.243	16214	15901	0	624
-74.035	-23.368	16214	15497	0	624
-69.924	-22.070	16316	15175	0	624
-71.583	-21.781	16214	14933	0	624
-77.858	-28.056	16214	14610	0	624
-83.015	-32.528	16214	14449	0	624
-83.267	-31.771	16146	14449	0	624
-76.776	-24.847	16146	14691	0	624
-70.213	-17.093	16146	14852	0	624
-66.715	-14.785	16146	15014	0	624
-68.590	-15.398	16044	15255	0	624
-72.917	-21.962	16044	15659	0	624
-75.334	-22.395	16146	16223	0	624
-74.468	-22.863	16146	17029	0	624
-70.285	-18.031	16214	17916	0	624
-67.905	-15.687	16214	18642	0	624
-68.229	-15.651	16316	19287	0	624
-72.629	-20.952	16384	19851	0	624
-75.802	-24.198	16384	20254	0	624
-77.028	-23.873	16452	20496	0	624
-71.691	-20.627	16554	20577	0	624
-66.751	-13.740	16554	20658	0	624
-64.695	-12.045	16554	20416	0	624
-65.128	-14.858	16554	19932	0	624
-67.292	-17.851	16554	19367	0	624
-68.013	-18.860	16554	18642	0	624
-63.974	-17.166	16554	17835	0	624
-60.728	-14.605	16554	17029	1	316
-58.204	-10.530	16452	16223	0	316
-58.132	-12.117	16452	15497	0	316
-58.240	-12.189	16384	14852	0	316
-59.683	-11.323	16384	14368	0	316
-55.499	-9.304	16384	14046	0	316
-56.149	-6.744	16316	13804	0	316
-52.326	-3.282	16316	13562	0	316
-52.146	-1.334	16316	13481	0	316
-50.811	-0.757	16214	13562	0	316
-50.559	1.082	16214	13884	0	316
-47.674	2.524	16316	14368	0	316
-47.277	4.904	16316	15094	0	316
-44.320	6.852	16316	15901	0	316
-41.291	8.475	16384	16787	0	316
-38.550	10.061	16384	17432	0	316
-32.239	15.398	16452	17674	0	316
-23.512	22.899	16452	17674	0	316
-15.867	33.069	16452	17674	0	316
-8.006	38.875	16452	17593	0	316
-5.662	39.704	16452	17593	0	316
-7.212	36.675	16452	17432	0	316
-5.662	34.187	16452	17271	0	316
-2.777	36.062	16452	17109	0	316
2.524	42.373	16554	17029	0	316
3.606	45.041	16554	17029	0	316
-1.334	43.202	16554	17029	0	316
-9.629	38.695	16554	17029	0	316
-12.766	35.557	16554	16787	0	316
-10.638	35.233	16554	16464	0	316
-6.167	36.711	16554	16304	0	316
-2.993	37.468	16384	15901	0	316
-2.236	36.314	16452	15417	0	316
-6.022	35.305	16384	14852	0	316
-7.429	35.160	16384	14207	0	316
-11.107	36.278	16316	13723	0	316
-11.143	37.360	16384	13401	0	316
-12.117	39.091	16316	13481	0	316
-13.163	38.334	16214	13723	0	316
-18.608	32.780	16316	14288	0	316
-25.388	24.811	16316	14933	0	316
-31.013	19.401	16316	15417	0	316
-31.807	17.526	16316	15739	0	316
-24.702	21.421	16316	16062	0	316
-16.949	28.994	16316	16304	0	316
-14.136	31.085	16316	16384	0	316
-15.651	30.581	16316	16384	0	316
-19.257	28.417	16316	16143	0	316
-21.132	28.850	16214	15901	0	316
-19.077	30.004	16214	15739	0	316
-16.120	34.295	16214	15659	0	316
-14.172	36.783	16214	15659	0	316
-14.785	35.160	16146	15417	0	316
-20.267	30.472	16146	15255	0	316
-23.152	25.388	16146	15175	0	316
-25.135	21.745	16044	15255	0	316
-26.794	22.503	16044	15336	0	316
-27.371	23.008	16044	15497	0	316
-28.417	23.332	16044	15739	0	316
-27.083	24.089	16044	15981	0	316
-25.207	23.080	16146	16143	0	316
-20.339	23.404	16044	16143	0	316
-15.975	26.794	16044	16143	0	316
-16.300	28.525	16044	16143	0	316
-15.038	28.417	16044	16304	0	316
-16.805	28.381	16044	16464	0	316
-15.218	28.128	16044	16787	0	316
-13.054	28.886	16146	17432	0	316
-11.864	30.256	16146	18158	0	316
-11.179	30.004	16214	18803	0	316
-17.129	27.984	16214	19045	0	316
-20.591	23.116	16214	19045	0	316
-25.099	18.788	16214	18884	0	316
-26.686	14.497	16214	18722	0	316
-24.811	14.353	16214	18238	0	316
-23.765	16.048	16214	17754	0	316
-19.906	20.087	16146	17109	0	316
-17.562	25.099	16146	16625	0	316
-19.510	26.217	16146	16384	0	316
-21.060	22.683	16044	16062	0	316
-26.253	17.202	16146	15739	0	316
-28.201	14.821	16214	15578	0	316
-26.938	15.290	16146	15417	0	316
-23.837	18.608	16044	15255	0	316
-23.296	21.529	16044	15255	0	316
-24.089	22.575	16044	15175	0	316
-23.801	20.447	16044	15175	0	316
-24.739	21.277	16044	15255	0	316
-22.755	22.719	15976	15417	0	316
-25.460	21.493	16044	15820	0	316
-29.823	19.762	16044	16384	0	316
-34.187	12.586	16044	16948	0	316
-38.118	7.789	16146	17351	0	316
-40.642	5.013	16146	17835	0	316
-41.724	5.337	16146	18238	0	316
-41.327	5.157	16316	18400	0	316
-42.661	5.986	16316	18319	0	316
-43.527	4.400	16316	18400	0	316
-44.320	1.875	16384	18803	0	316
-43.202	1.803	16452	19529	0	316
-39.091	6.311	16452	20174	0	316
-34.728	11.215	16554	20577	0	316
-29.354	14.172	16554	20738	0	316
-29.535	17.779	16554	20819	0	316
-31.518	15.651	16622	20819	0	316
-33.213	11.179	16724	20738	0	316
-31.735	13.704	16724	20496	0	316
-26.974	17.490	16792	20093	0	316
-22.395	23.296	16792	19609	0	316
-21.385	23.945	16792	18964	1	436
-26.001	21.457	16792	18238	0	436
-32.636	16.012	16792	17432	0	436
-39.740	8.439	16792	16625	0	436
-42.084	6.311	16724	15981	0	436
-41.760	4.075	16622	15417	0	436
-40.101	4.580	16724	15014	0	436
-40.570	2.885	16724	14691	0	436
-44.537	1.587	16622	14530	0	436
-46.772	-0.793	16622	14691	0	436
-50.992	-1.839	16622	14772	0	436
-48.900	-0.613	16622	14691	0	436
-48.035	3.787	16724	14610	0	436
-44.212	7.212	16724	14772	0	436
-44.573	5.481	16724	15014	0	436
-50.379	0.180	16724	15255	0	436
-59.863	-9.592	16724	15417	0	436
-70.177	-18.572	16724	15336	0	436
-76.451	-25.388	16724	15175	0	436
-76.704	-27.191	16724	14852	0	436
-69.708	-20.880	16724	14449	0	436
-62.279	-16.733	16724	14046	0	436
-60.837	-9.917	16622	13804	0	436
-63.036	-14.425	16554	13723	0	436
-71.078	-22.142	16554	13562	0	436
-79.300	-31.807	16452	13481	0	436
-84.313	-36.423	16452	13401	0	436
-84.782	-33.826	16452	13401	0	436
-82.618	-31.735	16452	13481	0	436
-82.113	-27.407	16384	13643	0	436
-81.140	-26.614	16384	13723	0	436
-78.687	-27.804	16384	13884	0	436
-77.966	-26.614	16384	14126	0	436
-76.668	-25.784	16384	14530	0	436
-76.524	-25.460	16384	15255	0	436
-77.389	-25.929	16452	16143	0	436
-80.995	-27.263	16452	16867	0	436
-78.543	-28.020	16452	17271	0	436
-75.694	-27.010	16452	17593	0	436
-71.475	-24.558	16554	18077	0	436
-68.842	-20.483	16554	18480	0	436
-68.842	-19.257	16554	18561	0	436
-72.196	-22.755	16554	18238	0	436
-76.920	-27.299	16554	17754	0	436
-78.002	-28.092	16554	17432	0	436
-77.065	-29.354	16554	17109	0	436
-72.160	-25.712	16554	16787	0	436
-69.455	-22.467	16554	16545	0	436
-70.032	-21.132	16452	16384	0	436
-72.088	-23.657	16452	16223	0	436
-71.655	-22.503	16452	16062	0	436
-71.150	-20.627	16452	15820	0	436
-67.652	-19.654	16452	15578	0	436
-63.217	-17.166	16384	15336	0	436
-63.541	-18.572	16384	15094	0	436
-65.344	-19.113	16384	14852	0	436
-65.164	-21.204	16316	14852	0	436
-66.318	-19.221	16316	15014	0	436
-65.489	-16.769	16316	15255	0	436
-59.466	-10.097	16316	15578	0	436
-55.247	-5.986	16316	15981	0	436
-52.831	-3.895	16384	16384	0	436
-53.552	-4.616	16384	16787	0	436
-58.673	-10.638	16452	17513	0	436
-63.181	-14.100	16452	18319	0	436
-65.056	-17.202	16554	18884	0	436
-65.020	-13.018	16554	19125	0	436
-60.368	-9.665	16554	19206	0	436
-57.339	-7.465	16622	19125	0	436
-55.067	-4.940	16622	18803	0	436
-55.211	-7.645	16622	18319	0	436
-54.454	-9.232	16554	17835	0	436
-57.194	-12.045	16554	17432	0	436
-56.149	-12.117	16554	16948	0	436
-55.427	-11.432	16554	16384	0	436
-52.939	-10.314	16452	15981	0	436
-52.182	-7.537	16384	15659	0	436
-52.182	-6.419	16384	15336	0	436
-52.903	-6.671	16384	15094	0	436
-52.759	-8.294	16384	15014	0	436
-53.047	-8.835	16384	14933	0	436
-49.441	-5.914	16316	14852	0	436
-47.566	-3.065	16316	14691	0	436
-44.969	1.839	16384	14449	0	436
-42.012	6.239	16316	14449	0	436
-39.127	9.665	16316	14449	0	436
-35.701	9.160	16316	14530	0	436
-35.557	10.746	16316	14772	0	436
-38.370	10.458	16316	15417	0	436
-38.514	10.314	16316	15981	0	436
-35.305	14.028	16316	16223	0	436
-25.748	21.709	16384	16223	0	436
-15.759	31.085	16316	16223	0	436
-7.285	36.783	16316	16223	0	436
-3.678	41.075	16316	16062	0	436
-3.967	39.957	16316	15901	0	436
-2.272	38.009	16214	15739	0	436
-1.911	36.964	16214	15417	0	436
-1.406	38.082	16146	14933	0	436
-2.777	37.649	16146	14610	0	436
-5.770	39.019	16044	14288	0	436
-6.563	39.560	16044	14207	0	436
-5.842	41.327	15976	14288	0	436
-3.714	42.661	15976	14368	0	436
-0.938	45.510	15976	14610	0	436
-2.921	42.950	15976	14852	0	436
-7.825	38.082	15976	15255	0	436
-11.720	31.915	15976	15578	0	436
-15.254	27.299	16044	15981	0	436
-13.307	28.633	16044	16384	0	436
-11.864	31.699	16044	16867	0	436
-10.494	35.629	16044	17271	0	436
-9.412	36.675	16044	17754	0	436
-9.160	36.098	16146	18319	0	436
-7.104	37.144	16146	18884	0	436
-4.616	40.137	16146	19287	0	436
-5.013	40.462	16214	19448	0	436
-7.248	38.911	16214	19609	0	436
-11.792	35.846	16214	19771	0	436
-17.490	30.617	16316	19771	0	436
-19.401	28.633	16316	19448	0	436
-21.060	27.696	16316	18884	0	436
-18.680	29.174	16214	18319	0	436
-14.858	32.420	16214	17835	0	436
-11.828	37.036	16214	17513	0	436
-11.143	38.045	16214	17271	0	436
-11.937	35.341	16214	17109	0	436
-16.552	30.581	16214	16948	0	436
-22.142	25.207	16214	16867	0	436
-25.568	22.575	16214	16706	0	436
-25.460	25.604	16316	16464	0	436
-23.440	26.361	16316	16143	0	436
-21.781	27.010	16214	15901	0	436
-19.870	26.686	16214	15739	0	436
-21.637	24.486	16316	15739	0	436
-22.286	22.611	16214	15901	0	436
-21.493	22.899	16214	15981	0	436
-21.890	25.171	16214	15981	0	436
-20.952	25.207	16214	15981	0	436
-22.683	23.801	16214	16062	0	436
-24.739	23.657	16214	16223	0	436
-26.433	19.546	16316	16384	0	436
-27.551	19.762	16316	16706	0	436
-28.381	19.762	16316	17109	0	436
-27.010	20.411	16384	17432	0	436
-25.568	22.286	16384	17513	0	436
-24.162	20.050	16384	17432	0	436
-23.981	20.916	16384	17190	0	436
-24.342	20.339	16384	16948	0	436
-21.745	19.473	16384	16787	0	436
-21.313	21.998	16384	16625	0	436
-18.897	23.729	16384	16464	0	436
-17.418	26.722	16384	16223	0	436
-16.444	28.309	16316	15981	0	436
-17.310	28.381	16316	15659	0	436
-16.661	28.453	16316	15175	0	436
-20.087	26.325	16214	14691	0	436
-23.729	25.063	16214	14368	0	436
-27.083	19.870	16146	14207	0	436
-29.282	19.041	16146	14126	0	436
-29.102	15.651	16146	14207	0	436
-26.902	16.805	16146	14449	0	436
-23.981	18.283	16146	14772	0	436
-23.224	19.726	16146	15014	0	436
-23.224	18.788	16146	15336	0	436
-24.991	16.589	16146	15578	0	436
-26.974	15.254	16146	15820	0	436
-27.515	13.956	16146	16223	0	436
-28.092	13.920	16214	16545	0	436
-27.948	14.641	16214	16787	0	436
-29.499	13.668	16214	16948	0	436
-29.354	15.326	16214	16948	0	436
-27.335	16.012	16214	16867	0	436
-25.820	17.562	16214	16787	0	436
-25.243	17.129	16214	16787	0	436
-25.820	17.274	16214	16867	0	436
-25.207	18.572	16214	17029	0	436
-22.395	20.050	16214	17029	0	436
-21.060	22.034	16214	16787	0	436
-22.395	21.421	16214	16464	0	436
-30.653	12.514	16214	16384	0	436
-41.760	5.013	16214	16223	0	436
-50.234	-0.902	16146	15981	0	436
-52.326	-1.767	16146	15659	0	436
-43.419	4.400	16146	15497	0	436
-36.351	13.740	16044	15417	0	436
-28.886	17.238	16044	15497	0	436
-30.256	16.985	16044	15659	0	436
-38.911	8.150	16044	15981	0	436
-48.972	-2.560	16146	16464	0	436
-57.230	-10.530	16214	16948	0	436
-59.142	-12.189	16214	17593	0	436
-57.014	-13.343	16316	18561	0	436
-55.680	-9.052	16384	19609	0	436
-52.470	-7.393	16452	20335	0	436
-57.194	-9.520	16554	20900	0	436
-63.866	-14.208	16622	21464	0	436
-70.285	-17.418	16724	21948	0	436
-73.098	-21.421	16724	22190	0	436
-71.006	-19.582	16724	21867	0	436
-65.741	-16.625	16792	21142	0	436
-62.892	-13.631	16792	20416	0	436
-64.659	-15.687	16792	19690	0	436
-66.859	-17.887	16792	19045	1	812
-65.597	-15.579	16792	18480	0	812
-62.171	-12.189	16792	17754	0	812
-56.329	-7.934	16792	17109	0	812
-57.627	-9.088	16792	16384	0	812
-62.207	-14.641	16792	15659	0	812
-68.013	-18.788	16724	14933	0	812
-71.259	-22.250	16622	14288	0	812
-72.485	-20.555	16622	13804	0	812
-73.711	-21.673	16554	13401	0	812
-77.245	-24.450	16554	13159	0	812
-79.589	-25.820	16554	13078	0	812
-78.759	-26.361	16554	13078	0	812
-72.268	-23.404	16554	13320	0	812
-63.613	-19.726	16554	13804	0	812
-57.303	-17.815	16554	14449	0	812
-54.706	-14.821	16622	14852	0	812
-53.155	-14.245	16622	15255	0	812
-54.706	-12.081	16622	15739	0	812
-52.903	-11.396	16724	16304	0	812
-51.208	-10.278	16724	16545	0	812
-50.559	-8.943	16724	16625	0	812
-48.323	-8.439	16724	16384	0	812
-48.756	-10.169	16622	16304	0	812
-47.746	-10.674	16724	16143	0	812
-45.618	-9.809	16724	15981	0	812
-44.068	-6.491	16622	15739	0	812
-42.409	-3.931	16622	15497	0	812
-41.760	-2.236	16622	15336	0	812
-40.209	-2.164	16554	15175	0	812
-38.514	-1.442	16554	15014	0	812
-36.459	1.479	16554	14852	0	812
-35.846	4.832	16554	14530	0	812
-39.308	4.760	16452	14126	0	812
-46.268	0.721	16452	13804	0	812
-51.461	-6.816	16384	13562	0	812
-54.886	-11.071	16384	13239	0	812
-50.811	-11.179	16316	12997	0	812
-47.277	-7.357	16316	12917	0	812
-40.822	-1.118	16316	13401	0	812
-35.485	4.219	16316	14207	0	812
-36.495	3.678	16316	15094	0	812
-41.832	0.036	16316	15981	0	812
-50.270	-5.157	16384	16948	0	812
-58.457	-10.530	16452	17835	0	812
-59.358	-10.278	16452	18480	0	812
-50.090	-5.806	16452	18642	0	812
-40.209	2.019	16452	18480	0	812
-30.508	8.907	16452	18158	0	812
-28.705	12.261	16452	17916	0	812
-32.636	11.396	16452	17754	0	812
-36.531	10.206	16452	17513	0	812
-36.675	10.783	16452	17271	0	812
-32.600	13.235	16452	16948	0	812
-23.080	19.582	16384	16384	0	812
-14.713	24.919	16384	16062	0	812
-8.150	30.508	16384	15820	0	812
-7.212	34.475	16384	15659	0	812
-9.160	34.403	16316	15578	0	812
-11.576	32.889	16316	15578	0	812
-10.963	30.220	16316	15497	0	812
-9.629	30.941	16316	15659	0	812
-6.455	34.331	16316	15739	0	812
-5.157	36.891	16316	15901	0	812
-7.825	38.045	16316	16143	0	812
-12.694	33.429	16316	16384	0	812
-18.139	29.318	16316	16625	0	812
-18.752	24.558	16316	16787	0	812
-19.654	23.729	16384	17109	0	812
-17.202	27.047	16384	17513	0	812
-15.831	28.237	16384	17674	0	812
-12.694	32.780	16384	17835	0	812
-9.556	35.233	16452	18238	0	812
-7.717	36.098	16452	18884	0	812
-8.042	33.177	16554	19206	0	812
-12.189	29.679	16554	19206	0	812
-19.546	25.099	16554	18964	0	812
-19.654	23.585	16554	18480	0	812
-18.031	24.414	16554	17916	0	812
-12.297	28.237	16554	17271	0	812
-9.917	29.030	16452	16625	0	812
-13.451	27.696	16452	15981	0	812
-18.211	23.080	16452	15336	0	812
-26.974	16.877	16384	14772	0	812
-32.348	14.317	16384	14449	0	812
-32.816	10.927	16316	14207	0	812
-31.374	10.602	16316	13965	0	812
-26.578	15.615	16214	13643	0	812
-24.378	17.779	16214	13481	0	812
-23.188	19.546	16214	13562	0	812
-28.669	18.283	16214	13804	0	812
-30.905	15.831	16214	14207	0	812
-33.105	11.612	16214	14610	0	812
-32.276	10.530	16214	15336	0	812
-31.590	10.638	16214	16143	0	812
-32.384	12.153	16316	16706	0	812
-31.951	11.937	16316	17109	0	812
-30.292	16.985	16316	17513	0	812
-27.660	19.113	16384	17916	0	812
-25.063	23.260	16384	17996	0	812
-25.820	21.818	16384	17996	0	812
-27.335	20.231	16384	17916	0	812
-29.751	19.365	16384	17835	0	812
-29.066	18.031	16384	17674	0	812
-26.578	22.395	16384	17432	0	812
-23.873	25.532	16384	17271	0	812
-21.457	25.712	16384	17109	0	812
-21.529	24.486	16384	16948	0	812
-28.164	17.346	16384	16706	0	812
-33.646	13.451	16384	16706	0	812
-36.783	10.602	16384	16625	0	812
-36.531	11.071	16316	16384	0	812
-33.646	16.733	16316	16062	0	812
-31.338	16.625	16316	15739	0	812
-32.889	17.057	16316	15336	0	812
-34.764	14.172	16214	15014	0	812
-37.144	13.415	16214	14852	0	812
-33.754	13.343	16214	14933	0	812
-33.682	14.208	16214	15175	0	812
-36.026	14.461	16316	15578	0	812
-35.269	11.648	16316	15901	0	812
-35.774	12.297	16316	16143	0	812
-33.249	13.379	16316	16384	0	812
-29.859	14.966	16316	16464	0	812
-28.777	17.057	16316	16545	0	812
-34.006	13.992	16316	16706	0	812
-39.308	11.792	16384	17029	0	812
-43.563	10.025	16384	17351	0	812
-46.232	7.357	16384	17674	0	812
-46.304	6.563	16384	17754	0	812
-45.979	4.796	16452	17835	0	812
-46.772	2.524	16452	18077	0	812
-47.313	2.488	16452	18238	0	812
-46.989	4.796	16554	18319	0	812
-44.428	5.950	16554	18238	0	812
-43.491	6.635	16554	18158	0	812
-41.507	5.842	16452	18077	0	812
-41.327	4.075	16452	17996	0	812
-39.632	5.590	16452	17674	0	812
-36.711	10.819	16452	17029	0	812
-30.328	15.543	16384	16384	0	812
-24.739	21.601	16384	15659	0	812
-23.008	22.431	16384	15336	0	812
-23.476	23.368	16384	15255	0	812
-20.014	22.683	16384	15336	0	812
-18.428	25.604	16384	15417	0	812
-12.910	28.922	16384	15659	0	812
-9.448	31.158	16384	16143	0	812
-11.179	30.977	16452	16625	0	812
-13.992	28.345	16452	17029	0	812
-20.736	23.404	16554	17271	0	812
-21.349	20.519	16554	17351	0	812
-25.460	16.192	16554	17351	0	812
-28.345	17.021	16554	17432	0	812
-26.470	15.903	16554	17513	0	812
-24.342	19.365	16622	17513	0	812
-21.709	23.224	16622	17271	0	812
-19.365	24.594	16622	16948	0	812
-22.106	24.847	16622	16787	0	812
-30.220	21.204	16622	16545	0	812
-35.052	17.238	16554	16143	0	812
-38.731	15.615	16554	15578	0	812
-37.685	15.110	16554	14933	0	812
-33.826	15.435	16452	14449	0	812
-31.266	19.005	16452	14207	0	812
-25.388	18.644	16452	14046	0	812
-22.683	19.834	16384	13884	0	812
-23.549	21.241	16384	13643	0	812
-25.784	18.680	16316	13562	0	812
-32.131	16.733	16316	13401	0	812
-38.983	10.530	16316	13401	0	812
-43.347	6.022	16214	13562	0	812
-41.147	1.659	16316	14126	0	812
-38.334	2.669	16316	14933	0	812
-32.492	7.285	16316	15417	0	812
-30.328	11.468	16316	15820	0	812
-26.938	11.684	16316	16304	0	812
-27.515	12.982	16384	16706	0	812
-28.489	13.307	16384	17109	0	812
-26.145	15.939	16384	17271	0	812
-23.116	22.827	16384	17432	0	812
-19.870	27.227	16384	17513	0	812
-18.392	28.201	16384	17513	0	812
-17.670	26.001	16384	17432	0	812
-22.106	23.549	16384	17190	0	812
-26.397	20.303	16316	16625	0	812
-28.705	19.834	16316	16062	0	812
-28.056	21.781	16214	15497	0	812
-27.083	23.224	16214	15094	0	812
-28.056	24.162	16146	14610	0	812
-30.833	19.329	16146	14207	0	812
-34.439	15.579	16044	14046	0	812
-36.351	11.973	16044	14126	0	812
-34.583	14.533	16044	14288	0	812
-31.482	15.975	15976	14530	0	812
-31.049	18.175	15976	14691	0	812
-30.905	15.471	16044	15094	0	812
-31.843	15.002	16146	15739	0	812
-32.239	14.605	16146	16464	0	812
-32.023	15.651	16146	17029	0	812
-32.492	16.228	16146	17513	0	812
-34.079	11.973	16214	17916	0	812
-36.819	9.520	16214	18480	0	812
-37.216	11.973	16214	18964	0	812
-33.466	14.425	16316	19206	0	812
-33.754	17.129	16316	19125	0	812
-35.088	13.884	16316	18884	0	812
-36.098	10.819	16316	18642	0	812
-36.531	8.691	16316	18400	0	812
-32.816	11.756	16316	17996	1	836
-26.433	17.418	16214	17432	0	836
-21.277	21.168	16214	16867	0	836
-23.801	22.070	16214	16384	0	836
-26.974	17.634	16146	16223	0	836
-32.925	15.290	16146	15901	0	836
-35.088	12.261	16146	15578	0	836
-35.197	10.638	16146	15497	0	836
-34.403	11.900	16044	15336	0	836
-33.898	10.386	16044	15175	0	836
-34.620	9.520	16044	15255	0	836
-34.403	9.340	16146	15497	0	836
-33.790	10.783	16146	15901	0	836
-32.636	12.081	16146	16384	0	836
-32.095	15.110	16214	17109	0	836
-31.266	15.038	16316	18077	0	836
-31.626	12.910	16384	18964	0	836
-32.853	12.189	16452	19851	0	836
-36.387	7.825	16554	20658	0	836
-42.625	4.255	16554	21142	0	836
-50.956	0.433	16622	21303	0	836
-53.264	-0.938	16724	21142	0	836
-50.703	2.596	16724	20980	0	836
-40.822	8.150	16724	20819	0	836
-30.833	14.497	16792	20819	0	836
-26.289	14.028	16792	20658	0	836
-29.823	11.864	16894	20335	0	836
-38.118	5.121	16894	19932	0	836
-46.809	-1.515	16894	19287	0	836
-47.890	-3.534	16894	18561	0	836
-45.727	-3.714	16894	17593	0	836
-38.370	-1.587	16792	16545	0	836
-35.016	0.361	16792	15739	0	836
-38.695	0.180	16792	14852	0	836
-46.412	-4.796	16622	13965	0	836
-58.745	-11.540	16622	13159	0	836
-69.528	-20.123	16622	12675	0	836
-73.675	-24.270	16554	12433	0	836
-70.032	-22.178	16554	12352	0	836
-61.558	-17.634	16554	12433	0	836
-55.499	-10.386	16554	12675	0	836
-53.985	-9.304	16554	13078	0	836
-61.486	-15.759	16554	13562	0	836
-72.449	-24.306	16554	14126	0	836
-81.536	-32.059	16554	14610	0	836
-81.969	-33.321	16554	14852	0	836
-79.409	-29.751	16554	14852	0	836
-73.134	-25.712	16554	14933	0	836
-69.167	-23.368	16622	15094	0	836
-70.537	-27.119	16622	15255	0	836
-74.829	-31.446	16554	15255	0	836
-77.750	-34.692	16554	15255	0	836
-77.281	-34.043	16554	15255	0	836
-73.639	-31.085	16554	15094	0	836
-67.688	-25.352	16554	14772	0	836
-63.000	-22.250	16452	14368	0	836
-60.548	-22.431	16384	13965	0	836
-62.063	-20.808	16384	13481	0	836
-61.522	-20.664	16316	12917	0	836
-61.233	-20.664	16214	12514	0	836
-61.955	-17.851	16146	12352	0	836
-62.315	-19.978	16146	12514	0	836
-63.469	-20.844	16146	12755	0	836
-64.912	-22.106	16044	13239	0	836
-64.443	-21.673	16044	13804	0	836
-64.767	-19.149	16044	14288	0	836
-64.803	-19.329	16044	14933	0	836
-68.049	-20.664	16146	16062	0	836
-71.114	-23.404	16146	17190	0	836
-71.295	-25.856	16214	18238	0	836
-67.328	-19.293	16214	18964	0	836
-60.043	-13.631	16316	19609	0	836
-52.975	-4.255	16316	20174	0	836
-48.431	0.649	16384	20496	0	836
-49.297	0.974	16384	20577	0	836
-52.038	-2.236	16452	20496	0	836
-56.365	-5.301	16452	20335	0	836
-56.906	-5.301	16452	20013	0	836
-51.208	-2.560	16452	19690	0	836
-44.789	3.426	16452	19367	1	316
-34.800	12.514	16452	19125	0	316
-30.581	14.172	16452	18803	0	316
-30.653	12.838	16452	18561	0	316
-35.160	9.989	16554	18319	0	316
-37.000	6.924	16554	18319	0	316
-35.413	9.484	16554	18400	0	316
-26.758	18.211	16622	18561	0	316
-16.805	24.450	16622	18642	0	316
-12.514	28.597	16622	18561	0	316
-12.441	30.220	16724	18238	0	316
-15.723	27.010	16724	18158	0	316
-19.798	26.830	16792	18319	0	316
-18.356	27.263	16792	18722	0	316
-13.704	32.203	16894	19045	0	316
-9.088	33.574	16894	19287	0	316
-8.222	32.312	16894	19367	0	316
-10.891	28.922	16962	19448	0	316
-11.540	24.811	17064	19367	0	316
-10.350	27.515	17064	19206	0	316
-4.291	35.918	17064	18803	0	316
0.288	44.212	16962	18158	0	316
-0.505	45.763	17064	17109	0	316
-9.629	38.190	16962	16143	0	316
-20.050	28.128	16894	15175	0	316
-26.433	19.510	16894	14368	0	316
-27.191	19.473	16792	13481	0	316
-21.096	23.296	16792	12675	0	316
-16.697	28.237	16724	11949	0	316
-11.684	32.744	16622	11304	0	316
-11.576	32.420	16622	10901	0	316
-15.254	29.174	16554	10497	0	316
-20.339	25.424	16452	10094	0	316
-29.246	17.057	16384	9772	0	316
-35.341	13.884	16384	9691	0	316
-36.387	14.497	16316	9772	0	316
-33.646	18.247	16316	10014	0	316
-27.840	22.935	16214	10497	0	316
-21.421	27.624	16214	11143	0	316
-18.680	26.289	16214	11707	0	316
-20.483	24.739	16146	12272	0	316
-21.241	23.729	16146	12917	0	316
-23.621	23.008	16146	13804	0	316
-24.270	22.683	16146	14772	0	316
-22.972	23.008	16214	15578	0	316
-23.404	21.313	16214	16223	0	316
-24.847	17.454	16146	16464	0	316
-29.354	13.812	16146	16545	0	316
-35.557	13.235	16146	16706	0	316
-42.265	9.701	16146	17029	0	316
-44.501	9.448	16146	17351	0	316
-44.861	9.196	16146	17674	0	316
-40.822	10.927	16146	17835	0	316
-33.790	15.651	16214	17754	0	316
-28.381	21.529	16214	17674	0	316
-27.155	22.575	16214	17513	0	316
-30.977	20.519	16214	17432	0	316
-32.961	17.598	16146	17190	0	316
-35.197	14.966	16146	17029	0	316
-30.977	19.005	16146	16867	0	316
-23.765	22.755	16146	16867	0	316
-18.897	27.660	16044	17029	0	316
-17.598	29.138	16044	17190	0	316
-20.664	26.001	16146	17351	0	316
-24.775	24.017	16146	17754	0	316
-25.965	21.962	16146	18238	0	316
-29.859	17.346	16214	18803	0	316
-31.554	16.192	16214	19448	0	316
-31.843	13.668	16316	20013	0	316
-34.079	10.169	16316	20254	0	316
-35.774	7.970	16384	20335	0	316
-38.550	6.744	16384	20335	0	316
-41.291	5.409	16452	20416	0	316
-43.815	5.986	16452	20254	0	316
-41.111	7.717	16452	19851	0	316
-37.072	11.432	16452	19287	0	316
-30.977	15.254	16452	18884	0	316
-25.279	20.339	16452	18400	0	316
-22.791	23.368	16452	17835	0	316
-20.483	24.991	16452	17190	0	316
-22.935	24.162	16452	16706	0	316
-28.705	18.031	16452	16384	0	316
-35.918	11.648	16452	16143	0	316
-37.613	9.052	16452	15901	0	316
-36.639	9.484	16384	15578	0	316
-30.941	15.903	16384	15255	0	316
-23.801	22.395	16384	15014	0	316
-19.510	27.047	16384	14772	0	316
-19.329	29.679	16384	14691	0	316
-18.644	29.210	16384	14691	0	316
-21.962	25.207	16384	14772	0	316
-25.135	19.942	16384	14933	0	316
-31.230	15.146	16384	15336	0	316
-35.124	9.701	16384	15739	0	316
-38.190	6.816	16384	15901	0	316
-40.317	7.825	16384	15981	0	316
-39.704	9.088	16384	16143	0	316
-37.360	11.179	16384	16223	0	316
-34.403	13.956	16384	16304	0	316
-31.122	18.500	16384	16143	0	316
-30.617	16.841	16384	15901	0	316
-32.708	15.759	16384	15659	0	316
-35.485	12.802	16384	15336	0	316
-38.190	10.422	16316	14933	0	316
-37.901	10.674	16316	14852	0	316
-35.846	12.369	16316	14852	0	316
-33.502	15.903	16214	14772	0	316
-30.220	20.519	16214	14610	0	316
-29.535	21.168	16214	14368	0	316
-29.463	20.231	16146	14207	0	316
-30.256	19.690	16146	14126	0	316
-33.574	15.146	16146	14368	0	316
-35.701	12.694	16146	14691	0	316
-37.901	10.278	16146	15175	0	316
-39.668	8.907	16146	15659	0	316
-37.613	12.153	16214	16062	0	316
-32.384	15.975	16214	16384	0	316
-29.535	16.985	16214	16787	0	316
-29.102	18.536	16316	17190	0	316
-32.239	14.677	16316	17351	0	316
-35.521	12.405	16316	17351	0	316
-37.180	11.323	16316	17513	0	316
-35.954	11.071	16316	17916	0	316
-34.043	10.710	16384	18238	0	316
-30.905	9.809	16384	18642	0	316
-28.128	12.117	16384	18964	0	316
-22.539	18.536	16452	19125	0	316
-19.834	22.611	16452	19125	0	316
-20.591	25.099	16452	19045	0	316
-27.804	20.808	16554	19045	0	316
-35.990	12.405	16554	18884	0	316
-42.301	3.318	16554	18561	0	316
-42.878	0.974	16554	18238	0	316
-36.351	4.255	16554	17835	0	316
-28.922	12.802	16554	17432	0	316
-26.686	16.444	16452	17109	0	316
-28.777	18.572	16452	16867	0	316
-32.925	13.307	16452	16545	0	316
-38.442	8.871	16384	16143	0	316
-37.937	9.268	16384	15578	0	316
-37.216	10.097	16384	14933	0	316
-37.144	10.133	16316	14449	0	316
-39.272	7.068	16316	14207	0	316
-41.543	5.950	16316	14207	0	316
-43.419	2.633	16214	14288	0	316
-43.635	3.426	16316	14368	0	316
-42.950	7.140	16316	14530	0	316
-40.029	9.448	16316	14691	0	316
-37.036	13.343	16316	14772	0	316
-34.980	15.651	16316	14691	0	316
-34.620	14.425	16214	14530	0	316
-36.964	12.009	16214	14530	0	316
-39.632	7.609	16214	14530	0	316
-40.065	7.032	16146	14449	0	316
-37.937	8.330	16146	14207	0	316
-34.656	13.776	16044	13965	0	316
-32.492	14.641	16044	13884	0	316
-34.728	14.749	15976	13723	0	316
-37.721	10.602	15976	13723	0	316
-41.039	6.744	15976	14046	0	316
-39.524	5.301	15976	14610	0	316
-34.620	10.494	15976	15094	0	316
-29.391	16.516	15874	15336	0	316
-25.532	22.142	15874	15336	0	316
-24.450	22.935	16044	15255	0	316
-25.532	22.755	15976	15417	0	316
-26.073	20.159	15874	15739	0	316
-26.001	21.421	15874	16143	0	316
-26.794	19.293	15976	16545	0	316
-30.076	19.293	15976	17271	0	316
-33.141	15.939	15976	18158	0	316
-37.396	11.215	16044	19287	0	316
-39.452	8.691	16146	20254	0	316
-36.964	9.701	16214	20900	0	316
-31.626	15.110	16316	21303	0	316
-28.056	20.411	16316	21625	0	316
-23.801	25.784	16384	22029	0	316
-23.621	26.037	16452	22190	0	316
-27.624	21.277	16452	21948	0	316
-31.194	15.326	16452	21464	0	316
-36.170	9.917	16554	20900	0	316
-39.055	8.871	16554	20174	0	316
-37.793	9.448	16452	19367	1	728
-36.495	12.225	16452	18480	0	728
-33.213	17.021	16452	17754	0	728
-35.233	15.975	16452	17190	0	728
-35.701	12.622	16452	16706	0	728
-38.009	11.576	16452	16384	0	728
-40.534	8.907	16452	15901	0	728
-42.950	5.554	16452	15578	0	728
-47.205	4.580	16452	15336	0	728
-49.297	2.164	16452	15255	0	728
-47.313	4.688	16452	15497	0	728
-39.416	12.802	16452	15981	0	728
-31.230	18.752	16554	16545	0	728
-28.417	24.414	16622	17351	0	728
-27.624	19.726	16724	18158	0	728
-31.771	17.562	16792	18884	0	728
-36.819	17.310	16792	19206	0	728
-35.774	15.795	16894	19206	0	728
-37.793	17.526	16792	19045	0	728
-37.577	16.769	16962	18803	0	728
-36.495	16.048	16894	18400	0	728
-33.826	21.168	16894	17835	0	728
-29.427	27.804	16894	17271	0	728
-27.263	30.364	16894	16625	0	728
-27.479	27.840	16894	16062	0	728
-32.853	20.195	16894	15417	0	728
-37.324	15.110	16792	14852	0	728
-39.596	13.343	16792	14449	0	728
-37.937	14.641	16792	14207	0	728
-35.449	19.870	16792	14046	0	728
-32.239	20.231	16724	14046	0	728
-31.807	20.627	16724	14126	0	728
-31.446	20.195	16724	14207	0	728
-33.862	17.815	16724	14126	0	728
-33.790	17.346	16724	13723	0	728
-33.898	15.218	16622	13239	0	728
-33.357	13.379	16554	12675	0	728
-33.466	11.792	16554	12191	0	728
-36.351	6.419	16452	11707	0	728
-40.786	3.859	16384	11465	0	728
-41.147	4.400	16384	11626	0	728
-37.721	5.698	16384	11949	0	728
-34.403	9.412	16316	12191	0	728
-33.105	7.104	16316	12594	0	728
-39.091	2.705	16316	13239	0	728
-45.366	-1.983	16316	13804	0	728
-46.448	-3.137	16316	13965	0	728
-43.960	0.252	16214	13965	0	728
-38.190	4.147	16214	13965	0	728
-37.937	4.688	16146	14126	0	728
-42.806	1.082	16146	14449	0	728
-51.461	-4.904	16146	14933	0	728
-58.925	-12.189	16146	15497	0	728
-65.056	-16.156	16146	15901	0	728
-64.948	-19.113	16146	16304	0	728
-62.423	-16.228	16146	16625	0	728
-58.529	-15.038	16146	17029	0	728
-59.394	-13.235	16214	17351	0	728
-63.866	-16.913	16214	17513	0	728
-73.675	-24.702	16214	17593	0	728
-80.418	-30.833	16214	17754	0	728
-82.005	-31.807	16214	17916	0	728
-79.625	-31.879	16214	17996	0	728
-76.127	-26.974	16214	18158	0	728
-75.370	-27.371	16214	18319	0	728
-76.055	-28.958	16316	18642	0	728
-74.071	-27.155	16316	18722	0	728
-70.682	-25.207	16316	18884	0	728
-65.813	-18.356	16384	19287	0	728
-63.253	-16.589	16384	19609	0	728
-60.945	-12.730	16384	19448	0	728
-60.837	-13.054	16384	19125	0	728
-59.250	-11.684	16384	18642	0	728
-58.348	-10.386	16384	18238	0	728
-58.673	-14.389	16384	17916	0	728
-64.082	-18.139	16384	17754	0	728
-68.410	-22.034	16384	17513	0	728
-70.609	-24.522	16384	17351	0	728
-70.141	-24.017	16384	17109	0	728
-67.724	-20.339	16384	16948	0	728
-67.472	-20.411	16384	16625	0	728
-65.994	-20.880	16384	16384	0	728
-66.643	-20.014	16316	16143	0	728
-65.092	-20.916	16316	15981	0	728
-63.253	-18.464	16316	15901	0	728
-61.017	-17.634	16316	15739	0	728
-62.604	-15.507	16316	15739	0	728
-61.522	-15.290	16316	15739	0	728
-61.197	-12.766	16316	15820	0	728
-58.781	-11.792	16316	16223	0	728
-56.257	-9.701	16384	16706	0	728
-55.283	-6.599	16384	17190	0	728
-55.788	-6.094	16452	17593	0	728
-53.191	-5.085	16452	18077	0	728
-55.103	-4.436	16554	18400	0	728
-52.362	-5.337	16554	18400	0	728
-50.811	-5.842	16554	18158	0	728
-49.477	-5.013	16554	18077	0	728
-51.569	-4.688	16622	18077	0	728
-53.696	-4.436	16622	17754	0	728
-56.113	-8.511	16554	17190	0	728
-57.375	-9.376	16554	16625	0	728
-58.745	-10.602	16554	16384	0	728
-56.149	-9.412	16554	16143	0	728
-55.175	-8.511	16554	15901	0	728
-53.805	-7.934	16554	15336	0	728
-50.523	-7.501	16452	14772	0	728
-51.749	-7.393	16452	14126	0	728
-52.038	-6.816	16316	13723	0	728
-55.716	-8.439	16384	13643	0	728
-59.430	-12.405	16384	13643	0	728
-61.125	-14.569	16316	13723	0	728
-57.807	-14.245	16316	13884	0	728
-53.516	-9.701	16316	14126	0	728
-49.766	-4.688	16316	14288	0	728
-47.818	-1.983	16316	14449	0	728
-47.602	-3.678	16316	14691	0	728
-51.785	-4.472	16316	15094	0	728
-51.821	-6.058	16316	15739	0	728
-51.064	-4.760	16316	16304	0	728
-49.405	-0.974	16384	16706	0	728
-47.746	1.154	16384	17109	0	728
-49.513	2.813	16384	17593	0	728
-47.782	1.406	16452	18077	0	728
-48.972	-0.072	16452	18158	0	728
-48.179	-0.180	16452	18077	0	728
-43.094	2.019	16452	17916	0	728
-36.928	7.934	16452	17754	0	728
-27.263	14.930	16452	17432	0	728
-16.877	24.450	16452	17190	0	728
-10.350	30.617	16452	17029	0	728
-7.501	34.043	16452	16867	0	728
-7.429	35.521	16452	16625	0	728
-7.753	36.819	16316	16304	0	728
-5.626	40.678	16384	15739	0	728
3.462	46.700	16384	15255	0	728
7.537	49.874	16316	14691	0	728
9.088	50.667	16214	14207	0	728
3.029	45.763	16214	13965	0	728
-1.731	42.337	16214	14046	0	728
-3.210	43.419	16146	14046	0	728
5.265	50.270	16146	14126	0	728
15.435	57.447	16146	14368	0	728
24.955	63.000	16146	14691	0	728
21.890	64.010	16146	15255	0	728
16.985	58.961	16146	15901	0	728
8.366	53.336	16214	16706	0	728
4.075	49.225	16316	17674	0	728
4.940	49.080	16316	18400	0	728
5.554	47.674	16384	18803	0	728
4.255	47.926	16384	19045	0	728
1.515	45.402	16384	19045	0	728
-0.649	45.186	16384	18803	0	728
2.452	47.386	16384	18400	0	728
9.592	54.165	16384	17916	0	728
15.867	56.978	16384	17593	0	728
14.353	57.627	16384	17351	0	728
4.977	51.641	16384	17271	0	728
-4.940	43.094	16384	17109	0	728
-10.242	38.514	16384	16948	0	728
-8.402	38.622	16384	16787	0	728
-4.003	40.498	16384	16545	0	728
-1.226	44.248	16384	16384	0	728
-4.724	40.426	16316	16223	0	728
-13.271	33.393	16316	16143	0	728
-20.014	25.099	16384	16223	0	728
-24.306	19.582	16384	16304	0	728
-22.467	19.401	16384	16384	0	728
-20.195	23.549	16384	16625	0	728
-17.634	24.739	16384	16867	0	728
-19.293	21.745	16384	16948	0	728
-24.775	18.139	16452	17029	0	728
-29.210	12.514	16452	17351	0	728
-32.564	9.989	16452	17754	0	728
-30.941	12.550	16554	18077	0	728
-27.551	13.307	16554	18319	0	728
-25.316	17.779	16622	18480	0	728
-24.630	17.346	16622	18480	0	728
-27.443	14.028	16622	18319	0	728
-32.816	12.405	16724	18158	0	728
-36.387	8.943	16724	17916	0	728
-36.675	7.104	16724	17593	0	728
-35.665	9.304	16724	17029	0	728
-32.564	11.432	16554	16384	0	728
-30.797	13.054	16554	15820	0	728
-32.744	14.713	16554	15417	0	728
-35.305	12.514	16554	14933	0	728
-39.019	8.330	16452	14530	0	728
-42.842	6.131	16452	14126	0	728
-42.048	5.085	16384	13643	0	728
-42.734	6.311	16384	13078	0	728
-39.632	8.943	16316	12675	0	728
-39.740	9.340	16316	12514	0	728
-37.649	9.701	16214	12594	0	728
-36.928	10.133	16214	12917	0	728
-35.846	10.602	16214	13239	0	728
-36.026	10.530	16214	13562	0	728
-39.199	6.671	16214	14288	0	728
-46.015	0.829	16316	15094	0	728
-48.179	-3.678	16316	15659	0	728
-50.451	-3.678	16384	16062	0	728
-47.674	-2.452	16384	16384	0	728
-44.032	0.613	16384	16948	0	728
-42.373	4.580	16384	17432	0	728
-41.904	5.301	16452	17674	0	728
-44.645	2.741	16452	17835	0	728
-49.730	-1.406	16452	17754	0	728
-60.765	-10.458	16452	17593	0	728
-68.013	-16.552	16384	17674	0	728
-70.105	-20.159	16384	17754	0	728
-64.443	-14.100	16384	17835	0	728
-53.588	-6.888	16384	17835	0	728
-49.405	-4.111	16452	17916	0	728
-54.129	-9.484	16452	17835	0	728
-67.472	-18.933	16452	17754	0	728
-81.428	-30.328	16452	17674	0	728
-87.414	-36.026	16452	17513	0	728
-85.503	-32.961	16452	17109	0	728
-79.156	-27.840	16452	16706	0	728
-73.675	-25.099	16452	16545	1	876
-76.127	-26.578	16384	16464	0	876
-83.411	-35.990	16384	16384	0	876
-91.237	-42.661	16384	16223	0	876
-96.502	-45.402	16384	16304	0	876
-90.696	-42.301	16384	16384	0	876
-84.998	-35.305	16384	16223	0	876
-77.678	-30.076	16384	16143	0	876
-75.586	-29.968	16384	15981	0	876
-76.163	-29.030	16384	15739	0	876
-76.740	-28.273	16384	15497	0	876
-76.091	-25.820	16384	15255	0	876
-73.675	-25.207	16316	15014	0	876
-71.511	-23.116	16316	14691	0	876
-69.311	-22.719	16214	14368	0	876
-66.607	-23.080	16214	14207	0	876
-64.154	-19.293	16214	14046	0	876
-62.387	-18.247	16146	14046	0	876
-59.286	-14.208	16214	14207	0	876
-58.312	-10.855	16214	14368	0	876
-56.401	-6.671	16146	14368	0	876
-54.382	-3.246	16146	14368	0	876
-55.860	-1.370	16146	14368	0	876
-56.942	-2.596	16044	14368	0	876
-61.558	-7.537	16044	14610	0	876
-64.948	-12.586	16044	14852	0	876
-68.915	-17.310	16044	15255	0	876
-71.259	-21.673	16044	15901	0	876
-73.134	-21.132	16146	16625	0	876
-71.691	-20.087	16146	17351	0	876
-68.806	-16.841	16146	17996	0	876
-63.902	-12.694	16214	18642	0	876
-55.788	-6.888	16316	19690	0	876
-51.424	-3.859	16384	20819	0	876
-50.379	-4.075	16452	21787	0	876
-55.067	-8.943	16554	22432	0	876
-58.420	-13.487	16622	22674	0	876
-59.430	-14.208	16724	22513	0	876
-58.673	-13.523	16724	22109	0	876
-51.929	-10.025	16724	21384	0	876
-49.008	-5.121	16724	20658	0	876
-47.782	-6.527	16724	19851	0	876
-51.100	-8.186	16724	19206	0	876
-52.939	-10.169	16724	18642	0	876
-53.336	-9.881	16792	18158	0	876
-51.208	-7.609	16792	17754	0	876
-45.438	-3.173	16792	17432	0	876
-41.976	1.118	16724	17109	0	876
-40.570	2.308	16724	16706	0	876
-40.858	2.416	16724	16384	0	876
-41.327	1.334	16724	15981	0	876
-40.426	1.983	16724	15417	0	876
-38.767	1.983	16622	14772	0	876
-36.170	4.652	16622	14207	0	876
-31.807	10.278	16622	13804	0	876
-22.358	17.815	16622	13643	0	876
-14.425	27.732	16622	13723	0	876
-7.789	30.797	16554	13804	0	876
-6.311	32.889	16554	13884	0	876
-7.357	31.446	16554	13965	0	876
-8.439	32.672	16622	14207	0	876
-6.563	34.764	16622	14610	0	876
-3.895	38.947	16554	15094	0	876
-2.488	39.380	16622	15336	0	876
-3.210	37.432	16622	15659	0	876
-4.868	35.413	16622	15981	0	876
-3.498	36.675	16622	16304	0	876
0.072	40.642	16622	16464	0	876
4.003	45.510	16622	16384	0	876
5.013	48.071	16622	16223	0	876
-0.325	44.068	16622	15901	0	876
-9.088	37.288	16622	15659	0	876
-16.444	29.066	16554	15255	0	876
-19.149	25.893	16554	14933	0	876
-12.153	28.669	16554	14530	0	876
-4.724	36.495	16452	14288	0	876
2.200	41.327	16452	14207	0	876
1.587	44.140	16452	14207	0	876
-3.859	41.183	16452	14449	0	876
-12.586	35.088	16452	14933	1	316
-17.093	29.968	16452	15336	0	316
-16.841	28.345	16452	15820	0	316
-15.471	28.164	16554	16384	0	316
-10.819	30.184	16554	17109	0	316
-10.927	31.122	16554	17513	0	316
-13.018	30.833	16554	17432	0	316
-19.365	26.578	16554	17271	0	316
-26.830	19.978	16554	17109	0	316
-32.564	15.831	16554	16948	0	316
-33.393	14.281	16554	16706	0	316
-29.318	18.175	16554	16787	0	316
-23.837	22.250	16554	16787	0	316
-20.880	26.433	16554	16787	0	316
-24.414	25.604	16554	16706	0	316
-27.119	22.899	16452	16625	0	316
-30.797	20.555	16452	16384	0	316
-35.197	12.477	16384	15820	0	316
-38.298	8.294	16384	15336	0	316
-40.678	2.308	16384	15014	0	316
-41.688	3.029	16316	14852	0	316
-34.800	9.737	16316	14530	0	316
-27.335	18.897	16214	14288	0	316
-23.657	22.539	16316	14207	0	316
-25.424	21.565	16316	14126	0	316
-30.256	16.012	16214	13965	0	316
-34.403	12.261	16214	13884	0	316
-33.898	12.117	16146	14046	0	316
-29.787	16.877	16146	14368	0	316
-23.512	20.916	16146	14933	0	316
-19.762	25.279	16146	15578	0	316
-14.064	27.407	16214	16223	0	316
-12.441	30.436	16214	16867	0	316
-9.737	35.701	16316	17674	0	316
-10.169	37.252	16316	18158	0	316
-13.776	35.774	16316	18319	0	316
-19.834	31.266	16316	18238	0	316
-25.279	25.424	16316	17996	0	316
-27.515	21.132	16316	17835	0	316
-27.804	20.159	16316	17674	0	316
-26.722	21.565	16316	17754	0	316
-27.263	18.500	16316	17754	0	316
-31.302	15.435	16316	17754	0	316
-35.954	9.592	16316	17674	0	316
-37.757	7.934	16316	17432	0	316
-35.521	9.016	16316	17109	0	316
-29.859	12.802	16214	16625	0	316
-24.666	17.887	16214	16304	0	316
-26.037	19.510	16214	15981	0	316
-30.112	17.238	16146	15578	0	316
-35.485	14.028	16146	15336	0	316
-36.278	9.412	16044	15094	0	316
-31.482	11.684	16044	14852	0	316
-23.621	14.894	16044	14610	0	316
-20.087	18.139	16044	14691	0	316
-20.844	22.791	16146	15094	0	316
-20.195	23.621	16146	15739	0	316
-22.503	21.457	16146	16464	0	316
-23.116	22.791	16214	17271	0	316
-21.709	21.132	16214	17835	0	316
-22.178	22.178	16316	18319	0	316
-19.041	24.522	16316	18803	0	316
-16.877	27.587	16384	19287	0	316
-14.389	29.715	16384	19448	0	316
-17.634	26.794	16384	19448	0	316
-20.844	22.791	16384	19287	0	316
-24.630	16.877	16452	19045	0	316
-23.981	17.202	16452	18803	0	316
-22.431	17.202	16452	18480	0	316
-25.207	18.392	16452	18158	0	316
-30.761	13.920	16452	17996	0	316
-37.036	9.917	16452	17754	0	316
-38.658	7.753	16452	17432	0	316
-34.259	9.448	16452	17109	0	316
-29.823	13.199	16452	16867	0	316
-28.850	15.038	16452	16545	0	316
-32.961	13.343	16452	16223	0	316
-34.583	13.054	16452	15981	0	316
-31.915	14.208	16452	16062	0	316
-24.270	19.113	16452	16304	0	316
-21.204	19.257	16384	16384	0	316
-20.050	20.123	16554	16384	0	316
-25.784	16.336	16554	16464	0	316
-28.994	17.346	16554	16464	0	316
-28.453	18.608	16554	16223	0	316
-26.109	20.988	16452	15981	0	316
-24.991	17.706	16452	15820	0	316
-29.463	12.261	16452	15901	0	316
-35.377	4.400	16452	15820	0	316
-42.120	0.108	16384	15578	0	316
-44.717	0.829	16384	15255	0	316
-43.094	3.823	16384	14933	0	316
-39.668	7.068	16384	14610	0	316
-37.757	8.943	16316	14368	0	316
-37.721	6.058	16316	14207	0	316
-41.868	1.983	16316	14368	0	316
-46.159	-2.164	16316	14449	0	316
-47.349	-3.534	16214	14449	0	316
-46.232	-2.560	16316	14207	0	316
-45.294	-1.370	16316	13884	0	316
-45.150	-3.029	16214	13884	0	316
-49.657	-7.789	16214	13965	0	316
-57.339	-14.353	16316	14126	0	316
-61.991	-16.877	16146	14126	0	316
-63.902	-19.473	16146	14126	0	316
-65.849	-17.851	16146	14207	0	316
-67.003	-20.700	16146	14610	0	316
-69.203	-23.440	16146	15417	0	316
-73.639	-27.479	16146	16384	0	316
-75.370	-29.859	16214	17109	0	316
-75.081	-30.004	16214	17754	0	316
-72.629	-27.083	16316	18319	0	316
-70.105	-26.037	16316	18964	0	316
-69.095	-25.316	16384	19609	0	316
-71.547	-27.876	16452	20174	0	316
-73.819	-29.102	16452	20496	0	316
-74.360	-29.427	16554	20577	0	316
-72.376	-26.037	16554	20577	0	316
-67.977	-22.899	16554	20416	0	316
-66.823	-18.969	16622	20093	0	316
-67.761	-18.067	16622	19529	0	316
-69.023	-19.149	16622	18803	0	316
-67.652	-18.897	16554	17916	0	316
-66.498	-17.959	16554	16948	0	316
-63.289	-16.084	16452	16223	0	316
-64.263	-15.975	16452	15497	0	316
-65.705	-16.300	16384	14933	0	316
-66.751	-15.182	16384	14368	0	316
-65.669	-16.949	16316	13965	0	316
-64.263	-15.939	16316	13723	0	316
-64.154	-16.697	16316	13481	0	316
-64.731	-17.202	16214	13159	0	316
-65.597	-19.510	16214	12997	0	316
-63.649	-15.507	16146	13078	0	316
-60.512	-13.199	16146	13078	0	316
-59.538	-10.891	16146	13320	0	316
-61.161	-12.009	16146	13965	0	316
-63.938	-14.605	16146	14772	0	316
-63.433	-13.343	16146	15336	0	316
-60.656	-11.756	16146	15659	0	316
-53.732	-5.481	16146	15981	0	316
-48.648	0.469	16146	16223	0	316
-45.979	3.678	16146	16384	0	316
-45.546	6.347	16146	16384	0	316
-44.140	6.347	16146	16384	0	316
-44.428	4.688	16146	16545	0	316
-43.815	5.409	16146	16787	0	316
-39.776	9.160	16214	16948	0	316
-29.354	15.507	16214	17109	0	316
-17.634	27.768	16316	17432	0	316
-6.455	35.990	16316	17674	0	316
-2.488	37.252	16316	17835	0	316
-5.770	36.855	16316	17754	0	316
-12.441	34.151	16316	17593	0	316
-16.625	31.013	16316	17513	0	316
-14.281	31.699	16316	17432	0	316
-13.018	35.124	16316	17351	0	316
-9.376	37.757	16316	17513	0	316
-8.475	38.154	16316	17754	0	316
-9.376	39.199	16316	17835	0	316
-10.746	37.108	16384	17916	0	316
-11.720	33.646	16384	18238	0	316
-17.815	28.164	16384	18400	0	316
-20.303	26.470	16452	18319	0	316
-23.801	24.342	16452	18158	0	316
-21.998	27.551	16452	18077	0	316
-18.788	29.968	16452	18077	0	316
-12.477	34.511	16452	17996	0	316
-11.540	32.925	16554	17835	0	316
-12.477	28.164	16554	17674	0	316
-17.057	22.467	16554	17593	0	316
-20.736	20.519	16554	17674	0	316
-23.549	18.247	16622	17835	0	316
-22.647	20.880	16622	17996	0	316
-21.637	20.772	16622	18158	0	316
-22.539	20.772	16622	18158	0	316
-23.188	17.706	16622	17916	0	316
-27.119	15.903	16622	17432	0	316
-30.545	14.317	16622	16867	0	316
-32.059	13.415	16622	16223	0	316
-34.764	8.475	16554	15417	0	316
-36.314	7.393	16554	14691	0	316
-40.065	4.147	16554	14449	0	316
-40.245	3.606	16554	14530	0	316
-41.904	3.714	16554	14772	0	316
-40.606	5.229	16554	15094	0	316
-36.206	8.366	16554	15497	0	316
-32.492	12.910	16622	15901	0	316
-29.968	18.247	16622	16223	0	316
-29.246	19.257	16622	16384	0	316
-31.554	18.031	16724	16625	0	316
-34.223	10.494	16622	16867	0	316
-36.026	6.022	16724	17029	0	316
-34.151	3.210	16724	17029	0	316
-34.475	4.580	16622	16625	0	316
-33.754	4.724	16622	16143	0	316
-33.862	6.563	16622	15417	0	316
-35.413	5.373	16554	14772	0	316
-35.990	2.380	16554	14288	0	316
-36.747	0.469	16452	13965	0	316
-37.649	-2.560	16452	13562	0	316
-39.235	-4.436	16384	13159	0	316
-40.209	-4.111	16384	12836	0	316
-38.983	-2.669	16316	12433	0	316
-36.747	-0.108	16214	11949	0	316
-35.882	1.623	16146	11384	0	316
-37.901	1.046	16044	10901	0	316
-44.897	-3.714	15976	10739	0	316
-56.437	-11.143	15874	10659	0	316
-64.695	-15.975	16044	10739	0	316
-65.597	-17.887	15874	10981	0	316
-58.889	-10.602	15806	11465	0	316
-46.736	-2.488	15806	12110	0	316
-40.642	1.262	15806	12836	0	316
-43.563	2.885	15806	13481	0	316
-52.110	-2.452	15806	14288	0	316
-66.102	-9.629	15806	15175	0	316
-70.646	-13.018	15874	16062	0	316
-67.003	-12.045	15874	16625	0	316
-58.709	-9.665	15874	17109	0	316
-52.254	-3.462	15874	17432	0	316
-49.153	0.721	15806	17754	0	316
-54.526	1.370	15806	17916	0	316
-61.305	-3.173	15806	17996	0	316
-66.462	-10.350	15806	18077	0	316
-67.111	-12.369	15806	18400	0	316
-62.784	-10.746	15976	18803	0	316
-51.352	-0.649	15874	19045	0	316
-40.606	13.091	15874	19125	0	316
-35.882	21.818	15874	19206	0	316
-39.127	18.392	15976	19367	0	316
-48.756	7.970	15976	19448	0	316
-58.420	-3.354	15976	19448	0	316
-59.286	-7.609	15976	19287	0	316
-52.038	-2.308	15976	19287	0	316
-43.238	7.753	15976	19448	0	316
-34.043	16.408	16044	19690	0	316
-31.446	16.372	16146	20093	0	316
-34.187	14.064	16214	20416	0	316
-37.685	9.196	16214	20577	0	316
-42.373	6.996	16316	20819	0	316
-43.202	5.409	16316	20980	0	316
-40.426	9.592	16384	20900	0	316
-34.872	14.533	16384	20577	0	316
-27.587	20.591	16452	20254	1	976
-23.621	26.145	16452	20013	0	976
-23.044	28.669	16452	19690	0	976
-25.604	25.820	16554	19529	0	976
-30.581	19.473	16554	19448	0	976
-33.790	14.713	16554	19125	0	976
-33.790	8.943	16622	18642	0	976
-30.689	8.078	16554	18158	0	976
-28.345	11.287	16554	17674	0	976
-26.325	13.992	16554	17109	0	976
-24.342	18.464	16554	16625	0	976
-24.053	22.358	16554	16223	0	976
-18.356	28.128	16554	15820	0	976
-14.497	30.472	16452	15336	0	976
-11.792	33.285	16452	14772	0	976
-14.461	30.689	16452	14530	0	976
-16.949	27.840	16452	14530	0	976
-20.952	26.758	16554	14772	0	976
-18.716	27.479	16554	15014	0	976
-17.202	30.977	16554	15175	0	976
-15.362	31.699	16554	15417	0	976
-18.897	29.643	16622	15981	0	976
-23.260	27.119	16622	16384	0	976
-26.217	24.270	16724	16706	0	976
-26.145	24.919	16724	16787	0	976
-21.854	25.243	16792	17029	0	976
-20.916	25.856	16792	17351	0	976
-22.070	22.575	16792	17432	0	976
-26.433	19.185	16894	17271	0	976
-31.302	18.680	16792	16867	0	976
-33.357	17.959	16792	16384	0	976
-32.348	21.060	16792	16062	0	976
-31.843	21.601	16724	15659	0	976
-31.085	19.798	16724	15175	0	976
-31.374	20.447	16724	14610	0	976
-29.427	19.365	16724	14368	0	976
-27.479	23.585	16724	14207	0	976
-26.433	23.657	16622	14126	0	976
-26.506	23.044	16622	14046	0	976
-30.436	19.942	16622	13804	0	976
-33.574	13.235	16554	13401	0	976
-36.495	11.576	16554	13078	0	976
-37.072	8.583	16554	12997	0	976
-38.226	9.520	16452	12997	0	976
-36.098	9.484	16452	12997	0	976
-33.213	13.812	16452	12997	0	976
-29.607	15.002	16384	13239	0	976
-25.856	17.815	16384	13723	0	976
-23.621	18.824	16384	13965	0	976
-22.178	22.719	16384	14207	0	976
-18.644	24.053	16384	14530	0	976
-17.887	27.227	16384	14772	0	976
-17.526	27.263	16316	14691	0	976
-22.611	24.162	16316	14530	0	976
-27.479	18.500	16214	14368	0	976
-29.138	18.572	16214	14288	0	976
-28.309	19.149	16146	13965	0	976
-25.063	22.899	16044	13562	0	976
-24.053	23.945	16044	13239	0	976
-25.243	23.585	15976	13159	0	976
-29.318	19.618	15976	13320	0	976
-33.466	13.812	15874	13562	0	976
-36.098	12.874	15874	13965	0	976
-37.144	13.054	15874	14449	0	976
-34.836	15.290	15806	15014	0	976
-30.400	18.969	15806	15497	0	976
-26.686	23.621	15976	15901	0	976
-28.381	21.277	15874	16143	0	976
-29.174	19.942	15874	16384	0	976
-34.223	14.569	15806	16545	0	976
-36.495	12.586	15806	16948	0	976
-35.629	11.468	15874	17593	0	976
-32.384	13.668	15874	18319	0	976
-27.515	20.123	15874	18803	0	976
-20.772	23.549	15874	19125	0	976
-16.877	25.279	16044	19609	0	976
-20.519	24.991	16044	20174	0	976
-24.306	18.680	16146	20738	0	976
-29.679	15.903	16146	20980	0	976
-29.066	16.408	16146	20900	0	976
-26.506	20.087	16214	20658	0	976
-26.938	20.627	16214	20254	0	976
-30.256	18.464	16214	19771	0	976
-37.505	12.586	16214	19287	1	332
-41.435	7.898	16214	18884	0	332
-41.832	7.537	16146	18561	0	332
-37.072	10.783	16146	18238	0	332
-33.429	12.477	16146	17996	0	332
-31.771	12.369	16146	17674	0	332
-32.564	9.917	16146	17351	0	332
-31.807	9.773	16146	17029	0	332
-32.095	10.674	16146	16706	0	332
-32.564	10.927	16146	16545	0	332
-32.492	9.268	16146	16384	0	332
-35.124	9.989	16146	16384	0	332
-37.901	8.186	16214	16706	0	332
-36.098	9.701	16316	17109	0	332
-32.600	13.812	16316	17593	0	332
-28.128	17.454	16384	17996	0	332
-28.128	18.644	16384	18400	0	332
-28.886	19.401	16452	19045	0	332
-31.194	21.385	16554	19690	0	332
-31.158	19.546	16622	19851	0	332
-32.276	19.257	16554	19609	0	332
-32.744	16.048	16554	19287	0	332
-34.980	14.281	16622	18964	0	332
-35.197	12.153	16622	18561	0	332
-35.629	11.360	16622	18077	0	332
-35.016	11.251	16622	17513	0	332
-35.557	8.042	16622	16948	0	332
-37.360	5.878	16622	16384	0	332
-38.118	5.950	16622	15981	0	332
-36.567	7.537	16554	15578	0	332
-35.918	9.629	16554	15255	0	332
-39.163	6.599	16554	14933	0	332
-43.491	0.325	16554	14691	0	332
-48.792	-5.301	16554	14530	0	332
-48.828	-6.022	16554	14288	0	332
-47.602	-2.560	16554	14046	0	332
-43.707	2.849	16452	13884	0	332
-42.084	2.885	16452	13884	0	332
-42.589	0.469	16452	14046	0	332
-46.989	-4.796	16452	14288	0	332
-55.572	-11.287	16452	14530	0	332
-61.882	-15.218	16554	14852	0	332
-65.669	-17.274	16554	15578	0	332
-61.955	-14.894	16622	16464	0	332
-50.992	-4.219	16622	17109	0	332
-38.478	5.878	16724	17351	0	332
-37.577	9.917	16622	17190	0	332
-45.979	3.426	16622	16787	0	332
-61.450	-9.304	16554	16304	0	332
-72.557	-20.880	16554	15578	0	332
-73.783	-22.070	16452	14772	0	332
-65.453	-16.120	16452	14126	0	332
-52.939	-6.563	16384	13643	0	332
-49.477	-2.633	16384	13401	0	332
-52.614	-5.878	16316	13320	0	332
-63.794	-13.307	16316	13320	0	332
-72.881	-20.231	16214	13239	0	332
-80.094	-25.207	16214	13078	0	332
-82.330	-25.171	16146	13078	0	332
-81.103	-24.414	16146	13159	0	332
-80.815	-25.496	16146	13320	0	332
-81.717	-28.056	16146	13401	0	332
-79.625	-27.227	16146	13401	0	332
-78.002	-25.496	16044	13401	0	332
-73.026	-22.358	16044	13481	0	332
-68.410	-17.670	15976	13562	0	332
-66.534	-18.608	15976	13884	0	332
-66.498	-20.664	15976	14449	0	332
-67.111	-21.168	15976	15175	0	332
-64.659	-21.096	15976	15820	0	332
-62.135	-16.805	15976	16384	0	332
-61.450	-15.579	15976	17109	0	332
-63.109	-15.507	16044	17916	0	332
-64.912	-17.454	16044	18803	0	332
-63.938	-16.697	16214	19367	0	332
-59.647	-15.362	16214	19851	0	332
-57.303	-12.874	16316	20174	0	332
-59.214	-14.713	16316	20577	0	332
-65.561	-20.195	16384	20819	0	332
-71.042	-22.791	16384	20738	0	332
-68.915	-19.365	16384	20577	0	332
-63.649	-14.064	16384	20335	0	332
-59.034	-8.294	16384	19851	0	332
-57.158	-7.465	16384	19367	1	332
-60.224	-12.405	16452	18964	0	332
-64.984	-19.221	16452	18722	0	332
-66.931	-20.844	16452	18480	0	332
-67.256	-20.880	16452	18238	0	332
-60.945	-17.815	16452	17835	0	332
-53.372	-11.107	16452	17513	0	332
-50.054	-7.465	16452	17271	0	332
-45.835	-4.977	16452	17029	0	332
-44.897	-4.291	16384	17029	0	332
-45.546	-1.442	16384	17190	0	332
-42.625	4.508	16452	17432	0	332
-38.839	9.448	16452	17754	0	332
-36.567	12.694	16554	18238	0	332
-39.416	9.448	16622	18722	0	332
-41.219	4.977	16622	18884	0	332
-42.012	3.101	16724	18884	0	332
-39.704	7.140	16724	18803	0	332
-32.636	17.166	16724	18480	0	332
-23.765	24.991	16724	17996	0	332
-15.687	30.004	16724	17432	0	332
-13.523	32.780	16724	16706	0	332
-12.297	31.158	16724	15981	0	332
-12.261	30.869	16724	15255	0	332
-13.235	31.013	16622	14691	0	332
-12.838	32.420	16622	14288	0	332
-12.081	34.259	16622	13965	0	332
-11.792	35.990	16554	13643	0	332
-11.468	38.586	16554	13320	0	332
-11.251	37.685	16554	12917	0	332
-10.350	37.000	16384	12675	0	332
-7.970	37.396	16384	12514	0	332
-7.862	36.639	16316	12352	0	332
-6.131	35.593	16384	12352	0	332
-6.852	36.423	16384	12675	0	332
-7.465	37.865	16384	13159	0	332
-6.347	38.839	16384	13643	0	332
-4.724	40.101	16384	14207	0	332
-6.094	36.928	16384	15014	0	332
-12.081	32.131	16452	15901	0	332
-19.149	27.047	16384	16384	0	332
-26.758	24.414	16384	16706	0	332
-26.686	23.332	16384	16867	0	332
-22.719	24.270	16384	17109	0	332
-19.041	26.650	16452	17432	0	332
-14.569	25.893	16452	17674	0	332
-14.785	28.525	16452	17916	0	332
-16.156	27.263	16452	18077	0	332
-19.221	24.162	16554	17996	0	332
-24.955	17.202	16554	17916	0	332
-33.105	11.864	16554	17835	0	332
-38.082	6.924	16554	17754	0	332
-36.026	9.124	16554	17754	0	332
-30.905	16.156	16554	17593	0	332
-24.919	22.755	16554	17190	0	332
-21.132	27.191	16554	16706	0	332
-22.647	27.443	16452	16304	0	332
-22.719	26.938	16452	15820	0	332
-17.634	31.554	16452	15417	0	332
-11.648	38.839	16384	15175	0	332
-6.491	42.517	16384	15255	0	332
-4.724	42.481	16384	15336	0	332
-11.864	37.288	16384	15497	0	332
-21.565	28.525	16452	15981	0	332
-28.669	21.132	16452	16384	0	332
-31.302	18.211	16452	16384	0	332
-26.470	22.286	16452	16384	0	332
-20.375	26.253	16452	16384	0	332
-11.864	32.312	16452	16464	0	332
-11.396	34.547	16452	16464	0	332
-14.208	30.545	16452	16223	0	332
-17.093	25.207	16384	15739	0	332
-22.178	19.978	16384	15336	0	332
-25.496	19.510	16384	15255	0	332
-25.820	18.175	16384	15336	0	332
-26.145	19.798	16316	15417	0	332
-24.017	23.657	16316	15255	0	332
-21.204	25.135	16316	15094	0	332
-21.673	25.424	16214	14772	0	332
-24.089	23.909	16214	14449	0	332
-28.489	16.949	16214	14288	0	332
-34.115	12.802	16146	14368	0	332
-37.216	10.494	16146	14610	0	332
-34.980	11.540	16146	15014	0	332
-30.797	18.175	16146	15417	0	332
-24.847	24.053	16146	15739	0	332
-21.926	30.076	16146	16062	0	332
-21.673	31.230	16146	16384	0	332
-27.299	27.443	16214	16787	0	332
-34.620	17.779	16316	17432	0	332
-41.796	10.314	16316	17835	0	332
-46.340	4.219	16316	17996	0	332
-48.035	1.659	16384	18158	0	332
-48.035	1.983	16384	18400	0	332
-47.097	2.633	16384	18561	0	332
-43.960	5.337	16384	18400	0	332
-43.383	8.871	16384	17835	0	332
-41.760	13.812	16316	17190	0	332
-41.399	14.245	16316	16545	0	332
-40.498	13.956	16214	16143	0	332
-39.524	10.927	16214	15820	0	332
-39.272	8.979	16214	15659	0	332
-36.278	13.668	16214	15820	0	332
-34.475	16.877	16214	16223	0	332
-33.393	21.781	16214	16464	0	332
-32.600	20.808	16214	16706	0	332
-32.600	18.247	16214	16787	0	332
-33.249	12.910	16214	16867	0	332
-33.033	12.766	16214	16867	0	332
-28.633	16.372	16214	16625	0	332
-24.270	23.080	16214	16464	0	332
-23.404	26.470	16214	16223	0	332
-26.830	22.395	16214	15981	0	332
-33.970	15.471	16146	15901	0	332
-39.885	10.061	16146	15981	0	332
-41.363	7.393	16146	16223	0	332
-38.082	12.225	16214	16545	0	332
-35.665	17.454	16214	17271	0	332
-34.006	17.057	16316	18077	0	332
-35.954	16.228	16384	18803	0	332
-38.009	11.684	16384	19367	0	332
-38.406	10.422	16452	19771	0	332
-36.134	10.458	16554	19932	0	332
-34.259	12.045	16554	19771	0	332
-31.771	16.012	16554	19367	0	332
-33.610	16.192	16554	18803	0	332
-33.357	14.497	16554	18077	0	332
-36.459	12.261	16452	17271	1	508
-37.685	7.501	16452	16384	0	508
-36.134	6.239	16384	15578	0	508
-36.242	5.626	16384	14772	0	508
-35.701	10.133	16316	14126	0	508
-35.629	12.405	16316	13481	0	508
-33.754	14.497	16214	12836	0	508
-30.869	18.031	16146	12272	0	508
-26.686	18.211	16044	11788	0	508
-26.722	17.526	16044	11465	0	508
-31.951	11.973	15976	11546	0	508
-38.478	8.871	15976	11949	0	508
-41.327	6.383	16044	12433	0	508
-37.505	8.943	16044	12997	0	508
-31.338	14.821	15976	13643	0	508
-27.443	17.490	16044	14610	0	508
-29.643	12.550	16044	15901	0	508
-35.701	7.537	16146	16787	0	508
-40.137	2.019	16146	17432	0	508
-40.606	1.623	16214	18158	0	508
-39.560	3.426	16214	18964	0	508
-37.541	6.527	16316	19529	0	508
-37.180	9.232	16316	19851	0	508
-37.252	7.321	16384	19932	0	508
-37.541	7.465	16384	20013	0	508
-36.928	6.599	16384	19851	0	508
-34.800	7.285	16384	19609	0	508
-32.961	9.088	16384	19125	0	508
-33.321	8.763	16384	18722	0	508
-35.737	8.439	16384	18319	0	508
-39.488	3.678	16384	17916	0	508
-42.481	2.056	16384	17674	0	508
-43.815	1.479	16384	17513	0	508
-43.960	4.255	16452	17351	0	508
-43.094	7.501	16452	17271	0	508
-39.849	10.710	16452	17190	0	508
-37.468	11.612	16452	17271	0	508
-36.026	10.206	16452	17109	0	508
-36.639	6.527	16452	16948	0	508
-41.219	4.724	16452	16948	0	508
-43.671	2.452	16554	17351	0	508
-43.851	4.472	16622	17835	0	508
-39.560	5.842	16622	18077	0	508
-36.170	8.583	16724	18319	0	508
-32.889	7.898	16724	18400	0	508
-31.482	7.862	16724	18319	0	508
-31.194	8.078	16724	17996	0	508
-33.970	5.157	16792	17754	0	508
-34.656	4.400	16724	17432	0	508
-36.819	2.524	16724	17029	0	508
-36.855	1.659	16724	16706	0	508
-35.305	0.974	16724	16545	0	508
-33.862	-0.974	16724	16384	0	508
-33.898	-3.282	16724	16143	0	508
-37.216	-7.140	16724	15739	0	508
-38.154	-7.717	16724	15255	0	508
-36.639	-4.904	16724	14852	0	508
-38.009	-4.364	16622	14449	0	508
-40.137	-6.311	16622	14126	0	508
-46.772	-14.389	16622	13965	0	508
-57.699	-22.647	16622	13723	0	508
-64.948	-30.833	16554	13643	0	508
-65.777	-32.348	16554	13481	0	508
-64.912	-30.761	16554	13320	0	508
-64.767	-29.427	16452	13239	0	508
-66.859	-30.184	16452	13562	0	508
-70.213	-31.194	16452	13965	0	508
-69.347	-33.934	16384	14288	0	508
-64.984	-32.239	16452	14772	0	508
-60.296	-29.210	16452	15659	0	508
-55.427	-26.542	16554	16464	0	508
-59.899	-25.784	16554	17190	0	508
-63.072	-28.417	16554	17432	0	508
-66.571	-32.600	16622	17432	0	508
-65.705	-33.934	16622	17432	0	508
-62.748	-30.472	16622	17432	0	508
-58.240	-24.775	16622	17513	0	508
-54.886	-18.933	16622	17593	0	508
-57.086	-17.743	16622	17432	0	508
-59.719	-19.005	16622	17190	1	316
-60.188	-22.935	16622	16787	0	316
-61.125	-23.909	16622	16384	0	316
-57.916	-21.204	16622	15981	0	316
-53.588	-17.851	16554	15497	0	316
-53.877	-13.884	16554	14852	0	316
-54.418	-13.884	16452	14288	0	316
-58.024	-16.408	16384	13804	0	316
-62.928	-22.467	16384	13401	0	316
-63.577	-24.883	16316	13159	0	316
-63.866	-25.568	16316	12997	0	316
-60.368	-22.863	16214	12917	0	316
-58.457	-16.589	16214	13078	0	316
-55.103	-14.677	16214	13320	0	316
-55.175	-11.937	16146	13884	0	316
-58.240	-13.992	16214	14610	0	316
-57.375	-16.012	16214	15336	0	316
-59.538	-15.831	16214	15820	0	316
-57.122	-15.471	16214	16304	0	316
-54.309	-11.468	16214	16948	0	316
-52.218	-9.773	16316	17835	0	316
-51.424	-7.753	16384	18722	0	316
-52.723	-8.871	16384	19206	0	316
-54.922	-8.150	16384	19287	0	316
-56.113	-9.412	16384	19045	0	316
-54.995	-9.124	16384	18642	0	316
-53.228	-7.248	16384	18158	0	316
-49.730	-6.347	16384	17754	0	316
-48.900	-7.609	16384	17351	0	316
-50.595	-6.311	16316	17109	0	316
-52.110	-9.412	16316	16787	0	316
-54.670	-11.215	16316	16464	0	316
-57.519	-11.900	16316	16223	0	316
-56.942	-12.802	16214	15820	0	316
-60.909	-12.405	16214	15417	0	316
-61.017	-14.533	16146	15094	0	316
-60.188	-13.668	16146	14852	0	316
-57.591	-10.494	16146	14772	0	316
-52.434	-7.501	16044	14852	0	316
-49.946	-3.606	16044	15094	0	316
-47.386	-1.370	16214	15659	0	316
-47.386	-0.288	16214	16384	0	316
-47.530	0.721	16214	16787	0	316
-46.304	1.947	16214	17109	0	316
-45.979	2.596	16316	17593	0	316
-47.926	0.829	16316	18077	0	316
-48.323	-4.724	16316	18400	0	316
-52.723	-8.402	16384	18561	0	316
-48.395	-6.419	16384	18561	0	316
-37.937	3.606	16384	18400	0	316
-22.935	17.454	16384	18158	0	316
-10.314	28.345	16384	17996	0	316
-6.131	31.266	16384	17754	0	316
-12.658	24.017	16384	17432	0	316
-22.899	16.625	16384	17029	0	316
-26.614	13.307	16384	16706	0	316
-21.529	21.349	16384	16545	0	316
-14.064	28.669	16316	16384	0	316
-6.744	33.033	16316	16223	0	316
-8.727	31.122	16316	16143	0	316
-14.389	27.263	16316	15901	0	316
-17.093	23.440	16316	15659	0	316
-17.706	23.837	16316	15497	0	316
-13.054	26.506	16214	15497	0	316
-9.160	29.427	16214	15417	0	316
-11.107	28.669	16214	15578	0	316
-13.018	27.515	16214	15739	0	316
-15.939	26.001	16214	15901	0	316
-17.454	26.866	16214	16062	0	316
-12.261	28.850	16316	16304	0	316
-8.583	32.997	16316	16464	0	316
-5.517	36.495	16316	16787	0	316
-2.813	36.783	16316	16867	0	316
-4.616	36.459	16316	16787	0	316
-3.823	36.098	16316	16545	0	316
-3.967	37.973	16316	16304	0	316
-3.354	38.370	16214	15981	0	316
-4.760	37.360	16214	15739	0	316
-9.088	35.197	16214	15578	0	316
-12.405	33.610	16214	15497	0	316
-14.389	32.059	16146	15417	0	316
-16.733	31.446	16146	15336	0	316
-16.192	32.672	16146	15336	0	316
-17.779	30.869	16146	15497	0	316
-20.195	30.941	16214	15659	0	316
-22.683	29.499	16214	15739	0	316
-22.863	31.482	16316	15739	0	316
-19.654	36.026	16146	15578	0	316
-18.752	37.396	16146	15497	0	316
-16.589	36.675	16146	15497	0	316
-18.788	33.249	16146	15578	0	316
-20.627	28.489	16146	15901	0	316
-23.440	26.433	16146	16223	0	316
-26.758	23.080	16146	16625	0	316
-30.220	18.247	16214	17351	0	316
-36.855	11.828	16214	18077	0	316
-39.812	8.691	16316	18561	0	316
-37.252	10.891	16316	18884	0	316
-29.210	21.096	16384	18964	0	316
-21.277	27.587	16384	18884	0	316
-17.057	33.177	16384	18642	0	316
-15.435	35.557	16384	18400	0	316
-17.166	35.665	16384	18158	0	316
-17.634	35.052	16384	17916	0	316
-20.555	31.987	16384	17674	0	316
-23.873	27.551	16384	17351	0	316
-28.309	22.972	16384	17029	0	316
-28.309	22.034	16384	16625	0	316
-25.820	25.856	16316	16304	0	316
-19.870	29.318	16316	15981	0	316
-19.005	32.925	16316	15820	0	316
-19.005	31.771	16316	15578	0	316
-21.096	30.076	16316	15255	0	316
-22.358	26.686	16214	14852	0	316
-20.519	26.001	16214	14449	0	316
-21.349	26.578	16214	14368	0	316
-19.005	27.876	16146	14368	0	316
-17.743	29.246	16146	14449	0	316
-15.254	30.472	16146	14772	0	316
-14.785	30.689	16146	15255	0	316
-13.704	27.840	16214	15659	0	316
-15.362	26.542	16214	15739	0	316
-15.975	22.719	16214	15659	0	316
-16.480	20.808	16214	15820	0	316
-18.103	17.598	16214	16143	0	316
-19.978	15.795	16214	16384	0	316
-21.709	14.136	16214	16464	0	316
-25.027	13.523	16214	16545	0	316
-22.935	12.730	16214	16464	0	316
-22.034	13.992	16214	16384	0	316
-25.388	11.612	16214	16143	0	316
-28.273	7.068	16146	15820	0	316
-34.656	3.029	16146	15578	0	316
-39.163	0.000	16146	15497	0	316
-39.885	-1.370	16146	15417	0	316
-36.387	1.839	16044	15336	0	316
-33.718	2.993	16044	15336	0	316
-31.518	6.563	16044	15336	0	316
-30.581	5.590	16044	15336	0	316
-31.807	4.255	15976	15417	0	316
-34.151	4.183	16044	15820	0	316
-39.380	1.947	16146	16384	0	316
-43.815	0.829	16214	16948	0	316
-44.969	-0.397	16214	17513	0	316
-43.815	-0.397	16214	18319	0	316
-41.291	-0.685	16316	19206	0	316
-39.199	0.036	16384	19932	0	316
-39.668	1.370	16452	20496	0	316
-39.957	2.092	16554	21061	0	316
-43.815	-0.829	16554	21384	0	316
-48.612	-6.275	16554	21384	0	316
-52.470	-11.973	16622	21142	0	316
-56.906	-15.002	16724	20738	0	316
-54.598	-15.254	16622	20174	0	316
-50.920	-10.458	16622	19529	0	316
-47.313	-7.176	16622	18964	1	620
-51.244	-9.124	16622	18400	0	620
-57.555	-16.084	16622	17674	0	620
-67.003	-23.765	16622	16948	0	620
-73.567	-29.968	16554	16304	0	620
-76.560	-32.456	16554	15659	0	620
-73.026	-27.155	16554	15094	0	620
-66.498	-20.736	16452	14530	0	620
-59.286	-12.802	16452	14046	0	620
-54.454	-8.114	16452	13643	0	620
-53.264	-8.402	16384	13481	0	620
-58.853	-13.668	16384	13481	0	620
-61.846	-17.562	16384	13562	0	620
-62.748	-19.942	16384	13643	0	620
-59.719	-18.211	16384	13804	0	620
-54.418	-12.694	16384	14288	0	620
-53.588	-10.025	16384	14772	0	620
-54.850	-10.710	16452	15175	0	620
-57.194	-11.323	16452	15578	0	620
-59.755	-10.097	16452	15981	0	620
-57.483	-10.097	16452	16062	0	620
-55.391	-6.852	16452	16143	0	620
-55.608	-6.455	16452	16143	0	620
-56.185	-7.753	16452	16062	0	620
-62.207	-14.136	16452	15820	0	620
-68.482	-20.916	16384	15497	0	620
-68.878	-24.053	16384	15336	0	620
-66.967	-21.673	16384	15255	0	620
-58.420	-15.182	16384	15094	0	620
-52.614	-5.914	16316	14933	0	620
-50.920	-2.885	16316	14852	0	620
-55.824	-4.219	16316	14852	0	620
-56.617	-9.665	16316	14852	0	620
-53.660	-8.114	16214	14772	0	620
-47.926	-6.203	16214	14772	0	620
-41.760	-2.164	16214	14852	0	620
-39.957	-0.541	16214	14933	0	620
-41.507	1.442	16146	14933	0	620
-42.589	2.272	16146	15094	0	620
-41.399	4.868	16146	15417	0	620
-38.009	9.124	16214	15981	0	620
-33.249	11.107	16214	16384	0	620
-30.400	12.261	16214	16948	0	620
-26.506	12.982	16214	17593	0	620
-20.916	15.939	16316	18158	0	620
-15.290	22.899	16316	18480	0	620
-7.285	30.617	16316	18561	0	620
-3.823	35.918	16384	18803	0	620
-7.321	35.701	16384	19045	0	620
-15.723	31.987	16452	19287	0	620
-22.178	24.162	16452	19448	0	620
-26.181	18.969	16452	19529	0	620
-23.873	18.500	16554	19448	0	620
-18.320	20.808	16554	19125	0	620
-16.805	24.991	16554	18642	0	620
-13.451	28.561	16554	18077	0	620
-14.569	29.787	16452	17432	0	620
-14.317	28.164	16452	16706	0	620
-14.461	25.207	16452	16223	0	620
-16.300	22.539	16384	15739	0	620
-16.120	22.683	16384	15255	0	620
-15.254	25.279	16316	14610	0	620
-11.612	27.948	16316	14046	0	620
-10.963	28.381	16214	13723	0	620
-10.206	25.929	16214	13723	0	620
-14.713	20.627	16214	13884	0	620
-23.224	12.261	16214	14207	0	620
-28.669	9.160	16214	14610	0	620
-31.554	7.212	16214	15336	0	620
-32.131	7.248	16316	15981	0	620
-32.167	7.537	16316	16304	0	620
-32.276	7.717	16316	16464	0	620
-34.006	7.645	16316	16867	0	620
-36.242	5.445	16384	17351	0	620
-36.351	5.337	16384	17754	0	620
-37.432	4.039	16384	17916	0	620
-39.921	2.308	16452	17996	0	620
-41.327	1.190	16452	18158	0	620
-42.914	5.085	16452	18238	0	620
-39.957	8.655	16452	18158	0	620
-35.629	12.009	16452	17916	0	620
-30.941	16.661	16452	17593	0	620
-23.440	20.952	16452	17190	0	620
-19.834	20.447	16452	16948	0	620
-16.805	24.594	16452	16787	0	620
-14.353	28.020	16452	16706	0	620
-13.884	28.741	16452	16706	0	620
-16.625	28.273	16554	16625	0	620
-18.428	27.191	16452	16464	0	620
-22.286	26.578	16554	16384	0	620
-25.424	25.965	16554	16464	0	620
-23.945	27.191	16554	16545	0	620
-23.440	27.010	16554	16464	0	620
-24.198	24.486	16554	16384	0	620
-22.719	22.395	16554	16304	0	620
-24.486	21.818	16554	16223	0	620
-26.325	24.342	16554	16143	0	620
-24.739	26.001	16554	16223	0	620
-28.561	23.332	16554	16304	0	620
-34.728	18.211	16554	16143	0	620
-40.570	12.297	16554	15981	0	620
-43.960	8.042	16554	16143	0	620
-44.320	8.006	16554	16384	0	620
-42.301	8.835	16622	16545	0	620
-37.757	9.989	16622	16625	0	620
-37.757	10.710	16622	16545	0	620
-37.180	9.773	16622	16384	0	620
-33.718	13.848	16622	16384	0	620
-27.335	20.267	16622	16304	0	620
-22.575	23.512	16554	16304	0	620
-18.933	24.270	16554	16223	0	620
-22.395	23.008	16554	16143	0	620
-25.893	18.320	16554	16062	0	620
-29.246	18.175	16554	16062	0	620
-27.948	20.483	16554	16143	0	620
-24.017	23.440	16554	16062	0	620
-21.890	25.748	16554	15820	0	620
-25.099	21.024	16554	15578	0	620
-31.194	18.644	16554	15417	0	620
-37.216	12.910	16452	15417	0	620
-39.272	13.235	16452	15336	0	620
-35.990	13.343	16452	15336	0	620
-30.400	18.211	16452	15578	0	620
-26.902	19.113	16452	15901	0	620
-26.902	19.510	16554	16062	0	620
-31.987	14.208	16554	16143	0	620
-37.613	11.215	16554	16304	0	620
-39.308	8.835	16554	16384	0	620
-37.865	8.547	16554	16464	0	620
-35.593	10.278	16554	16464	0	620
-34.079	10.891	16554	16625	0	620
-35.557	10.674	16554	16706	0	620
-38.045	8.006	16554	16625	0	620
-37.144	9.088	16554	16464	0	620
-35.197	13.018	16452	16384	0	620
-28.886	17.057	16554	16143	0	620
-24.666	23.008	16554	15820	0	620
-24.125	23.260	16452	15417	0	620
-24.630	20.519	16452	15094	0	620
-24.919	18.392	16384	14691	0	620
-26.073	14.966	16384	14207	0	620
-26.073	16.228	16316	13643	0	620
-26.722	17.021	16214	13239	0	620
-27.443	15.362	16214	12997	0	620
-32.312	12.730	16214	13078	0	620
-36.855	9.773	16146	13239	0	620
-38.045	6.780	16146	13643	0	620
-38.695	8.006	16146	14288	0	620
-37.324	8.907	16146	15014	0	620
-34.079	10.819	16146	15417	0	620
-30.761	11.396	16146	15659	0	620
-30.797	14.208	16146	15981	0	620
-31.374	13.559	16146	16384	0	620
-33.538	15.326	16146	16545	0	620
-36.855	12.117	16146	16787	0	620
-40.930	7.357	16146	17109	0	620
-41.760	3.606	16146	17351	0	620
-40.353	3.426	16146	17674	0	620
-35.846	6.888	16146	18158	0	620
-31.518	11.287	16214	18480	0	620
-27.732	13.054	16214	18561	0	620
-26.145	15.651	16214	18561	0	620
-25.856	16.120	16316	18561	0	620
-25.676	18.392	16316	18642	0	620
-25.820	17.346	16316	18642	0	620
-28.237	15.759	16316	18642	0	620
-28.128	12.369	16384	18561	0	620
-28.201	10.530	16384	18319	0	620
-25.388	13.920	16316	17916	0	620
-22.683	16.012	16316	17513	0	620
-23.621	17.562	16316	17271	0	620
-27.876	15.435	16316	17351	0	620
-32.997	11.612	16384	17916	0	620
-36.423	8.907	16452	18722	0	620
-36.170	7.321	16452	19125	0	620
-37.324	7.393	16554	19367	0	620
-39.921	5.878	16554	19448	0	620
-45.186	1.947	16622	19609	0	620
-48.720	1.767	16554	19529	0	620
-48.035	1.370	16622	19367	0	620
-44.356	4.544	16622	19045	0	620
-40.966	6.924	16622	18480	0	620
-39.704	5.662	16622	17674	1	728
-39.957	3.101	16554	16787	0	728
-40.642	2.056	16554	16223	0	728
-39.668	2.705	16554	15659	0	728
-38.514	4.219	16554	15336	0	728
-38.045	4.904	16554	15094	0	728
-40.426	3.173	16554	14933	0	728
-39.812	3.606	16554	14933	0	728
-34.800	7.321	16554	15014	0	728
-27.660	12.730	16554	15014	0	728
-20.916	20.267	16554	15094	0	728
-17.598	22.647	16554	15255	0	728
-20.483	25.099	16554	15336	0	728
-23.080	24.234	16554	15336	0	728
-24.883	23.621	16554	15175	0	728
-23.981	25.388	16554	15094	0	728
-21.890	23.693	16554	15094	0	728
-23.585	22.358	16554	15014	0	728
-25.748	19.834	16452	14933	0	728
-26.325	16.985	16452	14933	0	728
-26.217	18.464	16452	14852	0	728
-25.099	20.123	16452	14691	0	728
-23.837	22.214	16452	14610	0	728
-25.243	22.467	16452	14530	0	728
-30.184	18.067	16384	14449	0	728
-33.429	14.677	16384	14449	0	728
-35.810	11.792	16384	14610	0	728
-33.429	12.297	16384	14772	0	728
-29.030	16.264	16384	15014	0	728
-21.168	18.572	16384	15255	0	728
-17.202	23.765	16384	15578	0	728
-11.468	25.316	16384	15820	0	728
-9.412	28.597	16384	15981	0	728
-6.960	30.184	16384	16062	0	728
-6.347	32.744	16316	15981	0	728
-7.645	31.915	16316	15820	0	728
-12.838	30.328	16316	15659	0	728
-18.103	28.741	16214	15336	0	728
-23.476	25.712	16316	15094	0	728
-25.460	24.053	16214	15175	0	728
-26.614	24.414	16214	15578	0	728
-26.433	23.368	16214	16143	0	728
-23.765	22.935	16214	16545	0	728
-22.719	24.847	16316	17109	0	728
-24.378	22.358	16316	17754	0	728
-27.083	17.129	16384	18319	0	728
-35.774	11.973	16384	18722	0	728
-44.501	5.806	16384	18722	0	728
-48.215	3.462	16384	18642	0	728
-43.635	7.537	16384	18480	0	728
-36.603	11.937	16452	18400	0	728
-30.545	15.182	16384	18077	0	728
-28.850	13.523	16384	17674	0	728
-31.194	12.225	16384	17190	0	728
-32.023	12.946	16384	16545	0	728
-29.571	16.516	16316	16143	0	728
-25.640	22.178	16316	15820	0	728
-22.286	24.883	16316	15659	0	728
-23.296	23.837	16214	15417	0	728
-22.791	22.791	16214	15094	0	728
-21.890	19.618	16214	15014	0	728
-23.188	20.447	16214	14933	0	728
-23.909	16.697	16146	14691	0	728
-26.902	16.120	16146	14207	0	728
-29.210	14.858	16044	14046	0	728
-30.112	15.182	16044	14207	0	728
-32.600	12.153	16044	14691	0	728
-34.836	9.124	16044	15175	0	728
-40.642	2.596	16044	15739	0	728
-41.075	0.613	16146	16545	0	728
-38.514	2.813	16214	17432	0	728
-34.547	7.032	16316	18158	0	728
-33.826	10.746	16316	18561	0	728
-36.098	9.124	16384	18884	0	728
-39.812	8.366	16384	19287	0	728
-40.822	6.239	16452	19690	0	728
-35.269	7.717	16452	19771	0	728
-28.381	9.412	16554	19851	0	728
-26.289	13.271	16554	19771	0	728
-28.164	13.812	16452	19448	0	728
-34.331	11.287	16452	18803	0	728
-37.865	11.251	16452	18077	0	728
-36.855	9.881	16384	17271	1	328
-29.931	13.379	16384	16545	0	328
-21.673	20.159	16384	15901	0	328
-19.149	21.998	16316	15094	0	328
-20.700	20.591	16214	14288	0	328
-26.650	15.290	16214	13562	0	328
-35.521	6.239	16214	13159	0	328
-40.966	1.190	16214	12997	0	328
-41.652	-0.288	16146	13078	0	328
-41.255	1.947	16146	13239	0	328
-38.875	4.724	16146	13401	0	328
-39.632	7.429	16146	13723	0	328
-39.091	5.806	16146	14288	0	328
-42.878	3.823	16146	14933	0	328
-46.412	0.721	16146	15497	0	328
-45.366	-1.803	16146	15901	0	328
-44.825	0.613	16214	16464	0	328
-39.127	4.147	16214	17190	0	328
-32.925	8.006	16214	17674	0	328
-30.545	10.674	16316	17916	0	328
-33.357	9.448	16316	17916	0	328
-39.993	9.520	16316	17916	0	328
-43.455	8.871	16316	17916	0	328
-41.003	11.612	16316	17996	0	328
-33.538	18.320	16316	17996	0	328
-24.450	19.437	16316	17916	0	328
-20.844	21.457	16316	17835	0	328
-20.087	19.654	16316	17754	0	328
-25.243	19.437	16316	17593	0	328
-28.850	16.805	16316	17271	0	328
-32.456	16.769	16316	16787	0	328
-34.872	14.605	16316	16384	0	328
-37.865	11.900	16316	16223	0	328
-41.003	7.753	16214	15901	0	328
-43.166	3.570	16214	15659	0	328
-43.130	2.308	16214	15497	0	328
-39.524	2.308	16214	15417	0	328
-35.521	3.354	16214	15497	0	328
-32.312	6.275	16316	15820	0	328
-32.131	7.321	16316	16384	0	328
-33.105	8.258	16316	16625	0	328
-34.187	8.763	16384	16948	0	328
-34.800	8.042	16384	17351	0	328
-34.151	7.537	16452	17674	0	328
-32.492	8.979	16452	17835	0	328
-28.958	12.333	16452	17754	0	328
-23.585	16.156	16452	17593	0	328
-19.365	20.627	16384	17271	0	328
-20.700	22.935	16384	16787	0	328
-23.152	20.050	16316	16384	0	328
-25.532	20.483	16384	15901	0	328
-26.397	19.257	16384	15578	0	328
-23.621	19.762	16384	15417	0	328
-23.440	21.818	16384	15417	0	328
-25.316	18.752	16316	15417	0	328
-30.689	15.326	16316	15497	0	328
-33.393	10.494	16316	15659	0	328
-35.233	6.960	16316	15820	0	328
-36.351	8.330	16316	15901	0	328
-36.278	9.701	16316	15901	0	328
-35.557	8.763	16316	15739	0	328
-36.314	8.114	16384	15659	0	328
-37.685	3.931	16316	15901	0	328
-38.298	3.137	16384	16384	0	328
-39.488	1.947	16384	16867	0	328
-40.858	3.642	16384	17432	0	328
-37.937	6.563	16452	18158	0	328
-34.331	9.124	16452	18803	0	328
-34.583	10.891	16622	19367	0	328
-34.692	10.350	16622	19690	0	328
-34.223	9.376	16724	20013	0	328
-34.656	8.511	16724	20254	0	328
-29.499	11.756	16724	20254	0	328
-24.991	17.274	16724	19932	0	328
-22.286	19.257	16792	19448	0	328
-24.450	19.546	16792	18964	0	328
-28.561	15.110	16792	18400	0	328
-29.968	14.713	16792	17674	0	328
-29.968	14.821	16792	16948	0	328
-25.243	19.005	16724	16384	1	316
-25.388	18.031	16724	15659	0	316
-29.282	15.326	16724	15014	0	316
-35.593	8.330	16622	14610	0	316
-40.029	5.157	16622	14368	0	316
-39.308	5.698	16554	14126	0	316
-35.233	8.799	16554	13723	0	316
-32.203	10.710	16452	13239	0	316
-32.816	9.809	16452	12836	0	316
-36.278	5.409	16384	12594	0	316
-39.019	2.885	16384	12433	0	316
-40.281	2.993	16384	12594	0	316
-36.314	7.681	16384	13078	0	316
-31.915	14.317	16384	13562	0	316
-26.073	21.781	16316	13884	0	316
-25.676	21.349	16316	14126	0	316
-26.397	20.447	16316	14530	0	316
-26.037	17.706	16384	15014	0	316
-26.145	19.726	16384	15497	0	316
-21.313	21.529	16384	15820	0	316
-18.752	24.486	16384	15981	0	316
-20.159	26.433	16384	15981	0	316
-22.250	22.106	16316	15820	0	316
-26.145	18.680	16316	15659	0	316
-28.345	17.057	16316	15417	0	316
-32.492	12.622	16214	15336	0	316
-32.239	9.629	16316	15417	0	316
-32.420	9.701	16316	15578	0	316
-30.436	10.819	16316	15739	0	316
-28.237	10.855	16316	16062	0	316
-30.689	10.133	16316	16384	0	316
-35.088	6.275	16316	16625	0	316
-39.993	3.823	16316	16787	0	316
-40.065	5.373	16316	16948	0	316
-35.160	10.710	16316	17029	0	316
-32.276	16.516	16316	17109	0	316
-31.085	17.093	16316	17271	0	316
-34.728	13.379	16384	17513	0	316
-38.911	10.855	16384	17916	0	316
-40.786	6.131	16384	18158	0	316
-39.596	6.960	16384	18238	0	316
-37.000	7.609	16452	18319	0	316
-35.990	10.855	16452	18480	0	316
-36.134	9.196	16452	18561	0	316
-37.577	8.078	16452	18400	0	316
-38.190	5.698	16452	18077	0	316
-38.370	2.380	16452	17674	0	316
-39.272	1.695	16452	17351	0	316
-38.009	4.003	16452	17109	0	316
-39.921	5.698	16452	16867	0	316
-41.868	5.229	16384	16464	0	316
-41.832	4.868	16384	16223	0	316
-37.721	5.049	16384	16062	0	316
-32.672	4.400	16384	15820	0	316
-27.587	8.294	16384	15659	0	316
-27.155	8.619	16384	15417	0	316
-31.554	5.914	16316	15336	0	316
-38.514	3.065	16316	15417	0	316
-41.435	0.072	16316	15417	0	316
-40.966	-1.298	16316	15417	0	316
-38.118	1.587	16316	15336	0	316
-34.115	5.698	16316	15175	0	316
-32.925	6.852	16316	15255	0	316
-33.970	8.835	16316	15497	0	316
-35.918	6.888	16316	15901	0	316
-39.849	5.626	16316	16384	0	316
-42.229	2.272	16384	17029	0	316
-43.671	0.144	16384	17593	0	316
-41.399	2.164	16384	17754	0	316
-33.502	8.366	16384	17674	0	316
-24.198	19.726	16384	17513	0	316
-15.038	28.201	16384	17351	0	316
-17.490	29.354	16452	17432	0	316
-23.332	20.916	16452	17593	0	316
-33.177	11.504	16452	17674	0	316
-36.639	5.085	16452	17754	0	316
-33.321	5.229	16452	17593	0	316
-28.705	8.835	16452	17432	0	316
-28.309	11.251	16452	17271	0	316
-30.400	10.783	16554	17271	0	316
-34.187	8.727	16554	17351	0	316
-35.954	8.943	16554	17513	0	316
-34.836	7.681	16554	17593	0	316
-33.429	8.655	16554	17593	0	316
-34.547	6.383	16554	17513	0	316
-35.665	4.616	16554	17351	0	316
-36.495	4.472	16554	17029	0	316
-35.629	5.698	16554	16787	0	316
-34.475	7.465	16554	16625	0	316
-32.312	13.379	16554	16384	0	316
-30.761	13.379	16554	16384	0	316
-31.013	13.487	16554	16464	0	316
-34.295	11.396	16622	16867	0	316
-35.305	8.114	16622	17109	0	316
-36.819	5.734	16622	16948	0	316
-35.954	7.248	16622	16787	0	316
-35.052	9.665	16622	16706	0	316
-31.987	13.199	16622	16545	0	316
-28.561	18.572	16622	16304	0	316
-25.640	19.365	16622	16062	0	316
-23.152	20.519	16622	15901	0	316
-24.306	17.779	16554	15659	0	316
-27.840	16.012	16622	15094	0	316
-32.636	11.323	16554	14530	0	316
-33.357	10.566	16554	13965	0	316
-32.420	11.504	16452	13481	0	316
-30.869	12.838	16384	13159	0	316
-29.102	14.533	16316	12917	0	316
-30.076	15.795	16384	12594	0	316
-33.646	14.317	16316	12514	0	316
-35.918	15.182	16214	12433	0	316
-38.045	14.461	16214	12514	0	316
-38.442	13.163	16214	12917	0	316
-35.377	14.497	16316	13562	0	316
-33.285	11.179	16214	14368	0	316
-33.033	10.422	16214	15094	0	316
-36.098	8.186	16316	15901	0	316
-40.462	3.678	16316	16464	0	316
-41.616	4.904	16316	16867	0	316
-37.649	7.934	16316	17109	0	316
-28.886	16.949	16316	17351	0	316
-22.899	22.719	16384	17674	0	316
-23.981	24.378	16384	17835	0	316
-28.669	17.743	16384	17754	0	316
-32.816	15.723	16384	17674	0	316
-30.220	13.018	16384	17674	0	316
-22.899	18.860	16316	17513	0	316
-17.382	21.998	16316	17271	0	316
-18.752	21.457	16316	16948	0	316
-27.443	13.595	16316	16625	0	316
-33.934	8.655	16316	16464	0	316
-36.964	4.977	16214	16384	0	316
-34.223	6.563	16214	16143	0	316
-34.836	7.429	16214	15901	0	316
-33.826	7.285	16146	15417	0	316
-37.432	5.590	16146	15094	0	316
-42.878	3.750	16044	14852	0	316
-43.202	4.039	16044	14772	0	316
-45.546	5.157	16044	14772	0	316
-46.484	4.868	15976	14852	0	316
-45.546	3.318	15976	14852	0	316
-40.930	7.537	16044	15094	0	316
-34.151	12.117	16044	15659	0	316
-28.705	14.858	16044	16304	0	316
-27.047	18.067	16146	16625	0	316
-31.302	13.631	16146	17109	0	316
-33.754	10.133	16146	17754	0	316
-34.367	12.694	16214	18480	0	316
-27.840	18.897	16214	19045	0	316
-18.211	29.174	16316	19367	0	316
-14.821	31.951	16316	19609	0	316
-18.572	30.725	16384	19851	0	316
-23.621	23.981	16384	20093	0	316
-28.886	17.021	16452	20174	0	316
-28.705	14.677	16452	20093	0	316
-26.325	16.264	16452	19851	0	316
-25.099	17.923	16452	19367	0	316
-24.378	20.087	16452	18722	0	316
-28.309	18.139	16452	18158	1	632
-32.131	16.372	16452	17674	0	632
-32.203	13.704	16452	17190	0	632
-31.338	15.975	16452	16706	0	632
-27.551	15.903	16384	16304	0	632
-21.601	19.113	16384	15901	0	632
-20.159	18.211	16384	15659	0	632
-19.870	18.139	16384	15417	0	632
-21.854	17.815	16384	15417	0	632
-23.512	21.493	16384	15578	0	632
-19.401	26.397	16384	15659	0	632
-16.012	29.931	16384	15739	0	632
-11.828	29.823	16384	15901	0	632
-13.307	26.433	16452	16143	0	632
-18.139	21.349	16452	16384	0	632
-23.693	16.805	16452	16464	0	632
-27.263	19.437	16452	16625	0	632
-25.856	21.421	16452	16706	0	632
-23.549	23.404	16452	16545	0	632
-24.017	21.385	16452	16384	0	632
-27.155	16.444	16452	15901	0	632
-30.076	11.756	16452	15497	0	632
-30.436	11.792	16384	14933	0	632
-29.246	11.071	16384	14368	0	632
-31.374	11.540	16316	13884	0	632
-34.980	8.330	16316	13401	0	632
-38.839	4.724	16214	12997	0	632
-40.534	4.760	16146	12755	0	632
-37.613	7.321	16146	12675	0	632
-32.420	9.448	16044	12755	0	632
-27.840	14.461	16044	12836	0	632
-26.578	14.785	16044	13159	0	632
-26.433	17.274	16044	13643	0	632
-28.128	17.238	16044	14449	0	632
-30.545	18.356	16044	15417	0	632
-33.466	16.264	16146	16304	0	632
-33.466	17.526	16146	17190	0	632
-30.400	19.077	16214	18319	0	632
-26.866	22.899	16316	19287	0	632
-24.198	21.781	16316	19851	0	632
-25.171	19.473	16384	20093	0	632
-28.633	13.668	16452	20335	0	632
-32.276	10.061	16452	20658	0	632
-32.312	10.710	16554	20738	0	632
-28.669	16.156	16554	20496	0	632
-24.378	22.827	16554	20013	0	632
-21.096	26.001	16554	19367	0	632
-24.270	24.234	16554	18884	0	632
-29.210	19.257	16554	18400	0	632
-36.459	11.828	16554	17754	0	632
-39.199	11.179	16452	16948	0	632
-36.747	11.937	16452	16143	0	632
-30.941	17.274	16384	15417	0	632
-27.191	19.185	16384	14852	0	632
-27.010	18.644	16384	14530	0	632
-30.869	14.172	16316	14288	0	632
-35.124	10.422	16316	13965	0	632
-37.144	10.710	16214	13562	0	632
-35.124	11.360	16214	13320	0	632
-32.095	13.920	16146	13239	0	632
-27.768	19.329	16146	13159	0	632
-23.657	21.529	16146	13239	0	632
-23.476	24.775	16044	13320	0	632
-21.673	27.119	16044	13643	0	632
-25.893	25.712	16146	14046	0	632
-27.876	22.322	16146	14691	0	632
-30.581	19.582	16316	15417	0	632
-32.456	16.805	16214	15981	0	632
-33.790	16.480	16214	16304	0	632
-35.160	13.668	16214	16384	0	632
-34.908	13.307	16146	16384	0	632
-35.197	10.242	16146	16384	0	632
-33.754	9.160	16146	16545	0	632
-30.472	12.261	16146	16625	0	632
-27.227	14.172	16146	16706	0	632
-26.686	14.100	16146	16867	0	632
-27.155	13.668	16214	17190	0	632
-29.354	10.746	16214	17271	0	632
-31.735	9.124	16146	17271	0	632
-30.400	12.081	16146	17190	1	316
-27.191	15.903	16146	17029	0	316
-24.162	19.690	16146	16867	0	316
-22.935	20.339	16146	16706	0	316
-23.945	20.844	16146	16545	0	316
-24.234	19.113	16146	16464	0	316
-20.880	23.368	16214	16384	0	316
-18.464	25.640	16214	16545	0	316
-17.562	26.902	16214	16867	0	316
-23.116	25.460	16214	17351	0	316
-30.689	19.546	16316	17835	0	316
-36.603	14.605	16316	18319	0	316
-38.298	14.858	16384	18884	0	316
-36.423	16.120	16384	19367	0	316
-35.197	15.867	16452	19690	0	316
-35.160	18.247	16452	19771	0	316
-37.829	14.605	16554	19690	0	316
-38.154	15.687	16554	19690	0	316
-36.603	15.074	16554	19609	0	316
-37.180	15.398	16554	19206	0	316
-38.803	11.287	16554	18642	0	316
-41.363	8.186	16452	17996	0	316
-41.652	6.744	16452	17432	0	316
-40.029	8.655	16452	16867	0	316
-33.682	14.713	16452	16304	0	316
-25.965	23.296	16384	15659	0	316
-23.765	26.794	16384	15014	0	316
-24.991	26.794	16384	14449	0	316
-29.030	26.650	16316	14207	0	316
-33.177	21.673	16316	14126	0	316
-33.862	21.493	16316	14126	0	316
-30.184	23.801	16316	14046	0	316
-24.450	26.037	16316	13965	0	316
-19.942	27.551	16316	14126	0	316
-18.283	27.984	16384	14449	0	316
-23.368	23.873	16384	14933	0	316
-28.994	16.877	16384	15578	0	316
-35.160	12.117	16452	16384	0	316
-38.658	7.898	16384	17271	0	316
-39.524	6.924	16452	17754	0	316
-37.721	8.042	16452	17916	0	316
-37.757	9.989	16554	17996	0	316
-37.324	9.196	16554	18238	0	316
-35.665	8.619	16554	18077	0	316
-31.915	11.107	16554	17593	0	316
-27.912	15.435	16554	17029	0	316
-26.686	16.625	16452	16464	0	316
-30.508	16.697	16452	16062	0	316
-35.990	9.268	16452	15739	0	316
-41.976	1.515	16452	15497	0	316
-44.428	-0.505	16452	15336	0	316
-40.678	0.505	16452	15336	0	316
-36.928	8.763	16452	15417	0	316
-36.062	12.369	16452	15336	0	316
-38.514	11.792	16384	15336	0	316
-44.284	6.311	16384	15336	0	316
-49.621	1.659	16384	15336	0	316
-52.254	-2.416	16384	15255	0	316
-49.549	-1.190	16384	15417	0	316
-44.212	4.436	16384	15659	0	316
-38.334	9.340	16452	16143	0	316
-33.754	13.451	16452	16706	0	316
-32.672	15.218	16554	17432	0	316
-35.160	14.245	16554	18077	0	316
-39.019	8.979	16622	18400	0	316
-44.861	2.957	16622	18480	0	316
-46.881	-0.072	16622	18480	0	316
-45.222	-0.180	16724	18400	0	316
-39.380	5.481	16724	18238	0	316
-33.429	11.540	16724	17916	0	316
-31.987	12.982	16622	17674	0	316
-34.079	11.900	16724	17432	0	316
-39.416	6.708	16724	17029	0	316
-45.835	1.406	16622	16625	0	316
-51.569	-1.623	16622	16304	0	316
-53.913	-4.688	16554	15901	0	316
-56.293	-5.770	16554	15417	0	316
-52.903	-3.787	16554	14933	0	316
-47.999	-1.010	16452	14530	0	316
-42.373	2.669	16452	14126	0	316
-44.933	3.678	16384	13723	0	316
-48.684	2.056	16384	13481	0	316
-52.542	-2.416	16384	13562	0	316
-57.050	-4.147	16384	13723	0	316
-55.680	-8.114	16316	13884	0	316
-53.516	-8.006	16316	14126	0	316
-47.349	-5.157	16316	14449	0	316
-43.960	0.613	16384	15014	0	316
-39.668	5.337	16384	15578	0	316
-40.894	6.311	16384	15901	0	316
-44.464	3.462	16384	16143	0	316
-53.300	-2.056	16384	16384	0	316
-56.076	-6.311	16384	16706	0	316
-57.194	-6.708	16384	16787	0	316
-50.270	-0.685	16384	16787	0	316
-43.455	4.580	16384	16787	0	316
-34.620	10.133	16384	16948	0	316
-28.705	14.281	16384	17109	0	316
-28.741	15.471	16384	17190	0	316
-31.518	11.792	16452	17190	0	316
-38.370	8.042	16452	17351	0	316
-45.582	3.606	16452	17432	0	316
-49.657	0.216	16452	17513	0	316
-44.609	2.380	16452	17513	0	316
-35.269	8.511	16452	17351	0	316
-25.279	15.579	16452	17271	0	316
-20.555	21.277	16452	17190	0	316
-24.883	19.726	16452	16948	0	316
-31.158	16.913	16452	16625	0	316
-35.701	11.756	16452	16304	0	316
-34.547	12.441	16384	15981	0	316
-29.102	15.110	16384	15820	0	316
-21.854	20.664	16384	15739	0	316
-17.129	25.640	16384	15820	0	316
-14.425	28.489	16384	15901	0	316
-12.405	30.112	16384	15981	0	316
-13.163	30.256	16452	16384	0	316
-11.973	29.030	16452	16787	0	316
-15.543	26.830	16452	17109	0	316
-16.012	23.873	16452	17190	0	316
-21.060	19.690	16452	17190	0	316
-24.017	15.831	16452	17029	0	316
-26.686	14.605	16452	16706	0	316
-29.318	14.245	16452	16384	0	316
-27.155	15.254	16384	15901	0	316
-27.587	18.536	16384	15336	0	316
-26.433	16.697	16384	14852	0	316
-25.856	17.418	16316	14610	0	316
-24.378	16.841	16316	14449	0	316
-24.053	20.159	16316	14449	0	316
-25.388	20.339	16214	14530	0	316
-25.316	21.168	16214	14610	0	316
-27.984	18.428	16214	14530	0	316
-28.273	17.779	16146	14449	0	316
-26.866	19.257	16146	14449	0	316
-24.594	20.555	16146	14530	0	316
-26.073	23.873	16146	14691	0	316
-30.436	20.267	16146	15014	0	316
-36.567	16.805	16146	15497	0	316
-39.632	12.261	16146	15981	0	316
-37.216	13.704	16146	16384	0	316
-32.239	16.841	16214	16706	0	316
-26.217	22.539	16214	17109	0	316
-26.578	22.395	16316	17513	0	316
-32.203	18.860	16316	17835	0	316
-39.668	10.386	16316	18158	0	316
-42.229	7.537	16384	18480	0	316
-40.426	8.979	16384	18642	0	316
-35.449	12.946	16384	18803	0	316
-32.276	14.497	16384	18964	0	316
-30.941	16.805	16384	19206	0	316
-30.545	14.281	16452	19448	0	316
-27.624	18.283	16452	19448	0	316
-23.729	22.286	16452	19125	0	316
-20.880	25.532	16554	18642	0	316
-20.736	26.614	16554	18400	0	316
-23.549	22.322	16554	18077	0	316
-26.397	20.808	16384	17513	1	628
-24.666	21.745	16384	16867	0	628
-19.221	22.431	16384	16304	0	628
-18.428	24.739	16316	15739	0	628
-19.546	24.702	16316	15336	0	628
-25.712	18.392	16384	15175	0	628
-32.348	13.307	16384	15255	0	628
-34.331	9.629	16384	15336	0	628
-33.393	9.196	16384	15659	0	628
-29.787	11.900	16452	16304	0	628
-25.748	14.100	16384	16948	0	628
-25.568	16.084	16452	17432	0	628
-24.162	18.572	16452	17835	0	628
-22.034	18.211	16554	18319	0	628
-20.447	18.428	16622	18884	0	628
-21.204	22.503	16622	19125	0	628
-18.031	23.224	16724	19287	0	628
-20.159	24.450	16724	19367	0	628
-20.664	24.162	16792	19206	0	628
-23.332	21.277	16792	18803	0	628
-21.854	21.313	16792	18319	0	628
-20.808	24.162	16792	17835	0	628
-21.998	27.047	16792	17351	0	628
-23.729	25.316	16792	16706	0	628
-30.472	16.805	16724	15901	0	628
-36.891	6.347	16724	14933	0	628
-40.353	0.144	16724	14368	0	628
-39.272	2.019	16554	14126	0	628
-34.872	8.258	16554	14046	0	628
-30.328	13.235	16554	14046	0	628
-24.558	20.844	16554	14126	0	628
-21.204	21.998	16554	14207	0	628
-17.418	22.467	16554	14126	0	628
-19.293	24.017	16554	14046	0	628
-20.772	20.808	16554	14207	0	628
-25.640	17.562	16554	14530	0	628
-27.840	15.759	16554	14852	0	628
-31.049	15.182	16622	15497	0	628
-29.318	13.559	16622	16384	0	628
-28.381	15.831	16724	17271	0	628
-28.850	13.920	16724	17754	0	628
-30.040	12.514	16792	17835	0	628
-32.348	8.186	16792	17513	0	628
-35.737	6.094	16724	17109	0	628
-34.583	6.816	16724	16706	0	628
-31.122	11.107	16724	16384	0	628
-25.784	20.555	16622	15901	0	628
-21.385	24.486	16554	15336	0	628
-23.296	25.856	16554	14772	0	628
-24.125	23.332	16452	14288	0	628
-26.542	16.516	16452	14046	0	628
-29.210	15.146	16452	14207	0	628
-28.741	11.828	16452	14368	0	628
-31.554	10.927	16452	14449	0	628
-35.413	9.592	16452	14449	0	628
-36.531	9.160	16384	14530	0	628
-36.351	10.710	16384	14691	0	628
-35.593	12.009	16384	14933	0	628
-34.187	12.225	16384	15094	0	628
-33.610	10.530	16384	15175	0	628
-34.115	13.956	16384	15255	0	628
-30.797	14.785	16384	15336	0	628
-30.040	16.589	16384	15578	0	628
-31.085	14.569	16384	16062	0	628
-32.780	11.251	16384	16545	0	628
-33.393	9.232	16384	16867	0	628
-33.141	9.484	16384	17029	0	628
-31.446	12.225	16452	17432	0	628
-31.626	12.189	16452	17674	0	628
-32.997	10.097	16452	17754	0	628
-32.816	8.114	16452	17674	0	628
-32.744	8.655	16452	17351	0	628
-31.951	9.052	16452	17029	0	628
-34.006	8.547	16384	16545	0	628
-36.351	9.376	16384	16223	0	628
-35.846	12.694	16316	15820	0	628
-32.636	15.831	16316	15336	0	628
-29.246	16.408	16214	14772	0	628
-32.059	13.668	16214	14449	0	628
-36.783	7.645	16146	14126	0	628
-41.003	2.380	16146	13804	0	628
-43.347	1.226	16044	13723	0	628
-40.389	3.931	16044	13723	0	628
-39.127	5.085	15976	13884	0	628
-41.003	4.327	16044	14046	0	628
-42.265	3.318	16146	14288	0	628
-40.317	4.616	16044	14610	0	628
-38.226	7.357	16044	15094	0	628
-34.439	9.520	16044	15901	0	628
-33.033	11.576	16044	16706	0	628
-34.908	9.016	16044	17190	0	628
-36.639	7.717	16044	17432	0	628
-36.170	7.501	16146	17754	0	628
-34.295	12.081	16146	17996	0	628
-30.977	14.966	16146	18077	0	628
-28.092	19.942	16044	17916	0	628
-26.109	20.123	16044	17674	0	628
-26.361	20.483	16044	17432	0	628
-27.984	17.202	16044	17190	0	628
-31.554	14.172	16146	17029	0	628
-34.006	9.881	16044	16867	0	628
-35.629	7.862	16044	16787	0	628
-36.314	10.458	16044	16787	0	628
-33.141	15.651	16044	16787	0	628
-29.427	19.113	16044	16787	0	628
-26.794	22.611	16044	16867	0	628
-27.624	20.050	16044	16948	0	628
-28.309	18.428	16044	16948	0	628
-29.463	17.418	16044	17029	0	628
-30.184	15.651	16044	17029	0	628
-28.669	17.202	16044	17029	0	628
-27.083	16.372	16044	17029	0	628
-25.856	19.293	16044	17029	0	628
-25.063	19.978	16146	17351	0	628
-25.207	22.719	16146	17916	0	628
-25.748	21.241	16316	18400	0	628
-28.201	20.483	16214	18803	0	628
-29.787	16.769	16316	19125	0	628
-29.427	18.067	16316	19287	0	628
-25.640	19.365	16316	19206	0	628
-20.736	23.404	16384	18884	0	628
-17.274	28.633	16384	18400	0	628
-16.841	26.830	16316	17916	0	628
-19.329	24.198	16316	17351	1	492
-23.332	19.654	16316	16706	0	492
-24.522	14.605	16214	16062	0	492
-22.070	15.651	16214	15578	0	492
-19.546	16.985	16214	15497	0	492
-16.949	19.293	16214	15578	0	492
-21.204	16.769	16214	15739	0	492
-25.063	14.281	16214	15739	0	492
-29.391	9.917	16214	15659	0	492
-29.751	7.537	16214	15578	0	492
-29.427	8.727	16214	15497	0	492
-25.171	11.432	16214	15659	0	492
-22.791	11.432	16214	15901	0	492
-24.739	11.612	16214	16062	0	492
-24.955	11.756	16214	16062	0	492
-26.506	11.540	16214	16062	0	492
-27.840	13.163	16214	16062	0	492
-28.814	11.432	16214	15981	0	492
-31.302	9.665	16214	15901	0	492
-30.472	7.934	16214	16143	0	492
-27.407	11.648	16214	16304	0	492
-21.529	16.480	16214	16143	0	492
-14.353	24.991	16146	15820	0	492
-11.071	28.850	16214	15497	0	492
-10.386	29.679	16214	15417	0	492
-15.002	27.804	16214	15578	0	492
-19.113	25.388	16214	15901	0	492
-22.395	21.962	16214	16143	0	492
-24.775	20.591	16214	16304	0	492
-23.981	22.647	16214	16384	0	492
-21.168	22.611	16214	16545	0	492
-19.293	21.565	16316	16787	0	492
-22.214	20.808	16316	17029	0	492
-24.775	15.326	16316	17271	0	492
-27.696	12.766	16316	17351	0	492
-28.669	12.874	16316	17351	0	492
-26.686	10.783	16384	17432	0	492
-28.201	11.540	16384	17593	0	492
-27.479	10.025	16384	17754	0	492
-31.013	7.717	16384	17835	0	492
-35.449	5.986	16452	17916	0	492
-38.118	3.462	16452	17916	0	492
-39.091	3.498	16452	17916	0	492
-40.029	4.364	16452	18077	0	492
-38.262	5.445	16554	18561	0	492
-34.872	7.753	16622	18884	0	492
-32.348	9.773	16622	19045	0	492
-30.581	12.117	16724	19045	0	492
-29.102	14.785	16724	19045	0	492
-27.624	17.995	16792	19125	0	492
-25.027	21.854	16724	18884	0	492
-21.096	21.601	16724	18319	0	492
-21.601	21.204	16724	17674	0	492
-25.171	17.562	16724	16948	0	492
-28.850	12.694	16622	16304	0	492
-31.518	13.127	16622	15820	0	492
-27.119	17.418	16622	15255	0	492
-22.322	21.024	16554	14610	0	492
-20.339	20.159	16554	13965	0	492
-26.253	17.021	16554	13481	0	492
-31.374	11.684	16452	13159	0	492
-34.547	9.592	16452	12755	0	492
-32.420	12.081	16384	12352	0	492
-29.102	14.713	16316	12030	0	492
-26.145	16.192	16316	11868	0	492
-24.522	17.274	16316	12110	0	492
-26.974	16.949	16316	12514	0	492
-29.030	19.149	16316	13078	0	492
-29.895	17.670	16316	13723	0	492
-29.571	19.149	16316	14610	0	492
-27.479	18.933	16316	15578	0	492
-25.748	20.700	16384	16223	0	492
-23.729	23.981	16384	16625	0	492
-21.926	25.820	16452	17190	0	492
-21.854	28.309	16452	17754	0	492
-17.382	28.886	16452	17996	0	492
-17.021	28.273	16452	17916	0	492
-21.745	23.224	16452	17674	0	492
-27.948	15.831	16452	17432	0	492
-39.632	8.439	16452	17271	0	492
-45.005	2.705	16452	17190	0	492
-44.717	4.832	16452	17190	0	492
-40.426	9.592	16452	17109	0	492
-35.846	11.071	16452	17029	0	492
-37.288	9.196	16452	16948	0	492
-42.878	3.570	16452	16706	0	492
-45.222	0.541	16452	16384	0	492
-42.193	3.895	16384	16062	0	492
-37.613	8.006	16384	15659	0	492
-33.033	12.117	16384	15336	0	492
-33.970	8.547	16316	15094	0	492
-36.747	8.294	16316	15014	0	492
-36.459	7.465	16316	15175	0	492
-31.302	12.586	16316	15417	0	492
-26.433	20.231	16316	15659	0	492
-22.395	24.414	16316	15739	0	492
-22.863	26.902	16316	15820	0	492
-24.342	25.207	16316	15820	0	492
-26.830	20.736	16316	15981	0	492
-31.049	17.815	16316	16384	0	492
-32.420	11.900	16316	16948	0	492
-34.115	10.097	16384	17271	0	492
-32.095	11.432	16384	17513	0	492
-27.335	15.290	16384	17513	0	492
-20.231	21.962	16384	17513	0	492
-17.310	25.388	16384	17432	0	492
-15.867	24.198	16384	17190	0	492
-20.916	20.880	16384	16867	0	492
-24.270	15.398	16384	16545	0	492
-27.624	12.694	16316	16223	0	492
-30.905	11.864	16316	15820	0	492
-31.446	11.864	16316	15497	0	492
-31.482	10.278	16214	15255	0	492
-32.167	8.258	16214	15094	0	492
-31.807	6.708	16214	15175	0	492
-33.105	2.272	16214	15175	0	492
-35.593	2.164	16146	15255	0	492
-38.731	1.154	16146	15175	0	492
-39.704	0.397	16146	15014	0	492
-41.399	0.397	16146	15094	0	492
-40.930	-1.190	16146	15497	0	492
-39.885	-1.406	16146	16143	0	492
-36.170	1.659	16214	16867	0	492
-31.951	6.780	16316	17916	0	492
-28.777	11.432	16384	18964	0	492
-29.715	10.855	16452	19690	0	492
-35.449	7.970	16554	20093	0	492
-39.596	3.570	16452	20496	0	492
-40.966	2.236	16554	20900	0	492
-35.593	9.773	16622	21303	0	492
-25.712	20.447	16724	21384	0	492
-19.257	30.220	16724	21061	0	492
-18.139	31.915	16724	20658	0	492
-27.443	27.227	16724	20093	0	492
-35.918	17.238	16792	19367	0	492
-41.327	13.487	16792	18722	1	540
-38.947	12.261	16792	18238	0	540
-35.377	15.687	16792	17754	0	540
-34.511	14.966	16792	17190	0	540
-41.291	9.088	16724	16625	0	540
-49.910	0.793	16792	16062	0	540
-54.634	-5.337	16622	15578	0	540
-54.706	-8.619	16622	15336	0	540
-50.090	-5.157	16724	15255	0	540
-45.005	0.072	16724	15417	0	540
-40.678	5.301	16724	15659	0	540
-39.344	8.583	16724	15901	0	540
-38.082	10.169	16792	16143	0	540
-39.849	7.970	16792	16384	0	540
-41.039	5.662	16894	16787	0	540
-40.029	6.058	16894	16867	0	540
-35.160	9.665	16894	16464	0	540
-27.984	16.228	16894	15981	0	540
-21.745	20.483	16894	15417	0	540
-19.798	23.873	16724	14933	0	540
-22.719	19.257	16724	14368	0	540
-25.929	18.933	16724	13884	0	540
-23.440	19.726	16622	13481	0	540
-19.762	24.486	16622	12997	0	540
-14.245	29.174	16554	12594	0	540
-14.208	28.309	16554	12433	0	540
-16.120	24.089	16554	12514	0	540
-20.591	20.411	16452	12675	0	540
-20.303	21.168	16452	12675	0	540
-20.772	21.890	16384	12594	0	540
-18.969	23.549	16384	12433	0	540
-20.880	23.044	16316	12594	0	540
-25.027	17.887	16316	12917	0	540
-25.316	15.398	16316	13320	0	540
-25.532	14.100	16316	13723	0	540
-23.837	18.428	16316	14126	0	540
-17.779	22.142	16316	14530	0	540
-16.589	27.191	16316	15014	0	540
-16.697	24.991	16316	15659	0	540
-23.549	21.493	16316	16464	0	540
-27.443	16.913	16384	17190	0	540
-31.446	14.281	16384	17674	0	540
-28.886	19.437	16384	17996	0	540
-24.450	23.152	16384	18238	0	540
-17.418	26.470	16384	18319	0	540
-13.307	28.994	16384	18238	0	540
-8.294	29.643	16384	18158	0	540
-5.554	31.590	16384	18158	0	540
-4.255	32.023	16384	18077	0	540
-7.717	28.020	16384	17754	0	540
-10.278	24.089	16384	17513	0	540
-16.084	20.772	16384	17351	0	540
-18.536	19.113	16384	17351	0	540
-21.132	20.555	16384	17190	0	540
-23.945	19.185	16384	17029	0	540
-28.201	16.336	16384	16867	0	540
-29.463	11.143	16384	16787	0	540
-29.499	10.025	16384	16706	0	540
-28.345	10.783	16316	16464	0	540
-28.309	12.586	16316	16304	0	540
-30.184	12.045	16316	15901	0	540
-33.105	12.802	16316	15578	0	540
-33.646	11.251	16214	15336	0	540
-29.859	11.648	16214	15255	0	540
-24.919	18.428	16214	15336	0	540
-18.608	20.952	16214	15336	0	540
-18.644	25.279	16146	15336	0	540
-15.146	30.617	16146	15497	0	540
-13.631	33.177	16146	15901	0	540
-11.396	35.160	16146	16143	0	540
-9.016	34.728	16214	16143	0	540
-11.251	34.583	16214	16143	0	540
-12.225	31.662	16214	16304	0	540
-11.071	32.420	16214	16625	0	540
-11.287	33.610	16316	17029	0	540
-10.638	31.446	16316	17432	0	540
-14.353	26.794	16316	17916	0	540
-22.899	21.277	16384	18400	0	540
-28.056	13.668	16384	18803	0	540
-28.958	14.641	16452	19045	0	540
-24.739	17.779	16452	19206	0	540
-19.473	23.657	16554	19448	0	540
-15.182	28.525	16554	19529	0	540
-17.382	26.866	16554	19206	0	540
-19.437	21.673	16554	18803	0	540
-23.296	18.536	16554	18319	0	540
-22.935	15.939	16554	17996	0	540
-21.890	20.195	16452	17674	0	540
-20.123	23.188	16452	17351	0	540
-18.175	25.063	16452	17190	0	540
-19.473	26.830	16554	17109	0	540
-18.500	25.604	16554	17029	0	540
-18.536	26.433	16554	17271	0	540
-15.687	28.164	16622	17513	0	540
-12.910	30.292	16622	17674	0	540
-9.629	34.079	16622	17513	0	540
-7.393	35.737	16622	17271	0	540
-9.917	34.115	16724	17190	0	540
-18.356	29.066	16724	16948	0	540
-28.850	18.572	16622	16464	0	540
-38.514	11.432	16622	15981	0	540
-42.625	6.708	16622	15578	0	540
-41.327	7.357	16622	15336	0	540
-38.082	7.825	16622	15014	0	540
-36.423	10.710	16622	14852	0	540
-36.855	11.360	16452	14691	0	540
-34.656	11.937	16554	14449	0	540
-31.482	15.326	16554	14207	0	540
-28.633	16.192	16554	14126	0	540
-28.669	14.966	16554	14126	0	540
-29.968	14.245	16384	14046	0	540
-30.184	10.999	16384	13884	0	540
-29.102	12.550	16384	13723	0	540
-25.893	13.920	16384	13804	0	540
-23.873	15.615	16316	14046	0	540
-22.286	18.572	16384	14368	0	540
-22.503	18.464	16384	14610	0	540
-21.493	20.447	16384	15014	0	540
-21.565	19.437	16452	15497	0	540
-24.342	17.995	16384	15820	0	540
-24.017	16.913	16384	15901	0	540
-24.955	15.002	16384	16143	0	540
-26.433	14.605	16384	16464	0	540
-26.830	14.858	16384	16706	0	540
-27.479	12.369	16384	16787	0	540
-30.076	12.369	16384	16706	0	540
-29.787	11.973	16384	16384	0	540
-27.263	13.631	16316	16062	0	540
-25.424	19.834	16384	15659	0	540
-20.123	21.818	16316	15336	0	540
-22.395	22.503	16316	15094	0	540
-26.037	17.274	16316	14852	0	540
-32.095	10.963	16214	14610	0	540
-35.485	7.717	16214	14449	0	540
-33.646	8.835	16214	14368	0	540
-27.624	16.697	16146	14368	0	540
-24.666	20.014	16044	14368	0	540
-24.450	22.827	16044	14207	0	540
-26.578	17.779	15976	13965	0	540
-32.023	14.497	15976	13884	0	540
-35.413	9.989	15874	13884	0	540
-38.118	10.422	15874	14126	0	540
-35.918	13.631	15874	14772	0	540
-31.626	17.021	15874	15659	0	540
-27.299	21.565	15874	16384	0	540
-25.712	21.493	16044	17029	0	540
-28.453	17.634	16044	17674	0	540
-33.862	13.668	16044	18480	0	540
-36.206	10.133	16146	18964	0	540
-37.144	8.907	16146	19287	0	540
-33.357	12.550	16146	19448	0	540
-30.076	16.300	16214	19529	0	540
-28.958	17.490	16214	19609	0	540
-26.938	19.005	16214	19609	0	540
-26.506	18.392	16214	19609	0	540
-24.414	21.060	16214	19448	0	540
-21.096	20.195	16316	19367	0	540
-20.303	22.395	16316	19367	0	540
-21.096	22.395	16316	19448	0	540
-27.624	18.824	16384	19529	1	636
-34.259	16.661	16384	19529	0	636
-38.514	13.271	16384	19367	0	636
-38.658	12.982	16452	19206	0	636
-34.006	13.307	16452	18964	0	636
-29.282	15.218	16452	18561	0	636
-23.512	18.933	16452	17996	0	636
-21.457	20.772	16452	17513	0	636
-22.575	23.116	16452	17271	0	636
-22.358	25.568	16452	17271	0	636
-23.585	22.899	16452	17271	0	636
-27.335	18.680	16554	17271	0	636
-29.246	16.769	16554	17432	0	636
-27.047	15.254	16554	17593	0	636
-24.198	18.175	16622	17513	0	636
-21.457	21.565	16622	17351	0	636
-18.031	22.899	16622	17432	0	636
-22.034	19.437	16724	17593	0	636
-26.686	18.211	16724	17674	0	636
-30.617	15.759	16792	17674	0	636
-33.069	15.831	16792	17593	0	636
-34.439	13.631	16724	17513	0	636
-34.944	13.379	16792	17351	0	636
-34.800	14.858	16792	17109	0	636
-31.338	18.031	16792	16625	0	636
-24.847	22.827	16792	16143	0	636
-20.736	27.407	16724	15497	0	636
-17.995	27.119	16724	14772	0	636
-23.224	23.260	16622	14046	0	636
-30.076	18.644	16622	13401	0	636
-36.747	13.163	16622	12997	0	636
-37.108	14.245	16554	12755	0	636
-32.276	16.120	16554	12514	0	636
-26.109	24.270	16452	12433	0	636
-23.693	27.768	16384	12594	0	636
-26.794	29.030	16452	12755	0	636
-31.013	26.001	16452	13078	0	636
-32.059	23.152	16452	13723	0	636
-27.840	20.014	16452	14207	0	636
-23.260	20.844	16452	14288	0	636
-22.503	17.418	16452	14288	0	636
-25.243	16.192	16452	14449	0	636
-28.273	13.451	16384	14610	0	636
-27.010	16.805	16384	14530	0	636
-19.798	20.627	16316	14126	0	636
-15.326	26.470	16316	13965	0	636
-17.310	28.850	16316	13965	0	636
-22.467	25.640	16214	14126	0	636
-27.912	21.132	16214	14207	0	636
-32.203	17.634	16316	14530	0	636
-32.492	15.687	16214	15014	0	636
-27.732	17.815	16214	15417	0	636
-24.594	19.221	16214	15820	0	636
-22.755	23.873	16214	16223	0	636
-19.906	23.909	16214	16384	0	636
-20.411	24.378	16214	16545	0	636
-20.519	25.388	16214	16706	0	636
-19.005	25.135	16214	16706	0	636
-16.012	26.397	16146	16625	0	636
-12.405	30.328	16146	16464	0	636
-10.566	33.249	16146	16304	0	636
-10.783	34.656	16044	16223	0	636
