neuroNicle FX2
D3F25R12
Bluetooth SPP
2023년 4월 3일 월요일
오후 3:53
time interval = 4msec
EEG1	EEG2	PPG	sdPPG	pulse	peak_interval(msec)
-51.965	-46.232	16435	16427	0	316
-52.398	-41.616	16455	16419	0	316
-49.080	-38.514	16455	16411	0	316
-47.674	-36.603	16455	16391	0	316
-48.035	-38.514	16435	16369	0	316
-49.910	-46.700	16435	16341	0	316
-56.437	-52.290	16435	16330	0	316
-59.971	-51.713	16435	16318	0	316
-57.663	-47.169	16404	16302	0	316
-53.624	-39.740	16404	16275	0	316
-47.241	-39.524	16404	16251	0	316
-46.664	-42.337	16384	16235	0	316
-48.936	-49.477	16384	16231	0	316
-50.667	-51.893	16384	16243	0	316
-52.326	-50.018	16384	16255	0	316
-48.071	-45.222	16384	16267	0	316
-45.727	-38.622	16384	16279	0	316
-45.799	-35.197	16384	16286	0	316
-47.422	-36.783	16384	16298	0	316
-55.031	-41.724	16384	16314	0	316
-57.699	-48.359	16384	16333	0	316
-60.512	-55.067	16384	16353	0	316
-60.945	-57.555	16384	16373	0	316
-56.834	-57.627	16384	16384	0	316
-57.266	-58.637	16384	16387	0	316
-58.168	-53.841	16404	16395	0	316
-54.129	-48.576	16404	16399	0	316
-48.900	-40.245	16404	16395	0	316
-41.904	-36.639	16404	16395	0	316
-39.308	-37.252	16384	16391	0	316
-42.914	-42.734	16384	16384	0	316
-51.569	-48.431	16384	16373	0	316
-52.254	-48.612	16384	16365	0	316
-47.710	-44.753	16384	16365	0	316
-39.488	-40.786	16384	16365	0	316
-35.341	-37.432	16384	16369	0	316
-39.524	-37.036	16384	16384	0	316
-49.297	-40.317	16384	16391	0	316
-55.608	-45.582	16384	16395	0	316
-55.067	-50.090	16384	16387	0	316
-47.746	-50.415	16384	16381	0	316
-36.314	-41.724	16364	16365	0	316
-29.571	-32.059	16364	16353	0	316
-28.489	-24.089	16364	16349	0	316
-30.941	-27.155	16364	16349	0	316
-35.701	-36.314	16364	16361	0	316
-38.262	-45.438	16364	16369	0	316
-41.832	-45.582	16364	16377	0	316
-43.671	-39.308	16364	16384	0	316
-45.979	-32.023	16364	16391	0	316
-46.989	-31.158	16364	16399	0	316
-47.530	-38.082	16364	16407	0	316
-48.467	-48.431	16384	16423	0	316
-51.749	-57.375	16384	16435	0	316
-57.122	-59.322	16384	16438	0	316
-61.918	-55.355	16384	16442	0	316
-60.115	-50.054	16384	16438	0	316
-55.860	-42.697	16384	16423	0	316
-49.441	-36.531	16364	16395	0	316
-42.553	-32.167	16364	16377	0	316
-39.921	-28.597	16364	16361	0	316
-43.527	-30.292	16364	16353	0	316
-48.287	-35.485	16333	16349	0	316
-55.752	-44.248	16364	16345	0	316
-61.269	-50.631	16364	16337	0	316
-66.751	-56.293	16364	16326	0	316
-70.754	-57.627	16333	16314	0	316
-71.944	-58.673	16333	16302	0	316
-71.259	-55.932	16333	16290	0	316
-65.561	-50.379	16313	16282	0	316
-56.329	-43.455	16313	16282	0	316
-50.559	-43.274	16313	16294	0	316
-51.749	-48.720	16282	16310	0	316
-63.036	-58.384	16282	16330	0	316
-77.786	-67.616	16282	16345	0	316
-86.152	-73.062	16313	16369	0	316
-84.385	-73.530	16313	16391	0	316
-75.658	-71.439	16313	16411	0	316
-69.528	-69.167	16313	16427	0	316
-66.390	-63.036	16313	16446	0	316
-69.852	-57.880	16333	16466	0	316
-70.357	-52.110	16333	16486	0	316
-67.039	-52.470	16333	16501	0	316
-62.748	-54.562	16364	16509	0	316
-64.876	-59.322	16364	16517	0	316
-73.386	-63.758	16384	16529	0	316
-81.536	-69.131	16384	16533	0	316
-84.926	-71.944	16384	16533	0	316
-83.700	-72.340	16384	16521	0	316
-79.192	-72.449	16404	16513	0	316
-78.471	-70.032	16404	16513	0	316
-85.359	-67.905	16435	16521	0	316
-91.021	-66.787	16435	16529	0	316
-96.322	-70.213	16455	16533	0	316
-96.250	-77.497	16455	16525	0	316
-98.269	-86.657	16455	16513	0	316
-99.279	-89.794	16455	16497	0	316
-98.918	-88.893	16486	16482	0	316
-94.519	-80.851	16486	16470	0	316
-90.912	-76.091	16486	16458	0	316
-90.768	-80.382	16486	16438	0	316
-95.817	-89.470	16486	16411	0	316
-104.724	-96.502	16486	16384	0	316
-108.439	-97.440	16486	16357	0	316
-104.652	-91.778	16455	16341	0	316
-98.161	-83.159	16486	16333	0	316
-91.598	-77.065	16486	16337	0	316
-82.257	-70.249	16455	16337	0	316
-72.593	-63.974	16455	16341	0	316
-60.765	-57.086	16455	16341	0	316
-53.372	-52.434	16455	16337	0	316
-55.103	-53.949	16455	16326	0	316
-61.161	-54.273	16455	16314	0	316
-64.407	-55.499	16455	16314	0	316
-60.692	-48.684	16455	16322	0	316
-52.434	-44.789	16455	16318	0	316
-45.835	-43.310	16455	16306	0	316
-47.422	-47.710	16455	16290	0	316
-58.745	-59.574	16435	16271	0	316
-68.338	-65.417	16435	16259	0	316
-74.468	-67.256	16435	16251	0	316
-79.950	-69.239	16435	16255	0	316
-82.330	-73.458	16435	16263	0	316
-86.873	-81.392	16404	16275	0	316
-94.050	-91.345	16404	16282	0	316
-93.256	-93.256	16404	16294	0	316
-87.703	-89.578	16404	16302	0	316
-75.442	-79.264	16404	16318	0	316
-69.203	-73.675	16435	16341	0	316
-67.616	-72.917	16435	16369	0	316
-74.793	-76.704	16435	16391	0	316
-83.772	-81.176	16404	16407	0	316
-83.916	-81.644	16404	16407	0	316
-75.261	-78.796	16404	16403	0	316
-63.649	-74.576	16404	16403	0	316
-56.401	-72.340	16435	16415	0	316
-56.906	-68.265	16435	16435	0	316
-62.964	-62.387	16435	16446	0	316
-71.042	-54.778	16435	16446	0	316
-74.757	-51.677	16435	16446	0	316
-72.809	-53.408	16435	16438	0	316
-67.364	-59.430	16455	16435	0	316
-62.279	-65.633	16455	16438	0	316
-58.060	-66.571	16455	16446	0	316
-63.938	-68.806	16455	16454	0	316
-74.360	-71.763	16486	16462	0	316
-85.323	-75.225	16486	16462	0	316
-88.496	-77.425	16486	16458	0	316
-84.890	-76.992	16486	16446	0	316
-81.392	-77.173	16486	16438	0	316
-81.608	-80.274	16455	16427	0	316
-87.919	-87.018	16486	16415	0	316
-88.929	-85.972	16486	16403	0	316
-86.837	-79.697	16455	16384	0	316
-78.471	-69.888	16455	16365	0	316
-72.845	-66.030	16455	16341	0	316
-75.261	-71.150	16435	16322	0	316
-85.755	-86.332	16435	16298	0	316
-101.767	-99.892	16404	16267	0	316
-113.343	-106.455	16404	16239	0	316
-115.218	-102.092	16384	16220	0	316
-105.590	-89.650	16384	16212	0	316
-86.873	-73.242	16364	16220	0	316
-72.809	-62.279	16364	16231	0	316
-70.429	-63.361	16364	16247	0	316
-81.536	-74.216	16364	16259	0	316
-93.220	-84.421	16364	16267	0	316
-96.141	-88.604	16333	16275	0	316
-87.631	-80.022	16333	16279	0	316
-74.504	-67.905	16333	16282	0	316
-67.075	-63.505	16313	16290	0	316
-70.032	-62.928	16313	16294	0	316
-75.370	-65.344	16313	16306	0	316
-80.454	-62.135	16333	16318	0	316
-78.868	-56.581	16313	16330	0	316
-76.271	-55.608	16333	16337	0	316
-71.403	-57.194	16313	16345	0	316
-68.265	-63.722	16313	16353	0	316
-65.849	-63.974	16313	16353	0	316
-65.056	-57.843	16282	16357	0	316
-70.465	-48.900	16282	16365	0	316
-78.615	-44.897	16282	16369	0	316
-84.710	-45.835	16282	16373	0	316
-86.369	-46.809	16262	16381	0	316
-83.339	-44.717	16262	16391	0	316
-83.808	-38.370	16262	16411	0	316
-88.316	-33.574	16262	16423	0	316
-101.623	-36.567	16262	16427	0	316
-113.451	-47.602	16282	16435	0	316
-119.149	-56.437	16282	16446	0	316
-115.074	-57.050	16282	16454	0	316
-107.321	-46.484	16313	16462	0	316
-101.190	-37.180	16313	16466	0	316
-102.200	-37.937	16313	16466	0	316
-108.150	-50.487	16313	16466	0	316
-112.658	-62.928	16313	16466	0	316
-106.167	-65.994	16313	16466	0	316
-94.555	-57.952	16313	16470	0	316
-82.077	-45.510	16313	16478	0	316
-76.848	-40.570	16313	16482	0	316
-82.366	-47.097	16313	16489	0	316
-89.073	-54.706	16333	16497	0	316
-92.427	-59.250	16333	16505	0	316
-85.142	-55.139	16333	16513	0	316
-80.923	-49.116	16364	16509	0	316
-80.599	-48.828	16364	16501	0	316
-86.909	-56.365	16364	16493	0	316
-97.079	-67.111	16364	16486	0	316
-102.092	-74.144	16364	16486	0	316
-98.233	-72.232	16384	16478	0	316
-89.722	-60.512	16384	16474	0	316
-75.658	-46.845	16384	16466	0	316
-61.233	-41.075	16384	16462	0	316
-53.408	-45.438	16384	16454	0	316
-61.774	-59.863	16404	16458	0	316
-80.058	-78.219	16404	16470	0	316
-98.017	-87.270	16435	16482	0	316
-102.236	-84.097	16435	16486	0	316
-86.693	-66.426	16455	16486	0	316
-59.899	-41.904	16455	16486	0	316
-39.668	-24.486	16486	16482	0	316
-35.305	-16.733	16486	16474	0	316
-45.258	-24.594	16486	16462	0	316
-58.024	-38.550	16506	16454	0	316
-63.289	-49.982	16506	16454	0	316
-60.945	-50.775	16506	16450	0	316
-51.497	-46.159	16537	16446	0	316
-50.523	-42.157	16537	16431	0	316
-53.552	-42.697	16537	16411	0	316
-59.358	-44.645	16506	16384	0	316
-58.997	-46.917	16506	16357	0	316
-54.165	-44.681	16506	16326	0	316
-49.982	-44.537	16486	16294	0	316
-54.778	-50.667	16486	16267	0	316
-65.525	-57.771	16455	16239	0	316
-68.446	-59.791	16455	16224	0	316
-63.505	-51.208	16455	16212	0	316
-50.884	-41.075	16455	16208	0	316
-40.209	-34.944	16435	16216	0	316
-41.543	-38.514	16435	16220	0	316
-49.657	-47.494	16435	16224	0	316
-57.916	-53.300	16435	16235	0	316
-62.568	-57.375	16435	16255	0	316
-63.686	-54.129	16435	16271	0	316
-61.053	-53.841	16404	16286	0	316
-59.322	-54.129	16435	16294	0	316
-58.493	-51.713	16435	16306	0	316
-56.726	-44.861	16435	16318	0	316
-50.198	-35.737	16435	16330	0	316
-41.904	-24.702	16404	16337	0	316
-31.158	-15.398	16404	16353	0	316
-20.123	-13.271	16404	16369	0	316
-15.362	-12.550	16435	16384	0	316
-14.028	-13.018	16435	16391	0	316
-17.634	-15.831	16435	16391	0	316
-21.637	-17.526	16435	16395	0	316
-27.624	-23.981	16435	16403	0	316
-32.528	-29.427	16435	16407	0	316
-33.610	-30.256	16435	16411	0	316
-32.564	-28.958	16435	16407	0	316
-32.528	-28.128	16435	16399	0	316
-31.807	-29.318	16435	16391	0	316
-34.836	-32.816	16435	16387	0	316
-35.810	-33.682	16435	16384	0	316
-36.639	-29.535	16404	16369	0	316
-37.541	-24.630	16404	16341	0	316
-45.582	-26.073	16384	16318	0	316
-54.814	-34.367	16384	16302	0	316
-67.905	-44.248	16384	16302	0	316
-77.101	-47.458	16364	16306	0	316
-80.851	-47.710	16364	16314	0	316
-80.671	-44.573	16364	16306	0	316
-77.101	-44.068	16333	16298	0	316
-74.973	-46.953	16333	16290	0	316
-77.209	-54.201	16333	16282	0	316
-77.822	-56.365	16313	16271	0	316
-78.507	-57.375	16282	16263	0	316
-77.173	-52.903	16282	16267	0	316
-73.567	-49.189	16282	16282	0	316
-65.705	-42.589	16282	16302	0	316
-59.719	-38.334	16282	16318	0	316
-54.345	-39.812	16282	16330	0	316
-49.333	-44.428	16313	16341	0	316
-51.965	-50.234	16282	16357	0	316
-53.660	-53.264	16282	16373	0	316
-56.834	-54.382	16282	16384	0	316
-52.759	-48.179	16282	16403	0	316
-51.605	-46.340	16282	16419	0	316
-50.415	-45.691	16282	16431	0	316
-56.762	-48.828	16282	16442	0	316
-60.404	-54.129	16282	16458	0	316
-62.279	-53.985	16313	16474	0	316
-56.329	-51.641	16313	16489	0	316
-45.186	-44.032	16313	16497	0	316
-37.216	-36.675	16313	16501	0	316
-34.908	-32.925	16313	16501	0	316
-37.505	-32.095	16313	16501	0	316
-41.183	-35.701	16333	16497	0	316
-41.471	-37.288	16364	16497	0	316
-38.045	-36.819	16364	16493	0	316
-34.006	-35.846	16364	16489	0	316
-30.328	-35.124	16364	16486	0	316
-30.004	-33.682	16364	16486	0	316
-30.653	-36.134	16364	16486	0	316
-32.961	-35.305	16384	16493	0	316
-36.387	-36.567	16384	16505	0	316
-42.373	-38.983	16404	16521	0	316
-45.871	-41.868	16404	16533	0	316
-48.864	-44.212	16435	16533	0	316
-51.461	-46.340	16435	16517	0	316
-49.116	-43.707	16435	16493	0	316
-45.330	-37.360	16435	16466	0	316
-38.550	-31.446	16435	16438	0	316
-33.429	-27.047	16404	16415	0	316
-31.771	-28.814	16404	16395	0	316
-34.944	-32.672	16404	16387	0	316
-39.344	-35.593	16404	16384	0	316
-37.649	-33.357	16404	16384	0	316
-33.682	-28.453	16404	16377	0	316
-29.607	-21.818	16404	16369	0	316
-30.112	-20.159	16404	16357	0	316
-30.148	-24.811	16404	16353	0	316
-33.970	-30.761	16404	16361	0	316
-33.862	-36.314	16404	16373	0	316
-33.970	-37.324	16435	16384	0	316
-35.124	-35.701	16435	16391	0	316
-38.983	-34.872	16435	16395	0	316
-42.914	-38.442	16455	16395	0	316
-48.936	-42.806	16455	16399	0	316
-53.228	-46.628	16455	16395	0	316
-59.899	-47.818	16455	16387	0	316
-62.676	-50.739	16455	16381	0	316
-65.813	-56.293	16455	16369	0	316
-64.082	-67.003	16455	16365	0	316
-62.099	-70.429	16455	16369	0	316
-55.355	-65.308	16455	16377	0	316
-51.713	-52.326	16486	16384	0	316
-47.602	-40.029	16455	16384	0	316
-50.126	-37.829	16486	16384	0	316
-54.742	-46.881	16486	16384	0	316
-63.577	-63.974	16455	16377	0	316
-70.321	-73.747	16455	16369	0	316
-75.225	-74.288	16455	16373	0	316
-74.540	-65.777	16486	16381	0	316
-71.006	-54.273	16486	16384	0	316
-66.643	-50.956	16486	16384	0	316
-65.164	-53.877	16486	16384	0	316
-66.066	-63.072	16486	16369	0	316
-66.967	-70.934	16486	16353	0	316
-67.544	-75.442	16486	16345	0	316
-69.095	-79.877	16486	16341	0	316
-71.367	-83.448	16486	16341	0	316
-77.750	-88.965	16486	16345	0	316
-87.955	-90.516	16486	16345	0	316
-94.555	-90.948	16486	16337	0	316
-99.387	-87.018	16435	16318	0	316
-99.639	-84.493	16435	16302	0	316
-94.302	-81.176	16435	16294	0	316
-84.638	-80.202	16435	16294	0	316
-75.766	-84.529	16435	16294	0	316
-76.127	-90.660	16404	16290	0	316
-81.644	-101.118	16404	16282	0	316
-89.362	-105.049	16404	16275	0	316
-90.263	-98.449	16384	16279	0	316
-81.428	-82.294	16384	16282	0	316
-69.672	-67.905	16384	16290	0	316
-63.541	-60.909	16384	16302	0	316
-65.669	-65.741	16384	16314	0	316
-71.042	-75.658	16384	16330	0	316
-73.711	-80.418	16384	16333	0	316
-71.078	-78.723	16364	16333	0	316
-65.417	-71.655	16364	16337	0	316
-56.437	-61.882	16364	16341	0	316
-43.743	-51.965	16364	16353	0	316
-27.660	-41.291	16364	16357	0	316
-8.294	-28.777	16364	16365	0	316
10.963	-15.651	16364	16373	0	316
29.030	0.252	16364	16387	0	316
48.900	19.365	16364	16407	0	316
67.328	46.087	16364	16423	0	316
86.765	77.569	16364	16435	0	316
105.554	108.114	16364	16435	0	316
117.634	129.751	16364	16435	0	316
123.188	138.298	16364	16431	0	316
126.650	143.851	16384	16438	0	316
128.669	155.031	16384	16462	0	316
135.774	176.920	16404	16486	0	316
149.693	199.387	16404	16505	0	316
164.226	211.468	16404	16509	0	316
180.346	207.537	16404	16505	0	316
188.136	195.168	16404	16493	0	316
188.713	187.234	16404	16474	0	316
175.658	193.256	16404	16454	0	316
154.201	201.875	16404	16435	0	316
129.174	203.246	16404	16423	0	316
107.357	186.188	16404	16411	0	316
88.063	155.175	16404	16395	0	316
70.321	122.863	16404	16384	0	316
61.666	107.465	16404	16384	0	316
65.489	117.166	16404	16384	0	316
83.988	137.180	16404	16384	0	316
102.019	144.140	16404	16377	0	316
95.745	128.994	16404	16373	0	316
61.305	98.161	16404	16369	0	316
10.638	72.160	16404	16373	0	316
-29.571	56.113	16404	16377	0	316
-50.090	44.392	16404	16381	0	316
-57.086	22.719	16404	16384	0	316
-68.446	-9.845	16404	16373	0	316
-86.657	-40.714	16404	16353	0	316
-106.455	-55.211	16384	16337	0	316
-115.867	-53.408	16384	16333	0	316
-115.254	-54.670	16384	16333	0	316
-112.477	-62.207	16384	16337	0	316
-111.396	-76.704	16384	16341	0	316
-116.012	-94.302	16384	16345	0	316
-119.077	-105.121	16384	16345	0	316
-117.238	-113.559	16384	16341	0	316
-117.021	-125.279	16384	16337	0	316
-117.815	-135.701	16384	16341	0	316
-123.585	-146.412	16384	16345	0	316
-133.105	-152.362	16364	16353	0	316
-135.197	-156.653	16364	16357	0	316
-132.636	-160.873	16364	16361	0	316
-125.424	-173.314	16364	16369	0	316
-123.116	-184.205	16384	16381	0	316
-127.696	-191.489	16384	16395	0	316
-137.793	-191.021	16384	16407	0	316
-146.628	-192.788	16384	16411	0	316
-0.216	0.938	16404	16415	0	316
0.793	1.839	16404	16403	0	316
-1.911	0.613	16404	16399	0	316
-8.583	-4.039	16404	16399	0	316
-16.264	-10.674	16404	16399	0	316
-19.978	-18.067	16404	16391	0	316
-19.473	-23.621	16404	16384	0	316
-17.057	-26.073	16404	16384	0	316
-14.569	-25.929	16404	16384	0	316
-14.028	-22.647	16404	16381	0	316
-14.569	-18.103	16404	16373	0	316
-16.589	-13.631	16404	16373	0	316
-18.860	-11.107	16404	16373	0	316
-19.798	-11.540	16404	16377	0	316
-17.562	-11.540	16404	16384	0	316
-10.386	-9.016	16435	16391	0	316
0.902	-2.236	16435	16399	0	316
10.746	8.222	16435	16407	0	316
12.838	12.333	16435	16407	0	316
8.258	10.386	16435	16395	0	316
0.144	4.977	16435	16384	0	316
-3.462	0.505	16435	16377	0	316
-1.803	1.695	16435	16361	0	316
2.777	5.409	16404	16345	0	316
5.590	5.229	16404	16333	0	316
2.560	0.361	16404	16330	0	316
-2.633	-7.212	16404	16341	0	316
-6.419	-11.323	16404	16361	0	316
-7.609	-12.333	16435	16381	0	316
-8.042	-9.520	16435	16384	0	316
-8.799	-8.979	16435	16381	0	316
-14.064	-13.091	16404	16369	0	316
-19.113	-19.906	16404	16365	0	316
-26.506	-27.010	16384	16365	0	316
-33.105	-32.636	16404	16365	0	316
-42.337	-37.360	16404	16361	0	316
-52.939	-41.291	16404	16361	0	316
-61.486	-46.340	16404	16365	0	316
-64.082	-48.539	16404	16369	0	316
-59.647	-47.530	16404	16373	0	316
-48.720	-39.416	16404	16369	0	316
-36.711	-30.004	16404	16361	0	316
-26.506	-19.798	16384	16353	0	316
-15.002	-11.828	16364	16337	0	316
-1.298	-0.938	16384	16326	0	316
15.182	9.268	16384	16322	0	316
30.220	20.267	16384	16326	0	316
40.426	28.814	16384	16333	0	316
43.924	35.954	16384	16341	0	316
46.736	45.763	16364	16345	0	316
52.687	57.050	16364	16349	0	316
62.027	72.485	16364	16353	0	316
74.757	84.998	16364	16361	0	316
87.739	92.860	16364	16369	0	316
96.358	94.879	16364	16369	0	316
99.892	96.935	16364	16365	0	316
98.738	96.538	16384	16373	0	316
91.814	96.863	16364	16384	0	316
85.431	94.663	16364	16391	0	316
79.913	89.362	16364	16399	0	316
76.704	80.346	16364	16411	0	316
73.675	72.629	16364	16427	0	316
69.888	65.813	16384	16446	0	316
67.111	64.299	16384	16462	0	316
65.453	62.892	16384	16474	0	316
62.928	61.991	16404	16486	0	316
56.726	56.581	16404	16493	0	316
50.884	49.982	16404	16497	0	316
42.084	41.688	16435	16497	0	316
35.629	35.341	16404	16497	0	316
30.797	33.466	16435	16493	0	316
24.630	30.004	16435	16493	0	316
17.562	26.325	16455	16486	0	316
7.645	19.149	16435	16474	0	316
0.577	11.215	16435	16458	0	316
-6.852	4.724	16435	16438	0	316
-13.487	-1.406	16435	16423	0	316
-20.844	-7.429	16435	16415	0	316
-27.660	-15.398	16435	16411	0	316
-33.970	-21.673	16435	16403	0	316
-38.009	-29.391	16435	16391	0	316
-40.317	-33.718	16435	16387	0	316
-39.127	-38.118	16435	16384	0	316
-37.721	-42.120	16435	16381	0	316
-35.521	-43.455	16435	16365	0	316
-32.348	-41.183	16435	16357	0	316
-31.013	-35.016	16435	16353	0	316
-30.941	-28.886	16435	16357	0	316
-29.823	-23.693	16435	16361	0	316
-27.804	-22.755	16435	16365	0	316
-23.873	-22.972	16435	16361	0	316
-19.582	-24.811	16435	16353	0	316
-15.795	-27.155	16435	16337	0	316
-12.658	-23.765	16435	16330	0	316
-10.458	-19.365	16435	16330	0	316
-9.484	-12.225	16435	16326	0	316
-9.917	-4.904	16435	16326	0	316
-11.251	-1.154	16435	16326	0	316
-13.451	-0.757	16435	16326	0	316
-13.812	-3.065	16404	16318	0	316
-12.405	-4.940	16404	16314	0	316
-10.927	-8.078	16404	16318	0	316
-7.862	-12.009	16404	16330	0	316
-4.760	-14.821	16404	16349	0	316
-2.128	-18.608	16404	16361	0	316
-3.029	-21.024	16404	16369	0	316
-5.950	-19.726	16404	16373	0	316
-11.360	-19.690	16404	16369	0	316
-15.543	-17.310	16384	16365	0	316
-17.166	-16.192	16384	16365	0	316
-16.480	-15.218	16384	16361	0	316
-16.841	-16.552	16384	16353	0	316
-20.339	-19.762	16384	16349	0	316
-24.847	-23.116	16384	16349	0	316
-30.545	-27.155	16384	16353	0	316
-35.449	-28.886	16384	16361	0	316
-39.524	-31.662	16364	16357	0	316
-43.851	-34.656	16364	16353	0	316
-50.487	-40.281	16364	16353	0	316
-56.762	-44.609	16364	16349	0	316
-60.296	-46.484	16364	16345	0	316
-60.584	-42.661	16364	16337	0	316
-57.483	-39.235	16364	16337	0	316
-52.254	-36.278	16364	16341	0	316
-46.700	-36.206	16364	16349	0	316
-38.803	-35.485	16364	16357	0	316
-27.443	-32.672	16364	16369	0	316
-16.769	-26.866	16364	16384	0	316
-11.360	-22.899	16364	16395	0	316
-13.091	-20.952	16364	16411	0	316
-18.572	-24.919	16384	16427	0	316
-22.972	-25.352	16384	16427	0	316
-22.611	-24.883	16384	16423	0	316
-18.680	-21.385	16364	16415	0	316
-15.579	-18.969	16364	16403	0	316
-16.084	-19.077	16364	16395	0	316
-19.329	-20.375	16364	16387	0	316
-22.647	-23.044	16364	16381	0	316
-24.234	-22.611	16333	16361	0	316
-26.181	-22.034	16333	16341	0	316
-27.587	-22.827	16313	16326	0	316
-29.282	-25.784	16313	16318	0	316
-30.725	-27.119	16313	16318	0	316
-27.047	-27.010	16282	16322	0	316
-23.332	-23.837	16282	16322	0	316
-20.591	-22.070	16282	16330	0	316
-22.286	-22.503	16282	16341	0	316
-27.768	-21.998	16282	16357	0	316
-30.761	-21.529	16282	16373	0	316
-30.941	-19.329	16282	16387	0	316
-27.407	-16.516	16282	16407	0	316
-22.899	-17.057	16333	16423	0	316
-20.808	-19.510	16333	16438	0	316
-17.923	-19.077	16364	16450	0	316
-15.182	-15.651	16333	16466	0	316
-12.514	-12.261	16364	16482	0	316
-13.668	-10.891	16364	16505	0	316
-15.615	-11.360	16384	16529	0	316
-18.464	-11.143	16384	16556	0	316
-20.988	-10.350	16404	16580	0	316
-22.719	-8.366	16435	16584	0	316
-26.325	-8.330	16404	16568	0	316
-30.148	-12.730	16435	16540	0	316
-34.475	-17.526	16435	16509	0	316
-36.170	-24.198	16435	16482	0	316
-36.675	-28.814	16435	16458	0	316
-37.577	-31.194	16404	16438	0	316
-39.019	-34.331	16404	16415	0	316
-38.731	-34.944	16384	16395	0	316
-36.964	-32.816	16384	16384	0	316
-30.148	-28.814	16384	16377	0	316
-24.017	-22.034	16384	16365	0	316
-18.139	-16.697	16384	16353	0	316
-17.346	-15.795	16384	16345	0	316
-20.087	-18.536	16384	16333	0	316
-26.001	-23.152	16384	16330	0	316
-29.859	-25.712	16384	16322	0	316
-33.177	-27.948	16384	16314	0	316
-36.567	-28.164	16364	16306	0	316
-40.498	-30.941	16364	16294	0	316
-43.274	-31.662	16364	16282	0	316
-44.609	-30.328	16364	16271	0	316
-44.032	-27.155	16364	16267	0	316
-44.032	-26.037	16364	16263	0	316
-47.386	-30.256	16364	16263	0	316
-54.490	-38.118	16333	16263	0	316
-59.863	-44.789	16364	16279	0	316
-58.276	-46.159	16333	16306	0	316
-52.651	-41.580	16364	16333	0	316
-45.655	-35.954	16364	16353	0	316
-42.048	-33.105	16364	16365	0	316
-45.402	-36.026	16364	16381	0	316
-50.270	-37.973	16364	16387	0	316
-52.398	-37.541	16364	16395	0	316
-50.343	-32.564	16364	16391	0	316
-48.071	-28.994	16364	16384	0	316
-47.638	-30.545	16364	16384	0	316
-50.775	-35.052	16364	16384	0	316
-51.785	-39.163	16364	16387	0	316
-48.720	-37.649	16364	16395	0	316
-40.822	-30.977	16364	16411	0	316
-34.151	-25.207	16364	16423	0	316
-31.518	-22.214	16364	16423	0	316
-33.321	-24.450	16364	16419	0	316
-36.351	-25.243	16364	16419	0	316
-39.885	-26.542	16364	16419	0	316
-42.517	-30.725	16364	16419	0	316
-48.467	-38.009	16364	16419	0	316
-52.542	-46.376	16364	16419	0	316
-54.309	-52.182	16364	16411	0	316
-51.605	-51.064	16364	16407	0	316
-45.691	-44.789	16364	16403	0	316
-42.120	-36.711	16364	16399	0	316
-40.462	-32.420	16364	16395	0	316
-41.363	-30.040	16364	16399	0	316
-42.301	-29.751	16364	16399	0	316
-41.435	-27.227	16364	16403	0	316
-39.596	-26.397	16364	16407	0	316
-38.550	-24.955	16364	16407	0	316
-37.468	-24.558	16384	16411	0	316
-35.016	-24.306	16384	16431	0	316
-32.312	-21.709	16384	16450	0	316
-29.427	-19.329	16404	16462	0	316
-24.919	-15.218	16404	16462	0	316
-22.755	-11.143	16404	16458	0	316
-21.926	-11.540	16404	16454	0	316
-22.647	-13.127	16404	16450	0	316
-26.109	-13.199	16435	16454	0	316
-27.804	-14.930	16435	16450	0	316
-28.489	-14.569	16435	16446	0	316
-25.279	-14.028	16435	16450	0	316
-23.224	-17.959	16455	16458	0	316
-20.627	-24.270	16455	16466	0	316
-21.529	-31.951	16455	16462	0	316
-22.719	-36.387	16486	16446	0	316
-24.486	-37.432	16486	16427	0	316
-24.342	-34.547	16455	16403	0	316
-22.755	-30.004	16486	16395	0	316
-20.808	-24.486	16486	16395	0	316
-18.356	-21.637	16455	16399	0	316
-18.752	-22.503	16486	16407	0	316
-22.899	-27.876	16486	16407	0	316
-26.866	-31.085	16486	16399	0	316
-28.886	-30.977	16486	16387	0	316
-26.506	-26.217	16486	16377	0	316
-20.916	-17.526	16486	16361	0	316
-16.913	-12.153	16486	16349	0	316
-14.533	-10.999	16486	16333	0	316
-13.018	-12.405	16455	16314	0	316
-13.091	-12.045	16455	16298	0	316
-12.622	-12.586	16455	16286	0	316
-14.605	-15.939	16455	16282	0	316
-18.788	-21.168	16455	16282	0	316
-23.549	-29.282	16435	16282	0	316
-24.270	-35.701	16435	16275	0	316
-22.358	-37.396	16435	16267	0	316
-16.913	-32.961	16435	16263	0	316
-12.514	-26.614	16384	16259	0	316
-8.907	-19.942	16384	16259	0	316
-7.357	-14.749	16384	16267	0	316
-5.409	-12.369	16384	16275	0	316
-7.176	-13.668	16384	16282	0	316
-9.016	-15.903	16384	16294	0	316
-13.379	-17.310	16384	16310	0	316
-16.012	-17.238	16384	16337	0	316
-14.821	-13.559	16384	16361	0	316
-12.261	-9.376	16384	16377	0	316
-7.429	-4.364	16384	16381	0	316
-3.029	-2.164	16384	16381	0	316
2.669	1.587	16384	16373	0	316
7.573	4.688	16384	16373	0	316
11.684	8.475	16384	16381	0	316
10.674	9.592	16384	16387	0	316
5.481	7.068	16384	16395	0	316
-2.921	-1.118	16384	16399	0	316
-7.753	-9.124	16384	16403	0	316
-9.160	-14.208	16384	16411	0	316
-6.455	-14.749	16384	16415	0	316
-5.590	-11.973	16384	16407	0	316
-5.806	-8.511	16364	16387	0	316
-8.511	-6.203	16364	16381	0	316
-10.458	-4.724	16384	16381	0	316
-9.989	-2.236	16384	16384	0	316
-7.681	-2.813	16384	16384	0	316
-7.645	-7.501	16384	16387	0	316
-11.432	-14.641	16384	16395	0	316
-15.543	-21.024	16384	16403	0	316
-17.166	-22.431	16384	16411	0	316
-14.353	-17.021	16384	16411	0	316
-9.232	-10.891	16384	16419	0	316
-8.150	-8.186	16404	16427	0	316
-8.655	-9.953	16384	16438	0	316
-12.694	-12.730	16384	16446	0	316
-13.956	-12.550	16384	16450	0	316
-10.458	-11.396	16384	16450	0	316
-8.691	-10.566	16384	16446	0	316
-8.799	-11.468	16384	16442	0	316
-12.586	-15.290	16404	16438	0	316
-17.634	-18.356	16404	16442	0	316
-20.772	-18.933	16404	16450	0	316
-22.106	-18.644	16404	16458	0	316
-23.549	-20.844	16404	16450	0	316
-25.496	-24.450	16404	16431	0	316
-30.112	-30.436	16404	16411	0	316
-35.557	-32.925	16404	16399	0	316
-38.009	-32.167	16404	16395	0	316
-37.360	-28.092	16404	16387	0	316
-33.105	-23.404	16404	16377	0	316
-29.643	-20.159	16404	16353	0	316
-26.686	-23.116	16384	16326	0	316
-27.479	-25.784	16384	16306	0	316
-27.984	-26.506	16364	16282	0	316
-25.712	-24.017	16364	16263	0	316
-22.719	-21.854	16333	16247	0	316
-22.070	-20.736	16333	16235	0	316
-24.125	-22.719	16313	16228	0	316
-27.660	-25.243	16313	16228	0	316
-31.590	-27.371	16313	16235	0	316
-33.033	-25.460	16313	16251	0	316
-33.321	-25.929	16313	16259	0	316
-34.872	-27.335	16313	16271	0	316
-35.485	-31.266	16313	16294	0	316
-34.800	-31.662	16313	16330	0	316
-33.141	-31.626	16313	16361	0	316
-31.807	-29.138	16313	16384	0	316
-34.115	-28.453	16313	16395	0	316
-36.206	-28.850	16333	16411	0	316
-37.793	-27.984	16333	16427	0	316
-34.908	-28.128	16333	16438	0	316
-29.823	-23.837	16333	16446	0	316
-26.506	-21.421	16333	16446	0	316
-27.371	-20.916	16333	16438	0	316
-32.312	-24.198	16333	16435	0	316
-39.127	-28.958	16333	16442	0	316
-41.435	-34.295	16333	16450	0	316
-41.255	-36.423	16333	16450	0	316
-36.062	-36.026	16333	16454	0	316
-34.223	-35.593	16333	16454	0	316
-37.252	-35.485	16333	16454	0	316
-44.068	-35.557	16333	16446	0	316
-51.172	-37.000	16333	16438	0	316
-52.831	-35.233	16333	16431	0	316
-47.422	-33.033	16364	16415	0	316
-41.111	-32.023	16364	16399	0	316
-38.406	-35.593	16333	16384	0	316
-44.645	-41.255	16333	16377	0	316
-53.119	-47.926	16364	16373	0	316
-59.106	-52.759	16333	16373	0	316
-61.594	-54.778	16333	16377	0	316
-58.168	-51.641	16333	16381	0	316
-53.155	-48.215	16333	16384	0	316
-49.369	-43.274	16333	16391	0	316
-45.222	-38.370	16333	16399	0	316
-40.858	-34.692	16333	16403	0	316
-37.216	-32.131	16364	16407	0	316
-35.918	-30.977	16364	16415	0	316
-36.964	-31.302	16364	16423	0	316
-40.137	-33.321	16364	16427	0	316
-45.258	-38.911	16364	16431	0	316
-54.418	-48.323	16364	16438	0	316
-65.344	-61.414	16384	16446	0	316
-77.858	-73.278	16384	16458	0	316
-89.073	-82.113	16384	16470	0	316
-94.446	-85.070	16404	16478	0	316
-94.519	-81.825	16404	16489	0	316
-93.581	-79.950	16435	16497	0	316
-93.437	-79.228	16435	16497	0	316
-95.096	-81.608	16435	16493	0	316
-99.459	-86.405	16435	16478	0	316
-100.216	-87.559	16455	16458	0	316
-98.521	-86.044	16455	16438	0	316
-91.922	-82.618	16455	16423	0	316
-86.946	-78.471	16435	16403	0	316
-82.366	-76.488	16404	16377	0	316
-83.952	-79.553	16435	16345	0	316
-88.785	-82.690	16404	16314	0	316
-92.319	-83.772	16404	16298	0	316
-89.434	-80.058	16404	16282	0	316
-82.257	-71.980	16384	16271	0	316
-74.721	-65.957	16384	16251	0	316
-72.521	-64.046	16384	16235	0	316
-76.560	-68.554	16364	16231	0	316
-82.582	-70.934	16364	16235	0	316
-83.556	-70.573	16364	16243	0	316
-80.130	-64.335	16364	16251	0	316
-73.458	-58.961	16364	16267	0	316
-69.167	-53.624	16364	16290	0	316
-62.640	-52.074	16384	16318	0	316
-56.617	-49.730	16364	16337	0	316
-47.962	-44.392	16364	16349	0	316
-39.632	-37.577	16364	16353	0	316
-32.456	-30.220	16364	16365	0	316
-26.686	-22.358	16364	16377	0	316
-23.729	-16.480	16364	16384	0	316
-19.690	-12.874	16364	16381	0	316
-17.021	-10.783	16333	16373	0	316
-13.740	-6.708	16333	16365	0	316
-7.609	-2.200	16333	16365	0	316
0.036	6.383	16333	16369	0	316
10.169	18.103	16333	16384	0	316
19.798	28.994	16333	16387	0	316
27.335	37.865	16333	16391	0	316
32.276	43.527	16333	16391	0	316
37.973	46.376	16333	16391	0	316
43.347	51.244	16333	16391	0	316
50.379	55.788	16333	16391	0	316
55.463	59.719	16333	16391	0	316
56.293	60.873	16333	16387	0	316
54.922	57.843	16313	16384	0	316
54.057	57.735	16313	16365	0	316
56.185	59.034	16282	16341	0	316
60.765	63.577	16282	16318	0	316
61.450	66.823	16262	16306	0	316
57.483	60.873	16282	16310	0	316
50.307	53.480	16282	16314	0	316
42.661	44.356	16262	16314	0	316
40.462	40.714	16262	16314	0	316
40.714	40.426	16262	16326	0	316
41.039	43.274	16262	16345	0	316
43.599	44.284	16262	16369	0	316
45.005	47.926	16262	16391	0	316
48.792	51.244	16262	16411	0	316
54.418	56.726	16282	16427	0	316
60.368	62.135	16282	16442	0	316
63.541	65.957	16282	16454	0	316
67.544	66.787	16313	16454	0	316
69.564	67.400	16313	16450	0	316
69.960	67.147	16333	16450	0	316
70.754	68.770	16313	16450	0	316
71.619	73.350	16313	16450	0	316
72.773	76.920	16313	16454	0	316
73.494	79.192	16313	16458	0	316
71.006	73.747	16313	16462	0	316
64.443	65.020	16333	16466	0	316
56.798	53.877	16313	16458	0	316
51.316	46.989	16313	16435	0	316
51.064	45.871	16313	16411	0	316
53.372	46.195	16313	16395	0	316
53.191	45.546	16282	16381	0	316
46.556	39.308	16282	16361	0	316
36.639	28.273	16282	16345	0	316
25.820	17.238	16282	16353	0	316
17.670	10.783	16282	16373	0	316
14.064	8.619	16313	16381	0	316
12.081	9.412	16313	16381	0	316
11.504	9.953	16313	16377	0	316
10.710	8.799	16313	16381	0	316
13.271	8.547	16313	16384	0	316
17.346	10.855	16313	16384	0	316
22.106	18.031	16282	16381	0	316
29.354	26.397	16282	16381	0	316
36.639	34.980	16313	16387	0	316
43.996	42.301	16313	16399	0	316
49.405	46.304	16313	16407	0	316
50.054	46.340	16313	16415	0	316
43.996	43.058	16313	16415	0	316
33.682	36.639	16313	16415	0	316
24.198	28.741	16313	16411	0	316
19.401	22.863	16313	16399	0	316
18.428	16.913	16313	16387	0	316
16.949	12.694	16313	16384	0	316
10.746	6.311	16282	16381	0	316
0.685	0.433	16313	16377	0	316
-8.979	-4.147	16333	16377	0	316
-15.939	-5.517	16313	16381	0	316
-17.057	-8.114	16313	16387	0	316
-17.562	-10.025	16333	16399	0	316
-18.247	-14.064	16333	16411	0	316
-20.195	-19.077	16333	16423	0	316
-22.611	-21.601	16333	16427	0	316
-22.935	-20.339	16333	16427	0	316
-22.431	-16.372	16333	16423	0	316
-19.582	-11.648	16333	16419	0	316
-12.477	-2.957	16364	16419	0	316
-1.190	6.635	16364	16427	0	316
11.179	17.851	16364	16431	0	316
22.863	27.696	16364	16438	0	316
26.578	32.167	16364	16446	0	316
25.676	31.085	16384	16450	0	316
21.781	26.722	16384	16454	0	316
22.899	25.604	16384	16454	0	316
29.571	31.122	16384	16454	0	316
41.111	41.147	16404	16442	0	316
50.487	51.785	16404	16431	0	316
54.382	58.709	16404	16419	0	316
49.946	54.418	16404	16407	0	316
40.606	44.501	16404	16399	0	316
27.984	30.905	16404	16391	0	316
15.254	15.471	16404	16384	0	316
2.019	0.938	16404	16377	0	316
-12.441	-12.622	16404	16361	0	316
-28.164	-27.948	16384	16349	0	316
-42.734	-41.652	16384	16345	0	316
-53.877	-53.985	16384	16341	0	316
-64.299	-64.948	16384	16326	0	316
-75.622	-75.045	16384	16298	0	316
-91.201	-88.496	16364	16275	0	316
-107.032	-102.200	16333	16255	0	316
-120.339	-113.848	16333	16235	0	316
-126.073	-119.510	16313	16220	0	316
-123.945	-118.247	16313	16208	0	316
-115.723	-109.160	16282	16204	0	316
-105.770	-98.053	16282	16208	0	316
-93.256	-85.539	16262	16216	0	316
-84.241	-77.317	16262	16220	0	316
-78.182	-73.242	16262	16220	0	316
-79.084	-75.045	16262	16228	0	316
-79.733	-76.776	16262	16243	0	316
-77.786	-75.658	16262	16259	0	316
-69.419	-70.465	16231	16275	0	316
-62.063	-65.344	16231	16294	0	316
-58.060	-63.145	16231	16326	0	316
-60.801	-66.426	16231	16365	0	316
-64.299	-68.734	16262	16399	0	316
-64.840	-69.203	16262	16431	0	316
-60.548	-64.659	16262	16446	0	316
-53.155	-57.916	16262	16454	0	316
-46.268	-49.369	16313	16466	0	316
-38.731	-40.389	16313	16489	0	316
-27.479	-29.679	16313	16513	0	316
-14.353	-16.949	16313	16533	0	316
-1.082	-5.878	16333	16540	0	316
8.222	4.075	16333	16540	0	316
15.362	14.677	16333	16537	0	316
21.313	23.116	16333	16537	0	316
28.273	33.141	16364	16537	0	316
40.966	44.681	16364	16540	0	316
55.752	59.322	16364	16537	0	316
71.547	71.944	16364	16529	0	316
84.710	86.116	16384	16525	0	316
93.365	95.456	16384	16521	0	316
100.180	102.560	16384	16513	0	316
107.321	108.366	16384	16505	0	316
116.769	116.697	16404	16509	0	316
129.787	126.650	16404	16517	0	316
137.901	133.502	16435	16525	0	316
139.488	136.242	16435	16525	0	316
131.338	130.869	16455	16529	0	316
116.084	119.149	16455	16525	0	316
97.656	100.829	16486	16517	0	316
77.858	81.717	16486	16501	0	316
58.889	61.666	16455	16482	0	316
41.832	42.950	16506	16470	0	316
26.109	29.931	16506	16466	0	316
14.389	19.906	16506	16462	0	316
9.448	16.084	16506	16450	0	316
9.556	16.516	16506	16431	0	316
13.523	19.221	16506	16403	0	316
17.562	20.087	16506	16373	0	316
19.185	21.673	16506	16337	0	316
21.277	20.952	16486	16302	0	316
23.585	23.296	16486	16275	0	316
25.532	24.811	16486	16259	0	316
24.847	23.621	16455	16243	0	316
14.966	14.930	16455	16220	0	316
1.262	3.498	16435	16192	0	316
-12.946	-9.124	16435	16161	0	316
-23.260	-16.985	16404	16137	0	316
-28.814	-23.116	16364	16118	0	316
-34.728	-28.309	16384	16106	0	316
-39.272	-34.944	16364	16098	0	316
-41.652	-39.235	16333	16102	0	316
-41.075	-39.596	16333	16110	0	316
-34.583	-34.331	16313	16125	0	316
-27.155	-28.273	16313	16137	0	316
-19.870	-20.988	16282	16145	0	316
-15.687	-18.211	16282	16153	0	316
-15.254	-19.329	16262	16169	0	316
-19.437	-23.080	16262	16192	0	316
-24.089	-25.279	16231	16212	0	316
-27.335	-25.424	16231	16231	0	316
-20.050	-18.283	16211	16247	0	316
-5.229	-4.436	16211	16263	0	316
18.500	14.064	16211	16282	0	316
41.399	34.547	16231	16302	0	316
57.447	50.631	16211	16326	0	316
62.279	60.909	16211	16357	0	316
60.188	65.200	16211	16391	0	316
55.860	65.489	16211	16423	0	316
51.929	62.712	16211	16450	0	316
49.441	57.122	16231	16478	0	316
45.799	52.578	16231	16509	0	316
42.806	49.080	16262	16544	0	316
40.930	49.189	16282	16576	0	316
40.281	52.001	16282	16599	0	316
39.632	52.074	16313	16623	0	316
37.468	48.936	16333	16643	0	316
33.105	43.563	16333	16646	0	316
27.047	37.180	16333	16639	0	316
20.772	30.617	16364	16631	0	316
13.018	24.522	16364	16627	0	316
4.652	20.231	16384	16627	0	316
0.505	16.336	16384	16623	0	316
-1.731	13.487	16384	16611	0	316
-0.649	12.081	16384	16584	0	316
0.974	9.592	16384	16548	0	316
-0.325	3.967	16384	16513	0	316
-4.724	0.541	16384	16478	0	316
-7.537	-3.678	16384	16454	0	316
-9.629	-5.517	16384	16438	0	316
-11.900	-3.895	16384	16427	0	316
-13.091	-1.947	16384	16419	0	316
-13.631	0.252	16384	16407	0	316
-16.516	0.252	16384	16391	0	316
-18.933	-3.029	16384	16381	0	316
-21.926	-8.114	16384	16365	0	316
-26.253	-16.228	16384	16349	0	316
-29.354	-22.250	16384	16341	0	316
-32.708	-27.407	16384	16341	0	316
-34.656	-29.463	16384	16341	0	316
-37.721	-32.239	16404	16353	0	316
-41.976	-35.305	16404	16365	0	316
-43.743	-38.154	16404	16373	0	316
-43.635	-38.947	16404	16384	0	316
-41.039	-36.170	16435	16391	0	316
-38.839	-32.889	16435	16403	0	316
-38.514	-31.662	16435	16411	0	316
-40.245	-32.600	16455	16415	0	316
-40.065	-33.538	16455	16411	0	316
-35.882	-33.321	16455	16399	0	316
-29.823	-30.292	16455	16391	0	316
-22.575	-25.748	16455	16387	0	316
-19.149	-24.775	16455	16391	0	316
-19.437	-24.630	16455	16403	0	316
-20.483	-25.388	16455	16411	0	316
-17.851	-26.361	16455	16415	0	316
-12.261	-23.873	16486	16415	0	316
-5.481	-18.572	16486	16415	0	316
0.505	-13.559	16486	16411	0	316
3.931	-5.770	16486	16403	0	316
6.671	-0.288	16506	16399	0	316
6.960	5.842	16506	16395	0	316
6.960	9.737	16506	16399	0	316
4.111	10.602	16506	16399	0	316
1.803	11.107	16486	16391	0	316
0.541	8.366	16506	16381	0	316
2.308	6.816	16506	16369	0	316
2.921	4.904	16486	16361	0	316
4.508	6.167	16486	16353	0	316
5.914	9.232	16486	16341	0	316
9.737	15.362	16486	16337	0	316
15.110	20.700	16506	16337	0	316
19.185	22.755	16506	16341	0	316
20.050	20.159	16486	16333	0	316
17.526	15.579	16486	16322	0	316
16.336	14.245	16486	16318	0	316
20.014	17.382	16486	16322	0	316
27.551	27.515	16506	16330	0	316
37.036	36.928	16486	16330	0	316
42.265	42.301	16486	16322	0	316
43.960	41.183	16455	16318	0	316
39.921	34.656	16455	16310	0	316
35.521	27.263	16455	16294	0	316
31.807	23.188	16435	16279	0	316
27.696	21.565	16435	16259	0	316
24.594	21.168	16404	16247	0	316
20.916	19.798	16404	16243	0	316
17.995	19.473	16404	16243	0	316
15.795	17.021	16384	16251	0	316
14.533	16.408	16384	16267	0	316
14.966	15.615	16384	16290	0	316
14.641	15.362	16384	16314	0	316
14.497	14.497	16384	16330	0	316
12.514	13.884	16384	16341	0	316
9.160	11.576	16384	16345	0	316
4.003	7.501	16384	16341	0	316
1.479	4.255	16384	16341	0	316
1.190	4.652	16384	16341	0	316
3.750	7.176	16364	16345	0	316
6.744	11.648	16364	16345	0	316
7.140	14.028	16364	16353	0	316
7.789	13.668	16364	16369	0	316
8.330	12.441	16364	16387	0	316
9.448	11.396	16384	16415	0	316
9.701	11.720	16384	16438	0	316
9.845	13.163	16384	16454	0	316
9.124	15.435	16384	16466	0	316
10.061	19.041	16384	16470	0	316
13.379	21.313	16404	16474	0	316
13.127	21.060	16404	16478	0	316
10.169	17.815	16404	16474	0	316
3.354	11.937	16404	16466	0	316
-0.288	7.573	16404	16450	0	316
-0.505	7.248	16404	16442	0	316
4.472	11.287	16404	16446	0	316
8.979	12.405	16404	16454	0	316
9.989	11.215	16404	16458	0	316
4.760	4.940	16404	16458	0	316
-1.118	-1.082	16435	16454	0	316
-5.193	-3.498	16435	16450	0	316
-5.445	0.325	16435	16446	0	316
-1.551	7.032	16435	16442	0	316
1.911	13.018	16435	16435	0	316
3.642	14.317	16435	16423	0	316
1.551	11.035	16435	16415	0	316
-3.931	1.515	16435	16403	0	316
-10.999	-8.186	16435	16391	0	316
-14.136	-12.117	16435	16384	0	316
-14.641	-10.386	16435	16384	0	316
-11.612	-2.921	16435	16384	0	316
-7.393	2.308	16404	16384	0	316
-7.321	2.416	16435	16381	0	316
-8.475	-1.839	16435	16381	0	316
-12.117	-9.052	16435	16384	0	316
-12.153	-12.369	16435	16387	0	316
-12.514	-12.658	16404	16387	0	316
-11.720	-10.602	16404	16381	0	316
-10.530	-7.645	16404	16369	0	316
-10.422	-3.931	16404	16361	0	316
-10.602	-4.291	16404	16365	0	316
-10.386	-6.419	16404	16373	0	316
-11.828	-11.179	16404	16373	0	316
-15.218	-18.428	16404	16373	0	316
-19.798	-23.729	16404	16369	0	316
-25.424	-30.112	16404	16361	0	316
-30.328	-34.439	16404	16361	0	316
-36.134	-38.731	16404	16361	0	316
-41.219	-44.284	16435	16373	0	316
-48.467	-50.090	16435	16387	0	316
-55.932	-57.663	16435	16403	0	316
-62.604	-64.407	16435	16415	0	316
-68.049	-69.744	16455	16419	0	316
-70.790	-73.494	16455	16415	0	316
-71.223	-74.396	16455	16411	0	316
-70.321	-76.199	16455	16411	0	316
-67.833	-75.838	16455	16403	0	316
-64.515	-75.045	16455	16403	0	316
-63.036	-71.691	16455	16407	0	316
-61.414	-68.446	16486	16411	0	316
-60.260	-64.587	16486	16415	0	316
-58.925	-60.332	16486	16419	0	316
-54.165	-54.526	16486	16427	0	316
-47.422	-48.431	16506	16435	0	316
-40.750	-40.029	16486	16435	0	316
-35.882	-35.160	16486	16427	0	316
-35.160	-33.718	16486	16419	0	316
-38.118	-35.233	16486	16411	0	316
-41.471	-38.082	16486	16403	0	316
-42.770	-38.911	16486	16391	0	316
-39.812	-36.206	16486	16387	0	316
-33.754	-30.076	16506	16391	0	316
-28.309	-24.486	16506	16395	0	316
-25.748	-21.962	16506	16395	0	316
-26.542	-25.712	16486	16384	0	316
-30.508	-30.545	16506	16369	0	316
-31.482	-35.449	16486	16349	0	316
-30.617	-36.495	16455	16333	0	316
-26.650	-33.141	16455	16310	0	316
-22.935	-30.076	16455	16294	0	316
-23.116	-27.948	16435	16279	0	316
-25.316	-29.282	16435	16263	0	316
-29.643	-32.167	16435	16255	0	316
-30.436	-34.403	16404	16251	0	316
-28.128	-33.105	16404	16243	0	316
-22.034	-27.155	16384	16231	0	316
-17.129	-20.159	16384	16224	0	316
-15.507	-15.975	16384	16224	0	316
-16.444	-16.228	16364	16228	0	316
-18.428	-18.933	16364	16239	0	316
-19.293	-21.818	16364	16263	0	316
-18.175	-21.241	16364	16302	0	316
-15.651	-19.329	16364	16337	0	316
-13.307	-16.516	16364	16365	0	316
-11.504	-13.812	16384	16384	0	316
-9.376	-13.018	16384	16399	0	316
-8.294	-11.576	16384	16411	0	316
-10.566	-13.379	16384	16419	0	316
-12.982	-18.536	16384	16423	0	316
-18.392	-24.198	16384	16423	0	316
-21.385	-29.679	16384	16431	0	316
-20.591	-31.699	16384	16438	0	316
-16.985	-28.309	16384	16450	0	316
-11.720	-25.063	16384	16454	0	316
-9.376	-23.008	16384	16442	0	316
-11.323	-24.017	16384	16431	0	316
-11.756	-27.227	16384	16423	0	316
-10.746	-29.679	16384	16423	0	316
-5.986	-31.158	16384	16423	0	316
-1.623	-33.754	16384	16431	0	316
-0.938	-39.632	16384	16427	0	316
-5.265	-45.114	16384	16419	0	316
-8.114	-49.297	16384	16411	0	316
-9.340	-49.657	16384	16411	0	316
-7.212	-45.078	16384	16411	0	316
-7.068	-41.724	16384	16411	0	316
-8.547	-37.685	16384	16403	0	316
-14.136	-36.675	16384	16387	0	316
-19.365	-38.767	16384	16381	0	316
-25.171	-43.635	16384	16369	0	316
-28.525	-48.143	16364	16365	0	316
-31.049	-53.408	16364	16369	0	316
-31.122	-53.696	16364	16377	0	316
-24.378	-47.999	16384	16384	0	316
-16.336	-40.714	16384	16387	0	316
-5.517	-33.033	16384	16399	0	316
-0.036	-27.984	16384	16407	0	316
0.757	-26.650	16384	16415	0	316
-4.039	-30.725	16384	16423	0	316
-9.809	-35.269	16404	16438	0	316
-13.451	-39.235	16404	16454	0	316
-15.110	-40.894	16404	16458	0	316
-16.985	-40.281	16404	16458	0	316
-18.824	-36.855	16435	16450	0	316
-20.988	-34.728	16435	16450	0	316
-19.149	-31.951	16435	16458	0	316
-14.858	-28.597	16455	16466	0	316
-8.078	-24.991	16455	16466	0	316
-3.534	-23.368	16455	16454	0	316
-5.409	-22.539	16455	16446	0	316
-8.835	-23.080	16455	16435	0	316
-11.828	-21.637	16455	16423	0	316
-12.297	-18.536	16455	16407	0	316
-10.999	-17.274	16455	16384	0	316
-11.756	-19.510	16455	16365	0	316
-15.074	-25.856	16435	16345	0	316
-19.690	-31.446	16435	16330	0	316
-19.942	-35.413	16435	16310	0	316
-16.733	-34.836	16435	16294	0	316
-8.366	-29.751	16384	16286	0	316
-1.406	-23.080	16384	16286	0	316
4.724	-15.326	16384	16290	0	316
10.386	-7.898	16384	16302	0	316
12.369	-4.904	16384	16318	0	316
11.251	-7.176	16384	16322	0	316
7.176	-13.054	16384	16330	0	316
-1.010	-19.618	16384	16341	0	316
-8.150	-26.470	16384	16353	0	316
-14.064	-28.561	16384	16361	0	316
-17.490	-28.741	16384	16369	0	316
-18.428	-26.145	16384	16373	0	316
-19.978	-24.991	16384	16373	0	316
-21.998	-24.919	16384	16377	0	316
-23.837	-29.535	16384	16377	0	316
-27.551	-35.701	16384	16369	0	316
-32.059	-43.238	16384	16361	0	316
-36.531	-47.566	16384	16357	0	316
-37.505	-47.422	16384	16365	0	316
-34.367	-41.471	16384	16369	0	316
-27.876	-33.718	16384	16369	0	316
-20.375	-28.056	16384	16365	0	316
-15.507	-26.433	16384	16369	0	316
-14.533	-31.049	16384	16381	0	316
-12.477	-34.151	16384	16384	0	316
-10.566	-36.675	16384	16381	0	316
-7.825	-36.242	16384	16384	0	316
-7.285	-38.550	16384	16391	0	316
-12.694	-44.789	16384	16399	0	316
-20.014	-50.126	16384	16403	0	316
-27.371	-55.572	16384	16403	0	316
-28.309	-53.480	16384	16403	0	316
-24.125	-46.592	16384	16403	0	316
-17.202	-37.793	16384	16407	0	316
-12.333	-31.915	16384	16419	0	316
-12.441	-31.446	16384	16427	0	316
-17.923	-37.036	16384	16427	0	316
-23.332	-45.186	16384	16415	0	316
-27.299	-52.001	16384	16395	0	316
-28.056	-54.922	16384	16381	0	316
-28.417	-54.886	16364	16357	0	316
-27.696	-51.244	16384	16341	0	316
-24.847	-47.566	16384	16337	0	316
-20.736	-43.419	16384	16341	0	316
-17.598	-39.849	16384	16345	0	316
-16.625	-41.003	16384	16353	0	316
-20.267	-43.491	16384	16369	0	316
-24.162	-43.924	16384	16384	0	316
-23.224	-38.983	16384	16399	0	316
-16.661	-28.489	16404	16411	0	316
-7.176	-17.238	16384	16423	0	316
1.010	-9.196	16384	16435	0	316
7.934	-6.455	16384	16450	0	316
11.179	-6.131	16404	16458	0	316
14.028	-4.327	16404	16446	0	316
14.569	-3.318	16404	16427	0	316
10.855	-1.911	16384	16415	0	316
7.393	-2.344	16384	16407	0	316
3.390	-2.957	16384	16395	0	316
3.390	-2.452	16384	16387	0	316
5.193	0.361	16384	16384	0	316
6.563	2.236	16384	16384	0	316
4.003	3.787	16384	16384	0	316
0.433	-0.036	16384	16384	0	316
-2.849	-4.003	16384	16384	0	316
-4.688	-9.520	16384	16384	0	316
-5.265	-10.819	16384	16377	0	316
-7.970	-12.189	16384	16365	0	316
-13.379	-13.163	16384	16349	0	316
-18.680	-14.281	16364	16330	0	316
-21.818	-17.021	16364	16314	0	316
-21.457	-17.562	16364	16306	0	316
-17.923	-15.831	16364	16310	0	316
-12.081	-13.271	16384	16322	0	316
-7.068	-11.828	16364	16330	0	316
-1.983	-10.314	16364	16337	0	316
-0.649	-11.468	16364	16345	0	316
-2.416	-11.396	16364	16353	0	316
-5.517	-10.927	16364	16365	0	316
-9.953	-10.206	16384	16373	0	316
-10.566	-8.294	16384	16381	0	316
-10.350	-7.645	16384	16384	0	316
-8.691	-6.780	16384	16391	0	316
-9.304	-5.373	16384	16395	0	316
-9.196	-2.885	16384	16399	0	316
-9.268	-1.334	16384	16403	0	316
-7.753	-0.757	16384	16403	0	316
-4.796	0.180	16384	16407	0	316
-1.623	0.361	16384	16419	0	316
-0.216	2.524	16384	16435	0	316
-2.128	4.652	16404	16446	0	316
-6.852	2.380	16404	16462	0	316
-15.939	-5.013	16404	16474	0	316
-24.955	-12.730	16435	16478	0	316
-28.381	-20.303	16435	16470	0	316
-26.289	-20.519	16404	16462	0	316
-17.454	-15.579	16404	16458	0	316
-9.520	-8.186	16404	16450	0	316
-5.842	-4.364	16404	16442	0	316
-8.583	-5.229	16404	16431	0	316
-15.290	-10.855	16404	16415	0	316
-18.103	-16.408	16404	16407	0	316
-19.365	-16.985	16404	16415	0	316
-16.300	-13.668	16435	16415	0	316
-13.487	-10.855	16435	16411	0	316
-11.792	-9.629	16435	16403	0	316
-11.179	-11.792	16435	16391	0	316
-12.189	-13.163	16435	16384	0	316
-11.251	-13.956	16404	16373	0	316
-13.163	-10.674	16404	16361	0	316
-15.651	-8.475	16404	16349	0	316
-17.454	-7.573	16404	16337	0	316
-18.860	-7.248	16404	16318	0	316
-17.959	-5.157	16384	16298	0	316
-15.975	-6.852	16384	16286	0	316
-14.785	-6.996	16384	16279	0	316
-13.668	-9.665	16384	16282	0	316
-14.749	-10.855	16364	16286	0	316
-16.084	-13.018	16364	16282	0	316
-18.897	-12.910	16364	16275	0	316
-22.755	-14.713	16333	16259	0	316
-25.496	-14.497	16313	16239	0	316
-26.938	-16.372	16313	16224	0	316
-25.856	-18.211	16282	16216	0	316
-25.640	-19.654	16282	16216	0	316
-26.001	-23.440	16262	16216	0	316
-27.732	-25.099	16262	16224	0	316
-24.017	-23.873	16262	16235	0	316
-18.536	-16.336	16262	16251	0	316
-10.061	-6.744	16262	16267	0	316
-2.056	4.544	16262	16286	0	316
0.685	11.937	16262	16318	0	316
-1.190	13.307	16262	16349	0	316
-5.662	9.088	16262	16381	0	316
-12.874	2.092	16262	16403	0	316
-17.490	-5.265	16262	16435	0	316
-19.762	-8.583	16262	16458	0	316
-18.283	-8.114	16262	16474	0	316
-12.045	-2.741	16282	16478	0	316
-6.635	4.327	16333	16489	0	316
-3.246	9.268	16313	16497	0	316
-5.409	10.891	16313	16501	0	316
-9.845	6.383	16313	16497	0	316
-18.175	0.361	16313	16489	0	316
-24.234	-5.157	16313	16482	0	316
-25.388	-6.022	16313	16482	0	316
-22.575	-1.154	16313	16486	0	316
-16.985	6.671	16313	16482	0	316
-13.668	10.025	16313	16478	0	316
-13.271	6.563	16313	16478	0	316
-16.733	-2.128	16333	16486	0	316
-16.841	-8.907	16333	16509	0	316
-11.576	-6.635	16364	16537	0	316
-5.157	3.282	16364	16556	0	316
0.144	12.586	16384	16564	0	316
-0.721	14.894	16384	16556	0	316
-5.662	9.845	16404	16540	0	316
-7.609	2.777	16404	16533	0	316
-5.626	0.829	16404	16525	0	316
-1.046	3.967	16435	16521	0	316
2.380	6.131	16435	16517	0	316
1.587	5.445	16435	16505	0	316
-1.911	0.000	16435	16482	0	316
-4.652	-4.796	16435	16446	0	316
-5.193	-6.058	16435	16423	0	316
-6.455	-5.517	16435	16403	0	316
-8.907	-3.101	16435	16391	0	316
-16.444	-5.013	16435	16377	0	316
-23.008	-10.494	16435	16357	0	316
-28.958	-16.228	16435	16330	0	316
-30.472	-20.880	16404	16306	0	316
-28.525	-22.214	16404	16282	0	316
-27.443	-22.899	16404	16263	0	316
-26.470	-21.132	16404	16255	0	316
-25.243	-21.024	16384	16251	0	316
-20.952	-18.247	16384	16263	0	316
-14.713	-13.595	16384	16275	0	316
-9.052	-7.970	16384	16286	0	316
-7.609	-6.996	16404	16294	0	316
-8.655	-6.022	16404	16310	0	316
-12.369	-5.950	16404	16330	0	316
-11.179	-4.291	16404	16353	0	316
-8.547	-0.793	16435	16377	0	316
-3.101	1.046	16435	16395	0	316
0.361	0.577	16404	16415	0	316
1.695	-3.534	16455	16435	0	316
0.505	-5.590	16455	16446	0	316
-1.983	-5.373	16486	16458	0	316
-4.832	-1.803	16455	16470	0	316
-8.402	0.613	16486	16482	0	316
-10.133	1.442	16486	16482	0	316
-12.622	-2.056	16486	16474	0	316
-14.100	-6.780	16486	16466	0	316
-13.343	-9.881	16506	16458	0	316
-12.153	-10.458	16506	16446	0	316
-9.304	-8.330	16506	16435	0	316
-5.914	-5.085	16506	16423	0	316
-5.409	-4.147	16506	16415	0	316
-5.986	-3.678	16506	16403	0	316
-7.248	-4.760	16506	16399	0	316
-10.097	-6.744	16486	16391	0	316
-11.287	-6.131	16486	16384	0	316
-12.946	-8.042	16486	16369	0	316
-14.461	-6.383	16486	16349	0	316
-16.444	-8.078	16486	16322	0	316
-15.074	-7.898	16486	16302	0	316
-13.127	-8.547	16455	16282	0	316
-10.025	-8.114	16455	16267	0	316
-8.006	-6.780	16455	16247	0	316
-7.753	-3.390	16435	16243	0	316
-7.104	2.092	16435	16243	0	316
-6.744	8.619	16435	16251	0	316
-3.967	13.631	16435	16255	0	316
-2.344	15.002	16435	16259	0	316
-3.570	9.304	16404	16267	0	316
-4.436	4.652	16404	16279	0	316
-4.760	0.974	16404	16290	0	316
-0.685	1.298	16404	16306	0	316
3.967	2.957	16404	16314	0	316
8.871	5.626	16404	16314	0	316
8.727	5.950	16384	16310	0	316
8.078	5.734	16384	16306	0	316
6.058	6.419	16384	16306	0	316
7.104	7.357	16384	16310	0	316
6.131	4.544	16384	16314	0	316
3.931	-1.082	16364	16306	0	316
-0.721	-5.049	16364	16298	0	316
-3.065	-6.058	16333	16298	0	316
-2.452	-1.587	16333	16294	0	316
1.334	3.859	16313	16294	0	316
3.931	6.852	16313	16306	0	316
3.210	4.508	16313	16322	0	316
-0.433	-1.406	16313	16345	0	316
-3.642	-5.085	16313	16369	0	316
-4.364	-6.131	16313	16391	0	316
-3.931	-6.816	16333	16419	0	316
-1.226	-7.212	16333	16446	0	316
1.731	-7.357	16333	16470	0	316
4.508	-4.544	16333	16478	0	316
5.049	-2.993	16333	16478	0	316
5.445	-2.092	16333	16474	0	316
1.587	-3.462	16333	16478	0	316
-2.380	-7.825	16364	16493	0	316
-4.580	-9.484	16364	16509	0	316
-4.147	-6.347	16364	16521	0	316
-2.741	-4.219	16384	16529	0	316
-0.757	-2.019	16384	16533	0	316
-2.056	-5.770	16384	16533	0	316
-6.022	-11.468	16404	16525	0	316
-10.999	-16.733	16384	16501	0	316
-14.461	-19.546	16384	16474	0	316
-14.605	-18.969	16384	16454	0	316
-13.956	-18.680	16384	16442	0	316
-14.641	-18.860	16404	16438	0	316
-16.120	-21.168	16404	16435	0	316
-19.690	-19.798	16404	16435	0	316
-18.139	-16.769	16404	16427	0	316
-14.749	-10.783	16404	16423	0	316
-10.602	-8.439	16404	16415	0	316
-9.881	-11.468	16404	16407	0	316
-11.900	-16.769	16404	16399	0	316
-14.353	-19.654	16404	16395	0	316
-13.415	-20.375	16404	16395	0	316
-10.494	-16.552	16435	16399	0	316
-6.888	-13.704	16435	16403	0	316
-5.626	-14.641	16435	16407	0	316
-6.347	-14.785	16435	16407	0	316
-5.590	-13.523	16435	16395	0	316
-4.075	-11.937	16435	16384	0	316
-3.823	-9.088	16435	16369	0	316
-2.380	-8.150	16435	16361	0	316
-2.813	-6.491	16435	16361	0	316
-3.859	-6.239	16435	16361	0	316
-4.724	-6.635	16435	16361	0	316
-10.242	-9.592	16435	16357	0	316
-16.120	-15.290	16435	16353	0	316
-20.700	-19.726	16435	16349	0	316
-22.539	-19.690	16435	16345	0	316
-18.464	-16.733	16404	16337	0	316
-14.425	-12.946	16435	16333	0	316
-15.110	-14.281	16435	16330	0	316
-17.021	-17.526	16404	16326	0	316
-21.926	-22.539	16404	16322	0	316
-23.044	-22.719	16404	16326	0	316
-21.781	-19.942	16384	16322	0	316
-20.231	-17.562	16384	16314	0	316
-18.824	-17.129	16364	16298	0	316
-19.149	-16.048	16384	16286	0	316
-15.074	-14.785	16384	16275	0	316
-9.953	-9.196	16364	16271	0	316
-5.698	-3.426	16364	16279	0	316
-3.210	-1.370	16364	16294	0	316
-3.823	-1.010	16364	16310	0	316
-6.094	-2.921	16364	16326	0	316
-7.537	-5.049	16364	16337	0	316
-6.960	-7.176	16364	16349	0	316
-8.547	-9.232	16384	16365	0	316
-8.907	-11.648	16364	16377	0	316
-9.556	-13.523	16364	16387	0	316
-9.917	-14.821	16364	16403	0	316
-12.009	-14.172	16364	16407	0	316
-14.100	-15.687	16364	16411	0	316
-16.877	-15.471	16364	16407	0	316
-17.995	-14.425	16364	16399	0	316
-16.372	-13.848	16364	16387	0	316
-14.605	-13.127	16364	16384	0	316
-13.487	-13.704	16333	16381	0	316
-14.533	-16.552	16333	16381	0	316
-17.490	-20.736	16333	16377	0	316
-19.329	-22.322	16333	16377	0	316
-20.087	-23.729	16333	16384	0	316
-19.293	-22.106	16333	16391	0	316
-18.392	-19.762	16333	16407	0	316
-19.473	-19.978	16333	16419	0	316
-20.844	-18.933	16364	16431	0	316
-19.546	-19.185	16364	16438	0	316
-16.552	-14.353	16364	16438	0	316
-9.809	-7.609	16364	16435	0	316
-7.645	-3.931	16364	16427	0	316
-8.475	-1.767	16364	16423	0	316
-10.999	-2.813	16364	16431	0	316
-9.520	-1.875	16364	16431	0	316
-5.049	1.551	16364	16419	0	316
2.560	8.042	16364	16403	0	316
7.068	9.340	16364	16399	0	316
8.547	8.258	16364	16403	0	316
7.248	3.390	16333	16403	0	316
5.842	0.216	16333	16395	0	316
4.868	-1.334	16333	16395	0	316
0.829	-4.147	16333	16387	0	316
-3.823	-7.357	16333	16381	0	316
-6.780	-12.045	16333	16361	0	316
-9.989	-15.759	16333	16353	0	316
-11.071	-19.113	16333	16345	0	316
-12.225	-21.421	16333	16333	0	316
-14.641	-22.286	16333	16322	0	316
-16.264	-25.063	16333	16318	0	316
-16.805	-27.083	16313	16326	0	316
-17.743	-30.076	16313	16330	0	316
-19.546	-36.242	16313	16333	0	316
-24.991	-39.921	16313	16330	0	316
-28.777	-42.301	16313	16326	0	316
-32.167	-40.570	16282	16318	0	316
-29.102	-35.377	16282	16310	0	316
-22.719	-29.463	16262	16306	0	316
-14.208	-24.847	16262	16314	0	316
-8.907	-22.214	16262	16326	0	316
-6.744	-21.385	16262	16341	0	316
-8.150	-21.529	16262	16353	0	316
-9.845	-21.745	16282	16361	0	316
-9.701	-21.385	16313	16377	0	316
-6.599	-19.726	16282	16391	0	316
-5.445	-21.204	16282	16407	0	316
-5.481	-21.781	16282	16423	0	316
-6.419	-21.493	16313	16442	0	316
-9.484	-21.277	16313	16462	0	316
-9.701	-19.834	16313	16478	0	316
-10.891	-21.204	16333	16493	0	316
-14.749	-25.676	16333	16509	0	316
-18.752	-32.600	16364	16533	0	316
-23.765	-39.199	16364	16548	0	316
-24.053	-38.370	16364	16552	0	316
-19.942	-36.134	16384	16544	0	316
-15.471	-28.020	16384	16529	0	316
-13.487	-22.899	16384	16521	0	316
-15.723	-20.411	16384	16517	0	316
-20.231	-22.034	16404	16509	0	316
-22.503	-23.512	16404	16493	0	316
-19.906	-24.342	16404	16474	0	316
-15.723	-24.702	16404	16450	0	316
-11.107	-26.506	16404	16427	0	316
-10.169	-27.299	16384	16399	0	316
-9.340	-29.030	16384	16377	0	316
-8.979	-24.630	16384	16353	0	316
-6.744	-15.795	16384	16330	0	316
-2.813	-6.311	16364	16310	0	316
-1.298	-0.397	16364	16298	0	316
-1.262	-1.154	16364	16294	0	316
-3.246	-7.609	16364	16302	0	316
-5.049	-15.218	16364	16314	0	316
-7.176	-19.257	16364	16333	0	316
-6.708	-21.745	16384	16353	0	316
-6.635	-20.772	16384	16373	0	316
-10.061	-22.034	16384	16384	0	316
-13.920	-24.198	16384	16384	0	316
-18.644	-26.614	16384	16384	0	316
-20.483	-24.198	16384	16387	0	316
-20.519	-21.854	16384	16384	0	316
-17.815	-17.238	16384	16381	0	316
-16.949	-16.012	16384	16381	0	316
-19.582	-18.031	16404	16384	0	316
-22.358	-21.962	16404	16391	0	316
-23.224	-23.801	16404	16403	0	316
-18.428	-21.565	16404	16403	0	316
-9.989	-16.336	16404	16411	0	316
-0.180	-8.186	16435	16419	0	316
5.265	-4.544	16435	16431	0	316
5.698	-3.534	16435	16442	0	316
0.649	-3.859	16455	16454	0	316
-4.255	-6.275	16455	16462	0	316
-5.517	-4.904	16455	16462	0	316
-6.058	-3.642	16486	16462	0	316
-4.868	-3.282	16486	16470	0	316
-2.957	-2.669	16486	16478	0	316
-0.180	-2.741	16506	16482	0	316
3.714	0.144	16506	16478	0	316
6.924	1.875	16506	16470	0	316
5.986	1.046	16506	16458	0	316
0.325	-4.075	16506	16446	0	316
-8.402	-10.350	16506	16431	0	316
-12.802	-14.172	16506	16411	0	316
-12.333	-13.920	16506	16384	0	316
-10.025	-10.963	16506	16357	0	316
-7.717	-9.556	16506	16326	0	316
-7.934	-9.773	16486	16294	0	316
-9.520	-11.720	16486	16271	0	316
-9.773	-11.900	16455	16247	0	316
-9.773	-13.127	16455	16231	0	316
-12.658	-13.163	16435	16216	0	316
-16.228	-13.595	16404	16200	0	316
-18.933	-10.494	16384	16184	0	316
-16.949	-3.750	16384	16173	0	316
-11.179	2.596	16384	16176	0	316
-5.806	6.239	16364	16192	0	316
-3.318	5.373	16364	16208	0	316
-3.282	1.082	16364	16224	0	316
-5.590	-1.839	16364	16247	0	316
-4.977	-2.633	16364	16279	0	316
-4.364	-1.623	16364	16314	0	316
-2.560	-0.288	16384	16337	0	316
-0.541	1.947	16384	16349	0	316
3.282	5.121	16384	16361	0	316
8.186	8.907	16384	16377	0	316
11.684	14.785	16384	16387	0	316
12.802	17.057	16384	16399	0	316
11.684	15.795	16404	16407	0	316
7.032	10.097	16384	16419	0	316
4.075	3.390	16384	16431	0	316
3.246	-1.767	16384	16446	0	316
4.904	-2.957	16384	16454	0	316
6.599	-0.721	16384	16458	0	316
7.321	-0.902	16384	16458	0	316
3.246	-1.983	16384	16458	0	316
-3.354	-7.501	16384	16454	0	316
-9.232	-11.035	16384	16450	0	316
-13.812	-12.874	16384	16438	0	316
-12.946	-13.668	16384	16423	0	316
-12.045	-10.710	16384	16407	0	316
-8.943	-7.970	16384	16387	0	316
-4.796	-3.859	16384	16381	0	316
0.000	3.246	16364	16373	0	316
5.013	10.710	16384	16361	0	316
6.022	14.425	16384	16353	0	316
2.236	11.468	16384	16357	0	316
-4.508	5.914	16384	16369	0	316
-7.465	-0.541	16384	16384	0	316
-6.780	-2.236	16384	16399	0	316
-1.839	-0.757	16404	16419	0	316
0.685	-0.505	16384	16438	0	316
-2.524	-3.246	16384	16450	0	316
-7.393	-6.671	16404	16458	0	316
-12.225	-7.465	16404	16470	0	316
-10.783	-4.039	16404	16478	0	316
-7.068	1.911	16435	16482	0	316
-1.839	5.770	16435	16474	0	316
-0.721	5.770	16435	16466	0	316
-3.967	0.541	16435	16454	0	316
-10.674	-6.347	16435	16438	0	316
-17.562	-14.785	16435	16419	0	316
-19.762	-19.798	16404	16395	0	316
-18.356	-20.159	16404	16381	0	316
-13.127	-16.949	16404	16369	0	316
-8.871	-12.586	16404	16365	0	316
-9.629	-12.009	16404	16365	0	316
-11.684	-12.550	16404	16369	0	316
-13.956	-15.651	16404	16361	0	316
-14.100	-14.894	16404	16349	0	316
-9.845	-11.684	16404	16345	0	316
-6.852	-5.914	16404	16345	0	316
-5.517	-3.318	16404	16353	0	316
-7.429	-4.652	16404	16357	0	316
-10.530	-9.556	16404	16361	0	316
-13.235	-14.605	16404	16353	0	316
-12.441	-16.012	16404	16345	0	316
-10.169	-12.225	16404	16345	0	316
-7.465	-6.635	16404	16349	0	316
-5.950	-3.173	16404	16353	0	316
-5.121	-2.633	16404	16349	0	316
-5.842	-6.527	16384	16337	0	316
-5.193	-7.357	16384	16330	0	316
-5.554	-8.186	16384	16337	0	316
-7.609	-6.780	16384	16349	0	316
-8.943	-6.167	16384	16361	0	316
-11.251	-7.357	16384	16365	0	316
-10.278	-5.842	16384	16377	0	316
-9.412	-4.832	16404	16387	0	316
-5.806	-1.587	16404	16403	0	316
-6.203	-1.479	16404	16415	0	316
-7.393	-4.400	16404	16427	0	316
-10.638	-9.052	16435	16438	0	316
-12.081	-15.074	16435	16442	0	316
-11.864	-18.175	16435	16442	0	316
-8.691	-19.690	16435	16431	0	316
-7.862	-18.680	16435	16411	0	316
-7.681	-16.877	16404	16384	0	316
-10.133	-14.533	16384	16357	0	316
-9.701	-11.143	16384	16322	0	316
-10.097	-7.501	16384	16294	0	316
-7.176	-6.167	16384	16271	0	316
-5.806	-4.147	16333	16251	0	316
-3.714	-2.849	16333	16247	0	316
0.613	-1.010	16333	16247	0	316
4.724	1.695	16313	16259	0	316
6.671	6.347	16313	16271	0	316
4.832	5.301	16313	16282	0	316
1.659	3.714	16313	16282	0	316
-1.442	0.793	16282	16290	0	316
0.433	2.092	16282	16298	0	316
4.760	4.616	16282	16310	0	316
9.088	9.304	16282	16326	0	316
9.953	10.025	16262	16333	0	316
7.321	7.789	16262	16330	0	316
4.003	4.436	16262	16333	0	316
1.947	2.056	16262	16349	0	316
1.551	2.669	16282	16369	0	316
1.803	4.219	16282	16384	0	316
0.938	4.940	16282	16391	0	316
-1.875	4.616	16282	16399	0	316
-3.426	6.383	16282	16403	0	316
-1.911	6.347	16282	16415	0	316
0.613	7.176	16282	16427	0	316
0.974	2.236	16282	16442	0	316
-2.019	-5.554	16282	16462	0	316
-8.835	-13.595	16282	16482	0	316
-12.802	-18.283	16282	16493	0	316
-13.451	-15.182	16313	16497	0	316
-12.658	-9.016	16313	16493	0	316
-9.809	-2.885	16313	16489	0	316
-9.809	0.865	16333	16489	0	316
-8.258	1.190	16333	16482	0	316
-8.799	0.505	16333	16470	0	316
-8.006	-1.839	16364	16462	0	316
-9.556	-6.239	16333	16466	0	316
-8.511	-9.737	16333	16470	0	316
-7.032	-13.091	16333	16470	0	316
-5.085	-13.956	16333	16466	0	316
-5.950	-15.074	16364	16462	0	316
-12.261	-16.589	16364	16466	0	316
-19.834	-19.546	16364	16470	0	316
-22.286	-19.762	16384	16478	0	316
-20.447	-18.067	16384	16482	0	316
-15.146	-16.733	16384	16478	0	316
-12.009	-16.516	16384	16470	0	316
-12.658	-17.454	16404	16466	0	316
-14.172	-19.942	16404	16466	0	316
-15.795	-19.365	16404	16462	0	316
-15.074	-17.851	16404	16458	0	316
-15.290	-18.716	16404	16446	0	316
-17.887	-20.339	16435	16435	0	316
-22.070	-23.188	16435	16431	0	316
-23.585	-23.909	16435	16427	0	316
-23.296	-20.591	16404	16427	0	316
-20.087	-18.392	16435	16423	0	316
-18.716	-15.651	16435	16411	0	316
-19.077	-14.858	16435	16387	0	316
-20.447	-16.300	16435	16369	0	316
-19.149	-16.192	16404	16353	0	316
-15.543	-13.343	16404	16341	0	316
-11.756	-12.261	16404	16333	0	316
-12.369	-14.497	16404	16326	0	316
-17.418	-18.608	16404	16314	0	316
-24.053	-24.089	16404	16302	0	316
-26.542	-27.191	16384	16286	0	316
-22.034	-23.440	16384	16271	0	316
-15.615	-17.057	16384	16263	0	316
-5.554	-8.979	16384	16263	0	316
0.036	-2.885	16364	16271	0	316
3.498	0.036	16364	16275	0	316
5.445	0.144	16364	16282	0	316
4.291	-0.072	16364	16294	0	316
2.596	-2.092	16364	16298	0	316
-0.793	-3.246	16364	16302	0	316
-3.606	-5.265	16364	16302	0	316
-6.888	-7.104	16364	16306	0	316
-7.862	-9.556	16364	16314	0	316
-9.268	-11.576	16364	16326	0	316
-10.566	-11.828	16364	16337	0	316
-11.684	-13.091	16364	16341	0	316
-14.713	-13.379	16364	16345	0	316
-16.661	-15.218	16364	16349	0	316
-18.464	-16.444	16364	16353	0	316
-18.860	-14.966	16384	16353	0	316
-17.706	-12.838	16364	16357	0	316
-14.317	-8.799	16364	16369	0	316
-9.196	-4.652	16364	16384	0	316
-4.904	-2.705	16364	16395	0	316
-2.092	-2.272	16364	16411	0	316
-1.803	-1.983	16364	16423	0	316
-4.111	-3.137	16364	16431	0	316
-8.439	-5.409	16364	16435	0	316
-9.484	-6.203	16384	16438	0	316
-7.898	-6.058	16384	16446	0	316
-3.282	-3.029	16384	16450	0	316
0.902	-0.793	16384	16454	0	316
2.200	0.072	16384	16458	0	316
-1.370	-2.741	16384	16466	0	316
-6.022	-5.626	16404	16474	0	316
-8.799	-5.445	16404	16478	0	316
-6.924	-1.370	16404	16478	0	316
-2.957	4.436	16435	16482	0	316
0.505	9.340	16435	16486	0	316
0.288	10.819	16404	16486	0	316
-1.298	6.239	16435	16482	0	316
-7.032	1.370	16455	16474	0	316
-12.550	-6.022	16455	16470	0	316
-17.851	-12.946	16435	16466	0	316
-21.168	-18.320	16435	16458	0	316
-21.565	-19.473	16435	16450	0	316
-17.166	-16.697	16455	16435	0	316
-10.999	-10.566	16455	16423	0	316
-2.993	-1.875	16455	16415	0	316
2.993	4.183	16455	16399	0	316
5.085	7.248	16455	16384	0	316
5.554	5.698	16455	16373	0	316
4.364	4.832	16455	16357	0	316
3.750	4.183	16455	16353	0	316
5.193	6.744	16455	16353	0	316
8.258	11.720	16455	16357	0	316
9.556	13.848	16455	16365	0	316
10.746	14.785	16455	16369	0	316
12.441	12.982	16455	16373	0	316
13.668	12.874	16486	16381	0	316
16.228	13.379	16486	16384	0	316
19.149	17.670	16486	16387	0	316
20.447	20.880	16455	16395	0	316
19.149	19.654	16486	16395	0	316
16.336	18.031	16486	16391	0	316
13.559	13.776	16486	16381	0	316
11.540	9.881	16455	16357	0	316
10.206	10.025	16455	16330	0	316
9.232	9.809	16455	16310	0	316
6.635	9.052	16435	16298	0	316
2.885	7.357	16435	16294	0	316
-0.541	3.210	16435	16302	0	316
-1.406	-0.036	16455	16322	0	316
-1.262	-2.272	16455	16341	0	316
0.288	-3.101	16455	16357	0	316
1.442	-2.813	16455	16373	0	316
1.947	-2.596	16486	16384	0	316
1.911	-3.426	16455	16395	0	316
1.442	-4.147	16486	16403	0	316
-0.757	-5.373	16486	16407	0	316
-1.731	-4.327	16455	16411	0	316
-1.911	-2.236	16486	16411	0	316
0.865	1.262	16486	16407	0	316
3.570	4.868	16486	16399	0	316
3.967	7.068	16486	16395	0	316
-0.216	4.075	16486	16387	0	316
-6.527	0.072	16486	16384	0	316
-10.602	-4.616	16486	16377	0	316
-12.586	-9.196	16455	16361	0	316
-10.783	-12.441	16455	16345	0	316
-10.422	-12.261	16455	16333	0	316
-10.097	-12.441	16455	16322	0	316
-9.737	-10.566	16435	16302	0	316
-9.124	-6.058	16435	16286	0	316
-7.573	-4.580	16404	16275	0	316
-5.950	-5.049	16404	16259	0	316
-5.842	-5.842	16404	16255	0	316
-4.580	-6.167	16384	16259	0	316
-3.895	-3.606	16384	16263	0	316
-6.239	-3.787	16384	16255	0	316
-9.268	-6.491	16364	16251	0	316
-15.362	-13.018	16364	16259	0	316
-19.473	-18.897	16364	16271	0	316
-20.375	-18.680	16364	16286	0	316
-17.923	-15.507	16333	16302	0	316
-14.677	-10.963	16333	16318	0	316
-14.461	-8.727	16333	16337	0	316
-15.687	-10.025	16333	16357	0	316
-19.149	-12.477	16333	16373	0	316
-23.152	-12.910	16333	16377	0	316
-24.811	-15.290	16333	16377	0	316
-25.640	-14.641	16333	16377	0	316
-24.883	-15.290	16333	16384	0	316
-20.303	-13.199	16333	16399	0	316
-13.199	-10.458	16333	16415	0	316
-7.285	-5.770	16333	16431	0	316
-3.101	-4.580	16333	16442	0	316
-2.921	-5.013	16333	16454	0	316
-5.914	-6.816	16364	16470	0	316
-7.862	-10.278	16364	16482	0	316
-9.737	-10.097	16364	16486	0	316
-11.504	-9.448	16364	16486	0	316
-13.559	-8.547	16364	16482	0	316
-12.622	-9.160	16364	16466	0	316
-10.927	-7.825	16364	16442	0	316
-8.475	-9.268	16333	16411	0	316
-6.383	-8.150	16333	16387	0	316
-7.717	-9.232	16333	16381	0	316
-10.278	-11.035	16333	16377	0	316
-14.136	-14.461	16333	16384	0	316
-16.120	-18.500	16333	16387	0	316
-19.437	-20.267	16364	16391	0	316
-21.673	-19.618	16333	16391	0	316
-23.621	-17.382	16333	16381	0	316
-23.440	-15.615	16333	16365	0	316
-23.224	-15.182	16364	16357	0	316
-24.486	-19.437	16333	16353	0	316
-23.440	-23.549	16333	16365	0	316
-23.404	-23.981	16333	16384	0	316
-20.014	-20.014	16333	16399	0	316
-13.920	-14.100	16333	16407	0	316
-7.862	-6.816	16333	16407	0	316
-1.983	-3.678	16333	16407	0	316
-0.288	-5.337	16333	16411	0	316
-2.560	-7.717	16333	16415	0	316
-7.501	-10.494	16333	16419	0	316
-14.497	-12.622	16333	16419	0	316
-19.041	-10.242	16333	16423	0	316
-20.447	-10.025	16364	16435	0	316
-17.887	-7.717	16364	16442	0	316
-13.235	-8.511	16364	16442	0	316
-10.458	-10.061	16364	16427	0	316
-8.439	-12.189	16364	16407	0	316
-9.917	-14.172	16333	16391	0	316
-11.612	-13.956	16333	16384	0	316
-13.920	-14.966	16333	16377	0	316
-15.939	-14.785	16333	16373	0	316
-16.877	-15.146	16333	16377	0	316
-18.247	-18.031	16333	16384	0	316
-18.897	-18.572	16333	16395	0	316
-18.139	-18.788	16364	16411	0	316
-15.975	-15.759	16364	16431	0	316
-13.451	-13.054	16364	16442	0	316
-11.756	-11.360	16384	16454	0	316
-13.956	-12.730	16384	16454	0	316
-17.202	-15.579	16384	16450	0	316
-20.555	-17.634	16384	16442	0	316
-20.736	-14.605	16384	16435	0	316
-17.129	-10.891	16384	16427	0	316
-11.323	-5.301	16384	16423	0	316
-8.294	-1.334	16404	16423	0	316
-6.563	-0.541	16404	16431	0	316
-8.655	-2.777	16404	16438	0	316
-8.691	-3.065	16435	16446	0	316
-6.455	-2.164	16435	16454	0	316
-3.354	1.010	16435	16458	0	316
-0.829	3.462	16435	16446	0	316
-1.515	1.803	16435	16427	0	316
-5.229	-2.705	16435	16403	0	316
-7.609	-9.304	16435	16391	0	316
-9.016	-11.720	16455	16391	0	316
-6.131	-11.828	16455	16391	0	316
-4.724	-9.196	16455	16384	0	316
-1.587	-4.977	16455	16377	0	316
0.974	0.577	16455	16377	0	316
4.868	8.078	16455	16384	0	316
7.357	13.451	16486	16387	0	316
9.340	15.471	16486	16391	0	316
7.429	12.117	16486	16395	0	316
6.347	6.131	16455	16391	0	316
4.436	3.210	16486	16391	0	316
4.724	3.823	16486	16384	0	316
7.789	7.970	16455	16381	0	316
8.943	12.477	16486	16377	0	316
12.009	15.867	16486	16373	0	316
14.208	18.175	16486	16369	0	316
20.050	19.870	16486	16353	0	316
25.712	25.027	16455	16341	0	316
33.646	29.931	16455	16330	0	316
40.101	35.665	16455	16326	0	316
44.212	41.832	16455	16330	0	316
49.008	45.222	16486	16341	0	316
53.155	50.523	16486	16349	0	316
56.581	51.497	16486	16349	0	316
57.086	51.064	16486	16349	0	316
54.454	49.153	16486	16353	0	316
50.920	46.700	16486	16357	0	316
50.920	47.241	16455	16357	0	316
53.877	50.487	16455	16353	0	316
57.519	54.237	16455	16349	0	316
58.961	54.922	16455	16349	0	316
60.260	55.211	16455	16341	0	316
60.188	54.742	16455	16333	0	316
61.774	56.509	16435	16326	0	316
61.846	57.230	16435	16318	0	316
58.348	58.457	16435	16314	0	316
51.641	54.742	16435	16314	0	316
46.268	51.569	16435	16310	0	316
41.363	48.143	16404	16302	0	316
39.993	44.681	16404	16290	0	316
37.252	40.389	16384	16279	0	316
35.521	34.800	16384	16271	0	316
36.314	31.807	16384	16267	0	316
39.993	32.312	16364	16267	0	316
46.772	40.029	16364	16271	0	316
52.867	49.189	16364	16282	0	316
54.237	52.939	16364	16294	0	316
50.920	50.162	16364	16310	0	316
44.573	42.265	16364	16330	0	316
38.190	33.357	16364	16349	0	316
33.718	28.381	16364	16365	0	316
30.581	27.984	16333	16369	0	316
30.220	28.020	16333	16369	0	316
31.590	29.499	16333	16369	0	316
33.321	32.456	16333	16369	0	316
36.098	36.531	16333	16373	0	316
37.829	39.272	16333	16381	0	316
35.665	41.219	16333	16391	0	316
30.761	36.170	16333	16415	0	316
23.873	28.850	16333	16435	0	316
18.247	20.916	16333	16450	0	316
13.704	15.651	16333	16454	0	316
10.891	13.379	16333	16454	0	316
11.540	13.018	16364	16462	0	316
12.802	14.064	16384	16470	0	316
13.307	14.389	16384	16470	0	316
15.651	16.697	16384	16470	0	316
16.769	18.320	16384	16470	0	316
16.372	19.510	16384	16470	0	316
14.677	17.634	16384	16470	0	316
13.271	15.543	16384	16466	0	316
9.556	11.360	16384	16462	0	316
8.799	12.009	16384	16462	0	316
9.773	13.379	16384	16454	0	316
13.812	17.995	16404	16450	0	316
16.192	19.113	16404	16442	0	316
14.894	16.877	16384	16438	0	316
10.927	12.802	16384	16438	0	316
5.554	9.016	16384	16438	0	316
3.246	11.107	16384	16435	0	316
6.167	17.779	16384	16431	0	316
8.691	23.224	16384	16427	0	316
11.900	23.044	16404	16427	0	316
11.828	18.644	16404	16431	0	316
9.412	10.602	16404	16438	0	316
4.436	4.003	16404	16438	0	316
0.469	-1.010	16435	16442	0	316
-4.291	-3.498	16435	16450	0	316
-4.724	-3.642	16435	16458	0	316
-2.236	-1.803	16455	16454	0	316
2.560	2.272	16435	16435	0	316
6.491	8.186	16435	16407	0	316
6.671	10.206	16435	16387	0	316
4.327	9.845	16435	16377	0	316
-0.180	6.167	16435	16361	0	316
-3.823	0.361	16435	16341	0	316
-4.724	-6.960	16435	16322	0	316
-5.842	-10.566	16404	16306	0	316
-4.688	-11.973	16404	16298	0	316
-3.173	-8.366	16404	16306	0	316
-1.118	-6.347	16404	16314	0	316
1.515	-3.570	16404	16314	0	316
2.596	-3.426	16404	16314	0	316
3.029	-4.760	16404	16318	0	316
1.839	-5.301	16404	16326	0	316
0.288	-4.111	16404	16330	0	316
-1.406	-3.390	16404	16326	0	316
-2.524	-4.436	16404	16322	0	316
-4.688	-8.114	16404	16318	0	316
-4.147	-10.458	16384	16322	0	316
-2.380	-12.658	16384	16333	0	316
-1.118	-12.982	16404	16349	0	316
-0.613	-12.622	16404	16361	0	316
-1.010	-15.723	16404	16369	0	316
-4.075	-18.572	16404	16369	0	316
-6.167	-20.411	16404	16369	0	316
-8.222	-19.401	16404	16373	0	316
-8.366	-15.254	16404	16377	0	316
-6.744	-13.091	16404	16381	0	316
-6.131	-10.927	16404	16384	0	316
-5.445	-12.730	16384	16384	0	316
-9.629	-16.661	16404	16391	0	316
-17.129	-21.854	16404	16399	0	316
-23.512	-25.063	16404	16407	0	316
-25.676	-25.893	16404	16415	0	316
-20.988	-20.880	16404	16423	0	316
-12.009	-16.048	16435	16438	0	316
-4.832	-12.477	16435	16462	0	316
-3.173	-14.497	16435	16478	0	316
-7.898	-19.329	16435	16478	0	316
-15.218	-23.116	16435	16474	0	316
-18.139	-24.450	16435	16466	0	316
-20.880	-24.162	16435	16450	0	316
-22.467	-24.919	16435	16431	0	316
-27.299	-29.931	16435	16407	0	316
-33.177	-35.341	16435	16384	0	316
-36.278	-38.803	16404	16373	0	316
-33.321	-37.144	16435	16373	0	316
-28.381	-31.013	16435	16377	0	316
-24.486	-27.227	16435	16381	0	316
-24.594	-27.696	16435	16384	0	316
-28.128	-32.492	16435	16384	0	316
-32.203	-37.252	16435	16384	0	316
-33.466	-40.209	16435	16384	0	316
-34.475	-37.937	16435	16369	0	316
-33.826	-34.656	16435	16357	0	316
-31.735	-31.302	16435	16345	0	316
-28.092	-31.230	16404	16333	0	316
-23.693	-31.049	16404	16318	0	316
-23.440	-35.341	16384	16294	0	316
-26.686	-37.865	16384	16271	0	316
-35.774	-41.435	16364	16251	0	316
-44.428	-44.212	16364	16243	0	316
-48.431	-43.527	16364	16243	0	316
-48.900	-43.563	16333	16247	0	316
-47.710	-45.114	16333	16255	0	316
-47.241	-45.979	16333	16267	0	316
-49.261	-46.772	16333	16286	0	316
-51.100	-45.835	16313	16298	0	316
-52.903	-44.464	16313	16306	0	316
-55.572	-46.448	16313	16310	0	316
-59.358	-55.283	16313	16322	0	316
-64.190	-64.479	16313	16337	0	316
-63.397	-64.767	16313	16357	0	316
-59.034	-57.627	16313	16369	0	316
-53.588	-45.150	16313	16381	0	316
-54.093	-41.940	16313	16381	0	316
-63.902	-49.982	16282	16381	0	316
-80.274	-66.066	16313	16373	0	316
-95.204	-75.730	16313	16381	0	316
-99.207	-72.881	16333	16391	0	316
-94.627	-64.299	16313	16411	0	316
-82.726	-57.627	16313	16423	0	316
-71.475	-61.017	16313	16419	0	316
-65.561	-70.357	16313	16411	0	316
-63.036	-76.199	16313	16415	0	316
-63.974	-74.757	16313	16419	0	316
-60.512	-66.895	16313	16427	0	316
-56.870	-58.673	16313	16438	0	316
-54.778	-57.880	16313	16446	0	316
-57.194	-61.161	16313	16454	0	316
-62.423	-65.813	16313	16458	0	316
-66.643	-67.544	16313	16466	0	316
-65.308	-64.876	16333	16470	0	316
-60.692	-60.332	16333	16474	0	316
-58.457	-56.293	16333	16474	0	316
-60.151	-52.903	16333	16470	0	316
-65.056	-49.838	16333	16462	0	316
-66.354	-48.395	16333	16454	0	316
-64.767	-48.107	16364	16450	0	316
-63.577	-49.369	16364	16446	0	316
-63.181	-55.788	16364	16435	0	316
-68.013	-60.873	16364	16415	0	316
-69.672	-64.407	16333	16384	0	316
-66.426	-61.053	16333	16353	0	316
-55.499	-49.946	16313	16330	0	316
-42.697	-36.747	16313	16318	0	316
-33.177	-27.191	16313	16314	0	316
-27.984	-24.089	16282	16306	0	316
-30.328	-29.535	16282	16302	0	316
-33.610	-33.898	16282	16306	0	316
-34.800	-35.918	16282	16322	0	316
-33.141	-33.466	16282	16341	0	316
-30.112	-28.850	16282	16361	0	316
-26.253	-26.073	16282	16381	0	316
-25.099	-24.486	16313	16391	0	316
-22.972	-23.512	16313	16403	0	316
-19.690	-24.017	16313	16411	0	316
-17.779	-23.188	16313	16419	0	316
-16.697	-23.945	16333	16427	0	316
-19.401	-26.938	16333	16435	0	316
-24.306	-26.253	16364	16446	0	316
-23.512	-21.385	16364	16450	0	316
-18.680	-13.992	16384	16450	0	316
-12.081	-7.537	16364	16446	0	316
-9.016	-7.609	16364	16450	0	316
-12.045	-13.704	16364	16454	0	316
-18.824	-19.437	16384	16458	0	316
-22.611	-22.611	16384	16450	0	316
-22.899	-20.519	16364	16431	0	316
-17.526	-16.444	16364	16415	0	316
-10.530	-11.612	16364	16399	0	316
-3.318	-5.517	16364	16387	0	316
1.190	-2.993	16364	16384	0	316
0.108	-3.246	16364	16377	0	316
-5.698	-9.629	16364	16381	0	316
-13.559	-16.625	16364	16384	0	316
-18.644	-18.933	16364	16387	0	316
-16.625	-15.110	16364	16384	0	316
-11.143	-9.953	16364	16381	0	316
-3.859	-3.714	16364	16369	0	316
1.695	-1.911	16364	16365	0	316
3.714	-1.262	16364	16373	0	316
1.515	-1.983	16364	16384	0	316
-4.364	-5.878	16364	16384	0	316
-9.304	-6.888	16364	16384	0	316
-11.612	-6.203	16364	16384	0	316
-8.835	-2.272	16364	16373	0	316
-4.400	2.128	16364	16353	0	316
-0.397	5.481	16364	16337	0	316
0.757	3.137	16364	16333	0	316
0.000	1.298	16333	16333	0	316
-1.046	0.685	16333	16337	0	316
-3.065	-0.144	16364	16353	0	316
-5.517	-2.380	16364	16365	0	316
-8.366	-3.967	16364	16381	0	316
-6.924	-3.210	16364	16384	0	316
0.000	1.370	16364	16391	0	316
8.294	9.665	16364	16391	0	316
14.208	14.749	16364	16399	0	316
13.631	16.516	16364	16411	0	316
8.475	11.396	16384	16427	0	316
1.334	6.671	16384	16435	0	316
-0.974	3.462	16384	16442	0	316
1.911	3.173	16404	16450	0	316
7.212	3.750	16404	16454	0	316
13.559	7.465	16404	16454	0	316
18.031	8.655	16404	16446	0	316
19.582	10.999	16404	16431	0	316
18.320	12.009	16404	16407	0	316
13.307	11.360	16404	16384	0	316
6.599	7.501	16384	16361	0	316
0.361	3.173	16384	16345	0	316
-4.111	-1.695	16384	16341	0	316
-4.904	-3.318	16384	16345	0	316
-1.659	-2.344	16384	16357	0	316
1.479	-1.587	16384	16357	0	316
1.154	-2.705	16384	16345	0	316
-2.416	-7.609	16364	16326	0	316
-7.393	-11.143	16364	16318	0	316
-9.881	-12.766	16364	16318	0	316
-8.763	-8.655	16364	16318	0	316
-1.839	0.180	16364	16318	0	316
3.967	6.780	16364	16322	0	316
5.842	7.393	16364	16330	0	316
3.859	3.498	16364	16337	0	316
-0.541	-3.462	16364	16349	0	316
-3.642	-7.862	16364	16353	0	316
-4.508	-8.475	16364	16361	0	316
-2.885	-6.383	16364	16369	0	316
-2.849	-5.878	16364	16381	0	316
-4.796	-8.691	16364	16384	0	316
-8.979	-11.828	16364	16387	0	316
-10.206	-13.920	16364	16395	0	316
-10.133	-12.477	16364	16403	0	316
-7.862	-9.629	16364	16415	0	316
-3.210	-4.544	16364	16419	0	316
1.118	0.829	16384	16427	0	316
4.472	2.056	16384	16435	0	316
5.878	0.397	16384	16438	0	316
5.409	-3.065	16384	16442	0	316
2.092	-6.419	16384	16438	0	316
-0.793	-6.852	16384	16438	0	316
-3.101	-5.157	16384	16435	0	316
-4.327	-2.560	16384	16435	0	316
-5.445	-3.029	16384	16427	0	316
-4.327	-3.534	16384	16419	0	316
-1.875	-1.046	16404	16415	0	316
2.308	1.262	16404	16415	0	316
5.301	4.652	16404	16407	0	316
6.347	3.678	16404	16399	0	316
6.527	1.731	16384	16387	0	316
2.885	-3.462	16384	16384	0	316
-1.370	-7.898	16384	16377	0	316
-7.573	-10.169	16384	16369	0	316
-14.136	-14.136	16384	16357	0	316
-18.283	-14.497	16384	16345	0	316
-18.572	-16.048	16384	16337	0	316
-15.218	-14.353	16384	16333	0	316
-12.261	-12.477	16364	16333	0	316
-11.035	-13.163	16364	16341	0	316
-12.297	-14.605	16384	16349	0	316
-14.569	-17.490	16384	16357	0	316
-15.507	-19.221	16384	16365	0	316
-12.622	-15.543	16384	16373	0	316
-9.881	-9.376	16384	16369	0	316
-8.691	-4.400	16364	16361	0	316
-11.540	-3.642	16364	16349	0	316
-16.336	-8.006	16364	16341	0	316
-19.762	-14.353	16384	16333	0	316
-20.447	-17.779	16364	16326	0	316
-16.769	-17.093	16364	16322	0	316
-10.530	-12.405	16364	16322	0	316
-6.563	-9.268	16364	16333	0	316
-2.849	-6.383	16364	16349	0	316
-3.642	-6.635	16364	16357	0	316
-4.868	-6.924	16364	16365	0	316
-4.327	-7.212	16364	16365	0	316
-0.144	-2.488	16364	16369	0	316
6.671	3.895	16364	16373	0	316
13.018	8.727	16364	16377	0	316
13.523	10.963	16364	16384	0	316
8.979	6.599	16364	16403	0	316
2.669	-1.334	16364	16419	0	316
-1.442	-7.501	16364	16427	0	316
1.262	-6.203	16364	16427	0	316
5.698	-1.875	16364	16423	0	316
11.828	1.334	16364	16419	0	316
10.278	0.505	16364	16415	0	316
5.698	-3.137	16364	16411	0	316
-1.406	-9.016	16364	16411	0	316
-6.275	-7.176	16364	16411	0	316
-7.068	-4.291	16364	16415	0	316
-7.609	-2.092	16364	16419	0	316
-8.150	-4.111	16364	16423	0	316
-11.035	-8.402	16384	16423	0	316
-11.937	-14.641	16384	16423	0	316
-12.153	-15.867	16384	16423	0	316
-10.386	-13.920	16384	16427	0	316
-7.537	-11.468	16384	16431	0	316
-8.402	-10.350	16384	16438	0	316
-11.468	-11.576	16404	16442	0	316
-17.454	-17.598	16404	16446	0	316
-22.972	-22.467	16404	16446	0	316
-24.017	-24.847	16404	16442	0	316
-21.637	-23.296	16404	16442	0	316
-14.966	-19.257	16404	16442	0	316
-7.393	-12.189	16435	16442	0	316
-2.272	-6.671	16435	16446	0	316
1.046	-2.957	16435	16450	0	316
2.452	-2.308	16435	16442	0	316
0.469	-3.101	16435	16435	0	316
-1.406	-6.960	16455	16427	0	316
-3.787	-9.629	16455	16411	0	316
-6.058	-11.937	16435	16395	0	316
-7.537	-12.838	16435	16381	0	316
-11.648	-13.559	16404	16373	0	316
-14.713	-13.595	16404	16369	0	316
-14.100	-14.677	16435	16369	0	316
-10.999	-13.992	16435	16369	0	316
-4.472	-12.658	16435	16369	0	316
1.226	-11.432	16435	16365	0	316
2.524	-9.989	16435	16353	0	316
-1.154	-10.097	16404	16341	0	316
-6.275	-12.874	16404	16337	0	316
-9.340	-14.389	16404	16337	0	316
-9.629	-14.245	16404	16337	0	316
-6.996	-10.783	16404	16341	0	316
-5.914	-8.222	16435	16353	0	316
-8.078	-6.599	16435	16373	0	316
-14.858	-8.402	16435	16387	0	316
-18.788	-12.477	16455	16399	0	316
-22.395	-16.480	16455	16407	0	316
-22.683	-17.670	16455	16415	0	316
-20.736	-17.057	16455	16415	0	316
-15.687	-15.795	16455	16407	0	316
-6.311	-11.576	16455	16399	0	316
5.698	-9.016	16455	16395	0	316
14.317	-8.186	16486	16399	0	316
14.749	-9.376	16455	16407	0	316
7.248	-12.622	16486	16427	0	316
-1.442	-13.812	16506	16446	0	316
-5.698	-11.468	16486	16458	0	316
-1.947	-6.924	16506	16450	0	316
4.219	-1.406	16506	16435	0	316
6.888	0.144	16506	16419	0	316
3.210	-3.750	16506	16399	0	316
-6.527	-7.393	16486	16381	0	316
-14.677	-12.477	16486	16357	0	316
-18.320	-13.884	16486	16333	0	316
-15.507	-10.999	16486	16318	0	316
-9.232	-8.258	16455	16306	0	316
-3.967	-4.219	16455	16298	0	316
-4.544	-6.744	16455	16294	0	316
-8.186	-8.511	16455	16294	0	316
-12.946	-13.848	16455	16302	0	316
-15.903	-14.749	16435	16314	0	316
-14.461	-12.441	16435	16330	0	316
-10.530	-8.907	16455	16349	0	316
-7.285	-5.193	16455	16373	0	316
-8.835	-6.527	16455	16384	0	316
-13.127	-10.783	16455	16395	0	316
-21.349	-18.139	16486	16403	0	316
-25.640	-22.755	16486	16419	0	316
-26.037	-25.243	16486	16435	0	316
-21.962	-24.414	16506	16450	0	316
-19.546	-22.034	16506	16462	0	316
-19.365	-23.116	16537	16466	0	316
-21.565	-23.296	16506	16462	0	316
-21.673	-23.981	16537	16458	0	316
-17.887	-20.519	16506	16446	0	316
-11.648	-17.779	16506	16423	0	316
-9.737	-16.156	16506	16395	0	316
-11.648	-18.716	16506	16377	0	316
-17.238	-19.762	16506	16365	0	316
-21.709	-20.375	16506	16365	0	316
-21.132	-16.949	16506	16373	0	316
-18.860	-13.343	16506	16384	0	316
-16.985	-14.353	16506	16384	0	316
-18.031	-15.903	16506	16384	0	316
-18.536	-19.401	16506	16381	0	316
-20.808	-19.401	16506	16377	0	316
-20.303	-16.841	16486	16369	0	316
-19.690	-12.946	16486	16353	0	316
-19.257	-10.458	16486	16341	0	316
-18.211	-8.655	16486	16330	0	316
-16.913	-10.169	16486	16326	0	316
-16.625	-14.317	16486	16330	0	316
-18.572	-21.168	16486	16337	0	316
-23.549	-30.004	16486	16345	0	316
-28.850	-33.970	16486	16345	0	316
-29.968	-33.502	16486	16337	0	316
-27.191	-27.227	16486	16330	0	316
-20.700	-17.706	16455	16322	0	316
-15.362	-12.369	16455	16318	0	316
-13.740	-12.838	16455	16314	0	316
-15.110	-16.625	16455	16310	0	316
-16.444	-22.358	16435	16310	0	316
-15.038	-23.188	16435	16310	0	316
-11.107	-19.762	16404	16310	0	316
-6.311	-13.523	16404	16314	0	316
-3.678	-6.094	16404	16314	0	316
-4.327	-2.344	16404	16314	0	316
-4.508	-0.938	16384	16306	0	316
-4.327	-0.252	16384	16298	0	316
-2.560	-1.442	16384	16290	0	316
-1.983	-2.777	16364	16286	0	316
-2.849	-7.032	16364	16290	0	316
-8.114	-12.477	16364	16294	0	316
-14.136	-17.562	16364	16302	0	316
-18.356	-19.293	16333	16306	0	316
-20.411	-18.175	16333	16302	0	316
-22.899	-16.949	16313	16298	0	316
-24.955	-16.733	16333	16298	0	316
-27.551	-20.375	16333	16306	0	316
-28.994	-20.952	16313	16314	0	316
-27.804	-21.096	16333	16314	0	316
-24.125	-18.500	16282	16306	0	316
-22.395	-19.654	16282	16306	0	316
-24.594	-22.972	16282	16310	0	316
-24.198	-23.693	16262	16310	0	316
-21.709	-20.555	16262	16314	0	316
-14.569	-11.540	16262	16330	0	316
-5.734	-3.029	16262	16357	0	316
-3.823	0.505	16262	16384	0	316
-5.914	-2.019	16262	16415	0	316
-10.458	-7.176	16262	16438	0	316
-11.684	-7.898	16282	16458	0	316
-8.511	-5.337	16282	16470	0	316
-2.272	-1.551	16282	16486	0	316
1.370	2.560	16313	16505	0	316
3.065	3.101	16313	16521	0	316
2.200	-0.036	16313	16521	0	316
-1.479	-4.436	16313	16509	0	316
-6.383	-9.737	16313	16493	0	316
-11.107	-12.550	16313	16478	0	316
-13.523	-14.172	16282	16458	0	316
-13.848	-11.864	16282	16435	0	316
-11.360	-8.475	16262	16411	0	316
-11.504	-7.032	16262	16387	0	316
-13.848	-7.140	16262	16377	0	316
-17.598	-10.494	16262	16377	0	316
-21.204	-10.710	16262	16377	0	316
-21.241	-11.035	16282	16381	0	316
-19.546	-9.737	16262	16384	0	316
-17.923	-8.799	16262	16384	0	316
-17.670	-10.746	16262	16384	0	316
-16.949	-11.540	16262	16384	0	316
-14.641	-10.710	16262	16384	0	316
-9.845	-6.239	16262	16391	0	316
-4.688	-0.108	16262	16395	0	316
-1.587	3.678	16231	16395	0	316
-0.541	5.049	16231	16395	0	316
0.793	5.049	16282	16407	0	316
3.173	2.416	16282	16427	0	316
6.960	-0.649	16282	16450	0	316
6.599	-3.534	16313	16474	0	316
2.416	-5.698	16313	16501	0	316
-3.750	-7.321	16333	16529	0	316
-8.114	-6.527	16333	16544	0	316
-7.465	-5.265	16364	16552	0	316
-2.308	-4.147	16364	16556	0	316
3.642	0.252	16384	16556	0	316
7.357	5.013	16384	16548	0	316
7.212	10.278	16384	16537	0	316
3.967	10.350	16404	16525	0	316
0.613	5.986	16404	16509	0	316
-2.813	-0.577	16404	16493	0	316
-5.013	-5.229	16404	16482	0	316
-2.885	-4.147	16404	16470	0	316
-1.875	0.072	16404	16454	0	316
-2.019	4.255	16435	16431	0	316
-4.075	2.380	16435	16411	0	316
-9.556	-1.695	16435	16399	0	316
-13.487	-7.681	16435	16391	0	316
-15.471	-12.514	16435	16384	0	316
-13.451	-14.425	16435	16373	0	316
-8.439	-13.343	16435	16369	0	316
-4.760	-9.484	16435	16373	0	316
-3.426	-6.022	16435	16365	0	316
-4.544	-2.921	16435	16353	0	316
-8.727	-2.596	16404	16333	0	316
-11.720	-5.013	16404	16318	0	316
-13.018	-6.888	16404	16302	0	316
-11.720	-6.022	16404	16290	0	316
-8.222	-4.255	16384	16286	0	316
-6.419	-0.649	16384	16279	0	316
-5.409	0.144	16384	16263	0	316
-4.436	0.397	16364	16247	0	316
-5.157	0.793	16364	16239	0	316
-6.094	0.721	16364	16239	0	316
-8.907	0.541	16364	16243	0	316
-12.838	-0.505	16333	16247	0	316
-15.867	-2.344	16364	16251	0	316
-16.480	-1.082	16364	16267	0	316
-14.930	-0.361	16364	16286	0	316
-14.136	-0.325	16364	16306	0	316
-16.048	-4.075	16364	16326	0	316
-19.257	-12.117	16364	16349	0	316
-21.890	-21.277	16384	16381	0	316
-19.618	-25.820	16384	16411	0	316
-13.127	-23.224	16404	16454	0	316
-5.157	-16.625	16435	16493	0	316
2.344	-6.491	16435	16517	0	316
4.580	0.252	16455	16537	0	316
3.246	1.551	16435	16544	0	316
-2.019	-0.938	16455	16544	0	316
-7.285	-6.635	16455	16529	0	316
-9.340	-10.458	16455	16509	0	316
-7.032	-12.189	16455	16493	0	316
-1.190	-9.520	16455	16486	0	316
4.904	-7.212	16455	16478	0	316
6.311	-5.085	16486	16470	0	316
3.029	-6.708	16486	16462	0	316
0.144	-8.150	16486	16450	0	316
-2.019	-9.881	16486	16435	0	316
1.190	-8.078	16486	16411	0	316
7.393	-7.032	16486	16387	0	316
10.242	-6.635	16455	16365	0	316
9.340	-9.052	16455	16330	0	316
5.481	-12.261	16455	16298	0	316
2.308	-15.759	16435	16267	0	316
3.714	-16.048	16404	16239	0	316
6.527	-14.966	16384	16216	0	316
11.179	-12.297	16384	16204	0	316
13.559	-8.799	16364	16200	0	316
16.048	-3.390	16364	16200	0	316
18.860	1.623	16364	16208	0	316
21.132	7.717	16364	16220	0	316
21.168	9.556	16364	16235	0	316
18.608	9.340	16364	16251	0	316
14.785	5.806	16364	16267	0	316
12.117	1.551	16364	16290	0	316
11.179	-1.118	16364	16310	0	316
9.052	-3.173	16384	16326	0	316
7.501	-3.137	16364	16337	0	316
5.193	-2.560	16364	16345	0	316
3.101	-1.803	16333	16357	0	316
2.560	-1.298	16333	16357	0	316
-0.180	-3.570	16333	16361	0	316
-2.488	-8.078	16333	16369	0	316
-5.590	-12.477	16333	16377	0	316
-6.275	-14.064	16333	16384	0	316
-6.058	-15.507	16333	16387	0	316
-7.248	-14.605	16333	16395	0	316
-8.727	-13.054	16333	16407	0	316
-12.514	-14.425	16333	16411	0	316
-14.064	-13.559	16313	16407	0	316
-15.254	-13.848	16313	16395	0	316
-14.605	-12.982	16313	16384	0	316
-13.884	-12.477	16313	16384	0	316
-14.894	-12.153	16313	16387	0	316
-14.245	-9.845	16313	16399	0	316
-13.018	-9.052	16313	16407	0	316
-11.756	-5.986	16313	16419	0	316
-10.674	-5.590	16313	16427	0	316
-10.314	-5.517	16333	16435	0	316
-10.494	-6.635	16333	16442	0	316
-8.547	-5.481	16333	16450	0	316
-5.229	-2.560	16333	16454	0	316
-1.515	0.685	16333	16458	0	316
0.865	1.947	16364	16462	0	316
0.216	-0.252	16364	16466	0	316
-2.560	-4.255	16364	16462	0	316
-5.013	-7.176	16364	16458	0	316
-6.888	-8.727	16364	16450	0	316
-5.842	-6.744	16364	16450	0	316
-4.255	-6.816	16364	16458	0	316
-2.921	-6.599	16384	16470	0	316
-5.157	-7.285	16384	16474	0	316
-8.943	-10.891	16384	16482	0	316
-16.372	-15.471	16384	16478	0	316
-22.142	-18.788	16404	16470	0	316
-25.171	-23.332	16404	16454	0	316
-25.676	-24.558	16384	16435	0	316
-26.217	-24.486	16384	16407	0	316
-25.712	-26.109	16384	16384	0	316
-26.109	-24.883	16384	16377	0	316
-24.594	-24.775	16384	16369	0	316
-23.621	-22.503	16384	16353	0	316
-21.709	-22.106	16364	16333	0	316
-22.503	-20.916	16364	16314	0	316
-22.827	-22.539	16364	16306	0	316
-22.106	-20.267	16364	16306	0	316
-18.211	-15.038	16333	16306	0	316
-14.100	-11.071	16333	16306	0	316
-12.586	-6.022	16333	16310	0	316
-9.665	-5.806	16333	16322	0	316
-9.052	-4.255	16333	16337	0	316
-5.698	-2.019	16364	16353	0	316
-4.400	0.974	16364	16369	0	316
-3.714	0.505	16364	16387	0	316
-6.239	-3.462	16364	16399	0	316
-10.566	-7.537	16364	16411	0	316
-10.674	-10.710	16384	16423	0	316
-7.862	-8.114	16384	16427	0	316
-3.714	-1.190	16384	16427	0	316
-0.108	2.488	16384	16423	0	316
-0.541	1.983	16384	16423	0	316
-4.472	-2.308	16384	16415	0	316
-9.881	-8.078	16384	16403	0	316
-11.215	-10.783	16384	16395	0	316
-12.225	-10.674	16384	16387	0	316
-13.127	-9.556	16364	16373	0	316
-13.920	-11.071	16364	16357	0	316
-15.867	-14.317	16364	16345	0	316
-17.202	-17.634	16364	16341	0	316
-16.300	-17.418	16364	16341	0	316
-13.559	-14.821	16364	16345	0	316
-10.891	-10.638	16364	16353	0	316
-5.806	-7.825	16364	16365	0	316
-3.137	-7.573	16364	16377	0	316
0.577	-7.645	16364	16384	0	316
0.144	-9.989	16364	16384	0	316
-1.767	-10.855	16364	16391	0	316
-4.255	-12.009	16384	16407	0	316
-6.058	-9.052	16384	16423	0	316
-3.642	-6.599	16384	16438	0	316
-0.433	-2.236	16404	16450	0	316
3.534	1.731	16404	16458	0	316
5.301	1.695	16404	16462	0	316
2.452	-2.128	16404	16470	0	316
-1.623	-6.455	16435	16474	0	316
-4.904	-10.061	16435	16474	0	316
-5.698	-11.179	16435	16474	0	316
-7.104	-11.792	16455	16478	0	316
-7.321	-10.891	16455	16478	0	316
-10.422	-11.684	16455	16470	0	316
-11.360	-10.422	16455	16458	0	316
-11.071	-5.842	16455	16442	0	316
-8.547	-1.911	16455	16427	0	316
-7.862	-0.288	16486	16415	0	316
-10.350	-4.111	16486	16403	0	316
-14.930	-10.783	16486	16395	0	316
-18.824	-16.264	16486	16387	0	316
-20.483	-17.093	16486	16384	0	316
-20.123	-13.704	16455	16377	0	316
-17.634	-8.799	16455	16349	0	316
-17.490	-9.196	16435	16314	0	316
-17.057	-8.402	16435	16286	0	316
-16.949	-10.963	16404	16259	0	316
-16.048	-10.855	16404	16235	0	316
-14.389	-10.746	16384	16216	0	316
-13.884	-11.504	16364	16200	0	316
-15.146	-13.740	16364	16188	0	316
-17.021	-17.743	16333	16180	0	316
-17.959	-18.031	16333	16176	0	316
-19.185	-18.211	16313	16184	0	316
-23.044	-19.654	16313	16208	0	316
-27.335	-23.693	16313	16235	0	316
-33.285	-30.184	16333	16255	0	316
-33.538	-32.456	16333	16267	0	316
-29.427	-31.482	16333	16290	0	316
-23.729	-27.479	16333	16318	0	316
-19.690	-23.693	16333	16341	0	316
-19.654	-22.431	16333	16349	0	316
-21.854	-23.008	16313	16349	0	316
-20.483	-22.503	16313	16353	0	316
-16.841	-18.897	16313	16369	0	316
-10.602	-14.461	16313	16384	0	316
-3.570	-9.448	16313	16395	0	316
0.180	-6.491	16313	16407	0	316
-0.361	-6.131	16313	16419	0	316
-2.524	-10.133	16313	16431	0	316
-5.517	-12.189	16313	16442	0	316
-5.986	-12.910	16313	16450	0	316
-4.616	-9.881	16333	16462	0	316
-2.452	-5.517	16333	16478	0	316
-3.137	-4.364	16333	16486	0	316
-5.337	-8.475	16333	16489	0	316
-9.376	-15.254	16333	16497	0	316
-14.966	-20.519	16364	16501	0	316
-18.897	-24.739	16364	16497	0	316
-20.195	-25.316	16364	16489	0	316
-19.185	-22.358	16364	16478	0	316
-15.146	-20.772	16384	16466	0	316
-11.828	-17.418	16384	16462	0	316
-9.809	-16.769	16384	16462	0	316
-12.081	-17.021	16384	16466	0	316
-14.713	-19.618	16384	16462	0	316
-15.687	-21.493	16384	16450	0	316
-13.271	-21.529	16384	16435	0	316
-9.701	-18.320	16384	16423	0	316
-4.688	-14.605	16384	16411	0	316
-1.731	-11.937	16384	16399	0	316
-2.488	-12.658	16384	16384	0	316
-5.373	-13.884	16384	16373	0	316
-6.527	-16.120	16384	16361	0	316
-6.311	-16.048	16364	16349	0	316
-2.993	-12.369	16364	16330	0	316
0.974	-10.746	16364	16306	0	316
2.092	-8.042	16333	16298	0	316
0.793	-9.232	16333	16294	0	316
-2.813	-10.025	16364	16298	0	316
-4.760	-10.025	16333	16306	0	316
-5.445	-10.674	16333	16318	0	316
-3.787	-10.350	16333	16326	0	316
-3.642	-13.559	16333	16326	0	316
-4.472	-15.939	16313	16326	0	316
-7.068	-18.320	16313	16322	0	316
-6.275	-15.651	16313	16322	0	316
-2.705	-9.160	16313	16322	0	316
2.741	-2.416	16313	16330	0	316
8.727	3.029	16282	16337	0	316
11.287	3.137	16282	16341	0	316
10.566	2.777	16282	16349	0	316
8.943	0.397	16282	16361	0	316
8.402	0.108	16282	16369	0	316
11.215	3.462	16282	16373	0	316
14.389	7.934	16282	16381	0	316
19.510	11.179	16313	16387	0	316
21.421	12.297	16313	16407	0	316
18.320	8.078	16333	16431	0	316
14.100	2.777	16333	16454	0	316
7.537	-2.560	16333	16466	0	316
5.950	-2.849	16333	16474	0	316
7.753	-0.361	16364	16478	0	316
10.674	6.058	16364	16482	0	316
14.136	11.828	16364	16486	0	316
15.290	16.408	16364	16482	0	316
16.589	18.752	16364	16478	0	316
18.464	19.798	16364	16474	0	316
19.149	19.690	16384	16470	0	316
19.185	20.555	16384	16470	0	316
17.202	20.087	16384	16466	0	316
13.487	17.923	16384	16458	0	316
9.989	14.461	16384	16450	0	316
5.517	9.809	16384	16442	0	316
2.560	6.203	16384	16431	0	316
1.911	7.212	16384	16415	0	316
5.265	12.514	16384	16399	0	316
10.242	20.195	16384	16387	0	316
16.408	24.522	16384	16381	0	316
18.752	24.702	16384	16369	0	316
18.392	21.313	16384	16361	0	316
16.012	14.785	16384	16349	0	316
11.432	14.064	16384	16341	0	316
7.501	13.018	16364	16337	0	316
4.219	13.091	16364	16337	0	316
1.154	10.242	16364	16337	0	316
0.649	5.842	16364	16337	0	316
0.144	4.652	16364	16341	0	316
-0.613	2.056	16364	16349	0	316
-2.019	-0.288	16384	16365	0	316
-3.750	-3.029	16384	16381	0	316
-7.825	-4.544	16384	16384	0	316
-8.727	-5.517	16384	16384	0	316
-9.809	-2.957	16384	16384	0	316
-7.573	2.452	16384	16387	0	316
-4.977	4.544	16384	16391	0	316
-2.236	5.986	16384	16387	0	316
-2.416	5.157	16384	16384	0	316
-5.517	1.983	16384	16365	0	316
-9.304	-2.380	16384	16349	0	316
-13.343	-6.275	16364	16333	0	316
-14.245	-7.753	16364	16322	0	316
-12.766	-9.304	16364	16310	0	316
-9.196	-8.186	16333	16290	0	316
-10.314	-10.206	16333	16279	0	316
-13.091	-12.910	16313	16279	0	316
-19.834	-18.608	16313	16290	0	316
-25.352	-23.512	16313	16302	0	316
-26.974	-27.191	16313	16318	0	316
-22.863	-26.001	16313	16345	0	316
-18.103	-21.421	16333	16377	0	316
-14.317	-14.785	16333	16399	0	316
-13.235	-11.107	16333	16415	0	316
-15.038	-9.340	16364	16435	0	316
-15.218	-9.737	16384	16454	0	316
-12.982	-10.025	16384	16466	0	316
-8.186	-8.006	16384	16470	0	316
-3.029	-5.517	16384	16462	0	316
-1.659	-2.813	16404	16466	0	316
-2.452	-0.902	16384	16478	0	316
-4.039	0.505	16384	16489	0	316
-6.816	1.442	16404	16493	0	316
-7.609	1.551	16404	16493	0	316
-9.232	-0.793	16404	16493	0	316
-13.054	-2.849	16435	16493	0	316
-15.615	-2.524	16435	16482	0	316
-16.012	-0.252	16435	16462	0	316
-14.641	4.580	16435	16442	0	316
-12.333	6.599	16435	16435	0	316
-13.343	4.724	16435	16427	0	316
-16.300	-1.983	16435	16415	0	316
-18.897	-8.402	16435	16399	0	316
-20.411	-11.215	16435	16384	0	316
-17.923	-9.124	16435	16377	0	316
-13.487	-5.301	16435	16365	0	316
-9.556	0.000	16435	16357	0	316
-5.698	1.911	16435	16349	0	316
-3.210	1.983	16435	16345	0	316
-3.029	1.479	16435	16341	0	316
-4.003	0.613	16435	16341	0	316
-6.419	-0.865	16435	16349	0	316
-7.465	-2.344	16435	16369	0	316
-8.979	-4.400	16455	16384	0	316
-8.078	-5.193	16455	16411	0	316
-6.816	-2.236	16486	16431	0	316
-2.777	1.983	16486	16446	0	316
1.911	8.547	16506	16462	0	316
5.157	10.278	16486	16474	0	316
3.823	8.114	16486	16482	0	316
-2.200	0.577	16506	16482	0	316
-10.350	-6.563	16506	16474	0	316
-16.625	-12.694	16506	16462	0	316
-19.654	-15.435	16506	16442	0	316
-16.805	-13.595	16537	16427	0	316
-11.540	-9.592	16537	16423	0	316
-6.275	-4.075	16537	16427	0	316
-2.200	0.757	16537	16431	0	316
-3.678	2.056	16557	16427	0	316
-6.131	0.541	16537	16423	0	316
-6.383	0.469	16537	16407	0	316
-3.787	1.479	16537	16384	0	316
1.370	2.596	16537	16357	0	316
2.128	1.947	16506	16326	0	316
-1.731	-3.606	16506	16286	0	316
-10.422	-10.386	16506	16259	0	316
-13.235	-12.514	16486	16239	0	316
-10.169	-9.232	16486	16228	0	316
-2.633	-1.118	16455	16212	0	316
3.967	5.265	16455	16192	0	316
5.626	5.481	16435	16176	0	316
0.036	2.560	16404	16169	0	316
-4.400	-2.308	16384	16176	0	316
-5.049	-2.921	16384	16184	0	316
-1.479	1.515	16384	16200	0	316
6.275	9.701	16384	16220	0	316
13.487	15.795	16364	16231	0	316
17.526	20.087	16364	16247	0	316
15.795	17.670	16364	16263	0	316
7.789	9.881	16384	16275	0	316
-2.849	0.180	16384	16282	0	316
-15.038	-8.727	16364	16298	0	316
-19.942	-12.297	16364	16314	0	316
-19.005	-10.169	16364	16330	0	316
-13.451	-3.029	16364	16333	0	316
-7.104	1.875	16364	16333	0	316
-7.140	3.246	16333	16341	0	316
-11.251	-2.813	16333	16361	0	316
-17.815	-10.242	16364	16384	0	316
-23.549	-17.129	16364	16411	0	316
-26.325	-20.375	16364	16431	0	316
-28.994	-20.339	16364	16446	0	316
-30.977	-19.113	16364	16466	0	316
-34.151	-19.221	16384	16486	0	316
-34.259	-17.057	16384	16501	0	316
-31.554	-15.975	16384	16517	0	316
-27.696	-15.543	16384	16529	0	316
-22.755	-16.300	16404	16537	0	316
-18.933	-16.516	16404	16544	0	316
-13.487	-14.100	16435	16548	0	316
-8.511	-10.746	16435	16548	0	316
-8.402	-8.979	16435	16544	0	316
-12.910	-12.838	16435	16540	0	316
-20.988	-18.211	16455	16533	0	316
-28.958	-22.719	16455	16521	0	316
-28.777	-20.519	16435	16505	0	316
-24.342	-13.018	16435	16493	0	316
-16.769	-5.878	16435	16486	0	316
-11.828	-2.056	16455	16474	0	316
-11.323	-2.705	16455	16458	0	316
-11.828	-5.878	16455	16442	0	316
-13.018	-7.789	16455	16415	0	316
-13.704	-9.052	16435	16387	0	316
-11.612	-6.960	16435	16369	0	316
-10.710	-5.626	16435	16353	0	316
-10.963	-4.436	16435	16337	0	316
-9.448	-3.246	16404	16318	0	316
-11.504	-6.708	16404	16298	0	316
-13.595	-9.484	16404	16282	0	316
-17.274	-15.182	16404	16290	0	316
-18.608	-18.608	16404	16306	0	316
-17.923	-17.887	16404	16318	0	316
-13.415	-13.379	16404	16318	0	316
-9.232	-8.330	16404	16314	0	316
-9.484	-7.140	16404	16322	0	316
-12.333	-8.583	16404	16330	0	316
-16.408	-13.559	16404	16337	0	316
-19.942	-16.589	16404	16337	0	316
-20.772	-18.897	16404	16333	0	316
-23.657	-20.627	16384	16318	0	316
-27.083	-24.486	16384	16302	0	316
-29.066	-26.217	16384	16294	0	316
-28.597	-26.974	16364	16298	0	316
-24.414	-24.450	16364	16310	0	316
-20.447	-19.618	16364	16322	0	316
-18.320	-17.851	16364	16333	0	316
-18.320	-19.437	16364	16349	0	316
-20.339	-21.024	16364	16361	0	316
-19.654	-23.693	16384	16377	0	316
-16.444	-21.818	16384	16387	0	316
-10.422	-15.975	16384	16407	0	316
-3.787	-7.465	16384	16423	0	316
1.262	-1.334	16384	16427	0	316
4.472	2.164	16384	16423	0	316
2.200	1.623	16384	16411	0	316
-0.865	-1.695	16384	16403	0	316
-2.416	-2.596	16384	16391	0	316
-2.092	-0.072	16364	16384	0	316
0.505	4.003	16364	16377	0	316
3.498	6.924	16364	16377	0	316
5.121	6.671	16364	16373	0	316
3.859	2.128	16364	16373	0	316
1.803	-1.587	16364	16381	0	316
1.406	-3.390	16364	16384	0	316
2.669	0.000	16364	16395	0	316
6.563	5.445	16364	16395	0	316
10.638	9.592	16364	16391	0	316
13.631	12.009	16364	16387	0	316
11.432	10.169	16364	16391	0	316
7.753	7.321	16364	16395	0	316
3.318	5.590	16364	16391	0	316
0.541	5.193	16364	16381	0	316
0.144	5.409	16333	16361	0	316
-0.469	5.157	16333	16353	0	316
-1.623	1.623	16333	16357	0	316
-2.488	-2.380	16333	16369	0	316
-2.705	-1.983	16333	16381	0	316
1.046	0.361	16333	16384	0	316
4.039	6.816	16333	16377	0	316
8.547	10.963	16333	16365	0	316
9.124	13.631	16313	16349	0	316
9.773	13.487	16313	16345	0	316
7.248	11.864	16333	16349	0	316
5.013	10.674	16333	16357	0	316
2.524	9.124	16333	16373	0	316
1.947	5.878	16333	16391	0	316
2.885	4.796	16333	16415	0	316
4.868	6.563	16364	16427	0	316
6.419	7.429	16364	16442	0	316
6.058	9.160	16364	16458	0	316
2.849	7.537	16384	16470	0	316
-0.757	5.445	16384	16470	0	316
-1.803	3.210	16384	16462	0	316
0.000	3.065	16384	16446	0	316
2.885	4.904	16384	16438	0	316
5.229	6.527	16384	16427	0	316
5.590	6.022	16384	16419	0	316
1.551	3.534	16384	16411	0	316
-3.390	-0.216	16384	16407	0	316
-7.465	-5.409	16364	16395	0	316
-10.710	-9.016	16364	16387	0	316
-11.323	-10.783	16364	16384	0	316
-10.314	-9.520	16364	16384	0	316
-7.537	-8.439	16364	16387	0	316
-6.996	-6.094	16384	16391	0	316
-9.160	-7.609	16384	16391	0	316
-13.523	-12.225	16384	16387	0	316
-17.598	-15.723	16364	16377	0	316
-17.562	-15.975	16364	16361	0	316
-12.802	-11.251	16364	16349	0	316
-5.662	-4.364	16364	16349	0	316
-1.587	0.757	16364	16349	0	316
-2.705	0.288	16364	16357	0	316
-7.717	-4.508	16364	16373	0	316
-13.559	-11.720	16364	16377	0	316
-16.372	-13.595	16364	16377	0	316
-15.218	-14.064	16364	16365	0	316
-12.081	-12.117	16333	16349	0	316
-9.448	-9.232	16333	16333	0	316
-6.888	-8.763	16333	16318	0	316
-6.239	-8.799	16313	16310	0	316
-9.196	-12.838	16313	16314	0	316
-12.514	-16.120	16313	16322	0	316
-16.516	-19.365	16313	16326	0	316
-19.798	-23.188	16313	16322	0	316
-20.772	-25.171	16282	16314	0	316
-23.260	-26.722	16282	16310	0	316
-24.594	-27.479	16313	16310	0	316
-25.460	-28.561	16313	16314	0	316
-24.558	-24.991	16282	16322	0	316
-20.014	-19.293	16282	16330	0	316
-14.389	-14.100	16282	16341	0	316
-10.242	-9.268	16282	16361	0	316
-6.635	-7.717	16282	16381	0	316
-4.508	-7.032	16282	16395	0	316
-2.777	-9.268	16313	16415	0	316
-2.380	-8.943	16313	16431	0	316
-2.452	-9.232	16313	16450	0	316
-2.092	-6.419	16313	16470	0	316
-4.652	-6.347	16333	16489	0	316
-7.393	-7.357	16333	16501	0	316
-11.792	-11.071	16333	16505	0	316
-16.120	-15.110	16333	16505	0	316
-17.706	-19.149	16364	16505	0	316
-16.949	-20.988	16364	16501	0	316
-16.228	-20.519	16364	16489	0	316
-16.877	-21.457	16364	16470	0	316
-19.762	-22.322	16364	16446	0	316
-21.565	-21.349	16384	16431	0	316
-20.231	-19.870	16364	16415	0	316
-15.507	-16.480	16364	16403	0	316
-9.989	-12.586	16364	16399	0	316
-5.950	-9.701	16384	16403	0	316
-4.327	-6.058	16384	16403	0	316
-4.075	-3.065	16384	16395	0	316
-2.308	1.731	16364	16381	0	316
0.216	5.373	16364	16361	0	316
1.875	7.465	16364	16337	0	316
1.911	4.760	16364	16333	0	316
0.433	2.957	16364	16345	0	316
-1.298	0.613	16364	16369	0	316
-2.452	0.613	16384	16391	0	316
-1.118	1.947	16384	16419	0	316
-0.144	3.678	16384	16431	0	316
2.200	5.013	16384	16435	0	316
4.796	5.085	16404	16442	0	316
5.698	4.796	16404	16458	0	316
4.688	2.596	16435	16474	0	316
1.154	-0.721	16435	16478	0	316
-3.246	-4.327	16435	16474	0	316
-8.655	-6.419	16435	16462	0	316
-8.907	-4.255	16435	16454	0	316
-5.770	0.433	16435	16450	0	316
-1.515	5.517	16435	16442	0	316
2.813	7.898	16435	16438	0	316
5.157	8.222	16455	16442	0	316
3.678	6.022	16455	16438	0	316
2.741	4.400	16455	16423	0	316
0.685	3.426	16455	16403	0	316
-0.829	1.515	16455	16384	0	316
-3.173	-3.967	16455	16369	0	316
-6.708	-6.347	16455	16353	0	316
-9.629	-8.222	16455	16345	0	316
-10.927	-6.491	16435	16333	0	316
-12.730	-3.967	16435	16326	0	316
-14.389	-2.777	16435	16318	0	316
-17.598	-5.157	16435	16314	0	316
-21.168	-8.222	16435	16306	0	316
-24.234	-11.792	16435	16302	0	316
-23.945	-13.812	16435	16290	0	316
-22.575	-12.081	16404	16286	0	316
-18.211	-7.753	16404	16279	0	316
-14.569	-5.301	16404	16279	0	316
-14.172	-5.229	16384	16282	0	316
-15.326	-8.439	16404	16298	0	316
-16.949	-11.468	16404	16326	0	316
-17.598	-12.225	16435	16353	0	316
-14.749	-7.357	16435	16381	0	316
-8.619	-1.118	16435	16387	0	316
-3.173	5.878	16404	16387	0	316
1.659	11.071	16404	16384	0	316
6.203	16.012	16404	16377	0	316
10.350	19.510	16404	16377	0	316
12.081	20.050	16404	16384	0	316
9.124	16.012	16404	16395	0	316
2.380	9.484	16435	16411	0	316
-6.599	1.731	16435	16419	0	316
-12.982	-2.344	16435	16419	0	316
-14.100	-3.750	16435	16419	0	316
-9.124	0.180	16435	16419	0	316
-4.111	3.967	16435	16427	0	316
-0.252	8.439	16455	16435	0	316
1.479	9.953	16455	16446	0	316
1.406	10.999	16486	16466	0	316
1.875	11.756	16486	16486	0	316
3.173	12.189	16506	16497	0	316
6.419	15.146	16506	16497	0	316
7.248	15.579	16506	16489	0	316
4.940	12.153	16506	16478	0	316
2.344	7.898	16506	16458	0	316
-1.442	2.849	16486	16435	0	316
-2.524	0.902	16506	16419	0	316
-1.010	5.734	16506	16415	0	316
3.931	10.783	16506	16415	0	316
10.746	16.841	16506	16407	0	316
13.379	20.014	16506	16395	0	316
15.687	17.887	16506	16384	0	316
12.838	13.091	16506	16381	0	316
8.691	6.275	16506	16369	0	316
3.931	3.750	16486	16345	0	316
1.406	2.957	16506	16318	0	316
-0.361	6.419	16486	16286	0	316
-3.065	9.484	16435	16251	0	316
-6.960	7.934	16435	16224	0	316
-10.783	4.039	16404	16196	0	316
-14.208	0.505	16384	16176	0	316
-15.218	-2.488	16384	16173	0	316
-14.677	-0.469	16384	16184	0	316
-13.271	0.793	16364	16192	0	316
-15.146	-0.577	16364	16196	0	316
-21.529	-3.895	16333	16196	0	316
-27.335	-10.169	16333	16192	0	316
-30.797	-9.881	16313	16192	0	316
-30.112	-6.852	16333	16204	0	316
-25.965	-1.911	16333	16228	0	316
-25.099	0.829	16364	16251	0	316
-27.984	-0.216	16313	16275	0	316
-34.043	-3.750	16313	16298	0	316
-37.901	-5.914	16313	16318	0	316
-37.288	-3.029	16313	16345	0	316
-34.367	0.180	16313	16377	0	316
-32.203	1.190	16313	16403	0	316
-34.259	-1.046	16333	16423	0	316
-41.075	-7.032	16333	16438	0	316
-49.189	-13.668	16333	16458	0	316
-57.230	-18.428	16333	16478	0	316
-63.649	-20.952	16333	16482	0	316
-65.525	-21.601	16333	16482	0	316
-64.335	-20.087	16333	16478	0	316
-61.558	-20.123	16333	16482	0	316
-56.690	-17.418	16333	16478	0	316
-53.264	-13.631	16333	16466	0	316
-53.949	-10.963	16333	16454	0	316
-60.909	-6.131	16333	16442	0	316
-74.035	-3.173	16313	16427	0	316
-91.309	0.649	16313	16407	0	316
-107.140	2.164	16313	16395	0	316
-116.805	4.111	16333	16391	0	316
-119.834	6.347	16313	16391	0	316
-117.238	5.301	16313	16391	0	316
-114.389	1.479	16313	16391	0	316
-112.477	-4.219	16313	16391	0	316
-114.461	-10.025	16313	16391	0	316
-116.480	-15.795	16313	16391	0	316
-120.447	-14.749	16313	16399	0	316
-122.791	-13.956	16313	16411	0	316
-123.044	-13.127	16313	16423	0	316
-121.709	-12.838	16333	16435	0	316
-117.670	-15.362	16333	16442	0	316
-112.982	-17.346	16313	16435	0	316
-105.517	-19.473	16313	16415	0	316
-96.827	-19.293	16313	16403	0	316
-88.424	-17.021	16313	16399	0	316
-78.543	-15.038	16313	16399	0	316
-69.564	-11.071	16313	16391	0	316
-59.611	-5.770	16313	16384	0	316
-47.458	0.505	16313	16381	0	316
-35.160	7.645	16333	16384	0	316
-23.296	13.848	16333	16384	0	316
-18.139	16.769	16364	16387	0	316
-17.057	15.795	16333	16391	0	316
-20.411	12.874	16333	16403	0	316
-26.506	11.215	16333	16415	0	316
-31.662	7.717	16333	16427	0	316
-35.954	5.806	16333	16438	0	316
-36.711	2.957	16364	16454	0	316
-34.692	0.072	16364	16466	0	316
-29.895	-3.895	16384	16474	0	316
-25.568	-6.419	16384	16486	0	316
-21.313	-10.999	16384	16489	0	316
-20.700	-13.920	16404	16493	0	316
-17.887	-17.166	16404	16501	0	316
-14.208	-18.752	16404	16505	0	316
-5.986	-18.536	16435	16501	0	316
1.442	-17.274	16435	16489	0	316
9.520	-14.461	16435	16474	0	316
15.038	-12.081	16435	16450	0	316
18.680	-7.717	16404	16419	0	316
23.296	-3.390	16435	16395	0	316
27.587	0.938	16404	16377	0	316
32.528	4.255	16404	16353	0	316
37.360	5.626	16404	16330	0	316
41.435	6.888	16404	16306	0	316
46.448	6.455	16384	16286	0	316
48.828	6.419	16384	16275	0	316
49.297	5.265	16384	16279	0	316
48.395	4.904	16384	16279	0	316
45.691	3.282	16384	16282	0	316
45.041	1.947	16364	16282	0	316
44.789	2.524	16364	16290	0	316
43.527	0.108	16364	16302	0	316
42.481	-0.649	16364	16314	0	316
39.308	-2.452	16364	16326	0	316
36.351	-6.419	16384	16341	0	316
32.384	-9.953	16384	16357	0	316
29.282	-14.894	16384	16365	0	316
28.453	-14.569	16384	16365	0	316
28.273	-13.884	16384	16365	0	316
30.364	-10.638	16384	16373	0	316
32.312	-9.304	16384	16381	0	316
32.853	-5.626	16384	16391	0	316
35.088	-2.560	16384	16403	0	316
38.514	1.623	16384	16407	0	316
42.048	7.609	16384	16407	0	316
42.806	7.393	16384	16399	0	316
39.849	5.590	16384	16391	0	316
35.377	1.262	16384	16387	0	316
30.617	-2.813	16384	16387	0	316
26.866	-5.157	16384	16391	0	316
26.614	-6.888	16384	16395	0	316
25.207	-6.816	16384	16387	0	316
25.063	-7.465	16384	16384	0	316
22.250	-9.809	16384	16373	0	316
18.897	-11.323	16364	16361	0	316
16.336	-14.245	16384	16349	0	316
16.156	-12.730	16364	16337	0	316
19.834	-10.242	16364	16333	0	316
25.243	-4.508	16364	16333	0	316
29.571	-0.865	16364	16345	0	316
30.941	-0.757	16364	16357	0	316
27.624	-1.587	16364	16365	0	316
25.135	-4.219	16364	16377	0	316
22.322	-6.383	16364	16384	0	316
19.113	-8.366	16364	16399	0	316
18.860	-10.061	16364	16411	0	316
18.103	-10.710	16364	16419	0	316
18.536	-10.783	16364	16415	0	316
20.014	-6.491	16364	16407	0	316
22.358	-3.318	16364	16399	0	316
23.801	-1.803	16364	16391	0	316
21.601	-2.488	16364	16391	0	316
17.779	-6.022	16364	16395	0	316
13.127	-8.907	16364	16403	0	316
9.773	-8.475	16364	16411	0	316
10.242	-6.708	16364	16419	0	316
12.009	-3.606	16384	16431	0	316
13.920	-4.039	16384	16435	0	316
12.874	-5.517	16384	16438	0	316
10.458	-10.746	16384	16438	0	316
5.193	-15.759	16384	16438	0	316
-0.288	-18.392	16384	16431	0	316
-2.416	-18.824	16384	16423	0	316
-0.902	-16.228	16384	16415	0	316
2.236	-11.179	16404	16419	0	316
4.436	-8.402	16404	16427	0	316
5.626	-7.681	16404	16435	0	316
1.551	-11.540	16404	16431	0	316
-2.056	-15.146	16404	16423	0	316
-5.049	-20.339	16404	16419	0	316
-7.681	-23.621	16435	16419	0	316
-8.583	-25.352	16435	16427	0	316
-7.068	-24.270	16435	16435	0	316
-4.580	-24.630	16455	16442	0	316
-1.911	-23.188	16455	16446	0	316
-1.515	-24.739	16435	16446	0	316
-3.967	-27.840	16455	16442	0	316
-8.258	-32.672	16455	16431	0	316
-13.704	-34.836	16455	16415	0	316
-17.995	-38.334	16435	16399	0	316
-20.772	-37.937	16435	16384	0	316
-21.926	-39.019	16435	16369	0	316
-20.844	-39.127	16435	16357	0	316
-23.260	-40.714	16435	16349	0	316
-26.433	-45.078	16435	16341	0	316
-30.689	-47.926	16435	16337	0	316
-33.466	-50.270	16435	16333	0	316
-31.518	-48.864	16435	16330	0	316
-29.679	-47.854	16435	16322	0	316
-29.030	-48.215	16404	16306	0	316
-31.987	-51.100	16404	16290	0	316
-36.747	-56.185	16404	16279	0	316
-40.786	-59.827	16404	16279	0	316
-41.652	-61.846	16404	16282	0	316
-42.193	-61.161	16384	16286	0	316
-42.337	-60.620	16384	16298	0	316
-46.268	-60.656	16384	16314	0	316
-49.730	-60.151	16404	16330	0	316
-54.382	-61.486	16404	16345	0	316
-54.886	-59.827	16404	16349	0	316
-51.316	-56.149	16404	16353	0	316
-45.330	-50.703	16384	16353	0	316
-40.858	-45.294	16384	16361	0	316
-37.324	-45.294	16384	16365	0	316
-36.423	-46.953	16384	16369	0	316
-36.747	-47.710	16384	16373	0	316
-35.016	-47.349	16384	16381	0	316
-32.672	-44.753	16404	16391	0	316
-29.895	-40.353	16404	16403	0	316
-30.148	-40.281	16404	16403	0	316
-31.085	-40.966	16404	16399	0	316
-34.115	-40.426	16384	16391	0	316
-34.006	-37.541	16384	16381	0	316
-31.266	-34.223	16384	16373	0	316
-26.614	-30.364	16384	16365	0	316
-23.296	-32.312	16384	16357	0	316
-22.286	-35.233	16364	16349	0	316
-21.349	-38.045	16364	16341	0	316
-19.978	-37.432	16364	16337	0	316
-18.139	-34.475	16364	16333	0	316
-17.238	-30.653	16333	16330	0	316
-18.933	-28.201	16333	16330	0	316
-21.781	-25.748	16333	16333	0	316
-22.178	-24.594	16333	16345	0	316
-23.008	-24.089	16333	16361	0	316
-23.116	-25.676	16333	16369	0	316
-22.647	-28.164	16333	16373	0	316
-22.178	-30.184	16333	16365	0	316
-17.634	-26.470	16313	16361	0	316
-10.638	-19.257	16313	16357	0	316
-3.173	-11.251	16313	16353	0	316
1.839	-2.993	16313	16357	0	316
3.318	0.577	16313	16361	0	316
1.911	-0.613	16313	16369	0	316
-3.210	-5.590	16313	16373	0	316
-9.124	-11.720	16333	16381	0	316
-14.208	-17.995	16313	16387	0	316
-16.048	-21.096	16333	16403	0	316
-15.254	-20.808	16333	16423	0	316
-11.179	-19.834	16333	16438	0	316
-8.979	-17.851	16333	16454	0	316
-9.592	-17.346	16364	16474	0	316
-10.710	-17.815	16364	16501	0	316
-13.018	-19.329	16384	16525	0	316
-13.668	-22.322	16384	16533	0	316
-15.254	-26.433	16384	16521	0	316
-17.238	-29.282	16384	16501	0	316
-18.752	-29.715	16384	16482	0	316
-18.464	-24.955	16384	16470	0	316
-15.398	-18.644	16384	16458	0	316
-11.684	-12.045	16384	16446	0	316
-9.448	-7.609	16384	16431	0	316
-8.979	-7.321	16384	16415	0	316
-11.360	-6.347	16384	16407	0	316
-12.694	-7.537	16384	16407	0	316
-14.677	-10.314	16384	16403	0	316
-15.723	-13.776	16384	16395	0	316
-16.589	-17.093	16384	16387	0	316
-16.841	-17.743	16384	16377	0	316
-15.939	-16.228	16384	16357	0	316
-15.362	-11.396	16364	16341	0	316
-13.812	-7.321	16364	16333	0	316
-9.773	-1.298	16364	16330	0	316
-5.734	3.931	16364	16326	0	316
-0.865	7.501	16364	16322	0	316
1.082	6.671	16364	16322	0	316
0.397	4.039	16364	16322	0	316
-1.587	-1.046	16333	16322	0	316
-0.974	-2.056	16333	16322	0	316
2.344	2.452	16333	16326	0	316
7.465	7.212	16333	16337	0	316
10.638	11.468	16333	16345	0	316
10.458	11.143	16333	16345	0	316
7.393	7.357	16333	16341	0	316
4.219	0.865	16333	16341	0	316
1.767	-3.967	16333	16345	0	316
0.829	-3.678	16333	16361	0	316
2.092	-2.921	16333	16384	0	316
4.364	-1.370	16333	16395	0	316
4.436	-0.216	16333	16407	0	316
2.813	-1.947	16364	16423	0	316
-1.479	-1.947	16364	16442	0	316
-6.094	-0.649	16364	16446	0	316
-6.275	0.397	16384	16446	0	316
-3.931	-1.442	16384	16446	0	316
2.056	-6.022	16384	16442	0	316
4.255	-10.025	16404	16442	0	316
6.167	-11.900	16384	16450	0	316
5.373	-9.412	16384	16450	0	316
4.327	-5.229	16384	16442	0	316
3.173	-2.741	16384	16435	0	316
0.649	-5.878	16384	16423	0	316
-4.039	-8.619	16384	16407	0	316
-9.304	-13.523	16384	16391	0	316
-11.323	-13.668	16384	16381	0	316
-9.665	-10.710	16364	16361	0	316
-5.085	-5.806	16384	16341	0	316
-2.380	-2.056	16384	16326	0	316
-2.669	-1.803	16384	16322	0	316
-7.645	-4.652	16364	16318	0	316
-14.064	-10.242	16364	16310	0	316
-16.372	-14.389	16364	16298	0	316
-17.815	-16.949	16333	16290	0	316
-18.320	-18.356	16333	16294	0	316
-19.185	-18.464	16333	16306	0	316
-21.060	-18.572	16333	16318	0	316
-24.414	-20.483	16333	16333	0	316
-25.316	-21.709	16333	16353	0	316
-26.866	-22.755	16333	16373	0	316
-26.037	-21.673	16364	16395	0	316
-23.152	-21.565	16364	16423	0	316
-20.087	-20.159	16384	16446	0	316
-15.110	-18.103	16384	16454	0	316
-11.576	-17.346	16384	16442	0	316
-7.321	-15.002	16364	16423	0	316
-5.193	-10.530	16364	16415	0	316
-2.560	-5.698	16364	16411	0	316
-1.262	-0.180	16364	16411	0	316
0.613	4.724	16364	16403	0	316
1.767	7.429	16364	16391	0	316
2.200	8.619	16364	16387	0	316
0.865	5.698	16364	16391	0	316
-2.056	3.787	16364	16399	0	316
-4.508	1.406	16364	16399	0	316
-4.832	1.334	16364	16399	0	316
-3.750	2.885	16364	16403	0	316
-2.741	4.291	16384	16403	0	316
-3.282	4.832	16384	16403	0	316
-6.131	2.596	16384	16403	0	316
-10.674	-2.164	16384	16407	0	316
-15.326	-6.167	16384	16411	0	316
-17.093	-10.242	16384	16415	0	316
-16.697	-9.412	16384	16419	0	316
-15.038	-8.583	16384	16411	0	316
-13.487	-5.373	16384	16395	0	316
-11.143	-5.806	16384	16381	0	316
-10.602	-5.409	16364	16361	0	316
-8.835	-4.183	16364	16349	0	316
-5.481	-3.318	16364	16345	0	316
-2.885	0.252	16364	16349	0	316
-3.967	0.469	16364	16353	0	316
-6.960	-1.911	16364	16361	0	316
-12.189	-7.032	16364	16369	0	316
-17.238	-11.864	16364	16377	0	316
-17.526	-15.110	16364	16377	0	316
-13.487	-12.297	16364	16377	0	316
-6.635	-6.924	16364	16377	0	316
-0.216	-0.144	16364	16377	0	316
2.164	1.911	16364	16373	0	316
0.000	-0.505	16364	16369	0	316
-5.121	-5.950	16364	16369	0	316
-10.314	-10.025	16364	16369	0	316
-12.189	-11.684	16364	16369	0	316
-10.963	-9.629	16364	16369	0	316
-7.212	-7.537	16364	16373	0	316
-3.354	-6.167	16364	16381	0	316
-1.947	-5.590	16364	16387	0	316
-2.380	-6.816	16364	16403	0	316
-5.734	-8.186	16364	16411	0	316
-9.088	-9.989	16364	16399	0	316
-12.225	-11.035	16364	16381	0	316
-12.730	-9.160	16364	16361	0	316
-9.088	-6.563	16384	16361	0	316
-7.032	-2.164	16384	16369	0	316
-6.058	-1.442	16384	16381	0	316
-9.016	-6.058	16384	16384	0	316
-15.398	-11.720	16384	16384	0	316
-21.024	-18.680	16384	16391	0	316
-23.729	-21.457	16384	16403	0	316
-21.241	-19.942	16384	16407	0	316
-18.247	-19.257	16384	16415	0	316
-15.110	-17.887	16384	16423	0	316
-13.343	-18.969	16404	16431	0	316
-15.362	-20.844	16384	16427	0	316
-19.329	-23.801	16384	16415	0	316
-23.368	-26.938	16364	16399	0	316
-29.607	-31.879	16384	16395	0	316
-32.672	-36.026	16404	16399	0	316
-35.521	-39.308	16384	16415	0	316
-37.396	-40.462	16384	16435	0	316
-36.531	-38.911	16404	16458	0	316
-34.800	-36.639	16404	16478	0	316
-28.489	-31.662	16435	16493	0	316
-20.988	-24.450	16435	16505	0	316
-13.740	-18.428	16455	16509	0	316
-8.979	-12.586	16455	16517	0	316
-4.472	-7.609	16486	16525	0	316
-2.056	-4.832	16486	16525	0	316
2.849	-2.200	16506	16513	0	316
8.547	0.216	16506	16489	0	316
11.251	1.587	16506	16466	0	316
12.333	2.019	16506	16446	0	316
13.271	3.714	16506	16427	0	316
10.855	3.750	16506	16411	0	316
9.917	5.229	16506	16395	0	316
8.330	3.029	16506	16381	0	316
9.232	2.344	16486	16361	0	316
10.566	2.596	16486	16349	0	316
14.461	5.481	16486	16341	0	316
17.670	10.855	16486	16333	0	316
19.834	14.749	16486	16318	0	316
20.844	18.247	16486	16306	0	316
22.827	20.483	16486	16298	0	316
29.499	24.522	16486	16290	0	316
36.206	28.705	16486	16286	0	316
44.681	33.105	16486	16290	0	316
47.169	35.737	16486	16290	0	316
45.114	35.846	16435	16282	0	316
40.930	34.006	16455	16271	0	316
37.505	33.249	16455	16267	0	316
38.298	33.898	16455	16267	0	316
40.389	37.468	16435	16271	0	316
42.445	41.904	16404	16279	0	316
40.894	41.832	16404	16286	0	316
34.620	36.567	16404	16294	0	316
27.660	27.155	16404	16310	0	316
21.241	18.464	16404	16326	0	316
18.320	14.677	16404	16337	0	316
19.149	16.120	16404	16349	0	316
23.332	20.014	16435	16361	0	316
24.450	22.214	16435	16373	0	316
23.476	21.385	16435	16384	0	316
20.700	19.726	16435	16384	0	316
17.021	16.480	16435	16384	0	316
15.074	14.821	16435	16391	0	316
14.533	15.903	16435	16395	0	316
15.290	18.752	16435	16395	0	316
16.733	21.998	16435	16391	0	316
18.283	23.296	16435	16384	0	316
21.096	23.549	16404	16373	0	316
24.270	25.748	16404	16365	0	316
28.237	27.335	16404	16357	0	316
30.148	31.410	16404	16341	0	316
30.364	33.934	16384	16322	0	316
28.020	32.023	16364	16294	0	316
24.450	29.715	16364	16275	0	316
22.214	26.758	16333	16259	0	316
22.611	26.361	16333	16247	0	316
23.476	24.342	16313	16243	0	316
24.306	21.745	16313	16247	0	316
22.503	17.093	16282	16263	0	316
19.041	11.071	16282	16279	0	316
14.713	6.744	16282	16294	0	316
11.179	5.806	16282	16306	0	316
8.943	5.517	16262	16314	0	316
6.996	5.842	16262	16322	0	316
7.898	4.580	16282	16330	0	316
8.186	3.750	16313	16349	0	316
11.107	3.137	16282	16373	0	316
14.894	6.203	16282	16399	0	316
19.041	9.917	16282	16427	0	316
20.303	13.595	16313	16450	0	316
19.185	14.605	16313	16474	0	316
16.552	14.713	16313	16493	0	316
15.074	11.468	16313	16505	0	316
15.579	10.746	16313	16509	0	316
16.769	8.114	16313	16501	0	316
15.795	4.904	16333	16501	0	316
11.612	0.469	16333	16509	0	316
5.698	-4.291	16333	16513	0	316
3.642	-4.327	16333	16517	0	316
5.734	-0.144	16333	16521	0	316
11.937	7.609	16364	16529	0	316
18.680	12.153	16364	16540	0	316
20.014	10.999	16384	16544	0	316
15.759	5.193	16384	16540	0	316
8.547	-1.010	16384	16529	0	316
-0.144	-5.698	16384	16517	0	316
-6.527	-6.816	16404	16505	0	316
-9.592	-8.655	16404	16493	0	316
-11.937	-9.737	16404	16474	0	316
-10.061	-12.081	16404	16450	0	316
-9.556	-14.389	16404	16427	0	316
-5.265	-14.064	16384	16403	0	316
-2.056	-14.821	16384	16381	0	316
0.649	-13.776	16384	16361	0	316
3.678	-9.953	16384	16349	0	316
4.436	-7.176	16384	16337	0	316
3.029	-6.708	16384	16326	0	316
0.505	-7.537	16364	16314	0	316
-3.137	-12.838	16364	16298	0	316
-7.681	-17.670	16364	16286	0	316
-12.730	-22.719	16364	16282	0	316
-17.454	-25.316	16333	16286	0	316
-19.077	-26.830	16333	16294	0	316
-17.923	-28.453	16333	16286	0	316
-14.713	-26.289	16364	16275	0	316
-10.494	-24.270	16333	16275	0	316
-10.783	-22.503	16333	16286	0	316
-11.756	-19.870	16333	16306	0	316
-12.441	-19.437	16364	16337	0	316
-10.458	-16.012	16364	16373	0	316
-6.780	-13.631	16384	16395	0	316
-6.094	-12.514	16384	16419	0	316
-7.248	-14.245	16384	16438	0	316
-13.956	-20.267	16384	16442	0	316
-19.798	-25.676	16384	16442	0	316
-25.604	-30.076	16384	16435	0	316
-26.361	-29.174	16384	16423	0	316
-25.207	-27.515	16384	16403	0	316
-21.457	-25.316	16384	16384	0	316
-17.923	-23.512	16384	16373	0	316
-14.425	-21.998	16364	16369	0	316
-11.360	-18.824	16364	16365	0	316
-11.504	-18.067	16364	16357	0	316
-12.694	-18.283	16364	16353	0	316
-17.274	-21.457	16364	16353	0	316
-22.142	-26.109	16364	16353	0	316
-21.709	-26.181	16364	16357	0	316
-18.788	-23.296	16364	16361	0	316
-11.179	-19.690	16364	16369	0	316
-6.924	-16.913	16364	16373	0	316
-7.104	-15.435	16364	16377	0	316
-9.268	-12.874	16364	16384	0	316
-9.809	-8.655	16364	16384	0	316
-7.393	-3.354	16364	16377	0	316
-2.092	-0.685	16364	16381	0	316
-0.325	-4.400	16364	16384	0	316
-3.318	-10.602	16333	16384	0	316
-11.107	-18.680	16333	16384	0	316
-15.975	-21.349	16364	16391	0	316
-17.418	-21.493	16364	16403	0	316
-12.802	-18.247	16364	16419	0	316
-8.583	-16.336	16364	16438	0	316
-6.996	-18.320	16384	16458	0	316
-11.396	-22.719	16384	16478	0	316
-18.500	-26.902	16404	16489	0	316
-22.286	-30.184	16404	16497	0	316
-22.358	-28.201	16404	16501	0	316
-18.969	-28.020	16435	16501	0	316
-16.012	-25.568	16435	16493	0	316
-16.516	-26.938	16435	16482	0	316
-19.329	-28.453	16435	16470	0	316
-21.204	-29.138	16435	16450	0	316
-20.123	-27.407	16435	16435	0	316
-15.867	-22.070	16435	16423	0	316
-10.422	-16.733	16435	16415	0	316
-7.501	-10.602	16435	16399	0	316
-6.022	-9.016	16435	16391	0	316
-8.006	-9.268	16435	16384	0	316
-9.773	-13.523	16435	16369	0	316
-12.369	-16.805	16435	16353	0	316
-12.910	-19.041	16435	16333	0	316
-12.622	-17.887	16404	16306	0	316
-10.566	-14.245	16404	16279	0	316
-8.763	-12.441	16384	16263	0	316
-8.871	-10.602	16384	16259	0	316
