neuroNicle FX2
D3F25R12
Bluetooth SPP
2023년 11월 16일 목요일
오후 8:11
time interval = 4msec
EEG1	EEG2	PPG	sdPPG	pulse	peak_interval(msec)
23.945	17.526	15936	16374	0	820
21.421	19.437	15923	16404	0	820
16.480	14.497	15912	16428	0	820
8.222	6.311	15897	16445	0	820
3.210	-1.118	15888	16470	0	820
3.570	-2.488	15881	16510	0	820
6.924	3.390	15870	16548	0	820
14.317	15.435	15863	16561	0	820
21.349	28.092	15850	16556	0	820
23.332	32.312	15841	16545	0	820
19.690	27.371	15830	16538	0	820
13.451	17.706	15819	16529	0	820
8.366	9.016	15806	16516	0	820
8.078	8.943	15795	16498	0	820
12.081	14.858	15783	16476	0	820
15.795	18.572	15766	16431	0	820
14.641	19.726	15750	16377	0	820
8.871	14.317	15739	16354	0	820
3.823	7.465	15726	16357	0	820
-1.767	4.724	15712	16336	0	820
-1.875	5.445	15692	16274	0	820
1.118	7.321	15672	16197	0	820
3.246	7.934	15652	16130	0	820
5.121	6.311	15632	16085	0	820
4.111	3.931	15610	16052	0	820
2.380	2.921	15590	16013	0	820
-2.705	1.551	15566	15959	0	820
-6.383	0.938	15544	15914	0	820
-4.508	0.541	15526	15901	0	820
0.180	2.236	15510	15918	0	820
5.770	5.229	15494	15947	0	820
8.258	8.547	15479	15970	0	820
4.183	6.816	15463	15991	0	820
-4.003	2.236	15446	16017	0	820
-7.248	0.252	15434	16045	0	820
-5.301	3.967	15421	16069	0	820
4.147	13.018	15405	16093	0	820
13.631	21.024	15392	16120	0	820
21.962	23.440	15381	16158	0	820
23.404	23.332	15376	16220	0	820
24.017	22.322	15366	16293	0	820
23.368	26.542	15361	16357	0	820
25.712	29.282	15355	16404	0	820
31.987	31.518	15348	16446	0	820
36.711	30.725	15347	16497	0	820
36.459	27.047	15347	16575	0	820
31.518	26.974	15352	16674	0	820
27.299	29.066	15361	16785	0	820
24.919	33.429	15374	16905	0	820
29.499	38.803	15388	17040	0	820
32.348	40.750	15414	17193	0	820
29.174	37.757	15441	17368	0	820
19.654	28.345	15472	17557	0	820
10.350	17.670	15508	17738	0	820
5.734	10.674	15543	17888	0	820
10.061	10.458	15584	18019	0	820
15.326	14.281	15627	18154	0	820
17.021	20.014	15672	18297	0	820
11.179	20.952	15723	18424	0	820
1.767	19.005	15768	18516	0	820
-4.652	15.398	15816	18584	0	820
-5.373	12.261	15872	18665	0	820
0.397	10.746	15928	18760	0	820
3.570	8.114	15988	18832	0	820
0.974	1.515	16045	18866	0	820
-6.888	-4.796	16097	18863	0	820
-12.730	-6.311	16154	18833	0	820
-12.622	-3.390	16203	18776	0	820
-9.665	2.993	16245	18654	0	820
-4.472	6.311	16279	18463	1	824
-3.318	2.741	16319	18272	0	824
-4.616	-0.649	16359	18134	0	824
-2.200	1.262	16400	18036	0	824
2.957	8.727	16442	17945	0	824
5.770	15.471	16485	17848	0	824
5.914	15.759	16525	17746	0	824
2.633	8.330	16567	17643	0	824
-0.108	2.488	16607	17543	0	824
-0.072	0.829	16647	17451	0	824
2.813	3.787	16683	17360	0	824
2.019	5.770	16722	17256	0	824
-2.633	4.003	16754	17144	0	824
-8.943	-0.361	16789	17033	0	824
-12.333	-2.344	16821	16937	0	824
-7.789	1.442	16853	16849	0	824
2.777	8.691	16880	16754	0	824
11.468	14.497	16907	16641	0	824
14.821	14.605	16929	16523	0	824
8.114	8.366	16952	16415	0	824
0.865	-0.469	16973	16314	0	824
-5.590	-5.734	16992	16206	0	824
-5.770	-3.859	17005	16096	0	824
0.252	3.534	17018	15992	0	824
5.373	9.340	17029	15886	0	824
11.504	12.874	17031	15757	0	824
14.785	13.271	17027	15587	0	824
14.966	13.956	17016	15384	0	824
12.405	15.507	17003	15190	0	824
6.960	14.281	16987	15024	0	824
0.793	9.592	16970	14884	0	824
-1.911	2.633	16954	14786	0	824
-1.659	-0.325	16944	14731	0	824
1.190	3.246	16927	14702	0	824
4.003	9.160	16912	14671	0	824
6.058	14.317	16894	14637	0	824
4.652	14.858	16880	14626	0	824
2.741	11.251	16864	14655	0	824
-0.685	5.409	16850	14712	0	824
-3.318	-0.397	16840	14778	0	824
-5.373	-2.669	16827	14846	0	824
-4.075	-0.793	16820	14940	0	824
-0.325	6.383	16814	15064	0	824
4.580	14.894	16810	15197	0	824
8.475	18.572	16805	15325	0	824
11.540	15.435	16802	15443	0	824
12.730	8.006	16798	15551	0	824
14.858	5.445	16794	15650	0	824
18.392	7.753	16791	15736	0	824
20.880	16.372	16781	15805	0	824
19.546	24.270	16774	15865	0	824
14.100	25.929	16770	15932	0	824
6.744	21.529	16767	16014	0	824
0.577	13.595	16767	16106	0	824
0.072	7.176	16767	16197	0	824
2.777	7.573	16769	16287	0	824
5.698	12.261	16770	16378	0	824
4.580	19.401	16776	16458	0	824
-0.757	22.791	16778	16528	0	824
-4.940	20.519	16781	16589	0	824
-4.508	14.785	16784	16636	0	824
0.144	10.242	16785	16668	0	824
5.806	9.665	16787	16686	0	824
7.357	11.251	16787	16690	0	824
2.164	12.333	16784	16669	0	824
-2.885	11.396	16774	16608	0	824
-5.481	7.248	16763	16516	0	824
-0.757	8.222	16751	16425	0	824
5.445	9.917	16733	16332	0	824
7.825	12.622	16714	16227	0	824
5.301	12.297	16700	16143	0	824
-0.721	7.212	16683	16089	0	824
-5.590	2.452	16671	16048	0	824
-5.085	0.252	16653	16001	0	824
-2.200	2.921	16636	15948	0	824
1.983	7.970	16620	15908	0	824
4.039	13.127	16605	15886	0	824
6.455	17.382	16591	15884	0	824
7.862	18.680	16578	15899	0	824
12.045	16.372	16565	15914	0	824
12.117	11.756	16554	15933	0	824
10.350	5.013	16547	15970	0	824
3.570	0.144	16538	16022	0	824
-0.613	1.767	16529	16068	0	824
-4.977	7.032	16523	16104	0	824
-3.173	13.704	16516	16145	0	824
1.334	17.562	16511	16203	0	824
5.517	18.969	16511	16270	0	824
8.799	18.283	16505	16330	0	824
10.855	17.562	16504	16369	0	824
11.504	18.464	16496	16384	0	824
9.088	17.129	16489	16388	0	824
6.816	14.281	16483	16385	0	824
3.101	10.783	16474	16381	0	824
2.128	11.504	16461	16363	0	824
5.986	18.067	16453	16337	0	824
11.432	25.856	16442	16319	0	824
16.264	29.463	16432	16311	0	824
15.182	25.893	16424	16306	0	824
9.592	17.129	16413	16291	0	824
5.301	9.052	16400	16256	0	824
5.878	7.970	16384	16211	0	824
12.514	12.910	16370	16173	0	824
18.175	19.618	16358	16143	0	824
20.303	22.827	16341	16111	0	824
15.146	19.870	16325	16073	0	824
6.671	13.776	16304	16028	0	824
0.793	7.862	16283	15967	0	824
1.623	5.517	16264	15903	0	824
6.996	9.989	16245	15872	0	824
13.740	15.002	16221	15844	0	824
19.077	18.897	16194	15778	0	824
18.031	18.608	16168	15696	0	824
12.441	13.559	16139	15635	0	824
6.744	7.285	16112	15603	0	824
2.596	1.875	16090	15604	0	824
0.108	-3.101	16072	15641	0	824
0.144	-7.068	16054	15696	0	824
-1.010	-7.068	16038	15755	0	824
-1.046	-5.517	16023	15810	0	824
-0.325	-0.252	16006	15859	0	824
1.623	3.714	15990	15898	0	824
3.101	4.724	15972	15932	0	824
3.318	-0.397	15955	15965	0	824
2.813	-7.465	15939	16000	0	824
2.092	-13.776	15925	16043	0	824
3.823	-16.841	15914	16099	0	824
8.655	-15.038	15903	16157	0	824
12.838	-9.556	15886	16199	0	824
13.523	-5.373	15875	16223	0	824
9.412	-3.101	15861	16249	0	824
2.200	-3.931	15852	16288	0	824
-3.462	-6.527	15839	16333	0	824
-5.590	-6.131	15830	16364	0	824
-3.173	-2.957	15817	16374	0	824
-0.072	0.180	15803	16372	0	824
1.298	1.118	15790	16364	0	824
1.118	-0.902	15772	16346	0	824
2.993	-3.534	15759	16322	0	824
5.445	-5.337	15741	16305	0	824
9.520	-3.570	15723	16279	0	824
9.917	-2.236	15703	16237	0	824
7.248	-4.255	15686	16209	0	824
0.721	-7.501	15674	16207	0	824
-6.816	-12.550	15657	16220	0	824
-8.799	-15.326	15646	16233	0	824
-9.124	-16.769	15630	16224	0	824
-5.806	-15.795	15612	16210	0	824
-6.347	-14.281	15605	16235	0	824
-9.448	-15.002	15595	16292	0	824
-14.425	-17.382	15584	16323	0	824
-16.913	-21.168	15570	16312	0	824
-16.084	-25.460	15555	16289	0	824
-9.989	-28.381	15541	16273	0	824
-3.642	-26.433	15525	16260	0	824
1.479	-22.972	15508	16229	0	824
5.445	-18.933	15490	16183	0	824
6.347	-16.336	15472	16155	0	824
6.022	-16.589	15461	16160	0	824
3.029	-18.356	15446	16190	0	824
-1.118	-19.726	15439	16227	0	824
-1.046	-17.166	15424	16254	0	824
1.587	-10.999	15416	16268	0	824
8.691	-1.551	15405	16277	0	824
15.831	4.544	15394	16292	0	824
17.526	7.032	15384	16317	0	824
13.776	2.056	15376	16348	0	824
9.088	-5.554	15368	16373	0	824
7.501	-10.097	15361	16392	0	824
8.583	-8.583	15355	16425	0	824
12.730	-0.721	15354	16476	0	824
14.641	9.556	15354	16538	0	824
13.307	15.110	15355	16609	0	824
10.458	17.021	15361	16689	0	824
10.350	14.641	15368	16772	0	824
10.242	12.153	15376	16857	0	824
11.792	12.694	15388	16948	0	824
12.982	13.451	15401	17044	0	824
11.432	16.589	15421	17145	0	824
12.081	18.500	15443	17254	0	824
12.045	20.195	15468	17381	0	824
10.133	17.959	15501	17536	0	824
7.465	13.091	15541	17725	0	824
3.462	6.888	15587	17927	0	824
2.164	3.678	15632	18102	0	824
8.042	5.698	15678	18237	0	824
13.776	13.235	15728	18360	0	824
17.382	21.745	15784	18492	0	824
14.281	25.027	15839	18619	0	824
6.383	21.781	15894	18711	0	824
-1.515	13.776	15947	18748	0	824
-5.517	3.282	15995	18748	0	824
-4.436	-1.695	16048	18736	0	824
-1.190	2.344	16101	18720	0	824
1.947	9.016	16155	18699	0	824
5.662	15.795	16205	18658	0	824
5.049	15.038	16254	18584	1	784
2.092	9.016	16303	18496	0	784
-2.344	1.010	16354	18419	0	784
-7.717	-4.400	16400	18340	0	784
-12.982	-5.698	16447	18239	0	784
-14.172	-2.849	16490	18109	0	784
-12.081	1.370	16529	17959	0	784
-4.652	9.556	16567	17806	0	784
4.616	16.877	16603	17649	0	784
11.396	20.700	16634	17482	0	784
14.064	20.267	16660	17296	0	784
11.900	15.687	16685	17097	0	784
10.314	10.458	16707	16904	0	784
9.232	10.530	16730	16738	0	784
11.287	14.064	16752	16600	0	784
10.242	16.444	16774	16475	0	784
9.881	18.644	16794	16356	0	784
4.724	17.634	16814	16251	0	784
0.072	13.054	16834	16166	0	784
-6.058	8.835	16854	16107	0	784
-11.179	4.255	16876	16066	0	784
-15.795	-0.613	16898	16033	0	784
-19.149	-5.301	16916	15999	0	784
-25.604	-11.251	16934	15962	0	784
-32.384	-14.785	16951	15922	0	784
-41.111	-20.447	16962	15868	0	784
-43.491	-23.909	16970	15802	0	784
-40.209	-25.893	16980	15732	0	784
-30.364	-22.106	16984	15662	0	784
-18.788	-17.454	16987	15597	0	784
-12.189	-9.809	16989	15538	0	784
-11.215	-6.491	16989	15487	0	784
-14.245	-7.645	16989	15433	0	784
-15.579	-13.307	16980	15355	0	784
-13.271	-18.464	16969	15266	0	784
-4.688	-20.664	16962	15212	0	784
2.128	-18.644	16956	15197	0	784
8.186	-14.641	16949	15185	0	784
8.979	-11.540	16934	15156	0	784
9.052	-10.783	16920	15114	0	784
5.481	-15.795	16907	15077	0	784
3.570	-22.539	16889	15057	0	784
-0.180	-26.001	16874	15052	0	784
-0.505	-24.125	16858	15055	0	784
0.902	-15.687	16842	15069	0	784
5.986	-6.527	16829	15108	0	784
9.592	-2.200	16820	15172	0	784
11.576	-3.931	16809	15247	0	784
10.061	-7.068	16798	15317	0	784
11.504	-7.212	16785	15377	0	784
11.504	-1.731	16774	15436	0	784
12.946	4.760	16763	15504	0	784
13.595	9.016	16758	15593	0	784
16.480	11.468	16752	15697	0	784
18.752	12.369	16741	15780	0	784
22.575	14.858	16729	15812	0	784
23.188	17.166	16716	15813	0	784
17.851	16.625	16701	15837	0	784
10.638	13.271	16693	15887	0	784
5.806	7.248	16680	15933	0	784
5.554	4.003	16671	15970	0	784
8.907	3.137	16656	16000	0	784
10.314	2.488	16643	16017	0	784
7.285	0.397	16629	16023	0	784
-1.479	-2.524	16614	16025	0	784
-8.294	-4.616	16602	16040	0	784
-12.225	-4.760	16589	16063	0	784
-11.576	-2.308	16573	16066	0	784
-11.215	-3.967	16556	16057	0	784
-15.759	-11.792	16541	16065	0	784
-26.001	-24.162	16529	16076	0	784
-35.593	-35.954	16504	16045	0	784
-44.032	-44.356	16480	15967	0	784
-44.933	-48.539	16456	15911	0	784
-42.878	-48.431	16440	15914	0	784
-37.757	-43.527	16427	15964	0	784
-30.004	-36.531	16418	16042	0	784
-21.529	-27.876	16410	16127	0	784
-12.658	-19.257	16405	16212	0	784
-7.501	-16.192	16405	16311	0	784
-8.619	-17.238	16405	16418	0	784
-10.242	-18.067	16407	16520	0	784
-11.143	-15.038	16409	16603	0	784
-4.400	-8.727	16409	16664	0	784
7.321	0.397	16407	16710	0	784
21.709	7.393	16409	16751	0	784
32.384	9.556	16409	16786	0	784
36.387	9.737	16405	16797	0	784
34.511	9.556	16400	16774	0	784
31.626	13.523	16394	16735	0	784
30.689	19.942	16391	16710	0	784
31.626	25.207	16387	16700	0	784
33.862	26.866	16385	16694	0	784
35.810	26.686	16379	16663	0	784
37.108	24.342	16366	16585	0	784
40.498	24.414	16352	16477	0	784
41.075	25.099	16339	16393	0	784
39.921	26.542	16325	16342	0	784
35.810	26.037	16314	16296	0	784
28.669	26.073	16303	16251	0	784
25.965	24.017	16286	16209	0	784
25.929	22.539	16275	16164	0	784
28.273	23.404	16261	16127	0	784
29.391	22.863	16250	16109	0	784
28.381	21.890	16241	16105	0	784
26.650	21.926	16227	16096	0	784
25.279	21.998	16212	16062	0	784
29.246	24.666	16194	16006	0	784
34.511	28.994	16176	15957	0	784
40.606	32.708	16158	15922	0	784
43.058	31.338	16139	15889	0	784
39.452	27.335	16118	15848	0	784
32.925	22.395	16096	15806	0	784
26.542	20.123	16078	15774	0	784
24.486	20.988	16056	15766	0	784
26.325	25.460	16041	15778	0	784
34.079	30.256	16024	15796	0	784
42.157	34.583	16006	15811	0	784
44.212	34.728	15990	15843	0	784
42.337	31.879	15979	15896	0	784
35.665	27.912	15966	15953	0	784
28.922	23.873	15955	16006	0	784
26.902	24.522	15947	16050	0	784
30.004	26.722	15934	16091	0	784
35.882	31.735	15923	16137	0	784
38.767	34.692	15914	16180	0	784
39.704	35.665	15903	16212	0	784
36.783	35.124	15890	16231	0	784
34.115	30.581	15881	16254	0	784
30.184	25.640	15874	16288	0	784
27.660	20.952	15867	16334	0	784
23.116	16.913	15861	16382	0	784
20.988	17.129	15854	16412	0	784
20.555	19.906	15841	16418	0	784
22.358	23.657	15827	16392	0	784
24.198	26.181	15808	16336	0	784
24.666	26.181	15792	16278	0	784
23.909	23.512	15776	16246	0	784
23.404	21.493	15766	16243	0	784
27.660	23.152	15755	16255	0	784
34.331	25.893	15744	16271	0	784
37.360	30.725	15734	16291	0	784
36.928	31.482	15725	16307	0	784
30.617	28.705	15715	16320	0	784
20.087	25.243	15707	16333	0	784
14.064	21.637	15699	16342	0	784
13.307	21.024	15685	16340	0	784
17.310	20.591	15678	16335	0	784
22.827	21.601	15664	16333	0	784
24.702	20.916	15656	16324	0	784
26.397	21.637	15638	16289	0	784
22.503	22.575	15623	16239	0	784
19.798	23.044	15610	16217	0	784
15.795	22.503	15595	16218	0	784
11.828	21.241	15579	16185	0	784
10.566	20.591	15558	16107	0	784
13.559	20.844	15534	16027	0	784
15.867	22.755	15518	15980	0	784
14.605	21.709	15497	15967	0	784
9.412	18.103	15485	15982	0	784
0.433	13.018	15472	16011	0	784
-4.616	10.458	15456	16034	0	784
-0.577	12.261	15443	16044	0	784
7.212	19.762	15427	16050	0	784
15.326	25.496	15417	16068	0	784
15.651	26.470	15403	16095	0	784
9.845	21.277	15390	16120	0	784
-1.190	12.730	15383	16157	0	784
-8.186	8.258	15376	16218	0	784
-7.248	7.537	15374	16305	0	784
-1.082	13.054	15376	16408	0	784
3.823	19.546	15379	16517	0	784
3.895	23.152	15387	16628	0	784
-0.325	23.188	15398	16754	0	784
-5.481	21.241	15412	16906	0	784
-4.868	18.680	15435	17080	0	784
0.577	16.949	15461	17256	0	784
8.078	18.716	15490	17425	0	784
11.828	21.385	15521	17587	0	784
13.559	25.063	15554	17741	0	784
13.379	28.597	15594	17891	0	784
12.550	28.056	15635	18056	0	784
11.215	25.784	15686	18233	0	784
11.396	21.313	15734	18392	0	784
10.350	18.788	15784	18512	0	784
11.576	19.257	15834	18596	0	784
13.740	22.467	15886	18667	0	784
18.283	26.650	15937	18724	0	784
19.726	28.417	15990	18753	0	784
18.680	29.895	16041	18755	0	784
16.805	30.617	16090	18743	0	784
13.523	27.624	16144	18725	0	784
10.278	23.404	16198	18702	0	784
5.806	13.848	16250	18669	0	784
-2.957	1.659	16299	18614	1	776
-10.999	-9.376	15235	16550	0	812
29.282	16.913	15227	16534	0	812
32.961	19.437	15221	16517	0	812
32.456	20.519	15212	16501	0	812
31.446	21.168	15208	16498	0	812
28.417	19.510	15208	16514	0	812
23.729	17.670	15206	16552	0	812
17.021	14.461	15214	16605	0	812
13.956	12.658	15217	16655	0	812
12.117	9.953	15221	16705	0	812
9.737	9.340	15235	16784	0	812
8.258	5.914	15252	16898	0	812
4.688	3.354	15275	17030	0	812
1.226	0.325	15296	17156	0	812
1.046	-1.370	15323	17279	0	812
2.885	-2.164	15354	17416	0	812
3.642	-2.488	15392	17579	0	812
4.003	-2.416	15435	17760	0	812
1.515	-2.669	15479	17940	0	812
2.056	-0.757	15528	18099	0	812
3.173	0.793	15579	18240	0	812
8.222	3.354	15634	18376	0	812
10.458	6.744	15688	18503	0	812
13.848	8.439	15744	18609	0	812
15.218	9.484	15801	18681	0	812
19.113	12.225	15857	18723	0	812
23.008	16.264	15912	18744	0	812
25.748	19.690	15966	18748	0	812
25.171	21.926	16023	18734	0	812
24.342	22.142	16075	18692	0	812
21.168	19.618	16126	18624	0	812
19.185	17.851	16177	18543	0	812
19.510	16.625	16228	18462	1	840
19.437	15.939	16279	18380	0	840
19.654	15.867	16326	18287	0	840
19.221	14.353	16372	18176	0	840
16.733	13.415	16418	18048	0	840
13.668	12.045	16456	17902	0	840
8.042	7.898	16494	17743	0	840
4.255	4.977	16527	17571	0	840
-0.180	-0.505	16560	17387	0	840
-3.859	-3.895	16587	17202	0	840
-5.229	-5.986	16613	17019	0	840
-8.114	-8.078	16636	16836	0	840
-8.114	-8.547	16656	16649	0	840
-7.068	-7.609	16669	16462	0	840
-2.777	-4.904	16683	16278	0	840
3.678	-0.757	16687	16079	0	840
10.025	3.787	16693	15869	0	840
17.454	5.914	16690	15672	0	840
20.411	6.780	16693	15508	0	840
22.070	7.176	16689	15371	0	840
22.503	7.429	16687	15241	0	840
22.827	10.061	16683	15119	0	840
21.998	10.927	16676	15035	0	840
21.277	13.559	16669	14964	0	840
20.447	13.884	16656	14882	0	840
18.536	14.497	16647	14813	0	840
16.120	12.910	16636	14771	0	840
11.612	8.186	16625	14748	0	840
7.537	2.488	16614	14747	0	840
1.370	-3.101	16605	14767	0	840
-1.262	-4.688	16594	14791	0	840
0.865	-2.416	16580	14810	0	840
5.013	3.534	16567	14831	0	840
10.025	7.898	16554	14869	0	840
11.287	10.314	16544	14933	0	840
10.350	7.898	16534	15014	0	840
8.366	4.255	16527	15096	0	840
8.366	3.318	16512	15163	0	840
10.674	3.714	16496	15197	0	840
13.668	6.816	16478	15197	0	840
13.631	11.540	16458	15197	0	840
13.595	14.317	16434	15208	0	840
13.091	17.815	16410	15204	0	840
15.362	20.808	16387	15199	0	840
19.077	21.818	16370	15238	0	840
20.555	22.791	16355	15325	0	840
19.690	20.123	16343	15434	0	840
17.706	17.490	16334	15560	0	840
12.225	13.992	16328	15694	0	840
8.727	11.360	16323	15812	0	840
5.806	7.429	16318	15925	0	840
4.255	5.373	16318	16072	0	840
3.678	2.741	16321	16238	0	840
5.229	1.623	16323	16363	0	840
8.186	1.947	16318	16432	0	840
9.088	2.236	16315	16482	0	840
9.917	2.092	16315	16536	0	840
9.376	1.947	16314	16600	0	840
8.835	1.010	16318	16672	0	840
7.212	2.019	16321	16743	0	840
10.422	4.580	16323	16804	0	840
12.405	8.763	16330	16864	0	840
16.589	13.307	16339	16929	0	840
20.736	17.310	16344	16983	0	840
24.125	21.060	16348	17007	0	840
27.515	24.594	16352	17000	0	840
29.138	27.804	16355	16981	0	840
28.886	29.787	16358	16963	0	840
25.856	28.669	16358	16943	0	840
23.044	24.522	16361	16909	0	840
19.654	17.923	16358	16857	0	840
17.238	12.874	16355	16803	0	840
16.697	10.494	16354	16759	0	840
15.398	10.494	16355	16731	0	840
12.802	10.278	16355	16703	0	840
10.458	9.412	16352	16661	0	840
6.888	6.203	16350	16600	0	840
3.534	2.344	16343	16530	0	840
-0.397	-1.334	16332	16441	0	840
-1.406	-3.101	16318	16331	0	840
-1.659	-4.436	16303	16212	0	840
-0.144	-4.255	16286	16109	0	840
1.983	-3.318	16272	16027	0	840
4.003	-1.515	16256	15967	0	840
5.554	-0.180	16245	15924	0	840
5.481	0.072	16232	15891	0	840
10.710	0.685	16216	15859	0	840
14.569	2.380	16198	15809	0	840
21.745	6.708	16177	15742	0	840
27.912	13.271	16161	15696	0	840
31.771	21.060	16148	15713	0	840
32.961	25.929	16139	15774	0	840
33.790	28.922	16130	15822	0	840
33.826	30.436	16115	15823	0	840
34.115	29.282	16096	15796	0	840
33.682	29.210	16078	15773	0	840
28.309	27.155	16061	15769	0	840
22.863	22.827	16046	15776	0	840
16.156	17.454	16024	15770	0	840
11.432	12.658	16003	15743	0	840
8.799	6.996	15983	15717	0	840
6.311	2.488	15963	15715	0	840
1.370	-1.334	15944	15731	0	840
0.072	-3.606	15926	15748	0	840
-0.541	-4.508	15908	15764	0	840
2.669	-3.462	15890	15795	0	840
8.042	-0.829	15879	15850	0	840
9.845	0.469	15864	15914	0	840
11.143	0.613	15854	15971	0	840
10.855	0.685	15838	16014	0	840
12.225	1.515	15827	16055	0	840
14.785	2.380	15816	16100	0	840
18.788	5.229	15806	16156	0	840
21.998	8.583	15798	16217	0	840
24.089	12.910	15784	16262	0	840
27.191	18.356	15768	16259	0	840
31.554	24.162	15748	16210	0	840
34.764	27.263	15734	16167	0	840
37.685	29.751	15714	16151	0	840
36.567	28.092	15696	16147	0	840
32.672	27.299	15681	16143	0	840
28.994	24.991	15663	16145	0	840
23.296	22.611	15648	16147	0	840
20.952	18.933	15627	16134	0	840
16.661	14.749	15608	16101	0	840
14.389	10.855	15588	16071	0	840
11.937	6.888	15566	16052	0	840
10.999	5.193	15544	16025	0	840
8.835	3.065	15525	15994	0	840
6.167	0.793	15504	15984	0	840
5.698	0.325	15488	16001	0	840
2.957	0.902	15470	16024	0	840
3.787	1.154	15452	16033	0	840
2.885	3.246	15432	16030	0	840
2.813	4.580	15417	16045	0	840
4.796	5.554	15405	16094	0	840
8.114	7.537	15395	16168	0	840
11.684	10.746	15388	16241	0	840
15.435	12.297	15374	16282	0	840
17.382	15.038	15355	16266	0	840
17.598	15.471	15337	16219	0	840
16.300	14.497	15321	16197	0	840
15.290	13.271	15308	16216	0	840
12.730	9.088	15294	16248	0	840
7.970	6.058	15283	16283	0	840
6.852	3.534	15278	16331	0	840
5.734	2.056	15270	16395	0	840
5.409	2.885	15267	16473	0	840
8.619	5.373	15267	16545	0	840
10.855	6.275	15263	16606	0	840
11.107	6.527	15264	16663	0	840
9.665	6.960	15267	16727	0	840
6.599	4.327	15270	16795	0	840
3.606	2.993	15272	16846	0	840
4.183	1.406	15272	16869	0	840
7.573	2.308	15275	16883	0	840
11.107	3.354	15275	16901	0	840
13.812	4.688	15278	16918	0	840
13.956	6.491	15278	16908	0	840
13.451	7.537	15270	16848	0	840
12.730	8.150	15261	16760	0	840
14.533	9.376	15254	16683	0	840
17.526	11.900	15245	16625	0	840
20.123	14.461	15238	16571	0	840
22.467	16.589	15232	16522	0	840
23.188	17.310	15223	16483	0	840
19.257	16.949	15217	16455	0	840
16.336	14.966	15214	16448	0	840
15.002	13.668	15221	16488	0	840
15.831	13.018	15230	16573	0	840
17.779	13.451	15238	16662	0	840
18.428	12.982	15246	16725	0	840
17.634	9.773	15256	16774	0	840
13.631	7.248	15270	16834	0	840
9.773	4.508	15286	16919	0	840
8.727	2.272	15307	17023	0	840
6.888	0.757	15330	17131	0	840
6.563	0.938	15355	17235	0	840
7.393	-0.505	15387	17350	0	840
6.744	-0.685	15423	17486	0	840
6.635	-0.649	15459	17637	0	840
7.032	-0.036	15503	17784	0	840
7.068	0.433	15548	17916	0	840
6.383	-0.469	15595	18037	0	840
4.508	-2.669	15643	18157	0	840
5.373	-3.462	15694	18266	0	840
6.960	-4.039	15747	18356	0	840
11.179	-0.721	15799	18429	0	840
17.093	4.580	15854	18487	0	840
22.503	10.169	15908	18534	0	840
23.765	13.920	15968	18580	0	840
25.460	15.939	16028	18621	0	840
24.702	15.326	16085	18643	0	840
23.404	12.477	16143	18637	0	840
22.431	10.999	16198	18597	0	840
20.880	9.412	16252	18532	0	840
18.752	7.934	16303	18455	0	840
14.930	7.176	16354	18364	1	788
10.530	5.373	16398	18248	0	788
8.727	3.859	16442	18110	0	788
6.347	2.056	16483	17947	0	788
6.599	2.164	16520	17775	0	788
3.931	-0.397	16560	17628	0	788
-0.505	-3.823	16596	17494	0	788
-5.445	-8.871	16625	17320	0	788
-8.871	-10.999	16649	17095	0	788
-10.061	-11.504	16664	16856	0	788
-7.645	-9.629	16683	16636	0	788
-3.823	-7.212	16696	16446	0	788
0.829	-3.570	16714	16282	0	788
6.888	-3.354	16727	16136	0	788
12.946	-1.479	16741	16004	0	788
15.723	-0.108	16756	15891	0	788
17.057	0.036	16769	15803	0	788
16.552	1.046	16780	15728	0	788
17.418	2.885	16791	15654	0	788
20.591	7.465	16796	15573	0	788
23.476	9.592	16803	15497	0	788
26.758	11.432	16807	15433	0	788
23.873	9.665	16810	15374	0	788
19.726	7.357	16810	15315	0	788
14.930	5.481	16809	15258	0	788
9.809	4.580	16803	15208	0	788
9.124	5.986	16803	15169	0	788
8.763	5.662	16800	15150	0	788
10.278	4.652	16792	15143	0	788
9.556	5.373	16789	15129	0	788
9.052	4.075	16781	15109	0	788
7.573	3.137	16769	15094	0	788
6.924	2.128	16760	15090	0	788
6.924	1.767	16749	15098	0	788
9.773	4.760	16738	15104	0	788
11.720	8.835	16725	15106	0	788
14.172	12.694	16711	15114	0	788
16.300	15.939	16700	15138	0	788
16.552	15.723	16687	15179	0	788
15.110	14.858	16678	15234	0	788
14.497	14.028	16664	15293	0	788
12.045	14.136	16650	15330	0	788
12.874	14.677	16634	15335	0	788
14.028	17.490	16614	15330	0	788
16.408	19.978	16598	15345	0	788
17.634	20.591	16581	15384	0	788
17.021	19.510	16563	15425	0	788
14.749	16.156	16545	15454	0	788
10.783	11.432	16529	15480	0	788
10.350	8.366	16516	15538	0	788
10.025	6.744	16504	15630	0	788
10.783	4.940	16496	15726	0	788
11.179	5.049	16483	15802	0	788
9.268	4.400	16474	15862	0	788
9.881	4.327	16461	15922	0	788
10.025	3.318	16450	15977	0	788
11.107	3.823	16434	15990	0	788
12.189	2.560	16414	15967	0	788
11.937	3.714	16400	15970	0	788
10.566	5.049	16387	16013	0	788
13.631	8.042	16377	16072	0	788
16.985	14.425	16370	16143	0	788
21.709	18.716	16363	16222	0	788
25.279	22.719	16359	16299	0	788
25.063	23.296	16354	16374	0	788
23.693	21.962	16354	16445	0	788
20.339	19.582	16352	16520	0	788
18.716	18.464	16352	16590	0	788
18.067	18.644	16354	16647	0	788
18.283	19.870	16352	16691	0	788
18.788	20.267	16352	16734	0	788
17.634	18.536	16354	16781	0	788
15.362	15.398	16358	16823	0	788
10.891	10.242	16358	16842	0	788
3.246	3.065	16355	16837	0	788
-2.019	-4.003	16358	16822	0	788
-6.671	-7.393	16352	16804	0	788
-7.032	-9.520	16348	16781	0	788
-2.849	-7.321	16347	16749	0	788
-1.118	-4.255	16343	16713	0	788
0.505	-4.616	16337	16673	0	788
-1.010	-5.193	16332	16627	0	788
-1.226	-7.032	16325	16584	0	788
0.577	-7.248	16325	16571	0	788
5.950	-4.977	16326	16584	0	788
12.658	-1.875	16321	16573	0	788
17.346	0.974	16312	16507	0	788
19.618	4.183	16301	16413	0	788
21.204	7.104	16286	16325	0	788
21.565	8.799	16274	16249	0	788
22.899	10.710	16259	16180	0	788
25.099	12.946	16245	16117	0	788
26.578	14.497	16230	16055	0	788
27.047	16.877	16214	15995	0	788
25.640	17.310	16198	15946	0	788
22.431	16.697	16183	15905	0	788
20.375	15.435	16165	15868	0	788
17.166	13.812	16147	15826	0	788
16.156	13.235	16126	15788	0	788
15.038	10.963	16110	15765	0	788
12.261	8.547	16094	15756	0	788
9.665	6.203	16074	15749	0	788
7.681	4.327	16056	15736	0	788
7.465	6.347	16035	15727	0	788
8.691	8.114	16023	15740	0	788
13.740	11.179	16006	15772	0	788
17.346	13.415	15994	15808	0	788
18.788	12.766	15977	15838	0	788
19.365	11.756	15961	15863	0	788
16.372	10.314	15948	15891	0	788
13.992	8.943	15934	15919	0	788
13.559	11.792	15921	15950	0	788
14.641	16.084	15904	15975	0	788
18.320	20.988	15888	15993	0	788
20.555	23.044	15874	16004	0	788
22.503	22.719	15856	16012	0	788
21.493	18.860	15839	16017	0	788
19.654	15.579	15823	16020	0	788
18.356	14.749	15805	16022	0	788
17.634	14.497	15784	16016	0	788
19.437	15.615	15763	15991	0	788
19.942	15.398	15741	15954	0	788
17.851	12.730	15723	15932	0	788
12.766	7.032	15701	15937	0	788
6.924	2.092	15683	15951	0	788
1.442	-3.823	15661	15953	0	788
-2.921	-9.268	15639	15947	0	788
-4.868	-10.530	15623	15952	0	788
-4.760	-10.710	15606	15983	0	788
-2.596	-8.006	15592	16035	0	788
2.092	-4.436	15581	16103	0	788
8.511	-0.361	15570	16166	0	788
13.668	2.596	15559	16218	0	788
19.005	4.616	15550	16263	0	788
22.178	7.898	15539	16310	0	788
27.768	11.360	15530	16353	0	788
31.482	16.877	15518	16380	0	788
33.970	20.844	15508	16396	0	788
35.846	23.909	15503	16430	0	788
34.151	24.702	15497	16488	0	788
32.853	24.522	15492	16551	0	788
32.059	22.935	15488	16597	0	788
31.374	21.565	15486	16627	0	788
30.508	22.250	15481	16656	0	788
28.669	21.168	15483	16698	0	788
27.335	20.700	15481	16745	0	788
22.647	19.546	15479	16775	0	788
17.274	16.985	15478	16779	0	788
11.900	12.441	15472	16765	0	788
7.212	9.304	15470	16749	0	788
4.364	6.563	15464	16740	0	788
5.590	6.671	15463	16735	0	788
6.239	5.157	15463	16729	0	788
5.517	3.282	15456	16713	0	788
4.544	1.479	15452	16683	0	788
2.524	-0.793	15446	16645	0	788
0.721	-1.659	15441	16603	0	788
0.252	-2.885	15432	16550	0	788
0.469	-4.075	15417	16473	0	788
-0.252	-6.671	15405	16384	0	788
0.613	-6.527	15392	16308	0	788
3.137	-3.859	15377	16251	0	788
6.780	0.469	15368	16215	0	788
13.199	5.085	15359	16199	0	788
17.634	6.527	15348	16183	0	788
21.204	8.258	15337	16163	0	788
23.080	8.222	15330	16162	0	788
23.837	9.881	15326	16191	0	788
25.424	11.792	15325	16246	0	788
28.417	16.012	15328	16318	0	788
28.345	18.139	15334	16404	0	788
26.758	19.221	15344	16519	0	788
22.972	17.851	15363	16671	0	788
18.247	15.110	15387	16847	0	788
14.425	12.117	15412	17031	0	788
14.136	10.530	15439	17206	0	788
13.307	9.160	15475	17382	0	788
15.110	9.809	15515	17576	0	788
14.317	9.268	15563	17786	0	788
13.956	9.340	15612	18003	0	788
13.992	7.321	15664	18203	0	788
12.766	6.780	15721	18381	0	788
11.396	4.724	15777	18538	0	788
11.251	3.101	15834	18658	0	788
10.602	3.606	15890	18742	0	788
10.169	4.183	15947	18805	0	788
10.783	5.229	16001	18828	0	788
11.576	7.321	16054	18806	0	788
13.451	10.061	16107	18787	0	788
16.264	10.530	16165	18785	0	788
18.969	12.081	16223	18771	0	788
20.087	12.261	16279	18737	1	764
19.149	10.710	16334	18684	0	764
17.382	9.124	16387	18613	0	764
17.021	8.258	16440	18524	0	764
17.238	10.206	16489	18420	0	764
19.365	12.189	16540	18303	0	764
19.257	15.795	16584	18167	0	764
17.923	16.552	16624	17995	0	764
16.120	14.100	16660	17793	0	764
13.956	11.612	16687	17581	0	764
14.100	9.304	16712	17340	0	764
16.120	9.953	16727	17059	0	764
15.651	11.504	16741	16781	0	764
14.821	12.622	16756	16540	0	764
12.694	13.091	16770	16349	0	764
10.710	12.802	16787	16199	0	764
10.674	9.989	16803	16086	0	764
10.602	8.763	16820	15990	0	764
10.674	4.904	16836	15903	0	764
10.278	2.813	16853	15829	0	764
9.232	1.479	16869	15771	0	764
10.422	2.344	16882	15732	0	764
11.612	6.203	16900	15705	0	764
13.704	9.016	16911	15680	0	764
15.398	12.766	16927	15657	0	764
16.408	15.218	16940	15649	0	764
18.608	16.552	16956	15665	0	764
18.860	17.274	16970	15695	0	764
20.303	17.851	16985	15714	0	764
21.637	18.283	16998	15720	0	764
23.981	19.798	17009	15730	0	764
25.893	21.457	17020	15754	0	764
28.273	21.890	17032	15779	0	764
26.109	20.880	17040	15787	0	764
23.549	17.202	17047	15773	0	764
17.670	13.018	17049	15747	0	764
13.018	8.655	17050	15723	0	764
11.684	4.688	17053	15699	0	764
9.484	3.787	17050	15670	0	764
10.422	3.534	17045	15623	0	764
11.035	5.085	17032	15547	0	764
11.792	6.275	17020	15453	0	764
13.307	8.258	17009	15387	0	764
12.333	7.862	17003	15388	0	764
12.838	7.934	16996	15428	0	764
12.982	7.753	16985	15437	0	764
14.425	9.160	16969	15391	0	764
16.733	8.763	16952	15336	0	764
16.408	9.773	16936	15310	0	764
14.461	8.150	16923	15314	0	764
12.225	6.022	16909	15338	0	764
9.917	3.678	16898	15371	0	764
10.963	3.606	16882	15396	0	764
13.127	5.121	16865	15408	0	764
14.858	8.150	16845	15394	0	764
15.290	9.629	16824	15366	0	764
15.615	11.973	16803	15366	0	764
14.858	11.900	16787	15404	0	764
16.985	13.127	16773	15465	0	764
17.887	13.235	16762	15551	0	764
17.490	12.441	16756	15657	0	764
16.120	9.484	16749	15768	0	764
14.425	7.609	16745	15873	0	764
14.100	6.599	16740	15979	0	764
18.103	7.321	16740	16096	0	764
21.385	9.989	16741	16222	0	764
21.745	11.035	16749	16349	0	764
19.546	10.242	16749	16456	0	764
17.238	10.494	16751	16543	0	764
16.661	10.458	16754	16617	0	764
21.096	13.595	16760	16688	0	764
24.919	17.057	16765	16757	0	764
28.814	19.365	16765	16801	0	764
29.246	18.536	16762	16794	0	764
24.162	15.543	16758	16752	0	764
20.916	12.658	16754	16714	0	764
16.985	8.258	16751	16689	0	764
14.245	7.825	16744	16660	0	764
11.684	7.934	16736	16620	0	764
12.225	9.124	16730	16562	0	764
12.369	10.530	16718	16494	0	764
13.343	11.287	16709	16443	0	764
12.946	9.376	16709	16440	0	764
11.973	6.455	16707	16470	0	764
10.206	3.823	16705	16484	0	764
8.186	5.229	16696	16447	0	764
11.396	6.960	16685	16378	0	764
12.838	8.943	16671	16304	0	764
15.074	10.422	16660	16238	0	764
14.569	8.583	16645	16180	0	764
13.559	7.429	16631	16130	0	764
13.415	8.150	16616	16079	0	764
14.461	10.855	16602	16028	0	764
15.002	12.838	16585	15986	0	764
17.346	14.966	16570	15955	0	764
17.057	14.100	16556	15927	0	764
15.398	11.684	16538	15894	0	764
12.153	7.898	16520	15864	0	764
8.979	5.193	16507	15851	0	764
6.311	4.255	16493	15860	0	764
6.419	5.554	16480	15879	0	764
10.061	10.602	16464	15892	0	764
13.956	13.631	16450	15900	0	764
18.897	16.589	16436	15910	0	764
21.637	17.959	16424	15933	0	764
22.539	18.788	16413	15966	0	764
23.116	19.726	16400	15993	0	764
23.044	19.690	16387	16012	0	764
20.159	19.149	16376	16031	0	764
18.283	17.706	16363	16052	0	764
17.310	15.074	16350	16067	0	764
15.615	12.153	16337	16071	0	764
16.264	10.638	16319	16064	0	764
16.552	10.638	16304	16055	0	764
17.057	10.097	16286	16044	0	764
14.930	11.143	16267	16026	0	764
11.720	9.737	16250	16002	0	764
8.835	6.599	16228	15969	0	764
6.058	3.570	16206	15931	0	764
4.039	2.705	16184	15897	0	764
8.402	5.698	16165	15881	0	764
9.773	8.727	16148	15901	0	764
12.658	11.612	16134	15951	0	764
12.874	12.586	16119	15994	0	764
12.333	11.576	16101	16002	0	764
14.497	11.792	16079	15983	0	764
17.598	13.343	16061	15968	0	764
21.060	17.562	16039	15971	0	764
24.017	20.447	16027	15989	0	764
22.178	21.096	16010	16021	0	764
21.529	18.211	15995	16062	0	764
19.293	15.326	15981	16099	0	764
18.283	13.271	15966	16130	0	764
17.959	12.694	15954	16163	0	764
16.661	14.172	15943	16196	0	764
13.956	14.677	15928	16220	0	764
13.451	11.756	15915	16240	0	764
11.864	9.953	15903	16264	0	764
12.586	7.032	15892	16302	0	764
13.704	7.212	15886	16350	0	764
14.713	7.248	15875	16388	0	764
14.497	7.717	15868	16417	0	764
14.245	6.780	15859	16444	0	764
14.353	5.950	15854	16473	0	764
16.408	7.934	15845	16504	0	764
20.231	10.350	15838	16524	0	764
23.693	13.920	15832	16535	0	764
24.558	15.362	15823	16546	0	764
24.775	14.425	15816	16552	0	764
21.673	10.458	15808	16550	0	764
19.942	9.124	15803	16547	0	764
19.582	8.366	15794	16544	0	764
19.329	9.196	15783	16522	0	764
20.123	10.783	15766	16458	0	764
19.834	10.278	15748	16370	0	764
20.231	10.206	15730	16290	0	764
20.447	8.042	15712	16230	0	764
19.221	7.068	15696	16177	0	764
17.166	4.724	15675	16119	0	764
15.110	1.551	15657	16072	0	764
11.576	-1.695	15645	16066	0	764
10.530	-2.056	15634	16096	0	764
10.494	-0.938	15623	16130	0	764
12.658	2.741	15612	16145	0	764
15.110	5.013	15601	16143	0	764
17.093	6.960	15587	16142	0	764
17.923	5.842	15576	16150	0	764
17.057	4.003	15561	16149	0	764
14.028	3.823	15544	16129	0	764
12.658	3.065	15530	16103	0	764
11.756	3.137	15514	16095	0	764
15.038	5.662	15501	16109	0	764
17.093	7.068	15494	16143	0	764
19.834	9.196	15486	16190	0	764
22.467	9.737	15479	16246	0	764
20.916	10.746	15478	16314	0	764
21.529	10.855	15475	16390	0	764
20.700	10.566	15474	16457	0	764
21.709	11.973	15475	16520	0	764
23.657	13.163	15483	16617	0	764
23.404	15.074	15497	16762	0	764
22.286	15.254	15521	16943	0	764
20.123	14.028	15548	17152	0	764
16.372	11.071	15583	17381	0	764
13.776	6.527	15621	17615	0	764
12.117	3.101	15668	17848	0	764
10.602	0.361	15715	18076	0	764
9.701	-1.154	15770	18295	0	764
10.133	-1.190	15828	18499	0	764
10.783	-1.226	15883	18674	0	764
9.665	-0.216	15943	18817	0	764
8.330	1.334	16001	18926	0	764
6.022	1.623	16057	18990	0	764
6.816	2.019	16112	19015	0	764
8.439	2.777	16172	19029	0	764
11.828	3.931	16230	19041	0	764
13.668	4.868	16286	19032	0	764
14.749	7.501	16341	18984	0	764
14.028	8.799	16396	18912	0	764
11.828	9.448	16454	18854	0	764
9.881	7.645	16512	18819	1	800
10.314	7.248	16573	18773	0	800
11.576	7.357	16631	18694	0	800
15.687	9.953	16682	18577	0	800
19.257	13.343	16730	18435	0	800
20.411	15.110	16780	18287	0	800
19.005	14.317	16825	18136	0	800
16.300	9.665	16867	17966	0	800
12.297	6.311	16904	17771	0	800
10.206	3.606	16941	17578	0	800
8.547	1.911	16978	17409	0	800
8.078	4.291	17013	17253	0	800
9.196	5.950	17043	17094	0	800
10.458	6.780	17074	16923	0	800
13.559	6.203	17100	16745	0	800
14.208	6.167	17122	16574	0	800
15.543	5.914	17145	16421	0	800
16.552	7.321	17165	16282	0	800
17.490	9.520	17181	16139	0	800
18.716	12.045	17198	16001	0	800
21.096	12.441	17213	15881	0	800
22.683	13.631	17227	15790	0	800
25.352	16.264	17242	15712	0	800
26.217	18.320	17250	15630	0	800
29.318	20.411	17261	15548	0	800
28.777	20.087	17271	15478	0	800
26.614	18.716	17276	15420	0	800
22.214	15.939	17282	15369	0	800
20.772	14.858	17287	15322	0	800
18.247	15.254	17287	15284	0	800
18.644	16.516	17289	15250	0	800
19.618	15.831	17285	15192	0	800
18.428	13.559	17274	15112	0	800
16.769	9.701	17265	15037	0	800
13.631	6.311	17253	14978	0	800
12.369	2.560	17238	14924	0	800
9.160	1.515	17221	14873	0	800
9.052	1.659	17205	14831	0	800
9.196	2.308	17189	14812	0	800
10.710	4.616	17174	14826	0	800
12.622	6.671	17163	14863	0	800
13.127	8.042	17149	14903	0	800
14.245	9.088	17134	14943	0	800
15.290	9.556	17122	15006	0	800
17.382	11.756	17114	15098	0	800
19.618	12.838	17105	15199	0	800
20.195	14.785	17098	15292	0	800
21.601	16.516	17087	15375	0	800
22.142	18.067	17080	15453	0	800
22.539	19.293	17071	15531	0	800
24.702	20.195	17058	15599	0	800
24.450	20.375	17050	15654	0	800
23.945	18.752	17038	15705	0	800
23.621	17.670	17031	15767	0	800
21.998	17.274	17024	15847	0	800
22.719	17.490	17020	15945	0	800
19.473	17.274	17016	16048	0	800
17.562	14.317	17014	16138	0	800
14.966	10.206	17013	16213	0	800
13.704	6.311	17007	16270	0	800
12.009	3.606	17000	16296	0	800
13.487	3.318	16991	16301	0	800
12.225	1.911	16981	16306	0	800
9.737	0.288	16974	16326	0	800
7.753	-0.757	16967	16349	0	800
6.491	0.144	16960	16359	0	800
8.222	3.750	16952	16358	0	800
9.989	7.140	16945	16361	0	800
10.422	6.744	16936	16370	0	800
11.323	5.481	16930	16375	0	800
10.422	3.678	16918	16360	0	800
12.982	5.373	16905	16326	0	800
18.933	9.917	16896	16302	0	800
25.063	16.156	16885	16302	0	800
28.381	19.942	16882	16311	0	800
31.085	21.132	16872	16315	0	800
31.626	20.952	16861	16309	0	800
31.158	20.050	16850	16295	0	800
32.312	21.060	16842	16278	0	800
30.220	20.267	16831	16264	0	800
27.047	17.743	16820	16252	0	800
18.824	12.081	16809	16231	0	800
10.819	5.013	16798	16218	0	800
4.219	-0.974	16789	16228	0	800
0.685	-4.003	16781	16249	0	800
0.793	-4.291	16774	16265	0	800
3.354	-2.669	16765	16276	0	800
5.301	-1.947	16760	16286	0	800
5.950	-1.082	16754	16306	0	800
8.979	-0.577	16751	16342	0	800
11.432	-0.757	16745	16379	0	800
15.651	0.829	16740	16394	0	800
18.392	2.416	16734	16394	0	800
20.447	4.724	16729	16394	0	800
20.519	6.094	16723	16411	0	800
21.024	8.439	16720	16432	0	800
21.385	9.917	16716	16433	0	800
24.450	13.595	16705	16410	0	800
27.119	17.923	16698	16380	0	800
30.869	22.683	16685	16347	0	800
31.987	26.109	16676	16314	0	800
32.889	27.299	16664	16274	0	800
31.662	26.938	16650	16235	0	800
29.968	24.594	16638	16193	0	800
28.381	21.421	16620	16130	0	800
27.119	19.185	16598	16046	0	800
27.227	16.913	16576	15965	0	800
27.083	15.975	16554	15898	0	800
27.948	15.579	16533	15839	0	800
26.217	14.353	16509	15773	0	800
24.739	14.172	16482	15699	0	800
22.431	11.576	16456	15643	0	800
20.411	11.179	16432	15613	0	800
19.582	10.566	16410	15602	0	800
15.759	7.898	16387	15594	0	800
11.540	5.481	16363	15583	0	800
7.753	1.983	16341	15588	0	800
7.537	1.082	16321	15619	0	800
8.114	1.911	16304	15671	0	800
12.297	4.003	16285	15723	0	800
14.894	6.022	16268	15764	0	800
17.310	6.599	16250	15804	0	800
20.844	7.573	16234	15853	0	800
24.558	11.900	16219	15910	0	800
29.427	16.048	16205	15967	0	800
30.797	20.014	16190	16021	0	800
29.066	20.267	16177	16070	0	800
25.316	16.589	16165	16124	0	800
20.555	11.973	16154	16189	0	800
18.536	9.052	16144	16261	0	800
18.824	8.727	16134	16312	0	800
18.392	8.294	16118	16312	0	800
16.408	8.655	16099	16279	0	800
14.749	7.537	16083	16268	0	800
13.018	6.239	16072	16292	0	800
11.179	6.419	16057	16319	0	800
12.045	6.347	16046	16339	0	800
9.953	5.842	16035	16354	0	800
8.258	3.029	16023	16369	0	800
6.780	1.406	16016	16391	0	800
7.934	1.731	16008	16435	0	800
10.819	4.219	16003	16487	0	800
15.326	9.881	15992	16516	0	800
20.700	14.100	15981	16499	0	800
23.549	16.589	15966	16456	0	800
26.253	17.634	15952	16415	0	800
27.624	18.320	15937	16392	0	800
29.571	19.473	15928	16384	0	800
32.095	20.916	15918	16382	0	800
30.328	20.231	15907	16384	0	800
28.237	17.887	15899	16404	0	800
22.611	13.956	15897	16450	0	800
18.572	11.071	15892	16494	0	800
16.516	9.773	15885	16519	0	800
16.336	7.934	15881	16525	0	800
15.867	7.465	15872	16520	0	800
14.172	4.832	15867	16515	0	800
14.497	3.606	15857	16510	0	800
15.507	5.373	15850	16499	0	800
18.103	5.698	15841	16474	0	800
18.536	5.554	15832	16445	0	800
16.012	2.560	15824	16430	0	800
10.350	-1.731	15817	16428	0	800
6.058	-5.662	15808	16424	0	800
4.904	-4.291	15799	16406	0	800
9.304	-0.685	15792	16384	0	800
12.081	2.813	15783	16366	0	800
14.569	4.436	15776	16361	0	800
16.192	3.570	15770	16364	0	800
19.185	5.265	15759	16351	0	800
22.755	8.511	15743	16293	0	800
26.109	12.694	15725	16205	0	800
25.424	15.651	15712	16142	0	800
19.834	14.894	15697	16117	0	800
14.785	12.225	15683	16105	0	800
14.425	13.523	15674	16104	0	800
18.716	15.254	15664	16123	0	800
23.981	17.418	15659	16161	0	800
25.676	16.913	15657	16230	0	800
22.719	14.930	15670	16361	0	800
17.093	11.720	15683	16546	0	800
11.648	11.576	15699	16724	0	800
12.009	10.422	15718	16860	0	800
12.261	10.566	15734	16975	0	800
13.595	10.422	15755	17106	0	800
13.595	9.268	15783	17262	0	800
14.136	9.376	15814	17424	0	800
15.362	9.737	15848	17571	0	800
17.382	11.540	15883	17702	0	800
18.680	11.720	15921	17838	0	800
18.392	12.550	15965	17988	0	800
17.382	12.009	16012	18146	0	800
18.392	11.360	16063	18297	0	800
20.519	13.091	16115	18431	0	800
24.342	14.461	16172	18559	0	800
25.352	16.805	16234	18678	0	800
23.729	16.913	16294	18774	0	800
22.611	16.733	16350	18838	0	800
21.204	17.526	16407	18869	0	800
22.286	19.077	16465	18874	0	800
24.739	21.493	16525	18869	0	800
25.568	22.467	16585	18860	0	800
22.106	21.349	16643	18839	0	800
19.582	17.274	16698	18773	0	800
17.382	13.199	16741	18635	1	816
16.048	9.592	16785	18448	0	816
15.290	8.871	16829	18274	0	816
13.992	8.402	16872	18129	0	816
12.910	10.458	16912	17986	0	816
11.179	10.350	16952	17835	0	816
11.504	10.350	16991	17687	0	816
12.369	8.475	17029	17543	0	816
12.081	8.006	17065	17398	0	816
12.838	7.789	17100	17249	0	816
14.497	9.953	17127	17083	0	816
16.480	12.045	17149	16893	0	816
17.310	13.127	17170	16697	0	816
16.913	11.828	17191	16515	0	816
15.435	8.150	17207	16354	0	816
16.661	7.934	17221	16208	0	816
18.500	8.366	17236	16060	0	816
20.519	11.900	17245	15911	0	816
22.395	13.235	17258	15795	0	816
19.221	13.343	17274	15738	0	816
17.851	10.963	17293	15726	0	816
16.877	9.304	17309	15715	0	816
18.680	9.448	17322	15685	0	816
19.546	11.035	17334	15643	0	816
18.464	11.504	17345	15609	0	816
16.877	11.937	17356	15592	0	816
15.471	12.622	17365	15587	0	816
15.507	12.189	17374	15570	0	816
17.598	12.694	17376	15525	0	816
16.625	13.091	17376	15474	0	816
15.254	10.819	17378	15439	0	816
12.982	9.556	17378	15418	0	816
12.405	7.176	17380	15405	0	816
12.405	7.501	17376	15390	0	816
16.228	7.681	17370	15372	0	816
17.706	10.350	17367	15356	0	816
20.014	12.225	17365	15359	0	816
20.988	14.281	17362	15378	0	816
19.834	14.533	17354	15392	0	816
19.690	13.595	17349	15395	0	816
17.057	11.504	17344	15398	0	816
15.218	9.160	17330	15406	0	816
12.658	8.655	17320	15387	0	816
12.405	8.727	17300	15336	0	816
12.658	11.035	17280	15271	0	816
15.218	11.973	17256	15212	0	816
17.057	12.910	17240	15191	0	816
18.283	14.208	17224	15219	0	816
18.031	12.982	17209	15266	0	816
17.634	14.064	17196	15317	0	816
17.779	13.018	17181	15373	0	816
18.031	13.235	17169	15438	0	816
19.906	13.920	17162	15531	0	816
21.637	15.182	17163	15673	0	816
24.234	16.697	17167	15844	0	816
23.585	15.903	17167	15983	0	816
22.431	13.920	17160	16059	0	816
19.473	12.477	17154	16096	0	816
18.644	11.287	17149	16132	0	816
18.608	13.235	17144	16184	0	816
19.257	14.100	17138	16243	0	816
19.437	13.848	17134	16282	0	816
17.995	10.422	17125	16294	0	816
15.831	7.645	17120	16299	0	816
14.858	5.950	17111	16313	0	816
13.451	8.222	17105	16336	0	816
12.694	8.439	17100	16361	0	816
11.179	9.052	17094	16381	0	816
10.278	6.058	17085	16389	0	816
12.261	4.508	17076	16372	0	816
14.245	3.967	17061	16323	0	816
16.300	6.491	17049	16283	0	816
16.589	7.032	17038	16260	0	816
13.307	6.852	17027	16242	0	816
11.576	5.950	17018	16237	0	816
12.153	6.419	17010	16253	0	816
16.625	8.439	17005	16281	0	816
21.709	11.107	16992	16289	0	816
24.198	13.235	16980	16251	0	816
24.198	13.848	16962	16180	0	816
21.926	14.281	16949	16133	0	816
18.428	12.874	16934	16117	0	816
18.031	12.153	16918	16105	0	816
18.464	11.143	16907	16086	0	816
20.087	11.071	16889	16069	0	816
23.260	13.631	16876	16052	0	816
25.604	16.661	16861	16033	0	816
26.397	19.329	16842	16009	0	816
25.279	19.293	16821	15971	0	816
19.437	16.048	16800	15917	0	816
12.982	11.251	16776	15858	0	816
6.744	6.094	16754	15808	0	816
2.200	2.957	16733	15788	0	816
0.577	1.587	16714	15797	0	816
1.370	0.865	16696	15814	0	816
3.029	-0.072	16674	15813	0	816
3.859	0.433	16656	15805	0	816
7.573	2.885	16642	15830	0	816
10.422	5.842	16627	15894	0	816
14.713	10.638	16616	15961	0	816
16.192	11.143	16602	16014	0	816
16.228	10.819	16589	16049	0	816
13.343	8.943	16576	16076	0	816
12.766	7.609	16560	16103	0	816
12.117	7.429	16545	16125	0	816
14.894	9.340	16527	16131	0	816
16.949	10.891	16512	16127	0	816
18.067	13.487	16496	16130	0	816
18.572	14.425	16483	16152	0	816
19.654	16.589	16471	16192	0	816
21.204	16.841	16461	16234	0	816
23.008	17.274	16447	16261	0	816
23.440	16.192	16436	16280	0	816
20.736	13.054	16427	16305	0	816
18.067	9.881	16418	16343	0	816
15.002	7.573	16409	16380	0	816
14.785	6.744	16400	16404	0	816
17.743	9.809	16389	16417	0	816
19.870	11.864	16381	16424	0	816
21.926	13.199	16372	16432	0	816
20.591	13.343	16363	16450	0	816
16.156	9.556	16358	16478	0	816
12.189	5.986	16348	16502	0	816
8.871	2.741	16341	16502	0	816
7.176	1.190	16330	16476	0	816
7.429	1.442	16315	16438	0	816
7.212	2.056	16303	16404	0	816
8.078	2.921	16292	16377	0	816
8.727	4.436	16275	16341	0	816
9.953	4.291	16257	16280	0	816
10.963	4.724	16239	16209	0	816
11.215	3.931	16223	16167	0	816
10.097	4.075	16208	16153	0	816
11.287	4.039	16192	16132	0	816
12.874	5.878	16172	16091	0	816
14.533	6.455	16152	16037	0	816
17.057	7.248	16134	15993	0	816
17.382	6.780	16115	15977	0	816
16.480	7.176	16097	15983	0	816
15.326	6.960	16081	15980	0	816
13.127	5.842	16059	15951	0	816
11.468	5.517	16043	15925	0	816
11.360	4.255	16024	15932	0	816
11.937	4.400	16010	15963	0	816
15.038	6.275	15998	15994	0	816
15.218	7.212	15981	16017	0	816
16.480	8.799	15966	16042	0	816
18.716	12.045	15954	16072	0	816
22.142	15.254	15943	16101	0	816
24.991	16.949	15928	16125	0	816
25.243	16.877	15915	16148	0	816
23.404	15.759	15903	16178	0	816
21.673	14.677	15894	16215	0	816
21.241	15.290	15886	16268	0	816
23.368	16.589	15881	16330	0	816
24.342	15.867	15872	16379	0	816
20.627	12.622	15867	16404	0	816
16.589	8.186	15854	16414	0	816
13.127	7.357	15846	16415	0	816
13.271	8.330	15834	16419	0	816
15.182	11.360	15824	16422	0	816
17.670	13.740	15816	16421	0	816
17.887	12.261	15803	16409	0	816
17.093	10.638	15788	16375	0	816
14.966	9.124	15772	16321	0	816
15.507	8.150	15755	16266	0	816
16.913	8.763	15736	16210	0	816
17.454	6.635	15714	16146	0	816
16.625	3.354	15692	16080	0	816
15.435	0.865	15672	16022	0	816
13.920	2.452	15650	15985	0	816
14.064	5.986	15635	15983	0	816
16.589	9.412	15623	16014	0	816
18.103	11.612	15612	16068	0	816
18.860	8.799	15603	16120	0	816
18.716	8.619	15594	16161	0	816
17.670	8.907	15587	16199	0	816
19.257	11.468	15577	16240	0	816
19.473	15.290	15568	16277	0	816
20.772	15.074	15559	16306	0	816
20.700	14.389	15554	16342	0	816
21.781	13.091	15550	16394	0	816
22.286	13.451	15548	16466	0	816
22.899	14.281	15550	16544	0	816
21.204	15.543	15554	16627	0	816
16.589	13.668	15561	16723	0	816
11.432	9.448	15576	16846	0	816
7.104	4.364	15595	17004	0	816
8.511	2.741	15619	17181	0	816
9.556	2.200	15646	17351	0	816
10.278	3.390	15675	17505	0	816
9.701	2.957	15710	17650	0	816
8.078	2.669	15744	17799	0	816
9.268	2.777	15787	17954	0	816
13.271	6.275	15827	18100	0	816
16.913	8.655	15875	18239	0	816
18.211	10.386	15925	18380	0	816
15.795	7.862	15977	18519	0	816
14.389	6.094	16035	18649	0	816
14.389	5.698	16097	18781	0	816
16.661	8.294	16161	18904	0	816
19.726	12.550	16227	18997	0	816
20.772	13.307	16286	19048	0	816
20.159	13.884	16348	19064	0	816
19.798	13.307	16407	19050	0	816
22.070	14.208	16467	19014	0	816
23.765	16.048	16520	18949	0	816
24.775	15.543	16573	18841	0	816
22.250	13.992	16620	18686	1	832
18.175	10.386	16661	18497	0	832
12.045	7.393	16700	18296	0	832
9.412	5.914	16740	18107	0	832
8.222	4.652	16776	17930	0	832
9.016	6.203	16813	17750	0	832
11.828	6.924	16845	17572	0	832
13.740	8.258	16882	17414	0	832
12.333	8.439	16916	17277	0	832
9.701	4.255	16947	17140	0	832
4.832	-1.226	16976	16989	0	832
3.065	-4.364	17005	16847	0	832
3.787	-3.714	17036	16736	0	832
9.376	-0.144	17065	16648	0	832
11.937	3.931	17094	16562	0	832
12.658	5.085	17120	16468	0	832
12.874	4.724	17144	16364	0	832
11.684	2.885	17160	16236	0	832
11.937	1.551	17174	16101	0	832
13.848	2.885	17191	15988	0	832
15.218	4.255	17200	15882	0	832
16.264	5.265	17203	15744	0	832
17.743	8.763	17203	15579	0	832
18.031	9.989	17205	15446	0	832
18.067	11.504	17209	15370	0	832
15.903	12.153	17213	15331	0	832
14.858	10.638	17218	15313	0	832
12.441	8.763	17225	15314	0	832
11.684	6.383	17232	15330	0	832
10.927	4.688	17240	15356	0	832
10.927	3.859	17245	15380	0	832
12.405	5.013	17249	15400	0	832
13.848	5.121	17249	15406	0	832
16.264	7.248	17247	15388	0	832
16.769	7.176	17242	15358	0	832
16.120	7.681	17238	15342	0	832
13.884	6.780	17232	15345	0	832
12.838	5.481	17225	15346	0	832
10.855	6.022	17216	15327	0	832
12.081	6.383	17205	15304	0	832
13.920	6.996	17200	15318	0	832
16.949	8.799	17194	15369	0	832
17.634	8.835	17189	15424	0	832
18.608	11.396	17184	15466	0	832
17.202	12.838	17174	15497	0	832
17.382	15.507	17167	15531	0	832
18.247	16.552	17165	15584	0	832
20.087	16.120	17158	15649	0	832
20.591	15.903	17154	15708	0	832
20.375	14.713	17149	15755	0	832
17.995	14.858	17144	15805	0	832
16.192	13.235	17140	15874	0	832
13.956	12.694	17144	15961	0	832
13.740	10.927	17141	16050	0	832
11.792	8.799	17140	16121	0	832
9.556	6.599	17141	16173	0	832
8.078	4.183	17138	16214	0	832
6.635	3.750	17136	16251	0	832
5.517	2.885	17136	16284	0	832
7.068	3.173	17134	16317	0	832
5.986	3.390	17133	16352	0	832
4.039	1.298	17133	16381	0	832
4.219	0.180	17130	16402	0	832
3.931	-0.433	17129	16421	0	832
5.265	0.757	17129	16430	0	832
7.104	1.226	17122	16424	0	832
8.619	1.983	17118	16404	0	832
8.222	2.633	17109	16382	0	832
11.071	4.400	17105	16357	0	832
13.307	7.321	17096	16332	0	832
14.749	10.061	17089	16304	0	832
17.598	12.550	17080	16273	0	832
20.050	13.559	17065	16222	0	832
20.447	15.651	17054	16163	0	832
22.250	16.408	17047	16138	0	832
22.503	18.464	17040	16158	0	832
22.683	18.969	17031	16176	0	832
21.024	19.906	17024	16161	0	832
22.431	20.014	17007	16117	0	832
22.034	19.906	16994	16070	0	832
21.529	18.933	16980	16037	0	832
19.978	17.021	16969	16013	0	832
17.454	14.245	16951	15983	0	832
14.569	12.658	16934	15946	0	832
12.261	9.232	16914	15888	0	832
10.891	7.393	16883	15787	0	832
10.097	4.400	16856	15666	0	832
9.556	3.678	16831	15589	0	832
8.114	2.813	16803	15558	0	832
6.599	2.344	16781	15548	0	832
4.724	1.983	16760	15556	0	832
4.255	2.813	16744	15592	0	832
5.878	3.426	16725	15638	0	832
10.061	7.717	16701	15653	0	832
13.920	10.206	16674	15613	0	832
17.490	13.668	16643	15558	0	832
16.805	13.487	16620	15551	0	832
16.769	13.559	16600	15603	0	832
14.785	12.153	16581	15670	0	832
15.218	12.550	16565	15736	0	832
17.021	12.045	16552	15812	0	832
17.670	12.333	16538	15895	0	832
19.473	12.694	16525	15976	0	832
19.077	10.963	16514	16050	0	832
17.779	11.251	16500	16106	0	832
16.084	11.468	16482	16132	0	832
14.100	10.746	16464	16128	0	832
13.307	11.107	16442	16105	0	832
12.153	10.206	16420	16084	0	832
9.304	6.527	16400	16084	0	832
6.383	1.406	16383	16092	0	832
2.993	-2.416	16361	16090	0	832
1.875	-3.426	16339	16082	0	832
5.517	-0.541	16321	16090	0	832
8.763	4.616	16308	16125	0	832
12.333	7.212	16294	16176	0	832
13.091	7.248	16281	16224	0	832
12.009	4.436	16267	16255	0	832
12.838	1.334	16256	16284	0	832
13.127	1.767	16241	16323	0	832
15.975	3.390	16232	16361	0	832
17.238	6.960	16219	16384	0	832
20.159	11.215	16206	16385	0	832
21.241	15.146	16192	16387	0	832
20.736	16.156	16181	16401	0	832
21.493	15.002	16170	16426	0	832
20.303	14.821	16161	16455	0	832
21.204	12.550	16150	16475	0	832
22.034	13.091	16143	16491	0	832
21.962	13.271	16136	16512	0	832
21.926	13.415	16130	16543	0	832
19.510	11.360	16123	16574	0	832
18.067	10.783	16115	16589	0	832
16.769	11.179	16108	16588	0	832
14.821	11.504	16103	16584	0	832
14.281	11.756	16094	16584	0	832
12.225	10.710	16088	16582	0	832
11.107	6.635	16078	16566	0	832
9.629	3.895	16064	16516	0	832
6.996	2.200	16046	16439	0	832
8.006	1.623	16034	16375	0	832
7.789	3.318	16021	16333	0	832
10.927	4.255	16005	16296	0	832
12.153	5.013	15992	16258	0	832
13.487	6.816	15977	16224	0	832
15.074	7.717	15961	16190	0	832
16.913	10.855	15948	16164	0	832
18.752	13.631	15937	16173	0	832
19.582	15.362	15930	16212	0	832
17.454	15.038	15921	16240	0	832
14.894	13.920	15912	16242	0	832
11.828	11.107	15901	16240	0	832
11.143	10.819	15892	16251	0	832
11.323	11.756	15885	16274	0	832
10.819	10.530	15875	16290	0	832
10.242	10.061	15867	16286	0	832
9.629	6.996	15850	16260	0	832
8.511	4.760	15839	16227	0	832
8.907	3.895	15824	16206	0	832
6.780	3.029	15812	16196	0	832
5.626	1.767	15798	16172	0	832
2.741	0.902	15779	16127	0	832
1.947	0.721	15765	16088	0	832
3.859	2.669	15750	16074	0	832
4.868	5.265	15736	16081	0	832
8.078	6.960	15726	16099	0	832
7.429	6.671	15714	16117	0	832
7.140	5.517	15701	16130	0	832
7.068	4.652	15692	16150	0	832
7.212	4.436	15686	16189	0	832
9.701	6.960	15678	16237	0	832
9.592	7.609	15668	16260	0	832
9.917	7.898	15648	16223	0	832
9.052	7.032	15632	16152	0	832
9.701	5.337	15616	16105	0	832
11.179	7.285	15599	16098	0	832
13.199	10.278	15587	16102	0	832
15.759	13.884	15570	16102	0	832
17.238	16.841	15558	16102	0	832
19.293	16.372	15543	16107	0	832
20.195	16.228	15532	16126	0	832
19.906	15.471	15528	16174	0	832
19.329	16.552	15519	16234	0	832
19.401	18.067	15507	16260	0	832
17.743	17.346	15494	16238	0	832
17.851	16.372	15478	16197	0	832
16.192	13.018	15461	16167	0	832
15.038	10.206	15448	16158	0	832
15.038	9.520	15432	16160	0	832
16.841	10.891	15417	16148	0	832
17.923	13.307	15399	16115	0	832
16.733	13.451	15383	16087	0	832
15.038	12.874	15370	16091	0	832
14.821	12.261	15359	16126	0	832
15.362	11.504	15352	16177	0	832
16.949	12.405	15347	16239	0	832
17.202	12.117	15344	16318	0	832
15.759	10.097	15344	16416	0	832
12.622	6.852	15350	16532	0	832
10.097	3.750	15359	16656	0	832
9.773	4.508	15370	16785	0	832
11.035	5.121	15388	16923	0	832
12.225	6.599	15405	17063	0	832
13.812	8.691	15430	17214	0	832
16.408	9.124	15459	17396	0	832
17.743	11.035	15492	17581	0	832
18.860	11.215	15525	17722	0	832
19.005	11.900	15559	17841	0	832
19.221	11.864	15601	17995	0	832
19.041	9.845	15652	18188	0	832
18.392	8.907	15707	18379	0	832
19.041	7.862	15761	18544	0	832
18.067	8.006	15814	18661	0	832
15.651	7.212	15870	18738	0	832
13.920	8.619	15926	18811	0	832
15.038	10.133	15987	18897	0	832
17.526	13.487	16048	18978	0	832
20.627	16.769	16112	19029	0	832
21.601	19.437	16170	19029	0	832
21.060	19.257	16227	18986	0	832
17.851	15.507	16285	18935	0	832
15.615	11.215	16341	18883	0	832
15.939	8.330	16396	18805	0	832
17.490	8.222	16445	18680	1	892
19.185	9.232	16490	18523	0	892
19.113	11.360	16538	18367	0	892
16.156	10.278	16585	18228	0	892
11.937	7.862	16632	18100	0	892
6.491	5.193	16674	17961	0	892
4.364	2.849	16712	17800	0	892
2.741	3.173	16752	17628	0	892
3.823	3.354	16789	17459	0	892
4.003	3.678	16821	17301	0	892
5.590	3.606	16854	17150	0	892
9.809	3.823	16885	16991	0	892
12.622	5.734	16911	16826	0	892
14.208	7.501	16938	16674	0	892
13.848	7.753	16967	16542	0	892
12.261	8.114	16987	16422	0	892
9.917	6.419	17009	16300	0	892
11.468	7.501	17029	16175	0	892
15.975	8.150	17047	16068	0	892
18.752	11.360	17067	15991	0	892
21.637	13.415	17087	15927	0	892
22.791	14.064	17100	15850	0	892
21.204	14.172	17114	15765	0	892
17.418	13.307	17125	15695	0	892
13.740	8.835	17138	15645	0	892
10.061	6.022	17149	15602	0	892
7.068	4.183	17158	15564	0	892
7.573	3.534	17169	15538	0	892
7.717	7.248	17174	15514	0	892
8.475	8.691	17180	15485	0	892
8.402	10.638	17187	15451	0	892
7.753	8.258	17184	15407	0	892
6.852	5.914	17180	15349	0	892
7.357	2.633	17173	15278	0	892
7.501	2.705	17163	15203	0	892
8.006	5.373	17156	15150	0	892
10.386	8.727	17151	15144	0	892
11.035	12.333	17145	15176	0	892
11.900	13.559	17140	15192	0	892
12.874	14.966	17125	15169	0	892
15.615	14.966	17109	15129	0	892
18.283	17.851	17096	15106	0	892
21.349	20.339	17083	15107	0	892
23.512	21.313	17067	15123	0	892
23.837	21.168	17053	15134	0	892
21.349	18.536	17034	15131	0	892
21.637	16.661	17018	15148	0	892
21.818	16.444	17007	15202	0	892
21.998	18.608	16994	15275	0	892
21.493	19.762	16981	15342	0	892
20.087	19.401	16969	15395	0	892
16.012	15.326	16956	15447	0	892
12.946	11.612	16947	15513	0	892
11.360	8.871	16938	15599	0	892
11.973	9.376	16929	15695	0	892
12.117	9.448	16923	15780	0	892
10.278	7.285	16912	15851	0	892
6.419	2.452	16909	15921	0	892
3.318	-1.515	16901	15997	0	892
2.308	-2.741	16896	16075	0	892
3.787	-0.613	16889	16137	0	892
8.042	3.246	16883	16183	0	892
8.186	5.301	16872	16220	0	892
8.258	6.167	16867	16255	0	892
6.563	5.626	16864	16294	0	892
7.357	4.977	16854	16328	0	892
10.963	6.816	16849	16353	0	892
14.317	7.753	16842	16375	0	892
16.300	10.386	16834	16391	0	892
16.552	12.658	16829	16407	0	892
15.218	14.245	16827	16453	0	892
14.930	14.208	16831	16522	0	892
15.723	14.605	16825	16564	0	892
17.887	13.595	16818	16549	0	892
19.401	14.245	16809	16498	0	892
17.959	14.461	16798	16446	0	892
16.913	14.100	16787	16405	0	892
14.966	14.461	16774	16370	0	892
14.136	12.694	16758	16312	0	892
12.081	12.441	16744	16240	0	892
13.199	12.225	16727	16188	0	892
15.002	14.281	16712	16165	0	892
17.057	15.831	16701	16145	0	892
18.824	19.329	16685	16116	0	892
20.519	19.834	16671	16079	0	892
19.257	18.933	16653	16044	0	892
17.021	17.598	16636	16017	0	892
15.975	15.182	16620	15994	0	892
15.579	12.225	16602	15963	0	892
15.254	11.540	16581	15919	0	892
15.543	11.576	16562	15878	0	892
16.769	11.900	16544	15859	0	892
18.536	14.858	16527	15868	0	892
19.546	15.723	16511	15891	0	892
19.365	14.677	16496	15903	0	892
18.788	13.127	16476	15903	0	892
16.949	9.881	16461	15905	0	892
16.264	8.511	16443	15919	0	892
15.543	7.321	16427	15939	0	892
16.120	8.691	16410	15954	0	892
16.156	7.573	16394	15957	0	892
13.271	7.248	16376	15948	0	892
12.766	5.626	16354	15927	0	892
12.333	3.787	16334	15900	0	892
13.018	4.327	16310	15880	0	892
12.874	3.678	16290	15873	0	892
12.045	1.983	16267	15870	0	892
8.366	-0.433	16245	15853	0	892
4.940	-3.246	16219	15829	0	892
3.426	-4.652	16194	15816	0	892
4.255	-3.173	16176	15820	0	892
3.931	-2.669	16150	15826	0	892
4.003	-0.721	16125	15818	0	892
4.652	0.865	16097	15800	0	892
6.852	2.380	16078	15797	0	892
9.268	4.724	16052	15816	0	892
10.891	5.662	16034	15850	0	892
8.439	3.137	16014	15880	0	892
6.275	0.144	15990	15902	0	892
3.390	-2.560	15970	15927	0	892
3.354	-3.101	15952	15962	0	892
4.003	-1.334	15932	16000	0	892
5.517	1.118	15915	16040	0	892
3.570	1.479	15899	16081	0	892
4.039	1.262	15883	16127	0	892
4.868	1.406	15872	16184	0	892
8.799	2.416	15857	16246	0	892
11.071	2.885	15846	16300	0	892
12.946	2.308	15830	16331	0	892
12.550	2.019	15817	16347	0	892
8.727	2.236	15805	16365	0	892
8.835	4.796	15795	16399	0	892
8.511	8.114	15787	16458	0	892
11.396	11.360	15781	16522	0	892
12.694	11.504	15774	16573	0	892
14.064	12.189	15768	16618	0	892
15.615	13.487	15766	16670	0	892
18.536	13.956	15765	16725	0	892
21.313	15.543	15761	16764	0	892
23.260	16.264	15755	16777	0	892
22.935	14.677	15750	16774	0	892
21.168	12.261	15743	16761	0	892
18.860	11.396	15737	16745	0	892
18.464	10.530	15732	16726	0	892
20.050	12.946	15723	16700	0	892
21.349	15.543	15714	16661	0	892
20.808	16.408	15699	16595	0	892
21.421	16.697	15683	16507	0	892
21.204	16.516	15670	16430	0	892
24.089	17.634	15654	16373	0	892
26.686	19.690	15638	16307	0	892
28.705	19.546	15617	16226	0	892
27.047	17.310	15599	16156	0	892
20.844	12.045	15584	16120	0	892
13.704	7.140	15574	16117	0	892
9.592	2.885	15565	16138	0	892
5.986	0.433	15554	16163	0	892
5.950	-1.479	15544	16177	0	892
7.104	-2.741	15537	16199	0	892
8.114	-2.416	15532	16245	0	892
10.133	-0.144	15532	16302	0	892
13.307	3.029	15526	16355	0	892
14.461	5.409	15523	16395	0	892
16.733	7.248	15519	16429	0	892
17.346	6.599	15518	16462	0	892
17.634	5.770	15515	16495	0	892
19.221	7.609	15515	16523	0	892
19.077	8.114	15510	16531	0	892
17.021	9.845	15503	16522	0	892
15.182	10.097	15499	16514	0	892
14.605	11.287	15499	16521	0	892
16.733	15.362	15496	16542	0	892
20.952	18.788	15490	16544	0	892
23.981	23.476	15481	16494	0	892
25.640	23.260	15464	16405	0	892
23.116	21.998	15456	16337	0	892
22.322	20.050	15443	16299	0	892
20.519	20.808	15432	16261	0	892
21.565	21.168	15419	16218	0	892
20.483	19.365	15406	16181	0	892
17.382	15.326	15395	16158	0	892
12.333	10.674	15387	16149	0	892
8.078	6.455	15376	16150	0	892
4.616	5.698	15368	16155	0	892
4.075	3.823	15359	16157	0	892
4.075	2.488	15344	16137	0	892
5.986	-0.108	15330	16096	0	892
6.455	-2.200	15318	16065	0	892
7.032	-2.416	15304	16054	0	892
8.258	-2.416	15292	16051	0	892
6.888	-1.767	15281	16046	0	892
8.943	-1.226	15267	16047	0	892
9.809	0.685	15263	16079	0	892
14.641	3.210	15261	16158	0	892
20.447	7.717	15264	16279	0	892
24.919	12.838	15275	16415	0	892
28.309	14.136	15285	16560	0	892
30.184	15.615	15303	16724	0	892
28.777	13.776	15328	16917	0	892
26.037	13.127	15358	17127	0	892
26.037	12.838	15394	17348	0	892
24.883	13.812	15432	17566	0	892
24.847	14.064	15474	17780	0	892
24.342	13.451	15523	17999	0	892
21.493	12.261	15581	18227	0	892
19.365	10.242	15638	18451	0	892
16.805	8.655	15696	18630	0	892
15.362	7.104	15747	18733	0	892
13.812	5.734	15799	18780	0	892
12.405	4.327	15856	18832	0	892
9.484	3.859	15914	18904	0	892
8.042	3.354	15974	18956	0	892
9.052	5.085	16034	18977	0	892
9.016	5.878	16092	18982	0	892
10.278	6.239	16152	18969	0	892
8.475	5.337	16206	18916	0	892
5.734	3.101	16261	18829	0	892
4.436	2.633	16314	18738	0	892
5.157	4.580	16366	18638	1	872
9.376	6.852	16413	18510	0	872
12.946	9.989	16458	18355	0	872
15.543	9.953	16500	18194	0	872
15.543	8.799	16544	18036	0	872
13.668	6.852	16581	17869	0	872
12.225	4.183	16616	17684	0	872
9.160	3.065	16647	17479	0	872
6.239	2.452	16672	17251	0	872
4.940	1.767	16693	17017	0	872
3.931	1.731	16714	16805	0	872
7.212	2.705	16733	16606	0	872
9.881	4.111	16745	16407	0	872
13.956	5.878	16762	16230	0	872
16.120	7.393	16776	16093	0	872
16.733	8.655	16792	15986	0	872
17.670	6.635	16809	15898	0	872
16.733	4.796	16824	15818	0	872
15.110	0.397	16838	15746	0	872
12.946	-2.272	16847	15664	0	872
12.045	-1.767	16850	15570	0	872
12.910	2.308	16861	15497	0	872
15.903	9.268	16867	15450	0	872
21.241	14.894	16872	15418	0	872
25.099	16.625	16882	15408	0	872
24.847	15.723	16894	15428	0	872
22.322	12.982	16901	15462	0	872
19.113	11.540	16911	15488	0	872
16.300	12.910	16920	15501	0	872
15.398	13.920	16922	15515	0	872
14.064	13.992	16930	15533	0	872
13.415	12.910	16933	15550	0	872
12.802	12.369	16934	15552	0	872
13.992	10.999	16934	15545	0	872
16.805	11.864	16933	15537	0	872
17.670	13.379	16930	15530	0	872
16.408	11.828	16927	15524	0	872
12.297	10.855	16923	15529	0	872
9.160	10.386	16922	15548	0	872
9.484	9.989	16914	15555	0	872
10.169	12.730	16904	15527	0	872
13.848	13.559	16890	15478	0	872
16.336	15.146	16874	15427	0	872
17.274	14.605	16850	15352	0	872
17.093	12.946	16825	15255	0	872
16.444	13.343	16803	15188	0	872
16.444	12.982	16784	15170	0	872
16.841	14.136	16765	15184	0	872
16.949	13.487	16751	15230	0	872
16.733	13.235	16740	15304	0	872
14.677	9.809	16727	15391	0	872
12.874	7.970	16720	15477	0	872
11.828	5.914	16712	15578	0	872
10.602	5.662	16709	15697	0	872
10.350	4.652	16707	15819	0	872
8.294	3.931	16704	15927	0	872
6.599	2.200	16701	16020	0	872
4.580	1.190	16698	16108	0	872
3.714	0.865	16700	16201	0	872
5.554	2.524	16700	16296	0	872
7.609	3.282	16701	16377	0	872
8.330	3.642	16696	16421	0	872
9.953	2.705	16690	16430	0	872
9.412	1.442	16683	16425	0	872
8.222	0.577	16682	16437	0	872
7.681	0.902	16676	16468	0	872
8.006	1.046	16674	16498	0	872
4.436	0.865	16671	16518	0	872
2.344	0.325	16669	16538	0	872
0.469	0.397	16669	16560	0	872
0.288	2.128	16667	16588	0	872
2.416	4.508	16667	16604	0	872
5.554	7.248	16661	16586	0	872
6.671	8.655	16650	16530	0	872
6.996	7.717	16642	16468	0	872
5.662	7.753	16632	16415	0	872
5.373	7.357	16621	16369	0	872
8.727	7.285	16610	16325	0	872
9.845	8.583	16600	16287	0	872
12.946	9.124	16589	16252	0	872
13.271	8.222	16580	16227	0	872
11.648	7.898	16574	16230	0	872
11.396	8.006	16569	16255	0	872
11.396	8.150	16560	16261	0	872
12.982	9.989	16549	16225	0	872
14.533	10.927	16534	16159	0	872
14.497	10.206	16518	16096	0	872
12.946	8.619	16500	16047	0	872
9.556	7.609	16485	16005	0	872
9.629	6.671	16467	15965	0	872
8.943	7.825	16450	15929	0	872
10.314	8.078	16434	15897	0	872
11.864	8.763	16416	15872	0	872
11.504	8.114	16400	15860	0	872
11.360	7.609	16384	15857	0	872
11.540	5.157	16366	15849	0	872
11.143	3.606	16348	15839	0	872
11.107	1.839	16328	15829	0	872
9.953	1.839	16308	15811	0	872
10.386	4.472	16288	15782	0	872
12.045	6.455	16268	15758	0	872
12.261	6.708	16245	15753	0	872
11.287	6.383	16228	15769	0	872
9.268	4.688	16212	15803	0	872
9.268	4.796	16198	15853	0	872
11.396	7.393	16184	15915	0	872
14.894	9.304	16174	15978	0	872
19.005	11.504	16163	16034	0	872
18.139	10.710	16150	16078	0	872
16.228	10.169	16136	16111	0	872
12.910	8.727	16121	16124	0	872
12.730	8.078	16104	16123	0	872
13.415	7.645	16088	16124	0	872
14.966	9.556	16074	16126	0	872
16.084	9.773	16054	16120	0	872
16.120	11.396	16035	16102	0	872
14.317	12.297	16017	16080	0	872
11.756	10.710	15994	16054	0	872
10.638	8.150	15968	16005	0	872
8.979	5.373	15943	15944	0	872
9.701	2.705	15919	15907	0	872
9.304	3.065	15892	15875	0	872
10.855	3.895	15863	15822	0	872
10.242	5.626	15835	15771	0	872
10.097	5.662	15806	15742	0	872
9.484	6.419	15783	15733	0	872
10.061	5.806	15759	15749	0	872
11.468	6.203	15739	15794	0	872
11.576	7.717	15725	15856	0	872
13.054	6.960	15707	15922	0	872
13.956	7.862	15692	15988	0	872
13.415	8.330	15681	16059	0	872
15.254	10.602	15668	16138	0	872
17.021	12.225	15659	16211	0	872
17.670	13.163	15645	16270	0	872
20.447	14.533	15635	16317	0	872
21.962	13.848	15624	16367	0	872
21.457	15.759	15617	16426	0	872
20.952	17.202	15610	16488	0	872
17.021	18.320	15603	16535	0	872
14.930	18.392	15594	16565	0	872
12.117	17.166	15587	16591	0	872
12.009	15.615	15583	16622	0	872
12.586	14.930	15576	16654	0	872
13.704	15.038	15568	16674	0	872
11.792	14.569	15563	16684	0	872
11.540	14.064	15558	16697	0	872
9.953	11.937	15554	16717	0	872
7.645	10.350	15552	16743	0	872
6.816	8.366	15552	16775	0	872
3.065	5.554	15554	16813	0	872
-0.685	3.065	15550	16827	0	872
-3.931	1.118	15544	16796	0	872
-5.409	0.288	15536	16734	0	872
-2.813	1.551	15530	16675	0	872
1.118	5.085	15519	16632	0	872
6.275	7.176	15510	16591	0	872
9.953	7.753	15499	16532	0	872
14.136	8.330	15486	16454	0	872
16.480	8.330	15472	16381	0	872
19.005	10.242	15461	16323	0	872
22.322	11.720	15446	16280	0	872
24.847	14.389	15435	16244	0	872
23.549	13.415	15419	16205	0	872
20.087	11.107	15406	16165	0	872
16.228	6.960	15395	16139	0	872
11.468	4.147	15387	16140	0	872
10.530	1.515	15377	16155	0	872
12.946	0.938	15368	16164	0	872
13.235	1.370	15359	16174	0	872
15.002	1.803	15355	16200	0	872
15.182	1.983	15350	16242	0	872
14.930	2.128	15347	16285	0	872
14.930	1.082	15344	16316	0	872
12.694	0.072	15337	16333	0	872
11.179	-1.190	15330	16335	0	872
11.179	-0.108	15321	16330	0	872
13.163	0.685	15314	16325	0	872
12.694	2.488	15308	16326	0	872
14.894	5.409	15301	16333	0	872
13.740	6.527	15296	16342	0	872
16.012	9.340	15288	16347	0	872
17.670	11.107	15283	16350	0	872
21.060	10.206	15275	16341	0	872
20.087	9.016	15264	16316	0	872
18.788	7.140	15256	16284	0	872
16.444	7.825	15243	16252	0	872
15.218	8.619	15234	16231	0	872
15.903	11.143	15221	16221	0	872
15.831	11.612	15216	16223	0	872
14.930	10.891	15210	16237	0	872
13.487	9.592	15199	16251	0	872
13.595	8.114	15199	16282	0	872
13.054	8.943	15208	16378	0	872
14.461	8.979	15219	16537	0	872
13.451	9.881	15239	16710	0	872
12.045	8.511	15257	16869	0	872
9.845	7.898	15285	17027	0	872
8.258	6.780	15310	17199	0	872
8.727	6.671	15348	17395	0	872
9.845	6.527	15388	17606	0	872
10.061	5.229	15430	17814	0	872
10.350	4.364	15481	18010	0	872
9.665	2.705	15534	18210	0	872
11.360	2.777	15592	18414	0	872
10.819	3.967	15652	18607	0	872
13.127	3.931	15718	18771	0	872
15.002	5.554	15777	18900	0	872
15.723	5.554	15845	18996	0	872
14.028	5.445	15908	19076	0	872
14.172	5.950	15976	19149	0	872
12.802	5.986	16045	19203	0	872
12.982	7.501	16107	19204	0	872
14.461	9.917	16159	19119	0	872
14.028	10.386	16210	18965	0	872
12.586	10.783	16257	18791	0	872
10.350	8.511	16301	18624	0	872
7.825	7.717	16348	18471	1	868
9.412	6.275	16396	18334	0	868
10.169	7.321	16442	18199	0	868
12.441	6.383	16489	18064	0	868
13.920	4.291	16533	17930	0	868
10.530	2.524	16574	17789	0	868
9.124	-0.505	16616	17639	0	868
5.481	0.108	16653	17486	0	868
5.265	1.695	16689	17337	0	868
6.816	4.724	16723	17188	0	868
9.989	7.104	16756	17034	0	868
13.776	9.412	16784	16875	0	868
16.408	10.206	16809	16713	0	868
15.831	11.035	16827	16535	0	868
17.129	10.530	16849	16353	0	868
15.471	10.927	16869	16212	0	868
18.247	13.163	16889	16127	0	868
19.401	14.749	16912	16056	0	868
21.601	16.697	16925	15963	0	868
18.969	16.733	16940	15842	0	868
17.382	14.894	16951	15726	0	868
16.084	13.343	16958	15631	0	868
18.103	13.523	16969	15557	0	868
18.103	14.136	16976	15495	0	868
18.788	13.595	16981	15436	0	868
16.877	12.802	16991	15389	0	868
13.379	10.674	16996	15362	0	868
11.756	8.691	17002	15350	0	868
13.199	9.665	17009	15353	0	868
14.172	10.530	17013	15361	0	868
13.271	11.828	17018	15365	0	868
14.749	13.235	17018	15366	0	868
12.369	13.307	17021	15376	0	868
14.064	13.812	17024	15393	0	868
16.661	14.677	17021	15394	0	868
22.395	15.795	17018	15379	0	868
23.621	17.634	17014	15369	0	868
25.568	17.887	17010	15373	0	868
23.801	17.634	17003	15379	0	868
17.526	15.038	16992	15368	0	868
13.992	11.323	16980	15325	0	868
10.386	7.753	16962	15264	0	868
8.727	7.789	16947	15225	0	868
12.189	8.619	16930	15219	0	868
15.362	11.540	16914	15231	0	868
13.054	11.648	16904	15254	0	868
12.045	8.799	16889	15285	0	868
7.717	4.327	16872	15304	0	868
5.265	1.731	16858	15310	0	868
5.265	1.262	16840	15330	0	868
8.042	1.659	16821	15360	0	868
9.016	1.623	16805	15382	0	868
9.088	1.875	16785	15392	0	868
8.475	2.236	16767	15405	0	868
8.402	3.931	16749	15441	0	868
8.727	5.734	16734	15509	0	868
11.612	8.078	16725	15601	0	868
12.441	7.753	16716	15698	0	868
13.523	8.547	16705	15790	0	868
10.097	8.294	16700	15880	0	868
8.294	8.763	16693	15976	0	868
8.583	8.907	16690	16077	0	868
9.701	9.016	16685	16175	0	868
9.629	7.537	16683	16260	0	868
7.140	3.173	16678	16334	0	868
5.265	0.361	16678	16409	0	868
2.813	-1.731	16680	16488	0	868
3.967	-0.938	16676	16555	0	868
7.753	1.551	16676	16597	0	868
8.979	3.137	16672	16630	0	868
7.393	2.416	16674	16668	0	868
7.573	1.767	16674	16709	0	868
7.537	2.164	16674	16744	0	868
10.206	3.606	16676	16759	0	868
12.225	4.796	16672	16762	0	868
15.435	7.285	16674	16764	0	868
12.153	7.393	16671	16763	0	868
11.864	7.645	16672	16748	0	868
10.133	6.635	16671	16731	0	868
10.242	5.013	16665	16715	0	868
10.530	4.219	16664	16687	0	868
12.477	4.291	16660	16641	0	868
13.163	6.275	16650	16588	0	868
13.776	7.248	16643	16532	0	868
14.353	8.366	16636	16477	0	868
12.045	6.311	16625	16420	0	868
12.586	6.924	16614	16356	0	868
11.107	7.789	16602	16282	0	868
11.720	11.612	16587	16210	0	868
13.812	15.038	16574	16148	0	868
15.290	16.877	16558	16091	0	868
14.785	17.526	16540	16024	0	868
16.805	16.661	16522	15947	0	868
16.192	17.093	16500	15868	0	868
17.598	18.211	16471	15767	0	868
17.021	18.897	16443	15645	0	868
18.103	18.680	16413	15538	0	868
15.651	16.769	16383	15452	0	868
14.858	14.497	16355	15390	0	868
12.586	12.369	16328	15365	0	868
12.153	11.900	16303	15369	0	868
11.828	11.396	16278	15384	0	868
11.107	11.287	16254	15395	0	868
13.235	11.215	16227	15395	0	868
12.730	9.304	16201	15400	0	868
10.422	8.835	16181	15441	0	868
8.943	6.744	16161	15515	0	868
6.527	7.068	16143	15593	0	868
7.285	7.501	16125	15670	0	868
10.963	7.717	16110	15753	0	868
12.477	8.475	16099	15847	0	868
13.992	6.960	16085	15943	0	868
10.999	4.940	16070	16004	0	868
9.881	2.524	16045	16001	0	868
9.953	0.974	16021	15966	0	868
9.665	-0.288	15999	15958	0	868
8.763	-0.649	15981	15988	0	868
8.114	-1.767	15965	16032	0	868
5.734	-2.957	15948	16077	0	868
4.075	-3.606	15932	16128	0	868
6.708	-4.291	15921	16184	0	868
7.862	-1.479	15910	16252	0	868
11.900	1.839	15904	16352	0	868
14.028	3.859	15903	16473	0	868
15.182	7.104	15901	16569	0	868
16.733	7.645	15888	16603	0	868
16.841	8.186	15879	16595	0	868
19.546	10.278	15867	16579	0	868
20.483	11.900	15857	16579	0	868
22.611	12.874	15848	16598	0	868
22.070	13.740	15843	16620	0	868
22.431	15.002	15835	16629	0	868
23.693	15.831	15823	16621	0	868
21.529	16.444	15816	16613	0	868
20.844	17.851	15808	16608	0	868
20.375	17.923	15798	16591	0	868
18.644	16.913	15784	16553	0	868
20.916	15.507	15772	16507	0	868
19.401	13.271	15759	16466	0	868
19.834	10.783	15747	16428	0	868
16.877	9.845	15732	16391	0	868
18.392	9.088	15718	16356	0	868
19.473	11.720	15707	16332	0	868
23.368	13.631	15697	16324	0	868
28.417	17.166	15688	16334	0	868
30.545	18.392	15681	16355	0	868
30.184	17.995	15675	16374	0	868
27.948	15.254	15664	16381	0	868
25.135	13.018	15659	16384	0	868
23.476	12.838	15650	16394	0	868
22.503	12.369	15645	16406	0	868
21.962	13.595	15639	16404	0	868
22.647	13.487	15628	16396	0	868
19.870	13.559	15623	16392	0	868
20.339	13.091	15616	16394	0	868
18.608	13.091	15606	16400	0	868
17.274	11.540	15599	16389	0	868
14.461	11.504	15584	16347	0	868
15.290	11.504	15570	16277	0	868
14.389	12.441	15550	16191	0	868
14.858	14.028	15528	16101	0	868
11.576	11.504	15508	16029	0	868
9.340	8.979	15494	15991	0	868
6.708	3.859	15474	15971	0	868
3.318	1.154	15456	15941	0	868
2.200	-0.757	15435	15907	0	868
2.596	0.108	15424	15913	0	868
3.282	1.911	15416	15966	0	868
4.940	3.787	15405	16030	0	868
6.491	5.013	15398	16077	0	868
6.383	4.724	15387	16107	0	868
6.311	4.400	15379	16134	0	868
3.390	1.623	15370	16177	0	868
2.524	-0.072	15365	16231	0	868
1.587	-0.613	15359	16282	0	868
2.128	0.433	15352	16318	0	868
4.652	3.678	15344	16341	0	868
9.160	7.393	15339	16364	0	868
11.360	10.133	15334	16394	0	868
14.208	9.592	15326	16421	0	868
12.694	7.753	15319	16430	0	868
13.631	5.157	15312	16423	0	868
12.658	1.983	15299	16391	0	868
10.097	1.767	15286	16351	0	868
7.970	1.515	15275	16332	0	868
5.806	2.633	15268	16333	0	868
6.094	4.291	15261	16347	0	868
8.475	5.986	15257	16384	0	868
10.386	6.275	15261	16448	0	868
12.802	6.167	15261	16531	0	868
13.379	5.481	15270	16623	0	868
12.550	5.013	15281	16727	0	868
15.146	7.825	15297	16851	0	868
15.723	9.088	15318	16993	0	868
16.841	10.674	15343	17150	0	868
14.533	9.484	15370	17321	0	868
15.795	6.419	15406	17500	0	868
15.326	4.219	15446	17686	0	868
15.290	1.875	15488	17878	0	868
17.706	2.452	15541	18081	0	868
14.930	2.128	15599	18307	0	868
12.297	1.695	15661	18534	0	868
10.242	1.983	15725	18720	0	868
8.006	2.236	15783	18852	0	868
9.448	2.019	15843	18945	0	868
11.035	2.344	15908	19016	0	868
10.999	2.056	15966	19059	0	868
11.900	2.308	16017	19029	0	868
10.999	3.390	16064	18922	0	868
8.402	4.688	16112	18801	0	868
8.078	6.419	16163	18713	0	868
10.746	6.563	16216	18646	1	844
10.819	6.816	16268	18577	0	844
10.133	6.671	16319	18499	0	844
10.350	7.934	16368	18404	0	844
8.655	9.520	16420	18304	0	844
10.206	13.018	16469	18209	0	844
12.369	15.290	16522	18126	0	844
17.418	16.372	16573	18048	0	844
15.903	15.867	16620	17946	0	844
15.326	13.199	16656	17784	0	844
14.425	11.973	16690	17572	0	844
12.838	12.261	16720	17361	0	844
16.336	15.507	16751	17173	0	844
19.293	18.283	16781	16997	0	844
22.755	20.519	16807	16834	0	844
25.784	20.123	16832	16686	0	844
22.467	18.139	16858	16555	0	844
20.375	14.966	16885	16440	0	844
16.733	12.405	16907	16333	0	844
15.110	10.638	16929	16229	0	844
13.776	9.953	16949	16123	0	844
13.018	8.258	16963	16008	0	844
11.035	7.789	16974	15887	0	844
9.592	7.032	16989	15782	0	844
10.855	5.806	17000	15701	0	844
10.819	5.373	17010	15631	0	844
10.061	3.859	17016	15550	0	844
8.330	1.695	17021	15468	0	844
4.868	-1.154	17032	15429	0	844
2.019	-2.128	17042	15437	0	844
1.442	-2.200	17049	15448	0	844
0.577	-1.515	17056	15440	0	844
0.974	-0.938	17061	15424	0	844
1.515	-0.829	17067	15416	0	844
4.111	-1.262	17071	15426	0	844
7.645	0.505	17078	15451	0	844
10.783	2.236	17082	15479	0	844
16.156	6.888	17085	15497	0	844
18.824	10.097	17087	15509	0	844
22.935	13.740	17087	15521	0	844
27.010	15.435	17087	15531	0	844
28.020	16.877	17083	15531	0	844
31.085	17.634	17080	15521	0	844
29.463	18.067	17074	15509	0	844
26.433	18.031	17065	15501	0	844
22.719	17.346	17064	15508	0	844
17.887	15.435	17056	15528	0	844
17.418	13.415	17050	15547	0	844
15.831	12.261	17042	15561	0	844
18.175	11.179	17034	15579	0	844
15.471	11.035	17029	15609	0	844
14.858	10.350	17021	15644	0	844
11.828	9.448	17014	15665	0	844
10.169	7.537	17005	15676	0	844
11.287	6.671	16996	15694	0	844
12.405	5.517	16987	15721	0	844
13.595	6.527	16978	15750	0	844
17.743	11.215	16970	15773	0	844
17.851	12.910	16960	15795	0	844
17.995	14.245	16947	15811	0	844
13.235	11.287	16934	15808	0	844
9.268	6.960	16922	15798	0	844
6.491	3.426	16912	15831	0	844
6.094	2.885	16911	15911	0	844
9.052	3.895	16901	15983	0	844
10.458	6.780	16893	16007	0	844
13.307	7.068	16880	16007	0	844
13.199	6.527	16871	16014	0	844
12.225	7.862	16861	16038	0	844
13.451	6.671	16854	16082	0	844
12.081	7.681	16849	16134	0	844
10.133	8.078	16843	16180	0	844
11.179	7.429	16838	16225	0	844
10.602	6.671	16834	16279	0	844
8.835	5.626	16831	16328	0	844
11.179	4.616	16827	16360	0	844
11.396	5.878	16821	16369	0	844
10.783	6.527	16813	16363	0	844
12.694	6.635	16803	16352	0	844
13.054	8.691	16796	16348	0	844
15.471	9.556	16787	16346	0	844
19.185	11.468	16778	16331	0	844
20.519	14.317	16767	16302	0	844
20.014	15.471	16756	16280	0	844
20.087	16.516	16749	16274	0	844
16.408	15.723	16738	16279	0	844
17.346	13.018	16729	16275	0	844
16.949	10.206	16720	16260	0	844
14.353	5.265	16707	16239	0	844
13.740	1.334	16696	16210	0	844
10.638	-0.721	16676	16154	0	844
11.900	0.433	16656	16073	0	844
12.982	4.724	16636	16002	0	844
14.172	8.366	16616	15954	0	844
16.480	10.891	16596	15912	0	844
14.641	10.422	16576	15872	0	844
15.867	9.160	16558	15839	0	844
16.156	6.455	16534	15813	0	844
14.389	6.816	16512	15787	0	844
15.290	7.212	16493	15763	0	844
11.540	6.491	16469	15746	0	844
9.917	6.311	16449	15736	0	844
7.681	3.426	16429	15738	0	844
8.763	2.019	16409	15750	0	844
9.196	1.515	16387	15759	0	844
12.333	2.416	16366	15757	0	844
12.225	4.760	16341	15744	0	844
10.169	4.688	16314	15707	0	844
8.294	5.085	16286	15662	0	844
6.563	3.642	16259	15643	0	844
6.816	4.760	16234	15648	0	844
8.114	5.193	16212	15664	0	844
7.068	5.481	16190	15695	0	844
7.140	5.301	16168	15745	0	844
4.868	3.137	16150	15808	0	844
4.796	2.164	16136	15877	0	844
5.445	1.695	16121	15947	0	844
5.409	1.911	16108	16027	0	844
5.013	2.272	16096	16119	0	844
8.006	2.596	16088	16203	0	844
11.071	6.167	16074	16263	0	844
13.812	8.799	16063	16307	0	844
18.680	10.314	16050	16350	0	844
18.860	10.638	16041	16396	0	844
18.392	9.592	16035	16452	0	844
16.264	8.186	16027	16513	0	844
16.589	10.314	16023	16571	0	844
16.048	12.297	16016	16614	0	844
18.716	12.874	16010	16643	0	844
19.113	13.054	16003	16664	0	844
21.241	10.674	15995	16675	0	844
19.077	10.494	15987	16674	0	844
19.546	11.612	15977	16660	0	844
18.969	13.127	15966	16630	0	844
20.555	16.336	15958	16600	0	844
20.050	17.743	15944	16569	0	844
20.050	18.031	15932	16537	0	844
21.313	16.589	15918	16497	0	844
19.185	15.435	15901	16435	0	844
20.375	14.389	15885	16354	0	844
19.041	14.641	15863	16277	0	844
18.175	15.831	15846	16220	0	844
16.048	16.228	15830	16177	0	844
16.697	16.408	15810	16138	0	844
14.317	15.651	15792	16091	0	844
13.920	13.054	15772	16049	0	844
11.612	10.710	15755	16027	0	844
8.943	7.176	15739	16026	0	844
8.619	6.275	15728	16035	0	844
8.439	5.193	15710	16040	0	844
11.468	6.816	15694	16041	0	844
13.559	9.592	15679	16042	0	844
18.428	11.360	15664	16049	0	844
19.906	13.812	15652	16064	0	844
20.411	14.100	15635	16081	0	844
21.421	14.461	15624	16106	0	844
20.087	11.323	15617	16148	0	844
20.339	10.530	15608	16209	0	844
19.257	10.674	15605	16276	0	844
23.008	11.143	15594	16319	0	844
22.719	13.054	15579	16305	0	844
23.116	13.812	15563	16254	0	844
21.529	11.035	15550	16227	0	844
14.425	8.150	15537	16241	0	844
7.753	1.803	15526	16264	0	844
1.839	-1.623	15515	16279	0	844
0.397	-4.688	15507	16290	0	844
2.416	-3.859	15496	16306	0	844
5.409	-1.731	15490	16344	0	844
8.150	-0.288	15490	16411	0	844
7.104	0.757	15488	16492	0	844
8.078	0.721	15488	16553	0	844
8.655	1.406	15483	16569	0	844
9.917	2.849	15472	16547	0	844
11.612	4.327	15467	16517	0	844
13.704	4.400	15454	16491	0	844
12.405	4.400	15445	16459	0	844
10.061	2.849	15427	16399	0	844
11.071	2.777	15410	16319	0	844
8.655	3.859	15394	16248	0	844
6.852	3.426	15379	16208	0	844
8.691	4.183	15366	16191	0	844
8.943	2.560	15354	16179	0	844
10.494	1.515	15341	16161	0	844
11.287	1.154	15328	16149	0	844
15.218	1.839	15318	16155	0	844
16.552	3.029	15307	16175	0	844
19.618	6.022	15301	16203	0	844
19.726	8.114	15294	16234	0	844
22.647	8.979	15288	16275	0	844
20.555	10.061	15286	16341	0	844
20.411	8.475	15292	16436	0	844
20.952	8.186	15303	16559	0	844
19.077	7.285	15308	16672	0	844
18.752	8.907	15315	16748	0	844
17.093	10.025	15326	16816	0	844
18.247	11.864	15347	16940	0	844
18.356	14.533	15372	17123	0	844
21.493	14.713	15405	17325	0	844
22.431	15.362	15441	17530	0	844
22.214	15.290	15486	17746	0	844
23.621	14.749	15536	17975	0	844
19.762	14.749	15590	18211	0	844
18.860	15.146	15650	18442	0	844
15.687	13.271	15715	18658	0	844
12.405	10.602	15777	18844	0	844
9.665	7.537	15846	18991	0	844
7.068	4.364	15910	19102	0	844
6.960	2.560	15974	19181	0	844
6.780	3.318	16039	19222	0	844
6.852	4.508	16101	19229	0	844
7.068	5.914	16165	19219	0	844
6.058	6.167	16230	19199	0	844
2.957	6.744	16294	19159	0	844
0.757	4.544	16355	19100	0	844
-0.072	3.137	16416	19033	1	860
-0.613	1.298	16476	18942	0	860
-0.036	0.325	16533	18819	0	860
1.442	-0.902	16589	18679	0	860
1.046	-2.200	16643	18534	0	860
0.974	-1.767	16693	18377	0	860
-0.721	-0.902	16738	18199	0	860
-0.613	0.144	16781	17999	0	860
-0.469	1.551	16821	17789	0	860
0.325	0.469	16861	17587	0	860
1.262	-1.406	16896	17400	0	860
0.829	-3.678	16933	17222	0	860
1.154	-4.472	16965	17048	0	860
1.334	-3.895	16996	16883	0	860
1.983	-3.714	17027	16731	0	860
2.056	-5.517	17056	16592	0	860
1.695	-6.635	17083	16460	0	860
1.551	-6.455	17107	16325	0	860
2.596	-6.744	17133	16189	0	860
5.662	-5.806	17149	16065	0	860
6.996	-4.544	17170	15963	0	860
7.898	-5.734	17191	15882	0	860
10.783	-4.724	17207	15804	0	860
11.973	-1.947	17218	15695	0	860
14.930	0.721	17224	15551	0	860
18.139	4.688	17227	15417	0	860
18.969	7.321	17231	15314	0	860
20.555	8.006	17232	15228	0	860
21.024	9.124	17232	15157	0	860
20.952	7.645	17232	15099	0	860
21.637	8.330	17229	15046	0	860
19.618	8.366	17225	14993	0	860
18.247	9.304	17224	14967	0	860
14.858	9.304	17220	14975	0	860
12.838	8.727	17214	14975	0	860
9.196	5.842	17202	14933	0	860
8.619	4.760	17187	14874	0	860
9.268	4.183	17170	14831	0	860
11.540	6.347	17154	14812	0	860
13.956	10.169	17138	14801	0	860
15.398	12.153	17118	14774	0	860
16.805	13.992	17094	14732	0	860
15.759	14.100	17067	14700	0	860
16.625	11.828	17045	14700	0	860
14.425	9.845	17025	14734	0	860
13.992	8.475	17005	14790	0	860
11.648	6.852	16985	14856	0	860
9.809	6.275	16970	14936	0	860
12.333	7.934	16952	15023	0	860
13.595	8.799	16936	15099	0	860
13.920	11.504	16914	15161	0	860
16.084	14.317	16896	15212	0	860
13.776	16.408	16874	15268	0	860
14.208	17.454	16858	15345	0	860
13.920	16.084	16847	15450	0	860
13.631	13.884	16834	15573	0	860
14.785	10.891	16824	15696	0	860
13.920	9.448	16810	15796	0	860
14.208	8.042	16792	15840	0	860
12.910	8.078	16773	15848	0	860
9.773	7.609	16760	15873	0	860
8.691	7.104	16741	15930	0	860
6.888	6.960	16729	15994	0	860
8.583	7.248	16718	16064	0	860
9.809	9.773	16707	16143	0	860
13.523	11.504	16701	16228	0	860
15.615	13.235	16693	16304	0	860
16.985	15.038	16687	16373	0	860
15.615	13.307	16680	16435	0	860
11.828	12.550	16676	16496	0	860
9.809	11.828	16671	16558	0	860
9.304	11.792	16674	16641	0	860
9.629	12.225	16678	16736	0	860
14.028	12.838	16676	16804	0	860
14.858	13.559	16674	16821	0	860
13.740	11.648	16667	16809	0	860
14.172	10.674	16664	16795	0	860
11.035	10.025	16661	16795	0	860
8.763	9.196	16658	16806	0	860
10.963	10.133	16658	16821	0	860
13.271	10.206	16658	16816	0	860
15.651	10.566	16650	16794	0	860
18.211	10.061	16649	16766	0	860
14.785	7.862	16645	16739	0	860
12.910	4.832	16638	16700	0	860
9.268	3.426	16629	16640	0	860
7.609	1.515	16618	16568	0	860
9.268	1.442	16609	16498	0	860
12.225	3.823	16598	16440	0	860
14.858	5.806	16587	16384	0	860
19.762	8.979	16573	16318	0	860
19.113	9.629	16558	16246	0	860
18.680	9.953	16545	16184	0	860
17.057	9.088	16530	16143	0	860
19.149	10.638	16516	16116	0	860
20.267	12.550	16504	16077	0	860
23.837	15.975	16483	16018	0	860
25.063	16.300	16467	15954	0	860
22.575	14.497	16449	15910	0	860
21.818	12.225	16432	15887	0	860
21.529	11.396	16416	15870	0	860
19.942	12.910	16400	15855	0	860
22.142	13.559	16383	15839	0	860
20.411	14.533	16365	15819	0	860
18.969	13.163	16343	15791	0	860
18.139	11.937	16321	15758	0	860
16.084	10.927	16296	15714	0	860
14.785	11.720	16272	15661	0	860
14.353	11.937	16241	15612	0	860
12.261	11.432	16216	15572	0	860
11.468	10.891	16190	15553	0	860
11.035	9.232	16168	15567	0	860
10.638	9.052	16148	15610	0	860
12.874	9.665	16130	15668	0	860
14.930	11.756	16115	15732	0	860
15.398	12.333	16101	15813	0	860
16.156	12.405	16092	15911	0	860
10.999	11.071	16081	16004	0	860
9.376	8.078	16070	16076	0	860
7.898	6.527	16057	16128	0	860
8.979	5.590	16048	16180	0	860
10.133	5.193	16038	16246	0	860
12.369	5.878	16030	16319	0	860
12.477	6.671	16024	16387	0	860
11.900	5.698	16017	16445	0	860
14.821	5.662	16010	16489	0	860
15.146	6.347	16008	16536	0	860
16.012	6.275	16003	16593	0	860
16.877	8.222	16001	16649	0	860
14.425	7.862	15998	16684	0	860
13.776	7.068	15992	16697	0	860
10.494	6.347	15983	16688	0	860
11.937	5.770	15972	16651	0	860
13.199	8.691	15961	16600	0	860
15.074	11.035	15950	16556	0	860
19.149	13.018	15939	16528	0	860
18.860	13.920	15932	16512	0	860
20.014	13.487	15923	16503	0	860
17.274	11.396	15915	16495	0	860
16.408	10.242	15907	16481	0	860
15.362	10.206	15897	16462	0	860
15.939	10.422	15886	16430	0	860
16.661	13.343	15868	16370	0	860
19.221	13.740	15854	16290	0	860
17.779	14.281	15835	16226	0	860
18.031	11.576	15824	16191	0	860
14.172	9.196	15808	16168	0	860
13.920	5.662	15792	16133	0	860
12.586	3.895	15772	16080	0	860
10.819	3.426	15752	16020	0	860
11.864	3.101	15732	15964	0	860
11.071	3.931	15714	15927	0	860
10.242	4.219	15697	15910	0	860
12.802	5.626	15678	15901	0	860
13.415	4.832	15664	15904	0	860
13.559	4.400	15648	15926	0	860
13.235	2.128	15639	15969	0	860
10.242	-0.505	15627	16019	0	860
6.563	-3.390	15617	16067	0	860
1.803	-4.580	15612	16125	0	860
0.361	-5.481	15606	16198	0	860
-1.298	-5.121	15601	16275	0	860
-2.272	-5.950	15598	16341	0	860
-0.036	-4.796	15592	16384	0	860
1.551	-3.246	15587	16413	0	860
1.839	-2.596	15581	16443	0	860
4.796	-3.065	15577	16477	0	860
5.626	-3.931	15574	16515	0	860
6.419	-5.157	15572	16544	0	860
8.727	-3.714	15565	16559	0	860
11.107	-1.947	15561	16561	0	860
16.336	1.082	15555	16559	0	860
17.598	4.796	15552	16558	0	860
18.969	6.491	15544	16548	0	860
18.247	8.330	15536	16520	0	860
19.113	10.206	15523	16475	0	860
18.464	9.412	15512	16424	0	860
21.818	10.025	15501	16378	0	860
21.457	9.556	15488	16333	0	860
19.185	9.160	15475	16292	0	860
15.543	6.203	15463	16251	0	860
12.153	4.508	15445	16196	0	860
10.674	2.560	15428	16128	0	860
12.982	3.101	15410	16076	0	860
14.930	4.508	15398	16052	0	860
15.398	6.635	15387	16054	0	860
17.166	6.635	15376	16070	0	860
12.874	6.167	15366	16098	0	860
12.514	6.671	15363	16158	0	860
14.461	6.455	15368	16265	0	860
15.579	8.006	15379	16416	0	860
21.132	10.602	15392	16586	0	860
22.395	12.477	15412	16759	0	860
22.503	11.215	15441	16962	0	860
20.772	9.556	15472	17203	0	860
16.733	6.996	15514	17456	0	860
16.877	6.491	15558	17705	0	860
16.625	6.239	15608	17949	0	860
18.500	7.681	15664	18192	0	860
16.877	7.501	15721	18422	0	860
16.661	5.481	15779	18621	0	860
14.713	6.022	15838	18780	0	860
15.687	6.347	15901	18908	0	860
15.146	6.996	15963	19021	0	860
15.615	8.330	16028	19121	0	860
14.064	6.924	16097	19213	0	860
12.622	7.898	16166	19292	0	860
13.631	7.357	16238	19340	0	860
14.641	8.691	16304	19352	0	860
15.939	8.114	16374	19331	0	860
15.290	6.239	16436	19276	0	860
12.477	5.193	16496	19186	0	860
10.999	2.524	16556	19069	0	860
9.917	1.262	16613	18938	1	852
8.871	2.164	16669	18791	0	852
11.648	2.957	16716	18614	0	852
12.405	6.203	16765	18416	0	852
13.379	8.150	16816	18246	0	852
14.858	9.376	16864	18095	0	852
14.172	9.592	16904	17886	0	852
11.287	7.212	16930	17606	0	852
11.792	5.590	16956	17319	0	852
10.674	3.823	16984	17065	0	852
10.242	1.983	17007	16845	0	852
14.100	1.731	17032	16650	0	852
14.389	3.931	17053	16462	0	852
15.579	5.986	17069	16277	0	852
16.408	8.439	17093	16118	0	852
15.651	11.035	17111	15994	0	852
16.985	9.340	17125	15879	0	852
14.497	9.016	17138	15759	0	852
14.605	7.248	17152	15642	0	852
12.514	6.455	17162	15539	0	852
8.511	4.760	17170	15455	0	852
7.970	3.390	17181	15386	0	852
5.770	2.128	17187	15323	0	852
6.167	2.993	17191	15259	0	852
6.744	4.255	17194	15203	0	852
8.402	7.609	17196	15167	0	852
9.881	9.268	17203	15150	0	852
9.773	8.006	17203	15143	0	852
7.934	5.409	17198	15110	0	852
8.006	3.823	17185	15027	0	852
7.104	3.967	17170	14920	0	852
9.917	5.481	17156	14850	0	852
10.674	7.465	17144	14826	0	852
12.802	6.563	17133	14815	0	852
10.242	3.787	17114	14807	0	852
9.701	2.344	17101	14812	0	852
8.547	2.164	17087	14836	0	852
10.855	4.111	17076	14870	0	852
12.514	7.248	17060	14905	0	852
13.884	7.934	17043	14942	0	852
16.805	8.186	17027	14976	0	852
12.946	6.780	17007	14990	0	852
10.927	6.563	16984	14988	0	852
7.717	5.554	16960	14990	0	852
5.121	5.193	16930	14983	0	852
4.364	5.950	16904	14959	0	852
4.219	4.688	16872	14950	0	852
4.760	3.714	16847	14968	0	852
5.842	4.111	16824	15015	0	852
8.366	4.688	16803	15103	0	852
9.520	6.311	16787	15230	0	852
10.819	8.907	16773	15364	0	852
12.045	10.783	16762	15489	0	852
10.097	10.927	16751	15618	0	852
9.232	9.196	16747	15767	0	852
9.665	7.176	16741	15930	0	852
8.258	4.940	16741	16095	0	852
6.960	3.282	16741	16246	0	852
6.058	4.327	16744	16379	0	852
4.977	4.977	16741	16492	0	852
1.659	5.301	16745	16601	0	852
2.452	4.904	16749	16712	0	852
2.741	5.157	16756	16812	0	852
4.039	4.832	16758	16897	0	852
5.878	5.193	16763	16972	0	852
6.996	5.950	16773	17045	0	852
7.681	5.229	16780	17105	0	852
6.852	5.157	16781	17125	0	852
7.393	4.183	16778	17084	0	852
6.058	5.229	16774	17006	0	852
5.662	4.400	16770	16943	0	852
4.580	3.714	16769	16912	0	852
3.895	1.406	16767	16891	0	852
1.731	-1.947	16765	16867	0	852
-0.649	-3.859	16765	16837	0	852
0.757	-4.111	16763	16798	0	852
1.262	-1.875	16763	16757	0	852
3.246	0.325	16762	16728	0	852
7.970	1.334	16754	16683	0	852
8.511	1.334	16741	16586	0	852
10.061	0.541	16730	16460	0	852
11.684	0.974	16714	16343	0	852
13.559	1.046	16698	16241	0	852
14.317	1.298	16685	16166	0	852
12.117	0.793	16671	16105	0	852
10.746	0.577	16653	16030	0	852
9.304	0.397	16632	15936	0	852
8.042	1.515	16614	15856	0	852
11.973	1.659	16596	15808	0	852
13.920	1.875	16580	15784	0	852
12.297	2.777	16562	15765	0	852
11.071	3.029	16545	15745	0	852
9.124	3.895	16533	15743	0	852
8.799	6.203	16518	15764	0	852
9.232	6.527	16501	15790	0	852
11.540	7.898	16490	15808	0	852
11.215	7.717	16472	15819	0	852
9.556	8.258	16458	15826	0	852
12.730	8.330	16445	15835	0	852
13.776	9.845	16431	15857	0	852
15.471	10.314	16416	15894	0	852
16.877	11.287	16402	15918	0	852
15.795	11.468	16381	15892	0	852
14.713	9.773	16358	15838	0	852
14.389	10.133	16339	15816	0	852
17.057	8.402	16321	15839	0	852
16.372	9.088	16303	15867	0	852
18.500	8.799	16288	15889	0	852
17.021	8.799	16270	15907	0	852
17.418	8.150	16250	15909	0	852
15.543	6.671	16228	15882	0	852
12.441	3.678	16205	15847	0	852
12.766	2.741	16179	15818	0	852
9.881	2.813	16152	15786	0	852
13.487	5.337	16125	15745	0	852
16.516	8.186	16097	15707	0	852
18.933	9.953	16072	15695	0	852
19.834	10.566	16048	15709	0	852
19.221	8.835	16027	15740	0	852
16.589	6.347	16006	15781	0	852
14.064	4.652	15988	15831	0	852
13.920	4.904	15972	15887	0	852
13.631	3.570	15955	15952	0	852
13.740	3.895	15943	16033	0	852
14.028	3.426	15930	16108	0	852
13.992	4.183	15918	16165	0	852
15.651	4.400	15903	16210	0	852
15.579	6.311	15888	16246	0	852
17.490	7.212	15874	16270	0	852
14.713	6.924	15856	16284	0	852
12.441	5.806	15843	16292	0	852
9.376	4.003	15828	16310	0	852
9.845	4.255	15816	16343	0	852
11.937	4.508	15805	16387	0	852
13.631	4.832	15798	16432	0	852
13.307	6.167	15787	16464	0	852
15.110	8.366	15774	16473	0	852
16.084	10.783	15761	16464	0	852
20.555	14.605	15750	16462	0	852
21.998	16.913	15741	16486	0	852
24.955	16.805	15732	16513	0	852
21.998	14.785	15718	16499	0	852
20.772	13.812	15703	16452	0	852
20.880	13.595	15688	16425	0	852
22.647	18.103	15681	16433	0	852
25.496	22.178	15670	16451	0	852
29.138	25.496	15664	16470	0	852
29.210	26.217	15656	16492	0	852
27.804	24.919	15652	16517	0	852
24.883	22.431	15646	16550	0	852
22.719	19.870	15648	16605	0	852
18.824	17.202	15645	16658	0	852
17.526	13.668	15641	16669	0	852
12.514	9.196	15634	16633	0	852
9.412	4.760	15621	16578	0	852
4.977	2.921	15612	16527	0	852
4.219	2.957	15601	16487	0	852
5.337	4.688	15588	16442	0	852
6.744	7.212	15576	16386	0	852
10.819	8.979	15565	16347	0	852
11.900	7.248	15558	16344	0	852
10.206	5.590	15552	16374	0	852
9.484	2.416	15550	16409	0	852
6.599	1.479	15547	16435	0	852
6.996	2.128	15541	16444	0	852
7.140	3.246	15534	16439	0	852
5.986	2.488	15528	16431	0	852
5.878	-0.108	15523	16425	0	852
3.642	-3.570	15514	16410	0	852
2.741	-5.806	15507	16380	0	852
1.442	-6.419	15496	16351	0	852
2.056	-3.823	15490	16344	0	852
2.813	-2.452	15488	16362	0	852
5.301	-1.298	15483	16385	0	852
5.842	-1.659	15479	16399	0	852
5.265	-4.364	15475	16404	0	852
4.832	-5.590	15472	16416	0	852
3.137	-6.780	15472	16440	0	852
4.364	-5.986	15470	16466	0	852
3.714	-4.111	15470	16490	0	852
3.895	-3.173	15474	16522	0	852
6.203	-1.082	15478	16579	0	852
9.773	2.596	15490	16667	0	852
17.923	7.429	15507	16787	0	852
22.431	11.287	15528	16935	0	852
25.784	14.425	15558	17104	0	852
27.551	13.307	15587	17274	0	852
24.125	10.602	15617	17423	0	852
23.909	8.439	15652	17564	0	852
22.467	5.337	15692	17715	0	852
20.555	5.373	15739	17878	0	852
21.493	5.554	15783	18033	0	852
19.906	6.491	15828	18158	0	852
18.392	7.862	15878	18257	0	852
15.651	6.780	15925	18339	0	852
11.720	2.993	15968	18383	0	852
8.691	-1.082	16014	18388	0	852
5.590	-3.967	16061	18403	0	852
5.770	-3.318	16115	18447	0	852
7.717	0.577	16170	18495	0	852
9.484	4.616	16227	18538	0	852
11.251	6.491	16286	18578	0	852
13.127	7.176	16343	18602	0	852
13.668	6.275	16400	18591	0	852
16.084	6.203	16456	18554	0	852
20.664	8.799	16509	18509	0	852
24.017	11.251	16565	18457	0	852
24.775	14.317	16618	18388	1	828
25.388	15.651	16669	18289	0	828
24.847	17.021	16714	18171	0	828
22.467	17.526	16762	18049	0	828
20.952	18.428	16807	17932	0	828
21.565	20.050	16853	17815	0	828
19.582	21.421	16890	17682	0	828
20.195	21.313	16933	17536	0	828
17.815	18.897	16967	17382	0	828
17.346	17.057	17000	17224	0	828
13.992	13.848	17031	17059	0	828
11.432	11.143	17058	16887	0	828
9.016	10.927	17080	16713	0	828
6.816	10.314	17104	16542	0	828
5.409	11.432	17122	16384	0	828
7.862	13.343	17141	16249	0	828
8.907	12.081	17163	16135	0	828
10.206	10.891	17176	16027	0	828
9.520	7.898	17184	15877	0	828
8.583	4.219	17187	15692	0	828
7.068	2.813	17189	15531	0	828
6.744	2.380	17192	15416	0	828
7.789	2.921	17194	15325	0	828
6.022	3.714	17192	15244	0	828
7.357	3.823	17192	15161	0	828
6.599	4.291	17185	15070	0	828
5.626	3.246	17174	14975	0	828
5.229	2.452	17162	14883	0	828
4.940	1.695	17152	14821	0	828
3.210	1.695	17141	14786	0	828
6.275	1.226	17125	14756	0	828
7.429	2.236	17114	14731	0	828
7.321	3.029	17100	14733	0	828
8.655	3.750	17089	14760	0	828
5.770	3.750	17074	14794	0	828
6.635	4.291	17061	14828	0	828
6.635	3.787	17050	14877	0	828
9.016	4.327	17040	14953	0	828
9.088	3.210	17032	15053	0	828
6.527	3.426	17027	15157	0	828
4.580	1.262	17018	15248	0	828
1.406	-0.397	17009	15325	0	828
1.659	0.577	17000	15396	0	828
4.760	1.190	16989	15461	0	828
7.501	3.426	16978	15523	0	828
9.412	4.544	16974	15595	0	828
7.645	3.570	16963	15679	0	828
5.337	2.777	16952	15749	0	828
3.498	1.947	16944	15796	0	828
3.029	2.849	16934	15839	0	828
6.275	5.409	16923	15885	0	828
8.583	6.311	16916	15932	0	828
9.304	7.537	16907	15985	0	828
10.710	6.924	16898	16044	0	828
11.143	6.491	16894	16099	0	828
12.009	6.924	16885	16146	0	828
15.651	8.655	16874	16175	0	828
17.021	11.720	16865	16187	0	828
19.437	13.451	16850	16187	0	828
20.447	15.831	16838	16180	0	828
21.673	15.651	16829	16189	0	828
20.014	14.966	16821	16222	0	828
20.231	14.064	16816	16271	0	828
21.349	14.533	16809	16304	0	828
20.014	12.694	16800	16317	0	828
21.313	12.441	16792	16329	0	828
19.473	11.756	16787	16359	0	828
20.483	12.333	16784	16402	0	828
20.555	13.704	16778	16441	0	828
23.729	16.300	16774	16459	0	828
25.820	18.320	16769	16478	0	828
24.702	18.500	16769	16509	0	828
22.286	16.661	16765	16539	0	828
18.103	13.668	16762	16557	0	828
14.894	11.035	16758	16560	0	828
13.884	7.140	16754	16556	0	828
14.028	7.465	16751	16554	0	828
13.740	6.744	16749	16569	0	828
16.661	7.501	16747	16589	0	828
15.903	7.537	16745	16593	0	828
17.706	6.563	16741	16576	0	828
16.300	7.501	16736	16553	0	828
17.093	6.167	16730	16534	0	828
15.146	5.554	16725	16513	0	828
14.533	4.111	16720	16476	0	828
13.884	3.029	16709	16427	0	828
12.405	2.488	16700	16371	0	828
13.848	2.236	16685	16304	0	828
11.864	4.147	16671	16233	0	828
13.776	4.796	16654	16158	0	828
12.297	4.904	16636	16082	0	828
12.009	4.977	16618	16006	0	828
13.956	6.419	16594	15915	0	828
15.939	6.239	16569	15815	0	828
17.562	7.212	16547	15734	0	828
20.339	10.314	16522	15670	0	828
22.070	11.071	16490	15593	0	828
20.952	13.307	16461	15500	0	828
24.702	15.254	16429	15423	0	828
23.621	15.218	16402	15382	0	828
23.008	12.477	16379	15378	0	828
22.755	10.133	16355	15406	0	828
20.159	9.484	16332	15443	0	828
21.385	9.412	16312	15480	0	828
22.178	11.864	16294	15532	0	828
21.241	12.081	16274	15606	0	828
22.755	11.937	16259	15685	0	828
19.546	10.710	16245	15752	0	828
18.500	10.674	16224	15805	0	828
18.644	11.576	16208	15852	0	828
18.320	12.153	16192	15904	0	828
19.293	11.071	16177	15961	0	828
17.706	10.638	16159	16007	0	828
18.933	10.386	16141	16037	0	828
15.939	8.691	16126	16053	0	828
17.166	8.979	16104	16066	0	828
15.435	7.681	16090	16093	0	828
15.507	8.402	16074	16133	0	828
15.615	8.258	16059	16168	0	828
14.569	8.835	16041	16195	0	828
15.651	6.094	16028	16226	0	828
11.468	1.839	16017	16268	0	828
10.674	-2.128	16006	16321	0	828
8.655	-3.750	15998	16384	0	828
8.186	-4.508	15992	16444	0	828
7.681	-2.813	15981	16482	0	828
10.927	-0.757	15972	16504	0	828
13.091	0.938	15961	16519	0	828
13.812	2.885	15950	16521	0	828
14.497	3.714	15941	16507	0	828
14.028	3.462	15925	16485	0	828
13.343	2.380	15910	16462	0	828
16.480	2.452	15896	16430	0	828
18.969	5.049	15881	16384	0	828
21.818	6.960	15863	16347	0	828
21.096	8.222	15848	16323	0	828
19.113	8.475	15830	16289	0	828
18.644	8.006	15810	16235	0	828
17.959	9.160	15790	16187	0	828
21.168	9.989	15774	16158	0	828
21.637	11.756	15755	16145	0	828
22.503	11.215	15739	16126	0	828
23.224	11.900	15719	16091	0	828
21.529	13.127	15701	16067	0	828
22.899	15.579	15685	16072	0	828
21.241	15.795	15672	16093	0	828
19.401	12.297	15656	16115	0	828
15.723	7.357	15645	16134	0	828
11.035	2.344	15635	16163	0	828
8.655	0.180	15623	16208	0	828
9.917	0.685	15617	16268	0	828
11.432	4.219	15614	16334	0	828
12.586	5.842	15606	16389	0	828
12.694	7.321	15601	16432	0	828
12.910	8.655	15595	16470	0	828
9.701	8.114	15594	16516	0	828
11.504	6.744	15592	16564	0	828
11.828	4.724	15588	16602	0	828
11.576	2.741	15584	16629	0	828
10.422	1.587	15583	16643	0	828
10.566	2.416	15577	16648	0	828
11.287	5.193	15572	16642	0	828
12.117	7.537	15565	16625	0	828
14.605	8.619	15558	16594	0	828
14.136	9.484	15548	16554	0	828
15.326	7.753	15536	16497	0	828
15.579	9.520	15526	16443	0	828
17.598	10.638	15519	16428	0	828
20.411	12.802	15515	16455	0	828
21.998	13.668	15508	16468	0	828
19.149	10.783	15497	16429	0	828
17.166	8.258	15486	16361	0	828
14.172	5.734	15474	16305	0	828
14.353	6.383	15467	16291	0	828
14.425	6.203	15459	16307	0	828
14.497	6.383	15457	16333	0	828
13.631	3.642	15454	16362	0	828
8.619	0.541	15457	16416	0	828
4.291	-2.524	15467	16523	0	828
1.911	-3.823	15483	16676	0	828
0.938	-3.642	15507	16859	0	828
0.505	-4.255	15534	17052	0	828
0.288	-4.291	15566	17249	0	828
1.695	-5.301	15599	17439	0	828
0.793	-5.301	15639	17615	0	828
1.659	-5.662	15683	17801	0	828
2.344	-4.688	15730	17996	0	828
3.750	-3.895	15783	18186	0	828
3.282	-4.544	15839	18380	0	828
5.193	-3.173	15904	18585	0	828
8.366	-0.361	15970	18779	0	828
11.900	4.436	16035	18940	0	828
18.536	8.439	16104	19064	0	828
19.077	12.586	16168	19140	0	828
21.457	14.749	16232	19172	0	828
22.070	15.182	16299	19189	0	828
23.152	15.182	16363	19191	0	828
25.604	16.877	16427	19168	0	828
27.912	16.805	16490	19126	0	828
25.352	16.589	16554	19070	0	828
21.890	15.759	16616	18997	0	828
18.680	13.054	16676	18896	1	804
14.064	10.674	16729	18756	0	804
16.336	8.511	16780	18576	0	804
18.500	9.629	16824	18364	0	804
21.745	10.638	16864	18132	0	804
25.243	13.307	16900	17903	0	804
26.037	15.074	16938	17688	0	804
25.604	15.687	16970	17478	0	804
20.123	13.559	17002	17267	0	804
17.562	11.251	17031	17062	0	804
13.487	8.727	17058	16870	0	804
12.189	6.780	17087	16701	0	804
11.071	6.094	17112	16553	0	804
9.196	4.652	17138	16417	0	804
8.114	3.173	17160	16281	0	804
7.321	1.190	17180	16146	0	804
8.835	1.154	17200	16024	0	804
10.422	2.056	17216	15916	0	804
10.602	2.092	17231	15810	0	804
7.645	3.029	17243	15699	0	804
7.357	2.957	17253	15598	0	804
9.160	3.714	17264	15525	0	804
14.208	3.282	17280	15486	0	804
16.084	4.760	17290	15466	0	804
14.785	4.111	17300	15443	0	804
14.461	4.977	17309	15413	0	804
12.117	5.409	17312	15377	0	804
13.235	7.753	17320	15347	0	804
15.038	6.960	17323	15334	0	804
12.441	5.445	17329	15327	0	804
10.242	4.580	17330	15320	0	804
7.032	3.065	17333	15317	0	804
7.465	3.534	17336	15321	0	804
9.665	4.688	17333	15326	0	804
14.245	6.852	17333	15329	0	804
15.723	7.501	17329	15328	0	804
19.473	10.314	17325	15325	0	804
19.437	12.802	17318	15319	0	804
20.664	15.290	17311	15309	0	804
19.762	17.021	17300	15299	0	804
19.906	17.743	17290	15294	0	804
18.572	17.021	17278	15292	0	804
18.428	15.579	17267	15292	0	804
16.408	13.668	17254	15294	0	804
17.562	10.746	17238	15289	0	804
15.002	10.566	17221	15280	0	804
16.156	10.566	17205	15277	0	804
13.054	10.206	17187	15279	0	804
12.333	9.845	17167	15277	0	804
10.566	6.275	17151	15285	0	804
8.042	3.065	17136	15324	0	804
10.206	2.019	17122	15394	0	804
12.874	3.101	17112	15475	0	804
15.254	7.248	17101	15555	0	804
18.392	9.016	17096	15650	0	804
15.939	9.701	17090	15767	0	804
13.776	8.042	17087	15880	0	804
12.477	5.517	17082	15976	0	804
10.819	5.157	17078	16047	0	804
13.740	4.904	17071	16105	0	804
13.992	6.167	17067	16170	0	804
11.071	4.436	17065	16257	0	804
9.016	0.721	17065	16346	0	804
5.085	-3.859	17064	16409	0	804
3.462	-6.311	17056	16435	0	804
4.219	-4.832	17043	16407	0	804
7.285	-1.731	17031	16350	0	804
9.665	0.865	17018	16312	0	804
8.619	0.902	17009	16302	0	804
6.203	-1.911	16998	16302	0	804
3.029	-5.517	16989	16307	0	804
1.479	-5.049	16981	16324	0	804
4.508	-3.101	16976	16354	0	804
8.583	-0.036	16970	16385	0	804
13.487	3.065	16965	16400	0	804
12.694	4.472	16954	16383	0	804
14.172	4.291	16940	16335	0	804
11.756	2.777	16927	16274	0	804
11.648	4.327	16909	16220	0	804
12.369	5.301	16896	16181	0	804
11.432	6.708	16878	16146	0	804
10.999	7.609	16861	16097	0	804
11.684	8.114	16842	16043	0	804
11.864	7.898	16827	16019	0	804
13.271	10.422	16818	16041	0	804
18.103	12.045	16807	16082	0	804
19.077	15.218	16796	16109	0	804
22.611	17.057	16784	16111	0	804
22.935	18.247	16769	16099	0	804
22.467	17.995	16758	16088	0	804
23.224	17.238	16738	16071	0	804
21.529	15.903	16720	16035	0	804
21.024	14.425	16700	15987	0	804
21.277	13.848	16678	15949	0	804
18.680	14.425	16661	15932	0	804
19.437	13.343	16647	15936	0	804
19.257	13.956	16629	15951	0	804
20.664	13.235	16613	15965	0	804
20.808	13.740	16600	15978	0	804
20.916	12.802	16584	15994	0	804
17.887	12.982	16573	16024	0	804
17.815	12.153	16560	16065	0	804
16.877	12.946	16545	16099	0	804
19.762	13.487	16530	16117	0	804
23.368	14.930	16520	16131	0	804
22.431	14.136	16507	16153	0	804
22.106	12.694	16493	16178	0	804
15.903	7.898	16480	16188	0	804
13.091	4.977	16460	16163	0	804
10.422	3.318	16434	16094	0	804
10.386	4.219	16410	16009	0	804
13.271	5.878	16387	15948	0	804
13.235	7.357	16365	15912	0	804
14.281	4.868	16341	15890	0	804
11.468	0.902	16323	15879	0	804
8.799	-2.777	16297	15878	0	804
5.770	-5.517	16283	15893	0	804
7.465	-4.003	16267	15943	0	804
9.484	-1.659	16256	16014	0	804
11.323	1.695	16239	16059	0	804
13.054	3.137	16221	16070	0	804
11.792	3.787	16205	16070	0	804
10.458	3.246	16187	16077	0	804
11.323	2.236	16170	16092	0	804
13.199	2.633	16154	16111	0	804
13.595	1.911	16137	16119	0	804
14.353	0.649	16115	16106	0	804
14.100	1.154	16096	16091	0	804
12.514	2.416	16079	16090	0	804
13.631	3.967	16059	16095	0	804
12.802	5.121	16041	16096	0	804
14.028	7.104	16023	16094	0	804
13.631	6.708	16006	16099	0	804
12.766	6.275	15990	16128	0	804
12.081	6.131	15981	16181	0	804
10.746	4.039	15968	16240	0	804
8.258	2.164	15959	16283	0	804
9.160	0.649	15947	16311	0	804
9.845	1.370	15937	16344	0	804
12.081	3.390	15928	16394	0	804
12.694	4.364	15923	16448	0	804
13.199	3.101	15914	16486	0	804
9.845	1.551	15908	16506	0	804
7.501	-0.649	15897	16520	0	804
10.710	-0.216	15890	16532	0	804
14.064	3.210	15881	16541	0	804
19.690	6.419	15872	16545	0	804
22.539	10.927	15863	16528	0	804
23.657	12.153	15846	16480	0	804
19.618	12.441	15828	16414	0	804
15.867	9.304	15812	16350	0	804
11.937	3.787	15795	16295	0	804
7.681	-1.406	15776	16252	0	804
8.294	-3.606	15758	16203	0	804
9.124	-0.685	15730	16118	0	804
12.658	4.688	15707	16017	0	804
17.166	9.629	15690	15971	0	804
20.483	13.415	15674	15994	0	804
23.116	12.946	15664	16042	0	804
23.873	11.720	15650	16080	0	804
22.250	8.655	15639	16109	0	804
19.762	7.104	15627	16141	0	804
15.831	5.770	15623	16188	0	804
16.516	5.265	15616	16248	0	804
16.372	6.708	15608	16306	0	804
18.824	7.104	15599	16345	0	804
17.923	6.167	15594	16376	0	804
19.221	6.383	15590	16414	0	804
16.949	5.950	15587	16458	0	804
16.048	6.744	15581	16490	0	804
16.552	7.609	15572	16504	0	804
19.041	8.547	15566	16507	0	804
18.716	9.845	15561	16514	0	804
20.123	9.629	15558	16533	0	804
18.428	10.278	15554	16560	0	804
16.336	8.547	15548	16575	0	804
12.622	8.078	15539	16551	0	804
11.251	6.239	15530	16508	0	804
8.907	7.068	15528	16507	0	804
8.691	6.924	15530	16561	0	804
9.376	7.789	15536	16643	0	804
12.514	7.898	15544	16739	0	804
13.018	6.347	15561	16853	0	804
12.802	4.400	15581	16982	0	804
12.550	1.587	15603	17125	0	804
9.737	0.361	15634	17291	0	804
6.960	1.731	15667	17476	0	804
6.960	3.534	15708	17665	0	804
4.904	4.183	15748	17837	0	804
3.967	4.039	15790	17997	0	804
4.472	1.587	15839	18149	0	804
5.986	0.613	15885	18268	0	804
8.439	1.767	15930	18350	0	804
13.307	4.364	15979	18429	0	804
14.641	5.554	16030	18516	0	804
14.317	6.816	16088	18611	0	804
13.415	4.544	16150	18718	0	804
10.602	1.695	16217	18834	0	804
8.258	-0.180	16283	18935	0	804
10.278	-0.721	16352	19008	0	804
9.845	1.479	16421	19069	0	804
10.386	4.291	16494	19129	0	804
10.819	8.691	16565	19166	0	804
11.432	10.206	16634	19157	0	804
11.973	11.612	16700	19098	0	804
13.451	12.982	16763	19008	0	804
17.093	12.910	16825	18905	0	804
18.031	13.451	16887	18795	1	828
17.490	13.559	16945	18672	0	828
14.028	12.694	17000	18524	0	828
11.504	10.638	17054	18354	0	828
8.871	8.366	17101	18177	0	828
6.563	6.383	17151	18000	0	828
7.537	5.445	17196	17820	0	828
7.212	5.734	17236	17635	0	828
8.439	7.862	17278	17447	0	828
9.520	9.701	17314	17257	0	828
10.746	9.701	17347	17064	0	828
11.071	8.979	17380	16880	0	828
9.268	6.527	17410	16706	0	828
7.032	5.085	17438	16538	0	828
6.311	3.282	17461	16372	0	828
6.816	3.750	17482	16198	0	828
8.222	4.039	17496	16020	0	828
9.845	5.193	17512	15850	0	828
9.953	5.013	17522	15695	0	828
9.881	4.724	17533	15552	0	828
8.727	3.426	17538	15421	0	828
9.665	3.606	17544	15296	0	828
11.468	4.400	17547	15181	0	828
14.749	7.176	17547	15087	0	828
14.497	10.061	17551	15016	0	828
17.166	10.206	17547	14954	0	828
16.336	9.773	17541	14892	0	828
18.356	7.645	17540	14839	0	828
16.949	6.888	17533	14802	0	828
19.546	6.347	17527	14779	0	828
16.625	5.986	17516	14759	0	828
13.884	6.419	17507	14733	0	828
9.160	4.652	17493	14714	0	828
6.094	2.416	17482	14712	0	828
3.354	0.793	17471	14726	0	828
3.498	-0.180	17456	14747	0	828
6.419	0.325	17442	14773	0	828
9.232	4.832	17427	14800	0	828
12.045	8.439	17409	14823	0	828
12.189	10.783	17394	14851	0	828
14.245	11.828	17376	14895	0	828
12.081	11.612	17360	14950	0	828
13.487	9.340	17345	15006	0	828
13.127	7.609	17330	15076	0	828
11.251	6.311	17316	15165	0	828
10.566	3.065	17309	15272	0	828
10.746	2.921	17296	15378	0	828
11.071	2.741	17283	15450	0	828
11.107	3.823	17267	15481	0	828
12.045	4.436	17249	15513	0	828
10.891	6.131	17232	15570	0	828
8.186	6.671	17221	15635	0	828
9.088	7.934	17207	15705	0	828
8.078	8.078	17196	15784	0	828
10.242	6.744	17189	15862	0	828
11.828	6.671	17178	15948	0	828
16.264	6.527	17176	16061	0	828
16.264	7.970	17174	16197	0	828
17.129	11.504	17174	16311	0	828
16.084	13.451	17167	16370	0	828
15.435	14.533	17162	16394	0	828
14.245	13.235	17152	16418	0	828
14.749	12.009	17147	16452	0	828
15.471	8.943	17144	16492	0	828
14.136	9.268	17136	16518	0	828
14.749	10.350	17129	16520	0	828
13.776	12.514	17122	16517	0	828
15.146	13.776	17112	16524	0	828
14.749	14.821	17111	16541	0	828
13.018	12.045	17101	16553	0	828
12.514	10.314	17098	16553	0	828
8.619	9.268	17090	16557	0	828
6.852	7.934	17089	16569	0	828
8.655	7.248	17087	16584	0	828
7.970	5.337	17080	16586	0	828
8.691	4.796	17076	16569	0	828
8.150	5.013	17069	16544	0	828
10.566	8.727	17061	16523	0	828
9.917	10.602	17056	16513	0	828
11.215	10.638	17053	16509	0	828
10.783	8.006	17047	16501	0	828
12.730	5.878	17038	16482	0	828
12.910	5.554	17031	16451	0	828
13.595	7.970	17024	16415	0	828
15.579	9.304	17014	16380	0	828
14.064	9.737	17002	16332	0	828
14.569	8.294	16989	16273	0	828
15.579	8.366	16974	16215	0	828
18.211	8.799	16962	16163	0	828
17.526	10.278	16945	16113	0	828
17.743	9.592	16925	16054	0	828
16.264	10.061	16905	15976	0	828
18.933	8.979	16880	15884	0	828
17.851	10.999	16854	15788	0	828
21.060	13.235	16829	15695	0	828
20.952	14.317	16800	15619	0	828
23.512	14.317	16773	15568	0	828
24.414	13.595	16747	15532	0	828
26.614	13.992	16720	15494	0	828
27.155	12.946	16689	15448	0	828
27.551	13.271	16664	15417	0	828
23.152	11.179	16636	15417	0	828
21.024	9.448	16614	15449	0	828
19.257	7.357	16591	15494	0	828
15.687	7.104	16569	15534	0	828
17.815	8.078	16549	15572	0	828
17.382	8.727	16525	15616	0	828
19.906	10.963	16505	15666	0	828
19.257	11.973	16485	15714	0	828
19.401	12.441	16464	15752	0	828
17.923	11.323	16442	15788	0	828
17.851	9.016	16424	15833	0	828
15.939	7.321	16407	15890	0	828
15.939	4.977	16387	15952	0	828
13.379	5.157	16370	15995	0	828
14.389	4.364	16344	15992	0	828
13.163	5.662	16314	15928	0	828
13.379	5.770	16281	15845	0	828
14.317	6.347	16254	15808	0	828
13.235	5.806	16224	15814	0	828
11.612	5.409	16201	15838	0	828
12.333	3.823	16179	15877	0	828
10.458	4.075	16161	15935	0	828
11.937	4.183	16147	16010	0	828
10.386	3.967	16132	16096	0	828
10.314	4.940	16115	16168	0	828
7.501	3.173	16099	16205	0	828
7.537	1.983	16079	16214	0	828
6.527	1.262	16057	16212	0	828
6.419	1.010	16041	16219	0	828
7.212	1.515	16023	16240	0	828
6.311	2.236	16006	16270	0	828
7.717	2.885	15988	16292	0	828
8.258	1.875	15972	16302	0	828
10.206	2.416	15955	16312	0	828
11.864	4.039	15941	16337	0	828
14.425	6.527	15928	16379	0	828
16.120	10.746	15918	16422	0	828
20.159	12.081	15908	16459	0	828
20.087	12.658	15897	16498	0	828
22.250	12.730	15890	16541	0	828
21.313	11.215	15883	16577	0	828
21.637	11.612	15874	16604	0	828
20.411	11.323	15868	16630	0	828
15.435	7.645	15861	16657	0	828
12.477	4.977	15857	16685	0	828
7.898	1.118	15850	16716	0	828
5.878	-0.072	15850	16739	0	828
4.291	-0.361	15845	16748	0	828
4.832	1.010	15838	16747	0	828
5.806	3.642	15834	16746	0	828
12.009	6.563	15832	16749	0	828
16.228	11.973	15824	16749	0	828
21.962	13.920	15821	16737	0	828
21.168	15.218	15817	16717	0	828
19.113	13.487	15812	16702	0	828
14.677	10.999	15806	16688	0	828
14.136	10.602	15801	16669	0	828
15.146	12.766	15795	16636	0	828
17.418	14.533	15788	16593	0	828
17.779	15.074	15779	16544	0	828
16.444	12.514	15768	16490	0	828
11.360	7.321	15758	16438	0	828
7.248	3.642	15747	16389	0	828
3.823	1.731	15737	16345	0	828
5.626	2.200	15723	16293	0	828
7.032	4.111	15707	16217	0	828
8.727	4.400	15690	16138	0	828
9.845	3.101	15683	16117	0	828
8.691	4.291	15678	16161	0	828
9.773	5.554	15670	16211	0	828
9.484	7.140	15667	16234	0	828
8.835	6.960	15661	16250	0	828
7.248	4.039	15661	16288	0	828
3.787	-0.288	15661	16361	0	828
0.829	-3.282	15672	16468	0	828
1.190	-3.787	15683	16602	0	828
2.308	-2.669	15701	16744	0	828
3.029	-1.803	15725	16905	0	828
6.239	-2.993	15754	17097	0	828
7.609	-2.596	15788	17310	0	828
8.330	-3.318	15827	17524	0	828
11.360	-1.731	15870	17728	0	828
12.766	-0.180	15918	17926	0	828
13.523	1.226	15972	18135	0	828
16.552	1.154	16032	18362	0	828
15.110	0.649	16094	18586	0	828
15.903	0.180	16159	18778	0	828
14.930	0.036	16227	18933	0	828
16.264	0.361	16294	19068	0	828
15.002	0.938	16365	19188	0	828
14.172	2.164	16436	19283	0	828
16.048	3.714	16507	19337	0	828
14.497	6.744	16576	19357	0	828
17.093	9.052	16643	19351	0	828
16.372	10.458	16712	19318	0	828
16.589	9.448	16776	19258	0	828
14.064	7.537	16842	19172	0	828
11.937	4.255	16901	19064	1	792
13.704	4.003	16960	18929	0	792
13.127	4.291	17013	18755	0	792
14.858	5.950	17065	18561	0	792
13.415	6.311	17120	18392	0	792
9.412	4.760	17170	18247	0	792
7.465	3.570	17216	18071	0	792
4.183	2.092	17253	17837	0	792
3.498	2.813	17289	17573	0	792
4.940	4.832	17320	17316	0	792
5.409	5.842	17347	17085	0	792
5.337	6.960	17374	16875	0	792
5.049	6.239	17398	16668	0	792
4.183	4.472	17418	16457	0	792
3.390	4.508	17436	16252	0	792
2.921	3.246	17450	16057	0	792
2.488	3.173	17465	15882	0	792
2.885	2.164	17476	15734	0	792
1.262	1.767	17490	15610	0	792
0.938	0.974	17504	15508	0	792
1.046	2.596	17514	15430	0	792
3.173	4.580	17527	15368	0	792
4.111	5.986	17534	15314	0	792
4.652	5.229	17541	15263	0	792
5.049	5.229	17551	15222	0	792
4.580	4.147	17556	15196	0	792
6.167	5.049	17563	15191	0	792
8.439	7.825	17570	15197	0	792
10.350	9.160	17573	15195	0	792
12.730	12.117	17574	15184	0	792
12.369	12.153	17576	15177	0	792
11.684	11.684	17578	15179	0	792
12.982	10.746	17574	15184	0	792
11.396	9.484	17569	15180	0	792
10.530	10.061	17563	15161	0	792
11.684	9.953	17554	15135	0	792
11.251	11.143	17540	15101	0	792
10.386	10.710	17529	15067	0	792
14.677	11.756	17511	15041	0	792
17.129	13.956	17498	15029	0	792
20.916	16.192	17478	15024	0	792
25.207	19.113	17460	15004	0	792
26.578	21.024	17436	14966	0	792
27.479	20.916	17413	14935	0	792
24.594	18.716	17389	14927	0	792
23.044	14.966	17367	14936	0	792
20.195	10.602	17341	14945	0	792
16.264	6.744	17314	14953	0	792
16.300	6.275	17294	14986	0	792
16.048	6.996	17278	15062	0	792
17.923	7.321	17260	15171	0	792
18.139	7.429	17250	15291	0	792
18.897	5.265	17234	15398	0	792
16.805	4.688	17216	15469	0	792
17.202	4.580	17198	15512	0	792
15.615	6.888	17181	15575	0	792
18.320	9.917	17169	15671	0	792
16.516	9.881	17160	15777	0	792
15.723	8.871	17151	15888	0	792
11.143	5.049	17145	16014	0	792
8.727	0.757	17147	16162	0	792
4.977	-1.515	17149	16323	0	792
4.652	-1.551	17151	16460	0	792
5.301	1.406	17147	16538	0	792
7.429	4.364	17141	16569	0	792
9.917	8.727	17140	16617	0	792
10.458	10.638	17141	16692	0	792
10.783	10.602	17144	16764	0	792
9.448	8.330	17144	16820	0	792
8.150	6.924	17147	16874	0	792
5.193	5.914	17154	16927	0	792
6.131	7.753	17156	16966	0	792
7.104	9.953	17158	16981	0	792
8.258	12.694	17160	16977	0	792
10.674	11.720	17160	16958	0	792
13.884	11.792	17156	16921	0	792
14.064	11.396	17152	16870	0	792
14.713	10.819	17149	16815	0	792
16.661	12.117	17144	16761	0	792
14.281	12.550	17136	16708	0	792
14.858	11.648	17130	16649	0	792
14.497	12.333	17122	16580	0	792
15.002	12.946	17114	16510	0	792
13.415	11.432	17104	16450	0	792
10.278	10.169	17096	16396	0	792
9.376	7.862	17080	16325	0	792
8.402	5.193	17065	16227	0	792
7.970	4.255	17045	16116	0	792
8.907	5.121	17020	15985	0	792
8.294	4.868	16992	15844	0	792
5.517	4.327	16967	15730	0	792
3.967	2.560	16941	15652	0	792
4.039	0.938	16920	15596	0	792
4.075	1.154	16896	15565	0	792
6.852	1.731	16876	15551	0	792
7.789	2.560	16853	15541	0	792
9.953	1.803	16832	15528	0	792
9.376	0.288	16809	15523	0	792
8.763	-2.164	16789	15539	0	792
8.114	-2.200	16770	15578	0	792
10.494	-1.551	16756	15636	0	792
10.963	0.505	16740	15692	0	792
13.199	2.056	16722	15738	0	792
15.831	3.065	16709	15780	0	792
17.166	3.462	16689	15818	0	792
20.267	4.219	16674	15850	0	792
20.339	3.462	16658	15891	0	792
21.168	5.373	16647	15946	0	792
20.159	6.780	16631	16001	0	792
20.483	7.898	16618	16043	0	792
22.106	9.484	16602	16075	0	792
20.916	7.789	16585	16094	0	792
20.952	7.176	16567	16101	0	792
15.975	4.868	16549	16096	0	792
15.831	3.823	16530	16086	0	792
14.208	4.940	16511	16079	0	792
16.264	5.590	16490	16071	0	792
15.615	5.770	16471	16057	0	792
15.254	5.481	16449	16036	0	792
13.631	3.462	16421	15994	0	792
10.855	1.587	16396	15944	0	792
11.107	0.974	16376	15928	0	792
11.071	1.767	16355	15942	0	792
10.783	3.210	16332	15935	0	792
14.713	4.147	16303	15891	0	792
14.930	6.527	16275	15839	0	792
16.228	6.852	16246	15809	0	792
15.146	6.239	16223	15808	0	792
13.235	6.599	16203	15830	0	792
15.831	7.357	16181	15864	0	792
17.057	9.412	16161	15895	0	792
20.159	9.448	16141	15936	0	792
18.572	9.268	16126	15995	0	792
16.552	5.842	16112	16065	0	792
11.648	5.265	16097	16131	0	792
13.812	6.491	16085	16185	0	792
14.172	8.907	16070	16230	0	792
13.848	10.206	16059	16282	0	792
14.858	7.645	16048	16344	0	792
11.973	7.645	16041	16412	0	792
13.920	7.753	16032	16463	0	792
15.939	11.107	16014	16466	0	792
16.769	13.127	15995	16430	0	792
17.454	13.415	15981	16404	0	792
14.785	10.097	15966	16405	0	792
13.235	4.977	15954	16412	0	792
10.314	1.370	15943	16415	0	792
7.573	-1.010	15928	16422	0	792
9.484	-1.515	15915	16432	0	792
10.133	0.613	15904	16437	0	792
12.802	3.426	15897	16457	0	792
15.615	3.931	15890	16501	0	792
12.766	2.596	15883	16529	0	792
9.737	0.361	15868	16515	0	792
9.701	-1.767	15857	16478	0	792
9.773	-1.370	15841	16448	0	792
11.720	1.082	15830	16431	0	792
14.677	3.823	15819	16414	0	792
15.326	5.157	15801	16380	0	792
14.317	5.698	15783	16325	0	792
14.858	5.698	15768	16282	0	792
13.523	6.275	15755	16271	0	792
16.012	7.753	15748	16286	0	792
15.975	8.294	15736	16302	0	792
17.274	9.268	15725	16306	0	792
15.362	9.881	15712	16303	0	792
11.576	8.727	15701	16302	0	792
9.953	5.914	15692	16301	0	792
6.635	1.947	15679	16303	0	792
4.796	-0.541	15672	16312	0	792
4.255	-0.938	15663	16332	0	792
3.570	2.128	15661	16370	0	792
5.770	4.940	15657	16428	0	792
7.176	5.950	15659	16503	0	792
8.691	4.075	15661	16582	0	792
8.835	0.829	15670	16672	0	792
5.770	-0.902	15679	16777	0	792
5.590	-0.613	15696	16908	0	792
4.724	-0.433	15718	17058	0	792
6.816	1.406	15741	17213	0	792
8.402	2.236	15770	17371	0	792
9.881	2.452	15805	17541	0	792
12.730	1.911	15843	17727	0	792
13.631	1.298	15890	17924	0	792
14.605	2.092	15937	18120	0	792
17.923	3.895	15987	18295	0	792
18.139	7.681	16035	18431	0	792
20.772	12.369	16086	18527	0	792
21.637	14.172	16136	18600	0	792
23.693	16.877	16192	18672	0	792
24.991	18.500	16246	18747	0	792
24.558	20.447	16303	18801	0	792
23.801	21.781	16358	18823	0	792
22.178	22.539	16416	18837	0	792
17.706	19.221	16478	18875	0	792
17.887	15.759	16549	18935	0	792
16.048	13.127	16616	18987	0	792
18.788	12.441	16680	18998	0	792
19.077	12.297	16744	18963	0	792
20.195	12.369	16805	18898	0	792
19.149	12.586	16867	18822	0	792
16.372	10.025	16925	18729	0	792
11.215	9.845	16980	18604	1	808
10.242	9.629	17031	18444	0	808
6.852	11.215	17078	18267	0	808
6.527	12.297	17123	18087	0	808
5.013	11.287	17167	17910	0	808
5.337	9.665	17209	17733	0	808
2.416	4.544	17245	17551	0	808
2.164	0.721	17282	17361	0	808
2.236	-2.669	17314	17159	0	808
2.380	-3.462	17338	16944	0	808
2.344	-4.544	17362	16729	0	808
3.246	-4.400	17381	16522	0	808
4.219	-4.147	17400	16329	0	808
3.534	-1.911	17420	16158	0	808
3.967	-1.154	17438	16019	0	808
3.462	-0.144	17454	15905	0	808
4.075	-1.515	17474	15814	0	808
5.301	-3.714	17490	15741	0	808
5.914	-4.832	17505	15675	0	808
7.140	-4.832	17522	15611	0	808
6.671	-3.534	17534	15553	0	808
4.796	-4.436	17545	15506	0	808
3.246	-4.796	17556	15462	0	808
3.606	-6.167	17562	15414	0	808
3.534	-7.934	17565	15348	0	808
5.193	-7.429	17569	15278	0	808
6.347	-5.770	17573	15250	0	808
6.275	-4.219	17578	15263	0	808
6.383	-1.911	17580	15263	0	808
11.143	0.505	17576	15224	0	808
16.769	2.308	17569	15162	0	808
21.421	4.436	17560	15109	0	808
