neuroNicle FX2
D3F25R12
Bluetooth SPP
2023년 4월 4일 화요일
오후 4:57
time interval = 4msec
EEG1	EEG2	PPG	sdPPG	pulse	peak_interval(msec)
-73.567	-73.242	22749	13143	0	992
-80.418	-79.048	22581	12549	0	992
-78.940	-83.015	22330	11829	0	992
-73.458	-84.926	22137	11305	0	992
-65.885	-80.346	21928	11090	0	992
-62.495	-75.225	21844	11127	0	992
-63.325	-67.616	21802	11422	0	992
-70.573	-63.145	21760	11899	0	992
-77.209	-63.361	21760	12404	0	992
-82.113	-69.311	21786	12891	0	992
-84.169	-76.956	21827	13400	0	992
-85.611	-79.877	21844	13971	0	992
-84.349	-78.759	21953	14579	0	992
-77.714	-74.901	22037	15145	0	992
-73.675	-71.475	22095	15650	0	992
-71.114	-73.855	22221	16127	0	992
-78.471	-80.094	22305	16594	0	992
-83.195	-84.457	22414	16963	0	992
-83.484	-84.349	22347	16987	0	992
-76.740	-75.658	22305	16655	0	992
-68.554	-70.790	22204	16305	0	992
-68.662	-71.475	22179	16174	0	992
-76.884	-76.415	22179	16268	0	992
-88.785	-84.025	22263	16552	0	992
-91.453	-85.070	22347	16907	0	992
-87.450	-79.950	22347	17071	0	992
-78.579	-76.956	22372	17020	0	992
-73.170	-77.173	22347	16907	0	992
-75.225	-82.149	22347	16837	0	992
-81.861	-84.241	22372	16837	0	992
-85.467	-84.962	22389	16889	0	992
-87.018	-79.517	22414	16935	0	992
-84.638	-74.035	22389	16940	0	992
-79.445	-71.944	22430	16917	0	992
-80.923	-71.727	22430	16931	0	992
-85.395	-73.062	22497	16996	0	992
-89.254	-79.120	22497	17034	0	992
-94.194	-82.113	22539	16987	1	316
-96.502	-83.844	22514	16889	0	316
-93.978	-83.880	22456	16645	0	316
-89.542	-78.796	22330	16174	0	316
-81.680	-73.891	22204	15660	0	316
-77.858	-72.449	22095	15332	0	316
-75.153	-72.701	22012	15187	0	316
-77.642	-75.622	21953	15159	0	316
-84.565	-78.543	21953	15271	0	316
-91.670	-81.500	21970	15477	0	316
-95.600	-82.294	21953	15669	0	316
-95.709	-80.238	21953	15762	0	316
-94.194	-82.762	21869	15645	0	316
-87.234	-84.061	21760	15421	0	316
-83.231	-84.097	21744	15346	0	316
-80.166	-85.323	21702	15407	0	316
-80.022	-81.680	21677	15482	0	316
-84.097	-76.848	21660	15608	0	316
-85.070	-72.376	21635	15805	0	316
-87.234	-71.655	21660	15996	0	316
-84.854	-72.845	21660	16113	0	316
-80.418	-76.307	21635	16169	0	316
-79.950	-80.310	21618	16207	0	316
-81.753	-81.861	21635	16268	0	316
-86.008	-86.008	21660	16416	0	316
-91.814	-87.847	21744	16744	0	316
-92.860	-88.749	21802	17123	0	316
-89.831	-89.542	21827	17300	0	316
-86.260	-85.179	21844	17230	0	316
-84.385	-79.841	21827	17076	0	316
-83.664	-75.875	21786	16954	0	316
-87.847	-76.379	21802	16907	0	316
-87.523	-76.163	21827	16898	0	316
-84.926	-78.002	21760	16809	0	316
-79.336	-78.291	21702	16571	0	316
-73.098	-79.733	21635	16310	0	316
-74.829	-80.346	21593	16146	0	316
-79.986	-85.359	21551	16099	0	316
-89.506	-87.955	21534	16071	0	316
-92.968	-88.352	21451	15964	0	316
-90.660	-84.674	21425	15819	0	316
-80.635	-78.723	21342	15702	0	316
-75.153	-76.343	21283	15622	0	316
-74.684	-76.127	21216	15515	0	316
-80.274	-79.589	21132	15365	0	316
-83.916	-82.979	21048	15267	0	316
-85.395	-84.782	21007	15271	0	316
-81.753	-82.294	20965	15393	0	316
-78.471	-78.940	20948	15561	0	316
-79.986	-74.937	20948	15669	0	316
-85.251	-73.458	20906	15725	0	316
-89.001	-72.088	20864	15772	0	316
-93.220	-74.865	20839	15842	0	316
-92.752	-79.805	20797	15907	0	316
-88.027	-80.995	20755	15903	0	316
-85.359	-79.661	20697	15851	0	316
-85.395	-79.769	20655	15800	0	316
-87.090	-78.507	20588	15772	0	316
-91.165	-80.346	20504	15734	0	316
-94.122	-83.303	20445	15655	0	316
-89.290	-85.972	20362	15547	0	316
-87.306	-83.916	20236	15416	0	316
-84.746	-83.159	20110	15229	0	316
-86.873	-82.618	20002	15009	0	316
-91.417	-80.022	19859	14836	0	316
-96.935	-78.507	19708	14715	0	316
-96.971	-75.622	19583	14621	0	316
-94.266	-73.711	19415	14532	0	316
-94.086	-74.468	19332	14490	0	316
-91.742	-76.632	19273	14626	0	316
-90.011	-78.291	19248	14958	0	316
-87.126	-75.081	19206	15327	0	316
-79.553	-69.131	19164	15571	0	316
-70.609	-60.440	19122	15674	0	316
-67.003	-56.653	19038	15730	0	316
-67.220	-58.601	18997	15786	0	316
-72.521	-63.974	18913	15833	0	316
-77.245	-71.475	18829	15805	0	316
-79.697	-74.865	18703	15702	0	316
-76.668	-75.730	18620	15636	0	316
-72.953	-75.189	18536	15669	0	316
-69.888	-75.334	18477	15762	0	316
-69.419	-74.793	18410	15889	0	316
-66.859	-67.184	18368	16001	0	316
-62.532	-54.201	18310	16080	0	316
-53.588	-39.849	18243	16132	0	316
-49.549	-32.744	18201	16207	0	316
-48.648	-35.413	18184	16319	0	316
-54.237	-45.186	18117	16384	0	316
-57.952	-55.391	18059	16421	0	316
-61.197	-57.771	18033	16500	0	316
-60.656	-60.512	18033	16636	0	316
-62.099	-64.407	18017	16772	0	316
-68.085	-71.908	17975	16823	0	316
-73.927	-77.245	17933	16790	0	316
-76.884	-76.488	17866	16739	0	316
-77.028	-70.069	17849	16702	0	316
-70.970	-63.397	17807	16692	0	316
-64.876	-62.532	17740	16673	0	316
-60.296	-63.253	17724	16650	0	316
-59.574	-64.190	17640	16599	0	316
-60.620	-60.007	17573	16435	0	316
-58.240	-53.408	17472	16235	0	316
-55.932	-48.323	17472	16216	0	316
-50.811	-52.723	17430	16380	0	316
-50.090	-57.014	17405	16463	0	316
-52.326	-60.945	17322	16375	0	316
-55.932	-57.519	17305	16272	0	316
-51.929	-47.205	17280	16305	0	316
-44.753	-35.665	17238	16416	0	316
-35.557	-31.626	17221	16472	0	316
-34.223	-34.475	17179	16416	0	316
-37.541	-41.291	17070	16277	0	316
-42.517	-46.412	17012	16118	0	316
-41.543	-45.799	16945	16010	0	316
-35.377	-39.380	16861	15950	0	316
-24.270	-31.049	16777	15833	0	316
-16.625	-24.594	16635	15613	0	316
-13.343	-20.411	16526	15370	0	316
-11.756	-17.057	16400	15187	0	316
-8.366	-13.343	16284	15075	0	316
-1.911	-6.996	16175	14991	0	316
7.465	1.262	16091	14892	0	316
17.815	7.717	15924	14785	0	316
24.089	15.687	15781	14691	0	316
29.643	25.748	15673	14645	0	316
38.875	37.649	15572	14663	0	316
48.467	52.146	15446	14682	0	316
65.453	64.587	15338	14687	0	316
76.524	72.268	15237	14738	0	316
87.523	75.514	15170	14869	0	316
88.785	76.992	15070	15033	0	316
88.929	80.454	14986	15159	0	316
84.097	85.106	14835	15164	0	316
80.130	85.792	14668	14967	0	316
72.773	84.854	14500	14682	0	316
63.830	75.694	14316	14537	0	316
54.309	63.541	14190	14542	0	316
43.851	56.113	14065	14616	0	316
38.622	51.605	13939	14715	0	316
36.891	53.660	13788	14780	0	316
36.531	52.001	13663	14799	0	316
32.167	45.150	13537	14869	0	316
23.008	30.040	13453	15023	0	316
12.333	15.074	13369	15206	0	316
-1.226	2.596	13244	15341	0	316
-12.441	-2.885	13143	15435	0	316
-18.464	-4.760	13101	15603	0	316
-22.575	-4.760	13034	15879	0	316
-20.700	-3.570	13018	16197	0	316
-15.939	-1.803	12976	16435	0	316
-15.939	0.433	12934	16599	0	316
-19.834	-1.551	12951	16842	0	316
-29.607	-8.835	12951	17174	0	316
-40.858	-22.034	12976	17445	0	316
-48.792	-36.495	12993	17656	0	316
-51.749	-48.936	13018	17871	0	316
-56.113	-56.798	13076	18081	0	316
-57.916	-62.928	13118	18292	0	316
-62.532	-61.269	13227	18540	0	316
-66.174	-58.997	13286	18778	0	316
-68.987	-54.526	13353	18970	0	316
-71.475	-48.215	13478	19143	0	316
-73.278	-51.028	13604	19349	0	316
-79.192	-56.040	13771	19630	0	316
-85.755	-64.912	13939	19938	0	316
-89.614	-69.672	14106	20191	0	316
-92.102	-70.573	14291	20387	0	316
-91.381	-63.253	14483	20565	0	316
-88.568	-59.647	14709	20775	0	316
-89.073	-60.692	14986	21033	0	316
-88.063	-65.777	15195	21248	0	316
-88.677	-71.872	15463	21393	0	316
-84.602	-71.727	15740	21500	0	316
-81.356	-64.046	15966	21589	0	316
-79.228	-54.309	16242	21659	0	316
-78.255	-50.234	16526	21697	0	316
-77.786	-47.890	16760	21613	0	316
-75.838	-52.038	16970	21341	0	316
-76.235	-53.949	17154	21014	0	316
-80.130	-60.584	17389	20766	0	316
-86.369	-67.652	17573	20570	1	724
-96.646	-75.911	17824	20401	0	724
-101.479	-83.195	18033	20219	0	724
-103.173	-88.208	18226	19943	0	724
-103.534	-91.598	18410	19625	0	724
-105.193	-89.145	18645	19433	0	724
-107.898	-86.332	18871	19358	0	724
-111.684	-82.257	19080	19223	0	724
-111.756	-79.697	19273	18979	0	724
-109.268	-86.080	19457	18661	0	724
-103.534	-93.978	19608	18348	0	724
-97.367	-97.728	19792	18109	0	724
-94.302	-94.410	19960	17969	0	724
-94.483	-85.936	20169	17871	0	724
-95.709	-79.336	20362	17754	0	724
-95.781	-79.084	20529	17595	0	724
-94.014	-83.375	20697	17408	0	724
-90.984	-92.391	20864	17230	0	724
-91.093	-94.627	21007	17066	0	724
-97.944	-96.466	21132	16879	0	724
-106.491	-93.797	21258	16683	0	724
-111.648	-92.247	21384	16491	0	724
-110.133	-96.033	21467	16282	0	724
-105.770	-98.125	21576	16010	0	724
-101.515	-100.433	21635	15725	0	724
-100.216	-100.072	21719	15505	0	724
-102.344	-97.548	21786	15393	0	724
-104.616	-93.869	21886	15384	0	724
-104.039	-91.634	22012	15421	0	724
-104.183	-91.201	22095	15435	0	724
-106.527	-92.715	22204	15430	0	724
-106.563	-94.987	22305	15426	0	724
-104.111	-97.836	22389	15430	0	724
-98.269	-97.295	22472	15440	0	724
-91.129	-92.571	22556	15435	0	724
-89.217	-86.224	22598	15393	0	724
-89.037	-79.589	22665	15309	0	724
-91.309	-73.999	22640	15126	0	724
-87.847	-68.915	22623	14850	0	724
-81.717	-64.190	22623	14607	0	724
-74.216	-62.748	22556	14425	0	724
-66.354	-63.722	22514	14191	0	724
-63.686	-64.659	22372	13812	0	724
-59.647	-63.433	22288	13419	0	724
-54.742	-57.230	22162	13195	0	724
-49.585	-47.169	22137	13190	0	724
-41.219	-39.488	22079	13330	0	724
-32.276	-33.718	22054	13489	0	724
-24.522	-33.213	22037	13634	0	724
-21.601	-34.187	22037	13863	0	724
-20.736	-33.502	22054	14200	0	724
-19.113	-31.085	22079	14542	0	724
-16.300	-24.991	22121	14846	0	724
-9.592	-17.743	22162	15103	0	724
-4.255	-8.114	22162	15351	0	724
-0.974	-1.442	22221	15622	0	724
-1.947	0.613	22263	15898	0	724
-1.370	2.128	22305	16090	0	724
-0.541	-2.092	22288	16179	0	724
1.010	-4.291	22330	16249	0	724
-1.623	-8.439	22347	16398	0	724
-6.455	-15.543	22456	16669	0	724
-17.021	-25.965	22539	16982	0	724
-28.345	-38.586	22623	17221	0	724
-42.770	-51.280	22682	17361	0	724
-57.411	-63.181	22724	17436	0	724
-72.557	-73.639	22765	17408	0	724
-85.864	-83.808	22749	17239	0	724
-97.223	-91.525	22724	17029	0	724
-105.734	-98.377	22765	16907	0	724
-114.172	-104.544	22749	16837	0	724
-125.604	-117.021	22749	16772	0	724
-139.380	-133.177	22765	16720	0	724
-157.952	-155.896	22791	16673	0	724
-179.445	-181.789	22765	16617	0	724
-206.347	-206.888	22765	16566	0	724
-234.475	-233.033	22765	16477	0	724
-261.089	-257.880	22724	16338	0	724
-281.825	-274.937	22707	16193	0	724
-291.778	-284.241	22707	16095	0	724
-292.355	-279.661	22640	16006	0	724
-289.578	-273.494	22598	15828	0	724
-288.857	-270.321	22539	15608	0	724
-294.122	-278.687	22514	15566	0	724
-305.301	-297.295	22556	15720	0	724
-319.582	-312.586	22539	15898	0	724
-324.775	-315.975	22556	15959	0	724
-318.933	-304.724	22514	15893	0	724
-302.056	-285.647	22472	15790	0	724
-281.825	-267.797	22456	15753	0	724
-258.925	-254.345	22414	15772	0	724
-245.150	-239.344	22389	15744	0	724
-234.656	-222.683	22305	15599	0	724
-224.919	-204.039	22263	15468	0	724
-216.697	-191.742	22179	15440	0	724
-213.379	-194.122	22162	15454	0	724
-211.900	-202.380	22121	15440	0	724
-211.468	-212.045	22037	15374	0	724
-209.953	-213.848	21995	15309	0	724
-208.294	-209.052	21928	15290	0	724
-204.075	-204.436	21886	15356	0	724
-205.193	-203.642	21869	15468	0	724
-209.268	-207.934	21802	15543	0	724
-214.245	-210.494	21760	15575	0	724
-215.254	-210.494	21719	15608	0	724
-211.179	-203.065	21702	15683	0	724
-203.967	-196.430	21660	15762	0	724
-197.764	-195.384	21593	15781	0	724
-195.348	-196.502	21576	15758	0	724
-198.630	-200.288	21509	15748	0	724
-202.596	-199.171	21467	15781	0	724
-201.551	-191.922	21451	15861	0	724
-198.702	-186.405	21425	15992	0	724
-193.473	-184.133	21409	16132	0	724
-186.729	-183.159	21367	16151	0	724
-179.697	-176.488	21258	15959	0	724
-172.629	-165.741	21132	15636	0	724
-162.748	-153.480	20990	15351	0	724
-156.942	-147.746	20864	15136	0	724
-152.038	-151.172	20697	14925	0	724
-151.929	-159.106	20504	14645	0	724
-156.185	-164.767	20320	14322	0	724
-159.250	-169.203	20169	14065	0	724
-165.308	-171.114	19960	13957	0	724
-168.049	-171.799	19859	13962	0	724
-168.662	-172.449	19692	13966	0	724
-166.895	-172.124	19524	13934	0	724
-165.633	-170.682	19415	13976	0	724
-163.722	-170.790	19290	14135	0	724
-165.380	-171.727	19189	14322	0	724
-167.724	-176.560	19064	14476	0	724
-168.698	-180.779	18955	14584	0	724
-165.272	-183.267	18854	14701	0	724
-161.666	-177.678	18770	14874	0	724
-154.201	-165.597	18687	15098	0	724
-149.838	-149.982	18578	15285	0	724
-147.169	-142.229	18494	15365	0	724
-145.186	-141.760	18368	15370	0	724
-141.255	-145.222	18243	15407	0	724
-137.937	-148.071	18184	15561	0	724
-133.790	-144.933	18117	15795	0	724
-130.004	-138.803	18059	15982	0	724
-126.037	-132.961	17975	16104	0	724
-122.034	-131.446	17908	16211	0	724
-122.827	-127.696	17891	16361	0	724
-120.375	-123.873	17824	16561	0	724
-118.897	-118.716	17824	16762	0	724
-114.208	-111.648	17724	16800	0	724
-107.537	-106.383	17615	16641	0	724
-100.613	-102.344	17556	16486	0	724
-98.161	-97.187	17472	16449	0	724
-98.197	-92.355	17363	16472	0	724
-97.187	-86.224	17322	16500	0	724
-96.141	-84.493	17238	16524	0	724
-95.745	-85.539	17154	16500	0	724
-97.367	-85.828	17070	16384	0	724
-100.613	-91.273	16945	16193	0	724
-103.426	-91.994	16802	16015	0	724
-103.173	-90.984	16693	15875	0	724
-98.485	-88.713	16526	15664	0	724
-91.922	-82.798	16368	15393	0	724
-83.339	-74.540	16217	15201	0	724
-78.904	-70.609	16091	15150	0	724
-75.983	-64.479	16008	15196	0	724
-72.304	-62.459	15907	15267	0	724
-70.573	-61.955	15781	15295	0	724
-66.246	-59.214	15673	15332	0	724
-58.601	-56.653	15631	15435	0	724
-50.054	-50.018	15547	15603	0	724
-41.760	-43.166	15488	15795	0	724
-33.754	-35.774	15446	15945	0	724
-26.686	-27.624	15363	16034	0	724
-20.664	-18.320	15321	16066	0	724
-13.992	-11.540	15212	16104	0	724
-10.206	-5.986	15170	16188	0	724
-7.717	-7.248	15111	16277	0	724
-7.429	-13.054	15086	16384	0	724
-10.350	-18.392	15044	16538	0	724
-12.441	-15.615	15070	16795	0	724
-13.199	-10.025	15086	17108	0	724
-9.016	-2.056	15111	17328	0	724
-3.931	0.144	15028	17296	0	724
3.967	-2.236	14961	17076	0	724
8.655	-5.734	14944	16954	0	724
11.143	-8.258	14877	16992	0	724
7.681	-7.970	14860	17029	0	724
5.950	-4.147	14835	17015	0	724
8.402	3.534	14793	17001	0	724
16.192	13.379	14776	17001	0	724
27.840	26.433	14751	17020	0	724
39.235	34.511	14776	17108	0	724
43.383	35.701	14793	17253	0	724
38.767	31.266	14776	17282	0	724
30.833	23.296	14693	17076	0	724
22.972	18.283	14609	16730	0	724
21.493	20.880	14525	16430	0	724
25.965	26.217	14400	16169	0	724
35.593	38.911	14249	15790	0	724
47.097	50.811	14039	15257	0	724
58.168	62.748	13788	14645	0	724
62.207	64.551	13453	13924	0	724
54.778	58.493	13118	13157	0	724
43.383	47.566	12850	12610	0	724
27.876	34.944	12557	12334	0	724
17.851	29.499	12323	12184	0	724
11.756	31.194	12138	12184	0	724
6.131	31.085	11971	12399	0	724
-1.010	25.496	11845	12769	0	724
-11.684	13.307	11761	13223	0	724
-18.752	3.246	11694	13686	0	724
-19.473	-0.685	11636	14135	0	724
-19.510	3.065	11594	14598	0	724
-18.680	9.124	11569	15117	0	724
-18.464	9.881	11569	15650	0	724
-22.178	2.813	11569	16146	0	724
-26.325	-10.458	11611	16603	0	724
-34.259	-24.089	11653	17080	0	724
-46.772	-39.344	11720	17572	0	724
-64.731	-50.559	11820	18063	0	724
-75.766	-62.568	11887	18502	0	724
-87.090	-67.436	11988	18858	0	724
-91.237	-72.845	12071	19110	0	724
-97.800	-76.379	12155	19302	0	724
-107.429	-85.215	12222	19442	0	724
-121.349	-96.105	12264	19470	0	724
-133.393	-111.468	12323	19400	0	724
-143.455	-124.666	12364	19302	0	724
-148.900	-135.737	12390	19199	0	724
-152.578	-139.272	12448	19129	0	724
-153.696	-142.337	12574	19166	1	916
-153.155	-141.940	12658	19316	0	916
-154.382	-144.609	12783	19400	0	916
-156.545	-143.779	12825	19279	0	916
-157.519	-142.012	12892	19021	0	916
-157.266	-137.072	12909	18783	0	916
-152.939	-133.357	12993	18624	0	916
-146.232	-131.518	13034	18493	0	916
-142.120	-133.862	13101	18353	0	916
-139.812	-136.423	13185	18282	0	916
-139.812	-135.052	13311	18376	0	916
73.386	56.762	13562	15580	0	656
70.609	51.857	13411	15309	0	656
70.249	53.300	13269	14977	0	656
70.141	53.732	13160	14743	0	656
70.465	54.886	13118	14687	0	656
69.672	53.805	13018	14761	0	656
65.561	48.071	12951	14836	0	656
62.243	44.825	12850	14804	0	656
61.053	43.815	12808	14780	0	656
62.207	46.917	12741	14935	0	656
65.921	48.576	12783	15271	0	656
70.141	53.444	12808	15697	0	656
72.557	55.283	12892	16123	0	656
76.415	58.601	12934	16533	0	656
77.569	60.224	13076	16987	0	656
77.930	61.017	13185	17487	0	656
77.281	61.991	13328	17983	0	656
76.992	63.217	13478	18404	0	656
80.094	67.184	13663	18788	0	656
82.149	74.180	13855	19204	0	656
86.152	75.550	14081	19676	0	656
86.837	75.802	14291	20139	0	656
84.926	71.908	14542	20467	0	656
84.313	67.616	14709	20598	0	656
81.825	66.390	14902	20607	0	656
82.330	68.338	15086	20635	0	656
82.005	69.131	15296	20701	0	656
80.563	72.737	15505	20752	0	656
81.933	71.331	15714	20752	0	656
81.031	69.888	15907	20705	0	656
80.959	66.931	16116	20598	0	656
82.438	67.761	16326	20514	0	656
83.520	66.787	16593	20607	0	656
81.644	65.380	16861	20804	0	656
80.022	63.325	17095	20813	0	656
78.291	61.269	17280	20514	1	772
76.307	58.529	17389	20041	0	772
73.711	56.149	17531	19573	0	772
70.393	55.355	17640	19171	0	772
67.292	53.047	17807	18816	0	772
67.328	55.247	17866	18418	0	772
71.295	60.656	17908	17885	0	772
80.094	67.977	17933	17230	0	772
86.260	74.180	17891	16557	0	772
91.021	76.019	17891	15982	0	772
90.768	75.658	17849	15486	0	772
92.355	78.255	17765	14953	0	772
92.355	82.185	17724	14406	0	772
96.033	87.126	17615	13938	0	772
100.974	93.401	17556	13578	0	772
105.301	94.086	17447	13293	0	772
108.763	91.742	17389	13036	0	772
111.648	90.191	17263	12816	0	772
112.189	89.722	17196	12661	0	772
113.163	94.591	17112	12549	0	772
112.766	98.810	16987	12493	0	772
112.081	101.442	16945	12502	0	772
108.511	98.774	16861	12577	0	772
103.246	93.112	16819	12727	0	772
97.908	84.097	16777	12993	0	772
93.581	79.084	16760	13302	0	772
91.273	76.488	16693	13522	0	772
93.329	76.956	16610	13602	0	772
94.951	76.848	16484	13499	0	772
97.404	76.632	16301	13251	0	772
99.279	73.855	16116	12993	0	772
98.594	69.095	15924	12802	0	772
96.394	66.102	15756	12732	0	772
93.942	68.265	15589	12783	0	772
94.374	70.213	15446	12816	0	772
97.836	76.560	15254	12825	0	772
103.354	79.336	15153	12951	0	772
109.881	79.877	15003	13181	0	772
111.107	77.028	14860	13363	0	772
109.592	75.622	14693	13414	0	772
107.789	75.514	14525	13471	0	772
107.645	80.274	14416	13695	0	772
108.763	83.231	14374	14111	0	772
109.989	86.044	14358	14649	0	772
107.465	86.080	14333	15211	0	772
100.865	82.113	14358	15744	0	772
92.752	80.995	14374	16263	0	772
85.503	80.779	14400	16678	0	772
85.142	82.474	14400	16973	0	772
87.991	84.602	14441	17272	0	772
94.086	86.441	14458	17604	0	772
95.276	83.087	14500	17918	0	772
91.417	79.986	14609	18250	0	772
86.729	74.468	14709	18657	0	772
80.238	69.600	14860	19124	0	772
78.399	65.633	14961	19480	0	772
76.271	63.181	15028	19555	0	772
77.714	61.053	15070	19456	0	772
76.055	60.656	15170	19461	0	772
75.911	60.188	15254	19578	0	772
78.182	62.495	15379	19644	0	772
78.363	62.784	15463	19653	0	772
78.651	64.118	15589	19686	0	772
78.507	64.912	15714	19728	0	772
78.399	65.020	15840	19760	0	772
79.481	63.469	15966	19789	0	772
80.418	63.397	16116	19789	0	772
84.457	62.459	16217	19704	0	772
83.916	61.522	16301	19499	0	772
83.267	63.217	16384	19213	0	772
82.690	64.767	16442	18914	0	772
83.772	66.462	16484	18605	0	772
88.929	69.383	16526	18273	0	772
91.273	69.239	16551	17955	0	772
90.984	68.229	16593	17670	0	772
84.565	65.417	16610	17398	0	772
79.733	61.233	16635	17169	0	772
77.101	60.224	16677	16978	0	772
76.451	59.070	16677	16725	0	772
77.461	59.719	16635	16356	0	772
78.038	60.656	16610	15968	0	772
77.209	59.322	16568	15688	0	772
75.766	58.637	16551	15491	0	772
74.504	59.466	16509	15295	0	772
72.665	59.863	16442	15056	0	772
72.449	61.342	16400	14869	0	772
75.478	64.046	16384	14780	0	772
80.454	67.761	16368	14771	0	772
85.359	70.682	16343	14794	0	772
85.034	71.259	16301	14804	0	772
83.664	67.544	16284	14808	0	772
80.815	63.217	16284	14860	0	772
79.697	58.637	16284	14986	0	772
80.671	56.617	16284	15159	0	772
83.448	59.935	16301	15295	0	772
83.736	60.368	16301	15393	0	772
83.844	60.007	16326	15505	0	772
80.815	58.889	16368	15660	0	772
73.927	53.300	16368	15814	0	772
69.203	49.225	16343	15842	0	772
65.056	44.176	16259	15660	0	772
63.289	43.022	16158	15341	0	772
65.200	44.501	16049	15094	0	772
69.383	47.241	15966	14981	0	772
71.908	49.189	15924	14949	0	772
69.167	49.405	15823	14921	0	772
62.820	46.159	15714	14780	0	772
54.057	42.084	15572	14537	0	772
48.323	43.202	15446	14341	0	772
45.294	43.887	15338	14256	0	772
47.422	44.176	15212	14261	0	772
50.703	45.005	15153	14322	0	772
51.136	46.700	15028	14369	0	772
52.723	47.710	14961	14392	0	772
52.470	49.477	14877	14462	0	772
53.408	52.074	14793	14635	0	772
54.490	49.946	14776	14911	0	772
58.565	50.811	14751	15211	0	772
62.676	52.110	14693	15440	0	772
65.849	57.447	14693	15641	0	772
68.049	57.699	14693	15884	0	772
67.724	56.113	14693	16183	0	772
67.075	50.090	14693	16463	0	772
66.390	45.258	14709	16673	0	772
63.974	41.507	14735	16833	0	772
61.558	39.849	14735	17001	0	772
55.391	37.685	14793	17263	0	772
53.191	35.990	14877	17562	0	772
50.523	31.626	14902	17759	0	772
51.893	27.840	14944	17838	0	772
53.732	26.938	14961	17880	0	772
56.798	27.515	15028	17964	0	772
56.617	29.066	15086	18067	0	772
55.463	30.689	15111	18100	0	772
49.766	29.751	15153	18058	0	772
45.763	27.732	15170	18030	0	772
41.796	25.352	15279	18091	0	772
40.462	25.640	15321	18203	0	772
40.245	24.342	15421	18292	0	772
39.416	23.332	15488	18320	0	772
37.721	24.306	15547	18315	0	772
36.206	24.739	15631	18292	0	772
39.127	29.787	15714	18311	0	772
45.943	37.396	15865	18479	0	772
51.821	43.743	16008	18727	0	772
57.050	47.277	16116	18811	0	772
57.050	47.890	16175	18661	0	772
55.355	42.661	16259	18446	0	772
54.273	37.396	16368	18343	0	772
54.345	32.059	16467	18353	0	772
57.014	29.643	16568	18329	0	772
54.165	28.489	16593	18156	0	772
51.569	27.407	16635	17843	0	772
44.753	26.289	16635	17478	0	772
38.550	23.008	16635	17118	0	772
33.429	19.906	16610	16762	0	772
28.056	13.559	16551	16393	0	772
23.873	10.819	16484	15973	0	772
23.549	7.176	16425	15575	0	772
24.270	7.934	16384	15295	0	772
30.364	13.487	16343	15122	0	772
37.793	17.851	16284	14963	0	772
43.310	23.729	16217	14776	0	772
45.078	24.739	16116	14560	0	772
40.534	21.854	16033	14289	0	772
32.636	13.487	15907	14037	0	772
23.945	8.511	15823	13882	0	772
17.346	5.157	15714	13789	0	772
19.365	7.501	15589	13723	0	772
21.998	11.937	15547	13728	0	772
24.594	16.300	15463	13812	0	772
26.866	17.129	15379	13952	0	772
19.257	16.084	15379	14153	0	772
11.973	11.720	15321	14383	0	772
2.560	9.520	15296	14565	0	772
-4.364	6.491	15237	14687	0	772
-5.842	4.039	15212	14818	0	772
-3.967	1.442	15153	14972	0	772
-0.938	-1.623	15128	15136	0	772
1.767	-3.895	15044	15239	0	772
2.633	-3.931	14961	15196	0	772
2.741	-2.308	14860	15084	0	772
5.013	-0.180	14818	15154	0	772
6.780	0.649	14818	15407	0	772
6.203	0.108	14751	15608	0	772
6.203	-0.469	14693	15669	0	772
5.590	-1.010	14626	15655	0	772
7.248	-0.649	14584	15669	0	772
9.520	-0.361	14500	15702	0	772
9.665	-0.541	14374	15627	0	772
9.304	-1.623	14274	15440	0	772
5.121	-2.452	14165	15304	0	772
1.262	-3.823	14081	15304	0	772
0.361	-5.193	14023	15430	0	772
-1.731	-7.032	13998	15664	0	772
-4.111	-9.917	14023	15968	0	772
-3.714	-10.710	14039	16282	0	772
-3.065	-8.907	14065	16589	0	772
-0.397	-5.445	14081	16856	0	772
3.029	-0.721	14106	17043	0	772
6.058	0.902	14148	17202	0	772
8.619	0.577	14190	17380	0	772
10.494	0.397	14232	17604	0	772
13.559	2.488	14316	17894	0	772
15.074	6.347	14441	18264	0	772
17.923	10.819	14609	18685	0	772
18.933	16.084	14751	19078	0	772
18.897	17.923	14944	19428	0	772
21.998	20.087	15128	19779	0	772
24.847	18.824	15363	20139	0	772
23.765	18.392	15589	20471	0	772
21.132	15.398	15798	20729	0	772
18.969	14.605	16033	20906	0	772
15.543	14.641	16217	20991	0	772
19.798	19.077	16384	20902	0	772
23.260	21.962	16526	20668	0	772
26.361	26.758	16677	20425	0	772
28.922	28.741	16819	20210	0	772
28.561	29.354	16928	19957	1	872
30.689	29.931	17012	19583	0	872
32.925	33.321	17095	19148	0	872
35.377	37.649	17196	18774	0	872
38.658	43.166	17280	18521	0	872
42.770	48.143	17405	18353	0	872
46.376	52.182	17531	18180	0	872
49.477	51.605	17615	17964	0	872
46.123	49.874	17740	17833	0	872
44.068	44.573	17908	17824	0	872
41.399	37.901	18033	17838	0	872
40.606	32.636	18184	17773	0	872
41.507	29.354	18310	17632	0	872
45.150	28.128	18394	17455	0	872
43.563	28.525	18494	17282	0	872
44.897	28.345	18603	17155	0	872
43.094	29.066	18687	17048	0	872
43.130	29.210	18745	16851	0	872
42.445	29.715	18729	16430	0	872
45.258	30.545	18703	15903	0	872
48.576	33.069	18703	15533	0	872
50.559	34.439	18703	15351	0	872
56.257	37.613	18745	15211	0	872
59.683	41.543	18729	15037	0	872
62.423	46.051	18687	14771	0	872
67.039	53.083	18620	14457	0	872
67.184	58.817	18578	14238	0	872
67.905	63.794	18561	14144	0	872
68.662	66.715	18519	14125	0	872
71.980	67.184	18494	14135	0	872
76.307	68.085	18477	14125	0	872
79.012	68.698	18435	14107	0	872
77.137	67.075	18394	14102	0	872
74.432	63.866	18352	14097	0	872
67.797	59.214	18310	14074	0	872
60.801	53.552	18243	14083	0	872
54.742	47.854	18226	14182	0	872
46.953	42.084	18243	14429	0	872
44.212	39.272	18285	14818	0	872
44.464	36.278	18327	15192	0	872
46.268	36.134	18352	15435	0	872
48.323	36.314	18368	15571	0	872
47.277	35.629	18394	15692	0	872
42.842	33.574	18410	15870	0	872
38.550	31.951	18452	16090	0	872
36.747	32.348	18494	16272	0	872
34.836	33.466	18519	16384	0	872
35.088	35.197	18536	16482	0	872
37.324	37.360	18578	16613	0	872
39.091	37.108	18603	16739	0	872
41.507	40.534	18662	16814	0	872
43.274	42.589	18662	16804	0	872
44.501	45.041	18662	16739	0	872
46.159	47.638	18645	16678	0	872
48.251	49.910	18662	16673	0	872
46.159	49.982	18687	16706	0	872
42.914	48.431	18662	16678	0	872
36.639	43.671	18662	16580	0	872
30.941	35.124	18662	16514	0	872
28.273	28.561	18687	16543	0	872
29.210	25.352	18703	16622	0	872
29.174	22.935	18729	16697	0	872
26.758	21.565	18770	16762	0	872
22.034	19.546	18787	16800	0	872
18.680	16.372	18812	16804	0	872
17.815	17.526	18829	16772	0	872
16.192	17.815	18812	16683	0	872
17.057	20.195	18787	16533	0	872
14.353	19.041	18745	16366	0	872
14.533	20.159	18703	16165	0	872
14.281	19.906	18645	15950	0	872
15.254	21.204	18578	15753	0	872
18.536	17.598	18536	15594	0	872
18.716	17.670	18435	15430	0	872
21.204	18.969	18327	15178	0	872
26.974	20.700	18226	14897	0	872
31.085	26.794	18142	14794	0	872
33.033	27.732	18100	14921	0	872
31.338	24.558	18100	15103	0	872
26.217	20.050	18059	15211	0	872
22.395	14.353	17992	15201	0	872
19.834	14.389	17933	15164	0	872
23.368	16.228	17891	15168	0	872
26.181	22.070	17807	15206	0	872
27.804	24.847	17782	15253	0	872
28.850	25.856	17724	15299	0	872
28.633	24.919	17682	15365	0	872
29.751	20.195	17657	15468	0	872
30.905	20.844	17598	15603	0	872
33.141	23.044	17598	15739	0	872
29.427	22.503	17514	15805	0	872
24.125	20.267	17489	15790	0	872
19.906	14.100	17447	15772	0	872
16.480	10.566	17389	15819	0	872
18.211	6.635	17389	15945	0	872
19.690	5.157	17363	16109	0	872
19.762	3.426	17363	16272	0	872
19.762	-1.334	17347	16407	0	872
16.552	-8.186	17389	16514	0	872
15.507	-12.802	17363	16594	0	872
12.081	-11.864	17322	16617	0	872
9.953	-12.658	17305	16608	0	872
10.169	-7.573	17263	16589	0	872
15.218	-1.154	17263	16557	0	872
20.988	5.085	17196	16491	0	872
25.604	8.583	17137	16407	0	872
26.722	9.304	17095	16324	0	872
19.510	7.862	17012	16193	0	872
16.769	5.337	16903	15954	0	872
13.884	4.291	16777	15660	0	872
14.569	6.996	16652	15440	0	872
16.589	8.655	16568	15327	0	872
19.221	8.835	16484	15267	0	872
17.923	6.888	16384	15173	0	872
17.057	2.849	16259	15061	0	872
14.930	-1.767	16175	14991	0	872
13.559	-6.852	16116	15009	0	872
10.242	-10.386	16033	15117	0	872
6.383	-13.704	15966	15253	0	872
3.750	-14.353	15865	15271	0	872
4.291	-10.206	15714	15056	0	872
6.960	-6.888	15547	14701	0	872
12.514	-1.767	15379	14509	0	872
11.828	-1.947	15296	14542	0	872
10.133	-4.472	15170	14645	0	872
3.787	-9.232	15111	14780	0	872
0.829	-10.530	15028	15000	0	872
1.118	-9.376	15044	15332	0	872
5.085	-5.626	15003	15711	0	872
8.907	-0.433	15044	16080	0	872
8.258	2.921	15044	16416	0	872
6.708	5.193	15111	16716	0	872
3.173	4.796	15153	17015	0	872
-0.757	2.344	15170	17333	0	872
-3.173	-2.164	15237	17590	0	872
-7.212	-7.321	15237	17759	0	872
-11.323	-12.153	15279	17871	0	872
-17.382	-13.523	15321	17941	0	872
-19.473	-15.074	15338	18039	0	872
-22.214	-15.038	15463	18301	0	872
-23.657	-16.841	15572	18666	0	872
-28.453	-21.709	15673	18867	0	872
-35.124	-29.138	15698	18774	0	872
-40.678	-34.547	15698	18526	0	872
-43.130	-37.468	15698	18268	0	872
-40.426	-34.944	15673	17997	0	872
-36.711	-29.968	15589	17614	0	872
-32.528	-21.781	15463	17066	0	872
-32.095	-21.241	15338	16449	0	872
-32.095	-22.863	15170	15912	0	872
-31.518	-23.152	15086	15552	0	872
-25.748	-23.296	14961	15360	0	872
-21.385	-21.349	14902	15234	0	872
-15.471	-15.218	14818	15094	0	872
-15.362	-13.451	14693	14921	0	872
-16.408	-13.776	14525	14631	0	872
-19.546	-13.091	14374	14266	0	872
-18.031	-14.930	14249	14074	0	872
-16.913	-15.326	14123	14069	0	872
-12.946	-18.824	14039	14153	0	872
-15.543	-21.493	13981	14312	0	872
-19.149	-27.912	13956	14602	0	872
-27.119	-30.941	13956	14972	0	872
-33.502	-33.357	13914	15257	0	872
-36.891	-37.216	13830	15323	0	872
-41.327	-40.317	13788	15281	0	872
-45.655	-45.330	13746	15388	0	872
-48.323	-48.143	13730	15664	0	872
-49.441	-44.933	13730	15954	0	872
-46.917	-39.344	13771	16240	0	872
-40.209	-31.590	13813	16566	0	872
-36.855	-26.361	13872	16954	0	872
-33.538	-23.909	13956	17338	0	872
-33.033	-22.827	14023	17656	0	872
-31.554	-20.664	14106	17899	0	872
-27.984	-18.392	14190	18091	0	872
-26.037	-18.860	14232	18236	0	872
-24.558	-16.516	14316	18367	0	872
-21.998	-16.300	14458	18615	0	872
-21.132	-15.975	14626	18965	0	872
-15.146	-11.143	14735	19176	0	872
-9.917	-10.494	14751	19073	0	872
-5.265	-8.006	14793	18760	0	872
-2.813	-7.321	14776	18409	0	872
-3.065	-7.068	14776	18119	0	872
-3.859	-6.671	14793	17876	1	740
-3.823	-5.950	14751	17576	0	740
-3.246	-4.183	14693	17183	0	740
-2.200	-3.642	14668	16865	0	740
-4.508	-5.842	14668	16702	0	740
-9.088	-9.088	14668	16599	0	740
-12.333	-15.326	14651	16477	0	740
-17.093	-18.969	14626	16333	0	740
-16.949	-20.700	14626	16174	0	740
-14.641	-18.320	14584	16071	0	740
-12.766	-16.084	14626	16062	0	740
-9.376	-11.684	14626	16123	0	740
-7.753	-11.287	14626	16183	0	740
-6.275	-10.494	14651	16225	0	740
-6.347	-9.737	14709	16324	0	740
-6.311	-11.251	14818	16528	0	740
-8.222	-11.756	14877	16809	0	740
-7.357	-10.746	14961	17029	0	740
-4.183	-5.698	15028	17085	0	740
2.957	-0.613	15070	17052	0	740
12.441	9.629	15153	17113	0	740
22.178	18.860	15237	17291	0	740
27.479	25.424	15363	17487	0	740
29.715	28.922	15463	17674	0	740
30.941	31.374	15589	17871	0	740
33.970	35.665	15714	18021	0	740
38.839	37.577	15840	18156	0	740
40.822	39.632	16075	18484	0	740
40.750	39.668	16301	19003	0	740
35.485	35.305	16551	19410	0	740
29.463	28.237	16693	19522	0	740
24.234	23.440	16861	19442	0	740
23.585	21.529	17012	19358	0	740
21.313	17.923	17196	19354	0	740
18.788	18.211	17405	19410	0	740
16.625	14.966	17573	19438	0	740
10.602	13.884	17740	19396	0	740
7.140	11.179	17975	19368	0	740
4.364	9.845	18142	19405	0	740
5.662	10.746	18352	19424	0	740
6.671	9.809	18519	19335	0	740
8.763	8.258	18645	19096	0	740
9.088	7.934	18770	18783	0	740
7.645	9.809	18871	18456	0	740
9.340	13.848	18955	18100	0	740
9.268	16.516	19022	17684	0	740
9.088	20.772	19038	17207	0	740
10.278	17.959	19080	16753	0	740
8.439	15.975	19105	16412	0	740
6.527	10.133	19164	16216	0	740
4.904	7.609	19206	16080	0	740
3.354	5.698	19248	15903	0	740
-0.397	3.426	19231	15547	0	740
-2.272	2.921	19164	15028	0	740
-1.695	2.633	19064	14504	0	740
-0.505	0.902	18955	13994	0	740
-1.803	-0.902	18829	13503	0	740
-4.327	-1.551	18729	13181	0	740
-8.258	-4.183	18645	13050	0	740
-10.710	-5.734	18578	13017	0	740
-13.018	-5.950	18519	13040	0	740
-11.179	-5.842	18435	13036	0	740
-8.511	-4.688	18310	12895	0	740
-9.917	-6.635	18142	12638	0	740
-13.631	-10.314	17975	12385	0	740
-18.211	-13.812	17807	12250	0	740
-26.433	-19.185	17724	12311	0	740
-30.364	-19.762	17640	12563	0	740
-30.725	-21.926	17598	12886	0	740
-28.922	-22.431	17489	13143	0	740
-28.489	-26.686	17447	13358	0	740
-29.607	-32.167	17405	13718	0	740
-31.951	-38.983	17447	14247	0	740
-34.223	-43.094	17447	14794	0	740
-35.485	-43.419	17514	15276	0	740
-33.898	-40.678	17514	15702	0	740
-33.105	-35.521	17598	16099	0	740
-29.391	-31.446	17640	16510	0	740
-25.965	-28.128	17765	16954	0	740
-23.621	-27.083	17824	17384	1	316
-23.945	-27.407	17933	17735	0	316
-23.585	-28.056	18059	18016	0	316
-25.388	-28.814	18117	18264	0	316
-26.686	-28.489	18243	18521	0	316
-31.158	-28.958	18352	18760	0	316
-34.043	-30.004	18452	18905	0	316
-38.875	-32.528	18536	18970	0	316
-40.966	-34.836	18645	19012	0	316
-40.570	-35.197	18770	19087	0	316
-39.019	-34.583	18871	19176	0	316
-36.387	-32.276	18997	19204	0	316
-33.610	-31.699	19064	19134	0	316
-31.518	-28.489	19147	18989	0	316
-30.400	-27.010	19231	18806	0	316
-31.771	-28.128	19273	18586	0	316
-33.574	-28.958	19315	18325	0	316
-35.629	-32.131	19315	18049	0	316
-35.341	-35.665	19332	17740	0	316
-34.908	-34.439	19290	17314	0	316
-33.177	-31.013	19248	16865	0	316
-30.581	-27.083	19290	16641	0	316
-29.787	-23.549	19290	16585	0	316
-30.545	-25.063	19248	16352	0	316
-31.987	-25.424	19164	15875	0	316
-29.643	-25.604	19064	15379	0	316
-26.902	-22.719	18955	15005	0	316
-21.673	-16.661	18896	14761	0	316
-16.516	-11.576	18829	14654	0	316
-14.208	-8.871	18770	14593	0	316
-14.930	-9.556	18703	14509	0	316
-14.533	-11.396	18687	14504	0	316
-17.923	-12.766	18662	14645	0	316
-19.149	-16.480	18645	14813	0	316
-21.709	-18.536	18603	14874	0	316
-20.988	-17.887	18536	14818	0	316
-17.310	-15.579	18494	14771	0	316
-11.035	-13.163	18452	14813	0	316
-7.681	-11.720	18410	14916	0	316
-6.888	-11.251	18394	15033	0	316
-8.114	-14.208	18368	15112	0	316
-8.871	-15.651	18310	15150	0	316
-8.294	-11.792	18268	15211	0	316
-6.671	-10.855	18268	15356	0	316
-5.842	-8.439	18243	15547	0	316
-7.898	-7.934	18226	15645	0	316
-7.681	-7.789	18100	15524	0	316
-5.445	-6.383	17975	15248	0	316
-0.685	-3.498	17908	15084	0	316
3.714	-1.406	17824	15103	0	316
5.409	-0.433	17765	15154	0	316
3.390	-1.947	17698	15215	0	316
0.325	-4.508	17640	15313	0	316
-3.210	-6.383	17598	15393	0	316
-6.131	-10.494	17514	15421	0	316
-8.547	-15.074	17472	15426	0	316
-9.340	-16.048	17405	15477	0	316
-7.753	-17.887	17347	15547	0	316
-4.472	-14.461	17263	15529	0	316
-1.659	-10.242	17154	15468	0	316
-3.606	-9.556	17154	15603	0	316
-10.133	-12.189	17179	15926	0	316
-15.795	-15.579	17112	16123	0	316
-19.510	-20.844	17028	16029	0	316
-16.697	-20.591	16928	15805	0	316
-13.920	-20.772	16819	15655	0	316
-11.756	-19.906	16777	15655	0	316
-8.871	-17.815	16719	15762	0	316
-8.619	-14.641	16652	15870	0	316
-3.750	-9.340	16610	15926	0	316
2.993	0.216	16593	16001	0	316
9.232	7.285	16568	16146	0	316
16.300	11.504	16551	16300	0	316
17.057	11.720	16526	16407	0	316
16.336	9.809	16484	16468	0	316
9.917	7.537	16467	16524	0	316
5.337	3.823	16442	16613	0	316
1.875	2.669	16467	16762	0	316
1.154	0.433	16484	16945	0	316
1.623	1.046	16467	17034	0	316
3.029	2.416	16400	16893	0	316
3.714	2.164	16301	16589	0	316
2.813	4.364	16242	16388	0	316
2.416	1.551	16200	16370	0	316
0.036	1.731	16158	16384	0	316
-1.695	1.803	16133	16398	0	316
-3.895	0.829	16116	16416	0	316
-7.501	-1.118	16075	16416	0	316
-10.891	-4.400	16033	16430	0	316
-11.396	-4.147	16075	16510	0	316
-7.321	-1.947	16033	16580	0	316
0.757	2.705	15966	16510	0	316
7.753	8.042	15865	16310	0	316
11.287	10.819	15781	16062	0	316
9.556	9.196	15714	15893	0	316
6.022	7.321	15631	15800	0	316
5.049	6.347	15488	15566	0	316
6.383	8.402	15279	15084	0	316
7.176	12.009	15044	14528	0	316
9.376	15.615	14860	14130	0	316
8.763	18.139	14735	13990	0	316
7.140	15.579	14609	14088	0	316
5.698	13.884	14525	14298	0	316
2.993	9.845	14458	14523	0	316
0.036	6.058	14441	14785	0	316
-4.039	1.046	14400	15098	0	316
-7.789	-4.075	14400	15444	0	316
-8.835	-9.376	14400	15814	0	316
-10.314	-12.766	14441	16188	0	316
-8.691	-11.179	14483	16561	0	316
-6.599	-9.917	14567	16978	0	316
-5.662	-6.960	14668	17450	0	316
-5.157	-5.698	14751	17922	0	316
-3.931	-4.904	14877	18282	0	316
-3.318	-4.904	14944	18516	0	316
-2.164	-3.498	15044	18699	0	316
-2.524	-3.390	15170	18886	0	316
-5.265	-3.354	15254	19059	0	316
-8.871	-4.472	15338	19143	0	316
-11.864	-6.455	15421	19129	0	316
-14.353	-6.599	15463	19050	0	316
-13.379	-9.160	15572	18947	0	316
-12.586	-11.035	15614	18867	0	316
-15.110	-14.100	15673	18788	1	492
-18.392	-16.697	15698	18596	0	492
-24.522	-19.510	15714	18217	0	492
-27.299	-19.726	15631	17731	0	492
-27.119	-20.736	15572	17239	0	492
-25.207	-17.634	15530	16833	0	492
-21.313	-17.923	15446	16519	0	492
-19.654	-15.182	15421	16263	0	492
-20.375	-15.903	15338	15978	0	492
-19.546	-12.910	15254	15617	0	492
-20.050	-13.451	15128	15229	0	492
-21.673	-14.497	15044	14939	0	492
-23.116	-16.877	14919	14747	0	492
-27.804	-20.087	14818	14542	0	492
-30.761	-23.512	14693	14303	0	492
-36.387	-24.270	14609	14191	0	492
-41.147	-27.624	14542	14214	0	492
-45.907	-31.843	14458	14233	0	492
-46.664	-34.403	14358	14228	0	492
-44.609	-34.728	14291	14284	0	492
-41.219	-33.069	14249	14397	0	492
-38.406	-29.715	14190	14579	0	492
-38.622	-26.794	14207	14860	0	492
-39.740	-26.325	14207	15182	0	492
-38.839	-25.496	14232	15505	0	492
-37.072	-23.765	14249	15800	0	492
-33.646	-20.447	14249	16034	0	492
-32.853	-20.736	14291	16268	0	492
-33.357	-18.103	14333	16566	0	492
-34.800	-18.752	14400	16893	0	492
-36.387	-17.706	14458	17207	0	492
-38.370	-18.320	14584	17562	0	492
-39.272	-18.067	14735	17964	0	492
-40.822	-21.349	14835	18362	0	492
-41.111	-26.325	15028	18713	0	492
-42.012	-30.977	15195	19045	0	492
-41.904	-33.574	15363	19391	0	492
-40.281	-33.393	15572	19723	0	492
-38.406	-31.482	15781	20008	0	492
-38.514	-30.581	15966	20214	0	492
-40.678	-29.931	16158	20345	0	492
-44.428	-32.492	16343	20406	0	492
-49.802	-37.757	16484	20340	0	492
-52.254	-42.734	16635	20167	0	492
-53.480	-47.025	16777	19999	0	492
-48.864	-45.763	16945	19920	0	492
-47.061	-45.799	17112	19859	0	492
-44.320	-43.491	17263	19686	0	492
-42.517	-41.363	17347	19396	0	492
-41.543	-42.193	17472	19115	0	492
-40.966	-37.937	17598	18919	0	492
-36.747	-34.403	17765	18792	0	492
-35.197	-31.374	17891	18699	0	492
-35.088	-30.797	18033	18563	0	492
-37.000	-31.915	18159	18390	0	492
-38.118	-31.410	18285	18236	0	492
-37.000	-29.787	18435	18133	0	492
-33.393	-28.164	18578	18063	0	492
-30.148	-27.191	18745	17988	0	492
-30.436	-28.237	18896	17899	0	492
-34.583	-30.905	19038	17847	0	492
-39.308	-35.124	19206	17880	0	492
-43.455	-38.082	19373	17936	0	492
-45.114	-41.039	19541	17908	0	492
-42.229	-41.039	19708	17805	0	492
-40.173	-41.039	19834	17702	0	492
-37.252	-39.957	19985	17628	0	492
-35.629	-37.901	20085	17492	0	492
-33.718	-36.819	20211	17258	0	492
-32.023	-34.439	20278	17020	0	492
-31.446	-33.141	20362	16833	0	492
-29.535	-30.761	20487	16683	0	492
-28.922	-28.777	20546	16538	0	492
-30.328	-27.660	20613	16375	0	492
-31.735	-26.001	20672	16165	0	492
-33.574	-26.614	20697	15903	0	492
-37.505	-31.626	20697	15561	0	492
-43.094	-36.134	20655	15168	0	492
-48.107	-42.481	20630	14850	0	492
-51.136	-46.195	20630	14654	1	316
-55.608	-49.657	20588	14486	0	316
-55.463	-52.001	20529	14228	0	316
-55.247	-50.559	20445	13938	0	316
-54.418	-51.929	20420	13779	0	316
-52.614	-50.920	20378	13756	0	316
-54.129	-52.831	20337	13756	0	316
-55.211	-52.542	20278	13742	0	316
-60.007	-55.211	20253	13732	0	316
-58.420	-50.595	20194	13756	0	316
-53.444	-46.881	20169	13854	0	316
-47.782	-41.327	20194	14018	0	316
-40.137	-37.829	20110	14149	0	316
-38.983	-36.675	20085	14200	0	316
-39.488	-39.127	20043	14275	0	316
-42.337	-40.966	20043	14415	0	316
-42.950	-41.255	19960	14514	0	316
-43.887	-40.101	19918	14532	0	316
-43.527	-37.000	19817	14486	0	316
-41.003	-32.853	19692	14327	0	316
-40.245	-32.023	19566	14125	0	316
-39.921	-33.754	19482	14111	0	316
-41.327	-37.216	19440	14294	0	316
-43.599	-41.003	19373	14490	0	316
-45.618	-44.573	19315	14663	0	316
-46.953	-45.871	19315	14878	0	316
-48.467	-46.268	19315	15150	0	316
-49.477	-47.349	19315	15435	0	316
-48.503	-49.008	19290	15688	0	316
-49.802	-48.215	19290	15907	0	316
-46.520	-45.258	19290	16109	0	316
-42.697	-40.101	19290	16258	0	316
-40.245	-33.321	19248	16338	0	316
-37.865	-30.797	19231	16402	0	316
-37.432	-31.410	19231	16458	0	316
-39.091	-34.151	19164	16458	0	316
-40.498	-35.882	19122	16412	0	316
-39.416	-35.088	19080	16416	0	316
-37.432	-30.941	19080	16482	0	316
-33.321	-26.578	19080	16599	0	316
-29.823	-22.611	19080	16753	0	316
-26.794	-22.611	19080	16856	0	316
-25.207	-23.260	19080	16861	0	316
-24.342	-25.243	19080	16842	0	316
-22.611	-27.876	19064	16837	0	316
-25.207	-31.374	19038	16851	0	316
-27.191	-35.233	19038	16865	0	316
-30.184	-38.658	19022	16842	0	316
-31.951	-40.137	19022	16828	0	316
-32.059	-38.875	19022	16879	0	316
-31.662	-35.810	19064	16978	0	316
-31.338	-35.485	19105	17099	0	316
-34.583	-36.603	19122	17183	0	316
-37.865	-38.839	19122	17202	0	316
-41.435	-42.048	19147	17197	0	316
-43.022	-42.409	19189	17239	0	316
-43.563	-41.219	19231	17324	0	316
-41.652	-38.154	19273	17361	0	316
-37.360	-33.141	19290	17333	0	316
-32.744	-30.256	19290	17258	0	316
-29.787	-29.679	19231	17048	0	316
-28.092	-30.653	19147	16641	0	316
-28.164	-31.194	19064	16235	0	316
-29.282	-30.653	19022	16015	0	316
-32.203	-28.309	18955	15912	0	316
-32.420	-28.561	18896	15823	0	316
-31.482	-29.102	18854	15744	0	316
-30.436	-31.915	18812	15683	0	316
-28.994	-33.574	18787	15655	0	316
-31.518	-35.557	18745	15669	0	316
-37.324	-39.199	18729	15678	0	316
-40.498	-42.589	18662	15650	0	316
-42.589	-44.104	18620	15589	0	316
-36.675	-41.976	18519	15444	0	316
-30.328	-38.082	18352	15037	0	316
-24.486	-32.528	18100	14397	0	316
-20.880	-28.273	17891	13835	0	316
-22.972	-26.325	17682	13536	0	316
-23.549	-26.361	17472	13321	0	316
-24.125	-26.578	17179	12951	0	316
-25.748	-27.515	16928	12498	0	316
-28.164	-29.463	16693	12231	0	316
-29.823	-28.850	16509	12259	0	316
-34.115	-29.391	16368	12493	0	316
-35.052	-28.777	16259	12877	0	316
-33.105	-28.489	16200	13363	0	316
-30.508	-29.931	16158	13882	0	316
-31.771	-32.925	16133	14425	0	316
-32.420	-36.675	16133	15005	0	316
-33.538	-39.632	16217	15645	0	316
-34.331	-39.235	16242	16263	0	316
-31.626	-38.190	16284	16744	0	316
-28.994	-36.278	16326	17108	0	316
-27.840	-36.891	16343	17436	0	316
-27.732	-37.360	16400	17768	0	316
-29.535	-38.009	16467	18086	0	316
-28.597	-35.737	16509	18315	0	316
-28.417	-33.285	16551	18460	0	316
-27.155	-31.013	16568	18568	0	316
-26.217	-30.689	16610	18591	0	316
-27.984	-31.158	16568	18446	0	316
-28.597	-32.348	16568	18245	0	316
-30.436	-34.115	16568	18161	0	316
-31.049	-32.348	16568	18128	0	316
-29.715	-30.148	16551	17978	0	316
-29.282	-29.391	16526	17735	0	316
-27.335	-26.938	16484	17557	0	316
-24.739	-25.532	16484	17497	0	316
-22.142	-27.299	16509	17487	0	316
-20.952	-27.155	16526	17487	0	316
-21.709	-29.823	16568	17525	0	316
-23.476	-30.977	16652	17651	0	316
-25.929	-31.158	16719	17857	0	316
-26.722	-28.453	16819	18030	0	316
-24.125	-26.361	16886	18081	0	316
-22.647	-25.243	16928	17992	0	316
-25.243	-26.542	16945	17857	0	316
-28.922	-30.220	16970	17726	0	316
-34.043	-33.285	16987	17609	0	316
-37.685	-36.711	16987	17431	0	316
-37.180	-37.505	16945	17146	0	316
-34.475	-37.108	16903	16828	0	316
-31.843	-35.629	16886	16571	0	316
-29.895	-32.997	16861	16393	0	316
-26.866	-28.128	16819	16277	0	316
-25.243	-25.063	16819	16146	0	316
-22.395	-19.654	16777	16015	0	316
-21.601	-17.851	16760	15921	0	316
-24.522	-22.431	16760	15907	0	316
-26.830	-28.309	16777	15950	0	316
-30.689	-34.980	16760	15973	0	316
-32.276	-37.216	16760	15968	0	316
-32.636	-36.639	16760	16001	0	316
-33.285	-34.836	16802	16109	0	316
-35.810	-36.855	16819	16202	0	316
-38.334	-41.111	16777	16141	0	316
-38.803	-43.815	16677	15847	0	316
-36.134	-45.871	16568	15435	0	316
-31.843	-46.809	16442	15089	0	316
-28.705	-44.320	16343	14860	0	316
-25.784	-41.940	16259	14724	0	316
-24.089	-35.990	16175	14663	0	316
-22.214	-30.653	16091	14649	0	316
-23.368	-28.705	16008	14649	0	316
-28.417	-32.239	15966	14687	0	316
-34.331	-38.514	15949	14897	0	316
-41.688	-44.933	15991	15281	0	316
-45.655	-47.566	16008	15650	0	316
-43.563	-43.310	16008	15856	0	316
-35.016	-35.737	15966	15898	0	316
-26.794	-24.991	15949	15893	0	316
-19.870	-19.257	15907	15926	0	316
-13.559	-15.759	15924	16024	0	316
-14.425	-19.654	15882	16160	0	316
-15.002	-22.178	15882	16277	0	316
-15.398	-22.539	15865	16338	0	316
-16.012	-22.899	15865	16370	0	316
-14.713	-18.644	15840	16388	0	316
-17.238	-18.283	15798	16393	0	316
-16.156	-17.310	15756	16356	0	316
-18.320	-20.483	15740	16314	0	316
-20.050	-22.106	15714	16338	0	316
-22.395	-22.863	15714	16440	0	316
-24.125	-24.811	15714	16547	0	316
-22.647	-22.322	15698	16561	0	316
-23.476	-20.916	15656	16505	0	316
-21.421	-21.673	15631	16430	0	316
-20.736	-19.654	15572	16300	0	316
-21.313	-20.159	15488	16113	0	316
-18.933	-17.743	15421	15982	0	316
-18.500	-18.283	15379	15935	0	316
-16.156	-15.975	15296	15879	0	316
-16.444	-16.589	15254	15809	0	316
-15.218	-14.389	15195	15790	0	316
-16.012	-13.956	15170	15814	0	316
-14.858	-12.477	15128	15870	0	316
-15.254	-11.756	15111	15950	0	316
-16.084	-12.874	15044	15964	0	316
-15.795	-13.343	15028	15964	0	316
-18.139	-13.487	15086	16141	0	316
-18.320	-15.146	15086	16458	0	316
-20.627	-15.074	15153	16688	0	316
-21.493	-18.752	15128	16790	0	316
-21.854	-20.700	15195	16903	0	316
-24.198	-24.017	15237	17108	0	316
-20.988	-24.811	15296	17328	0	316
-20.447	-21.601	15279	17342	0	316
-18.788	-20.087	15279	17169	0	316
-16.048	-17.238	15279	17080	0	316
-17.202	-18.211	15321	17193	0	316
-17.166	-18.283	15421	17436	0	316
-19.329	-18.680	15530	17777	0	316
-19.329	-19.618	15673	18166	0	316
-23.657	-20.195	15882	18540	0	316
-26.542	-24.342	16033	18909	0	316
-29.391	-26.938	16259	19311	0	316
-30.508	-27.119	16509	19765	0	316
-27.660	-25.460	16760	20200	0	316
-25.856	-23.332	16987	20504	0	316
-23.765	-22.322	17238	20687	0	316
-23.945	-22.791	17514	20841	0	316
-24.522	-22.647	17765	21033	0	316
-23.512	-20.519	18017	21206	0	316
-24.089	-20.519	18268	21239	0	316
-24.666	-17.923	18494	21145	0	316
-24.234	-18.933	18703	21014	0	316
-23.080	-16.985	18938	20892	0	316
-22.467	-18.247	19147	20766	0	316
-20.159	-17.454	19399	20640	1	832
-21.385	-21.385	19650	20518	0	832
-25.027	-23.044	19817	20294	0	832
-27.119	-25.279	19960	19877	0	832
-28.561	-27.047	20069	19340	0	832
-31.049	-28.309	20211	18844	0	832
-31.915	-30.004	20320	18451	0	832
-34.079	-33.177	20420	18081	0	832
-35.521	-35.810	20487	17609	0	832
-35.052	-35.557	20529	17080	0	832
-32.131	-33.862	20613	16730	0	832
-32.456	-30.328	20755	16617	0	832
-33.285	-26.433	20864	16561	0	832
-36.855	-27.696	20923	16366	0	832
-42.265	-30.256	21007	15987	0	832
-42.878	-34.439	21007	15617	0	832
-42.157	-34.836	21074	15393	0	832
-38.803	-32.925	21115	15267	0	832
-34.331	-27.732	21157	15145	0	832
-31.735	-23.152	21199	14991	0	832
-29.931	-20.880	21216	14841	0	832
-27.804	-19.041	21241	14710	0	832
-30.040	-22.539	21241	14551	0	832
-30.472	-27.660	21174	14327	0	832
-32.816	-32.095	21157	14097	0	832
-32.636	-35.521	21115	13915	0	832
-29.174	-34.547	21115	13817	0	832
-24.486	-31.230	21090	13845	0	832
-20.880	-28.850	21090	13952	0	832
-20.988	-29.030	21074	14037	0	832
-23.440	-30.617	21074	14083	0	832
-27.371	-32.600	21048	14139	0	832
-29.715	-32.600	21048	14238	0	832
-32.816	-33.177	21032	14359	0	832
-35.954	-32.059	21007	14448	0	832
-40.606	-33.610	20990	14500	0	832
-43.419	-34.439	20965	14556	0	832
-46.159	-34.367	20923	14626	0	832
-44.248	-33.790	20923	14691	0	832
-41.327	-30.004	20881	14743	0	832
-37.829	-26.542	20839	14780	0	832
-33.934	-24.234	20755	14757	0	832
-30.436	-20.627	20697	14621	0	832
-26.325	-18.356	20546	14429	0	832
-23.909	-19.041	20445	14341	0	832
-22.791	-17.526	20420	14429	0	832
-21.421	-19.870	20362	14612	0	832
-23.224	-20.050	20295	14743	0	832
-22.322	-20.519	20253	14776	0	832
-20.123	-16.516	20169	14790	0	832
-19.762	-15.146	20110	14841	0	832
-19.185	-14.858	20043	14958	0	832
-24.234	-19.582	19985	15117	0	832
-29.463	-25.604	19960	15271	0	832
-33.898	-32.203	19918	15435	0	832
-34.367	-33.105	19943	15660	0	832
-31.446	-30.689	19943	15935	0	832
-27.119	-27.083	19960	16183	0	832
-27.010	-24.594	19943	16356	0	832
-27.912	-24.991	19960	16486	0	832
-29.066	-25.893	19960	16678	0	832
-28.705	-26.722	20043	16963	0	832
-25.965	-26.073	20110	17291	0	832
-24.089	-24.414	20194	17557	0	832
-20.014	-23.945	20236	17731	0	832
-19.546	-22.214	20295	17876	0	832
-20.411	-22.503	20378	18011	0	832
-20.483	-22.611	20404	18063	0	832
-23.801	-23.404	20445	18030	0	832
-27.804	-25.388	20504	18025	0	832
-29.463	-26.758	20571	18063	0	832
-29.571	-27.299	20613	18081	0	832
-28.489	-24.486	20672	18063	0	832
-26.506	-22.322	20697	17988	0	832
-23.332	-20.267	20739	17852	0	832
-24.594	-19.510	20739	17679	0	832
-28.597	-25.784	20739	17497	0	832
-32.564	-30.292	20739	17305	0	832
-35.846	-34.836	20713	17099	0	832
-34.295	-36.711	20697	16898	0	832
-29.102	-33.610	20697	16678	0	832
-22.286	-28.489	20588	16361	0	832
-18.969	-22.827	20487	15940	0	832
-16.733	-23.224	20420	15585	0	832
-18.969	-22.972	20320	15341	0	832
-20.555	-25.748	20211	15140	0	832
-21.060	-29.174	20110	14888	0	832
-22.935	-31.049	19960	14556	0	832
-21.529	-34.295	19876	14312	0	832
-22.142	-41.760	19750	14266	0	832
-23.188	-47.422	19708	14331	0	832
-21.781	-50.198	19625	14406	0	832
-22.070	-49.333	19541	14443	0	832
-22.034	-48.395	19499	14476	0	832
-26.614	-47.818	19440	14584	0	832
-35.233	-54.129	19415	14818	0	832
-42.770	-59.394	19415	15117	0	832
-45.907	-62.099	19415	15379	0	832
-43.022	-57.843	19399	15566	0	832
-34.980	-48.215	19373	15730	0	832
-28.814	-40.209	19373	15921	0	832
-25.424	-34.836	19399	16104	0	832
-23.909	-34.475	19332	16207	0	832
-24.486	-36.387	19332	16230	0	832
-21.565	-36.675	19290	16244	0	832
-19.185	-34.439	19273	16286	0	832
-19.293	-29.427	19248	16361	0	832
-16.985	-24.198	19231	16454	0	832
-16.877	-18.752	19231	16566	0	832
-14.641	-17.382	19206	16599	0	832
-11.864	-16.192	19147	16458	0	832
-7.537	-19.185	19038	16202	0	832
-6.455	-20.014	18938	15935	0	832
-7.357	-22.827	18829	15711	0	832
-10.025	-21.313	18703	15496	0	832
-13.415	-20.447	18561	15248	0	832
-13.631	-16.625	18435	15042	0	832
-13.271	-17.093	18368	15037	0	832
-15.975	-18.572	18327	15211	0	832
-18.933	-24.053	18268	15388	0	832
-25.820	-29.030	18201	15440	0	832
-29.823	-32.203	18100	15379	0	832
-32.059	-32.708	17992	15276	0	832
-32.203	-34.367	17908	15206	0	832
-35.305	-37.793	17824	15211	0	832
-38.983	-40.462	17724	15201	0	832
-44.753	-43.166	17598	15136	0	832
-48.215	-42.445	17472	15084	0	832
-49.153	-39.560	17389	15033	0	832
-52.542	-40.894	17263	14967	0	832
-54.706	-43.671	17154	15000	0	832
-60.151	-49.585	17095	15126	0	832
-61.702	-51.785	16987	15187	0	832
-60.043	-51.785	16861	15126	0	832
-55.211	-46.412	16735	15070	0	832
-46.520	-41.399	16677	15154	0	832
-45.799	-40.101	16593	15327	0	832
-50.523	-43.419	16526	15486	0	832
-56.726	-48.143	16484	15655	0	832
-61.630	-49.982	16467	15884	0	832
-64.551	-51.857	16467	16183	0	832
-63.902	-50.487	16484	16543	0	832
-63.469	-53.768	16526	16921	0	832
-68.842	-56.581	16568	17239	0	832
-73.170	-65.236	16593	17459	0	832
-76.343	-70.177	16610	17623	0	832
-78.219	-72.917	16635	17726	0	832
-77.065	-72.557	16635	17773	0	832
-74.865	-69.852	16635	17777	0	832
-72.701	-65.164	16610	17726	0	832
-72.160	-61.017	16610	17660	0	832
-75.478	-61.269	16652	17707	0	832
-78.796	-65.056	16719	17885	0	832
-83.448	-68.734	16735	18011	0	832
-85.142	-71.078	16735	17941	0	832
-82.907	-70.754	16719	17721	0	832
-81.825	-68.157	16677	17487	0	832
-82.221	-66.246	16652	17300	0	832
-81.825	-66.895	16610	17141	0	832
-83.592	-67.292	16568	16926	0	832
-82.149	-65.128	16484	16645	0	832
-78.038	-61.053	16442	16407	0	832
-75.009	-58.493	16384	16263	0	832
-73.819	-58.132	16343	16160	0	832
-74.901	-60.873	16284	16043	0	832
-76.740	-64.226	16217	15893	0	832
-79.012	-66.282	16158	15772	0	832
-79.661	-66.859	16091	15716	0	832
-79.084	-67.364	16075	15730	0	832
-78.687	-67.003	16033	15758	0	832
-79.986	-67.616	15966	15716	0	832
-80.166	-68.806	15907	15631	0	832
-83.195	-70.285	15865	15580	0	832
-85.142	-71.475	15798	15575	0	832
-83.988	-72.485	15798	15617	0	832
-85.647	-73.567	15714	15664	0	832
-85.359	-73.783	15631	15589	0	832
-87.090	-76.920	15530	15346	0	832
-89.254	-80.671	15405	15145	0	832
-91.057	-82.402	15338	15089	0	832
-90.588	-81.897	15237	15061	0	832
-90.335	-79.877	15153	15009	0	832
-89.650	-76.199	15028	14949	0	832
-89.722	-72.557	14902	14799	0	832
-87.342	-72.196	14751	14626	0	832
-86.405	-70.862	14693	14654	0	832
-83.159	-70.141	14626	14846	0	832
-84.602	-71.006	14525	14939	0	832
-87.703	-71.475	14400	14855	0	832
-88.713	-71.872	14232	14701	0	832
-90.768	-72.629	14106	14593	0	832
-89.109	-72.304	13981	14593	0	832
-85.575	-70.790	13897	14696	0	832
-81.861	-68.157	13788	14790	0	832
-81.464	-66.354	13663	14780	0	832
-80.022	-64.154	13537	14766	0	832
-81.140	-65.272	13436	14874	0	832
-82.221	-66.787	13395	15098	0	832
-82.582	-67.111	13353	15365	0	832
-77.966	-67.147	13286	15608	0	832
-74.793	-64.912	13244	15856	0	832
-72.016	-65.777	13269	16146	0	832
-70.177	-69.167	13244	16407	0	832
-70.177	-73.386	13227	16622	0	832
-68.662	-76.091	13269	16851	0	832
-66.751	-74.360	13286	17155	0	832
-66.751	-71.583	13353	17543	0	832
-70.790	-70.609	13478	18039	0	832
-76.560	-77.065	13621	18596	0	832
-82.690	-81.608	13830	19115	0	832
-83.844	-85.323	13981	19555	0	832
-79.697	-81.608	14148	19901	0	832
-75.911	-76.920	14316	20191	0	832
-72.737	-73.278	14525	20514	0	832
-72.268	-74.396	14751	20818	0	832
-75.514	-77.101	14944	21037	0	832
-77.858	-78.435	15170	21173	0	832
-75.658	-76.560	15338	21201	0	832
-72.268	-71.727	15572	21224	0	832
-66.030	-67.256	15865	21444	0	832
-62.315	-66.607	16175	21814	0	832
-63.505	-68.446	16442	22015	0	832
-67.905	-72.737	16677	21917	0	832
-74.071	-78.543	16861	21655	0	832
-77.028	-79.625	17070	21388	0	832
-75.802	-78.543	17305	21201	0	832
-72.809	-76.740	17556	21051	1	904
-72.557	-76.488	17724	20808	0	904
-74.396	-77.642	17891	20429	0	904
-78.435	-78.796	18075	20065	0	904
-80.346	-78.074	18243	19798	0	904
-78.723	-75.514	18435	19573	0	904
-74.468	-73.026	18645	19335	0	904
-71.439	-72.629	18812	19064	0	904
-72.340	-73.278	18955	18764	0	904
-74.396	-78.543	19105	18484	0	904
-76.812	-81.067	19273	18245	0	904
-80.346	-83.267	19399	17988	0	904
-80.563	-84.493	19541	17660	0	904
-80.094	-84.025	19650	17314	0	904
-79.084	-81.212	19750	17034	0	904
-79.373	-80.527	19901	16851	0	904
-78.904	-76.560	20002	16711	0	904
-78.723	-75.117	20127	16538	0	904
-79.264	-73.999	20211	16347	0	904
-79.373	-74.865	20337	16207	0	904
-76.884	-75.550	20462	16137	0	904
-72.990	-75.153	20571	16090	0	904
-67.147	-71.908	20655	15996	0	904
-60.079	-69.203	20755	15856	0	904
-56.004	-66.318	20822	15720	0	904
-52.939	-66.174	20906	15608	0	904
-56.870	-65.417	21007	15515	0	904
-56.113	-63.649	21048	15426	0	904
-57.303	-61.197	21090	15341	0	904
-55.896	-59.394	21132	15243	0	904
-57.988	-58.168	21132	15028	0	904
-59.827	-60.404	21132	14761	0	904
-61.269	-62.171	21174	14696	0	904
-61.197	-64.479	21258	14855	0	904
-60.332	-64.407	21283	14972	0	904
-54.382	-63.902	21300	14906	0	904
-51.028	-62.856	21283	14733	0	904
-49.297	-63.072	21258	14588	0	904
-48.648	-62.820	21258	14528	0	904
-47.818	-63.830	21258	14546	0	904
-50.270	-64.948	21283	14621	0	904
-51.821	-67.003	21283	14654	0	904
-51.100	-67.220	21283	14654	0	904
-51.100	-67.977	21283	14715	0	904
-51.605	-67.869	21283	14813	0	904
-55.319	-69.059	21241	14836	0	904
-59.719	-72.845	21216	14776	0	904
-64.118	-77.065	21174	14715	0	904
-66.210	-78.543	21132	14705	0	904
-61.269	-73.783	21115	14752	0	904
-56.870	-67.905	21090	14827	0	904
-51.388	-62.315	21074	14874	0	904
-51.388	-59.322	21032	14897	0	904
-50.198	-58.276	21007	14963	0	904
-52.290	-58.529	21007	15084	0	904
-53.191	-60.296	21007	15239	0	904
-53.624	-58.060	21007	15416	0	904
-54.886	-57.843	21032	15617	0	904
-54.634	-57.555	21032	15781	0	904
-52.903	-54.706	21048	15903	0	904
-52.110	-56.798	21048	16006	0	904
-50.234	-57.663	21032	16052	0	904
-50.703	-61.161	20990	16024	0	904
-53.083	-65.525	20948	15921	0	904
-53.732	-66.967	20881	15762	0	904
-54.057	-67.905	20797	15603	0	904
-51.713	-67.977	20713	15477	0	904
-49.585	-64.407	20655	15388	0	904
-45.294	-63.325	20546	15290	0	904
-46.664	-64.695	20445	15098	0	904
-49.513	-67.292	20295	14836	0	904
-49.549	-68.410	20169	14621	0	904
-49.874	-68.806	20069	14514	0	904
-46.051	-66.066	19918	14486	0	904
-41.688	-65.633	19834	14490	0	904
-38.334	-63.505	19750	14486	0	904
-36.567	-62.964	19625	14504	0	904
-34.115	-60.692	19566	14602	0	904
-30.436	-57.086	19482	14771	0	904
-29.102	-52.687	19399	14911	0	904
-26.722	-52.290	19290	14906	0	904
-27.660	-50.415	19122	14724	0	904
-28.381	-51.641	18938	14476	0	904
-26.722	-51.028	18829	14401	0	904
-24.378	-52.146	18729	14551	0	904
-19.762	-51.605	18645	14752	0	904
-15.435	-51.749	18578	14949	0	904
-12.622	-51.208	18536	15196	0	904
-10.710	-48.215	18536	15533	0	904
-13.704	-48.612	18519	15907	0	904
-14.966	-47.602	18494	16216	0	904
-18.716	-50.162	18452	16324	0	904
-19.906	-51.929	18368	16249	0	904
-20.339	-49.333	18310	16230	0	904
-14.677	-45.330	18243	16356	0	904
-11.468	-37.324	18226	16505	0	904
-8.439	-33.105	18201	16613	0	904
-8.511	-33.610	18159	16688	0	904
-10.602	-37.360	18100	16706	0	904
-12.658	-40.065	18017	16622	0	904
-11.323	-40.678	17933	16458	0	904
-7.032	-36.964	17849	16356	0	904
-1.118	-30.545	17782	16314	0	904
3.787	-25.207	17657	16211	0	904
8.583	-22.827	17556	16043	0	904
9.124	-20.591	17489	15935	0	904
9.737	-18.320	17430	15959	0	904
11.287	-17.995	17363	16066	0	904
16.516	-13.776	17305	16123	0	904
21.204	-8.150	17221	16080	0	904
28.489	-4.291	17154	16057	0	904
34.187	0.721	17137	16141	0	904
39.776	6.888	17095	16291	0	904
44.501	8.186	17095	16426	0	904
46.628	10.819	17070	16524	0	904
46.556	9.124	17054	16645	0	904
47.926	9.232	17054	16823	0	904
49.585	13.091	17070	17006	0	904
55.355	17.670	17095	17123	0	904
58.420	23.044	17054	17132	0	904
58.601	25.099	17054	17094	0	904
56.401	24.306	17054	17094	0	904
55.067	23.585	17054	17174	0	904
57.447	23.080	17070	17328	0	904
58.493	25.640	17137	17497	0	904
60.873	27.047	17196	17642	0	904
61.125	27.083	17221	17740	0	904
60.368	25.207	17280	17824	0	904
58.276	24.342	17322	17885	0	904
56.978	22.647	17347	17871	0	904
51.533	21.096	17389	17801	0	904
47.530	22.322	17363	17712	0	904
42.517	19.618	17389	17604	0	904
39.380	16.913	17389	17492	0	904
35.990	9.989	17472	17497	0	904
31.374	5.950	17556	17618	0	904
28.922	1.911	17531	17623	0	904
28.092	1.695	17531	17361	0	904
30.545	3.462	17430	16935	0	904
33.069	5.590	17389	16533	0	904
30.725	5.445	17280	16230	0	904
25.352	2.164	17221	15978	0	904
16.120	-2.596	17137	15716	0	904
11.684	-5.337	17028	15426	0	904
13.018	-4.219	16928	15159	0	904
16.084	1.479	16861	14981	0	904
23.152	8.583	16777	14906	0	904
24.991	12.622	16693	14841	0	904
29.859	16.661	16610	14738	0	904
32.420	14.749	16526	14687	0	904
34.908	15.795	16484	14743	0	904
36.170	14.208	16400	14813	0	904
34.547	12.550	16326	14794	0	904
33.646	12.694	16217	14682	0	904
36.531	12.730	16116	14574	0	904
39.921	15.471	16033	14570	0	904
45.871	17.490	15966	14691	0	904
52.470	19.618	15907	14888	0	904
56.076	22.070	15865	15051	0	904
62.171	25.352	15823	15154	0	904
62.676	26.578	15756	15248	0	904
61.630	27.479	15698	15374	0	904
58.420	27.660	15673	15519	0	904
54.057	25.856	15656	15636	0	904
51.244	25.676	15572	15730	0	904
53.372	25.099	15530	15814	0	904
53.336	24.342	15505	15898	0	904
56.726	23.621	15446	15996	0	904
56.762	20.195	15421	16109	0	904
56.509	19.870	15338	16132	0	904
51.677	15.435	15254	15978	0	904
47.926	13.595	15086	15674	0	904
43.347	10.746	14944	15341	0	904
39.055	7.212	14776	15084	0	904
37.432	4.436	14651	14939	0	904
36.459	2.885	14525	14855	0	904
38.442	4.580	14333	14733	0	904
40.029	7.537	14207	14616	0	904
40.786	10.494	14123	14673	0	904
39.849	11.504	14065	14897	0	904
35.377	9.412	13998	15140	0	904
32.023	4.760	13939	15318	0	904
31.158	2.380	13855	15435	0	904
31.446	0.649	13788	15547	0	904
33.033	2.092	13746	15730	0	904
35.846	4.255	13730	15992	0	904
37.649	7.321	13746	16300	0	904
39.560	8.871	13746	16585	0	904
41.291	10.530	13746	16837	0	904
41.003	9.412	13771	17090	0	904
42.770	11.323	13830	17361	0	904
42.842	12.081	13855	17600	0	904
44.501	10.638	13872	17721	0	904
43.599	12.117	13855	17693	0	904
37.757	11.251	13746	17431	0	904
33.538	11.143	13604	16968	0	904
29.535	11.684	13478	16514	0	904
31.194	14.641	13353	16197	0	904
35.954	15.290	13269	15992	0	904
40.822	16.264	13143	15898	0	904
41.580	12.982	13118	15917	0	904
39.272	11.287	13076	16024	0	904
34.836	8.619	13060	16197	0	904
30.508	5.806	13076	16375	0	904
28.597	6.744	13034	16477	0	904
26.650	5.770	13060	16547	0	904
24.198	6.022	13034	16645	0	904
21.709	7.717	13018	16744	0	904
22.358	8.475	13018	16800	0	904
25.748	10.242	12993	16823	0	904
31.122	11.720	12976	16762	0	904
37.793	14.353	12892	16608	0	904
42.012	16.228	12808	16380	0	904
44.104	21.241	12699	16141	0	904
46.015	20.952	12658	16034	0	904
44.681	20.555	12599	16076	0	904
41.543	16.913	12616	16188	0	904
38.550	14.172	12599	16370	0	904
37.577	11.648	12699	16673	0	904
41.399	15.471	12808	17108	0	904
46.989	19.113	12934	17586	0	904
51.352	24.270	13076	18035	0	904
53.480	24.883	13244	18460	0	904
51.461	21.493	13411	18886	0	904
49.910	20.087	13604	19321	0	904
49.297	16.264	13830	19742	0	904
49.333	17.129	14039	20088	0	904
51.749	17.057	14274	20355	0	904
52.723	19.510	14500	20579	0	904
56.906	21.277	14709	20724	0	904
57.194	26.289	14902	20761	0	904
60.188	31.987	15111	20761	0	904
62.964	36.495	15321	20780	0	904
65.633	39.416	15547	20794	0	904
68.590	40.101	15781	20808	0	904
69.816	39.127	15991	20813	0	904
69.816	36.819	16200	20757	0	904
68.878	35.485	16400	20588	0	904
67.797	34.980	16526	20214	0	904
64.623	33.898	16610	19676	0	904
61.630	31.554	16719	19176	1	960
59.863	28.525	16844	18783	0	960
55.824	23.152	16928	18460	0	960
54.201	18.283	17028	18142	0	960
52.326	16.264	17112	17763	0	960
49.513	14.749	17137	17333	0	960
50.559	17.923	17221	16959	0	960
55.319	20.808	17280	16659	0	960
60.512	25.568	17305	16380	0	960
65.200	25.748	17363	16090	0	960
68.518	27.335	17389	15823	0	960
69.095	27.010	17447	15655	0	960
67.797	29.715	17531	15603	0	960
65.561	30.076	17640	15636	0	960
62.568	30.328	17698	15692	0	960
62.964	28.128	17807	15739	0	960
63.902	26.830	17908	15847	0	960
67.616	28.273	18059	16043	0	960
70.069	31.122	18226	16263	0	960
67.544	31.158	18310	16421	0	960
63.000	29.391	18435	16505	0	960
56.942	24.558	18561	16557	0	960
53.119	19.762	18687	16669	0	960
55.139	20.014	18854	16884	0	960
59.611	21.277	19022	17123	0	960
64.190	25.099	19164	17230	0	960
68.193	25.388	19248	17193	0	960
67.003	23.765	19332	17113	0	960
65.128	23.549	19457	17076	0	960
64.948	21.529	19566	17052	0	960
63.253	22.683	19625	16973	0	960
62.459	25.135	19708	16823	0	960
58.817	22.395	19775	16636	0	960
55.499	17.887	19775	16407	0	960
52.074	15.002	19792	16127	0	960
52.290	12.982	19750	15814	0	960
52.687	12.802	19750	15524	0	960
56.509	18.247	19692	15253	0	960
59.214	21.421	19650	14930	0	960
65.236	26.397	19541	14532	0	960
71.114	29.968	19440	14177	0	960
75.802	33.393	19332	13892	0	960
79.733	38.839	19248	13662	0	960
79.445	42.229	19164	13513	0	960
78.615	44.284	19064	13424	0	960
73.927	41.183	18980	13382	0	960
69.744	35.124	18938	13438	0	960
64.190	26.433	18896	13620	0	960
60.115	21.529	18854	13840	0	960
58.024	19.582	18829	14004	0	960
56.978	20.195	18787	14144	0	960
57.519	22.647	18745	14312	0	960
56.221	21.168	18729	14528	0	960
55.860	21.421	18729	14766	0	960
52.903	19.618	18729	14977	0	960
51.244	18.464	18703	15173	0	960
48.359	15.723	18729	15412	0	960
48.431	16.480	18745	15720	0	960
50.415	16.408	18770	16020	0	960
51.316	19.762	18787	16207	0	960
53.011	20.772	18787	16296	0	960
49.513	21.493	18787	16384	0	960
48.395	21.890	18787	16505	0	960
47.710	20.303	18829	16636	0	960
51.208	22.827	18829	16711	0	960
58.529	25.820	18787	16725	0	960
64.984	30.977	18787	16702	0	960
68.878	33.862	18745	16603	0	960
68.410	33.285	18687	16468	0	960
62.856	28.489	18662	16338	0	960
55.427	23.116	18536	16109	0	960
49.405	14.569	18410	15720	0	960
45.546	13.235	18243	15309	0	960
44.717	12.225	18075	14977	0	960
45.582	15.110	17975	14729	0	960
45.258	15.002	17824	14560	0	960
42.734	12.117	17698	14457	0	960
40.966	9.340	17573	14369	0	960
35.918	6.311	17389	14242	0	960
36.134	5.121	17305	14125	0	960
36.567	8.222	17179	14135	0	960
40.173	11.973	17070	14298	0	960
41.976	12.802	17028	14514	0	960
41.688	10.350	16945	14682	0	960
40.462	9.917	16886	14841	0	960
41.363	11.323	16819	15047	0	960
43.960	13.307	16760	15285	0	960
49.369	20.303	16693	15477	0	960
52.614	23.116	16635	15557	0	960
55.716	27.010	16568	15585	0	960
57.230	30.725	16509	15688	0	960
59.971	34.764	16484	15889	0	960
63.866	43.094	16467	16123	0	960
66.787	49.116	16442	16333	0	960
68.013	49.153	16400	16514	0	960
66.138	49.153	16400	16716	0	960
61.522	44.356	16425	16949	0	960
57.880	39.272	16467	17202	0	960
53.985	36.567	16484	17417	0	960
54.526	36.206	16526	17567	0	960
52.470	36.206	16551	17707	0	960
51.244	35.521	16610	17876	0	960
47.746	36.459	16652	18077	0	960
48.467	36.855	16735	18236	0	960
48.792	37.216	16719	18194	0	960
55.175	37.036	16693	17960	0	960
60.801	37.757	16693	17717	0	960
66.174	39.704	16652	17562	0	960
69.203	43.960	16635	17431	0	960
70.501	48.539	16610	17291	0	960
68.374	49.657	16593	17141	0	960
64.551	47.638	16551	16982	0	960
59.214	41.039	16526	16875	0	960
56.004	35.521	16568	16926	0	960
55.608	33.069	16635	17127	0	960
54.778	32.853	16693	17291	0	960
56.185	34.620	16693	17263	0	960
54.021	33.934	16652	17080	0	960
52.038	32.816	16635	16856	0	960
48.503	30.256	16610	16678	0	960
50.811	30.905	16593	16571	0	960
52.254	32.600	16568	16519	0	960
55.536	36.098	16551	16449	0	960
53.696	37.937	16526	16338	0	960
50.631	34.656	16509	16225	0	960
43.130	29.607	16467	16146	0	960
38.262	24.053	16425	16052	0	960
34.511	17.562	16384	15921	0	960
32.059	14.569	16326	15786	0	960
28.958	11.323	16259	15645	0	960
25.820	7.609	16200	15524	0	960
24.847	5.878	16133	15444	0	960
26.866	6.383	16091	15356	0	960
28.525	8.439	16008	15253	0	960
27.407	9.196	15949	15206	0	960
25.424	8.943	15882	15248	0	960
20.195	7.465	15840	15313	0	960
18.428	7.429	15781	15253	0	960
22.034	9.304	15656	15084	0	960
24.198	11.396	15547	14944	0	960
25.748	12.225	15488	14883	0	960
27.335	10.783	15379	14864	0	960
27.119	12.982	15321	14869	0	960
31.662	18.644	15212	14892	0	960
39.524	23.909	15128	14883	0	960
46.232	28.128	14986	14766	0	960
51.749	30.545	14877	14616	0	960
49.225	29.391	14776	14668	0	960
44.501	25.640	14735	14855	0	960
38.370	22.719	14609	14902	0	960
32.672	19.582	14458	14766	0	960
31.013	12.586	14316	14574	0	960
31.013	10.819	14165	14462	0	960
29.282	7.898	14065	14481	0	960
28.417	7.212	13981	14631	0	960
28.597	7.212	13872	14808	0	960
30.004	9.556	13788	14935	0	960
29.823	11.540	13688	15033	0	960
30.112	10.025	13604	15150	0	960
26.433	6.888	13537	15267	0	960
21.241	3.967	13436	15360	0	960
21.673	2.957	13328	15402	0	960
24.125	6.780	13244	15454	0	960
31.626	13.415	13185	15603	0	960
38.803	21.565	13160	15865	0	960
40.606	23.873	13143	16165	0	960
38.803	24.234	13118	16398	0	960
33.682	22.755	13101	16571	0	960
28.850	20.339	13034	16678	0	960
29.246	23.152	13034	16744	0	960
32.528	25.748	12993	16847	0	960
37.216	29.823	12976	16954	0	960
39.019	31.085	12976	17048	0	960
38.803	29.210	12934	17188	0	960
33.682	26.397	12976	17366	0	960
27.010	20.880	12993	17562	0	960
20.772	17.021	13060	17768	0	960
14.569	11.937	13101	17941	0	960
11.937	10.638	13118	18007	0	960
9.412	9.232	13101	17913	0	960
9.304	7.285	13034	17693	0	960
8.186	6.419	13018	17455	0	960
7.248	3.823	12951	17239	0	960
5.121	3.318	12892	17020	0	960
5.770	5.085	12783	16739	0	960
5.193	7.357	12725	16477	0	960
7.645	10.097	12683	16407	0	960
11.937	13.451	12699	16505	0	960
15.110	17.346	12658	16571	0	960
20.952	20.844	12641	16543	0	960
22.683	23.116	12574	16458	0	960
24.594	25.712	12574	16398	0	960
23.440	22.142	12574	16393	0	960
19.185	17.490	12532	16416	0	960
18.031	14.172	12490	16380	0	960
15.038	12.297	12431	16230	0	960
17.670	13.415	12364	16095	0	960
18.788	18.608	12364	16085	0	960
20.952	17.129	12348	16174	0	960
17.418	14.713	12323	16263	0	960
14.028	7.934	12323	16305	0	960
7.609	5.409	12306	16310	0	960
3.967	4.075	12281	16342	0	960
0.577	6.888	12306	16468	0	960
-0.757	7.032	12364	16650	0	960
-0.397	7.032	12364	16795	0	960
1.406	5.914	12390	16893	0	960
4.039	5.806	12448	17001	0	960
8.763	6.635	12515	17174	0	960
11.828	10.566	12574	17394	0	960
12.477	12.874	12683	17623	0	960
13.379	15.074	12783	17876	0	960
18.716	19.473	12909	18119	0	960
23.657	22.719	13018	18325	0	960
31.626	28.309	13143	18512	0	960
37.324	32.961	13286	18675	0	960
37.865	34.187	13395	18811	0	960
34.872	31.122	13520	18876	0	960
33.357	28.237	13604	18811	0	960
32.420	26.217	13688	18647	0	960
33.466	28.092	13771	18498	0	960
34.187	32.492	13872	18456	0	960
34.475	38.082	13981	18484	1	888
32.961	38.009	14081	18479	0	888
28.958	38.190	14190	18390	0	888
24.198	35.377	14274	18315	0	888
19.149	32.167	14416	18334	0	888
17.382	29.174	14542	18385	0	888
14.930	28.525	14668	18348	0	888
18.211	28.669	14751	18222	0	888
20.880	28.994	14877	18152	0	888
23.404	30.833	15044	18194	0	888
23.621	30.725	15170	18250	0	888
21.096	30.508	15321	18222	0	888
20.952	30.508	15405	18119	0	888
19.437	31.518	15530	18007	0	888
20.447	31.518	15673	17964	0	888
23.657	31.013	15823	18021	0	888
24.053	28.128	15966	18100	0	888
23.657	26.397	16091	18039	0	888
23.368	24.378	16133	17735	0	888
21.745	26.578	16175	17305	0	888
21.998	28.020	16242	17024	0	888
21.998	30.364	16343	16954	0	888
24.666	32.312	16425	16921	0	888
30.545	32.708	16526	16870	0	888
35.557	34.295	16593	16804	0	888
37.396	32.023	16677	16720	0	888
36.098	29.066	16777	16655	0	888
30.040	24.883	16861	16603	0	888
24.991	19.077	16928	16543	0	888
19.185	16.913	16970	16444	0	888
17.779	14.028	17012	16254	0	888
13.163	14.641	17028	15987	0	888
10.314	12.802	17028	15753	0	888
7.573	11.396	17028	15608	0	888
6.383	10.674	17070	15524	0	888
8.330	9.665	17112	15477	0	888
10.206	9.196	17112	15440	0	888
9.881	8.943	17154	15412	0	888
7.645	7.321	17196	15430	0	888
4.977	3.642	17238	15524	0	888
3.534	1.911	17305	15627	0	888
5.193	1.370	17347	15688	0	888
10.025	5.301	17389	15772	0	888
13.848	8.583	17472	15912	0	888
15.615	12.946	17514	16029	0	888
16.913	12.766	17573	16085	0	888
15.543	11.612	17615	16113	0	888
16.516	11.648	17682	16165	0	888
14.677	11.396	17740	16272	0	888
16.949	14.353	17824	16430	0	888
17.129	19.365	17891	16547	0	888
21.277	21.168	17891	16500	0	888
22.250	20.808	17933	16356	0	888
22.539	20.772	17933	16225	0	888
20.880	16.949	17933	16179	0	888
17.598	16.733	17992	16174	0	888
14.821	14.569	17992	16151	0	888
10.386	15.867	17992	16104	0	888
7.501	13.451	18033	16071	0	888
1.623	10.458	18059	16076	0	888
2.560	10.242	18075	16118	0	888
5.554	11.323	18100	16165	0	888
10.674	11.323	18117	16132	0	888
13.631	15.507	18059	15940	0	888
16.192	17.526	17975	15622	0	888
17.021	20.519	17891	15276	0	888
16.985	21.998	17807	15009	0	888
21.277	26.758	17724	14836	0	888
26.253	30.545	17640	14654	0	888
27.227	32.203	17489	14457	0	888
27.804	33.646	17447	14327	0	888
28.164	34.439	17363	14289	0	888
27.587	34.259	17263	14317	0	888
25.316	34.656	17238	14425	0	888
24.919	32.997	17179	14542	0	888
22.647	28.958	17095	14598	0	888
18.897	22.250	17028	14602	0	888
13.631	11.323	16928	14500	0	888
9.556	5.301	16777	14327	0	888
6.311	0.036	16635	14214	0	888
4.977	0.036	16551	14205	0	888
7.140	3.678	16442	14284	0	888
9.160	6.744	16384	14453	0	888
6.924	7.357	16343	14705	0	888
0.757	3.318	16326	15000	0	888
-5.554	-3.931	16284	15257	0	888
-10.278	-8.979	16259	15402	0	888
-9.052	-10.963	16175	15444	0	888
-4.796	-9.629	16116	15510	0	888
-2.633	-7.212	16091	15725	0	888
-2.380	-6.888	16091	16015	0	888
-4.796	-9.412	16116	16291	0	888
-8.078	-11.756	16133	16566	0	888
-8.511	-13.127	16175	16893	0	888
-7.212	-12.477	16217	17197	0	888
-3.931	-8.475	16200	17300	0	888
-3.823	-9.917	16133	17113	0	888
-5.986	-9.701	16033	16772	0	888
-9.845	-11.540	15949	16500	0	888
-15.218	-15.687	15865	16361	0	888
-18.608	-20.267	15798	16286	0	888
-21.745	-23.224	15756	16258	0	888
-25.171	-26.938	15698	16249	0	888
-27.732	-30.797	15656	16268	0	888
-29.427	-33.033	15656	16366	0	888
-30.761	-33.321	15740	16641	0	888
-30.472	-32.889	15798	17071	0	888
-30.328	-31.771	15882	17473	0	888
-32.528	-30.905	15949	17726	0	888
-33.718	-29.643	16008	17819	0	888
-31.230	-30.364	16033	17829	0	888
-26.614	-30.328	16075	17829	0	888
-22.503	-29.751	16075	17810	0	888
-17.743	-29.715	16116	17754	0	888
-16.552	-30.184	16116	17656	0	888
-22.719	-32.203	16116	17534	0	888
-28.345	-30.833	16116	17403	0	888
-34.872	-30.472	16116	17282	0	888
-38.082	-29.535	16091	17137	0	888
-34.656	-26.794	16049	16949	0	888
-26.650	-22.539	16033	16762	0	888
-19.221	-18.680	16033	16627	0	888
-12.838	-19.618	16008	16575	0	888
-11.937	-18.139	16008	16552	0	888
-11.468	-20.411	15991	16458	0	888
-11.287	-19.798	15949	16314	0	888
-13.631	-19.257	15924	16207	0	888
-16.444	-22.358	15924	16165	0	888
-24.414	-25.352	15907	16174	0	888
-31.374	-32.203	15924	16225	0	888
-36.855	-38.226	15924	16277	0	888
-39.957	-39.272	15907	16254	0	888
-42.806	-43.743	15882	16160	0	888
-48.287	-46.881	15840	16057	0	888
-51.244	-50.703	15798	15950	0	888
-54.526	-47.710	15756	15856	0	888
-49.693	-43.274	15673	15725	0	888
-42.517	-37.505	15589	15458	0	888
-38.983	-34.439	15463	15145	0	888
-37.793	-37.252	15405	15056	0	888
-39.127	-43.274	15379	15164	0	888
-40.245	-47.386	15279	15154	0	888
-36.639	-48.287	15170	14953	0	888
-30.977	-46.484	15028	14691	0	888
-27.371	-42.770	14919	14523	0	888
-25.243	-39.127	14818	14486	0	888
-23.008	-33.970	14709	14509	0	888
-21.781	-28.741	14609	14467	0	888
-19.329	-22.467	14458	14298	0	888
-19.942	-23.008	14291	14144	0	888
-25.460	-24.270	14190	14125	0	888
-33.826	-30.725	14081	14228	0	888
-39.849	-38.767	13981	14341	0	888
-42.048	-42.120	13872	14411	0	888
-41.003	-42.589	13788	14495	0	888
-36.495	-40.389	13688	14645	0	888
-34.115	-38.983	13604	14808	0	888
-36.098	-40.209	13520	14930	0	888
-42.589	-45.005	13453	15051	0	888
-48.035	-48.251	13395	15234	0	888
-52.506	-50.992	13353	15491	0	888
-48.972	-47.782	13353	15823	0	888
-40.173	-43.887	13369	16207	0	888
-31.807	-41.219	13369	16528	0	888
-25.856	-39.921	13353	16758	0	888
-26.506	-39.704	13353	16893	0	888
-31.662	-38.767	13353	16992	0	888
-35.305	-37.108	13328	17094	0	888
-37.685	-33.862	13328	17207	0	888
-36.206	-30.941	13353	17319	0	888
-34.511	-32.131	13328	17394	0	888
-31.626	-34.115	13269	17314	0	888
-30.797	-36.242	13185	17080	0	888
-29.823	-37.937	13118	16833	0	888
-29.463	-37.468	13018	16636	0	888
-29.174	-35.305	12951	16482	0	888
-28.453	-33.682	12867	16375	0	888
-29.571	-32.203	12850	16342	0	888
-28.092	-30.400	12825	16472	0	888
-28.417	-29.499	12892	16753	0	888
-28.453	-31.699	12909	17020	0	888
-31.987	-35.052	12951	17179	0	888
-34.764	-37.432	12951	17249	0	888
-37.396	-39.272	12976	17319	0	888
-36.675	-36.819	13018	17422	0	888
-34.836	-33.466	13034	17520	0	888
-32.203	-32.059	13060	17529	0	888
-31.446	-32.384	13034	17427	0	888
-30.472	-32.456	13034	17296	0	888
-29.102	-31.374	13034	17211	0	888
-28.741	-31.302	13018	17193	0	888
-32.420	-31.915	13060	17207	0	888
-35.521	-35.737	13060	17183	0	888
-39.957	-40.245	13060	17113	0	888
-40.966	-41.652	13076	17020	0	888
-36.928	-37.757	13018	16898	0	888
-29.427	-30.076	12993	16734	0	888
-24.414	-21.926	12951	16585	0	888
-19.690	-17.238	12976	16496	0	888
-20.050	-13.956	12934	16444	0	888
-21.349	-16.336	12934	16421	0	888
-25.171	-16.697	12951	16407	0	888
-28.164	-20.844	12892	16366	0	888
-32.276	-23.476	12850	16225	0	888
-36.964	-29.427	12741	15950	0	888
-43.924	-35.413	12641	15589	0	888
-49.513	-41.976	12574	15327	0	888
-51.569	-47.602	12473	15215	0	888
-52.759	-51.028	12431	15192	0	888
-50.379	-53.083	12348	15154	0	888
-49.441	-50.667	12222	14991	0	888
-48.035	-49.225	12096	14733	0	888
-45.835	-44.104	11988	14542	0	888
-44.032	-39.272	11887	14486	0	888
-39.668	-34.980	11778	14523	0	888
-34.944	-30.400	11694	14560	0	888
-29.210	-26.542	11594	14560	0	888
-25.748	-23.981	11527	14621	0	888
-20.844	-22.647	11485	14832	0	888
-18.211	-20.411	11468	15136	0	888
-17.779	-20.411	11468	15407	0	888
-18.608	-21.096	11443	15608	0	888
-22.755	-20.988	11443	15828	0	888
-25.965	-24.342	11443	16085	0	888
-30.040	-25.424	11443	16319	0	888
-35.774	-27.119	11468	16524	0	888
-39.668	-31.302	11485	16739	0	888
-45.330	-35.701	11569	17001	0	888
-52.506	-42.481	11636	17380	0	888
-57.483	-48.467	11803	17913	0	888
-60.332	-51.749	11988	18530	0	888
-60.801	-53.408	12180	19078	0	888
-60.837	-53.949	12364	19499	0	888
-59.502	-51.857	12515	19779	0	888
-56.509	-52.651	12725	19985	0	888
-55.536	-50.090	12892	20214	0	888
-53.660	-47.458	13118	20448	0	888
-51.388	-47.386	13311	20630	0	888
-49.766	-44.392	13537	20780	0	888
-49.405	-42.445	13746	20902	0	888
-43.671	-36.711	13998	21028	0	888
-37.252	-31.338	14291	21262	0	888
-27.696	-23.621	14609	21580	0	888
-21.204	-19.401	14902	21762	0	888
-21.637	-17.670	15111	21655	0	888
-24.955	-17.670	15321	21346	0	888
-28.850	-18.067	15488	20981	0	888
-28.850	-16.228	15631	20621	0	888
-25.207	-11.973	15798	20205	1	992
-18.139	-11.251	15882	19686	0	992
-16.697	-9.232	15966	19115	0	992
-13.776	-11.648	16033	18586	0	992
-13.812	-15.002	16133	18161	0	992
-11.973	-15.290	16242	17833	0	992
-11.937	-17.021	16326	17548	0	992
-13.163	-15.867	16384	17197	0	992
-15.038	-14.569	16425	16781	0	992
-18.139	-15.362	16467	16384	0	992
-18.933	-13.343	16526	16080	0	992
-18.788	-12.874	16593	15875	0	992
-13.379	-10.350	16652	15711	0	992
-8.655	-6.744	16693	15580	0	992
-1.659	-2.705	16777	15529	0	992
4.940	1.623	16886	15580	0	992
6.996	2.813	16987	15688	0	992
9.376	5.842	17070	15683	0	992
9.845	6.852	17054	15430	0	992
9.052	8.511	17012	15033	0	992
8.835	8.907	17028	14808	0	992
9.412	8.907	17070	14804	0	992
10.458	9.520	17070	14841	0	992
8.979	8.330	17154	14878	0	992
6.527	6.058	17196	14949	0	992
0.902	1.334	17221	15037	0	992
-3.390	-3.895	17280	15136	0	992
-6.635	-7.825	17322	15196	0	992
-2.741	-6.347	17280	15126	0	992
2.524	0.361	17238	14897	0	992
6.671	4.291	17154	14593	0	992
9.989	5.662	17054	14308	0	992
10.097	5.013	16987	14130	0	992
7.825	2.056	16945	14069	0	992
7.717	0.397	16886	14055	0	992
10.097	3.318	16819	14074	0	992
14.930	9.304	16777	14153	0	992
17.310	14.136	16760	14270	0	992
19.113	15.038	16760	14429	0	992
17.490	16.805	16777	14668	0	992
16.048	15.038	16760	14916	0	992
15.110	16.516	16735	15075	0	992
18.175	17.743	16760	15201	0	992
17.815	21.781	16735	15346	0	992
18.680	20.014	16735	15454	0	992
13.163	18.175	16693	15472	0	992
8.763	13.595	16635	15454	0	992
1.803	10.927	16610	15496	0	992
-5.085	8.150	16635	15660	0	992
-9.989	5.085	16652	15964	0	992
-14.930	4.183	16760	16333	0	992
-16.480	1.442	16802	16627	0	992
-18.103	-0.938	16861	16856	0	992
-14.100	-4.868	16928	17071	0	992
-12.910	-7.068	17012	17338	0	992
-10.710	-9.268	17112	17628	0	992
-10.530	-11.792	17221	17862	0	992
-13.054	-14.064	17280	17992	0	992
-17.021	-15.146	17363	18067	0	992
-18.175	-17.562	17472	18114	0	992
-19.546	-15.975	17514	18109	0	992
-14.966	-15.326	17573	18025	0	992
-12.982	-15.290	17573	17880	0	992
-10.061	-13.668	17598	17688	0	992
-9.412	-14.858	17573	17464	0	992
-10.602	-13.127	17615	17277	0	992
-12.081	-11.251	17682	17291	0	992
-10.169	-10.386	17782	17483	0	992
-11.179	-10.710	17866	17637	0	992
-12.514	-12.297	17908	17623	0	992
-11.720	-15.939	17975	17539	0	992
-13.740	-17.706	18059	17520	0	992
-14.389	-21.168	18142	17576	0	992
-13.956	-20.050	18201	17581	0	992
-15.398	-20.591	18226	17431	0	992
-15.687	-21.241	18243	17141	0	992
-18.572	-22.719	18201	16790	0	992
-18.428	-26.217	18159	16468	0	992
-21.313	-30.148	18117	16197	0	992
-22.358	-31.590	18059	15875	0	992
-22.286	-31.879	17950	15486	0	992
-21.709	-28.092	17891	15159	0	992
-17.923	-24.991	17807	14939	0	992
-16.264	-20.627	17724	14761	0	992
-12.946	-17.779	17640	14546	0	992
-14.064	-17.959	17472	14266	0	992
-16.372	-17.021	17363	13966	0	992
-15.579	-17.815	17238	13761	0	992
-16.048	-15.543	17112	13690	0	992
-11.864	-14.136	17028	13690	0	992
-7.573	-9.881	16886	13648	0	992
-4.508	-6.852	16777	13569	0	992
-3.462	-3.859	16610	13499	0	992
-2.669	-4.977	16526	13485	0	992
-5.409	-6.022	16384	13536	0	992
-5.914	-10.097	16284	13625	0	992
-6.924	-11.360	16175	13728	0	992
-5.734	-13.595	16075	13849	0	992
-3.173	-13.704	15966	13980	0	992
-0.974	-13.018	15865	14111	0	992
0.325	-14.894	15781	14252	0	992
0.757	-14.425	15673	14401	0	992
0.721	-15.110	15547	14514	0	992
-0.577	-15.435	15421	14500	0	992
-3.318	-13.884	15254	14406	0	992
-6.239	-15.687	15111	14406	0	992
-9.376	-14.785	15028	14556	0	992
-11.396	-16.444	14961	14771	0	992
-8.222	-15.110	14818	14911	0	992
-2.957	-14.100	14709	14953	0	992
1.587	-10.169	14626	15061	0	992
2.993	-8.835	14567	15351	0	992
0.180	-11.360	14542	15730	0	992
-6.599	-16.084	14525	16062	0	992
-10.819	-18.392	14500	16310	0	992
-10.314	-19.329	14483	16519	0	992
-4.508	-12.946	14441	16734	0	992
2.128	-6.311	14416	16889	0	992
7.970	1.082	14374	16963	0	992
12.189	7.248	14358	17024	0	992
13.956	9.917	14333	17118	0	992
13.054	11.612	14333	17291	0	992
13.884	9.845	14358	17543	0	992
12.441	5.770	14416	17805	0	992
13.740	0.108	14441	17960	0	992
17.670	-0.036	14458	18007	0	992
19.690	0.721	14483	18025	0	992
22.935	3.714	14483	18049	0	992
20.627	5.373	14500	18077	0	992
18.464	4.472	14525	18063	0	992
17.057	2.272	14525	17988	0	992
14.461	-0.252	14525	17904	0	992
14.497	-0.649	14525	17843	0	992
14.497	-2.705	14584	17824	0	992
11.504	-6.239	14626	17899	0	992
9.556	-9.737	14693	18016	0	992
6.744	-15.182	14668	17978	0	992
2.236	-18.608	14651	17693	0	992
-1.623	-21.637	14584	17286	0	992
-4.436	-23.260	14525	16945	0	992
-7.681	-24.125	14458	16702	0	992
-7.717	-22.972	14416	16468	0	992
-6.419	-19.473	14274	16123	0	992
-2.596	-16.444	14165	15711	0	992
0.397	-11.071	14106	15454	0	992
1.767	-10.097	14039	15402	0	992
0.902	-12.694	13998	15421	0	992
-1.118	-13.307	13956	15440	0	992
-0.685	-15.687	13897	15435	0	992
1.551	-12.514	13855	15416	0	992
6.203	-8.799	13813	15416	0	992
7.753	-6.960	13771	15449	0	992
6.563	-8.402	13730	15486	0	992
2.633	-11.648	13688	15496	0	992
-2.452	-16.589	13621	15500	0	992
-7.609	-21.168	13579	15547	0	992
-10.963	-22.647	13604	15692	0	992
-17.129	-25.388	13579	15893	0	992
-21.565	-27.335	13579	16038	0	992
-27.083	-28.237	13562	16113	0	992
-31.951	-30.797	13562	16221	0	992
-34.944	-34.151	13579	16416	0	992
-36.459	-38.154	13621	16636	0	992
-36.351	-38.767	13646	16772	0	992
-34.439	-40.065	13663	16842	0	992
-32.528	-38.731	13688	16926	0	992
-32.780	-36.747	13704	17034	0	992
-33.970	-35.629	13704	17085	0	992
-37.757	-36.062	13704	17029	0	992
-38.009	-37.829	13704	16926	0	992
-37.468	-38.442	13688	16847	0	992
-34.331	-38.226	13646	16739	0	992
-30.761	-35.990	13604	16566	0	992
-26.073	-31.338	13579	16472	0	992
-23.693	-27.876	13579	16528	0	992
-22.972	-25.135	13579	16566	0	992
-22.503	-23.585	13520	16440	0	992
-24.053	-23.657	13453	16211	0	992
-28.381	-26.614	13395	15992	0	992
-34.006	-32.203	13311	15856	0	992
-41.616	-41.760	13269	15786	0	992
-49.477	-50.775	13202	15692	0	992
-54.237	-55.103	13118	15538	0	992
-55.716	-57.771	13060	15384	0	992
-53.372	-54.706	12951	15290	0	992
-54.165	-54.706	12909	15262	0	992
-54.742	-55.824	12867	15271	0	992
-53.228	-52.867	12741	15253	0	992
-51.136	-51.316	12725	15225	0	992
-45.402	-45.691	12658	15229	0	992
-37.937	-38.767	12599	15309	0	992
-34.980	-35.737	12574	15444	0	992
-34.187	-36.531	12515	15561	0	992
-36.206	-39.524	12490	15664	0	992
-38.767	-43.924	12490	15776	0	992
-39.416	-43.924	12406	15851	0	992
-36.747	-40.137	12390	15870	0	992
-35.341	-34.331	12348	15875	0	992
-34.079	-28.922	12180	15711	0	992
-34.944	-27.840	11988	15239	0	992
-35.882	-29.607	11778	14715	0	992
-33.574	-30.508	11636	14471	0	992
-30.040	-30.400	11552	14514	0	992
-25.676	-27.804	11485	14715	0	992
-23.080	-25.820	11426	14958	0	992
-21.241	-22.755	11401	15178	0	992
-20.231	-20.267	11343	15356	0	992
-21.493	-19.473	11317	15543	0	992
-20.050	-16.192	11301	15776	0	992
-20.231	-13.884	11259	16010	0	992
-19.437	-9.448	11234	16160	0	992
-18.283	-8.078	11217	16258	0	992
-20.591	-9.917	11234	16454	0	992
-20.339	-13.595	11276	16814	0	992
-21.926	-17.454	11359	17253	0	992
-19.329	-19.077	11443	17656	0	992
-17.129	-19.293	11527	17983	0	992
-14.858	-16.012	11678	18315	0	992
-18.320	-18.824	11803	18680	0	992
-20.880	-19.185	11946	19059	0	992
-22.431	-22.070	12138	19424	0	992
-20.808	-19.870	12306	19751	0	992
-15.002	-18.067	12515	20065	0	992
-7.285	-12.838	12725	20401	0	992
-2.380	-9.989	12993	20757	0	992
-1.659	-10.494	13227	21098	0	992
-4.977	-12.405	13495	21351	0	992
-9.448	-17.129	13746	21514	0	992
-11.215	-17.815	14023	21631	0	992
-14.064	-19.401	14291	21744	0	992
-13.704	-16.985	14567	21837	0	992
-10.710	-16.913	14835	21856	0	992
-9.196	-13.668	15086	21814	0	992
-6.419	-10.783	15363	21748	0	992
-1.406	-7.212	15614	21645	0	992
1.515	-2.416	15882	21528	0	992
2.849	1.046	16133	21355	1	944
2.885	2.669	16301	20995	0	944
3.065	2.308	16442	20429	0	944
0.036	-0.793	16593	19859	0	944
-2.128	-3.462	16735	19391	0	944
-1.983	-5.265	16861	18951	0	944
2.380	-2.560	16970	18493	0	944
7.934	3.390	17012	17936	0	944
13.740	10.314	17054	17282	0	944
17.995	14.245	17137	16720	0	944
15.110	15.507	17196	16421	0	944
11.179	10.819	17347	16319	0	944
6.203	5.950	17447	16197	0	944
6.816	3.318	17472	15907	0	944
10.169	3.606	17514	15500	0	944
16.516	8.222	17489	15126	0	944
20.195	10.999	17531	14846	0	944
21.890	12.009	17531	14640	0	944
20.375	12.189	17531	14411	0	944
18.067	11.215	17489	14116	0	944
19.978	13.776	17472	13868	0	944
21.529	18.464	17447	13751	0	944
25.171	19.798	17472	13742	0	944
27.119	21.529	17489	13765	0	944
27.515	22.431	17472	13798	0	944
28.128	22.070	17489	13854	0	944
26.866	21.601	17472	13920	0	944
23.549	18.103	17447	13929	0	944
19.618	15.471	17389	13877	0	944
17.021	10.855	17322	13770	0	944
12.730	11.684	17179	13513	0	944
14.497	14.858	17028	13153	0	944
16.516	17.166	16945	12979	0	944
17.202	20.916	16886	13068	0	944
18.897	22.358	16802	13255	0	944
17.454	21.709	16760	13475	0	944
18.175	23.585	16760	13747	0	944
19.077	21.998	16735	14069	0	944
20.519	22.755	16777	14439	0	944
22.935	22.935	16819	14855	0	944
21.962	20.375	16819	15206	0	944
21.277	20.267	16802	15388	0	944
17.093	16.228	16760	15421	0	944
18.500	16.300	16719	15421	0	944
17.346	16.048	16693	15491	0	944
18.320	17.815	16693	15660	0	944
19.293	17.202	16693	15875	0	944
16.733	16.192	16693	16085	0	944
15.975	11.684	16693	16277	0	944
15.687	10.242	16735	16426	0	944
14.245	9.376	16735	16543	0	944
14.605	8.475	16760	16664	0	944
12.694	9.232	16777	16786	0	944
12.297	9.773	16777	16851	0	944
11.648	9.088	16777	16879	0	944
11.035	6.924	16777	16907	0	944
10.602	3.714	16777	16898	0	944
8.042	0.252	16760	16818	0	944
3.426	-2.669	16735	16706	0	944
-0.505	-3.246	16693	16650	0	944
-5.157	-2.019	16719	16678	0	944
-7.501	-1.623	16719	16786	0	944
-7.321	-1.587	16777	16926	0	944
-9.484	-0.902	16802	17024	0	944
-9.412	0.144	16844	17080	0	944
-8.979	-0.325	16861	17160	0	944
-8.330	0.865	16928	17314	0	944
-7.609	1.154	17054	17520	0	944
-4.832	3.246	17095	17665	0	944
-4.400	5.013	17154	17698	0	944
-4.616	6.491	17196	17688	0	944
-0.938	9.196	17263	17688	0	944
0.288	12.045	17305	17684	0	944
1.659	13.091	17322	17618	0	944
4.652	17.057	17363	17506	0	944
8.439	16.372	17363	17361	0	944
14.208	19.437	17363	17151	0	944
20.447	20.844	17322	16926	0	944
22.358	24.522	17405	16847	0	944
22.106	24.630	17430	16856	0	944
18.897	22.250	17363	16692	0	944
13.127	19.293	17305	16324	0	944
11.360	14.894	17179	15884	0	944
10.350	12.910	17095	15519	0	944
8.691	12.153	17028	15276	0	944
6.599	10.638	16970	15136	0	944
4.904	9.232	16861	14986	0	944
3.210	7.285	16760	14747	0	944
4.255	5.337	16652	14537	0	944
7.465	4.760	16593	14453	0	944
8.763	4.111	16509	14467	0	944
10.494	5.409	16467	14523	0	944
11.504	7.825	16400	14579	0	944
11.215	10.819	16343	14645	0	944
12.550	13.091	16301	14743	0	944
13.740	16.877	16259	14897	0	944
12.766	18.247	16242	15103	0	944
13.920	21.457	16217	15318	0	944
15.579	22.503	16217	15500	0	944
14.713	23.224	16217	15692	0	944
15.615	21.601	16242	15950	0	944
11.432	17.238	16259	16216	0	944
5.950	12.550	16301	16398	0	944
2.019	8.655	16284	16491	0	944
-0.252	4.003	16259	16524	0	944
1.334	2.777	16217	16496	0	944
5.914	4.075	16158	16393	0	944
9.773	4.760	16091	16263	0	944
10.602	6.852	16033	16132	0	944
8.979	6.527	15966	16029	0	944
6.455	3.210	15882	15917	0	944
2.596	-1.442	15840	15837	0	944
-1.551	-4.147	15840	15945	0	944
-4.652	-5.914	15865	16240	0	944
-5.698	-6.022	15865	16444	0	944
-4.724	-7.573	15823	16402	0	944
-4.039	-7.429	15740	16207	0	944
-3.498	-8.439	15656	16020	0	944
-4.796	-6.708	15589	15912	0	944
-9.196	-4.977	15547	15856	0	944
-11.360	-5.049	15421	15748	0	944
-15.110	-9.052	15338	15571	0	944
-15.507	-12.910	15254	15472	0	944
-15.939	-13.271	15237	15543	0	944
-15.795	-14.713	15195	15697	0	944
-15.362	-14.317	15195	15833	0	944
-18.211	-16.949	15128	15921	0	944
-19.473	-18.247	15128	15992	0	944
-21.637	-19.654	15070	16048	0	944
-21.818	-17.851	15044	16066	0	944
-19.221	-17.634	14961	16062	0	944
-20.014	-16.733	14919	16015	0	944
-18.933	-20.916	14860	15921	0	944
-20.339	-22.611	14735	15805	0	944
-19.113	-23.585	14651	15683	0	944
-20.087	-24.378	14567	15561	0	944
-16.120	-18.933	14441	15416	0	944
-12.586	-16.552	14274	15150	0	944
-8.511	-11.432	14106	14771	0	944
-6.888	-7.970	13956	14528	0	944
-7.609	-7.681	13830	14514	0	944
-9.773	-6.275	13730	14584	0	944
-9.412	-4.508	13621	14677	0	944
-9.016	-3.498	13537	14822	0	944
-9.124	-5.590	13495	15028	0	944
-12.117	-10.097	13478	15276	0	944
-15.903	-15.435	13436	15533	0	944
-20.880	-17.382	13411	15772	0	944
-19.401	-18.788	13395	15982	0	944
-19.834	-17.382	13328	16085	0	944
-17.779	-18.103	13286	16127	0	944
-18.356	-20.014	13286	16342	0	944
-18.933	-22.611	13286	16664	0	944
-16.661	-21.421	13244	16739	0	944
-15.326	-18.644	13101	16458	0	944
-16.769	-17.454	12993	16109	0	944
-16.552	-16.300	12867	15921	0	944
-20.519	-16.156	12825	15959	0	944
-20.844	-18.031	12783	16141	0	944
-19.077	-17.129	12783	16324	0	944
-17.851	-18.752	12741	16444	0	944
-15.110	-18.392	12766	16599	0	944
-13.992	-22.106	12741	16814	0	944
-13.018	-27.191	12783	17010	0	944
-7.970	-27.515	12766	17141	0	944
-3.823	-25.279	12783	17207	0	944
-0.469	-21.385	12766	17244	0	944
1.767	-13.848	12808	17310	0	944
4.364	-10.458	12825	17445	0	944
8.402	-6.960	12867	17567	0	944
13.307	-4.616	12783	17469	0	944
15.615	-2.128	12683	17038	0	944
15.507	-1.587	12532	16510	0	944
9.953	-6.131	12473	16202	0	944
3.967	-11.432	12431	16137	0	944
2.849	-13.271	12348	16160	0	944
2.092	-13.740	12348	16207	0	944
2.849	-11.504	12348	16268	0	944
1.515	-8.042	12306	16328	0	944
-2.813	-7.609	12306	16388	0	944
-6.744	-9.052	12348	16552	0	944
-11.684	-10.314	12390	16823	0	944
-13.992	-10.314	12431	17057	0	944
-12.441	-11.432	12448	17123	0	944
-11.864	-12.405	12431	17043	0	944
-9.989	-11.540	12431	16954	0	944
-7.429	-14.821	12406	16898	0	944
-6.780	-16.372	12364	16795	0	944
-8.511	-16.048	12306	16594	0	944
-9.809	-16.084	12239	16352	0	944
-7.753	-10.530	12197	16174	0	944
-5.193	-7.537	12155	16141	0	944
0.252	-4.400	12155	16225	0	944
5.554	-0.577	12155	16314	0	944
9.665	2.957	12155	16338	0	944
8.799	6.996	12138	16352	0	944
7.970	8.691	12180	16440	0	944
6.744	9.989	12197	16608	0	944
6.203	9.701	12239	16781	0	944
7.825	8.547	12281	16889	0	944
9.232	10.783	12281	16949	0	944
11.251	12.658	12323	17001	0	944
12.297	11.107	12390	17099	0	944
12.622	13.704	12431	17239	0	944
15.759	15.687	12473	17338	0	944
19.510	16.769	12557	17408	0	944
18.428	18.464	12616	17534	0	944
17.887	17.815	12741	17777	0	944
13.740	16.552	12867	18114	0	944
12.045	14.966	13076	18493	0	944
10.927	16.805	13269	18867	0	944
11.107	15.975	13453	19195	0	944
11.035	16.697	13663	19480	0	944
8.006	13.451	13872	19742	0	944
7.104	13.884	14106	19943	0	944
6.131	15.975	14291	20083	0	944
8.619	18.464	14500	20177	0	944
11.287	24.017	14709	20205	0	944
11.612	27.299	14902	20219	0	944
13.776	28.309	15170	20340	0	944
14.389	27.984	15405	20495	0	944
14.749	28.309	15631	20443	0	944
17.346	29.463	15756	20135	0	944
19.113	31.049	15865	19704	0	944
23.044	34.187	15991	19302	0	944
28.561	38.045	16075	18919	1	900
33.682	43.671	16091	18339	0	900
37.865	49.621	16033	17497	0	900
39.308	54.562	15966	16659	0	900
39.235	57.519	15924	16048	0	900
41.111	56.185	15924	15650	0	900
43.022	52.074	15949	15416	0	900
42.806	48.035	15991	15271	0	900
41.652	44.068	15991	15150	0	900
37.901	39.091	16008	15042	0	900
33.682	37.901	16008	14902	0	900
32.312	39.235	16008	14752	0	900
30.364	39.921	16033	14701	0	900
27.515	42.157	16075	14743	0	900
26.001	42.842	16116	14827	0	900
21.998	41.147	16175	14972	0	900
17.166	36.711	16259	15220	0	900
14.208	32.239	16368	15538	0	900
10.674	26.578	16442	15786	0	900
8.655	22.647	16467	15786	0	900
10.061	20.483	16442	15557	0	900
13.487	23.296	16425	15360	0	900
14.461	25.820	16442	15356	0	900
17.057	26.794	16467	15421	0	900
14.461	27.083	16442	15388	0	900
13.668	25.496	16400	15220	0	900
13.451	25.243	16384	15070	0	900
16.733	26.181	16368	15056	0	900
19.798	27.299	16368	15131	0	900
21.637	25.856	16384	15271	0	900
15.867	18.500	16400	15421	0	900
8.799	8.799	16400	15472	0	900
1.839	1.010	16400	15491	0	900
-1.370	-1.370	16467	15683	0	900
2.416	1.947	16568	16043	0	900
8.583	8.547	16610	16361	0	900
12.838	14.208	16677	16533	0	900
12.694	15.615	16735	16608	0	900
12.838	15.687	16777	16664	0	900
8.871	17.526	16844	16776	0	900
7.609	16.336	16903	16931	0	900
8.475	19.041	16945	17020	0	900
7.465	17.129	16970	16954	0	900
6.888	17.202	16987	16828	0	900
7.537	14.497	17012	16762	0	900
7.825	15.362	17012	16748	0	900
10.350	14.389	17054	16744	0	900
12.153	15.759	17095	16716	0	900
14.317	15.398	17095	16688	0	900
15.002	18.320	17112	16659	0	900
14.533	18.572	17137	16603	0	900
15.074	21.529	17112	16519	0	900
15.326	22.286	17154	16444	0	900
17.743	24.089	17154	16402	0	900
17.634	25.568	17154	16412	0	900
19.077	24.342	17238	16486	0	900
18.139	25.352	17280	16608	0	900
19.906	26.109	17305	16697	0	900
19.510	25.279	17347	16678	0	900
22.358	24.919	17347	16538	0	900
21.745	25.604	17305	16356	0	900
21.637	21.818	17305	16216	0	900
20.087	20.339	17263	16137	0	900
15.398	19.149	17280	16095	0	900
11.720	15.290	17280	16038	0	900
8.006	13.163	17196	15889	0	900
4.472	10.927	17137	15641	0	900
6.094	9.412	17095	15421	0	900
7.645	9.989	17012	15299	0	900
10.350	11.973	16970	15257	0	900
12.189	11.576	16928	15201	0	900
12.369	14.208	16861	15089	0	900
13.163	16.372	16777	15005	0	900
12.946	17.382	16735	15037	0	900
13.235	20.844	16719	15159	0	900
15.398	19.293	16677	15215	0	900
16.264	18.897	16610	15145	0	900
16.697	18.860	16568	15131	0	900
16.084	17.057	16593	15318	0	900
15.795	19.149	16593	15608	0	900
13.343	15.651	16593	15837	0	900
7.717	13.235	16593	15954	0	900
1.695	6.852	16593	16020	0	900
-5.157	-2.200	16551	16085	0	900
-12.874	-8.402	16551	16127	0	900
-15.939	-15.002	16484	16090	0	900
-21.349	-19.690	16442	16015	0	900
-25.027	-19.942	16400	15992	0	900
-30.977	-23.404	16384	16034	0	900
-34.367	-27.083	16384	16141	0	900
-36.206	-29.607	16400	16291	0	900
-34.944	-31.085	16384	16393	0	900
-32.636	-31.374	16384	16440	0	900
-30.508	-30.256	16368	16449	0	900
-32.059	-28.020	16326	16402	0	900
-32.492	-28.886	16284	16319	0	900
-35.377	-28.453	16242	16240	0	900
-35.160	-27.768	16259	16211	0	900
-32.239	-26.217	16200	16207	0	900
-28.525	-24.811	16175	16221	0	900
-23.657	-19.978	16133	16244	0	900
-21.277	-17.995	16116	16254	0	900
-18.752	-17.382	16075	16230	0	900
-19.437	-18.680	16033	16151	0	900
-20.195	-21.998	15924	15950	0	900
-23.549	-23.188	15840	15674	0	900
-26.902	-25.856	15740	15458	0	900
-29.499	-26.938	15631	15374	0	900
-33.141	-30.761	15614	15398	0	900
-34.259	-34.908	15547	15444	0	900
-35.593	-39.199	15421	15393	0	900
-37.793	-41.291	15296	15126	0	900
-40.750	-42.229	15086	14715	0	900
-43.058	-40.750	14961	14443	0	900
-44.032	-38.226	14860	14415	0	900
-43.527	-35.413	14751	14504	0	900
-40.930	-33.141	14709	14663	0	900
-38.262	-32.997	14668	14939	0	900
-34.151	-31.662	14693	15346	0	900
-31.194	-30.941	14735	15833	0	900
-27.263	-31.879	14776	16230	0	900
-25.279	-31.194	14709	16384	0	900
-24.991	-30.545	14693	16384	0	900
-24.414	-28.381	14709	16482	0	900
-22.827	-24.017	14735	16744	0	900
-20.375	-17.526	14751	17001	0	900
-12.622	-12.658	14776	17151	0	900
-9.412	-8.439	14735	17146	0	900
-6.924	-5.986	14693	17052	0	900
-6.996	-2.921	14709	17034	0	900
-5.878	-0.685	14751	17169	0	900
-4.111	2.885	14776	17394	0	900
-0.072	6.203	14835	17586	0	900
2.813	6.780	14860	17628	0	900
4.111	5.698	14835	17557	0	900
4.940	4.219	14835	17459	0	900
7.717	4.724	14835	17352	0	900
12.009	9.520	14793	17207	0	900
16.084	11.287	14776	17048	0	900
17.166	14.064	14751	16898	0	900
14.353	12.838	14693	16786	0	900
13.595	10.746	14709	16744	0	900
12.477	11.576	14735	16776	0	900
14.858	12.045	14693	16790	0	900
17.634	12.477	14709	16734	0	900
20.952	14.136	14735	16730	0	900
21.998	13.812	14751	16842	0	900
22.611	14.605	14793	16963	0	900
19.942	13.920	14818	17006	0	900
16.697	10.494	14818	16940	0	900
9.809	7.140	14793	16842	0	900
8.042	7.429	14818	16786	0	900
10.566	10.422	14835	16781	0	900
15.543	15.074	14835	16772	0	900
23.765	23.008	14835	16716	0	900
29.354	26.722	14835	16650	0	900
34.331	30.869	14835	16613	0	900
37.144	33.177	14860	16622	0	900
38.695	32.384	14860	16659	0	900
35.990	29.030	14877	16673	0	900
30.112	23.657	14902	16636	0	900
23.080	18.031	14877	16561	0	900
18.211	13.884	14860	16444	0	900
11.323	10.025	14860	16305	0	900
9.016	7.068	14776	16160	0	900
5.914	3.823	14709	15950	0	900
1.515	0.974	14626	15636	0	900
-1.118	-3.534	14542	15379	0	900
-3.823	-8.330	14458	15248	0	900
-10.855	-14.966	14374	15150	0	900
-16.769	-18.572	14291	15028	0	900
-19.726	-22.863	14165	14808	0	900
-21.673	-20.411	14023	14504	0	900
-18.788	-19.437	13914	14284	0	900
-18.320	-18.175	13830	14294	0	900
-18.103	-20.591	13788	14509	0	900
-22.250	-24.306	13746	14766	0	900
-23.585	-22.827	13688	14911	0	900
-24.775	-22.539	13646	14958	0	900
-25.748	-16.661	13562	15000	0	900
-25.676	-15.543	13495	15075	0	900
-25.063	-14.641	13453	15168	0	900
-26.325	-20.411	13395	15295	0	900
-26.650	-23.044	13353	15416	0	900
-28.453	-26.794	13311	15519	0	900
-31.158	-29.895	13269	15641	0	900
-33.105	-29.318	13244	15795	0	900
-32.276	-29.210	13202	15954	0	900
-29.859	-23.729	13202	16099	0	900
-26.470	-20.880	13202	16258	0	900
-26.253	-18.752	13185	16421	0	900
-25.604	-18.644	13227	16631	0	900
-27.587	-23.008	13244	16870	0	900
-31.951	-26.037	13269	17080	0	900
-35.521	-28.994	13311	17253	0	900
-38.406	-31.843	13395	17473	0	900
-40.858	-31.662	13495	17805	0	900
-39.849	-30.689	13621	18226	0	900
-37.252	-28.020	13771	18633	0	900
-32.167	-23.837	13897	18886	0	900
-27.083	-20.664	13998	18970	0	900
-23.657	-18.572	14123	19078	0	900
-23.152	-16.913	14274	19269	0	900
-19.690	-16.480	14400	19438	0	900
-21.168	-15.651	14542	19569	0	900
-19.618	-12.946	14735	19700	0	900
-21.349	-15.543	14902	19817	0	900
-23.368	-15.398	15070	19943	0	900
-25.243	-18.428	15338	20172	0	900
-24.955	-18.608	15572	20495	0	900
-20.736	-16.661	15823	20710	0	900
-15.074	-11.756	16033	20673	0	900
-12.117	-8.078	16175	20453	0	900
-10.963	-7.357	16326	20200	0	900
-12.874	-9.809	16442	19891	0	900
-19.582	-13.343	16484	19363	1	860
-27.047	-18.572	16484	18675	0	860
-33.141	-20.988	16509	18105	0	860
-35.918	-24.162	16568	17712	0	860
-35.810	-24.558	16610	17398	0	860
-31.951	-24.378	16693	17151	0	860
-27.010	-26.001	16760	16945	0	860
-23.801	-25.965	16819	16734	0	860
-23.260	-26.830	16861	16538	0	860
-25.424	-28.020	16928	16421	0	860
-29.607	-30.292	17054	16426	0	860
-33.069	-31.230	17179	16505	0	860
-33.285	-32.636	17238	16552	0	860
-30.040	-33.213	17363	16547	0	860
-25.929	-30.292	17489	16557	0	860
-23.116	-26.830	17598	16650	0	860
-22.935	-24.919	17724	16772	0	860
-23.008	-24.378	17866	16828	0	860
-24.198	-24.702	17908	16795	0	860
-23.188	-22.178	18033	16725	0	860
-19.401	-22.070	18117	16678	0	860
-18.247	-17.959	18184	16641	0	860
-13.956	-16.913	18268	16561	0	860
-12.730	-13.884	18310	16426	0	860
-11.792	-13.704	18327	16221	0	860
-11.684	-11.937	18285	15870	0	860
-15.254	-12.910	18226	15430	0	860
-17.166	-16.985	18184	15061	0	860
-24.450	-22.106	18159	14832	0	860
-29.030	-28.164	18100	14659	0	860
-32.816	-33.502	18017	14434	0	860
-32.708	-34.187	17950	14196	0	860
-31.158	-34.511	17933	14116	0	860
-29.174	-33.069	17891	14210	0	860
-29.138	-33.718	17908	14317	0	860
-31.410	-35.521	17866	14369	0	860
-31.554	-35.160	17807	14369	0	860
-28.237	-33.213	17782	14373	0	860
-22.358	-28.669	17765	14462	0	860
-18.644	-22.935	17782	14626	0	860
-13.668	-21.096	17740	14794	0	860
-14.353	-19.221	17740	14930	0	860
-15.002	-15.759	17740	15051	0	860
-13.523	-14.172	17740	15220	0	860
-14.028	-11.540	17782	15468	0	860
-11.179	-8.619	17807	15730	0	860
-8.943	-9.629	17824	15921	0	860
-5.049	-7.753	17866	16043	0	860
-3.606	-8.943	17866	16160	0	860
-3.246	-9.196	17933	16333	0	860
-4.219	-10.386	17950	16510	0	860
-5.554	-11.251	17975	16655	0	860
-5.914	-11.396	18033	16772	0	860
-6.924	-12.694	18075	16875	0	860
-11.432	-16.444	18100	16949	0	860
-15.507	-21.313	18117	16978	0	860
-21.277	-27.551	18142	16945	0	860
-20.627	-29.174	18117	16870	0	860
-17.743	-28.958	18100	16772	0	860
-11.323	-23.008	18100	16641	0	860
-10.169	-19.149	18100	16491	0	860
-9.556	-15.290	18033	16366	0	860
-10.422	-15.939	18017	16272	0	860
-12.045	-15.687	17975	16155	0	860
-13.379	-20.195	17866	15903	0	860
-13.018	-21.277	17782	15603	0	860
-16.985	-22.070	17765	15486	0	860
-17.382	-22.467	17698	15547	0	860
-12.802	-17.093	17698	15622	0	860
-7.789	-10.999	17640	15617	0	860
-2.056	-3.967	17615	15547	0	860
0.649	-2.164	17556	15500	0	860
-2.272	-2.885	17531	15524	0	860
-3.282	-6.058	17514	15613	0	860
-3.426	-4.904	17514	15711	0	860
-0.865	-1.983	17447	15758	0	860
2.308	3.210	17430	15758	0	860
2.633	5.409	17405	15786	0	860
0.469	1.911	17389	15851	0	860
-3.678	-3.606	17347	15870	0	860
-8.042	-8.114	17263	15795	0	860
-10.097	-10.242	17221	15697	0	860
-11.107	-9.124	17179	15674	0	860
-9.737	-4.760	17154	15786	0	860
-8.943	-1.623	17154	15950	0	860
-8.835	-0.577	17179	16076	0	860
-9.376	-1.659	17137	16188	0	860
-8.583	-4.364	17154	16310	0	860
-7.285	-7.681	17179	16416	0	860
-4.868	-7.753	17137	16514	0	860
-2.741	-5.481	17137	16543	0	860
-1.515	-3.534	17137	16519	0	860
-1.046	-1.154	17095	16486	0	860
-2.813	-1.370	17070	16477	0	860
-4.075	-2.019	17070	16468	0	860
-3.895	-2.957	17028	16416	0	860
-5.121	-2.596	16970	16356	0	860
-3.246	-1.911	16928	16263	0	860
-2.272	-2.993	16844	16052	0	860
-0.685	-4.436	16735	15805	0	860
0.505	-6.671	16719	15748	0	860
1.406	-6.744	16677	15875	0	860
0.721	-7.176	16677	15945	0	860
-1.839	-5.121	16568	15865	0	860
-4.327	-3.859	16509	15702	0	860
-6.563	-2.344	16425	15566	0	860
-5.806	-0.288	16368	15515	0	860
-4.291	3.534	16301	15533	0	860
-1.911	3.065	16242	15547	0	860
-2.885	2.524	16175	15519	0	860
-6.311	-0.938	16133	15524	0	860
-9.520	-3.606	16075	15580	0	860
-12.261	-3.390	16008	15608	0	860
-10.242	-0.613	15949	15585	0	860
-5.373	2.308	15865	15533	0	860
0.180	3.426	15798	15496	0	860
3.678	2.416	15756	15538	0	860
3.823	0.577	15714	15697	0	860
1.479	-0.685	15740	15931	0	860
-2.452	-4.291	15698	16080	0	860
-2.957	-3.354	15589	15992	0	860
-0.469	-1.983	15463	15748	0	860
6.671	3.065	15421	15608	0	860
14.821	9.953	15321	15627	0	860
17.851	15.398	15279	15636	0	860
17.274	13.740	15170	15599	0	860
10.386	7.212	15086	15519	0	860
4.868	-0.397	14944	15384	0	860
1.587	-4.003	14877	15290	0	860
1.298	-2.957	14835	15393	0	860
4.652	1.551	14818	15678	0	860
5.950	6.960	14818	15950	0	860
4.688	6.888	14776	16104	0	860
2.813	4.075	14735	16183	0	860
-0.252	-0.721	14709	16244	0	860
-0.974	-0.793	14668	16333	0	860
0.108	-0.649	14626	16398	0	860
2.488	4.183	14542	16333	0	860
3.787	6.239	14458	16132	0	860
3.246	6.094	14374	15968	0	860
-0.505	1.767	14291	15940	0	860
-5.085	-2.200	14249	16001	0	860
-10.314	-4.219	14207	16052	0	860
-11.107	-2.452	14106	16029	0	860
-8.619	1.803	14065	15992	0	860
-3.318	6.419	13998	16006	0	860
0.938	9.448	13956	16052	0	860
1.479	7.429	13939	16080	0	860
-5.229	0.613	13830	16052	0	860
-13.451	-8.799	13788	16038	0	860
-21.673	-15.939	13746	16118	0	860
-26.866	-20.339	13771	16333	0	860
-25.135	-18.428	13788	16613	0	860
-18.752	-15.362	13830	16856	0	860
-12.189	-9.809	13855	17034	0	860
-7.573	-8.871	13872	17188	0	860
-7.898	-8.727	13914	17352	0	860
-14.028	-10.350	13956	17515	0	860
-20.772	-14.461	13981	17628	0	860
-27.371	-20.123	14023	17679	0	860
-28.561	-23.008	14039	17721	0	860
-24.162	-23.188	14081	17763	0	860
-16.733	-19.546	14081	17717	0	860
-6.022	-8.691	13981	17352	0	860
0.793	-2.236	13813	16659	0	860
3.318	3.173	13621	15964	0	860
1.551	2.705	13453	15412	0	860
-3.173	-3.029	13269	14972	0	860
-7.789	-8.547	13101	14687	0	860
-13.343	-13.415	13018	14570	0	860
-16.048	-14.677	12892	14514	0	860
-16.228	-15.326	12783	14429	0	860
-16.372	-14.281	12658	14406	0	860
-13.235	-13.704	12658	14607	0	860
-12.117	-16.444	12658	15037	0	860
-13.307	-17.851	12725	15538	0	860
-13.018	-20.772	12725	15959	0	860
-15.182	-20.772	12808	16263	0	860
-14.461	-19.870	12808	16510	0	860
-14.930	-18.969	12867	16744	0	860
-17.274	-17.454	12892	16978	0	860
-20.736	-20.880	12951	17225	0	860
-24.053	-22.899	12993	17450	0	860
-25.748	-24.630	13060	17618	0	860
-24.522	-24.342	13101	17731	0	860
-20.339	-20.123	13160	17862	0	860
-18.211	-18.356	13244	18011	0	860
-14.245	-14.425	13286	18119	0	860
-14.713	-12.730	13353	18166	0	860
-13.523	-11.540	13436	18208	0	860
-13.199	-6.816	13520	18282	0	860
-8.330	-4.832	13579	18334	0	860
-3.787	-0.288	13646	18287	0	860
1.731	2.380	13663	18166	0	860
4.652	2.200	13704	18025	0	860
3.823	2.344	13746	17894	0	860
1.731	-0.541	13788	17782	0	860
-1.659	-2.560	13813	17688	0	860
-2.164	-4.436	13855	17609	0	860
-1.839	-4.111	13897	17520	0	860
0.397	-1.947	13914	17380	0	860
0.216	-0.216	13956	17272	0	860
-2.092	-0.541	14081	17389	0	860
-7.717	-4.508	14190	17637	0	860
-13.054	-11.143	14274	17740	0	860
-18.139	-15.362	14316	17642	0	860
-16.444	-19.726	14400	17483	0	860
-15.867	-17.779	14458	17412	0	860
-15.038	-18.608	14567	17492	0	860
-20.087	-17.959	14693	17698	0	860
-22.503	-21.168	14860	17964	0	860
-28.020	-24.558	15028	18189	0	860
-30.472	-26.289	15153	18339	0	860
-28.489	-28.020	15363	18479	0	860
-26.758	-25.856	15505	18647	0	860
-26.217	-21.673	15698	18778	0	860
-22.539	-16.408	15865	18820	0	860
-17.057	-11.504	16033	18848	0	860
-12.910	-6.275	16175	18895	0	860
-7.789	-2.777	16326	18876	0	860
-5.626	0.433	16442	18741	0	860
-4.255	0.902	16568	18558	0	860
-3.931	3.642	16719	18423	0	860
-1.082	7.176	16861	18371	1	892
2.633	9.052	17054	18404	0	892
4.616	10.602	17221	18460	0	892
5.085	10.494	17363	18451	0	892
4.724	8.439	17531	18367	0	892
4.291	7.321	17657	18250	0	892
4.472	7.717	17824	18133	0	892
3.859	7.609	17933	17988	0	892
2.849	4.544	18033	17773	0	892
0.361	2.705	18142	17525	0	892
-3.895	-1.226	18201	17277	0	892
-6.996	-2.921	18268	17034	0	892
-9.917	-5.950	18368	16833	0	892
-11.756	-7.609	18494	16786	0	892
-14.641	-9.556	18620	16865	0	892
-14.281	-10.458	18745	16823	0	892
-16.192	-9.052	18745	16514	0	892
-16.516	-7.393	18729	16062	0	892
-19.041	-7.429	18729	15650	0	892
-21.637	-9.484	18729	15388	0	892
-24.775	-12.297	18745	15229	0	892
-27.010	-12.874	18703	15028	0	892
-21.096	-12.189	18662	14724	0	892
-17.706	-8.907	18620	14434	0	892
-11.864	-3.318	18561	14228	0	892
-10.999	-3.534	18536	14111	0	892
-13.091	-4.436	18494	14055	0	892
-14.785	-5.265	18477	14022	0	892
-16.408	-6.744	18452	14022	0	892
-12.297	-7.140	18435	14088	0	892
-12.153	-7.032	18410	14172	0	892
-12.910	-8.655	18368	14210	0	892
-14.821	-10.710	18327	14186	0	892
-20.231	-13.487	18268	14186	0	892
-21.024	-13.091	18268	14284	0	892
-22.214	-14.172	18268	14495	0	892
-18.752	-11.504	18310	14766	0	892
-16.877	-9.773	18285	15005	0	892
-12.477	-7.717	18285	15159	0	892
-10.819	-7.898	18243	15182	0	892
-11.828	-10.169	18226	15145	0	892
-14.749	-12.946	18184	15187	0	892
-19.942	-16.372	18159	15299	0	892
-21.024	-15.543	18159	15421	0	892
-17.670	-15.146	18159	15571	0	892
-13.054	-11.720	18159	15720	0	892
-7.357	-9.052	18159	15903	0	892
-4.508	-11.432	18243	16202	0	892
-8.475	-13.091	18327	16575	0	892
-12.333	-16.300	18394	16865	0	892
-16.444	-19.293	18435	16992	0	892
-17.851	-17.202	18452	17029	0	892
-20.014	-17.995	18494	17123	0	892
-19.834	-18.211	18578	17328	0	892
-23.080	-23.440	18620	17464	0	892
-27.155	-25.388	18620	17370	0	892
-27.984	-24.919	18603	17123	0	892
-25.316	-23.657	18561	16889	0	892
-21.854	-21.818	18561	16767	0	892
-16.697	-20.591	18536	16730	0	892
-15.074	-20.050	18561	16659	0	892
-11.864	-17.202	18494	16496	0	892
-12.081	-14.569	18452	16300	0	892
-11.360	-12.441	18410	16141	0	892
-14.930	-16.084	18368	16038	0	892
-19.257	-21.457	18352	15964	0	892
-20.844	-25.856	18285	15875	0	892
-20.087	-26.253	18285	15776	0	892
-17.057	-24.306	18226	15706	0	892
-15.362	-22.935	18184	15711	0	892
-15.326	-21.096	18159	15734	0	892
-18.572	-21.096	18117	15688	0	892
-18.752	-22.575	18059	15575	0	892
-18.464	-19.654	18017	15482	0	892
-16.336	-19.510	17975	15458	0	892
-15.543	-18.608	17908	15468	0	892
-15.074	-18.680	17849	15426	0	892
-17.526	-17.418	17782	15365	0	892
-16.805	-17.418	17724	15346	0	892
-16.228	-14.317	17657	15290	0	892
-12.009	-13.379	17489	15075	0	892
-8.439	-12.586	17363	14761	0	892
-8.186	-14.100	17221	14542	0	892
-8.583	-15.579	17095	14429	0	892
-7.970	-15.615	16945	14284	0	892
-6.996	-16.697	16777	14107	0	892
-4.364	-15.615	16652	14022	0	892
-5.698	-17.634	16551	14102	0	892
-10.350	-19.329	16442	14233	0	892
-14.497	-22.935	16326	14270	0	892
-21.204	-21.818	16175	14219	0	892
-22.178	-19.365	16075	14256	0	892
-22.358	-19.185	15991	14471	0	892
-21.890	-16.769	15949	14804	0	892
-17.851	-19.762	15907	15131	0	892
-15.182	-20.555	15882	15407	0	892
-12.982	-21.529	15840	15641	0	892
-10.927	-18.139	15740	15739	0	892
-10.602	-17.418	15656	15674	0	892
-9.052	-14.749	15572	15645	0	892
-7.321	-15.218	15463	15730	0	892
-8.366	-11.323	15421	15861	0	892
-6.635	-10.133	15421	16090	0	892
-7.862	-5.914	15405	16426	0	892
-6.167	-4.616	15463	16804	0	892
-6.311	-3.642	15446	17062	0	892
-7.429	-7.537	15405	17085	0	892
-12.081	-12.009	15379	16992	0	892
-16.156	-17.995	15338	17057	0	892
-20.880	-20.916	15379	17296	0	892
-21.168	-22.899	15405	17515	0	892
-21.781	-21.818	15463	17679	0	892
-19.510	-17.310	15505	17862	0	892
-20.050	-15.218	15547	18072	0	892
-18.752	-11.576	15656	18264	0	892
-18.392	-9.052	15698	18399	0	892
-18.283	-8.475	15740	18479	0	892
-16.516	-10.206	15781	18465	0	892
-16.661	-10.674	15798	18292	0	892
-14.028	-7.717	15756	18025	0	892
-9.052	-4.544	15740	17787	0	892
-6.058	-1.551	15740	17614	1	484
-3.534	-0.613	15756	17455	0	484
-4.436	-2.669	15698	17277	0	484
-6.203	-4.436	15673	17090	0	484
-4.796	-2.164	15673	16940	0	484
-3.787	-0.974	15673	16875	0	484
-1.623	0.505	15673	16884	0	484
-3.029	-1.118	15698	16875	0	484
-6.455	-5.085	15698	16786	0	484
-10.566	-6.996	15698	16744	0	484
-11.251	-9.268	15740	16781	0	484
-11.287	-8.871	15756	16781	0	484
-11.720	-7.248	15714	16678	0	484
-11.684	-8.547	15673	16496	0	484
-9.484	-7.681	15698	16352	0	484
-9.629	-8.691	15673	16286	0	484
-9.088	-9.340	15656	16277	0	484
-10.746	-9.629	15656	16263	0	484
-15.038	-11.143	15631	16197	0	484
-19.834	-15.687	15572	16038	0	484
-23.729	-18.464	15463	15739	0	484
-23.368	-23.260	15405	15398	0	484
-23.729	-22.503	15279	15201	0	484
-23.945	-21.132	15212	15103	0	484
-21.565	-19.618	15128	15033	0	484
-21.493	-16.552	15111	15028	0	484
-17.418	-15.723	15044	15112	0	484
-15.543	-13.054	15003	15136	0	484
-11.360	-12.586	14818	14832	0	484
-10.638	-12.333	14542	14196	0	484
-10.674	-11.720	14333	13587	0	484
-9.268	-13.992	14123	13260	0	484
-8.294	-14.353	13956	13171	0	484
-7.285	-11.756	13813	13227	0	484
-7.898	-13.559	13730	13419	0	484
-9.484	-12.405	13646	13723	0	484
-11.071	-12.982	13604	14083	0	484
-12.009	-12.838	13562	14476	0	484
-10.025	-10.638	13579	14897	0	484
-7.393	-6.924	13579	15351	0	484
-3.859	-3.462	13621	15828	0	484
-1.731	-1.947	13646	16221	0	484
-2.164	-3.318	13646	16496	0	484
-5.481	-5.409	13704	16837	0	484
-10.025	-9.376	13788	17300	0	484
-10.783	-8.907	13897	17773	0	484
-10.855	-9.196	13981	18152	0	484
-7.357	-7.645	14065	18409	0	484
-4.183	-5.373	14148	18577	0	484
-5.517	-4.436	14207	18685	0	484
-7.753	-6.960	14249	18722	0	484
-14.605	-9.520	14291	18685	0	484
-17.923	-14.569	14333	18586	0	484
-21.096	-16.769	14333	18456	0	484
-20.014	-17.346	14374	18362	0	484
-18.752	-13.992	14441	18339	0	484
-17.346	-12.514	14500	18329	0	484
-20.988	-14.605	14525	18245	0	484
-23.008	-17.454	14500	18030	0	484
-23.621	-22.034	14458	17590	0	484
-23.296	-21.277	14358	17038	0	484
-18.860	-18.139	14291	16627	0	484
-16.084	-14.641	14249	16384	0	484
-11.432	-9.881	14190	16221	0	484
-9.484	-6.491	14165	16127	0	484
-8.655	-4.977	14165	16104	0	484
-10.855	-5.229	14190	16174	0	484
-12.441	-6.131	14274	16384	0	484
-16.949	-10.891	14316	16627	0	484
-16.805	-11.396	14333	16678	0	484
-16.589	-13.054	14291	16472	0	484
-12.874	-11.684	14232	16165	0	484
-9.232	-9.520	14165	15893	0	484
-7.753	-8.583	14106	15720	0	484
-7.104	-7.140	14023	15580	0	484
-6.203	-5.770	13914	15356	0	484
-6.960	-4.796	13830	15084	0	484
-5.626	-4.832	13771	14958	0	484
-5.842	-4.508	13746	15042	0	484
-7.645	-3.462	13730	15215	1	316
-8.655	-4.688	13704	15379	0	316
-8.547	-6.347	13746	15524	0	316
-7.753	-6.419	13730	15692	0	316
-4.760	-5.409	13771	15950	0	316
-2.452	-5.481	13830	16272	0	316
0.180	-5.049	13872	16557	0	316
1.659	-5.770	13914	16748	0	316
0.036	-9.124	13981	16898	0	316
-3.859	-10.674	14065	17113	0	316
-7.789	-11.323	14190	17464	0	316
-8.186	-13.091	14333	17894	0	316
-6.491	-15.507	14483	18278	0	316
-5.121	-15.290	14626	18586	0	316
-5.193	-15.759	14818	18881	0	316
-5.121	-11.035	15003	19195	0	316
-6.203	-8.691	15195	19517	0	316
-6.311	-7.934	15405	19789	0	316
-4.472	-6.563	15631	19999	0	316
-2.452	-7.212	15823	20181	0	316
0.072	-3.426	16075	20350	0	316
2.560	-1.010	16301	20514	0	316
0.974	2.344	16551	20668	0	316
0.397	0.793	16760	20710	0	316
-2.560	-1.479	16928	20565	0	316
-1.442	-1.479	17095	20326	0	316
2.524	-0.108	17263	20069	0	316
7.753	5.698	17430	19807	0	316
11.900	13.595	17556	19545	0	316
14.172	17.454	17698	19260	0	316
14.245	19.942	17740	18844	0	316
10.819	13.523	17824	18353	0	316
4.039	6.058	17950	18011	0	316
-1.442	-1.334	18059	17866	0	316
-3.823	-3.354	18184	17749	0	316
-3.137	-1.334	18285	17548	0	316
-0.433	4.111	18368	17253	0	316
3.210	8.763	18435	16954	0	316
4.255	9.881	18519	16725	0	316
3.606	6.671	18578	16561	0	316
-0.902	5.049	18645	16352	0	316
-4.219	2.308	18687	16029	0	316
-7.068	0.288	18703	15739	0	316
-6.094	5.121	18770	15603	0	316
-1.226	7.501	18854	15627	0	316
5.085	10.061	18938	15711	0	316
8.727	10.530	19022	15762	0	316
10.206	12.622	19105	15790	0	316
8.655	15.038	19189	15875	0	316
10.566	16.444	19332	16024	0	316
11.504	21.854	19457	16207	0	316
13.054	22.863	19608	16384	0	316
16.444	21.962	19708	16552	0	316
16.408	25.207	19834	16664	0	316
17.923	26.722	19943	16734	0	316
17.887	27.371	20069	16772	0	316
19.762	25.568	20127	16739	0	316
16.949	22.322	20211	16636	0	316
16.697	16.589	20253	16496	0	316
12.730	14.749	20278	16328	0	316
11.828	12.838	20320	16141	0	316
11.648	14.172	20320	15959	0	316
10.350	16.516	20337	15781	0	316
10.530	16.444	20320	15557	0	316
9.484	16.877	20211	15211	0	316
7.321	13.235	20127	14780	0	316
8.114	11.900	20069	14415	0	316
6.635	10.278	19943	14172	0	316
9.016	12.045	19901	14018	0	316
9.989	15.290	19817	13887	0	316
11.287	16.156	19708	13756	0	316
13.631	18.752	19650	13672	0	316
16.552	19.005	19566	13681	0	316
16.841	21.132	19524	13765	0	316
19.762	20.123	19482	13859	0	316
17.743	19.654	19415	13938	0	316
17.634	17.346	19357	14051	0	316
13.127	15.651	19315	14210	0	316
12.225	13.415	19315	14392	0	316
9.520	13.668	19273	14584	1	316
9.088	12.153	19206	14738	0	316
8.979	10.999	19189	14860	0	316
10.242	10.242	19164	15028	0	316
9.412	9.088	19189	15281	0	316
8.619	8.475	19164	15543	0	316
11.107	11.179	19164	15716	0	316
13.379	14.533	19122	15828	0	316
16.516	13.740	19122	15945	0	316
19.113	14.497	19122	16085	0	316
17.093	11.143	19122	16211	0	316
14.208	8.511	19080	16286	0	316
9.665	6.924	19064	16319	0	316
8.727	4.868	19038	16333	0	316
7.970	4.039	18980	16305	0	316
6.599	2.488	18955	16286	0	316
8.150	3.967	18997	16444	0	316
8.114	7.934	19080	16809	0	316
10.891	10.783	19122	17104	0	316
11.864	14.028	19122	17141	0	316
12.946	12.189	19080	17001	0	316
13.379	9.953	19064	16823	0	316
10.638	8.222	18955	16603	0	316
7.393	7.645	18829	16216	0	316
7.357	6.924	18620	15631	0	316
6.563	6.527	18452	15037	0	316
4.580	5.121	18268	14626	0	316
2.416	1.334	18117	14448	0	316
-0.036	0.361	18017	14429	0	316
-1.695	0.072	17933	14471	0	316
-0.180	1.659	17807	14514	0	316
2.993	3.750	17782	14616	0	316
5.049	6.599	17724	14832	0	316
4.868	7.212	17698	15117	0	316
4.327	7.248	17698	15402	0	316
1.479	1.947	17657	15645	0	316
-0.974	0.000	17657	15870	0	316
-2.849	-6.131	17657	16137	0	316
-3.282	-6.816	17724	16468	0	316
-3.101	-8.511	17765	16818	0	316
-2.633	-6.094	17824	17080	0	316
-3.534	-4.904	17824	17249	0	316
-7.789	-5.517	17824	17361	0	316
-12.153	-9.160	17891	17473	0	316
-16.048	-15.471	17908	17581	0	316
-19.834	-18.933	17933	17642	0	316
-23.008	-23.549	17950	17646	0	316
-24.378	-25.063	17950	17609	0	316
-28.020	-25.604	17933	17487	0	316
-29.895	-28.453	17891	17277	0	316
-33.213	-31.085	17807	17024	0	316
-34.944	-31.085	17740	16706	0	316
-33.754	-30.292	17598	16324	0	316
-27.696	-26.433	17472	15879	0	316
-23.693	-21.168	17305	15426	0	316
-20.880	-20.808	17179	15080	0	316
-18.572	-20.339	17054	14911	0	316
-19.654	-21.529	16945	14860	0	316
-17.562	-18.283	16844	14804	0	316
-11.973	-8.979	16719	14668	0	316
-5.590	-1.334	16635	14570	0	316
-4.436	2.416	16551	14621	0	316
-6.635	-2.524	16484	14818	0	316
-13.199	-11.107	16442	15047	0	316
-16.769	-19.690	16425	15257	0	316
-19.365	-20.736	16425	15496	0	316
-15.939	-20.700	16425	15767	0	316
-14.930	-16.985	16400	16006	0	316
-15.182	-17.851	16400	16183	0	316
-18.824	-19.329	16384	16291	0	316
-18.752	-21.673	16368	16375	0	316
-17.418	-21.854	16368	16500	0	316
-13.559	-18.392	16384	16711	0	316
-11.396	-18.175	16400	16945	0	316
-11.937	-15.435	16400	17076	0	316
-13.451	-16.589	16400	17085	0	316
-13.271	-14.821	16400	17080	0	316
-13.307	-12.153	16400	17141	0	316
-9.448	-9.340	16425	17230	0	316
-6.383	-7.140	16425	17268	0	316
-7.176	-8.114	16425	17249	0	316
-9.160	-7.753	16425	17225	0	316
-9.484	-9.052	16442	17216	0	316
-10.314	-8.294	16467	17249	0	316
-9.268	-7.429	16509	17333	0	316
-8.511	-7.970	16509	17356	0	316
-9.016	-9.484	16442	17179	0	316
-11.540	-11.900	16384	16823	0	316
-14.317	-12.910	16301	16435	0	316
-14.533	-16.264	16200	16118	0	316
-17.382	-16.480	16091	15893	0	316
-19.113	-18.897	15991	15692	0	316
-23.044	-19.798	15840	15393	0	316
-23.909	-24.053	15740	15051	0	316
-26.073	-23.404	15656	14906	0	316
-26.397	-23.368	15614	15033	0	316
-25.856	-24.883	15614	15285	0	316
-25.748	-22.863	15614	15496	0	316
-28.020	-21.781	15572	15631	0	316
-28.886	-21.349	15547	15739	0	316
-27.371	-15.290	15530	15837	0	316
-23.224	-11.756	15488	15907	0	316
-17.526	-8.078	15463	15945	0	316
-10.314	-4.472	15446	15954	0	316
-10.133	-4.147	15379	15982	0	316
-12.225	-3.787	15405	16095	0	316
-13.415	-5.878	15405	16314	0	316
-16.012	-7.970	15463	16547	0	316
-12.261	-10.458	15446	16697	0	316
-10.494	-9.232	15405	16688	0	316
-9.160	-6.635	15321	16444	0	316
-8.294	-5.409	15195	16071	0	316
-11.107	-4.977	15111	15786	0	316
-15.651	-7.789	14986	15613	0	316
-18.572	-10.242	14902	15472	0	316
-23.296	-13.199	14835	15384	0	316
-24.234	-13.379	14735	15370	0	316
-21.060	-10.386	14693	15430	0	316
-18.608	-10.458	14693	15585	0	316
-14.785	-9.484	14668	15790	0	316
-16.264	-12.045	14626	15931	0	316
-22.683	-16.661	14567	15893	0	316
-28.561	-22.899	14483	15739	0	316
-33.105	-24.666	14400	15650	0	316
-33.141	-24.234	14358	15683	0	316
-28.020	-21.132	14274	15748	0	316
-23.080	-17.562	14207	15730	0	316
-19.690	-12.802	14106	15613	0	316
-14.245	-7.393	14023	15524	0	316
-9.917	-2.957	13981	15566	0	316
-3.065	3.029	13939	15716	0	316
2.813	6.888	13897	15851	0	316
7.032	11.612	13855	15917	0	316
6.960	12.802	13855	16043	0	316
3.029	11.468	13872	16300	0	316
0.180	9.845	13897	16575	0	316
-3.029	3.967	13914	16790	0	316
-5.085	-0.865	13914	16921	0	316
-4.760	-0.829	13939	17015	0	316
-4.291	-0.577	13939	17104	0	316
-4.508	0.505	13939	17179	0	316
-4.832	0.541	13939	17207	0	316
-5.626	-2.128	13956	17230	0	316
-7.357	-4.255	13956	17263	0	316
