neuroNicle FX2
D3F25R12
Bluetooth SPP
2023년 11월 3일 금요일
오전 10:10
time interval = 4msec
EEG1	EEG2	PPG	sdPPG	pulse	peak_interval(msec)
53.552	-4.111	16354	13717	0	396
51.749	-0.397	16345	13534	0	396
50.811	2.705	16337	13566	0	396
48.107	4.219	16334	13642	0	396
45.943	1.226	16322	13706	0	396
44.933	-3.714	16314	13814	0	396
43.310	-8.583	16305	13868	0	396
45.871	-12.081	16292	13555	0	396
47.061	-9.773	16271	12972	0	396
51.244	-7.429	16258	12648	0	396
50.415	-3.137	16249	12724	0	396
51.424	0.288	16237	13015	0	396
49.116	-0.649	16235	13372	0	396
47.458	-4.977	16226	13793	0	396
45.114	-11.071	16224	14235	0	396
41.399	-15.939	16212	14484	0	396
39.127	-19.726	16207	14484	0	396
37.793	-17.454	16195	14559	0	396
37.252	-14.821	16195	14916	0	396
41.111	-12.369	16198	15531	0	396
41.507	-14.966	16195	16244	0	396
41.904	-14.713	16201	16880	0	396
40.750	-15.110	16207	17507	0	396
42.265	-11.576	16215	18176	0	396
45.799	-4.327	16220	18824	0	396
51.569	-1.767	16232	19310	0	396
54.237	-2.741	16235	19612	0	396
53.408	-5.373	16243	19818	0	396
49.585	-10.674	16249	20088	0	396
47.999	-11.937	16260	20498	0	396
47.530	-9.340	16277	20952	0	396
46.772	-8.475	16283	21200	0	396
44.428	-9.088	16292	21243	0	396
41.039	-9.520	16305	21232	0	396
39.488	-10.314	16314	21297	0	396
44.537	-7.357	16322	21373	0	396
49.549	-1.875	16334	21373	0	396
56.004	4.075	16345	21265	0	396
60.512	6.203	16354	21114	0	396
59.827	4.075	16365	20984	0	396
58.745	3.642	16379	20854	1	620
61.197	4.039	16384	20660	0	620
62.712	8.943	16389	20401	0	620
68.698	13.523	16397	20055	0	620
73.639	18.247	16397	19429	0	620
75.586	17.238	16397	18619	0	620
75.117	12.910	16400	18144	0	620
70.790	12.477	16406	17971	0	620
71.042	11.432	16406	17539	0	620
68.121	11.792	16397	16610	0	620
67.977	12.694	16386	15477	0	620
67.147	11.432	16373	14484	0	620
66.246	11.684	16365	13825	0	620
64.803	13.487	16360	13480	0	620
66.426	12.369	16351	13264	0	620
68.338	12.261	16351	13080	0	620
67.220	9.160	16345	13037	0	620
66.102	8.114	16343	13220	0	620
64.948	9.160	16339	13372	0	620
62.568	12.766	16334	13285	0	620
61.342	14.136	16326	13123	0	620
59.286	9.881	16322	13102	0	620
57.339	7.104	16322	13296	0	620
57.555	4.904	16320	13663	0	620
64.479	5.517	16322	14106	0	620
71.114	9.124	16322	14505	0	620
75.442	9.953	16326	14862	0	620
72.232	3.714	16334	15305	0	620
64.335	-6.599	16339	15942	0	620
57.519	-15.002	16348	16632	0	620
53.913	-20.844	16354	17118	0	620
56.690	-18.175	16360	17377	0	620
56.329	-14.172	16365	17571	0	620
55.608	-10.891	16371	17787	0	620
53.949	-15.290	16377	17993	0	620
49.405	-22.358	16382	18133	0	620
43.707	-31.230	16386	18165	0	620
40.209	-35.377	16386	18025	0	620
34.331	-33.249	16386	17831	0	620
31.662	-28.453	16389	17658	0	620
32.708	-22.070	16389	17507	0	620
33.646	-20.339	16389	17334	0	620
33.069	-22.611	16386	17053	0	620
30.581	-26.686	16377	16374	0	620
27.984	-32.131	16365	15488	0	620
25.640	-37.216	16362	15067	0	620
25.496	-38.262	16356	15089	0	620
24.234	-37.685	16351	14970	0	620
26.325	-35.197	16343	14538	0	620
28.056	-30.725	16328	14009	0	620
28.489	-29.318	16320	13642	0	620
27.515	-31.266	16309	13447	0	620
22.539	-37.072	16297	13188	0	620
17.274	-42.661	16283	12680	0	620
12.658	-44.645	16260	12119	0	620
18.103	-41.904	16252	11903	0	620
25.099	-36.711	16241	12140	0	620
32.131	-29.715	16237	12616	0	620
31.590	-29.210	16237	13123	0	620
27.010	-31.951	16232	13609	0	620
21.349	-33.249	16232	14073	0	620
20.123	-30.797	16232	14646	0	620
26.794	-27.191	16241	15467	0	620
35.629	-22.719	16246	16352	0	620
41.039	-21.890	16252	16945	0	620
40.930	-24.089	16254	17323	0	620
35.305	-26.902	16260	17723	0	620
30.436	-26.397	16269	18209	0	620
25.388	-28.201	16275	18662	0	620
24.702	-31.338	16280	18954	0	620
26.253	-33.069	16288	19126	0	620
29.715	-31.194	16292	19256	0	620
32.528	-26.253	16294	19342	0	620
33.105	-21.529	16303	19353	0	620
32.276	-22.647	16303	19267	0	620
26.109	-28.633	16305	19126	0	620
23.729	-33.934	16309	18986	0	620
24.775	-33.105	16311	18770	0	620
30.076	-27.732	16309	18446	0	620
33.429	-21.241	16309	18133	0	620
36.026	-18.716	16305	17777	0	620
32.816	-20.195	16303	17215	0	620
28.777	-25.063	16292	16545	0	620
26.037	-30.905	16286	16061	0	620
26.001	-31.374	16280	15758	0	620
26.902	-32.348	16280	15585	0	620
26.830	-31.230	16275	15564	0	620
26.253	-29.427	16271	15596	0	620
23.549	-30.977	16277	15661	0	620
20.050	-32.203	16277	15909	0	620
17.851	-30.400	16283	16223	0	620
21.096	-26.830	16288	16437	0	620
24.522	-21.132	16286	16556	0	620
28.309	-21.349	16286	16567	0	620
30.004	-23.188	16292	16589	0	620
26.433	-28.020	16294	16794	0	620
20.375	-33.790	16300	17096	0	620
16.048	-36.242	16303	17237	0	620
12.261	-38.045	16305	17096	0	620
14.100	-37.468	16300	16826	0	620
15.759	-35.305	16297	16589	0	620
23.368	-29.859	16297	16331	0	620
28.056	-25.424	16288	15985	0	620
31.554	-22.322	16280	15521	0	620
31.446	-21.385	16266	14765	0	620
27.263	-23.512	16246	13847	0	620
22.358	-23.224	16237	13361	0	620
19.149	-20.916	16235	13458	0	620
21.421	-20.267	16226	13739	0	620
25.604	-17.706	16229	14019	0	620
30.004	-20.916	16224	14279	0	620
32.095	-23.729	16226	14570	0	620
32.059	-24.594	16224	14959	0	620
31.554	-21.890	16229	15402	0	620
35.341	-11.540	16229	15780	0	620
44.248	-2.705	16235	16115	0	620
53.264	3.967	16235	16513	0	620
61.053	4.039	16246	16988	0	620
60.043	1.479	16249	17431	0	620
54.742	-3.678	16254	17831	0	620
51.352	-3.137	16266	18165	0	620
49.766	-0.577	16263	18252	0	620
55.932	3.065	16271	18230	0	620
62.063	4.364	16280	18543	0	620
66.715	5.770	16297	19234	0	620
65.525	5.734	16311	19872	0	620
62.387	4.760	16326	20239	0	620
54.418	0.036	16331	20336	0	620
49.693	-5.914	16343	20304	0	620
46.304	-8.655	16354	20304	0	620
49.369	-4.977	16365	20358	0	620
58.457	3.498	16373	20358	0	620
65.128	15.867	16382	20250	0	620
68.915	21.096	16391	20142	0	620
64.659	22.431	16403	20109	1	536
60.007	19.690	16414	20088	0	536
56.726	18.608	16425	20012	0	536
55.788	16.625	16434	19839	0	536
62.171	18.356	16440	19569	0	536
69.708	19.690	16451	19267	0	536
75.838	22.322	16457	19018	0	536
80.490	26.325	16465	18792	0	536
78.579	23.657	16463	18338	0	536
71.655	19.149	16459	17420	0	536
64.010	14.172	16448	16212	0	536
60.584	10.169	16442	15261	0	536
61.846	9.484	16437	14743	0	536
66.318	9.484	16431	14289	0	536
65.633	10.206	16420	13793	0	536
60.728	4.291	16417	13393	0	536
53.516	0.829	16412	13123	0	536
48.864	-0.036	16408	13069	0	536
48.684	1.226	16414	13426	0	536
51.785	5.662	16420	14106	0	536
58.024	7.898	16425	14657	0	536
61.846	10.819	16429	14873	0	536
63.289	10.242	16431	14970	0	536
66.498	7.140	16429	15024	0	536
70.393	7.645	16431	15013	0	536
75.875	12.586	16425	14916	0	536
81.933	17.815	16417	14624	0	536
87.955	25.171	16408	14160	0	536
86.909	23.981	16400	13739	0	536
80.995	18.211	16391	13458	0	536
72.016	7.212	16382	13296	0	536
62.207	1.983	16373	13220	0	536
58.457	1.587	16368	13199	0	536
56.401	5.265	16365	13361	0	536
58.060	7.717	16362	13706	0	536
58.601	6.239	16360	14063	0	536
55.536	-0.252	16356	14289	0	536
54.309	-7.970	16351	14365	0	536
51.424	-13.343	16345	14354	0	536
52.110	-16.084	16343	14387	0	536
49.297	-14.425	16339	14613	0	536
45.150	-13.343	16339	15045	0	536
38.478	-18.175	16343	15510	0	536
32.312	-23.657	16343	15920	0	536
30.833	-31.194	16348	16363	0	536
31.158	-34.511	16354	16880	0	536
31.410	-33.249	16360	17431	0	536
33.249	-27.047	16368	17841	0	536
32.925	-23.981	16368	18047	0	536
31.554	-22.250	16371	18101	0	536
30.040	-25.171	16371	18036	0	536
28.164	-29.354	16371	17917	0	536
27.984	-31.410	16368	17658	0	536
29.102	-31.590	16356	17075	0	536
30.328	-29.138	16343	16212	0	536
29.823	-29.823	16328	15348	0	536
25.135	-30.436	16314	14678	0	536
22.358	-31.013	16303	14246	0	536
20.555	-30.797	16292	14019	0	536
22.467	-24.594	16283	13922	0	536
27.660	-18.897	16280	13965	0	536
30.220	-16.228	16271	14117	0	536
35.449	-14.136	16266	14311	0	536
38.622	-15.002	16266	14559	0	536
36.964	-15.687	16266	14959	0	536
37.829	-15.110	16263	15391	0	536
37.937	-16.444	16266	15704	0	536
41.940	-13.848	16260	15823	0	536
46.700	-11.179	16252	15575	0	536
49.044	-5.373	16235	15045	0	536
48.972	2.669	16226	14635	0	536
46.268	3.750	16212	14387	0	536
44.104	-0.613	16207	14268	0	536
45.943	-8.114	16198	14451	0	536
48.503	-12.189	16203	14959	0	536
50.234	-8.366	16201	15564	0	536
56.185	3.967	16207	16115	0	536
59.755	15.218	16209	16707	0	536
59.647	18.860	16224	17431	0	536
58.529	9.592	16229	18176	0	536
51.785	-0.793	16243	18867	0	536
50.270	-8.583	16252	19418	0	536
49.802	-7.717	16263	19828	0	536
55.788	1.659	16271	20163	0	536
61.161	10.133	16283	20498	0	536
65.813	14.533	16297	20779	0	536
68.915	14.605	16303	20865	0	536
70.646	12.514	16311	20768	0	536
71.475	11.396	16320	20671	0	536
72.196	13.668	16328	20638	0	536
73.494	19.221	16339	20584	0	536
74.937	27.407	16345	20412	1	364
77.028	33.466	16351	20185	0	364
77.065	31.879	16356	19904	0	364
73.675	22.178	16362	19548	0	364
66.967	7.789	16365	19116	0	364
57.663	-4.364	16360	18500	0	364
52.398	-9.520	16348	17420	0	364
51.677	-6.167	16331	15996	0	364
55.139	0.505	16317	14603	0	364
61.738	4.291	16294	13523	0	364
61.522	5.626	16286	12983	0	364
57.122	6.816	16283	13015	0	364
52.362	5.806	16280	13156	0	364
48.323	5.013	16266	13015	0	364
47.530	3.931	16260	12616	0	364
48.503	1.479	16246	12313	0	364
46.304	0.180	16237	12324	0	364
44.717	2.777	16237	12572	0	364
46.989	6.563	16232	12875	0	364
52.651	9.665	16232	13199	0	364
62.820	11.107	16229	13598	0	364
69.888	14.894	16229	14052	0	364
74.793	17.562	16229	14559	0	364
76.668	24.558	16235	15110	0	364
76.055	25.856	16235	15618	0	364
72.917	21.385	16243	16093	0	364
65.777	14.821	16249	16643	0	364
61.125	6.780	16263	17388	0	364
55.932	4.147	16271	18165	0	364
56.040	3.967	16283	18770	0	364
60.765	5.049	16294	19191	0	364
63.686	6.131	16309	19569	0	364
65.308	8.078	16317	19947	0	364
63.361	10.242	16331	20293	0	364
60.404	10.097	16339	20487	0	364
55.860	7.825	16351	20541	0	364
52.867	3.895	16360	20498	0	364
57.843	3.282	16368	20314	0	364
63.686	5.878	16373	20088	0	364
71.980	11.251	16386	20077	0	364
77.966	18.283	16395	20185	0	364
78.219	21.457	16397	19850	0	364
78.940	27.371	16391	18932	0	364
79.553	30.040	16384	17820	0	364
81.825	34.656	16379	16902	0	364
86.441	37.721	16373	16298	0	364
92.752	39.488	16368	15812	0	364
97.223	41.327	16360	15143	0	364
99.712	41.039	16345	14333	0	364
99.820	40.678	16339	13836	0	364
98.197	40.966	16339	13901	0	364
102.705	46.015	16343	14235	0	364
112.153	57.230	16343	14484	0	364
125.640	68.229	16343	14570	0	364
140.029	79.373	16339	14624	0	364
149.405	87.739	16345	14743	0	364
158.781	90.624	16339	14840	0	364
166.751	99.135	16339	14916	0	364
176.019	110.710	16339	15013	0	364
182.402	123.440	16339	15164	0	364
182.834	131.266	16343	15359	0	364
185.323	134.439	16348	15693	0	364
182.979	133.898	16356	16136	0	364
180.274	132.492	16356	16437	0	364
180.022	131.771	16360	16610	0	364
180.815	132.816	16365	16826	0	364
180.815	134.403	16373	17183	0	364
180.418	133.610	16382	17615	0	364
179.661	129.607	16391	18036	0	364
174.035	126.433	16403	18479	0	364
169.564	121.385	16414	18846	0	364
165.633	117.490	16420	19029	0	364
162.856	113.127	16431	19083	0	364
159.755	109.196	16437	19062	0	364
151.965	99.675	16446	18943	0	364
143.563	87.739	16446	18608	0	364
135.269	80.563	16440	17906	0	364
131.013	75.838	16429	16999	0	364
129.715	72.917	16423	16212	0	364
127.010	66.751	16414	15564	0	364
120.483	57.375	16400	14786	0	364
109.737	46.881	16382	13739	0	364
100.325	38.334	16365	12745	0	364
97.656	35.701	16354	12292	0	364
98.233	40.714	16345	12313	0	364
101.226	44.464	16339	12432	0	364
97.187	42.048	16331	12443	0	364
84.565	35.016	16320	12389	0	364
71.872	20.303	16311	12400	0	364
55.932	3.462	16305	12551	0	364
42.986	-9.160	16305	12929	0	364
33.646	-16.156	16303	13512	0	364
25.135	-23.909	16305	14138	0	364
16.841	-30.617	16309	14743	0	364
7.068	-41.760	16314	15369	0	364
-2.669	-57.663	16320	16061	0	364
-18.211	-71.331	16326	16653	0	364
-30.040	-83.880	16328	17064	0	364
-38.154	-92.283	16334	17355	0	364
-41.976	-97.295	16339	17593	0	364
-43.996	-99.135	16334	17625	0	364
-50.739	-106.311	16334	17463	0	364
-61.846	-117.598	16331	17323	0	364
-76.848	-131.049	16334	17345	0	364
-85.972	-140.930	16337	17474	0	364
-89.470	-145.727	16339	17679	0	364
-87.198	-143.022	16348	17917	0	364
-88.532	-140.462	16348	18036	0	364
-91.670	-143.851	16348	17993	0	364
-98.449	-147.458	16345	17690	0	364
-100.577	-149.405	16339	17258	0	364
-99.207	-146.376	16337	16945	0	364
-89.867	-139.993	16337	16805	0	364
-87.559	-137.757	16337	16686	0	364
-85.972	-140.065	16328	16459	0	364
-89.578	-142.770	16320	15985	0	364
-88.965	-143.419	16309	15337	0	364
-84.710	-136.747	16297	14775	0	364
-74.432	-128.453	16288	14311	0	364
-65.597	-117.418	16275	13922	0	364
-61.738	-111.323	16260	13577	0	364
-62.712	-110.999	16249	13210	0	364
-67.328	-113.018	16235	12972	0	364
-65.994	-115.362	16232	13048	0	364
-63.109	-116.228	16224	13393	0	364
-59.034	-112.730	16220	13717	0	364
-56.690	-108.042	16215	13955	0	364
-57.483	-104.544	16218	14387	0	364
-59.394	-101.983	16218	15056	0	364
-57.050	-99.531	16224	15650	0	364
-50.811	-94.483	16224	16093	0	364
-42.661	-87.450	16229	16502	0	364
-32.420	-78.363	16232	16977	0	364
-21.457	-67.580	16243	17582	0	364
-11.900	-61.053	16254	18360	0	364
-6.635	-59.538	16271	19202	0	364
-9.160	-63.866	16280	19850	0	364
-15.579	-71.799	16292	20260	0	364
-20.772	-73.891	16305	20541	0	364
-23.549	-70.718	16320	20833	0	364
-16.264	-61.594	16328	21114	0	364
-6.455	-54.742	16343	21265	0	364
1.370	-50.884	16354	21265	0	364
3.642	-56.509	16362	21200	0	364
-0.649	-60.296	16373	21178	0	364
-4.219	-60.548	16384	21146	0	364
-7.429	-56.221	16391	20952	0	364
-7.068	-45.294	16400	20606	1	588
0.108	-37.432	16406	20185	0	588
5.734	-32.095	16406	19623	0	588
13.415	-29.607	16406	18824	0	588
18.392	-28.525	16400	17982	0	588
21.998	-28.453	16397	17291	0	588
17.706	-31.013	16395	16707	0	588
13.343	-35.665	16389	16104	0	588
9.340	-39.812	16382	15402	0	588
12.045	-37.973	16371	14592	0	588
21.421	-31.482	16360	13814	0	588
31.374	-21.854	16351	13274	0	588
37.901	-15.218	16343	12918	0	588
37.180	-13.956	16331	12551	0	588
29.715	-15.723	16322	12281	0	588
22.286	-20.555	16320	12281	0	588
21.385	-20.267	16314	12551	0	588
22.358	-20.014	16311	12886	0	588
26.001	-19.365	16309	13156	0	588
28.561	-19.329	16311	13490	0	588
28.056	-23.404	16309	13911	0	588
26.145	-26.470	16309	14268	0	588
25.424	-24.955	16311	14592	0	588
26.794	-20.159	16311	14905	0	588
29.246	-13.199	16314	15186	0	588
34.043	-11.287	16314	15488	0	588
38.190	-13.054	16320	15942	0	588
42.806	-13.559	16322	16427	0	588
42.012	-14.569	16322	16643	0	588
36.964	-14.172	16317	16309	0	588
30.725	-19.005	16305	15672	0	588
25.279	-25.929	16300	15369	0	588
19.654	-33.502	16297	15467	0	588
22.431	-32.059	16297	15629	0	588
28.201	-21.277	16294	15769	0	588
32.997	-8.547	16294	15942	0	588
39.957	-1.911	16297	16104	0	588
43.671	-1.479	16292	16158	0	588
45.618	-8.078	16292	16201	0	588
45.871	-12.658	16292	16331	0	588
45.582	-11.251	16294	16437	0	588
51.280	-5.157	16286	16309	0	588
58.024	3.678	16277	15920	0	588
73.386	15.110	16275	15629	0	588
92.175	28.417	16269	15585	0	588
111.973	46.772	16260	15531	0	588
126.433	62.928	16254	15272	0	588
138.226	77.786	16243	14937	0	588
145.871	90.263	16241	14862	0	588
154.201	101.334	16237	15099	0	588
164.371	114.858	16241	15488	0	588
179.012	131.554	16241	15899	0	588
192.499	146.772	16246	16277	0	588
205.013	159.827	16252	16805	0	588
41.507	5.734	16406	16437	0	596
34.728	-2.560	16395	15477	0	596
29.895	-5.950	16377	14484	0	596
27.479	-7.212	16365	13717	0	596
28.994	-3.859	16348	13296	0	596
33.718	1.046	16339	13156	0	596
36.459	5.517	16331	13188	0	596
39.019	5.085	16322	13318	0	596
38.298	3.210	16317	13458	0	596
35.737	-0.325	16317	13706	0	596
33.177	-2.236	16314	14127	0	596
33.682	-0.036	16311	14592	0	596
34.439	4.255	16311	14991	0	596
37.252	7.862	16317	15510	0	596
37.793	9.845	16326	16158	0	596
38.658	9.196	16328	16707	0	596
38.154	6.852	16328	17096	0	596
34.800	4.472	16331	17312	0	596
31.482	1.226	16334	17420	0	596
26.830	-0.180	16337	17571	0	596
26.866	2.921	16348	17960	0	596
34.800	8.691	16354	18522	0	596
44.537	13.451	16360	18889	0	596
49.982	18.428	16365	18986	0	596
51.461	17.202	16371	19008	0	596
45.799	14.713	16379	19126	0	596
38.731	11.612	16384	19299	0	596
33.682	8.366	16391	19407	0	596
31.735	4.688	16400	19494	0	596
29.391	5.013	16408	19656	0	596
27.876	3.534	16420	19828	0	596
29.463	5.193	16429	19936	0	596
31.302	6.347	16437	19947	0	596
35.088	7.212	16440	19688	0	596
39.812	7.321	16440	19040	0	596
41.147	9.592	16431	18090	0	596
38.911	11.432	16423	17107	0	596
36.098	10.963	16417	16352	0	596
34.656	12.730	16412	15909	0	596
38.298	14.858	16403	15607	0	596
42.084	15.398	16400	15186	0	596
44.717	17.021	16391	14657	0	596
42.481	14.966	16389	14473	0	596
35.774	12.766	16391	14754	0	596
30.184	8.150	16397	15218	0	596
26.866	7.717	16403	15575	0	596
29.787	4.183	16403	15737	0	596
30.148	2.596	16406	15812	0	596
29.210	-1.875	16408	15953	0	596
26.181	-4.688	16414	16201	0	596
23.873	-6.491	16417	16384	0	596
24.702	-5.554	16414	16320	0	596
30.977	-2.524	16414	16147	0	596
36.387	-1.154	16417	16125	0	596
37.252	-2.056	16420	16341	0	596
33.754	-4.796	16425	16610	0	596
28.092	-8.258	16429	16761	0	596
22.467	-13.379	16425	16621	0	596
19.546	-14.749	16414	16007	0	596
20.627	-14.064	16403	15089	0	596
21.529	-12.405	16395	14484	0	596
24.594	-7.104	16386	14268	0	596
27.984	-4.183	16382	14225	0	596
27.948	-3.678	16379	14354	0	596
26.650	-4.724	16382	14646	0	596
25.604	-7.248	16384	15045	0	596
27.335	-5.626	16386	15488	0	596
29.931	-3.823	16389	15845	0	596
30.833	-0.036	16389	16061	0	596
30.256	-1.262	16386	16007	0	596
26.722	-0.865	16382	15726	0	596
24.919	-4.832	16377	15467	0	596
26.253	-7.176	16371	15315	0	596
28.489	-8.402	16362	15143	0	596
29.715	-8.763	16354	14829	0	596
28.273	-9.773	16345	14527	0	596
26.361	-8.511	16345	14624	0	596
24.342	-10.819	16345	15078	0	596
21.781	-12.658	16348	15531	0	596
20.339	-13.848	16351	15823	0	596
16.264	-18.500	16345	15953	0	596
17.129	-16.805	16345	16039	0	596
18.860	-14.677	16348	16244	0	596
25.027	-10.061	16351	16589	0	596
30.725	-4.544	16356	16967	0	596
34.403	-2.777	16362	17301	0	596
30.653	-3.570	16368	17658	0	596
26.253	-7.681	16377	18101	0	596
19.942	-10.097	16384	18565	0	596
21.709	-7.501	16391	18889	0	596
24.919	-2.128	16397	18986	0	596
31.662	5.914	16403	18964	0	596
38.442	13.199	16412	19029	0	596
40.570	15.507	16417	19191	0	596
41.688	17.274	16429	19353	0	596
41.291	13.704	16434	19396	0	596
38.622	12.586	16437	19202	0	596
38.839	10.133	16429	18522	0	596
36.639	7.825	16420	17485	0	596
36.567	5.662	16414	16686	0	596
35.269	5.409	16412	16277	1	516
34.331	2.957	16406	15985	0	516
31.194	0.108	16403	15758	0	516
28.994	-2.921	16400	15585	0	516
24.450	-5.770	16400	15445	0	516
22.034	-7.753	16395	15348	0	516
23.008	-5.914	16395	15283	0	516
25.496	-1.659	16389	15099	0	516
29.859	2.092	16379	14603	0	516
33.213	4.111	16362	13836	0	516
35.052	6.419	16348	13166	0	516
34.547	7.862	16343	12940	0	516
33.393	8.150	16337	13123	0	516
33.826	8.294	16331	13350	0	516
34.475	9.088	16331	13512	0	516
38.839	6.924	16328	13911	0	516
44.284	9.268	16334	14624	0	516
46.340	12.694	16337	15315	0	516
45.691	14.930	16337	15704	0	516
44.212	20.447	16337	15812	0	516
40.570	20.916	16339	16028	0	516
40.606	20.087	16348	16491	0	516
41.255	19.834	16351	17031	0	516
39.272	16.408	16360	17474	0	516
38.875	15.543	16365	17820	0	516
36.351	13.091	16371	18111	0	516
35.593	11.756	16379	18392	0	516
36.314	11.468	16386	18770	0	516
38.731	11.323	16397	19224	0	516
40.209	11.540	16408	19569	0	516
38.695	11.756	16417	19753	0	516
35.846	10.638	16429	19872	0	516
32.925	9.448	16437	20034	0	516
31.735	6.311	16451	20196	0	516
33.682	7.176	16463	20271	0	516
34.620	5.373	16468	20196	0	516
34.439	2.777	16474	19980	0	516
32.816	2.236	16482	19731	0	516
31.807	1.082	16488	19483	0	516
30.905	0.288	16488	19137	0	516
28.814	-0.793	16493	18684	0	516
27.624	-1.046	16493	18155	0	516
26.974	0.613	16485	17388	0	516
30.436	2.488	16482	16524	0	516
33.826	5.193	16480	16082	0	516
37.541	6.203	16480	16050	0	516
39.235	4.472	16480	15866	0	516
40.389	4.508	16471	15251	0	516
41.003	6.419	16459	14419	0	516
44.248	12.261	16448	13804	0	516
43.960	17.021	16446	13566	0	516
48.467	20.844	16442	13598	0	516
48.503	20.411	16440	13685	0	516
51.316	19.762	16434	13674	0	516
51.533	20.159	16423	13382	0	516
49.549	16.552	16400	12508	0	516
46.376	16.300	16373	11212	0	516
42.878	13.992	16351	10186	0	516
41.219	10.278	16331	9743	0	516
40.642	10.855	16317	9765	0	516
43.563	11.323	16309	10153	0	516
47.854	12.802	16309	10953	0	516
46.989	12.766	16305	11978	0	516
43.347	6.996	16303	12799	0	516
35.197	1.190	16294	13015	0	516
28.669	-2.849	16286	12886	0	516
24.342	-4.904	16280	13156	0	516
25.929	-4.003	16280	13955	0	516
28.958	-2.416	16286	14829	0	516
28.886	-3.029	16288	15693	0	516
27.912	-6.094	16300	16632	0	516
24.162	-6.635	16309	17625	0	516
21.745	-5.554	16326	18543	0	516
25.099	-2.452	16334	19364	0	516
29.535	2.705	16345	19936	0	516
35.197	7.501	16351	20109	0	516
40.209	11.828	16348	19882	0	516
41.111	13.307	16345	19461	0	516
43.383	12.333	16345	19116	0	516
45.655	13.379	16345	18932	1	316
47.061	11.973	16345	18695	0	316
45.618	11.143	16337	18187	0	316
43.743	12.225	16331	17582	0	316
42.661	10.891	16328	17183	0	316
41.868	10.133	16326	17107	0	316
43.599	10.963	16328	17247	0	316
46.232	12.405	16334	17420	0	316
45.979	10.927	16334	17485	0	316
45.150	10.133	16337	17571	0	316
41.507	6.275	16343	17755	0	316
39.199	1.803	16348	17971	0	316
34.764	-0.433	16354	18101	0	316
31.410	-3.173	16360	18144	0	316
29.715	-5.517	16362	18198	0	316
27.155	-7.537	16373	18381	0	316
26.289	-5.986	16382	18695	0	316
28.958	-3.750	16391	19051	0	316
30.472	-1.875	16403	19267	0	316
30.725	-4.111	16414	19429	0	316
26.001	-9.124	16425	19666	0	316
22.899	-11.648	16446	20077	0	316
21.962	-13.451	16463	20595	0	316
21.926	-8.799	16476	20973	0	316
23.801	-4.364	16493	21081	0	316
27.984	-0.685	16508	21006	0	316
32.276	3.931	16516	20844	0	316
35.918	9.052	16531	20617	0	316
42.012	10.855	16536	20304	0	316
41.796	7.645	16542	19742	0	316
35.629	3.570	16536	18824	0	316
28.850	-3.282	16533	17712	0	316
23.224	-6.527	16522	16632	0	316
18.103	-10.422	16519	15801	0	316
17.129	-12.838	16508	15013	0	316
15.759	-13.199	16485	13814	0	316
18.320	-16.697	16463	12248	0	316
16.372	-15.326	16446	11071	0	316
15.723	-16.625	16437	10769	0	316
10.350	-19.546	16434	11093	0	316
5.842	-20.736	16429	11600	0	316
4.508	-20.736	16429	11914	0	316
8.439	-18.897	16420	11978	0	316
16.120	-15.002	16417	12043	0	316
24.234	-10.458	16412	12302	0	316
29.859	-4.436	16414	12756	0	316
32.131	0.288	16414	13264	0	316
35.016	4.039	16412	13674	0	316
40.101	5.698	16414	14073	0	316
45.799	7.934	16417	14581	0	316
49.297	8.655	16420	15218	0	316
53.408	12.982	16425	15780	0	316
52.867	15.435	16429	16136	0	316
54.706	20.231	16429	16277	0	316
57.014	24.378	16420	16050	0	316
60.692	27.876	16414	15639	0	316
61.125	28.056	16408	15477	0	316
57.663	25.820	16408	15596	0	316
49.730	19.834	16406	15791	0	316
44.320	15.435	16406	16028	0	316
39.776	10.638	16412	16374	0	316
40.317	8.835	16414	16740	0	316
43.599	9.268	16414	16923	0	316
44.392	10.386	16408	16686	0	316
42.229	8.150	16400	16223	0	316
35.810	6.635	16395	15920	0	316
32.384	4.327	16391	15877	0	316
32.744	4.075	16391	16007	0	316
35.882	7.429	16391	16179	0	316
42.517	11.684	16386	16190	0	316
46.448	11.612	16377	15737	0	316
43.022	9.737	16362	14991	0	316
36.531	3.787	16354	14527	0	316
29.030	-0.865	16348	14473	0	316
25.460	-3.498	16343	14603	0	316
28.489	0.541	16339	14786	0	316
35.774	7.898	16334	14927	0	316
43.563	17.779	16334	15153	0	316
48.467	23.801	16337	15650	0	316
50.992	24.162	16345	16384	1	316
54.345	22.791	16354	17161	0	316
55.355	23.188	16362	17809	0	316
57.050	25.929	16373	18306	0	316
58.493	26.902	16382	18792	0	316
54.345	27.227	16391	19278	0	316
54.237	25.460	16400	19634	0	316
54.129	25.929	16408	19764	0	316
57.988	28.056	16414	19742	0	316
58.132	30.869	16417	19526	0	316
59.538	31.482	16417	19072	0	316
56.617	28.525	16414	18554	0	316
48.756	24.198	16414	18187	0	316
43.960	19.437	16417	18014	0	316
38.586	16.552	16414	17939	0	316
34.944	8.979	16425	17971	0	316
30.869	4.291	16431	18090	0	316
29.643	-1.118	16437	18155	0	316
28.453	-4.940	16440	18079	0	316
28.164	-3.318	16442	17960	0	316
32.925	0.288	16446	17863	0	316
36.062	5.121	16457	17917	0	316
39.668	7.645	16471	18317	0	316
39.524	8.222	16488	18964	0	316
37.144	2.633	16499	19450	0	316
32.384	-2.524	16514	19623	0	316
29.066	-5.554	16519	19558	0	316
32.131	-2.380	16527	19310	0	316
37.180	3.390	16533	18997	0	316
41.039	8.330	16536	18662	0	316
38.947	6.780	16536	18090	0	316
35.485	-0.469	16527	17258	0	316
26.866	-7.501	16527	16556	0	316
25.063	-7.681	16525	16179	0	316
27.155	-4.868	16527	15953	0	316
31.374	1.298	16519	15596	0	316
33.862	5.373	16516	15045	0	316
34.944	6.960	16514	14635	0	316
34.259	6.094	16508	14538	0	316
31.518	3.101	16514	14581	0	316
25.171	-0.144	16508	14581	0	316
23.224	-3.065	16508	14516	0	316
24.558	-1.947	16508	14462	0	316
29.427	2.885	16505	14516	0	316
40.245	8.979	16510	14721	0	316
47.854	13.595	16508	14959	0	316
46.556	12.477	16508	14916	0	316
38.586	5.517	16493	14300	0	316
28.705	-3.462	16474	13382	0	316
21.168	-12.441	16465	12832	0	316
21.854	-15.254	16457	12756	0	316
24.125	-16.012	16448	12713	0	316
25.893	-14.930	16440	12691	0	316
25.496	-13.199	16431	12918	0	316
18.392	-14.028	16434	13339	0	316
16.552	-12.405	16431	13771	0	316
14.533	-12.874	16431	14117	0	316
15.723	-14.749	16431	14462	0	316
14.353	-18.211	16431	14873	0	316
12.694	-23.837	16434	15326	0	316
7.825	-27.479	16431	15672	0	316
4.904	-28.453	16431	15899	0	316
4.291	-27.876	16434	16104	0	316
8.186	-24.306	16431	16277	0	316
15.398	-18.969	16429	16233	0	316
18.572	-12.658	16423	16071	0	316
21.637	-9.376	16423	16190	0	316
18.644	-8.655	16423	16589	0	316
17.346	-9.953	16429	16945	0	316
16.264	-9.665	16425	17010	0	316
19.041	-9.881	16423	16805	0	316
20.952	-8.979	16420	16664	0	316
22.070	-7.681	16420	16729	0	316
22.647	-7.429	16423	16956	0	316
21.781	-9.448	16425	17226	0	316
24.306	-6.563	16425	17399	0	316
23.981	-6.131	16425	17377	0	316
26.145	-3.390	16425	17237	0	316
27.299	-1.731	16429	17301	0	316
28.705	0.397	16434	17615	0	316
27.984	0.325	16437	17831	0	316
29.030	-1.190	16440	17895	0	316
27.515	-3.137	16448	18036	0	316
27.660	-4.039	16457	18306	0	316
28.777	-4.652	16465	18641	0	316
27.732	-4.111	16471	18846	0	316
28.958	-3.642	16465	18619	0	316
26.722	-2.993	16465	17993	0	316
26.830	-3.282	16465	17539	0	316
26.433	-3.750	16463	17420	0	316
25.352	-2.633	16468	17345	0	316
24.666	-4.255	16468	17183	0	316
26.397	-2.993	16465	16977	0	316
30.617	-0.938	16463	16718	0	316
32.276	0.938	16463	16481	0	316
33.538	3.462	16468	16513	0	316
31.662	4.327	16474	16805	0	316
29.607	5.517	16468	16783	0	316
31.590	6.671	16463	16201	0	316
35.846	11.576	16454	15456	0	316
40.570	16.733	16442	14883	0	316
42.697	18.356	16434	14527	0	316
44.212	20.772	16425	14376	0	316
46.484	20.519	16423	14300	0	316
50.270	24.522	16417	14203	0	316
52.723	25.676	16417	14246	0	316
54.129	27.984	16417	14559	0	316
51.461	25.352	16420	14991	0	316
50.487	21.781	16420	15337	0	316
45.438	14.713	16417	15477	0	316
42.265	11.360	16417	15510	0	316
37.036	4.544	16414	15639	0	316
30.400	-0.938	16420	15953	0	316
27.155	-2.092	16423	16298	0	316
28.669	0.505	16425	16459	0	316
35.557	7.934	16425	16545	0	316
43.310	15.038	16429	16675	0	316
46.664	20.952	16431	16902	0	316
46.520	18.103	16434	17139	0	316
43.094	15.975	16434	17247	0	316
41.904	13.848	16440	17237	0	316
47.999	16.084	16440	17237	0	316
54.706	18.536	16442	17312	0	316
56.581	22.070	16446	17442	0	316
56.149	20.519	16448	17593	0	316
54.778	20.952	16457	17755	0	316
53.732	20.844	16457	17777	0	316
58.420	24.378	16457	17550	0	316
59.430	27.479	16454	17215	0	316
58.420	28.128	16448	16945	0	316
53.841	25.099	16446	16621	0	316
47.458	18.788	16437	16071	0	316
43.743	13.054	16429	15369	0	316
40.462	7.537	16417	14829	0	316
37.180	4.580	16408	14484	0	316
32.564	4.508	16403	14333	0	316
29.968	3.606	16397	14397	0	316
27.299	1.803	16391	14430	0	316
25.135	-0.433	16384	14235	0	316
25.965	-1.190	16379	14019	0	316
28.417	-1.767	16373	14052	0	316
27.840	-3.173	16371	14257	0	316
24.378	-5.445	16365	14397	0	316
21.060	-9.304	16360	14333	0	316
16.408	-12.802	16351	14268	0	316
13.559	-15.182	16348	14408	0	316
15.867	-14.605	16348	14786	0	316
17.923	-10.963	16348	15229	0	316
22.142	-9.556	16348	15564	0	316
22.647	-8.150	16345	15791	0	316
25.676	-5.013	16345	15812	0	316
28.309	-4.075	16337	15715	0	316
28.994	-1.587	16334	15737	0	316
29.174	0.757	16334	15899	0	316
27.912	1.154	16331	16082	0	316
25.856	-1.298	16334	16363	0	316
26.506	-1.695	16339	16837	0	316
27.768	-3.137	16351	17463	0	316
29.427	-0.902	16354	17993	0	316
28.777	-0.685	16360	18263	0	316
25.676	-3.137	16362	18360	0	316
18.211	-6.239	16365	18403	0	316
16.480	-10.458	16371	18457	0	316
13.776	-12.261	16371	18414	0	316
16.733	-14.245	16371	18230	0	316
20.519	-13.992	16368	17960	0	316
25.424	-10.674	16362	17517	0	316
26.866	-9.016	16360	17053	0	316
26.433	-7.321	16365	17053	0	316
25.388	-5.373	16373	17582	0	316
26.542	-5.626	16379	18068	0	316
30.112	-3.210	16384	18176	0	316
34.187	-1.154	16384	18014	0	316
38.658	4.111	16386	17852	0	316
40.822	7.609	16391	17863	0	316
37.757	7.862	16397	17982	0	316
33.429	7.501	16400	17993	0	316
30.653	7.393	16403	17831	0	316
31.446	6.491	16406	17669	0	316
34.151	11.323	16406	17604	0	316
38.622	13.884	16412	17539	0	316
39.957	14.641	16412	17355	0	316
37.901	15.038	16408	17053	0	316
35.846	12.405	16408	16783	0	316
36.170	13.848	16408	16599	0	316
38.514	14.713	16408	16427	0	316
38.406	14.894	16406	16298	0	316
36.964	13.451	16408	16212	0	316
37.036	10.278	16408	16136	0	316
38.695	12.045	16408	16082	0	316
44.356	14.172	16408	16050	0	316
47.313	15.038	16412	16050	0	316
50.523	18.644	16414	16201	0	316
47.494	17.959	16420	16513	0	316
45.078	18.247	16425	16826	0	316
40.353	13.992	16434	17118	0	316
34.403	9.160	16440	17409	0	316
29.895	4.219	16451	17647	0	316
27.912	2.308	16457	17777	0	316
29.787	6.527	16463	17777	0	316
38.082	12.874	16457	17453	0	316
42.770	17.959	16454	16805	0	316
46.917	18.500	16446	16158	0	316
45.691	17.959	16440	15672	0	316
42.842	16.516	16434	15294	0	316
42.661	18.752	16423	14775	0	316
45.366	20.627	16408	14095	0	316
48.323	24.017	16395	13534	0	316
48.648	21.962	16389	13210	0	316
46.953	17.779	16382	13069	0	316
38.803	10.386	16377	12994	0	316
30.040	2.416	16365	12972	0	316
24.017	-4.183	16360	13058	0	316
19.329	-7.465	16356	13307	0	316
12.658	-10.819	16354	13685	0	316
9.160	-15.362	16354	14106	0	316
4.075	-18.716	16354	14495	0	316
-0.397	-25.279	16354	14851	0	316
-0.902	-29.968	16356	15315	0	316
3.029	-28.489	16365	15974	0	316
8.186	-24.414	16373	16740	0	316
11.504	-21.457	16382	17399	0	316
10.133	-19.113	16389	17863	0	316
8.907	-20.087	16397	18273	0	316
5.662	-25.748	16408	18781	0	316
6.347	-27.083	16420	19321	0	316
8.691	-26.145	16429	19656	0	316
13.199	-23.440	16434	19623	0	316
14.425	-19.149	16437	19310	0	316
16.228	-13.091	16434	19018	0	316
20.303	-7.285	16442	18889	0	316
20.916	-2.813	16448	18857	1	924
26.866	1.082	16451	18781	0	924
33.249	4.003	16451	18554	0	924
37.865	6.131	16446	17982	0	924
38.514	7.825	16440	17161	0	924
34.656	6.455	16434	16459	0	924
28.309	5.517	16425	16017	0	924
26.758	2.560	16420	15596	0	924
25.965	0.938	16408	15024	0	924
30.148	1.947	16397	14397	0	924
30.040	2.272	16391	14041	0	924
26.217	-2.128	16389	14041	0	924
23.260	-6.239	16386	14225	0	924
18.897	-12.153	16384	14441	0	924
19.978	-12.405	16382	14516	0	924
21.998	-10.278	16373	14333	0	924
26.037	-4.291	16362	13955	0	924
30.508	1.118	16356	13750	0	924
29.859	1.983	16354	13911	0	924
27.948	-0.541	16351	14225	0	924
25.388	-4.039	16348	14527	0	924
27.371	-3.606	16351	14883	0	924
32.853	1.442	16356	15423	0	924
40.426	9.989	16362	16071	0	924
45.655	16.552	16371	16610	0	924
50.234	21.529	16377	17096	0	924
53.228	19.834	16384	17690	0	924
54.922	19.293	16395	18381	0	924
57.916	18.572	16412	19029	0	924
55.860	16.877	16423	19526	0	924
52.759	19.329	16434	19904	0	924
51.208	21.421	16446	20174	0	924
51.280	25.568	16459	20347	0	924
52.290	28.092	16465	20487	0	924
52.362	26.289	16480	20563	0	924
50.847	19.870	16491	20520	0	924
47.854	15.254	16493	20325	0	924
44.861	11.576	16499	19969	0	924
43.960	9.665	16502	19504	0	924
43.130	11.468	16502	19029	0	924
39.957	9.124	16505	18565	0	924
33.790	2.957	16505	18047	0	924
28.201	-1.298	16493	17291	0	924
24.486	-3.029	16491	16384	0	924
25.171	-2.200	16482	15618	0	924
30.653	0.000	16474	15078	0	924
36.134	3.498	16471	14732	0	924
37.432	2.056	16465	14473	0	924
32.816	-1.334	16457	14149	0	924
25.171	-5.193	16448	13804	0	924
21.349	-7.825	16446	13588	0	924
20.411	-7.248	16442	13534	0	924
25.893	-4.508	16437	13588	0	924
30.653	-2.885	16429	13447	0	924
27.191	-5.517	16412	12886	0	924
21.168	-11.360	16391	12097	0	924
13.631	-17.454	16379	11590	0	924
10.566	-22.467	16368	11514	0	924
11.756	-20.303	16360	11633	0	924
15.074	-21.637	16351	11860	0	924
12.514	-24.847	16345	12216	0	924
10.314	-27.696	16337	12540	0	924
7.032	-31.590	16328	12713	0	924
1.551	-33.754	16326	12983	0	924
-0.865	-33.826	16328	13555	0	924
-2.849	-35.052	16328	14343	0	924
-3.390	-38.009	16334	15218	0	924
-3.137	-39.235	16339	16071	0	924
-2.560	-41.111	16345	16805	0	924
-3.462	-42.120	16354	17442	0	924
-8.835	-46.592	16360	17993	0	924
-12.225	-52.723	16365	18349	0	924
-17.310	-58.420	16368	18349	0	924
-22.683	-62.099	16362	18101	0	924
-24.991	-63.181	16360	17928	0	924
-26.361	-60.656	16360	17841	0	924
-23.945	-55.932	16354	17571	0	924
-18.969	-54.742	16345	17129	0	924
-16.625	-52.038	16343	16815	0	924
-13.163	-51.857	16339	16740	1	316
-11.973	-48.972	16339	16815	0	316
-9.520	-46.268	16339	16815	0	316
-9.304	-43.347	16331	16589	0	316
-10.891	-40.173	16326	16287	0	316
-11.973	-41.183	16322	16190	0	316
-11.071	-42.445	16322	16352	0	316
-7.573	-41.760	16322	16545	0	316
-2.272	-41.003	16326	16653	0	316
0.397	-39.524	16328	16837	0	316
-0.180	-38.009	16331	17193	0	316
-2.128	-37.036	16337	17571	0	316
-3.787	-35.233	16343	17820	0	316
-5.445	-36.928	16345	17917	0	316
-5.121	-38.983	16354	18057	0	316
-5.950	-40.606	16362	18295	0	316
-3.354	-41.399	16365	18576	0	316
-3.823	-39.524	16377	18824	0	316
-2.524	-34.944	16384	18997	0	316
-4.039	-32.167	16391	19137	0	316
-5.049	-31.374	16400	19310	0	316
-3.210	-32.384	16406	19515	0	316
-0.577	-31.987	16423	19731	0	316
4.111	-33.249	16434	19936	0	316
7.248	-29.607	16446	20109	0	316
8.871	-27.876	16457	20174	0	316
9.629	-26.470	16468	20098	0	316
10.494	-23.549	16474	19947	0	316
11.864	-19.726	16482	19688	0	316
17.959	-15.182	16485	19213	0	316
26.650	-7.104	16480	18468	0	316
35.124	-0.288	16471	17366	0	316
41.075	1.082	16457	16093	0	316
39.380	0.361	16442	14959	0	316
34.367	-3.570	16429	14117	0	316
28.561	-6.058	16420	13490	0	316
28.814	-6.383	16403	12821	0	316
34.583	-3.750	16389	12140	0	316
42.265	1.334	16379	11752	0	316
46.340	3.498	16365	11525	0	316
45.222	4.075	16354	11201	0	316
41.399	0.685	16339	10931	0	316
34.151	-2.705	16326	10812	0	316
31.843	-4.400	16317	10942	0	316
31.987	-1.226	16314	11417	0	316
37.360	5.734	16314	12151	0	316
43.022	12.333	16317	12918	0	316
47.277	16.516	16317	13620	0	316
47.566	15.110	16320	14311	0	316
43.707	10.278	16326	15089	0	316
43.274	8.186	16334	15963	0	316
42.734	6.383	16348	16848	0	316
45.078	8.835	16354	17582	0	316
47.674	12.153	16362	18090	0	316
49.910	16.336	16371	18533	0	316
47.926	16.877	16382	19051	0	316
49.405	19.942	16391	19612	0	316
47.999	19.618	16406	20098	0	316
47.854	20.375	16417	20444	0	316
49.657	20.555	16425	20671	0	316
50.703	20.988	16442	20844	0	316
52.578	21.926	16451	20952	0	316
50.956	18.716	16463	20930	0	316
44.753	16.192	16468	20768	0	316
42.012	9.665	16474	20509	0	316
39.344	5.517	16480	20088	0	316
37.180	4.039	16476	19396	0	316
38.154	5.770	16468	18446	0	316
38.767	8.763	16459	17409	0	316
38.983	10.674	16448	16363	0	316
40.426	12.586	16431	15272	0	316
42.265	15.038	16417	14289	0	316
47.169	16.480	16406	13652	0	316
47.818	19.798	16397	13307	0	316
46.448	19.005	16389	13134	0	316
46.195	16.697	16384	13091	0	316
44.104	14.245	16379	13134	0	316
45.005	16.661	16379	13318	0	316
49.333	18.247	16382	13750	0	316
51.785	22.539	16386	14397	1	316
50.920	23.585	16391	15121	0	316
49.297	21.637	16400	15834	0	316
45.835	21.818	16408	16448	0	316
41.003	18.175	16423	17053	0	316
37.721	18.103	16434	17712	0	316
30.436	11.973	16446	18306	0	316
22.827	7.212	16454	18641	0	316
16.120	-0.361	16463	18759	0	316
14.461	-4.977	16471	18921	0	316
13.127	-7.573	16485	19288	0	316
16.228	-4.472	16499	19710	0	316
22.070	-1.803	16505	19904	0	316
22.863	1.010	16519	19882	0	316
25.784	-0.541	16527	19861	0	316
26.289	-3.354	16542	19936	0	316
27.984	-6.419	16548	19980	0	316
28.561	-4.724	16559	19839	0	316
30.436	-1.623	16559	19407	0	316
28.201	0.361	16559	18641	0	316
25.929	0.325	16550	17690	0	316
22.503	0.793	16548	16869	0	316
18.175	2.524	16542	16266	0	316
15.759	6.094	16542	15812	0	316
8.042	8.979	16533	15434	0	316
-0.938	8.619	16527	14937	0	316
-12.081	8.547	16519	14376	0	316
-17.779	9.592	16519	14192	0	316
-20.159	13.415	16519	14354	0	316
-16.372	21.529	16519	14441	0	316
-17.346	23.837	16516	14354	0	316
-22.467	23.332	16508	14160	0	316
-31.482	17.995	16505	13965	0	316
-37.144	13.307	16499	13901	0	316
-35.197	11.828	16499	13944	0	316
-28.381	17.815	16497	13976	0	316
-23.549	19.906	16488	13911	0	316
-24.053	20.050	16488	13955	0	316
-31.194	13.018	16488	14246	0	316
-35.918	7.825	16488	14711	0	316
-35.197	7.393	16497	15197	0	316
-30.220	10.746	16499	15553	0	316
-25.640	13.379	16497	15801	0	316
-23.801	11.432	16505	16082	0	316
-27.840	3.787	16510	16491	0	316
-33.249	-1.046	16514	16902	0	316
-35.449	-4.760	16519	17118	0	316
-37.613	-6.203	16519	17237	0	316
-39.849	-10.206	16527	17409	0	316
-42.193	-17.923	16531	17604	0	316
-44.609	-24.017	16536	17679	0	316
-46.051	-29.607	16536	17593	0	316
-44.356	-29.391	16533	17388	0	316
-42.373	-30.364	16536	17193	0	316
-42.517	-29.391	16531	16999	0	316
-45.727	-32.564	16533	16794	0	316
-49.441	-34.259	16527	16567	0	316
-46.448	-33.141	16527	16352	0	316
-42.373	-29.246	16519	16028	0	316
-34.583	-26.073	16508	15467	0	316
-30.148	-25.568	16497	14689	0	316
-31.374	-26.614	16474	13771	0	316
-33.682	-29.102	16446	12508	0	316
-35.052	-30.581	16417	11125	0	316
-33.466	-26.830	16389	10121	0	316
-29.463	-23.801	16368	9559	0	316
-24.739	-18.608	16345	9322	0	316
-20.772	-16.805	16331	9462	0	316
-16.156	-15.398	16322	9948	0	316
-16.769	-18.428	16314	10639	0	316
-14.064	-18.500	16309	11352	0	316
-12.874	-18.608	16305	12162	0	316
-8.114	-12.838	16309	13134	0	316
-1.010	-7.789	16311	14171	0	316
1.731	-6.671	16314	15164	0	316
1.803	-8.042	16320	16017	0	316
-0.036	-9.881	16326	16761	0	316
-0.288	-9.196	16331	17517	0	316
0.829	-7.068	16345	18317	0	316
4.940	-4.400	16351	19083	0	316
7.248	-3.714	16362	19688	0	316
9.340	-2.741	16371	20152	0	316
8.655	-1.515	16382	20606	0	316
11.071	0.757	16391	21070	0	316
12.477	3.065	16403	21459	0	316
14.749	3.498	16414	21610	0	316
19.654	3.714	16423	21567	0	316
19.005	6.239	16425	21448	0	316
18.680	6.167	16437	21308	0	316
14.425	5.554	16446	21222	0	316
12.550	4.688	16463	21448	1	360
13.271	5.842	16476	21880	0	360
19.329	9.196	16488	22042	0	360
23.873	13.415	16499	21761	0	360
26.758	17.129	16505	21351	0	360
28.561	17.166	16522	21189	0	360
30.220	18.392	16536	21265	0	360
33.718	19.293	16542	21114	0	360
36.639	23.296	16544	20379	0	360
38.298	24.666	16536	19202	0	360
36.278	24.919	16533	18036	0	360
33.105	22.142	16527	17172	0	360
30.581	16.120	16527	16589	0	360
26.938	12.117	16519	16007	0	360
23.837	7.393	16514	15272	0	360
22.431	5.265	16508	14646	0	360
19.582	5.626	16499	14279	0	360
21.529	8.943	16499	13965	0	360
21.529	10.566	16488	13577	0	360
23.152	11.396	16482	13231	0	360
23.188	9.520	16480	13058	0	360
23.080	6.924	16476	13102	0	360
24.955	6.960	16474	13361	0	360
29.787	10.602	16480	13771	0	360
36.170	17.490	16480	14073	0	360
43.671	20.952	16468	13890	0	360
50.126	26.974	16459	13339	0	360
52.795	28.417	16451	13026	0	360
54.201	31.085	16446	13166	0	360
49.441	30.184	16442	13426	0	360
44.717	27.443	16437	13696	0	360
38.226	24.162	16442	14019	0	360
34.439	17.166	16442	14430	0	360
35.846	14.569	16446	14937	0	360
37.505	9.629	16454	15585	0	360
36.747	7.501	16459	16341	0	360
32.925	6.022	16471	16956	0	360
27.479	4.544	16476	17355	0	360
25.965	3.642	16480	17571	0	360
27.587	4.688	16482	17679	0	360
31.662	4.255	16488	17766	0	360
34.656	4.508	16488	17744	0	360
34.836	5.878	16480	17399	0	360
32.708	5.698	16474	16772	0	360
31.590	5.662	16468	16233	0	360
31.085	6.780	16459	15942	0	360
34.692	9.737	16459	15845	0	360
39.812	13.704	16454	15758	0	360
46.087	19.473	16448	15553	0	360
50.523	22.647	16446	15380	0	360
49.261	23.729	16440	15348	0	360
46.268	22.575	16442	15445	0	360
44.104	19.762	16440	15585	0	360
43.960	17.562	16437	15661	0	360
46.412	18.536	16437	15758	0	360
45.727	17.093	16440	16007	0	360
43.310	12.622	16442	16459	0	360
34.980	10.855	16454	16999	0	360
28.705	5.049	16463	17431	0	360
25.568	2.200	16465	17690	0	360
25.856	1.370	16471	17895	0	360
28.056	2.380	16482	18155	0	360
31.843	2.921	16482	18317	0	360
36.206	6.058	16476	17885	0	360
40.317	10.566	16463	16880	0	360
44.140	15.218	16454	15974	0	360
48.251	17.995	16446	15456	0	360
49.549	19.798	16437	15153	0	360
44.789	19.834	16429	14894	0	360
39.163	14.641	16417	14667	0	360
31.735	12.766	16412	14430	0	360
26.614	9.484	16397	14009	0	360
25.676	6.744	16389	13555	0	360
30.220	8.042	16384	13609	0	360
32.889	8.006	16384	14041	0	360
32.853	9.088	16377	14257	0	360
31.158	7.176	16368	14084	0	360
25.243	5.517	16356	13858	0	360
22.395	2.921	16354	13836	0	360
24.414	2.019	16339	13858	1	316
27.227	3.714	16320	13382	0	316
32.744	6.275	16297	12378	0	316
34.908	9.088	16277	11579	0	316
34.115	8.402	16260	11460	0	316
30.653	8.475	16252	11870	0	316
25.279	4.003	16246	12475	0	316
24.739	3.931	16241	13134	0	316
25.352	4.039	16243	13771	0	316
29.499	6.888	16241	14473	0	316
35.052	8.835	16246	15326	0	316
38.190	10.891	16254	16374	0	316
38.334	11.540	16266	17463	0	316
37.144	11.973	16277	18327	0	316
35.990	9.520	16283	18975	0	316
36.711	9.412	16294	19558	0	316
37.505	8.150	16300	19936	0	316
38.983	7.068	16309	20044	0	316
39.524	8.871	16311	20109	0	316
37.505	10.710	16320	20336	0	316
35.197	9.520	16331	20660	0	316
32.708	5.409	16343	20984	0	316
28.381	2.380	16356	21243	0	316
29.138	0.180	16365	21351	0	316
30.040	1.118	16373	21319	0	316
33.321	5.554	16379	21114	0	316
37.721	6.996	16382	20682	0	316
35.593	9.953	16382	20088	0	316
31.735	5.986	16384	19580	0	316
26.361	4.868	16386	19245	0	316
24.847	3.714	16389	18932	0	316
24.486	3.390	16386	18403	0	316
27.624	2.272	16386	17852	0	316
29.030	1.623	16391	17766	0	316
26.866	-0.505	16406	18187	0	316
22.935	-4.977	16417	18705	0	316
19.582	-7.393	16431	18997	0	316
17.346	-8.222	16442	19040	0	316
17.562	-7.681	16451	19062	0	316
19.113	-7.104	16465	19170	0	316
20.050	-4.436	16474	19299	0	316
21.060	-4.796	16488	19332	0	316
17.418	-6.671	16497	19148	0	316
14.785	-10.242	16499	18813	0	316
9.520	-13.776	16508	18543	0	316
7.429	-17.274	16514	18392	0	316
8.907	-14.028	16525	18241	0	316
14.100	-8.835	16527	17949	0	316
19.005	-3.173	16531	17615	0	316
22.539	0.325	16539	17366	0	316
20.267	-1.479	16544	17312	0	316
17.706	-4.003	16556	17355	0	316
17.166	-4.868	16559	17334	0	316
21.709	-0.361	16570	17247	0	316
26.938	4.111	16573	17183	0	316
27.912	7.032	16582	17139	0	316
28.489	7.104	16593	17129	0	316
23.873	4.111	16599	17139	0	316
24.125	3.823	16604	17064	0	316
26.181	7.681	16607	16794	0	316
29.066	11.756	16607	16394	0	316
28.886	11.323	16607	15996	0	316
27.912	10.710	16607	15585	0	316
24.919	5.986	16601	15153	0	316
25.460	2.236	16593	14624	0	316
25.676	1.659	16584	13858	0	316
27.299	3.390	16565	12907	0	316
27.155	5.626	16550	12065	0	316
29.859	9.196	16539	11514	0	316
31.879	13.595	16527	11212	0	316
32.961	15.146	16510	10996	0	316
33.646	13.163	16499	10769	0	316
32.925	13.054	16485	10683	0	316
30.400	10.386	16482	10845	0	316
29.931	8.475	16476	11223	0	316
29.715	11.432	16468	11579	0	316
32.925	11.648	16457	11860	0	316
33.033	13.451	16459	12270	0	316
32.889	14.425	16459	12896	0	316
31.049	12.297	16459	13609	0	316
29.102	9.665	16459	14279	0	316
30.112	10.025	16463	14862	0	316
33.321	10.710	16465	15359	0	316
35.701	11.540	16465	15791	0	316
34.692	11.287	16463	16115	0	316
31.158	7.825	16465	16341	0	316
22.935	4.940	16468	16578	0	316
20.483	2.344	16468	16848	0	316
21.132	2.416	16465	17085	0	316
21.709	1.334	16474	17366	0	316
24.342	0.325	16476	17712	0	316
26.145	-0.902	16480	17949	0	316
24.234	-2.164	16480	18047	0	316
22.899	-0.397	16482	18057	0	316
25.171	0.433	16482	18036	0	316
27.010	3.137	16480	17939	0	316
28.381	6.527	16476	17679	0	316
29.174	6.599	16471	17215	0	316
26.397	5.301	16463	16653	0	316
22.863	0.505	16446	16028	0	316
20.808	-2.524	16437	15326	0	316
24.089	-2.380	16425	14775	0	316
26.361	0.469	16414	14538	0	316
31.085	4.436	16406	14408	0	316
31.662	8.583	16395	14149	0	316
31.302	7.789	16384	13814	0	316
29.823	6.744	16373	13652	0	316
28.056	5.373	16371	13847	0	316
26.289	3.210	16373	14365	0	316
22.683	2.200	16373	14991	0	316
23.837	2.596	16377	15510	0	316
27.984	6.131	16379	16061	0	316
33.934	9.809	16386	16761	0	316
37.216	10.422	16395	17485	0	316
34.439	8.078	16403	18047	0	316
26.361	2.777	16408	18392	0	316
19.257	-0.649	16414	18630	0	316
18.680	-0.144	16423	18867	0	316
20.555	2.164	16429	19202	0	316
25.027	4.940	16440	19504	0	316
26.866	4.508	16440	19418	0	316
25.748	2.596	16429	18651	0	316
24.414	-1.154	16417	17485	0	316
25.099	-0.829	16408	16675	0	316
25.965	0.721	16406	16437	0	316
28.453	0.469	16403	16374	0	316
30.833	2.452	16403	16309	0	316
32.997	4.616	16403	16394	0	316
32.348	5.049	16406	16664	0	316
30.941	5.517	16414	17031	0	316
28.561	3.462	16423	17507	0	316
23.549	2.236	16434	18057	0	316
21.277	1.479	16442	18414	0	316
23.693	4.039	16442	18295	0	316
26.073	8.583	16442	17841	0	316
31.266	11.864	16437	17463	0	316
35.629	11.756	16442	17312	0	316
36.062	10.386	16440	17118	0	316
34.006	9.448	16431	16556	0	316
31.771	8.402	16420	15758	0	316
29.210	7.140	16412	15153	0	316
28.741	6.924	16412	15035	0	316
27.587	6.780	16408	15348	0	316
29.895	6.852	16417	15801	0	316
28.741	6.996	16420	16093	0	316
30.076	5.085	16423	16255	0	316
28.958	5.013	16425	16394	0	316
28.056	2.308	16429	16545	0	316
23.981	0.397	16431	16718	0	316
18.824	-2.488	16437	16848	0	316
16.733	-6.960	16437	16934	0	316
16.156	-9.917	16446	17107	0	316
18.428	-8.943	16457	17528	0	316
23.873	-5.085	16468	18057	0	316
28.237	-0.793	16474	18425	0	316
27.407	-0.325	16485	18576	0	316
22.575	-4.075	16491	18651	0	316
17.490	-11.251	16499	18792	0	316
7.970	-16.661	16510	18921	0	316
4.472	-21.565	16516	18878	0	316
5.085	-21.709	16516	18673	0	316
7.465	-22.214	16525	18457	0	316
11.071	-19.221	16525	18263	0	316
11.468	-19.870	16531	18025	0	316
10.025	-21.781	16527	17669	0	316
5.842	-25.063	16531	17247	0	316
3.859	-28.777	16527	16848	0	316
4.652	-27.732	16525	16416	0	316
6.888	-24.270	16522	15953	0	316
11.323	-19.005	16510	15456	0	316
13.812	-17.310	16508	14991	0	316
11.792	-15.074	16497	14527	0	316
12.982	-17.310	16491	14009	0	316
14.245	-14.028	16480	13447	0	316
18.103	-11.540	16468	13026	0	316
23.188	-6.058	16457	12842	0	316
28.489	-2.849	16454	12940	0	316
29.859	-0.649	16451	13123	0	316
32.997	0.144	16446	13242	0	316
34.908	-0.541	16446	13512	0	316
35.701	0.793	16446	14073	0	316
34.511	0.361	16454	14700	0	316
31.122	0.469	16457	15218	0	316
25.063	-1.118	16459	15629	0	316
21.457	-4.219	16459	15942	0	316
14.894	-7.934	16468	16233	0	316
12.550	-12.550	16474	16653	0	316
11.179	-16.877	16480	17150	0	316
12.622	-16.733	16482	17517	0	316
16.480	-15.867	16491	17733	0	316
16.625	-12.946	16497	17939	0	316
16.120	-12.369	16502	18230	0	316
12.117	-14.317	16514	18500	0	316
12.225	-12.874	16514	18576	0	316
15.795	-11.756	16519	18425	0	316
20.591	-7.898	16522	18273	0	316
24.198	-3.570	16522	18187	0	316
25.929	-5.157	16525	18068	0	316
22.395	-7.176	16525	17831	0	316
22.106	-9.052	16527	17517	0	316
28.345	-6.888	16519	17161	0	316
34.151	-0.829	16516	16643	0	316
37.793	2.596	16514	16147	0	316
36.242	-0.216	16514	16115	0	316
27.083	-7.176	16519	16394	0	316
15.182	-15.182	16514	16394	0	316
11.432	-18.680	16510	15974	0	316
14.569	-12.333	16505	15542	0	316
21.998	-3.931	16502	15413	0	316
26.902	2.633	16502	15434	0	316
28.922	1.911	16493	15326	0	316
23.657	-3.462	16491	15013	0	316
17.238	-8.907	16480	14570	0	316
15.867	-13.271	16471	14138	0	316
18.139	-9.701	16459	13868	0	316
24.847	-3.750	16454	13750	0	316
33.177	3.642	16442	13588	0	316
36.495	8.439	16431	13274	0	316
37.721	9.268	16423	13058	0	316
34.475	5.049	16417	13134	0	316
29.643	1.623	16408	13426	0	316
31.771	0.433	16408	13750	0	316
35.882	4.436	16403	13998	0	316
42.120	11.107	16397	14127	0	316
48.323	18.320	16389	14117	0	316
46.232	17.851	16379	13922	0	316
40.101	13.920	16368	13782	0	316
34.583	8.330	16362	13879	0	316
30.761	5.013	16356	14149	0	316
31.482	3.859	16354	14430	0	316
34.295	6.203	16348	14732	0	316
34.872	9.052	16348	15099	0	316
33.970	10.350	16345	15456	0	316
32.564	10.350	16345	15834	0	316
32.131	9.520	16345	16244	0	316
33.033	8.511	16348	16653	0	316
36.278	7.068	16356	17237	0	316
38.550	7.717	16373	18263	0	316
37.396	4.868	16391	19569	0	316
30.184	2.596	16406	20476	0	316
25.243	-3.173	16412	20671	0	316
22.070	-3.714	16417	20487	0	316
26.037	-0.974	16423	20325	0	316
35.088	4.219	16429	20293	0	316
40.534	12.297	16437	20358	0	316
39.452	13.776	16442	20433	1	980
36.675	12.117	16451	20390	0	980
35.160	10.133	16457	20142	0	980
34.872	7.248	16459	19785	0	980
37.108	7.537	16463	19440	0	980
37.541	6.635	16459	19029	0	980
35.954	7.537	16459	18446	0	980
34.511	8.150	16457	17841	0	980
35.593	8.366	16457	17366	0	980
36.603	10.855	16448	16967	0	980
35.918	11.792	16448	16491	0	980
32.384	9.196	16440	15974	0	980
26.109	4.724	16437	15542	0	980
21.673	-0.361	16434	15305	0	980
15.110	-4.255	16434	15315	0	980
18.103	-4.724	16434	15521	0	980
20.591	-2.056	16440	15726	0	980
24.378	2.164	16442	15845	0	980
26.794	2.344	16442	15888	0	980
24.306	1.587	16446	15953	0	980
23.585	-1.406	16446	16093	0	980
24.053	-2.092	16451	16212	0	980
25.424	-2.164	16454	16287	0	980
23.404	-2.524	16457	16363	0	980
20.844	-4.111	16459	16491	0	980
17.202	-5.914	16459	16653	0	980
21.421	-3.210	16465	16686	0	980
31.518	3.678	16465	16567	0	980
41.507	10.783	16463	16352	0	980
43.815	12.261	16451	15909	0	980
39.091	8.511	16446	15218	0	980
31.482	3.426	16434	14592	0	980
30.436	0.865	16425	14235	0	980
34.439	5.193	16417	14041	0	980
43.094	11.864	16406	13728	0	980
48.431	16.805	16391	13264	0	980
46.556	19.257	16382	12864	0	980
43.887	16.841	16371	12648	0	980
40.065	15.074	16362	12648	0	980
39.740	12.694	16354	12842	0	980
38.586	9.052	16351	13102	0	980
36.098	8.907	16345	13458	0	980
34.043	9.340	16348	13987	0	980
35.449	11.179	16351	14646	0	980
40.498	18.716	16351	15197	0	980
48.431	20.519	16354	15488	0	980
49.189	21.349	16351	15737	0	980
43.058	15.326	16356	16212	0	980
33.718	10.783	16362	16902	0	980
26.902	5.986	16373	17679	0	980
27.119	6.058	16384	18338	0	980
33.754	8.402	16391	18857	0	980
39.668	10.386	16400	19267	0	980
40.209	10.819	16412	19666	0	980
37.288	8.547	16425	20088	0	980
32.853	6.275	16434	20466	0	980
30.725	5.806	16448	20714	0	980
33.682	8.222	16459	20790	0	980
40.065	11.432	16468	20725	0	980
45.871	16.697	16471	20595	0	980
46.484	19.437	16482	20455	0	980
46.592	18.716	16493	20379	0	980
42.229	18.860	16493	20163	0	980
41.904	17.346	16497	19537	0	980
42.842	17.166	16493	18727	0	980
46.051	14.317	16497	18381	0	980
40.786	10.710	16510	18565	0	980
31.987	2.056	16516	18662	0	980
21.024	-5.265	16514	18273	0	980
12.045	-8.258	16514	17571	0	980
13.487	-7.357	16508	16923	0	980
18.644	-1.370	16510	16427	0	980
26.614	1.154	16502	15877	0	980
30.112	4.039	16488	15089	0	980
28.597	1.262	16480	14246	0	980
27.155	0.144	16468	13631	0	980
23.152	-1.839	16459	13296	0	980
21.204	-4.904	16454	13166	0	980
16.264	-9.304	16448	13134	0	980
16.733	-10.169	16446	13134	1	316
17.923	-7.393	16442	13210	0	316
24.198	-3.065	16440	13447	0	316
29.354	1.118	16440	13868	0	316
28.381	0.397	16446	14365	0	316
22.106	-5.337	16448	14732	0	316
16.733	-12.838	16448	15002	0	316
13.776	-16.805	16451	15337	0	316
17.382	-14.677	16454	15801	0	316
23.549	-12.045	16463	16309	0	316
28.994	-4.652	16468	16643	0	316
29.571	-0.505	16463	16556	0	316
31.735	2.272	16454	16071	0	316
30.400	0.433	16448	15618	0	316
25.929	-4.364	16446	15456	0	316
22.070	-8.871	16442	15413	0	316
17.310	-13.559	16437	15391	0	316
15.939	-15.435	16431	15369	0	316
16.156	-12.225	16429	15283	0	316
19.113	-11.864	16429	15359	0	316
18.139	-12.009	16437	15899	0	316
15.254	-14.064	16446	16621	0	316
10.061	-16.985	16446	16945	0	316
7.032	-15.759	16440	16740	0	316
12.369	-13.812	16437	16341	0	316
16.264	-8.727	16431	16007	0	316
23.512	-5.085	16423	15780	0	316
26.974	-5.626	16414	15423	0	316
26.830	-4.219	16400	14765	0	316
27.191	-3.895	16384	14030	0	316
30.112	-2.092	16371	13555	0	316
32.816	0.649	16362	13393	0	316
37.721	4.364	16356	13534	0	316
42.661	9.268	16351	13836	0	316
52.759	18.247	16348	14138	0	316
58.997	27.443	16348	14538	0	316
62.063	34.115	16348	15035	0	316
60.151	36.855	16343	15175	0	316
53.047	33.285	16328	14797	0	316
51.064	30.220	16317	14387	0	316
52.795	28.597	16309	14333	0	316
57.194	27.768	16305	14603	0	316
54.418	24.234	16311	15153	0	316
49.657	18.139	16314	15877	0	316
42.625	10.783	16320	16556	0	316
35.810	5.986	16326	17215	0	316
35.774	2.164	16334	17874	0	316
29.968	-3.101	16348	18533	0	316
23.368	-10.927	16356	19116	0	316
12.802	-21.926	16365	19537	0	316
5.409	-26.578	16373	19818	0	316
2.705	-28.056	16382	20001	0	316
2.885	-23.873	16386	20034	0	316
7.825	-18.680	16397	20120	0	316
12.622	-15.651	16414	20649	0	316
14.930	-10.566	16434	21556	0	316
19.546	-9.809	16454	22150	0	316
17.093	-11.179	16463	22031	0	316
15.939	-13.379	16468	21448	0	316
14.605	-16.552	16468	20757	0	316
18.067	-12.477	16474	20152	0	316
26.686	-4.580	16476	19602	0	316
33.141	-0.325	16476	19040	0	316
34.367	0.541	16471	18392	0	316
29.210	-4.291	16471	17777	0	316
24.342	-8.150	16471	17280	0	316
23.549	-5.121	16471	16891	0	316
30.508	2.380	16465	16502	0	316
38.082	8.258	16465	16061	0	316
39.560	9.268	16463	15629	0	316
34.620	5.337	16459	15337	0	316
26.614	-1.334	16457	15164	0	316
22.863	-4.688	16454	14981	0	316
21.385	-3.137	16448	14646	0	316
24.125	0.144	16446	14311	0	316
29.174	2.128	16442	14138	0	316
27.191	2.993	16437	14171	0	316
26.722	-1.298	16437	14300	0	316
20.483	-8.763	16437	14354	0	316
13.956	-16.480	16434	14397	1	316
10.242	-20.159	16434	14538	0	316
8.727	-21.962	16437	14786	0	316
10.350	-17.562	16437	15089	0	316
15.435	-14.208	16440	15305	0	316
17.166	-11.179	16440	15348	0	316
21.421	-13.451	16437	15283	0	316
23.260	-13.668	16434	15251	0	316
23.296	-11.287	16434	15272	0	316
24.017	-9.304	16425	15272	0	316
20.988	-8.835	16429	15240	0	316
18.572	-8.943	16425	15229	0	316
16.841	-10.350	16423	15229	0	316
17.382	-11.540	16420	15305	0	316
19.365	-7.645	16425	15683	0	316
24.919	-4.724	16431	16244	0	316
28.561	-2.488	16431	16589	0	316
29.679	-5.445	16434	16589	0	316
27.227	-7.898	16431	16394	0	316
24.522	-11.720	16429	16233	0	316
23.188	-11.179	16429	16255	0	316
21.962	-9.701	16431	16394	0	316
23.873	-5.085	16425	16405	0	316
26.794	-1.082	16420	16212	0	316
28.345	-0.325	16423	16136	0	316
30.220	0.757	16425	16394	0	316
33.069	1.190	16431	16794	0	316
35.701	1.406	16437	17107	0	316
34.692	0.180	16440	17247	0	316
32.997	-0.902	16442	17291	0	316
29.859	-0.108	16440	17291	0	316
28.922	0.505	16440	17129	0	316
27.984	1.911	16437	16772	0	316
29.679	2.633	16431	16384	0	316
31.482	2.705	16429	16125	0	316
30.292	1.082	16425	16071	0	316
28.020	0.036	16425	16233	0	316
26.938	0.252	16434	16545	0	316
26.506	-0.974	16437	16848	0	316
26.217	-1.154	16442	17064	0	316
27.515	-0.325	16448	17237	0	316
28.741	0.721	16451	17420	0	316
29.787	3.101	16454	17561	0	316
30.833	3.390	16459	17604	0	316
30.148	4.724	16463	17615	0	316
31.410	5.481	16465	17571	0	316
29.931	5.481	16459	17301	0	316
27.083	5.013	16457	16783	0	316
25.279	3.137	16451	16341	0	316
20.411	0.541	16448	16050	0	316
19.618	-2.164	16442	15791	0	316
20.916	-4.291	16431	15413	0	316
22.395	-4.364	16425	14927	0	316
24.594	-1.947	16420	14592	0	316
25.640	-0.072	16417	14538	0	316
24.017	2.236	16414	14689	0	316
22.250	0.180	16412	14808	0	316
23.440	-3.282	16408	14862	0	316
24.558	-6.852	16408	15024	0	316
25.640	-6.671	16408	15294	0	316
28.850	-4.255	16408	15521	0	316
28.201	-3.246	16408	15737	0	316
25.027	-2.741	16412	15920	0	316
22.611	-4.472	16412	16061	0	316
20.772	-7.898	16414	16223	0	316
18.428	-8.619	16420	16535	0	316
19.762	-11.071	16425	16977	0	316
18.536	-11.540	16425	17129	0	316
19.510	-10.963	16414	16632	0	316
16.444	-9.701	16403	15812	0	316
14.858	-10.963	16397	15380	0	316
11.215	-12.622	16395	15456	0	316
8.330	-14.713	16391	15629	0	316
10.674	-16.769	16391	15834	0	316
13.559	-13.415	16397	16179	0	316
15.903	-10.927	16403	16545	0	316
16.192	-9.268	16400	16643	0	316
11.684	-8.943	16397	16448	0	316
7.429	-10.133	16397	16320	0	316
5.517	-12.369	16395	16320	0	316
6.455	-12.477	16389	16136	0	316
9.773	-12.946	16382	15747	0	316
13.054	-13.884	16377	15499	0	316
11.792	-14.425	16373	15488	0	316
9.701	-18.608	16371	15521	0	316
2.813	-22.070	16368	15510	0	316
0.216	-24.198	16365	15531	0	316
3.678	-21.962	16365	15683	0	316
9.196	-18.644	16371	16061	0	316
12.946	-17.057	16377	16653	0	316
14.461	-14.245	16384	17301	0	316
13.740	-14.497	16395	17841	0	316
14.208	-10.855	16403	18425	0	316
19.437	-4.832	16423	19148	0	316
22.322	-1.370	16437	19861	0	316
24.847	1.515	16454	20401	0	316
23.693	2.993	16468	20725	0	316
28.525	5.662	16480	20930	0	316
35.016	9.448	16497	21114	0	316
40.606	11.684	16510	21308	0	316
41.363	10.242	16522	21394	0	316
37.649	6.744	16527	21016	0	316
32.059	3.678	16519	19990	0	316
30.472	4.940	16514	18673	0	316
35.160	7.032	16510	17712	0	316
39.235	9.232	16502	17118	1	420
42.048	7.970	16502	16567	0	420
37.541	3.570	16497	16082	0	420
35.593	1.406	16497	15769	0	420
28.669	0.361	16497	15596	0	420
25.063	-1.118	16493	15445	0	420
19.365	-4.039	16493	15251	0	420
16.084	-5.806	16488	14873	0	420
13.884	-6.996	16474	14246	0	420
16.877	-3.137	16463	13469	0	420
22.395	-0.252	16448	12724	0	420
25.460	3.318	16434	12184	0	420
29.535	1.370	16423	11946	0	420
32.131	-0.325	16412	11838	0	420
34.043	-1.046	16400	11676	0	420
34.439	-0.793	16386	11525	0	420
29.463	-1.190	16379	11546	0	420
25.243	-1.370	16373	11827	0	420
20.555	-2.128	16373	12335	0	420
23.296	-0.072	16368	12864	0	420
28.525	2.380	16365	13220	0	420
32.600	0.974	16360	13501	0	420
32.095	2.416	16356	13858	0	420
32.312	0.397	16356	14343	0	420
30.508	-0.757	16360	14937	0	420
31.122	1.587	16360	15542	0	420
32.492	4.364	16365	16082	0	420
33.213	4.724	16371	16610	0	420
32.276	4.868	16379	17291	0	420
31.662	2.705	16386	18014	0	420
32.276	3.498	16395	18597	0	420
34.692	3.859	16403	19051	0	420
35.269	6.239	16414	19440	0	420
34.583	4.219	16425	19839	0	420
32.348	2.741	16437	20206	0	420
28.922	-2.813	16446	20466	0	420
27.407	-4.868	16454	20628	0	420
29.643	-4.003	16468	20746	0	420
37.396	-0.649	16476	20725	0	420
42.734	1.731	16476	20368	0	420
42.517	0.505	16474	19699	0	420
33.393	-6.780	16474	19029	0	420
20.916	-16.552	16474	18500	0	420
12.153	-23.440	16465	17949	0	420
10.530	-22.972	16465	17355	0	420
22.358	-15.507	16459	16761	0	420
35.305	-2.957	16451	16169	0	420
42.986	5.770	16442	15607	0	420
44.176	7.032	16434	15175	0	420
38.009	5.049	16431	14873	0	420
31.158	-0.757	16425	14581	0	420
28.273	-6.383	16417	14246	0	420
27.984	-8.294	16408	13922	0	420
31.122	-6.419	16397	13577	0	420
32.420	-4.147	16386	13177	0	420
31.230	-2.452	16379	12907	0	420
30.292	-1.911	16373	12983	0	420
31.122	-5.013	16371	13350	0	420
29.715	-6.455	16368	13750	0	420
30.220	-7.321	16365	13933	0	420
28.345	-6.383	16360	14009	0	420
27.010	-3.750	16360	14225	0	420
28.201	-3.390	16356	14527	0	420
28.020	-4.183	16354	14775	0	420
28.309	-7.321	16354	14959	0	420
24.739	-10.674	16351	15197	0	420
19.654	-12.477	16354	15575	0	420
14.172	-14.172	16356	16125	0	420
13.631	-15.795	16365	16740	0	420
12.514	-15.471	16371	17312	0	420
14.930	-17.346	16373	17658	0	420
14.821	-17.670	16371	17474	0	420
12.153	-17.346	16362	16945	0	420
13.271	-14.136	16360	16664	0	420
12.045	-12.514	16360	16707	0	420
14.100	-8.871	16360	16794	0	420
16.985	-4.075	16360	16869	0	420
17.562	-1.731	16360	16967	0	420
19.546	-0.108	16368	17237	0	420
22.935	0.288	16379	17885	0	420
24.378	0.144	16389	18641	0	420
27.047	-2.164	16395	18954	0	420
24.306	-4.940	16391	18749	0	420
16.661	-11.973	16395	18349	0	420
10.746	-18.788	16397	18101	0	420
6.996	-23.837	16400	18111	0	420
10.855	-20.411	16403	18209	0	420
21.132	-14.172	16403	18036	0	420
29.318	-4.652	16403	17604	0	420
34.259	-0.829	16403	17312	0	420
31.807	-1.406	16406	17345	0	420
27.299	-3.210	16412	17474	0	420
25.784	-4.003	16414	17561	0	420
26.722	-1.875	16417	17561	0	420
30.833	-1.190	16423	17539	0	420
34.259	-0.541	16425	17615	0	420
35.341	-0.072	16434	17755	0	420
34.872	0.252	16437	17787	0	420
36.098	0.902	16442	17658	0	420
37.360	5.698	16442	17474	0	420
40.317	7.140	16446	17355	0	420
41.435	7.681	16451	17442	0	420
38.586	6.852	16463	17723	0	420
37.000	7.537	16474	18036	0	420
36.747	10.783	16482	18273	0	420
41.435	16.877	16485	18338	0	420
49.405	23.549	16493	18133	0	420
50.451	24.630	16493	17744	0	420
47.241	20.195	16491	17312	0	420
37.721	11.504	16491	16913	0	420
31.771	7.501	16491	16610	0	420
34.151	7.501	16488	16416	0	420
40.101	10.206	16491	16212	0	420
47.458	13.307	16488	15877	0	420
47.602	14.533	16482	15521	0	420
42.661	10.458	16480	15175	0	420
32.744	5.734	16471	14678	0	420
27.155	1.659	16457	14030	0	420
26.001	1.839	16448	13523	0	420
26.866	1.587	16442	13307	0	420
28.814	3.534	16434	13253	0	420
30.364	2.957	16425	13112	0	420
32.780	4.472	16414	12810	0	420
35.413	6.599	16400	12454	0	420
39.632	10.314	16386	12119	0	420
40.029	13.018	16373	11860	0	420
38.226	11.612	16360	11644	0	420
32.961	6.816	16345	11438	0	420
29.210	2.741	16334	11449	0	420
28.886	2.056	16328	11784	0	420
30.472	3.823	16322	12335	0	420
33.574	8.222	16326	13037	0	420
37.432	11.937	16322	13804	0	420
42.120	11.900	16326	14538	0	420
42.409	11.396	16326	15045	0	420
41.219	9.448	16326	15434	0	420
39.199	7.681	16328	15985	0	420
35.990	8.979	16334	16589	0	420
33.321	11.251	16337	17096	0	420
32.672	12.297	16345	17669	0	420
32.636	9.845	16356	18425	0	420
32.059	8.258	16371	19267	0	420
31.085	4.977	16384	20055	0	420
29.607	2.019	16400	20768	0	420
27.443	1.406	16414	21373	0	420
24.486	0.613	16431	21794	0	420
22.972	1.010	16446	22085	0	420
26.902	1.442	16457	22215	0	420
28.814	4.111	16471	22183	0	420
34.006	7.753	16482	22053	0	420
35.737	7.862	16488	21837	0	420
34.151	7.393	16499	21502	0	420
31.049	5.445	16505	21124	1	608
28.201	1.767	16510	20757	0	608
27.299	1.118	16516	20314	0	608
28.201	1.623	16510	19580	0	608
29.859	4.977	16510	18630	0	608
30.328	7.573	16508	17766	0	608
29.246	8.258	16502	17129	0	608
29.823	10.458	16502	16653	0	608
31.410	11.828	16502	16277	0	608
32.925	13.091	16497	15855	0	608
33.970	14.245	16497	15456	0	608
31.085	10.638	16493	15153	0	608
26.433	5.013	16491	14981	0	608
20.555	0.577	16491	14883	0	608
18.824	-1.659	16488	14743	0	608
17.923	-0.577	16485	14624	0	608
21.024	3.029	16491	14732	0	608
21.709	5.265	16499	15121	0	608
23.585	5.698	16502	15607	0	608
23.152	5.193	16510	15877	0	608
21.709	2.019	16508	15909	0	608
22.034	0.397	16514	15855	0	608
24.955	0.505	16514	15769	0	608
23.729	2.488	16510	15715	0	608
21.854	4.436	16519	15845	0	608
19.005	3.282	16519	16158	0	608
13.307	-0.865	16531	16491	0	608
11.215	-6.996	16533	16783	0	608
13.127	-9.160	16544	17021	0	608
17.490	-7.068	16548	17139	0	608
23.008	-2.705	16550	17064	0	608
23.981	-0.072	16542	16686	0	608
23.296	-0.865	16539	16082	0	608
18.788	-3.642	16531	15585	0	608
12.297	-7.176	16527	15283	0	608
12.369	-7.393	16525	15078	0	608
14.749	-5.842	16514	14862	0	608
19.510	-2.705	16508	14451	0	608
23.909	-0.865	16493	13933	0	608
27.587	0.865	16488	13512	0	608
24.522	0.649	16476	13253	0	608
21.060	-2.416	16468	13156	0	608
15.435	-8.078	16457	13123	0	608
8.979	-11.864	16451	13080	0	608
6.888	-13.992	16442	13102	0	608
7.321	-11.504	16431	12918	0	608
13.595	-9.016	16408	12281	0	608
16.264	-6.671	16389	11611	0	608
17.995	-9.196	16377	11320	0	608
15.362	-11.828	16365	11438	0	608
10.133	-15.074	16360	11914	0	608
8.871	-15.326	16360	12745	0	608
7.465	-14.064	16362	13739	0	608
8.439	-15.759	16365	14635	0	608
7.609	-14.569	16371	15456	0	608
9.809	-16.408	16379	16320	0	608
10.206	-12.514	16386	17226	0	608
13.559	-10.314	16397	18122	0	608
17.382	-6.996	16408	18889	0	608
15.110	-6.419	16423	19537	0	608
14.425	-7.753	16434	20098	0	608
11.107	-9.232	16446	20530	0	608
10.494	-9.340	16454	20833	0	608
13.668	-9.232	16468	21135	0	608
15.975	-8.186	16482	21459	0	608
18.824	-10.206	16488	21578	0	608
15.471	-12.802	16497	21297	0	608
9.701	-13.343	16497	20779	0	608
6.996	-15.615	16497	20271	0	608
7.717	-14.317	16499	19818	0	608
9.520	-12.658	16499	19256	0	608
10.314	-15.398	16491	18500	0	608
8.402	-16.480	16488	17755	0	608
2.777	-21.457	16493	17463	0	608
-1.010	-22.791	16497	17690	0	608
-0.072	-21.349	16508	17928	0	608
4.508	-17.598	16508	17863	0	608
10.602	-9.809	16514	17571	0	608
19.149	-2.633	16514	17247	0	608
23.837	-0.072	16510	16988	0	608
24.955	-1.875	16514	16815	0	608
17.959	-8.402	16508	16545	0	608
12.297	-17.057	16508	16093	0	608
8.114	-18.644	16505	15639	0	608
12.658	-13.884	16499	15359	0	608
23.260	-4.111	16497	15186	0	608
32.961	3.534	16493	15002	0	608
35.774	5.013	16488	14765	0	608
27.443	-2.993	16485	14570	0	608
15.759	-12.874	16482	14451	0	608
4.616	-20.339	16476	14387	0	608
-0.397	-22.539	16476	14419	0	608
1.442	-20.303	16474	14473	0	608
5.986	-15.687	16468	14473	0	608
9.701	-14.281	16463	14408	0	608
10.494	-14.461	16463	14430	0	608
8.979	-15.398	16463	14624	0	608
7.501	-21.132	16463	14894	0	608
2.596	-23.404	16451	14862	0	608
0.685	-23.440	16446	14408	0	608
2.092	-22.070	16434	13922	0	608
6.167	-14.245	16423	13696	0	608
12.910	-7.321	16417	13674	0	608
23.909	0.000	16412	13814	0	608
30.977	5.986	16408	14084	0	608
35.160	9.737	16406	14354	0	608
36.278	11.504	16403	14603	0	608
34.403	10.927	16403	15002	0	608
30.617	8.763	16408	15596	0	608
29.895	7.140	16412	16158	0	608
30.472	10.458	16414	16481	0	608
34.836	12.405	16414	16578	0	608
35.449	15.146	16412	16632	0	608
34.583	14.064	16414	16815	0	608
32.348	9.304	16420	17161	0	608
30.761	5.950	16423	17507	0	608
33.033	9.016	16423	17658	0	608
39.957	15.074	16420	17604	0	608
44.392	20.880	16423	17496	0	608
43.779	21.962	16423	17399	0	608
41.796	21.998	16420	17269	0	608
42.950	19.005	16417	17107	0	608
48.792	22.611	16417	16967	0	608
56.726	25.676	16417	16967	0	608
60.981	27.371	16420	17129	0	608
58.781	26.397	16423	17355	0	608
50.884	22.214	16423	17442	0	608
44.284	18.788	16429	17442	0	608
46.628	20.700	16431	17517	0	608
49.153	21.060	16437	17755	0	608
54.454	22.719	16442	18025	0	608
55.896	25.496	16446	18122	0	608
56.185	25.279	16446	18003	0	608
55.031	25.279	16448	17798	0	608
58.601	29.354	16451	17615	0	608
64.226	33.141	16451	17431	0	608
67.688	35.160	16448	17204	0	608
67.003	35.737	16446	16956	0	608
60.873	32.564	16442	16686	0	608
53.480	23.296	16437	16244	0	608
43.815	17.598	16434	15845	0	608
40.101	13.199	16437	15942	0	608
38.009	10.206	16440	16341	0	608
35.629	8.402	16442	16448	0	608
34.259	5.734	16437	16201	0	608
31.122	3.065	16434	15801	0	608
29.066	0.902	16429	15542	0	608
27.227	-0.252	16429	15521	0	608
27.624	-0.613	16429	15693	0	608
29.931	-1.695	16425	15866	0	608
29.679	-3.426	16431	15920	0	608
30.076	-4.688	16431	15953	0	608
27.407	-5.445	16431	16093	0	608
25.171	-7.465	16434	16266	0	608
24.017	-10.783	16434	16374	0	608
24.450	-12.297	16434	16394	0	608
26.217	-13.091	16437	16384	0	608
29.931	-9.232	16437	16374	0	608
34.511	-3.823	16440	16470	0	608
36.747	3.354	16440	16610	0	608
35.701	5.554	16440	16621	0	608
31.482	3.678	16437	16502	0	608
24.414	-1.623	16440	16416	0	608
19.221	-4.364	16442	16481	0	608
21.962	-3.967	16442	16599	0	608
28.381	0.721	16442	16589	0	608
34.403	6.527	16442	16481	0	608
36.098	8.402	16437	16394	0	608
35.052	5.409	16440	16266	0	608
32.744	3.101	16429	15845	0	608
32.203	4.003	16420	15240	0	608
35.701	5.445	16408	14754	0	608
39.163	10.746	16397	14289	0	608
36.891	11.900	16379	13534	0	608
36.531	10.278	16360	12637	0	608
34.043	9.448	16343	12065	0	608
35.052	8.439	16328	11914	0	608
39.740	9.917	16317	11968	0	608
42.048	11.684	16305	11957	0	608
43.815	14.677	16294	11946	0	608
42.301	14.317	16286	12184	0	608
40.065	16.192	16283	12702	0	608
38.118	15.507	16280	13404	0	608
37.649	13.271	16280	14106	0	608
42.842	15.687	16283	14711	0	608
45.041	14.100	16286	15391	0	608
45.474	16.372	16292	16233	0	608
43.310	15.723	16300	17053	0	608
41.003	17.057	16311	17744	0	608
39.199	15.435	16314	18306	0	608
42.625	19.293	16322	18770	0	608
44.068	19.546	16334	19278	0	608
42.950	21.818	16348	19936	0	608
38.082	19.726	16362	20628	0	608
33.790	18.139	16371	20930	0	608
31.158	14.713	16371	20509	0	608
33.141	14.785	16362	19677	0	608
34.043	13.163	16362	19116	0	608
33.682	14.100	16365	18975	0	608
32.239	13.415	16368	18867	1	796
30.472	10.819	16371	18727	0	796
31.338	11.287	16373	18619	0	796
35.341	12.910	16373	18500	0	796
37.721	11.576	16379	18392	0	796
36.206	10.746	16386	18468	0	796
29.895	5.950	16395	18695	0	796
25.929	2.416	16400	18781	0	796
24.991	5.445	16400	18489	0	796
35.305	12.622	16400	17993	0	796
45.799	21.385	16400	17615	0	796
54.562	24.522	16403	17409	0	796
53.516	21.637	16400	17172	0	796
46.628	16.516	16395	16740	0	796
36.459	9.484	16391	16190	0	796
29.282	7.032	16386	15769	0	796
28.309	6.094	16386	15607	0	796
30.328	6.816	16389	15704	0	796
32.059	6.491	16391	15845	0	796
35.701	6.996	16391	15877	0	796
35.449	7.248	16395	15985	0	796
32.853	6.888	16403	16320	0	796
30.292	5.734	16412	16751	0	796
25.279	5.049	16417	17042	0	796
23.008	3.895	16420	17096	0	796
20.483	3.318	16425	17053	0	796
24.017	5.049	16431	17139	0	796
27.732	8.330	16440	17388	0	796
31.085	11.035	16446	17690	0	796
31.590	10.855	16454	17874	0	796
30.436	7.212	16463	17993	0	796
25.207	3.462	16471	18165	0	796
22.899	-0.108	16480	18414	0	796
22.467	0.361	16493	18684	0	796
23.080	2.885	16505	18813	0	796
23.512	4.616	16508	18738	0	796
19.329	3.967	16516	18576	0	796
17.057	0.829	16519	18403	0	796
14.930	0.252	16527	18241	0	796
15.362	-0.649	16531	18057	0	796
15.002	0.685	16533	17723	0	796
17.815	1.442	16527	17031	0	796
16.985	1.587	16514	16039	0	796
17.815	0.036	16505	15035	0	796
17.490	-1.082	16491	14203	0	796
18.031	-1.010	16482	13577	0	796
16.264	-1.190	16471	13102	0	796
15.795	-1.262	16457	12648	0	796
14.100	-1.118	16440	12140	0	796
13.559	-2.056	16431	11698	0	796
11.792	-4.075	16420	11492	0	796
12.081	-5.337	16412	11590	0	796
14.172	-7.898	16400	11676	0	796
15.002	-9.953	16389	11579	0	796
13.740	-10.133	16382	11568	0	796
14.208	-10.710	16377	11914	0	796
9.989	-11.576	16377	12540	0	796
9.629	-13.018	16377	13253	0	796
9.701	-15.326	16377	13901	0	796
8.979	-18.283	16379	14570	0	796
9.845	-15.831	16384	15251	0	796
12.261	-15.831	16384	15726	0	796
10.710	-14.461	16382	15920	0	796
7.285	-19.077	16382	16028	0	796
2.633	-24.847	16382	16233	0	796
-3.029	-29.643	16384	16567	0	796
-1.983	-28.886	16389	17031	0	796
1.839	-23.729	16395	17550	0	796
8.042	-16.300	16397	17960	0	796
11.432	-13.812	16403	18230	0	796
11.179	-12.946	16408	18403	0	796
7.862	-15.687	16414	18565	0	796
3.101	-17.418	16417	18781	0	796
2.380	-21.385	16425	18943	0	796
1.623	-21.060	16425	18986	0	796
5.049	-23.224	16434	18997	0	796
9.556	-19.726	16440	19051	0	796
11.107	-16.336	16442	19072	0	796
9.088	-11.828	16446	18846	0	796
9.124	-11.071	16440	18306	0	796
7.393	-11.179	16431	17647	0	796
10.061	-9.917	16431	17129	0	796
16.192	-8.078	16429	16880	0	796
18.356	-5.950	16431	16934	0	796
20.195	-4.075	16437	17172	0	796
17.706	-4.544	16442	17388	0	796
17.274	-6.960	16442	17485	0	796
15.975	-6.671	16451	17485	0	796
19.221	-6.888	16457	17517	0	796
20.159	-7.104	16463	17723	0	796
22.791	-7.898	16468	17939	0	796
21.204	-8.691	16474	17939	0	796
22.395	-9.160	16476	17690	0	796
22.431	-7.681	16476	17366	0	796
28.273	-3.570	16471	17107	0	796
34.006	1.262	16476	16956	0	796
37.937	4.364	16476	16826	0	796
38.190	5.085	16474	16610	0	796
33.574	3.967	16476	16352	0	796
30.292	3.318	16476	16190	0	796
30.292	5.914	16480	16244	0	796
34.475	9.232	16480	16405	0	796
39.416	12.477	16485	16470	0	796
43.527	15.182	16476	16093	0	796
47.890	18.680	16465	15326	0	796
51.785	21.529	16459	14754	0	796
54.562	26.001	16457	14581	0	796
57.916	28.128	16451	14538	0	796
58.024	26.073	16448	14527	0	796
56.617	23.621	16442	14581	0	796
56.509	22.972	16442	14646	0	796
54.526	22.575	16440	14635	0	796
54.634	23.080	16434	14473	0	796
52.110	22.539	16420	14095	0	796
52.001	21.241	16406	13534	0	796
49.838	18.572	16389	12896	0	796
49.910	19.437	16373	12302	0	796
50.451	19.293	16360	11978	0	796
49.369	20.700	16348	11968	0	796
48.107	17.923	16339	12130	0	796
44.104	17.021	16326	12173	0	796
41.039	13.054	16311	12022	0	796
38.767	13.559	16303	11957	0	796
41.724	13.343	16288	12108	0	796
44.284	14.966	16280	12400	0	796
47.241	18.139	16275	12767	0	796
49.513	18.897	16263	13112	0	796
51.244	21.565	16254	13436	0	796
50.559	22.070	16254	13901	0	796
51.461	22.214	16252	14538	0	796
48.143	22.827	16252	15143	0	796
47.458	21.673	16243	15467	0	796
46.664	21.313	16241	15596	0	796
46.123	22.178	16237	15909	0	796
43.960	17.490	16241	16524	0	796
41.543	14.064	16252	17334	0	796
37.000	7.645	16254	18047	0	796
35.557	4.039	16263	18576	0	796
37.757	4.364	16266	18921	0	796
39.740	6.708	16266	19040	0	796
40.245	12.514	16266	18878	0	796
38.009	11.071	16263	18662	0	796
32.853	6.239	16269	18716	0	796
26.578	2.344	16271	18997	0	796
23.188	-1.442	16277	19278	0	796
26.361	-1.839	16286	19515	0	796
29.571	0.938	16288	19688	0	796
32.420	2.308	16294	19699	0	796
32.528	1.334	16292	19375	0	796
29.535	1.370	16292	18824	0	796
29.174	2.957	16288	18414	0	796
30.112	5.770	16288	18198	0	796
33.429	6.635	16292	18057	1	608
34.908	4.904	16288	17949	0	608
34.547	0.577	16288	17766	0	608
32.456	-1.370	16286	17442	0	608
33.682	1.298	16286	17107	0	608
33.141	7.393	16280	16848	0	608
32.312	12.694	16280	16718	0	608
30.833	12.694	16286	16675	0	608
27.551	6.167	16283	16643	0	608
26.506	2.092	16283	16653	0	608
28.633	-0.469	16292	16815	0	608
33.177	2.200	16294	17107	0	608
36.675	4.111	16300	17399	0	608
37.685	7.321	16305	17550	0	608
36.314	6.022	16317	17669	0	608
33.502	3.714	16320	17863	0	608
31.446	1.767	16328	18133	0	608
31.482	2.344	16337	18403	0	608
30.977	3.534	16345	18543	0	608
31.915	6.996	16354	18543	0	608
34.151	11.179	16360	18522	0	608
36.423	12.766	16368	18500	0	608
34.944	9.917	16373	18468	0	608
30.689	5.013	16382	18522	0	608
26.830	1.118	16389	18695	0	608
23.657	-2.524	16400	18835	0	608
24.125	-1.911	16403	18759	0	608
28.417	-0.288	16412	18479	0	608
33.105	1.334	16412	18111	0	608
34.980	4.147	16414	17701	0	608
34.692	2.921	16414	17334	0	608
32.564	2.993	16417	17118	0	608
29.859	1.082	16423	17021	0	608
24.342	-1.983	16425	16945	0	608
19.365	-6.599	16431	16859	0	608
17.454	-7.357	16429	16740	0	608
14.930	-9.124	16431	16437	0	608
15.110	-10.566	16429	15963	0	608
18.860	-9.304	16425	15531	0	608
21.673	-11.215	16425	15315	0	608
20.195	-12.081	16425	15315	0	608
17.418	-12.694	16429	15369	0	608
12.586	-15.110	16425	15326	0	608
9.448	-16.589	16429	15272	0	608
12.586	-13.920	16431	15369	0	608
15.687	-11.143	16437	15575	0	608
23.404	-6.239	16437	15737	0	608
26.253	-2.092	16440	15769	0	608
28.741	-1.370	16442	15866	0	608
31.626	-1.370	16451	16169	0	608
32.744	-1.082	16459	16567	0	608
31.807	-0.144	16468	16977	0	608
29.282	-1.154	16474	17280	0	608
23.116	-3.570	16485	17463	0	608
18.860	-7.862	16493	17647	0	608
20.014	-7.357	16499	17906	0	608
21.854	-5.517	16514	18219	0	608
26.073	-3.823	16522	18360	0	608
26.974	-4.796	16519	18036	0	608
23.116	-7.825	16516	17258	0	608
19.582	-11.251	16508	16545	0	608
17.202	-11.323	16508	16104	0	608
18.536	-8.006	16502	15726	0	608
18.211	-6.852	16493	15337	0	608
18.536	-8.006	16491	14981	0	608
19.762	-10.674	16485	14667	0	608
18.320	-9.124	16480	14462	0	608
22.250	-7.537	16476	14311	0	608
22.431	-4.580	16474	14225	0	608
22.827	-5.337	16468	14171	0	608
20.736	-8.258	16459	14041	0	608
21.241	-8.042	16457	13868	0	608
25.496	-3.426	16448	13739	0	608
28.092	0.397	16434	13415	0	608
32.203	7.357	16420	12875	0	608
32.420	7.717	16403	12281	0	608
31.446	6.563	16386	11762	0	608
30.292	6.347	16373	11525	0	608
30.004	6.239	16365	11698	0	608
28.850	4.436	16356	12076	0	608
29.030	6.419	16354	12497	0	608
28.814	7.537	16351	12972	0	608
29.679	9.124	16351	13566	0	608
31.771	10.458	16351	14279	0	608
33.105	13.271	16360	15186	0	608
35.593	15.074	16368	16136	0	608
37.613	17.057	16373	16902	0	608
36.855	17.959	16382	17539	0	608
35.593	14.749	16389	18187	0	608
31.266	13.054	16403	18932	0	608
30.112	11.179	16417	19688	0	608
30.941	10.386	16431	20336	0	608
35.521	12.802	16446	20811	0	608
42.878	12.369	16457	21103	0	608
47.602	14.497	16463	21178	0	608
47.530	14.785	16471	21038	0	608
44.392	11.504	16476	20757	0	608
36.675	8.547	16480	20412	0	608
28.994	2.921	16482	19969	0	608
24.414	-0.144	16476	19267	1	396
22.791	-0.180	16468	18360	0	396
25.893	2.957	16459	17528	0	396
30.941	4.940	16454	16848	0	396
35.629	8.619	16442	16050	0	396
38.118	8.294	16425	14959	0	396
37.000	7.789	16408	13922	0	396
33.357	6.094	16400	13426	0	396
30.148	3.390	16395	13501	0	396
27.624	5.481	16391	13739	0	396
29.823	6.347	16386	13825	0	396
32.528	9.809	16382	13750	0	396
36.855	14.136	16377	13696	0	396
38.947	14.641	16373	13825	0	396
39.993	16.625	16371	14063	0	396
38.550	16.300	16365	14181	0	396
36.819	18.752	16360	14181	0	396
41.580	21.745	16356	14333	0	396
47.458	25.929	16360	14732	0	396
50.090	28.922	16362	15315	0	396
53.264	27.083	16368	15985	0	396
48.648	22.142	16373	16470	0	396
41.363	17.562	16371	16513	0	396
35.701	13.018	16365	16266	0	396
32.925	13.127	16365	16223	0	396
32.853	15.254	16365	16491	0	396
33.682	15.254	16368	16772	0	396
34.800	15.903	16371	16977	0	396
35.341	13.018	16379	17280	0	396
35.521	13.379	16384	17733	0	396
36.928	15.254	16389	18263	0	396
38.731	15.038	16403	18770	0	396
39.849	16.913	16414	19213	0	396
38.767	15.110	16423	19461	0	396
36.964	15.579	16425	19386	0	396
35.629	15.759	16429	19072	0	396
34.872	17.490	16431	18770	0	396
35.882	15.543	16431	18533	0	396
35.449	13.415	16429	18198	0	396
36.639	9.809	16423	17593	0	396
36.928	8.294	16417	16902	0	396
38.082	7.825	16420	16610	0	396
37.937	8.871	16423	16707	0	396
35.233	8.222	16420	16729	0	396
30.508	3.714	16417	16459	0	396
25.568	-0.577	16412	16028	0	396
19.942	-3.426	16408	15704	0	396
21.277	-3.714	16408	15618	0	396
26.001	0.180	16406	15693	0	396
27.984	0.613	16408	15726	0	396
28.994	-0.865	16406	15564	0	396
25.893	-5.085	16400	15369	0	396
23.945	-8.222	16400	15337	0	396
22.827	-5.445	16403	15531	0	396
28.128	-1.334	16406	15845	0	396
31.085	2.705	16406	16050	0	396
32.348	3.931	16408	16147	0	396
30.328	5.085	16414	16331	0	396
27.479	2.164	16420	16697	0	396
23.044	0.397	16425	17096	0	396
20.123	-1.406	16429	17345	0	396
20.123	-0.252	16440	17496	0	396
23.945	3.678	16442	17658	0	396
29.751	10.602	16448	17744	0	396
31.230	14.930	16451	17701	0	396
32.348	17.274	16451	17550	0	396
28.381	14.281	16454	17409	0	396
27.371	9.592	16457	17334	0	396
28.020	10.602	16457	17247	0	396
31.699	9.845	16457	17085	0	396
32.348	12.081	16454	16902	0	396
32.816	14.677	16457	16675	0	396
32.348	15.074	16454	16341	0	396
30.941	16.192	16448	15909	0	396
34.187	15.939	16440	15477	0	396
35.160	14.208	16431	15110	0	396
35.882	14.461	16429	14873	0	396
36.314	11.648	16425	14786	0	396
36.711	12.405	16420	14711	0	396
36.278	13.379	16414	14559	0	396
39.921	14.785	16414	14549	0	396
41.255	17.057	16414	14808	0	396
40.750	16.120	16414	15153	0	396
38.009	16.589	16414	15348	0	396
35.413	13.307	16408	15326	0	396
33.249	12.009	16408	15261	0	396
32.023	10.314	16406	15315	0	396
33.610	8.258	16408	15510	0	396
31.590	4.652	16408	15758	0	396
28.597	0.288	16408	15845	0	396
23.188	-4.111	16397	15585	0	396
22.286	-4.183	16382	14775	0	396
25.748	-0.325	16365	13804	0	396
27.191	3.678	16351	13296	0	396
29.066	5.157	16343	13264	0	396
23.585	1.623	16334	13426	0	396
16.336	-4.291	16334	13706	0	396
9.989	-9.881	16331	14127	0	396
9.953	-10.819	16331	14667	0	396
15.362	-6.058	16334	15197	0	396
20.303	-1.515	16334	15650	0	396
24.450	-0.721	16334	15942	0	396
26.037	-1.623	16337	16115	0	396
24.234	-8.979	16334	16341	0	396
24.017	-11.540	16337	16632	0	396
25.099	-8.655	16339	16956	0	396
28.092	-3.101	16339	17258	0	396
31.410	3.895	16339	17366	0	396
30.472	5.229	16337	17258	0	396
26.289	2.452	16337	17021	0	396
20.123	-5.373	16322	16567	0	396
14.100	-8.439	16311	15963	0	396
8.547	-10.025	16300	15434	0	396
10.674	-8.042	16288	14981	0	396
13.415	-3.895	16277	14667	0	396
18.752	0.685	16271	14657	0	396
24.883	2.669	16275	14981	0	396
27.119	5.337	16271	15445	0	396
26.794	4.075	16271	15812	0	396
23.332	0.361	16275	16082	0	396
19.690	-5.517	16275	16352	0	396
16.120	-8.943	16277	16686	0	396
18.464	-6.131	16283	17085	0	396
21.781	-1.983	16286	17485	0	396
24.198	4.075	16294	17917	0	396
24.162	5.445	16305	18446	0	396
19.654	1.334	16314	19029	0	396
16.552	-2.669	16328	19569	0	396
16.516	-3.895	16339	19958	0	396
18.608	-3.246	16348	20217	0	396
18.824	-2.236	16360	20368	0	396
17.598	-2.524	16371	20466	0	396
16.408	-2.236	16379	20563	0	396
17.923	-3.246	16389	20606	0	396
23.476	-0.541	16397	20541	0	396
29.463	0.288	16408	20552	0	396
31.662	-1.442	16423	20692	0	396
29.607	-4.904	16437	20887	0	396
26.037	-8.691	16457	21168	0	396
21.529	-9.340	16474	21502	0	396
19.077	-8.763	16488	21556	0	396
20.231	-6.311	16493	21060	0	396
18.897	-5.626	16493	20174	0	396
19.185	-7.248	16497	19310	1	572
17.310	-9.665	16499	18619	0	572
16.084	-13.451	16497	17993	0	572
14.281	-16.733	16497	17355	0	572
15.146	-17.021	16497	16697	0	572
13.559	-17.779	16488	16039	0	572
12.117	-13.704	16488	15499	0	572
12.117	-13.163	16488	15197	0	572
13.920	-11.937	16482	14970	0	572
17.779	-10.278	16482	14603	0	572
20.591	-10.350	16480	14203	0	572
23.909	-6.708	16471	13868	0	572
22.863	-3.642	16465	13480	0	572
22.503	-4.075	16454	12940	0	572
19.401	-6.094	16442	12389	0	572
19.690	-5.878	16431	12032	0	572
24.522	-4.760	16420	11935	0	572
30.905	1.839	16420	12097	0	572
38.442	7.068	16417	12432	0	572
41.291	9.556	16414	12724	0	572
36.206	4.147	16412	12907	0	572
24.450	-6.275	16408	13134	0	572
15.218	-15.254	16408	13534	0	572
6.563	-23.008	16412	14052	0	572
5.914	-21.890	16412	14505	0	572
8.871	-17.562	16412	14829	0	572
12.333	-12.297	16414	15132	0	572
15.398	-9.268	16412	15456	0	572
16.949	-8.943	16417	15834	0	572
14.713	-12.081	16420	16266	0	572
12.694	-16.192	16423	16545	0	572
6.599	-17.887	16420	16502	0	572
2.164	-20.087	16412	16169	0	572
1.262	-17.057	16403	15726	0	572
4.039	-13.595	16395	15369	0	572
12.514	-9.737	16386	15143	0	572
18.608	-6.203	16382	14981	0	572
21.673	-4.003	16373	14851	0	572
24.342	-2.596	16371	14862	0	572
25.929	-0.180	16373	15207	0	572
26.001	0.829	16379	15877	0	572
24.125	-0.829	16384	16556	0	572
19.401	-4.327	16386	16999	0	572
14.713	-6.094	16389	17161	0	572
15.687	-5.878	16391	17237	0	572
19.726	-2.885	16391	17312	0	572
25.099	0.036	16389	17215	0	572
27.515	1.190	16382	16848	0	572
21.926	-0.793	16377	16384	0	572
18.247	-2.777	16368	15985	0	572
13.163	-3.462	16360	15704	0	572
16.516	-2.019	16356	15672	0	572
19.005	-2.452	16360	15866	0	572
25.532	0.433	16356	16082	0	572
30.797	1.623	16360	16277	0	572
30.184	3.534	16362	16578	0	572
25.712	1.911	16371	17064	0	572
21.385	-2.200	16379	17636	0	572
19.365	-4.111	16386	18090	0	572
20.050	-4.472	16391	18360	0	572
29.246	3.498	16397	18522	0	572
39.632	11.612	16406	18727	0	572
46.989	20.916	16414	18954	0	572
47.782	23.296	16420	19051	0	572
44.897	20.844	16425	18986	0	572
39.452	17.310	16423	18705	0	572
34.331	12.946	16420	18122	0	572
37.901	16.192	16412	17312	0	572
44.320	20.050	16403	16578	0	572
50.703	26.722	16397	16071	0	572
54.309	28.201	16386	15596	0	572
52.001	26.650	16373	14894	0	572
50.451	23.585	16360	14127	0	572
47.926	22.503	16354	13782	0	572
49.838	20.627	16348	13836	0	572
50.739	20.591	16337	13717	0	572
49.585	16.156	16322	13242	0	572
47.097	13.199	16311	12767	0	572
43.851	10.278	16305	12713	0	572
41.543	8.330	16300	13102	0	572
41.868	9.520	16300	13685	0	572
42.517	9.845	16303	14235	0	572
43.238	9.953	16303	14721	0	572
42.806	11.720	16300	15067	0	572
43.347	12.658	16292	15013	0	572
43.635	10.458	16286	14711	0	572
43.166	11.828	16277	14613	0	572
42.986	12.261	16271	14732	0	572
43.455	12.189	16269	14916	0	572
40.570	14.930	16269	15272	0	572
40.245	15.074	16275	15899	0	572
39.272	14.100	16283	16632	0	572
37.541	11.107	16286	17226	0	572
36.351	5.986	16292	17658	0	572
33.646	3.210	16297	17939	0	572
35.341	3.606	16297	18079	0	572
39.019	8.222	16300	18176	0	572
45.582	16.769	16305	18317	0	572
50.992	22.575	16311	18479	0	572
54.454	23.693	16311	18565	0	572
51.749	20.700	16311	18435	0	572
50.307	15.939	16311	18155	0	572
47.169	13.956	16311	17971	0	572
48.107	14.208	16317	17939	0	572
47.349	14.641	16314	17831	0	572
44.897	16.552	16305	17409	0	572
42.589	14.389	16300	16794	0	572
38.334	13.018	16297	16352	0	572
34.908	11.540	16292	16201	0	572
34.006	10.494	16292	16277	0	572
34.439	10.566	16297	16437	0	572
35.954	11.287	16294	16567	0	572
37.541	10.242	16300	16783	0	572
39.560	9.773	16309	17183	0	572
39.488	12.477	16320	17615	0	572
38.082	11.648	16322	17939	0	572
38.082	11.828	16331	18155	0	572
39.957	14.533	16339	18306	0	572
40.894	12.333	16345	18489	0	572
40.714	12.333	16360	18781	0	572
42.157	13.920	16371	19137	0	572
40.209	12.946	16377	19234	0	572
40.065	14.749	16373	18824	0	572
42.445	14.425	16373	18165	0	572
42.553	15.146	16377	17787	0	572
42.878	14.461	16379	17723	0	572
40.894	11.071	16384	17701	0	572
39.704	8.619	16386	17615	0	572
38.082	7.970	16389	17463	0	572
39.812	7.573	16389	17183	0	572
41.868	10.963	16386	16805	0	572
42.697	15.218	16386	16481	0	572
41.435	15.795	16386	16309	0	572
38.983	15.903	16386	16179	0	572
35.774	13.631	16384	15974	0	572
34.475	11.504	16384	15737	0	572
34.764	12.910	16382	15575	0	572
31.843	11.432	16382	15521	0	572
28.814	10.674	16382	15456	0	572
25.929	6.996	16379	15359	0	572
23.909	3.426	16379	15229	0	572
24.883	1.875	16377	15121	0	572
27.335	3.354	16377	15132	0	572
29.643	7.429	16379	15294	0	572
31.843	9.340	16379	15413	0	572
30.256	10.458	16379	15337	0	572
27.876	10.242	16371	15099	0	572
27.047	7.501	16360	14646	0	572
26.506	8.547	16348	14095	0	572
32.744	13.163	16339	13739	0	572
38.082	17.238	16331	13566	0	572
39.849	21.132	16320	13436	0	572
39.344	20.519	16317	13436	0	572
37.000	20.664	16314	13652	0	572
36.098	18.860	16309	13933	0	572
37.685	19.726	16305	14138	0	572
37.541	15.398	16305	14397	0	572
33.682	9.160	16311	14873	0	572
28.922	-0.649	16314	15607	0	572
24.558	-4.400	16322	16394	0	572
25.748	-4.688	16328	16988	0	572
27.732	-1.082	16337	17409	0	572
30.941	2.236	16348	17777	0	572
32.636	3.787	16351	18187	0	572
32.348	2.416	16362	18630	0	572
28.201	-0.613	16373	19094	0	572
26.542	-4.472	16384	19494	0	572
21.601	-8.222	16391	19720	0	572
20.664	-13.487	16397	19742	0	572
18.175	-15.795	16403	19591	0	572
19.834	-14.136	16403	19245	0	572
21.601	-13.631	16400	18781	0	572
26.181	-7.934	16403	18360	0	572
29.787	-5.265	16403	18025	1	692
30.689	-3.282	16400	17690	0	692
29.427	-4.075	16397	17312	0	692
25.820	-4.472	16400	17031	0	692
26.397	-4.075	16400	16891	0	692
28.705	-2.885	16397	16686	0	692
34.295	-1.118	16391	16298	0	692
35.846	0.108	16386	15801	0	692
38.839	-0.144	16371	14970	0	692
38.586	-1.046	16348	13717	0	692
37.468	-1.839	16326	12475	0	692
35.918	-2.164	16309	11600	0	692
32.853	-3.606	16292	11190	0	692
30.797	-3.390	16280	11223	0	692
30.833	-3.354	16277	11579	0	692
32.312	-1.587	16269	12054	0	692
33.393	-2.596	16269	12562	0	692
33.357	-1.767	16269	13091	0	692
31.590	-3.967	16269	13706	0	692
28.705	-6.527	16271	14495	0	692
26.109	-7.970	16283	15402	0	692
25.099	-7.212	16288	16266	0	692
22.863	-7.285	16297	16977	0	692
20.700	-9.629	16311	17658	0	692
20.483	-12.333	16320	18338	0	692
18.897	-11.756	16331	18964	0	692
22.755	-10.278	16334	19224	0	692
26.722	-5.842	16331	18878	0	692
29.138	-2.596	16326	18209	0	692
27.624	-3.498	16326	17733	0	692
24.955	-7.825	16320	17528	0	692
20.916	-10.314	16320	17442	0	692
19.726	-9.304	16322	17474	0	692
22.575	-7.609	16322	17528	0	692
23.404	-2.416	16322	17377	0	692
26.289	1.262	16320	17107	0	692
28.705	4.544	16326	17247	0	692
29.607	6.996	16339	17917	0	692
31.879	7.609	16348	18533	0	692
33.177	6.888	16354	18705	0	692
33.574	7.429	16356	18565	0	692
31.771	5.049	16362	18425	0	692
29.643	4.652	16368	18306	0	692
27.876	3.354	16365	18047	0	692
28.201	5.517	16360	17517	0	692
27.443	5.373	16354	16913	0	692
26.470	4.039	16354	16545	0	692
22.250	0.397	16354	16470	0	692
17.959	-2.633	16356	16545	0	692
16.733	-7.176	16360	16664	0	692
17.670	-6.094	16362	16783	0	692
20.555	-6.744	16365	16783	0	692
22.972	-5.481	16356	16394	0	692
21.926	-7.032	16351	15812	0	692
22.214	-7.934	16354	15521	0	692
19.041	-8.763	16348	15510	0	692
17.851	-11.071	16348	15531	0	692
15.182	-8.583	16348	15629	0	692
17.851	-9.052	16354	15909	0	692
20.555	-4.904	16360	16277	0	692
26.506	-1.551	16368	16664	0	692
33.538	3.318	16373	17085	0	692
37.252	7.753	16384	17453	0	692
40.245	9.376	16395	17831	0	692
40.678	12.333	16403	18252	0	692
41.507	12.117	16414	18576	0	692
43.058	13.776	16423	18749	0	692
48.251	20.736	16431	18846	0	692
51.064	23.512	16437	18900	0	692
54.490	25.712	16446	18878	0	692
52.687	23.981	16451	18716	0	692
45.474	19.437	16451	18349	0	692
39.885	13.704	16451	17798	0	692
34.980	10.999	16442	17107	0	692
34.692	11.973	16437	16374	0	692
36.134	12.730	16431	15758	0	692
37.505	13.127	16429	15369	0	692
35.701	12.838	16423	15132	0	692
33.754	9.629	16417	14840	0	692
32.853	7.681	16408	14397	0	692
33.141	8.835	16400	13911	0	692
32.925	9.232	16389	13512	0	692
30.941	6.671	16382	13242	0	692
29.102	3.606	16377	13123	0	692
29.282	2.308	16368	13069	0	692
34.295	2.164	16362	13112	0	692
41.976	7.934	16362	13382	0	692
47.422	12.117	16365	13955	0	692
49.153	11.215	16371	14711	0	692
43.599	9.412	16379	15434	0	692
36.567	8.907	16386	16061	0	692
32.420	11.792	16395	16675	0	692
33.033	16.012	16406	17377	0	692
36.819	20.159	16417	18057	0	692
40.534	18.464	16429	18576	0	692
39.163	15.507	16431	18759	0	692
37.577	10.674	16431	18392	0	692
33.393	10.674	16423	17582	0	692
32.492	9.160	16414	16859	0	692
31.554	7.285	16408	16384	0	692
29.354	4.544	16403	16007	0	692
27.047	1.911	16391	15575	0	692
26.542	0.685	16382	15013	0	692
28.020	3.426	16371	14451	0	692
28.381	5.265	16362	14106	0	692
29.499	5.481	16354	13955	0	692
26.397	1.442	16345	13814	0	692
25.532	-0.721	16334	13577	0	692
20.736	-0.144	16326	13296	0	692
19.437	-0.757	16314	13177	0	692
18.933	-0.865	16309	13328	0	692
15.795	-2.092	16305	13696	0	692
18.067	-5.193	16303	14009	0	692
18.320	-6.563	16294	14138	0	692
21.637	-3.354	16292	14311	0	692
21.457	-2.272	16292	14678	0	692
23.116	-2.488	16294	15207	0	692
21.349	-5.193	16297	15845	0	692
17.274	-7.970	16300	16405	0	692
14.641	-11.973	16309	16902	0	692
10.530	-14.966	16314	17474	0	692
7.393	-18.067	16326	18230	0	692
3.498	-18.933	16339	19029	0	692
0.865	-22.647	16351	19688	0	692
-4.327	-25.893	16368	20206	0	692
-9.376	-30.076	16382	20725	0	692
-11.540	-32.780	16397	21286	0	692
-10.169	-32.023	16417	21859	0	692
-3.065	-26.361	16434	22237	0	692
3.750	-21.024	16448	22388	0	692
9.917	-17.851	16457	22312	0	692
5.554	-22.286	16468	21923	0	692
-3.534	-31.230	16476	21427	0	692
-11.468	-39.993	16485	21070	0	692
-14.317	-41.940	16491	20876	1	536
-12.910	-40.029	16499	20520	0	536
-4.904	-30.833	16499	19742	0	536
2.993	-24.125	16491	18695	0	536
8.150	-19.618	16491	17744	0	536
8.691	-21.241	16485	16956	0	536
6.347	-25.316	16474	16201	0	536
1.082	-28.092	16465	15326	0	536
-1.479	-28.453	16454	14419	0	536
1.947	-25.712	16446	13739	0	536
7.573	-19.546	16437	13393	0	536
16.120	-12.514	16437	13361	0	536
19.185	-8.979	16434	13426	0	536
21.132	-8.871	16431	13404	0	536
20.014	-10.206	16431	13480	0	536
18.608	-9.376	16431	13771	0	536
15.471	-10.710	16431	14052	0	536
15.507	-9.304	16425	14138	0	536
12.730	-9.052	16425	14073	0	536
11.720	-10.963	16423	14052	0	536
9.809	-16.156	16420	14084	0	536
8.547	-15.831	16412	14030	0	536
8.835	-16.192	16403	13793	0	536
12.477	-12.586	16391	13361	0	536
17.129	-5.554	16371	12605	0	536
24.450	-1.226	16348	11698	0	536
26.217	1.911	16334	11223	0	536
26.145	1.082	16320	11298	0	536
24.053	-1.190	16314	11600	0	536
21.962	-4.688	16305	12000	0	536
23.260	-2.200	16303	12562	0	536
29.499	1.154	16300	13199	0	536
36.423	5.265	16300	13728	0	536
40.029	8.907	16294	14117	0	536
38.442	10.133	16294	14624	0	536
34.115	6.635	16294	15175	0	536
27.227	2.885	16292	15445	0	536
24.125	1.298	16283	15510	0	536
24.955	1.803	16280	15672	0	536
30.040	4.760	16283	16017	0	536
34.331	8.439	16280	16427	0	536
35.810	9.448	16283	16869	0	536
33.105	6.996	16288	17280	0	536
27.263	4.327	16288	17615	0	536
24.053	2.993	16292	17885	0	536
22.899	3.714	16297	18176	0	536
26.109	6.599	16297	18446	0	536
31.013	8.186	16300	18587	0	536
32.744	8.186	16305	18716	0	536
36.098	9.052	16314	18975	0	536
39.740	9.881	16320	19256	0	536
43.238	13.127	16326	19472	0	536
44.753	13.631	16334	19656	0	536
44.392	14.461	16345	19915	0	536
39.488	11.215	16356	20228	0	536
35.774	8.583	16368	20530	0	536
30.292	3.967	16379	20736	0	536
28.922	4.832	16384	20671	0	536
30.689	6.924	16384	20131	0	536
34.475	10.097	16382	19332	0	536
41.039	15.615	16384	18749	0	536
45.366	19.437	16384	18468	0	536
46.845	17.562	16386	18230	0	536
46.881	16.913	16386	17939	0	536
44.753	16.228	16391	17755	0	536
46.556	17.454	16395	17712	0	536
48.972	16.949	16403	17733	0	536
48.756	17.310	16406	17701	0	536
50.198	14.821	16406	17409	0	536
50.270	15.362	16403	16859	0	536
49.080	15.867	16397	16298	0	536
51.064	19.510	16395	15845	0	536
47.169	18.428	16391	15488	0	536
44.933	15.038	16386	15229	0	536
42.589	10.819	16384	15035	0	536
41.003	7.104	16382	14862	0	536
41.688	7.068	16382	14797	0	536
40.065	8.691	16389	15153	0	536
38.658	9.701	16400	15888	0	536
34.764	9.592	16408	16567	0	536
33.718	8.042	16414	16880	0	536
35.449	9.052	16420	16913	0	536
39.019	11.864	16417	16859	0	536
43.635	15.939	16425	16826	0	536
46.159	21.024	16425	16740	0	536
45.150	20.375	16423	16459	0	536
45.402	19.798	16414	15985	0	536
45.799	18.103	16412	15531	0	536
47.386	18.392	16408	15283	0	536
50.270	19.618	16406	15207	0	536
50.379	18.572	16403	15143	0	536
45.402	17.779	16397	15013	0	536
46.195	16.444	16395	14873	0	536
47.494	17.887	16391	14873	0	536
48.864	17.779	16395	15089	0	536
49.225	18.933	16395	15402	0	536
43.635	15.182	16397	15639	0	536
37.432	10.494	16400	15812	0	536
31.338	4.255	16403	16007	0	536
29.607	0.613	16406	16233	0	536
29.030	-2.957	16408	16448	0	536
28.381	-4.327	16412	16578	0	536
26.866	-5.770	16412	16643	0	536
23.368	-5.770	16414	16675	0	536
22.467	-6.780	16414	16589	0	536
23.837	-6.744	16414	16513	0	536
23.368	-7.032	16420	16751	0	536
23.549	-8.006	16423	17150	0	536
23.044	-10.710	16425	17150	0	536
17.995	-11.937	16417	16610	0	536
16.264	-13.091	16408	15920	0	536
12.946	-15.254	16400	15380	0	536
13.163	-15.326	16391	15067	0	536
15.435	-11.864	16384	14797	0	536
19.041	-9.124	16377	14484	0	536
23.332	-3.750	16371	14311	0	536
27.840	-0.505	16373	14538	0	536
23.981	-3.029	16377	15078	0	536
18.067	-9.160	16382	15661	0	536
11.973	-14.389	16384	16104	0	536
8.943	-18.139	16386	16374	0	536
8.042	-17.490	16389	16513	0	536
9.340	-17.779	16389	16643	0	536
11.179	-16.156	16391	16783	0	536
9.268	-16.949	16391	16869	0	536
5.914	-17.129	16391	16761	0	536
5.373	-17.598	16386	16545	0	536
1.839	-17.418	16386	16470	0	536
2.164	-20.014	16389	16664	0	536
1.587	-21.024	16395	17010	0	536
4.255	-23.224	16397	17204	0	536
8.619	-20.700	16400	17215	0	536
10.638	-15.398	16397	17118	0	536
11.612	-12.225	16395	16891	0	536
11.323	-10.746	16391	16589	0	536
6.744	-12.766	16391	16459	0	536
2.993	-18.788	16391	16545	0	536
-2.633	-21.457	16391	16589	0	536
-4.940	-24.162	16389	16405	0	536
-6.022	-25.207	16384	16136	0	536
-3.570	-22.322	16384	15953	0	536
-0.865	-23.657	16382	15931	0	536
1.515	-25.568	16379	15866	0	536
0.721	-24.414	16371	15542	0	536
-1.911	-26.253	16362	15153	0	536
-3.390	-25.279	16365	15218	0	536
-2.669	-21.962	16368	15661	0	536
1.226	-19.582	16368	15953	0	536
6.563	-17.995	16365	15974	0	536
11.756	-15.795	16362	15877	0	536
13.054	-16.877	16360	15791	0	536
13.487	-15.326	16360	15812	0	536
17.346	-13.668	16362	16017	0	536
19.690	-10.097	16365	16320	0	536
24.883	-5.409	16371	16589	0	536
27.479	-0.793	16373	16891	0	536
23.044	-1.983	16379	17323	0	536
17.310	-4.183	16386	17723	0	536
15.362	-5.409	16391	17982	0	536
15.146	-5.049	16395	18079	0	536
19.401	-2.272	16400	18101	0	536
24.594	1.479	16403	18068	0	536
26.650	1.623	16406	17949	0	536
25.063	-0.865	16406	17766	0	536
20.772	-4.868	16400	17431	0	536
18.897	-8.114	16389	16675	0	536
14.858	-9.412	16379	15683	0	536
13.199	-10.061	16371	15045	0	536
10.314	-10.061	16362	14873	0	536
10.494	-9.556	16360	14829	0	536
13.235	-5.842	16356	14786	0	536
16.841	-3.354	16354	14743	0	536
22.972	0.072	16345	14721	0	536
24.630	0.541	16345	14819	0	536
23.296	1.046	16345	15013	0	536
21.096	0.505	16345	15315	0	536
19.005	1.118	16345	15585	0	536
21.493	1.659	16343	15607	0	536
23.801	4.183	16337	15391	0	536
29.859	7.501	16334	15197	0	536
37.108	12.441	16326	15089	0	536
39.812	20.087	16317	14916	0	536
39.849	21.709	16305	14581	0	536
37.144	21.349	16294	14095	0	536
33.069	17.382	16283	13793	0	536
31.807	16.516	16277	13901	0	536
36.459	17.129	16280	14343	0	536
44.104	21.529	16277	14862	0	536
49.766	24.162	16277	15261	0	536
54.454	23.332	16283	15629	0	536
48.792	19.654	16283	16082	0	536
41.724	12.297	16288	16589	0	536
33.826	9.845	16292	17031	0	536
29.643	9.953	16300	17355	0	536
31.013	11.540	16303	17690	0	536
34.980	13.559	16311	18165	0	536
37.108	15.543	16322	18770	0	536
35.485	11.215	16337	19321	0	536
33.069	7.934	16337	19450	0	536
32.059	6.022	16331	18921	0	536
29.715	4.183	16322	18036	0	536
31.482	5.481	16320	17485	0	536
29.318	5.878	16322	17442	0	536
26.145	4.111	16328	17539	1	812
26.614	3.859	16326	17561	0	812
25.712	4.868	16331	17625	0	812
29.282	8.799	16334	17733	0	812
31.987	12.117	16334	17647	0	812
32.492	12.586	16331	17280	0	812
33.574	12.333	16334	16967	0	812
34.115	9.845	16328	16826	0	812
36.206	10.819	16322	16513	0	812
39.776	13.595	16314	15974	0	812
41.291	13.992	16309	15510	0	812
42.806	15.074	16309	15283	0	812
41.796	14.749	16300	15207	0	812
39.740	11.973	16300	15229	0	812
37.541	11.360	16300	15359	0	812
36.964	12.261	16305	15639	0	812
36.459	14.425	16309	16093	0	812
38.767	19.582	16317	16653	0	812
39.163	22.178	16326	17139	0	812
40.570	20.808	16331	17442	0	812
39.344	18.067	16337	17550	0	812
36.387	12.982	16334	17366	0	812
34.367	9.881	16328	16945	0	812
33.429	9.592	16328	16632	0	812
34.656	10.710	16326	16513	0	812
33.393	8.907	16328	16502	0	812
28.922	6.347	16331	16643	0	812
21.241	-0.974	16339	17021	0	812
9.520	-9.016	16348	17561	0	812
5.770	-15.867	16360	18025	0	812
6.816	-16.372	16368	18360	0	812
10.350	-15.543	16379	18684	0	812
11.900	-14.100	16391	19072	0	812
11.648	-17.382	16403	19440	0	812
7.537	-18.320	16414	19558	0	812
6.527	-20.195	16423	19494	0	812
11.179	-16.877	16431	19450	0	812
17.706	-13.523	16437	19494	0	812
20.447	-12.658	16451	19504	0	812
20.159	-14.785	16457	19288	0	812
13.523	-22.358	16454	18705	0	812
8.655	-22.935	16448	17787	0	812
7.104	-19.870	16434	16686	0	812
9.376	-17.634	16425	15607	0	812
10.638	-14.569	16414	14754	0	812
13.199	-13.884	16406	14246	0	812
12.225	-18.103	16403	13998	0	812
10.278	-19.762	16395	13825	0	812
13.018	-18.788	16389	13642	0	812
11.432	-16.661	16386	13523	0	812
12.477	-14.389	16384	13577	0	812
12.586	-11.937	16384	13782	0	812
10.891	-12.477	16382	13998	0	812
11.864	-14.100	16379	14095	0	812
11.035	-16.625	16379	14192	0	812
7.393	-22.395	16377	14365	0	812
4.219	-28.417	16377	14592	0	812
-1.010	-32.167	16377	14786	0	812
-2.921	-34.043	16377	14883	0	812
-1.479	-32.636	16371	14905	0	812
1.803	-29.318	16371	14970	0	812
2.019	-28.128	16371	15175	0	812
-1.010	-30.292	16368	15402	0	812
-5.121	-33.141	16360	15261	0	812
-7.176	-35.665	16345	14538	0	812
-4.508	-35.737	16326	13642	0	812
-1.046	-34.908	16317	13242	0	812
-1.695	-34.836	16311	13404	0	812
-4.868	-34.367	16305	13717	0	812
-7.429	-33.502	16305	14009	0	812
-9.484	-31.951	16300	14397	0	812
-5.842	-33.502	16303	14905	0	812
-3.246	-32.456	16305	15456	0	812
-4.580	-35.305	16311	15953	0	812
-9.232	-39.091	16305	16201	0	812
-17.166	-41.904	16303	16158	0	812
-20.880	-44.140	16300	16136	0	812
-21.421	-45.186	16300	16266	0	812
-16.084	-42.842	16297	16405	0	812
-9.845	-38.226	16292	16394	1	316
-6.455	-36.819	16288	16223	0	316
-5.662	-34.908	16275	15845	0	316
-9.016	-37.865	16266	15434	0	316
-12.658	-40.245	16260	15229	0	316
-11.360	-41.183	16254	15315	0	316
-8.907	-40.534	16252	15607	0	316
-5.950	-37.973	16258	15996	0	316
-3.606	-34.547	16258	16437	0	316
-2.596	-30.436	16266	16967	0	316
-2.344	-29.787	16275	17615	0	316
-1.226	-29.607	16283	18219	0	316
1.515	-30.076	16292	18608	0	316
5.698	-32.276	16292	18738	0	316
5.806	-29.030	16297	18749	0	316
5.878	-26.578	16303	18792	0	316
4.868	-23.945	16311	18954	0	316
5.662	-19.690	16314	19072	0	316
8.186	-14.677	16314	18986	0	316
14.461	-9.989	16320	18813	0	316
23.440	-1.731	16322	18759	0	316
27.912	4.868	16334	18824	0	316
32.636	8.042	16334	18846	0	316
32.564	8.475	16337	18641	0	316
31.194	7.248	16337	18252	0	316
30.184	4.904	16334	17820	0	316
31.085	5.662	16331	17409	0	316
30.833	5.337	16331	17010	0	316
32.203	7.753	16322	16610	0	316
34.331	9.016	16320	16233	0	316
34.259	8.258	16311	15769	0	316
36.747	7.501	16300	15099	0	316
36.855	6.094	16286	14203	0	316
37.072	4.580	16254	12950	0	316
34.079	3.534	16226	11363	0	316
31.049	1.731	16190	9819	0	316
26.325	-0.397	16158	8631	0	316
22.503	-2.128	16127	7810	0	316
23.693	-1.767	16101	7454	0	316
24.270	0.325	16082	7616	0	316
29.391	4.075	16065	8123	0	316
32.997	6.599	16050	8652	0	316
34.331	6.022	16037	9106	0	316
30.941	4.327	16031	9840	0	316
27.227	-0.144	16028	11028	0	316
17.887	-2.921	16031	12400	0	316
16.372	-3.859	16033	13685	0	316
18.644	-1.082	16037	14797	0	316
25.352	4.436	16042	15780	0	316
32.816	6.527	16048	16675	0	316
32.456	2.993	16050	17420	0	316
27.443	-0.252	16054	17928	0	316
20.736	-5.878	16056	18349	0	316
19.942	-6.888	16065	18910	0	316
19.510	-3.931	16076	19731	0	316
24.162	-2.056	16093	20800	0	316
26.614	-1.082	16118	22096	0	316
24.342	-2.452	16144	23381	0	316
22.647	-5.085	16169	24418	0	316
19.365	-7.970	16198	25152	0	316
14.677	-11.973	16224	25703	0	316
13.956	-14.930	16246	26168	0	316
13.199	-12.297	16271	26502	0	316
17.490	-9.412	16300	26707	0	316
21.024	-5.301	16320	26772	0	316
26.902	-2.200	16345	26707	0	316
29.354	-1.118	16368	26502	0	316
28.273	-4.364	16389	26178	0	316
24.775	-7.934	16408	25779	0	316
20.664	-12.405	16429	25314	0	316
15.074	-14.930	16446	24742	0	316
15.867	-13.091	16454	23943	0	316
14.858	-10.458	16459	22690	0	316
15.398	-6.599	16459	21038	0	316
14.245	-5.301	16457	19461	0	316
11.864	-8.042	16451	18155	0	316
10.638	-11.937	16448	16913	0	316
10.314	-11.937	16442	15812	0	316
13.091	-9.376	16440	15056	0	316
18.103	-5.698	16442	14624	1	316
20.087	-2.416	16442	14333	0	316
23.621	-1.731	16446	14052	0	316
18.536	-5.878	16448	13879	0	316
15.074	-12.369	16451	13858	0	316
7.789	-14.497	16457	13879	0	316
4.183	-17.815	16457	13825	0	316
4.364	-15.398	16463	13728	0	316
8.655	-13.127	16465	13739	0	316
14.317	-9.016	16471	13933	0	316
21.204	-6.563	16476	14279	0	316
21.421	-6.347	16485	14635	0	316
19.726	-9.953	16488	14700	0	316
12.730	-13.091	16476	14203	0	316
9.809	-12.658	16468	13361	0	316
9.629	-13.595	16463	12810	0	316
12.514	-11.792	16454	12648	0	316
18.608	-8.078	16448	12572	0	316
21.565	-6.527	16440	12508	0	316
24.270	-6.239	16440	12583	0	316
21.277	-6.131	16440	12842	0	316
17.526	-10.097	16440	13145	0	316
10.855	-16.084	16437	13382	0	316
7.465	-21.277	16434	13588	0	316
3.137	-24.017	16434	13771	0	316
2.596	-24.378	16425	13728	0	316
1.767	-24.450	16417	13469	0	316
3.101	-22.214	16408	13307	0	316
5.481	-20.231	16406	13469	0	316
7.465	-19.834	16403	13739	0	316
8.943	-18.211	16391	13685	0	316
7.717	-19.401	16379	13339	0	316
6.563	-18.644	16371	13112	0	316
7.248	-18.824	16365	13231	0	316
11.900	-16.444	16362	13631	0	316
16.336	-15.326	16362	14138	0	316
19.077	-11.107	16362	14635	0	316
23.909	-9.016	16365	15240	0	316
26.758	-6.058	16373	15985	0	316
26.289	-6.383	16379	16729	0	316
25.568	-6.419	16386	17377	0	316
25.027	-8.222	16395	17917	0	316
22.286	-7.357	16403	18435	0	316
25.424	-4.183	16414	18943	0	316
31.302	0.072	16425	19440	0	316
36.026	3.787	16434	19839	0	316
38.875	5.806	16440	19882	0	316
39.596	5.265	16429	19288	0	316
39.560	4.832	16423	18273	0	316
39.957	5.085	16417	17496	0	316
39.921	7.248	16412	17161	0	316
41.652	9.088	16408	16902	0	316
43.671	9.665	16406	16632	0	316
44.320	9.448	16403	16470	0	316
42.986	6.996	16397	16277	0	316
40.750	4.219	16391	15899	0	316
38.731	4.003	16389	15650	0	316
38.082	4.868	16389	15855	0	316
39.380	5.842	16389	16125	0	316
39.993	7.321	16386	15974	0	316
35.485	4.904	16379	15585	0	316
30.220	-0.938	16377	15348	0	316
25.279	-7.140	16373	15391	0	316
19.942	-11.071	16371	15413	0	316
21.529	-13.704	16360	15099	0	316
22.322	-12.910	16348	14538	0	316
22.070	-14.894	16339	14160	0	316
22.611	-14.425	16334	14171	0	316
21.962	-14.100	16337	14505	0	316
20.519	-14.533	16334	14948	0	316
24.739	-9.809	16337	15337	0	316
28.489	-6.599	16343	15801	0	316
32.564	-5.986	16348	16405	0	316
33.177	-5.121	16354	16902	0	316
30.400	-7.429	16354	17107	0	316
26.866	-7.176	16354	17085	0	316
26.722	-7.681	16356	17042	0	316
26.217	-6.816	16356	17150	0	316
28.345	-3.390	16362	17474	0	316
27.804	-4.075	16368	17863	0	316
26.289	-5.481	16373	18101	0	316
21.854	-6.816	16377	18176	0	316
17.093	-8.763	16382	18252	0	316
17.129	-10.963	16386	18414	0	316
15.326	-11.576	16391	18576	0	316
15.326	-10.963	16397	18608	0	316
12.045	-16.300	16403	18554	0	316
10.133	-18.608	16408	18543	0	316
8.186	-20.880	16412	18576	0	316
14.100	-18.572	16423	18695	0	316
17.526	-17.995	16434	19051	0	316
19.654	-17.346	16451	19548	0	316
13.631	-23.332	16463	19861	0	316
7.140	-29.751	16468	19872	0	316
2.236	-33.682	16482	19839	0	316
2.669	-32.348	16499	20055	0	316
5.121	-27.660	16510	20412	0	316
8.871	-24.522	16522	20336	0	316
11.107	-20.808	16522	19602	0	316
14.317	-18.175	16514	18543	0	316
14.713	-16.985	16510	17539	0	316
17.454	-14.785	16499	16664	0	316
16.228	-12.586	16497	15953	0	316
15.290	-13.199	16488	15348	0	316
18.067	-11.864	16476	14667	0	316
19.546	-10.422	16471	13965	0	316
25.424	-6.491	16459	13426	0	316
30.328	-3.642	16454	13134	0	316
33.177	-1.442	16448	13037	0	316
32.780	-0.288	16437	12961	0	316
29.931	-2.777	16434	12810	0	316
27.227	-4.616	16429	12702	0	316
25.171	-5.914	16423	12799	0	316
24.991	-6.599	16420	13069	0	316
25.496	-8.547	16417	13242	0	316
24.775	-10.927	16412	13339	0	316
21.493	-13.523	16406	13458	0	316
18.103	-16.877	16403	13674	0	316
16.408	-16.048	16406	13998	0	316
15.687	-15.723	16406	14473	0	316
19.762	-13.379	16408	14991	0	316
22.214	-11.612	16412	15402	0	316
22.467	-15.074	16412	15661	0	316
21.926	-17.129	16412	15920	0	316
18.752	-22.611	16414	16179	0	316
19.906	-21.421	16414	16374	0	316
21.962	-18.752	16414	16459	0	316
29.030	-11.756	16412	16481	0	316
32.564	-7.573	16412	16535	0	316
33.646	-6.419	16417	16869	0	316
31.338	-9.232	16425	17399	0	316
26.686	-13.992	16429	17679	0	316
19.401	-19.870	16425	17485	0	316
18.644	-21.529	16420	17075	0	316
17.706	-19.546	16417	16740	0	316
20.087	-18.536	16414	16578	0	316
25.748	-14.821	16412	16481	0	316
27.047	-12.405	16403	16255	0	316
28.092	-13.163	16395	15747	0	316
28.237	-10.999	16386	15251	0	316
27.443	-12.405	16382	15035	0	316
25.316	-13.740	16377	15056	0	316
21.132	-18.572	16371	15078	0	316
17.887	-23.585	16365	14937	0	316
12.802	-25.243	16356	14711	0	316
14.821	-23.837	16348	14559	0	316
15.326	-21.745	16339	14451	0	316
19.005	-21.601	16331	14279	0	316
17.851	-19.942	16322	14095	0	316
15.254	-23.080	16317	14073	0	316
15.002	-24.342	16311	14268	0	316
15.687	-25.027	16309	14624	0	316
19.762	-23.152	16305	14970	0	316
25.171	-18.933	16305	15186	0	316
30.184	-14.497	16300	15326	0	316
33.285	-8.439	16297	15445	0	316
34.800	-5.517	16294	15618	0	316
32.708	-8.691	16297	15899	0	316
30.689	-13.595	16294	16190	0	316
25.279	-18.211	16294	16448	0	316
17.923	-23.765	16294	16697	0	316
14.930	-25.532	16294	16815	0	316
13.884	-22.683	16288	16761	0	316
19.582	-19.582	16288	16772	0	316
27.155	-12.766	16292	16902	0	316
34.259	-9.953	16286	17010	0	316
36.062	-6.708	16283	16891	0	316
33.069	-5.698	16277	16567	0	316
29.823	-7.104	16269	16287	0	316
24.991	-9.701	16258	15942	0	316
20.411	-14.425	16249	15434	0	316
16.012	-17.526	16237	15056	0	316
15.218	-21.313	16229	14873	0	316
15.146	-19.293	16220	14808	0	316
17.598	-17.598	16220	14981	0	316
19.798	-15.903	16220	15467	0	316
20.123	-17.021	16229	16190	0	316
21.493	-16.300	16235	16945	0	316
23.044	-15.651	16246	17615	0	316
24.053	-12.297	16252	18165	0	316
24.198	-12.622	16263	18716	0	316
24.522	-12.802	16277	19245	0	316
22.250	-11.648	16286	19645	0	316
23.909	-11.828	16294	19904	0	316
27.479	-9.701	16309	20120	0	316
26.361	-5.409	16317	20412	0	316
27.912	-5.914	16334	20811	0	316
25.784	-6.996	16345	21092	0	316
26.542	-7.573	16356	21135	0	316
26.974	-6.852	16368	21016	0	316
28.417	-3.642	16379	20919	0	316
29.210	-1.298	16386	20790	0	316
29.210	1.551	16391	20476	0	316
27.624	1.082	16395	19936	1	772
26.650	-1.911	16391	19234	0	772
21.024	-6.563	16386	18306	0	772
13.992	-14.172	16379	17301	0	772
4.291	-21.565	16377	16513	0	772
-2.777	-29.030	16371	16017	0	772
-5.013	-33.970	16365	15596	0	772
-4.147	-32.780	16360	15078	0	772
-2.452	-31.302	16348	14451	0	772
-3.823	-33.862	16345	13944	0	772
-5.914	-38.586	16331	13555	0	772
-11.900	-46.556	16326	13242	0	772
-17.346	-54.273	16317	13004	0	772
-21.890	-58.637	16309	12821	0	772
-26.938	-60.115	16305	12799	0	772
-28.777	-60.981	16303	13069	0	772
-26.397	-58.024	16305	13534	0	772
-18.392	-54.598	16305	13987	0	772
-10.350	-47.926	16309	14354	0	772
-3.967	-43.347	16309	14765	0	772
-0.505	-39.019	16314	15272	0	772
-2.957	-40.209	16322	15855	0	772
-7.393	-40.281	16331	16427	0	772
-8.655	-39.560	16339	16902	0	772
-9.592	-37.685	16339	17193	0	772
-6.852	-34.259	16348	17377	0	772
0.613	-30.581	16354	17701	0	772
8.439	-27.083	16365	18122	0	772
12.117	-24.775	16368	18284	0	772
13.848	-25.207	16362	17852	0	772
10.422	-25.676	16354	17031	0	772
5.157	-25.424	16348	16405	0	772
3.462	-25.316	16345	16212	0	772
5.085	-21.637	16348	16190	0	772
10.133	-17.670	16345	16212	0	772
13.920	-18.175	16345	16233	0	772
14.497	-18.860	16343	16190	0	772
14.966	-21.493	16343	16115	0	772
13.451	-20.195	16343	16093	0	772
10.999	-19.437	16343	16125	0	772
10.206	-22.178	16343	16169	0	772
3.354	-25.279	16343	16104	0	772
-1.911	-31.266	16337	15942	0	772
-4.255	-33.393	16337	15877	0	772
0.974	-29.427	16339	16028	0	772
9.340	-22.070	16343	16341	0	772
16.805	-15.831	16343	16481	0	772
19.149	-13.956	16343	16437	0	772
17.887	-14.281	16351	16578	0	772
17.959	-12.766	16354	16977	0	772
18.644	-11.756	16362	17312	0	772
21.673	-6.996	16362	17399	0	772
26.217	-2.633	16362	17280	0	772
26.938	0.938	16365	17183	0	772
29.607	2.777	16371	17247	0	772
33.069	5.157	16377	17474	0	772
38.009	7.825	16382	17723	0	772
39.452	10.061	16386	17841	0	772
43.996	13.091	16389	17841	0	772
46.953	18.320	16395	17831	0	772
49.513	22.034	16403	17928	0	772
49.441	23.404	16408	18133	0	772
49.838	23.008	16417	18284	0	772
46.989	19.113	16425	18381	0	772
43.635	17.310	16429	18457	0	772
40.642	14.028	16440	18533	0	772
40.137	14.389	16448	18630	0	772
37.324	11.864	16457	18705	0	772
33.754	8.655	16465	18684	0	772
29.931	4.580	16465	18479	0	772
28.453	1.911	16468	18014	0	772
25.099	-0.252	16465	17431	0	772
25.135	1.515	16463	16869	0	772
26.578	2.993	16457	16394	0	772
29.427	4.796	16454	15931	0	772
34.151	8.691	16446	15305	0	772
39.993	10.278	16437	14603	0	772
44.681	13.379	16431	14203	0	772
46.592	14.389	16429	14300	0	772
44.392	14.281	16431	14527	0	772
43.022	18.356	16429	14516	0	772
44.428	20.123	16423	14300	0	772
46.195	22.286	16417	14106	0	772
46.304	24.342	16414	14073	0	772
47.313	19.906	16414	14214	0	772
45.258	18.320	16414	14462	0	772
43.310	17.382	16414	14721	0	772
41.832	20.447	16414	15013	0	772
42.337	19.185	16420	15348	0	772
41.435	20.123	16423	15704	0	772
39.957	19.041	16425	15985	0	772
36.747	14.353	16425	16115	0	772
34.043	12.261	16425	16147	0	772
31.302	9.701	16425	16136	0	772
30.977	9.052	16423	16061	0	772
35.701	10.710	16414	15888	0	772
41.868	17.021	16414	15618	0	772
43.635	18.860	16408	15380	0	772
42.481	19.582	16406	15315	0	772
39.344	14.569	16403	15413	0	772
36.026	12.009	16400	15499	0	772
40.894	11.251	16397	15467	0	772
46.989	15.795	16395	15413	0	772
50.631	22.286	16389	15380	0	772
51.713	21.349	16386	15326	0	772
44.392	19.041	16382	15251	0	772
38.550	16.661	16379	15218	0	772
38.478	14.966	16377	15261	0	772
42.337	19.401	16371	15251	0	772
50.270	26.650	16360	14981	0	772
56.581	30.472	16345	14430	0	772
59.971	29.463	16328	13739	0	772
57.627	26.974	16311	13026	0	772
53.372	21.781	16292	12529	0	772
47.205	20.375	16277	12292	0	772
44.140	17.959	16266	12205	0	772
40.462	18.103	16252	12292	0	772
41.616	17.959	16246	12648	0	772
43.238	18.716	16246	13242	0	772
45.330	16.697	16241	13879	0	772
47.133	19.257	16243	14462	0	772
45.799	19.762	16243	15143	0	772
43.707	16.913	16252	15963	0	772
40.642	16.625	16258	16826	0	772
37.072	12.802	16263	17582	0	772
34.331	8.150	16271	18133	0	772
31.085	4.904	16275	18500	0	772
28.092	2.164	16280	18759	0	772
26.289	1.406	16286	18889	0	772
24.378	0.433	16283	18900	0	772
22.827	-1.875	16286	18954	0	772
21.349	-4.111	16297	19137	0	772
17.454	-5.517	16300	19418	0	772
17.418	-6.058	16311	19807	0	772
17.166	-5.013	16326	20271	0	772
23.008	-2.633	16337	20649	0	772
26.037	-0.469	16348	20865	0	772
28.922	-0.180	16360	21006	0	772
27.083	-2.524	16371	21060	0	772
20.303	-7.429	16379	21006	0	772
12.730	-11.720	16386	20887	0	772
5.517	-16.408	16395	20714	0	772
5.770	-14.497	16400	20401	0	772
4.796	-14.136	16397	19720	1	572
5.698	-12.369	16395	18889	0	572
7.537	-12.622	16400	18435	0	572
7.789	-13.884	16403	18381	0	572
10.242	-13.740	16408	18241	0	572
13.018	-10.927	16406	17690	0	572
13.451	-10.133	16400	16869	0	572
14.569	-7.140	16397	16223	0	572
11.215	-5.626	16395	15877	0	572
9.412	-7.717	16395	15704	0	572
9.845	-11.612	16395	15542	0	572
11.035	-15.002	16391	15305	0	572
13.523	-12.477	16389	15078	0	572
22.467	-9.484	16386	14916	0	572
27.551	-2.380	16384	14689	0	572
32.239	2.741	16377	14343	0	572
32.853	4.724	16371	13965	0	572
31.518	5.914	16365	13717	0	572
30.004	5.373	16362	13685	0	572
28.850	7.645	16360	13901	0	572
27.119	6.131	16360	14235	0	572
27.010	4.508	16362	14538	0	572
27.119	3.570	16368	14797	0	572
28.958	2.705	16365	15078	0	572
29.931	2.380	16368	15391	0	572
27.948	1.082	16373	15737	0	572
23.476	-0.613	16377	16028	0	572
20.772	-0.721	16379	16223	0	572
20.627	0.361	16379	16341	0	572
25.424	3.246	16382	16427	0	572
31.518	5.554	16386	16632	0	572
34.151	9.520	16397	17215	0	572
33.934	7.898	16414	18101	0	572
31.194	4.219	16423	18824	0	572
25.496	1.587	16437	19126	0	572
22.431	-0.865	16442	19126	0	572
23.296	-1.262	16446	18889	0	572
22.358	0.433	16448	18511	0	572
24.883	3.859	16446	18079	0	572
25.676	4.652	16437	17485	0	572
26.686	5.121	16431	16740	0	572
30.833	8.439	16429	16190	0	572
35.990	11.973	16425	15996	0	572
38.190	11.684	16425	15931	0	572
35.810	11.396	16420	15791	0	572
31.446	6.780	16417	15521	0	572
26.073	1.947	16414	15251	0	572
25.965	-0.793	16408	15153	0	572
28.633	0.505	16412	15164	0	572
30.725	3.318	16406	15078	0	572
32.997	6.347	16400	14808	0	572
29.643	5.554	16395	14538	0	572
24.162	2.669	16389	14441	0	572
20.627	-0.757	16389	14549	0	572
16.480	-4.832	16389	14797	0	572
17.851	-2.524	16386	15013	0	572
20.664	-0.649	16386	15153	0	572
23.657	1.695	16386	15305	0	572
25.784	2.452	16386	15542	0	572
20.880	-0.072	16386	15780	0	572
15.579	-5.445	16382	15693	0	572
6.239	-10.530	16371	15121	0	572
0.974	-13.776	16356	14333	0	572
-2.452	-15.290	16343	13782	0	572
-1.803	-15.939	16331	13426	0	572
2.560	-11.828	16314	13080	0	572
5.049	-9.556	16300	12810	0	572
8.943	-7.573	16292	12767	0	572
7.321	-6.996	16286	12886	0	572
3.750	-12.081	16275	13156	0	572
-0.974	-20.267	16271	13534	0	572
-4.508	-23.765	16275	14052	0	572
-4.364	-23.296	16271	14646	0	572
-0.974	-20.014	16269	15067	0	572
1.947	-14.245	16269	15283	0	572
1.731	-15.254	16266	15585	0	572
-5.013	-21.132	16269	16093	0	572
-11.612	-31.158	16275	16643	0	572
-23.693	-39.849	16271	16999	0	572
-29.968	-46.736	16271	17118	0	572
-32.456	-46.772	16275	17215	0	572
-32.167	-44.032	16271	17442	0	572
-30.400	-40.029	16280	17712	0	572
-28.453	-36.855	16280	17982	0	572
-29.607	-36.603	16283	18187	0	572
-31.987	-37.901	16286	18295	0	572
-33.177	-40.065	16286	18241	0	572
-33.538	-41.111	16286	18144	0	572
-35.665	-42.553	16288	18209	0	572
-37.216	-47.674	16294	18327	0	572
-42.517	-49.477	16294	18349	0	572
-44.428	-50.920	16297	18392	0	572
-47.746	-52.795	16303	18565	0	572
-45.546	-49.802	16317	18889	0	572
-43.166	-49.333	16326	19278	0	572
-38.839	-47.494	16337	19623	0	572
-33.682	-44.032	16345	19861	0	572
-29.859	-40.534	16356	20034	0	572
-27.479	-37.937	16368	20131	0	572
-28.020	-37.216	16373	20098	0	572
-28.705	-39.019	16382	19980	0	572
-30.436	-41.616	16386	19764	0	572
-30.004	-41.399	16384	19213	0	572
-29.679	-41.543	16384	18425	0	572
-30.905	-40.678	16386	18003	0	572
-33.069	-41.543	16391	18025	0	572
-34.223	-43.094	16395	17906	0	572
-34.764	-44.428	16389	17334	0	572
-36.891	-48.251	16386	16599	0	572
-39.308	-52.182	16382	16028	0	572
-43.563	-54.345	16379	15661	0	572
-48.864	-58.601	16379	15477	0	572
-51.857	-60.043	16377	15391	0	572
-55.067	-60.981	16373	15218	0	572
-56.798	-63.830	16373	15056	0	572
-58.493	-64.154	16373	15078	0	572
-59.322	-67.111	16379	15240	0	572
-56.293	-64.046	16379	15369	0	572
-52.795	-61.089	16379	15423	0	572
-47.061	-57.375	16377	15326	0	572
-45.474	-57.266	16371	14862	0	572
-46.412	-56.762	16356	14235	0	572
-47.422	-62.748	16351	13911	0	572
-49.874	-65.164	16345	13847	0	572
-48.359	-64.010	16339	13879	0	572
-41.796	-59.574	16339	14095	0	572
-39.885	-54.562	16343	14505	0	572
-37.396	-48.612	16345	14927	0	572
-37.613	-47.061	16348	15251	0	572
-40.498	-48.251	16351	15531	0	572
-42.373	-50.379	16354	15877	0	572
-42.265	-53.444	16362	16374	0	572
-42.914	-54.922	16371	16977	0	572
-45.943	-56.726	16377	17453	0	572
-46.376	-57.699	16384	17733	0	572
-46.268	-58.348	16386	17831	0	572
-49.044	-58.637	16384	17593	0	572
-47.061	-57.266	16384	17215	0	572
-45.078	-55.211	16386	17237	0	572
-47.566	-55.139	16391	17507	0	572
-47.854	-54.418	16391	17463	0	572
-47.025	-58.348	16386	17042	0	572
-49.910	-62.820	16382	16502	0	572
-49.549	-64.046	16377	16050	0	572
-47.422	-64.948	16373	15801	0	572
-47.782	-64.190	16371	15769	0	572
-48.215	-61.486	16365	15672	0	572
-47.890	-61.991	16362	15391	0	572
-49.585	-61.846	16356	15132	0	572
-48.900	-64.443	16354	15099	0	572
-48.756	-64.551	16354	15207	0	572
-46.232	-65.741	16348	15283	0	572
-45.366	-66.643	16348	15207	0	572
-46.123	-66.751	16343	15153	0	572
-49.513	-68.049	16345	15359	0	572
-51.857	-69.996	16351	15877	0	572
-56.473	-70.032	16360	16470	0	572
-54.057	-69.708	16362	16869	0	572
-50.920	-68.770	16365	17053	0	572
-46.700	-67.941	16371	17215	0	572
-47.674	-67.544	16377	17442	0	572
-50.379	-69.095	16382	17723	0	572
-50.847	-68.482	16389	18047	0	572
-50.307	-65.525	16397	18349	0	572
-45.186	-63.109	16403	18500	0	572
-40.389	-58.168	16408	18479	0	572
-39.849	-54.922	16412	18381	0	572
-42.229	-53.480	16414	18241	0	572
-43.671	-50.847	16414	18057	0	572
-42.157	-51.821	16414	17787	0	572
-39.272	-50.667	16408	17269	0	572
-38.262	-55.824	16400	16621	0	572
-43.887	-59.502	16406	16374	0	572
-53.119	-68.554	16406	16448	0	572
-62.099	-76.776	16400	16320	0	572
-67.833	-83.267	16395	15758	0	572
-67.652	-86.513	16384	15067	0	572
-64.443	-87.018	16377	14538	0	572
-61.522	-83.736	16368	14279	0	572
-60.837	-82.366	16365	14257	0	572
-58.997	-81.644	16360	14268	0	572
-57.483	-81.572	16356	14160	0	572
-55.824	-85.034	16351	14181	0	572
-53.011	-86.044	16354	14484	0	572
-53.191	-87.595	16351	14851	0	572
-49.189	-86.982	16351	15045	0	572
-49.116	-83.015	16348	15056	0	572
-45.114	-78.579	16345	15078	0	572
-38.370	-74.432	16345	15283	0	572
-34.367	-68.626	16348	15704	0	572
-31.049	-66.679	16356	16212	0	572
-30.725	-63.866	16354	16448	0	572
-32.095	-64.154	16345	16125	0	572
-33.466	-68.915	16334	15467	0	572
-33.502	-69.672	16331	15186	0	572
-34.403	-74.396	16328	15369	0	572
-35.269	-74.937	16326	15585	0	572
-36.675	-76.379	16328	15737	0	572
-38.118	-77.858	16326	15963	0	572
-37.144	-77.966	16331	16298	0	572
