neuroNicle FX2
D3F25R12
Bluetooth SPP
2023년 11월 4일 토요일
오후 7:07
time interval = 4msec
EEG1	EEG2	PPG	sdPPG	pulse	peak_interval(msec)
-61.269	-41.039	13588	20052	0	608
-63.181	-44.501	14147	19992	0	608
-65.849	-53.155	14571	19853	0	608
-68.374	-61.918	14995	19692	0	608
-70.609	-64.912	15368	19488	0	608
-72.881	-65.597	15757	19262	1	612
-74.107	-66.318	16130	19074	0	612
-77.281	-65.813	16502	18911	0	612
-79.445	-66.462	16892	18745	0	612
-77.461	-66.823	17265	18587	0	612
-71.259	-66.210	17739	18467	0	612
-64.731	-65.957	18197	18366	0	612
-60.981	-64.587	18451	18195	0	612
-63.325	-62.856	18706	17892	0	612
-71.763	-60.765	18841	17525	0	612
-78.976	-61.810	19095	17236	0	612
-81.176	-64.263	19265	17056	0	612
-77.497	-64.587	19553	16904	0	612
-67.220	-64.010	19773	16754	0	612
-58.853	-57.014	19977	16631	0	612
-52.975	-52.542	20282	16539	0	612
-56.690	-46.520	20485	16457	0	612
-62.676	-47.458	20739	16382	0	612
-66.066	-48.648	20994	16316	0	612
-67.111	-50.090	21163	16246	0	612
-61.017	-52.362	21333	16142	0	612
-55.283	-52.254	21417	16011	0	612
-54.345	-54.418	21638	15946	0	612
-59.034	-53.588	21926	16001	0	612
-64.623	-50.379	22231	16101	0	612
-63.686	-41.363	22434	16129	0	612
-56.329	-30.797	22519	16060	0	612
-43.274	-23.188	22739	15962	0	612
-31.446	-20.519	22773	15870	0	612
-28.453	-19.906	22858	15780	0	612
-30.653	-21.890	22858	15676	0	612
-36.711	-23.404	22909	15559	0	612
-40.245	-20.988	22824	15450	0	612
-41.111	-23.837	22858	15366	0	612
-40.606	-24.450	22858	15306	0	612
-39.849	-26.361	22824	15262	0	612
-39.163	-26.109	22739	15178	0	612
-37.901	-24.847	22570	14998	0	612
-35.521	-22.034	22316	14772	0	612
-36.314	-21.818	22095	14628	0	612
-36.711	-22.719	21977	14595	0	612
-39.163	-19.077	21841	14614	0	612
-35.269	-14.785	21756	14663	0	612
-27.010	-8.583	21672	14737	0	612
-19.834	-4.400	21587	14829	0	612
-14.389	-4.580	21502	14928	0	612
-17.202	-8.511	21468	15007	0	612
-20.159	-10.530	21333	15066	0	612
-21.385	-10.819	21214	15105	0	612
-20.447	-8.439	20994	15080	0	612
-17.454	-9.124	20824	15034	0	612
-17.021	-8.691	20739	15110	0	612
-15.218	-7.321	20739	15328	0	612
-18.536	-4.904	20706	15513	0	612
-18.716	-3.895	20570	15559	0	612
-19.257	-2.344	20400	15527	0	612
-18.356	-4.904	20282	15510	0	612
-17.129	-9.052	20146	15551	0	612
-15.615	-12.261	20028	15638	0	612
-19.185	-10.314	19977	15742	0	612
-23.116	-11.143	19892	15818	0	612
-26.686	-7.573	19807	15883	0	612
-27.119	-5.013	19722	15984	0	612
-24.630	-3.570	19689	16085	0	612
-24.198	-6.239	19638	16142	0	612
-26.758	-7.104	19468	16142	0	612
-27.984	-9.268	19384	16107	0	612
-28.417	-7.934	19180	16074	0	612
-23.837	-3.534	19011	16052	0	612
-18.644	3.390	18875	16028	0	612
-11.828	8.222	18672	15981	0	612
-9.520	9.376	18502	15924	0	612
-7.429	8.150	18282	15889	0	612
-6.131	3.462	18163	15886	0	612
-3.678	1.262	18028	15908	0	612
-4.580	6.203	17858	15932	0	612
-4.219	13.379	17689	15951	0	612
-4.580	19.870	17485	15913	0	612
-9.773	22.178	17265	15818	0	612
-17.166	12.045	16977	15715	0	612
-24.125	1.623	16672	15627	0	612
-24.198	-3.390	16417	15559	0	612
-16.084	-0.577	16130	15499	0	612
4.291	13.487	15757	15382	0	612
20.483	23.512	15368	15241	0	612
28.453	26.037	15113	15197	0	612
24.450	16.552	14825	15230	0	612
15.831	6.852	14435	15189	0	612
7.501	2.092	14012	15042	0	612
9.340	7.393	13503	14884	0	612
14.064	15.723	13130	14791	0	612
21.637	24.234	12740	14789	0	612
26.397	24.486	12368	14843	0	612
27.119	23.368	12029	14881	0	612
22.899	22.106	11639	14879	0	612
16.552	17.995	11300	14914	0	612
12.586	14.172	11012	15017	0	612
9.953	9.268	10757	15134	0	612
10.638	5.842	10452	15241	0	612
13.523	4.183	10113	15331	0	612
14.136	6.599	9910	15412	0	612
12.189	8.799	9605	15486	0	612
9.881	9.088	9232	15535	0	612
5.301	9.556	8927	15538	0	612
0.072	7.429	8588	15532	0	612
-4.508	3.246	8249	15559	0	612
-8.727	-2.056	7995	15636	0	612
-10.602	-7.970	7791	15761	0	612
-9.701	-12.189	7571	15922	0	612
-6.455	-12.153	7368	16063	0	612
0.721	-6.419	7232	16175	0	612
6.239	2.236	7062	16276	0	612
9.160	11.071	6893	16371	0	612
4.724	14.100	6723	16446	0	612
-0.072	16.012	6554	16509	0	612
-4.147	10.891	6384	16558	0	612
1.587	10.386	6215	16577	0	612
14.028	9.953	5927	16533	0	612
23.044	13.199	5622	16441	0	612
24.739	17.454	5368	16384	0	612
15.831	17.166	5249	16384	0	612
6.635	15.398	4995	16394	0	612
0.649	11.792	4690	16365	0	612
2.849	7.934	4486	16297	0	612
8.114	7.321	4181	16246	0	612
12.658	10.963	4012	16235	0	612
14.028	14.389	3842	16265	0	612
12.802	15.831	3639	16295	0	612
11.792	20.375	3469	16286	0	612
10.674	20.231	3215	16270	0	612
10.386	20.050	2910	16210	0	612
11.143	20.303	2622	16093	0	612
14.208	15.543	2368	16014	0	612
16.589	13.343	2198	16028	0	612
17.454	8.799	2062	16120	0	612
14.064	6.419	2062	16311	0	612
9.665	6.635	2198	16610	0	612
5.950	10.025	2401	16972	0	612
5.842	14.713	2622	17328	0	612
9.340	15.471	2961	17663	0	612
13.487	14.533	3300	18012	0	612
19.906	8.150	3808	18399	0	612
23.765	3.642	4266	18796	0	612
29.030	3.967	4825	19115	0	612
30.436	12.838	5198	19287	0	612
26.974	20.339	5673	19379	0	612
16.372	30.004	6181	19529	0	612
6.058	30.977	6774	19744	0	612
-0.505	29.318	7401	19943	0	612
0.397	27.515	8079	20117	0	612
11.612	26.397	8808	20291	0	612
25.676	29.571	9486	20436	0	612
37.685	32.492	10198	20534	0	612
43.851	30.436	11046	20670	0	612
40.570	29.427	11978	20880	0	612
36.314	27.768	12825	21024	0	612
30.581	27.371	13639	20997	0	612
26.506	29.499	14266	20836	0	612
26.614	31.843	14944	20637	0	612
26.578	29.391	15622	20433	0	612
23.585	26.938	16215	20193	1	640
17.887	20.844	16672	19864	0	640
14.172	16.589	17095	19469	0	640
10.097	13.848	17570	19101	0	640
9.520	11.864	18078	18794	0	640
14.353	11.937	18451	18529	0	640
18.716	10.386	18960	18271	0	640
25.099	12.225	19299	17998	0	640
28.922	20.916	19773	17734	0	640
31.446	31.158	20146	17497	0	640
28.958	38.947	20570	17304	0	640
24.342	39.272	20909	17122	0	640
21.060	33.141	21248	16898	0	640
17.238	25.784	21502	16653	0	640
16.589	23.657	21807	16438	0	640
12.586	25.748	22146	16295	0	640
12.117	27.587	22434	16197	0	640
13.668	21.529	22773	16101	0	640
18.608	15.435	23028	15979	0	640
27.371	9.556	23248	15859	0	640
30.112	5.734	23536	15755	0	640
26.253	6.022	23756	15676	0	640
15.723	4.940	23960	15603	0	640
8.439	4.688	24045	15478	0	640
6.527	10.133	24011	15249	0	640
10.314	17.887	23960	14941	0	640
13.848	26.866	23790	14625	0	640
13.631	28.741	23672	14364	0	640
9.304	21.890	23451	14162	0	640
8.114	12.802	23282	13972	0	640
14.641	7.321	22909	13737	0	640
21.313	14.100	22604	13492	0	640
26.974	24.630	22400	13370	0	640
23.729	34.006	22265	13427	0	640
18.752	34.043	22180	13588	0	640
15.759	27.696	22095	13765	0	640
15.074	20.519	22061	13923	0	640
14.389	14.858	21977	14067	0	640
14.245	15.903	21892	14222	0	640
7.789	16.084	21841	14388	0	640
2.849	14.425	21756	14522	0	640
-1.479	12.441	21587	14606	0	640
-1.947	7.681	21502	14672	0	640
-0.036	5.121	21333	14770	0	640
6.924	7.321	21248	14911	0	640
19.257	11.828	21214	15066	0	640
29.102	18.103	21078	15186	0	640
33.538	25.929	20994	15279	0	640
31.951	27.551	20960	15385	0	640
25.929	28.020	20875	15518	0	640
22.827	28.814	20824	15666	0	640
23.765	30.292	20739	15785	0	640
28.850	32.636	20655	15867	0	640
33.321	33.682	20570	15927	0	640
33.826	33.213	20485	15979	0	640
29.823	25.676	20400	16025	0	640
24.594	19.185	20282	16055	0	640
16.625	15.543	20197	16069	0	640
11.396	12.910	20028	16058	0	640
8.979	13.451	19773	15976	0	640
10.494	17.454	19519	15829	0	640
18.933	16.120	19214	15696	0	640
25.676	16.264	18960	15617	0	640
29.823	13.343	18706	15578	0	640
27.407	15.146	18502	15565	0	640
20.736	19.906	18282	15587	0	640
16.300	29.174	18197	15668	0	640
15.687	37.685	18078	15802	0	640
18.716	36.567	18028	15932	0	640
18.464	28.201	17943	16017	0	640
17.634	15.218	17739	16052	0	640
15.651	10.710	17604	16060	0	640
18.788	14.317	17485	16071	0	640
20.087	24.306	17316	16077	0	640
20.339	28.201	17095	16047	0	640
14.858	24.666	16892	15973	0	640
7.645	16.048	16587	15894	0	640
4.219	10.278	16384	15853	0	640
5.229	11.035	16266	15883	0	640
6.744	19.906	16130	15962	0	640
9.196	24.450	15961	16020	0	640
11.937	26.361	15707	15987	0	640
13.956	23.404	15334	15807	0	640
18.969	16.084	14910	15548	0	640
20.627	14.064	14571	15388	0	640
23.080	11.215	14266	15377	0	640
24.739	13.595	14096	15437	0	640
27.804	16.625	13808	15489	0	640
29.643	21.709	13588	15505	0	640
28.705	29.318	13249	15499	0	640
23.657	34.583	12995	15494	0	640
16.444	35.413	12791	15508	0	640
12.009	32.997	12452	15518	0	640
9.989	26.470	12113	15480	0	640
11.071	23.044	11808	15437	0	640
11.612	19.618	11690	15543	0	640
9.052	20.195	11605	15794	0	640
7.753	16.805	11520	16003	0	640
5.445	19.293	11351	16074	0	640
7.140	20.447	11130	16060	0	640
8.799	26.433	10876	16047	0	640
7.789	30.689	10673	16071	0	640
8.727	31.590	10503	16120	0	640
10.169	30.653	10334	16169	0	640
18.969	27.010	10164	16180	0	640
24.811	27.551	9910	16161	0	640
27.010	29.030	9690	16148	0	640
22.395	30.617	9520	16158	0	640
12.874	27.840	9266	16183	0	640
4.003	19.185	9147	16197	0	640
-1.190	9.448	8893	16210	0	640
-3.714	1.442	8757	16216	0	640
-2.092	1.983	8554	16183	0	640
3.282	8.366	8249	16126	0	640
9.917	19.834	7961	16041	0	640
11.396	24.378	7537	15864	0	640
8.186	26.470	7062	15617	0	640
4.183	24.378	6723	15461	0	640
6.780	20.772	6384	15437	0	640
16.985	24.955	6046	15440	0	640
30.977	31.194	5791	15445	0	640
35.233	37.180	5588	15483	0	640
31.807	37.144	5334	15554	0	640
23.873	33.249	5029	15622	0	640
20.844	29.174	4859	15676	0	640
25.027	30.436	4605	15736	0	640
31.158	36.026	4351	15783	0	640
32.636	40.317	4062	15750	0	640
24.775	38.839	3673	15646	0	640
15.867	32.997	3300	15559	0	640
7.285	25.965	2961	15527	0	640
5.373	22.899	2656	15518	0	640
11.323	24.847	2283	15489	0	640
21.421	27.984	1893	15445	0	640
31.879	33.466	1639	15459	0	640
40.714	39.091	1435	15576	0	640
42.517	39.235	1300	15769	0	640
36.603	38.550	1181	15987	0	640
25.604	32.672	1215	16229	0	640
14.930	25.207	1300	16547	0	640
7.681	24.198	1469	16939	0	640
6.094	29.174	1723	17339	0	640
11.071	37.541	2029	17721	0	640
17.995	46.953	2368	18080	0	640
20.555	50.270	2791	18429	0	640
19.005	51.749	3249	18802	0	640
11.540	48.287	3893	19216	0	640
2.705	44.212	4435	19622	0	640
-2.164	43.779	5079	19935	0	640
-6.924	44.609	5537	20082	0	640
-6.311	47.602	6046	20106	0	640
-3.967	56.726	6605	20161	0	640
0.252	61.594	7232	20291	0	640
6.347	62.387	7876	20409	0	640
6.635	55.391	8469	20490	0	640
-2.019	43.130	9181	20553	0	640
-16.661	31.194	9774	20561	0	640
-25.712	22.863	10452	20498	0	640
-22.142	22.214	11181	20463	0	640
-7.465	24.955	11944	20520	0	640
10.927	33.249	12656	20539	0	640
22.863	42.120	13300	20422	1	644
19.221	50.054	13978	20221	0	644
9.052	56.690	14520	20016	0	644
-8.042	56.221	15113	19842	0	644
-20.700	46.015	15791	19690	0	644
-26.686	30.977	16384	19537	0	644
-24.089	16.408	17011	19360	0	644
-14.172	2.921	17655	19194	0	644
-6.996	-0.829	18248	19058	0	644
-5.626	-0.180	18926	18913	0	644
-7.429	10.169	19384	18712	0	644
-2.921	26.974	19943	18440	0	644
12.261	47.890	20316	18124	0	644
34.295	60.151	20706	17808	0	644
49.802	59.142	21045	17492	0	644
48.215	47.097	21299	17162	0	644
29.968	33.610	21502	16797	0	644
14.028	27.587	21722	16443	0	644
4.327	24.198	21926	16161	0	644
3.390	20.159	22146	15949	0	644
4.796	15.038	22350	15766	0	644
4.868	13.379	22519	15568	0	644
8.439	16.372	22655	15363	0	644
15.579	18.716	22739	15175	0	644
19.113	11.648	22858	15020	0	644
10.242	-5.229	22943	14900	0	644
-8.186	-16.480	22994	14794	0	644
-18.356	-4.904	22943	14628	0	644
-1.262	26.542	22773	14396	0	644
45.835	64.731	22739	14195	0	644
97.944	86.080	22655	14070	0	644
124.522	79.300	22485	13977	0	644
114.389	49.153	22316	13895	0	644
76.704	22.034	22146	13808	0	644
39.740	13.451	21926	13686	0	644
26.433	29.427	21722	13577	0	644
36.747	55.031	21502	13585	0	644
62.820	69.383	21384	13675	0	644
83.664	65.344	21163	13740	0	644
97.295	47.674	20960	13759	0	644
96.646	29.210	20706	13765	0	644
88.208	18.428	20400	13781	0	644
82.834	17.634	20231	13835	0	644
83.375	19.473	20061	13942	0	644
97.259	27.732	19858	14078	0	644
116.264	43.671	19638	14217	0	644
129.679	63.109	19519	14377	0	644
129.968	80.743	19468	14587	0	644
115.110	82.582	19299	14816	0	644
98.954	70.862	19265	15009	0	644
87.234	50.956	19095	15148	0	644
89.326	37.036	18960	15233	0	644
96.394	32.672	18621	15238	0	644
109.773	35.413	18417	15205	0	644
118.680	37.901	18112	15211	0	644
123.224	35.377	17909	15252	0	644
122.106	29.679	17655	15295	0	644
113.199	28.164	17434	15366	0	644
100.361	28.994	17316	15480	0	644
85.972	32.095	17146	15617	0	644
77.101	32.780	17061	15745	0	644
76.956	32.636	16926	15848	0	644
87.739	36.783	16756	15941	0	644
106.275	43.455	16638	16041	0	644
117.634	50.379	16553	16148	0	644
116.156	54.995	16417	16240	0	644
102.056	49.441	16351	16311	0	644
84.313	45.186	16215	16365	0	644
75.658	41.904	16096	16386	0	644
75.730	42.625	15876	16376	0	644
80.130	42.193	15707	16333	0	644
72.990	37.180	15537	16292	0	644
64.371	27.840	15334	16276	0	644
62.784	20.303	15164	16257	0	644
75.622	25.352	14910	16197	0	644
102.885	40.894	14740	16137	0	644
123.945	59.899	14571	16126	0	644
132.348	75.045	14401	16164	0	644
124.883	78.074	14266	16180	0	644
113.812	71.547	14012	16148	0	644
103.823	63.361	13893	16126	0	644
98.774	60.692	13757	16172	0	644
94.266	60.368	13673	16248	0	644
86.152	61.414	13503	16308	0	644
79.409	58.997	13418	16335	0	644
72.160	53.444	13300	16344	0	644
66.102	45.222	13164	16363	0	644
59.574	40.209	13130	16416	0	644
52.074	38.009	13079	16498	0	644
51.533	38.442	12995	16563	0	644
55.427	39.019	12961	16585	0	644
66.390	36.928	12825	16555	0	644
73.711	36.639	12656	16490	0	644
74.360	38.839	12486	16419	0	644
65.669	44.537	12283	16333	0	644
52.434	49.946	12062	16229	0	644
43.491	51.352	11859	16120	0	644
41.616	43.022	11605	16017	0	644
49.585	34.115	11351	15916	0	644
58.745	32.636	11096	15818	0	644
67.111	38.370	10791	15725	0	644
67.905	44.356	10503	15619	0	644
64.190	48.792	10113	15461	0	644
56.726	43.022	9656	15262	0	644
54.201	37.757	9317	15102	0	644
52.362	38.334	8842	15004	0	644
55.103	43.707	8503	14938	0	644
56.509	55.211	8079	14859	0	644
60.476	59.611	7571	14740	0	644
67.147	60.548	7062	14593	0	644
73.062	56.581	6520	14432	0	644
77.461	49.982	6012	14309	0	644
72.773	42.950	5537	14277	0	644
60.151	40.642	5079	14323	0	644
45.727	38.514	4774	14440	0	644
31.699	36.170	4435	14614	0	644
25.856	31.122	4266	14838	0	644
25.748	23.188	4012	15083	0	644
34.583	17.670	3808	15287	0	644
44.284	21.745	3418	15377	0	644
50.090	27.263	3079	15404	0	644
46.809	33.610	2876	15510	0	644
38.226	35.197	2707	15704	0	644
32.276	33.646	2486	15886	0	644
38.442	38.875	2317	16033	0	644
53.949	47.422	2147	16188	0	644
65.777	55.824	2062	16371	0	644
64.695	50.559	1978	16550	0	644
51.028	38.298	1808	16664	0	644
32.853	23.080	1554	16661	0	644
22.142	14.281	1266	16574	0	644
21.818	18.716	961	16462	0	644
27.335	30.725	673	16376	0	644
35.593	42.445	418	16333	0	644
40.570	51.893	198	16346	0	644
41.760	52.759	29	16392	0	644
36.567	45.474	1	16433	0	644
25.207	37.108	1	16462	0	644
12.189	29.174	1	16520	0	644
0.252	30.653	1	16620	0	644
-2.705	34.115	1	16746	0	644
3.390	39.235	1	16852	0	644
15.110	42.012	1	16934	0	644
-50.847	-566.174	358	6232	0	63
112.333	77.930	22350	15189	0	684
108.366	78.832	22265	15246	0	684
103.967	77.028	22180	15276	0	684
100.793	72.449	22146	15325	0	684
98.846	69.780	22061	15382	0	684
99.062	67.039	21841	15369	0	684
99.495	68.806	21638	15276	0	684
103.282	69.672	21468	15208	0	684
105.770	70.465	21248	15184	0	684
106.094	69.095	20960	15129	0	684
104.688	66.571	20739	15075	0	684
96.790	64.443	20655	15156	0	684
90.804	64.118	20621	15374	0	684
91.057	64.695	20570	15578	0	684
95.889	65.020	20485	15682	0	684
102.669	64.623	20367	15723	0	684
106.527	66.246	20282	15764	0	684
105.914	67.436	20197	15845	0	684
103.101	69.311	20146	15973	0	684
102.344	70.573	20146	16126	0	684
103.282	69.239	20146	16265	0	684
103.931	68.338	20197	16400	0	684
101.442	64.407	20231	16533	0	684
96.177	63.145	20231	16637	0	684
91.994	60.909	20231	16689	0	684
92.499	63.577	20197	16699	0	684
96.141	67.003	20146	16689	0	684
101.731	69.167	20061	16669	0	684
104.364	70.898	20028	16664	0	684
104.580	70.357	19977	16648	0	684
103.570	68.049	19807	16536	0	684
102.272	68.446	19384	16240	0	684
101.082	66.210	18926	15791	0	684
99.243	64.010	18367	15377	0	684
93.256	62.604	18028	15151	0	684
90.516	62.063	17739	15099	0	684
94.446	63.938	17485	15148	0	684
100.974	66.318	17265	15211	0	684
109.088	68.013	17061	15235	0	684
111.828	67.400	16807	15246	0	684
107.465	65.272	16638	15290	0	684
96.718	63.722	16468	15371	0	684
90.768	63.145	16266	15459	0	684
91.994	64.154	16096	15529	0	684
95.925	63.649	15927	15589	0	684
99.243	62.135	15791	15660	0	684
97.007	62.495	15622	15755	0	684
91.850	64.263	15537	15875	0	684
85.215	66.787	15418	15987	0	684
85.575	70.682	15283	16055	0	684
90.191	70.141	15079	16069	0	684
97.836	68.374	14774	15981	0	684
101.479	67.616	14486	15815	0	684
102.236	68.698	14096	15698	0	684
97.944	70.285	13893	15660	0	684
92.535	68.698	13588	15666	0	684
88.424	65.777	13418	15709	0	684
89.037	60.945	13334	15810	0	684
90.948	57.952	13164	15943	0	684
88.785	56.365	13046	16052	0	684
85.755	57.483	12995	16139	0	684
83.195	59.538	12876	16248	0	684
82.979	60.692	12876	16389	0	684
85.683	59.358	12876	16544	0	684
84.169	57.735	12825	16680	0	684
82.618	54.706	12740	16762	0	684
82.438	55.644	12656	16757	0	684
84.025	58.565	12537	16689	0	684
91.958	61.918	12368	16590	0	684
96.141	64.010	12062	16452	0	684
93.833	62.712	11774	16270	0	684
89.001	58.276	11435	16077	0	684
83.520	55.283	11096	15897	0	684
80.851	56.329	10757	15755	0	684
84.638	57.230	10537	15698	0	684
85.503	61.378	10334	15731	0	684
87.847	65.849	10164	15750	0	684
84.493	64.984	9740	15663	0	684
83.880	61.955	9435	15497	0	684
83.051	59.647	8978	15333	0	684
83.303	58.637	8639	15211	0	684
84.061	53.300	8130	15094	0	684
77.353	49.405	7656	14941	0	684
67.184	41.580	7198	14775	0	684
61.882	36.242	6723	14666	0	684
62.568	35.449	6300	14636	0	684
67.003	39.055	5927	14672	0	684
74.721	45.655	5622	14761	0	684
76.884	48.215	5283	14873	0	684
76.343	48.539	5029	14998	0	684
76.560	48.720	4774	15140	0	684
76.848	48.395	4520	15306	0	684
78.832	46.304	4351	15486	0	684
75.838	47.602	4096	15638	0	684
77.353	48.972	3978	15772	0	684
76.271	48.900	3757	15916	0	684
77.137	51.965	3673	16079	0	684
78.110	50.198	3554	16257	0	684
75.658	50.054	3418	16422	0	684
74.829	48.251	3418	16569	0	684
74.468	47.277	3300	16675	0	684
73.098	47.674	3130	16735	0	684
67.761	44.464	2961	16767	0	684
61.053	41.327	2825	16787	0	684
56.726	41.507	2740	16808	0	684
61.882	41.543	2622	16836	0	684
70.501	44.320	2452	16849	0	684
77.065	44.537	2401	16874	0	684
74.648	43.743	2401	16977	0	684
66.354	43.455	2486	17157	0	684
60.728	46.664	2537	17337	0	684
61.991	50.703	2656	17467	0	684
66.895	54.598	2740	17552	0	684
68.518	51.064	2825	17623	0	684
65.453	46.448	2995	17726	0	684
59.214	43.815	3164	17876	0	684
58.961	42.806	3384	18017	0	684
60.260	44.681	3639	18105	0	684
62.640	48.539	3842	18197	0	684
62.964	48.215	4232	18352	0	684
62.171	50.307	4605	18568	0	684
61.738	54.382	5113	18799	0	684
64.226	56.798	5588	19001	0	684
66.643	58.060	6046	19159	0	684
66.895	57.519	6605	19287	0	684
64.263	52.687	7113	19379	0	684
61.233	51.028	7622	19439	0	684
57.158	50.343	8164	19502	0	684
56.221	55.355	8757	19600	0	684
57.952	57.735	9435	19709	0	684
58.601	59.322	10079	19809	0	684
60.512	57.916	10707	19891	0	684
59.178	53.805	11435	19924	0	684
55.788	52.651	12062	19899	0	684
56.690	53.408	12707	19834	0	684
55.031	59.106	13249	19744	0	684
55.427	64.479	13893	19641	0	684
56.690	68.374	14435	19515	1	720
55.355	71.583	15029	19366	0	720
55.427	69.924	15537	19178	0	720
51.569	66.751	15927	18903	0	720
51.605	63.974	16300	18573	0	720
49.261	62.135	16722	18306	0	720
52.001	61.053	17180	18135	0	720
52.687	59.502	17604	17977	0	720
53.913	57.483	17994	17751	0	720
49.657	57.483	18282	17454	0	720
44.861	54.778	18502	17162	0	720
44.717	55.824	18841	16920	0	720
47.782	53.011	19045	16710	0	720
52.723	52.290	19350	16503	0	720
54.814	49.189	19468	16278	0	720
48.792	49.621	19553	16022	0	720
41.543	47.025	19722	15769	0	720
37.541	44.897	19858	15592	0	720
40.173	44.681	19977	15502	0	720
46.845	46.845	20146	15429	0	720
54.201	50.811	20316	15344	0	720
52.723	55.427	20451	15273	0	720
48.648	55.788	20570	15233	0	720
43.707	53.552	20706	15216	0	720
40.462	53.191	20739	15162	0	720
42.842	51.713	20706	15015	0	720
44.104	51.028	20621	14810	0	720
44.573	52.182	20536	14652	0	720
39.993	49.621	20451	14563	0	720
36.747	48.792	20367	14495	0	720
36.675	46.736	20231	14446	0	720
42.553	46.340	20146	14435	0	720
46.556	47.638	20112	14448	0	720
48.828	49.766	20028	14456	0	720
43.347	51.893	19892	14459	0	720
38.622	51.605	19773	14492	0	720
38.154	46.304	19722	14560	0	720
38.370	41.580	19604	14603	0	720
40.966	38.262	19384	14598	0	720
38.154	36.495	19299	14587	0	720
34.295	38.839	19095	14612	0	720
34.079	40.137	18926	14677	0	720
37.505	40.498	18841	14775	0	720
41.616	38.695	18672	14868	0	720
43.419	38.442	18587	14947	0	720
42.697	39.560	18536	15042	0	720
39.344	41.543	18417	15162	0	720
38.695	44.789	18367	15298	0	720
40.966	44.573	18248	15426	0	720
43.419	41.435	18248	15557	0	720
41.976	38.586	18197	15709	0	720
40.426	36.675	18248	15897	0	720
37.468	38.550	18367	16115	0	720
38.298	41.868	18417	16338	0	720
40.209	44.537	18536	16528	0	720
44.681	45.294	18587	16680	0	720
43.527	44.428	18706	16803	0	720
37.649	42.914	18756	16906	0	720
34.547	41.471	18875	16969	0	720
35.341	43.491	18875	16994	0	720
42.986	44.428	18926	16983	0	720
49.405	46.015	18790	16912	0	720
55.319	47.422	18790	16814	0	720
52.074	48.215	18790	16800	0	720
49.693	50.090	18875	16846	0	720
47.782	50.523	18756	16795	0	720
51.316	52.254	18621	16607	0	720
51.821	50.090	18367	16382	0	720
51.497	51.749	18248	16197	0	720
49.261	53.083	18028	16047	0	720
46.376	56.762	17689	15859	0	720
44.933	56.978	17400	15619	0	720
44.068	55.608	17061	15393	0	720
44.140	50.595	16756	15252	0	720
43.707	48.395	16553	15194	0	720
46.484	48.792	16351	15205	0	720
45.799	51.280	16130	15241	0	720
45.041	54.093	15927	15260	0	720
45.618	53.444	15757	15268	0	720
48.756	53.444	15537	15312	0	720
54.922	55.716	15537	15420	0	720
59.791	56.545	15368	15570	0	720
60.873	59.034	15283	15693	0	720
51.785	55.752	15198	15774	0	720
45.005	51.172	15079	15832	0	720
39.272	43.563	14910	15862	0	720
37.973	39.740	14690	15862	0	720
38.190	37.180	14571	15848	0	720
38.262	37.865	14317	15832	0	720
38.045	39.596	14181	15823	0	720
37.865	43.996	13978	15843	0	720
39.957	47.638	13842	15881	0	720
44.032	51.497	13639	15905	0	720
48.395	51.064	13469	15905	0	720
48.539	48.467	13215	15883	0	720
47.710	43.924	13046	15853	0	720
41.868	39.740	12876	15840	0	720
41.255	39.849	12622	15843	0	720
42.986	41.652	12401	15853	0	720
50.162	44.573	12232	15867	0	720
53.155	47.349	11978	15840	0	720
54.418	47.313	11723	15761	0	720
49.369	47.349	11435	15696	0	720
46.304	50.198	11215	15674	0	720
45.763	50.090	10961	15696	0	720
45.943	50.198	10842	15745	0	720
44.537	45.618	10622	15796	0	720
41.580	39.704	10452	15856	0	720
37.613	34.872	10334	15949	0	720
34.656	34.836	10283	16063	0	720
34.439	37.180	10113	16153	0	720
37.468	38.334	9944	16191	0	720
40.498	37.901	9859	16202	0	720
44.284	35.124	9690	16235	0	720
46.195	33.321	9520	16297	0	720
46.592	35.124	9486	16363	0	720
47.169	38.298	9317	16384	0	720
45.799	43.960	9232	16389	0	720
48.359	48.576	9062	16408	0	720
51.244	49.621	9012	16452	0	720
51.388	47.566	8927	16522	0	720
51.497	41.111	8927	16604	0	720
44.717	32.708	8808	16661	0	720
36.891	26.289	8723	16648	0	720
25.856	26.073	8588	16574	0	720
21.385	28.417	8385	16490	0	720
22.935	32.528	8215	16397	0	720
23.945	35.052	7995	16297	0	720
27.083	34.259	7740	16180	0	720
26.650	33.429	7368	16017	0	720
23.404	34.764	7029	15807	0	720
19.582	36.278	6690	15625	0	720
20.880	37.432	6384	15529	0	720
19.618	36.567	6181	15508	0	720
18.788	34.728	5876	15494	0	720
19.690	35.160	5588	15448	0	720
18.211	38.262	5334	15404	0	720
21.421	40.966	5079	15396	0	720
23.440	43.851	4825	15423	0	720
30.004	44.969	4656	15467	0	720
36.351	46.736	4317	15480	0	720
43.491	50.739	4062	15448	0	720
47.999	56.329	3723	15410	0	720
48.143	60.476	3503	15440	0	720
47.025	60.656	3300	15540	0	720
40.966	56.004	3130	15646	0	720
36.819	48.107	2961	15742	0	720
32.312	41.435	2876	15867	0	720
29.246	35.990	2791	16047	0	720
26.433	34.656	2825	16276	0	720
25.604	34.620	2791	16498	0	720
23.729	32.672	2740	16637	0	720
20.447	30.797	2740	16702	0	720
20.772	29.210	2791	16819	0	720
20.880	28.417	2876	17043	0	720
25.460	31.410	3079	17320	0	720
29.391	35.846	3384	17628	0	720
33.177	39.668	3723	17933	0	720
32.456	40.606	4012	18197	0	720
31.807	40.065	4351	18393	0	720
32.239	38.370	4520	18491	0	720
33.538	37.649	4825	18513	0	720
37.072	39.704	5079	18557	0	720
40.209	43.166	5368	18630	0	720
41.760	44.753	5791	18734	0	720
42.517	47.277	6215	18900	0	720
43.347	49.080	6690	19052	0	720
42.770	48.251	7113	19137	0	720
41.327	49.044	7622	19227	0	720
35.990	43.887	8164	19349	0	720
28.237	37.505	8842	19504	0	720
21.132	31.302	9520	19709	0	720
19.473	28.705	10283	19935	0	720
19.293	30.833	11046	20136	0	720
24.378	32.636	11893	20289	0	720
25.712	34.367	12656	20389	0	720
27.191	34.259	13300	20349	0	720
26.217	35.737	13673	20068	0	720
28.922	43.347	14147	19676	0	720
31.482	53.949	14605	19395	0	720
32.672	64.551	15198	19238	1	720
31.122	65.344	15707	19101	0	720
29.318	61.161	16266	18971	0	720
28.201	54.670	16807	18854	0	720
31.230	48.431	17350	18726	0	720
33.069	49.838	17858	18570	0	720
33.177	50.307	18367	18361	0	720
31.013	52.434	18672	18091	0	720
30.761	49.297	19045	17783	0	720
31.049	47.782	19299	17467	0	720
34.223	45.943	19519	17130	0	720
36.206	44.933	19604	16738	0	720
35.990	45.330	19638	16311	0	720
35.485	47.025	19689	15930	0	720
35.557	46.664	19722	15606	0	720
34.006	47.458	19689	15301	0	720
33.105	47.818	19638	15026	0	720
32.167	46.304	19604	14778	0	720
32.636	43.094	19519	14544	0	720
36.134	41.255	19434	14361	0	720
37.865	39.524	19434	14258	0	720
37.577	39.704	19350	14214	0	720
35.485	39.921	19299	14168	0	720
34.583	41.832	19180	14086	0	720
34.836	40.786	19045	14026	0	720
36.459	40.389	19095	14053	0	720
36.459	41.075	19045	14179	0	720
34.511	42.265	19129	14339	0	720
31.482	42.770	19095	14473	0	720
32.672	44.032	19129	14568	0	720
37.541	42.697	19095	14661	0	720
41.616	42.734	19045	14770	0	720
42.409	42.661	19095	14876	0	720
37.901	40.714	19011	14971	0	720
31.446	37.973	19095	15085	0	720
27.443	36.423	19095	15235	0	720
28.741	37.108	19214	15415	0	720
32.528	38.983	19299	15617	0	720
34.764	42.589	19434	15851	0	720
35.233	42.481	19638	16079	0	720
34.620	39.055	19722	16235	0	720
34.115	36.098	19722	16284	0	720
34.547	36.351	19773	16276	0	720
35.016	39.272	19773	16284	0	720
34.764	42.084	19807	16325	0	720
36.278	44.176	19807	16352	0	720
38.298	45.186	19722	16297	0	720
40.209	45.546	19604	16175	0	720
39.993	43.815	19519	16071	0	720
38.731	42.770	19468	16033	0	720
36.783	42.084	19434	16058	0	720
37.541	41.616	19434	16090	0	720
37.901	42.914	19384	16104	0	720
37.541	44.392	19384	16150	0	720
34.475	43.671	19468	16237	0	720
30.761	40.678	19468	16314	0	720
28.850	39.091	19434	16357	0	720
28.381	39.127	19468	16368	0	720
29.751	40.245	19468	16371	0	720
32.095	41.255	19519	16403	0	720
33.105	40.534	19604	16482	0	720
33.429	41.760	19638	16569	0	720
34.728	42.157	19638	16580	0	720
32.564	42.265	19468	16430	0	720
31.662	40.209	19265	16188	0	720
29.282	38.298	19129	16001	0	720
27.876	36.639	18875	15894	0	720
28.525	35.774	18756	15799	0	720
30.400	38.983	18536	15709	0	720
31.915	38.731	18367	15636	0	720
31.735	39.524	18163	15568	0	720
29.787	36.675	18028	15532	0	720
26.938	36.098	18028	15617	0	720
24.270	34.223	17994	15799	0	720
25.207	33.646	17994	15924	0	720
26.073	32.925	17773	15889	0	720
27.407	34.259	17519	15745	0	720
28.814	36.675	17316	15603	0	720
30.833	36.783	17061	15497	0	720
31.699	37.144	16807	15412	0	720
32.348	36.170	16502	15331	0	720
31.843	34.800	16266	15262	0	720
30.436	32.564	15961	15197	0	720
28.741	32.564	15622	15115	0	720
30.617	33.141	15283	15047	0	720
32.744	35.918	15029	15009	0	720
36.351	40.353	14656	14974	0	720
37.865	44.392	14401	14952	0	720
38.370	46.340	14062	14971	0	720
39.235	45.546	13842	15036	0	720
40.750	45.114	13554	15113	0	720
41.075	44.573	13334	15178	0	720
42.157	42.950	13046	15241	0	720
39.091	41.507	12876	15331	0	720
34.439	37.793	12707	15461	0	720
29.643	31.879	12537	15619	0	720
26.001	28.561	12401	15764	0	720
24.378	25.784	12283	15883	0	720
23.945	25.063	12147	16009	0	720
27.010	26.974	12062	16137	0	720
29.210	28.453	11978	16267	0	720
30.076	29.174	11893	16382	0	720
27.768	28.237	11723	16397	0	720
22.395	25.784	11435	16297	0	720
18.031	25.388	11046	16112	0	720
15.651	25.027	10673	15922	0	720
21.457	27.263	10334	15764	0	720
27.948	32.384	9910	15625	0	720
36.711	36.639	9401	15456	0	720
40.245	40.930	8927	15238	0	720
41.111	43.022	8385	15012	0	720
38.695	40.173	7825	14835	0	720
37.937	38.731	7368	14729	0	720
38.514	36.603	6893	14682	0	720
38.082	37.505	6435	14658	0	720
35.954	38.045	5961	14628	0	720
31.482	38.586	5588	14628	0	720
28.922	36.242	5164	14691	0	720
27.840	32.925	4774	14789	0	720
30.581	31.554	4401	14868	0	720
34.403	30.905	4012	14922	0	720
35.521	32.744	3639	15001	0	720
34.800	34.187	3384	15145	0	720
34.079	35.918	3164	15361	0	720
32.564	36.928	2961	15608	0	720
33.970	36.639	2825	15845	0	720
35.918	36.928	2707	16066	0	720
38.875	38.082	2622	16276	0	720
39.596	37.901	2452	16446	0	720
38.622	39.993	2317	16588	0	720
37.108	41.111	2198	16699	0	720
36.675	41.580	2113	16806	0	720
39.596	42.878	2029	16923	0	720
42.806	44.428	1944	17051	0	720
46.736	48.323	1893	17157	0	720
46.592	51.100	1808	17228	0	720
45.871	50.559	1774	17279	0	720
43.996	47.890	1690	17304	0	720
42.409	40.426	1520	17255	0	720
38.875	36.206	1351	17154	0	720
36.206	34.403	1181	17075	0	720
32.780	33.429	1130	17062	0	720
31.482	31.915	1046	17100	0	720
33.754	30.725	1046	17138	0	720
35.701	29.643	1012	17168	0	720
36.278	29.354	1130	17290	0	720
34.006	31.158	1384	17525	0	720
33.538	33.429	1639	17781	0	720
33.934	34.079	1893	18001	0	720
37.144	35.377	2198	18186	0	720
39.921	36.928	2571	18382	0	720
44.645	36.098	2995	18625	0	720
46.520	37.937	3469	18913	0	720
48.107	39.380	4147	19216	0	720
46.953	41.940	4656	19472	0	720
45.005	43.996	5198	19622	0	720
43.707	43.347	5707	19706	0	720
45.799	42.914	6384	19820	0	720
46.664	43.166	7029	19973	0	720
50.379	44.356	7707	20095	0	720
47.962	44.284	8249	20123	0	720
43.347	42.697	8673	19976	0	720
39.163	39.812	9147	19711	0	720
33.538	35.846	9520	19502	0	720
28.633	32.961	10029	19390	0	720
23.729	31.915	10588	19300	1	660
22.178	29.968	11012	19145	0	660
23.512	28.633	11266	18848	0	660
24.486	29.030	11469	18445	0	660
26.686	30.905	11723	18091	0	660
27.119	32.564	12029	17843	0	660
23.585	35.160	12283	17642	0	660
24.198	36.062	12537	17416	0	660
27.515	36.278	12740	17162	0	660
33.754	35.629	12995	16958	0	660
38.406	37.324	13130	16778	0	660
39.272	40.606	13164	16479	0	660
36.242	42.409	13079	16036	0	660
30.581	41.327	12995	15633	0	660
28.561	38.262	13046	15404	0	660
26.542	35.954	13130	15312	0	660
29.066	34.836	13215	15292	0	660
27.587	37.432	13334	15309	0	660
26.758	40.317	13554	15361	0	660
26.830	40.570	13757	15472	0	660
26.361	38.550	14096	15641	0	660
27.263	36.423	14401	15843	0	660
30.545	35.810	14774	16047	0	660
32.780	35.233	15079	16207	0	660
33.466	35.665	15334	16314	0	660
34.043	37.144	15673	16408	0	660
31.626	36.819	16012	16536	0	660
32.095	37.721	16266	16623	0	660
33.610	37.937	16300	16511	0	660
36.206	38.334	16266	16235	0	660
38.262	38.226	16215	15984	0	660
37.541	37.901	16181	15823	0	660
35.124	38.947	16181	15715	0	660
33.610	40.101	16215	15671	0	660
32.276	39.416	16215	15638	0	660
34.295	36.819	16215	15529	0	660
34.223	34.403	16130	15407	0	660
32.925	32.131	16096	15374	0	660
29.210	31.699	16130	15420	0	660
25.243	32.384	16266	15527	0	660
24.666	32.816	16384	15668	0	660
24.306	30.400	16417	15769	0	660
25.820	29.066	16502	15804	0	660
26.289	27.768	16468	15796	0	660
22.286	27.696	16384	15704	0	660
17.995	26.686	16215	15548	0	660
15.867	23.873	16130	15456	0	660
12.946	22.647	16046	15442	0	660
15.290	23.476	16012	15475	0	660
17.274	25.099	16046	15570	0	660
23.440	28.561	16181	15731	0	660
26.037	32.492	16300	15930	0	660
27.732	34.944	16468	16129	0	660
27.010	35.990	16672	16322	0	660
25.784	37.324	16807	16511	0	660
28.092	36.747	17061	16705	0	660
29.823	35.774	17350	16906	0	660
33.213	36.026	17519	17062	0	660
33.177	34.692	17604	17067	0	660
28.922	33.718	17655	16934	0	660
25.027	30.833	17689	16819	0	660
22.935	30.364	17689	16773	0	660
23.549	31.158	17739	16716	0	660
23.080	31.554	17689	16631	0	660
20.952	31.302	17655	16539	0	660
19.437	26.217	17655	16446	0	660
16.733	23.332	17739	16397	0	660
22.431	25.640	17858	16482	0	660
26.217	28.489	18078	16672	0	660
30.364	31.013	18248	16787	0	660
28.958	31.302	18163	16716	0	660
27.984	28.525	18163	16550	0	660
29.607	27.083	18163	16400	0	660
34.980	28.886	18028	16297	0	660
41.832	31.915	17994	16205	0	660
45.186	34.728	17909	16079	0	660
45.402	35.557	17689	15911	0	660
44.933	36.495	17604	15788	0	660
43.671	36.891	17485	15728	0	660
41.147	36.278	17350	15671	0	660
33.466	31.230	17231	15587	0	660
25.568	27.840	17011	15486	0	660
18.933	23.368	16807	15385	0	660
17.202	23.549	16587	15292	0	660
20.772	22.719	16351	15175	0	660
23.188	22.791	16012	15017	0	660
24.811	23.512	15673	14843	0	660
26.001	21.277	15334	14715	0	660
28.525	22.647	15029	14677	0	660
32.564	28.164	14859	14734	0	660
35.882	29.138	14690	14843	0	660
35.233	30.292	14486	14947	0	660
33.862	30.761	14317	15004	0	660
36.098	30.797	13927	14966	0	660
40.714	33.213	13554	14829	0	660
46.051	38.082	13079	14691	0	660
50.956	39.488	12740	14633	0	660
48.395	40.209	12452	14655	0	660
43.058	36.314	12062	14704	0	660
39.849	33.718	11690	14715	0	660
36.531	31.482	11300	14691	0	660
35.737	31.302	10961	14707	0	660
34.331	30.941	10673	14802	0	660
30.112	27.191	10418	14925	0	660
26.181	24.630	10079	14982	0	660
22.142	20.375	9656	14968	0	660
20.880	19.005	9351	14974	0	660
20.772	18.969	9012	15053	0	660
19.726	20.952	8757	15189	0	660
21.781	21.096	8469	15341	0	660
24.342	19.726	8300	15486	0	660
29.643	21.565	8130	15641	0	660
37.685	23.332	7961	15837	0	660
43.815	27.876	7910	16077	0	660
45.222	30.689	7876	16322	0	660
44.068	31.590	7825	16520	0	660
41.147	30.653	7740	16678	0	660
39.740	27.948	7707	16836	0	660
41.616	27.587	7740	17015	0	660
44.609	28.453	7740	17181	0	660
44.464	27.732	7707	17285	0	660
40.606	27.227	7622	17290	0	660
34.836	23.873	7368	17162	0	660
31.482	22.250	7113	16945	0	660
30.400	22.467	6893	16773	0	660
32.708	20.591	6605	16642	0	660
31.699	21.601	6266	16449	0	660
29.318	18.139	5961	16210	0	660
24.162	17.310	5588	16020	0	660
22.683	16.625	5249	15919	0	660
23.116	20.087	5029	15873	0	660
26.145	21.637	4774	15856	0	660
29.895	23.260	4520	15843	0	660
29.823	25.135	4232	15783	0	660
31.085	22.899	3927	15701	0	660
30.148	22.647	3673	15671	0	660
32.167	25.243	3418	15674	0	660
32.816	25.207	3079	15622	0	660
35.269	28.273	2707	15516	0	660
34.908	29.463	2452	15456	0	660
33.285	29.391	2232	15538	0	660
29.679	27.515	2147	15745	0	660
27.804	27.443	2147	15998	0	660
27.191	27.768	2198	16265	0	660
27.479	26.902	2283	16522	0	660
27.119	26.758	2401	16797	0	660
25.063	21.493	2571	17072	0	660
24.270	19.654	2622	17258	0	660
23.549	19.293	2656	17334	0	660
24.089	19.401	2740	17427	0	660
25.748	23.621	2995	17631	0	660
24.414	24.666	3334	17922	0	660
23.188	22.827	3757	18276	0	660
23.116	22.106	4266	18668	0	660
23.909	21.277	4859	19058	0	660
23.981	21.637	5537	19434	0	660
25.424	25.279	6266	19793	0	660
26.361	25.063	6978	20131	0	660
24.342	23.585	7791	20441	0	660
22.827	23.765	8639	20735	0	660
23.296	21.709	9571	21005	0	660
22.178	22.503	10334	21185	0	660
24.739	25.929	11046	21212	0	660
28.561	28.273	11774	21125	0	660
28.777	29.823	12486	21016	0	660
30.076	29.318	13164	20918	0	660
27.984	30.220	13842	20768	0	660
27.047	28.489	14351	20512	1	668
25.568	28.777	14944	20180	0	668
24.234	27.191	15503	19902	0	668
22.358	25.135	16096	19717	0	668
22.322	24.198	16672	19545	0	668
17.743	21.565	17231	19319	0	668
17.815	20.303	17689	19028	0	668
17.021	22.286	18163	18706	0	668
22.647	21.060	18621	18382	0	668
27.984	24.450	18926	18045	0	668
34.944	28.309	19214	17669	0	668
37.360	29.895	19468	17282	0	668
36.531	31.266	19689	16947	0	668
34.764	31.122	19977	16697	0	668
32.276	30.076	20316	16520	0	668
30.617	28.273	20621	16376	0	668
25.640	26.145	20824	16202	0	668
23.909	23.476	21045	15998	0	668
21.277	22.899	21248	15823	0	668
24.234	25.568	21468	15696	0	668
29.030	26.001	21672	15581	0	668
30.076	26.325	21807	15456	0	668
28.922	24.234	21926	15312	0	668
25.316	20.916	21977	15156	0	668
22.935	19.257	22061	15001	0	668
25.243	22.539	22061	14868	0	668
25.929	21.745	22061	14751	0	668
26.542	21.565	22011	14644	0	668
24.270	21.241	21977	14527	0	668
20.736	18.247	21807	14353	0	668
19.221	19.401	21672	14157	0	668
21.673	19.546	21587	14072	0	668
21.818	21.709	21468	14097	0	668
21.204	20.627	21333	14119	0	668
18.247	18.211	21214	14102	0	668
14.713	17.093	21045	14072	0	668
12.730	15.723	20875	14056	0	668
15.074	15.362	20706	14075	0	668
16.408	19.293	20621	14140	0	668
18.824	18.644	20451	14230	0	668
15.182	17.959	20316	14312	0	668
10.602	11.684	20197	14391	0	668
4.291	7.248	20061	14505	0	668
1.406	5.590	19943	14655	0	668
1.803	4.508	19892	14794	0	668
3.787	7.717	19773	14889	0	668
4.580	8.655	19553	14955	0	668
5.301	8.439	19434	15023	0	668
3.714	7.681	19384	15118	0	668
4.111	8.727	19180	15219	0	668
6.094	11.179	19095	15306	0	668
7.825	12.477	18875	15374	0	668
5.590	10.855	18756	15423	0	668
2.633	9.124	18587	15461	0	668
1.118	8.150	18417	15502	0	668
3.823	11.071	18163	15516	0	668
12.477	15.543	17943	15502	0	668
20.555	23.476	17739	15469	0	668
23.693	24.414	17400	15401	0	668
21.241	22.972	17095	15306	0	668
17.021	21.349	16756	15262	0	668
11.612	17.274	16468	15252	0	668
12.550	17.346	15961	15107	0	668
15.290	17.310	15418	14797	0	668
16.589	19.221	14825	14519	0	668
18.716	18.247	14351	14418	0	668
16.949	18.933	13978	14462	0	668
16.408	17.706	13723	14612	0	668
15.579	20.087	13469	14819	0	668
18.752	20.808	13334	15045	0	668
21.349	22.142	13215	15328	0	668
23.116	24.739	13215	15682	0	668
24.378	23.765	13300	16044	0	668
23.080	23.801	13300	16374	0	668
23.116	26.506	13384	16656	0	668
24.991	29.318	13418	16885	0	668
25.893	30.400	13469	17078	0	668
27.587	31.482	13588	17271	0	668
29.931	30.833	13639	17448	0	668
28.741	29.968	13757	17574	0	668
29.102	29.318	13757	17653	0	668
28.020	29.968	13842	17693	0	668
27.732	29.535	13842	17712	0	668
28.381	30.076	13978	17729	0	668
29.571	30.256	13978	17726	0	668
33.033	32.780	14012	17693	0	668
35.124	34.656	14012	17636	0	668
36.639	34.944	14012	17560	0	668
36.278	33.718	13978	17495	0	668
34.331	32.492	14096	17484	0	668
34.511	31.338	14062	17470	0	668
32.780	31.158	14012	17334	0	668
34.620	32.023	13808	17062	0	668
36.891	34.079	13588	16740	0	668
37.505	37.324	13384	16460	0	668
42.697	40.750	13079	16243	0	668
47.097	43.455	12825	16025	0	668
49.405	44.140	12452	15742	0	668
49.549	44.212	11978	15401	0	668
47.061	41.724	11554	15096	0	668
40.966	40.678	11181	14900	0	668
38.695	38.550	10842	14810	0	668
37.036	35.377	10537	14778	0	668
36.639	31.987	10249	14751	0	668
38.767	30.220	9944	14740	0	668
40.966	31.482	9656	14767	0	668
41.471	33.574	9435	14838	0	668
38.154	34.764	9181	14938	0	668
34.043	33.574	9062	15042	0	668
28.417	28.886	8808	15148	0	668
28.056	26.650	8723	15284	0	668
29.895	27.696	8588	15456	0	668
32.239	31.122	8469	15633	0	668
33.141	33.502	8385	15772	0	668
32.492	33.321	8249	15881	0	668
32.636	31.662	8130	16001	0	668
33.970	29.607	8079	16134	0	668
34.980	30.689	7995	16265	0	668
35.197	35.052	7910	16363	0	668
35.413	39.199	7876	16435	0	668
38.947	41.075	7740	16473	0	668
40.678	39.380	7537	16424	0	668
39.488	34.331	7317	16335	0	668
30.833	26.650	7283	16374	0	668
19.978	21.168	7317	16547	0	668
12.874	20.519	7232	16675	0	668
11.215	21.313	7113	16661	0	668
20.050	24.775	6944	16563	0	668
28.164	28.201	6774	16468	0	668
32.961	28.705	6639	16433	0	668
33.429	30.292	6520	16443	0	668
31.122	30.905	6351	16422	0	668
29.607	31.699	6181	16333	0	668
31.013	33.213	6012	16265	0	668
34.006	34.692	5876	16276	0	668
35.197	33.646	5757	16311	0	668
34.259	32.708	5673	16322	0	668
31.410	32.420	5537	16308	0	668
30.941	31.013	5368	16281	0	668
29.895	31.230	5249	16273	0	668
27.443	29.391	5249	16308	0	668
26.361	27.299	5164	16374	0	668
22.106	23.657	5079	16424	0	668
20.700	23.080	5079	16462	0	668
22.683	21.637	4995	16501	0	668
22.719	22.070	4910	16536	0	668
23.368	21.204	4859	16547	0	668
22.467	18.933	4740	16517	0	668
20.952	19.510	4690	16465	0	668
22.467	19.978	4520	16416	0	668
25.424	23.440	4435	16392	0	668
29.210	25.171	4401	16408	0	668
30.256	26.794	4351	16454	0	668
30.689	25.640	4351	16520	0	668
27.984	24.450	4266	16588	0	668
28.525	24.234	4317	16604	0	668
30.292	24.053	4317	16599	0	668
31.879	25.171	4317	16667	0	668
30.869	24.378	4486	16838	0	668
27.948	22.647	4740	17064	0	668
25.604	23.260	4910	17288	0	668
26.361	23.296	5249	17495	0	668
28.886	25.748	5537	17732	0	668
30.545	27.768	6012	18031	0	668
29.030	27.191	6554	18369	0	668
25.893	23.873	7062	18671	0	668
21.854	19.365	7622	18913	0	668
19.113	17.670	8215	19145	0	668
19.113	14.821	8808	19393	0	668
15.110	16.985	9520	19619	0	668
16.084	18.031	10164	19804	0	668
15.831	16.552	10791	19932	0	668
15.146	18.860	11469	20014	0	668
17.418	16.877	12147	20060	0	668
17.851	18.103	12740	20038	0	668
19.113	20.519	13300	19948	0	668
20.808	21.565	13927	19853	0	668
20.014	23.873	14520	19785	0	668
20.844	24.125	15164	19717	1	712
19.329	23.549	15842	19641	0	712
20.627	24.342	16417	19548	0	712
20.772	21.745	16977	19406	0	712
20.916	21.241	17485	19205	0	712
19.870	23.080	17994	18962	0	712
17.779	23.260	18367	18693	0	712
17.490	23.945	18790	18401	0	712
15.038	24.053	19095	18094	0	712
17.166	21.637	19434	17781	0	712
17.851	20.483	19638	17440	0	712
21.168	20.050	19773	17040	0	712
22.755	21.854	19858	16604	0	712
24.450	24.198	19943	16221	0	712
22.431	24.883	20028	15927	0	712
21.204	24.234	20146	15709	0	712
24.486	26.758	20231	15510	0	712
28.020	29.030	20282	15295	0	712
33.610	31.085	20282	15102	0	712
36.314	32.636	20316	14966	0	712
32.600	31.374	20400	14868	0	712
25.893	26.397	20367	14761	0	712
22.467	22.286	20367	14625	0	712
20.952	19.798	20316	14505	0	712
24.234	20.627	20282	14462	0	712
29.354	22.322	20367	14503	0	712
31.085	23.729	20400	14579	0	712
32.492	26.578	20400	14631	0	712
33.177	27.515	20451	14639	0	712
34.079	27.443	20367	14633	0	712
34.620	26.866	20316	14652	0	712
34.079	25.063	20282	14701	0	712
30.833	23.440	20197	14734	0	712
29.210	20.700	20146	14737	0	712
29.354	21.818	20028	14740	0	712
32.312	23.693	19892	14756	0	712
33.285	22.899	19858	14802	0	712
30.508	22.719	19858	14908	0	712
21.277	18.500	19722	15012	0	712
15.290	17.562	19604	15009	0	712
15.362	18.283	19350	14911	0	712
24.955	22.719	19095	14813	0	712
35.774	28.237	18926	14789	0	712
41.399	31.194	18706	14835	0	712
37.252	30.364	18587	14895	0	712
30.328	29.282	18367	14955	0	712
26.866	27.804	18248	15023	0	712
30.364	26.542	18112	15113	0	712
32.925	25.676	18028	15241	0	712
30.977	22.719	17994	15410	0	712
26.506	21.349	17943	15576	0	712
23.549	19.401	17858	15693	0	712
25.171	19.293	17824	15791	0	712
29.246	23.621	17689	15867	0	712
31.554	25.604	17570	15927	0	712
29.859	27.551	17519	16001	0	712
28.958	28.273	17485	16090	0	712
29.823	26.938	17350	16137	0	712
31.590	25.352	17180	16101	0	712
32.276	25.243	16977	16022	0	712
29.138	27.335	16807	15976	0	712
27.443	28.345	16638	15976	0	712
29.499	26.974	16502	16003	0	712
33.538	24.486	16417	16066	0	712
35.197	22.467	16384	16158	0	712
33.574	20.050	16384	16270	0	712
28.633	20.447	16417	16408	0	712
26.650	24.162	16468	16571	0	712
28.741	25.856	16468	16697	0	712
34.908	26.181	16417	16727	0	712
38.586	26.109	16384	16686	0	712
35.701	23.981	16300	16656	0	712
26.433	18.139	16266	16656	0	712
19.437	15.723	16181	16648	0	712
15.723	12.874	16046	16585	0	712
18.464	13.451	15876	16482	0	712
21.204	16.372	15876	16438	0	712
23.476	17.959	15791	16473	0	712
24.486	19.978	15757	16509	0	712
21.781	17.923	15673	16501	0	712
21.132	17.490	15537	16449	0	712
22.106	14.894	15452	16384	0	712
21.457	17.166	15418	16352	0	712
23.621	17.923	15334	16355	0	712
26.073	20.267	15198	16338	0	712
26.614	20.808	15079	16270	0	712
26.938	21.204	14944	16188	0	712
28.453	21.745	14825	16139	0	712
29.066	21.385	14690	16142	0	712
29.066	22.034	14690	16167	0	712
29.823	21.385	14520	16158	0	712
27.840	19.005	14401	16107	0	712
27.155	17.454	14266	16055	0	712
26.542	14.172	14096	16033	0	712
25.207	11.396	14062	16033	0	712
23.729	10.783	13842	16014	0	712
22.611	9.629	13757	15973	0	712
20.555	9.989	13554	15946	0	712
19.510	10.927	13469	15941	0	712
17.166	9.773	13384	15946	0	712
17.779	9.088	13164	15941	0	712
19.185	9.773	12995	15897	0	712
23.585	12.153	12707	15769	0	712
25.784	11.720	12368	15581	0	712
23.873	11.251	12062	15429	0	712
19.437	9.629	11808	15352	0	712
16.733	7.789	11520	15320	0	712
13.776	7.862	11266	15306	0	712
15.687	8.294	10961	15276	0	712
17.779	9.268	10707	15249	0	712
20.339	9.881	10503	15292	0	712
18.933	9.124	10334	15393	0	712
17.310	8.835	10164	15475	0	712
13.451	7.465	9859	15491	0	712
10.494	5.626	9571	15440	0	712
11.071	4.544	9266	15366	0	712
12.153	7.753	8927	15328	0	712
12.838	7.537	8673	15336	0	712
14.136	9.268	8469	15385	0	712
12.622	7.573	8164	15448	0	712
10.674	4.400	7961	15518	0	712
10.855	1.659	7825	15619	0	712
8.294	-0.144	7707	15780	0	712
7.140	-0.252	7622	15960	0	712
6.960	1.010	7486	16090	0	712
7.717	2.092	7317	16145	0	712
8.799	3.210	7062	16123	0	712
10.278	4.400	6808	16058	0	712
10.530	4.580	6554	16009	0	712
11.468	4.760	6300	15984	0	712
9.304	4.688	6096	15981	0	712
7.753	2.596	5961	16022	0	712
6.347	3.606	5757	16093	0	712
6.311	4.003	5673	16194	0	712
8.114	6.167	5707	16386	0	712
9.196	5.986	5791	16639	0	712
9.124	5.626	5707	16778	0	712
6.491	1.839	5537	16757	0	712
4.472	-0.938	5452	16716	0	712
1.298	-3.246	5452	16776	0	712
-0.144	-4.255	5452	16912	0	712
-1.767	-3.642	5418	17010	0	712
-0.902	-2.957	5334	16996	0	712
0.072	-1.442	5249	16895	0	712
3.426	0.108	5079	16806	0	712
4.904	0.036	5029	16778	0	712
4.544	0.938	4995	16792	0	712
4.436	-0.036	4859	16787	0	712
2.669	-0.649	4825	16751	0	712
2.777	-2.813	4774	16740	0	712
3.065	-3.390	4740	16803	0	712
3.859	-2.019	4944	16947	0	712
5.590	0.216	5113	17157	0	712
6.094	3.246	5334	17375	0	712
5.950	4.796	5588	17549	0	712
4.616	2.741	5791	17696	0	712
2.705	0.685	6096	17860	0	712
1.695	-1.875	6435	18061	0	712
0.108	-3.390	6859	18265	0	712
-1.118	-5.554	7283	18470	0	712
-3.931	-6.383	7740	18685	0	712
-3.101	-6.888	8249	18897	0	712
-1.262	-7.357	8842	19099	0	712
3.859	-4.075	9486	19344	0	712
8.547	-2.777	10249	19630	0	712
9.124	-4.940	10876	19845	0	712
4.111	-9.556	11469	19902	0	712
-2.128	-13.884	12029	19850	0	712
-4.796	-17.851	12622	19799	0	712
-4.652	-15.038	13164	19774	0	712
-0.793	-9.340	13757	19725	0	712
3.246	-4.327	14232	19583	1	684
5.517	-2.272	14740	19366	0	684
4.580	-4.652	15249	19208	0	684
2.092	-9.953	15791	19148	0	684
-2.019	-15.218	16384	19112	0	684
-8.078	-22.358	16926	19031	0	684
-13.199	-22.647	17434	18892	0	684
-15.903	-21.709	17943	18715	0	684
-14.389	-20.664	18417	18535	0	684
-13.487	-16.228	18841	18352	0	684
-10.602	-15.903	19299	18162	0	684
-9.160	-16.048	19689	17952	0	684
-11.179	-19.221	20061	17729	0	684
-15.975	-20.050	20400	17522	0	684
-19.401	-24.702	20824	17375	0	684
-23.080	-26.109	21214	17258	0	684
-22.899	-24.919	21553	17102	0	684
-16.444	-23.116	21841	16915	0	684
-13.595	-19.978	22146	16738	0	684
-12.009	-17.166	22434	16580	0	684
-12.802	-20.231	22689	16416	0	684
-17.923	-21.204	22858	16237	0	684
-19.473	-24.017	23078	16052	0	684
-21.818	-24.450	23163	15864	0	684
-20.736	-22.503	23248	15644	0	684
-21.024	-23.152	23248	15410	0	684
-18.897	-20.519	23367	15222	0	684
-17.743	-21.060	23367	15083	0	684
-18.175	-21.024	23333	14952	0	684
-18.860	-21.493	23282	14778	0	684
-24.378	-24.414	23112	14576	0	684
-28.814	-29.895	23078	14421	0	684
-34.800	-34.692	22994	14353	0	684
-38.622	-37.865	22943	14358	0	684
-39.380	-40.498	22909	14369	0	684
-38.803	-37.324	22773	14337	0	684
-36.314	-34.547	22604	14255	0	684
-34.656	-31.879	22434	14165	0	684
-35.305	-31.699	22265	14130	0	684
-35.485	-32.456	22146	14162	0	684
-35.124	-33.646	21977	14214	0	684
-36.098	-33.321	21841	14268	0	684
-33.285	-31.554	21722	14342	0	684
-34.511	-30.617	21553	14413	0	684
-37.432	-32.708	21384	14454	0	684
-40.426	-35.305	21129	14446	0	684
-42.337	-36.928	20739	14350	0	684
-42.409	-35.269	20367	14211	0	684
-38.226	-31.230	20146	14192	0	684
-35.197	-25.496	19892	14312	0	684
-34.006	-22.358	19689	14470	0	684
-35.016	-21.349	19553	14642	0	684
-34.980	-24.414	19468	14838	0	684
-34.511	-27.083	19350	15039	0	684
-34.511	-29.968	19350	15243	0	684
-35.521	-32.095	19350	15516	0	684
-39.344	-32.961	19384	15848	0	684
-43.707	-36.278	19519	16139	0	684
-46.087	-37.649	19553	16365	0	684
-45.979	-38.406	19638	16561	0	684
-45.258	-38.514	19722	16724	0	684
-45.330	-37.901	19773	16855	0	684
-46.772	-38.658	19773	16969	0	684
-48.612	-39.127	19858	17040	0	684
-47.638	-40.678	19858	17072	0	684
-46.556	-39.380	19892	17127	0	684
-45.294	-38.262	19977	17203	0	684
-42.878	-39.127	20061	17244	0	684
-48.539	-40.822	20028	17230	0	684
-51.208	-43.094	20028	17173	0	684
-52.326	-44.969	20028	17105	0	684
-53.624	-45.438	20028	17062	0	684
-52.687	-46.051	20028	17029	0	684
-55.463	-44.681	19943	16964	0	684
-56.113	-47.169	19858	16833	0	684
-56.437	-47.169	19722	16667	0	684
-55.139	-45.474	19553	16506	0	684
-49.838	-43.671	19434	16394	0	684
-49.621	-41.832	19384	16335	0	684
-51.352	-41.940	19214	16276	0	684
-50.523	-42.157	19180	16202	0	684
-51.424	-43.238	19045	16145	0	684
-48.143	-42.229	18926	16088	0	684
-46.484	-40.426	18790	16017	0	684
-47.638	-41.003	18587	15946	0	684
-48.720	-43.166	18536	15902	0	684
-54.814	-46.700	18417	15886	0	684
-57.050	-48.215	18248	15873	0	684
-57.771	-48.792	18197	15873	0	684
-55.355	-44.861	18163	15962	0	684
-50.992	-42.517	18282	16126	0	684
-51.533	-42.193	18248	16229	0	684
-54.273	-45.546	18078	16210	0	684
-61.630	-50.631	18028	16150	0	684
-69.744	-57.266	18028	16161	0	684
-72.629	-57.807	17943	16237	0	684
-71.006	-57.158	17858	16262	0	684
-68.049	-54.814	17773	16194	0	684
-65.164	-50.270	17570	16088	0	684
-64.118	-49.946	17350	15973	0	684
-66.102	-50.126	17146	15864	0	684
-67.869	-51.208	16926	15769	0	684
-67.544	-54.093	16672	15657	0	684
-64.479	-51.497	16351	15499	0	684
-58.853	-49.657	15961	15314	0	684
-55.067	-44.573	15503	15064	0	684
-54.886	-42.734	14944	14740	0	684
-54.418	-43.238	14351	14435	0	684
-59.574	-46.448	13808	14219	0	684
-62.892	-48.143	13300	14100	0	684
-65.128	-51.857	12876	14078	0	684
-67.724	-52.578	12486	14143	0	684
-70.141	-55.788	12198	14266	0	684
-71.259	-57.266	11859	14396	0	684
-71.547	-59.034	11554	14500	0	684
-70.826	-60.007	11215	14601	0	684
-70.646	-57.771	10961	14753	0	684
-70.069	-58.096	10791	14987	0	684
-71.114	-56.726	10673	15290	0	684
-73.494	-55.427	10537	15568	0	684
-74.721	-57.411	10368	15720	0	684
-75.081	-56.293	10079	15761	0	684
-73.314	-57.916	9774	15766	0	684
-72.124	-57.735	9571	15813	0	684
-71.295	-56.581	9351	15919	0	684
-73.963	-58.673	9232	16058	0	684
-77.425	-59.358	9062	16205	0	684
-81.536	-59.899	8978	16346	0	684
-79.264	-60.512	8893	16514	0	684
-78.543	-57.266	8927	16727	0	684
-72.196	-52.903	8893	16934	0	684
-69.636	-48.323	8893	17070	0	684
-67.184	-45.438	8757	17119	0	684
-67.003	-43.635	8723	17130	0	684
-67.724	-45.582	8723	17151	0	684
-68.770	-49.730	8639	17190	0	684
-71.223	-53.264	8588	17220	0	684
-73.422	-58.276	8469	17209	0	684
-72.773	-57.880	8385	17157	0	684
-72.304	-55.499	8334	17094	0	684
-70.790	-53.841	8249	17070	0	684
-69.059	-49.441	8164	17072	0	684
-68.121	-48.576	8130	17053	0	684
-67.472	-48.756	8046	16996	0	684
-66.174	-45.510	7910	16931	0	684
-63.649	-44.428	7876	16879	0	684
-63.541	-42.770	7791	16827	0	684
-62.351	-43.347	7622	16748	0	684
-63.361	-43.527	7486	16634	0	684
-64.226	-46.159	7317	16501	0	684
-66.426	-47.999	7062	16349	0	684
-67.797	-47.061	6808	16188	0	684
-71.150	-49.766	6605	16050	0	684
-72.160	-48.467	6384	15938	0	684
-73.747	-47.566	6130	15837	0	684
-75.045	-49.477	5876	15745	0	684
-74.901	-50.920	5673	15690	0	684
-74.973	-53.480	5588	15720	0	684
-76.091	-53.624	5588	15859	0	684
-77.930	-55.896	5622	16085	0	684
-79.048	-53.696	5707	16338	0	684
-78.868	-53.985	5876	16585	0	684
-77.245	-51.749	6130	16882	0	684
-74.432	-49.693	6469	17252	0	684
-72.449	-47.277	6893	17642	0	684
-71.439	-45.546	7317	17998	0	684
-70.934	-46.268	7791	18309	0	684
-69.780	-45.655	8334	18600	0	684
-67.147	-42.301	8842	18913	0	684
-65.957	-39.812	9571	19265	0	684
-62.856	-36.170	10249	19619	0	684
-59.863	-33.898	10876	19878	0	684
-59.106	-31.626	11435	19951	0	684
-57.122	-28.381	11944	19897	0	684
-56.617	-25.063	12571	19891	0	684
-59.106	-24.306	13164	19981	0	684
-57.483	-26.433	13842	20060	0	684
-58.673	-26.974	14486	20090	0	684
-60.765	-29.607	15198	20098	0	684
-60.837	-31.266	15876	20098	0	684
-62.423	-32.131	16553	20098	0	684
-62.459	-33.862	17316	20087	0	684
-61.305	-35.377	17909	20014	0	684
-57.375	-32.384	18502	19828	1	732
-53.408	-28.381	18960	19545	0	732
-50.270	-23.549	19434	19221	0	732
-48.900	-23.260	19858	18911	0	732
-48.035	-23.621	20231	18619	0	732
-51.100	-24.811	20570	18298	0	732
-48.864	-24.739	20824	17911	0	732
-46.772	-23.981	20994	17500	0	732
-44.356	-20.014	21248	17146	0	732
-40.858	-18.536	21502	16887	0	732
-39.596	-15.471	21807	16713	0	732
-38.154	-13.595	22095	16574	0	732
-36.062	-8.907	22350	16430	0	732
-34.151	-8.222	22689	16333	0	732
-31.735	-7.465	23078	16306	0	732
-30.076	-9.773	23451	16306	0	732
-29.751	-10.422	23706	16265	0	732
-31.807	-11.864	23960	16167	0	732
-32.059	-11.432	24214	16052	0	732
-31.735	-9.340	24434	15971	0	732
-28.777	-6.780	24722	15949	0	732
-26.938	-4.400	25061	15968	0	732
-20.087	-1.226	25316	15987	0	732
-19.510	1.154	25536	15968	0	732
-17.418	1.839	25739	15902	0	732
-19.582	2.128	25909	15826	0	732
-19.005	2.633	26078	15766	0	732
-17.779	2.452	26214	15690	0	732
-8.691	5.013	26248	15581	0	732
0.252	6.960	26299	15450	0	732
6.960	11.071	26333	15320	0	732
11.756	12.730	26384	15224	0	732
10.891	14.858	26468	15224	0	732
12.261	15.615	26502	15257	0	732
14.858	15.038	26417	15164	0	732
14.966	17.526	26214	14928	0	732
17.129	15.002	25994	14652	0	732
16.012	15.254	25706	14426	0	732
14.497	13.127	25485	14279	0	732
16.300	11.900	25316	14200	0	732
12.441	9.484	24977	14121	0	732
14.100	8.439	24689	14007	0	732
13.848	8.114	24468	13947	0	732
16.480	10.638	24265	13977	0	732
17.634	12.766	24011	14051	0	732
19.834	15.074	23841	14127	0	732
19.113	16.661	23621	14203	0	732
20.447	15.002	23451	14298	0	732
17.923	14.785	23282	14437	0	732
18.103	13.054	23248	14642	0	732
13.127	9.376	23163	14876	0	732
7.176	9.665	23112	15072	0	732
6.599	9.016	23078	15238	0	732
8.439	11.648	22994	15412	0	732
11.720	15.182	22994	15608	0	732
14.713	12.586	22943	15783	0	732
12.694	8.258	22858	15902	0	732
5.662	4.147	22824	15990	0	732
1.046	0.072	22739	16063	0	732
-3.931	-1.010	22655	16134	0	732
-5.626	-1.947	22604	16205	0	732
-7.032	-2.164	22485	16254	0	732
-4.940	-1.623	22350	16276	0	732
-4.977	-0.577	22265	16281	0	732
-3.462	0.108	22180	16286	0	732
-3.282	2.452	22146	16314	0	732
-4.400	2.849	22061	16384	0	732
-5.554	4.039	21892	16408	0	732
-5.734	4.832	21722	16284	0	732
-6.888	4.147	21384	16082	0	732
-6.744	1.659	21078	15897	0	732
-6.924	-0.865	20790	15761	0	732
-7.104	-0.216	20570	15690	0	732
-4.003	2.416	20316	15671	0	732
-0.072	7.789	20061	15649	0	732
4.580	12.838	19858	15614	0	732
7.789	16.084	19722	15633	0	732
7.717	15.615	19553	15715	0	732
8.439	16.300	19384	15810	0	732
7.321	14.533	19350	15889	0	732
6.744	15.975	19180	15946	0	732
9.592	18.211	19045	15981	0	732
10.999	18.211	18926	16030	0	732
12.766	19.654	18875	16123	0	732
12.838	21.565	18841	16262	0	732
14.677	21.457	18790	16400	0	732
13.631	25.063	18790	16495	0	732
16.084	28.092	18756	16544	0	732
17.743	30.400	18672	16582	0	732
21.998	33.249	18621	16623	0	732
21.926	35.593	18502	16645	0	732
23.873	36.567	18451	16631	0	732
25.784	37.829	18282	16593	0	732
28.237	39.127	18163	16514	0	732
30.905	40.209	17943	16397	0	732
31.302	41.255	17689	16270	0	732
29.499	42.481	17485	16150	0	732
27.227	42.697	17265	16036	0	732
24.486	40.930	16977	15911	0	732
24.089	39.849	16672	15777	0	732
26.938	38.118	16417	15674	0	732
27.119	37.757	16181	15619	0	732
29.174	39.921	15961	15611	0	732
30.148	43.094	15707	15595	0	732
31.518	44.573	15503	15543	0	732
33.682	45.402	15164	15480	0	732
35.701	45.402	14859	15399	0	732
35.377	41.832	14435	15268	0	732
33.069	37.973	14062	15102	0	732
29.318	37.541	13554	14947	0	732
29.787	38.045	13215	14854	0	732
31.302	41.111	12825	14846	0	732
33.934	43.851	12537	14914	0	732
35.990	43.960	12283	15034	0	732
35.197	42.084	12029	15132	0	732
32.780	38.875	11690	15140	0	732
31.338	39.127	11300	15102	0	732
31.013	41.363	11046	15145	0	732
30.004	41.219	10791	15284	0	732
30.292	39.776	10588	15388	0	732
29.066	37.072	10113	15363	0	732
24.955	34.079	9740	15279	0	732
22.935	31.879	9435	15276	0	732
22.755	33.934	9147	15380	0	732
23.945	37.396	8927	15516	0	732
29.931	40.858	8673	15657	0	732
36.026	41.471	8554	15815	0	732
38.803	39.235	8418	15981	0	732
38.622	37.865	8334	16178	0	732
35.810	35.305	8385	16446	0	732
31.987	35.124	8469	16759	0	732
26.974	35.124	8418	16983	0	732
24.739	34.403	8334	17048	0	732
23.368	32.384	8249	17026	0	732
23.837	31.771	8079	17010	0	732
26.686	32.167	7995	17018	0	732
28.309	30.761	7876	17010	0	732
27.515	27.696	7740	16958	0	732
23.585	23.801	7571	16885	0	732
19.221	20.880	7368	16819	0	732
16.805	22.467	7232	16778	0	732
19.690	24.450	7147	16759	0	732
22.358	25.424	7029	16751	0	732
25.424	26.181	6944	16740	0	732
25.640	22.539	6859	16743	0	732
23.476	20.952	6774	16762	0	732
20.375	21.457	6723	16778	0	732
19.942	21.529	6639	16787	0	732
18.103	22.250	6605	16814	0	732
20.303	20.339	6639	16882	0	732
18.680	16.949	6774	17018	0	732
18.247	16.228	6944	17217	0	732
16.480	16.444	7147	17429	0	732
18.536	20.808	7401	17617	0	732
20.591	23.657	7656	17786	0	732
23.188	24.739	7910	17958	0	732
25.929	24.775	8215	18113	0	732
25.063	21.962	8588	18273	0	732
23.008	21.890	8978	18475	0	732
22.719	19.942	9520	18715	0	732
21.241	20.050	9995	18941	0	732
20.411	22.322	10503	19099	0	732
23.296	23.044	11046	19221	0	732
23.801	25.460	11723	19439	0	732
22.935	25.171	12537	19766	0	732
22.791	22.539	13334	20082	0	732
19.329	20.700	14062	20289	0	732
20.195	21.385	14859	20379	0	732
20.664	22.647	15537	20395	0	732
22.178	26.145	16266	20384	0	732
23.873	27.299	16977	20362	0	732
22.683	25.856	17655	20291	0	732
21.529	24.162	18248	20150	0	732
19.582	22.214	18875	19967	1	692
15.471	20.339	19468	19801	0	692
13.812	21.673	20146	19671	0	692
15.543	21.060	20790	19540	0	692
16.625	23.116	21299	19327	0	692
19.510	25.424	21756	19025	0	692
18.860	23.909	22231	18685	0	692
17.815	24.450	22604	18374	0	692
14.281	23.657	23028	18116	0	692
13.054	23.044	23451	17865	0	692
12.586	23.512	23621	17516	0	692
15.254	27.948	23841	17070	0	692
18.428	29.643	24011	16669	0	692
23.476	32.348	24214	16371	0	692
25.352	34.115	24350	16096	0	692
24.847	34.259	24383	15810	0	692
23.585	33.105	24519	15518	0	692
21.854	32.997	24519	15238	0	692
23.621	34.583	24519	15004	0	692
26.722	37.505	24553	14819	0	692
28.453	40.462	24604	14677	0	692
28.453	40.534	24553	14552	0	692
26.361	39.488	24519	14405	0	692
26.253	38.370	24434	14241	0	692
25.532	36.062	24350	14127	0	692
26.614	35.954	24265	14078	0	692
28.309	36.603	24214	14059	0	692
26.578	36.567	24095	14053	0	692
25.316	36.134	24045	14048	0	692
23.585	36.278	23960	14070	0	692
24.486	35.593	23875	14135	0	692
26.542	36.351	23875	14249	0	692
28.777	37.721	23841	14394	0	692
33.285	40.209	23841	14522	0	692
34.800	42.265	23756	14606	0	692
34.620	42.445	23756	14693	0	692
33.574	42.048	23706	14832	0	692
33.682	40.966	23790	15012	0	692
33.321	38.334	23756	15164	0	692
35.233	38.045	23756	15273	0	692
37.432	39.776	23706	15377	0	692
40.966	42.806	23706	15478	0	692
44.284	46.556	23587	15524	0	692
44.825	49.477	23536	15524	0	692
46.556	48.900	23417	15546	0	692
45.222	48.792	23333	15570	0	692
44.861	49.153	23112	15562	0	692
48.684	51.064	23028	15543	0	692
51.785	55.680	22909	15557	0	692
58.925	58.312	22773	15589	0	692
62.712	61.053	22655	15608	0	692
64.659	63.181	22434	15597	0	692
66.066	64.118	22265	15581	0	692
66.571	66.534	22146	15592	0	692
67.436	69.816	22061	15644	0	692
69.059	71.078	21977	15720	0	692
70.537	71.799	21841	15785	0	692
71.331	71.944	21756	15834	0	692
71.223	69.455	21722	15913	0	692
72.629	69.347	21638	16028	0	692
73.711	69.095	21587	16126	0	692
76.596	70.105	21502	16178	0	692
78.759	70.285	21417	16178	0	692
79.733	69.672	21299	16169	0	692
79.373	68.590	21248	16213	0	692
77.714	68.951	21248	16330	0	692
78.796	69.564	21299	16460	0	692
81.717	72.268	21248	16525	0	692
84.926	72.953	21129	16495	0	692
87.054	72.124	20960	16384	0	692
82.979	70.646	20739	16257	0	692
81.500	70.141	20621	16188	0	692
81.140	71.078	20485	16150	0	692
81.031	72.449	20316	16104	0	692
82.474	72.845	20146	16074	0	692
81.789	71.980	20061	16071	0	692
78.723	69.708	19858	16036	0	692
77.101	70.285	19468	15848	0	692
77.245	69.780	19045	15548	0	692
76.488	67.544	18706	15328	0	692
74.540	64.190	18333	15224	0	692
70.213	58.925	18078	15175	0	692
65.705	55.175	17909	15208	0	692
61.774	53.768	17655	15320	0	692
60.909	57.411	17519	15407	0	692
62.568	59.394	17265	15418	0	692
67.039	60.801	17011	15401	0	692
69.852	61.486	16756	15420	0	692
69.852	60.476	16587	15497	0	692
68.049	58.997	16468	15627	0	692
65.020	58.709	16384	15791	0	692
64.118	59.719	16300	15938	0	692
63.253	56.978	16215	16055	0	692
60.151	54.490	16130	16169	0	692
56.076	50.595	16096	16284	0	692
49.333	48.215	16012	16379	0	692
51.893	47.818	15927	16433	0	692
55.319	51.424	15791	16457	0	692
60.512	51.821	15673	16454	0	692
63.433	53.336	15588	16457	0	692
59.935	52.074	15452	16479	0	692
55.788	51.893	15283	16476	0	692
55.067	50.811	15164	16441	0	692
53.047	50.054	15029	16422	0	692
53.696	48.864	14910	16438	0	692
52.290	45.438	14774	16460	0	692
53.624	46.232	14740	16460	0	692
54.454	47.566	14520	16405	0	692
58.457	47.926	14181	16257	0	692
60.007	51.064	13927	16044	0	692
58.240	51.821	13554	15878	0	692
56.221	51.497	13334	15780	0	692
51.533	51.028	13079	15704	0	692
49.946	49.369	12740	15622	0	692
48.287	48.720	12401	15518	0	692
51.244	46.809	12113	15434	0	692
52.398	47.241	11978	15489	0	692
55.283	49.585	11893	15671	0	692
53.660	49.261	11859	15881	0	692
52.651	49.657	11808	16030	0	692
46.917	47.061	11690	16109	0	692
43.671	43.887	11605	16164	0	692
42.770	41.688	11435	16232	0	692
43.851	42.734	11384	16311	0	692
46.376	46.123	11300	16374	0	692
51.641	50.343	11181	16389	0	692
53.841	53.047	11046	16397	0	692
56.040	52.146	10961	16430	0	692
54.526	51.244	10961	16506	0	692
55.031	47.926	10876	16593	0	692
51.172	48.467	10842	16642	0	692
50.775	47.818	10757	16650	0	692
50.451	46.484	10707	16669	0	692
52.651	48.035	10673	16713	0	692
53.841	48.864	10673	16751	0	692
56.329	49.585	10537	16732	0	692
53.588	52.074	10283	16588	0	692
50.956	49.802	9995	16338	0	692
47.025	48.107	9740	16120	0	692
47.674	45.618	9435	15998	0	692
54.093	45.655	9232	15908	0	692
62.315	51.280	8927	15802	0	692
69.852	53.191	8639	15666	0	692
70.321	57.230	8300	15516	0	692
67.184	57.952	7961	15396	0	692
64.659	60.007	7707	15331	0	692
66.534	58.420	7452	15317	0	692
69.167	59.034	7198	15355	0	692
70.177	60.224	7029	15415	0	692
68.626	61.594	6859	15489	0	692
66.751	62.640	6808	15671	0	692
66.498	65.741	6893	15973	0	692
72.629	67.039	7029	16306	0	692
76.920	65.813	7147	16590	0	692
75.802	63.000	7232	16825	0	692
68.157	60.981	7452	17059	0	692
60.151	57.050	7707	17339	0	692
54.418	56.365	8079	17666	0	692
56.653	56.113	8418	18004	0	692
64.443	56.617	8842	18322	0	692
69.023	58.817	9351	18636	0	692
68.915	59.394	9859	18954	0	692
63.938	61.738	10503	19284	0	692
58.817	63.325	11181	19619	0	692
59.034	64.695	11859	19916	0	692
57.699	62.640	12571	20169	0	692
58.853	58.853	13334	20389	0	692
59.863	56.365	14096	20580	0	692
58.709	52.975	14859	20733	0	692
57.988	53.624	15673	20825	0	692
57.158	55.031	16351	20817	0	692
50.956	55.644	16892	20681	0	692
50.343	55.716	17485	20482	0	692
50.415	52.362	18078	20281	0	692
54.706	51.316	18587	20068	1	696
54.021	47.746	19129	19834	0	696
51.316	46.484	19604	19592	0	696
46.772	47.025	20146	19352	0	696
45.366	48.756	20570	19096	0	696
48.395	49.369	21045	18824	0	696
49.585	51.244	21468	18557	0	696
48.720	47.962	21892	18322	0	696
45.005	46.664	22265	18086	0	696
41.435	44.897	22655	17797	0	696
41.940	44.753	22858	17489	0	696
46.340	45.041	23163	17195	0	696
50.920	47.169	23367	16874	0	696
51.857	47.854	23417	16495	0	696
50.847	46.376	23536	16123	0	696
46.340	45.114	23587	15826	0	696
42.012	42.265	23756	15627	0	696
42.048	41.003	23926	15518	0	696
45.907	41.868	24095	15467	0	696
48.828	46.664	24299	15412	0	696
53.191	49.080	24434	15350	0	696
51.280	47.818	24638	15328	0	696
48.251	46.304	24892	15358	0	696
44.681	43.166	25061	15410	0	696
40.822	40.137	25231	15429	0	696
40.317	40.389	25451	15415	0	696
41.003	40.606	25536	15390	0	696
43.274	37.505	25655	15366	0	696
43.851	37.396	25790	15358	0	696
42.409	35.557	25909	15382	0	696
41.075	35.557	26045	15420	0	696
39.019	35.882	26078	15404	0	696
37.829	35.954	25994	15282	0	696
40.317	36.711	25875	15088	0	696
41.147	37.541	25739	14911	0	696
42.337	38.947	25621	14780	0	696
41.832	40.389	25451	14672	0	696
43.960	40.462	25197	14538	0	696
42.301	41.363	24943	14386	0	696
45.691	41.291	24773	14312	0	696
45.871	42.589	24689	14361	0	696
45.546	42.697	24553	14465	0	696
46.448	42.806	24383	14549	0	696
46.592	41.760	24299	14595	0	696
45.835	41.652	24129	14642	0	696
48.792	41.399	24011	14731	0	696
48.359	41.471	23960	14873	0	696
44.356	40.714	23875	15020	0	696
42.842	38.731	23841	15140	0	696
40.642	38.298	23756	15252	0	696
40.498	38.550	23756	15382	0	696
43.960	38.803	23706	15557	0	696
48.071	39.704	23756	15745	0	696
53.516	40.606	23706	15883	0	696
54.526	40.822	23756	15979	0	696
56.690	41.111	23672	16069	0	696
55.139	39.127	23672	16172	0	696
52.614	36.170	23756	16284	0	696
48.792	32.600	23706	16400	0	696
48.539	34.403	23790	16517	0	696
48.179	36.675	23756	16582	0	696
51.244	42.445	23706	16569	0	696
52.506	43.058	23587	16501	0	696
55.355	42.048	23536	16427	0	696
53.552	37.649	23367	16368	0	696
51.605	35.341	23282	16306	0	696
47.025	35.413	23112	16227	0	696
42.481	36.928	22909	16126	0	696
40.714	37.865	22773	16022	0	696
40.786	37.000	22570	15943	0	696
41.976	32.564	22400	15902	0	696
43.058	29.210	22231	15859	0	696
45.258	29.102	22011	15777	0	696
45.366	31.266	21722	15652	0	696
49.549	35.377	21333	15461	0	696
51.497	37.973	20960	15243	0	696
53.624	38.082	20621	15096	0	696
50.415	35.269	20282	15017	0	696
47.962	36.170	19977	14982	0	696
46.123	34.151	19773	15017	0	696
46.736	35.449	19604	15145	0	696
48.972	34.944	19519	15328	0	696
49.693	35.052	19434	15505	0	696
49.189	34.403	19265	15652	0	696
49.657	34.295	19265	15788	0	696
47.890	35.701	19129	15935	0	696
50.487	35.774	19129	16096	0	696
49.874	34.872	19045	16221	0	696
48.107	33.898	18790	16224	0	696
45.655	32.528	18587	16112	0	696
43.851	32.131	18367	16030	0	696
44.464	33.069	18197	16028	0	696
47.602	34.367	18028	16041	0	696
49.225	33.790	17773	16014	0	696
47.205	30.977	17434	15911	0	696
43.310	27.515	17095	15736	0	696
37.793	24.522	16756	15587	0	696
34.403	23.837	16553	15578	0	696
35.233	24.883	16417	15712	0	696
37.577	28.345	16300	15851	0	696
41.940	31.554	16096	15881	0	696
43.238	32.095	15842	15834	0	696
42.301	31.915	15588	15804	0	696
40.534	29.643	15368	15804	0	696
38.190	26.758	15079	15796	0	696
37.252	27.299	14740	15728	0	696
39.849	29.174	14435	15614	0	696
43.455	32.744	14096	15535	0	696
44.645	34.475	13893	15540	0	696
46.123	36.026	13639	15614	0	696
49.189	36.711	13469	15698	0	696
50.920	38.442	13215	15772	0	696
54.670	40.858	13079	15862	0	696
53.660	41.760	12995	15979	0	696
48.323	36.314	12876	16120	0	696
35.485	28.056	12791	16273	0	696
24.486	20.014	12740	16405	0	696
18.428	13.740	12707	16511	0	696
18.860	16.192	12622	16604	0	696
26.902	19.546	12571	16710	0	696
34.620	24.847	12571	16814	0	696
39.993	25.604	12537	16885	0	696
42.517	25.893	12537	16920	0	696
43.599	27.191	12401	16917	0	696
46.628	29.751	12232	16857	0	696
50.739	32.780	12113	16751	0	696
53.552	34.151	11893	16653	0	696
51.857	33.141	11774	16585	0	696
51.028	30.112	11605	16531	0	696
47.169	30.689	11384	16433	0	696
48.467	32.708	11096	16259	0	696
51.136	35.269	10707	16011	0	696
53.300	35.016	10283	15739	0	696
51.641	32.384	9910	15535	0	696
50.198	29.607	9605	15423	0	696
49.189	28.273	9232	15341	0	696
48.071	27.191	9012	15301	0	696
48.936	27.299	8673	15295	0	696
47.890	26.253	8249	15197	0	696
46.268	26.037	7740	14974	0	696
46.845	25.604	7368	14816	0	696
45.979	25.856	7062	14849	0	696
45.763	25.352	6808	15009	0	696
43.527	24.198	6723	15205	0	696
41.616	21.457	6554	15407	0	696
39.091	22.250	6520	15644	0	696
38.550	20.339	6520	15943	0	696
35.521	15.939	6639	16300	0	696
32.059	13.415	6859	16716	0	696
30.148	11.396	7198	17171	0	696
29.463	10.061	7537	17620	0	696
29.787	12.550	7961	18058	0	696
30.436	13.559	8503	18497	0	696
28.309	11.828	9012	18933	0	696
24.919	10.206	9690	19363	0	696
21.457	7.501	10452	19823	0	696
16.985	4.652	11266	20294	0	696
14.497	3.570	12147	20708	0	696
10.746	1.659	12995	21051	0	696
8.511	0.505	13893	21343	0	696
8.186	-2.056	14774	21574	0	696
6.744	-3.246	15707	21743	0	696
6.996	-2.524	16587	21846	0	696
5.121	-1.767	17400	21844	0	696
5.950	-1.226	18248	21751	0	696
5.193	-0.613	19045	21669	0	696
5.590	-1.046	19977	21612	0	696
6.203	-0.613	20790	21517	1	668
5.950	-0.325	21553	21332	0	668
2.560	-1.479	22231	21051	0	668
0.829	-3.498	22909	20714	0	668
-1.695	-7.681	23587	20360	0	668
-2.560	-8.366	24129	20006	0	668
-2.813	-9.412	24638	19635	0	668
-2.164	-8.871	25112	19208	0	668
-1.911	-7.104	25536	18726	0	668
-1.406	-5.626	25875	18241	0	668
-0.721	-4.003	26214	17824	0	668
-0.036	-3.895	26502	17465	0	668
0.541	-4.904	26807	17111	0	668
0.108	-6.022	27061	16727	0	668
0.577	-4.544	27146	16289	0	668
2.777	-2.849	27180	15813	0	668
4.364	-0.757	27180	15380	0	668
3.967	0.180	27231	15036	0	668
3.967	-0.433	27265	14772	0	668
3.137	0.757	27316	14568	0	668
3.967	2.164	27265	14380	0	668
6.491	4.364	27316	14203	0	668
8.979	5.373	27316	14075	0	668
12.117	6.744	27265	14004	0	668
16.156	7.970	27316	13947	0	668
16.877	10.927	27180	13860	0	668
18.175	12.009	27061	13767	0	668
14.894	12.009	27011	13729	0	668
13.848	13.271	26977	13784	0	668
12.982	12.189	27011	13912	0	668
13.704	11.251	27061	14059	0	668
16.444	14.028	27061	14192	0	668
15.975	13.668	27061	14323	0	668
15.939	13.668	27011	14377	0	668
12.405	12.081	26807	14328	0	668
7.681	9.232	26722	14296	0	668
4.327	6.347	26553	14342	0	668
4.364	4.327	26468	14437	0	668
12.261	7.212	26468	14579	0	668
21.024	10.530	26502	14789	0	668
29.535	13.451	26468	15015	0	668
30.581	16.192	26468	15175	0	668
28.597	16.156	26468	15284	0	668
24.775	16.156	26468	15412	0	668
23.116	17.093	26553	15587	0	668
24.775	15.182	26638	15788	0	668
25.893	15.579	26672	15968	0	668
26.794	12.045	26756	16109	0	668
27.047	11.684	26807	16229	0	668
26.433	13.054	26841	16346	0	668
26.145	13.271	26977	16460	0	668
28.525	16.372	27095	16601	0	668
29.679	15.290	27180	16713	0	668
29.102	13.127	27095	16702	0	668
25.532	9.989	27011	16577	0	668
18.175	5.626	26892	16413	0	668
14.713	2.921	26807	16284	0	668
12.658	0.938	26638	16186	0	668
16.877	1.803	26384	16028	0	668
20.375	0.252	26045	15755	0	668
22.575	1.767	25739	15502	0	668
18.320	-1.082	25570	15420	0	668
11.937	-6.058	25451	15502	0	668
3.137	-7.898	25400	15630	0	668
-2.308	-10.422	25367	15731	0	668
-3.210	-9.340	25282	15788	0	668
0.325	-6.635	25231	15834	0	668
4.940	-6.203	25146	15908	0	668
5.698	-6.960	25146	16014	0	668
1.767	-8.294	25112	16118	0	668
-4.652	-8.006	25112	16191	0	668
-7.104	-5.193	25061	16259	0	668
-7.753	-4.255	25112	16344	0	668
-5.950	-6.960	25146	16452	0	668
-5.265	-11.468	25146	16561	0	668
-7.429	-13.668	25197	16626	0	668
-9.989	-16.661	25197	16639	0	668
-11.468	-15.038	25146	16623	0	668
-13.595	-17.670	25061	16588	0	668
-17.346	-18.716	24977	16536	0	668
-20.700	-22.899	24858	16471	0	668
-23.116	-22.286	24773	16397	0	668
-21.962	-20.375	24638	16314	0	668
-16.444	-15.939	24434	16175	0	668
-13.235	-14.281	24265	16022	0	668
-12.946	-13.307	24180	15998	0	668
-14.028	-16.300	24129	16093	0	668
-20.231	-19.005	24045	16134	0	668
-22.503	-23.837	23841	16039	0	668
-25.063	-23.981	23672	15900	0	668
-26.397	-24.522	23536	15856	0	668
-24.630	-24.486	23502	15927	0	668
-23.801	-22.070	23417	16011	0	668
-22.070	-19.221	23333	16025	0	668
-19.618	-17.057	23078	15962	0	668
-18.860	-14.064	22943	15875	0	668
-16.733	-13.523	22739	15813	0	668
-18.211	-17.490	22519	15769	0	668
-22.431	-20.772	22350	15723	0	668
-25.207	-22.972	22146	15660	0	668
-29.354	-25.784	21841	15578	0	668
-28.669	-23.224	21638	15516	0	668
-26.686	-23.152	21417	15508	0	668
-24.053	-24.883	21248	15535	0	668
-24.414	-25.820	20994	15540	0	668
-24.342	-25.712	20790	15513	0	668
-22.214	-24.270	20536	15483	0	668
-22.286	-21.385	20231	15440	0	668
-22.647	-18.320	19977	15382	0	668
-24.414	-22.178	19722	15361	0	668
-29.102	-25.207	19468	15380	0	668
-31.879	-27.515	19180	15399	0	668
-31.626	-29.571	18960	15407	0	668
-29.787	-26.974	18672	15418	0	668
-26.073	-25.424	18451	15434	0	668
-22.395	-23.260	18163	15437	0	668
-20.988	-24.378	17824	15393	0	668
-19.618	-21.962	17400	15271	0	668
-21.565	-21.241	17011	15124	0	668
-27.335	-25.784	16553	15028	0	668
-33.646	-30.905	16215	15007	0	668
-40.426	-37.468	15842	15031	0	668
-44.140	-43.058	15503	15042	0	668
-44.464	-42.661	15029	14993	0	668
-41.796	-38.695	14605	14892	0	668
-39.524	-35.918	14062	14778	0	668
-39.380	-33.682	13639	14723	0	668
-38.045	-33.682	13215	14751	0	668
-38.154	-31.410	12791	14808	0	668
-35.233	-30.472	12452	14884	0	668
-34.187	-30.040	12198	15015	0	668
-34.187	-30.545	11944	15203	0	668
-36.711	-33.754	11723	15426	0	668
-41.580	-37.360	11435	15592	0	668
-46.736	-39.091	11046	15611	0	668
-48.395	-40.570	10757	15576	0	668
-49.766	-41.327	10503	15668	0	668
-50.523	-43.166	10334	15873	0	668
-50.415	-44.537	10164	16055	0	668
-52.867	-45.294	9995	16205	0	668
-52.975	-47.349	9910	16360	0	668
-53.300	-46.736	9740	16522	0	668
-52.218	-45.294	9690	16689	0	668
-54.850	-46.809	9690	16874	0	668
-55.499	-47.710	9656	17072	0	668
-58.601	-47.530	9740	17252	0	668
-60.224	-49.946	9740	17405	0	668
-57.122	-48.251	9825	17555	0	668
-54.129	-44.645	9910	17693	0	668
-47.494	-40.894	9995	17835	0	668
-44.645	-39.416	10113	17971	0	668
-42.229	-37.973	10249	18053	0	668
-41.219	-39.055	10368	18105	0	668
-41.111	-38.190	10622	18252	0	668
-39.921	-39.416	11012	18500	0	668
-38.947	-38.947	11384	18753	0	668
-40.606	-39.019	11774	18960	0	668
-44.176	-41.399	12232	19123	0	668
-46.989	-40.353	12707	19273	0	668
-48.576	-41.652	13164	19442	0	668
-49.549	-42.337	13757	19641	0	668
-47.422	-41.435	14351	19812	0	668
-47.710	-42.012	14944	19921	0	668
-47.241	-40.714	15537	20011	0	668
-44.104	-39.272	16266	20144	0	668
-41.616	-38.226	17011	20327	0	668
-38.911	-37.288	17824	20512	0	668
-37.541	-36.062	18587	20616	0	668
-37.360	-33.754	19299	20596	0	668
-38.442	-31.735	19892	20444	0	668
-36.711	-27.479	20451	20210	0	668
-32.131	-24.017	20994	19995	0	668
-26.470	-18.175	21553	19801	1	688
-22.755	-15.651	22095	19597	0	688
-17.779	-12.802	22604	19387	0	688
-16.444	-9.629	23163	19175	0	688
-12.153	-7.789	23672	18976	0	688
-9.232	-5.157	24299	18837	0	688
-6.311	-2.416	24807	18706	0	688
-6.239	-2.236	25231	18459	0	688
-7.212	-3.173	25536	18080	0	688
-8.330	-5.229	25790	17658	0	688
-7.825	-4.616	25994	17277	0	688
-5.085	-5.265	26248	16964	0	688
-2.452	-3.714	26502	16713	0	688
-3.246	-3.173	26756	16498	0	688
-6.960	-5.157	27011	16292	0	688
-8.330	-6.527	27146	16079	0	688
-6.996	-8.114	27316	15878	0	688
-1.442	-6.311	27519	15701	0	688
5.590	-4.255	27689	15559	0	688
11.792	0.361	27773	15429	0	688
13.848	3.895	27943	15325	0	688
14.317	5.590	28078	15262	0	688
19.582	8.078	28248	15211	0	688
23.080	8.835	28367	15143	0	688
23.476	7.068	28417	15083	0	688
19.473	5.698	28536	15053	0	688
9.520	3.029	28706	15064	0	688
3.282	0.938	28790	15129	0	688
1.983	-0.216	29045	15227	0	688
6.131	1.298	29180	15306	0	688
11.215	-0.793	29299	15355	0	688
8.655	-7.573	29468	15390	0	688
2.380	-12.802	29468	15388	0	688
-3.823	-15.146	29434	15303	0	688
-5.734	-14.894	29384	15148	0	688
-3.534	-12.261	29265	15023	0	688
-0.036	-7.140	29129	14941	0	688
-1.298	-8.907	29011	14829	0	688
-3.642	-10.674	28790	14691	0	688
-4.940	-10.458	28621	14601	0	688
-4.508	-9.268	28451	14571	0	688
-2.560	-10.350	28282	14552	0	688
-2.633	-12.982	28078	14500	0	688
-6.816	-13.163	27858	14446	0	688
-11.720	-16.444	27655	14446	0	688
-13.848	-14.461	27519	14524	0	688
-14.497	-15.002	27485	14666	0	688
-12.982	-16.228	27350	14824	0	688
-12.405	-17.779	27316	14974	0	688
-15.326	-20.988	27350	15159	0	688
-17.670	-20.952	27400	15412	0	688
-20.591	-18.680	27485	15685	0	688
-21.060	-19.726	27570	15913	0	688
-22.899	-19.221	27689	16101	0	688
-25.352	-22.358	27689	16267	0	688
-26.938	-23.729	27824	16419	0	688
-28.381	-23.621	27909	16571	0	688
-27.407	-23.765	27994	16699	0	688
-24.378	-18.860	28078	16759	0	688
-21.024	-18.716	28028	16754	0	688
-20.231	-15.290	28028	16740	0	688
-17.706	-15.362	27994	16740	0	688
-18.211	-12.874	28028	16743	0	688
-16.985	-12.802	28112	16757	0	688
-18.608	-10.638	28112	16792	0	688
-18.500	-10.674	28197	16822	0	688
-19.365	-12.153	28163	16817	0	688
-21.349	-13.956	28197	16773	0	688
-20.700	-15.903	28078	16675	0	688
-21.385	-17.743	27943	16517	0	688
-19.942	-15.435	27739	16327	0	688
-19.401	-16.084	27485	16090	0	688
-18.356	-13.668	27146	15810	0	688
-16.841	-14.208	26807	15508	0	688
-15.723	-11.107	26384	15233	0	688
-11.864	-7.862	25994	15015	0	688
-9.629	-4.147	25536	14819	0	688
-7.393	-3.318	25061	14598	0	688
-6.996	-2.849	24604	14380	0	688
-6.563	-4.472	24129	14219	0	688
-5.878	-5.878	23672	14143	0	688
-8.150	-4.724	23282	14116	0	688
-7.573	-3.750	22858	14091	0	688
-7.032	-2.633	22434	14086	0	688
-5.626	-0.361	22095	14138	0	688
-0.180	2.741	21807	14260	0	688
4.760	6.022	21468	14421	0	688
7.898	6.852	21163	14557	0	688
5.626	4.760	20875	14682	0	688
1.623	0.397	20621	14832	0	688
-1.767	-4.147	20400	15020	0	688
-4.183	-6.203	20197	15216	0	688
-2.849	-3.137	19977	15369	0	688
-0.036	0.252	19604	15404	0	688
2.019	3.101	19214	15336	0	688
2.921	6.708	18841	15292	0	688
3.462	6.635	18451	15336	0	688
4.832	8.006	18248	15410	0	688
5.445	7.176	17909	15480	0	688
7.321	9.160	17604	15554	0	688
8.871	9.629	17265	15627	0	688
11.504	10.169	17061	15723	0	688
12.441	13.848	16926	15900	0	688
12.550	14.425	16807	16112	0	688
11.937	13.812	16638	16237	0	688
11.864	16.444	16300	16246	0	688
12.189	16.805	16046	16207	0	688
14.136	20.700	15791	16194	0	688
18.788	22.431	15588	16227	0	688
18.464	21.854	15418	16300	0	688
18.356	19.834	15198	16379	0	688
13.812	15.254	14995	16422	0	688
11.792	13.559	14774	16424	0	688
10.819	14.713	14605	16433	0	688
13.163	14.966	14401	16468	0	688
18.788	18.139	14232	16495	0	688
22.070	19.870	13978	16476	0	688
25.027	23.440	13757	16438	0	688
28.669	27.155	13554	16433	0	688
32.420	29.643	13469	16482	0	688
34.692	28.164	13300	16541	0	688
35.160	24.558	13130	16563	0	688
30.905	19.726	12961	16552	0	688
22.827	14.281	12791	16552	0	688
16.841	13.668	12656	16574	0	688
12.405	14.425	12537	16610	0	688
16.444	13.884	12401	16604	0	688
18.572	14.497	12113	16492	0	688
21.781	12.982	11639	16243	0	688
19.546	11.432	11215	15935	0	688
19.257	14.353	10927	15753	0	688
16.697	14.425	10757	15780	0	688
18.752	18.356	10673	15946	0	688
18.680	19.365	10503	16093	0	688
18.392	21.421	10283	16118	0	688
16.516	20.736	10113	16071	0	688
15.543	20.411	9910	16047	0	688
14.821	17.057	9740	16074	0	688
17.526	15.218	9605	16145	0	688
15.146	13.523	9520	16243	0	688
16.264	13.776	9351	16322	0	688
14.930	14.100	9317	16376	0	688
18.897	16.841	9181	16427	0	688
20.772	18.464	9181	16506	0	688
24.919	23.332	9012	16571	0	688
23.801	23.332	8978	16593	0	688
21.962	23.080	8893	16618	0	688
20.700	21.132	8927	16721	0	688
19.834	19.113	8978	16901	0	688
24.594	23.296	9181	17094	0	688
29.138	25.676	9232	17230	0	688
30.761	28.777	9317	17304	0	688
33.646	28.273	9351	17372	0	688
33.466	28.020	9520	17470	0	688
34.259	28.237	9656	17574	0	688
35.341	27.371	9825	17639	0	688
35.846	29.318	9944	17680	0	688
35.160	29.968	10113	17740	0	688
34.800	31.374	10368	17840	0	688
34.187	33.826	10757	18001	0	688
35.413	35.882	11096	18208	0	688
35.882	37.216	11469	18412	0	688
36.062	36.711	11859	18557	0	688
34.764	36.711	12283	18649	0	688
34.583	35.124	12656	18731	0	688
32.564	33.249	13130	18810	0	688
31.735	31.446	13588	18878	0	688
31.230	31.626	14012	18930	0	688
34.583	34.692	14435	18933	0	688
36.747	39.452	14774	18864	0	688
39.452	41.399	15079	18742	0	688
39.163	42.157	15452	18611	0	688
36.314	40.822	15791	18513	0	688
35.377	41.075	16130	18421	1	692
37.180	42.878	16502	18344	0	692
39.812	46.664	17011	18361	0	692
40.714	46.520	17604	18467	0	692
39.993	45.943	18248	18595	0	692
38.298	44.068	18790	18712	0	692
37.649	44.284	19468	18799	0	692
39.740	44.537	20061	18856	0	692
40.317	46.484	20739	18919	0	692
41.868	46.376	21417	19003	0	692
41.471	45.979	22146	19069	0	692
41.255	43.058	22655	19017	0	692
42.553	43.419	23112	18794	0	692
43.671	44.392	23451	18483	0	692
44.717	46.917	23926	18249	0	692
44.933	49.225	24350	18116	0	692
46.195	51.569	24807	17996	0	692
46.015	50.018	25282	17854	0	692
47.097	50.234	25706	17718	0	692
49.153	51.172	26129	17587	0	692
50.343	52.975	26553	17451	0	692
52.831	56.329	27011	17383	0	692
54.959	59.971	27570	17410	0	692
58.060	62.423	28078	17394	0	692
60.476	64.840	28367	17239	0	692
64.226	68.157	28706	17010	0	692
65.525	68.374	28960	16797	0	692
66.859	70.898	29180	16623	0	692
68.878	73.711	29519	16462	0	692
68.878	74.865	29689	16297	0	692
70.429	74.973	29858	16112	0	692
67.616	74.216	30028	15922	0	692
64.659	72.160	30146	15747	0	692
61.702	70.646	30282	15606	0	692
62.568	70.141	30400	15478	0	692
66.426	73.098	30485	15341	0	692
71.727	76.307	30536	15213	0	692
74.144	79.120	30570	15113	0	692
72.593	80.022	30655	15047	0	692
67.977	76.271	30706	15009	0	692
65.020	73.639	30739	14963	0	692
66.102	71.150	30739	14903	0	692
68.049	71.872	30739	14857	0	692
70.357	73.711	30790	14851	0	692
71.186	74.324	30790	14876	0	692
69.564	73.062	30790	14884	0	692
66.895	69.672	30739	14873	0	692
65.128	67.616	30706	14854	0	692
63.109	66.030	30655	14840	0	692
61.414	63.505	30570	14838	0	692
59.791	62.676	30485	14832	0	692
58.024	62.532	30400	14819	0	692
59.214	62.027	30231	14775	0	692
60.368	62.099	29943	14655	0	692
61.414	62.532	29689	14508	0	692
62.676	59.611	29519	14470	0	692
62.099	57.411	29299	14544	0	692
57.303	53.516	29129	14573	0	692
52.831	53.011	28790	14508	0	692
53.155	51.713	28536	14418	0	692
54.057	53.119	28197	14375	0	692
59.611	51.136	27994	14402	0	692
62.135	51.208	27689	14484	0	692
60.476	48.612	27485	14554	0	692
58.781	49.477	27231	14582	0	692
55.752	52.182	26977	14639	0	692
56.762	53.516	26722	14761	0	692
61.846	55.644	26553	14903	0	692
62.243	53.877	26384	15028	0	692
60.801	51.424	26214	15137	0	692
59.611	49.621	26045	15252	0	692
55.572	49.261	25875	15382	0	692
52.398	48.576	25706	15516	0	692
52.398	48.936	25570	15644	0	692
51.641	46.520	25451	15777	0	692
52.470	43.310	25367	15908	0	692
50.126	40.101	25231	16022	0	692
43.960	38.406	25146	16131	0	692
39.849	37.613	25028	16243	0	692
35.954	39.704	24943	16327	1	316
38.442	41.255	24858	16379	0	316
43.202	40.894	24722	16408	0	316
43.779	38.947	24553	16416	0	316
40.714	36.242	24434	16392	0	316
36.242	32.600	24180	16335	0	316
31.302	30.545	23926	16262	0	316
31.446	28.273	23672	16161	0	316
32.023	29.643	23282	16006	0	316
35.774	32.023	23028	15848	0	316
39.163	35.882	22858	15826	0	316
42.481	40.281	22655	15924	0	316
43.274	40.678	22519	15998	0	316
42.986	37.649	22265	15951	0	316
40.389	34.439	21892	15821	0	316
38.550	30.617	21587	15687	0	316
36.531	28.850	21299	15617	0	316
33.970	28.561	20994	15589	0	316
32.384	26.866	20706	15568	0	316
31.122	26.181	20400	15535	0	316
31.230	26.361	20146	15529	0	316
32.167	25.712	19892	15568	0	316
30.184	25.640	19722	15636	0	316
28.597	24.306	19519	15715	0	316
24.125	23.404	19299	15774	0	316
21.277	21.204	19095	15807	0	316
21.349	20.808	18875	15851	0	316
21.241	22.431	18756	15938	0	316
22.250	19.798	18536	16036	0	316
20.555	17.743	18333	16052	0	316
17.959	15.687	17994	15924	0	316
16.048	14.064	17519	15717	0	316
15.759	12.514	17180	15576	0	316
15.182	13.704	16841	15535	0	316
18.428	15.759	16553	15527	0	316
18.752	16.769	16266	15516	0	316
20.303	20.267	15927	15510	0	316
25.027	21.565	15622	15502	0	316
23.981	22.142	15334	15491	0	316
23.765	23.188	14995	15502	0	316
24.522	20.808	14740	15557	0	316
24.450	21.096	14520	15641	0	316
26.758	22.719	14232	15690	0	316
31.843	24.306	13978	15693	0	316
35.160	28.056	13588	15663	0	316
37.468	29.066	13215	15568	0	316
38.154	30.508	12740	15431	0	316
38.586	27.768	12317	15341	0	316
35.197	25.748	11944	15314	0	316
33.862	24.739	11639	15333	0	316
33.249	23.188	11351	15410	0	316
33.105	22.863	11130	15538	0	316
35.521	25.856	10927	15679	0	316
40.498	28.958	10707	15802	0	316
45.546	34.692	10452	15889	0	316
52.831	36.531	10283	15968	0	316
57.266	41.471	10164	16093	0	316
59.214	42.084	9995	16262	0	316
57.158	43.455	9859	16405	0	316
56.726	43.166	9825	16525	0	316
56.040	43.238	9740	16667	0	316
56.329	43.347	9740	16836	0	316
60.801	44.140	9740	17004	0	316
63.469	44.140	9656	17122	0	316
68.085	44.753	9605	17141	0	316
74.107	45.691	9401	17051	0	316
77.786	47.926	9232	16917	0	316
78.579	50.198	8978	16800	0	316
77.137	52.795	8808	16708	0	316
73.639	47.494	8554	16634	0	316
71.619	43.743	8385	16571	0	316
72.917	42.337	8130	16492	0	316
74.288	42.697	7961	16424	0	316
77.425	45.727	7876	16449	0	316
77.533	46.736	7876	16555	0	316
79.228	47.602	7791	16650	0	316
80.022	45.727	7707	16683	0	316
81.753	46.015	7656	16694	0	316
83.303	48.431	7707	16781	0	316
86.008	49.189	7876	16983	0	316
85.792	51.388	8046	17239	0	316
86.909	49.910	8249	17478	0	316
85.215	46.592	8503	17674	0	316
81.572	43.779	8757	17843	0	316
81.644	42.914	9012	18020	0	316
82.041	44.609	9435	18241	0	316
84.854	48.251	9825	18489	0	316
88.713	50.270	10249	18715	0	316
88.785	48.792	10707	18892	0	316
91.922	49.189	11130	19014	0	316
91.742	49.080	11639	19129	0	316
93.509	50.811	12198	19276	0	316
94.735	53.949	12740	19425	0	316
94.446	54.634	13334	19548	0	316
94.519	56.329	13927	19651	0	316
95.673	56.870	14571	19744	0	316
97.620	55.788	15249	19842	0	316
98.738	57.339	15961	19973	0	316
100.361	56.978	16722	20117	0	316
101.551	56.870	17485	20199	0	316
100.433	59.250	18112	20177	0	316
100.613	57.339	18841	20082	0	316
98.485	58.529	19468	19997	0	316
99.279	59.863	20231	19965	0	316
99.712	60.981	20875	19886	1	416
103.967	62.099	21417	19665	0	416
108.583	65.200	21892	19349	0	416
112.477	68.229	22316	19006	0	416
115.254	72.845	22739	18682	0	416
117.490	76.740	23112	18385	0	416
117.418	78.543	23451	18067	0	416
117.851	74.901	23706	17704	0	416
116.949	71.763	24045	17375	0	416
118.608	69.275	24299	17113	0	416
117.166	68.338	24604	16868	0	416
115.110	70.032	24807	16599	0	416
115.326	71.799	24977	16327	0	416
114.641	70.718	25112	16071	0	416
115.254	69.492	25231	15843	0	416
118.752	69.203	25451	15663	0	416
120.411	68.987	25570	15529	0	416
116.120	69.203	25739	15412	0	416
115.002	70.465	25875	15301	0	416
112.946	69.275	25960	15197	0	416
112.550	69.347	26045	15102	0	416
115.038	69.203	26129	15015	0	416
118.356	71.078	26163	14919	0	416
122.395	73.098	26163	14816	0	416
124.919	76.668	26078	14691	0	416
128.092	77.281	25960	14516	0	416
129.427	78.832	25790	14323	0	416
127.191	80.310	25621	14173	0	416
128.164	81.031	25485	14094	0	416
127.696	81.969	25282	14029	0	416
128.922	82.654	24977	13906	0	416
132.276	81.031	24689	13748	0	416
132.348	78.507	24434	13648	0	416
129.138	76.704	24180	13642	0	416
127.335	73.639	23926	13699	0	416
121.637	72.953	23756	13770	0	416
122.683	74.937	23451	13814	0	416
124.522	79.120	23248	13865	0	416
128.777	82.726	23028	13969	0	416
130.617	84.962	22858	14119	0	416
129.715	83.520	22689	14288	0	416
129.354	80.851	22519	14435	0	416
128.850	78.832	22231	14524	0	416
128.128	78.759	21926	14524	0	416
129.571	80.166	21672	14519	0	416
130.040	82.077	21468	14628	0	416
129.895	84.061	21299	14816	0	416
131.554	86.729	21163	15004	0	416
133.682	85.395	21045	15208	0	416
134.439	86.477	20994	15456	0	416
136.855	88.280	20994	15715	0	416
138.298	93.256	20875	15883	0	416
138.622	95.925	20621	15900	0	416
136.711	97.620	20451	15848	0	416
134.583	96.899	20231	15862	0	416
132.889	94.555	20112	15957	0	416
131.338	92.932	19977	16090	0	416
132.528	94.627	19943	16237	0	416
133.646	96.754	19943	16382	0	416
134.764	96.538	19858	16501	0	416
134.006	97.079	19892	16634	0	416
135.233	99.207	20061	16857	0	416
135.701	100.649	20231	17160	0	416
135.737	103.029	20400	17416	0	416
136.495	104.111	20485	17549	0	416
135.557	102.633	20621	17587	0	416
133.105	99.892	20655	17590	0	416
132.708	97.872	20655	17560	0	416
131.410	95.781	20570	17459	0	416
130.725	92.427	20536	17288	0	416
124.955	87.198	20367	17102	0	416
121.637	82.654	20231	16950	0	416
117.634	81.140	20146	16827	0	416
119.654	80.238	20028	16718	0	416
121.421	82.474	19943	16626	0	416
126.145	83.231	19773	16531	0	416
124.089	81.608	19604	16392	0	416
124.666	84.890	19299	16164	0	416
123.945	87.883	18960	15889	0	416
126.433	89.542	18756	15698	0	416
127.984	91.598	18451	15600	0	416
130.292	92.391	18282	15543	0	416
133.033	90.804	18112	15524	0	416
135.233	94.122	17943	15548	0	416
138.262	94.302	17858	15608	0	416
139.812	95.023	17739	15676	0	416
139.668	95.889	17570	15698	0	416
138.550	96.250	17316	15627	0	416
136.675	95.636	17011	15491	0	416
137.505	96.502	16722	15347	0	416
137.721	96.935	16384	15252	0	416
140.029	96.177	16096	15213	0	416
142.842	98.810	15876	15219	0	416
144.248	101.334	15622	15243	0	416
142.373	101.479	15452	15306	0	416
139.524	98.882	15418	15448	0	416
136.855	95.925	15334	15668	0	416
135.737	91.778	15249	15883	0	416
134.583	90.732	15198	16028	0	416
135.521	89.650	15113	16099	0	416
135.377	90.516	14944	16131	0	416
136.603	89.398	14825	16164	0	416
138.514	87.739	14740	16194	0	416
141.652	90.408	14520	16188	0	416
142.409	91.417	14317	16134	0	416
141.291	95.528	14096	16079	0	416
136.855	93.004	13893	16071	0	416
133.718	89.362	13757	16096	0	416
130.869	86.152	13639	16109	0	416
130.004	83.520	13384	16071	0	416
130.977	83.700	13164	16011	0	416
131.626	87.631	12961	15973	0	416
131.013	89.506	12740	15965	0	416
130.617	93.509	12571	15971	0	416
130.941	94.158	12401	15998	0	416
133.069	93.509	12232	16041	0	416
133.862	91.273	12062	16066	0	416
130.653	84.782	11893	16052	0	416
124.414	81.356	11723	16028	0	416
114.858	79.950	11520	16006	0	416
109.196	78.363	11215	15949	0	416
105.878	75.514	10876	15815	0	416
105.914	72.845	10503	15641	0	416
106.383	68.915	10249	15540	0	416
104.472	64.767	10079	15587	0	416
101.226	63.577	9910	15720	0	416
97.656	66.462	9690	15826	0	416
96.899	69.095	9520	15848	0	416
98.269	73.927	9232	15804	0	416
101.659	77.137	9012	15753	0	416
104.760	77.822	8723	15736	0	416
104.508	77.533	8554	15766	0	416
101.442	75.009	8385	15813	0	416
97.692	73.278	8079	15840	0	416
93.797	73.098	7910	15864	0	416
92.499	72.268	7740	15916	0	416
91.273	71.367	7571	15984	0	416
92.211	71.078	7401	16050	0	416
91.057	69.816	7232	16085	0	416
91.417	67.977	7062	16107	0	416
90.299	64.912	6893	16131	0	416
88.100	64.335	6690	16139	0	416
86.946	63.469	6520	16107	0	416
84.529	61.810	6130	16001	0	416
82.402	62.459	5673	15783	0	416
80.202	61.738	5198	15527	0	416
77.786	61.269	4859	15369	0	416
75.334	60.728	4486	15341	0	416
76.019	62.027	4266	15390	0	416
75.658	65.308	3978	15450	0	416
79.120	67.292	3673	15467	0	416
80.382	68.049	3384	15453	0	416
80.959	69.708	3130	15486	0	416
80.166	66.246	2995	15625	0	416
79.733	65.994	2961	15875	0	416
80.166	65.453	2995	16188	0	416
80.418	66.534	3130	16539	0	416
80.238	68.878	3334	16928	0	416
82.113	71.078	3673	17339	0	416
80.130	71.439	3978	17759	0	416
77.858	69.059	4486	18203	0	416
74.576	65.957	4944	18641	0	416
68.374	60.692	5503	19020	0	416
62.712	54.959	6130	19385	0	416
61.955	53.732	6774	19769	0	416
62.856	54.670	7452	20134	0	416
65.380	54.382	8164	20425	0	416
64.948	57.807	8893	20626	0	416
64.263	58.132	9571	20771	0	416
62.495	58.601	10334	20896	0	416
62.820	62.171	11096	21032	0	416
65.957	65.669	11859	21136	0	416
69.708	69.167	12571	21133	0	416
71.511	69.888	13300	21046	0	416
71.908	68.446	13978	20948	0	416
69.708	65.921	14740	20863	0	416
66.498	64.876	15418	20754	1	704
66.030	62.748	16096	20594	0	704
63.253	63.541	16722	20387	0	704
64.587	62.964	17316	20139	0	704
62.676	64.335	17824	19839	0	704
61.774	64.767	18417	19523	0	704
59.178	64.876	18926	19278	0	704
54.922	62.676	19519	19061	0	704
52.867	59.611	19858	18726	0	704
47.962	55.319	20146	18260	0	704
46.412	55.427	20367	17751	0	704
46.809	54.345	20536	17266	0	704
47.818	58.132	20706	16844	0	704
50.523	58.997	20875	16501	0	704
48.972	58.457	21045	16216	0	704
48.179	57.916	21163	15935	0	704
45.258	55.211	21299	15655	0	704
42.770	55.536	21384	15415	0	704
42.842	52.614	21502	15233	0	704
46.484	55.391	21587	15061	0	704
52.146	59.142	21553	14876	0	704
58.384	65.777	21587	14691	0	704
61.522	73.098	21587	14557	0	704
60.404	76.632	21672	14500	0	704
56.293	73.639	21672	14470	0	704
51.929	70.141	21672	14405	0	704
53.660	67.147	21638	14328	0	704
53.732	66.534	21587	14296	0	704
54.670	68.662	21587	14320	0	704
49.946	69.167	21587	14358	0	704
46.340	68.734	21553	14375	0	704
45.474	67.436	21468	14377	0	704
47.674	64.731	21384	14377	0	704
49.405	64.623	21214	14334	0	704
51.172	64.479	21045	14255	0	704
43.238	62.640	20875	14247	0	704
39.921	62.856	20790	14328	0	704
39.308	61.197	20621	14399	0	704
44.248	61.882	20451	14432	0	704
48.720	63.000	20282	14473	0	704
53.444	63.577	20146	14524	0	704
54.309	64.876	20028	14584	0	704
52.831	65.380	19807	14661	0	704
51.208	64.371	19604	14699	0	704
49.441	64.118	19434	14699	0	704
50.559	61.017	19214	14751	0	704
49.585	58.240	19095	14873	0	704
53.696	58.276	18926	15001	0	704
53.552	58.132	18706	15085	0	704
52.831	58.240	18587	15145	0	704
49.008	57.591	18451	15213	0	704
48.395	54.526	18282	15312	0	704
49.874	53.841	18163	15429	0	704
51.280	51.965	17943	15513	0	704
52.434	52.614	17773	15546	0	704
49.621	48.107	17604	15562	0	704
45.835	45.727	17434	15627	0	704
40.858	42.878	17350	15753	0	704
40.498	42.445	17350	15908	0	704
41.940	43.491	17180	16025	0	704
44.068	45.763	17011	16033	0	704
48.035	46.989	16807	15962	0	704
48.648	45.438	16587	15943	0	704
47.890	45.691	16502	16022	0	704
46.484	45.727	16417	16137	0	704
43.996	44.428	16351	16246	0	704
42.048	43.527	16300	16352	0	704
40.894	41.688	16300	16457	0	704
38.298	38.334	16266	16558	0	704
37.108	35.557	16181	16623	0	704
36.928	34.944	16130	16650	0	704
36.747	34.006	16046	16645	0	704
36.891	33.466	15876	16585	0	704
36.098	32.131	15707	16487	0	704
34.079	32.456	15452	16376	0	704
34.583	33.357	15198	16199	0	704
34.872	31.194	14825	15965	0	704
34.547	31.662	14520	15780	0	704
33.574	29.246	14232	15660	0	704
29.030	26.866	13927	15597	0	704
25.676	25.640	13757	15606	0	704
24.739	25.352	13588	15676	0	704
26.938	26.145	13418	15758	0	704
32.564	28.237	13334	15813	0	704
34.006	31.626	13130	15870	0	704
33.213	31.230	13079	15971	0	704
30.364	30.977	13079	16112	0	704
25.929	30.256	13046	16262	0	704
22.863	29.246	12961	16376	0	704
24.919	31.662	12961	16462	0	704
26.073	35.341	12910	16550	0	704
24.702	36.639	12910	16650	0	704
20.267	36.098	12961	16751	0	704
15.398	33.357	12995	16838	0	704
13.307	29.823	12961	16895	0	704
16.372	28.669	12876	16901	0	704
23.693	28.056	12876	16874	0	704
29.643	29.895	12825	16836	0	704
29.643	28.489	12707	16776	0	704
25.640	26.325	12537	16686	0	704
22.575	23.332	12368	16563	0	704
22.178	23.693	12147	16386	0	704
26.073	25.676	11944	16199	0	704
32.312	29.391	11774	16137	0	704
38.550	33.970	11723	16202	0	704
39.163	35.305	11554	16227	0	704
36.928	35.088	11351	16118	0	704
32.672	34.259	11096	15938	0	704
28.237	33.393	10842	15774	0	704
29.030	35.737	10588	15666	0	704
35.810	41.111	10368	15619	0	704
45.005	47.313	10113	15592	0	704
51.244	50.631	9859	15535	0	704
52.074	50.415	9690	15491	0	704
43.996	45.222	9435	15494	0	704
33.610	39.452	9232	15483	0	704
24.342	31.266	8842	15407	0	704
19.618	26.470	8588	15312	0	704
16.228	21.349	8215	15246	0	704
17.670	20.664	7961	15230	0	704
20.014	22.178	7791	15276	0	704
23.693	26.542	7571	15369	0	704
27.948	30.436	7368	15453	0	704
28.561	32.420	7147	15513	0	704
26.794	32.744	6978	15578	0	704
27.191	31.338	6808	15660	0	704
29.066	31.049	6639	15736	0	704
33.574	31.951	6435	15794	0	704
32.672	31.194	6266	15851	0	704
28.922	31.662	6046	15894	0	704
21.601	31.194	5757	15870	0	704
21.818	30.761	5418	15755	0	704
24.666	32.997	4995	15551	0	704
29.643	34.295	4401	15290	0	704
31.951	34.800	3927	15050	0	704
29.499	34.908	3384	14879	0	704
27.696	33.538	2876	14756	0	704
24.378	33.429	2486	14707	0	704
23.837	33.393	2147	14764	0	704
25.207	32.528	1859	14903	0	704
28.273	31.626	1554	15042	0	704
31.122	29.282	1266	15156	0	704
32.203	26.974	1130	15331	0	704
29.571	25.640	1012	15589	0	704
25.748	24.306	927	15875	0	704
24.306	25.171	876	16142	0	704
26.830	28.020	876	16394	0	704
29.931	29.318	927	16664	0	704
31.338	28.489	1046	16983	0	704
28.237	28.705	1300	17367	0	704
24.306	26.217	1605	17789	0	704
20.591	26.830	2029	18192	0	704
21.241	29.571	2452	18559	0	704
25.568	30.220	2876	18905	0	704
30.941	28.489	3384	19251	0	704
31.122	25.135	3978	19597	0	704
22.935	22.322	4571	19916	0	704
14.100	19.618	5249	20196	0	704
7.573	21.565	5927	20452	0	704
9.304	23.440	6639	20684	0	704
13.920	23.080	7452	20910	0	704
17.093	21.962	8334	21196	0	704
11.251	19.329	9351	21506	0	704
6.960	16.084	10198	21710	0	704
5.734	17.743	11096	21762	0	704
9.412	19.005	11944	21738	0	704
13.415	22.791	12876	21710	0	704
15.146	23.044	13757	21689	0	704
11.468	24.306	14520	21585	0	704
10.025	25.063	15198	21321	1	676
11.396	25.063	15791	20910	0	676
13.343	24.666	16300	20449	0	676
14.641	25.748	16756	20008	0	676
16.300	26.830	17231	19583	0	676
18.103	31.771	17655	19148	0	676
24.522	37.865	17943	18677	0	676
30.220	42.409	18282	18224	0	676
30.004	41.327	18672	17838	0	676
29.246	39.199	18926	17492	0	676
24.270	35.918	19214	17151	0	676
23.512	32.348	19434	16797	0	676
21.132	30.797	19638	16457	0	676
18.103	26.578	19858	16178	0	676
13.992	22.755	20112	15962	0	676
14.749	23.549	20316	15791	0	676
18.211	24.053	20451	15589	0	676
23.693	25.532	20451	15271	0	676
22.791	25.532	20316	14854	0	676
15.326	23.512	20282	14495	0	676
8.871	20.375	20197	14271	0	676
8.655	21.673	20112	14116	0	676
13.884	21.962	20028	13991	0	676
21.132	21.168	19977	13912	0	676
19.906	21.998	19943	13871	0	676
16.985	20.447	19892	13863	0	676
13.668	22.755	19943	13934	0	676
15.254	24.847	19977	14056	0	676
22.431	25.243	19892	14124	0	676
26.470	23.909	19773	14102	0	676
22.827	22.683	19604	14042	0	676
14.353	18.608	19468	14012	0	676
8.835	20.375	19299	14048	0	676
9.304	23.116	19265	14127	0	676
17.779	26.722	19045	14168	0	676
25.532	29.859	18790	14151	0	676
26.974	29.463	18672	14146	0	676
21.818	22.503	18451	14200	0	676
10.891	16.949	18282	14304	0	676
7.357	13.776	18163	14435	0	676
9.809	16.300	17943	14552	0	676
16.012	21.385	17909	14674	0	676
24.270	27.696	17773	14810	0	676
29.030	30.256	17570	14895	0	676
26.325	27.804	17316	14919	0	676
21.096	23.080	17095	14944	0	676
17.093	21.890	16926	15009	0	676
14.605	20.087	16807	15115	0	676
14.353	19.834	16722	15268	0	676
19.113	22.178	16638	15464	0	676
20.303	23.440	16587	15657	0	676
19.041	22.683	16502	15823	0	676
19.293	23.765	16468	15965	0	676
16.156	25.279	16417	16079	0	676
18.752	26.470	16417	16207	0	676
18.933	25.460	16502	16419	0	676
19.257	24.739	16587	16661	0	676
16.408	21.565	16587	16773	0	676
15.146	20.952	16468	16721	0	676
16.805	22.070	16300	16610	0	676
22.395	23.440	16215	16536	0	676
25.352	24.775	16130	16533	0	676
24.775	23.945	16046	16563	0	676
22.791	20.988	15927	16541	0	676
17.959	21.493	15791	16462	0	676
20.123	21.493	15707	16422	0	676
21.637	23.152	15622	16460	0	676
21.277	25.171	15622	16503	0	676
19.401	23.080	15537	16514	0	676
14.677	21.709	15452	16509	0	676
13.884	23.152	15368	16517	0	676
17.021	23.873	15368	16539	0	676
21.385	25.784	15334	16539	0	676
26.217	27.479	15198	16487	0	676
27.299	25.279	15029	16400	0	676
25.965	22.070	14910	16322	0	676
23.152	22.467	14825	16270	0	676
23.981	24.630	14690	16273	0	676
26.794	26.289	14656	16306	0	676
27.227	26.001	14605	16314	0	676
27.479	25.929	14435	16286	0	676
24.342	22.070	14401	16257	0	676
20.123	20.087	14266	16240	0	676
17.274	22.791	14232	16232	0	676
19.221	23.116	14062	16221	0	676
20.159	24.162	14012	16199	0	676
23.729	24.162	13808	16148	0	676
25.099	21.493	13588	16022	0	676
26.542	19.437	13249	15837	0	676
26.614	18.247	12995	15674	0	676
23.621	19.654	12791	15565	0	676
18.824	17.634	12486	15478	0	676
17.021	18.680	12113	15377	0	676
16.156	19.077	11808	15262	0	676
22.070	19.149	11520	15184	0	676
25.676	20.916	11266	15178	0	676
29.751	20.988	11096	15238	0	676
25.460	20.736	10876	15298	0	676
21.565	18.644	10588	15301	0	676
17.526	19.798	10249	15235	0	676
19.113	17.346	9944	15151	0	676
19.942	17.562	9605	15115	0	676
20.952	15.398	9317	15140	0	676
19.546	16.120	9062	15184	0	676
16.877	15.651	8808	15243	0	676
19.582	18.067	8588	15325	0	676
24.162	18.464	8385	15399	0	676
30.112	20.700	8130	15456	0	676
30.256	20.375	7910	15540	0	676
25.424	19.834	7791	15676	0	676
17.418	22.070	7707	15834	0	676
15.543	21.349	7571	15998	0	676
15.939	21.745	7486	16164	0	676
20.303	20.447	7452	16333	0	676
17.454	18.283	7452	16514	0	676
12.694	17.129	7452	16680	0	676
4.760	16.516	7401	16778	0	676
3.787	18.320	7283	16819	0	676
8.078	18.897	7232	16852	0	676
14.677	18.644	7198	16898	0	676
19.798	20.123	7147	16936	0	676
17.418	24.053	7062	16928	0	676
13.884	25.929	6893	16871	0	676
11.432	26.397	6808	16811	0	676
16.516	25.279	6690	16787	0	676
21.998	21.854	6690	16787	0	676
25.604	19.510	6520	16762	0	676
24.198	22.899	6351	16675	0	676
17.779	23.549	6181	16569	0	676
14.497	24.162	6012	16482	0	676
14.749	24.811	5791	16386	0	676
20.014	22.395	5588	16259	0	676
21.060	19.005	5334	16104	0	676
19.546	17.779	5079	15965	0	676
11.071	16.156	4825	15878	0	676
5.193	16.877	4656	15853	0	676
3.065	19.942	4435	15867	0	676
7.789	21.457	4317	15870	0	676
14.136	20.411	4096	15862	0	676
18.969	18.536	3978	15864	0	676
18.824	13.307	3757	15859	0	676
17.346	13.523	3588	15859	0	676
17.129	16.012	3554	15919	0	676
18.031	18.752	3469	16044	0	676
18.428	19.221	3469	16207	0	676
17.057	19.473	3554	16394	0	676
18.536	16.048	3639	16612	0	676
18.175	15.687	3757	16825	0	676
21.168	16.156	3927	17026	0	676
20.808	16.516	4062	17222	0	676
15.867	17.202	4351	17427	0	676
13.054	15.903	4605	17685	0	676
10.386	17.346	5164	18053	0	676
10.386	16.336	5757	18508	0	676
16.228	18.283	6300	18930	0	676
22.899	18.933	6893	19238	0	676
31.374	21.421	7486	19455	0	676
34.836	21.060	7995	19602	0	676
33.285	20.447	8469	19605	0	676
26.109	19.726	8808	19488	0	676
17.129	17.021	9181	19398	0	676
15.002	17.526	9656	19352	0	676
15.290	16.552	10079	19303	0	676
18.788	18.175	10537	19276	0	676
18.752	15.831	11130	19311	0	676
20.303	17.670	11723	19376	0	676
17.310	15.435	12317	19425	0	676
17.166	15.146	12995	19453	0	676
16.336	14.713	13588	19474	0	676
17.418	13.848	14317	19513	0	676
15.038	13.271	14944	19551	0	676
13.415	10.999	15622	19540	0	676
10.242	9.448	16266	19474	0	676
9.304	11.828	16892	19385	0	676
14.208	14.677	17519	19281	0	676
20.555	16.084	18112	19159	1	700
23.260	17.382	18621	18987	0	700
18.392	11.540	19129	18766	0	700
10.819	9.520	19553	18489	0	700
6.852	11.360	19773	18124	0	700
10.530	14.605	20028	17688	0	700
20.159	18.392	20231	17263	0	700
24.017	16.444	20367	16893	0	700
21.673	12.910	20485	16541	0	700
12.081	9.160	20485	16164	0	700
8.439	10.386	20536	15764	0	700
10.855	16.841	20485	15412	0	700
19.149	21.926	20485	15151	0	700
28.417	24.522	20570	14966	0	700
29.823	22.178	20536	14802	0	700
24.594	16.444	20485	14623	0	700
15.867	14.966	20400	14448	0	700
12.333	16.733	20367	14312	0	700
15.975	20.591	20282	14225	0	700
21.277	23.549	20282	14184	0	700
24.089	23.080	20197	14165	0	700
20.880	17.093	20146	14170	0	700
11.973	14.389	20146	14233	0	700
6.996	12.514	20231	14375	0	700
9.016	17.202	20316	14557	0	700
14.389	19.473	20367	14710	0	700
20.988	23.224	20400	14827	0	700
25.243	20.844	20451	14947	0	700
24.594	18.247	20536	15088	0	700
22.683	13.920	20570	15235	0	700
19.221	13.668	20621	15350	0	700
18.500	12.730	20739	15437	0	700
16.877	13.956	20706	15518	0	700
20.303	15.615	20706	15576	0	700
21.457	15.651	20706	15622	0	700
24.991	19.401	20790	15747	0	700
28.056	19.401	20960	15951	0	700
26.578	18.824	21045	16093	0	700
22.755	14.100	20994	16085	0	700
19.005	10.602	20909	15990	0	700
15.507	7.825	20790	15900	0	700
20.700	10.999	20706	15845	0	700
26.974	17.779	20570	15791	0	700
31.518	21.529	20451	15704	0	700
31.410	23.008	20197	15576	0	700
30.148	21.457	19977	15472	0	700
28.886	18.283	19858	15442	0	700
30.653	18.247	19773	15464	0	700
28.886	16.589	19638	15499	0	700
26.938	17.743	19519	15524	0	700
24.089	15.903	19468	15578	0	700
26.974	17.923	19434	15690	0	700
28.886	17.202	19434	15829	0	700
31.158	17.923	19434	15951	0	700
27.263	15.579	19350	16028	0	700
21.601	13.054	19350	16060	0	700
17.202	12.586	19265	16096	0	700
19.978	12.333	19214	16172	0	700
25.027	15.651	19214	16243	0	700
26.109	14.894	19011	16180	0	700
24.847	14.641	18672	15924	0	700
21.277	13.235	18248	15611	0	700
16.985	11.360	17994	15407	0	700
19.221	13.235	17689	15312	0	700
23.152	15.471	17400	15252	0	700
26.650	15.182	17146	15222	0	700
28.056	16.769	16926	15246	0	700
26.578	13.018	16756	15322	0	700
20.664	13.776	16638	15429	0	700
16.913	13.343	16553	15540	0	700
13.163	15.759	16417	15649	0	700
14.533	19.077	16300	15739	0	700
18.897	18.356	16096	15766	0	700
24.883	19.077	15876	15736	0	700
24.125	15.687	15673	15717	0	700
21.204	15.146	15537	15766	0	700
19.618	14.461	15452	15878	0	700
20.195	17.706	15368	16022	0	700
25.135	17.238	15334	16150	0	700
27.984	18.139	15198	16240	0	700
24.883	13.631	15198	16311	0	700
18.031	12.910	15079	16374	0	700
15.038	15.795	14995	16411	0	700
18.464	21.024	14859	16405	0	700
27.263	26.037	14690	16374	0	700
31.987	26.650	14571	16357	0	700
28.345	20.375	14486	16386	0	700
18.500	12.081	14351	16422	0	700
8.006	6.455	14266	16405	0	700
7.429	7.104	14062	16357	0	700
14.425	12.766	13978	16319	0	700
20.916	18.283	13808	16306	0	700
23.440	22.467	13673	16297	0	700
21.096	20.772	13469	16257	0	700
17.021	18.752	13334	16188	0	700
19.293	15.831	13130	16134	0	700
22.142	16.228	12910	16088	0	700
21.854	13.487	12740	16041	0	700
17.238	10.422	12537	15981	0	700
10.530	8.366	12283	15902	0	700
7.501	7.321	11978	15774	0	700
11.937	10.602	11554	15570	0	700
20.844	15.326	11130	15333	0	700
25.784	16.120	10707	15156	0	700
25.820	16.877	10334	15075	0	700
22.539	13.379	10079	15053	0	700
17.382	11.756	9740	15045	0	700
16.444	9.268	9351	15028	0	700
14.208	6.527	9062	15020	0	700
13.199	2.488	8723	15036	0	700
9.917	-1.479	8469	15080	0	700
7.429	-1.767	8215	15162	0	700
12.441	0.793	7961	15243	0	700
16.084	6.852	7656	15328	0	700
20.627	11.107	7452	15412	0	700
20.303	12.946	7113	15420	0	700
19.077	10.061	6723	15341	0	700
14.281	7.753	6351	15276	0	700
14.100	4.760	6012	15295	0	700
13.559	2.380	5791	15382	0	700
14.569	1.623	5537	15518	0	700
15.975	-0.613	5368	15687	0	700
14.317	-0.144	5283	15881	0	700
13.487	0.325	5249	16104	0	700
11.648	2.921	5164	16330	0	700
10.133	3.678	5164	16541	0	700
11.396	1.983	5198	16746	0	700
13.451	1.479	5164	16920	0	700
17.454	1.515	5164	17043	0	700
22.755	5.590	5164	17124	0	700
25.856	8.583	5079	17184	0	700
24.378	11.792	5079	17230	0	700
18.572	10.819	5029	17252	0	700
11.720	7.537	4944	17263	0	700
7.573	4.291	4995	17269	0	700
8.222	3.606	4859	17239	0	700
11.215	2.813	4740	17176	0	700
13.884	5.229	4774	17141	0	700
13.812	7.789	4774	17179	0	700
9.953	6.167	4910	17279	0	700
7.176	4.544	4995	17399	0	700
3.967	1.731	5113	17508	0	700
3.750	0.721	5368	17639	0	700
5.878	0.577	5622	17830	0	700
9.953	1.442	5961	18067	0	700
11.576	1.659	6351	18314	0	700
9.845	0.036	6859	18554	0	700
4.868	-1.154	7317	18780	0	700
2.128	-1.010	7876	19014	0	700
1.406	-2.128	8469	19292	0	700
2.236	-3.137	9232	19597	0	700
4.832	-3.390	9859	19861	0	700
3.498	-2.741	10622	20071	0	700
4.580	-0.685	11384	20270	0	700
6.239	1.839	12198	20458	0	700
9.268	2.452	13046	20610	0	700
10.350	0.793	13757	20697	0	700
6.563	-3.534	14571	20675	0	700
0.938	-6.311	15113	20526	0	700
-3.570	-6.419	15707	20302	0	700
-1.839	-4.616	16266	20046	0	700
0.325	-0.577	16756	19790	1	644
1.262	2.236	17316	19548	0	644
1.947	1.442	17858	19314	0	644
-0.793	0.505	18248	19061	0	644
-1.406	-0.974	18790	18802	0	644
-0.505	-0.397	19299	18614	0	644
1.947	0.577	19858	18502	0	644
3.246	3.173	20485	18388	0	644
3.534	6.419	20909	18208	0	644
3.678	9.448	21333	17963	0	644
6.347	12.081	21722	17688	0	644
8.042	15.939	22011	17429	0	644
10.133	15.110	22400	17198	0	644
12.081	14.425	22739	16985	0	644
9.737	12.117	22994	16767	0	644
6.347	8.619	23333	16566	0	644
4.039	7.248	23621	16394	0	644
3.390	5.734	23875	16251	0	644
2.957	5.698	24095	16099	0	644
3.498	4.796	24299	15913	0	644
2.885	4.904	24434	15717	0	644
2.524	4.508	24604	15546	0	644
2.849	3.426	24773	15420	0	644
4.003	4.724	24943	15333	0	644
7.717	5.409	25061	15282	0	644
9.881	7.393	25282	15262	0	644
12.189	9.845	25400	15238	0	644
13.668	10.494	25536	15194	0	644
14.028	11.792	25621	15132	0	644
13.992	10.350	25655	15042	0	644
11.792	9.412	25655	14930	0	644
10.891	10.422	25570	14800	0	644
11.360	10.999	25400	14623	0	644
12.838	10.314	25146	14391	0	644
14.461	11.035	24943	14162	0	644
17.526	10.530	24638	13961	0	644
13.523	7.934	24350	13795	0	644
10.494	6.419	23960	13656	0	644
7.357	3.426	23706	13550	0	644
7.285	2.452	23367	13501	0	644
9.340	3.354	23163	13528	0	644
11.468	7.825	22943	13626	0	644
12.189	11.215	22739	13770	0	644
11.684	14.172	22604	13931	0	644
12.982	14.785	22485	14121	0	644
14.172	13.595	22400	14347	0	644
17.310	15.110	22350	14579	0	644
15.687	15.939	22265	14786	0	644
15.471	13.920	22146	14955	0	644
15.507	16.372	22061	15096	0	644
16.444	16.697	21926	15238	0	644
21.385	19.726	21892	15401	0	644
23.765	21.565	21841	15584	0	644
24.270	21.601	21841	15761	0	644
23.657	18.464	21807	15927	0	644
17.490	15.398	21756	16071	0	644
17.923	14.497	21756	16194	0	644
16.120	18.464	21722	16303	0	644
19.582	21.060	21672	16389	0	644
21.962	21.421	21638	16465	0	644
19.798	18.897	21553	16509	0	644
15.362	13.704	21417	16468	0	644
11.792	12.297	21248	16363	0	644
9.701	13.740	21045	16267	0	644
11.179	14.785	20875	16202	0	644
9.917	16.012	20655	16123	0	644
7.140	11.468	20400	15998	0	644
4.039	6.599	20061	15843	0	644
5.662	4.760	19773	15712	0	644
12.477	6.022	19553	15646	0	644
17.310	9.196	19384	15646	0	644
19.834	11.396	19129	15679	0	644
12.838	14.245	19011	15704	0	644
8.006	15.543	18841	15750	0	644
7.573	15.435	18756	15837	0	644
15.435	17.526	18621	15938	0	644
23.693	17.706	18536	16020	0	644
28.453	17.166	18367	16063	0	644
25.965	16.048	18248	16085	0	644
23.476	18.356	18197	16129	0	644
23.801	20.050	18078	16229	0	644
28.309	23.296	18078	16357	0	644
33.213	24.162	17994	16430	0	644
30.436	22.106	17739	16352	0	644
25.207	21.529	17434	16153	0	644
21.060	18.824	17231	16003	0	644
24.234	20.087	17011	15965	0	644
30.869	24.017	16807	15954	0	644
37.757	23.188	16638	15941	0	644
37.505	20.591	16417	15938	0	644
32.816	18.320	16266	15941	0	644
27.840	16.985	16130	15979	0	644
25.929	16.408	16130	16118	0	644
25.496	18.428	16181	16346	0	644
25.099	17.093	16215	16531	0	644
21.601	15.723	16181	16631	0	644
16.877	11.612	16130	16675	0	644
16.264	12.514	16046	16678	0	644
15.507	13.343	16012	16664	0	644
17.923	14.713	15961	16659	0	644
19.546	15.182	15791	16626	0	644
23.693	12.369	15622	16525	0	644
23.476	12.045	15418	16368	0	644
23.621	10.891	14995	16104	0	644
23.008	12.045	14401	15693	0	644
18.897	15.831	13842	15243	0	644
18.211	16.084	13300	14900	0	644
15.182	15.471	12707	14661	0	644
16.733	14.353	12147	14446	0	644
16.841	10.819	11690	14282	0	644
19.546	10.566	11266	14244	0	644
21.421	11.973	10842	14290	0	644
23.621	12.117	10537	14383	0	644
22.395	15.146	10249	14535	0	644
23.729	14.136	10029	14759	0	644
26.361	15.903	9995	15045	0	644
29.282	16.516	9825	15325	0	644
26.722	15.290	9571	15486	0	644
22.106	15.074	9351	15521	0	644
15.002	10.097	9096	15581	0	644
9.989	7.212	8927	15720	0	644
10.855	6.635	8723	15867	0	644
15.398	9.484	8588	16006	0	644
18.788	11.864	8503	16145	0	644
23.476	15.903	8334	16276	0	644
23.080	16.264	8300	16419	0	644
21.926	14.425	8385	16656	0	644
20.339	12.261	8418	16964	0	644
16.120	10.566	8503	17200	0	644
16.120	9.052	8469	17279	0	644
16.120	12.117	8334	17241	0	644
18.103	13.163	8249	17184	0	644
19.077	15.038	8164	17149	0	644
22.575	17.346	8079	17143	0	644
22.863	15.002	7995	17141	0	644
21.493	15.362	7910	17094	0	644
19.546	13.127	7791	17004	0	644
14.533	13.812	7656	16931	0	644
10.891	13.307	7571	16885	0	644
10.422	12.838	7452	16830	0	644
10.927	13.307	7317	16738	0	644
13.199	11.684	7147	16634	0	644
14.858	10.278	7029	16555	0	644
13.379	11.396	6893	16525	0	644
11.360	11.360	6808	16536	0	644
9.412	10.638	6723	16536	0	644
8.655	12.694	6690	16533	0	644
8.979	12.117	6639	16574	0	644
9.665	10.674	6723	16678	0	644
8.547	8.366	6808	16833	0	644
4.147	3.570	6978	17018	0	644
1.010	-1.803	7198	17217	0	644
-0.865	-3.498	7452	17416	0	644
-3.714	-1.803	7707	17620	0	644
-4.291	1.298	8079	17846	0	644
-4.219	4.147	8469	18086	0	644
-3.895	6.960	8842	18320	0	644
-3.029	6.924	9317	18519	0	644
-0.288	8.835	9690	18657	0	644
3.065	10.746	10198	18777	0	644
5.013	12.369	10757	18984	0	644
6.635	10.206	11384	19259	0	644
7.357	8.258	12029	19491	0	644
6.239	5.734	12622	19643	0	644
3.750	5.878	13249	19733	0	644
2.560	6.599	13927	19796	0	644
1.334	7.717	14571	19864	0	644
1.118	9.232	15249	19932	0	644
2.921	10.206	15927	19956	0	644
5.950	11.973	16502	19899	0	644
8.619	14.389	17146	19804	0	644
11.468	16.228	17773	19736	0	644
11.684	13.487	18417	19703	0	644
10.674	14.136	19129	19668	1	692
8.583	12.153	19722	19570	0	692
6.311	9.773	20316	19406	0	692
4.832	9.232	20909	19232	0	692
3.426	9.809	21553	19093	0	692
3.498	9.088	22146	18973	0	692
4.436	11.756	22739	18837	0	692
3.390	12.333	23248	18671	0	692
4.760	11.396	23841	18480	0	692
4.508	12.946	24265	18260	0	692
3.498	13.559	24689	18001	0	692
5.662	12.477	25061	17707	0	692
8.258	14.100	25367	17391	0	692
11.540	14.821	25621	17056	0	692
12.802	14.533	25790	16705	0	692
14.605	16.084	25909	16360	0	692
11.756	14.425	26045	16033	0	692
10.422	14.353	26163	15750	0	692
10.386	11.468	26248	15508	0	692
10.314	11.504	26299	15260	0	692
10.386	13.523	26299	14987	0	692
11.432	12.477	26299	14745	0	692
10.386	13.127	26299	14576	0	692
8.691	11.973	26299	14459	0	692
5.626	8.547	26248	14339	0	692
2.885	5.445	26129	14198	0	692
0.000	3.895	26045	14091	0	692
-2.056	2.056	25994	14056	0	692
-1.947	1.154	25960	14070	0	692
-1.479	1.551	25960	14094	0	692
5.121	2.164	25909	14108	0	692
15.326	5.662	25790	14113	0	692
24.414	10.025	25706	14149	0	692
32.384	15.471	25655	14247	0	692
31.230	18.464	25655	14396	0	692
29.571	16.733	25621	14538	0	692
27.155	15.687	25570	14633	0	692
31.049	13.812	25536	14721	0	692
32.780	14.389	25536	14829	0	692
32.312	14.749	25485	14957	0	692
25.496	11.612	25485	15094	0	692
16.985	7.609	25485	15233	0	692
8.763	0.902	25451	15328	0	692
5.698	-3.354	25316	15331	0	692
8.439	-3.642	25112	15262	0	692
11.504	-0.721	24892	15189	0	692
13.631	3.354	24689	15148	0	692
17.526	6.275	24519	15134	0	692
16.949	7.501	24265	15118	0	692
18.067	7.501	24129	15121	0	692
16.589	3.642	24045	15216	0	692
13.018	1.659	23960	15412	0	692
9.196	0.469	24011	15606	0	692
4.688	-2.164	23875	15715	0	692
5.229	-1.298	23790	15742	0	692
6.383	-1.479	23587	15739	0	692
9.989	1.803	23502	15755	0	692
12.189	3.859	23333	15799	0	692
11.648	5.517	23197	15829	0	692
11.179	6.203	22994	15818	0	692
10.530	4.075	22858	15804	0	692
8.835	2.596	22739	15834	0	692
9.268	1.046	22604	15930	0	692
10.494	0.144	22655	16069	0	692
11.107	0.252	22570	16183	0	692
12.189	1.839	22519	16254	0	692
15.723	4.580	22434	16327	0	692
15.903	8.366	22485	16416	0	692
16.480	11.432	22434	16498	0	692
15.471	11.864	22350	16525	0	692
14.064	11.684	22265	16517	0	692
14.641	13.235	22180	16509	0	692
14.569	14.208	22146	16509	0	692
16.228	16.156	22146	16539	0	692
14.389	15.651	22146	16642	0	692
12.333	10.494	22146	16748	0	692
10.566	6.888	22061	16727	0	692
8.979	5.409	21892	16569	0	692
11.143	7.681	21638	16357	0	692
15.182	11.684	21333	16156	0	692
17.526	18.103	21078	15995	0	692
21.709	18.320	20824	15853	0	692
21.132	17.815	20536	15704	0	692
21.204	14.785	20231	15548	0	692
18.608	14.064	19892	15407	0	692
17.526	13.091	19604	15303	0	692
14.497	11.648	19299	15249	0	692
14.281	11.576	19045	15216	0	692
11.468	10.602	18706	15184	0	692
13.487	9.484	18502	15192	0	692
15.398	12.045	18282	15254	0	692
16.913	14.894	18112	15355	0	692
18.680	14.136	17994	15472	0	692
15.723	15.182	17824	15578	0	692
15.471	13.668	17570	15597	0	692
12.514	12.874	17146	15445	0	692
11.684	12.045	16672	15194	0	692
12.838	11.648	16266	15015	0	692
14.317	11.179	15876	14957	0	692
18.320	14.281	15537	14979	0	692
19.257	13.631	15283	15053	0	692
20.627	14.605	14995	15162	0	692
18.103	13.199	14740	15287	0	692
17.959	13.307	14571	15399	0	692
19.510	17.021	14317	15491	0	692
22.539	19.870	14096	15576	0	692
27.479	22.431	13927	15668	0	692
23.549	22.575	13723	15753	0	692
21.204	17.743	13418	15807	0	692
19.005	16.625	13215	15853	0	692
16.408	14.064	12961	15902	0	692
19.870	15.795	12656	15892	0	692
22.791	17.490	12317	15821	0	692
25.316	18.283	12029	15764	0	692
25.243	18.247	11723	15755	0	692
22.575	15.831	11469	15780	0	692
18.788	11.864	11181	15804	0	692
10.927	6.635	10876	15802	0	692
6.635	4.580	10588	15802	0	692
5.085	2.236	10368	15823	0	692
6.888	4.508	10079	15856	0	692
12.910	9.953	9774	15870	0	692
20.519	15.254	9520	15859	0	692
24.162	17.526	9181	15856	0	692
25.856	18.933	8978	15867	0	692
26.397	19.185	8639	15864	0	692
25.099	17.057	8418	15851	0	692
23.621	18.933	8130	15864	0	692
24.558	17.562	7876	15916	0	692
25.676	18.175	7656	16003	0	692
23.981	17.057	7571	16131	0	692
23.260	18.608	7486	16284	0	692
23.476	17.490	7368	16403	0	692
21.962	18.392	7283	16492	0	692
20.808	17.166	7147	16585	0	692
20.014	18.464	7062	16667	0	692
15.939	15.435	7029	16765	0	692
12.586	13.740	7147	16972	0	692
9.520	9.953	7232	17266	0	692
8.799	6.131	7401	17481	0	692
12.802	5.734	7401	17557	0	692
19.077	5.481	7368	17525	0	692
20.303	8.655	7317	17437	0	692
17.310	8.835	7283	17361	0	692
8.907	7.681	7232	17350	0	692
0.938	6.744	7283	17364	0	692
-0.541	6.419	7283	17361	0	692
4.796	6.888	7317	17380	0	692
10.891	7.140	7452	17459	0	692
10.494	7.104	7656	17590	0	692
7.465	3.065	7910	17753	0	692
1.695	0.000	8215	17922	0	692
-1.370	-1.226	8503	18099	0	692
-0.325	-1.046	8927	18293	0	692
0.938	-1.082	9351	18527	0	692
0.288	-0.180	9910	18780	0	692
1.370	-0.252	10418	19006	0	692
0.721	-0.902	10927	19183	0	692
-0.072	-1.731	11469	19317	0	692
-1.370	-4.147	12062	19450	0	692
-2.741	-5.590	12740	19624	0	692
-4.904	-4.039	13418	19804	0	692
-3.101	-2.164	14181	19948	0	692
-0.613	2.705	14859	20065	0	692
2.128	4.436	15622	20161	0	692
3.390	3.065	16384	20245	0	692
1.515	0.000	17231	20349	0	692
-0.288	-4.940	18078	20447	0	692
-1.983	-6.816	18790	20452	0	692
-3.750	-7.429	19434	20300	0	692
-3.570	-5.157	20061	20035	0	692
-1.334	-1.731	20570	19758	0	692
1.406	2.560	21078	19502	0	692
4.688	5.049	21587	19243	1	692
6.780	6.022	22061	18927	0	692
6.635	5.445	22400	18562	0	692
4.219	1.803	22824	18222	0	692
1.334	-0.793	23248	17949	0	692
-0.036	-1.298	23587	17718	0	692
0.000	-2.488	24011	17478	0	692
1.911	-1.046	24265	17187	0	692
4.796	0.757	24434	16852	0	692
8.330	2.596	24638	16503	0	692
11.251	6.203	24773	16197	0	692
11.828	7.934	24943	15951	0	692
11.828	7.537	25146	15758	0	692
8.475	6.347	25316	15611	0	692
8.439	4.580	25536	15513	0	692
7.753	4.327	25739	15472	0	692
9.701	4.580	25994	15459	0	692
11.179	6.780	26163	15418	0	692
15.723	8.511	26333	15355	0	692
17.562	10.819	26553	15325	0	692
21.241	13.595	26756	15347	0	692
22.034	14.028	26977	15371	0	692
24.414	15.074	27095	15366	0	692
23.765	14.713	27180	15314	0	692
24.053	14.930	27180	15189	0	692
24.594	16.156	27146	14996	0	692
21.493	14.100	27061	14835	0	692
17.274	13.307	27011	14748	0	692
13.559	9.845	26977	14699	0	692
10.494	6.455	26841	14625	0	692
9.052	2.993	26672	14484	0	692
8.330	1.442	26502	14328	0	692
11.323	0.793	26384	14301	0	692
12.694	1.839	26384	14426	0	692
13.523	4.255	26384	14590	0	692
15.687	5.554	26333	14704	0	692
11.287	3.931	26299	14767	0	692
9.773	3.101	26248	14824	0	692
7.789	2.200	26129	14898	0	692
7.753	1.659	26078	14968	0	692
10.169	3.282	25994	15017	0	692
13.163	4.724	25909	15042	0	692
13.415	4.580	25739	15080	0	692
13.379	4.544	25655	15156	0	692
12.297	3.678	25655	15282	0	692
10.314	3.714	25621	15429	0	692
11.900	3.318	25536	15543	0	692
