neuroNicle FX2
D3F25R12
Bluetooth SPP
2023년 11월 5일 일요일
오후 4:09
time interval = 4msec
EEG1	EEG2	PPG	sdPPG	pulse	peak_interval(msec)
11.215	20.664	14703	11790	0	340
18.824	25.135	14641	12222	0	340
30.436	30.004	14597	12766	0	340
38.983	34.331	14570	13327	0	340
39.632	37.793	14570	13898	0	340
36.928	40.606	14570	14552	0	340
32.312	42.589	14641	15326	0	340
33.718	42.229	14685	16145	0	340
38.262	40.462	14703	16816	0	340
40.101	38.226	14792	17350	0	340
33.970	36.855	14836	17848	0	340
23.981	37.865	14880	18354	0	340
18.067	37.432	14969	18870	0	340
21.096	35.413	15013	19266	0	340
31.374	31.843	15057	19339	0	340
39.380	28.777	15039	18999	0	340
38.154	24.811	14969	18455	0	340
27.010	24.017	14924	17912	0	340
15.975	25.316	14862	17488	0	340
10.927	30.545	14836	17249	1	960
17.238	38.334	14818	17120	0	960
27.624	45.546	14774	17019	0	960
34.403	48.251	14792	17010	0	960
31.049	46.376	14862	17360	0	960
20.159	41.003	14995	18105	0	960
10.061	38.226	15084	18851	0	960
5.914	37.396	15190	19238	0	960
7.753	40.786	15216	19220	0	960
15.687	43.887	15278	19054	0	960
21.926	48.359	15305	18971	0	960
26.758	51.569	15393	18999	0	960
28.705	51.929	15438	19063	0	960
29.354	48.431	15500	19045	0	960
28.561	43.419	15526	18879	0	960
27.119	36.928	15544	18667	0	960
26.073	36.206	15615	18529	0	960
27.047	39.127	15677	18455	0	960
26.830	43.094	15703	18354	0	960
29.138	44.717	15747	18280	0	960
31.158	44.573	15836	18317	0	960
34.836	42.373	15924	18465	0	960
37.901	42.301	16013	18593	0	960
38.911	43.779	16057	18575	0	960
39.308	45.835	16119	18455	0	960
36.098	43.960	16208	18345	0	960
31.446	42.625	16278	18326	0	960
27.443	39.488	16340	18354	0	960
21.818	39.235	16428	18336	0	960
20.050	42.842	16490	18234	0	960
21.385	44.933	16534	18050	0	960
25.027	45.582	16560	17691	0	960
25.676	41.363	16516	17166	0	960
20.483	35.557	16516	16669	0	960
11.468	29.535	16516	16292	0	960
3.642	29.463	16490	15924	0	960
5.013	33.033	16428	15344	0	960
18.788	40.858	16384	14709	0	960
36.387	43.924	16384	14515	0	960
47.386	46.051	16401	14782	0	960
45.618	42.120	16428	15003	0	960
33.790	39.488	16428	14948	0	960
23.873	39.596	16384	14681	0	960
22.142	44.212	16340	14414	0	960
32.167	50.992	16323	14303	0	960
46.772	58.132	16323	14386	0	960
56.762	63.758	16296	14442	0	960
61.053	68.590	16252	14322	0	960
59.070	70.069	16234	14221	0	960
54.995	70.213	16234	14368	0	960
52.867	68.770	16252	14764	0	960
52.182	68.121	16323	15233	0	960
53.119	70.429	16340	15565	0	960
57.555	74.216	16367	15722	0	960
65.128	78.110	16384	15906	0	960
77.461	80.527	16428	16219	0	960
88.821	80.779	16472	16540	0	960
92.788	78.038	16490	16651	0	960
88.893	76.920	16490	16568	0	960
77.425	73.494	16472	16439	0	960
70.393	72.737	16445	16375	0	960
69.564	72.088	16445	16292	0	960
71.980	73.567	16428	16136	0	960
71.078	72.160	16384	15915	0	960
64.407	69.347	16340	15648	0	960
54.129	65.453	16278	15335	0	960
51.028	65.236	16208	15059	0	960
58.276	72.521	16163	14893	0	960
77.822	87.631	16146	14865	0	960
104.003	110.855	16101	14865	0	960
132.564	135.593	16013	14672	0	960
152.290	156.257	15942	14359	0	960
165.633	171.223	15880	14193	0	960
175.514	180.995	15809	14239	0	960
185.864	190.948	15809	14396	0	960
200.180	202.416	15747	14534	0	960
215.615	213.091	15721	14561	0	960
225.207	219.762	15659	14607	0	960
228.381	217.562	15632	14810	0	960
223.152	210.458	15659	15169	0	960
215.543	203.931	15659	15620	0	960
204.111	201.334	15677	16044	0	960
191.381	198.990	15703	16366	0	960
180.635	197.584	15747	16632	0	960
172.629	192.463	15765	16991	0	960
170.177	186.585	15809	17341	0	960
165.561	179.769	15809	17525	0	960
159.683	174.071	15836	17590	0	960
153.264	170.032	15854	17663	0	960
147.746	165.128	15880	17848	0	960
146.087	159.647	15924	18041	0	960
146.556	152.398	15898	17921	0	960
140.714	145.041	15809	17277	0	960
130.905	137.252	15703	16384	0	960
120.231	132.456	15615	15804	0	960
111.973	128.561	15588	15629	0	960
110.350	125.135	15526	15528	0	960
110.350	120.123	15455	15399	0	960
111.179	113.704	15438	15289	0	960
106.816	110.242	15367	15215	0	960
99.928	107.248	15349	15187	0	960
90.335	105.229	15323	15178	0	960
78.038	101.623	15234	15160	0	960
69.455	97.764	15216	15086	0	960
68.410	95.240	15084	14801	0	960
75.478	97.620	14995	14359	0	960
88.352	105.121	14880	14064	0	960
97.944	109.953	14836	14018	0	960
97.295	107.104	14747	13990	0	960
85.611	97.259	14597	13769	0	960
72.304	86.405	14526	13484	0	960
64.731	77.569	14438	13475	0	960
63.758	76.560	14420	13815	0	960
66.679	76.055	14393	14377	0	960
67.364	76.055	14376	14920	0	960
63.036	71.042	14393	15362	0	960
58.457	66.066	14420	15823	0	960
53.408	61.197	14438	16384	0	960
53.732	60.728	14482	17010	0	960
51.461	61.017	14570	17599	0	960
50.234	63.253	14615	18032	0	960
47.422	61.305	14641	18326	0	960
45.799	55.139	14703	18612	0	960
42.409	47.746	14792	18980	0	960
42.517	43.851	14862	19450	0	960
42.842	46.195	14969	19846	0	960
44.645	51.352	14969	19781	0	960
44.537	54.959	14924	19266	0	960
44.392	54.526	14951	18787	0	960
44.464	51.965	14924	18584	0	960
47.710	52.001	14969	18455	1	520
53.877	54.634	14951	18345	0	520
59.574	59.538	15013	18253	0	520
58.529	61.305	15013	18105	0	520
50.956	56.617	15039	17977	0	520
43.310	46.772	15146	18179	0	520
42.734	33.934	15216	18695	0	520
50.018	23.945	15305	18999	0	520
57.880	18.860	15349	18787	0	520
56.401	20.772	15305	18271	0	520
47.602	27.732	15305	17792	0	520
38.009	33.321	15305	17488	0	520
37.468	40.317	15349	17378	0	520
46.664	44.320	15367	17387	0	520
58.709	46.268	15411	17369	0	520
65.525	47.962	15455	17360	0	520
64.154	48.576	15482	17396	0	520
61.161	46.881	15500	17341	0	520
59.034	45.005	15526	17056	0	520
59.142	43.310	15455	16540	0	520
59.214	40.606	15438	16062	0	520
58.240	39.308	15411	15814	0	520
57.699	38.767	15438	15823	0	520
52.975	42.084	15455	15915	0	520
48.539	45.258	15455	15906	0	520
44.573	47.854	15411	15712	0	520
42.553	47.854	15367	15197	0	520
45.078	44.248	15234	14488	0	520
50.847	36.855	15190	14064	0	520
55.608	32.889	15128	13990	0	520
55.716	33.934	15101	14027	0	520
52.542	37.036	15057	14138	0	520
49.441	42.734	15084	14359	0	520
47.494	45.655	15084	14736	0	520
50.559	45.763	15172	15298	0	520
51.965	42.229	15216	15970	0	520
53.408	37.252	15305	16503	0	520
51.100	34.800	15305	16687	0	520
49.513	30.364	15323	16595	0	520
49.513	31.049	15305	16494	0	520
49.549	33.574	15323	16512	0	520
48.251	38.875	15323	16503	0	520
44.068	43.491	15261	16320	0	520
40.029	45.402	15261	16071	0	520
37.288	41.399	15278	16191	0	520
38.478	33.790	15367	16761	0	520
39.993	26.686	15455	17452	0	520
41.796	24.378	15544	17940	0	520
39.272	24.270	15615	18161	0	520
34.620	26.938	15659	18253	0	520
32.492	28.201	15703	18336	0	520
30.725	27.335	15792	18483	0	520
31.013	26.361	15880	18639	0	520
33.790	26.902	15924	18722	0	520
31.338	25.640	15969	18686	0	520
28.092	23.440	16057	18649	0	520
26.794	22.899	16119	18722	0	520
31.085	25.171	16190	18851	0	520
42.481	33.105	16252	18824	0	520
52.867	42.770	16278	18612	0	520
51.821	47.854	16323	18354	0	520
45.582	46.376	16367	18170	0	520
40.209	41.940	16401	17986	0	520
44.609	38.695	16401	17663	0	520
57.230	40.966	16384	17203	0	520
64.587	42.806	16384	16779	0	520
57.339	42.084	16384	16448	0	520
39.812	36.639	16367	16200	0	520
27.407	31.554	16340	15915	0	520
29.318	31.049	16323	15464	0	520
40.714	33.502	16208	14727	0	520
48.467	37.036	16075	13861	0	520
48.576	35.593	15942	13189	0	520
38.695	30.725	15836	12784	0	520
28.886	22.395	15765	12563	0	520
25.352	16.913	15703	12434	0	520
25.820	15.723	15570	12204	0	520
33.574	19.798	15411	11854	0	520
39.416	28.309	15278	11431	0	520
41.580	32.059	15039	10777	0	520
39.488	31.915	14862	10022	0	520
32.167	24.630	14659	9607	0	520
23.512	17.634	14482	9598	0	520
19.582	13.127	14393	9902	0	520
14.461	12.045	14331	10528	0	520
12.514	14.821	14287	11366	0	520
10.566	17.021	14287	12278	0	520
12.153	19.906	14287	13198	0	520
17.815	25.207	14349	14202	0	520
24.666	29.102	14420	15316	0	520
31.085	31.843	14526	16494	0	520
37.072	34.583	14615	17663	0	520
42.301	35.557	14747	18612	0	520
45.546	37.505	14836	19284	0	520
46.953	38.803	14907	19837	0	520
45.763	40.426	15039	20444	0	520
39.885	39.596	15146	21098	0	520
30.508	37.000	15323	21669	0	520
18.644	33.754	15438	22148	0	520
7.970	26.758	15588	22525	0	520
5.590	22.683	15765	22792	0	520
13.992	19.113	15854	22912	0	520
25.784	19.329	15969	22802	0	520
32.708	19.834	16057	22479	0	520
30.040	22.286	16101	22065	0	520
23.296	26.325	16163	21595	0	520
19.654	30.292	16208	21043	1	424
23.837	36.711	16234	20435	0	424
32.420	39.560	16252	19837	0	424
35.377	38.731	16234	19192	0	424
31.158	35.341	16190	18290	0	424
24.125	29.859	16119	17277	0	424
17.490	26.289	16101	16623	0	424
15.362	23.296	16119	16411	0	424
14.172	19.473	16146	16329	0	424
8.979	15.182	16119	16090	0	424
1.226	10.530	16075	15666	0	424
-10.314	6.167	16057	15187	0	424
-14.461	8.294	16013	14819	0	424
-13.163	11.107	15986	14561	0	424
-6.527	15.975	15924	14313	0	424
0.685	16.805	15898	14046	0	424
2.741	14.136	15836	13871	0	424
-0.252	7.140	15809	13723	0	424
-6.635	2.921	15677	13318	0	424
-11.937	2.308	15544	12655	0	424
-12.514	4.652	15411	12075	0	424
-5.157	11.432	15305	11836	0	424
9.124	20.483	15261	11900	0	424
23.116	27.515	15216	12268	0	424
26.470	30.256	15234	12839	0	424
18.860	27.624	15216	13373	0	424
4.832	20.880	15216	13825	0	424
-6.131	14.172	15216	14285	0	424
-7.717	12.766	15190	14736	0	424
0.433	14.425	15216	15086	0	424
8.619	18.392	15172	15233	0	424
11.504	20.303	15101	15077	0	424
7.934	20.555	14995	14727	0	424
5.950	19.221	14907	14340	0	424
4.724	18.969	14792	14018	0	424
10.674	22.250	14685	13880	0	424
23.224	29.607	14615	13917	0	424
33.393	36.098	14553	13935	0	424
39.127	38.082	14393	13742	0	424
34.331	34.475	14287	13502	0	424
23.657	24.306	14243	13677	0	424
14.641	18.247	14243	14276	0	424
11.756	22.431	14261	15003	0	424
20.123	33.141	14305	15777	0	424
30.941	44.645	14349	16476	0	424
36.351	49.946	14376	17065	0	424
32.744	45.258	14464	17636	0	424
21.745	33.682	14553	18253	0	424
12.189	24.955	14615	18851	0	424
11.107	21.024	14685	19321	0	424
18.464	22.034	14792	19735	0	424
25.171	25.352	14880	20214	0	424
24.955	26.758	15039	20739	0	424
20.231	28.417	15146	21199	0	424
12.333	30.292	15305	21466	0	424
11.143	35.269	15367	21577	0	424
17.851	40.353	15526	21697	0	424
25.712	41.507	15659	21918	0	424
28.777	39.704	15792	22221	0	424
24.017	33.538	15942	22424	0	424
15.543	28.705	16031	22203	0	424
9.845	26.506	16101	21503	0	424
9.052	30.292	16119	20776	0	424
13.379	36.134	16163	20269	0	424
21.349	41.327	16190	19818	0	424
25.388	42.878	16234	19358	0	424
23.440	40.029	16278	18925	0	424
16.408	33.069	16296	18437	0	424
8.979	28.020	16323	17894	0	424
4.291	29.174	16323	17406	0	424
9.088	32.095	16367	17074	0	424
19.510	37.252	16367	16807	0	424
34.367	39.380	16367	16402	0	424
43.022	38.803	16340	15878	0	424
43.310	39.199	16323	15454	0	424
37.505	37.973	16296	15169	0	424
27.443	39.199	16252	14801	0	424
20.952	36.783	16163	14184	0	424
19.401	32.600	16057	13438	0	424
19.510	26.938	16031	12978	0	424
16.913	22.863	15986	12987	0	424
12.189	19.401	15986	13263	0	424
7.537	19.293	15986	13585	0	424
6.022	19.257	16013	13871	0	424
8.150	19.798	16013	14147	0	424
8.475	18.392	16057	14469	0	424
3.462	15.723	16119	14911	0	424
-4.508	14.245	16163	15436	0	424
-10.133	15.398	16208	15841	0	424
-5.481	23.981	16252	16108	0	424
10.314	37.252	16296	16393	0	424
29.535	48.035	16384	16835	0	424
45.799	54.814	16472	17369	0	424
51.569	55.860	16578	17802	0	424
47.349	52.038	16667	18115	0	424
39.812	50.162	16737	18400	0	424
38.442	49.802	16844	18639	0	424
38.009	50.162	16932	18796	0	424
37.721	49.044	17003	18842	0	424
36.495	45.474	17047	18759	0	424
33.682	42.337	17047	18483	0	424
30.220	39.308	17021	17875	0	424
28.741	36.062	16976	17046	0	424
25.171	32.420	16888	16274	0	424
21.421	28.922	16799	15685	0	424
20.159	26.902	16737	15160	0	424
24.306	30.508	16649	14534	0	424
32.564	37.180	16534	13834	0	424
33.970	40.750	16428	13291	0	424
30.076	41.868	16367	13051	0	424
23.260	37.036	16323	13097	0	424
15.759	32.600	16296	13346	0	424
11.071	30.869	16278	13650	0	424
9.160	30.545	16323	14073	0	424
7.609	29.463	16367	14699	0	424
13.595	32.167	16401	15362	0	424
31.230	38.983	16445	15860	0	424
54.670	48.035	16490	16145	0	424
68.806	54.309	16516	16329	0	424
64.840	52.074	16560	16549	0	424
42.481	41.616	16605	16872	0	424
20.303	32.095	16649	17157	0	424
10.710	29.463	16649	17258	0	424
17.202	35.882	16667	17203	0	424
26.794	40.894	16693	17203	0	424
26.614	42.265	16711	17369	0	424
13.992	37.000	16799	17700	0	424
1.046	29.030	16844	17930	0	424
-4.075	24.162	16799	17617	0	424
0.216	21.818	16667	16706	0	424
11.756	21.313	16560	15694	0	424
17.418	19.582	16401	14755	0	424
19.870	20.447	16234	13834	0	424
19.329	23.945	16101	13162	0	424
18.933	32.853	15942	12775	0	424
23.549	42.661	15809	12370	0	424
30.617	50.884	15677	11928	0	424
37.721	54.129	15544	11744	0	424
42.229	53.805	15438	11900	0	424
39.019	50.415	15367	12084	0	424
31.158	46.268	15216	12020	0	424
19.221	39.488	15101	11836	0	424
10.746	34.115	14951	11799	0	424
9.484	30.761	14836	11817	0	424
13.704	32.312	14703	11863	0	424
23.404	36.098	14615	12112	0	424
29.463	38.190	14526	12489	0	424
25.929	37.685	14464	12931	0	424
20.087	35.233	14420	13567	0	424
13.559	36.351	14464	14331	0	424
16.048	39.344	14420	14985	0	424
28.994	44.969	14393	15427	0	424
44.068	49.874	14393	15878	0	424
51.749	50.487	14420	16577	0	424
48.107	50.523	14526	17535	0	424
39.380	50.054	14641	18566	0	424
33.646	50.884	14730	19422	0	424
35.810	54.093	14818	20002	0	424
42.697	56.473	14836	20140	0	424
46.917	56.293	14818	19864	0	424
43.058	52.867	14792	19487	0	424
33.862	45.222	14774	19091	0	424
24.558	39.235	14659	18483	0	424
19.870	35.557	14570	17737	0	424
17.959	36.134	14526	17295	0	424
19.437	39.704	14482	17203	0	424
21.277	42.806	14482	17240	0	424
26.433	47.710	14482	17341	0	424
32.816	51.316	14526	17507	0	424
40.137	56.653	14553	17700	0	424
43.707	61.053	14553	17866	0	424
39.308	60.440	14597	17995	0	424
30.617	55.608	14659	18151	0	424
23.332	52.182	14685	18372	0	424
24.089	49.333	14730	18455	0	424
29.679	50.018	14747	18354	0	424
36.170	48.792	14774	18280	0	424
34.439	42.373	14836	18363	0	424
22.034	30.653	14880	18593	0	424
6.888	20.195	14995	18851	0	424
-2.128	13.343	15057	19017	0	424
-4.147	12.694	15128	19155	0	424
-0.721	14.136	15261	19404	0	424
4.832	19.978	15349	19689	0	424
7.825	27.587	15438	19910	0	424
12.658	36.134	15526	19855	0	424
17.887	41.363	15482	19256	0	424
25.279	41.147	15455	18326	0	424
32.889	39.055	15482	17737	0	424
38.045	35.449	15500	17645	1	756
39.776	36.242	15544	17654	0	756
33.970	38.803	15615	17636	0	756
27.984	40.858	15677	17765	0	756
21.024	39.596	15809	18124	0	756
17.598	35.774	15969	18658	0	756
15.579	30.833	16119	19174	0	756
12.369	20.808	16190	19256	0	756
6.563	12.081	16252	18916	0	756
-2.993	3.823	16323	18593	0	756
-9.809	-2.056	16384	18492	0	756
-15.002	-2.777	16445	18418	0	756
-15.723	-0.649	16516	18290	0	756
-12.730	3.787	16578	18124	0	756
-4.977	5.734	16578	17765	0	756
2.236	6.203	16578	17240	0	756
9.701	4.472	16605	16825	0	756
10.278	5.517	16649	16660	0	756
11.540	7.934	16711	16678	0	756
11.937	15.903	16755	16632	0	756
14.245	23.657	16782	16439	0	756
18.428	28.561	16826	16292	0	756
22.358	33.033	16870	16366	0	756
21.998	34.872	16959	16577	0	756
19.762	33.718	17021	16660	0	756
14.208	30.220	17021	16476	0	756
6.996	21.421	17047	16265	0	756
1.046	15.435	17091	16191	0	756
-0.505	15.254	17153	16219	0	756
2.921	22.539	17180	16265	0	756
11.251	33.466	17242	16246	0	756
19.762	41.976	17268	16228	0	756
26.830	45.835	17286	16265	0	756
40.137	39.885	18127	13576	0	548
42.120	40.534	18153	13622	0	548
38.983	39.380	18127	13705	0	548
35.593	38.478	18083	13677	0	548
34.403	39.560	18083	13668	0	548
39.416	43.924	18109	13760	0	548
46.268	49.549	18065	13954	0	548
48.035	49.730	18065	14129	0	548
42.481	44.645	18065	14221	0	548
34.439	39.632	18038	14303	0	548
29.246	34.944	18038	14442	0	548
26.722	35.737	18065	14672	0	548
26.433	36.242	18065	14920	0	548
28.453	34.043	18065	15095	0	548
28.633	31.771	18083	15261	0	548
32.889	32.961	18109	15547	0	548
40.389	39.091	18171	15970	0	548
43.455	44.284	18215	16411	0	548
41.616	44.897	18242	16641	0	548
32.925	39.127	18171	16393	0	548
23.224	31.158	18127	15823	0	548
20.014	27.010	18038	15344	0	548
24.558	28.020	17976	15114	0	548
31.771	29.535	17950	14985	0	548
34.764	30.004	17888	14893	0	548
33.970	27.551	17861	14911	0	548
26.001	23.260	17844	15003	0	548
19.582	19.510	17844	15224	0	548
16.156	15.182	17906	15694	0	548
13.668	12.910	17950	16320	0	548
18.031	12.441	17994	16743	0	548
22.647	14.353	18021	16908	0	548
26.397	19.041	17994	16853	0	548
28.309	20.772	17994	16715	0	548
22.034	20.159	17994	16678	0	548
16.877	16.120	17994	16770	0	548
15.038	12.514	17994	16761	0	548
22.034	12.658	17950	16540	0	548
28.201	14.569	17906	16348	0	548
30.761	16.552	17932	16311	0	548
25.027	16.408	17906	16384	0	548
18.103	14.605	17906	16411	0	548
16.589	13.054	17906	16348	0	548
25.027	16.589	17861	16237	0	548
33.141	20.050	17861	16154	0	548
35.557	21.204	17844	16182	0	548
30.256	19.582	17844	16265	0	548
20.627	13.884	17861	16274	0	548
14.245	8.943	17799	16200	0	548
9.016	6.888	17799	16136	0	548
9.629	6.888	17773	16108	0	548
12.333	7.429	17799	16127	0	548
15.615	10.350	17729	16081	0	548
23.440	13.776	17729	15915	0	548
26.181	16.120	17640	15648	0	548
24.955	16.372	17622	15399	0	548
22.250	17.382	17534	15233	0	548
20.808	18.897	17507	15132	0	548
24.270	21.385	17419	15031	0	548
28.273	25.820	17375	14847	0	548
28.273	22.972	17242	14451	0	548
21.890	15.687	17109	13889	0	548
19.690	10.710	17003	13466	0	548
22.575	12.802	16914	13318	0	548
29.751	16.949	16826	13392	0	548
31.230	22.719	16711	13419	0	548
23.981	18.464	16622	13245	0	548
10.278	9.665	16516	13116	0	548
2.921	4.400	16445	13245	0	548
5.013	5.085	16401	13585	0	548
14.064	12.622	16367	13990	0	548
19.005	16.949	16323	14303	0	548
18.969	15.507	16278	14589	0	548
10.566	8.150	16208	14764	0	548
7.429	4.003	16075	14524	0	548
7.140	3.426	15898	13871	0	548
12.189	10.097	15703	13189	0	548
22.178	17.418	15500	12618	0	548
26.578	21.313	15323	12186	0	548
27.696	20.339	15190	12186	0	548
23.909	14.785	15128	12664	0	548
16.228	10.458	15057	13291	0	548
13.704	9.665	15039	13889	0	548
14.894	11.071	14969	14460	0	548
20.519	12.261	14969	15049	0	548
21.854	10.602	14995	15685	0	548
18.283	2.056	15013	16411	0	548
9.665	-7.068	15084	17221	0	548
6.022	-10.602	15101	17930	0	548
8.583	-7.104	15172	18511	0	548
19.690	2.452	15216	19026	0	548
30.869	10.061	15278	19468	0	548
33.393	11.251	15367	19855	0	548
26.938	3.787	15367	20140	0	548
15.398	-4.580	15411	20177	0	548
10.710	-8.114	15411	19984	0	548
12.369	-3.065	15438	19800	0	548
21.385	5.301	15455	19717	0	548
32.276	12.261	15482	19698	0	548
36.062	13.595	15526	19671	1	552
32.600	6.960	15544	19606	0	552
24.162	-4.183	15588	19634	0	552
12.874	-13.848	15703	19873	0	552
6.816	-19.077	15809	20196	0	552
6.527	-16.084	15880	20371	0	552
11.504	-9.088	15969	20361	0	552
19.654	-1.226	16057	20361	0	552
18.500	-1.370	16163	20490	0	552
11.215	-9.016	16296	20702	0	552
0.361	-21.529	16428	20932	0	552
-7.717	-32.131	16534	21006	0	552
-10.314	-37.468	16649	20914	0	552
-8.583	-36.603	16755	20803	0	552
-7.429	-32.780	16888	20803	0	552
-10.458	-31.266	17021	20859	0	552
-18.103	-28.994	17136	20840	0	552
-20.014	-31.554	17268	20767	0	552
-19.834	-32.636	17357	20656	0	552
-13.812	-36.134	17534	20527	0	552
-7.970	-38.370	17640	20380	0	552
-4.039	-41.399	17729	20150	0	552
-6.960	-43.274	17817	19846	0	552
-12.622	-45.979	17932	19560	0	552
-16.552	-50.487	18021	19302	0	552
-21.565	-52.038	18153	19192	0	552
-22.755	-53.011	18348	19422	0	552
-18.283	-49.116	18525	19910	0	552
-17.634	-46.917	18684	20113	0	552
-14.785	-46.953	18746	19698	0	552
-16.877	-50.739	18791	18897	0	552
-18.824	-55.211	18835	18050	0	552
-21.529	-55.788	18861	17304	0	552
-17.454	-49.008	18861	16632	0	552
-12.658	-40.353	18817	15869	0	552
-7.501	-33.105	18729	14902	0	552
-6.744	-33.393	18658	14000	0	552
-12.189	-41.147	18596	13327	0	552
-21.421	-51.244	18525	12849	0	552
-29.391	-57.411	18507	12462	0	552
-29.174	-56.581	18419	12121	0	552
-24.053	-51.424	18375	11919	0	552
-17.274	-45.907	18348	11919	0	552
-10.566	-46.736	18348	12103	0	552
-11.179	-49.008	18375	12388	0	552
-10.242	-51.064	18348	12637	0	552
-9.088	-49.297	18330	12839	0	552
-6.744	-47.386	18348	13125	0	552
-9.160	-46.809	18392	13567	0	552
-12.622	-50.884	18437	14156	0	552
-17.959	-56.257	18507	14791	0	552
-21.673	-59.538	18596	15399	0	552
-21.818	-58.853	18658	15887	0	552
-21.096	-57.014	18702	16200	0	552
-21.024	-55.896	18746	16402	0	552
-17.670	-54.706	18773	16531	0	552
-15.831	-54.057	18791	16558	0	552
-12.225	-51.100	18791	16457	0	552
-7.609	-48.107	18729	16099	0	552
-4.291	-41.832	18684	15611	0	552
-1.659	-36.134	18702	15556	0	552
1.046	-31.735	18746	16016	0	552
0.252	-28.669	18791	16384	0	552
-0.685	-30.112	18773	16311	0	552
-3.065	-33.682	18729	15970	0	552
-6.347	-37.685	18684	15675	0	552
-10.458	-39.235	18658	15519	0	552
-14.064	-40.858	18658	15482	0	552
-20.050	-44.068	18640	15501	0	552
-20.519	-47.674	18614	15547	0	552
-23.260	-53.805	18640	15712	0	552
-25.820	-59.719	18658	15998	0	552
-26.722	-60.873	18729	16265	0	552
-27.984	-58.384	18702	16384	0	552
-26.578	-53.300	18702	16329	0	552
-26.650	-49.585	18658	16145	0	552
-25.460	-48.864	18640	15970	0	552
-25.352	-50.379	18614	15915	0	552
-22.539	-51.605	18614	15924	0	552
-17.887	-47.422	18569	15804	1	316
-12.838	-45.078	18525	15602	0	316
-12.838	-45.655	18525	15491	0	316
-17.202	-48.467	18507	15556	0	316
-19.293	-51.785	18507	15731	0	316
-18.572	-48.792	18507	15915	0	316
-12.405	-44.104	18419	15712	0	316
-8.763	-40.894	18215	14718	0	316
-9.737	-43.815	18038	13346	0	316
-16.949	-53.841	17817	12397	0	316
-27.191	-61.774	17684	11974	0	316
-35.124	-67.688	17507	11808	0	316
-36.928	-70.141	17401	11679	0	316
-36.387	-68.410	17224	11403	0	316
-33.177	-64.299	17003	10943	0	316
-30.508	-60.692	16799	10473	0	316
-22.972	-52.759	16605	10141	0	316
-19.113	-45.979	16445	10105	0	316
-12.586	-40.245	16278	10261	0	316
-11.107	-37.973	16119	10454	0	316
-14.497	-41.760	16013	10768	0	316
-21.313	-48.576	15924	11320	0	316
-24.053	-53.408	15854	12103	0	316
-22.575	-54.886	15836	13051	0	316
-15.939	-50.234	15809	14018	0	316
-13.776	-45.150	15854	14976	0	316
-14.064	-45.655	15898	15924	0	316
-20.375	-48.972	15924	16816	0	316
-22.467	-51.244	15969	17627	0	316
-20.411	-50.775	16013	18345	0	316
-15.975	-48.792	16101	19035	0	316
-15.074	-47.782	16190	19790	0	316
-17.887	-49.369	16296	20592	0	316
-21.601	-45.005	16428	21347	0	316
-17.166	-34.728	16560	22000	0	316
-6.094	-20.267	16711	22571	0	316
4.652	-13.127	16844	23041	0	316
5.373	-19.978	16976	23354	0	316
-2.524	-35.052	17091	23501	0	316
-12.009	-44.573	17224	23446	0	316
-13.163	-41.255	17313	23225	0	316
-5.085	-31.879	17357	22829	0	316
4.832	-23.296	17401	22258	0	316
4.832	-24.739	17445	21706	0	316
-2.705	-34.620	17596	21549	0	316
-14.749	-41.904	17684	21669	0	316
-18.788	-43.671	17773	21522	0	316
-15.543	-39.127	17817	21052	0	316
-7.789	-33.357	17888	20509	0	316
0.902	-28.092	17888	19910	0	316
6.347	-22.863	17932	19229	0	316
9.124	-19.690	17906	18529	0	316
8.366	-17.887	17861	17774	0	316
9.412	-18.464	17844	16908	0	316
8.835	-20.700	17755	16081	0	316
8.979	-23.332	17711	15326	0	316
8.547	-22.358	17622	14653	0	316
8.547	-22.034	17552	14055	0	316
6.816	-20.195	17419	13447	0	316
5.734	-19.834	17330	12876	0	316
5.049	-19.185	17242	12462	0	316
2.957	-20.483	17180	12268	0	316
-0.469	-21.385	17091	12094	0	316
-1.983	-23.801	16976	11753	0	316
-1.731	-23.729	16844	11394	0	316
2.164	-20.772	16755	11292	0	316
6.888	-17.057	16711	11523	0	316
12.117	-13.018	16667	11955	0	316
11.864	-14.353	16649	12397	0	316
9.376	-20.014	16622	12757	0	316
4.688	-24.594	16605	13125	0	316
6.203	-25.279	16578	13548	0	316
11.071	-17.959	16578	14018	0	316
17.779	-5.842	16578	14497	0	316
25.532	5.806	16578	14902	0	316
22.142	10.458	16516	15040	0	316
17.743	6.167	16428	14810	0	316
10.206	-3.354	16340	14350	0	316
11.035	-9.484	16190	13954	0	316
15.074	-7.753	16075	13714	1	316
23.296	-0.252	15942	13548	0	316
26.614	6.167	15836	13475	0	316
23.224	4.868	15747	13484	0	316
14.245	-2.308	15677	13585	0	316
5.590	-10.458	15615	13852	0	316
4.616	-12.261	15570	14313	0	316
7.465	-7.753	15570	14764	0	316
14.172	-1.983	15526	15059	0	316
17.382	-0.361	15482	15307	0	316
18.680	-2.741	15482	15694	0	316
19.221	-7.393	15482	16173	0	316
19.185	-8.907	15482	16577	0	316
16.012	-10.674	15482	16816	0	316
11.432	-7.537	15438	16973	0	316
9.629	-3.390	15455	17203	0	316
10.386	0.649	15526	17599	0	316
12.477	1.731	15526	18023	0	316
14.353	-1.659	15570	18262	0	316
9.376	-11.504	15500	18179	0	316
2.056	-19.077	15393	17608	0	316
-0.721	-19.582	15305	16825	0	316
3.137	-13.163	15216	16384	0	316
9.989	-5.301	15190	16283	0	316
12.441	-4.364	15128	16302	0	316
8.042	-10.494	15146	16411	0	316
1.551	-20.555	15128	16687	0	316
-4.508	-24.017	15190	17120	0	316
-1.406	-20.303	15234	17654	0	316
7.573	-12.081	15261	17986	0	316
14.425	-5.085	15278	17977	0	316
16.480	-4.616	15234	17746	0	316
9.953	-5.517	15216	17498	0	316
4.472	-9.484	15190	17387	0	316
2.741	-8.042	15216	17378	0	316
7.285	-4.327	15172	17240	0	316
12.514	-0.865	15146	16982	0	316
15.543	2.019	15128	16825	0	316
17.923	2.633	15146	16881	0	316
16.552	2.560	15146	17111	0	316
20.627	0.613	15261	17525	0	316
23.585	-1.262	15305	17977	0	316
22.899	-6.671	15411	18354	0	316
18.139	-9.701	15500	18824	0	316
9.845	-11.973	15632	19441	0	316
4.147	-7.176	15765	19947	0	316
7.645	-0.325	15854	20140	0	316
17.166	8.222	15942	20085	0	316
28.453	11.035	16013	20039	0	316
35.016	11.107	16146	20131	0	316
32.456	6.203	16278	20371	0	316
24.955	6.960	16401	20638	0	316
20.555	9.196	16516	20757	0	316
20.519	15.867	16622	20721	0	316
22.611	18.933	16737	20665	0	316
24.919	17.093	16870	20674	0	316
22.647	8.763	16959	20638	0	316
20.916	4.003	17065	20417	0	316
24.234	4.940	17153	20021	0	316
26.253	9.953	17180	19570	0	316
30.040	15.471	17268	19137	0	316
30.869	14.894	17313	18704	0	316
29.102	10.638	17313	18179	0	316
25.460	5.373	17313	17553	0	316
20.916	5.157	17286	16752	0	316
21.601	8.294	17198	15841	0	316
20.591	11.504	17136	15003	0	316
24.811	13.343	17091	14368	0	316
26.650	11.648	17047	13898	0	316
26.974	8.943	16959	13484	0	316
23.801	9.052	16870	12931	0	316
26.181	12.694	16782	12388	0	316
32.925	19.762	16737	12278	0	316
38.154	24.234	16755	12609	0	316
36.026	22.178	16737	13014	0	316
25.063	14.930	16782	13318	0	316
11.684	8.799	16782	13567	0	316
8.835	8.907	16799	13898	0	316
13.704	16.336	16844	14322	0	316
20.844	22.899	16870	14773	0	316
24.017	22.142	16870	15095	0	316
20.231	16.841	16888	15233	0	316
14.713	12.189	16914	15353	0	316
16.949	10.494	16959	15639	0	316
21.745	14.713	17021	16136	0	316
25.316	17.670	17091	16669	0	316
26.181	16.372	17153	17010	0	316
21.745	13.812	17136	16982	0	316
20.988	14.028	17047	16420	0	316
18.031	16.589	16932	15519	0	316
19.582	18.464	16799	14690	0	316
16.913	18.897	16693	14064	0	316
16.805	16.733	16578	13668	0	316
18.500	17.202	16516	13539	0	316
25.171	22.286	16472	13640	0	316
34.692	29.246	16445	13852	0	316
40.101	33.862	16428	14138	0	316
37.757	31.807	16428	14478	0	316
30.292	26.181	16428	14828	0	316
21.962	20.519	16428	15160	0	316
16.985	19.798	16445	15510	0	316
20.664	21.241	16472	15943	0	316
25.135	24.306	16516	16485	0	316
31.518	25.856	16605	17019	0	316
35.341	25.676	16605	17314	0	316
35.810	27.010	16622	17415	0	316
37.108	29.968	16693	17663	0	316
35.774	35.305	16782	18151	0	316
31.987	36.747	16870	18686	0	316
25.207	35.305	16976	19137	0	316
17.202	28.597	17065	19514	0	316
12.910	24.053	17198	19883	0	316
12.261	22.503	17330	20279	0	316
20.014	24.558	17463	20674	0	316
26.433	27.371	17622	21015	0	316
25.279	26.145	17729	21245	0	316
21.168	25.171	17844	21282	0	316
17.923	26.722	17976	21181	0	316
24.017	36.423	18065	21089	0	316
40.498	49.874	18171	21034	0	316
56.076	61.414	18304	20868	0	316
61.053	64.226	18375	20582	0	316
50.847	58.060	18437	20306	0	316
38.406	49.657	18552	20085	0	316
32.059	45.655	18640	19883	0	316
36.242	47.205	18729	19689	0	316
43.815	51.641	18835	19505	0	316
43.527	48.576	18906	19229	0	316
35.701	42.842	18950	18787	0	316
26.866	35.449	18968	18207	0	316
24.847	34.583	18994	17590	0	316
30.689	39.019	18994	16964	0	316
41.111	45.222	18968	16338	0	316
45.222	46.340	18906	15593	0	316
44.068	44.140	18817	14718	0	316
39.235	37.901	18773	14064	0	316
34.944	34.872	18773	13871	0	316
33.285	33.249	18746	13861	0	316
32.384	35.305	18746	13650	0	316
31.699	36.459	18658	13189	0	316
31.374	37.541	18552	12683	0	316
31.735	39.272	18463	12296	0	316
34.764	37.937	18375	12020	0	316
37.505	40.173	18304	11826	0	316
40.389	43.491	18215	11633	0	316
41.471	47.710	18083	11421	0	316
40.389	52.759	17994	11274	0	316
39.668	55.824	17932	11265	0	316
40.426	56.329	17799	11302	0	316
39.849	54.237	17711	11292	0	316
40.317	50.920	17596	11265	0	316
42.734	49.405	17507	11375	0	316
45.258	51.064	17445	11688	0	316
46.448	52.038	17401	12130	0	316
48.756	55.896	17286	12489	0	316
44.176	54.382	17268	12710	0	316
37.793	50.811	17198	12950	0	316
33.069	44.537	17136	13346	0	316
32.312	40.101	17091	13834	0	316
34.403	37.937	17047	14156	0	316
36.134	38.009	16932	14055	0	316
35.016	40.065	16782	13668	0	316
30.905	40.606	16605	13281	0	316
30.400	41.652	16490	13051	0	316
35.918	42.661	16367	13042	0	316
43.058	45.763	16278	13189	0	316
45.438	48.972	16119	13235	0	316
43.815	49.369	15969	13106	0	316
38.190	48.756	15880	13198	0	316
34.043	46.989	15880	13908	0	316
33.862	47.710	15942	15132	0	316
34.944	48.359	16031	16430	0	316
36.206	51.388	16119	17507	0	316
39.272	54.454	16190	18345	0	316
44.969	58.060	16278	19128	0	316
52.578	61.233	16401	19965	0	316
57.663	61.342	16560	20840	0	316
51.785	57.014	16711	21706	0	316
42.625	48.684	16870	22452	0	316
30.869	42.193	17021	23013	0	316
26.037	39.380	17224	23455	0	316
30.977	42.806	17375	23925	0	316
39.199	49.693	17578	24349	0	316
48.756	55.644	17711	24468	0	316
51.100	58.817	17861	24247	0	316
50.415	60.224	17932	23814	0	316
45.835	55.608	18021	23244	0	316
42.265	51.208	18083	22507	0	316
41.471	50.415	18083	21697	1	752
45.763	52.254	18127	20969	0	752
51.100	57.555	18171	20361	0	752
52.182	58.961	18198	19837	0	752
48.900	57.122	18242	19302	0	752
37.577	51.316	18286	18750	0	752
28.886	47.386	18260	18105	0	752
27.515	52.542	18171	17166	0	752
34.187	61.017	18065	15943	0	752
43.094	67.436	17976	14819	0	752
48.648	65.921	17932	14230	0	752
48.576	58.312	17950	14184	0	752
47.530	51.749	17906	14165	0	752
46.304	50.667	17817	13815	0	752
46.051	54.562	17773	13337	0	752
48.107	59.538	17755	13226	0	752
44.428	58.673	17799	13567	0	752
39.993	55.716	17799	13972	0	752
35.737	53.119	17799	14073	0	752
34.836	55.427	17729	13861	0	752
36.603	60.656	17711	13668	0	752
41.075	65.056	17711	13677	0	752
48.756	66.931	17640	13825	0	752
49.693	65.921	17640	13972	0	752
50.379	62.135	17596	14064	0	752
47.782	62.784	17596	14211	0	752
48.107	63.289	17596	14478	0	752
51.677	68.121	17596	14663	0	752
52.434	68.446	17552	14580	0	752
51.280	64.876	17463	14359	0	752
43.202	58.420	17445	14257	0	752
34.115	54.778	17375	14331	0	752
30.581	56.401	17375	14552	0	752
33.646	61.810	17357	14819	0	752
40.966	66.354	17330	15012	0	752
45.979	66.823	17330	15123	0	752
49.910	64.118	17268	15224	0	752
48.323	63.541	17268	15298	0	752
47.422	64.767	17242	15362	0	752
50.487	69.636	17198	15464	0	752
51.028	73.278	17198	15593	0	752
54.814	75.802	17180	15666	0	752
55.499	77.678	17065	15501	0	752
57.771	80.274	17047	15280	0	752
59.178	80.923	17065	15528	0	752
60.476	81.608	17109	16246	0	752
61.558	80.310	17136	16779	0	752
59.791	77.822	17136	16844	0	752
58.060	76.740	17109	16678	0	752
59.142	76.884	17065	16568	0	752
57.303	75.730	17091	16604	0	752
58.673	74.757	17091	16752	0	752
58.132	72.232	17065	16862	0	752
53.155	68.374	17047	16844	0	752
50.631	65.705	17065	16899	0	752
44.356	61.089	17091	17065	0	752
41.219	59.106	17021	16890	0	752
41.507	59.719	16888	16237	0	752
46.340	62.820	16799	15519	0	752
50.090	68.265	16711	15086	0	752
52.939	68.842	16667	14911	0	752
48.612	65.813	16605	14976	0	752
45.546	61.955	16605	15261	0	752
49.189	60.765	16605	15510	0	752
53.949	63.253	16516	15344	0	752
62.387	67.652	16401	14819	0	752
64.407	68.626	16340	14524	0	752
57.735	67.580	16296	14617	0	752
49.441	67.256	16252	14810	0	752
41.183	64.407	16208	14994	0	752
35.990	62.351	16190	15243	0	752
35.882	58.673	16146	15408	0	752
36.531	55.067	16119	15390	0	752
39.524	54.922	16119	15556	0	752
39.091	56.365	16163	16154	0	752
38.154	55.716	16190	16770	0	752
35.593	53.985	16190	16945	0	752
33.177	50.451	16163	16807	0	752
33.826	50.379	16146	16678	0	752
35.521	52.723	16101	16641	0	752
36.170	54.886	16057	16531	0	752
34.151	54.490	15942	16200	0	752
34.620	54.922	15880	15685	0	752
38.695	57.339	15765	15298	0	752
46.917	63.686	15747	15187	0	752
54.959	70.429	15677	15316	0	752
62.315	75.117	15659	15510	0	752
65.597	76.379	15659	15648	0	752
65.236	76.920	15632	15896	0	752
65.849	77.389	15659	16329	0	752
63.325	78.543	15703	16761	0	752
57.122	75.406	15747	17065	0	752
53.047	73.711	15721	17240	0	752
49.297	72.304	15747	17360	0	752
49.982	73.747	15765	17516	0	752
54.598	77.678	15836	17728	0	752
57.122	80.274	15836	17967	0	752
59.899	80.599	15854	18115	0	752
61.053	79.733	15898	18133	0	752
57.194	77.461	15854	17866	0	752
54.526	76.127	15747	17166	0	752
49.441	73.386	15632	16357	0	752
43.310	68.951	15570	15814	0	752
40.966	65.994	15455	15390	0	752
41.255	61.630	15323	14819	0	752
40.858	59.755	15234	14313	0	752
41.724	57.447	15128	14055	0	752
41.147	55.824	15084	13963	0	752
38.586	53.985	14995	14018	0	752
38.875	53.624	14995	14221	0	752
40.570	53.372	14924	14506	0	752
44.212	55.608	14951	14828	0	752
48.035	58.673	14969	15187	0	752
48.539	60.512	14951	15620	0	752
45.979	62.892	15013	16145	0	752
45.618	63.613	15013	16632	0	752
46.195	66.282	15057	16927	0	752
50.162	70.032	15057	17102	0	752
56.726	74.035	15101	17341	0	752
60.007	77.461	15146	17682	0	752
59.466	75.334	15216	18004	0	752
60.151	75.406	15216	18188	0	752
59.358	74.252	15278	18308	0	752
59.791	75.550	15323	18483	0	752
60.476	73.098	15393	18704	0	752
55.427	70.537	15438	18851	0	752
53.047	67.220	15455	18851	0	752
49.513	68.662	15526	18778	0	752
50.992	74.144	15544	18759	0	752
52.470	78.759	15588	18824	0	752
55.536	79.733	15659	18897	0	752
56.509	76.596	15747	18860	0	752
57.194	74.721	15747	18750	0	752
59.430	73.206	15809	18713	0	752
58.024	75.117	15880	18778	0	752
57.627	73.927	15986	18943	0	752
55.644	74.071	16075	19164	0	752
53.805	72.304	16163	19367	0	752
54.129	71.655	16234	19358	0	752
50.667	70.105	16252	19017	0	752
48.648	66.751	16252	18465	0	752
46.051	64.335	16252	17949	0	752
47.205	64.984	16278	17562	0	752
52.795	68.013	16278	17231	0	752
54.129	69.167	16252	16816	0	752
54.454	68.301	16234	16320	0	752
46.809	64.154	16163	15804	0	752
42.517	58.709	16119	15307	0	752
40.714	59.466	16101	14911	0	752
44.501	63.613	16031	14635	0	752
47.818	69.419	15986	14405	0	752
51.316	73.567	15969	14248	0	752
47.133	71.727	15969	14257	0	752
42.770	68.951	15969	14423	0	752
42.625	65.633	15969	14653	0	752
45.330	69.708	16013	14865	0	752
52.182	74.829	16013	15160	0	752
61.233	81.500	16075	15620	0	752
61.594	81.176	16163	16219	0	752
58.457	77.642	16278	16789	0	752
53.336	73.350	16340	17185	0	752
47.422	71.150	16384	17387	0	752
45.943	70.177	16472	17571	0	752
48.143	70.898	16560	17884	0	752
46.268	69.708	16622	18225	0	752
44.933	67.147	16693	18372	0	752
42.337	65.994	16737	18317	0	752
41.111	66.282	16782	18197	0	752
45.655	67.508	16826	18161	0	752
49.405	68.806	16888	18170	0	752
54.273	69.455	16932	18078	0	752
51.893	69.600	16914	17756	0	752
49.549	69.131	16870	17175	0	752
46.159	68.951	16799	16402	0	752
44.645	69.311	16711	15593	0	752
48.035	69.455	16649	14966	0	752
48.143	68.265	16605	14607	0	752
48.828	67.652	16516	14303	0	752
44.933	66.030	16401	13825	0	752
43.455	65.921	16278	13180	0	752
43.058	67.508	16146	12628	0	752
45.871	68.518	16057	12250	0	752
44.320	67.977	15942	12057	0	752
40.786	64.082	15854	12029	0	752
34.151	60.584	15765	12075	0	752
30.364	56.221	15677	12186	0	752
31.699	57.483	15632	12453	0	752
35.341	58.096	15632	12867	0	752
37.721	59.358	15570	13281	0	752
40.173	61.450	15526	13512	0	752
42.157	65.236	15482	13714	0	752
47.061	70.934	15455	14129	0	752
51.749	74.829	15500	14791	0	752
48.648	75.117	15544	15519	0	752
44.645	70.573	15570	16108	0	752
40.678	66.246	15615	16586	0	752
39.127	65.272	15659	17065	0	752
41.904	64.803	15677	17488	0	752
43.274	61.342	15721	17811	0	752
42.481	56.040	15792	18170	0	752
38.478	50.018	15880	18621	0	752
36.964	48.900	15942	19063	0	752
38.731	53.877	16031	19459	0	752
41.652	61.594	16119	19790	0	752
44.356	63.794	16190	19938	0	752
43.491	60.188	16234	19892	0	752
41.760	54.309	16278	19726	0	752
37.396	47.277	16296	19542	0	752
33.538	43.815	16340	19367	0	752
31.699	43.383	16367	19164	1	836
29.571	41.976	16384	18953	0	836
26.938	39.885	16401	18649	0	836
22.575	39.344	16367	18161	0	836
22.431	40.173	16323	17488	0	836
21.421	42.914	16278	16899	0	836
23.404	45.366	16252	16522	0	836
26.145	46.520	16234	16256	0	836
32.600	47.746	16190	15915	0	836
35.449	50.198	16119	15491	0	836
40.786	50.775	16075	15114	0	836
39.019	51.244	16013	14884	0	836
35.485	49.044	15969	14755	0	836
29.823	46.159	15942	14626	0	836
29.066	44.068	15880	14488	0	836
28.886	46.051	15898	14460	0	836
31.554	44.645	15854	14617	0	836
30.941	45.330	15880	14948	0	836
30.040	46.268	15898	15326	0	836
32.167	50.920	15898	15547	0	836
39.416	57.519	15942	15629	0	836
47.710	62.748	15924	15758	0	836
51.785	65.308	15942	16025	0	836
51.244	62.712	15942	16228	0	836
42.589	56.942	15836	15832	0	836
34.043	53.336	15659	14709	0	836
31.049	51.388	15438	13456	0	836
34.728	52.795	15278	12637	0	836
42.553	56.545	15128	12213	0	836
51.929	60.981	15013	12020	0	836
53.660	61.955	14880	12020	0	836
47.422	59.971	14818	12195	0	836
38.442	55.932	14703	12462	0	836
31.735	54.670	14730	12895	0	836
33.610	57.735	14747	13742	0	836
43.924	64.840	14818	14930	0	836
56.437	71.655	14907	16007	0	836
63.289	73.350	14951	16641	0	836
57.952	68.842	14951	16954	0	836
48.503	61.810	14995	17194	0	836
38.262	57.375	14995	17498	0	836
34.511	58.060	15039	17792	0	836
37.577	61.053	15013	17995	0	836
42.337	64.263	15057	18078	0	836
40.570	61.450	14995	17912	0	836
35.449	58.276	14907	17295	0	836
31.662	54.670	14792	16457	0	836
31.879	56.113	14685	15924	0	836
37.288	58.168	14615	15731	0	836
44.176	61.702	14597	15694	0	836
48.467	63.325	14553	15860	0	836
49.585	65.164	14597	16283	0	836
50.415	66.895	14659	16798	0	836
49.585	67.147	14685	17240	0	836
50.090	64.659	14730	17581	0	836
47.782	61.594	14792	17884	0	836
46.448	58.276	14818	18188	0	836
47.926	57.303	14907	18492	0	836
49.693	60.115	14995	18787	0	836
49.730	60.873	15039	19026	0	836
50.703	61.918	15128	19183	0	836
45.799	61.450	15146	19229	0	836
43.996	61.594	15216	19155	0	836
42.445	61.882	15216	18980	0	836
43.671	62.748	15234	18704	0	836
43.851	59.755	15216	18326	0	836
40.173	55.355	15172	17783	0	836
34.331	48.684	15146	17185	0	836
27.119	43.743	15101	16807	0	836
20.231	43.347	15146	16752	0	836
22.106	45.691	15146	16881	0	836
28.633	48.467	15146	16908	0	836
37.072	49.946	15128	16743	0	836
40.678	44.753	15190	16724	0	836
41.075	39.849	15261	17083	0	836
34.620	34.079	15393	17627	0	836
30.148	31.879	15455	18087	0	836
32.528	34.836	15570	18363	0	836
34.547	38.334	15677	18511	0	836
37.000	42.229	15721	18658	0	836
37.793	42.373	15809	18750	0	836
34.079	42.157	15854	18667	0	836
29.535	37.613	15898	18455	0	836
27.227	33.393	15942	18280	0	836
25.460	27.804	16013	18234	0	836
24.053	26.253	16119	18372	0	836
26.289	25.532	16208	18584	0	836
25.279	28.489	16296	18704	0	836
26.758	29.138	16384	18750	0	836
26.470	30.220	16472	18778	0	836
25.424	32.600	16560	18796	0	836
28.525	37.396	16649	18787	0	836
31.122	47.386	16737	18750	0	836
33.826	53.552	16799	18676	0	836
34.187	55.716	16844	18501	0	836
34.403	53.552	16914	18096	0	836
33.970	50.847	16888	17507	0	836
38.478	50.667	16914	16973	0	836
44.537	52.038	16888	16595	0	836
48.503	51.893	16870	16200	0	836
49.405	48.143	16826	15593	0	836
46.700	43.851	16755	14893	0	836
42.950	39.921	16711	14386	0	836
40.858	39.812	16693	14165	0	836
41.543	41.111	16667	14156	0	836
41.976	42.229	16667	14175	0	836
42.481	43.851	16649	14101	0	836
42.265	43.996	16622	14046	0	836
40.029	46.700	16622	14129	0	836
36.278	47.602	16622	14257	0	836
36.783	51.136	16605	14285	0	836
39.163	53.913	16578	14147	0	836
43.635	57.230	16560	14073	0	836
47.999	57.807	16560	14239	0	836
49.008	57.194	16578	14663	0	836
47.962	52.434	16649	15243	0	836
46.159	49.838	16693	15648	0	836
42.914	46.592	16667	15629	0	836
43.274	45.005	16605	15316	0	836
40.642	43.527	16605	15197	0	836
38.370	39.740	16605	15408	0	836
36.351	37.288	16622	15657	0	836
34.043	34.006	16649	15850	0	836
31.482	32.780	16667	16016	0	836
30.148	33.105	16622	15989	0	836
28.994	33.862	16578	15731	0	836
27.948	36.531	16534	15445	0	836
24.919	37.072	16490	15280	0	836
24.666	37.288	16445	15169	0	836
23.765	35.918	16367	14893	0	836
22.827	35.701	16278	14478	0	836
23.621	34.620	16190	14156	0	836
25.243	35.846	16075	13898	0	836
26.506	37.541	15969	13576	0	836
31.158	39.055	15880	13327	0	836
37.180	44.176	15792	13272	0	836
40.858	46.123	15747	13373	0	836
41.688	49.008	15677	13650	0	836
41.183	49.693	15703	14156	0	836
38.622	49.080	15703	14699	0	836
37.829	50.054	15659	15049	0	836
37.649	51.893	15588	15141	0	836
38.226	53.155	15500	14847	0	836
36.495	53.913	15367	14331	0	836
34.187	52.146	15234	14027	0	836
30.472	49.693	15190	14027	0	836
29.066	46.953	15101	14193	0	836
29.607	46.123	15101	14524	0	836
29.571	44.609	15084	15095	0	836
29.318	44.284	15172	15887	0	836
25.604	40.029	15216	16706	0	836
21.854	35.882	15305	17442	0	836
16.480	32.925	15367	18096	0	836
17.021	32.672	15482	18732	0	836
18.716	33.646	15570	19349	0	836
20.303	35.918	15659	19827	0	836
23.188	35.413	15747	20140	0	836
22.142	34.800	15854	20407	0	836
24.955	35.016	15924	20628	0	836
29.391	38.226	15986	20739	0	836
33.249	41.543	16075	20647	0	836
36.278	44.825	16101	20389	0	836
32.889	43.599	16119	20094	0	836
24.955	40.389	16163	19818	0	836
18.392	36.819	16190	19533	1	656
15.831	34.547	16252	19210	0	656
21.168	33.970	16234	18879	0	656
24.883	34.620	16252	18547	0	656
28.309	35.124	16208	18059	0	656
27.984	36.603	16190	17461	0	656
25.460	39.055	16190	17074	0	656
24.450	43.310	16190	16945	0	656
28.092	49.008	16208	16825	0	656
33.754	52.001	16208	16586	0	656
38.045	53.516	16190	16274	0	656
40.101	52.939	16163	16007	0	656
42.084	52.831	16119	15703	0	656
41.616	51.208	16075	15252	0	656
42.084	50.343	15986	14782	0	656
41.435	47.638	15898	14350	0	656
38.334	43.887	15809	13963	0	656
34.006	40.822	15765	13733	0	656
30.184	41.327	15765	13788	0	656
30.040	45.763	15747	14036	0	656
33.538	50.270	15703	14276	0	656
35.737	49.874	15703	14414	0	656
34.547	45.618	15703	14534	0	656
30.220	37.577	15703	14791	0	656
23.116	31.915	15703	15169	0	656
19.113	30.400	15721	15510	0	656
19.077	33.862	15747	15712	0	656
20.808	37.468	15721	15804	0	656
26.722	39.524	15721	15860	0	656
32.348	43.383	15765	16081	0	656
37.036	44.825	15880	16669	0	656
40.101	47.025	15924	17378	0	656
38.911	46.195	15942	17617	0	656
35.882	43.743	15924	17304	0	656
31.735	38.947	15854	16789	0	656
29.823	35.665	15836	16411	0	656
32.600	35.485	15792	16246	0	656
34.836	37.180	15765	16200	0	656
35.990	41.688	15765	16228	0	656
38.550	45.943	15765	16237	0	656
39.560	50.667	15747	16164	0	656
41.471	52.146	15703	16053	0	656
42.842	49.441	15703	15989	0	656
39.849	42.301	15677	15943	0	656
31.230	35.413	15632	15850	0	656
21.529	30.292	15632	15786	0	656
17.454	30.869	15615	15823	0	656
19.942	37.829	15588	15878	0	656
27.551	42.445	15570	15924	0	656
36.783	44.176	15570	15933	0	656
39.596	42.120	15500	15768	0	656
38.226	37.901	15455	15547	0	656
31.410	33.826	15500	15620	0	656
24.450	31.807	15500	16025	0	656
19.329	32.203	15544	16420	0	656
21.060	35.016	15588	16724	0	656
23.476	37.108	15615	16991	0	656
29.174	36.278	15677	17295	0	656
29.751	32.167	15765	17691	0	656
25.965	23.549	15836	18133	0	656
22.575	16.444	15924	18557	0	656
20.014	13.848	16013	18925	0	656
25.099	15.723	16075	19100	0	656
27.912	20.519	16119	19054	0	656
31.482	24.702	16163	18907	0	656
30.689	28.741	16163	18621	0	656
29.066	30.689	16190	18161	0	656
27.515	33.285	16119	17581	0	656
28.633	33.429	16075	17019	0	656
28.814	33.646	16057	16660	0	656
30.941	35.449	16057	16595	0	656
30.797	34.223	16101	16697	0	656
29.354	35.016	16101	16706	0	656
25.712	35.016	16101	16522	0	656
21.854	34.367	16119	16457	0	656
18.356	37.180	16208	16660	0	656
21.781	38.586	16234	16954	0	656
23.224	39.704	16296	17166	0	656
23.044	35.990	16340	17277	0	656
20.411	30.364	16384	17350	0	656
15.507	28.381	16445	17516	0	656
16.012	28.561	16578	17921	0	656
18.247	33.321	16667	18428	0	656
25.893	38.731	16782	18759	0	656
31.302	39.993	16888	18962	0	656
36.675	40.678	17021	19201	0	656
39.740	38.262	17153	19551	0	656
38.118	37.252	17286	19883	0	656
35.233	35.052	17401	20011	0	656
27.515	33.826	17490	19929	0	656
20.555	31.410	17596	19763	0	656
19.978	30.797	17622	19487	0	656
20.736	31.915	17711	19109	0	656
26.974	36.639	17755	18805	0	656
34.295	41.652	17844	18667	0	656
37.901	43.887	17861	18428	0	656
35.954	41.688	17888	17838	0	656
31.699	37.288	17844	17046	0	656
27.984	33.213	17799	16366	0	656
27.660	33.033	17799	15832	0	656
28.237	35.918	17711	15233	0	656
33.610	40.101	17622	14386	0	656
38.118	42.048	17490	13466	0	656
41.976	43.022	17419	12803	0	656
43.779	44.104	17330	12499	0	656
43.383	41.039	17286	12425	0	656
35.485	35.052	17242	12416	0	656
25.856	28.489	17180	12379	0	656
19.437	21.241	17136	12434	0	656
15.182	16.805	17109	12655	0	656
12.802	15.471	17065	12849	0	656
12.982	15.687	17003	12885	0	656
13.595	19.546	16959	12904	0	656
20.123	24.089	16959	13162	0	656
26.361	30.689	16976	13668	0	656
33.754	36.459	16976	14294	0	656
35.629	37.432	17047	14874	0	656
32.564	35.449	17065	15307	0	656
30.148	34.728	17065	15639	0	656
29.102	35.882	17091	15998	0	656
32.636	37.757	17153	16375	0	656
32.528	41.543	17198	16752	0	656
31.302	41.832	17198	16982	0	656
28.489	42.120	17180	16844	0	656
25.171	39.380	17109	16375	0	656
23.116	33.898	17065	16016	0	656
17.779	27.227	17021	15952	0	656
14.569	19.257	17021	16007	0	656
10.242	17.238	17003	15989	0	656
12.117	22.935	16888	15648	0	656
18.933	33.069	16755	14976	0	656
27.551	41.543	16667	14497	0	656
27.948	44.681	16667	14663	0	656
24.198	40.389	16711	15307	0	656
19.041	34.692	16737	15823	0	656
13.487	28.669	16693	15896	0	656
14.894	24.775	16649	15749	0	656
17.851	24.125	16622	15712	0	656
23.837	24.342	16622	15896	0	656
26.686	26.614	16622	16200	0	656
30.292	30.400	16622	16375	0	656
33.249	33.285	16578	16292	0	656
33.718	35.160	16560	16164	0	656
34.656	34.620	16560	16237	0	656
32.348	33.790	16560	16430	0	656
29.787	31.735	16560	16586	0	656
28.489	30.364	16560	16577	0	656
26.253	29.318	16490	16430	0	656
27.083	29.715	16428	16117	0	656
29.607	31.879	16384	15823	0	656
30.040	33.069	16340	15814	0	656
31.302	34.583	16323	15933	0	656
29.102	36.711	16323	16016	0	656
30.112	38.478	16323	16191	0	656
32.492	42.301	16340	16476	0	656
37.505	47.458	16367	16807	0	656
41.832	50.703	16445	17194	0	656
42.481	50.667	16490	17608	0	656
40.606	49.044	16534	17894	0	656
37.108	45.618	16560	17967	0	656
35.269	41.255	16578	17940	0	656
35.737	39.704	16605	17884	0	656
36.098	36.423	16605	17820	0	656
36.819	34.115	16578	17636	0	656
38.442	33.429	16516	17157	0	656
38.839	32.925	16445	16568	0	656
39.776	34.367	16428	16311	0	656
36.711	35.774	16428	16320	0	656
32.203	37.757	16384	16219	0	656
28.381	36.711	16323	15896	0	656
23.549	34.439	16252	15473	0	656
19.401	30.905	16190	15077	0	656
19.942	28.020	16163	14856	0	656
25.496	30.725	16101	14810	0	656
33.574	35.918	16057	14874	0	656
42.589	42.950	16013	14957	0	656
48.215	45.041	16013	15114	0	656
46.015	43.743	16031	15408	0	656
41.003	40.245	16031	15768	0	656
37.468	38.947	16075	16053	0	656
35.052	39.849	16075	16246	0	656
32.672	40.389	16075	16393	0	656
31.482	37.468	16119	16651	0	656
28.201	35.233	16163	17065	0	656
28.020	32.167	16234	17516	0	656
28.273	32.600	16296	17802	0	656
31.266	34.259	16340	17986	0	656
31.158	35.088	16401	18207	0	656
30.220	32.059	16472	18511	0	656
27.443	29.066	16560	18824	0	656
25.965	25.676	16605	18999	0	656
26.722	26.650	16667	18999	0	656
28.741	28.922	16711	18870	0	656
30.364	31.735	16737	18732	0	656
30.004	33.718	16799	18630	0	656
30.725	33.790	16826	18529	0	656
32.816	34.259	16870	18437	1	784
35.233	34.151	16870	18271	0	784
35.918	34.872	16870	17857	0	784
34.367	31.626	16844	17341	0	784
29.968	27.804	16888	17185	0	784
27.984	25.063	16959	17378	0	784
24.089	24.594	16976	17507	0	784
24.558	27.371	17003	17442	0	784
24.342	28.814	17047	17267	0	784
22.972	30.472	17065	17083	0	784
26.073	30.436	17091	16991	0	784
29.895	29.607	17136	17065	0	784
33.538	29.174	17224	17240	0	784
33.970	27.948	17286	17341	0	784
31.735	26.758	17286	17295	0	784
29.427	28.453	17330	17212	0	784
26.758	31.049	17375	17185	0	784
29.210	34.403	17419	17221	0	784
33.141	34.295	17490	17212	0	784
35.449	31.085	17490	17157	0	784
34.728	27.660	17552	17129	0	784
32.203	25.279	17622	17231	0	784
27.840	25.676	17711	17488	0	784
22.719	25.460	17755	17654	0	784
16.913	26.217	17773	17433	0	784
15.579	23.440	17755	16890	0	784
14.569	22.863	17799	16549	0	784
12.550	21.385	17817	16595	0	784
14.389	19.293	17844	16724	0	784
13.848	18.464	17906	16761	0	784
16.300	17.923	17932	16770	0	784
18.572	20.339	17994	16789	0	784
24.775	24.991	18065	16835	0	784
27.155	31.158	18065	16816	0	784
28.741	36.351	18109	16724	0	784
29.102	38.983	18127	16568	0	784
28.020	38.370	18065	16191	0	784
28.669	36.567	18021	15629	0	784
26.470	34.043	18021	15187	0	784
28.020	32.276	17888	14782	0	784
26.650	31.085	17729	13880	0	784
25.496	30.869	17490	12453	0	784
22.611	29.282	17286	11200	0	784
22.467	28.958	17109	10547	0	784
22.358	30.941	16959	10372	0	784
23.332	31.554	16870	10491	0	784
25.460	33.718	16799	10768	0	784
26.866	32.961	16737	11071	0	784
24.414	30.472	16667	11504	0	784
24.378	31.374	16667	12167	0	784
26.037	32.420	16693	13097	0	784
29.823	37.649	16782	14175	0	784
32.600	43.851	16826	15151	0	784
37.000	47.097	16914	15998	0	784
38.045	48.287	17021	16853	0	784
37.829	45.186	17109	17838	0	784
32.276	37.613	17286	18842	0	784
26.830	29.499	17419	19662	0	784
18.933	24.342	17507	20186	0	784
14.605	22.899	17622	20398	0	784
13.054	22.503	17622	20297	0	784
14.208	25.171	17684	20085	0	784
15.471	25.063	17729	20021	0	784
18.500	26.974	17799	19984	0	784
24.198	31.771	17799	19708	0	784
29.859	38.695	17817	19293	0	784
34.980	41.868	17817	18916	0	784
33.249	42.734	17888	18824	0	784
34.547	41.075	17994	19109	0	784
37.324	38.731	18065	19349	0	784
40.173	37.324	18109	19174	0	784
43.491	37.649	18127	18722	0	784
39.921	33.862	18127	18280	0	784
33.646	29.751	18127	17967	0	784
28.994	26.902	18171	17765	0	784
28.273	28.597	18242	17627	0	784
31.554	29.030	18242	17516	0	784
28.309	28.561	18304	17498	0	784
23.368	24.630	18375	17627	0	784
16.877	19.041	18437	17746	1	316
10.169	16.084	18481	17709	0	316
12.514	18.824	18481	17479	0	316
18.067	24.775	18525	17175	0	316
22.431	27.443	18525	16918	0	316
26.614	31.302	18552	16779	0	316
29.499	33.754	18569	16651	0	316
32.203	37.685	18569	16357	0	316
34.115	38.947	18481	15795	0	316
33.429	38.514	18330	14810	0	316
29.427	33.898	18153	13456	0	316
21.024	29.102	17976	12315	0	316
17.743	28.633	17817	11688	0	316
15.579	29.463	17729	11412	0	316
18.788	30.472	17596	11283	0	316
21.385	30.076	17534	11274	0	316
23.152	28.777	17445	11513	0	316
22.358	30.328	17490	12167	0	316
17.310	31.662	17507	13106	0	316
14.930	34.656	17534	13815	0	316
14.389	34.800	17463	13990	0	316
21.565	35.593	17401	13871	0	316
28.705	36.387	17357	13825	0	316
34.800	37.757	17286	13972	0	316
34.151	38.298	17242	14129	0	316
29.931	39.344	17153	14036	0	316
29.030	41.291	17003	13714	0	316
33.610	45.799	16959	13622	0	316
38.190	47.422	16914	13954	0	316
37.396	45.582	16888	14405	0	316
30.689	39.812	16844	14699	0	316
23.260	34.043	16755	14810	0	316
19.582	33.285	16711	14884	0	316
22.575	36.639	16649	14948	0	316
28.273	40.317	16578	14893	0	316
28.453	40.245	16472	14690	0	316
26.578	37.757	16367	14451	0	316
26.289	34.656	16252	14313	0	316
27.263	34.295	16190	14368	0	316
30.400	35.449	16146	14690	0	316
31.987	35.846	16119	15187	0	316
29.968	35.088	16119	15620	0	316
26.794	34.800	16101	15933	0	316
27.010	34.223	16101	16292	0	316
30.076	36.387	16101	16687	0	316
31.951	37.793	16101	17056	0	316
32.997	37.324	16119	17304	0	316
30.761	34.511	16119	17461	0	316
27.984	29.968	16101	17544	0	316
23.585	25.532	16057	17498	0	316
23.621	21.241	16031	17341	0	316
20.808	21.349	15986	17185	0	316
21.673	22.791	15942	17111	0	316
20.700	27.515	15880	17037	0	316
23.080	33.393	15836	16789	0	316
27.587	38.478	15765	16402	0	316
29.715	39.416	15703	16154	0	316
31.662	37.036	15659	16145	0	316
27.515	29.571	15632	16292	0	316
20.411	21.926	15588	16329	0	316
11.396	16.192	15526	16154	0	316
11.179	14.028	15482	16016	0	316
12.333	16.949	15500	16090	0	316
20.303	20.411	15455	16375	0	316
23.621	23.368	15526	16770	0	316
26.109	24.053	15544	17148	0	316
20.952	21.529	15570	17507	0	316
17.238	20.519	15659	18004	0	316
15.795	19.690	15809	18704	0	316
17.166	22.755	15898	19468	0	316
20.123	23.873	15986	19965	0	316
22.322	26.289	16057	19956	0	316
24.270	25.568	16075	19689	0	316
22.647	23.837	16163	19698	0	316
25.099	23.837	16278	20030	0	316
28.201	23.981	16384	20343	0	316
31.338	27.335	16490	20564	0	316
30.292	27.227	16622	20803	0	316
28.309	25.099	16737	20932	0	316
23.188	20.014	16799	20739	0	316
19.473	14.028	16888	20426	0	316
17.057	14.353	17003	20334	0	316
22.575	20.195	17065	20361	0	316
27.047	30.256	17153	20140	1	332
34.908	36.206	17224	19680	0	332
38.803	34.944	17242	19256	0	332
37.541	29.535	17313	18980	0	332
32.997	23.837	17357	18695	0	332
28.814	25.243	17357	18216	0	332
28.705	29.968	17375	17562	0	332
30.581	33.682	17330	16973	0	332
29.931	32.276	17375	16623	0	332
27.948	25.424	17445	16568	0	332
21.457	18.283	17463	16614	0	332
17.743	14.497	17534	16568	0	332
15.326	12.153	17552	16503	0	332
12.117	7.645	17640	16512	0	332
10.061	4.508	17667	16549	0	332
11.179	4.003	17755	16531	0	332
14.281	8.727	17773	16485	0	332
20.267	17.851	17861	16522	0	332
28.164	27.515	17932	16733	0	332
31.915	33.105	18038	17157	0	332
31.338	33.790	18198	17691	0	332
29.751	33.321	18304	18050	0	332
26.289	31.338	18419	18216	0	332
24.342	30.148	18507	18345	0	332
23.693	29.571	18658	18529	0	332
21.168	26.001	18773	18713	0	332
18.897	24.558	18861	18768	0	332
15.831	21.601	18950	18676	0	332
11.323	20.519	19012	18455	0	332
10.422	21.096	19056	18096	0	332
12.622	20.447	19083	17636	0	332
12.261	19.654	19083	17083	0	332
12.766	16.228	19038	16348	0	332
14.064	13.776	18923	15408	0	332
15.507	12.658	18817	14386	0	332
18.428	15.723	18684	13401	0	332
24.306	22.250	18596	12674	0	332
29.174	30.364	18507	12315	0	332
31.951	37.216	18437	12176	0	332
33.574	36.711	18419	12112	0	332
27.804	32.203	18330	12075	0	332
23.873	25.171	18260	12149	0	332
20.880	22.106	18260	12397	0	332
22.286	24.775	18286	12839	0	332
30.112	31.735	18260	13281	0	332
37.144	37.432	18242	13548	0	332
39.776	38.695	18260	13788	0	332
35.124	35.810	18260	14119	0	332
27.443	32.925	18286	14543	0	332
21.709	31.302	18304	15012	0	332
16.012	28.850	18348	15445	0	332
17.093	26.289	18375	15795	0	332
18.175	21.277	18419	16117	0	332
21.313	17.057	18463	16549	0	332
24.414	16.372	18507	17028	0	332
23.296	18.716	18569	17350	0	332
22.322	24.198	18596	17415	0	332
19.221	26.073	18569	17249	0	332
14.785	27.263	18596	16991	0	332
15.867	25.965	18552	16825	0	332
17.057	26.073	18525	16752	0	332
18.247	25.424	18507	16641	0	332
20.447	26.325	18507	16476	0	332
23.440	28.777	18463	16338	0	332
24.775	31.013	18463	16228	0	332
26.722	31.735	18392	16007	0	332
27.840	33.718	18286	15491	0	332
24.522	32.816	18153	14736	0	332
21.818	30.400	17994	13898	0	332
20.231	27.624	17817	13125	0	332
16.120	25.893	17684	12545	0	332
16.264	24.811	17534	12241	0	332
16.192	24.486	17419	12094	0	332
17.959	25.279	17242	11836	0	332
18.031	26.037	17091	11458	0	332
21.745	27.407	17003	11431	0	332
25.568	31.194	16932	11965	0	332
31.626	37.468	16888	12701	0	332
36.783	42.661	16870	13318	0	332
39.668	43.924	16844	13760	0	332
38.226	42.950	16826	14202	0	332
35.197	39.596	16799	14736	0	332
35.016	37.072	16782	15252	0	332
37.901	40.786	16782	15620	0	332
41.003	43.996	16737	15915	0	332
42.193	45.438	16737	16256	0	332
36.314	41.976	16755	16678	0	332
27.732	34.764	16799	17258	0	332
19.005	27.768	16844	17857	0	332
15.903	24.198	16888	18308	0	332
14.930	23.044	16932	18612	0	332
17.166	22.791	16976	18860	0	332
15.182	22.286	17003	19091	0	332
11.792	19.942	17021	19220	0	332
10.097	20.591	17047	19164	0	332
10.169	24.594	17065	18980	0	332
16.192	29.535	17047	18732	0	332
19.221	31.735	17003	18400	0	332
23.044	30.977	16959	18004	0	332
21.926	28.525	16914	17571	0	332
22.106	25.496	16826	17037	0	332
24.775	27.479	16711	16338	0	332
28.453	33.862	16560	15482	0	332
35.413	42.265	16428	14653	0	332
39.776	46.268	16296	14101	0	332
39.993	45.150	16208	13917	0	332
34.259	38.154	16163	14018	0	332
24.414	30.508	16119	14285	0	332
16.516	24.811	16075	14534	0	332
10.350	24.594	16013	14626	0	332
11.792	28.561	15942	14451	0	332
17.057	31.699	15836	14129	0	332
24.847	33.429	15747	13889	0	332
30.040	31.879	15615	13751	0	332
31.662	30.184	15544	13742	0	332
29.246	28.741	15500	13935	0	332
23.224	28.273	15455	14359	0	332
22.719	30.797	15438	14782	0	332
25.640	34.079	15438	15068	0	332
32.744	36.206	15323	15178	0	332
36.855	36.928	15234	14976	0	332
37.144	35.593	15128	14607	0	332
32.348	33.646	15057	14497	0	332
29.030	30.076	14924	14534	0	332
27.263	28.886	14818	14285	0	332
25.712	29.427	14703	13963	0	332
25.171	29.751	14641	14147	0	332
23.332	30.869	14659	14856	0	332
24.486	31.158	14703	15712	0	332
24.666	30.905	14730	16522	0	332
26.974	29.246	14792	17231	0	332
26.037	26.037	14836	17700	0	332
20.519	22.358	14836	17958	0	332
18.211	18.680	14880	18234	0	332
15.074	16.733	14924	18630	0	332
18.500	19.185	14995	19063	0	332
22.575	21.421	15013	19321	0	332
28.056	25.243	15084	19367	0	332
33.213	29.138	15128	19450	0	332
36.242	30.364	15234	19772	0	332
37.505	31.049	15323	20269	0	332
37.432	31.771	15411	20610	0	332
36.639	29.859	15455	20610	0	332
34.692	27.840	15544	20509	0	332
34.151	26.217	15659	20490	0	332
32.600	25.640	15703	20546	0	332
29.174	24.775	15792	20546	0	332
24.522	22.791	15854	20444	1	588
16.120	18.139	15986	20361	0	588
14.317	14.677	16075	20444	0	588
12.153	11.864	16208	20739	0	588
15.290	11.612	16384	21126	0	588
16.949	15.110	16534	21411	0	588
19.762	16.841	16711	21595	0	588
19.546	17.923	16870	21743	0	588
22.395	18.644	17047	21918	0	588
24.450	18.788	17242	22102	0	588
24.486	18.788	17401	22148	0	588
24.234	19.257	17552	21982	0	588
19.329	19.726	17684	21678	0	588
20.339	22.719	17817	21337	0	588
24.486	27.696	17932	21034	0	588
29.535	32.456	18109	20849	0	588
32.816	35.521	18242	20739	0	588
31.626	35.269	18348	20435	0	588
25.388	32.672	18392	19708	0	588
20.123	28.381	18419	18704	0	588
15.579	26.217	18437	17756	0	588
16.336	26.217	18437	17028	0	588
16.516	27.119	18463	16494	0	588
18.860	28.164	18507	16062	0	588
18.788	27.191	18525	15675	0	588
19.257	24.594	18596	15556	0	588
14.461	19.870	18729	15814	0	588
13.091	17.166	18861	16191	0	588
12.405	16.480	18923	16274	0	588
15.182	20.195	18950	15933	0	588
22.467	25.965	18950	15454	0	588
30.328	31.266	18968	15068	0	588
36.062	35.737	18968	14782	0	588
39.596	37.072	18968	14497	0	588
38.658	37.793	18950	14165	0	588
40.029	39.704	18950	13917	0	588
43.383	44.501	18950	13797	0	588
51.064	49.982	18968	13806	0	588
55.752	51.172	18994	13898	0	588
54.670	47.133	18994	14000	0	588
44.897	36.783	19012	14073	0	588
30.941	28.669	19038	14184	0	588
24.702	24.198	19056	14322	0	588
24.125	29.066	19083	14478	0	588
33.213	36.639	19100	14663	0	588
38.803	39.452	19145	14893	0	588
35.918	35.485	19171	15031	0	588
25.460	27.263	19171	15040	0	588
13.595	18.067	19189	15123	0	588
6.671	11.323	19233	15408	0	588
7.825	10.350	19233	15593	0	588
11.756	11.648	19215	15326	0	588
18.031	15.651	19145	14810	0	588
19.257	20.123	19038	14350	0	588
22.647	24.739	18950	13898	0	588
24.702	27.119	18835	13410	0	588
23.332	26.902	18729	12931	0	588
23.116	24.270	18569	12434	0	588
19.149	21.998	18437	11900	0	588
17.202	19.365	18286	11467	0	588
18.860	17.959	18171	11311	0	588
19.221	17.815	18065	11458	0	588
21.168	16.841	18021	11854	0	588
20.014	16.985	17994	12333	0	588
21.493	18.608	17932	12821	0	588
23.116	21.818	17950	13355	0	588
26.938	26.001	17906	13898	0	588
27.948	28.814	17906	14368	0	588
27.407	28.489	17888	14727	0	588
23.765	27.551	17844	15022	0	588
23.008	28.092	17844	15353	0	588
24.414	31.951	17844	15768	0	588
24.919	35.052	17844	16191	0	588
22.250	34.620	17817	16430	0	588
16.300	29.282	17773	16512	0	588
7.285	20.736	17773	16586	0	588
2.380	15.867	17755	16724	0	588
3.534	17.634	17755	16872	0	588
8.835	21.890	17711	16908	0	588
13.992	25.279	17684	16872	1	316
12.550	23.152	17640	16798	0	316
10.169	17.490	17596	16669	0	316
6.131	13.379	17534	16494	0	316
8.366	16.913	17490	16348	0	316
13.920	24.486	17419	16237	0	316
23.332	34.439	17357	16044	0	316
25.604	38.803	17224	15574	0	316
25.063	37.937	17047	14819	0	316
21.529	30.977	16844	13871	0	316
13.956	21.313	16605	12803	0	316
9.629	14.894	16384	11882	0	316
6.058	15.471	16190	11366	0	316
7.862	21.962	16013	11210	0	316
13.054	33.249	15880	11292	0	316
21.637	41.363	15765	11569	0	316
27.047	42.661	15677	12038	0	316
28.092	38.082	15615	12600	0	316
22.539	30.148	15570	13125	0	316
13.992	22.070	15482	13576	0	316
5.121	16.841	15393	13852	0	316
2.019	13.091	15278	13908	0	316
6.924	15.507	15128	13861	0	316
13.812	19.978	14995	13760	0	316
22.395	22.322	14792	13438	0	316
21.890	24.414	14615	13088	0	316
18.067	21.349	14526	13171	0	316
11.396	20.195	14482	13751	0	316
9.845	19.762	14420	14488	0	316
12.369	22.070	14393	15233	0	316
15.471	22.935	14438	16071	0	316
19.798	23.837	14482	16890	0	316
18.680	23.657	14508	17673	0	316
19.510	23.008	14570	18529	0	316
20.231	23.657	14703	19505	0	316
21.565	25.532	14818	20325	0	316
25.027	26.001	14836	20721	0	316
28.020	26.253	14880	20776	0	316
28.525	24.125	14907	20767	0	316
27.551	20.087	14951	20840	0	316
22.467	17.057	15013	20859	0	316
17.238	15.326	14995	20665	0	316
13.740	18.356	14995	20269	0	316
14.281	21.493	14969	19901	0	316
19.582	25.279	15013	19726	0	316
21.241	26.650	15039	19717	0	316
20.736	26.542	15084	19671	0	316
16.841	23.621	15057	19441	0	316
13.091	22.683	15084	19146	0	316
12.586	20.231	15084	18916	0	316
16.084	19.437	15128	18778	0	316
18.536	17.310	15128	18667	0	316
19.257	16.877	15172	18511	0	316
15.651	16.300	15172	18363	0	316
15.975	17.526	15261	18345	0	316
14.425	17.995	15323	18575	0	316
15.218	17.238	15455	18907	0	316
12.622	15.002	15482	18934	0	316
9.232	14.461	15411	18354	0	316
8.871	15.867	15393	17470	0	316
9.016	17.166	15367	16954	0	316
11.251	18.320	15411	16908	0	316
11.468	17.093	15438	17010	0	316
11.937	12.838	15482	17185	0	316
8.619	8.258	15588	17442	0	316
7.285	4.364	15632	17645	0	316
5.878	0.685	15703	17811	0	316
1.947	-2.019	15836	18105	0	316
-3.029	-3.895	15969	18593	0	316
-6.203	-7.357	16075	18953	0	316
-9.592	-8.943	16119	18897	0	316
-10.350	-12.405	16146	18520	0	316
-9.989	-13.379	16190	18161	0	316
-7.573	-13.415	16208	17930	0	316
-6.816	-12.261	16296	17802	0	316
-6.383	-12.694	16340	17783	0	316
-9.809	-11.937	16428	17820	0	316
-12.081	-13.163	16490	17838	0	316
-12.766	-14.677	16560	17848	0	316
-8.439	-11.396	16622	17894	0	316
-0.216	-9.016	16667	17820	0	316
8.511	-6.419	16711	17562	0	316
10.891	-4.904	16737	17304	0	316
7.140	-7.537	16799	17185	0	316
1.623	-12.081	16844	17129	0	316
-4.904	-14.281	16888	17010	0	316
-1.406	-13.704	16888	16752	0	316
4.039	-10.783	16888	16411	0	316
10.602	-9.629	16914	16053	0	316
11.973	-9.016	16870	15666	0	316
9.484	-10.783	16870	15344	0	316
4.544	-12.297	16799	15049	0	316
1.262	-12.658	16711	14442	0	316
1.623	-12.514	16605	13604	0	316
2.921	-9.773	16516	13106	0	316
4.688	-8.979	16472	13060	0	316
5.842	-5.085	16445	13134	0	316
5.590	-2.633	16401	13217	0	316
5.698	-0.865	16384	13327	0	316
5.878	-1.983	16384	13502	0	316
2.921	-5.157	16401	13917	0	316
2.885	-7.789	16490	14699	0	316
0.938	-10.061	16578	15528	0	316
1.767	-9.340	16605	15933	0	316
4.147	-7.789	16605	15933	0	316
4.616	-5.301	16605	15850	0	316
4.075	-4.327	16622	15896	0	316
1.803	-5.517	16622	16117	0	316
-0.829	-5.734	16649	16375	0	316
-1.262	-6.455	16649	16420	0	316
-2.380	-7.789	16622	16256	0	316
-1.082	-8.186	16667	16274	0	316
0.649	-7.248	16711	16651	0	316
4.544	-4.724	16782	17129	0	316
8.186	0.902	16844	17470	0	316
11.468	4.111	16888	17645	0	316
15.867	7.285	16914	17756	0	316
14.497	5.590	16976	17811	0	316
17.310	5.734	16976	17719	0	316
17.346	6.275	16959	17396	0	316
18.247	8.114	16914	16936	0	316
15.362	9.340	16888	16577	0	316
12.910	7.176	16888	16439	0	316
6.167	4.436	16932	16540	0	316
0.938	1.442	16932	16733	0	316
-2.308	-0.180	16959	16835	0	316
-4.652	-1.046	16976	16770	0	316
-4.291	-2.741	16932	16485	0	316
-5.554	-4.075	16888	16025	0	316
-3.859	-3.462	16799	15491	0	316
-4.039	-2.236	16711	14957	0	316
-2.272	0.829	16622	14580	0	316
-2.056	3.065	16578	14423	0	316
-1.298	5.337	16560	14442	0	316
-0.577	5.157	16534	14571	0	316
-0.144	5.554	16534	14727	0	316
1.370	5.301	16534	14911	0	316
3.065	3.570	16516	15086	0	316
4.832	3.173	16472	15049	0	316
6.563	4.291	16428	14902	0	316
9.340	6.022	16445	15105	0	316
9.160	8.691	16472	15629	0	316
11.143	10.458	16490	16053	0	316
12.153	13.018	16490	16265	0	316
15.615	15.146	16490	16357	0	316
17.887	16.336	16516	16457	0	316
21.385	18.824	16534	16614	0	316
22.755	20.916	16516	16623	0	316
24.234	23.981	16472	16402	0	316
23.332	24.991	16428	16127	0	316
18.500	24.486	16401	15998	0	316
13.379	19.546	16401	16062	0	316
7.825	13.487	16428	16274	0	316
6.239	10.422	16445	16558	0	316
9.953	9.052	16445	16779	0	316
15.002	11.684	16490	16908	0	316
16.516	12.766	16490	17065	0	316
16.192	11.540	16534	17332	0	316
12.189	11.287	16605	17617	0	316
12.189	11.973	16622	17746	0	316
11.900	13.487	16667	17756	0	316
12.982	14.605	16693	17737	0	316
13.415	14.245	16693	17737	0	316
9.701	11.035	16737	17728	0	316
6.383	6.744	16737	17645	0	316
5.013	6.022	16737	17498	0	316
4.327	6.491	16711	17258	0	316
6.203	7.934	16667	16816	0	316
7.681	10.097	16578	16182	0	316
9.376	11.143	16490	15537	0	316
10.350	12.081	16401	14994	0	316
13.018	14.208	16296	14497	0	316
13.235	15.939	16163	13908	0	316
17.310	19.401	16013	13235	0	316
17.202	22.178	15880	12747	0	316
16.372	23.188	15836	12609	0	316
17.454	22.755	15721	12747	0	316
15.002	19.726	15632	12849	0	316
16.192	18.067	15526	12674	0	316
15.975	15.146	15411	12434	0	316
17.093	14.245	15323	12434	0	316
15.290	14.894	15261	12710	0	316
16.516	14.569	15190	13116	0	316
13.848	14.100	15172	13502	0	316
14.930	14.785	15128	13926	0	316
13.812	13.668	15146	14478	0	316
12.153	15.651	15146	15215	0	316
13.956	14.930	15216	16016	0	316
12.045	14.533	15234	16651	0	316
10.819	14.172	15323	17175	0	316
12.261	14.894	15349	17719	0	316
13.018	15.471	15438	18299	0	316
13.812	19.329	15526	18842	0	316
16.336	20.988	15570	19220	0	316
14.966	20.880	15632	19404	0	316
13.271	18.320	15677	19533	0	316
12.117	17.815	15747	19662	0	316
11.215	18.464	15792	19790	0	316
13.992	19.726	15880	19947	0	316
13.740	20.447	15969	20094	0	316
15.723	19.690	15986	20011	0	316
16.841	19.113	15942	19450	0	316
21.241	20.880	15854	18529	0	316
22.395	25.640	15792	17663	0	316
24.414	29.391	15747	17000	1	816
23.693	29.715	15615	16320	0	816
20.267	27.227	15455	15381	0	816
19.726	23.008	15305	14331	0	816
20.087	21.132	15146	13530	0	816
23.332	22.503	15057	13116	0	816
26.037	25.279	14969	13051	0	816
26.830	26.361	14924	13180	0	816
25.099	24.630	14818	13272	0	816
20.664	20.519	14818	13355	0	816
13.018	16.264	14774	13558	0	816
11.179	14.064	14703	13871	0	816
12.369	16.913	14685	14165	0	816
18.283	21.349	14659	14368	0	816
22.467	23.837	14615	14635	0	816
23.657	25.352	14641	14939	0	816
18.969	24.162	14553	14939	0	816
20.808	24.919	14438	14589	0	816
26.470	28.958	14349	14359	0	816
36.819	32.348	14331	14488	0	816
41.255	34.187	14287	14810	0	816
37.541	34.475	14287	15243	0	816
27.587	31.085	14331	15823	0	816
19.942	28.777	14376	16457	0	816
19.654	28.741	14420	17120	0	816
22.070	27.948	14526	17820	0	816
25.460	27.948	14641	18547	0	816
26.866	27.479	14747	19330	0	816
24.378	26.542	14969	20269	0	816
21.457	22.106	15128	21144	0	816
20.339	18.428	15216	21503	0	816
16.444	14.569	15278	21337	0	816
17.129	13.992	15323	20951	0	816
16.841	16.120	15349	20638	0	816
20.267	17.598	15438	20463	0	816
19.582	17.238	15482	20325	0	816
20.231	15.290	15526	20058	0	816
15.867	13.487	15570	19689	0	816
16.336	15.182	15632	19505	0	816
19.149	19.257	15721	19523	0	816
26.433	27.876	15792	19505	0	816
33.393	33.393	15880	19358	0	816
35.485	33.934	15898	19081	0	816
30.941	30.905	15942	18814	0	816
22.611	24.162	15986	18547	0	816
18.680	21.096	15942	17986	0	816
16.336	20.627	15898	17111	0	816
17.166	23.296	15854	16292	0	816
14.245	23.404	15765	15602	0	816
11.828	20.231	15659	14782	0	816
9.701	17.129	15526	13779	0	816
8.150	15.218	15367	12885	0	816
9.809	15.326	15305	12480	0	816
8.222	14.858	15261	12582	0	816
4.147	13.920	15261	12950	0	816
2.128	14.677	15305	13484	0	816
3.823	13.631	15349	14165	0	816
5.157	14.641	15455	14893	0	816
9.088	13.163	15526	15574	0	816
10.169	10.999	15588	16145	0	816
10.314	9.448	15677	16577	0	816
12.441	14.172	15721	16945	0	816
18.139	20.519	15792	17258	0	816
18.572	26.650	15880	17562	0	816
19.762	27.912	15924	17820	0	816
15.759	23.332	15986	17802	0	816
13.776	19.005	15986	17608	0	816
13.307	16.012	16075	17765	0	816
18.500	17.851	16208	18400	0	816
20.988	20.050	16340	19054	0	816
20.555	21.421	16445	19376	0	816
15.002	19.473	16534	19395	0	816
9.376	15.038	16605	19321	0	816
3.282	9.556	16693	19293	0	816
-1.587	2.957	16782	19349	0	816
-6.094	-3.534	16844	19367	0	816
-8.547	-8.330	16932	19201	0	816
-13.379	-10.314	17003	18989	0	816
-12.658	-8.979	17065	18916	0	816
-10.350	-6.599	17153	18925	1	316
-6.058	-3.137	17242	18897	0	316
-0.793	-0.361	17330	18695	0	316
1.262	0.216	17357	18372	0	316
0.721	0.325	17419	18105	0	316
-1.695	-2.019	17463	17995	0	316
-4.364	-3.101	17552	17949	0	316
-6.708	-6.888	17596	17884	0	316
-8.655	-9.989	17684	17792	0	316
-11.864	-15.110	17729	17663	0	316
-15.398	-17.887	17817	17479	0	316
-18.139	-21.349	17817	17249	0	316
-21.601	-22.322	17861	16881	0	316
-23.512	-24.234	17844	16420	0	316
-26.938	-24.991	17817	15915	0	316
-27.624	-25.243	17773	15353	0	316
-24.450	-22.395	17684	14736	0	316
-19.221	-19.293	17667	14175	0	316
-16.408	-20.591	17578	13705	0	316
-13.848	-23.008	17490	13208	0	316
-16.769	-27.047	17357	12499	0	316
-19.690	-31.013	17198	11762	0	316
-24.558	-31.194	17136	11449	0	316
-27.263	-33.646	17065	11559	0	316
-32.672	-36.819	16976	11753	0	316
-33.862	-38.586	16914	11817	0	316
-31.266	-39.091	16844	11780	0	316
-25.640	-36.495	16782	11799	0	316
-23.368	-34.475	16711	11983	0	316
-20.159	-35.160	16649	12268	0	316
-23.693	-36.531	16578	12471	0	316
-23.152	-37.216	16516	12563	0	316
-21.818	-32.492	16428	12692	0	316
-17.346	-26.722	16401	12987	0	316
-10.350	-18.175	16384	13410	0	316
-5.662	-13.740	16367	13898	0	316
-6.491	-13.199	16367	14322	0	316
-9.484	-15.687	16296	14635	0	316
-14.749	-20.014	16278	14930	0	316
-20.772	-26.217	16278	15316	0	316
-22.142	-29.066	16278	15758	0	316
-22.791	-33.105	16278	16117	0	316
-22.683	-37.468	16190	16117	0	316
-23.224	-38.514	16101	15749	0	316
-22.431	-39.488	16013	15445	0	316
-19.185	-36.964	15969	15408	0	316
-18.752	-32.384	15898	15454	0	316
-16.913	-29.174	15854	15519	0	316
-19.113	-28.777	15792	15574	0	316
-18.536	-28.489	15721	15537	0	316
-20.050	-31.338	15632	15326	0	316
-16.516	-31.085	15500	14957	0	316
-16.372	-32.492	15367	14552	0	316
-14.894	-32.131	15261	14184	0	316
-15.002	-31.699	15084	13834	0	316
-14.100	-30.581	14969	13512	0	316
-16.012	-30.364	14818	13373	0	316
-16.516	-32.420	14747	13475	0	316
-21.024	-36.387	14641	13604	0	316
-22.683	-40.894	14482	13530	0	316
-23.585	-40.786	14376	13373	0	316
-23.476	-37.324	14287	13429	0	316
-20.808	-33.502	14216	13733	0	316
-25.640	-32.672	14154	14175	0	316
-31.230	-38.009	14110	14635	0	316
-35.701	-46.845	14066	15068	0	316
-39.993	-53.155	14066	15556	0	316
-36.098	-55.608	14066	16090	0	316
-32.059	-53.264	13977	16366	0	316
-26.758	-49.477	13933	16311	0	316
-25.568	-46.592	13845	16228	0	316
-23.440	-41.940	13800	16348	0	316
-21.421	-37.252	13818	16623	0	316
-14.208	-32.167	13818	17083	0	316
-10.746	-28.417	13845	17617	0	316
-6.780	-28.345	13862	18078	0	316
-7.970	-32.420	13862	18290	0	316
-10.746	-35.918	13800	18059	0	316
-14.966	-37.108	13685	17498	0	316
-15.074	-36.819	13623	17111	0	316
-15.074	-34.006	13597	17083	0	316
-18.860	-34.043	13579	17249	0	316
-21.565	-35.882	13579	17406	0	316
-24.883	-40.714	13535	17360	0	316
-28.128	-44.933	13464	17129	0	316
-30.725	-49.441	13446	16945	0	316
-32.131	-53.805	13402	16927	0	316
-35.197	-57.447	13420	17093	0	316
-38.298	-59.394	13446	17470	0	316
-36.278	-57.519	13535	17986	0	316
-34.151	-53.841	13623	18621	0	316
-27.732	-47.205	13730	19330	0	316
-23.332	-40.894	13862	19993	0	316
-18.969	-36.242	13995	20536	0	316
-12.153	-30.833	14128	20960	0	316
-11.360	-27.227	14261	21282	0	316
-11.107	-27.948	14420	21586	0	316
-14.353	-32.708	14553	21918	0	316
-23.332	-41.832	14703	22175	0	316
-28.958	-51.821	14862	22267	0	316
-33.682	-60.801	14924	22157	0	316
-33.826	-65.236	14995	21697	0	316
-33.393	-65.849	15039	20932	0	316
-33.177	-64.803	15057	20214	0	316
-34.403	-62.892	15146	19800	1	416
-35.593	-62.532	15190	19643	0	416
-35.810	-64.731	15278	19551	0	416
-36.928	-69.347	15411	19468	0	416
-35.737	-73.242	15482	19395	0	416
-34.980	-74.576	15615	19312	0	416
-34.908	-72.485	15703	19229	0	416
-32.456	-67.688	15765	19091	0	416
-28.597	-59.322	15836	18732	0	416
-24.558	-53.841	15898	18336	0	416
-16.516	-48.828	16057	18391	0	416
-13.379	-44.681	16208	18851	0	416
-10.927	-45.294	16323	19100	0	416
-16.841	-46.159	16384	18824	0	416
-21.493	-50.054	16445	18299	0	416
-29.282	-53.841	16490	17802	0	416
-32.059	-56.149	16516	17378	0	416
-32.528	-54.670	16534	17028	0	416
-28.705	-51.136	16578	16623	0	416
-27.443	-49.116	16560	16081	0	416
-26.974	-50.379	16534	15537	0	416
-28.633	-52.687	16534	15141	0	416
-30.977	-55.896	16534	14828	0	416
-32.059	-54.490	16516	14478	0	416
-24.666	-49.369	16472	14064	0	416
-19.077	-43.960	16445	13714	0	416
-16.192	-41.003	16428	13502	0	416
-15.831	-41.652	16401	13447	0	416
-19.798	-43.671	16401	13530	0	416
-24.198	-46.340	16401	13613	0	416
-25.460	-44.104	16401	13668	0	416
-22.358	-40.353	16401	13742	0	416
-20.555	-35.521	16401	13908	0	416
-17.815	-31.626	16428	14184	0	416
-13.091	-27.624	16445	14396	0	416
-12.153	-25.532	16428	14515	0	416
-12.405	-25.352	16428	14589	0	416
-12.946	-26.145	16401	14598	0	416
-16.661	-27.227	16367	14515	0	416
-17.418	-28.309	16340	14488	0	416
-17.851	-28.633	16340	14589	0	416
-17.310	-28.237	16296	14644	0	416
-21.709	-33.213	16252	14386	0	416
-24.883	-38.803	16146	13908	0	416
-28.814	-41.363	16031	13512	0	416
-27.912	-38.767	15942	13346	0	416
-22.322	-31.338	15880	13272	0	416
-16.012	-26.037	15809	13272	0	416
-13.812	-23.512	15747	13401	0	416
-12.189	-23.188	15721	13659	0	416
-9.953	-20.952	15721	13990	0	416
-6.455	-15.579	15703	14423	0	416
-0.180	-8.150	15677	14801	0	416
3.498	-5.229	15659	14966	0	416
3.210	-7.321	15615	14930	0	416
-0.288	-12.333	15482	14699	0	416
-5.085	-16.841	15411	14396	0	416
-6.635	-19.762	15323	14267	0	416
-8.258	-21.565	15261	14303	0	416
-10.061	-21.962	15190	14442	0	416
-10.783	-24.125	15146	14727	0	416
-15.398	-24.775	15190	15206	0	416
-14.966	-26.253	15190	15777	0	416
-16.769	-25.388	15190	16145	0	416
-15.110	-24.378	15084	15989	0	416
-13.740	-24.414	14995	15501	0	416
-12.982	-24.053	14907	15261	0	416
-9.088	-22.142	14907	15418	0	416
-4.868	-16.264	14880	15657	0	416
0.288	-11.792	14836	15878	0	416
3.354	-8.258	14836	16154	0	416
4.796	-7.212	14862	16522	0	416
4.544	-6.888	14907	17010	0	416
6.383	-5.013	14969	17581	0	416
8.439	0.144	14995	18041	0	416
8.222	1.515	15013	18133	0	416
7.032	-1.803	14951	17875	0	416
3.282	-6.635	14924	17507	0	416
2.921	-9.016	14880	17277	0	416
6.275	-7.393	14880	17286	0	416
9.448	-3.282	14907	17387	0	416
9.412	-3.570	14836	17304	0	416
4.544	-8.619	14818	17010	0	416
-2.344	-16.264	14774	16779	0	416
-4.219	-20.411	14774	16798	0	416
-0.649	-18.320	14792	16982	0	416
5.554	-12.550	14774	17166	0	416
9.268	-8.402	14836	17258	0	416
5.193	-9.665	14862	17415	0	416
-1.190	-12.946	14880	17673	0	416
-5.445	-14.749	14907	17792	0	416
-2.380	-12.297	14880	17691	0	416
4.291	-7.176	14924	17525	0	416
10.278	-1.767	14924	17406	0	416
10.025	-1.731	14924	17406	0	416
8.835	-1.082	14995	17599	0	416
9.556	1.118	15013	17866	0	416
12.045	2.957	15084	18032	0	416
12.838	4.111	15084	18013	0	416
10.638	0.649	15057	17654	0	416
5.121	-4.039	14995	17056	0	416
3.210	-6.347	14995	16577	0	416
7.789	-3.823	14951	16283	0	416
15.146	1.226	14880	16016	0	416
17.129	5.590	14862	15823	0	416
13.235	6.599	14818	15675	0	416
10.891	5.986	14836	15694	0	416
8.330	7.104	14924	16154	0	416
11.684	10.386	15039	17010	0	416
19.401	13.487	15128	17691	0	416
22.178	14.821	15146	17802	0	416
20.916	12.333	15172	17516	0	416
15.182	8.006	15146	17249	0	416
11.071	4.688	15190	17148	0	416
10.855	5.085	15190	17148	0	416
11.612	7.825	15234	17175	0	416
17.779	12.514	15216	17129	0	416
19.365	15.074	15216	16945	0	416
20.916	15.795	15234	16697	0	416
21.745	17.454	15190	16540	0	416
23.549	18.788	15216	16512	0	416
27.804	24.378	15190	16476	0	416
33.357	29.787	15234	16420	0	416
37.252	32.384	15216	16402	0	416
38.442	33.249	15234	16357	0	416
35.918	29.968	15190	16200	0	416
33.105	26.830	15190	15924	0	416
31.699	28.020	15128	15657	0	416
33.502	28.164	15146	15519	0	416
33.610	28.922	15128	15602	0	416
28.777	26.073	15146	15749	0	416
21.060	21.709	15128	15758	0	416
15.398	19.113	15084	15491	0	416
14.461	18.969	14907	14764	0	416
21.168	21.241	14774	13779	0	416
26.938	23.008	14615	13070	0	416
31.338	23.008	14482	12701	0	416
32.276	24.162	14376	12462	0	416
31.987	25.424	14287	12324	0	416
31.266	27.587	14199	12342	0	416
31.590	27.876	14128	12637	0	416
32.095	24.558	14172	13401	0	416
32.744	21.349	14261	14497	0	416
35.269	21.998	14305	15427	0	416
38.803	25.496	14331	15906	0	416
42.914	31.915	14331	16117	0	416
43.419	35.557	14349	16384	0	416
41.652	33.754	14393	16825	0	416
36.603	27.407	14438	17350	0	416
28.994	18.356	14508	17811	0	416
21.637	10.422	14570	18133	0	416
19.005	6.347	14597	18409	0	416
17.166	6.816	14641	18621	0	416
19.942	11.504	14703	18759	0	416
20.267	17.526	14747	18851	0	416
23.332	20.303	14774	18879	0	416
21.168	19.293	14836	18916	0	416
21.024	16.444	14880	19081	0	416
24.414	15.903	15013	19413	0	416
26.253	17.670	15101	19818	0	416
31.771	21.024	15172	19919	0	416
32.672	23.008	15128	19395	0	416
29.931	20.772	15101	18474	0	416
26.397	16.408	15084	17866	0	416
21.277	13.018	15101	17746	0	416
21.673	13.992	15146	17728	0	416
24.198	15.218	15172	17581	0	416
23.945	16.552	15101	17194	0	416
23.404	15.471	15084	16697	0	416
20.772	11.251	15057	16348	0	416
17.995	9.376	15084	16136	0	416
22.503	12.982	15084	16016	0	416
26.325	20.014	15039	15952	0	416
32.167	27.443	15013	15740	0	416
33.646	30.220	14969	15399	0	416
32.528	28.597	14969	15197	0	416
30.436	24.630	14924	15215	0	416
28.273	20.736	14924	15206	0	416
26.794	18.103	14836	14930	0	416
24.414	19.834	14774	14543	0	416
26.361	21.529	14774	14396	0	416
26.902	24.702	14747	14598	0	416
28.525	27.083	14818	15077	0	416
27.371	26.001	14836	15574	0	416
22.467	22.431	14862	15887	0	416
19.293	18.716	14907	16136	0	416
16.589	17.634	14924	16439	0	416
23.512	21.060	15039	16844	0	416
30.220	27.083	15084	17221	0	416
37.288	31.662	15128	17535	0	416
38.767	33.105	15216	17838	0	416
38.875	33.934	15323	18188	0	416
37.613	33.213	15393	18603	0	416
38.334	32.961	15526	19054	0	416
39.272	33.141	15615	19376	0	416
38.045	31.049	15703	19487	0	416
33.574	27.479	15792	19514	0	416
27.515	23.404	15898	19533	0	416
25.568	21.998	15969	19551	0	416
24.775	22.358	16057	19606	0	416
29.030	22.322	16163	19662	0	416
30.617	24.522	16234	19597	0	416
30.761	25.063	16278	19321	0	416
27.804	21.673	16296	18888	0	416
20.880	19.906	16367	18593	0	416
17.959	16.336	16445	18621	1	820
17.670	13.487	16516	18593	0	820
18.608	14.533	16516	18151	0	820
23.801	16.012	16516	17433	0	820
26.217	20.087	16490	16798	0	820
29.391	25.388	16428	16164	0	820
35.449	32.312	16252	15022	0	820
41.904	41.868	16013	13300	0	820
48.539	47.277	15765	11670	0	820
52.074	50.595	15588	10648	0	820
49.585	49.044	15411	10141	0	820
41.327	42.373	15323	10012	0	820
35.233	37.432	15190	10105	0	820
27.083	34.583	15146	10307	0	820
25.316	35.449	15084	10703	0	820
26.073	35.557	15084	11348	0	820
28.273	36.062	15057	12057	0	820
29.751	35.052	15057	12655	0	820
32.203	35.521	15013	13143	0	820
35.016	39.055	15039	13640	0	820
37.144	43.094	15039	14230	0	820
38.190	46.159	15084	14884	0	820
35.016	44.537	15101	15593	0	820
32.384	40.498	15216	16329	0	820
29.499	36.170	15261	17019	0	820
29.138	34.367	15278	17360	0	820
32.203	35.377	15261	17341	0	820
34.547	37.613	15278	17341	0	820
38.226	39.957	15305	17424	0	820
43.310	42.770	15234	17442	0	820
48.503	45.979	15261	17378	0	820
53.949	48.864	15216	17267	0	820
52.434	49.225	15261	17267	0	820
47.854	48.828	15305	17617	0	820
41.075	45.618	15367	18059	0	820
35.269	44.284	15349	18032	0	820
32.023	44.501	15278	17488	0	820
30.184	43.491	15190	16807	0	820
29.643	40.606	15101	16302	0	820
27.984	36.964	15084	16025	0	820
25.352	33.466	15013	15933	0	820
24.594	32.853	14995	15795	0	820
25.424	33.357	14951	15556	0	820
26.830	35.846	14924	15556	0	820
31.085	37.468	14951	15896	0	820
37.937	41.471	14951	16292	0	820
43.743	44.717	14995	16503	0	820
46.881	47.890	14969	16586	0	820
47.926	49.225	14995	16687	0	820
44.861	49.405	15039	16872	0	820
45.943	48.900	15039	17010	0	820
45.871	49.225	15039	16927	0	820
46.159	48.215	14969	16651	0	820
44.609	46.556	14951	16402	0	820
39.632	43.815	14924	16357	0	820
33.646	42.950	14969	16522	0	820
32.997	41.363	14995	16862	0	820
35.124	41.039	15039	17185	0	820
37.577	41.688	15084	17406	0	820
38.226	41.399	15146	17553	0	820
37.577	39.921	15146	17608	0	820
35.124	39.776	15190	17571	0	820
35.449	40.245	15172	17470	0	820
38.045	42.157	15172	17369	0	820
44.609	48.071	15172	17286	0	820
49.657	53.155	15190	17231	0	820
54.021	58.961	15172	17157	0	820
52.651	60.404	15190	17028	0	820
48.720	57.411	15172	16862	0	820
40.858	53.588	15172	16632	0	820
31.807	46.845	15084	16219	0	820
28.453	42.986	15013	15593	0	820
29.571	41.688	14907	15040	0	820
36.531	44.320	14880	14755	0	820
42.734	43.347	14836	14690	0	820
41.291	40.786	14747	14635	0	820
32.492	35.233	14703	14460	0	820
21.637	28.525	14659	14267	0	820
20.303	27.768	14570	14221	0	820
24.450	29.823	14553	14359	0	820
34.367	33.826	14553	14589	0	820
39.849	37.000	14526	14828	0	820
39.019	38.190	14553	15187	0	820
37.937	38.839	14597	15712	0	820
39.199	40.353	14685	16357	0	820
43.779	45.258	14730	17000	0	820
48.936	48.107	14818	17525	0	820
50.811	50.198	14907	17884	0	820
48.287	50.775	14924	18133	0	820
46.015	50.270	14969	18225	0	820
41.796	48.287	14995	18216	0	820
39.416	46.268	15039	18216	0	820
35.521	43.851	14995	18032	0	820
32.420	38.875	14969	17581	0	820
29.174	34.151	14969	17258	0	820
25.388	29.787	14995	17240	0	820
24.702	26.686	15013	17304	0	820
27.335	25.279	15013	17350	0	820
30.581	26.325	15057	17350	0	820
34.620	28.309	15039	17277	0	820
36.495	31.049	15057	17083	0	820
35.810	31.230	15013	16835	0	820
32.456	34.187	15057	16724	0	820
30.833	35.918	15057	16789	0	820
30.184	38.658	15084	16816	0	820
29.427	38.622	15057	16687	0	820
28.020	37.865	15084	16586	0	820
25.604	35.846	15039	16457	0	820
25.532	35.197	14951	15878	0	820
26.109	37.541	14792	14810	0	820
29.066	38.550	14641	13861	0	820
34.547	40.498	14553	13429	0	820
36.423	40.245	14526	13493	0	820
41.471	41.255	14508	13861	0	820
43.130	42.878	14508	14340	0	820
46.412	47.061	14553	14819	0	820
50.162	51.244	14597	15344	0	820
54.706	56.149	14641	15970	0	820
57.014	57.266	14747	16733	0	820
54.959	56.004	14907	17599	0	820
50.631	52.362	14969	18262	0	820
43.238	49.153	15013	18382	0	820
42.048	50.523	14995	18078	0	820
45.907	56.545	15039	17921	0	820
55.427	61.017	15084	18105	0	820
58.925	61.486	15146	18317	0	820
56.653	56.257	15190	18474	0	820
48.539	48.576	15278	18612	0	820
44.861	46.448	15323	18722	0	820
46.051	49.982	15411	18768	0	820
49.585	56.329	15438	18695	0	820
55.139	62.099	15438	18372	0	820
50.920	59.863	15411	17802	0	820
46.015	55.860	15349	17102	0	820
41.868	53.768	15305	16411	0	820
41.255	52.939	15234	15933	0	820
41.219	54.418	15234	15731	0	820
44.645	54.237	15216	15740	0	820
44.681	52.326	15190	15657	0	820
45.222	51.352	15146	15289	0	820
42.409	50.559	15084	14902	0	820
42.048	52.254	15084	14791	0	820
39.957	53.877	15084	14957	0	820
41.075	53.696	15057	15197	0	820
44.501	55.463	15101	15344	0	820
46.700	54.562	15084	15482	0	820
47.313	54.382	15128	15694	0	820
44.897	51.244	15101	15860	0	820
41.616	47.890	15128	15924	0	820
39.272	46.556	15128	15998	0	820
43.274	49.189	15172	16173	0	820
47.674	53.480	15172	16320	0	820
50.992	56.653	15216	16448	0	820
52.182	55.896	15234	16715	0	820
48.900	53.768	15305	17046	0	820
45.871	51.172	15367	17360	0	820
48.972	53.408	15438	17700	0	820
51.064	58.565	15544	18096	0	820
53.949	61.558	15615	18446	0	820
51.677	60.224	15677	18658	0	820
50.739	57.266	15765	18759	0	820
49.153	53.588	15836	18778	0	820
49.657	54.886	15854	18630	0	820
54.706	60.296	15854	18326	0	820
55.463	63.938	15898	18078	0	820
53.985	66.246	15924	17967	0	820
50.667	63.830	15969	17820	1	664
44.753	59.683	15942	17452	0	664
42.084	58.348	15898	16881	0	664
40.245	57.699	15836	16338	0	664
39.163	55.716	15809	15887	0	664
36.675	53.949	15792	15501	0	664
34.547	50.451	15721	15178	0	664
34.187	47.602	15659	14874	0	664
39.308	49.369	15632	14663	0	664
47.277	51.857	15632	14607	0	664
52.723	55.608	15615	14745	0	664
54.382	55.932	15632	15040	0	664
48.792	54.382	15677	15353	0	664
40.642	52.182	15703	15648	0	664
36.603	52.182	15747	15961	0	664
36.170	55.499	15809	16348	0	664
39.849	62.748	15898	16779	0	664
47.061	71.259	15942	17083	0	664
53.372	78.038	15969	17185	0	664
61.089	80.599	16013	17221	0	664
64.515	78.940	16075	17387	0	664
64.190	73.314	16146	17627	0	664
58.168	66.607	16190	17792	0	664
52.578	61.594	16234	17857	0	664
48.539	64.118	16296	17866	0	664
54.057	69.816	16367	17857	0	664
59.791	76.884	16367	17746	0	664
64.154	79.156	16367	17479	0	664
62.459	74.576	16340	17056	0	664
55.463	68.085	16278	16522	0	664
52.506	61.161	16208	15961	0	664
51.280	61.991	16190	15593	0	664
54.273	61.991	16234	15712	0	664
52.398	62.604	16278	16117	0	664
49.621	56.942	16296	16338	0	664
44.032	52.074	16296	16256	0	664
38.875	48.972	16278	16062	0	664
42.553	53.047	16208	15694	0	664
47.061	59.034	16101	14902	0	664
49.513	65.669	15924	13843	0	664
49.621	65.705	15765	12950	0	664
46.087	61.738	15588	12296	0	664
41.832	55.752	15438	11780	0	664
42.193	54.345	15323	11477	0	664
46.989	55.860	15190	11384	0	664
50.703	59.827	15084	11320	0	664
50.523	60.476	14907	11145	0	664
47.205	59.358	14792	11035	0	664
40.462	55.427	14703	11246	0	664
36.639	53.588	14659	11836	0	664
37.216	54.273	14659	12609	0	664
39.885	56.076	14615	13300	0	664
45.474	59.070	14597	13871	0	664
48.503	61.269	14615	14460	0	664
50.523	62.099	14659	15169	0	664
53.336	63.541	14659	15970	0	664
52.903	64.912	14747	16779	0	664
57.735	65.308	14862	17608	0	664
60.873	65.885	14907	18372	0	664
64.371	66.643	15013	19017	0	664
62.459	60.909	15084	19542	0	664
53.444	53.696	15190	19938	0	664
43.094	45.041	15234	20177	0	664
37.288	38.586	15278	20113	0	664
40.101	37.432	15261	19781	0	664
49.802	43.274	15305	19496	0	664
56.040	46.159	15305	19376	0	664
55.680	46.340	15349	19339	0	664
47.638	40.173	15393	19302	0	664
39.740	35.521	15393	19164	0	664
40.966	34.547	15438	18907	0	664
45.294	38.045	15438	18722	0	664
51.533	45.258	15500	18704	0	664
55.752	48.900	15544	18778	0	664
54.309	53.228	15570	18741	0	664
55.103	55.896	15615	18511	0	664
54.057	57.230	15659	18290	0	664
53.660	58.024	15677	18216	0	664
49.657	53.841	15721	18244	0	664
45.041	48.864	15792	18262	1	316
38.911	43.310	15836	18170	0	316
34.223	39.885	15880	18069	0	316
32.672	39.344	15924	18078	0	316
32.889	39.235	16031	18225	0	316
33.862	42.986	16119	18474	0	316
37.685	45.005	16208	18667	0	316
40.029	47.386	16296	18778	0	316
42.229	46.087	16384	18870	0	316
43.563	45.907	16516	19045	0	316
44.933	45.655	16649	19302	0	316
47.926	46.195	16755	19468	0	316
48.864	47.926	16799	19275	0	316
47.854	49.621	16799	18649	0	316
47.386	48.828	16799	17884	0	316
43.130	50.090	16755	17203	0	316
40.426	49.189	16755	16651	0	316
36.531	49.333	16737	16237	0	316
34.620	50.451	16737	15850	0	316
33.321	49.730	16711	15445	0	316
34.511	51.461	16693	15141	0	316
36.314	50.559	16737	15224	0	316
36.675	46.484	16799	15657	0	316
34.620	41.796	16888	16071	0	316
31.374	37.757	16932	16182	0	316
32.600	40.281	16932	15989	0	316
37.577	46.268	16932	15740	0	316
41.652	55.283	16932	15593	0	316
46.304	59.286	16959	15556	0	316
46.556	59.647	16932	15427	0	316
46.087	55.355	16888	15095	0	316
50.631	54.345	16826	14690	0	316
55.716	58.601	16826	14432	0	316
62.423	63.649	16782	14377	0	316
63.036	64.840	16782	14432	0	316
59.574	63.649	16737	14377	0	316
54.237	58.853	16667	14202	0	316
46.664	54.526	16649	14064	0	316
42.517	52.362	16622	14101	0	316
39.019	51.136	16605	14267	0	316
33.141	49.333	16578	14377	0	316
29.715	45.691	16560	14442	0	316
27.876	42.986	16560	14598	0	316
25.207	40.678	16560	14838	0	316
27.515	40.570	16578	15141	0	316
29.427	40.606	16622	15537	0	316
31.626	41.616	16649	15970	0	316
31.338	45.114	16649	16182	0	316
32.889	46.376	16605	16016	0	316
33.033	48.323	16534	15611	0	316
36.639	51.821	16472	15280	0	316
40.389	52.434	16401	15068	0	316
44.861	52.506	16323	14801	0	316
45.366	48.792	16208	14331	0	316
43.274	45.330	16075	13834	0	316
39.957	44.825	16013	13696	0	316
40.317	44.573	15969	13908	0	316
39.560	46.484	15942	14147	0	316
38.442	47.854	15898	14359	0	316
37.216	46.051	15898	14552	0	316
35.990	45.005	15836	14736	0	316
36.567	45.222	15809	15012	0	316
38.334	45.438	15836	15399	0	316
40.137	44.392	15836	15795	0	316
37.144	41.435	15836	16071	0	316
33.898	38.695	15836	16302	0	316
34.764	40.101	15880	16669	0	316
40.678	46.159	15924	17212	0	316
46.917	53.444	15986	17700	0	316
53.841	60.260	16013	17940	0	316
53.624	60.332	16031	18023	0	316
50.775	57.627	16057	18124	0	316
45.005	53.985	16119	18308	0	316
39.127	51.352	16146	18483	0	316
36.278	49.008	16163	18529	0	316
31.482	46.592	16190	18474	0	316
27.624	44.320	16208	18409	0	316
28.092	43.851	16234	18345	0	316
29.607	46.772	16296	18271	0	316
33.970	49.080	16296	18216	0	316
37.973	48.756	16323	18225	0	316
40.101	47.782	16340	18170	0	316
39.308	46.845	16323	17838	0	316
38.622	47.746	16296	17378	0	316
39.091	50.884	16323	17277	0	316
38.658	50.992	16340	17406	0	316
36.531	47.999	16323	17212	0	316
32.961	43.455	16278	16743	0	316
31.374	39.524	16252	16366	0	316
32.708	40.606	16208	16099	0	316
37.649	45.691	16208	15952	0	316
40.714	49.802	16208	15952	0	316
43.347	53.768	16208	15943	0	316
41.291	52.614	16163	15749	0	316
38.406	48.900	16101	15390	0	316
35.882	46.159	16013	14994	0	316
36.819	46.087	15969	14699	0	316
36.603	48.431	15898	14497	0	316
35.990	52.001	15809	14285	0	316
35.341	54.345	15765	14101	0	316
32.780	54.850	15721	14027	0	316
31.158	52.254	15677	14156	0	316
30.941	49.080	15632	14377	0	316
30.184	47.386	15615	14534	0	316
30.364	45.041	15588	14617	0	316
27.010	46.664	15570	14755	0	316
24.919	48.395	15544	14957	0	316
22.395	47.782	15544	15206	0	316
22.755	49.080	15544	15482	0	316
21.493	48.936	15544	15804	0	316
26.181	49.441	15570	16062	0	316
28.020	48.143	15544	16191	0	316
32.528	47.422	15544	16256	0	316
37.144	47.277	15526	16311	0	316
41.832	48.071	15500	16384	0	316
46.484	50.595	15482	16375	0	316
46.232	53.624	15438	16108	0	316
44.140	51.965	15305	15648	0	316
39.524	47.999	15261	15298	0	316
33.970	43.779	15190	15243	0	316
29.246	39.560	15216	15436	0	316
28.237	37.000	15190	15768	0	316
27.587	37.505	15216	16053	0	316
28.201	39.740	15190	16274	0	316
29.679	41.796	15261	16586	0	316
31.230	42.265	15305	17056	0	316
33.177	44.428	15349	17516	0	316
36.891	43.996	15411	17894	0	316
38.442	45.294	15482	18280	0	316
39.921	45.618	15544	18649	0	316
36.062	43.924	15615	18842	0	316
31.158	39.416	15659	18879	0	316
26.866	35.160	15659	18759	0	316
28.092	33.213	15570	18115	0	316
30.004	33.141	15393	16770	0	316
32.239	35.521	15261	15436	0	316
35.052	35.701	15146	14773	0	316
35.341	35.990	15128	14755	0	316
36.134	34.872	15101	15095	0	316
35.052	33.646	15172	15583	0	316
32.780	32.492	15216	16173	0	316
26.758	31.446	15323	16872	0	316
21.313	29.751	15438	17590	0	316
21.421	29.030	15526	18225	0	316
25.027	28.705	15659	18778	0	316
26.974	29.210	15792	19247	0	316
28.669	28.922	15854	19505	0	316
29.391	29.102	15924	19560	0	316
29.895	31.230	16013	19551	0	316
32.131	32.456	16075	19551	0	316
35.882	34.439	16119	19395	0	316
36.495	35.197	16163	19100	0	316
35.810	33.898	16234	18907	1	608
35.269	32.312	16296	18916	0	608
35.629	32.167	16367	18925	0	608
37.072	34.187	16384	18695	0	608
35.918	36.242	16401	18290	0	608
33.970	37.829	16472	18087	0	608
32.816	38.442	16534	18179	0	608
31.122	37.324	16605	18336	0	608
31.879	34.908	16693	18354	0	608
31.194	32.780	16737	18216	0	608
31.699	30.581	16826	18069	0	608
31.158	30.508	16914	18069	0	608
31.699	32.420	17003	18290	0	608
33.033	36.314	17109	18584	0	608
34.656	42.878	17224	18722	0	608
35.701	46.051	17313	18732	0	608
37.505	48.467	17419	18768	0	608
39.668	48.287	17578	18916	0	608
42.337	46.123	17667	19100	0	608
41.868	43.274	17799	19164	0	608
43.058	40.858	17888	19109	0	608
42.337	40.858	17994	19054	0	608
41.399	43.851	18127	19026	0	608
40.029	43.815	18215	19008	0	608
34.006	43.924	18330	19045	0	608
27.227	37.829	18463	19109	0	608
22.467	28.453	18525	18897	0	608
18.103	21.277	18552	18225	0	608
18.500	15.903	18525	17304	0	608
17.779	13.018	18481	16466	0	608
12.730	9.556	18463	15804	0	608
7.429	6.780	18419	15141	0	608
5.914	6.094	18304	14303	0	608
9.268	11.684	18242	13373	0	608
17.959	18.356	18153	12821	0	608
27.551	26.433	18127	12775	0	608
27.732	26.542	18127	12895	0	608
24.306	22.070	18083	12922	0	608
18.175	16.480	18065	12830	0	608
14.281	14.894	18021	12757	0	608
19.329	18.572	17994	12839	0	608
25.027	25.568	17994	13033	0	608
31.482	31.518	17976	13189	0	608
32.564	33.646	17932	13263	0	608
30.148	31.085	17932	13392	0	608
25.460	26.217	17906	13650	0	608
20.231	21.096	17932	14082	0	608
20.411	19.906	17976	14561	0	608
21.926	21.818	17976	14902	0	608
25.712	27.010	17932	14874	0	608
27.804	29.751	17799	14294	0	608
28.237	31.699	17622	13383	0	608
28.669	32.239	17507	12784	0	608
29.138	32.167	17401	12683	0	608
30.797	33.249	17375	12858	0	608
33.538	32.961	17313	13088	0	608
31.482	31.807	17224	13318	0	608
28.633	28.525	17198	13576	0	608
26.181	25.820	17180	13861	0	608
21.204	24.234	17091	14064	0	608
19.005	21.709	17021	14027	0	608
13.704	16.516	16914	13834	0	608
10.422	14.425	16844	13779	0	608
8.150	12.982	16755	13944	0	608
7.321	15.182	16737	14267	0	608
12.766	18.175	16693	14644	0	608
16.264	20.772	16649	14902	0	608
17.526	19.834	16605	15031	0	608
16.300	15.002	16560	15206	0	608
11.504	11.756	16472	15206	0	608
10.206	13.523	16367	14939	0	608
13.307	17.959	16296	14755	0	608
18.031	26.433	16208	14782	0	608
23.909	34.800	16146	14884	0	608
25.712	36.459	16101	15123	0	608
25.532	34.728	16101	15547	0	608
26.109	30.581	16075	15970	0	608
28.092	30.076	16031	16210	0	608
29.643	29.427	15986	16228	0	608
26.542	30.364	15969	16219	0	608
21.745	25.243	15969	16485	0	608
15.038	16.877	15986	17019	0	608
8.330	8.619	16057	17516	0	608
5.157	1.947	16057	17884	0	608
3.065	1.659	16101	18262	0	608
0.397	1.947	16146	18686	0	608
-2.092	-0.144	16234	19128	0	608
-3.210	-2.596	16323	19542	0	608
-4.400	-8.547	16401	19938	0	608
-4.616	-9.953	16472	20186	0	608
-4.760	-8.871	16516	20104	0	608
-3.642	-5.481	16490	19772	0	608
-1.659	-1.731	16516	19431	0	608
0.505	1.839	16534	19238	0	608
2.092	3.137	16578	19137	1	376
2.633	4.544	16578	18953	0	376
2.524	3.714	16578	18575	0	376
1.082	2.777	16534	18105	0	376
1.190	0.902	16560	17746	0	376
3.137	3.859	16534	17571	0	376
6.888	7.465	16534	17396	0	376
8.439	10.314	16516	17083	0	376
11.864	11.071	16516	16770	0	376
8.943	6.311	16472	16503	0	376
4.616	-1.118	16428	16164	0	376
-0.216	-2.885	16367	15675	0	376
-2.200	-3.318	16296	15215	0	376
1.911	0.325	16252	14957	0	376
6.131	1.803	16234	14874	0	376
11.251	0.433	16208	14957	0	376
7.717	-6.419	16208	15114	0	376
-2.488	-13.776	16190	15206	0	376
-13.740	-17.454	16208	15224	0	376
-15.903	-13.127	16190	15344	0	376
-10.566	-4.508	16208	15657	0	376
0.685	4.868	16278	16145	0	376
10.206	8.150	16323	16568	0	376
9.629	2.452	16296	16595	0	376
2.128	-6.275	16252	16283	0	376
-4.508	-11.937	16252	16136	0	376
-8.402	-10.566	16278	16338	0	376
-4.940	-4.760	16340	16614	0	376
-0.252	1.334	16384	16890	0	376
3.390	3.390	16428	17194	0	376
3.246	2.200	16490	17479	0	376
0.757	-2.705	16560	17829	0	376
-0.288	-6.816	16711	18529	0	376
-0.649	-8.835	16914	19533	0	376
0.108	-9.016	17065	20361	0	376
-1.406	-9.592	17242	20822	0	376
-3.787	-8.402	17401	21116	0	376
-5.806	-9.376	17578	21494	0	376
-5.301	-10.278	17684	21706	0	376
-3.931	-9.160	17755	21218	0	376
-4.111	-11.504	17667	20021	0	376
-8.763	-13.091	17622	18759	0	376
-15.471	-18.680	17578	17958	0	376
-19.221	-23.512	17622	17535	0	376
-19.762	-24.234	17596	17139	0	376
-12.369	-21.529	17578	16604	0	376
-8.006	-18.572	17552	16081	0	376
-6.960	-16.264	17534	15758	0	376
-7.825	-17.238	17578	15685	0	376
-8.763	-17.021	17622	15869	0	376
-6.599	-14.605	17711	16200	0	376
-0.072	-10.422	17773	16476	0	376
3.570	-6.527	17844	16669	0	376
-0.685	-8.258	17950	16890	0	376
-7.970	-11.864	18021	17212	0	376
-13.018	-15.146	18127	17553	0	376
-11.360	-15.362	18242	17765	0	376
-4.147	-11.720	18286	17857	0	376
3.750	-8.042	18392	17940	0	376
6.022	-7.429	18463	17986	0	376
2.633	-7.429	18569	18059	0	376
-4.977	-9.953	18684	18317	0	376
-8.655	-11.035	18773	18538	0	376
-12.225	-12.153	18791	18308	0	376
-11.612	-11.828	18791	17645	0	376
-8.186	-11.612	18746	16853	0	376
-4.832	-9.052	18702	16200	0	376
-0.288	-5.265	18702	15786	0	376
2.416	-3.065	18684	15528	0	376
-1.623	-5.049	18658	15224	0	376
-8.258	-9.376	18614	14828	0	376
-13.307	-12.946	18596	14488	0	376
-13.920	-10.242	18569	14359	0	376
-7.825	-3.173	18614	14386	0	376
2.416	5.806	18569	14396	0	376
10.242	12.009	18525	14267	0	376
10.242	10.891	18507	14193	0	376
6.888	6.527	18525	14285	0	376
2.777	1.803	18525	14488	0	376
3.895	0.325	18507	14617	1	316
8.511	2.560	18525	14607	0	316
13.740	7.898	18481	14571	0	316
20.519	15.110	18419	14478	0	316
21.781	22.719	18375	14267	0	316
23.873	26.109	18304	13990	0	316
25.893	27.335	18242	13779	0	316
25.460	24.053	18171	13733	0	316
21.241	17.382	18153	13871	0	316
13.920	9.881	18127	14082	0	316
5.085	3.246	18109	14276	0	316
2.092	3.859	18083	14506	0	316
4.977	7.681	18109	14828	0	316
10.891	15.074	18109	15160	0	316
17.959	20.050	18083	15418	0	316
18.031	21.998	18083	15593	0	316
17.057	21.385	18109	15768	0	316
13.920	20.339	18083	15979	0	316
15.398	22.214	18065	16071	0	316
17.562	23.476	17994	15869	0	316
17.634	22.755	17906	15482	0	316
14.425	19.473	17888	15243	0	316
11.468	18.536	17844	15270	0	316
9.520	16.733	17817	15510	0	316
9.376	15.362	17817	15795	0	316
9.953	15.326	17773	15878	0	316
11.251	13.920	17729	15703	0	316
9.773	11.864	17640	15436	0	316
9.665	14.208	17622	15344	0	316
13.668	16.084	17578	15436	0	316
15.723	19.401	17552	15528	0	316
15.939	22.106	17507	15639	0	316
16.552	21.241	17552	15887	0	316
11.504	17.995	17552	16311	0	316
9.124	13.812	17640	16789	0	316
6.708	11.576	17640	17157	0	316
10.133	12.730	17711	17415	0	316
14.641	19.510	17711	17663	0	316
22.070	27.587	17773	17977	0	316
24.053	35.737	17817	18345	0	316
24.919	39.488	17906	18603	0	316
24.450	39.272	17932	18695	0	316
21.709	35.846	17976	18741	0	316
19.185	29.174	18038	18778	0	316
16.408	23.152	18065	18796	0	316
13.235	19.365	18127	18842	0	316
9.088	18.067	18198	18943	0	316
9.304	16.841	18215	18897	0	316
7.393	15.867	18171	18455	0	316
6.311	13.848	18153	17719	0	316
6.635	13.415	18083	17056	0	316
8.186	16.661	18021	16531	0	316
15.723	21.709	17950	15961	0	316
19.546	26.902	17799	15187	0	316
23.332	28.020	17684	14377	0	316
18.933	24.558	17596	13825	0	316
18.247	21.781	17534	13631	0	316
16.120	22.431	17463	13696	0	316
20.267	26.109	17445	13815	0	316
26.758	32.131	17357	13852	0	316
28.958	32.816	17357	13954	0	316
27.551	32.203	17330	14230	0	316
25.063	31.085	17313	14524	0	316
22.899	31.230	17313	14718	0	316
21.565	32.997	17242	14819	0	316
21.241	34.115	17268	14948	0	316
21.349	33.466	17268	15206	0	316
16.625	30.112	17242	15620	0	316
13.595	29.066	17313	16099	0	316
11.035	30.400	17330	16411	0	316
11.071	29.607	17268	16384	0	316
11.756	29.246	17224	16127	0	316
16.661	27.948	17224	16025	0	316
19.149	25.712	17180	16127	0	316
20.700	26.470	17180	16219	0	316
23.873	29.895	17180	16292	0	316
24.666	34.728	17136	16384	0	316
26.325	36.891	17153	16503	0	316
28.850	36.639	17198	16715	0	316
29.643	34.223	17242	17166	0	316
32.708	31.302	17330	17737	0	316
36.964	31.879	17375	18059	0	316
39.740	33.862	17357	17995	0	316
37.000	34.511	17401	17894	0	316
33.357	35.233	17445	18096	0	316
24.414	34.800	17534	18492	0	316
20.808	34.620	17578	18621	0	316
21.962	33.466	17534	18271	0	316
23.476	32.276	17490	17599	0	316
22.935	29.715	17401	16899	0	316
22.106	27.010	17357	16384	0	316
18.392	27.155	17268	15998	0	316
20.664	30.472	17198	15501	0	316
25.099	33.826	17065	14801	0	316
31.446	36.459	16932	14184	0	316
36.351	38.154	16844	13834	0	316
40.714	38.262	16799	13714	0	316
44.068	38.983	16711	13705	0	316
44.969	38.875	16649	13696	0	316
45.763	38.947	16578	13640	0	316
42.265	38.586	16490	13512	0	316
35.810	34.115	16401	13456	0	316
29.463	30.545	16340	13558	0	316
23.188	23.404	16296	13751	0	316
18.680	19.005	16234	13852	0	316
15.146	15.038	16101	13613	0	316
16.336	13.127	15942	13143	0	316
13.920	12.514	15854	12922	0	316
10.242	11.504	15765	13088	0	316
9.124	12.333	15703	13438	0	316
7.537	11.504	15677	13908	0	316
8.114	12.405	15659	14414	0	316
8.366	11.179	15632	14865	0	316
10.169	9.088	15615	15289	0	316
10.855	11.756	15632	15731	0	316
14.208	16.408	15632	16191	0	316
23.440	23.296	15588	16485	0	316
29.066	28.164	15588	16614	0	316
33.646	28.489	15615	16835	0	316
33.754	28.020	15632	17314	0	316
32.456	27.551	15703	17912	0	316
31.266	24.378	15747	18345	0	316
27.335	21.132	15765	18603	0	316
23.476	14.713	15854	19026	0	316
17.382	6.996	15986	19708	0	316
14.028	4.364	16119	20371	0	316
12.225	6.203	16234	20914	0	316
11.684	8.078	16367	21337	0	316
14.064	10.386	16490	21660	0	316
14.353	12.045	16649	21964	0	316
20.375	15.687	16799	22286	0	316
25.965	21.673	16959	22525	0	316
32.636	29.427	17065	22525	0	316
36.747	36.170	17180	22350	0	316
36.098	38.767	17313	22185	0	316
36.170	38.550	17445	22157	0	316
35.521	38.190	17622	22240	0	316
37.360	37.721	17755	22221	1	548
37.829	36.964	17861	21991	0	548
36.711	34.511	17976	21660	0	548
31.626	29.282	18109	21328	0	548
27.479	23.657	18215	21024	0	548
23.945	19.257	18304	20656	0	548
26.686	18.644	18392	20232	0	548
27.191	21.673	18463	19726	0	548
28.453	23.621	18481	18989	0	548
26.289	26.001	18481	18059	0	548
25.279	25.243	18463	17185	0	548
23.657	23.549	18437	16466	0	548
25.352	23.549	18437	15823	0	548
27.587	24.594	18392	15215	0	548
30.256	27.479	18392	14672	0	548
30.617	29.787	18348	14211	0	548
30.833	29.391	18330	13944	0	548
28.777	28.814	18348	13898	0	548
27.551	27.515	18375	13871	0	548
26.830	28.741	18348	13779	0	548
27.660	28.705	18375	13825	0	548
25.424	29.463	18437	14138	0	548
24.017	28.561	18481	14552	0	548
23.440	26.470	18552	14893	0	548
22.214	25.099	18614	15151	0	548
22.755	24.666	18684	15418	0	548
23.837	25.568	18746	15777	0	548
23.368	27.732	18861	16283	0	548
28.201	33.393	18950	16743	0	548
34.295	37.324	19012	16899	0	548
40.894	41.327	19038	16798	0	548
46.628	45.005	19056	16641	0	548
50.811	49.910	19083	16577	0	548
55.463	53.588	19127	16568	0	548
57.483	56.221	19145	16494	0	548
57.411	54.886	19145	16311	0	548
56.149	53.047	19171	16127	0	548
52.074	49.838	19189	16016	0	548
49.910	49.080	19189	15979	0	548
46.989	48.035	19233	16081	0	548
41.796	44.284	19304	16302	0	548
37.000	40.137	19277	16320	0	548
33.574	36.278	19233	15896	0	548
29.895	36.567	19171	15169	0	548
29.499	37.252	19083	14478	0	548
28.237	39.055	18994	13990	0	548
27.443	37.793	18923	13677	0	548
27.227	34.620	18835	13401	0	548
29.787	32.528	18746	13097	0	548
32.853	32.564	18640	12821	0	548
35.954	36.855	18552	12683	0	548
39.668	41.255	18481	12683	0	548
42.481	46.700	18437	12720	0	548
46.736	46.664	18330	12710	0	548
48.648	46.376	18260	12784	0	548
47.674	43.455	18215	13014	0	548
45.618	37.793	18171	13235	0	548
39.452	34.475	18109	13364	0	548
34.908	30.545	18038	13447	0	548
33.141	30.256	17976	13567	0	548
33.321	30.472	17932	13779	0	548
34.620	33.177	17932	14138	0	548
33.610	33.610	17888	14598	0	548
33.718	34.692	17844	14911	0	548
33.357	35.774	17817	15040	0	548
34.187	36.459	17755	15151	0	548
33.538	39.163	17755	15344	0	548
33.105	38.262	17711	15574	0	548
32.528	40.317	17684	15749	0	548
34.583	42.770	17640	15850	0	548
38.767	46.123	17622	15924	0	548
43.310	48.431	17552	15979	0	548
46.484	50.234	17578	16173	0	548
46.268	46.664	17596	16733	0	548
45.979	45.366	17667	17424	0	548
45.078	42.842	17622	17627	0	548
44.356	40.822	17578	17249	0	548
40.173	35.882	17463	16669	0	548
36.819	29.571	17401	16191	0	548
28.958	22.214	17313	15933	0	548
23.404	17.634	17242	15795	0	548
20.050	16.733	17136	15482	0	548
16.913	16.985	17003	14911	0	548
17.310	19.654	16870	14460	0	548
16.625	17.598	16799	14432	0	548
18.320	17.706	16755	14635	0	548
19.654	17.129	16711	14810	0	548
25.243	22.755	16649	14865	0	548
29.210	30.797	16578	14930	0	548
31.338	36.747	16534	15086	0	548
28.777	41.291	16490	15215	0	548
27.299	40.281	16428	15243	0	548
28.814	39.812	16384	15261	0	548
34.439	43.202	16323	15344	0	548
41.291	46.376	16296	15537	0	548
44.609	50.198	16296	15915	0	548
41.039	48.179	16323	16402	0	548
36.711	43.563	16323	16798	0	548
32.095	40.894	16323	17074	0	548
28.164	38.118	16340	17286	0	548
27.660	35.124	16340	17470	0	548
27.443	34.295	16340	17590	0	548
30.472	35.269	16323	17627	0	548
35.413	36.567	16296	17571	0	548
39.344	40.822	16296	17461	0	548
41.075	45.041	16252	17304	0	548
40.281	45.078	16208	17093	0	548
41.796	45.979	16163	16872	0	548
42.229	47.818	16119	16669	0	548
45.222	48.143	16057	16457	0	548
44.140	49.910	15969	16108	0	548
41.075	48.792	15880	15639	0	548
37.865	45.582	15765	15252	0	548
36.026	47.313	15703	15049	0	548
38.118	47.422	15659	15040	0	548
40.317	48.179	15588	15068	0	548
40.930	49.297	15500	14985	0	548
37.721	44.933	15482	14939	0	548
31.518	38.298	15438	15059	0	548
29.607	36.387	15393	15224	0	548
28.705	34.908	15349	15316	0	548
31.987	34.187	15305	15436	0	548
31.951	34.475	15323	15703	0	548
28.886	32.203	15323	16145	0	548
25.893	29.895	15411	16706	0	548
27.696	31.266	15455	17304	0	548
31.554	38.622	15438	17590	0	548
36.351	43.563	15411	17314	0	548
36.928	48.431	15323	16789	0	548
32.708	46.232	15323	16651	0	548
31.158	42.842	15349	16945	0	548
34.728	42.229	15349	17277	0	548
44.428	46.195	15411	17553	0	548
54.742	52.470	15438	17894	0	548
57.194	54.886	15526	18308	0	548
54.273	53.841	15632	18805	0	548
46.700	46.268	15765	19459	0	548
38.586	42.842	15924	20214	0	548
38.803	41.039	16057	20748	0	548
38.550	41.471	16119	20767	0	548
38.550	40.029	16163	20453	0	548
36.026	35.954	16252	20196	0	548
30.148	30.040	16323	20104	0	548
24.955	25.893	16367	20002	0	548
21.096	24.053	16384	19652	1	576
19.798	23.981	16384	19109	0	576
17.598	22.431	16428	18686	0	576
18.536	21.565	16472	18520	0	576
20.014	19.690	16516	18501	0	576
21.204	21.132	16578	18465	0	576
24.198	24.306	16649	18382	0	576
23.476	25.316	16737	18391	0	576
23.368	26.253	16826	18520	0	576
22.827	23.657	16914	18529	0	576
22.791	22.827	16959	18409	0	576
26.145	22.539	17021	18345	0	576
31.013	27.047	17109	18317	0	576
36.423	31.194	17198	18244	0	576
41.868	34.908	17268	18216	0	576
45.114	35.088	17357	18262	0	576
45.330	36.495	17419	18271	0	576
41.147	32.420	17552	18234	0	576
38.082	29.427	17622	18207	0	576
34.079	27.443	17711	18216	0	576
33.141	27.443	17799	18271	0	576
35.846	30.617	17932	18400	0	576
40.353	35.449	18021	18547	0	576
45.366	40.281	18109	18547	0	576
47.241	40.966	18215	18345	0	576
45.907	39.632	18242	18059	0	576
44.573	39.055	18304	17746	0	576
39.524	40.786	18330	17406	0	576
36.495	41.147	18375	17019	0	576
34.259	44.032	18348	16558	0	576
31.410	43.887	18348	16182	0	576
29.968	41.796	18437	16154	0	576
30.941	39.957	18525	16411	0	576
32.889	39.488	18614	16586	0	576
35.124	37.757	18640	16448	0	576
38.695	41.904	18614	16071	0	576
41.039	45.943	18614	15620	0	576
41.543	48.936	18596	15261	0	576
41.003	51.280	18614	15077	0	576
37.757	47.386	18614	14994	0	576
34.223	42.806	18614	14865	0	576
30.545	36.603	18596	14663	0	576
29.030	33.862	18614	14488	0	576
27.660	33.213	18596	14405	0	576
28.669	35.990	18552	14313	0	576
33.502	39.380	18507	14110	0	576
37.541	45.294	18481	13861	0	576
45.005	48.864	18419	13696	0	576
47.241	49.693	18419	13640	0	576
47.097	49.297	18348	13576	0	576
45.582	49.657	18260	13364	0	576
43.527	48.792	18198	13134	0	576
43.491	53.336	18153	13024	0	576
45.005	55.968	18083	13079	0	576
48.972	56.834	18021	13198	0	576
50.775	56.113	17994	13318	0	576
50.018	50.631	17950	13484	0	576
47.097	46.232	17906	13631	0	576
38.911	41.183	17817	13576	0	576
32.961	38.298	17684	13300	0	576
31.554	37.829	17622	13051	0	576
34.511	39.776	17490	12941	0	576
38.514	41.075	17401	12876	0	576
39.668	40.858	17268	12701	0	576
37.036	40.065	17136	12453	0	576
32.276	36.278	17021	12351	0	576
30.004	33.790	16914	12397	0	576
30.256	33.466	16755	12370	0	576
32.780	34.151	16578	12057	0	576
35.665	35.341	16401	11679	0	576
35.918	33.970	16296	11725	0	576
34.944	33.285	16252	12333	0	576
31.843	29.282	16208	13152	0	576
29.571	27.732	16190	13889	0	576
27.732	26.542	16163	14478	0	576
25.388	26.686	16146	15031	0	576
24.775	26.542	16163	15675	0	576
26.397	27.443	16208	16476	0	576
26.686	31.338	16252	17341	0	576
30.436	36.459	16296	18004	0	576
33.285	42.553	16340	18483	0	576
37.505	44.104	16401	18943	0	576
42.265	45.907	16472	19413	0	576
48.035	44.753	16534	19864	0	576
55.572	44.248	16605	20159	0	576
56.545	46.087	16578	20030	0	576
57.375	49.441	16534	19496	0	576
55.716	50.090	16490	19045	0	576
54.959	53.588	16490	18851	0	576
56.978	52.218	16472	18695	0	576
56.617	52.831	16472	18520	0	576
56.401	47.926	16445	18253	0	576
52.759	40.678	16367	17700	0	576
45.979	37.288	16296	17056	0	576
41.688	31.410	16296	16853	0	576
38.550	30.689	16296	17120	0	576
39.380	31.879	16296	17304	0	576
38.550	31.446	16278	17148	0	576
39.163	30.725	16252	16835	0	576
37.973	28.128	16234	16623	0	576
37.360	29.499	16234	16623	0	576
38.947	33.069	16234	16743	0	576
41.327	37.901	16234	16770	0	576
42.445	41.543	16163	16522	0	576
39.921	42.265	16101	16099	0	576
38.082	39.740	16057	15685	0	576
34.800	38.082	15986	15454	0	576
35.088	37.829	15942	15390	0	576
34.547	39.957	15898	15335	0	576
34.295	40.173	15880	15326	0	576
32.744	39.776	15898	15519	0	576
31.951	37.721	15942	15933	0	576
31.085	36.964	15986	16448	0	576
37.324	40.173	16031	16890	0	576
43.599	46.376	16075	17185	0	576
52.001	51.100	16101	17350	0	576
53.913	54.886	16119	17461	0	576
54.165	51.749	16163	17627	0	576
48.756	50.018	16208	17857	0	576
48.359	47.097	16323	18096	0	576
46.195	44.392	16323	18197	0	576
43.743	42.697	16340	18124	0	576
39.560	37.793	16340	17958	0	576
37.216	33.970	16340	17682	0	576
37.829	32.384	16296	17314	0	576
39.416	34.944	16252	16890	0	576
41.255	37.000	16190	16375	0	576
37.432	40.209	16075	15694	0	576
34.115	41.832	15969	14985	0	576
31.590	41.507	15880	14478	0	576
34.764	42.301	15792	14156	0	576
39.488	47.313	15703	13751	0	576
45.186	51.569	15526	13198	0	576
47.818	55.968	15411	12738	0	576
48.828	60.079	15305	12517	0	576
46.087	59.971	15190	12499	0	576
41.543	59.971	15101	12545	0	576
40.426	57.122	14995	12563	0	576
37.541	55.283	14924	12545	0	576
36.387	48.467	14774	12361	0	576
34.692	43.887	14570	11955	0	576
31.590	40.678	14420	11615	0	576
32.564	39.776	14287	11495	0	576
34.547	43.924	14154	11559	0	576
39.776	47.530	14039	11808	0	576
45.402	53.480	13977	12259	0	576
46.664	53.985	13907	12803	0	576
43.815	53.877	13862	13355	0	576
41.147	48.756	13818	13880	0	576
36.206	46.809	13774	14405	0	576
34.872	45.258	13774	15059	0	576
38.226	45.510	13800	15814	0	576
42.084	49.693	13818	16503	0	576
44.789	50.559	13845	17083	0	576
46.159	52.470	13862	17627	0	576
47.169	52.831	13933	18179	0	576
45.114	54.490	13995	18842	0	576
41.616	51.352	14154	19790	0	576
38.334	46.412	14331	20923	0	576
33.790	41.796	14438	21706	0	576
31.951	35.305	14526	21890	0	576
33.069	34.439	14597	21697	0	576
35.449	35.990	14641	21476	0	576
37.649	41.399	14685	21282	0	576
38.911	47.205	14685	20859	0	576
39.344	49.405	14597	19993	1	660
36.603	51.424	14526	18999	0	660
36.387	47.025	14508	18363	0	660
34.223	43.599	14526	18170	0	660
32.312	39.740	14526	18133	0	660
33.934	37.180	14526	18004	0	660
35.269	37.865	14526	17728	0	660
35.954	38.622	14526	17452	0	660
34.151	38.190	14526	17295	0	660
31.951	36.819	14553	17286	0	660
28.273	35.233	14597	17341	0	660
28.561	33.069	14615	17341	0	660
33.826	34.079	14615	17286	0	660
38.586	35.629	14685	17295	0	660
40.173	37.937	14774	17498	0	660
37.072	37.865	14836	17866	0	660
33.862	40.137	14951	18299	0	660
32.780	40.137	15039	18686	0	660
33.934	43.419	15172	18980	0	660
35.882	43.455	15261	19183	0	660
35.269	42.229	15393	19358	0	660
30.941	40.389	15482	19450	0	660
26.433	38.190	15570	19450	0	660
24.522	38.334	15632	19293	0	660
22.647	38.875	15632	18870	0	660
22.972	38.911	15659	18244	0	660
25.316	35.774	15659	17636	0	660
22.178	31.807	15615	17083	0	660
21.637	28.958	15570	16494	0	660
20.880	30.617	15526	15896	0	660
23.909	32.492	15455	15289	0	660
28.237	36.351	15411	14856	0	660
32.203	39.055	15411	14690	0	660
33.357	38.334	15411	14727	0	660
30.617	40.353	15393	14709	0	660
30.581	40.786	15411	14617	0	660
33.285	44.212	15393	14699	0	660
36.242	46.881	15455	15031	0	660
35.629	46.556	15500	15418	0	660
28.958	43.887	15544	15685	0	660
21.565	39.272	15588	15841	0	660
14.172	35.124	15588	15970	0	660
15.110	36.170	15615	16053	0	660
20.195	39.921	15588	15850	0	660
27.443	43.130	15526	15362	0	660
30.905	44.717	15438	14884	0	660
30.977	40.678	15411	14589	0	660
30.508	35.593	15349	14488	0	660
29.282	32.420	15393	14672	0	660
32.384	34.764	15411	15114	0	660
38.154	37.865	15438	15583	0	660
39.993	40.317	15526	16016	0	660
38.190	39.416	15570	16448	0	660
33.177	34.836	15632	16872	0	660
31.302	34.259	15747	17350	0	660
34.367	40.029	15942	18124	0	660
44.248	51.965	16057	19017	0	660
56.004	64.731	16146	19395	0	660
59.286	71.475	16190	19192	0	660
55.319	70.718	16234	18888	0	660
44.356	64.118	16278	18686	0	660
36.098	54.706	16296	18501	0	660
31.662	50.379	16340	18317	0	660
34.259	48.936	16340	18013	0	660
37.505	51.821	16323	17516	0	660
40.786	51.965	16278	16991	0	660
37.649	50.234	16252	16540	0	660
33.429	44.392	16208	16164	0	660
28.741	38.586	16190	15814	0	660
24.739	36.531	16163	15473	0	660
25.929	36.567	16119	15187	0	660
27.624	39.091	16101	15068	0	660
31.735	39.163	16101	15086	0	660
34.583	37.468	16075	15151	0	660
35.665	37.396	16075	15095	0	660
36.603	37.468	16031	14893	0	660
38.731	40.353	15986	14663	0	660
40.966	45.222	15942	14442	0	660
42.481	47.205	15880	14285	0	660
42.048	49.802	15809	14119	0	660
40.065	48.431	15677	13640	0	660
36.387	49.513	15526	12849	0	660
33.790	47.494	15393	12370	0	660
31.446	44.861	15323	12397	0	660
29.354	40.534	15234	12545	0	660
24.198	37.432	15146	12692	0	660
21.781	34.367	15128	12895	0	660
20.339	35.485	15039	13143	0	660
28.597	41.543	15057	13576	0	660
41.075	48.467	15128	14460	0	660
51.136	54.021	15234	15666	0	660
54.742	56.329	15278	16595	0	660
48.179	51.785	15305	16908	0	660
39.596	47.205	15278	16816	0	660
37.793	44.176	15278	16743	0	660
46.268	45.150	15234	16789	0	660
52.506	52.254	15234	16752	0	660
57.014	53.660	15128	16411	0	660
52.038	54.778	15039	15878	0	660
46.700	51.893	14924	15491	0	660
44.789	51.965	14907	15381	0	660
47.422	48.900	14836	15491	0	660
48.071	49.946	14836	15666	0	660
44.609	47.349	14818	15795	0	660
36.351	42.697	14792	15970	0	660
30.689	38.586	14836	16320	0	660
29.354	36.819	14862	16825	0	660
30.292	33.754	14924	17341	0	660
31.410	33.105	14951	17617	0	660
28.056	27.551	14951	17691	0	660
25.316	26.037	14995	17802	0	660
24.486	25.784	15013	18050	0	660
29.030	28.597	15101	18363	0	660
35.521	33.754	15146	18676	0	660
40.426	37.829	15261	18999	0	660
39.091	38.226	15305	19247	0	660
34.764	35.413	15411	19413	0	660
29.679	32.239	15455	19505	0	660
28.597	31.194	15500	19477	0	660
28.092	29.318	15544	19321	0	660
31.879	32.961	15570	19091	0	660
36.170	35.305	15570	18750	0	660
39.308	36.711	15588	18308	0	660
41.291	36.170	15615	18124	0	660
41.255	36.170	15703	18418	0	660
41.868	38.370	15792	18759	0	660
41.688	41.147	15854	18695	0	660
41.183	46.520	15854	18363	0	660
41.543	47.746	15880	18069	0	660
41.003	44.140	15942	17967	0	660
38.622	42.337	16013	18050	0	660
40.822	39.704	16101	18179	0	660
42.517	38.839	16146	18151	0	660
43.022	39.885	16190	17958	0	660
41.003	39.632	16208	17737	0	660
38.695	37.829	16252	17581	0	660
37.973	39.885	16278	17406	0	660
39.452	42.986	16278	17148	0	660
45.799	48.431	16296	16853	0	660
50.667	51.208	16296	16595	0	660
53.228	54.418	16340	16457	0	660
54.886	52.506	16367	16393	0	660
51.136	53.191	16367	16265	0	660
48.972	49.585	16384	16071	0	660
43.743	44.320	16384	15961	0	660
37.505	39.163	16428	16007	0	660
35.269	32.925	16472	16127	0	660
32.564	30.364	16472	16182	0	660
32.023	33.646	16490	16145	0	660
31.194	33.538	16516	16081	0	660
25.893	32.528	16534	16044	0	660
20.591	28.814	16560	16053	0	660
16.264	24.450	16605	16108	0	660
19.726	24.811	16622	16219	0	660
24.594	28.777	16667	16283	0	660
32.059	32.492	16622	16062	0	660
35.737	35.774	16605	15694	0	660
35.557	35.233	16649	15675	0	660
32.997	32.925	16693	16016	0	660
32.059	30.364	16737	16219	0	660
31.735	28.994	16693	16108	0	660
34.331	28.741	16693	15814	0	660
38.514	29.679	16649	15528	0	660
40.606	30.833	16649	15390	0	660
38.803	27.371	16649	15445	0	660
33.682	21.854	16667	15648	0	660
25.207	17.418	16711	15878	0	660
19.726	11.215	16755	16145	0	660
18.500	15.110	16826	16540	0	660
23.152	18.392	16888	17019	0	660
29.030	26.506	17003	17396	0	660
29.859	30.184	17047	17571	0	660
29.895	32.492	17109	17627	0	660
27.335	31.013	17109	17608	0	660
24.162	28.417	17136	17424	0	660
26.866	27.371	17136	17083	0	660
30.004	30.977	17109	16724	0	660
35.918	34.511	17065	16430	0	660
39.668	37.072	17021	16071	0	660
38.658	37.793	16976	15537	0	660
37.216	34.079	16888	14985	0	660
29.102	28.561	16799	14598	0	660
23.152	25.279	16755	14405	0	660
19.942	24.198	16711	14267	0	660
18.067	25.316	16622	14018	0	660
18.320	26.073	16560	13687	0	660
20.700	27.443	16445	13429	0	660
21.457	26.037	16367	13300	0	660
24.666	26.938	16278	13189	0	660
26.073	26.758	16163	12978	0	660
27.804	30.076	16057	12637	0	660
27.912	31.302	15942	12425	0	660
26.686	30.977	15898	12508	0	660
24.666	29.138	15836	12830	0	660
21.601	28.381	15747	13125	0	660
21.060	24.739	15703	13318	0	660
21.096	24.342	15677	13604	0	660
22.358	24.847	15588	13834	0	660
24.414	26.001	15500	13880	0	660
22.683	24.739	15482	14000	0	660
21.313	24.162	15411	14294	0	660
21.421	23.044	15393	14672	0	660
22.178	21.241	15411	15215	0	660
25.099	21.998	15455	16016	0	660
27.660	22.467	15526	16908	0	660
25.676	22.935	15588	17507	0	660
24.883	24.414	15500	17498	0	660
26.145	28.850	15482	17139	0	660
26.542	32.744	15482	17102	0	660
29.643	35.701	15482	17461	0	660
30.508	36.062	15526	17792	0	660
28.417	33.934	15526	17967	0	660
25.820	30.725	15544	18133	0	660
21.385	28.309	15615	18382	0	660
19.293	26.614	15677	18722	0	660
18.392	27.191	15765	19229	0	660
16.841	26.397	15880	19809	0	660
19.437	26.109	15969	20159	0	660
19.582	24.847	16013	20104	0	660
22.611	23.945	16031	19754	0	660
22.503	23.693	16031	19404	0	660
25.352	25.352	16057	19146	0	660
27.371	28.525	16075	18897	1	888
30.220	32.203	16031	18465	0	888
30.761	32.853	15986	17820	0	888
32.853	34.403	15986	17286	0	888
31.518	32.095	15969	17056	0	888
29.968	28.994	15986	17065	0	888
29.931	28.525	15986	17120	0	888
31.951	29.607	16013	16991	0	888
33.862	32.889	15986	16743	0	888
35.449	36.098	16013	16549	0	888
35.233	37.757	16013	16420	0	888
33.213	40.462	15986	16320	0	888
32.276	41.183	15986	16228	0	888
32.528	42.265	16013	16219	0	888
32.203	41.832	16031	16329	0	888
33.213	42.084	16075	16577	0	888
32.492	41.363	16146	16872	0	888
30.689	43.022	16190	17037	0	888
31.158	43.563	16208	17083	0	888
29.571	42.517	16252	17111	0	888
26.397	37.396	16296	17166	0	888
21.673	34.223	16323	17240	0	888
17.959	29.715	16340	17175	0	888
18.139	31.807	16340	16954	0	888
19.618	35.882	16323	16687	0	888
23.476	38.406	16296	16439	0	888
24.558	39.668	16323	16302	0	888
