neuroNicle FX2
D3F25R12
Bluetooth SPP
2023년 3월 29일 수요일
오후 2:44
time interval = 4msec
EEG1	EEG2	PPG	sdPPG	pulse	peak_interval(msec)
-31.085	-23.512	18442	15865	0	492
-31.699	-23.945	18384	15689	0	492
-33.285	-27.840	18295	15557	0	492
-35.846	-32.384	18295	15504	0	492
-37.288	-37.973	18089	15399	0	492
-37.468	-41.688	18031	15205	0	492
-34.006	-38.478	17942	15082	0	492
-25.316	-31.338	17854	15143	0	492
-18.608	-24.270	17854	15231	0	492
-14.461	-17.959	17766	15249	0	492
-15.218	-18.247	17619	15196	0	492
-17.346	-20.014	17560	15161	0	492
-21.709	-23.440	17560	15258	0	492
-22.034	-25.820	17589	15522	0	492
-21.132	-26.722	17707	15830	0	492
-24.017	-28.381	17707	16024	0	492
-25.316	-29.391	17648	16103	0	492
-25.063	-27.840	17766	16217	0	492
-24.558	-25.568	17795	16392	0	492
-22.070	-20.339	17795	16586	0	492
-19.149	-17.670	17884	16656	0	492
-20.519	-14.785	17707	16445	0	492
-17.851	-17.706	17442	15980	0	492
-17.382	-18.320	17207	15592	0	492
-14.245	-20.195	17148	15451	0	492
-15.038	-20.267	17001	15416	0	492
-14.245	-19.942	16884	15390	0	492
-16.120	-20.375	16736	15328	0	492
-18.716	-18.716	16472	15152	0	492
-21.781	-20.844	16326	14976	0	492
-21.818	-20.844	16326	15117	0	492
-24.198	-22.755	16384	15575	0	492
-20.483	-21.060	16384	15900	0	492
-16.408	-17.490	16237	15865	0	492
-12.009	-13.559	16090	15627	0	492
-10.206	-10.422	15943	15487	0	492
-11.432	-10.314	15884	15531	0	492
-13.235	-15.038	15796	15671	0	492
-18.067	-19.726	15649	15733	0	492
-21.132	-26.578	15590	15663	0	492
-26.794	-31.518	15443	15619	0	492
-33.069	-36.278	15355	15698	0	492
-38.586	-38.406	15326	15865	0	492
-42.481	-36.387	15296	15997	0	492
-44.032	-33.466	15149	15980	0	492
-47.818	-34.547	15002	15883	0	492
-62.568	-41.616	14914	15848	0	492
-83.195	-55.427	14855	15953	0	492
-104.760	-68.734	14767	16076	0	492
-119.329	-79.048	14679	16015	0	492
-125.856	-81.284	14267	15663	0	492
-124.414	-84.746	13973	15196	0	492
-127.768	-89.217	13737	14932	0	492
-129.643	-96.502	13532	14914	0	492
-130.076	-98.161	13355	14967	0	492
-122.286	-89.578	13237	15038	0	492
-107.862	-78.327	13061	15179	0	492
-95.564	-66.426	12973	15293	0	492
-88.172	-62.495	12708	15240	0	492
-87.523	-65.669	12502	15134	0	492
-92.175	-70.032	12237	15002	0	492
-93.040	-72.160	11914	14782	0	492
-89.614	-68.770	11590	14554	0	492
-77.209	-60.224	11326	14421	0	492
-66.318	-50.379	11032	14421	0	492
-55.391	-39.957	10884	14571	0	492
-51.533	-33.466	10708	14800	0	492
-49.982	-30.400	10561	14958	0	492
-52.182	-31.374	10326	15011	0	492
-50.775	-32.997	10208	15143	0	492
-49.910	-34.006	10149	15478	0	492
-48.467	-35.377	10208	15944	0	492
-46.376	-35.882	10179	16367	0	492
-45.907	-35.449	10179	16604	0	492
-44.212	-32.997	10149	16788	0	492
-42.084	-30.905	10267	17088	0	492
-42.481	-29.715	10326	17501	0	492
-41.471	-29.607	10473	17862	0	492
-40.101	-31.338	10502	18065	0	492
-39.452	-33.898	10590	18135	0	492
-39.416	-35.629	10649	18179	0	492
-41.219	-38.262	10620	18214	0	492
-43.130	-39.993	10737	18250	0	492
-45.438	-39.704	10767	18276	0	492
-43.202	-33.682	10767	18188	0	492
-36.314	-27.696	10767	18021	0	492
-30.220	-20.159	10855	18012	0	492
-26.470	-18.644	11002	18214	0	492
-25.424	-18.680	11149	18417	0	492
-23.657	-17.454	11355	18531	0	492
-21.060	-14.100	11502	18637	0	492
-17.021	-9.592	11796	18831	0	492
-14.317	-8.330	12061	19068	0	492
-16.300	-10.674	12326	19236	0	492
-19.582	-15.939	12620	19341	0	492
-20.050	-18.103	12855	19429	0	492
-18.500	-17.995	13061	19429	0	492
-17.382	-14.821	13296	19324	0	492
-16.697	-13.343	13502	19227	0	492
-15.326	-14.208	13737	19165	0	492
-16.552	-15.651	13884	19042	0	492
-18.608	-20.159	14002	18760	1	608
-20.844	-22.683	14032	18382	0	608
-26.145	-25.316	14179	18100	0	608
-31.158	-27.912	14296	17959	0	608
-31.590	-29.066	14532	17880	0	608
-31.482	-29.787	14620	17783	0	608
-32.095	-28.092	14826	17607	0	608
-32.528	-27.047	14914	17466	0	608
-32.167	-26.109	15149	17422	0	608
-28.597	-24.378	15355	17466	0	608
-23.188	-20.447	15590	17501	0	608
-14.353	-17.346	15737	17440	0	608
-9.052	-10.025	15884	17334	0	608
-6.744	-6.635	16090	17290	0	608
-9.520	-7.068	16326	17290	0	608
-14.533	-12.694	16472	17281	0	608
-23.152	-18.860	16619	17193	0	608
-26.037	-24.342	16736	17044	0	608
-24.522	-25.604	16913	16938	0	608
-20.375	-20.519	17119	16956	0	608
-12.153	-14.281	17266	17035	0	608
-9.268	-9.232	17472	17009	0	608
-9.376	-6.058	17589	16876	0	608
-10.133	-7.321	17648	16744	0	608
-13.704	-8.042	17854	16665	0	608
-12.441	-7.465	17942	16586	0	608
-8.511	-6.671	17942	16445	0	608
-4.436	-3.931	18060	16261	0	608
-3.642	-3.787	18060	16032	0	608
-5.265	-5.698	17942	15707	0	608
-7.248	-6.383	17854	15311	0	608
-8.402	-3.282	17707	14950	0	608
-4.832	0.505	17589	14659	0	608
-3.787	2.524	17413	14395	0	608
-5.373	-0.325	17207	14087	0	608
-10.999	-6.599	17031	13849	0	608
-14.641	-9.304	16972	13867	0	608
-15.723	-10.025	17001	14069	0	608
-13.595	-6.635	16884	14184	0	608
-9.917	-3.137	16736	14131	0	608
-6.167	-0.072	16560	13955	0	608
-2.741	0.469	16384	13788	0	608
-0.757	2.813	16237	13761	0	608
-1.226	2.272	16090	13858	0	608
-4.147	1.154	15914	13937	0	608
-7.537	-0.180	15737	13893	0	608
-8.907	-1.875	15620	13911	0	608
-9.809	-2.236	15502	14096	0	608
-10.458	-2.560	15473	14386	0	608
-9.412	-1.010	15414	14677	0	608
-3.534	4.616	15326	14870	0	608
1.947	10.783	15267	14994	0	608
8.006	13.235	15208	15170	0	608
7.970	12.730	15208	15478	0	608
2.813	5.013	15326	15839	0	608
-3.678	0.721	15296	16156	0	608
-4.219	1.046	15414	16419	0	608
0.541	6.347	15473	16700	0	608
7.789	13.956	15620	16982	0	608
12.045	17.779	15590	17158	0	608
13.091	17.562	15590	17185	0	608
10.566	14.497	15590	17149	0	608
7.862	9.701	15502	17070	0	608
8.042	11.179	15443	16876	0	608
9.773	13.271	15296	16656	0	608
12.081	15.723	15208	16533	0	608
15.002	19.546	15120	16489	0	608
17.887	19.329	15061	16419	0	608
17.526	20.267	14826	16226	0	608
17.057	17.923	14679	15900	0	608
11.828	16.733	14414	15619	0	608
7.862	14.064	14267	15469	0	608
4.147	13.415	14179	15443	0	608
2.236	10.674	14032	15451	0	608
1.370	8.727	13855	15407	0	608
-0.397	6.563	13737	15355	0	608
-1.226	5.301	13649	15399	0	608
0.108	4.940	13590	15548	0	608
3.931	9.268	13561	15733	0	608
6.816	12.333	13532	15874	0	608
5.878	13.740	13502	16015	0	608
3.173	10.855	13532	16217	0	608
-0.721	6.635	13590	16445	0	608
-5.013	2.669	13590	16683	0	608
-5.662	0.865	13649	16850	0	608
-6.491	2.560	13679	16920	0	608
-9.448	5.409	13679	16982	0	608
-10.819	6.455	13737	17114	0	608
-16.048	3.967	13855	17325	0	608
-19.077	-0.757	13973	17484	0	608
-23.765	-8.294	14032	17563	0	608
-25.532	-14.533	14032	17581	0	608
-20.916	-18.752	14090	17528	0	608
-12.261	-14.930	13973	17361	0	608
-2.344	-2.993	13973	17167	0	608
4.868	5.409	13943	17026	0	608
5.698	8.943	13884	16912	0	608
2.380	2.308	13826	16744	0	608
0.036	-5.770	13679	16542	0	608
3.390	-8.222	13679	16384	0	608
8.475	-5.301	13561	16226	0	608
12.838	0.216	13384	16041	0	608
10.891	1.911	13267	15821	0	608
9.340	-3.354	13090	15619	0	608
10.097	-6.058	12973	15469	0	608
13.271	-4.111	12855	15407	0	608
20.952	0.793	12767	15460	0	608
22.539	6.022	12708	15504	0	608
21.096	6.635	12620	15443	0	608
18.392	4.508	12473	15381	0	608
20.159	3.065	12384	15434	0	608
24.414	2.885	12384	15575	0	608
31.085	7.717	12355	15715	0	608
37.505	12.297	12267	15768	0	608
40.642	17.743	12208	15786	0	608
42.589	20.014	12120	15812	0	608
43.527	23.188	12090	15874	0	608
47.458	25.965	12061	15971	0	608
49.405	27.443	11973	16032	0	608
51.136	28.056	11914	16050	0	608
49.333	27.371	11884	16068	0	608
42.914	25.496	11914	16156	0	608
40.750	24.594	11914	16349	0	608
41.399	27.227	12061	16595	0	608
42.157	28.164	12032	16780	0	608
43.707	29.030	11826	16604	0	608
43.960	28.128	11620	16182	0	608
46.772	26.794	11502	15927	0	608
52.506	28.633	11326	15839	0	608
57.303	30.184	11061	15627	0	608
57.303	30.581	10855	15293	0	608
53.372	28.020	10590	15082	0	608
45.691	25.243	10561	15108	0	608
45.041	24.594	10473	15328	0	608
49.874	27.840	10561	15671	0	608
54.345	32.420	10620	16015	0	608
61.378	34.800	10502	16182	0	608
61.305	33.610	10561	16226	0	608
58.961	31.410	10561	16384	0	608
54.201	29.174	10737	16753	0	608
47.386	28.237	11002	17264	0	608
45.763	28.886	11149	17704	0	608
46.953	28.092	11296	17950	0	608
50.811	26.614	11473	18126	0	608
58.312	27.660	11679	18399	0	608
60.801	29.679	12032	18760	0	608
58.276	32.276	12326	19068	0	608
51.677	32.816	12561	19253	0	608
40.101	26.830	12914	19429	0	608
33.033	20.014	13208	19649	0	608
32.600	16.589	13532	19808	0	608
35.052	14.749	13737	19869	0	608
38.803	18.572	14032	19843	0	608
38.767	19.546	14296	19755	0	608
35.954	20.519	14590	19658	0	608
32.420	18.283	14826	19605	0	608
31.518	17.851	15149	19597	1	624
29.571	14.136	15443	19500	0	624
26.325	10.458	15590	19280	0	624
22.395	6.563	15796	19016	0	624
17.743	2.272	16002	18804	0	624
17.851	2.560	16208	18619	0	624
17.129	3.498	16355	18391	0	624
14.821	3.714	16442	18082	0	624
7.717	3.173	16560	17739	0	624
0.974	0.757	16589	17352	0	624
-2.128	-4.688	16589	16920	0	624
0.757	-8.475	16560	16472	0	624
4.796	-10.783	16531	16068	0	624
6.527	-8.727	16442	15654	0	624
1.298	-6.022	16237	15126	0	624
-4.364	-1.983	16032	14545	0	624
-9.088	-1.046	15914	14219	0	624
-10.819	-4.255	15884	14201	0	624
-12.874	-13.307	15796	14219	0	624
-18.644	-20.267	15767	14113	0	624
-26.289	-26.253	15561	13902	0	624
-30.040	-26.253	15414	13726	0	624
-29.535	-20.772	15296	13638	0	624
-28.201	-19.005	15149	13612	0	624
-23.765	-19.005	14914	13524	0	624
-24.378	-26.650	14679	13321	0	624
-26.181	-33.141	14473	13163	0	624
-26.902	-37.108	14267	13198	0	624
-28.056	-35.233	14149	13383	0	624
-31.302	-32.312	14002	13532	0	624
-32.889	-29.968	13826	13559	0	624
-33.754	-31.915	13649	13576	0	624
-35.197	-35.052	13443	13735	0	624
-33.574	-36.747	13502	14078	0	624
-32.961	-38.082	13443	14483	0	624
-32.131	-36.819	13384	14809	0	624
-33.069	-33.393	13414	15090	0	624
-28.850	-29.607	13414	15407	0	624
-24.919	-22.827	13502	15786	0	624
-22.863	-18.356	13532	16173	0	624
-20.880	-17.454	13590	16498	0	624
-21.421	-19.618	13708	16744	0	624
-24.486	-21.890	13708	16947	0	624
-26.866	-22.358	13737	17070	0	624
-25.099	-23.152	13796	17123	0	624
-25.712	-23.837	13708	17105	0	624
-27.551	-28.633	13679	17070	0	624
-30.508	-33.790	13561	16982	0	624
-39.235	-36.819	13532	16832	0	624
-46.376	-40.498	13443	16727	0	624
-50.018	-40.894	13561	16841	0	624
-45.943	-39.921	13590	17114	0	624
-43.707	-40.065	13590	17220	0	624
-42.661	-38.226	13502	16964	0	624
-45.618	-34.836	13237	16524	0	624
-47.133	-31.843	13090	16156	0	624
-48.612	-30.545	12943	15953	0	624
-46.989	-30.941	12855	15918	0	624
-44.464	-34.475	12767	15962	0	624
-47.061	-37.685	12679	15953	0	624
-46.159	-35.629	12561	15927	0	624
-40.173	-27.335	12620	15988	0	624
-35.954	-18.897	12620	16129	0	624
-32.456	-15.939	12561	16270	0	624
-33.141	-16.480	12532	16332	0	624
-34.223	-23.116	12532	16367	0	624
-34.187	-27.047	12561	16454	0	624
-31.987	-28.850	12649	16630	0	624
-30.653	-27.840	12708	16806	0	624
-32.456	-27.984	12708	16938	0	624
-34.656	-27.984	12796	17061	0	624
-36.098	-28.381	12943	17220	0	624
-35.341	-30.040	13061	17405	0	624
-35.593	-32.095	13149	17537	0	624
-38.262	-35.160	13267	17581	0	624
-42.553	-38.298	13267	17598	0	624
-41.471	-36.819	13414	17607	0	624
-34.295	-29.354	13414	17545	0	624
-20.050	-18.283	13414	17413	0	624
-8.907	-7.429	13384	17220	0	624
-6.058	-4.436	13296	16991	0	624
-12.658	-6.996	13237	16683	0	624
-24.053	-14.569	13061	16358	0	624
-28.561	-17.887	12914	16068	0	624
-25.460	-19.113	12826	15865	0	624
-20.411	-15.831	12708	15759	0	624
-12.910	-15.326	12679	15742	0	624
-13.271	-14.641	12620	15707	0	624
-15.110	-13.559	12502	15575	0	624
-18.788	-14.100	12384	15443	0	624
-19.041	-13.307	12326	15416	0	624
-20.555	-12.946	12267	15504	0	624
-16.985	-14.028	12237	15601	0	624
-18.716	-12.261	12208	15645	0	624
-17.634	-11.973	12179	15680	0	624
-18.536	-10.422	12179	15786	0	624
-16.084	-8.186	12179	15927	0	624
-13.415	-9.052	12179	16059	0	624
-12.405	-10.963	12208	16164	0	624
-12.369	-12.477	12208	16261	0	624
-18.500	-14.785	12208	16340	0	624
-23.224	-15.543	12179	16332	0	624
-28.164	-14.281	12120	16261	0	624
-31.158	-15.939	12032	16156	0	624
-33.249	-18.320	11796	15892	0	624
-31.807	-21.673	11502	15451	0	624
-27.840	-17.598	11326	15152	0	624
-17.634	-11.107	11208	15117	0	624
-7.537	-1.010	11061	15196	0	624
-2.200	5.085	11032	15319	0	624
-4.075	0.180	10943	15460	0	624
-13.920	-10.169	11002	15592	0	624
-26.361	-21.493	11002	15839	0	624
-34.006	-28.850	11326	16436	0	624
-34.475	-28.128	11679	17343	0	624
-29.715	-23.476	12090	18118	0	624
-21.529	-17.959	12326	18487	0	624
-14.461	-15.687	12532	18602	0	624
-8.258	-13.559	12767	18699	0	624
-6.780	-13.740	12973	18892	0	624
-8.150	-14.353	13237	19104	0	624
-13.487	-14.677	13384	19183	0	624
-17.274	-17.959	13590	19068	0	624
-19.149	-17.238	13708	18919	0	624
-14.064	-16.336	13855	18857	0	624
-7.465	-12.586	14149	18875	0	624
-3.642	-9.881	14296	18857	1	504
-4.400	-9.773	14532	18760	0	504
-8.294	-10.927	14679	18663	0	504
-10.602	-13.704	14914	18655	0	504
-9.737	-14.605	15149	18699	0	504
-7.429	-11.035	15326	18646	0	504
-5.265	-9.881	15414	18391	0	504
-6.527	-7.140	15502	17959	0	504
-8.619	-8.330	15473	17537	0	504
-14.858	-11.360	15590	17264	0	504
-20.519	-17.851	15649	17158	0	504
-23.873	-21.493	15767	17079	0	504
-23.693	-22.503	15943	16973	0	504
-19.762	-17.382	16032	16920	0	504
-10.458	-12.333	16208	16938	0	504
-8.042	-7.789	16384	16991	0	504
-9.881	-6.635	16531	16991	0	504
-10.530	-6.888	16619	16903	0	504
-12.982	-4.580	16678	16771	0	504
-9.881	-0.685	16766	16595	0	504
-5.590	2.308	16825	16384	0	504
-6.455	0.036	16766	16173	0	504
-9.701	-5.337	16825	15997	0	504
-15.182	-10.025	16766	15786	0	504
-16.661	-8.078	16589	15407	0	504
-15.723	-3.787	16413	14906	0	504
-10.206	2.452	16237	14492	0	504
-5.157	6.275	16090	14289	0	504
-2.669	5.301	16002	14245	0	504
-3.823	1.947	15884	14210	0	504
-6.744	-0.649	15767	14149	0	504
-8.330	-1.695	15796	14237	0	504
-7.248	1.262	15855	14554	0	504
-3.895	5.229	15914	14923	0	504
-0.829	8.871	15943	15179	0	504
-1.370	8.871	15943	15284	0	504
-5.193	5.662	15914	15311	0	504
-9.412	2.092	15914	15372	0	504
-9.016	3.967	15855	15434	0	504
-2.813	9.665	15767	15399	0	504
2.813	13.415	15649	15258	0	504
7.032	16.192	15473	15126	0	504
6.383	13.704	15414	15099	0	504
2.921	9.160	15355	15187	0	504
0.180	7.753	15414	15372	0	504
0.902	9.376	15296	15522	0	504
3.967	13.379	15296	15610	0	504
8.943	20.519	15296	15733	0	504
13.451	26.361	15414	15980	0	504
16.300	29.787	15443	16279	0	504
19.365	31.049	15502	16507	0	504
18.067	28.273	15590	16674	0	504
18.536	27.984	15620	16832	0	504
19.690	30.112	15767	16947	0	504
24.414	33.502	15767	17017	0	504
25.316	35.737	15796	17079	0	504
22.972	33.249	15884	17132	0	504
19.870	26.253	15796	17035	0	504
14.785	22.395	15473	16533	0	504
14.425	19.870	15267	15865	0	504
15.651	21.998	15120	15601	0	504
18.247	25.099	15179	15848	0	504
16.913	24.270	15267	16164	0	504
14.930	21.998	15179	16261	0	504
7.645	16.192	15149	16182	0	504
0.433	9.052	15061	16085	0	504
-9.629	1.947	15061	16076	0	504
-14.677	-2.019	15002	16129	0	504
-16.228	-3.678	15002	16191	0	504
-11.828	0.865	15032	16217	0	504
-4.364	6.491	14973	16279	0	504
0.577	10.386	15032	16419	0	504
2.849	11.071	15179	16612	0	504
1.406	5.373	15149	16736	0	504
-4.580	-0.433	15149	16736	0	504
-8.330	-4.255	15149	16674	0	504
-9.701	-4.868	15149	16665	0	504
-7.501	0.361	15267	16780	0	504
-1.226	5.229	15326	16964	0	504
1.551	7.970	15443	17061	0	504
4.796	6.275	15414	17061	0	504
5.481	4.039	15473	17035	0	504
6.347	3.426	15473	17026	0	504
4.327	2.308	15561	17000	0	504
2.633	0.613	15473	16885	0	504
-0.216	-1.731	15414	16709	0	504
-2.921	-4.291	15414	16560	0	504
-4.508	-6.419	15326	16454	0	504
-7.537	-6.780	15326	16340	0	504
-10.638	-6.563	15149	16138	0	504
-13.415	-7.068	15002	15865	0	504
-18.824	-9.845	14914	15645	0	504
-22.683	-13.451	14737	15513	0	504
-28.958	-17.670	14679	15434	0	504
-32.239	-22.972	14532	15355	0	504
-25.893	-19.798	14384	15223	0	504
-7.429	-8.727	14267	15099	0	504
14.064	7.970	14090	15011	0	504
30.040	23.044	13884	14932	0	504
32.853	27.119	13796	14879	0	504
27.948	24.883	13649	14941	0	504
21.204	18.428	13679	15117	0	504
21.024	14.533	13590	15319	0	504
27.047	18.356	13502	15443	0	504
34.511	25.243	13532	15548	0	504
39.812	32.925	13532	15733	0	504
45.078	38.731	13532	15997	0	504
47.530	41.724	13590	16261	0	504
50.162	41.039	13649	16463	0	504
51.208	36.675	13679	16639	0	504
47.061	32.889	13796	16841	0	504
46.592	29.282	13884	17079	0	504
45.835	29.246	13943	17281	0	504
47.746	32.384	14002	17343	0	504
53.732	37.829	13884	17176	0	504
59.430	42.770	13649	16683	0	504
63.613	44.464	13296	16041	0	504
-23.332	-14.821	15620	16656	0	800
-20.555	-12.369	15502	16050	0	800
-17.202	-8.475	15208	15355	0	800
-15.326	-5.517	14914	14633	0	800
-10.494	-2.885	14708	14061	0	800
-8.763	-1.659	14473	13726	0	800
-5.554	-2.849	14414	13603	0	800
-4.868	-5.950	14296	13594	0	800
-5.806	-8.691	14237	13568	0	800
-8.006	-10.169	14090	13559	0	800
-10.602	-10.638	14032	13638	0	800
-14.172	-12.838	14002	13814	0	800
-15.074	-13.091	14032	14043	0	800
-16.336	-16.084	14002	14237	0	800
-12.153	-15.290	14032	14421	0	800
-7.681	-13.740	14120	14712	0	800
-6.383	-11.143	14237	15143	0	800
-7.898	-8.691	14384	15583	0	800
-10.855	-9.629	14326	15768	0	800
-14.281	-11.756	14149	15531	0	800
-17.166	-12.045	13855	15055	0	800
-14.317	-13.127	13708	14782	0	800
-13.343	-10.097	13649	14791	0	800
-9.953	-5.878	13443	14826	0	800
-6.671	-1.190	13355	14826	0	800
-3.678	4.183	13267	14879	0	800
-0.036	9.845	13149	15046	0	800
2.344	12.477	13237	15311	0	800
2.669	12.477	13267	15610	0	800
-1.334	7.357	13355	15918	0	800
-6.167	2.669	13355	16182	0	800
-7.898	0.685	13355	16261	0	800
-5.085	3.390	13237	16147	0	800
3.173	9.088	13149	16059	0	800
7.645	13.595	13061	16085	0	800
8.799	15.326	13061	16120	0	800
5.445	10.855	12855	16050	0	800
-1.190	7.068	12767	15883	0	800
-4.472	2.669	12620	15751	0	800
-6.888	1.983	12532	15742	0	800
-5.986	5.445	12532	15865	0	800
-3.282	8.078	12473	16050	0	800
1.298	10.242	12473	16191	0	800
0.433	7.465	12502	16332	0	800
-0.865	3.534	12561	16524	1	316
-3.173	1.442	12561	16744	0	316
-1.298	3.498	12649	16885	0	316
3.931	8.763	12679	16929	0	316
7.429	12.838	12708	17035	0	316
7.140	15.218	12914	17281	0	316
1.226	12.946	13120	17660	0	316
-2.705	9.376	13267	18012	0	316
-3.173	7.501	13443	18153	0	316
0.433	5.806	13532	18126	0	316
4.219	7.573	13590	18021	0	316
6.816	7.970	13532	17810	0	316
6.780	9.304	13502	17484	0	316
3.859	7.862	13384	17114	0	316
-0.577	4.436	13208	16744	0	316
-2.272	2.849	13120	16410	0	316
-1.695	4.652	12943	16147	0	316
3.895	8.114	12796	15900	0	316
7.825	14.100	12649	15619	0	316
10.386	15.326	12384	15311	0	316
6.599	11.071	12090	14941	0	316
0.505	4.940	11679	14430	0	316
-1.695	1.983	11296	13832	0	316
-2.164	4.436	10855	13348	0	316
2.056	10.169	10473	13039	0	316
5.049	16.048	10061	12855	0	316
7.285	19.257	9679	12626	0	316
9.520	21.457	9179	12335	0	316
10.674	21.962	8737	12150	0	316
13.559	24.811	8384	12203	0	316
14.858	23.657	8149	12458	0	316
15.326	25.171	7943	12767	0	316
17.310	24.919	7679	13048	0	316
19.329	26.145	7561	13392	0	316
22.755	26.361	7414	13867	0	316
23.909	23.260	7355	14421	0	316
21.818	20.375	7355	14976	0	316
18.644	16.012	7326	15443	0	316
15.867	17.598	7326	15856	0	316
18.283	20.123	7473	16340	0	316
19.437	23.260	7561	16956	0	316
21.457	22.250	7767	17634	0	316
19.618	19.834	7943	18179	0	316
16.552	16.949	8120	18558	0	316
16.048	14.858	8296	18857	0	316
18.644	15.507	8532	19200	0	316
25.460	19.546	8737	19535	0	316
32.780	25.207	8973	19737	0	316
38.298	28.633	9120	19781	0	316
39.957	31.482	9267	19711	0	316
37.793	29.859	9296	19614	0	316
36.783	28.020	9473	19526	0	316
35.593	27.443	9590	19420	0	316
37.036	30.364	9620	19244	0	316
40.462	34.259	9679	18972	0	316
40.606	36.387	9532	18487	0	316
37.793	36.242	9384	17827	0	316
32.853	32.744	9149	17220	0	316
27.479	29.427	8884	16656	0	316
24.811	26.902	8384	15812	0	316
24.017	24.739	7708	14624	0	316
22.106	20.736	7120	13541	0	316
16.625	15.110	6649	12916	0	316
7.212	8.042	6326	12705	0	316
-0.433	2.488	6032	12749	0	316
-3.823	-0.505	5796	12837	0	316
-2.019	-0.974	5561	12943	0	316
-3.606	-2.885	5473	13242	0	316
-5.085	-5.914	5443	13726	0	316
-7.645	-8.294	5443	14184	0	316
-9.340	-7.789	5355	14554	0	316
-8.042	-5.554	5355	14967	0	316
-7.176	-6.383	5561	15522	0	316
-8.475	-11.143	5767	16208	0	316
-13.379	-16.697	6061	17000	0	316
-16.949	-20.952	6384	17792	0	316
-17.238	-21.998	6767	18435	0	316
-19.221	-20.411	7061	18936	0	316
-20.087	-17.706	7414	19403	0	316
-17.238	-16.444	7826	19878	0	316
-13.776	-14.425	8237	20310	0	316
-12.405	-13.776	8649	20662	0	316
-13.523	-15.002	9032	20926	0	316
-17.634	-15.939	9414	21111	0	316
-19.113	-16.300	9884	21234	0	316
-18.175	-12.441	10267	21331	0	316
-14.136	-11.973	10708	21357	0	316
-14.785	-15.759	10943	21243	0	316
-19.365	-20.916	11179	20926	0	316
-25.568	-26.001	11326	20424	0	316
-25.532	-25.532	11620	20028	0	316
-20.844	-23.368	11943	19949	1	364
-19.870	-19.690	12237	19922	0	364
-19.365	-22.647	12355	19544	0	364
-25.640	-23.981	12414	18884	0	364
-31.482	-25.424	12561	18364	0	364
-31.518	-26.794	12796	18170	0	364
-30.112	-25.352	13149	18214	0	364
-26.758	-24.991	13443	18303	0	364
-24.955	-23.476	13796	18276	0	364
-19.870	-19.293	13973	18100	0	364
-15.218	-14.281	14179	17845	0	364
-11.540	-9.845	14326	17598	0	364
-8.799	-9.484	14561	17405	0	364
-11.576	-12.838	14708	17246	0	364
-15.398	-14.894	14914	17079	0	364
-18.139	-17.238	15120	16947	0	364
-18.536	-17.021	15355	16947	0	364
-21.854	-20.519	15737	17123	0	364
-24.306	-24.270	16061	17343	0	364
-26.506	-28.309	16384	17457	0	364
-26.073	-28.056	16678	17466	0	364
-26.938	-23.909	17001	17501	0	364
-26.073	-20.952	17354	17598	0	364
-30.725	-23.981	17619	17704	0	364
-35.269	-29.751	18001	17704	0	364
-36.531	-34.259	18207	17581	0	364
-32.744	-31.771	18354	17378	0	364
-24.702	-24.414	18531	17114	0	364
-19.185	-16.913	18619	16841	0	364
-17.057	-14.317	18736	16595	0	364
-21.854	-17.670	18884	16376	0	364
-26.974	-20.159	18913	16120	0	364
-27.587	-18.788	18913	15804	0	364
-22.683	-12.766	18795	15355	0	364
-15.723	-6.131	18619	14809	0	364
-11.648	-2.813	18501	14307	0	364
-12.946	-4.904	18325	13929	0	364
-18.969	-10.494	18060	13585	0	364
-22.539	-13.523	17854	13180	0	364
-23.224	-14.461	17560	12828	0	364
-19.437	-9.989	17413	12643	0	364
-15.146	-7.573	17266	12652	0	364
-14.136	-6.058	17148	12784	0	364
-18.788	-10.350	17060	12934	0	364
-24.811	-14.785	17001	13110	0	364
-29.643	-19.906	16913	13374	0	364
-30.112	-18.500	16972	13700	0	364
-26.866	-16.949	16972	14025	0	364
-23.909	-14.353	16913	14298	0	364
-22.972	-17.093	16913	14501	0	364
-27.407	-18.392	16884	14668	0	364
-30.184	-22.647	16736	14765	0	364
-31.662	-19.473	16678	14791	0	364
-29.715	-15.435	16589	14897	0	364
-24.234	-7.321	16589	15187	0	364
-18.933	-2.452	16707	15539	0	364
-14.425	-0.649	16589	15680	0	364
-16.733	-2.633	16384	15469	0	364
-19.113	-7.212	16090	15064	0	364
-24.702	-11.179	15884	14782	0	364
-27.840	-13.631	15590	14668	0	364
-29.499	-16.336	15414	14642	0	364
-26.614	-15.831	15267	14721	0	364
-24.883	-14.461	15179	14879	0	364
-24.702	-13.704	15120	15090	0	364
-25.316	-11.179	15002	15267	0	364
-29.463	-11.756	14855	15302	0	364
-31.518	-12.982	14620	15205	0	364
-31.626	-12.586	14473	15205	0	364
-29.823	-15.218	14473	15416	0	364
-29.679	-16.408	14443	15751	0	364
-35.052	-22.683	14443	16024	0	364
-37.973	-27.768	14326	16156	0	364
-44.825	-32.889	14326	16288	0	364
-46.845	-34.295	14384	16524	0	364
-44.392	-35.088	14473	16868	0	364
-40.209	-33.141	14532	17149	0	364
-33.790	-28.345	14590	17317	0	364
-26.758	-22.899	14708	17519	0	364
-21.673	-16.805	14855	17801	0	364
-22.647	-16.589	15032	18074	0	364
-24.739	-17.274	15149	18276	0	364
-25.929	-19.329	15267	18391	0	364
-24.125	-14.713	15355	18391	0	364
-19.726	-9.773	15414	18311	0	364
-16.516	-6.419	15355	18153	0	364
-18.031	-8.186	15355	17915	0	364
-20.519	-12.802	15208	17510	0	364
-24.883	-16.228	14826	16797	0	364
-24.053	-12.946	14326	15804	0	364
-23.585	-12.045	13943	14950	0	364
-25.207	-11.323	13590	14501	0	364
-29.643	-12.225	13267	14325	0	364
-30.364	-15.759	13149	14281	0	364
-32.131	-14.821	12973	14333	0	364
-29.859	-13.415	12826	14413	0	364
-29.715	-15.362	12708	14509	0	364
-29.102	-17.129	12649	14712	0	364
-29.968	-21.204	12649	15020	0	364
-30.617	-23.116	12561	15328	0	364
-29.318	-23.693	12532	15478	0	364
-29.643	-25.279	12473	15513	0	364
-30.256	-24.306	12384	15619	0	364
-28.164	-22.286	12384	15856	0	364
-22.395	-17.743	12473	16182	0	364
-15.110	-10.494	12473	16463	0	364
-12.730	-6.167	12473	16586	0	364
-11.540	-4.977	12502	16665	0	364
-12.586	-6.419	12502	16815	0	364
-16.733	-8.583	12473	16885	0	364
-16.697	-8.258	12355	16736	0	364
-19.329	-7.465	12208	16480	0	364
-17.706	-6.996	12120	16367	0	364
-18.247	-6.816	12090	16428	0	364
-15.254	-8.763	12179	16648	0	364
-14.461	-9.556	12237	16903	0	364
-13.704	-12.405	12267	17079	0	364
-16.552	-15.110	12355	17185	0	364
-20.808	-16.769	12384	17264	0	364
-24.306	-20.447	12502	17405	0	364
-25.496	-20.519	12649	17651	0	364
-23.621	-17.454	12767	17862	0	364
-20.808	-15.398	12943	17968	0	364
-14.713	-12.117	13090	18065	0	364
-13.704	-8.619	13267	18241	0	364
-14.353	-6.527	13502	18435	0	364
-14.064	-6.058	13649	18549	0	364
-15.290	-6.924	13855	18584	0	364
-13.559	-8.078	14002	18575	0	364
-14.028	-10.999	14090	18452	0	364
-14.208	-12.333	14090	18170	0	364
-13.523	-12.766	14179	17906	0	364
-14.425	-10.674	14267	17774	0	364
-13.271	-12.802	14267	17634	0	364
-15.615	-12.441	14237	17334	0	364
-14.028	-11.468	14120	16920	0	364
-14.389	-9.737	14120	16630	0	364
-10.133	-5.950	14090	16498	0	364
-8.006	-0.541	14149	16436	0	364
-5.554	1.226	14149	16410	0	364
-8.655	0.793	14267	16436	0	364
-7.825	-0.721	14384	16533	0	364
-9.052	-3.787	14590	16736	0	364
-9.304	-4.472	14826	17026	0	364
-10.891	-5.878	15002	17281	0	364
-11.900	-5.590	15208	17378	0	364
-11.396	-6.022	15355	17413	0	364
-9.665	-7.970	15590	17528	0	364
-8.475	-10.097	15884	17774	0	364
-8.619	-11.792	16179	18074	0	364
-9.881	-11.864	16472	18294	0	364
-9.953	-10.710	16736	18426	0	364
-9.665	-7.212	17031	18549	0	364
-7.537	-6.996	17413	18699	0	364
-8.078	-7.825	17648	18813	0	364
-6.744	-8.979	17913	18751	0	364
-6.022	-9.052	18060	18514	0	364
-3.931	-6.347	18148	18214	0	364
-3.750	-4.760	18325	17959	0	364
-5.265	-4.616	18442	17730	0	364
-7.934	-9.052	18531	17493	0	364
-10.674	-11.973	18589	17229	0	364
-12.189	-14.425	18589	16894	0	364
-10.530	-12.730	18384	16376	0	364
-8.222	-8.619	18236	15680	0	364
-5.193	-5.517	18031	15073	0	364
-1.154	-1.911	17913	14668	0	364
0.361	0.541	17707	14369	0	364
0.793	0.325	17413	13981	0	364
-0.829	-1.839	17119	13471	0	364
-3.282	-2.957	16766	12960	0	364
-6.491	-3.967	16413	12573	0	364
-10.494	-4.075	16090	12344	0	364
-11.756	-3.750	15796	12221	0	364
-13.091	-1.803	15590	12159	0	364
-11.756	-0.685	15296	12212	0	364
-7.825	1.839	15179	12467	0	364
-5.409	3.642	15120	12881	0	364
-5.085	2.993	15120	13348	0	364
-5.121	1.262	15032	13779	0	364
-8.366	0.577	15061	14228	0	364
-8.042	1.154	15208	14765	0	364
-8.691	1.767	15326	15381	0	364
-9.232	3.029	15502	15988	0	364
-10.746	2.416	15620	16436	0	364
-10.025	1.911	15767	16762	0	364
-10.963	3.498	15884	17053	0	364
-8.871	2.452	16032	17387	0	364
-6.347	5.085	16179	17730	0	364
-4.544	6.131	16296	17933	0	364
-3.210	9.376	16384	18003	0	364
0.144	12.261	16442	18021	0	364
2.849	16.589	16560	18065	0	364
3.750	15.903	16619	18091	0	364
4.219	16.264	16678	18003	0	364
4.364	14.533	16619	17766	0	364
3.606	11.864	16531	17457	0	364
3.678	12.261	16413	17149	0	364
3.642	11.576	16384	16912	0	364
3.462	12.117	16384	16753	0	364
3.101	13.199	16326	16656	0	364
2.308	13.884	16237	16551	0	364
6.852	14.533	16090	16296	0	364
12.081	18.897	15884	15900	0	364
16.300	18.897	15708	15583	0	364
19.798	18.933	15620	15434	0	364
16.516	18.572	15561	15443	0	364
12.153	16.516	15502	15522	0	364
6.996	13.271	15414	15548	0	364
3.967	14.677	15355	15566	0	364
5.986	11.540	15355	15663	0	364
8.150	12.622	15355	15812	0	364
13.163	15.254	15414	15936	0	364
15.471	17.129	15296	15980	0	364
18.392	20.736	15326	16024	0	364
17.995	20.808	15355	16208	0	364
15.579	16.985	15620	16568	0	364
13.668	13.704	15737	17000	0	364
9.845	9.773	15914	17273	0	364
7.501	10.314	16002	17387	0	364
4.904	11.684	16090	17475	0	364
3.282	12.946	16237	17598	0	364
1.479	11.504	16384	17757	0	364
1.010	8.186	16472	17827	0	364
0.000	5.878	16560	17774	0	364
-1.983	2.669	16619	17686	0	364
-3.895	-1.298	16619	17537	0	364
-5.049	-3.246	16560	17273	0	364
-1.190	-4.688	16442	16912	1	912
10.602	-0.288	16355	16533	0	912
20.700	8.475	16208	16208	0	912
28.056	13.992	16061	15909	0	912
22.503	11.287	15796	15557	0	912
12.153	0.361	15561	15143	0	912
1.010	-13.559	15355	14791	0	912
-3.534	-22.467	15032	14509	0	912
0.252	-19.906	14737	14166	0	912
7.898	-6.635	14414	13770	0	912
16.949	8.042	14002	13418	0	912
21.926	17.346	13708	13207	0	912
24.739	16.697	13443	13171	0	912
22.972	7.970	13149	13207	0	912
19.798	-0.036	12855	13224	0	912
18.392	-2.741	12679	13277	0	912
16.805	0.072	12473	13427	0	912
19.401	5.662	12267	13664	0	912
20.231	9.340	12120	13920	0	912
23.657	10.710	12032	14201	0	912
23.404	8.619	11914	14527	0	912
24.702	5.481	11796	14844	0	912
26.470	4.508	11796	15108	0	912
27.624	4.760	11679	15372	0	912
26.830	7.753	11649	15680	0	912
26.037	11.432	11620	15997	0	912
26.181	12.946	11649	16305	0	912
25.640	14.425	11737	16665	0	912
24.955	11.828	11826	17114	0	912
24.558	9.845	11943	17528	0	912
20.808	8.258	11943	17678	0	912
16.012	9.484	11826	17519	0	912
16.012	11.864	11796	17352	0	912
17.346	16.985	11737	17352	0	912
20.844	20.916	11679	17396	0	912
20.952	20.231	11737	17422	0	912
17.129	15.146	11679	17422	0	912
9.520	7.068	11532	17273	0	912
2.849	2.272	11355	16956	0	912
1.803	1.442	11296	16718	0	912
7.501	7.862	11208	16700	0	912
16.300	15.651	11208	16806	0	912
21.096	23.801	11149	16859	0	912
17.021	19.257	11179	16815	0	912
8.330	11.215	11149	16824	0	912
-2.452	0.144	11208	17000	0	912
-6.816	-7.645	11355	17299	0	912
-1.875	-5.626	11532	17607	0	912
8.150	3.750	11767	17871	0	912
19.870	14.677	11914	18109	0	912
24.739	19.041	12032	18259	0	912
21.385	17.202	12120	18241	0	912
14.425	8.475	12208	18170	0	912
6.131	-0.685	12326	18153	0	912
3.678	-3.714	12502	18214	0	912
8.871	1.875	12708	18373	0	912
18.428	12.586	12973	18628	0	912
26.109	24.955	13355	18892	0	912
30.472	27.768	13649	19104	0	912
28.814	22.034	13855	19200	0	912
24.775	14.172	14002	19042	0	912
21.277	8.294	14032	18663	0	912
23.008	9.629	14179	18364	0	912
23.981	16.300	14326	18232	0	912
24.811	19.401	14473	18197	0	912
24.739	20.267	14708	18223	0	912
20.339	16.336	15032	18294	0	912
16.985	11.360	15208	18355	0	912
10.097	5.049	15443	18347	0	912
6.094	-1.803	15649	18276	0	912
3.137	-5.013	15855	18135	0	912
5.301	-2.813	15855	17810	0	912
8.943	-0.180	15855	17334	0	912
10.025	-1.046	15855	16929	0	912
8.114	-2.993	15914	16692	0	912
5.049	-8.655	15943	16533	0	912
5.590	-9.232	15914	16305	0	912
9.773	-3.354	15884	15962	0	912
14.858	4.544	15914	15733	0	912
18.860	10.350	16061	15777	1	316
16.877	11.287	16179	15944	0	316
12.261	7.393	16237	16024	0	316
5.409	2.416	16296	15944	0	316
-0.288	-2.741	16237	15751	0	316
-1.118	-3.931	16237	15575	0	316
2.596	-2.524	16237	15478	0	316
5.662	-0.108	16237	15451	0	316
7.393	2.128	16237	15381	0	316
6.924	1.947	16208	15258	0	316
5.337	4.977	16179	15187	0	316
6.852	7.393	16208	15249	0	316
8.222	6.635	16237	15381	0	316
11.828	6.744	16237	15451	0	316
12.550	4.003	16237	15443	0	316
12.297	2.092	16237	15434	0	316
8.294	-0.577	16296	15513	0	316
1.551	-4.219	16326	15645	0	316
-6.744	-10.422	16355	15742	0	316
-10.855	-14.605	16355	15821	0	316
-7.032	-14.100	16384	15892	0	316
3.246	-5.734	16413	15936	0	316
12.081	1.334	16384	15936	0	316
14.353	3.895	16384	15900	0	316
6.058	-1.190	16355	15892	0	316
-6.383	-12.802	16355	15900	0	316
-15.074	-21.745	16355	15927	0	316
-11.756	-18.897	16326	15918	0	316
0.288	-8.727	16237	15830	0	316
15.723	6.924	16179	15707	0	316
23.044	13.595	16149	15636	0	316
16.697	8.150	16002	15539	0	316
1.515	-5.590	15884	15372	0	316
-10.927	-17.779	15737	15240	0	316
-12.225	-18.139	15620	15240	0	316
0.613	-6.239	15590	15293	0	316
15.795	5.373	15443	15284	0	316
25.316	10.638	15355	15223	0	316
18.897	5.554	15267	15205	0	316
9.124	-6.275	15208	15302	0	316
-1.226	-13.523	15179	15469	0	316
-5.337	-16.048	15179	15636	0	316
-2.272	-10.422	15061	15733	0	316
3.354	-4.003	15061	15804	0	316
8.258	3.173	15120	15927	0	316
14.425	6.960	15149	16173	0	316
17.706	8.655	15208	16454	0	316
13.343	3.823	15296	16674	0	316
5.626	-1.947	15326	16797	0	316
-1.803	-7.068	15414	16929	0	316
-6.816	-6.455	15473	17079	0	316
-1.298	-1.587	15502	17185	0	316
5.229	6.022	15590	17202	0	316
10.855	9.232	15590	17167	0	316
9.484	5.085	15620	17167	0	316
2.344	-2.380	15649	17202	0	316
-3.606	-10.422	15649	17193	0	316
-5.409	-10.963	15737	17105	0	316
-0.541	-9.448	15649	16973	0	316
4.255	-2.560	15590	16841	0	316
5.121	-1.515	15473	16586	0	316
1.515	-4.688	15267	16208	0	316
-4.039	-8.186	15149	15856	0	316
-5.229	-9.592	14914	15645	0	316
-1.695	-7.609	14767	15504	0	316
2.596	-4.183	14590	15293	0	316
4.508	-3.101	14326	14958	0	316
4.183	-5.698	14120	14686	0	316
2.452	-7.862	13943	14606	0	316
1.947	-7.862	13855	14686	0	316
2.488	-4.183	13708	14809	0	316
1.623	-1.442	13561	14897	0	316
0.000	-0.252	13561	15002	0	316
-0.144	-1.839	13532	15205	0	316
-2.669	-2.380	13502	15522	0	316
-1.767	-1.659	13590	15821	0	316
-1.370	0.216	13561	16032	0	316
-0.865	1.983	13561	16173	0	316
0.216	4.111	13649	16358	0	316
3.642	4.616	13737	16656	0	316
3.426	5.590	13826	17035	0	316
2.236	3.462	14032	17343	0	316
-0.938	-1.442	14149	17545	0	316
-6.058	-6.816	14237	17713	0	316
-7.429	-8.042	14326	17801	0	316
-5.013	-5.590	14384	17792	0	316
-0.721	-0.325	14443	17792	0	316
3.642	4.183	14590	17854	0	316
4.327	4.111	14620	17871	0	316
3.173	-0.144	14737	17818	0	316
0.144	-3.570	14679	17695	0	316
-0.938	-5.409	14708	17510	0	316
-0.288	-4.580	14620	17281	0	316
1.226	-1.623	14561	17009	0	316
2.200	1.226	14443	16656	0	316
0.541	0.577	14237	16261	0	316
-0.433	-1.695	14090	15865	0	316
1.226	-2.633	13943	15610	0	316
2.993	0.036	13737	15478	0	316
8.114	5.806	13590	15337	0	316
12.658	10.602	13502	15143	0	316
12.658	16.228	13296	15029	0	316
13.668	15.110	13267	15082	0	316
13.054	11.612	13267	15249	0	316
8.258	7.393	13208	15416	0	316
4.508	3.462	13149	15504	0	316
0.144	-0.433	13120	15575	0	316
-1.911	-1.190	13208	15742	0	316
-1.082	-0.505	13296	16041	0	316
0.974	0.505	13384	16401	0	316
2.560	1.046	13561	16727	0	316
0.613	1.875	13590	16894	0	316
1.442	4.436	13414	16753	0	316
6.094	6.167	13384	16445	0	316
9.196	6.311	13355	16358	0	316
11.540	5.806	13384	16445	0	316
9.845	3.931	13355	16560	0	316
8.691	5.517	13443	16727	0	316
8.294	9.340	13649	16982	0	316
11.360	12.730	13796	17290	0	316
14.100	12.622	13973	17581	0	316
17.670	13.848	14032	17686	0	316
15.290	11.287	14090	17519	0	316
15.074	12.658	13973	17193	0	316
13.271	16.012	13855	16894	0	316
16.048	18.644	13855	16727	0	316
20.555	24.522	13855	16718	0	316
26.542	27.768	13943	16753	0	316
25.171	24.450	13884	16692	0	316
16.480	14.641	13855	16577	0	316
7.212	2.777	13943	16551	0	316
4.832	2.236	13973	16692	0	316
11.143	8.366	14237	16929	0	316
17.923	17.670	14296	17132	0	316
20.700	22.539	14414	17176	0	316
14.281	17.382	14473	17185	0	316
10.386	12.153	14620	17299	0	316
9.556	11.360	14826	17493	0	316
13.812	14.461	14973	17651	0	316
19.510	20.159	15149	17686	0	316
19.978	20.555	15267	17686	0	316
20.014	20.591	15473	17792	0	316
15.398	16.877	15708	17977	0	316
11.396	14.785	15914	18135	0	316
5.229	10.061	16179	18197	0	316
0.252	7.753	16326	18197	0	316
-0.793	7.537	16531	18223	0	316
-0.613	6.852	16736	18294	0	316
3.426	7.537	17031	18391	0	316
7.501	7.465	17207	18417	0	316
12.225	4.580	17442	18347	0	316
11.071	5.193	17648	18276	0	316
7.357	2.633	17884	18294	0	316
0.793	-1.190	18148	18329	0	316
-5.878	-5.409	18295	18250	1	616
-9.773	-7.248	18442	18003	0	616
-10.819	-9.268	18384	17634	0	616
-9.520	-8.439	18325	17070	0	616
-8.979	-5.049	18148	16367	0	616
-5.517	-3.282	18001	15733	0	616
-0.974	1.118	17795	15258	0	616
2.019	4.364	17589	14879	0	616
0.036	3.462	17442	14465	0	616
-6.203	-3.931	17148	14025	0	616
-14.641	-12.117	16972	13700	0	616
-22.791	-20.411	16825	13541	0	616
-22.899	-19.798	16678	13550	0	616
-17.887	-13.704	16589	13673	0	616
-7.248	-3.534	16531	13796	0	616
1.551	4.616	16413	13876	0	616
1.515	3.895	16384	13990	0	616
-1.695	-2.885	16326	14175	0	616
-13.704	-14.353	16296	14342	0	616
-21.168	-22.286	16179	14439	0	616
-23.512	-25.063	16090	14518	0	616
-21.709	-25.820	16032	14650	0	616
-23.188	-25.893	15943	14791	0	616
-26.722	-30.725	15943	14958	0	616
-35.954	-38.154	15914	15170	0	616
-46.664	-43.058	15914	15416	0	616
-46.772	-43.383	15943	15698	0	616
-39.488	-36.964	16149	16085	0	616
-27.443	-28.561	16296	16533	0	616
-18.608	-21.277	16413	16894	0	616
-16.120	-18.500	16472	17105	0	616
-23.008	-23.260	16589	17246	0	616
-30.364	-27.696	16707	17369	0	616
-30.869	-26.686	16736	17484	0	616
-23.512	-21.529	16825	17501	0	616
-15.398	-12.441	16825	17440	0	616
-6.996	-8.258	16766	17273	0	616
-5.445	-7.393	16589	16920	0	616
-2.993	-7.032	16384	16410	0	616
-0.577	-5.229	16179	15953	0	616
4.832	-0.180	15943	15636	0	616
6.527	0.108	15649	15328	0	616
3.678	-2.560	15326	14932	0	616
-6.419	-12.802	15061	14527	0	616
-17.887	-20.519	14767	14272	0	616
-25.424	-25.929	14620	14245	0	616
-28.741	-25.965	14473	14404	0	616
-25.893	-22.611	14414	14633	0	616
-19.401	-20.303	14384	14818	0	616
-17.021	-17.129	14296	15020	0	616
-15.651	-19.906	14296	15275	0	616
-20.483	-20.591	14267	15539	0	616
-24.270	-21.529	14296	15777	0	616
-25.640	-20.700	14237	15980	0	616
-27.155	-18.211	14296	16200	0	616
-26.433	-20.087	14384	16498	0	616
-27.119	-21.637	14590	16956	0	616
-27.335	-23.765	14767	17475	0	616
-25.099	-21.060	15002	17871	0	616
-17.634	-13.415	15149	18135	0	616
-10.386	-3.570	15414	18364	0	616
-4.291	1.623	15620	18637	0	616
-4.147	0.108	15855	18875	0	616
-5.698	-4.868	16061	18954	0	616
-7.068	-7.176	16149	18910	0	616
-2.019	-3.678	16296	18857	0	616
4.760	2.957	16442	18831	0	616
8.042	5.373	16589	18795	0	616
3.642	2.885	16678	18690	0	616
-6.924	-6.239	16766	18496	0	616
-20.555	-16.192	16854	18250	0	616
-27.515	-21.096	16854	17977	0	616
-29.174	-24.342	16884	17730	0	616
-24.125	-18.716	17060	17669	0	616
-12.009	-6.599	17207	17757	0	616
-0.252	7.573	17207	17678	0	616
6.888	15.723	17295	17369	0	616
6.311	15.615	17207	17017	0	616
-1.010	5.698	17178	16674	0	616
-6.058	-4.580	17148	16367	1	316
-8.691	-7.429	17060	16156	0	316
-7.934	-5.157	17001	15980	0	316
-6.275	-2.452	16913	15689	0	316
-6.816	0.072	16707	15328	0	316
-7.681	-0.433	16560	14976	0	316
-6.419	-0.397	16384	14694	0	316
-6.167	-0.505	16179	14439	0	316
-6.852	-3.210	15914	14166	0	316
-9.484	-6.491	15708	13946	0	316
-9.268	-7.789	15590	13849	0	316
-7.104	-5.337	15414	13902	0	316
-4.147	-1.370	15296	14025	0	316
-4.904	-2.236	15120	14069	0	316
-7.970	-7.789	15002	14034	0	316
-15.795	-18.464	14826	14061	0	316
-21.385	-24.486	14767	14237	0	316
-27.191	-27.515	14708	14509	0	316
-26.614	-25.604	14620	14765	0	316
-25.207	-22.899	14473	14818	0	316
-23.368	-21.890	14237	14659	0	316
-22.503	-22.214	14090	14545	0	316
-21.132	-20.375	13855	14624	0	316
-20.627	-18.897	13796	14782	0	316
-14.533	-12.982	13708	14994	0	316
-9.268	-10.386	13649	15267	0	316
-5.914	-8.907	13708	15583	0	316
-5.229	-9.340	13708	15927	0	316
-7.140	-9.989	13737	16279	0	316
-7.970	-7.212	13943	16639	0	316
-6.239	-1.479	14032	17044	0	316
-4.508	0.793	14090	17352	0	316
-7.032	-3.282	14179	17510	0	316
-11.035	-12.514	14237	17625	0	316
-19.582	-21.204	14414	17818	0	316
-21.890	-23.044	14590	18109	0	316
-19.654	-17.743	14767	18417	0	316
-10.350	-7.465	15002	18593	0	316
-2.488	0.288	15120	18699	0	316
1.082	1.046	15326	18822	0	316
-2.633	-4.616	15561	18980	0	316
-11.828	-14.677	15796	19095	0	316
-16.769	-17.274	15943	19121	0	316
-16.769	-13.992	16090	19060	0	316
-9.196	-7.068	16326	19007	0	316
-1.947	-0.757	16531	19024	0	316
1.479	-0.577	16736	19077	0	316
0.325	-6.383	16972	19068	0	316
-5.698	-10.386	17119	18989	0	316
-12.477	-13.884	17295	18804	0	316
-18.428	-15.182	17354	18505	0	316
-19.005	-15.975	17413	18109	0	316
-20.627	-17.959	17325	17686	0	316
-14.064	-14.100	17442	17396	0	316
-6.311	-8.114	17442	17176	0	316
4.291	0.433	17442	16876	0	316
8.979	6.275	17325	16533	0	316
6.347	4.039	17325	16208	0	316
-4.508	-6.563	17295	15944	0	316
-17.887	-20.123	17207	15689	0	316
-23.476	-25.893	17031	15337	0	316
-19.113	-22.503	16825	14879	0	316
-6.527	-13.631	16589	14518	0	316
4.977	-4.219	16531	14377	0	316
11.251	-2.272	16442	14395	0	316
7.789	-6.455	16355	14369	0	316
2.524	-10.783	16179	14237	0	316
-3.498	-15.182	16090	14149	0	316
-6.022	-15.326	16032	14245	0	316
-6.347	-13.884	16002	14474	0	316
-2.416	-7.825	16002	14703	0	316
0.325	-3.354	16002	14853	0	316
3.210	0.216	15943	14985	0	316
3.787	-0.397	15943	15187	0	316
2.164	-2.596	16032	15478	0	316
1.370	-4.616	16090	15786	0	316
1.983	-2.596	16208	16032	0	316
2.777	-1.839	16208	16191	0	316
3.859	3.101	16149	16156	0	316
3.210	4.291	16002	15918	1	316
2.885	7.248	15855	15698	0	316
7.285	9.556	15796	15715	0	316
12.694	11.864	15796	15892	0	316
15.543	14.028	15855	16085	0	316
16.552	15.867	15884	16279	0	316
11.792	12.586	16002	16524	0	316
6.455	10.963	16090	16780	0	316
5.698	11.179	16208	16956	0	316
15.543	14.353	16296	17070	0	316
26.542	23.837	16326	17132	0	316
37.901	33.069	16355	17141	0	316
41.688	35.629	16384	17141	0	316
36.603	33.862	16413	17123	0	316
28.741	29.931	16384	17044	0	316
25.460	28.417	16326	16797	0	316
26.974	28.237	16149	16463	0	316
28.994	30.941	16061	16235	0	316
30.004	31.951	16002	16182	0	316
27.047	32.384	15943	16208	0	316
27.407	33.826	15914	16147	0	316
31.807	39.885	15796	15980	0	316
39.921	45.330	15737	15883	0	316
45.222	48.467	15649	15892	0	316
49.044	49.225	15620	15821	0	316
49.008	49.693	15355	15583	0	316
47.710	47.494	15208	15302	0	316
43.058	45.474	15032	15134	0	316
36.891	39.957	14973	15108	0	316
28.309	33.466	14855	15179	0	316
23.044	30.653	14767	15267	0	316
25.784	35.810	14590	15231	0	316
35.629	43.058	14473	15179	0	316
42.697	48.648	14473	15293	0	316
41.688	44.537	14532	15619	0	316
34.223	36.783	14679	16050	0	316
23.476	29.066	14708	16410	0	316
17.526	25.388	14884	16736	0	316
18.392	26.397	15032	17088	0	316
24.450	27.984	15296	17519	0	316
30.328	25.893	15502	17950	0	316
30.292	24.017	15767	18232	0	316
29.823	23.981	15943	18373	0	316
33.429	30.653	16061	18435	0	316
37.685	40.678	16149	18382	0	316
44.212	50.126	16149	18197	0	316
43.310	48.179	16208	17959	0	316
35.016	39.776	16208	17748	0	316
23.260	28.633	16149	17493	0	316
15.110	21.493	15943	17053	0	316
15.795	23.729	15737	16498	0	316
20.123	29.463	15561	16050	0	316
24.162	28.525	15443	15733	0	316
19.834	22.322	15179	15469	0	316
17.815	15.867	14973	15143	0	316
15.254	11.504	14708	14756	0	316
17.490	14.858	14443	14465	0	316
20.808	19.437	14326	14395	0	316
26.217	25.099	14179	14474	0	316
29.282	25.424	14149	14598	0	316
29.391	23.440	14002	14721	0	316
24.017	17.887	13973	14844	0	316
16.480	9.665	13884	14967	0	316
5.986	4.219	13943	15187	0	316
4.796	4.652	13973	15495	0	316
13.091	12.369	13943	15751	0	316
23.801	21.096	14002	15953	0	316
35.665	28.453	14032	16200	0	316
40.101	29.318	14267	16560	0	316
39.957	29.318	14384	16973	0	316
39.921	30.617	14561	17290	0	316
37.685	33.141	14590	17484	0	316
32.708	30.292	14767	17616	0	316
24.053	23.368	14884	17757	0	316
16.985	15.831	14973	17845	0	316
11.648	10.133	15061	17801	0	316
14.966	9.917	15032	17678	0	316
19.942	14.281	15002	17501	0	316
25.027	15.939	14884	17202	0	316
23.585	13.740	14826	16868	0	316
21.673	12.225	14855	16797	0	316
21.637	10.891	14914	16894	0	316
24.053	14.136	14826	16806	0	316
28.886	18.752	14767	16568	0	316
27.155	19.185	14737	16454	0	316
18.356	13.487	14855	16577	0	316
4.400	4.039	15061	16885	0	316
-5.481	-4.075	15208	17211	0	316
-7.429	-3.318	15355	17369	0	316
-0.829	3.101	15414	17343	0	316
9.881	11.071	15502	17229	0	316
18.356	18.752	15502	17149	0	316
23.332	19.618	15561	17114	0	316
22.250	19.942	15620	17097	0	316
21.168	17.851	15620	17017	0	316
19.149	19.798	15708	16894	0	316
19.365	20.627	15708	16815	0	316
22.431	23.873	15796	16868	0	316
23.657	25.784	15943	16991	0	316
23.945	22.070	16032	17061	0	316
21.890	16.589	16090	17044	0	316
17.382	8.943	16179	17017	0	316
16.048	7.032	16296	17044	0	316
14.605	6.635	16384	17079	0	316
16.264	10.674	16442	17053	0	316
18.824	15.543	16531	16982	0	316
23.693	16.913	16619	16964	0	316
23.296	14.064	16766	17044	0	316
21.024	9.196	16972	17220	0	316
13.235	2.885	17207	17457	0	316
5.986	-3.606	17413	17686	0	316
-0.180	-5.662	17619	17783	0	316
-3.101	-7.104	17736	17713	0	316
-6.852	-10.927	17766	17528	0	316
-9.629	-13.740	17854	17281	0	316
-14.497	-15.543	17736	16920	0	316
-14.641	-16.733	17560	16436	0	316
-14.677	-13.992	17354	15856	0	316
-11.648	-12.153	17031	15214	0	316
-5.373	-11.540	16825	14694	0	316
-1.587	-9.809	16589	14377	0	316
3.498	-6.888	16442	14228	0	316
2.885	-5.409	16296	14140	0	316
-4.977	-10.638	16090	14017	0	316
-17.887	-18.860	15914	13902	0	316
-25.640	-29.427	15737	13858	0	316
-27.191	-33.321	15590	13893	0	316
-20.880	-26.001	15502	13964	0	316
-10.494	-16.120	15296	14008	0	316
-7.862	-13.235	15179	14087	0	316
-15.074	-19.870	15179	14289	0	316
-28.273	-33.213	15208	14703	0	316
-38.839	-46.268	15296	15249	0	316
-43.022	-49.441	15414	15715	0	316
-41.147	-44.825	15473	16006	0	316
-34.980	-37.432	15561	16235	0	316
-30.761	-32.131	15649	16533	0	316
-29.282	-30.436	15796	16876	0	316
-29.715	-28.741	15884	17097	0	316
-30.653	-28.020	15914	17193	0	316
-30.869	-27.768	16002	17290	0	316
-30.328	-26.181	16149	17440	0	316
-30.689	-25.856	16237	17589	0	316
-29.030	-26.145	16384	17757	0	316
-31.230	-27.804	16472	17898	0	316
-33.249	-28.381	16531	17854	0	316
-33.177	-29.643	16531	17669	0	316
-32.095	-28.633	16531	17484	0	316
-26.866	-26.397	16531	17343	0	316
-23.476	-22.863	16472	17220	0	316
-19.546	-20.844	16442	17070	0	316
-21.060	-17.706	16326	16753	0	316
-21.493	-16.877	16149	16340	0	316
-22.178	-14.749	16032	15997	0	316
-22.358	-15.579	16002	15856	0	316
-20.195	-18.320	15884	15839	0	316
-21.637	-24.270	15767	15786	0	316
-28.489	-30.761	15649	15619	0	316
-34.439	-36.675	15590	15495	0	316
-39.091	-39.596	15561	15531	0	316
-37.108	-37.396	15590	15636	0	316
-30.653	-34.006	15443	15671	0	316
-26.037	-30.653	15326	15575	0	316
-29.535	-32.239	15179	15416	0	316
-35.413	-34.439	15120	15275	0	316
-40.678	-33.069	14855	15108	0	316
-38.118	-27.047	14620	14897	0	316
-31.085	-21.673	14326	14598	0	316
-24.739	-15.651	13855	14105	0	316
-22.935	-17.670	13384	13550	0	316
-20.519	-17.093	13090	13304	0	316
-16.733	-15.543	12855	13392	0	316
-8.943	-8.366	12679	13559	0	316
-4.003	-4.796	12502	13796	0	316
-6.852	-9.232	12384	14113	0	316
-16.372	-18.752	12326	14421	0	316
-23.657	-24.955	12237	14721	0	316
-25.929	-25.352	12208	15073	0	316
-22.755	-20.952	12237	15487	0	316
-16.372	-13.812	12208	15839	0	316
-15.687	-14.858	12120	16032	0	316
-18.752	-20.411	12090	16147	0	316
-19.942	-23.440	12090	16349	0	316
-16.444	-21.168	12120	16665	0	316
-9.340	-12.838	12208	16982	0	316
-4.544	-8.114	12179	17158	0	316
-7.573	-12.946	12120	17185	0	316
-21.493	-23.837	12179	17237	0	316
-33.646	-35.846	12237	17440	0	316
-37.180	-38.658	12384	17730	0	316
-28.922	-29.210	12502	17986	0	316
-19.510	-18.392	12620	18153	0	316
-15.182	-15.038	12796	18355	0	316
-22.178	-24.991	13061	18663	0	316
-29.931	-33.682	13296	18998	0	316
-29.607	-36.278	13561	19244	0	316
-18.247	-27.479	13708	19324	0	316
-6.599	-15.795	13884	19280	0	316
-2.669	-7.970	14120	19271	0	316
-9.160	-12.622	14414	19376	0	316
-16.408	-17.779	14708	19579	0	316
-22.467	-21.096	14884	19579	0	316
-19.221	-18.211	14826	19139	0	316
-16.480	-16.372	14737	18426	0	316
-14.858	-17.490	14737	17871	1	816
-18.969	-22.935	14679	17554	0	816
-18.969	-23.945	14679	17255	0	816
-16.985	-21.132	14590	16947	0	816
-11.468	-15.939	14590	16683	0	816
-9.124	-11.179	14590	16507	0	816
-11.432	-11.251	14620	16401	0	816
-13.595	-18.031	14679	16323	0	816
-16.408	-18.356	14590	16200	0	816
-12.694	-17.346	14561	16006	0	816
-7.573	-11.215	14414	15689	0	816
-5.554	-8.258	14267	15311	0	816
-8.943	-9.340	14120	15038	0	816
-11.792	-10.927	14032	14923	0	816
-11.720	-8.547	13943	14888	0	816
-6.635	-2.416	13826	14747	0	816
0.288	3.029	13590	14501	0	816
3.462	5.626	13443	14395	0	816
2.705	1.875	13502	14554	0	816
-0.144	-2.669	13532	14853	0	816
-2.633	-4.039	13443	15099	0	816
-3.029	-2.308	13502	15205	0	816
-3.354	-1.442	13414	15223	0	816
-2.633	0.757	13384	15267	0	816
0.613	2.308	13296	15372	0	816
4.472	6.131	13237	15451	0	816
5.986	7.717	13208	15451	0	816
3.029	4.652	13149	15478	0	816
-3.462	1.190	13120	15645	0	816
-4.940	-0.144	13267	15971	0	816
-1.262	2.416	13384	16349	0	816
5.842	5.554	13502	16630	0	816
7.104	5.662	13561	16841	0	816
0.541	-0.288	13708	17061	0	816
-6.744	-5.013	13884	17352	0	816
-6.599	-3.210	14120	17669	0	816
0.361	6.167	14267	17889	0	816
10.242	13.920	14414	18012	0	816
12.477	16.228	14561	18091	0	816
10.746	10.061	14708	18109	0	816
4.364	4.832	14767	18056	0	816
3.318	1.947	14855	17933	0	816
7.357	4.940	14855	17783	0	816
13.956	9.953	14884	17616	0	816
19.329	16.264	14973	17457	0	816
21.818	18.788	14973	17352	0	816
23.765	16.913	15149	17396	0	816
21.854	16.192	15326	17581	0	816
17.815	10.999	15473	17695	0	816
15.507	7.681	15561	17642	0	816
10.169	5.950	15620	17475	0	816
6.671	6.996	15649	17290	0	816
6.599	9.484	15737	17158	0	816
9.160	12.946	15796	17035	0	816
10.891	16.805	15767	16876	0	816
11.071	14.208	15737	16656	0	816
6.347	10.061	15767	16463	0	816
0.613	2.488	15796	16410	0	816
-0.469	-2.957	15884	16454	0	816
0.072	-4.147	15943	16454	0	816
5.878	-0.216	16032	16392	0	816
10.891	4.003	16032	16332	0	816
13.631	8.078	16090	16349	0	816
14.713	7.753	16208	16480	0	816
10.999	6.058	16355	16656	0	816
10.674	2.813	16442	16736	0	816
11.107	2.813	16560	16771	0	816
12.694	7.357	16707	16850	0	816
17.382	13.163	16884	16991	0	816
15.903	14.569	17001	17088	0	816
12.874	14.894	17119	17079	0	816
8.547	9.520	17148	16956	0	816
5.409	5.986	17178	16788	0	816
7.717	5.121	17148	16612	0	816
10.061	8.763	17207	16542	0	816
15.038	11.864	17501	16771	0	816
14.245	13.127	17736	17141	0	816
16.084	15.362	17795	17211	0	816
13.920	14.749	17766	16868	0	816
15.182	12.766	17619	16376	0	816
14.425	13.920	17560	15988	0	816
12.946	12.658	17442	15795	0	816
10.025	8.294	17442	15751	0	816
2.957	4.183	17472	15742	0	816
-6.094	-3.895	17413	15671	0	816
-8.835	-8.763	17325	15548	0	816
-11.215	-10.746	17295	15443	0	816
-6.744	-7.681	17295	15425	0	816
-4.364	-2.777	17207	15372	0	816
-3.137	-0.757	17031	15179	0	816
-5.265	-1.551	16854	14914	0	816
-7.393	-3.967	16766	14756	0	816
-8.439	-5.049	16678	14774	0	816
-5.914	-3.534	16589	14870	0	816
-7.573	-2.272	16472	14870	0	816
-11.143	-4.003	16384	14809	0	816
-15.254	-10.025	16296	14800	0	816
-18.860	-13.920	16237	14923	0	816
-14.858	-16.480	16237	15143	0	816
-10.422	-12.802	16208	15302	0	816
-4.652	-8.366	16149	15390	0	816
-4.616	-8.979	16149	15478	0	816
-10.061	-13.415	16090	15610	0	816
-16.769	-15.723	16179	15795	0	816
-20.447	-20.159	16179	16050	0	816
-23.008	-18.933	16208	16279	0	816
-24.883	-20.195	16208	16392	0	816
-27.515	-22.503	16208	16428	0	816
-28.525	-24.919	16179	16445	0	816
-27.335	-28.777	16149	16436	0	816
-24.486	-26.866	16149	16428	0	816
-22.755	-27.624	16032	16367	0	816
-30.472	-31.013	15796	16076	0	816
-38.803	-37.577	15502	15627	0	816
-43.347	-40.966	15326	15284	0	816
-37.757	-40.245	15120	15152	0	816
-26.145	-35.377	14973	15117	0	816
-19.221	-31.158	14737	15029	0	816
-21.601	-33.033	14473	14853	0	816
-31.699	-41.183	14326	14747	0	816
-40.353	-47.025	14149	14818	0	816
-35.377	-44.284	14120	15011	0	816
-21.781	-31.735	14002	15196	0	816
-11.792	-20.339	13943	15311	0	816
-10.674	-15.687	13826	15407	0	816
-18.644	-22.611	13826	15592	0	816
-29.679	-30.941	13855	15909	0	816
-30.220	-34.151	13855	16270	0	816
-22.683	-27.660	13973	16551	0	816
-11.756	-17.923	14002	16788	0	816
-6.960	-12.333	14120	16991	0	816
-9.989	-14.461	14149	17211	0	816
-16.012	-18.247	14296	17431	0	816
-19.473	-20.411	14326	17598	0	816
-17.815	-17.274	14443	17722	0	816
-14.100	-16.264	14532	17836	0	816
-13.668	-16.805	14590	17862	0	816
-16.264	-22.611	14590	17810	0	816
-21.890	-28.597	14679	17766	0	816
-24.053	-33.249	14679	17766	0	816
-22.827	-33.646	14708	17678	0	816
-21.457	-31.626	14561	17369	0	816
-16.661	-28.886	14384	16876	0	816
-15.579	-26.145	14237	16445	0	816
-10.783	-23.621	14090	16182	0	816
-6.744	-17.887	13855	15953	0	816
-0.649	-13.415	13590	15601	0	816
-0.433	-9.484	13296	15161	0	816
-4.039	-10.783	13061	14844	0	816
-9.881	-14.353	12943	14730	0	816
-9.989	-13.199	12796	14774	0	816
-5.554	-5.481	12679	14853	0	816
2.669	2.921	12532	14853	0	816
8.042	9.016	12384	14826	0	816
5.301	6.167	12208	14835	0	816
-2.560	-1.334	12090	14923	0	816
-5.554	-4.255	12032	15046	0	816
-5.085	-4.904	11914	15152	0	816
-2.272	-3.065	11796	15205	0	816
1.370	-1.659	11620	15187	0	816
5.590	1.190	11443	15143	0	816
11.828	6.058	11355	15179	0	816
15.362	11.576	11179	15249	0	816
17.021	11.179	11061	15328	0	816
11.251	7.032	11002	15513	0	816
6.383	2.596	11061	15804	0	816
7.645	3.714	11032	16103	0	816
15.254	9.124	11002	16279	0	816
20.700	10.891	10914	16314	0	816
24.198	10.061	10796	16296	0	816
22.286	7.573	10796	16367	0	816
22.899	10.963	10767	16507	0	816
28.886	16.480	10737	16630	0	816
32.023	22.899	10737	16727	0	816
33.177	19.546	10708	16797	0	816
25.856	14.569	10561	16727	0	816
21.818	8.619	10443	16542	0	816
22.106	8.439	10414	16428	0	816
28.705	13.704	10296	16419	0	816
39.957	20.267	10208	16392	0	816
51.965	27.119	9973	16226	0	816
54.382	28.994	9767	15927	0	816
49.549	22.827	9561	15680	0	816
37.108	13.559	9414	15619	0	816
24.414	3.642	9414	15777	0	816
21.998	2.128	9414	16041	0	816
29.643	7.140	9414	16305	0	816
42.842	15.867	9532	16560	0	816
50.487	18.247	9620	16841	0	816
45.943	13.704	9679	17114	0	816
32.312	2.741	9767	17281	0	816
20.339	-6.275	9737	17343	0	816
12.405	-11.071	9914	17449	0	816
17.634	-6.852	10061	17730	0	816
27.407	2.741	10296	18047	0	816
38.442	13.415	10414	18232	0	816
43.310	19.257	10590	18338	0	816
41.832	19.041	10767	18479	0	816
34.043	11.684	11032	18707	0	816
29.968	4.868	11384	19016	0	816
27.840	1.406	11737	19368	0	816
28.561	2.921	12061	19641	0	816
26.830	4.904	12414	19817	0	816
21.818	3.282	12767	19975	0	816
12.802	-0.325	13149	20134	0	816
10.963	-1.515	13502	20222	0	816
13.379	1.010	13855	20195	0	816
17.743	6.888	14090	20063	0	816
19.077	8.042	14296	19817	0	816
13.199	3.137	14384	19385	0	816
6.671	-5.157	14443	18795	1	840
1.839	-8.691	14443	18250	0	840
4.832	-7.573	14473	17810	0	840
9.917	0.505	14532	17387	0	840
14.172	7.104	14384	16850	0	840
16.012	7.862	14267	16226	0	840
9.917	4.183	14120	15663	0	840
5.409	-0.649	14002	15267	0	840
2.885	-2.957	13943	15002	0	840
6.058	1.479	13826	14809	0	840
12.369	8.655	13737	14615	0	840
14.966	14.172	13737	14509	0	840
15.074	15.543	13708	14571	0	840
9.737	12.225	13826	14765	0	840
3.426	7.104	13855	14985	0	840
-2.164	1.046	14002	15143	0	840
-7.285	-6.960	14032	15258	0	840
-16.589	-17.743	14090	15399	0	840
-18.031	-20.123	14267	15619	0	840
-17.310	-18.536	14326	15856	0	840
-8.691	-10.350	14443	15980	0	840
-0.757	-1.767	14443	15997	0	840
1.551	1.911	14532	16050	0	840
0.685	-0.613	14708	16200	0	840
-5.121	-6.491	14767	16384	0	840
-13.992	-12.081	14884	16498	0	840
-20.375	-19.401	14914	16533	0	840
-28.237	-24.739	15032	16551	0	840
-29.210	-24.125	15120	16595	0	840
-24.702	-20.303	15179	16648	0	840
-17.887	-12.514	15267	16674	0	840
-13.199	-10.278	15267	16621	0	840
-13.018	-11.900	15296	16480	0	840
-15.146	-16.120	15208	16305	0	840
-20.050	-20.700	15032	16015	0	840
-17.851	-20.123	14679	15381	0	840
-16.733	-15.435	14237	14536	0	840
-12.297	-9.809	13855	13867	0	840
-11.648	-9.556	13414	13383	0	840
-14.677	-13.271	12973	12943	0	840
-23.080	-24.450	12679	12705	0	840
-37.505	-38.550	12414	12723	0	840
-46.051	-47.133	12237	12916	0	840
-49.189	-47.494	12090	13180	0	840
-42.986	-39.308	11914	13400	0	840
-33.898	-28.309	11767	13612	0	840
-25.748	-20.483	11767	13920	0	840
-21.998	-15.038	11679	14316	0	840
-22.250	-16.120	11620	14703	0	840
-26.001	-17.274	11532	15011	0	840
-31.194	-22.827	11532	15293	0	840
-35.197	-25.568	11590	15663	0	840
-34.187	-25.243	11737	16173	0	840
-25.171	-19.185	11914	16727	0	840
-12.946	-8.330	12032	17185	0	840
-7.753	-4.977	12208	17537	0	840
-13.956	-10.314	12326	17862	0	840
-20.627	-17.779	12561	18250	0	840
-24.630	-20.339	12826	18655	0	840
-13.559	-13.415	13090	19024	0	840
-2.092	-4.868	13384	19315	0	840
2.452	-2.488	13532	19438	0	840
-6.599	-11.684	13737	19412	0	840
-18.428	-20.050	13855	19315	0	840
-25.748	-22.286	13943	19174	0	840
-20.303	-14.353	14032	18998	0	840
-12.946	-5.554	14032	18743	0	840
-7.068	-2.272	13973	18276	0	840
-7.176	-4.327	13796	17634	0	840
-9.881	-9.268	13561	17009	0	840
-14.785	-12.045	13414	16524	0	840
-18.283	-15.867	13296	16208	0	840
-21.565	-16.589	13120	15927	0	840
-19.798	-16.444	12914	15575	0	840
-13.992	-11.576	12796	15240	0	840
-5.049	-2.524	12620	15046	0	840
0.144	4.291	12532	15011	0	840
0.757	6.744	12473	15046	0	840
-2.128	3.787	12384	15064	0	840
-6.311	-0.613	12355	15090	0	840
-9.052	-6.203	12355	15214	0	840
-10.242	-9.304	12384	15443	0	840
-7.681	-6.744	12414	15707	0	840
-1.947	0.252	12473	15918	0	840
5.265	9.412	12532	16094	0	840
5.265	12.514	12620	16305	0	840
-3.390	5.409	12767	16604	0	840
-15.759	-8.042	12973	16938	0	840
-22.719	-13.091	13002	17114	0	840
-17.923	-8.655	12796	16815	0	840
-6.671	6.022	12355	15953	0	840
4.364	18.356	11914	15002	0	840
6.167	18.031	11620	14501	0	840
3.318	12.405	11384	14421	0	840
-2.524	2.056	11326	14571	0	840
-8.366	-3.101	11237	14791	0	840
-13.523	-5.157	11208	15011	0	840
-13.379	-4.436	11208	15249	0	840
-9.629	-0.613	11208	15522	0	840
-0.252	6.419	11326	15777	0	840
9.520	12.045	11296	15997	0	840
10.386	12.514	11208	16050	0	840
6.419	9.520	11061	15962	0	840
1.551	3.967	11061	15900	0	840
0.325	0.216	10943	15988	0	840
1.839	0.325	11032	16200	0	840
2.669	-1.154	11032	16401	0	840
-5.085	-6.167	11032	16507	0	840
-14.100	-14.533	11061	16595	0	840
-24.378	-21.637	11090	16771	0	840
-27.479	-26.073	11296	17026	0	840
-25.640	-22.611	11296	17237	0	840
-21.204	-17.418	11384	17343	0	840
-15.254	-8.655	11473	17440	0	840
-13.595	-4.472	11620	17616	0	840
-15.038	-10.674	11796	17845	0	840
-22.611	-19.942	11943	18012	0	840
-23.260	-27.155	12032	18030	0	840
-19.618	-24.486	12120	18003	0	840
-13.091	-18.320	12267	18065	0	840
-11.071	-13.668	12502	18232	0	840
-18.320	-18.644	12679	18435	0	840
-31.446	-31.626	12943	18567	0	840
-37.360	-38.082	13002	18496	0	840
-32.853	-34.583	12914	18047	0	840
-20.375	-21.854	12767	17343	0	840
-10.206	-11.071	12620	16815	0	840
-6.275	-5.337	12561	16577	0	840
-11.576	-8.979	12532	16480	0	840
-19.762	-22.286	12561	16410	0	840
-29.499	-34.043	12502	16279	0	840
-36.062	-45.907	12473	16068	0	840
-35.701	-45.330	12414	15962	0	840
-29.102	-38.082	12473	16015	0	840
-22.142	-27.299	12502	16103	0	840
-20.736	-25.243	12473	16041	0	840
-28.453	-30.689	12384	15856	0	840
-35.088	-39.740	12384	15768	0	840
-41.580	-43.960	12502	15918	0	840
-40.462	-39.235	12649	16244	0	840
-36.134	-31.735	12796	16551	0	840
-34.511	-30.472	12914	16736	0	840
-38.947	-37.793	13120	16912	0	840
-44.140	-47.602	13296	17167	0	840
-43.563	-49.333	13502	17378	0	840
-37.360	-43.058	13532	17396	0	840
-29.643	-29.643	13649	17290	0	840
-22.827	-24.666	13737	17255	0	840
-25.207	-26.037	13826	17308	0	840
-29.931	-32.564	14090	17466	0	840
-27.371	-31.771	14326	17739	0	840
-20.627	-24.666	14620	18003	0	840
-15.759	-16.589	14737	18109	0	840
-17.779	-17.093	14855	17942	0	840
-24.342	-22.935	14884	17625	0	840
-30.328	-26.758	15002	17440	0	840
-23.909	-24.739	15120	17405	0	840
-15.002	-15.507	15208	17369	0	840
-8.691	-10.169	15326	17299	0	840
-13.199	-10.025	15443	17237	0	840
-20.014	-18.031	15561	17220	0	840
-26.397	-20.700	15737	17185	0	840
-26.433	-22.863	15767	17123	0	840
-25.460	-21.637	15884	17000	0	840
-27.407	-23.044	15796	16718	0	840
-31.266	-26.145	15737	16323	0	840
-35.665	-30.905	15649	15988	0	840
-39.668	-33.393	15708	15821	0	840
-38.731	-33.249	15561	15671	0	840
-38.298	-33.826	15414	15372	0	840
-39.740	-38.550	15267	14994	0	840
-43.419	-41.471	15120	14738	0	840
-45.366	-44.320	15002	14624	0	840
-44.464	-43.058	14914	14571	0	840
-41.363	-34.259	14826	14527	0	840
-34.656	-25.856	14620	14430	0	840
-30.653	-18.103	14532	14333	0	840
-32.672	-18.320	14414	14325	0	840
-35.485	-20.664	14296	14395	0	840
-35.774	-22.142	14179	14430	0	840
-31.085	-20.772	14032	14386	0	840
-20.664	-12.550	13943	14430	0	840
-17.057	-6.635	13973	14677	0	840
-17.526	-7.609	14002	15073	0	840
-22.539	-12.225	14120	15478	0	840
-25.965	-14.172	14149	15768	0	840
-19.365	-13.740	14267	15997	0	840
-10.819	-8.114	14326	16314	0	840
-3.895	-4.724	14590	16753	0	840
-2.849	-4.796	14767	17246	0	840
-6.167	-8.655	15002	17607	0	840
-8.943	-13.379	15149	17827	0	840
-13.091	-18.969	15326	17977	0	840
-17.923	-25.532	15473	18118	0	840
-25.063	-30.004	15708	18232	0	840
-27.732	-27.587	15767	18250	0	840
-24.702	-21.349	15855	18170	0	840
-21.998	-18.031	15855	17968	0	840
-19.149	-18.356	15737	17563	0	840
-21.709	-26.325	15590	17044	0	840
-24.486	-30.869	15473	16621	1	800
-24.991	-30.653	15355	16384	0	800
-19.618	-23.188	15296	16226	0	800
-18.139	-19.185	15149	15980	0	800
-20.267	-17.706	15002	15619	0	800
-27.876	-21.313	14767	15311	0	800
-34.728	-27.876	14620	15143	0	800
-38.658	-29.499	14532	15011	0	800
-32.780	-27.551	14237	14782	0	800
-22.178	-21.493	14032	14483	0	800
-10.855	-15.435	13826	14307	0	800
-6.419	-12.802	13679	14333	0	800
-11.576	-14.353	13590	14492	0	800
-19.185	-19.834	13532	14650	0	800
-22.214	-18.428	13355	14703	0	800
-17.815	-15.290	13296	14738	0	800
-14.425	-11.937	13237	14870	0	800
-15.398	-16.120	13296	15223	0	800
-22.431	-23.296	13355	15707	0	800
-28.489	-29.030	13443	16112	0	800
-27.083	-26.433	13532	16376	0	800
-19.582	-18.247	13561	16595	0	800
-14.245	-13.812	13737	16885	0	800
-15.615	-11.648	13855	17185	0	800
-13.595	-10.963	13884	17369	0	800
-10.819	-5.770	14032	17475	0	800
-2.560	3.390	14090	17581	0	800
0.469	8.619	14267	17722	0	800
-1.947	6.635	14384	17854	0	800
-5.698	2.416	14620	18074	0	800
-9.304	-0.541	14826	18373	0	800
-10.169	-1.190	14973	18531	0	800
-13.235	-2.813	15032	18355	0	800
-13.956	-4.544	14914	17950	0	800
-11.107	-3.534	14884	17581	0	800
-0.829	4.508	14826	17290	0	800
13.668	16.192	14737	16991	0	800
22.142	22.322	14532	16533	0	800
17.706	18.969	14237	15962	0	800
7.645	7.537	14120	15583	0	800
-3.606	-2.596	14032	15548	0	800
-7.429	-5.481	14090	15654	0	800
-7.176	-3.029	14002	15689	0	800
-4.652	0.793	13943	15610	0	800
-3.065	1.875	13855	15504	0	800
0.216	2.380	13737	15460	0	800
5.157	4.832	13708	15469	0	800
11.432	9.953	13649	15434	0	800
19.473	17.598	13414	15319	0	800
21.277	19.293	13355	15170	0	800
18.211	19.582	13237	15117	0	800
17.887	15.362	13267	15284	0	800
17.346	16.372	13237	15557	0	800
21.277	17.166	13267	15768	0	800
21.313	19.077	13267	15883	0	800
18.067	15.002	13355	16050	0	800
8.943	10.386	13384	16296	0	800
3.931	5.986	13443	16551	0	800
4.400	7.357	13502	16648	0	800
9.881	10.566	13384	16560	0	800
12.405	11.432	13355	16410	0	800
8.835	7.285	13267	16296	0	800
4.544	1.190	13296	16314	0	800
3.859	4.003	13414	16621	0	800
11.937	9.376	13679	17141	0	800
19.077	19.906	13826	17457	0	800
23.152	22.899	13737	17378	0	800
15.975	20.195	13708	17079	0	800
9.737	13.812	13679	16832	0	800
8.006	13.848	13590	16718	0	800
15.110	20.195	13649	16727	0	800
23.729	29.463	13561	16683	0	800
25.893	32.131	13532	16516	0	800
17.959	25.604	13414	16340	0	800
7.789	16.156	13414	16270	0	800
0.577	8.979	13414	16340	0	800
4.147	12.045	13443	16419	0	800
14.497	20.375	13443	16419	0	800
25.965	29.318	13414	16410	0	800
26.470	29.318	13532	16507	1	316
18.897	20.447	13649	16718	0	316
9.340	12.081	13708	16938	0	316
5.157	8.943	13855	17061	0	316
8.799	10.855	13884	17053	0	316
11.973	16.300	13796	16868	0	316
11.684	13.091	13796	16656	0	316
3.714	4.580	13826	16604	0	316
-2.957	-3.750	13826	16683	0	316
-2.633	-4.111	13973	16806	0	316
1.587	-1.911	14032	16964	0	316
2.524	0.505	14267	17176	0	316
-1.623	-2.092	14414	17413	0	316
-6.022	-6.527	14590	17572	0	316
-9.773	-7.573	14708	17625	0	316
-7.212	-5.950	14767	17563	0	316
-6.960	-3.570	14737	17317	0	316
-6.203	-4.039	14620	16929	0	316
-5.734	-4.183	14590	16621	0	316
-2.164	0.216	14561	16498	0	316
1.587	6.347	14590	16436	0	316
3.823	6.058	14443	16270	0	316
1.334	3.065	14414	15980	0	316
-1.767	-0.288	14296	15786	0	316
-0.325	-0.685	14326	15768	0	316
6.022	3.931	14296	15848	0	316
12.946	9.448	14326	15918	0	316
15.218	10.999	14296	15918	0	316
15.435	8.943	14414	15971	0	316
8.330	3.318	14473	16156	0	316
0.469	-2.849	14590	16410	0	316
-5.734	-8.042	14737	16612	0	316
-6.455	-9.088	14767	16727	0	316
-3.101	-4.472	14973	16832	0	316
1.515	2.308	15032	16938	0	316
1.226	3.101	15149	17009	0	316
-4.760	-3.354	15208	17061	0	316
-10.278	-10.494	15355	17097	0	316
-16.120	-15.074	15355	17105	0	316
-17.526	-18.464	15473	17097	0	316
-17.310	-19.077	15561	17114	0	316
-16.084	-17.202	15737	17211	0	316
-10.386	-11.107	15855	17281	0	316
0.938	-0.433	15708	17053	0	316
6.635	6.094	15561	16551	0	316
3.534	-0.180	15502	16200	0	316
-6.527	-10.819	15473	16103	0	316
-13.776	-20.123	15473	16024	0	316
-10.927	-16.012	15355	15883	0	316
1.767	-2.560	15267	15707	0	316
14.389	8.330	15061	15443	0	316
18.788	12.117	14914	15099	0	316
16.589	8.907	14737	14862	0	316
9.340	3.101	14620	14782	0	316
3.318	-3.931	14414	14712	0	316
-1.226	-9.484	14237	14509	0	316
-7.176	-12.946	13884	14219	0	316
-8.186	-10.530	13708	14025	0	316
-6.816	-5.914	13561	14017	0	316
-4.075	-0.325	13443	14193	0	316
-5.085	0.288	13384	14430	0	316
-8.835	-5.662	13267	14554	0	316
-15.687	-13.631	13149	14633	0	316
-19.041	-17.166	13090	14818	0	316
-21.565	-20.988	13120	15152	0	316
-19.365	-17.851	13149	15513	0	316
-20.159	-14.858	13208	15821	0	316
-18.536	-7.934	13208	16120	0	316
-18.320	-5.445	13414	16489	0	316
-16.805	-3.570	13590	17000	0	316
-15.651	-3.931	13796	17519	0	316
-9.592	-3.029	14002	17854	0	316
-5.914	-0.325	14120	17977	0	316
-4.508	-1.298	14237	18056	0	316
-10.314	-6.455	14414	18250	0	316
-19.510	-15.831	14679	18496	0	316
-27.696	-23.512	14826	18655	0	316
-29.066	-21.890	15002	18707	0	316
-23.404	-16.661	15149	18734	0	316
-19.762	-9.088	15326	18760	0	316
-18.536	-8.475	15473	18787	0	316
-15.687	-6.455	15649	18734	0	316
-10.169	-3.390	15737	18584	0	316
-2.128	2.344	15737	18329	0	316
3.318	5.517	15708	17889	0	316
1.695	2.488	15561	17352	1	340
-5.121	-2.777	15473	16912	0	340
-11.720	-8.439	15473	16639	0	340
-12.009	-9.737	15296	16376	0	340
-8.799	-8.042	15061	15927	0	340
-3.823	-5.265	14826	15337	0	340
1.262	-1.262	14620	14932	0	340
3.895	1.839	14620	14897	0	340
4.003	5.662	14590	15064	0	340
0.072	3.426	14590	15187	0	340
-3.498	-1.695	14561	15205	0	340
-6.527	-6.744	14473	15196	0	340
-2.669	-3.823	14443	15223	0	340
7.753	5.806	14384	15275	0	340
19.005	19.654	14296	15249	0	340
28.056	31.338	14120	15117	0	340
30.076	33.610	14032	15002	0	340
24.522	28.164	14002	15046	0	340
11.576	15.975	14090	15284	0	340
2.200	5.445	14120	15619	0	340
-2.957	0.865	14120	15856	0	340
-0.216	4.436	14149	15962	0	340
9.232	11.432	14120	16041	0	340
15.903	17.562	14179	16173	0	340
14.605	17.995	14149	16332	0	340
13.559	13.343	14237	16419	0	340
11.107	13.631	14149	16428	0	340
10.963	13.091	14179	16436	0	340
12.045	17.021	14149	16472	0	340
8.186	15.398	14237	16524	0	340
0.505	9.701	14179	16542	0	340
-7.393	2.344	14179	16516	0	340
-7.970	-1.551	14149	16498	0	340
-3.065	1.983	14149	16498	0	340
7.789	10.169	14120	16472	0	340
13.704	14.064	13973	16358	0	340
12.730	15.002	13826	16085	0	340
4.724	7.321	13532	15671	0	340
-5.842	-3.606	13267	15223	0	340
-11.179	-10.927	13002	14906	0	340
-11.576	-11.973	12943	14879	0	340
-6.996	-9.160	12914	15134	0	340
-3.029	-3.931	12914	15451	0	340
-4.003	-1.587	12914	15645	0	340
-7.248	-5.590	12826	15707	0	340
-15.398	-12.081	12796	15751	0	340
-20.447	-22.575	12796	15865	0	340
-24.702	-26.938	12826	16068	0	340
-28.705	-29.174	12855	16349	0	340
-28.525	-30.112	12943	16595	0	340
-32.925	-30.725	13090	16868	0	340
-35.124	-32.925	13267	17211	0	340
-36.639	-36.098	13561	17660	0	340
-34.115	-36.567	13796	18118	0	340
-32.528	-34.836	14032	18470	0	340
-30.400	-33.610	14267	18716	0	340
-28.056	-31.374	14620	18972	0	340
-27.515	-32.059	14914	19271	0	340
-23.729	-28.201	15267	19553	0	340
-19.473	-25.171	15620	19711	0	340
-15.831	-23.512	15767	19658	0	340
-16.408	-25.063	15767	19280	0	340
-20.050	-24.486	15767	18663	0	340
-21.998	-26.037	15737	18162	0	340
-21.421	-19.546	15737	17845	0	340
-14.100	-10.242	15767	17589	0	340
-7.789	-4.075	15796	17308	0	340
-6.058	-3.823	15649	16903	0	340
-10.927	-8.655	15502	16428	0	340
-14.749	-15.362	15473	16068	0	340
-16.877	-15.398	15414	15848	0	340
-11.937	-13.451	15414	15707	0	340
-11.071	-9.268	15267	15548	0	340
-12.622	-7.789	15208	15355	0	340
-18.103	-12.622	15179	15249	0	340
-22.755	-14.281	15179	15284	0	340
-18.320	-11.287	15208	15451	0	340
-12.658	-6.852	15326	15654	0	340
-6.671	-2.741	15473	15821	0	340
-4.904	-3.931	15502	15971	1	316
-6.275	-8.871	15620	16173	0	316
-10.097	-11.756	15796	16419	0	316
-9.989	-13.271	15943	16674	0	316
-6.888	-7.753	16090	16850	0	316
-4.364	-2.957	16237	16964	0	316
-0.144	0.469	16384	17088	0	316
-3.318	0.505	16619	17317	0	316
-7.465	-2.092	16854	17581	0	316
-11.576	-4.472	17001	17695	0	316
-12.586	-5.481	17119	17607	0	316
-13.343	-7.465	17148	17387	0	316
-13.595	-9.701	17060	17114	0	316
-14.317	-11.540	17060	16832	0	316
-13.199	-10.999	17119	16674	0	316
-8.655	-6.708	17207	16692	0	316
-5.590	-0.325	17325	16762	0	316
-3.859	1.515	17354	16771	0	316
-8.691	-2.560	17472	16727	0	316
-12.550	-7.357	17472	16630	0	316
-12.477	-7.898	17501	16480	0	316
-9.376	-5.265	17325	16200	0	316
-5.373	0.144	17148	15698	0	316
-2.957	2.019	16825	15099	0	316
-4.688	0.397	16589	14615	0	316
-5.878	-1.515	16384	14342	0	316
-1.983	1.262	16208	14201	0	316
2.019	7.753	16002	14061	0	316
12.189	16.769	15767	13876	0	316
17.923	21.818	15649	13814	0	316
19.654	22.431	15502	13946	0	316
17.202	21.313	15443	14184	0	316
13.271	17.057	15414	14413	0	316
11.468	18.320	15296	14562	0	316
10.819	19.005	15267	14668	0	316
12.514	22.395	15149	14791	0	316
12.441	21.385	15120	14994	0	316
9.052	19.798	15149	15223	0	316
7.753	15.290	15002	15381	0	316
6.311	10.710	15002	15513	0	316
7.537	9.232	15032	15698	0	316
9.340	10.169	15032	16006	0	316
11.071	12.694	15120	16349	0	316
11.973	13.271	15208	16604	0	316
8.294	13.127	15267	16815	0	316
6.671	11.612	15414	17061	0	316
2.885	9.160	15502	17352	0	316
3.859	11.179	15620	17589	0	316
9.701	18.175	15649	17598	0	316
18.752	26.361	15473	17299	0	316
25.099	34.800	15326	16859	0	316
30.797	40.101	15149	16507	0	316
29.823	40.750	15032	16279	0	316
27.840	37.144	14855	16112	0	316
27.047	38.045	14767	16006	0	316
28.201	38.262	14679	15909	0	316
28.164	39.091	14414	15663	0	316
25.784	36.495	14179	15328	0	316
22.647	31.735	14002	15126	0	316
17.129	27.227	13943	15152	0	316
16.480	22.863	13855	15319	0	316
15.651	20.483	13737	15487	0	316
16.877	19.473	13796	15601	0	316
14.389	12.910	13737	15742	0	316
9.917	8.078	13708	15971	0	316
3.173	3.210	13826	16244	0	316
-1.839	0.361	13796	16428	0	316
-6.383	-0.685	13826	16480	0	316
-7.681	-1.406	13826	16551	0	316
-8.042	-2.056	13796	16683	0	316
-6.311	-3.642	13796	16683	0	316
-4.508	-3.787	13708	16577	0	316
-2.669	0.216	13590	16507	0	316
0.397	3.678	13649	16560	0	316
2.019	9.773	13708	16718	0	316
1.442	12.874	13796	16956	0	316
1.442	10.602	13943	17229	0	316
0.216	10.025	14002	17431	0	316
2.092	7.681	14179	17545	0	316
6.311	8.366	14267	17660	0	316
11.792	10.783	14443	17792	0	316
16.228	15.759	14532	17906	0	316
17.562	17.274	14590	17906	0	316
21.890	23.152	14590	17801	0	316
23.549	25.640	14679	17660	0	316
22.899	26.938	14590	17440	0	316
20.375	25.748	14532	17123	0	316
11.828	17.743	14443	16797	0	316
2.380	10.350	14326	16560	0	316
-1.370	4.327	14267	16358	0	316
-4.436	-1.010	14032	16006	0	316
-5.878	-3.895	13796	15513	0	316
-7.825	-5.409	13532	15073	0	316
-9.556	-6.239	13296	14800	0	316
-9.052	-3.895	13120	14668	0	316
-7.176	-2.488	12943	14545	0	316
-7.681	-2.452	12679	14369	0	316
-13.415	-7.032	12532	14289	0	316
-26.217	-17.274	12473	14404	0	316
-34.223	-23.981	12414	14677	0	316
-37.901	-27.371	12414	14967	0	316
-31.662	-24.991	12355	15214	0	316
-20.772	-16.264	12355	15434	0	316
-12.153	-9.881	12355	15619	0	316
-7.176	-4.508	12267	15724	0	316
-6.347	-4.075	12208	15733	0	316
-6.563	-4.472	12090	15724	0	316
-8.042	-4.652	12032	15777	0	316
-6.311	-4.904	12032	15944	0	316
-4.508	-3.967	12179	16279	0	316
-1.515	-3.354	12355	16736	0	316
0.433	-2.741	12532	17220	0	316
2.056	-0.685	12767	17669	0	316
2.416	0.505	12973	18074	0	316
2.452	1.442	13355	18461	0	316
-0.433	-2.777	13590	18839	0	316
-5.409	-9.484	13855	19156	0	316
-12.369	-14.785	14267	19420	0	316
-17.670	-17.057	14473	19597	0	316
-15.759	-12.189	14679	19535	0	316
-9.520	-5.914	14737	19297	0	316
-4.219	-1.659	14973	19130	0	316
-3.101	-3.642	15149	19095	0	316
-7.212	-10.927	15326	19051	1	492
-11.251	-14.713	15473	18928	0	492
-12.009	-16.300	15649	18787	0	492
-9.232	-11.864	16002	18787	0	492
-6.167	-7.140	16149	18804	0	492
-4.039	-6.058	16061	18391	0	492
-4.652	-8.727	15767	17422	0	492
-3.318	-12.550	15561	16419	0	492
-4.472	-11.432	15326	15804	0	492
-1.334	-9.809	15296	15504	0	492
0.000	-4.111	15179	15355	0	492
2.488	-1.334	15149	15240	0	492
3.967	-0.865	15061	15126	0	492
6.419	-4.508	15061	15046	0	492
7.934	-6.203	15120	15099	0	492
7.862	-6.022	15208	15355	0	492
6.311	-5.626	15443	15707	0	492
0.974	-6.275	15502	15980	0	492
-6.058	-9.520	15708	16182	0	492
-12.586	-14.281	15884	16419	0	492
-10.602	-16.913	16149	16780	0	492
-3.065	-11.540	16384	17167	0	492
7.032	-3.210	16619	17457	0	492
17.310	3.606	16884	17686	0	492
14.785	0.397	17178	17915	0	492
6.347	-10.422	17472	18126	0	492
-4.760	-21.132	17707	18303	0	492
-6.708	-22.539	18001	18426	0	492
-1.370	-15.543	18148	18399	0	492
7.321	-3.173	18207	18091	0	492
12.045	-0.541	18089	17519	0	492
6.960	-6.203	17884	16832	0	492
2.452	-14.100	17766	16235	0	492
6.816	-12.369	17619	15804	0	492
19.329	-1.406	17442	15443	0	492
32.708	12.766	17207	15002	0	492
37.324	17.454	17001	14545	0	492
28.922	12.441	16825	14272	0	492
17.923	2.380	16531	13973	0	492
8.150	-4.868	16208	13506	0	492
8.402	-4.255	15884	13083	0	492
12.730	-1.623	15561	12837	0	492
14.028	1.406	15296	12758	0	492
19.618	6.058	15179	12881	0	492
27.876	14.064	15032	13163	0	492
38.586	21.745	14973	13497	0	492
46.159	26.686	14914	13770	0	492
43.094	20.627	14826	14052	0	492
32.889	10.061	14884	14448	0	492
23.080	1.406	15002	15020	0	492
19.113	0.829	15179	15680	0	492
23.765	4.580	15326	16235	0	492
23.585	5.950	15502	16656	0	492
17.995	-0.938	15620	17035	0	492
9.737	-9.232	15796	17413	0	492
9.124	-12.838	16032	17748	0	492
15.867	-5.157	16061	17862	0	492
28.092	9.016	15943	17660	0	492
34.187	17.346	15796	17237	0	492
31.049	17.887	15737	16894	0	492
20.555	8.835	15649	16744	0	492
13.487	1.190	15561	16683	0	492
10.097	-0.325	15561	16656	0	492
11.215	0.144	15561	16692	0	492
13.415	4.003	15561	16744	0	492
13.523	5.590	15737	16876	0	492
13.271	5.121	15943	17299	0	492
14.317	5.157	16326	17968	0	492
12.225	4.255	16589	18487	0	492
10.422	1.118	16736	18593	0	492
6.383	-2.777	16825	18373	0	492
4.796	-5.301	16854	18109	0	492
7.140	-1.118	16972	17942	0	492
15.615	6.924	17001	17871	0	492
23.080	13.127	17060	17810	0	492
23.693	16.156	17148	17642	0	492
16.769	9.016	17148	17449	0	492
7.248	0.613	17178	17343	0	492
1.010	-3.426	17325	17299	0	492
2.633	2.380	17325	17193	0	492
11.720	12.766	17325	16982	0	492
17.382	23.296	17295	16771	0	492
20.231	24.378	17354	16648	0	492
16.733	20.664	17442	16683	0	492
13.595	13.812	17589	16788	0	492
10.638	11.720	17619	16859	0	492
7.934	9.484	17766	16832	0	492
8.511	9.665	17795	16744	0	492
7.429	8.547	17766	16639	0	492
8.511	6.816	17884	16542	0	492
12.117	9.232	17854	16392	0	492
18.536	15.687	17736	16191	0	492
21.962	20.123	17736	15997	0	492
22.250	20.339	17619	15804	0	492
15.146	13.415	17472	15575	0	492
4.652	4.904	17354	15319	0	492
-5.157	-1.046	17207	15082	0	492
-8.294	-1.731	17001	14818	0	492
-5.806	4.977	16678	14386	0	492
-0.252	10.819	16296	13849	0	492
2.344	13.559	16002	13436	0	492
5.193	14.208	15708	13233	0	492
6.852	14.713	15414	13180	0	492
6.022	10.494	15179	13127	0	492
4.400	9.773	14767	13004	0	492
2.993	7.681	14532	12934	0	492
2.560	6.527	14326	13022	0	492
4.400	9.953	14120	13251	0	492
9.016	12.225	13973	13506	0	492
15.687	16.769	13796	13700	0	492
18.860	18.644	13532	13849	0	492
21.096	20.303	13414	14034	0	492
18.464	17.634	13208	14184	0	492
16.120	15.723	12973	14272	0	492
9.629	10.242	12767	14369	0	492
6.131	6.383	12561	14571	0	492
3.210	1.839	12532	14906	0	492
1.875	-1.082	12620	15416	0	492
0.613	-3.246	12649	16006	0	492
0.325	-2.596	12679	16436	0	492
-1.370	-1.767	12679	16692	0	492
-4.724	-4.688	12708	16929	0	492
-8.655	-6.311	12855	17308	0	492
-11.576	-9.665	12973	17774	0	492
-9.773	-6.635	13208	18197	0	492
-3.678	-1.154	13355	18540	0	492
1.731	4.544	13561	18831	0	492
3.318	4.580	13679	19024	0	492
0.036	-1.010	13884	19148	0	492
-4.724	-5.626	14002	19236	0	492
-6.816	-8.042	14179	19280	0	492
-4.075	-5.409	14296	19236	0	492
0.505	0.361	14267	19007	0	492
3.101	3.967	14267	18611	0	492
3.895	7.825	14237	18320	0	492
5.481	7.789	14384	18267	1	540
5.770	4.183	14473	18355	0	540
5.157	-0.072	14590	18355	0	540
4.255	-5.373	14708	18206	0	540
1.298	-6.996	14767	18038	0	540
-0.325	-6.563	14855	17933	0	540
-2.813	-4.868	14855	17766	0	540
-6.203	-7.717	14855	17537	0	540
-9.629	-11.107	14914	17334	0	540
-10.602	-12.514	14914	17193	0	540
-9.196	-10.097	15002	17114	0	540
-5.265	-6.924	15149	17088	0	540
-5.265	-7.573	15149	17044	0	540
-10.999	-11.720	15179	16956	0	540
-16.625	-19.906	15296	16868	0	540
-16.589	-20.952	15355	16859	0	540
-11.323	-15.795	15502	16973	0	540
-1.875	-6.671	15737	17193	0	540
4.832	-0.974	15943	17387	0	540
5.698	0.288	16149	17501	0	540
-0.036	-2.849	16384	17607	0	540
-2.128	-6.275	16619	17774	0	540
-2.200	-7.104	16825	17942	0	540
0.469	-5.265	17031	18012	0	540
4.544	-2.705	17266	17994	0	540
8.330	0.433	17354	17924	0	540
9.340	3.534	17442	17722	0	540
8.042	5.698	17472	17422	0	540
6.527	6.635	17560	17132	0	540
5.157	3.823	17501	16885	0	540
4.940	4.977	17560	16612	0	540
9.052	5.193	17413	16208	0	540
13.271	8.366	17325	15786	0	540
15.146	8.979	17325	15663	0	540
14.208	9.737	17560	15892	0	540
10.242	8.583	17707	16164	0	540
9.953	8.078	17795	16288	0	540
10.314	8.583	17884	16305	0	540
10.314	8.799	18060	16376	0	540
12.514	10.746	18089	16472	0	540
16.589	14.533	18295	16480	0	540
18.428	20.627	18236	16392	0	540
21.277	24.666	18325	16252	0	540
20.591	25.856	18295	16094	0	540
18.031	21.529	18295	15988	0	540
16.048	17.454	18354	15988	0	540
16.336	14.064	18354	16032	0	540
17.995	10.206	18384	15988	0	540
15.471	8.186	18384	15909	0	540
7.501	5.878	18501	15936	0	540
3.895	6.671	18589	16094	0	540
2.344	9.232	18736	16296	0	540
4.977	11.107	18766	16384	0	540
7.285	10.566	18825	16358	0	540
4.436	5.049	18913	16314	0	540
-1.947	-0.541	18884	16296	0	540
-6.708	-3.318	18942	16279	0	540
-4.544	-1.515	18913	16200	0	540
-0.721	2.921	18913	16085	0	540
2.849	2.705	18825	15900	0	540
-1.983	-2.596	18589	15539	0	540
-9.124	-10.927	18472	15161	0	540
-18.103	-21.565	18384	15108	0	540
-22.395	-26.037	18384	15275	0	540
-24.630	-27.155	18236	15231	0	540
-30.040	-29.535	18148	14976	0	540
-33.502	-30.869	17913	14721	0	540
-38.947	-35.377	17619	14483	0	540
-37.541	-35.341	17354	14219	0	540
-30.689	-30.112	17148	13999	0	540
-20.159	-22.683	16884	13867	0	540
-17.202	-19.582	16589	13735	0	540
-21.890	-25.027	16384	13664	0	540
-37.937	-36.314	16208	13726	0	540
-53.552	-49.585	16061	13893	0	540
-65.777	-56.329	15884	14078	0	540
-66.931	-56.906	15767	14219	0	540
-62.928	-52.687	15620	14369	0	540
-55.139	-50.234	15502	14589	0	540
-50.415	-46.736	15561	14897	0	540
-45.078	-42.661	15473	15249	0	540
-40.173	-37.901	15443	15531	0	540
-37.973	-33.790	15355	15733	0	540
-36.747	-31.482	15414	15944	0	540
-36.314	-32.384	15414	16235	0	540
-37.901	-35.557	15414	16551	0	540
-36.206	-36.819	15443	16762	0	540
-33.538	-35.124	15414	16876	0	540
-28.994	-30.689	15443	16947	0	540
-23.693	-26.542	15326	16956	0	540
-20.736	-25.279	15296	16920	0	540
-21.673	-28.309	15296	16964	0	540
-22.791	-31.446	15208	16991	0	540
-25.893	-33.177	15002	16788	0	540
-26.037	-30.869	14767	16367	0	540
-25.135	-24.991	14443	15892	0	540
-23.260	-22.899	14237	15557	0	540
-22.611	-18.788	13973	15399	0	540
-19.798	-15.110	13796	15302	0	540
-13.776	-11.504	13502	15179	0	540
-8.294	-6.563	13355	15090	0	540
-10.061	-8.655	13149	15073	0	540
-16.012	-13.415	13061	15161	0	540
-25.676	-20.916	12973	15372	0	540
-27.335	-21.313	12855	15592	0	540
-22.034	-17.310	12826	15689	0	540
-11.576	-8.799	12708	15751	0	540
-3.065	-3.426	12649	15900	0	540
-5.554	-7.537	12649	16094	0	540
-13.379	-16.012	12620	16270	0	540
-19.221	-22.683	12532	16392	0	540
-18.969	-22.106	12532	16551	0	540
-11.720	-15.218	12649	16815	0	540
-1.154	-3.823	12767	17220	0	540
7.248	4.832	12973	17651	0	540
9.088	7.934	13090	17942	0	540
10.674	10.278	13237	18091	0	540
8.979	10.746	13296	18188	0	540
9.196	10.494	13414	18311	0	540
5.914	9.556	13532	18355	0	540
1.659	9.376	13532	18206	0	540
-2.344	8.619	13443	17924	0	540
-3.246	8.042	13443	17669	0	540
-1.190	9.052	13384	17457	0	540
1.262	10.133	13296	17299	0	540
4.508	10.891	13296	17149	0	540
3.967	8.475	13267	17026	0	540
2.092	5.662	13237	16885	0	540
0.433	1.334	13061	16595	0	540
1.262	-0.397	12855	16226	0	540
2.308	1.587	12796	15962	0	540
5.085	6.239	12679	15874	0	540
6.455	10.819	12649	15874	0	540
6.167	12.045	12532	15812	0	540
5.085	14.749	12414	15654	0	540
7.537	14.317	12355	15575	0	540
9.268	12.550	12384	15707	0	540
12.153	12.477	12502	16006	0	540
12.946	12.514	12561	16323	0	540
16.156	13.776	12679	16577	0	540
18.500	18.860	12796	16824	0	540
24.666	23.476	13002	17114	0	540
29.787	28.561	13237	17475	0	540
35.701	32.564	13502	17818	0	540
36.278	33.285	13649	18065	0	540
34.872	30.292	13855	18170	0	540
33.357	26.650	13943	18074	0	540
27.696	19.149	13943	17871	0	540
24.053	17.021	14090	17810	0	540
20.952	13.091	14149	17845	0	540
14.389	12.333	14384	17889	0	540
9.989	10.422	14532	17986	0	540
6.022	10.350	14826	18144	0	540
5.770	11.360	15032	18311	0	540
7.068	14.894	15326	18479	0	540
8.547	13.415	15620	18663	0	540
7.212	13.595	15884	18804	0	540
5.157	9.629	16179	18839	0	540
1.623	6.924	16384	18813	0	540
0.108	5.734	16589	18769	0	540
0.072	5.193	16825	18655	0	540
2.056	6.094	16884	18417	0	540
5.481	6.924	16913	18012	1	648
8.943	10.061	16913	17519	0	648
14.894	13.848	16972	17123	0	648
15.543	17.706	16972	16885	0	648
19.834	20.555	17001	16709	0	648
21.132	23.549	17031	16472	0	648
23.404	26.830	17001	16164	0	648
21.818	25.965	16972	15883	0	648
18.103	24.486	17001	15751	0	648
14.100	20.988	17060	15733	0	648
10.927	12.477	17119	15733	0	648
9.917	11.251	17119	15671	0	648
10.963	7.934	17178	15619	0	648
11.432	5.481	17207	15610	0	648
7.104	3.354	17266	15601	0	648
2.272	-3.282	17207	15548	0	648
-3.678	-8.943	17119	15390	0	648
-6.708	-11.684	17031	15099	0	648
-7.465	-9.737	16854	14800	0	648
-5.013	-5.517	16854	14738	0	648
-6.383	-2.921	16884	14941	0	648
-9.268	-4.075	16913	15152	0	648
-16.012	-9.592	16972	15319	0	648
-19.690	-14.389	17031	15522	0	648
-22.034	-17.634	17178	15759	0	648
-17.021	-13.884	17266	15980	0	648
-11.504	-7.789	17354	16147	0	648
-2.885	-0.144	17442	16279	0	648
2.236	4.616	17442	16349	0	648
4.832	7.862	17442	16279	0	648
1.334	5.445	17354	16085	0	648
-4.940	1.659	17295	15944	0	648
-8.366	0.505	17266	15892	0	648
-7.573	1.587	17207	15812	0	648
-4.580	4.003	17031	15583	0	648
-0.649	7.681	16854	15249	0	648
3.606	9.376	16678	15011	0	648
4.364	11.287	16560	14941	0	648
5.878	11.648	16413	14967	0	648
6.708	10.674	16237	14906	0	648
6.131	10.025	16032	14686	0	648
4.327	8.439	15943	14580	0	648
3.246	9.232	15884	14730	0	648
1.731	10.458	15855	15002	0	648
1.947	13.451	15796	15249	0	648
0.938	12.550	15855	15443	0	648
2.272	10.999	15767	15575	0	648
5.878	10.674	15767	15733	0	648
9.268	10.169	15855	15953	0	648
10.783	9.412	15855	16173	0	648
9.196	10.386	15767	16252	0	648
5.193	9.845	15708	16200	0	648
1.695	8.583	15708	16182	0	648
-3.390	7.176	15708	16349	0	648
-4.183	5.734	15767	16630	0	648
-5.698	5.481	15884	16876	0	648
-2.957	5.806	15943	17035	0	648
2.056	8.150	16032	17176	0	648
6.671	8.619	16149	17361	0	648
5.229	4.904	16237	17554	0	648
-0.288	-2.777	16355	17669	0	648
-7.898	-8.691	16442	17730	0	648
-11.576	-12.730	16472	17730	0	648
-8.799	-8.258	16413	17510	0	648
-3.967	-0.361	16237	17061	0	648
-1.370	6.852	16090	16612	0	648
-1.839	8.294	15943	16296	0	648
-3.101	5.013	15855	16050	0	648
-3.823	2.092	15561	15742	0	648
-1.623	2.488	15355	15443	0	648
1.767	4.291	15355	15434	0	648
1.875	7.753	15443	15724	0	648
-0.325	5.842	15502	16041	0	648
-4.796	3.859	15502	16226	0	648
-7.285	0.072	15561	16296	0	648
-6.744	0.938	15502	16288	0	648
-3.246	3.534	15355	16059	0	648
2.741	8.222	15032	15601	0	648
7.393	13.307	14855	15240	0	648
7.753	17.526	14679	15099	0	648
6.455	15.002	14473	15020	0	648
3.642	10.746	14414	15020	0	648
1.731	6.744	14326	15187	0	648
3.173	5.986	14384	15451	0	648
8.078	11.251	14326	15671	0	648
13.271	18.139	14384	15839	0	648
17.129	20.916	14384	16041	0	648
16.336	19.870	14532	16314	0	648
11.504	13.704	14561	16612	0	648
8.330	10.710	14620	16815	0	648
5.950	8.330	14679	16894	0	648
4.868	11.071	14679	16903	0	648
4.436	13.343	14679	16903	0	648
3.498	13.740	14620	16920	0	648
-0.757	10.746	14620	16903	0	648
-3.282	6.455	14620	16824	0	648
-4.580	4.977	14532	16700	0	648
-3.787	6.852	14473	16551	0	648
0.325	13.163	14326	16384	0	648
2.633	19.762	14149	16173	0	648
3.498	19.041	13943	15874	0	648
-0.793	16.625	13679	15460	0	648
-6.888	9.737	13267	14941	0	648
-11.900	3.426	12914	14404	0	648
-12.153	0.829	12532	14025	0	648
-10.746	1.190	12267	13911	0	648
-7.140	3.390	12090	13981	0	648
-4.977	3.318	11884	14096	0	648
-4.904	1.551	11649	14140	0	648
-6.527	-3.354	11502	14201	0	648
-10.061	-6.744	11384	14413	0	648
-11.720	-10.133	11355	14765	0	648
-13.631	-9.160	11384	15152	0	648
-12.802	-7.970	11326	15504	0	648
-11.107	-6.347	11355	15848	0	648
-8.439	-8.799	11473	16261	0	648
-7.970	-10.133	11649	16788	0	648
-6.167	-13.631	11914	17405	0	648
-5.265	-12.622	12120	17915	0	648
-5.229	-10.963	12326	18267	0	648
-5.049	-5.013	12561	18584	0	648
-3.462	-1.515	12826	18972	0	648
-3.498	-0.469	13149	19376	0	648
-3.210	-1.479	13414	19641	0	648
-2.272	-1.406	13649	19781	0	648
-0.938	-1.298	13943	19869	0	648
-1.623	-1.262	14149	19896	0	648
-4.940	-1.731	14384	19843	0	648
-7.212	-5.590	14561	19773	0	648
-10.350	-7.717	14855	19711	0	648
-11.035	-11.071	15002	19658	0	648
-8.475	-10.169	15267	19597	1	524
-6.744	-10.638	15620	19623	0	524
-6.852	-12.586	16061	19817	0	524
-8.222	-13.343	16355	19984	0	524
-10.783	-18.464	16560	19825	0	524
-12.550	-20.700	16619	19376	0	524
-20.772	-28.201	16707	18831	0	524
-23.585	-31.699	16766	18329	0	524
-24.630	-29.282	16854	17942	0	524
-18.933	-20.195	16913	17686	0	524
-6.816	-7.645	17001	17431	0	524
2.885	2.813	17031	17070	0	524
7.753	4.616	17031	16683	0	524
6.347	3.570	17031	16401	0	524
3.642	2.669	17148	16252	0	524
5.013	7.609	17178	16156	0	524
9.809	15.398	17266	16006	0	524
17.057	20.375	17266	15804	0	524
19.726	21.854	17295	15698	0	524
17.490	18.969	17472	15786	0	524
11.864	13.127	17619	15980	0	524
4.796	8.727	17795	16112	0	524
1.659	6.744	17854	16103	0	524
1.262	6.275	17795	15874	0	524
0.541	3.823	17707	15513	0	524
-0.649	0.938	17707	15284	0	524
-2.957	-3.101	17736	15293	0	524
-5.517	-4.796	17795	15399	0	524
-6.058	-1.334	17795	15469	0	524
-2.056	5.157	17854	15460	0	524
-1.551	9.016	17795	15399	0	524
0.397	7.248	17795	15337	0	524
-2.885	1.551	17766	15267	0	524
-6.924	-3.787	17648	15143	0	524
-8.475	-5.734	17442	14835	0	524
-5.193	-1.587	17148	14386	0	524
1.406	7.285	16884	13990	0	524
7.321	12.658	16707	13796	0	524
13.018	15.867	16531	13752	0	524
16.552	13.018	16326	13717	0	524
15.074	9.376	16090	13638	0	524
12.946	6.527	15914	13629	0	524
10.530	6.383	15796	13770	0	524
5.878	6.275	15737	14034	0	524
3.137	6.094	15649	14307	0	524
1.659	3.426	15590	14501	0	524
0.072	0.000	15473	14659	0	524
-2.849	-5.085	15443	14870	0	524
-5.121	-6.022	15414	15126	0	524
-6.022	-5.554	15355	15319	0	524
-5.121	-1.695	15179	15372	0	524
-3.534	4.868	15120	15434	0	524
-0.577	7.789	15120	15610	0	524
0.252	7.285	15120	15918	0	524
-0.397	2.813	15179	16261	0	524
-2.741	-3.642	15179	16524	0	524
-5.626	-7.898	15296	16709	0	524
-8.078	-11.468	15296	16912	0	524
-9.701	-12.045	15414	17158	0	524
-8.799	-9.376	15502	17422	0	524
-7.068	-6.527	15767	17730	0	524
-5.013	-4.652	15914	18074	0	524
-3.895	-4.147	16032	18294	0	524
-3.967	-3.137	16090	18294	0	524
-3.101	-3.065	16149	18118	0	524
-2.488	-1.262	16090	17898	0	524
-0.938	2.056	16090	17704	0	524
1.046	3.210	16002	17466	0	524
1.731	3.570	15796	17061	0	524
0.000	1.406	15561	16516	0	524
-0.288	1.370	15355	16015	0	524
1.262	0.325	15149	15715	0	524
2.164	2.056	15061	15654	0	524
4.652	4.255	15032	15663	0	524
8.114	7.140	14855	15592	0	524
11.648	10.999	14767	15513	0	524
15.903	12.802	14737	15531	0	524
17.021	11.648	14590	15557	0	524
15.326	9.629	14532	15522	0	524
8.258	4.075	14384	15460	0	524
4.436	3.390	14326	15434	0	524
6.563	9.412	14237	15495	0	524
17.634	19.365	14267	15663	0	524
25.496	25.676	14179	15812	0	524
29.246	27.263	14149	15865	0	524
26.650	21.601	14032	15865	0	524
21.637	16.084	14120	15936	0	524
18.500	16.156	14120	16129	0	524
22.250	19.185	14179	16392	0	524
26.145	21.926	14237	16604	0	524
29.174	23.657	14296	16736	0	524
31.699	23.945	14326	16876	0	524
33.790	22.899	14443	17044	0	524
35.665	24.414	14473	17176	0	524
37.793	26.830	14532	17193	0	524
37.721	26.938	14473	17123	0	524
37.685	26.650	14414	16982	0	524
34.620	25.496	14237	16709	0	524
31.302	24.306	14090	16358	0	524
28.669	21.241	13943	16041	0	524
26.433	17.634	13796	15821	0	524
19.401	14.894	13561	15619	0	524
11.973	8.150	13237	15302	0	524
3.282	-0.649	12973	14879	0	524
-4.111	-6.203	12708	14580	0	524
-5.157	-7.140	12532	14518	0	524
2.380	-3.101	12473	14659	0	524
10.855	4.291	12384	14870	0	524
18.860	9.160	12267	15038	0	524
18.283	8.366	12179	15126	0	524
12.586	2.560	12032	15143	0	524
3.029	-4.075	11826	15082	0	524
-6.599	-7.537	11590	14950	0	524
-8.727	-7.645	11355	14809	0	524
-8.330	-5.698	11296	14826	0	524
-6.094	-2.957	11179	15055	0	524
-3.967	0.072	11208	15451	0	524
1.587	2.416	11237	15900	0	524
5.481	5.770	11355	16261	0	524
12.045	9.556	11355	16516	0	524
15.687	9.556	11502	16832	0	524
12.658	6.635	11679	17281	0	524
7.104	2.560	11884	17757	0	524
2.813	0.938	12032	18056	0	524
0.685	4.580	12120	18179	0	524
4.904	10.133	12237	18259	0	524
8.366	12.658	12355	18347	0	524
9.088	12.477	12473	18417	0	524
5.950	9.701	12561	18417	0	524
0.000	6.167	12649	18373	0	524
-2.885	7.140	12679	18241	0	524
-1.334	8.186	12620	17924	0	524
1.515	10.314	12473	17484	0	524
2.993	9.160	12384	17149	0	524
0.469	6.960	12326	16947	0	524
-3.895	3.498	12208	16736	0	524
-7.429	1.695	12061	16392	0	524
-8.114	1.442	11884	16024	0	524
-7.321	2.957	11767	15804	0	524
-6.094	2.921	11767	15804	0	524
-2.056	3.570	11767	15936	0	524
1.082	5.734	11767	16032	0	524
10.278	8.402	11737	16032	0	524
14.821	10.638	11767	16068	0	524
15.146	10.602	11826	16200	0	524
13.379	7.393	11826	16305	0	524
11.396	5.698	11826	16367	0	524
12.117	7.537	11884	16436	0	524
16.985	12.117	12032	16595	0	524
20.700	17.959	12179	16859	0	524
23.765	19.257	12414	17255	0	524
22.034	19.149	12708	17722	0	524
16.589	13.920	12973	18118	0	524
13.054	10.025	13267	18417	0	524
8.366	8.186	13649	18725	0	524
3.823	6.852	14002	19104	0	524
3.750	6.780	14443	19464	0	524
2.993	6.780	14737	19685	0	524
2.416	5.301	15120	19755	0	524
2.092	4.400	15414	19773	0	524
2.128	2.993	15737	19790	0	524
3.137	1.587	16032	19773	0	524
3.462	1.983	16296	19649	0	524
4.904	4.003	16442	19420	0	524
7.321	7.176	16678	19148	0	524
9.917	11.432	16825	18866	1	660
9.520	13.668	17001	18593	0	660
12.081	12.982	17178	18311	0	660
11.071	13.054	17266	18056	0	660
9.881	12.153	17413	17783	0	660
10.819	13.307	17413	17369	0	660
11.973	14.353	17442	16876	0	660
12.081	14.317	17442	16551	0	660
13.884	16.156	17619	16454	0	660
14.966	17.274	17736	16410	0	660
18.860	22.178	17736	16288	0	660
18.969	25.171	17795	16024	0	660
19.942	24.450	17766	15733	0	660
16.192	21.709	17736	15504	0	660
15.795	15.759	17736	15284	0	660
15.182	13.451	17619	14994	0	660
15.038	13.091	17472	14642	0	660
15.723	14.749	17295	14307	0	660
11.468	14.677	17207	14096	0	660
7.032	8.763	17148	14069	0	660
3.642	3.570	17119	14166	0	660
-0.252	-2.344	17031	14245	0	660
-3.282	-5.337	16972	14237	0	660
-6.275	-5.986	16913	14219	0	660
-6.635	-4.255	16766	14184	0	660
-6.816	-3.029	16472	13990	0	660
-5.193	-3.859	16149	13515	0	660
-6.599	-3.390	15590	12855	0	660
-8.979	-7.032	15120	12212	0	660
-15.146	-10.566	14590	11816	0	660
-20.050	-15.543	14237	11693	0	660
-23.332	-16.733	13855	11745	0	660
-21.313	-18.572	13679	11913	0	660
-17.598	-16.192	13414	12203	0	660
-11.864	-15.543	13149	12529	0	660
-9.917	-13.848	12973	12793	0	660
-11.937	-15.435	12767	13013	0	660
-14.713	-17.021	12561	13339	0	660
-18.283	-16.733	12473	13788	0	660
-17.959	-19.221	12355	14237	0	660
-20.375	-20.447	12267	14598	0	660
-19.906	-20.988	12208	14976	0	660
-23.152	-25.063	12237	15469	0	660
-22.178	-25.243	12326	16041	0	660
-21.926	-26.361	12384	16577	0	660
-24.847	-28.633	12473	16991	0	660
-25.856	-29.751	12532	17343	0	660
-27.443	-30.725	12649	17739	0	660
-27.912	-29.030	12796	18135	0	660
-23.296	-24.017	12855	18426	0	660
-19.077	-22.286	13002	18567	0	660
-18.897	-20.231	13090	18646	0	660
-20.519	-22.142	13237	18760	0	660
-21.998	-25.099	13384	19007	0	660
-26.145	-23.152	13649	19306	0	660
-23.837	-18.860	13826	19456	0	660
-20.772	-13.127	13943	19447	0	660
-17.815	-8.511	14149	19447	0	660
-14.245	-6.744	14326	19491	0	660
-13.956	-9.592	14561	19526	0	660
-16.120	-13.415	14679	19456	0	660
-13.668	-12.802	14826	19297	0	660
-12.730	-9.809	14884	19095	0	660
-11.287	-9.052	14914	18804	0	660
-11.287	-10.278	14914	18399	0	660
-18.139	-16.589	14826	17942	0	660
-23.476	-25.207	14767	17537	0	660
-26.686	-26.902	14708	17105	0	660
-22.827	-22.647	14443	16542	0	660
-13.884	-16.589	14179	15909	0	660
-8.042	-11.937	13943	15363	0	660
-7.032	-12.009	13796	15002	0	660
-9.484	-15.759	13561	14774	0	660
-15.254	-18.680	13355	14571	0	660
-11.396	-15.759	13149	14333	0	660
-3.787	-8.186	12973	14157	0	660
3.823	0.000	12855	14149	0	660
6.960	4.039	12796	14307	0	660
3.498	4.111	12679	14457	0	660
-0.036	-0.902	12561	14509	0	660
-3.498	-4.760	12502	14598	0	660
-1.839	-5.986	12532	14818	0	660
1.406	-3.642	12561	15170	0	660
3.895	0.793	12679	15575	0	660
7.753	6.239	12708	15909	0	660
8.258	7.501	12796	16138	0	660
8.439	8.583	12855	16340	0	660
3.967	2.524	12973	16630	0	660
-1.839	-3.931	13090	16956	0	660
-4.400	-6.275	13237	17149	0	660
-3.642	-4.147	13267	17220	0	660
-0.361	0.829	13384	17308	0	660
2.344	7.429	13443	17449	0	660
3.570	10.530	13590	17581	0	660
1.623	9.845	13679	17651	0	660
1.190	6.239	13708	17634	0	660
0.577	3.750	13708	17510	0	660
2.272	2.705	13590	17185	0	660
4.688	4.400	13384	16683	0	660
6.960	7.537	13237	16235	0	660
7.176	11.215	13061	15900	0	660
10.061	15.435	12826	15592	0	660
9.953	17.887	12502	15170	0	660
8.475	19.437	12179	14694	0	660
10.422	19.546	11914	14386	0	660
10.819	18.933	11767	14369	0	660
8.619	16.156	11737	14562	0	660
7.176	11.287	11649	14791	0	660
6.563	11.035	11590	14941	0	660
4.760	7.789	11502	15064	0	660
3.426	7.248	11502	15205	0	660
4.580	7.357	11443	15381	0	660
2.308	7.393	11355	15548	0	660
0.685	5.554	11326	15636	0	660
-1.298	4.977	11237	15724	0	660
-0.397	6.058	11355	15909	0	660
1.551	7.862	11384	16244	0	660
3.931	10.169	11502	16630	0	660
5.013	9.520	11620	16920	0	660
5.373	7.032	11679	17123	0	660
1.298	2.128	11796	17325	0	660
1.046	-1.190	12032	17589	0	660
0.216	0.577	12179	17871	0	660
1.334	2.849	12267	18038	0	660
3.570	6.167	12414	18100	0	660
4.724	8.547	12561	18162	0	660
7.393	8.619	12708	18294	0	660
8.583	8.042	12914	18452	0	660
8.439	4.688	13090	18549	0	660
6.635	1.118	13267	18567	0	660
2.236	-2.056	13355	18523	0	660
-1.370	-4.436	13384	18303	0	660
-3.570	-3.642	13384	17942	0	660
-4.255	-2.200	13355	17651	0	660
-6.275	-2.308	13443	17475	0	660
-5.517	-4.904	13414	17299	0	660
-7.357	-8.979	13355	16973	0	660
-9.160	-16.336	13149	16533	0	660
-13.379	-23.945	13090	16129	0	660
-18.572	-30.220	12943	15821	0	660
-19.906	-30.256	12767	15539	0	660
-20.808	-25.604	12532	15161	0	660
-17.779	-21.493	12267	14782	0	660
-17.490	-18.031	12179	14606	0	660
-19.546	-19.798	12061	14624	0	660
-21.204	-24.775	11973	14642	0	660
-20.952	-23.693	11826	14589	0	660
-15.615	-20.916	11737	14589	0	660
-10.855	-15.759	11737	14782	0	660
-7.898	-13.992	11826	15170	0	660
-7.212	-11.648	12032	15698	0	660
-7.032	-12.550	12267	16288	0	660
-6.563	-12.261	12532	16806	0	660
-5.121	-10.999	12767	17273	0	660
-5.409	-12.261	13090	17748	0	660
-6.960	-12.694	13502	18267	0	660
-8.619	-14.641	13826	18778	0	660
-10.927	-14.749	14237	19192	0	660
-12.874	-14.641	14561	19464	0	660
-13.776	-18.031	14914	19658	0	660
-18.067	-19.690	15208	19790	0	660
-18.752	-23.549	15561	19825	0	660
-21.962	-23.873	15737	19720	0	660
-21.204	-22.935	15943	19517	0	660
-21.637	-21.313	16090	19288	0	660
-17.562	-17.238	16237	18998	0	660
-14.749	-14.930	16384	18681	1	664
-9.520	-11.756	16589	18540	0	664
-10.963	-10.855	16884	18575	0	664
-12.622	-13.054	17001	18479	0	664
-13.018	-14.064	17001	18038	0	664
-13.091	-16.589	16972	17396	0	664
-9.556	-14.569	16736	16692	0	664
-5.409	-13.740	16442	15874	0	664
-5.193	-13.487	16032	14862	0	664
-2.272	-9.232	15502	13849	0	664
0.685	-5.337	15032	12987	0	664
2.596	-1.442	14590	12335	0	664
3.390	-0.288	14179	11957	0	664
0.180	-2.849	13943	11816	0	664
-1.154	-5.409	13679	11816	0	664
0.865	-0.938	13443	11877	0	664
7.212	4.219	13237	12036	0	664
9.773	8.114	13149	12335	0	664
7.068	6.311	13120	12811	0	664
1.695	-0.072	13120	13400	0	664
-2.921	-2.488	13208	13964	0	664
-2.741	-1.551	13237	14430	0	664
3.678	4.400	13296	14862	0	664
9.881	11.107	13384	15372	0	664
14.100	14.533	13561	15918	0	664
12.477	12.514	13679	16349	0	664
6.996	9.592	13679	16595	0	664
1.659	5.517	13737	16736	0	664
-3.714	2.200	13826	16859	0	664
-2.560	6.419	13796	16982	0	664
3.173	11.756	13826	17044	0	664
9.629	18.175	13737	17026	0	664
14.533	21.385	13708	16912	0	664
13.740	23.404	13502	16612	0	664
14.317	24.053	13208	16191	0	664
15.074	24.955	13061	15856	0	664
17.382	26.506	12826	15671	0	664
18.608	25.532	12649	15539	0	664
16.300	21.565	12473	15407	0	664
11.973	17.815	12326	15337	0	664
7.537	15.651	12208	15346	0	664
9.917	17.598	12179	15478	0	664
14.785	20.880	12120	15698	0	664
15.651	22.106	12090	15900	0	664
15.651	21.204	12061	15997	0	664
13.740	17.995	12032	16085	0	664
12.189	18.139	12032	16217	0	664
19.546	20.555	12032	16392	0	664
24.775	26.650	12061	16612	0	664
29.427	29.679	12120	16832	0	664
28.669	29.174	12237	17079	0	664
23.765	23.585	12414	17396	0	664
16.661	17.454	12649	17783	0	664
13.920	10.206	12855	18162	0	664
9.629	8.042	13061	18391	0	664
9.773	6.419	13149	18417	0	664
8.258	5.445	13208	18329	0	664
7.032	4.616	13267	18214	0	664
4.832	2.849	13355	18109	0	664
2.849	2.452	13355	17977	0	664
-0.180	2.128	13414	17827	0	664
-1.767	1.479	13443	17704	0	664
-1.082	2.272	13414	17484	0	664
1.875	2.633	13237	17105	0	664
6.599	5.337	13149	16665	0	664
11.504	7.176	12943	16252	0	664
11.937	5.986	12708	15830	0	664
6.671	0.865	12414	15311	0	664
-0.974	-3.787	12061	14765	0	664
-5.193	-5.229	11796	14360	0	664
-3.570	3.137	11532	14149	0	664
3.859	10.674	11355	14069	0	664
9.196	20.267	11149	14017	0	664
11.504	19.582	10884	13911	0	664
7.573	15.579	10649	13840	0	664
-1.298	7.753	10502	13876	0	664
-7.140	1.911	10326	13999	0	664
-9.520	0.793	10208	14140	0	664
-7.862	3.498	10032	14281	0	664
-2.777	8.655	10002	14501	0	664
2.308	12.946	9973	14853	0	664
2.344	12.045	10061	15311	0	664
-1.190	6.167	10120	15821	0	664
-3.678	2.344	10267	16252	0	664
-2.416	2.200	10267	16560	0	664
2.488	7.032	10326	16744	0	664
6.635	12.189	10296	16832	0	664
5.121	9.773	10296	16894	0	664
0.433	3.462	10414	17053	0	664
-8.042	-4.400	10443	17299	0	664
-10.855	-8.150	10590	17501	0	664
-10.386	-6.167	10620	17695	0	664
-6.599	-1.623	10767	17898	0	664
-2.524	3.426	10914	18030	0	664
-1.010	4.364	10943	18082	0	664
-3.137	2.488	11032	18038	0	664
-8.186	-2.128	11002	17818	0	664
-16.120	-9.268	10796	17431	0	664
-25.099	-11.828	10708	17035	0	664
-27.840	-13.307	10620	16736	0	664
-28.958	-8.907	10414	16498	0	664
-24.919	-5.517	10208	16191	0	664
-20.736	-2.272	10002	15812	0	664
-16.805	-0.974	9855	15539	0	664
-18.103	-0.685	9767	15531	0	664
-18.644	-3.282	9855	15707	0	664
-22.250	-5.950	9826	15918	0	664
-24.991	-11.143	9855	16050	0	664
-29.715	-17.562	9884	16191	0	664
-33.574	-21.637	9973	16410	0	664
-36.711	-24.666	10179	16762	0	664
-37.144	-24.955	10326	17158	0	664
-34.547	-20.411	10502	17475	0	664
-29.354	-17.274	10767	17748	0	664
-27.696	-16.913	11032	18056	0	664
-32.925	-17.851	11355	18470	0	664
-38.190	-25.352	11767	18936	0	664
-45.691	-28.814	12120	19332	0	664
-43.996	-29.246	12473	19588	0	664
-37.829	-26.866	12826	19737	0	664
-31.374	-23.909	13149	19896	0	664
-29.607	-23.549	13561	20063	0	664
-30.653	-27.083	13826	20081	0	664
-32.853	-28.237	14149	19940	0	664
-31.735	-26.361	14384	19773	0	664
-26.578	-20.123	14679	19649	0	664
-18.211	-14.136	14884	19517	0	664
-13.631	-8.186	15120	19315	1	508
-10.783	-8.655	15326	19033	0	508
-11.179	-9.196	15414	18663	0	508
-13.920	-11.576	15355	18100	0	508
-12.514	-9.953	15267	17352	0	508
-9.989	-6.671	15179	16639	0	508
-4.508	-2.380	15032	16129	0	508
-1.983	0.577	14973	15724	0	508
-4.255	-0.829	14826	15249	0	508
-7.032	-4.904	14532	14659	0	508
-10.927	-8.366	14326	14140	0	508
-11.071	-8.619	14149	13840	0	508
-10.855	-7.825	14090	13735	0	508
-9.665	-5.590	13884	13620	0	508
-11.143	-7.357	13708	13392	0	508
-13.992	-10.855	13561	13277	0	508
-14.533	-13.199	13384	13330	0	508
-18.392	-15.723	13267	13348	0	508
-17.382	-13.595	13002	13189	0	508
-18.788	-10.927	12767	12987	0	508
-15.290	-8.114	12532	12916	0	508
-14.172	-3.895	12384	13066	0	508
-12.946	-3.282	12355	13436	0	508
-11.828	-4.364	12355	13893	0	508
-13.415	-7.248	12355	14272	0	508
-12.081	-10.242	12355	14589	0	508
-9.376	-11.684	12384	14950	0	508
-7.609	-9.953	12502	15399	0	508
-6.203	-7.645	12620	15883	0	508
-7.032	-6.455	12708	16270	0	508
-8.294	-6.311	12796	16551	0	508
-8.150	-5.554	12914	16815	0	508
-8.114	-6.491	13061	17070	0	508
-7.789	-5.662	13120	17273	0	508
-4.940	-4.147	13208	17422	0	508
-4.688	-5.193	13296	17528	0	508
-3.642	-6.058	13296	17510	0	508
-3.282	-6.816	13149	17229	0	508
-5.950	-8.294	12914	16771	0	508
-9.556	-8.294	12796	16401	0	508
-12.622	-9.160	12649	16200	0	508
-13.704	-11.540	12502	16032	0	508
-15.507	-10.891	12237	15733	0	508
-14.136	-11.828	11973	15372	0	508
-13.956	-10.458	11884	15231	0	508
-14.533	-7.285	11914	15451	0	508
-15.435	-10.927	11973	15821	0	508
-20.195	-14.425	12032	16112	0	508
-21.709	-17.959	12032	16235	0	508
-21.168	-20.267	12061	16314	0	508
-17.202	-15.759	12090	16454	0	508
-11.973	-10.638	12179	16674	0	508
-8.835	-7.068	12237	16876	0	508
-11.035	-4.183	12267	16982	0	508
-12.982	-5.445	12326	17026	0	508
-12.910	-5.878	12355	17105	0	508
-10.097	-4.436	12532	17290	0	508
-4.977	-4.832	12649	17484	0	508
1.406	-4.364	12679	17572	0	508
3.498	-4.291	12767	17554	0	508
3.678	-4.183	12855	17537	0	508
1.515	-3.101	12943	17554	0	508
-2.128	-2.705	12973	17554	0	508
-4.760	-3.462	12973	17475	0	508
-2.813	-3.246	13061	17317	0	508
0.974	-3.714	13002	17149	0	508
4.003	-2.488	13002	17000	0	508
4.544	-2.056	12973	16859	0	508
2.128	-2.344	12914	16683	0	508
-2.308	-5.590	12826	16428	0	508
-5.229	-7.862	12649	16103	0	508
-5.049	-9.484	12473	15715	0	508
-3.462	-7.501	12326	15443	0	508
0.180	-2.741	12355	15495	0	508
1.479	3.173	12473	15830	0	508
3.137	7.068	12532	16138	0	508
3.859	6.635	12532	16200	0	508
4.291	7.609	12502	16103	0	508
6.058	6.131	12384	15980	0	508
7.068	5.662	12326	15839	0	508
4.688	6.563	12208	15698	0	508
4.688	4.652	12090	15601	0	508
5.481	5.193	11973	15495	0	508
10.458	8.691	11914	15416	0	508
15.579	14.785	11884	15451	0	508
21.781	19.906	11884	15601	0	508
20.483	20.014	11826	15759	0	508
18.572	18.067	11796	15839	0	508
13.451	11.828	11796	15883	0	508
12.297	7.717	11884	16024	0	508
10.927	5.265	11973	16314	0	508
12.117	6.635	12120	16665	0	508
15.074	10.133	12237	16929	0	508
15.759	13.523	12326	17070	0	508
18.572	19.041	12414	17185	0	508
16.625	17.310	12532	17325	0	508
15.831	16.589	12649	17449	0	508
11.937	11.396	12679	17475	0	508
11.215	11.612	12708	17405	0	508
14.172	13.559	12767	17273	0	508
16.733	16.516	12767	17141	0	508
22.286	21.745	12679	16991	0	508
20.447	20.519	12649	16797	0	508
17.995	19.329	12532	16586	0	508
12.658	13.631	12473	16349	0	508
10.999	12.081	12237	15962	0	508
12.261	11.612	11973	15487	0	508
18.500	13.884	11679	15002	0	508
24.847	17.598	11208	14421	0	508
28.273	17.851	10767	13779	0	508
29.535	18.824	10296	13224	0	508
26.361	16.841	9767	12784	0	508
23.837	17.490	9384	12476	0	508
25.784	18.716	9090	12388	0	508
26.974	21.709	8708	12485	0	508
33.574	25.820	8532	12679	0	508
36.206	29.102	8296	12907	0	508
35.629	30.220	8090	13189	0	508
30.581	29.535	8002	13585	0	508
26.109	28.741	8002	14131	0	508
25.820	30.436	8061	14774	0	508
30.653	32.889	8090	15363	0	508
35.341	36.278	8208	15900	0	508
38.190	36.603	8384	16498	0	508
34.583	33.754	8649	17220	0	508
27.768	27.804	9002	18021	0	508
24.739	24.486	9267	18707	0	508
25.207	22.395	9473	19042	0	508
28.669	21.096	9561	19033	0	508
25.820	19.978	9679	19042	0	508
23.404	19.690	9914	19244	0	508
21.060	18.103	10149	19491	0	508
19.690	22.322	10443	19711	0	508
25.424	26.578	10708	19913	0	508
29.282	29.427	11032	20107	0	508
29.138	26.433	11326	20266	0	508
21.926	20.916	11620	20354	0	508
18.428	14.353	11914	20389	0	508
15.146	14.749	12179	20318	0	508
15.038	14.930	12267	20019	0	508
14.749	15.975	12326	19526	0	508
14.497	15.579	12384	19077	0	508
11.540	11.684	12532	18778	1	568
13.992	13.271	12679	18646	0	568
17.923	14.930	12855	18575	0	568
22.647	18.283	13002	18408	0	568
21.168	16.408	13208	18197	0	568
16.661	11.792	13355	18047	0	568
8.763	5.193	13561	17959	0	568
4.255	1.767	13649	17836	0	568
1.875	3.354	13796	17616	0	568
3.642	6.239	13884	17422	0	568
8.114	10.025	14120	17325	0	568
10.169	11.504	14179	17211	0	568
12.225	12.982	14267	16956	0	568
11.576	11.432	14237	16621	0	568
10.855	11.215	14296	16340	0	568
4.724	6.924	14296	16164	0	568
-1.226	-1.334	14443	16112	0	568
-6.888	-6.527	14532	16120	0	568
-7.285	-7.285	14590	16050	0	568
-4.436	-2.777	14590	15909	0	568
3.065	4.075	14679	15821	0	568
8.078	7.934	14737	15830	0	568
5.662	4.003	14855	15909	0	568
0.397	-6.239	14973	15944	0	568
-5.481	-12.045	14973	15874	0	568
-8.006	-17.093	14914	15715	0	568
-8.294	-13.704	14826	15363	0	568
-2.560	-6.131	14561	14853	0	568
2.885	1.767	14384	14421	0	568
8.655	7.321	14120	14184	0	568
8.583	7.429	14002	13999	0	568
1.911	0.829	13708	13761	0	568
-5.337	-5.590	13414	13480	0	568
-9.809	-9.052	13237	13312	0	568
-8.547	-8.330	13090	13339	0	568
-3.570	-3.065	12973	13506	0	568
-1.695	-0.865	12796	13700	0	568
-5.662	-3.173	12708	13840	0	568
-13.307	-9.052	12620	13955	0	568
-16.877	-11.756	12502	14105	0	568
-18.283	-14.317	12414	14333	0	568
-14.533	-13.127	12355	14580	0	568
-13.740	-12.550	12326	14791	0	568
-13.595	-13.668	12267	15029	0	568
-14.821	-15.687	12355	15390	0	568
-16.661	-18.464	12473	15856	0	568
-16.120	-17.382	12620	16340	0	568
-17.093	-17.923	12708	16709	0	568
-16.228	-16.444	12826	17000	0	568
-19.041	-15.543	12973	17334	0	568
-19.870	-16.733	13267	17774	0	568
-21.241	-16.877	13502	18223	0	568
-19.654	-16.949	13737	18558	0	568
-15.435	-10.602	13943	18778	0	568
-10.783	-4.904	14179	18928	0	568
-3.354	2.921	14384	19033	0	568
-0.577	6.131	14590	19086	0	568
-1.298	4.291	14708	19042	0	568
-6.924	-1.731	14826	18901	0	568
-10.783	-5.049	14884	18646	0	568
-13.127	-6.058	14737	18170	0	568
-12.189	-2.416	14590	17510	0	568
-6.383	1.515	14384	16912	0	568
-3.426	4.508	14296	16498	0	568
-0.721	4.544	14120	16182	0	568
-1.442	2.885	13943	15786	0	568
-0.108	-0.757	13649	15284	0	568
-1.010	-1.010	13443	14853	0	568
4.544	2.993	13208	14545	0	568
6.383	9.124	12914	14272	0	568
6.888	14.677	12620	13973	0	568
1.803	14.425	12326	13700	0	568
-0.865	10.386	12179	13594	0	568
0.469	6.671	11973	13708	0	568
8.150	9.448	11943	13990	0	568
17.995	17.526	11914	14342	0	568
23.512	26.145	11914	14668	0	568
22.863	30.761	11796	14888	0	568
17.310	27.335	11620	14818	0	568
15.615	21.132	11355	14598	0	568
13.091	16.084	11208	14554	0	568
15.290	15.326	11149	14721	0	568
17.454	18.139	11002	14950	0	568
16.913	18.824	11032	15249	0	568
14.245	17.743	11149	15645	0	568
8.835	13.343	11149	16059	0	568
8.943	11.323	11208	16376	0	568
12.369	11.287	11237	16612	0	568
13.848	13.343	11326	16868	0	568
13.812	11.540	11443	17132	0	568
6.708	6.744	11502	17361	0	568
-2.236	4.147	11620	17537	0	568
-1.983	4.832	11679	17678	0	568
1.803	11.107	11679	17739	0	568
9.016	17.995	11620	17589	0	568
12.874	20.988	11620	17343	0	568
12.477	19.005	11649	17334	0	568
11.323	16.589	11767	17563	0	568
8.871	14.100	11826	17704	0	568
10.999	15.038	11884	17651	0	568
14.389	19.510	11826	17475	0	568
16.336	19.510	11767	17255	0	568
19.221	17.743	11737	17079	0	568
16.516	12.405	11679	16947	0	568
14.389	7.537	11679	16806	0	568
9.809	4.724	11590	16630	0	568
6.419	1.298	11532	16533	0	568
3.282	0.000	11590	16551	0	568
-1.154	-2.452	11620	16621	0	568
-3.426	-3.173	11590	16621	0	568
-2.488	-1.695	11532	16533	0	568
1.370	4.183	11590	16454	0	568
5.770	7.248	11620	16489	0	568
7.753	7.753	11737	16692	0	568
4.688	4.616	11884	16947	0	568
-2.092	-0.180	11973	17097	0	568
-9.592	-6.708	12090	17193	0	568
-12.297	-9.701	12237	17343	0	568
-8.583	-9.412	12473	17572	0	568
-0.649	-4.183	12649	17766	0	568
7.032	-0.216	12796	17827	0	568
7.465	0.000	12855	17810	0	568
0.144	-4.688	12943	17757	0	568
-9.701	-12.369	13002	17616	0	568
-18.283	-18.897	13002	17378	0	568
-19.762	-17.959	13061	17167	0	568
-19.077	-17.706	13061	17000	0	568
-14.785	-14.028	12914	16727	0	568
-15.723	-16.589	12796	16314	0	568
-15.867	-17.418	12649	15865	0	568
-19.546	-21.962	12502	15592	0	568
-21.349	-23.224	12502	15539	0	568
-24.270	-23.549	12532	15654	0	568
-24.053	-23.837	12532	15768	0	568
-22.539	-20.159	12532	15768	0	568
-19.834	-19.906	12532	15742	0	568
-12.658	-18.969	12561	15865	0	568
-7.645	-19.077	12767	16147	0	568
-3.210	-19.293	12855	16445	0	568
0.216	-18.428	13061	16674	0	568
1.406	-18.716	13208	16894	0	568
1.082	-16.192	13502	17202	0	568
3.787	-14.569	13737	17607	0	568
6.671	-9.809	14090	18012	0	568
7.104	-4.652	14326	18276	0	568
6.491	-1.695	14620	18443	0	568
4.075	0.325	14855	18593	0	568
2.092	1.839	15179	18804	0	568
4.796	4.508	15561	18998	0	568
9.304	8.655	15796	19095	0	568
13.235	11.504	16061	19086	0	568
13.920	10.386	16355	19042	0	568
10.458	8.727	16589	19007	0	568
7.321	6.852	16825	18928	0	568
2.596	5.662	16884	18655	1	616
2.524	5.662	16736	18012	0	616
2.921	6.744	16472	17017	0	616
4.219	7.140	16237	16015	0	616
7.862	8.114	15943	15293	0	616
7.609	9.376	15708	14765	0	616
6.203	8.907	15355	14237	0	616
4.832	8.511	15120	13735	0	616
5.626	8.727	14914	13400	0	616
8.943	11.323	14679	13286	0	616
12.333	16.012	14590	13295	0	616
14.533	20.591	14532	13471	0	616
16.264	21.457	14561	13823	0	616
12.261	19.906	14620	14193	0	616
10.963	19.149	14561	14404	0	616
9.304	14.641	14561	14554	0	616
7.357	13.379	14561	14782	0	616
5.157	12.297	14679	15108	0	616
3.462	8.042	14708	15434	0	616
0.469	4.291	14767	15707	0	616
-2.993	1.731	14914	15971	0	616
-3.282	1.839	15032	16323	0	616
-2.236	4.147	15296	16780	0	616
1.154	7.321	15561	17237	0	616
1.803	6.347	15708	17528	0	616
1.334	4.039	15737	17537	0	616
0.541	0.288	15561	17149	0	616
-1.082	-2.993	15296	16507	0	616
0.757	-2.885	15149	16032	0	616
0.829	-1.659	15032	15900	0	616
5.121	1.659	15032	15953	0	616
6.996	5.662	15032	16024	0	616
8.294	8.763	15002	16041	0	616
8.114	8.114	15032	16094	0	616
-4.796	-7.825	14973	17827	0	616
-8.078	-9.629	15032	17871	0	616
-14.064	-12.081	15061	17810	0	616
-17.418	-16.372	15120	17695	0	616
-21.565	-17.923	15002	17493	0	616
-20.555	-20.267	14914	17202	0	616
-20.339	-18.969	14855	16912	0	616
-18.680	-17.959	14708	16656	0	616
-16.120	-12.225	14561	16401	0	616
-11.900	-6.599	14326	15988	0	616
-7.681	-2.596	13973	15416	0	616
-9.052	-3.823	13737	14950	0	616
-13.740	-9.376	13532	14738	0	616
-18.103	-12.009	13384	14738	0	616
-17.202	-7.717	13237	14800	0	616
-6.383	2.056	13120	14844	0	616
0.000	10.206	13090	14950	0	616
-2.308	6.635	13090	15170	0	616
-17.851	-9.484	13090	15504	0	616
-34.692	-25.388	13237	15892	0	616
-40.353	-33.321	13267	16200	0	616
-33.574	-28.092	13414	16480	0	616
-15.903	-14.858	13561	16876	0	616
-5.950	-1.118	13855	17343	0	616
-3.967	5.770	14002	17713	0	616
-8.258	5.770	14120	17880	0	616
-11.179	-0.180	14296	17968	0	616
-12.045	-4.724	14443	18118	0	616
-7.753	-7.393	14708	18391	0	616
-2.452	-6.708	15032	18707	0	616
-2.741	-4.147	15208	18928	0	616
-3.101	-2.164	15473	19051	0	616
-3.534	0.325	15737	19165	0	616
-0.793	2.416	16061	19324	0	616
4.760	8.042	16355	19464	0	616
10.025	10.819	16589	19509	0	616
9.845	10.494	16854	19456	0	616
7.248	8.511	17031	19288	0	616
3.787	8.114	17060	18919	0	616
5.301	10.278	17119	18426	0	616
9.052	12.982	17148	18003	1	544
12.153	14.677	17119	17660	0	544
12.297	11.540	17148	17317	0	544
10.999	6.347	17119	16938	0	544
8.222	2.957	17060	16586	0	544
5.337	0.685	17060	16323	0	544
2.164	-0.288	17060	16156	0	544
-0.902	-1.695	17119	16076	0	544
2.380	0.361	17178	15997	0	544
9.304	3.282	17119	15812	0	544
18.464	7.248	17060	15575	0	544
24.558	13.992	17001	15346	0	544
22.683	14.605	16854	15108	0	544
17.743	14.172	16766	14897	0	544
9.809	11.468	16678	14782	0	544
5.950	7.501	16678	14765	0	544
7.717	8.619	16678	14862	0	544
13.487	12.514	16766	15108	0	544
18.860	19.185	16854	15399	0	544
25.532	26.037	16972	15636	0	544
28.922	30.617	17060	15856	0	544
30.400	32.167	17207	16120	0	544
31.771	33.610	17413	16445	0	544
30.472	34.043	17648	16788	0	544
25.893	33.213	17795	17017	0	544
21.313	28.633	17884	17097	0	544
16.480	26.217	18060	17132	0	544
17.093	22.863	18178	17202	0	544
16.589	19.582	18325	17281	0	544
16.697	16.697	18384	17273	0	544
10.458	9.448	18442	17176	0	544
2.236	0.216	18501	17053	0	544
-6.311	-4.796	18472	16903	0	544
-8.294	-6.022	18589	16797	0	544
-6.383	-3.462	18678	16903	0	544
-1.442	0.072	18825	17088	0	544
1.262	1.190	18884	17017	0	544
1.298	1.118	18678	16621	0	544
0.505	-0.505	18589	16147	0	544
-0.072	-0.829	18442	15768	0	544
-0.721	-0.974	18325	15504	0	544
0.144	-0.397	18060	15187	0	544
-2.056	0.938	17854	14738	0	544
-3.029	2.200	17560	14272	0	544
-1.875	1.947	17207	13981	0	544
0.974	2.416	17119	13902	0	544
5.373	2.885	17001	13964	0	544
11.035	4.183	16825	14017	0	544
15.435	9.268	16589	13946	0	544
17.634	12.514	16355	13814	0	544
16.048	12.441	16149	13717	0	544
13.523	10.278	15914	13726	0	544
10.206	7.898	15737	13805	0	544
7.970	4.327	15561	13840	0	544
6.780	3.462	15296	13840	0	544
6.455	3.137	15120	13920	0	544
4.904	1.370	14973	14131	0	544
4.111	-0.433	14884	14369	0	544
4.544	-0.793	14679	14509	0	544
6.131	1.479	14414	14457	0	544
6.419	3.210	14002	14263	0	544
8.222	7.393	13708	14052	0	544
8.366	9.592	13443	13990	0	544
6.311	9.845	13149	14096	0	544
5.914	8.042	13002	14298	0	544
6.131	8.583	12796	14501	0	544
13.343	11.937	12532	14554	0	544
21.024	17.490	12208	14457	0	544
30.545	24.739	11914	14395	0	544
35.088	27.696	11620	14421	0	544
36.675	30.833	11326	14474	0	544
36.567	33.826	11032	14457	0	544
38.947	37.036	10649	14377	0	544
39.740	37.757	10443	14404	0	544
35.629	37.036	10208	14642	0	544
30.725	31.049	10120	15020	0	544
24.414	27.227	10032	15390	0	544
19.329	24.017	9884	15654	0	544
18.031	20.087	9767	15909	0	544
17.202	18.969	9737	16244	0	544
16.048	16.589	9708	16612	0	544
14.172	18.644	9767	16964	0	544
15.038	19.401	9826	17273	0	544
13.848	18.680	9826	17581	0	544
16.156	16.336	9973	17959	0	544
17.490	15.254	10149	18417	0	544
18.752	11.648	10355	18875	0	544
14.497	10.133	10443	19112	0	544
7.140	5.193	10355	18936	0	544
1.839	0.829	10296	18523	0	544
0.469	1.803	10267	18303	0	544
5.229	5.986	10296	18329	0	544
10.494	9.629	10296	18338	0	544
11.179	8.727	10326	18294	0	544
9.340	5.085	10414	18347	0	544
8.871	1.803	10620	18523	0	544
11.071	4.327	10796	18743	0	544
13.235	7.285	11061	18963	0	544
9.881	5.590	11326	19183	0	544
-1.875	-1.731	11649	19394	0	544
-11.107	-12.910	11796	19464	0	544
-15.362	-16.336	11943	19376	0	544
-8.727	-12.297	12179	19306	0	544
0.361	-6.816	12473	19385	0	544
4.364	-4.760	12767	19570	0	544
-2.560	-10.206	13120	19702	0	544
-12.514	-19.077	13384	19693	0	544
-22.683	-25.424	13679	19632	1	428
-21.709	-24.847	13973	19632	0	428
-15.759	-17.526	14384	19720	0	428
-7.825	-13.451	14620	19764	0	428
-5.770	-10.566	14914	19641	0	428
-10.710	-12.730	15208	19429	0	428
-18.897	-19.510	15443	19271	0	428
-20.988	-25.388	15737	19139	0	428
-19.690	-23.981	15943	18945	0	428
-15.002	-23.585	16061	18602	0	428
-12.405	-22.250	16061	18021	0	428
-13.776	-21.565	15914	17167	0	428
-21.745	-26.686	15737	16314	0	428
-26.506	-29.931	15649	15804	0	428
-26.722	-30.112	15708	15592	0	428
-22.899	-26.289	15737	15469	0	428
-19.113	-22.611	15796	15451	0	428
-14.425	-19.005	16061	15627	0	428
-13.668	-16.192	16296	15909	0	428
-16.228	-17.959	16472	16156	0	428
-15.218	-17.382	16736	16358	0	428
-15.326	-18.933	17001	16568	0	428
-13.704	-19.870	17266	16780	0	428
-15.579	-22.791	17560	16964	0	428
-17.923	-23.512	17766	17149	0	428
-20.519	-25.424	18148	17361	0	428
-17.743	-24.558	18354	17510	0	428
-15.182	-22.250	18531	17449	0	428
-12.405	-20.375	18619	17229	0	428
-9.016	-21.926	18795	17053	0	428
-8.727	-18.788	18942	17026	0	428
-6.419	-16.841	19178	17070	0	428
-0.144	-10.891	19325	17061	0	428
3.137	-3.462	19472	16947	0	428
3.246	-0.144	19560	16806	0	428
1.226	-0.036	19766	16736	0	428
-3.210	-2.777	19913	16744	0	428
-6.996	-7.104	20089	16806	0	428
-11.360	-12.622	20236	16832	0	428
-20.087	-18.031	20413	16806	0	428
-23.152	-24.306	20589	16806	0	428
-27.407	-26.902	20825	16876	0	428
-24.342	-22.467	21001	16964	0	428
-17.093	-17.490	21148	16947	0	428
-9.556	-8.006	21266	16841	0	428
-4.111	-1.875	21442	16762	0	428
-2.236	0.577	21589	16762	0	428
-3.606	-0.288	21766	16806	0	428
-7.898	-4.977	21854	16762	0	428
-15.146	-12.550	22031	16639	0	428
-21.890	-18.031	22119	16516	0	428
-23.440	-22.322	22178	16463	0	428
-18.103	-18.752	22354	16480	0	428
-10.783	-12.405	22442	16480	0	428
-2.524	-4.039	22560	16376	0	428
1.010	-0.036	22501	16129	0	428
-1.659	0.325	22354	15689	0	428
-5.626	-1.911	22148	15117	0	428
-5.986	-4.364	21884	14633	0	428
-4.904	-4.508	21736	14316	0	428
-2.524	-2.633	21560	14052	0	428
-2.488	-1.875	21236	13656	0	428
-4.255	-2.308	20825	13163	0	428
-6.888	-3.426	20560	12775	0	428
-7.537	-3.931	20236	12582	0	428
-5.157	-3.606	19942	12511	0	428
-3.967	-4.436	19619	12423	0	428
-4.183	-6.203	19354	12335	0	428
-10.386	-11.071	19178	12432	0	428
-17.310	-15.110	19060	12784	0	428
-18.464	-15.146	18972	13242	0	428
-17.706	-12.297	18942	13673	0	428
-9.737	-7.970	18884	14043	0	428
-4.291	-5.013	18825	14377	0	428
-2.200	-5.373	18825	14765	0	428
-4.796	-7.285	18942	15293	0	428
-6.924	-9.701	19089	15874	0	428
-8.258	-8.511	19178	16358	0	428
-8.222	-7.285	19266	16718	0	428
-10.097	-7.068	19413	17070	1	316
-10.530	-9.268	19560	17449	0	316
-11.287	-10.350	19707	17801	0	316
-11.576	-10.422	19854	18012	0	316
-8.186	-8.979	19913	18091	0	316
-7.429	-6.383	20001	18126	0	316
-7.645	-8.006	20148	18188	0	316
-11.468	-11.107	20207	18232	0	316
-16.372	-17.129	20266	18223	0	316
-17.274	-19.582	20295	18170	0	316
-16.841	-18.175	20295	18047	0	316
-11.792	-14.028	20207	17713	0	316
-5.409	-8.439	20001	17176	0	316
-1.587	-4.003	19795	16621	0	316
-1.695	-3.498	19472	16103	0	316
-1.695	-4.832	19207	15548	0	316
-0.144	-4.724	18736	14932	0	316
-0.036	-2.741	18354	14351	0	316
1.370	2.380	18001	13973	0	316
3.173	3.931	17795	13849	0	316
4.616	7.934	17648	13946	0	316
10.133	8.871	17413	14078	0	316
13.487	10.242	17295	14157	0	316
11.828	10.602	17178	14307	0	316
4.544	7.465	17148	14598	0	316
0.685	5.373	17148	14923	0	316
-1.226	8.619	17060	15231	0	316
6.094	14.605	17031	15513	0	316
17.021	21.854	17119	15786	0	316
23.873	25.965	17178	16129	0	316
27.515	28.273	17325	16577	0	316
28.705	26.181	17472	17088	0	316
28.669	26.001	17648	17493	0	316
26.722	24.666	17795	17757	0	316
27.191	22.358	17913	17959	0	316
26.686	17.454	18089	18126	0	316
25.965	16.589	18178	18206	0	316
26.181	14.930	18148	18109	0	316
27.047	16.913	18089	17889	0	316
28.020	17.310	18031	17669	0	316
29.968	21.385	18060	17510	0	316
30.112	21.818	18001	17334	0	316
32.059	23.332	17854	17079	0	316
32.203	22.431	17766	16797	0	316
35.341	24.883	17707	16577	0	316
36.891	26.938	17589	16428	0	316
35.124	25.568	17501	16305	0	316
31.662	21.998	17442	16164	0	316
27.696	19.834	17295	16015	0	316
