neuroNicle FX2
D3F25R12
Bluetooth SPP
2023년 3월 29일 수요일
오후 1:18
time interval = 4msec
EEG1	EEG2	PPG	sdPPG	pulse	peak_interval(msec)
34.980	24.558	9369	15589	0	520
38.370	30.328	9138	15089	0	520
39.308	29.823	8923	14819	0	520
34.187	24.270	8738	14696	0	520
31.626	20.808	8600	14704	0	520
29.030	17.238	8523	14917	0	520
26.722	17.382	8431	15278	0	520
20.087	13.523	8415	15622	0	520
17.129	6.167	8384	15934	0	520
18.320	4.616	8338	16253	0	520
26.506	7.789	8338	16539	0	520
34.656	13.704	8338	16802	0	520
33.790	14.425	8308	17047	0	520
24.702	8.943	8369	17326	0	520
12.081	-3.859	8369	17588	0	520
7.934	-7.501	8308	17695	0	520
11.720	-2.560	8338	17679	0	520
22.647	5.950	8354	17777	0	520
24.089	8.511	8415	18080	0	520
14.894	1.010	8523	18433	0	520
1.623	-12.045	8615	18711	0	520
-11.828	-23.729	8692	18924	0	520
-15.146	-28.092	8846	19187	0	520
-11.973	-27.119	8984	19465	0	520
-13.018	-28.345	9138	19703	0	520
-18.392	-40.101	9292	19933	0	520
-33.393	-57.843	9538	20236	0	520
-53.552	-77.461	9800	20654	0	520
-73.314	-93.689	10077	21154	0	520
-90.299	-106.347	10431	21605	0	520
-101.370	-110.746	10723	21924	0	520
-103.931	-113.091	11031	22138	0	520
-95.384	-111.107	11338	22277	0	520
-83.556	-107.248	11661	22408	0	520
-73.675	-103.642	12000	22580	0	520
-72.016	-103.534	12354	22744	0	520
-76.668	-105.013	12677	22777	0	520
-82.510	-107.789	13031	22679	0	520
-90.371	-108.799	13338	22547	0	520
-89.578	-109.124	13661	22433	0	520
-88.063	-105.554	14000	22277	0	520
-82.510	-102.200	14261	21990	1	632
-75.730	-97.764	14492	21580	0	632
-73.927	-99.207	14754	21154	0	632
-83.195	-106.960	15000	20785	0	632
-95.492	-121.168	15231	20433	0	632
-107.789	-131.446	15492	20039	0	632
-109.124	-136.026	15646	19588	0	632
-100.144	-133.249	15815	19097	0	632
-91.706	-126.686	15923	18433	0	632
-89.254	-123.224	15984	17679	0	632
-97.079	-124.955	16123	17179	0	632
-106.167	-128.597	16277	16908	0	632
-111.612	-133.177	16354	16523	0	632
-112.982	-137.252	16369	15942	0	632
-108.294	-141.039	16384	15335	0	632
-104.688	-140.498	16430	14958	0	632
-102.921	-137.901	16537	14794	0	632
-100.072	-131.302	16614	14688	0	632
-98.485	-122.358	16645	14524	0	632
-96.069	-112.477	16645	14294	0	632
-87.378	-106.924	16691	14048	0	632
-84.854	-108.402	16722	13884	0	632
-84.746	-111.973	16722	13762	0	632
-87.486	-119.113	16722	13639	0	632
-88.821	-119.978	16660	13417	0	632
-87.090	-115.074	16491	12975	0	632
-84.133	-108.475	16369	12442	0	632
-85.142	-109.737	16277	12171	0	632
-97.620	-119.834	16200	12196	0	632
-109.412	-133.321	16138	12253	0	632
-112.946	-137.541	16061	12303	0	632
-105.662	-133.934	16031	12458	0	632
-95.456	-126.181	16031	12778	0	632
-87.811	-119.005	16061	13163	0	632
-91.345	-121.926	16031	13483	0	632
-99.026	-125.424	16000	13729	0	632
-103.029	-128.814	16031	13966	0	632
-102.633	-128.164	16000	14221	0	632
-97.548	-125.424	16031	14507	0	632
-92.968	-124.089	16046	14778	0	632
-87.955	-119.510	15984	14909	0	632
-85.179	-115.471	15892	14803	0	632
-83.448	-110.494	15723	14507	0	632
-80.490	-105.517	15569	14163	0	632
-77.209	-100.469	15369	13909	0	632
-73.494	-97.115	15231	13794	0	632
-66.643	-90.480	15061	13745	0	632
-59.394	-85.034	14969	13712	0	632
-59.502	-81.176	14831	13778	0	632
-65.236	-84.746	14723	13934	0	632
-78.219	-96.502	14677	14188	0	632
-92.860	-115.290	14646	14516	0	632
-103.137	-127.299	14584	14827	0	632
-98.341	-130.653	14523	15016	0	632
-87.306	-120.483	14492	15204	0	632
-79.517	-108.943	14446	15491	0	632
-77.930	-105.914	14492	15852	0	632
-89.001	-115.543	14461	16155	0	632
-102.813	-131.085	14446	16368	0	632
-112.045	-144.212	14446	16539	0	632
-113.668	-146.845	14492	16777	0	632
-109.376	-138.154	14569	17138	0	632
-102.056	-124.342	14600	17490	0	632
-92.211	-113.307	14615	17687	0	632
-82.871	-107.104	14661	17744	0	632
-77.101	-107.068	14677	17777	0	632
-75.298	-110.314	14723	17843	0	632
-76.992	-112.189	14723	17924	0	632
-79.589	-112.081	14800	18023	0	632
-76.920	-109.124	14815	18072	0	632
-71.186	-105.193	14846	18023	0	632
-62.928	-97.223	14831	17908	0	632
-53.264	-89.362	14831	17785	0	632
-48.503	-83.411	14815	17580	0	632
-45.258	-78.832	14738	17310	0	632
-44.212	-76.704	14692	17006	0	632
-46.592	-75.153	14600	16720	0	632
-51.533	-78.976	14584	16523	0	632
-60.440	-84.602	14615	16580	0	632
-72.196	-95.096	14661	16826	0	632
-82.690	-106.960	14661	16933	0	632
-83.087	-108.186	14615	16703	0	632
-76.271	-103.318	14492	16270	0	632
-67.833	-97.259	14369	15860	0	632
-62.099	-93.148	14277	15573	0	632
-64.010	-93.509	14184	15393	0	632
-68.338	-96.754	14046	15155	0	632
-71.006	-97.512	13877	14786	0	632
-70.790	-95.961	13692	14409	0	632
-68.049	-93.581	13569	14163	0	632
-68.338	-93.869	13384	14040	0	632
-69.059	-93.401	13231	13950	0	632
-75.406	-94.915	13108	13844	0	632
-79.841	-98.269	12954	13770	0	632
-85.539	-100.361	12815	13803	0	632
-85.539	-103.859	12738	13950	0	632
-81.464	-98.413	12646	14139	0	632
-69.852	-88.532	12508	14253	0	632
-60.224	-78.940	12415	14303	0	632
-54.382	-71.619	12292	14393	0	632
-54.562	-74.648	12215	14581	0	632
-62.423	-81.680	12123	14778	0	632
-71.475	-87.054	12000	14852	0	632
-77.028	-89.326	11877	14827	0	632
-76.560	-83.339	11754	14827	0	632
-69.816	-76.776	11646	14917	0	632
-61.594	-69.492	11538	15081	0	632
-55.427	-62.351	11461	15212	0	632
-50.920	-58.276	11338	15278	0	632
-51.172	-56.185	11154	15204	0	632
-50.703	-56.329	10969	14925	0	632
-47.854	-54.995	10723	14524	0	632
-45.078	-54.814	10446	14196	0	632
-40.966	-50.667	10215	13983	0	632
-40.029	-49.044	9969	13803	0	632
-43.960	-50.018	9692	13565	0	632
-52.110	-55.644	9415	13311	0	632
-58.961	-59.647	9184	13188	0	632
-62.532	-62.063	8969	13286	0	632
-62.207	-59.791	8815	13565	0	632
-57.555	-56.870	8661	13844	0	632
-56.329	-57.843	8508	14057	0	632
-55.608	-58.925	8369	14360	0	632
-53.949	-57.807	8338	14835	0	632
-52.614	-55.355	8338	15434	0	632
-50.487	-51.749	8308	16048	0	632
-56.004	-54.057	8354	16621	0	632
-63.361	-61.558	8446	17244	0	632
-70.501	-65.092	8569	17990	0	632
-68.554	-64.010	8754	18810	0	632
-60.945	-56.798	8954	19613	0	632
-51.569	-46.772	9200	20343	0	632
-48.612	-43.743	9461	20998	0	632
-48.792	-45.402	9738	21621	0	632
-51.064	-43.599	10031	22252	0	632
-47.638	-42.084	10384	22851	0	632
-46.087	-37.685	10677	23277	0	632
-44.969	-37.180	10969	23465	0	632
-48.612	-42.661	11277	23547	0	632
-55.680	-50.126	11569	23638	0	632
-56.437	-59.502	11877	23728	0	632
-56.329	-58.204	12154	23679	0	632
-48.792	-55.499	12431	23482	0	632
-41.255	-45.835	12600	23138	0	632
-34.944	-39.091	12769	22572	0	632
-34.836	-35.665	12892	21834	1	580
-38.731	-35.990	12969	21121	0	580
-44.861	-40.462	13108	20539	0	580
-49.585	-47.458	13200	20015	0	580
-54.093	-52.074	13277	19392	0	580
-53.300	-56.726	13338	18744	0	580
-54.165	-59.538	13461	18343	0	580
-52.254	-56.690	13661	18220	0	580
-53.588	-55.752	13800	18129	0	580
-55.319	-53.408	13908	17916	0	580
-60.115	-55.788	14046	17621	0	580
-63.361	-55.752	14200	17408	0	580
-61.305	-59.250	14369	17367	0	580
-58.817	-60.007	14538	17375	0	580
-55.031	-58.348	14692	17343	0	580
-51.028	-54.273	14831	17220	0	580
-50.054	-50.847	14969	17039	0	580
-46.809	-45.510	15077	16834	0	580
-40.389	-41.652	15123	16572	0	580
-37.072	-41.688	15184	16245	0	580
-34.800	-41.688	15215	15909	0	580
-32.816	-39.524	15277	15671	0	580
-34.223	-39.380	15338	15532	0	580
-37.793	-41.940	15446	15507	0	580
-39.885	-45.943	15523	15589	0	580
-43.130	-55.716	15615	15639	0	580
-43.491	-56.798	15738	15630	0	580
-38.622	-55.391	15800	15622	0	580
-30.905	-45.330	15892	15655	0	580
-23.368	-34.223	15969	15671	0	580
-17.454	-26.073	16031	15606	0	580
-17.743	-24.883	16061	15466	0	580
-23.080	-28.814	16046	15303	0	580
-28.633	-34.403	16061	15114	0	580
-33.574	-40.317	16077	15016	0	580
-33.862	-41.543	16184	15188	0	580
-28.922	-38.839	16292	15540	0	580
-23.801	-34.079	16354	15729	0	580
-22.791	-31.626	16338	15573	0	580
-25.063	-32.708	16292	15229	0	580
-34.836	-36.603	16231	14901	0	580
-46.087	-45.727	16154	14606	0	580
-54.706	-53.480	15984	14229	0	580
-59.683	-57.880	15769	13680	0	580
-57.158	-55.968	15569	13065	0	580
-49.080	-47.494	15369	12614	0	580
-37.793	-35.774	15184	12401	0	580
-28.453	-25.604	15061	12376	0	580
-19.762	-21.998	14908	12434	0	580
-20.519	-24.270	14754	12483	0	580
-25.135	-28.525	14661	12565	0	580
-33.033	-32.708	14569	12753	0	580
-40.029	-33.069	14508	13081	0	580
-41.976	-33.357	14446	13458	0	580
-39.019	-35.701	14369	13762	0	580
-33.357	-39.885	14308	13991	0	580
-26.650	-38.550	14277	14262	0	580
-14.389	-31.554	14277	14671	0	580
-10.278	-23.801	14277	15139	0	580
-13.163	-22.827	14261	15491	0	580
-25.171	-33.357	14200	15630	0	580
-43.094	-50.018	14046	15491	0	580
-53.083	-61.017	13846	15155	0	580
-53.552	-58.565	13692	14884	0	580
-42.661	-47.025	13569	14811	0	580
-36.387	-34.980	13415	14737	0	580
-30.076	-27.083	13154	14516	0	580
-28.309	-21.457	12954	14188	0	580
-23.116	-19.257	12677	13876	0	580
-14.930	-11.756	12508	13712	0	580
-5.914	-8.475	12308	13729	0	580
-0.361	-6.419	12154	13844	0	580
2.488	-5.481	12000	13983	0	580
3.246	-2.452	11846	14139	0	580
0.938	-0.577	11738	14368	0	580
-5.085	0.649	11661	14696	0	580
-10.819	-2.957	11661	15130	0	580
-14.858	-5.013	11600	15557	0	580
-7.717	-1.298	11538	15876	0	580
9.484	9.592	11523	16155	0	580
24.522	20.231	11508	16482	0	580
28.886	24.919	11538	16867	0	580
22.683	18.572	11523	17220	0	580
8.763	11.287	11538	17482	0	580
0.000	6.744	11569	17703	0	580
0.541	8.583	11600	17974	0	580
9.304	15.507	11723	18302	0	580
19.798	23.116	11754	18597	0	580
33.502	36.098	11800	18736	0	580
49.621	50.162	11815	18703	0	580
60.332	59.466	11815	18605	0	580
62.243	61.017	11831	18572	0	580
54.634	55.247	11877	18605	0	580
45.546	47.097	11877	18556	0	580
42.986	48.215	11877	18392	0	580
55.391	59.322	11877	18211	0	580
69.239	68.842	11892	18097	0	580
76.199	70.682	11908	18031	0	580
67.039	63.253	11923	17941	0	580
51.280	47.926	11908	17818	0	580
39.632	40.245	11908	17695	0	580
45.186	41.904	11923	17580	0	580
58.673	50.739	11908	17457	0	580
69.708	59.322	11877	17261	0	580
67.256	57.843	11769	16884	0	580
51.461	47.674	11646	16335	0	580
33.141	33.754	11431	15680	0	580
23.549	27.263	11261	15048	0	580
27.191	27.840	11046	14606	0	580
38.118	34.692	10923	14376	0	580
48.539	39.452	10815	14303	0	580
57.447	44.320	10692	14270	0	580
60.981	46.700	10569	14204	0	580
67.724	54.201	10492	14180	0	580
73.963	63.289	10415	14270	0	580
77.822	71.547	10354	14442	0	580
77.642	75.153	10261	14598	0	580
71.583	71.872	10184	14663	0	580
62.928	63.722	10077	14712	0	580
53.913	55.824	10046	14852	0	580
48.972	47.458	10031	15106	0	580
45.763	43.383	9984	15393	0	580
42.517	41.580	9954	15557	0	580
44.428	41.183	9831	15532	0	580
43.455	39.308	9646	15221	0	580
37.613	33.105	9415	14745	0	580
25.279	21.277	9215	14434	0	580
9.737	3.967	9061	14311	0	580
-1.947	-3.967	8877	14253	0	580
2.524	-2.200	8754	14286	0	580
20.231	15.795	8646	14434	0	580
42.553	38.983	8569	14630	0	580
54.057	54.129	8446	14786	0	580
52.110	54.454	8354	14876	0	580
37.721	39.668	8231	14983	0	580
25.820	22.539	8123	15065	0	580
22.214	12.405	7984	15147	0	580
21.565	9.196	7954	15311	0	580
24.883	17.598	7908	15606	0	580
28.453	27.840	7877	15917	0	580
33.249	40.173	7815	16106	0	580
45.005	48.648	7754	16212	0	580
55.860	56.257	7754	16433	0	580
59.034	55.608	7831	16900	0	580
49.693	47.205	7923	17474	0	580
32.744	31.049	8000	17965	0	580
12.910	14.713	8077	18293	0	580
1.046	1.406	8200	18572	0	580
-2.344	-3.606	8308	18892	0	580
1.623	-2.560	8461	19277	0	580
4.364	0.433	8661	19687	0	580
6.094	-1.695	8815	20039	0	580
6.058	-4.904	9061	20375	0	580
4.291	-5.878	9292	20818	0	580
5.337	-3.787	9615	21351	0	580
5.085	-2.741	9908	21802	0	580
2.452	-2.957	10154	21965	0	580
0.361	-6.780	10308	21769	0	580
0.072	-10.746	10431	21375	0	580
-0.252	-11.900	10661	21146	0	580
-0.865	-13.018	10877	21162	0	580
-0.757	-10.386	11108	21211	1	644
1.406	-2.921	11369	21252	0	644
6.167	6.852	11677	21351	0	644
10.638	13.523	12000	21490	0	644
5.626	10.133	12308	21588	0	644
-11.720	-7.645	12600	21556	0	644
-34.295	-32.528	12877	21392	0	644
-50.054	-49.044	13061	21113	0	644
-52.939	-48.359	13231	20646	0	644
-42.409	-39.235	13369	20064	0	644
-30.076	-26.397	13523	19547	0	644
-25.965	-23.152	13723	19162	0	644
-35.305	-32.961	13815	18761	0	644
-50.920	-49.080	13877	18203	0	644
-64.154	-61.882	13969	17588	0	644
-70.213	-62.712	14077	17228	0	644
-64.407	-57.303	14231	17105	0	644
-60.260	-55.716	14338	16892	0	644
-63.649	-58.493	14354	16433	0	644
-66.895	-67.977	14369	15884	0	644
-66.138	-70.790	14415	15475	0	644
-56.185	-62.279	14446	15237	0	644
-40.029	-45.546	14492	15057	0	644
-29.282	-33.934	14508	14844	0	644
-30.148	-31.374	14523	14581	0	644
-38.009	-35.846	14508	14335	0	644
-43.743	-40.894	14508	14171	0	644
-45.150	-44.537	14538	14122	0	644
-43.887	-45.727	14538	14130	0	644
-46.809	-48.251	14523	14073	0	644
-49.621	-51.424	14538	13975	0	644
-47.602	-49.585	14569	13966	0	644
-45.943	-48.395	14584	14089	0	644
-44.428	-48.828	14600	14196	0	644
-49.008	-52.326	14584	14188	0	644
-59.430	-60.512	14508	14098	0	644
-67.292	-64.082	14508	14065	0	644
-64.731	-61.955	14508	14155	0	644
-54.742	-52.939	14508	14319	0	644
-49.153	-48.107	14508	14458	0	644
-47.494	-47.854	14492	14524	0	644
-52.398	-49.297	14384	14409	0	644
-53.264	-53.011	14215	14048	0	644
-44.320	-48.251	14046	13647	0	644
-33.790	-42.445	13923	13409	0	644
-28.814	-36.855	13769	13311	0	644
-30.869	-37.036	13600	13212	0	644
-38.262	-37.865	13431	13007	0	644
-38.190	-34.800	13184	12737	0	644
-29.679	-27.732	13000	12565	0	644
-20.014	-22.286	12831	12581	0	644
-21.313	-21.745	12723	12721	0	644
-27.299	-27.840	12538	12844	0	644
-33.610	-32.384	12369	12868	0	644
-31.554	-31.013	12200	12925	0	644
-22.467	-24.162	12077	13147	0	644
-15.254	-19.510	12000	13524	0	644
-15.074	-20.772	11954	13966	0	644
-21.385	-24.306	11877	14344	0	644
-28.814	-27.912	11831	14680	0	644
-31.122	-25.388	11800	15073	0	644
-25.856	-22.539	11815	15548	0	644
-17.815	-17.526	11815	16016	0	644
-9.016	-15.867	11815	16368	0	644
0.541	-11.432	11800	16605	0	644
5.554	-2.669	11815	16867	0	644
8.439	3.823	11892	17244	0	644
11.468	10.314	11954	17703	0	644
17.418	13.992	12031	18064	0	644
26.253	21.385	12061	18261	0	644
38.478	31.049	12046	18228	0	644
52.614	46.015	12000	18039	0	644
64.840	62.099	11969	17867	0	644
75.045	69.888	11892	17703	0	644
84.097	74.504	11754	17285	0	644
88.352	73.639	11461	16531	0	644
90.047	74.216	11231	15762	0	644
83.772	71.186	11108	15344	0	644
73.963	66.102	11031	15417	0	644
67.075	62.207	11031	15712	0	644
65.525	59.538	10923	15852	0	644
71.403	62.135	10846	15737	0	644
77.642	68.049	10692	15516	0	644
80.490	70.177	10600	15352	0	644
78.110	66.282	10508	15352	0	644
74.324	61.125	10461	15483	0	644
72.016	58.745	10369	15598	0	644
73.386	61.774	10308	15614	0	644
73.855	66.282	10215	15606	0	644
75.225	70.573	10154	15704	0	644
75.117	71.655	10184	15917	0	644
74.865	71.259	10138	16163	0	644
75.658	73.098	10138	16344	0	644
77.966	76.524	10123	16457	0	644
82.474	82.294	10138	16638	0	644
87.523	85.647	10154	16884	0	644
86.188	87.342	10154	17097	0	644
80.274	79.553	10184	17187	0	644
69.924	70.032	10154	17195	0	644
63.794	61.522	10138	17179	0	644
65.236	59.466	10108	17105	0	644
71.403	62.315	10061	16949	0	644
73.134	60.476	10000	16843	0	644
63.577	54.201	9984	16843	0	644
50.451	45.402	9984	16884	0	644
40.894	40.317	9969	16908	0	644
44.753	41.435	9969	16908	0	644
54.201	47.241	9923	16851	0	644
64.443	50.451	9892	16752	0	644
68.049	48.323	9831	16605	0	644
63.181	46.232	9723	16327	0	644
56.690	45.799	9615	16007	0	644
52.867	45.005	9615	15958	0	644
48.431	44.248	9615	16229	0	644
47.422	47.061	9584	16400	0	644
51.569	52.434	9508	16262	0	644
56.690	57.880	9415	15950	0	644
62.459	62.027	9292	15712	0	644
63.397	60.801	9261	15581	0	644
58.889	48.503	9138	15532	0	644
51.100	39.344	9046	15434	0	644
46.881	32.636	8908	15196	0	644
43.491	33.898	8738	14917	0	644
41.940	39.812	8646	14762	0	644
1772.449	-577.930	29759	13973	0	14046
-54.418	-67.003	20384	12081	0	556
-65.308	-70.609	20153	12401	0	556
-80.887	-78.146	19968	12835	0	556
-97.836	-90.371	19799	13262	0	556
-113.884	-101.118	19630	13671	0	556
-119.870	-107.393	19537	14171	0	556
-117.598	-103.895	19460	14794	0	556
-104.904	-93.004	19430	15475	0	556
-91.994	-83.844	19414	16114	0	556
-85.719	-83.015	19353	16646	0	556
-90.011	-88.640	19353	17072	0	556
-96.250	-97.259	19353	17498	0	556
-96.069	-98.197	19384	17998	0	556
-87.523	-85.755	19476	18572	0	556
-68.770	-70.141	19491	19031	0	556
-56.545	-58.745	19491	19146	0	556
-55.608	-57.591	19399	18957	0	556
-63.000	-67.364	19414	18916	0	556
-71.475	-77.858	19476	19179	0	556
-66.823	-77.281	19553	19531	0	556
-53.841	-66.895	19660	19851	0	556
-33.682	-48.936	19784	20154	0	556
-21.349	-36.819	19937	20424	0	556
-23.873	-33.862	20122	20703	0	556
-35.341	-40.389	20430	21261	0	556
-46.772	-48.864	20784	22056	0	556
-56.762	-54.201	21107	22670	0	556
-60.404	-58.817	21384	22875	0	556
-61.161	-61.882	21584	22851	0	556
-64.659	-65.741	21876	22826	0	556
-65.128	-69.528	22153	22884	0	556
-61.666	-68.626	22476	23006	0	556
-59.538	-68.049	22799	23162	0	556
-59.971	-70.790	23153	23261	0	556
-70.754	-78.687	23491	23277	0	556
-83.736	-87.162	23860	23302	0	556
-89.434	-92.752	24260	23375	0	556
-82.402	-82.798	24614	23375	0	556
-61.197	-66.571	24937	23211	0	556
-41.976	-48.539	25276	22982	0	556
-35.341	-43.347	25645	22802	1	600
-45.402	-52.651	25999	22621	0	600
-61.882	-70.032	26322	22351	0	600
-75.802	-79.553	26584	21949	0	600
-75.550	-77.822	26860	21474	0	600
-66.282	-66.751	27184	21047	0	600
-54.598	-59.755	27460	20769	0	600
-49.693	-56.834	27814	20597	0	600
-46.664	-59.647	28153	20465	0	600
-49.477	-63.325	28414	20170	0	600
-51.929	-64.587	28553	19449	0	600
-56.509	-66.390	28584	18416	0	600
-66.066	-73.891	28707	17506	0	600
-78.615	-84.602	28768	16826	0	600
-88.965	-92.463	28876	16319	0	600
-98.017	-97.764	28968	15917	0	600
-97.512	-99.964	29076	15483	0	600
-90.444	-92.499	29091	14983	0	600
-79.517	-84.602	29153	14589	0	600
-66.751	-75.045	29260	14409	0	600
-58.132	-70.141	29353	14319	0	600
-59.863	-71.619	29399	14139	0	600
-64.948	-77.245	29460	13925	0	600
-74.648	-81.356	29584	13966	0	600
-78.002	-82.294	29784	14303	0	600
-81.140	-79.409	29968	14712	0	600
-81.861	-77.894	30122	15024	0	600
-83.448	-78.832	30307	15196	0	600
-80.887	-79.625	30460	15335	0	600
-77.101	-77.137	30584	15516	0	600
-72.268	-77.028	30784	15721	0	600
-74.540	-78.579	30937	15901	0	600
-86.008	-89.686	31076	15991	0	600
-104.832	-104.003	31168	15975	0	600
-121.854	-117.382	31307	15942	0	600
-130.797	-123.729	31430	16040	0	600
-130.725	-118.247	31584	16253	0	600
-122.431	-109.773	31737	16441	0	600
-112.874	-104.796	31922	16605	0	600
-107.862	-104.652	32091	16834	0	600
-110.097	-114.533	32322	17097	0	600
-114.172	-121.349	32507	17310	0	600
-117.021	-120.988	32660	17416	0	600
-115.831	-115.002	32768	17457	0	600
-110.710	-104.147	32768	17441	0	600
-105.121	-94.879	32768	17392	0	600
-96.069	-87.847	32768	17408	0	600
-85.936	-77.317	32768	17515	0	600
-71.799	-66.715	32768	17621	0	600
-62.532	-57.771	32768	17580	0	600
-59.250	-54.959	32768	17392	0	600
-65.813	-60.404	32768	17146	0	600
-78.002	-71.259	32768	16875	0	600
-94.627	-86.693	32768	16613	0	600
-108.511	-99.495	32768	16352	0	600
-118.031	-108.871	32768	15950	0	600
-117.706	-108.330	32768	15507	0	600
-108.150	-100.793	32768	15294	0	600
-96.394	-90.119	32768	15294	0	600
-87.306	-85.467	32768	15294	0	600
-84.602	-85.936	32768	15196	0	600
-87.739	-93.833	32768	15016	0	600
-91.453	-99.315	32768	14844	0	600
-88.713	-98.197	32768	14729	0	600
-88.496	-92.968	32768	14655	0	600
-86.152	-83.700	32768	14483	0	600
-88.640	-79.950	32768	14180	0	600
-88.496	-77.461	32768	13901	0	600
-89.398	-77.533	32768	13794	0	600
-81.717	-73.603	32768	13827	0	600
-76.740	-73.314	32768	13884	0	600
-77.930	-74.721	32768	13753	0	600
-88.172	-85.611	32768	13229	0	600
-97.079	-94.483	32768	12507	0	600
-101.911	-98.882	32768	11999	0	600
-101.082	-95.060	32537	11786	0	600
-96.827	-89.181	32337	11688	0	600
-98.846	-89.434	32107	11639	0	600
-106.167	-93.942	31937	11696	0	600
-115.723	-99.784	31768	11860	0	600
-115.254	-102.236	31645	12122	0	600
-109.953	-99.315	31507	12475	0	600
-101.082	-92.283	31353	12745	0	600
-93.581	-85.395	31168	12844	0	600
-91.021	-82.762	31030	12934	0	600
-97.367	-84.529	30860	13163	0	600
-104.616	-88.785	30737	13450	0	600
-108.871	-92.427	30645	13770	0	600
-106.491	-91.129	30507	14065	0	600
-100.180	-85.070	30337	14204	0	600
-95.420	-83.448	30153	14147	0	600
-95.023	-87.919	29937	14089	0	600
-98.521	-93.076	29768	14196	0	600
-98.630	-91.814	29660	14442	0	600
-93.473	-87.631	29537	14688	0	600
-89.903	-81.969	29399	14876	0	600
-95.925	-85.215	29276	15065	0	600
-107.212	-96.105	29184	15319	0	600
-117.995	-104.039	29076	15573	0	600
-115.435	-100.721	28968	15786	0	600
-100.577	-83.808	28876	15942	0	600
-81.969	-66.715	28784	16024	0	600
-68.265	-56.401	28645	16089	0	600
-69.636	-59.611	28584	16286	0	600
-79.950	-70.537	28568	16605	0	600
-92.175	-82.654	28460	16777	0	600
-99.171	-87.270	28260	16523	0	600
-101.406	-88.460	28030	15991	0	600
-96.358	-84.962	27814	15655	0	600
-90.119	-83.303	27691	15630	0	600
-83.988	-81.067	27537	15696	0	600
-79.264	-77.173	27414	15737	0	600
-75.406	-71.727	27276	15778	0	600
-71.078	-64.876	27122	15745	0	600
-67.256	-58.060	26999	15696	0	600
-65.164	-56.690	26891	15786	0	600
-67.328	-56.113	26799	15893	0	600
-69.744	-60.115	26584	15778	0	600
-72.629	-62.856	26384	15475	0	600
-71.186	-63.000	26184	15147	0	600
-64.046	-55.103	25999	14975	0	600
-55.283	-48.395	25799	14958	0	600
-49.621	-39.344	25614	14934	0	600
-43.851	-32.925	25353	14729	0	600
-37.757	-28.201	25091	14368	0	600
-33.141	-25.027	24860	14114	0	600
-30.725	-23.693	24645	14098	0	600
-34.583	-27.551	24537	14319	0	600
-41.652	-36.747	24399	14639	0	600
-50.847	-46.845	24307	14942	0	600
-56.329	-54.742	24184	15204	0	600
-56.906	-55.860	24014	15303	0	600
-55.716	-55.896	23845	15221	0	600
-57.050	-50.992	23691	15245	0	600
-58.060	-51.208	23645	15516	0	600
-63.145	-52.759	23630	15991	0	600
-69.996	-60.909	23691	16679	0	600
-77.930	-69.311	23891	17629	0	600
-80.346	-71.042	24122	18752	0	600
-78.327	-69.852	24460	19867	0	600
-76.596	-62.568	24768	20884	0	600
-73.458	-61.666	25153	21834	0	600
-75.478	-67.472	25553	22761	0	600
-78.074	-71.439	25953	23621	0	600
-73.062	-68.915	26414	24351	0	600
-65.344	-59.430	26845	24933	0	600
-57.952	-48.215	27307	25416	0	600
-56.221	-44.681	27784	25834	0	600
-57.303	-46.376	28245	26211	0	600
-56.653	-44.068	28845	26588	0	600
-51.424	-38.550	29337	26933	0	600
-45.186	-32.528	29814	27031	0	600
-44.428	-31.771	30199	26695	0	600
-47.241	-37.324	30553	26047	0	600
-54.814	-47.926	30860	25334	0	600
-56.365	-53.516	31168	24670	0	600
-57.122	-54.021	31476	24015	1	624
-59.502	-57.555	31768	23334	0	624
-62.532	-61.810	32030	22638	0	624
-69.023	-67.400	32199	21843	0	624
-72.160	-66.787	32307	20769	0	624
-65.669	-61.089	32307	19482	0	624
-57.663	-51.641	32337	18244	0	624
-48.576	-43.743	32337	17170	0	624
-49.946	-48.107	32353	16286	0	624
-58.565	-57.086	32399	15647	0	624
-70.213	-63.866	32491	15245	0	624
-72.809	-64.263	32584	14966	0	624
-67.400	-56.113	32707	14762	0	624
-55.572	-47.602	32768	14647	0	624
-48.792	-45.691	32768	14671	0	624
-54.742	-52.470	32768	14835	0	624
-66.426	-64.840	32768	15024	0	624
-75.189	-72.990	32768	15098	0	624
-77.173	-73.242	32768	15114	0	624
-70.429	-66.030	32768	15229	0	624
-67.003	-63.974	32768	15458	0	624
-72.052	-68.301	32768	15729	0	624
-84.602	-79.805	32768	15876	0	624
-92.283	-87.090	32768	15893	0	624
-92.391	-87.991	32768	15868	0	624
-82.402	-80.094	32768	15852	0	624
-76.668	-75.622	32768	15803	0	624
-79.012	-80.599	32768	15704	0	624
-87.054	-90.804	32768	15573	0	624
-98.666	-97.620	32768	15384	0	624
-100.974	-99.423	32768	15048	0	624
-98.702	-96.538	32768	14614	0	624
-96.250	-91.381	32768	14278	0	624
-94.843	-88.568	32768	14122	0	624
-94.302	-90.011	32768	14114	0	624
-90.444	-87.847	32768	14155	0	624
-86.369	-88.063	32768	14155	0	624
-83.231	-88.857	32768	14163	0	624
-85.431	-94.194	32768	14327	0	624
-93.112	-97.187	32768	14614	0	624
-97.872	-95.853	32768	14819	0	624
-92.319	-88.677	32768	14868	0	624
-80.382	-73.891	32768	14844	0	624
-64.263	-59.719	32768	14852	0	624
-55.536	-54.129	32768	14819	0	624
-54.959	-56.185	32768	14622	0	624
-64.767	-67.724	32768	14319	0	624
-77.642	-79.697	32768	14057	0	624
-86.657	-90.516	32768	13925	0	624
-91.021	-89.686	32768	13975	0	624
-87.919	-84.421	32768	14171	0	624
-82.618	-74.829	32768	14344	0	624
-77.642	-70.213	32768	14483	0	624
-77.533	-71.980	32768	14647	0	624
-84.890	-81.103	32768	14860	0	624
-94.338	-90.480	32768	15081	0	624
-103.859	-99.784	32768	15245	0	624
-109.556	-102.488	32768	15335	0	624
-110.169	-102.164	32768	15368	0	624
-104.940	-98.161	32768	15360	0	624
-97.476	-89.362	32768	15335	0	624
-85.755	-80.671	32768	15311	0	624
-74.612	-69.419	32768	15311	0	624
-62.928	-59.574	32768	15262	0	624
-55.536	-52.362	32768	15016	0	624
-54.886	-49.441	32768	14606	0	624
-62.099	-51.677	32768	14253	0	624
-70.105	-59.358	32768	14040	0	624
-82.546	-68.229	32768	13876	0	624
-89.975	-78.723	32768	13647	0	624
-93.473	-85.683	32768	13376	0	624
-93.220	-85.323	32737	13204	0	624
-88.568	-80.418	32614	13229	0	624
-77.137	-67.147	32476	13417	0	624
-66.138	-57.050	32322	13647	0	624
-59.250	-49.369	32199	13844	0	624
-63.072	-54.742	32107	14048	0	624
-77.209	-65.705	32030	14319	0	624
-96.502	-81.897	31937	14639	0	624
-112.658	-100.000	31845	14925	0	624
-119.762	-112.946	31768	15106	0	624
-117.346	-117.995	31660	15253	0	624
-107.862	-110.710	31614	15466	0	624
-96.069	-94.050	31614	15811	0	624
-80.779	-74.324	31584	16212	0	624
-69.131	-57.735	31568	16523	0	624
-62.279	-51.785	31537	16720	0	624
-57.699	-51.821	31476	16810	0	624
-61.233	-54.886	31399	16818	0	624
-67.039	-60.548	31337	16810	0	624
-72.593	-63.361	31230	16728	0	624
-76.812	-69.528	31045	16449	0	624
-79.805	-71.439	30845	16024	0	624
-81.356	-75.694	30660	15655	0	624
-84.133	-80.238	30553	15507	0	624
-86.332	-81.392	30491	15680	0	624
-79.697	-77.497	30507	16081	0	624
-64.623	-69.924	30460	16384	0	624
-45.943	-55.968	30337	16352	0	624
-32.816	-50.415	30199	16098	0	624
-33.285	-50.920	30091	15893	0	624
-44.753	-58.276	29937	15803	0	624
-59.394	-65.957	29845	15753	0	624
-64.046	-68.301	29645	15589	0	624
-62.063	-66.066	29460	15286	0	624
-57.375	-62.135	29260	14983	0	624
-55.247	-57.555	29076	14794	0	624
-50.956	-51.785	28953	14753	0	624
-47.169	-45.546	28784	14786	0	624
-42.229	-39.488	28630	14778	0	624
-42.229	-39.488	28507	14770	0	624
-51.244	-50.343	28353	14811	0	624
-66.102	-61.161	28245	14884	0	624
-73.855	-68.554	28107	14966	0	624
-68.770	-64.407	27922	14958	0	624
-57.916	-52.759	27768	14835	0	624
-49.477	-47.494	27553	14671	0	624
-56.113	-52.795	27399	14614	0	624
-66.282	-67.724	27245	14696	0	624
-78.038	-83.195	27091	14803	0	624
-75.911	-87.342	26953	14884	0	624
-64.876	-83.592	26799	14975	0	624
-46.195	-72.485	26722	15122	0	624
-36.062	-60.296	26568	15286	0	624
-31.554	-54.562	26460	15393	0	624
-34.475	-50.126	26276	15319	0	624
-43.094	-53.660	26045	15040	0	624
-56.762	-60.584	25799	14770	0	624
-67.688	-71.078	25584	14614	0	624
-74.071	-80.130	25384	14524	0	624
-74.324	-81.536	25199	14491	0	624
-61.233	-76.524	25014	14516	0	624
-44.861	-67.111	24784	14466	0	624
-32.348	-60.620	24553	14344	0	624
-29.174	-59.611	24399	14360	0	624
-35.377	-66.823	24260	14671	0	624
-43.960	-71.908	24245	15196	0	624
-49.153	-73.206	24230	15762	0	624
-50.920	-71.547	24199	16253	0	624
-54.526	-70.249	24245	16744	0	624
-67.761	-75.189	24322	17367	0	624
-84.926	-86.909	24460	18113	0	624
-99.315	-101.875	24660	18867	0	624
-105.265	-114.245	24814	19572	0	624
-99.603	-116.985	25045	20261	0	624
-88.821	-112.910	25322	20949	0	624
-73.891	-102.092	25584	21621	0	624
-60.548	-86.909	25937	22244	0	624
-50.523	-75.875	26245	22761	0	624
-47.133	-71.872	26568	23187	0	624
-52.651	-78.110	26922	23572	0	624
-61.414	-88.136	27307	23949	0	624
-65.849	-98.810	27645	24220	0	624
-63.541	-106.347	27999	24285	0	624
-57.555	-105.806	28276	24211	0	624
-58.276	-112.658	28630	24097	0	624
-66.751	-121.421	28937	23949	0	624
-78.435	-129.715	29260	23785	0	624
-82.041	-134.043	29568	23564	1	632
-78.002	-129.318	29860	23252	0	632
-69.347	-122.106	30091	22834	0	632
-65.056	-118.464	30322	22261	0	632
-68.987	-119.473	30491	21572	0	632
-73.783	-125.748	30645	20892	0	632
-74.180	-124.089	30799	20277	0	632
-70.393	-122.178	30968	19695	0	632
-64.299	-116.733	31045	19056	0	632
-62.459	-111.648	31153	18384	0	632
-65.308	-115.038	31276	17818	0	632
-68.878	-119.654	31399	17441	0	632
-72.232	-125.460	31553	17228	0	632
-76.451	-132.997	31707	17031	0	632
-79.481	-137.432	31814	16744	0	632
-83.520	-138.190	31937	16424	0	632
-84.890	-135.665	32014	16139	0	632
-82.149	-131.266	32184	15966	0	632
-82.726	-130.508	32307	15909	0	632
-85.359	-134.187	32430	15844	0	632
-97.728	-146.628	32537	15737	0	632
-110.602	-160.873	32707	15729	0	632
-126.325	-173.530	32768	15868	0	632
-133.177	-181.356	32768	16081	0	632
-135.449	-186.657	32768	16204	0	632
-130.905	-183.339	32768	16212	0	632
-127.948	-179.445	32768	16180	0	632
-122.972	-172.845	32768	16089	0	632
-122.286	-167.833	32768	15893	0	632
-121.132	-165.597	32768	15639	0	632
-117.526	-167.797	32768	15425	0	632
-118.139	-174.973	32768	15335	0	632
-120.627	-185.287	32768	15335	0	632
-129.968	-194.194	32768	15311	0	632
-134.944	-196.935	32768	15204	0	632
-134.583	-192.860	32768	15057	0	632
-128.741	-183.375	32768	14876	0	632
-118.247	-174.396	32768	14548	0	632
-112.946	-168.842	32768	14122	0	632
-109.124	-165.128	32768	13770	0	632
-105.373	-159.502	32768	13516	0	632
-103.606	-156.581	32768	13253	0	632
-103.859	-155.211	32768	12925	0	632
-109.304	-160.584	32768	12589	0	632
-116.120	-166.534	32768	12409	0	632
-121.818	-174.107	32768	12450	0	632
-126.001	-177.894	32768	12663	0	632
-125.388	-179.048	32768	12925	0	632
-123.440	-178.399	32768	13122	0	632
-121.529	-176.055	32768	13262	0	632
-116.120	-173.639	32722	13384	0	632
-114.930	-173.819	32645	13557	0	632
-122.214	-181.031	32614	13794	0	632
-137.757	-193.761	32553	14007	0	632
-156.257	-212.297	32507	14204	0	632
-170.934	-226.794	32507	14499	0	632
-175.947	-230.725	32537	14975	0	632
-169.239	-227.299	32630	15516	0	632
-161.955	-218.860	32630	15917	0	632
-155.247	-212.658	32660	16188	0	632
-151.028	-210.206	32707	16416	0	632
-149.333	-210.061	32737	16703	0	632
-145.871	-208.439	32768	16998	0	632
-143.779	-205.337	32768	17179	0	632
-142.734	-202.019	32768	17220	0	632
-140.462	-199.459	32768	17195	0	632
-136.964	-194.483	32768	17170	0	632
-134.547	-194.194	32768	17129	0	632
-137.216	-195.023	32768	17015	0	632
-145.402	-201.875	32722	16818	0	632
-153.877	-207.717	32568	16441	0	632
-160.404	-210.133	32230	15622	0	632
-161.125	-210.710	31876	14483	0	632
-163.109	-212.622	31584	13647	0	632
-167.544	-221.024	31307	13221	0	632
-171.223	-227.624	31014	12753	0	632
-169.203	-227.804	30630	12204	0	632
-157.122	-217.779	30337	11803	0	632
-140.281	-200.397	30076	11647	0	632
-128.958	-186.549	29845	11737	0	632
-130.004	-187.018	29707	12024	0	632
-138.298	-196.105	29537	12401	0	632
-145.979	-205.049	29399	12786	0	632
-146.087	-205.554	29337	13245	0	632
-137.793	-200.469	29276	13811	0	632
-134.079	-196.466	29245	14360	0	632
-136.459	-196.574	29168	14827	0	632
-144.140	-202.596	29091	15188	0	632
-147.818	-202.993	29030	15491	0	632
-145.582	-195.961	28968	15803	0	632
-140.966	-187.775	28999	16180	0	632
-139.416	-182.690	28953	16597	0	632
-140.462	-183.231	28953	16949	0	632
-142.553	-188.640	28937	17179	0	632
-144.032	-193.292	28937	17375	0	632
-144.573	-200.469	28922	17580	0	632
-147.241	-202.056	28922	17769	0	632
-144.789	-200.000	28876	17834	0	632
-140.426	-190.480	28860	17802	0	632
-133.646	-179.409	28784	17769	0	632
-131.338	-171.980	28768	17769	0	632
-135.377	-174.107	28784	17793	0	632
-144.861	-183.051	28737	17843	0	632
-154.345	-196.610	28660	17736	0	632
-161.594	-209.196	28568	17384	0	632
-167.364	-217.166	28414	16982	0	632
-167.147	-218.320	28353	16736	0	632
-164.659	-213.271	28307	16744	0	632
-162.135	-204.832	28307	16892	0	632
-158.348	-198.053	28199	16826	0	632
-161.666	-193.725	27999	16384	0	632
-166.534	-196.682	27799	15770	0	632
-166.607	-200.902	27614	15270	0	632
-166.174	-205.445	27430	14958	0	632
-163.830	-208.294	27245	14737	0	632
-157.266	-202.560	26999	14425	0	632
-153.408	-194.266	26737	13975	0	632
-146.304	-180.454	26491	13606	0	632
-135.954	-171.042	26260	13417	0	632
-130.148	-166.787	26076	13344	0	632
-124.739	-170.573	25814	13278	0	632
-124.702	-171.511	25630	13196	0	632
-125.279	-169.924	25399	13147	0	632
-122.539	-161.810	25245	13237	0	632
-123.512	-155.247	25107	13499	0	632
-126.181	-154.526	24953	13811	0	632
-130.761	-160.368	24799	14007	0	632
-132.023	-165.994	24614	14073	0	632
-126.758	-164.767	24414	14024	0	632
-120.267	-159.178	24168	13950	0	632
-120.050	-160.260	23999	13950	0	632
-134.439	-167.256	23768	14024	0	632
-151.424	-179.481	23614	14139	0	632
-164.876	-184.277	23476	14344	0	632
-158.493	-177.137	23337	14639	0	632
-141.327	-156.076	23245	15032	0	632
-123.116	-140.426	23245	15532	0	632
-116.048	-135.160	23199	16057	0	632
-121.241	-138.478	23184	16465	0	632
-133.754	-150.847	23168	16793	0	632
-143.419	-156.040	23153	17105	0	632
-145.114	-152.939	23153	17400	0	632
-139.416	-141.507	23168	17752	0	632
-131.013	-128.561	23184	18129	0	632
-125.063	-118.788	23230	18392	0	632
-121.277	-114.172	23230	18482	0	632
-119.510	-113.992	23245	18597	0	632
-117.093	-116.949	23337	18884	0	632
-114.497	-117.166	23491	19318	0	632
-111.468	-115.543	23630	19793	0	632
-112.225	-112.550	23845	20203	0	632
-112.982	-107.429	24014	20588	0	632
-114.461	-103.534	24276	21006	0	632
-114.353	-100.541	24507	21424	0	632
-116.264	-102.308	24737	21744	0	632
-120.772	-103.931	24968	21884	0	632
-122.178	-106.563	25230	21933	0	632
-121.637	-106.888	25476	22023	0	632
-114.281	-100.505	25768	22228	0	632
-105.517	-93.220	26076	22449	0	632
-101.226	-90.444	26353	22523	0	632
-103.354	-90.444	26630	22482	0	632
-109.520	-95.492	26922	22441	0	632
-111.071	-97.512	27245	22433	0	632
-107.825	-92.175	27568	22441	0	632
-103.065	-83.231	27860	22351	1	660
-101.262	-76.163	28153	22162	0	660
-105.085	-73.062	28414	21949	0	660
-110.061	-72.773	28691	21703	0	660
-110.855	-70.501	28953	21351	0	660
-106.996	-68.265	29122	20900	0	660
-101.262	-64.623	29337	20408	0	660
-98.449	-61.738	29476	19867	0	660
-95.600	-58.601	29568	19179	0	660
-94.194	-51.497	29630	18367	0	660
-92.391	-42.914	29691	17629	0	660
-96.610	-39.380	29722	17047	0	660
-103.354	-41.039	29784	16556	0	660
-112.586	-48.684	29784	16048	0	660
-120.123	-55.680	29799	15491	0	660
-121.349	-60.981	29799	15007	0	660
-121.745	-58.961	29814	14655	0	660
-117.166	-52.759	29860	14425	0	660
-112.369	-46.592	29860	14212	0	660
-106.599	-37.793	29845	13942	0	660
-105.554	-35.774	29814	13737	0	660
-112.333	-40.029	29876	13688	0	660
-122.899	-46.448	29922	13762	0	660
-132.023	-51.280	29953	13852	0	660
-132.744	-55.644	29968	13917	0	660
-131.554	-55.427	30014	14024	0	660
-130.905	-56.329	30122	14237	0	660
-132.239	-56.329	30230	14557	0	660
-132.672	-48.792	30307	14893	0	660
-128.453	-37.613	30384	15057	0	660
-120.664	-22.575	30307	14811	0	660
-113.307	-13.199	30168	14327	0	660
-110.350	-8.258	30107	14024	0	660
-109.809	-9.088	30091	14032	0	660
-106.527	-10.206	30030	14106	0	660
-103.029	-9.592	30045	14188	0	660
-100.902	-11.251	30045	14368	0	660
-100.180	-14.497	30107	14639	0	660
-99.135	-11.828	30122	14942	0	660
-95.060	-5.157	30184	15196	0	660
-86.837	2.957	30230	15409	0	660
-81.608	11.540	30230	15565	0	660
-80.418	12.802	30230	15548	0	660
-87.847	5.734	30168	15409	0	660
-98.233	-2.741	30122	15352	0	660
-105.806	-11.396	30153	15442	0	660
-105.049	-13.740	30107	15516	0	660
-95.348	-11.107	30030	15401	0	660
-77.173	0.325	29876	15089	0	660
-57.266	16.300	29799	14819	0	660
-43.419	28.814	29737	14770	0	660
-42.373	31.554	29691	14868	0	660
-52.362	26.397	29630	14958	0	660
-67.508	15.002	29553	14966	0	660
-74.973	11.107	29491	14934	0	660
-71.186	17.202	29430	14966	0	660
-57.266	31.590	29399	15081	0	660
-42.625	44.645	29353	15229	0	660
-31.446	55.536	29322	15360	0	660
-28.128	55.968	29307	15491	0	660
-24.234	54.237	29322	15696	0	660
-22.467	56.185	29337	15983	0	660
-16.372	58.204	29399	16286	0	660
-8.150	67.111	29399	16515	0	660
-0.757	73.530	29414	16687	0	660
-1.118	73.819	29460	16851	0	660
-5.698	65.957	29491	17023	0	660
-14.425	55.716	29507	17146	0	660
-20.627	47.890	29491	17097	0	660
-21.565	48.035	29430	16884	0	660
-17.995	48.792	29353	16646	0	660
-21.096	44.068	29276	16408	0	660
-25.460	36.855	29199	16180	0	660
-32.059	31.230	29091	15925	0	660
-30.256	30.905	28953	15663	0	660
-27.010	38.442	28860	15425	0	660
-22.358	43.743	28707	15188	0	660
-23.044	44.933	28584	15007	0	660
-26.037	40.462	28568	15057	0	660
-27.948	36.351	28537	15294	0	660
-24.450	36.170	28491	15425	0	660
-19.041	35.197	28307	15237	0	660
-15.110	35.701	28153	14827	0	660
-13.884	34.403	27999	14548	0	660
-15.002	34.692	27814	14458	0	660
-20.772	34.583	27660	14303	0	660
-24.450	35.629	27399	13975	0	660
-24.414	38.695	27153	13548	0	660
-22.503	41.543	26876	13180	0	660
-13.920	45.150	26645	12950	0	660
-5.950	48.431	26399	12835	0	660
-1.803	50.956	26168	12786	0	660
-1.623	51.388	25922	12729	0	660
-1.803	53.372	25722	12729	0	660
-2.813	54.237	25537	12835	0	660
-2.488	54.995	25384	13089	0	660
-3.895	56.221	25230	13450	0	660
-7.140	53.588	25091	13762	0	660
-8.943	52.903	24937	13975	0	660
-11.504	50.018	24784	14147	0	660
-13.379	49.333	24645	14360	0	660
-14.605	45.294	24507	14589	0	660
-17.057	44.969	24399	14794	0	660
-14.172	45.005	24168	14868	0	660
-9.881	51.713	23922	14663	0	660
-1.406	57.230	23553	14196	0	660
5.698	62.640	23307	13803	0	660
6.131	64.263	23091	13819	0	660
0.325	59.466	22876	14073	0	660
-7.970	51.208	22630	14155	0	660
-10.999	50.595	22384	13983	0	660
-5.481	54.309	22045	13753	0	660
7.140	67.075	21814	13647	0	660
17.021	77.065	21568	13753	0	660
17.706	78.615	21399	13999	0	660
11.396	71.475	21199	14221	0	660
5.662	62.351	20968	14335	0	660
8.222	61.450	20784	14466	0	660
17.815	67.328	20614	14680	0	660
22.575	73.530	20460	14975	0	660
23.404	73.062	20322	15270	0	660
15.038	67.652	20184	15516	0	660
10.999	63.469	20076	15737	0	660
9.845	62.243	19953	16016	0	660
13.812	64.479	19876	16352	0	660
18.536	67.364	19799	16638	0	660
20.591	66.534	19660	16802	0	660
21.313	65.597	19553	16859	0	660
23.008	65.417	19414	16851	0	660
20.411	62.099	19307	16826	0	660
14.353	55.247	19184	16884	0	660
3.750	47.999	19045	16908	0	660
-5.554	41.147	18876	16818	0	660
-11.396	36.098	18768	16703	0	660
-8.330	37.613	18645	16679	0	660
-0.361	44.068	18553	16777	0	660
8.655	50.992	18476	16941	0	660
18.824	58.276	18414	17064	0	660
21.168	61.305	18322	17064	0	660
19.185	55.463	18168	16933	0	660
10.278	47.890	18030	16785	0	660
1.839	40.029	17937	16711	0	660
-5.301	37.865	17860	16752	0	660
-4.652	40.209	17768	16810	0	660
1.551	48.864	17645	16761	0	660
9.088	53.264	17568	16646	0	660
13.415	54.995	17491	16695	0	660
8.366	48.179	17507	16990	0	660
-0.938	37.577	17568	17441	0	660
-9.124	30.545	17660	17908	0	660
-11.287	31.302	17768	18343	0	660
-4.255	37.685	17922	18818	0	660
2.633	43.563	18107	19367	0	660
2.452	41.868	18337	19941	0	660
-4.183	34.800	18568	20490	0	660
-11.432	29.535	18799	20941	0	660
-11.107	29.210	19091	21359	0	660
-5.049	35.052	19353	21752	0	660
2.705	35.521	19584	21990	0	660
-0.361	25.784	19814	22006	0	660
-12.117	9.196	20014	21916	0	660
-24.450	-4.580	20245	21867	0	660
-28.669	-2.669	20537	21916	0	660
-22.972	11.828	20784	22031	0	660
-11.107	31.266	21107	22170	0	660
-3.426	41.868	21414	22228	0	660
-7.321	34.908	21660	22113	0	660
-16.841	19.473	21784	21662	1	668
-28.128	3.246	21922	20949	0	668
-35.124	-7.645	22014	20318	0	668
-34.187	-7.140	22168	19884	0	668
-28.741	-1.839	22353	19572	0	668
-17.851	6.419	22491	19302	0	668
-12.441	16.733	22630	18974	0	668
-9.737	20.159	22768	18597	0	668
-13.523	20.808	22891	18261	0	668
-19.654	14.461	23014	17982	0	668
-25.784	7.248	23122	17670	0	668
-30.112	1.010	23184	17252	0	668
-34.764	-3.101	23245	16752	0	668
-35.918	-3.859	23276	16352	0	668
-31.771	0.072	23353	16147	0	668
-22.214	8.475	23507	16106	0	668
-9.592	17.238	23614	16106	0	668
0.433	26.037	23691	16048	0	668
0.902	25.279	23845	15983	0	668
-5.590	17.706	23968	16040	0	668
-14.821	9.340	24107	16171	0	668
-18.752	5.121	24230	16221	0	668
-21.385	7.681	24337	16114	0	668
-20.231	12.910	24414	16057	0	668
-21.024	17.310	24553	16147	0	668
-23.080	22.358	24737	16311	0	668
-19.870	28.705	24860	16449	0	668
-11.648	35.016	24968	16498	0	668
1.767	44.573	25091	16482	0	668
9.773	48.071	25199	16490	0	668
12.514	42.409	25353	16597	0	668
11.215	36.387	25491	16736	0	668
9.124	30.545	25645	16793	0	668
11.432	30.256	25722	16728	0	668
15.759	34.006	25814	16621	0	668
13.668	36.567	25876	16523	0	668
6.275	33.538	25953	16408	0	668
-3.210	28.777	26014	16262	0	668
-1.695	29.318	26076	16081	0	668
10.278	40.966	26076	15876	0	668
33.682	61.125	25999	15507	0	668
51.136	75.802	25922	15007	0	668
53.083	74.144	25860	14581	0	668
39.632	57.807	25768	14303	0	668
21.709	34.547	25691	14089	0	668
7.753	17.706	25568	13786	0	668
3.931	12.622	25430	13483	0	668
1.190	15.615	25399	13434	0	668
-2.308	21.637	25414	13671	0	668
-4.291	25.460	25414	13958	0	668
-4.616	28.777	25384	14139	0	668
5.265	34.836	25353	14204	0	668
22.431	41.543	25260	14122	0	668
37.216	48.107	25045	13778	0	668
45.835	53.119	24814	13229	0	668
44.645	47.746	24584	12770	0	668
32.348	33.141	24399	12507	0	668
19.546	16.625	24168	12384	0	668
8.871	3.570	24030	12417	0	668
9.412	5.445	23922	12663	0	668
14.966	17.310	23860	13032	0	668
18.897	32.131	23768	13401	0	668
22.070	38.911	23722	13721	0	668
14.353	32.744	23691	14048	0	668
7.393	18.500	23645	14466	0	668
-2.741	2.272	23660	14950	0	668
-7.934	-9.737	23645	15360	0	668
-8.114	-14.569	23614	15639	0	668
-3.642	-11.107	23614	15860	0	668
3.534	-2.741	23584	16081	0	668
8.402	4.580	23507	16262	0	668
10.242	8.619	23491	16327	0	668
4.039	6.780	23399	16303	0	668
-4.760	0.325	23337	16294	0	668
-12.225	-5.481	23260	16286	0	668
-18.283	-9.196	23199	16319	0	668
-14.353	-8.150	23230	16531	0	668
-4.255	-4.364	23276	16916	0	668
7.717	-0.252	23245	17129	0	668
12.550	-2.921	23168	16982	0	668
5.734	-11.287	23045	16646	0	668
-7.934	-23.693	22937	16352	0	668
-20.123	-31.915	22814	16147	0	668
-28.994	-31.915	22722	16048	0	668
-28.525	-27.371	22645	16016	0	668
-24.811	-19.870	22553	15975	0	668
-24.017	-19.726	22476	15860	0	668
-25.784	-23.224	22322	15712	0	668
-35.088	-34.223	22199	15565	0	668
-49.008	-47.025	22076	15401	0	668
-61.991	-62.604	21891	15180	0	668
-64.767	-68.878	21768	14966	0	668
-58.493	-66.643	21584	14852	0	668
-42.697	-54.562	21507	14876	0	668
-31.699	-40.930	21399	14934	0	668
-24.847	-28.525	21230	14893	0	668
-23.945	-23.512	21107	14786	0	668
-22.034	-19.401	20953	14729	0	668
-21.493	-24.522	20845	14753	0	668
-26.542	-31.049	20707	14827	0	668
-33.646	-42.301	20568	14860	0	668
-43.887	-54.634	20430	14844	0	668
-48.936	-57.555	20307	14778	0	668
-42.157	-53.155	20091	14655	0	668
-35.016	-45.618	19876	14466	0	668
-31.554	-43.491	19660	14278	0	668
-37.649	-46.015	19430	14114	0	668
-45.835	-50.343	19230	13950	0	668
-53.119	-53.300	18937	13688	0	668
-50.884	-48.756	18645	13352	0	668
-46.484	-39.452	18353	13114	0	668
-36.855	-35.341	18107	13057	0	668
-30.364	-33.141	17860	13081	0	668
-25.676	-32.276	17568	12999	0	668
-21.962	-35.701	17307	12860	0	668
-24.775	-38.911	17091	12975	0	668
-27.443	-45.330	16953	13384	0	668
-30.869	-47.313	16814	13868	0	668
-25.243	-45.078	16660	14237	0	668
-16.913	-36.855	16507	14458	0	668
-10.963	-24.666	16354	14630	0	668
-6.816	-18.608	16215	14852	0	668
-9.809	-15.038	16077	15139	0	668
-14.533	-19.978	15954	15401	0	668
-20.447	-25.460	15815	15589	0	668
-22.214	-30.112	15692	15745	0	668
-24.053	-32.348	15584	15958	0	668
-21.709	-29.968	15508	16253	0	668
-15.651	-24.558	15446	16547	0	668
-11.612	-19.510	15308	16736	0	668
-8.799	-16.300	15231	16802	0	668
-6.347	-15.615	15108	16843	0	668
-5.517	-13.920	15061	16933	0	668
-2.705	-10.891	14984	17088	0	668
0.649	-9.232	14815	17105	0	668
5.878	-6.058	14615	16752	0	668
10.386	-3.101	14308	16122	0	668
13.271	-1.803	14031	15516	0	668
13.199	-1.082	13754	15098	0	668
11.612	0.397	13600	14966	0	668
11.648	3.931	13384	15032	0	668
19.906	12.153	13200	15057	0	668
30.256	20.087	13046	15007	0	668
38.767	26.650	12892	15057	0	668
39.199	26.686	12738	15229	0	668
37.072	20.988	12661	15434	0	668
37.000	18.428	12538	15606	0	668
46.953	28.020	12384	15680	0	668
63.866	42.445	12231	15671	0	668
78.615	58.348	12123	15762	0	668
85.575	66.210	12108	16073	0	668
80.599	65.417	12138	16580	0	668
72.232	56.257	12200	17195	0	668
58.781	49.621	12277	17769	0	668
53.336	44.789	12369	18310	0	668
50.811	43.563	12538	18884	0	668
51.929	44.320	12692	19523	0	668
57.663	45.150	12923	20113	0	668
62.423	47.205	13123	20597	0	668
67.184	48.612	13338	21031	0	668
67.256	45.618	13569	21416	0	668
63.325	38.082	13800	21744	0	668
56.185	30.148	14046	22006	0	668
46.917	20.447	14261	22138	0	668
37.396	8.511	14492	22179	0	668
29.427	3.823	14754	22244	0	668
24.017	0.000	15031	22375	0	668
23.260	1.767	15308	22580	0	668
27.010	7.501	15692	22867	0	668
30.797	11.612	16061	23138	0	668
32.203	9.665	16399	23269	0	668
28.525	2.813	16707	23244	0	668
22.755	-3.606	17045	23129	0	668
19.510	-5.770	17353	22941	0	668
25.135	2.200	17614	22654	0	668
30.833	12.153	17860	22236	1	700
32.167	16.805	18030	21597	0	700
28.092	13.668	18122	20802	0	700
18.464	5.662	18260	20072	0	700
15.543	-0.757	18399	19490	0	700
18.716	-1.515	18537	18998	0	700
27.984	-2.488	18645	18498	0	700
29.318	-7.248	18722	17924	0	700
25.965	-19.293	18814	17359	0	700
16.949	-30.040	18922	16933	0	700
14.208	-38.442	19030	16654	0	700
11.612	-43.599	19107	16408	0	700
9.665	-47.494	19230	16106	0	700
5.770	-52.759	19276	15778	0	700
1.334	-52.074	19337	15548	0	700
0.865	-50.523	19476	15434	0	700
0.721	-46.195	19537	15335	0	700
-0.685	-50.884	19630	15204	0	700
-6.960	-55.427	19707	15139	0	700
-10.819	-58.204	19845	15163	0	700
-7.176	-49.080	19953	15262	0	700
3.750	-36.783	20076	15360	0	700
13.379	-22.863	20153	15384	0	700
15.435	-22.791	20245	15352	0	700
3.137	-34.331	20322	15352	0	700
-15.182	-49.369	20399	15401	0	700
-28.381	-59.178	20507	15458	0	700
-33.502	-60.656	20553	15434	0	700
-28.561	-57.952	20614	15360	0	700
-21.204	-52.001	20645	15278	0	700
-20.267	-55.463	20660	15188	0	700
-22.863	-63.072	20660	15073	0	700
-31.446	-72.521	20691	14950	0	700
-38.983	-78.543	20691	14844	0	700
-44.753	-80.959	20645	14688	0	700
-49.946	-81.356	20537	14384	0	700
-57.555	-79.445	20414	13966	0	700
-60.115	-81.428	20307	13655	0	700
-61.955	-81.861	20245	13516	0	700
-58.132	-81.212	20107	13425	0	700
-49.874	-76.055	20030	13360	0	700
-42.986	-70.069	19968	13384	0	700
-39.885	-63.938	19891	13483	0	700
-43.202	-62.676	19876	13663	0	700
-47.999	-64.623	19891	13942	0	700
-51.100	-64.912	19860	14245	0	700
-46.376	-59.250	19845	14450	0	700
-39.272	-51.208	19799	14581	0	700
-34.151	-46.736	19737	14680	0	700
-33.970	-47.097	19645	14614	0	700
-36.783	-51.424	19491	14368	0	700
-37.180	-55.391	19322	14114	0	700
-35.197	-52.398	19199	14016	0	700
-33.826	-51.533	19122	14098	0	700
-37.036	-51.605	19076	14368	0	700
-50.451	-59.791	19076	14696	0	700
-59.791	-66.426	18999	14917	0	700
-65.561	-69.852	18953	15024	0	700
-60.765	-70.609	18891	15139	0	700
-48.936	-66.174	18845	15286	0	700
-40.029	-62.315	18768	15425	0	700
-35.124	-57.591	18691	15458	0	700
-35.593	-54.742	18584	15384	0	700
-40.209	-52.146	18460	15286	0	700
-44.573	-53.660	18337	15171	0	700
-44.212	-54.382	18168	15024	0	700
-42.553	-56.653	18014	14884	0	700
-42.048	-56.401	17876	14786	0	700
-40.750	-56.437	17737	14753	0	700
-39.812	-53.480	17614	14786	0	700
-37.288	-49.910	17537	14852	0	700
-34.475	-44.501	17399	14934	0	700
-30.941	-39.776	17337	15065	0	700
-28.453	-36.278	17260	15286	0	700
-25.352	-30.941	17199	15483	0	700
-17.923	-26.109	17122	15589	0	700
-13.163	-22.827	17091	15770	0	700
-11.648	-26.433	17076	16089	0	700
-20.483	-36.278	17030	16303	0	700
-28.814	-45.979	16891	16253	0	700
-32.961	-49.441	16784	16016	0	700
-34.006	-47.566	16645	15811	0	700
-34.656	-45.799	16553	15762	0	700
-40.570	-47.890	16476	15852	0	700
-47.097	-54.995	16399	15950	0	700
-49.080	-55.644	16308	15983	0	700
-39.993	-51.028	16231	16016	0	700
-26.145	-41.111	16200	16130	0	700
-16.589	-36.170	16184	16352	0	700
-14.749	-37.541	16154	16588	0	700
-19.149	-41.796	16138	16728	0	700
-23.873	-43.455	16123	16785	0	700
-23.296	-38.045	16061	16826	0	700
-15.038	-25.929	16000	16843	0	700
-6.383	-14.677	15969	16826	0	700
-3.246	-10.350	15892	16744	0	700
-7.140	-13.199	15831	16597	0	700
-17.815	-26.578	15692	16433	0	700
-30.689	-41.976	15600	16286	0	700
-35.485	-51.677	15492	16122	0	700
-31.987	-52.506	15354	15925	0	700
-25.748	-48.792	15215	15688	0	700
-19.762	-42.697	15031	15401	0	700
-19.870	-38.154	14815	14991	0	700
-20.411	-35.990	14569	14516	0	700
-17.779	-27.732	14354	14147	0	700
-8.655	-17.346	14138	13983	0	700
4.255	-5.301	13984	13966	0	700
10.710	-4.616	13769	13901	0	700
6.996	-14.569	13569	13745	0	700
-7.681	-32.131	13415	13696	0	700
-23.693	-51.785	13231	13860	0	700
-37.613	-64.767	13154	14139	0	700
-39.704	-63.289	13031	14409	0	700
-30.004	-49.369	12908	14573	0	700
-13.848	-31.807	12800	14680	0	700
1.803	-12.081	12723	14876	0	700
11.360	-3.498	12615	15147	0	700
10.855	-5.878	12523	15376	0	700
4.436	-14.461	12369	15442	0	700
-2.452	-27.876	12231	15393	0	700
-4.400	-33.141	12123	15384	0	700
2.344	-28.850	12000	15491	0	700
14.569	-17.418	11908	15663	0	700
26.397	-3.859	11831	15835	0	700
34.583	5.986	11754	15999	0	700
32.708	4.868	11615	16065	0	700
23.549	-4.544	11461	15966	0	700
10.999	-15.651	11308	15803	0	700
3.137	-22.358	11215	15753	0	700
4.724	-20.808	11077	15827	0	700
15.074	-10.206	10969	15852	0	700
25.748	2.416	10754	15704	0	700
32.384	8.799	10569	15409	0	700
27.371	6.383	10354	15106	0	700
18.211	-0.577	10077	14778	0	700
13.523	-4.183	9723	14229	0	700
19.041	3.714	9338	13524	0	700
31.807	15.723	8984	13016	0	700
41.363	25.640	8723	12835	0	700
37.180	18.139	8446	12868	0	700
20.988	3.534	8277	13057	0	700
7.789	-11.323	8077	13344	0	700
8.583	-15.507	7923	13630	0	700
23.008	-1.515	7800	13975	0	700
44.104	15.002	7723	14466	0	700
50.487	23.296	7661	15040	0	700
43.563	20.483	7646	15622	0	700
31.302	13.956	7615	16147	0	700
25.352	7.248	7661	16703	0	700
27.335	6.347	7754	17408	0	700
33.898	8.511	7908	18277	0	700
36.206	5.842	8138	19220	0	700
34.475	0.325	8369	20072	0	700
32.348	-1.298	8600	20810	0	700
34.439	0.397	8892	21465	0	700
38.154	6.635	9184	22129	0	700
39.740	7.645	9523	22802	0	700
34.187	0.469	9877	23384	0	700
22.575	-12.694	10200	23826	0	700
12.045	-23.296	10584	24170	0	700
5.986	-27.443	10923	24474	0	700
6.780	-24.522	11308	24695	0	700
7.176	-21.349	11646	24736	0	700
7.393	-24.558	11954	24605	0	700
2.416	-31.482	12261	24359	0	700
-1.298	-36.711	12492	23982	0	700
-1.118	-36.314	12692	23433	0	700
1.767	-31.446	12877	22744	1	672
5.878	-21.637	13046	22138	0	672
9.484	-13.523	13277	21629	0	672
12.225	-6.888	13369	21031	0	672
10.999	-5.265	13492	20334	0	672
3.714	-13.235	13661	19728	0	672
-8.114	-25.099	13800	19285	0	672
-16.192	-37.577	13984	18974	0	672
-20.050	-40.462	14138	18687	0	672
-11.540	-30.941	14292	18343	0	672
-1.046	-17.418	14446	18015	0	672
4.832	-7.248	14600	17736	0	672
3.895	-10.061	14677	17392	0	672
-9.556	-27.299	14754	16875	0	672
-31.374	-52.759	14800	16311	0	672
-52.542	-74.576	14846	15876	0	672
-63.181	-85.719	14892	15622	0	672
-59.755	-80.563	15046	15548	0	672
-42.012	-65.236	15154	15606	0	672
-24.702	-51.208	15308	15663	0	672
-20.555	-46.556	15431	15688	0	672
-33.682	-57.483	15584	15721	0	672
-55.139	-70.465	15738	15844	0	672
-71.295	-81.320	15892	15999	0	672
-76.596	-83.628	16031	16040	0	672
-71.186	-79.661	16077	15925	0	672
-62.243	-75.658	16138	15729	0	672
-58.096	-74.648	16154	15475	0	672
-58.420	-76.668	16154	15163	0	672
-61.125	-77.173	16123	14819	0	672
-63.866	-76.632	16077	14491	0	672
-66.138	-77.461	16000	14155	0	672
-72.052	-78.940	15892	13704	0	672
-75.045	-81.933	15738	13212	0	672
-74.901	-80.815	15615	12909	0	672
-65.633	-69.528	15569	12852	0	672
-52.434	-54.309	15492	12925	0	672
-44.609	-43.130	15431	12934	0	672
-43.166	-38.947	15308	12860	0	672
-51.533	-47.494	15261	12876	0	672
-59.034	-55.968	15215	13089	0	672
-61.269	-62.171	15261	13483	0	672
-61.738	-62.856	15277	13942	0	672
-58.024	-63.181	15338	14360	0	672
-59.827	-64.840	15354	14704	0	672
-64.335	-67.724	15415	15032	0	672
-64.731	-67.328	15446	15393	0	672
-62.820	-62.423	15523	15770	0	672
-56.257	-52.398	15600	16065	0	672
-43.887	-39.344	15615	16286	0	672
-34.367	-27.371	15677	16498	0	672
-28.994	-22.286	15800	16761	0	672
-27.876	-25.676	15831	17006	0	672
-32.636	-31.266	15877	17105	0	672
-39.055	-39.740	15908	17121	0	672
-43.491	-41.760	15984	17179	0	672
-46.304	-42.914	16031	17302	0	672
-46.376	-40.642	16077	17441	0	672
-45.114	-41.543	16154	17523	0	672
-45.763	-41.940	16200	17498	0	672
-41.940	-42.445	16215	17400	0	672
-39.019	-40.534	16215	17269	0	672
-35.665	-41.075	16200	17105	0	672
-32.312	-40.065	16184	16908	0	672
-29.787	-38.731	16154	16670	0	672
-26.758	-35.990	16077	16360	0	672
-22.683	-29.210	15892	15852	0	672
-20.447	-23.945	15723	15204	0	672
-25.893	-22.539	15538	14647	0	672
-34.403	-28.128	15369	14286	0	672
-37.685	-34.043	15215	14040	0	672
-37.000	-36.098	15000	13729	0	672
-28.922	-32.348	14800	13327	0	672
-22.431	-28.128	14600	13032	0	672
-26.650	-31.266	14446	13007	0	672
-38.550	-35.557	14354	13171	0	672
-50.343	-43.383	14215	13360	0	672
-52.614	-43.166	14108	13450	0	672
-45.979	-34.043	13969	13532	0	672
-31.446	-23.080	13892	13745	0	672
-18.897	-15.362	13846	14089	0	672
-9.376	-7.429	13815	14499	0	672
-9.484	-6.167	13754	14852	0	672
-14.858	-7.537	13738	15089	0	672
-21.241	-13.848	13677	15311	0	672
-29.499	-22.719	13661	15598	0	672
-33.429	-28.561	13646	15909	0	672
-32.564	-29.463	13615	16098	0	672
-29.571	-27.263	13523	16139	0	672
-31.049	-26.397	13461	16163	0	672
-35.124	-29.787	13431	16253	0	672
-38.911	-33.285	13354	16327	0	672
-40.065	-34.043	13261	16294	0	672
-36.711	-28.958	13154	16155	0	672
-30.220	-22.683	13031	15991	0	672
-24.522	-19.978	12923	15868	0	672
-18.969	-17.202	12815	15778	0	672
-16.192	-16.372	12661	15671	0	672
-13.415	-13.812	12538	15516	0	672
-16.156	-15.182	12369	15344	0	672
-17.706	-17.382	12215	15163	0	672
-19.834	-22.322	12061	15016	0	672
-14.461	-20.411	11984	15073	0	672
-8.294	-15.398	11908	15311	0	672
-0.757	-5.590	11815	15434	0	672
1.190	-0.865	11600	15237	0	672
-2.236	-0.829	11384	14835	0	672
-7.717	-5.193	11200	14557	0	672
-11.071	-8.114	11046	14557	0	672
-8.258	-6.131	10923	14663	0	672
-1.479	2.344	10754	14704	0	672
6.203	11.540	10615	14680	0	672
13.704	14.930	10492	14704	0	672
12.694	17.887	10369	14852	0	672
7.393	11.396	10261	15057	0	672
1.983	6.960	10184	15221	0	672
-2.200	3.787	10046	15303	0	672
-0.361	6.058	9923	15360	0	672
10.097	14.785	9846	15499	0	672
26.001	31.230	9800	15753	0	672
40.353	45.799	9754	16048	0	672
46.628	54.706	9677	16221	0	672
46.845	54.814	9584	16270	0	672
43.094	51.208	9508	16319	0	672
40.498	45.799	9492	16441	0	672
40.317	46.484	9415	16613	0	672
42.445	45.582	9354	16728	0	672
41.507	45.005	9292	16752	0	672
38.839	45.474	9200	16703	0	672
41.543	47.854	9123	16638	0	672
45.330	54.345	9000	16539	0	672
48.179	60.440	8908	16416	0	672
50.559	61.846	8769	16303	0	672
52.759	59.971	8661	16171	0	672
53.913	60.043	8446	15876	0	672
57.952	62.748	8231	15450	0	672
60.079	65.308	8031	15048	0	672
53.841	65.020	7754	14622	0	672
44.933	57.988	7384	14016	0	672
37.216	50.090	7031	13294	0	672
32.961	44.501	6661	12696	0	672
36.314	46.917	6338	12368	0	672
41.688	52.182	6077	12311	0	672
44.284	52.614	5877	12466	0	672
39.488	50.847	5677	12753	0	672
33.970	43.779	5523	13098	0	672
24.775	36.351	5415	13516	0	672
21.529	32.348	5338	14065	0	672
24.450	33.177	5308	14704	0	672
29.571	36.783	5292	15352	0	672
30.977	38.514	5308	15966	0	672
25.965	34.475	5369	16597	0	672
18.933	27.371	5461	17310	0	672
14.100	21.060	5615	18105	0	672
19.726	23.801	5800	18908	0	672
29.968	29.030	5954	19621	0	672
35.016	33.141	6184	20228	0	672
29.354	28.056	6384	20785	0	672
17.490	18.644	6646	21375	0	672
5.517	10.133	6969	22015	0	672
4.147	11.107	7292	22679	0	672
9.160	15.831	7661	23302	0	672
14.533	22.503	8031	23793	0	672
17.562	23.585	8369	24105	0	672
18.464	24.594	8738	24269	0	672
17.779	26.361	9046	24351	0	672
21.132	24.775	9384	24359	0	672
22.106	21.132	9692	24252	0	672
19.798	16.516	9984	24015	0	672
15.939	8.763	10277	23687	0	672
8.727	2.019	10538	23343	0	672
0.974	-3.895	10800	22990	1	684
-8.619	-8.835	11077	22629	0	684
-14.317	-12.045	11277	22195	0	684
-14.821	-13.776	11492	21638	0	684
-14.713	-11.251	11677	21088	0	684
-15.002	-12.694	11908	20629	0	684
-27.515	-24.234	12123	20236	0	684
-42.806	-35.810	12308	19826	0	684
-56.726	-50.234	12492	19392	0	684
-63.289	-56.221	12692	18998	0	684
-57.916	-59.322	12877	18703	0	684
-58.060	-60.909	13108	18441	0	684
-59.106	-67.941	13231	18105	0	684
-64.659	-73.494	13369	17621	0	684
-68.518	-76.091	13431	17097	0	684
-68.987	-74.721	13538	16654	0	684
-67.869	-69.564	13692	16376	0	684
-69.960	-68.987	13800	16188	0	684
-74.793	-70.682	13892	15975	0	684
-77.678	-72.521	14000	15729	0	684
-76.343	-70.429	14108	15524	0	684
-71.259	-62.135	14215	15417	0	684
-65.344	-51.028	14369	15409	0	684
-63.109	-38.478	14523	15507	0	684
-64.046	-31.266	14692	15655	0	684
-68.265	-33.502	14800	15688	0	684
-71.691	-42.157	14877	15507	0	684
-74.035	-56.617	14892	15188	0	684
-75.550	-62.712	14892	14901	0	684
-74.540	-64.515	14954	14680	0	684
-72.557	-61.233	14923	14475	0	684
-70.718	-56.004	14831	14130	0	684
-69.095	-56.257	14754	13639	0	684
-68.013	-56.726	14646	13212	0	684
-64.263	-54.670	14584	12991	0	684
-58.709	-48.900	14523	12950	0	684
-49.766	-41.688	14446	12942	0	684
-45.294	-36.495	14369	12893	0	684
-45.150	-36.206	14369	12958	0	684
-49.405	-40.894	14369	13221	0	684
-57.699	-50.090	14384	13540	0	684
-64.335	-56.509	14384	13811	0	684
-67.147	-60.801	14384	13999	0	684
-66.823	-58.709	14369	14155	0	684
-60.440	-54.995	14384	14352	0	684
-52.723	-51.280	14415	14622	0	684
-46.881	-49.477	14431	14893	0	684
-49.153	-53.119	14415	15057	0	684
-57.194	-60.476	14415	15122	0	684
-66.354	-66.607	14384	15245	0	684
-73.494	-69.203	14446	15475	0	684
-72.304	-67.328	14446	15688	0	684
-66.751	-60.007	14431	15762	0	684
-61.558	-54.237	14384	15737	0	684
-55.139	-52.867	14369	15721	0	684
-54.814	-53.841	14354	15762	0	684
-50.811	-56.257	14338	15803	0	684
-47.313	-53.877	14292	15794	0	684
-40.101	-48.071	14215	15721	0	684
-33.610	-39.849	14108	15557	0	684
-28.994	-30.436	13984	15270	0	684
-27.587	-24.450	13815	14893	0	684
-25.676	-19.834	13661	14589	0	684
-18.933	-14.064	13523	14401	0	684
-8.114	-9.881	13338	14245	0	684
2.777	-6.275	13154	14007	0	684
7.645	-6.708	12969	13770	0	684
3.642	-10.746	12877	13778	0	684
-5.842	-17.598	12800	14073	0	684
-12.405	-17.274	12754	14376	0	684
-13.776	-14.533	12646	14516	0	684
-11.973	-6.671	12508	14524	0	684
-7.032	0.325	12384	14557	0	684
-2.633	2.524	12338	14696	0	684
2.705	3.714	12231	14884	0	684
8.619	1.442	12154	15057	0	684
11.828	-3.354	12077	15196	0	684
13.559	-7.862	12031	15335	0	684
10.422	-8.439	11969	15516	0	684
12.225	-2.488	11954	15803	0	684
18.067	12.261	11923	16089	0	684
27.119	27.443	11846	16221	0	684
32.131	38.226	11769	16212	0	684
34.331	38.118	11723	16237	0	684
32.853	34.620	11723	16360	0	684
34.583	32.095	11661	16523	0	684
39.199	34.115	11615	16638	0	684
42.373	36.242	11584	16670	0	684
43.599	38.226	11523	16695	0	684
41.183	36.567	11538	16777	0	684
41.760	40.642	11492	16892	0	684
46.376	46.556	11461	16957	0	684
51.136	55.716	11415	16949	0	684
52.975	58.637	11384	16884	0	684
48.684	56.329	11277	16761	0	684
42.589	47.566	11200	16597	0	684
36.819	46.159	11123	16400	0	684
36.855	44.933	10984	16229	0	684
37.649	46.736	10877	16016	0	684
39.776	48.107	10677	15696	0	684
41.543	46.123	10523	15311	0	684
42.914	44.861	10354	15016	0	684
43.238	46.809	10200	14860	0	684
39.524	44.933	10061	14786	0	684
35.882	40.245	9892	14721	0	684
25.748	33.826	9800	14622	0	684
20.050	26.758	9646	14606	0	684
17.093	22.178	9538	14712	0	684
16.336	22.539	9446	14868	0	684
20.483	23.873	9369	15007	0	684
23.693	29.102	9231	15048	0	684
27.515	34.800	9154	15048	0	684
33.357	40.317	9031	15130	0	684
36.711	43.527	8984	15335	0	684
36.423	41.543	8954	15606	0	684
34.187	37.180	8877	15794	0	684
30.653	33.826	8815	15917	0	684
29.210	31.049	8754	16081	0	684
29.354	30.220	8800	16360	0	684
29.354	28.128	8769	16654	0	684
26.758	26.037	8754	16834	0	684
24.017	18.933	8692	16875	0	684
19.582	17.310	8677	16875	0	684
21.168	17.851	8600	16900	0	684
24.378	18.933	8600	16908	0	684
22.575	20.952	8523	16875	0	684
18.572	17.526	8461	16810	0	684
9.953	11.973	8384	16736	0	684
5.770	7.321	8292	16654	0	684
5.662	10.206	8308	16654	0	684
11.323	14.281	8354	16900	0	684
16.336	18.103	8431	17359	0	684
15.723	14.641	8492	17662	0	684
10.602	14.281	8431	17564	0	684
8.835	11.432	8292	17203	0	684
10.855	14.064	8215	16793	0	684
14.930	21.096	8108	16482	0	684
22.791	26.470	8000	16278	0	684
25.027	26.578	7892	16057	0	684
21.313	21.781	7723	15721	0	684
14.028	14.966	7569	15401	0	684
7.104	5.698	7461	15245	0	684
5.049	5.373	7369	15253	0	684
11.179	9.304	7292	15294	0	684
20.267	16.264	7215	15294	0	684
22.575	18.067	7138	15352	0	684
21.781	16.625	7154	15557	0	684
14.966	11.143	7184	15917	0	684
11.937	5.770	7261	16376	0	684
9.881	1.046	7308	16793	0	684
7.609	-0.721	7384	17154	0	684
7.140	-3.534	7523	17539	0	684
1.406	-6.635	7677	18056	0	684
-7.032	-11.251	7892	18646	0	684
-13.199	-16.408	8108	19187	0	684
-20.123	-22.214	8308	19662	0	684
-18.536	-21.168	8538	20121	0	684
-14.064	-18.283	8846	20580	0	684
-8.727	-15.579	9108	20982	0	684
-17.995	-24.919	9354	21261	0	684
-35.197	-44.284	9615	21424	0	684
-60.296	-69.095	9831	21482	0	684
-78.904	-87.126	9984	21310	0	684
-83.303	-93.942	10123	20916	0	684
-79.661	-85.828	10231	20515	0	684
-71.763	-76.163	10415	20261	0	684
-66.823	-71.295	10538	20039	1	664
-66.066	-73.603	10661	19728	0	664
-70.754	-78.291	10754	19318	0	664
-73.530	-81.140	10846	18990	0	664
-75.045	-79.841	11031	18826	0	664
-74.901	-76.560	11200	18777	0	664
-71.114	-73.494	11354	18720	0	664
-69.528	-74.071	11538	18572	0	664
-64.118	-73.170	11661	18392	0	664
-61.089	-71.619	11815	18269	0	664
-61.991	-69.455	11984	18179	0	664
-64.154	-71.655	12138	18088	0	664
-74.071	-75.766	12261	17933	0	664
-81.103	-82.726	12384	17711	0	664
-87.270	-88.965	12461	17449	0	664
-86.801	-87.523	12538	17088	0	664
-81.536	-85.287	12569	16654	0	664
-78.507	-81.933	12615	16319	0	664
-78.038	-77.389	12661	16147	0	664
-77.389	-78.110	12754	16057	0	664
-75.117	-76.488	12877	16032	0	664
-71.619	-73.783	12954	16057	0	664
-65.164	-71.908	13061	16032	0	664
-65.597	-73.963	13108	15942	0	664
-69.996	-76.163	13200	15844	0	664
-73.422	-76.524	13231	15778	0	664
-70.682	-72.340	13292	15712	0	664
-61.053	-62.748	13354	15598	0	664
-54.129	-54.814	13354	15450	0	664
-52.182	-55.896	13354	15278	0	664
-57.447	-60.945	13261	14934	0	664
-63.289	-65.597	13184	14450	0	664
-63.253	-67.688	13046	14016	0	664
-61.991	-66.210	12969	13729	0	664
-62.315	-66.030	12846	13548	0	664
-66.931	-68.987	12738	13335	0	664
-74.973	-74.504	12584	13048	0	664
-79.769	-77.389	12415	12794	0	664
-77.930	-79.120	12338	12704	0	664
-72.773	-76.163	12231	12762	0	664
-65.561	-73.458	12108	12844	0	664
-60.188	-69.672	11984	12893	0	664
-60.801	-67.147	11908	12975	0	664
-65.308	-69.564	11831	13188	0	664
-71.078	-74.540	11815	13491	0	664
-74.144	-77.894	11800	13852	0	664
-74.901	-81.176	11738	14180	0	664
-74.540	-81.717	11615	14286	0	664
-72.124	-78.651	11431	14065	0	664
-65.813	-73.603	11215	13712	0	664
-57.843	-66.859	11108	13606	0	664
-46.412	-61.269	10984	13778	0	664
-40.065	-61.991	10923	14089	0	664
-42.950	-69.672	10877	14466	0	664
-49.008	-79.733	10908	14909	0	664
-53.949	-83.375	10908	15417	0	664
-57.086	-84.782	10954	15868	0	664
-55.752	-81.392	10954	16229	0	664
-55.139	-79.841	10984	16498	0	664
-56.762	-85.755	10969	16736	0	664
-57.447	-91.922	11000	16941	0	664
-60.548	-97.007	11000	17162	0	664
-65.669	-98.630	11061	17408	0	664
-65.092	-95.889	11061	17580	0	664
-64.912	-91.886	11046	17564	0	664
-61.918	-84.277	10969	17375	0	664
-57.771	-82.077	10923	17170	0	664
-59.214	-81.067	10877	17056	0	664
-60.188	-84.385	10831	16982	0	664
-64.695	-91.273	10723	16810	0	664
-65.020	-94.987	10600	16457	0	664
-64.407	-93.076	10508	16114	0	664
-61.233	-85.792	10384	15934	0	664
-56.329	-73.711	10354	15901	0	664
-51.785	-64.948	10261	15876	0	664
-46.809	-61.053	10154	15762	0	664
-44.825	-61.991	10077	15712	0	664
-45.799	-64.082	10061	15844	0	664
-46.340	-68.662	10108	16114	0	664
-47.277	-72.737	10123	16384	0	664
-52.542	-75.081	10123	16564	0	664
-53.119	-76.596	10138	16703	0	664
-51.821	-69.600	10184	16851	0	664
-46.556	-62.640	10261	17097	0	664
-41.255	-53.300	10292	17400	0	664
-40.858	-56.942	10369	17588	0	664
-45.510	-68.229	10384	17629	0	664
-52.542	-82.185	10415	17613	0	664
-56.185	-90.191	10431	17613	0	664
-52.687	-87.991	10461	17613	0	664
-48.467	-81.789	10446	17506	0	664
-49.513	-76.848	10446	17334	0	664
-54.670	-75.622	10384	17162	0	664
-61.918	-80.274	10308	16900	0	664
-65.957	-78.796	10231	16523	0	664
-65.020	-77.605	10123	16139	0	664
-63.649	-77.137	9984	15803	0	664
-64.948	-78.651	9846	15458	0	664
-67.184	-80.346	9646	14999	0	664
-67.580	-77.750	9431	14434	0	664
-63.036	-72.521	9215	13975	0	664
-58.673	-66.210	9061	13762	0	664
-54.995	-65.885	8923	13762	0	664
-56.076	-69.311	8831	13901	0	664
-58.420	-72.340	8769	14073	0	664
-55.752	-73.062	8692	14270	0	664
-54.562	-70.285	8646	14483	0	664
-52.506	-68.806	8508	14516	0	664
-57.663	-73.170	8292	14303	0	664
-67.508	-79.733	8108	14007	0	664
-74.107	-84.926	7954	13876	0	664
-80.599	-88.713	7815	13958	0	664
-78.868	-85.936	7738	14171	0	664
-72.953	-81.969	7646	14425	0	664
-64.623	-75.261	7538	14630	0	664
-57.375	-67.652	7461	14811	0	664
-50.162	-62.423	7384	15024	0	664
-53.624	-62.207	7354	15327	0	664
-57.519	-63.758	7338	15688	0	664
-59.574	-64.407	7308	16007	0	664
-56.401	-62.748	7292	16245	0	664
-46.015	-57.086	7261	16449	0	664
-38.082	-50.126	7261	16654	0	664
-35.413	-50.343	7215	16826	0	664
-38.911	-48.395	7184	16900	0	664
-42.625	-49.044	7138	16884	0	664
-43.310	-43.599	7000	16769	0	664
-40.101	-37.613	6877	16482	0	664
-38.658	-35.557	6692	16089	0	664
-39.416	-35.197	6523	15770	0	664
-44.068	-42.193	6369	15565	0	664
-43.960	-48.720	6184	15311	0	664
-41.219	-53.083	5969	14950	0	664
-37.252	-54.273	5815	14762	0	664
-39.488	-58.709	5800	15016	0	664
-53.624	-68.554	5831	15598	0	664
-75.586	-82.077	5892	16212	0	664
-90.480	-88.100	5954	16752	0	664
-91.453	-84.025	6061	17236	0	664
-73.026	-66.751	6184	17711	0	664
-49.982	-47.061	6308	18293	0	664
-41.363	-43.563	6569	18965	0	664
-47.313	-57.158	6769	19629	0	664
-63.072	-78.110	7031	20203	0	664
-74.793	-91.309	7292	20711	0	664
-72.376	-91.345	7584	21244	0	664
-60.981	-77.065	7954	21859	0	664
-57.158	-66.643	8308	22490	0	664
-66.643	-65.489	8692	22982	0	664
-79.950	-72.665	9077	23326	0	664
-90.335	-78.435	9461	23621	0	664
-88.604	-75.766	9892	23924	0	664
-72.990	-68.338	10292	24187	0	664
-59.286	-59.250	10738	24359	0	664
-48.936	-55.968	11123	24424	0	664
-49.297	-58.096	11538	24400	0	664
-50.920	-61.738	11954	24318	0	664
-52.975	-60.656	12354	24179	0	664
-50.811	-57.086	12692	23875	0	664
-48.215	-49.802	13000	23416	1	636
-47.782	-47.386	13277	22802	0	636
-49.621	-49.513	13431	21965	0	636
-58.493	-55.752	13523	20924	0	636
-63.902	-57.194	13646	19884	0	636
-66.859	-60.224	13677	18941	0	636
-68.446	-57.483	13723	18023	0	636
-69.059	-59.791	13692	17047	0	636
-70.393	-64.190	13677	16081	0	636
-71.078	-68.698	13646	15253	0	636
-68.806	-66.282	13661	14680	0	636
-62.568	-58.420	13677	14335	0	636
-54.886	-49.910	13738	14081	0	636
-47.349	-42.373	13692	13753	0	636
-46.123	-42.517	13723	13425	0	636
-45.438	-45.835	13723	13204	0	636
-45.943	-46.520	13738	13065	0	636
-45.510	-46.376	13692	12934	0	636
-41.688	-38.478	13661	12778	0	636
-37.216	-32.744	13661	12696	0	636
-36.495	-33.790	13661	12729	0	636
-44.969	-42.084	13677	12884	0	636
-57.266	-55.211	13692	13098	0	636
-69.311	-64.659	13692	13212	0	636
-70.898	-63.649	13661	13221	0	636
-63.686	-55.139	13677	13245	0	636
-54.850	-47.962	13615	13344	0	636
-49.693	-46.700	13615	13475	0	636
-58.204	-53.264	13584	13565	0	636
-66.498	-60.981	13538	13622	0	636
-68.085	-60.873	13523	13745	0	636
-59.286	-52.146	13523	13958	0	636
-44.392	-40.389	13600	14303	0	636
-33.069	-30.220	13661	14762	0	636
-33.213	-28.345	13754	15253	0	636
-41.219	-30.689	13800	15573	0	636
-47.241	-33.105	13800	15581	0	636
-51.605	-32.528	13692	15409	0	636
-48.467	-30.869	13646	15270	0	636
-45.510	-32.203	13600	15245	0	636
-46.556	-38.009	13569	15221	0	636
-43.455	-39.885	13415	15048	0	636
-35.197	-36.351	13277	14729	0	636
-24.270	-24.847	13154	14466	0	636
-13.235	-13.415	13046	14368	0	636
-10.206	-7.934	12969	14393	0	636
-15.543	-11.612	12877	14434	0	636
-29.751	-24.522	12754	14450	0	636
-42.950	-38.695	12677	14491	0	636
-49.513	-49.153	12615	14581	0	636
-50.307	-48.359	12523	14712	0	636
-43.310	-41.760	12492	14844	0	636
-36.928	-32.600	12384	14934	0	636
-32.420	-25.604	12354	15057	0	636
-28.669	-23.765	12338	15253	0	636
-25.532	-22.322	12308	15548	0	636
-20.772	-20.195	12338	15925	0	636
-20.483	-19.798	12308	16155	0	636
-27.912	-25.496	12184	15958	0	636
-36.964	-30.725	11984	15507	0	636
-39.524	-33.429	11877	15262	0	636
-35.665	-29.102	11815	15327	0	636
-27.551	-19.005	11769	15524	0	636
-20.916	-12.946	11738	15770	0	636
-21.781	-10.278	11723	16024	0	636
-21.745	-9.592	11754	16286	0	636
-19.149	-9.412	11754	16547	0	636
-15.290	-6.996	11754	16736	0	636
-12.225	-2.488	11754	16859	0	636
-12.838	-2.164	11738	16892	0	636
-16.661	-3.931	11661	16761	0	636
-13.415	-3.029	11523	16498	0	636
-6.455	-0.433	11446	16278	0	636
3.787	5.445	11369	16180	0	636
6.455	8.979	11308	16130	0	636
3.931	8.402	11154	15983	0	636
-8.871	0.974	11061	15737	0	636
-22.250	-7.789	10923	15548	0	636
-25.171	-11.432	10877	15507	0	636
-18.933	-5.409	10800	15614	0	636
-5.626	4.580	10754	15745	0	636
4.760	14.930	10677	15803	0	636
7.068	16.480	10677	15876	0	636
-2.452	12.838	10646	16007	0	636
-14.172	3.642	10569	16114	0	636
-20.050	-0.397	10523	16139	0	636
-17.057	1.010	10446	16065	0	636
-10.674	4.183	10308	15925	0	636
-0.829	11.143	10231	15786	0	636
11.071	22.178	10138	15712	0	636
23.476	35.629	10077	15721	0	636
34.079	47.854	9984	15721	0	636
38.658	51.821	9908	15680	0	636
37.288	47.386	9831	15671	0	636
33.862	43.419	9769	15737	0	636
36.531	45.078	9723	15835	0	636
43.635	51.533	9646	15852	0	636
50.595	59.394	9538	15786	0	636
53.841	61.161	9446	15737	0	636
53.155	57.843	9384	15729	0	636
54.634	58.312	9292	15745	0	636
51.785	55.355	9215	15770	0	636
47.133	50.379	9154	15811	0	636
37.000	40.389	9077	15811	0	636
24.558	28.164	8892	15630	0	636
21.096	23.657	8738	15286	0	636
19.510	27.696	8538	14991	0	636
24.306	35.016	8415	14844	0	636
29.787	43.527	8261	14737	0	636
32.925	49.116	8000	14524	0	636
40.462	51.641	7831	14229	0	636
44.392	52.795	7677	14106	0	636
38.803	47.602	7538	14237	0	636
29.499	40.101	7431	14434	0	636
21.168	32.528	7308	14548	0	636
19.185	31.554	7154	14630	0	636
28.814	39.668	7077	14786	0	636
41.147	50.126	7000	15057	0	636
44.464	50.523	6984	15384	0	636
39.235	45.799	6908	15704	0	636
33.249	39.849	6892	15983	0	636
34.295	41.327	6877	16212	0	636
41.616	52.542	6769	16335	0	636
48.972	63.577	6754	16449	0	636
44.969	61.810	6754	16736	0	636
31.554	48.792	6815	17154	0	636
17.057	33.790	6908	17580	0	636
6.058	23.440	6984	18064	0	636
5.481	18.320	7154	18613	0	636
12.514	21.096	7354	19228	0	636
20.375	25.460	7600	19859	0	636
29.895	31.735	7877	20465	0	636
30.725	34.800	8123	21023	0	636
20.050	31.230	8431	21498	0	636
4.940	21.565	8738	21998	0	636
-6.996	8.835	9154	22646	0	636
-8.907	3.354	9584	23302	0	636
-1.479	4.436	9892	23597	0	636
4.219	9.340	10154	23498	0	636
11.900	14.389	10431	23211	0	636
16.444	24.558	10677	22965	0	636
23.657	32.744	10954	22810	0	636
31.446	39.488	11277	22711	1	568
28.705	37.108	11538	22597	0	568
17.779	25.893	11846	22416	0	568
7.032	16.769	12184	22261	0	568
2.308	15.110	12523	22236	0	568
9.124	22.827	12846	22195	0	568
16.444	30.112	13154	22006	0	568
17.382	27.587	13415	21638	0	568
8.907	16.120	13677	21195	0	568
-3.823	4.652	13923	20802	0	568
-8.330	2.092	14200	20465	0	568
-3.678	10.819	14431	20113	0	568
6.419	21.745	14584	19597	0	568
11.287	25.784	14723	18916	0	568
6.599	19.510	14831	18211	0	568
-0.469	12.838	14923	17638	0	568
0.397	14.785	15046	17162	0	568
8.402	25.532	15123	16646	0	568
16.625	32.095	15184	16065	0	568
13.127	27.768	15200	15483	0	568
0.397	13.163	15200	14999	0	568
-9.592	1.695	15231	14581	0	568
-6.996	8.475	15138	14065	0	568
6.563	23.044	15000	13311	0	568
18.464	37.036	14815	12401	0	568
22.467	40.498	14569	11565	0	568
18.752	37.216	14415	11007	0	568
20.267	37.000	14338	10852	0	568
20.880	41.183	14215	10983	0	568
23.224	43.815	14108	11007	0	568
20.087	39.272	13923	10827	0	568
14.317	29.535	13769	10573	0	568
15.290	26.542	13538	10417	0	568
19.113	28.092	13415	10434	0	568
27.227	34.908	13292	10655	0	568
27.768	36.170	13200	11032	0	568
24.450	35.810	13154	11466	0	568
19.257	29.931	13077	11925	0	568
9.412	26.830	13077	12434	0	568
2.272	22.070	13061	12991	0	568
-3.354	19.726	13061	13491	0	568
-6.311	18.175	13000	13876	0	568
1.947	21.241	12984	14188	0	568
14.389	27.912	12969	14524	0	568
21.781	32.023	13000	14934	0	568
23.765	32.853	12969	15327	0	568
14.821	27.912	12984	15647	0	568
7.068	24.017	13031	15975	0	568
5.049	23.476	13108	16449	0	568
8.547	22.431	13261	17105	0	568
12.081	23.909	13415	17777	0	568
12.694	22.503	13523	18244	0	568
5.481	11.828	13538	18334	0	568
-3.570	4.436	13600	18220	0	568
-4.580	-1.010	13615	18220	0	568
1.046	1.334	13723	18400	0	568
10.278	10.710	13815	18605	0	568
13.920	16.552	13969	18785	0	568
9.232	16.552	14046	18900	0	568
-3.173	8.511	14077	18826	0	568
-12.333	3.137	14108	18580	0	568
-11.828	3.606	14108	18310	0	568
-1.551	11.251	14077	18031	0	568
8.907	20.700	14031	17605	0	568
15.579	26.217	13954	17088	0	568
19.401	23.909	13892	16711	0	568
12.946	15.543	13846	16556	0	568
2.452	0.469	13877	16523	0	568
-11.540	-12.550	13923	16564	0	568
-20.988	-15.038	13908	16572	0	568
-17.562	-6.383	13892	16490	0	568
-2.885	12.586	13954	16465	0	568
16.228	34.115	13984	16564	0	568
30.256	44.969	14046	16720	0	568
30.400	42.373	14077	16818	0	568
18.644	29.102	14138	16859	0	568
3.606	9.124	14184	16867	0	568
-5.986	-6.311	14138	16720	0	568
-3.606	-7.321	14123	16441	0	568
12.297	4.760	14108	16278	0	568
27.047	17.887	14108	16221	0	568
26.686	22.070	14077	16155	0	568
8.943	7.285	14108	16130	0	568
-16.228	-13.163	14123	16196	0	568
-30.761	-23.657	14123	16270	0	568
-25.099	-21.277	14108	16212	0	568
-7.862	-4.832	14061	16040	0	568
5.770	7.068	14031	15868	0	568
6.888	9.556	13984	15737	0	568
-2.705	3.101	13954	15639	0	568
-14.281	-6.419	13892	15565	0	568
-22.358	-13.595	13846	15499	0	568
-22.431	-18.933	13800	15384	0	568
-19.113	-17.238	13615	15073	0	568
-11.107	-13.523	13431	14614	0	568
-9.160	-9.592	13292	14221	0	568
-13.487	-10.963	13123	13991	0	568
-26.506	-22.358	12969	13819	0	568
-39.091	-32.961	12723	13548	0	568
-44.068	-37.072	12508	13196	0	568
-36.891	-29.499	12308	12966	0	568
-22.972	-16.192	12154	12942	0	568
-12.802	-6.094	12031	13089	0	568
-14.785	-8.619	11892	13278	0	568
-21.709	-17.562	11769	13458	0	568
-32.636	-27.227	11692	13753	0	568
-39.957	-32.095	11661	14163	0	568
-43.779	-37.757	11615	14524	0	568
-45.330	-40.858	11508	14745	0	568
-46.881	-45.979	11384	14844	0	568
-45.078	-42.337	11292	14934	0	568
-37.036	-31.122	11277	15147	0	568
-23.657	-14.064	11215	15507	0	568
-10.891	1.731	11231	15958	0	568
-4.400	6.780	11200	16221	0	568
-8.619	-0.721	10954	15934	0	568
-17.670	-15.651	10584	15007	0	568
-28.020	-25.532	10215	14032	0	568
-28.309	-27.696	9923	13573	0	568
-17.238	-18.139	9692	13532	0	568
-4.111	-0.649	9523	13622	0	568
7.934	14.353	9384	13819	0	568
11.648	17.923	9277	14147	0	568
12.297	16.733	9215	14532	0	568
6.852	9.592	9138	14942	0	568
5.193	4.147	9108	15360	0	568
5.806	5.662	9077	15753	0	568
10.819	12.333	8969	15991	0	568
18.320	20.411	8892	16081	0	568
26.578	29.571	8846	16253	0	568
38.839	36.459	8846	16597	0	568
45.799	43.743	8892	17031	0	568
54.165	50.920	8877	17367	0	568
56.329	56.690	8908	17629	0	568
53.408	55.536	8954	17965	0	568
44.212	49.802	9077	18474	0	568
38.550	39.199	9308	19121	0	568
35.774	31.266	9523	19867	0	568
39.235	27.299	9831	20613	0	568
41.327	27.732	10154	21351	0	568
36.675	28.994	10508	22113	0	568
31.590	30.905	10923	22859	0	568
32.167	34.547	11308	23506	0	568
39.812	42.553	11723	24006	0	568
50.415	48.071	12138	24384	0	568
58.673	49.910	12538	24638	0	568
55.391	45.294	12923	24761	0	568
49.297	38.767	13292	24752	0	568
43.599	35.882	13661	24662	0	568
43.996	38.478	14031	24523	0	568
43.022	43.383	14431	24375	0	568
40.786	42.589	14815	24277	1	604
34.872	36.603	15215	24179	0	604
29.715	30.545	15615	23990	0	604
29.535	28.381	15969	23687	0	604
34.583	30.040	16308	23310	0	604
40.678	34.692	16630	22875	0	604
47.494	39.993	16937	22384	0	604
51.136	42.553	17184	21810	0	604
53.841	44.284	17476	21179	0	604
49.369	41.616	17660	20531	0	604
39.380	33.321	17799	19736	0	604
29.066	21.673	17891	18834	0	604
19.618	16.012	18030	18015	0	604
19.293	13.668	18122	17367	0	604
17.418	15.038	18260	16793	0	604
14.497	12.477	18322	16180	0	604
8.943	7.573	18307	15442	0	604
10.169	9.665	18307	14721	0	604
22.358	18.500	18353	14212	0	604
30.617	27.119	18430	13991	0	604
31.807	29.499	18553	13991	0	604
15.795	17.995	18660	14032	0	604
-2.849	2.524	18784	14032	0	604
-11.937	-4.580	18891	14073	0	604
-4.580	-0.288	19014	14221	0	604
13.307	14.172	19184	14409	0	604
32.095	29.138	19276	14516	0	604
34.043	36.242	19399	14532	0	604
21.493	27.155	19491	14614	0	604
-5.121	6.816	19660	14852	0	604
-28.994	-15.182	19799	15147	0	604
-35.629	-27.984	19937	15327	0	604
-21.890	-22.358	20091	15417	0	604
0.108	-5.085	20184	15532	0	604
14.966	9.196	20337	15721	0	604
14.461	11.900	20476	15901	0	604
-1.623	2.272	20568	15958	0	604
-22.431	-16.697	20645	15876	0	604
-40.858	-35.665	20691	15729	0	604
-49.693	-48.684	20707	15532	0	604
-45.979	-47.494	20737	15368	0	604
-27.948	-31.554	20845	15434	0	604
-7.285	-13.163	20953	15671	0	604
3.642	-1.659	20999	15753	0	604
-0.757	-8.330	20953	15499	0	604
-20.123	-27.155	20876	15040	0	604
-36.459	-43.996	20799	14606	0	604
-44.068	-47.133	20691	14245	0	604
-42.409	-40.245	20584	13950	0	604
-34.980	-31.987	20507	13786	0	604
-30.364	-28.741	20430	13696	0	604
-27.624	-30.364	20384	13614	0	604
-23.801	-32.600	20276	13589	0	604
-20.880	-31.771	20245	13696	0	604
-16.949	-31.446	20199	13819	0	604
-16.913	-28.814	20153	13884	0	604
-19.257	-31.662	20091	13950	0	604
-24.053	-32.600	20076	14122	0	604
-28.669	-30.040	20045	14368	0	604
-28.489	-23.693	20076	14622	0	604
-24.234	-18.428	20030	14827	0	604
-23.260	-16.589	20014	14991	0	604
-27.010	-22.142	20030	15171	0	604
-34.331	-32.203	20030	15409	0	604
-42.553	-43.022	20030	15647	0	604
-47.566	-47.890	20030	15745	0	604
-49.874	-52.434	19968	15762	0	604
-50.126	-51.965	19953	15803	0	604
-49.297	-49.585	19937	15852	0	604
-39.632	-38.334	19845	15803	0	604
-26.109	-22.935	19722	15565	0	604
-18.969	-15.038	19491	15106	0	604
-20.447	-14.930	19276	14548	0	604
-26.902	-21.781	19076	14114	0	604
-29.787	-21.818	18860	13844	0	604
-22.395	-15.254	18660	13647	0	604
-11.251	-6.058	18491	13548	0	604
-13.271	-8.258	18322	13524	0	604
-23.440	-23.945	18122	13491	0	604
-33.502	-35.954	17937	13384	0	604
-33.249	-34.006	17737	13294	0	604
-18.572	-17.057	17584	13376	0	604
-1.695	0.721	17476	13663	0	604
5.121	6.203	17384	13934	0	604
-1.334	-2.813	17245	14114	0	604
-14.641	-20.303	17107	14311	0	604
-24.125	-31.951	17076	14606	0	604
-19.582	-31.230	17014	14975	0	604
-6.671	-18.644	16922	15311	0	604
11.107	-3.354	16860	15516	0	604
24.306	9.016	16784	15655	0	604
22.899	13.343	16737	15893	0	604
11.828	5.698	16722	16245	0	604
-0.757	-4.075	16707	16580	0	604
-11.828	-11.468	16660	16834	0	604
-12.405	-10.999	16691	17039	0	604
-6.996	-5.337	16660	17195	0	604
6.311	6.239	16584	17228	0	604
20.375	20.267	16537	17170	0	604
28.669	26.866	16414	17031	0	604
28.886	25.965	16215	16638	0	604
20.700	18.933	15984	15999	0	604
7.032	6.996	15800	15491	0	604
-2.452	-0.288	15600	15286	0	604
-0.433	3.462	15446	15204	0	604
9.881	14.208	15338	15180	0	604
27.335	32.492	15200	15221	0	604
41.832	45.727	15061	15196	0	604
50.307	49.730	14969	15188	0	604
46.412	46.772	14908	15450	0	604
39.957	37.396	14892	15860	0	604
33.610	31.302	14815	16016	0	604
33.429	33.285	14661	15876	0	604
42.553	45.078	14523	15680	0	604
54.742	58.637	14415	15565	0	604
61.414	68.410	14292	15614	0	604
61.846	68.013	14261	15835	0	604
54.382	59.430	14200	16065	0	604
43.491	46.123	14123	16163	0	604
37.757	41.075	14061	16204	0	604
36.964	39.957	14000	16303	0	604
37.865	42.373	13984	16465	0	604
37.973	44.753	13969	16638	0	604
36.747	45.294	13892	16720	0	604
37.216	49.946	13831	16744	0	604
38.514	53.985	13815	16793	0	604
39.488	56.076	13800	16933	0	604
36.314	47.277	13769	17064	0	604
27.804	36.098	13723	17006	0	604
20.700	22.899	13523	16662	0	604
13.740	20.483	13384	16253	0	604
16.949	26.902	13354	16139	0	604
22.647	36.423	13292	16327	0	604
34.620	49.441	13308	16572	0	604
46.340	56.545	13354	16843	0	604
50.343	59.683	13415	17187	0	604
48.576	55.031	13508	17523	0	604
38.731	48.792	13569	17810	0	604
30.797	41.904	13661	18072	0	604
26.794	39.380	13769	18384	0	604
27.479	36.459	13954	18728	0	604
26.289	35.305	14031	18974	0	604
21.060	29.499	14154	19121	0	604
13.415	21.601	14338	19334	0	604
6.239	17.923	14508	19679	0	604
3.282	15.254	14754	20031	0	604
6.996	19.473	14923	20244	0	604
14.100	24.342	15108	20318	0	604
17.634	28.561	15354	20416	0	604
18.680	29.174	15600	20670	0	604
12.333	22.322	15877	21015	0	604
5.842	15.182	16200	21318	0	604
3.318	15.002	16491	21556	0	604
7.393	15.543	16860	21867	0	604
13.776	20.411	17276	22269	0	604
17.238	18.644	17660	22621	0	604
19.221	15.759	18107	22875	0	604
14.677	10.710	18476	23015	0	604
12.874	10.133	18845	23047	0	604
9.232	13.740	19230	22982	0	604
6.960	13.668	19507	22703	0	604
5.554	12.333	19768	22220	0	604
2.813	8.114	19968	21646	0	604
-0.108	2.056	20153	20924	1	652
-5.554	-2.524	20260	20105	0	652
-13.163	-8.907	20476	19539	0	652
-22.467	-14.821	20691	19244	0	652
-29.102	-22.286	20891	18974	0	652
-35.124	-26.686	21122	18703	0	652
-39.163	-31.194	21384	18531	0	652
-44.969	-38.190	21614	18441	0	652
-54.922	-48.684	21876	18343	0	652
-65.164	-61.955	22091	18162	0	652
-71.908	-71.259	22337	17974	0	652
-73.242	-71.583	22553	17769	0	652
-68.987	-66.679	22660	17408	0	652
-65.633	-57.158	22768	16884	0	652
-66.030	-54.959	22860	16392	0	652
-70.393	-58.673	22968	16065	0	652
-74.576	-61.594	23076	15803	0	652
-74.540	-62.171	23153	15491	0	652
-71.367	-60.909	23199	15147	0	652
-67.508	-58.420	23307	14934	0	652
-63.072	-59.394	23337	14680	0	652
-61.810	-64.046	23322	14262	0	652
-62.532	-67.039	23322	13901	0	652
-65.308	-67.833	23307	13680	0	652
-66.102	-63.289	23276	13516	0	652
-62.532	-56.004	23337	13475	0	652
-54.093	-49.982	23414	13606	0	652
-41.832	-46.917	23491	13819	0	652
-38.875	-54.057	23553	13950	0	652
-47.890	-63.974	23553	13999	0	652
-62.063	-74.504	23630	14098	0	652
-73.711	-74.757	23737	14360	0	652
-72.845	-66.210	23814	14729	0	652
-63.217	-56.365	23953	15073	0	652
-57.122	-50.739	24045	15360	0	652
-58.925	-57.843	24230	15688	0	652
-67.256	-68.842	24399	16114	0	652
-68.878	-74.396	24584	16547	0	652
-57.663	-66.174	24722	16875	0	652
-39.740	-50.559	24891	17064	0	652
-26.578	-34.547	25030	17195	0	652
-24.991	-27.479	25168	17334	0	652
-32.853	-29.391	25322	17465	0	652
-39.885	-33.321	25430	17539	0	652
-40.930	-34.403	25553	17547	0	652
-35.485	-33.033	25630	17441	0	652
-33.393	-36.783	25614	17097	0	652
-39.344	-46.772	25568	16629	0	652
-48.467	-57.880	25660	16416	0	652
-57.735	-65.453	25722	16498	0	652
-57.735	-62.099	25784	16490	0	652
-54.021	-53.624	25722	16196	0	652
-52.651	-49.657	25645	15712	0	652
-51.244	-48.576	25584	15253	0	652
-54.382	-52.434	25537	14942	0	652
-55.427	-59.106	25460	14770	0	652
-56.040	-63.109	25430	14680	0	652
-56.293	-66.390	25353	14524	0	652
-57.916	-68.698	25245	14286	0	652
-57.699	-66.426	25168	14089	0	652
-51.749	-57.050	25091	14007	0	652
-45.294	-48.071	25014	13975	0	652
-41.543	-39.885	24937	13934	0	652
-42.589	-36.855	24860	13909	0	652
-44.032	-35.521	24814	13975	0	652
-47.674	-35.088	24784	14147	0	652
-47.061	-34.331	24737	14376	0	652
-44.212	-34.331	24707	14532	0	652
-42.409	-38.334	24645	14589	0	652
-42.589	-43.347	24614	14622	0	652
-44.969	-48.756	24537	14696	0	652
-48.539	-54.057	24491	14811	0	652
-51.569	-52.001	24414	14909	0	652
-48.431	-45.655	24307	14819	0	652
-41.003	-36.855	24107	14516	0	652
-35.233	-28.309	23953	14245	0	652
-35.701	-26.866	23799	14147	0	652
-46.159	-32.528	23660	14106	0	652
-56.004	-40.822	23537	14065	0	652
-64.948	-51.821	23399	14073	0	652
-71.727	-63.289	23230	14073	0	652
-77.714	-78.759	23076	14032	0	652
-87.631	-92.535	22891	13942	0	652
-94.591	-98.954	22722	13827	0	652
-95.817	-97.476	22491	13704	0	652
-91.021	-88.965	22260	13565	0	652
-85.179	-81.031	22030	13401	0	652
-80.563	-77.065	21845	13311	0	652
-78.651	-74.648	21660	13393	0	652
-75.045	-71.583	21507	13622	0	652
-72.629	-68.590	21384	13868	0	652
-76.019	-69.672	21230	14040	0	652
-83.123	-75.225	21091	14212	0	652
-89.470	-80.166	20953	14458	0	652
-87.162	-79.841	20876	14745	0	652
-79.445	-75.009	20768	14999	0	652
-66.066	-64.226	20660	15196	0	652
-56.076	-54.345	20553	15393	0	652
-48.792	-49.225	20491	15647	0	652
-48.323	-46.520	20430	15999	0	652
-51.244	-47.962	20399	16360	0	652
-57.807	-59.142	20337	16572	0	652
-68.482	-69.708	20260	16670	0	652
-80.094	-83.916	20245	16761	0	652
-89.398	-91.561	20168	16908	0	652
-97.620	-99.135	20107	17056	0	652
-104.760	-102.380	20030	17105	0	652
-106.347	-104.147	19968	17064	0	652
-101.731	-102.272	19814	16949	0	652
-92.715	-95.168	19722	16769	0	652
-79.986	-87.486	19553	16556	0	652
-72.629	-78.687	19414	16311	0	652
-66.787	-76.235	19245	16007	0	652
-69.672	-79.192	18968	15614	0	652
-75.406	-85.467	18722	15106	0	652
-83.303	-91.381	18414	14548	0	652
-88.496	-98.197	18168	14098	0	652
-85.106	-98.990	17891	13852	0	652
-77.678	-94.086	17691	13778	0	652
-68.265	-86.909	17476	13762	0	652
-65.417	-83.628	17230	13712	0	652
-69.564	-86.152	17076	13696	0	652
-75.334	-89.903	16891	13844	0	652
-77.822	-96.358	16784	14147	0	652
-75.298	-100.252	16660	14524	0	652
-73.314	-102.416	16614	14901	0	652
-74.468	-103.065	16553	15278	0	652
-77.714	-108.511	16537	15762	0	652
-81.392	-111.396	16584	16408	0	652
-85.179	-114.497	16660	17113	0	652
-87.018	-117.959	16784	17769	0	652
-91.021	-122.575	16937	18408	0	652
-95.961	-127.335	17045	19031	0	652
-95.420	-127.263	17230	19556	0	652
-94.807	-126.758	17399	20006	0	652
-92.030	-123.729	17614	20490	0	652
-87.667	-120.303	17845	21023	0	652
-84.926	-115.687	18122	21605	0	652
-80.058	-111.143	18476	22228	0	652
-72.016	-106.383	18814	22818	0	652
-68.698	-103.714	19184	23310	0	652
-71.295	-106.996	19537	23646	0	652
-76.055	-115.398	19845	23785	0	652
-84.962	-121.745	20153	23769	0	652
-87.018	-127.119	20460	23736	0	652
-84.241	-125.099	20799	23728	0	652
-80.635	-123.116	21153	23728	0	652
-79.084	-120.195	21460	23638	1	588
-79.589	-123.476	21707	23318	0	588
-89.831	-131.554	21953	22826	0	588
-99.062	-144.717	22184	22359	0	588
-108.222	-154.490	22460	22023	0	588
-114.821	-161.414	22768	21777	0	588
-116.841	-162.027	22999	21498	0	588
-119.005	-162.928	23245	21113	0	588
-121.854	-165.741	23491	20711	0	588
-127.119	-168.915	23737	20375	0	588
-127.660	-172.521	23968	20072	0	588
-126.361	-171.547	24230	19785	0	588
-124.558	-174.396	24460	19498	0	588
-129.787	-181.428	24707	19211	0	588
-137.901	-192.319	24937	18965	0	588
-146.448	-199.675	25230	18834	0	588
-145.943	-201.046	25491	18777	0	588
-138.118	-195.853	25722	18605	0	588
-128.741	-189.037	25814	18088	0	588
-122.286	-184.854	25953	17400	0	588
-124.450	-185.395	26107	16933	0	588
-128.741	-187.090	26245	16736	0	588
-133.429	-187.919	26399	16556	0	588
-134.764	-189.073	26553	16319	0	588
-137.252	-190.299	26645	16024	0	588
-136.855	-191.994	26707	15639	0	588
-141.075	-199.026	26784	15212	0	588
-147.494	-209.737	26799	14860	0	588
-158.024	-217.490	26891	14671	0	588
-162.063	-224.666	26953	14548	0	588
-165.921	-224.486	26937	14270	0	588
-161.774	-220.808	26922	13827	0	588
-157.880	-219.762	26876	13458	0	588
-157.194	-224.630	26876	13335	0	588
-160.692	-227.191	26891	13335	0	588
-161.738	-229.391	26845	13245	0	588
-160.656	-225.135	26845	13081	0	588
-162.495	-225.027	26799	13040	0	588
-171.403	-232.131	26799	13106	0	588
-185.647	-245.835	26707	13024	0	588
-202.416	-261.955	26584	12704	0	588
-208.475	-268.374	26430	12401	0	588
-203.895	-267.003	26353	12360	0	588
-192.030	-256.798	26337	12565	0	588
-174.684	-247.133	26337	12950	0	588
-160.224	-231.554	26399	13401	0	588
-151.461	-221.493	26414	13827	0	588
-147.674	-213.740	26491	14270	0	588
-153.696	-213.740	26568	14786	0	588
-161.089	-220.808	26707	15376	0	588
-168.698	-229.463	26845	15958	0	588
-170.754	-232.780	26968	16400	0	588
-168.662	-234.079	27076	16752	0	588
-167.039	-230.653	27230	17113	0	588
-169.095	-232.167	27353	17490	0	588
-173.999	-236.387	27476	17761	0	588
-181.644	-239.596	27553	17810	0	588
-187.162	-241.832	27568	17720	0	588
-190.552	-236.567	27630	17588	0	588
-185.864	-231.987	27630	17433	0	588
-178.940	-228.850	27630	17203	0	588
-174.396	-229.931	27568	16884	0	588
-173.711	-235.737	27507	16506	0	588
-176.560	-240.858	27384	16089	0	588
-184.277	-245.005	27199	15507	0	588
-189.470	-247.494	26999	14794	0	588
-193.653	-245.366	26784	14180	0	588
-191.814	-243.563	26568	13745	0	588
-192.211	-237.468	26384	13352	0	588
-190.696	-234.006	26091	12909	0	588
-187.162	-230.076	25860	12491	0	588
-185.142	-227.335	25645	12270	0	588
-182.005	-227.371	25491	12303	0	588
-179.697	-228.489	25353	12516	0	588
-176.668	-229.174	25230	12762	0	588
-173.206	-228.273	25091	12917	0	588
-167.797	-223.260	24968	13081	0	588
-161.702	-211.612	24876	13360	0	588
-158.348	-204.183	24768	13663	0	588
-163.938	-201.803	24645	13868	0	588
-171.042	-205.662	24507	13966	0	588
-172.665	-210.746	24414	14098	0	588
-168.301	-207.573	24307	14352	0	588
-159.178	-201.154	24276	14729	0	588
-154.742	-194.194	24230	15147	0	588
-162.712	-198.305	24168	15466	0	588
-177.497	-209.773	24122	15671	0	588
-191.670	-221.601	24076	15893	0	588
-194.519	-226.830	24076	16212	0	588
-192.968	-224.955	24030	16547	0	588
-187.919	-223.116	24030	16785	0	588
-185.503	-223.765	23968	16884	0	588
-186.909	-227.840	23953	16941	0	588
-187.018	-229.859	23937	17072	0	588
-181.500	-221.637	23953	17293	0	588
-175.442	-210.422	23953	17498	0	588
-173.999	-202.056	23999	17670	0	588
-181.825	-200.685	23999	17810	0	588
-195.420	-210.314	24014	17892	0	588
-204.868	-217.166	23999	17884	0	588
-200.902	-213.848	23968	17785	0	588
-184.169	-201.911	23922	17621	0	588
-168.265	-190.480	23845	17424	0	588
-161.305	-187.054	23768	17170	0	588
-164.840	-190.480	23614	16826	0	588
-173.098	-197.404	23553	16547	0	588
-172.449	-191.958	23476	16408	0	588
-164.912	-180.382	23430	16384	0	588
-155.139	-166.030	23322	16270	0	588
-148.287	-161.017	23168	15975	0	588
-152.218	-165.056	23076	15680	0	588
-164.623	-179.156	22968	15540	0	588
-178.146	-194.735	22891	15516	0	588
-181.608	-200.902	22799	15507	0	588
-175.189	-192.932	22707	15417	0	588
-160.404	-178.291	22568	15286	0	588
-148.323	-163.577	22476	15229	0	588
-146.087	-155.319	22430	15303	0	588
-151.749	-159.755	22337	15417	0	588
-157.807	-161.053	22276	15442	0	588
-153.011	-158.168	22168	15393	0	588
-145.835	-146.556	22045	15327	0	588
-139.344	-135.918	21968	15286	0	588
-136.314	-130.076	21860	15262	0	588
-140.534	-133.069	21737	15163	0	588
-144.573	-138.875	21584	15016	0	588
-145.907	-142.193	21430	14901	0	588
-140.534	-137.721	21307	14852	0	588
-133.646	-127.587	21168	14811	0	588
-123.404	-116.589	21014	14729	0	588
-116.444	-105.950	20845	14598	0	588
-112.946	-101.046	20645	14425	0	588
-111.684	-100.505	20430	14237	0	588
-114.894	-102.524	20245	14089	0	588
-118.752	-107.825	20076	14032	0	588
-119.762	-111.684	19937	14098	0	588
-119.113	-111.107	19768	14245	0	588
-114.425	-105.409	19630	14335	0	588
-108.006	-98.017	19430	14327	0	588
-107.429	-95.168	19322	14384	0	588
-113.523	-97.007	19230	14614	0	588
-123.224	-105.481	19153	15032	0	588
-132.925	-112.189	19153	15507	0	588
-133.718	-113.704	19107	15893	0	588
-127.299	-108.366	19122	16262	0	588
-121.457	-103.065	19168	16752	0	588
-115.651	-99.531	19322	17424	0	588
-113.992	-96.466	19476	18179	0	588
-111.576	-94.410	19614	18867	0	588
-105.878	-89.686	19814	19449	0	588
-99.495	-82.077	20030	20015	0	588
-95.636	-76.596	20307	20654	0	588
-99.062	-74.144	20584	21334	0	588
-101.479	-73.855	20845	21810	0	588
-104.039	-74.396	20999	21851	0	588
-98.918	-70.970	21153	21646	0	588
-92.535	-68.013	21353	21588	0	588
-89.794	-64.335	21568	21744	0	588
-91.634	-64.912	21845	21900	0	588
-99.495	-68.374	22091	22023	0	588
-106.563	-72.268	22384	22146	0	588
-109.052	-73.927	22691	22244	0	588
-107.825	-70.105	22953	22269	0	588
-100.325	-62.171	23245	22236	0	588
-92.715	-52.398	23553	22228	1	656
-88.063	-49.008	23860	22203	0	656
-91.706	-49.297	24076	22006	0	656
-97.512	-55.319	24307	21605	0	656
-102.416	-55.716	24537	21187	0	656
-101.010	-51.172	24737	20892	0	656
-90.624	-37.108	25014	20703	0	656
-80.490	-26.145	25245	20515	0	656
-77.786	-23.945	25476	20195	0	656
-82.762	-28.489	25645	19851	0	656
-89.326	-36.783	25922	19588	0	656
-96.754	-43.599	26153	19392	0	656
-101.370	-43.058	26337	19187	0	656
-101.154	-39.488	26553	18924	0	656
-100.685	-33.826	26784	18638	0	656
-98.810	-27.263	26937	18343	0	656
-95.420	-20.591	27076	17941	0	656
-88.136	-14.605	27153	17392	0	656
-85.467	-14.136	27230	16859	0	656
-83.303	-13.920	27337	16498	0	656
-86.080	-16.336	27476	16303	0	656
-91.670	-22.755	27645	16245	0	656
-100.469	-24.883	27814	16294	0	656
-105.193	-25.965	27953	16311	0	656
-104.219	-20.916	28107	16229	0	656
-100.469	-13.812	28245	16106	0	656
-96.141	-5.445	28414	16057	0	656
-97.079	-2.849	28568	16114	0	656
-102.777	-5.517	28784	16237	0	656
-107.501	-10.638	28922	16352	0	656
-109.881	-13.018	29076	16344	0	656
-105.445	-10.278	29122	16139	0	656
-100.613	-2.741	29199	15794	0	656
-97.872	6.816	29230	15483	0	656
-97.440	15.182	29260	15270	0	656
-97.187	21.709	29260	15040	0	656
-93.581	25.893	29230	14663	0	656
-85.323	32.744	29153	14180	0	656
-71.511	44.032	29091	13794	0	656
-60.368	54.093	29045	13614	0	656
-54.778	63.397	29030	13548	0	656
-51.569	68.265	28937	13425	0	656
-52.939	72.160	28860	13212	0	656
-46.628	80.346	28784	13024	0	656
-36.819	90.444	28707	12958	0	656
-25.532	95.673	28660	13016	0	656
-20.483	95.745	28645	13180	0	656
-25.027	87.414	28584	13344	0	656
-32.131	77.642	28568	13483	0	656
-40.065	70.393	28537	13655	0	656
-49.297	65.200	28553	13950	0	656
-55.283	62.532	28584	14262	0	656
-58.276	61.486	28553	14458	0	656
-57.375	67.039	28537	14606	0	656
-51.064	78.940	28537	14835	0	656
-39.885	89.722	28614	15180	0	656
-32.889	98.738	28630	15524	0	656
-31.590	95.636	28645	15753	0	656
-36.639	84.349	28691	15852	0	656
-44.501	67.797	28645	15917	0	656
-56.365	53.264	28645	15999	0	656
-61.558	46.989	28645	16057	0	656
-60.765	50.631	28584	16040	0	656
-50.884	65.308	28553	15975	0	656
-36.531	79.733	28460	15835	0	656
-26.181	94.519	28322	15516	0	656
-23.260	98.305	28122	15040	0	656
-25.676	97.656	27968	14630	0	656
-29.751	91.273	27799	14360	0	656
-30.977	86.008	27645	14188	0	656
-28.309	80.454	27430	13983	0	656
-26.650	75.009	27245	13729	0	656
-26.325	69.311	27076	13565	0	656
-29.066	65.561	26922	13573	0	656
-29.427	65.308	26799	13663	0	656
-29.931	69.383	26630	13721	0	656
-31.626	72.593	26491	13704	0	656
-37.505	70.429	26337	13729	0	656
-42.012	64.587	26230	13893	0	656
-47.349	58.709	26091	14114	0	656
-46.592	51.605	25968	14229	0	656
-47.386	50.162	25784	14171	0	656
-47.386	44.717	25584	14139	0	656
-48.071	40.606	25507	14286	0	656
-46.664	41.075	25414	14598	0	656
-37.432	46.736	25353	14966	0	656
-26.397	55.355	25276	15245	0	656
-20.988	63.289	25199	15442	0	656
-23.621	64.226	25122	15614	0	656
-33.826	57.014	25076	15803	0	656
-43.671	52.651	24968	15983	0	656
-46.953	48.431	24876	16057	0	656
-44.573	50.018	24768	16032	0	656
-35.269	53.119	24630	15975	0	656
-25.676	60.260	24553	15966	0	656
-16.589	65.741	24414	16016	0	656
-12.802	69.239	24322	16057	0	656
-11.973	68.662	24230	16032	0	656
-18.933	61.955	24045	15901	0	656
-27.371	49.657	23845	15565	0	656
-37.685	38.226	23584	15122	0	656
-44.717	28.922	23414	14950	0	656
-50.847	24.378	23307	15048	0	656
-57.591	25.027	23107	15040	0	656
-59.502	28.741	22860	14778	0	656
-56.185	34.980	22614	14417	0	656
-50.920	41.543	22414	14155	0	656
-42.120	45.330	22184	14089	0	656
-37.000	45.510	22014	14196	0	656
-35.377	43.707	21876	14344	0	656
-37.793	38.911	21691	14417	0	656
-37.757	38.334	21537	14466	0	656
-38.298	41.291	21384	14598	0	656
-34.728	47.133	21230	14745	0	656
-33.213	49.333	21045	14844	0	656
-33.321	50.811	20891	14884	0	656
-33.393	47.241	20722	14893	0	656
-30.833	48.539	20568	14950	0	656
-21.313	58.565	20476	15130	0	656
-10.242	68.626	20322	15352	0	656
-1.839	77.642	20153	15442	0	656
-4.400	76.704	19999	15417	0	656
-11.973	66.643	19860	15409	0	656
-23.945	55.716	19707	15483	0	656
-31.662	44.897	19568	15573	0	656
-37.288	35.521	19414	15614	0	656
-43.527	28.453	19260	15622	0	656
-50.054	22.539	19107	15622	0	656
-50.703	22.395	18968	15647	0	656
-44.861	26.938	18799	15680	0	656
-37.793	34.764	18645	15688	0	656
-29.499	38.983	18491	15639	0	656
-31.879	36.928	18322	15565	0	656
-36.819	28.020	18107	15458	0	656
-41.507	22.286	17891	15253	0	656
-38.262	26.325	17645	14966	0	656
-28.128	32.997	17414	14778	0	656
-17.743	44.897	17245	14753	0	656
-14.821	49.405	17014	14786	0	656
-11.828	47.349	16860	14786	0	656
-12.910	44.248	16707	14868	0	656
-8.655	50.018	16614	15130	0	656
-0.361	55.608	16584	15614	0	656
4.868	61.810	16584	16204	0	656
1.659	62.604	16614	16752	0	656
-8.655	51.461	16691	17343	0	656
-20.447	38.839	16814	18080	0	656
-31.194	27.912	17076	18933	0	656
-32.780	19.149	17276	19793	0	656
-29.282	19.726	17507	20564	0	656
-25.460	24.450	17814	21293	0	656
-19.906	28.886	18199	22080	0	656
-18.356	32.997	18568	22892	0	656
-17.310	33.105	18953	23629	0	656
-22.467	27.010	19399	24211	0	656
-27.984	20.014	19784	24646	0	656
-37.793	7.970	20199	24957	0	656
-47.710	-3.606	20584	25179	0	656
-53.949	-16.084	20999	25334	0	656
-53.155	-19.185	21384	25384	0	656
-45.943	-15.543	21799	25285	0	656
-30.869	-0.721	22153	25080	0	656
-18.392	12.297	22476	24793	0	656
-12.910	14.028	22845	24433	0	656
-24.775	1.983	23091	23924	1	656
-47.602	-23.224	23307	23179	0	656
-72.990	-46.736	23430	22220	0	656
-87.270	-60.404	23537	21170	0	656
-83.916	-54.201	23568	20113	0	656
-61.378	-37.793	23660	19187	0	656
-38.298	-20.483	23737	18449	0	656
-27.047	-12.982	23845	17834	0	656
-32.312	-21.385	23922	17261	0	656
-48.539	-33.105	23968	16687	0	656
-61.305	-40.642	24076	16229	0	656
-64.695	-39.380	24153	15909	0	656
-61.666	-36.891	24276	15712	0	656
-67.147	-46.376	24337	15507	0	656
-83.303	-69.852	24414	15237	0	656
-103.282	-92.211	24507	14991	0	656
-113.343	-102.452	24568	14868	0	656
-106.852	-95.240	24707	14852	0	656
-88.208	-76.055	24784	14852	0	656
-67.111	-62.099	24876	14811	0	656
-55.211	-54.670	24968	14770	0	656
-51.821	-52.506	25030	14753	0	656
-52.254	-48.035	25091	14696	0	656
-56.942	-41.111	25122	14589	0	656
-59.647	-38.334	25184	14557	0	656
-66.787	-38.658	25245	14630	0	656
-71.583	-49.008	25337	14721	0	656
-72.881	-59.827	25414	14819	0	656
-69.095	-67.761	25476	14925	0	656
-57.339	-66.246	25553	15016	0	656
-44.068	-59.755	25584	15040	0	656
-36.567	-49.116	25584	14999	0	656
-38.767	-44.753	25614	14876	0	656
-46.448	-42.986	25568	14721	0	656
-53.732	-40.930	25553	14598	0	656
-56.906	-38.767	25537	14483	0	656
-55.175	-37.505	25430	14303	0	656
-61.197	-43.310	25307	14016	0	656
-76.127	-58.096	25199	13688	0	656
-94.446	-75.766	25091	13483	0	656
-106.563	-85.900	25014	13425	0	656
-103.318	-81.969	24968	13491	0	656
-89.831	-71.836	24876	13598	0	656
-75.045	-62.387	24799	13680	0	656
-71.511	-56.581	24737	13770	0	656
-80.490	-63.109	24707	13901	0	656
-92.391	-68.915	24630	14016	0	656
-100.216	-71.295	24568	14073	0	656
-96.754	-66.895	24476	14130	0	656
-81.861	-56.762	24430	14303	0	656
-67.111	-51.497	24460	14622	0	656
-58.276	-51.028	24491	15073	0	656
-52.867	-52.759	24553	15565	0	656
-50.667	-52.867	24584	15950	0	656
-45.691	-47.962	24614	16155	0	656
-43.960	-40.606	24476	16032	0	656
-42.337	-39.776	24322	15614	0	656
-47.566	-46.809	24184	15221	0	656
-50.739	-52.326	24030	15016	0	656
-53.913	-54.490	23860	14803	0	656
-53.768	-52.903	23660	14524	0	656
-57.483	-50.415	23568	14393	0	656
-62.243	-54.959	23460	14475	0	656
-65.344	-60.260	23384	14630	0	656
-61.486	-61.450	23322	14811	0	656
-52.074	-54.598	23245	15024	0	656
-39.957	-40.173	23168	15139	0	656
-34.079	-29.679	23045	15130	0	656
-37.252	-26.470	22968	15147	0	656
-44.464	-31.843	22891	15253	0	656
-52.398	-37.252	22799	15368	0	656
-53.264	-41.435	22691	15376	0	656
-52.651	-39.704	22614	15303	0	656
-49.189	-39.776	22491	15327	0	656
-48.576	-39.921	22430	15507	0	656
-49.802	-44.501	22414	15778	0	656
-50.162	-48.323	22337	15983	0	656
-54.418	-50.307	22322	16048	0	656
-59.034	-56.581	22260	16163	0	656
-64.587	-60.656	22230	16352	0	656
-66.354	-63.974	22168	16384	0	656
-62.027	-62.640	22014	16196	0	656
-51.352	-56.870	21876	15925	0	656
-43.238	-48.648	21707	15680	0	656
-36.423	-45.330	21630	15581	0	656
-32.384	-44.176	21568	15704	0	656
-29.751	-44.897	21553	15975	0	656
-26.686	-41.904	21507	16204	0	656
-25.099	-39.235	21460	16335	0	656
-23.260	-32.492	21460	16441	0	656
-23.801	-30.617	21414	16539	0	656
-26.109	-28.381	21337	16539	0	656
-24.342	-30.364	21245	16457	0	656
-28.561	-33.826	21168	16344	0	656
-33.970	-40.462	21091	16245	0	656
-43.635	-46.881	21030	16221	0	656
-50.307	-55.752	20968	16253	0	656
-55.536	-58.132	20876	16253	0	656
-50.523	-57.303	20799	16204	0	656
-44.140	-51.028	20691	16089	0	656
-36.351	-47.349	20537	15819	0	656
-37.360	-45.366	20384	15491	0	656
-42.878	-52.831	20322	15466	0	656
-49.297	-59.286	20276	15721	0	656
-57.230	-63.036	20199	15794	0	656
-54.634	-60.620	19968	15491	0	656
-52.362	-54.309	19768	15007	0	656
-44.645	-48.107	19568	14598	0	656
-36.206	-44.356	19353	14344	0	656
-26.650	-40.678	19153	14229	0	656
-19.005	-38.695	18953	14098	0	656
-15.975	-37.505	18722	13860	0	656
-16.985	-40.498	18491	13639	0	656
-23.585	-43.887	18276	13540	0	656
-28.994	-45.114	18076	13524	0	656
-32.744	-46.195	17876	13491	0	656
-32.925	-41.291	17630	13417	0	656
-28.958	-38.118	17430	13393	0	656
-24.991	-35.737	17230	13499	0	656
-22.214	-36.278	17122	13770	0	656
-25.712	-42.661	17014	14155	0	656
-34.836	-51.497	16876	14499	0	656
-46.015	-61.774	16799	14778	0	656
-49.225	-63.181	16691	15057	0	656
-45.041	-54.634	16645	15417	0	656
-34.692	-42.661	16614	15835	0	656
-27.227	-33.357	16553	16188	0	656
-23.585	-30.689	16491	16408	0	656
-25.171	-36.351	16414	16564	0	656
-25.748	-41.147	16354	16695	0	656
-22.503	-40.173	16261	16769	0	656
-18.392	-37.216	16154	16720	0	656
-17.887	-32.095	16000	16580	0	656
-20.339	-31.807	15846	16416	0	656
-27.155	-32.997	15738	16262	0	656
-31.590	-35.449	15523	16073	0	656
-32.348	-36.062	15354	15860	0	656
-25.460	-33.285	15184	15647	0	656
-18.680	-30.581	14954	15384	0	656
-17.346	-33.429	14615	14868	0	656
-21.024	-38.298	14277	14212	0	656
-30.725	-45.078	14061	13868	0	656
-39.849	-50.451	13877	13958	0	656
-45.005	-46.989	13738	14253	0	656
-42.986	-38.803	13615	14557	0	656
-34.692	-26.542	13523	14827	0	656
-22.286	-15.146	13446	15147	0	656
-12.189	-9.773	13431	15614	0	656
-8.979	-13.812	13461	16212	0	656
-14.713	-21.313	13508	16834	0	656
-25.532	-32.059	13600	17433	0	656
-33.466	-36.855	13692	18031	0	656
-34.367	-34.800	13892	18695	0	656
-32.023	-31.590	14108	19457	0	656
-26.073	-28.561	14308	20236	0	656
-24.414	-28.489	14584	20851	0	656
-25.820	-29.968	14815	21277	0	656
-26.181	-29.427	15046	21621	0	656
-24.198	-27.227	15292	21990	0	656
-19.041	-23.404	15615	22449	0	656
-12.730	-20.195	15969	22965	0	656
-9.484	-20.159	16338	23433	0	656
-12.477	-24.017	16660	23736	0	656
-21.241	-31.410	17014	23884	0	656
-27.191	-35.774	17384	23924	0	656
-32.420	-38.154	17660	23867	0	656
-32.276	-34.259	17953	23670	0	656
-30.184	-29.210	18184	23318	0	656
-30.220	-25.856	18353	22728	0	656
-31.879	-28.633	18537	22023	1	676
-36.711	-32.853	18768	21539	0	676
-40.173	-39.452	18968	21277	0	676
-40.822	-45.330	19153	20900	0	676
-35.990	-47.025	19307	20318	0	676
-26.938	-45.114	19414	19646	0	676
-14.317	-38.875	19476	18974	0	676
-5.698	-31.266	19614	18424	0	676
-3.714	-25.929	19722	18039	0	676
-10.566	-24.378	19860	17720	0	676
-23.260	-30.581	19953	17359	0	676
-38.045	-39.235	20076	17015	0	676
-48.287	-46.015	20184	16761	0	676
-50.198	-47.386	20337	16580	0	676
-43.094	-40.822	20430	16400	0	676
-30.905	-28.886	20537	16188	0	676
-18.283	-20.664	20630	15950	0	676
-12.009	-20.087	20722	15778	0	676
-16.336	-29.210	20845	15729	0	676
-25.171	-40.137	20968	15770	0	676
-33.285	-45.078	21091	15786	0	676
-34.728	-43.166	21153	15721	0	676
-34.043	-35.737	21230	15548	0	676
-33.357	-32.384	21230	15237	0	676
-36.459	-34.295	21230	14868	0	676
-41.291	-38.009	21230	14598	0	676
-41.471	-37.144	21199	14466	0	676
-35.124	-31.554	21245	14360	0	676
-27.047	-27.047	21199	14229	0	676
-23.621	-28.777	21184	14081	0	676
-26.073	-37.613	21168	13975	0	676
-29.138	-42.265	21122	13917	0	676
-29.679	-43.383	21107	13868	0	676
-29.066	-41.543	21076	13835	0	676
-31.446	-42.301	21045	13835	0	676
-40.822	-52.614	21030	13868	0	676
-56.509	-65.705	21030	13966	0	676
-71.150	-74.901	21014	14139	0	676
-76.524	-74.252	20968	14237	0	676
-72.196	-68.626	20937	14196	0	676
-63.361	-63.686	20876	14147	0	676
-55.608	-54.886	20814	14163	0	676
-44.248	-50.018	20784	14253	0	676
-34.944	-38.586	20737	14352	0	676
-21.313	-25.027	20660	14368	0	676
-13.091	-18.283	20568	14319	0	676
-11.612	-17.815	20491	14237	0	676
-23.621	-28.922	20337	14130	0	676
-37.108	-43.635	20199	14024	0	676
-45.979	-52.903	20076	13909	0	676
-44.320	-54.273	19937	13770	0	676
-33.285	-45.078	19784	13704	0	676
-20.159	-33.898	19737	13876	0	676
-13.884	-27.227	19691	14245	0	676
-13.307	-30.112	19691	14606	0	676
-21.493	-40.462	19630	14893	0	676
-34.259	-52.903	19645	15204	0	676
-42.265	-61.558	19645	15573	0	676
-40.029	-56.545	19722	15991	0	676
-32.131	-47.999	19768	16408	0	676
-26.289	-40.209	19814	16810	0	676
-29.787	-40.389	19891	17113	0	676
-37.649	-48.720	19876	17236	0	676
-42.986	-53.119	19876	17220	0	676
-35.233	-48.756	19845	17146	0	676
-22.503	-36.964	19799	17072	0	676
-15.543	-28.886	19737	16908	0	676
-17.129	-27.876	19568	16539	0	676
-23.116	-29.427	19414	16024	0	676
-25.316	-31.446	19230	15548	0	676
-24.342	-32.708	19076	15229	0	676
-27.443	-38.767	18937	15065	0	676
-33.466	-47.061	18799	14942	0	676
-38.190	-57.627	18630	14745	0	676
-38.658	-56.617	18491	14606	0	676
-34.692	-51.677	18399	14647	0	676
-31.879	-44.969	18353	14827	0	676
-35.954	-46.664	18307	15016	0	676
-42.950	-51.388	18199	15155	0	676
-47.566	-52.867	18153	15294	0	676
-43.851	-50.847	18107	15450	0	676
-35.593	-44.537	18045	15614	0	676
-25.388	-41.724	18014	15737	0	676
-20.447	-39.452	17922	15794	0	676
-19.473	-41.580	17845	15803	0	676
-22.611	-41.976	17784	15827	0	676
-24.414	-36.495	17722	15958	0	676
-18.860	-28.886	17691	16130	0	676
-16.805	-25.027	17645	16196	0	676
-18.031	-25.676	17537	16139	0	676
-25.712	-33.610	17460	16057	0	676
-33.069	-41.471	17337	15991	0	676
-34.403	-44.537	17276	15917	0	676
-26.506	-38.190	17184	15844	0	676
-16.336	-31.662	17045	15786	0	676
-14.677	-30.004	16937	15671	0	676
-19.654	-35.521	16737	15368	0	676
-28.597	-42.517	16537	14925	0	676
-33.141	-47.494	16308	14598	0	676
-33.177	-45.907	16138	14442	0	676
-32.059	-48.503	15969	14327	0	676
-32.600	-50.162	15723	14098	0	676
-35.016	-51.857	15508	13819	0	676
-33.033	-52.218	15354	13803	0	676
-25.171	-43.815	15231	14081	0	676
-18.644	-36.567	15138	14393	0	676
-14.533	-33.826	15000	14540	0	676
-17.779	-39.488	14831	14548	0	676
-23.044	-42.842	14677	14548	0	676
-26.073	-42.409	14569	14680	0	676
-24.198	-35.197	14492	14909	0	676
-19.942	-26.325	14338	15089	0	676
-21.385	-25.316	14215	15163	0	676
-27.155	-32.312	14108	15245	0	676
-33.610	-41.616	14031	15466	0	676
-36.603	-49.621	13984	15827	0	676
-32.816	-47.638	13969	16204	0	676
-25.099	-43.310	13923	16441	0	676
-20.267	-38.442	13846	16539	0	676
-24.991	-41.832	13754	16597	0	676
-37.216	-51.028	13692	16654	0	676
-47.061	-57.843	13600	16695	0	676
-48.684	-58.673	13538	16646	0	676
-40.029	-48.215	13384	16564	0	676
-26.325	-37.865	13308	16490	0	676
-22.322	-36.964	13215	16465	0	676
-30.076	-49.261	13138	16465	0	676
-46.051	-64.335	13031	16424	0	676
-54.057	-71.295	12908	16286	0	676
-44.212	-59.971	12692	16032	0	676
-27.299	-42.481	12492	15589	0	676
-10.530	-28.777	12215	15040	0	676
-11.504	-34.223	11969	14598	0	676
-24.198	-49.621	11677	14221	0	676
-36.819	-62.063	11292	13614	0	676
-36.314	-63.686	10800	12696	0	676
-25.784	-52.326	10338	11794	0	676
-12.441	-38.370	9908	11180	0	676
-9.484	-32.131	9508	10901	0	676
-14.208	-33.538	9154	10868	0	676
-21.204	-38.875	8831	10942	0	676
-23.585	-43.238	8508	11065	0	676
-22.070	-42.734	8292	11368	0	676
-16.949	-41.435	8123	11942	0	676
-15.543	-36.711	8031	12712	0	676
-14.533	-32.889	7954	13573	0	676
-16.877	-33.429	7923	14491	0	676
-17.310	-34.692	8000	15466	0	676
-17.238	-36.026	8123	16547	0	676
-13.415	-32.708	8338	17752	0	676
-8.150	-28.381	8569	19006	0	676
-3.714	-23.476	8831	20129	0	676
-2.741	-21.890	9108	21097	0	676
-5.770	-23.476	9446	22039	0	676
-6.094	-23.188	9831	23056	0	676
-3.318	-20.267	10231	24006	0	676
-3.606	-22.899	10661	24744	0	676
-9.881	-32.239	11000	25220	0	676
-22.358	-42.301	11292	25334	0	676
-34.079	-53.913	11584	25154	0	676
-39.344	-56.870	11831	24949	0	676
-38.118	-56.437	12108	24802	0	676
-33.466	-52.470	12415	24662	0	676
-27.443	-51.893	12661	24449	1	652
-22.791	-46.736	12908	24056	0	652
-20.087	-40.281	13108	23506	0	652
-16.444	-34.259	13308	22941	0	652
-21.204	-31.807	13446	22384	0	652
-28.381	-36.531	13615	21793	0	652
-36.711	-43.851	13815	21211	0	652
-37.973	-49.766	13923	20670	0	652
-36.567	-50.090	14108	20211	0	652
-31.626	-44.969	14292	19884	0	652
-26.253	-36.603	14492	19588	0	652
-22.899	-29.427	14661	19277	0	652
-23.044	-25.604	14877	18965	0	652
-17.490	-20.700	15077	18752	0	652
-13.343	-16.372	15292	18638	0	652
-8.475	-15.002	15538	18564	0	652
-4.580	-16.084	15754	18482	0	652
-4.868	-17.743	15954	18318	0	652
-0.577	-19.906	16123	18072	0	652
-0.613	-20.050	16292	17818	0	652
-2.741	-18.716	16491	17687	0	652
-11.035	-22.214	16707	17621	0	652
-21.854	-25.676	16860	17449	0	652
-31.158	-27.407	16968	17170	0	652
-29.282	-25.640	17153	16900	0	652
-22.972	-19.546	17276	16711	0	652
-12.045	-15.326	17384	16531	0	652
-6.311	-13.451	17507	16319	0	652
-0.505	-10.927	17568	16057	0	652
1.190	-8.619	17691	15819	0	652
-4.436	-10.025	17737	15589	0	652
-11.937	-14.028	17799	15368	0	652
-24.811	-20.050	17860	15122	0	652
-35.774	-26.614	17845	14819	0	652
-37.685	-23.476	17845	14499	0	652
-28.128	-13.956	17845	14221	0	652
-9.592	-0.685	17784	13958	0	652
11.864	16.012	17737	13729	0	652
28.814	21.781	17768	13589	0	652
31.302	18.680	17707	13548	0	652
22.791	6.203	17660	13442	0	652
6.058	-10.674	17553	13196	0	652
-11.756	-19.077	17476	12966	0	652
-22.575	-15.398	17430	12925	0	652
-20.231	-2.885	17399	13040	0	652
-13.343	12.117	17322	13180	0	652
0.685	24.306	17276	13221	0	652
16.012	27.010	17184	13237	0	652
28.922	27.443	17184	13335	0	652
31.699	20.411	17153	13557	0	652
28.850	8.402	17091	13803	0	652
20.664	-0.974	17076	13966	0	652
12.694	-3.642	17030	14065	0	652
13.668	8.799	16953	14188	0	652
25.568	32.600	16968	14401	0	652
37.000	55.824	16968	14712	0	652
40.245	64.767	16953	14950	0	652
36.459	55.932	16799	14893	0	652
27.010	39.704	16660	14589	0	652
29.246	29.679	16553	14384	0	652
43.274	32.636	16430	14401	0	652
65.885	49.080	16354	14450	0	652
86.657	67.616	16231	14475	0	652
94.158	78.219	16154	14516	0	652
90.119	80.599	16108	14655	0	652
79.841	80.959	16123	14958	0	652
70.321	78.723	16184	15524	0	652
61.702	74.504	16261	16204	0	652
51.208	65.056	16292	16629	0	652
39.849	51.713	16277	16670	0	652
31.085	35.269	16184	16457	0	652
31.554	30.292	16061	16196	0	652
42.409	37.649	15954	15991	0	652
57.843	49.874	15892	15868	0	652
68.121	60.548	15738	15737	0	652
70.429	61.305	15584	15491	0	652
65.525	56.257	15431	15212	0	652
58.925	45.835	15261	14975	0	652
52.218	35.233	15123	14827	0	652
39.272	25.856	14954	14721	0	652
24.919	17.851	14831	14647	0	652
11.540	13.559	14692	14630	0	652
6.996	17.598	14600	14704	0	652
12.694	27.083	14523	14868	0	652
30.725	41.219	14446	15089	0	652
46.772	48.720	14338	15188	0	652
54.886	49.802	14123	14942	0	652
58.529	45.546	13892	14475	0	652
52.074	35.052	13677	14180	0	652
45.727	26.397	13523	14180	0	652
37.360	19.798	13369	14253	0	652
24.955	12.802	13200	14327	0	652
14.461	9.701	13077	14458	0	652
4.616	9.845	13000	14680	0	652
1.659	11.720	12892	14884	0	652
5.085	18.175	12738	14975	0	652
10.242	17.129	12615	14991	0	652
14.281	13.271	12461	15024	0	652
16.625	3.354	12308	14999	0	652
17.274	-4.291	12108	14893	0	652
19.473	-6.563	11908	14762	0	652
24.234	-0.180	11738	14680	0	652
23.765	8.330	11538	14622	0	652
21.313	16.516	11292	14466	0	652
9.124	17.598	11046	14180	0	652
-0.577	15.290	10800	13958	0	652
-8.943	10.674	10600	13925	0	652
-3.967	10.783	10431	14106	0	652
6.383	14.569	10292	14425	0	652
16.192	13.884	10184	14762	0	652
18.500	10.927	10108	15065	0	652
12.694	3.570	10031	15384	0	652
10.602	-0.902	9969	15745	0	652
9.448	3.931	9908	16089	0	652
15.939	14.966	9846	16352	0	652
22.755	26.433	9769	16523	0	652
25.027	27.696	9661	16588	0	652
21.421	23.080	9492	16449	0	652
18.175	15.543	9308	16171	0	652
14.605	9.448	9108	15901	0	652
13.523	6.455	8954	15770	0	652
11.179	7.970	8846	15827	0	652
7.537	5.554	8754	16065	0	652
6.275	2.524	8723	16376	0	652
6.275	2.885	8646	16580	0	652
8.835	4.760	8615	16711	0	652
12.297	7.681	8538	16834	0	652
14.749	9.556	8538	17023	0	652
14.930	10.386	8523	17244	0	652
14.894	6.960	8461	17408	0	652
19.870	4.616	8446	17474	0	652
21.060	5.121	8369	17416	0	652
20.447	7.393	8215	17162	0	652
19.582	12.694	8077	16777	0	652
14.281	17.238	7954	16490	0	652
12.045	21.673	7815	16335	0	652
9.665	21.349	7615	16081	0	652
7.104	19.077	7369	15589	0	652
6.996	13.631	7154	15098	0	652
6.960	12.441	7046	14991	0	652
12.622	10.999	7000	15311	0	652
14.353	13.451	7046	15852	0	652
17.598	14.749	7108	16441	0	652
14.894	13.451	7231	17064	0	652
13.451	16.372	7384	17736	0	652
16.733	17.670	7584	18498	0	652
19.546	23.440	7815	19236	0	652
22.683	22.142	8046	19884	0	652
17.238	13.631	8338	20474	0	652
4.183	-3.137	8615	21056	0	652
-10.710	-19.942	8954	21695	0	652
-19.329	-29.931	9369	22433	0	652
-20.050	-32.203	9800	23179	0	652
-13.487	-22.683	10200	23728	0	652
-4.111	-15.290	10615	24072	0	652
-1.298	-6.780	11000	24310	0	652
-4.508	-7.609	11446	24539	0	652
-13.451	-12.622	11892	24728	0	652
-27.083	-21.962	12231	24720	0	652
-36.387	-33.069	12646	24547	0	652
-43.563	-42.084	12984	24293	0	652
-51.064	-49.261	13338	24031	0	652
-52.939	-53.083	13677	23720	1	648
-58.276	-53.877	14000	23310	0	648
-58.889	-53.011	14277	22785	0	648
-61.269	-51.533	14523	22195	0	648
-67.761	-54.237	14738	21556	0	648
-75.370	-58.925	14984	20949	0	648
-83.448	-61.702	15261	20539	0	648
-81.753	-63.686	15584	20302	0	648
-73.855	-60.224	15800	19965	0	648
-62.063	-55.788	15954	19310	0	648
-51.136	-51.893	16046	18441	0	648
-46.628	-46.195	16184	17703	0	648
-43.887	-41.507	16308	17195	0	648
-43.130	-38.658	16414	16744	0	648
-49.369	-38.370	16491	16212	0	648
-52.614	-41.111	16507	15565	0	648
-55.716	-43.743	16507	14909	0	648
-53.949	-45.150	16507	14335	0	648
-50.487	-43.022	16491	13835	0	648
-49.189	-45.618	16460	13360	0	648
-49.766	-46.232	16384	12860	0	648
-50.126	-44.789	16292	12393	0	648
-46.881	-39.632	16215	12040	0	648
-41.471	-33.538	16184	11868	0	648
-40.714	-31.049	16123	11819	0	648
-43.455	-35.160	16077	11778	0	648
-48.756	-42.697	16046	11737	0	648
-52.759	-48.684	15969	11770	0	648
-53.228	-49.621	15923	11893	0	648
-50.667	-46.700	15877	12048	0	648
-51.100	-44.897	15769	12065	0	648
-47.674	-40.678	15569	11786	0	648
-41.760	-34.295	15308	11311	0	648
-34.872	-27.948	15108	10934	0	648
-29.968	-22.467	14877	10786	0	648
-33.970	-24.234	14661	10786	0	648
-45.871	-34.583	14523	10917	0	648
-57.266	-46.376	14354	11106	0	648
-57.483	-48.539	14123	11221	0	648
-43.996	-38.731	13984	11327	0	648
-27.155	-23.585	13923	11745	0	648
-18.464	-14.389	13892	12499	0	648
-27.515	-21.277	13846	13204	0	648
-41.940	-32.095	13769	13606	0	648
-56.762	-42.589	13661	13827	0	648
-57.447	-40.930	13600	14114	0	648
-49.333	-31.771	13569	14532	0	648
-39.452	-26.325	13569	15024	0	648
-34.836	-29.138	13538	15491	0	648
-34.980	-36.098	13538	15844	0	648
-34.620	-41.543	13492	16130	0	648
-33.538	-40.714	13508	16424	0	648
-29.715	-31.879	13538	16769	0	648
-27.551	-21.818	13523	17072	0	648
-29.282	-18.247	13508	17252	0	648
-34.439	-16.913	13523	17334	0	648
-40.858	-23.945	13492	17433	0	648
-44.392	-32.961	13523	17621	0	648
-42.337	-38.226	13569	17834	0	648
-38.947	-41.796	13569	17974	0	648
-34.079	-41.796	13600	18031	0	648
-32.384	-44.176	13600	18056	0	648
-35.954	-45.294	13600	17998	0	648
-41.003	-48.503	13569	17892	0	648
-47.097	-47.638	13600	17875	0	648
-49.585	-45.546	13615	17916	0	648
-47.710	-41.507	13600	17851	0	648
-45.150	-37.937	13538	17597	0	648
-39.199	-35.557	13446	17252	0	648
-31.085	-30.292	13461	17080	0	648
-22.972	-26.470	13461	17179	0	648
-17.959	-24.198	13461	17244	0	648
-19.041	-27.263	13415	16982	0	648
-25.929	-30.617	13277	16531	0	648
-29.535	-29.102	13154	16147	0	648
-32.384	-21.493	13046	15868	0	648
-31.662	-12.477	12984	15712	0	648
-31.843	-11.143	12877	15581	0	648
-37.180	-18.103	12754	15335	0	648
-38.622	-29.138	12600	15040	0	648
-31.410	-31.554	12492	14803	0	648
-20.519	-27.083	12338	14671	0	648
-12.477	-21.421	12215	14565	0	648
-17.743	-19.257	12061	14409	0	648
-27.912	-25.748	11908	14262	0	648
-40.029	-33.177	11800	14212	0	648
-44.320	-35.016	11692	14294	0	648
-42.120	-32.203	11584	14425	0	648
-36.928	-27.768	11446	14434	0	648
-32.167	-25.316	11215	14180	0	648
-30.941	-23.549	11000	13803	0	648
-30.617	-24.630	10800	13622	0	648
-32.348	-28.741	10661	13680	0	648
-36.134	-29.499	10492	13770	0	648
-38.875	-30.653	10354	13852	0	648
-35.737	-25.893	10200	13991	0	648
-25.388	-19.329	10108	14196	0	648
-13.704	-9.448	9984	14425	0	648
-4.832	-6.888	9877	14622	0	648
-8.763	-9.016	9754	14753	0	648
-20.627	-16.625	9584	14803	0	648
-32.528	-24.702	9415	14688	0	648
-38.442	-25.388	9154	14434	0	648
-30.797	-21.421	8923	14204	0	648
-17.057	-10.422	8692	14065	0	648
-9.124	-4.760	8415	13876	0	648
-8.186	-4.003	8108	13540	0	648
-8.871	-5.157	7754	13106	0	648
-15.074	-7.321	7415	12753	0	648
-14.677	-6.491	7138	12614	0	648
-12.874	-6.419	6877	12671	0	648
-13.127	-8.835	6600	12770	0	648
-15.579	-12.189	6308	12762	0	648
-16.336	-10.710	6031	12696	0	648
-15.471	-5.373	5738	12753	0	648
-5.445	4.327	5538	13007	0	648
5.265	14.172	5354	13393	0	648
18.933	18.320	5184	13770	0	648
20.988	12.982	5000	14130	0	648
14.858	1.659	4831	14450	0	648
-1.370	-12.514	4615	14614	0	648
-17.923	-24.666	4369	14639	0	648
-25.352	-22.791	4200	14704	0	648
-21.024	-9.629	4000	14942	0	648
-6.599	11.143	3908	15311	0	648
12.910	30.472	3815	15737	0	648
28.850	41.219	3754	16221	0	648
31.446	39.127	3738	16802	0	648
27.335	28.561	3831	17547	0	648
15.615	15.975	3954	18359	0	648
4.652	6.599	4108	19170	0	648
1.947	7.537	4308	19982	0	648
3.354	12.694	4538	20810	0	648
6.094	17.743	4846	21638	0	648
5.590	21.529	5108	22384	0	648
1.154	17.526	5369	22900	0	648
-3.642	13.668	5646	23236	0	648
-6.924	8.150	5923	23564	0	648
-7.465	5.986	6261	23965	0	648
-6.744	6.275	6600	24293	0	648
-4.472	7.645	6877	24400	0	648
-2.416	10.927	7154	24293	0	648
-2.019	11.071	7446	24187	0	648
-7.789	6.455	7815	24203	0	648
-15.579	-4.147	8138	24277	0	648
-25.676	-13.091	8492	24220	1	580
-27.587	-16.012	8769	23990	0	580
-22.575	-11.792	9123	23818	0	580
-14.281	-5.626	9523	23744	0	580
-5.950	-2.560	9846	23613	0	580
-7.681	-7.681	10154	23367	0	580
-20.808	-19.329	10508	23039	0	580
-36.819	-32.276	10815	22687	0	580
-54.526	-44.104	11123	22367	0	580
-64.587	-50.090	11492	22138	0	580
-62.243	-47.782	11846	21957	0	580
-57.014	-45.510	12154	21679	0	580
-54.598	-41.183	12492	21302	0	580
-60.873	-43.599	12769	20949	0	580
-67.220	-48.359	13077	20662	0	580
-70.032	-53.516	13384	20367	0	580
-61.414	-50.631	13646	19941	0	580
-50.884	-47.422	13846	19384	0	580
-43.419	-44.212	14061	18826	0	580
-50.956	-45.835	14277	18384	0	580
-63.000	-53.913	14523	18080	0	580
-75.045	-61.017	14769	17843	0	580
-83.628	-71.150	14984	17638	0	580
-89.578	-80.527	15215	17375	0	580
