neuroNicle FX2
D3F25R12
Bluetooth SPP
2023년 11월 5일 일요일
오후 7:09
time interval = 4msec
EEG1	EEG2	PPG	sdPPG	pulse	peak_interval(msec)
-73.855	-63.758	1	15310	0	844
-74.144	-65.885	1	15434	0	844
-74.901	-71.799	1	15598	0	844
-77.533	-80.130	1	15860	0	844
-81.717	-86.873	1	16139	0	844
-91.561	-90.083	1	16337	0	844
-100.433	-91.309	1	16422	0	844
-106.419	-93.833	1	16324	0	844
-107.357	-93.833	1	16006	0	844
-103.354	-97.079	1	15675	0	844
-100.613	-99.171	1	15473	0	844
-100.144	-100.721	1	15374	0	844
-101.947	-99.207	1	15335	0	844
-103.462	-95.420	1	15323	0	844
-101.479	-88.821	1	15323	0	844
-95.528	-78.687	1	15361	0	844
-87.090	-73.278	1	15460	0	844
-79.481	-68.482	1	15550	0	844
-65.885	-66.390	1	15520	0	844
-52.687	-62.063	1	15404	0	844
-40.642	-54.814	1	15357	0	844
-36.711	-50.956	1	15439	0	844
-42.697	-47.926	1	15619	0	844
-51.208	-47.494	1	15791	0	844
-59.250	-50.739	1	15881	0	844
-57.699	-47.277	1	15942	0	844
-51.136	-44.140	1	16032	0	844
-47.025	-37.721	1	16170	0	844
-46.376	-33.898	1	16311	0	844
-44.428	-32.420	1	16396	0	844
-40.389	-32.131	1	16478	0	844
-35.052	-32.239	1	16620	0	844
-25.784	-28.633	1	16818	0	844
-21.493	-22.791	1	16985	0	844
-21.168	-16.516	1	17033	0	844
-20.267	-10.602	1	16917	0	844
-19.473	-8.006	1	16745	0	844
-15.326	-6.275	1	16697	0	844
-12.081	-5.229	1	16766	0	844
-10.927	-4.508	1	16809	0	844
-15.759	-7.032	1	16822	0	844
-22.322	-9.376	1	16831	0	844
-28.056	-11.648	1	16813	0	844
-26.830	-9.304	1	16779	0	844
-15.146	-4.904	1	16792	0	844
-4.255	0.469	1	16869	0	844
4.544	2.524	1	16904	0	844
7.068	2.741	1	16835	0	844
2.993	3.137	1	16684	0	844
-1.839	6.744	1	16538	0	844
-2.164	11.287	1	16414	0	844
2.019	15.795	1	16294	0	844
9.052	18.608	1	16139	0	844
17.021	20.375	1	15955	0	844
27.840	23.152	1	15770	0	844
34.872	26.758	1	15628	0	844
36.314	27.876	1	15581	0	844
32.816	25.568	1	15555	0	844
26.073	22.935	1	15469	0	844
20.267	24.234	1	15391	0	844
22.611	26.722	1	15374	0	844
27.624	31.807	1	15391	0	844
31.194	36.314	1	15409	0	844
30.941	34.764	1	15409	0	844
26.433	31.554	1	15430	0	844
22.539	28.705	1	15512	0	844
18.752	27.047	1	15684	0	844
18.572	21.132	1	15924	0	844
13.415	15.615	1	16144	0	844
8.763	7.104	1	16329	0	844
2.633	-0.865	1	16491	0	844
-3.065	-5.914	1	16667	0	844
-8.655	-9.268	1	16839	0	844
-15.362	-12.477	1	16938	0	844
-21.096	-15.867	1	16968	0	844
-28.273	-24.414	1	16985	0	844
-34.223	-28.958	1	17020	0	844
-38.009	-31.915	1	17003	0	844
-37.757	-30.905	1	16702	0	844
-37.252	-29.787	1	16075	0	844
-34.583	-30.292	1	15383	0	844
-30.869	-34.764	1	14811	0	844
-30.689	-39.344	1	14355	0	844
-30.292	-42.373	1	14041	0	844
-31.482	-39.380	1	13874	0	844
-33.718	-36.242	1	13732	0	844
-35.701	-33.249	1	13491	0	844
-35.197	-33.357	1	13225	0	844
-32.095	-35.485	1	13177	0	844
-26.686	-36.459	1	13405	0	844
-21.818	-37.000	1	13659	0	844
-19.473	-32.456	1	13775	0	844
-21.854	-26.325	1	13869	0	844
-24.558	-23.621	1	14140	0	844
-27.768	-21.673	1	14570	0	844
-29.859	-23.404	1	15035	0	844
-29.607	-24.017	1	15503	0	844
-25.352	-21.132	1	15972	0	844
-17.851	-12.946	1	16401	0	844
-10.999	-5.049	1	16835	0	844
-1.370	3.029	1	17316	0	844
5.626	8.330	1	17811	0	844
8.655	11.540	1	18219	0	844
10.783	11.864	1	18460	0	844
12.694	13.595	1	18421	0	844
12.045	14.208	1	18215	0	844
11.648	12.946	1	18090	0	844
13.163	15.615	1	18082	0	844
15.398	17.418	1	18077	0	844
22.899	25.063	1	18103	0	844
32.889	33.466	1	18168	0	844
45.366	45.907	1	18215	0	844
60.115	57.807	1	18176	0	844
70.970	70.573	1	18073	0	844
81.248	85.611	1	17927	0	844
92.355	97.331	1	17665	0	844
100.865	108.655	1	17295	0	844
109.701	116.264	1	16981	0	844
117.526	124.811	1	16783	0	844
126.109	134.043	1	16663	0	844
124.666	142.842	1	16598	0	844
120.952	147.458	1	16551	0	844
112.369	144.501	1	16487	0	844
102.957	139.380	1	16409	0	844
94.987	132.492	1	16342	0	844
87.883	127.083	1	16238	0	844
75.153	116.336	1	16092	0	844
57.843	103.823	1	16023	0	844
38.262	85.034	1	16084	0	844
22.611	68.987	1	16191	0	844
15.398	59.214	1	16281	0	844
11.504	56.473	1	16316	0	844
8.871	57.483	1	16307	0	844
4.940	52.759	1	16324	0	844
-2.019	43.563	1	16426	0	844
-10.169	27.443	1	16586	0	844
-18.031	12.153	1	16646	0	844
-23.080	-0.433	1	16474	0	844
-30.436	-6.599	1	16157	0	844
-35.737	-10.494	1	15950	0	844
-40.317	-16.805	1	15916	0	844
-41.652	-23.729	1	15912	0	844
-43.491	-30.184	1	15847	0	844
-47.349	-34.403	1	15649	0	844
-50.667	-36.855	1	15374	0	844
-53.913	-35.737	1	15202	0	844
-53.985	-35.954	1	15194	0	844
-46.051	-34.836	1	15323	0	844
-38.045	-34.728	1	15538	0	844
-33.502	-33.502	1	15718	0	844
-33.970	-35.449	1	15783	0	844
-41.976	-42.084	1	15748	0	844
-51.424	-51.316	1	15705	0	844
-57.663	-58.493	1	15821	0	844
-57.303	-59.322	1	16075	0	844
-50.343	-52.759	1	16350	0	844
-38.839	-40.426	1	16680	0	844
-29.679	-29.030	1	17106	0	844
-24.739	-23.693	1	17596	0	844
-25.207	-23.693	1	18090	0	844
-24.775	-24.450	1	18546	0	844
-24.594	-25.604	1	19015	0	844
-22.972	-25.171	1	19505	0	844
-21.096	-20.447	1	19948	0	844
-21.132	-17.815	1	20322	0	844
-17.598	-16.156	1	20592	0	844
-14.821	-14.930	1	20786	0	844
-8.583	-13.199	1	20902	0	844
-6.347	-14.172	1	20885	0	844
-5.590	-12.369	1	20734	0	844
-6.203	-9.665	1	20532	0	844
-4.111	-8.150	1	20210	0	844
-2.777	-8.042	1	19758	1	896
-2.957	-8.871	1	19380	0	896
-3.606	-8.907	1	19139	0	896
-0.865	-6.671	1	18924	0	896
6.888	2.849	1	18718	0	896
16.733	11.107	1	18542	0	896
20.700	17.598	1	18391	0	896
17.238	16.048	1	18224	0	896
6.563	12.477	1	18043	0	896
3.678	11.323	1	17871	0	896
10.638	13.559	1	17703	0	896
23.224	21.204	1	17518	0	896
38.226	26.650	1	17334	0	896
42.661	26.397	1	17183	0	896
36.495	23.801	1	17101	0	896
24.666	15.146	1	17089	0	896
15.939	11.900	1	17067	0	896
11.035	9.917	1	16994	0	896
14.064	11.107	1	16964	0	896
19.582	13.631	1	16998	0	896
20.555	11.937	1	17041	0	896
18.824	10.242	1	17028	0	896
13.343	9.376	1	16917	0	896
12.441	10.350	1	16736	0	896
10.097	12.874	1	16568	0	896
10.783	17.202	1	16452	0	896
8.799	17.490	1	16320	0	896
3.534	18.392	1	16096	0	896
-0.144	16.228	1	15838	0	896
1.298	11.756	1	15606	0	896
5.662	5.590	1	15439	0	896
11.648	1.803	1	15314	0	896
15.651	1.875	1	15159	0	896
14.533	4.291	1	14970	0	896
10.783	5.481	1	14811	0	896
3.787	3.210	1	14695	0	896
-2.416	-2.524	1	14579	0	896
-6.491	-6.131	1	14415	0	896
-6.239	-5.337	1	14166	0	896
-4.508	-0.829	1	13801	0	896
-3.534	0.757	1	13366	0	896
-9.340	-4.111	1	12958	0	896
-19.582	-14.749	1	12661	0	896
-33.213	-26.073	1	12511	0	896
-42.012	-35.629	1	12472	0	896
-46.484	-38.803	1	12502	0	896
-47.241	-38.009	1	12614	0	896
-48.828	-34.692	1	12894	0	896
-49.153	-32.312	1	13332	0	896
-49.189	-31.699	1	13788	0	896
-48.179	-35.160	1	14123	0	896
-43.202	-40.281	1	14321	0	896
-37.973	-45.763	1	14501	0	896
-32.672	-43.563	1	14755	0	896
-28.525	-37.108	1	15060	0	896
-26.217	-29.715	1	15344	0	896
-26.037	-24.955	1	15581	0	896
-28.633	-26.001	1	15727	0	896
-31.735	-28.525	1	15679	0	896
-37.721	-32.853	1	15495	0	896
-41.327	-36.855	1	15413	0	896
-43.166	-37.613	1	15464	0	896
-38.009	-37.036	1	15538	0	896
-28.164	-31.879	1	15649	0	896
-16.949	-24.414	1	15869	0	896
-10.746	-20.880	1	16152	0	896
-7.573	-18.031	1	16333	0	896
-9.989	-20.627	1	16281	0	896
-8.475	-19.798	1	16114	0	896
-4.977	-19.005	1	16075	0	896
-3.065	-15.651	1	16200	0	896
-5.229	-16.156	1	16342	0	896
-11.179	-16.444	1	16439	0	896
-17.634	-17.021	1	16487	0	896
-18.788	-15.074	1	16431	0	896
-17.418	-12.838	1	16307	0	896
-10.530	-7.248	1	16230	0	896
-8.366	-2.813	1	16247	0	896
-4.400	0.108	1	16281	0	896
0.793	1.911	1	16256	0	896
9.592	4.832	1	16221	0	896
18.752	7.429	1	16354	0	896
25.532	9.232	1	16646	0	896
27.191	13.343	1	16942	0	896
23.549	17.021	1	17132	0	896
19.401	19.005	1	17205	0	896
20.772	25.279	1	17226	0	896
25.279	31.590	1	17265	0	896
35.088	40.858	1	17334	0	896
44.861	48.251	1	17351	0	896
51.857	49.874	1	17278	0	896
52.001	47.926	1	17205	0	896
47.313	41.904	1	17196	0	896
41.471	37.144	1	17252	0	896
34.728	37.252	1	17338	0	896
29.751	36.639	1	17381	0	896
27.660	33.862	1	17390	0	896
24.414	27.696	1	17390	0	896
21.962	23.621	1	17402	0	896
23.044	21.673	1	17402	0	896
23.657	21.457	1	17347	0	896
24.053	23.116	1	17230	0	896
24.847	20.555	1	17093	0	896
21.529	18.247	1	16925	0	896
20.808	18.824	1	16770	0	896
23.116	19.401	1	16723	0	896
20.700	20.195	1	16766	0	896
18.320	14.136	1	16740	0	896
12.297	8.763	1	16590	0	896
9.845	8.763	1	16409	0	896
11.756	15.002	1	16367	0	896
18.211	25.640	1	16422	0	896
23.945	33.466	1	16388	0	896
22.755	33.393	1	16122	0	896
16.048	27.010	1	15705	0	896
10.819	22.863	1	15280	0	896
10.169	21.132	1	14931	0	896
12.658	21.096	1	14656	0	896
18.247	22.611	1	14377	0	896
18.752	20.664	1	14024	0	896
14.894	18.536	1	13728	0	896
6.708	13.054	1	13586	0	896
-0.361	8.871	1	13517	0	896
-2.633	6.744	1	13474	0	896
0.000	9.268	1	13452	0	896
7.321	14.461	1	13474	0	896
13.559	22.755	1	13483	0	896
15.615	25.279	1	13379	0	896
11.396	21.565	1	13164	0	896
3.065	15.939	1	12842	0	896
-2.849	7.717	1	12348	0	896
-6.022	1.731	1	11840	0	896
-6.022	1.442	1	11591	0	896
-1.839	4.436	1	11660	0	896
0.216	7.573	1	12012	0	896
-0.577	7.753	1	12627	0	896
-1.947	5.770	1	13375	0	896
-1.551	4.508	1	14162	0	896
1.118	6.491	1	14970	0	896
8.619	14.100	1	15787	0	896
14.713	18.824	1	16590	0	896
18.464	19.726	1	17364	0	896
11.504	11.720	1	18060	0	896
4.219	3.246	1	18666	0	896
-2.849	-0.288	1	19182	0	896
-6.058	-0.577	1	19638	0	896
-4.183	3.823	1	20059	0	896
-1.695	7.285	1	20403	0	896
-0.829	6.311	1	20644	0	896
-2.669	3.895	1	20876	0	896
-2.416	1.515	1	21130	0	896
-1.190	2.128	1	21293	0	896
2.596	5.662	1	21293	0	896
2.741	8.150	1	21164	0	896
4.111	10.710	1	21014	0	896
3.101	10.097	1	20893	0	896
3.967	8.294	1	20764	0	896
4.580	8.619	1	20575	1	628
8.871	13.631	1	20304	0	628
13.379	18.211	1	19986	0	628
19.113	27.551	1	19664	0	628
35.377	39.993	1	19363	0	628
56.473	58.601	1	19096	0	628
81.212	76.163	1	18791	0	628
100.252	97.764	1	18417	0	628
111.973	110.350	1	18034	0	628
117.382	118.860	1	17716	0	628
124.450	126.650	1	17454	0	628
137.901	137.144	1	17230	0	628
153.588	149.225	1	17037	0	628
166.138	156.798	1	16818	0	628
168.301	162.459	1	16517	0	628
166.534	161.197	1	16174	0	628
167.688	162.892	1	15847	0	628
171.403	163.541	1	15568	0	628
175.514	165.417	1	15310	0	628
178.327	166.210	1	15056	0	628
177.642	162.928	1	14871	0	628
174.360	159.322	1	14871	0	628
174.612	158.637	1	15060	0	628
173.134	158.204	1	15288	0	628
167.472	154.778	1	15421	0	628
159.755	151.352	1	15452	0	628
150.739	142.084	1	15477	0	628
144.176	130.797	1	15585	0	628
140.714	125.388	1	15774	0	628
140.462	124.089	1	16010	0	628
140.714	129.571	1	16225	0	628
143.779	132.636	1	16384	0	628
143.743	131.230	1	16530	0	628
138.947	125.388	1	16723	0	628
129.354	114.389	1	16942	0	628
119.870	109.448	1	17114	0	628
116.408	109.160	1	17239	0	628
118.788	110.566	1	17377	0	628
122.214	109.917	1	17557	0	628
121.024	103.390	1	17776	0	628
110.206	94.266	1	17996	0	628
94.446	82.907	1	18176	0	628
83.051	78.182	1	18241	0	628
78.904	79.084	1	18185	0	628
82.726	81.428	1	18086	0	628
88.713	84.890	1	17918	0	628
89.254	81.428	1	17592	0	628
84.421	74.288	1	17162	0	628
74.288	64.046	1	16715	0	628
65.741	56.149	1	16324	0	628
61.774	55.103	1	16045	0	628
60.728	55.499	1	15907	0	628
59.719	57.483	1	15817	0	628
57.735	55.572	1	15645	0	628
55.463	52.218	1	15417	0	628
50.775	46.448	1	15357	0	628
48.467	45.799	1	15576	0	628
46.989	44.969	1	15912	0	628
49.405	45.402	1	16165	0	628
54.093	49.838	1	16299	0	628
62.171	52.362	1	16372	0	628
64.082	55.247	1	16439	0	628
60.801	53.732	1	16560	0	628
51.713	48.900	1	16719	0	628
41.075	41.111	1	16869	0	628
33.538	33.610	1	17003	0	628
31.085	32.095	1	17149	0	628
31.374	36.098	1	17338	0	628
34.980	38.983	1	17497	0	628
37.757	40.462	1	17549	0	628
40.245	37.829	1	17531	0	628
40.353	33.754	1	17527	0	628
38.622	32.203	1	17583	0	628
36.567	35.882	1	17630	0	628
30.941	39.127	1	17570	0	628
26.578	38.803	1	17428	0	628
23.585	34.692	1	17273	0	628
26.361	32.780	1	17123	0	628
32.131	33.429	1	16964	0	628
38.154	37.577	1	16762	0	628
39.452	37.360	1	16534	0	628
33.502	33.862	1	16273	0	628
27.624	28.164	1	15894	0	628
24.558	25.316	1	15477	0	628
25.496	27.010	1	15284	0	628
27.804	31.085	1	15335	0	628
29.318	32.203	1	15353	0	628
27.732	32.384	1	15138	0	628
24.630	29.463	1	14777	0	628
23.765	27.299	1	14480	0	628
18.175	24.630	1	14338	0	628
16.877	20.339	1	14304	0	628
14.785	16.228	1	14291	0	628
16.480	19.005	1	14243	0	628
19.870	23.621	1	14200	0	628
24.666	30.508	1	14226	0	628
27.263	35.413	1	14295	0	628
25.929	35.665	1	14342	0	628
22.286	33.249	1	14347	0	628
22.214	30.977	1	14368	0	628
20.555	33.538	1	14476	0	628
23.440	35.016	1	14678	0	628
27.696	36.314	1	14906	0	628
24.883	33.574	1	15065	0	628
20.123	27.840	1	15172	0	628
14.281	23.729	1	15288	0	628
9.520	23.549	1	15473	0	628
9.448	27.263	1	15714	0	628
10.819	28.489	1	15980	0	628
9.124	26.253	1	16256	0	628
-0.325	19.690	1	16495	0	628
-10.746	9.340	1	16676	0	628
-17.202	0.072	1	16813	0	628
-18.320	-8.294	1	16899	0	628
-11.937	-17.454	1	16925	0	628
-6.924	-22.431	1	16891	0	628
-7.140	-20.303	1	16805	0	628
-14.425	-13.235	1	16749	0	628
-26.037	-2.885	1	16869	0	628
-41.471	0.397	1	17119	0	628
-55.860	-7.321	1	17243	0	628
-61.991	-19.221	1	17106	0	628
-60.296	-31.807	1	16852	0	628
-51.388	-34.764	1	16719	0	628
-48.251	-31.122	1	16753	0	628
-57.591	-30.761	1	16831	0	628
-79.877	-38.550	1	16856	0	628
-108.835	-55.103	1	16813	0	628
-129.066	-64.731	1	16758	0	628
-136.819	-61.017	1	16753	0	628
-128.886	-45.041	1	16770	0	628
-112.838	-25.676	1	16766	0	628
-98.630	-18.320	1	16727	0	628
-96.538	-19.690	1	16689	0	628
-107.717	-24.198	1	16697	0	628
-128.597	-16.084	1	16753	0	628
4.868	19.798	32768	18013	0	868
4.147	20.159	32768	18116	0	868
6.311	22.395	32768	18133	0	868
7.862	25.893	32768	18086	0	868
8.366	29.246	32768	18039	0	868
7.285	30.004	32768	18013	0	868
6.960	27.840	32768	17983	0	868
7.609	26.181	32768	17905	0	868
10.674	29.354	32768	17772	0	868
14.136	36.206	32768	17613	0	868
20.844	41.039	32768	17454	0	868
25.279	42.481	32768	17291	0	868
25.568	38.298	32768	17097	0	868
23.693	34.187	32768	16882	0	868
19.654	34.836	32768	16654	0	868
12.910	34.692	32768	16354	0	868
7.862	32.564	32768	15976	0	868
4.796	24.270	32768	15636	0	868
1.479	16.877	32768	15400	0	868
1.479	13.343	32768	15228	0	868
4.688	20.014	1	15035	0	868
8.583	28.453	1	14798	0	868
12.333	32.095	1	14630	0	868
12.694	28.561	1	14596	0	868
8.222	22.034	1	14665	0	868
3.137	17.274	1	14772	0	868
1.226	17.706	1	14880	0	868
3.462	23.981	1	15009	0	868
8.583	28.633	1	15181	0	868
13.163	33.177	1	15361	0	868
12.838	34.908	1	15520	0	868
8.691	34.692	1	15636	0	868
7.717	33.502	1	15727	0	868
9.376	32.636	1	15817	0	868
12.009	32.456	1	15937	0	868
15.975	32.997	1	16032	0	868
17.202	34.115	1	16049	0	868
15.326	34.764	1	15989	0	868
18.356	35.954	1	15899	0	868
18.608	37.432	1	15830	0	868
20.447	40.426	1	15834	0	868
20.411	41.399	1	15929	0	868
14.317	37.577	1	16053	0	868
9.520	31.230	1	16127	0	868
6.744	25.965	1	16092	0	868
5.914	22.142	1	15998	0	868
4.940	21.854	1	15937	0	868
3.895	22.791	1	15929	0	868
-0.216	20.195	1	15937	0	868
-5.590	15.579	1	15899	0	868
-5.806	15.326	1	15851	0	868
-4.075	15.435	1	15903	0	868
0.000	16.589	1	16045	0	868
0.829	18.644	1	16187	0	868
-0.829	16.949	1	16294	0	868
-3.282	17.382	1	16384	0	868
-3.318	17.454	1	16482	0	868
1.010	21.024	1	16637	0	868
8.835	23.981	1	16801	0	868
14.858	26.470	1	16904	0	868
15.543	28.309	1	16934	0	868
16.264	31.446	1	16934	0	868
14.605	34.944	1	16951	0	868
16.877	36.747	1	16998	0	868
18.139	37.396	1	17041	0	868
18.644	33.321	1	17037	0	868
12.009	26.037	1	17007	0	868
3.967	16.192	1	17007	0	868
-4.183	8.511	1	17050	0	868
-11.540	2.488	1	17110	0	868
-11.864	2.741	1	17123	0	868
-7.825	6.852	1	17084	0	868
-3.678	13.559	1	17011	0	868
1.442	20.555	1	16921	0	868
4.544	22.827	1	16809	0	868
4.904	22.034	1	16659	0	868
4.688	19.546	1	16495	0	868
1.515	15.074	1	16311	0	868
-1.154	13.740	1	16066	0	868
-2.921	13.920	1	15774	0	868
-1.262	16.805	1	15499	0	868
5.626	22.467	1	15215	0	868
13.307	29.174	1	14944	0	868
20.447	33.141	1	14755	0	868
19.257	31.735	1	14652	0	868
14.461	25.279	1	14618	0	868
7.429	18.320	1	14669	0	868
6.563	14.605	1	14785	0	868
11.107	20.231	1	14940	0	868
21.385	28.597	1	15108	0	868
27.335	35.629	1	15310	0	868
28.417	37.000	1	15546	0	868
24.378	33.285	1	15817	0	868
23.296	30.220	1	16084	0	868
23.837	30.472	1	16299	0	868
25.676	34.403	1	16448	0	868
24.739	34.511	1	16573	0	868
15.795	27.335	1	16650	0	868
8.511	17.598	1	16672	0	868
1.767	8.547	1	16663	0	868
1.731	8.006	1	16663	0	868
4.472	13.271	1	16697	0	868
7.501	18.752	1	16779	0	868
7.681	22.178	1	16882	0	868
4.724	20.375	1	16960	0	868
3.570	20.808	1	16960	0	868
4.436	20.952	1	16878	0	868
7.032	20.664	1	16762	0	868
8.619	21.745	1	16697	0	868
7.068	18.067	1	16775	0	868
2.092	16.264	1	16964	0	868
0.000	16.733	1	17127	0	868
3.210	21.781	1	17213	0	868
10.422	26.253	1	17261	0	868
16.156	29.787	1	17282	0	868
18.320	29.859	1	17308	0	868
12.550	25.460	1	17364	0	868
8.042	20.447	1	17394	0	868
7.825	20.447	1	17364	0	868
12.586	22.755	1	17299	0	868
16.769	26.650	1	17256	0	868
20.736	30.112	1	17248	0	868
18.933	32.456	1	17239	0	868
18.824	32.853	1	17218	0	868
19.906	32.131	1	17218	0	868
21.024	32.925	1	17278	0	868
20.555	32.492	1	17433	0	868
15.939	30.905	1	17639	0	868
13.163	27.335	1	17811	0	868
10.350	23.693	1	17944	0	868
10.314	19.329	1	18077	0	868
10.458	13.884	1	18228	0	868
9.520	11.035	1	18374	0	868
5.517	8.979	1	18482	0	868
3.282	7.032	1	18529	0	868
2.092	8.366	1	18503	0	868
4.400	14.497	1	18383	0	868
10.963	18.392	1	18189	0	868
17.274	25.063	1	17996	0	868
17.851	25.496	1	17845	1	860
15.723	21.890	1	17703	0	860
6.491	19.618	1	17540	0	860
-1.010	15.110	1	17381	0	860
-0.649	18.500	32768	17304	0	860
4.255	21.565	32768	17316	0	860
14.677	27.083	32768	17316	0	860
19.401	29.030	32768	17213	0	860
20.375	28.273	32768	17028	0	860
14.281	27.876	32768	16839	0	860
10.386	30.148	32768	16581	0	860
12.333	34.151	32768	16062	0	860
17.851	37.577	32768	15310	0	860
24.522	38.045	1	14665	0	860
27.768	34.764	1	14269	0	860
26.145	32.312	1	13998	0	860
22.863	32.384	1	13723	0	860
21.962	33.141	1	13461	0	860
20.195	34.259	1	13336	0	860
21.818	33.862	1	13401	0	860
20.231	31.951	1	13590	0	860
17.238	32.131	1	13874	0	860
12.514	29.643	1	14213	0	860
9.629	26.722	1	14544	0	860
8.835	23.585	1	14867	0	860
10.783	24.378	1	15215	0	860
15.290	28.309	1	15585	0	860
17.887	35.593	1	15985	0	860
22.611	40.930	1	16474	0	860
24.666	41.868	1	17011	0	860
24.378	38.262	1	17420	0	860
24.053	30.797	1	17596	0	860
19.401	25.460	32768	17647	0	860
17.562	21.637	32768	17686	0	860
16.769	25.135	32768	17755	0	860
17.995	27.732	32768	17819	0	860
15.759	28.489	32768	17798	0	860
13.127	25.063	32768	17682	0	860
7.862	20.555	32768	17604	0	860
3.606	14.821	32768	17604	0	860
2.272	15.867	32768	17613	0	860
3.318	17.021	32768	17574	0	860
6.167	19.257	32768	17493	0	860
6.419	18.500	32768	17394	0	860
5.554	18.933	32768	17299	0	860
3.534	15.543	32768	17209	0	860
0.144	15.254	32768	17093	0	860
0.397	14.605	32768	16925	0	860
6.527	19.582	32768	16753	0	860
16.985	25.784	32768	16624	0	860
27.407	35.052	32768	16568	0	860
35.052	42.589	32768	16564	0	860
34.980	43.166	32768	16534	0	860
27.840	39.127	32768	16482	0	860
20.014	31.951	32768	16448	0	860
13.956	24.775	32768	16448	0	860
12.333	21.673	32768	16474	0	860
14.641	21.781	32768	16521	0	860
13.884	22.070	32768	16577	0	860
12.477	23.044	32768	16586	0	860
10.061	24.739	32768	16534	0	860
5.049	25.893	32768	16465	0	860
4.724	26.758	32768	16388	0	860
4.291	27.119	32768	16311	0	860
4.472	23.585	32768	16217	0	860
4.832	20.339	32768	16062	0	860
4.760	21.745	32768	15886	0	860
5.445	23.801	32768	15808	0	860
10.278	29.643	32768	15838	0	860
17.454	37.144	32768	15886	0	860
24.847	40.966	32768	15877	0	860
29.895	40.750	32768	15830	0	860
27.948	38.226	32768	15808	0	860
21.601	35.413	32768	15834	0	860
20.808	36.891	32768	15869	0	860
26.686	41.543	32768	15877	0	860
35.774	50.379	32768	15864	0	860
43.851	50.379	32768	15877	0	860
40.137	45.582	32768	15933	0	860
27.912	33.970	32768	16015	0	860
12.622	24.270	32768	16088	0	860
7.934	19.293	32768	16101	0	860
8.439	21.998	32768	16053	0	860
13.740	25.532	32768	15998	0	860
16.697	26.794	32768	15972	0	860
14.208	26.470	32768	15967	0	860
14.930	27.407	32768	15959	0	860
17.238	29.318	32768	15869	0	860
20.591	33.502	32768	15684	0	860
23.296	36.351	32768	15477	0	860
22.178	36.567	32768	15323	0	860
17.202	35.449	32768	15305	0	860
18.680	35.160	32768	15464	0	860
19.149	33.970	32768	15658	0	860
20.231	32.420	32768	15783	0	860
17.238	28.417	32768	15929	0	860
13.523	25.460	32768	16208	0	860
10.494	25.171	32768	16564	0	860
12.910	26.181	32768	16861	0	860
16.913	27.479	32768	17011	0	860
21.277	26.866	32768	17033	0	860
16.733	24.053	32768	17050	0	860
10.061	19.582	32768	17140	0	860
3.354	16.625	32768	17248	0	860
1.623	16.697	32768	17304	0	860
6.996	18.608	32768	17269	0	860
11.323	23.440	32768	17153	0	860
10.025	24.198	32768	16934	0	860
6.275	23.981	32768	16620	0	860
-0.036	22.467	32768	16294	0	860
-1.623	19.510	32768	16028	0	860
1.767	21.457	32768	15834	0	860
6.924	21.601	32768	15722	0	860
7.537	22.286	32768	15692	0	860
6.996	23.224	32768	15727	0	860
3.787	22.611	32768	15753	0	860
3.967	25.820	32768	15761	0	860
7.898	29.174	32768	15770	0	860
13.523	32.816	32768	15800	0	860
17.923	30.617	32768	15843	0	860
18.247	25.388	32768	15881	0	860
13.163	19.149	32768	15907	0	860
9.881	9.809	32768	15924	0	860
5.481	8.150	32768	15869	0	860
1.983	10.638	32768	15740	0	860
-1.695	12.730	32768	15645	0	860
-5.193	17.959	32768	15628	0	860
-4.760	19.546	32768	15649	0	860
1.406	23.693	32768	15628	0	860
11.720	26.361	32768	15559	0	860
20.267	29.354	16384	15507	0	860
25.171	31.590	1	15529	0	860
23.368	32.528	1	15636	0	860
16.012	30.869	1	15778	0	860
12.225	30.184	1	15877	0	860
10.314	29.463	1	15955	0	860
9.917	26.037	1	16071	0	860
12.369	22.647	1	16221	0	860
9.845	23.044	1	16342	0	860
6.239	20.339	1	16401	0	860
3.065	20.123	1	16452	0	860
3.426	20.231	1	16435	0	860
11.251	19.293	1	16182	0	860
18.752	21.998	1	15753	0	860
23.404	24.558	1	15469	0	860
19.618	27.696	1	15400	0	860
13.523	28.994	1	15387	0	860
6.022	28.705	1	15323	0	860
4.075	26.794	1	15211	0	860
6.419	25.099	1	15099	0	860
9.845	25.460	1	15082	0	860
12.153	25.532	1	15172	0	860
10.746	27.155	1	15262	0	860
10.242	30.148	1	15344	0	860
12.153	32.023	1	15495	0	860
14.172	34.728	1	15692	0	860
22.575	38.262	1	15890	0	860
27.155	39.344	1	16084	0	860
24.558	37.108	1	16268	0	860
18.716	29.679	1	16405	0	860
9.665	23.368	1	16525	0	860
8.402	21.385	1	16689	0	860
16.300	25.424	1	16856	0	860
24.955	33.682	1	16985	0	860
31.662	36.062	1	17110	0	860
29.030	34.620	1	17273	0	860
22.395	29.066	1	17458	0	860
14.136	25.784	1	17587	0	860
10.746	25.532	1	17635	0	860
7.753	26.938	1	17639	0	860
4.364	26.433	1	17639	0	860
6.419	24.486	1	17652	0	860
12.333	23.657	1	17695	0	860
22.395	25.856	1	17716	0	860
26.433	30.328	1	17716	0	860
23.981	30.905	1	17708	0	860
15.471	32.853	1	17721	0	860
9.809	33.357	1	17755	0	860
13.199	36.639	1	17798	0	860
24.919	39.199	1	17764	0	860
31.735	42.048	1	17458	0	860
29.968	37.541	1	16904	0	860
22.503	30.725	1	16457	1	728
17.490	27.840	1	16329	0	728
18.211	25.424	1	16388	0	728
20.664	27.407	1	16439	0	728
23.657	28.345	1	16346	0	728
17.382	26.109	1	16135	0	728
10.242	22.503	1	15916	0	728
4.508	20.988	1	15740	0	728
6.347	23.368	1	15546	0	728
7.465	23.404	1	15292	0	728
9.304	21.024	1	15035	0	728
7.681	17.346	1	14858	0	728
5.373	11.973	1	14794	0	728
3.426	12.189	1	14837	0	728
4.003	17.779	1	14953	0	728
5.373	22.647	1	15082	0	728
8.907	25.893	1	15155	0	728
12.802	26.470	1	15043	0	728
14.245	25.027	1	14824	0	728
15.615	24.558	1	14738	0	728
12.766	24.666	1	14841	0	728
10.783	25.027	1	15060	0	728
11.576	23.909	1	15391	0	728
12.838	22.719	1	15834	0	728
12.477	18.716	1	16337	0	728
9.917	13.740	1	16801	0	728
2.380	9.592	1	17239	0	728
-4.832	9.953	1	17673	0	728
-6.563	11.684	1	18047	0	728
-6.599	12.550	1	18305	0	728
-4.400	14.533	1	18525	0	728
-1.298	12.910	1	18770	0	728
3.065	12.333	1	18972	0	728
6.599	16.300	1	19105	0	728
13.307	20.627	1	19290	0	728
13.920	23.765	1	19621	0	728
12.514	22.935	1	20034	0	728
5.337	17.021	16384	20326	0	728
1.226	14.605	32768	20386	0	728
2.921	14.425	32768	20283	0	728
8.547	18.788	32768	20145	0	728
15.362	24.017	32768	20042	0	728
19.582	27.191	32768	19982	0	728
20.736	28.417	32768	19935	0	728
21.601	27.948	32768	19840	0	728
24.558	30.977	32768	19664	0	728
24.017	32.384	32768	19457	0	728
22.214	31.374	32768	19264	0	728
16.841	29.463	32768	19062	0	728
12.045	28.128	32768	18808	0	728
10.638	26.433	32768	18482	0	728
12.946	26.361	32768	18034	0	728
13.091	24.739	32768	17476	0	728
10.746	22.863	32768	16964	0	728
9.701	20.014	32768	16598	0	728
10.025	21.241	32768	16354	0	728
10.566	21.168	32768	16135	0	728
11.648	20.447	32768	15873	0	728
9.592	20.664	32768	15576	0	728
5.770	17.166	32768	15288	0	728
4.940	18.788	32768	14987	0	728
5.590	19.221	32768	14661	0	728
8.294	23.080	32768	14433	0	728
11.792	24.775	32768	14403	0	728
14.641	26.001	32768	14630	0	728
19.005	26.794	32768	15017	0	728
18.175	24.053	32768	15323	0	728
13.487	18.752	32768	15404	0	728
3.390	14.821	32768	15374	0	728
-4.291	10.458	32768	15374	0	728
-7.357	10.097	32768	15447	0	728
-3.210	14.100	32768	15576	0	728
5.806	18.283	32768	15688	0	728
13.776	25.279	32768	15718	0	728
16.516	28.273	32768	15718	0	728
18.969	29.427	32768	15753	0	728
17.923	29.427	32768	15817	0	728
20.916	30.436	32768	15856	0	728
22.575	32.131	32768	15843	0	728
22.683	34.439	32768	15813	1	316
20.736	32.600	32768	15804	0	316
13.776	27.263	32768	15847	0	316
10.133	20.591	32768	15916	0	316
9.917	20.087	32768	15924	0	316
12.333	22.539	32768	15877	0	316
18.356	25.929	32768	15860	0	316
17.815	26.542	32768	15877	0	316
15.867	21.385	32768	15821	0	316
11.360	16.949	32768	15649	0	316
9.484	18.247	32768	15469	0	316
14.281	22.070	32768	15344	0	316
18.536	29.138	32768	15262	0	316
24.306	33.610	32768	15194	0	316
25.424	34.656	32768	15138	0	316
25.207	35.341	32768	15073	0	316
27.227	34.511	32768	14987	0	316
23.512	33.177	32768	14832	0	316
19.473	28.994	32768	14635	0	316
12.405	22.142	32768	14497	0	316
5.157	19.077	32768	14454	0	316
2.019	16.769	32768	14433	0	316
4.111	17.887	32768	14347	0	316
5.373	13.848	32768	14200	0	316
4.039	10.386	32768	14097	0	316
0.361	2.380	32768	14149	0	316
-3.606	-0.433	32768	14351	0	316
-3.246	2.993	32768	14605	0	316
2.164	10.710	32768	14850	0	316
12.622	20.159	32768	15099	0	316
20.772	24.775	32768	15361	0	316
18.752	24.306	32768	15654	0	316
12.477	18.320	32768	15972	0	316
2.993	12.694	32768	16277	0	316
-1.911	10.674	32768	16555	0	316
0.469	15.326	32768	16839	0	316
5.950	18.716	32768	17132	0	316
13.343	23.621	32768	17420	0	316
20.267	24.342	32768	17652	0	316
22.827	24.666	32768	17802	0	316
26.001	27.912	32768	17901	0	316
22.503	30.653	32768	17996	0	316
18.392	34.403	32768	18082	0	316
16.661	34.511	32768	18112	0	316
20.195	33.862	32768	18077	0	316
22.395	28.886	32768	18009	0	316
24.198	24.558	32768	17931	0	316
19.041	22.106	32768	17897	0	316
16.625	21.890	32768	17987	0	316
13.956	22.575	32768	18125	0	316
16.552	22.935	32768	18150	0	316
12.838	17.851	32768	18064	0	316
6.527	11.684	32768	17944	0	316
-3.642	9.124	32768	17867	0	316
-9.412	10.206	32768	17871	0	316
-10.458	12.982	32768	17880	0	316
-8.330	12.550	32768	17785	0	316
-6.347	7.934	32768	17553	0	316
-6.816	3.246	32768	17265	0	316
-7.357	1.226	32768	17003	0	316
-6.131	5.265	32768	16775	0	316
-1.839	12.622	32768	16512	0	316
3.137	16.805	32768	16195	0	316
9.917	20.627	32768	15847	0	316
15.290	20.664	32768	15533	0	316
17.562	20.844	32768	15318	0	316
15.939	24.702	32768	15194	0	316
13.415	24.486	32768	15082	0	316
10.458	24.883	32768	14875	0	316
10.133	24.234	32768	14424	0	316
12.189	19.942	32768	13826	0	316
12.514	20.267	32768	13384	0	316
13.127	24.125	32768	13177	0	316
12.874	27.732	32768	13096	0	316
10.422	30.148	32768	13104	0	316
9.665	29.787	32768	13182	0	316
12.333	27.155	32768	13375	0	316
11.720	24.270	32768	13788	0	316
12.874	25.027	32768	14368	0	316
15.435	29.931	32768	14871	0	316
16.480	35.197	32768	15172	0	316
20.375	39.704	32768	15340	0	316
21.673	39.199	32768	15486	0	316
19.257	33.357	32768	15662	0	316
13.704	28.777	32768	15864	0	316
7.357	24.666	32768	16045	0	316
4.039	24.739	32768	16174	0	316
6.419	24.847	32768	16320	0	316
7.862	24.053	32768	16491	0	316
6.383	16.192	32768	16594	0	316
1.623	11.828	32768	16611	0	316
-1.334	8.330	32768	16629	0	316
0.649	9.232	32768	16684	0	316
7.357	14.533	32768	16775	0	316
14.894	16.949	32768	16908	0	316
19.437	19.329	32768	17054	0	316
15.362	17.706	32768	17153	0	316
8.294	19.798	32768	17209	0	316
2.164	20.736	32768	17278	0	316
1.010	24.234	32768	17394	0	316
7.970	27.696	32768	17540	0	316
18.428	30.076	32768	17669	0	316
29.354	31.482	32768	17738	0	316
29.354	31.879	32768	17716	0	316
20.267	27.191	32768	17635	0	316
11.468	24.089	32768	17579	0	316
7.321	19.293	32768	17596	0	316
8.078	19.257	32768	17643	0	316
13.271	21.673	32768	17592	0	316
10.422	18.933	32768	17359	0	316
2.993	17.454	32768	17007	0	316
0.649	13.415	32768	16667	0	316
6.239	15.110	32768	16414	0	316
13.668	17.743	32768	16204	0	316
17.238	17.779	32768	15967	0	316
8.727	17.310	1	15710	0	316
-1.587	11.396	1	15495	0	316
-8.078	10.386	1	15361	0	316
-6.275	12.333	1	15314	0	316
-2.524	16.084	1	15297	0	316
-1.262	18.897	1	15262	0	316
-2.777	17.310	1	15241	0	316
-2.164	20.123	1	15288	0	316
4.400	20.087	1	15417	0	316
10.025	21.132	1	15585	0	316
8.943	18.500	1	15735	0	316
0.433	11.035	1	15830	0	316
-11.684	2.056	1	15851	0	316
-18.897	-3.678	1	15800	0	316
-18.536	-4.472	1	15722	0	316
-14.533	-0.649	1	15705	0	316
-8.763	1.983	1	15761	0	316
-8.439	0.577	1	15826	0	316
-11.323	-2.993	1	15890	0	316
-10.638	-5.193	1	15976	0	316
-9.917	-2.128	1	16058	0	316
-7.573	3.246	1	16114	0	316
-6.744	6.347	1	16135	0	316
-9.124	5.878	1	16096	0	316
-12.766	2.633	1	16002	0	316
-13.379	0.685	1	15929	0	316
-8.943	3.823	1	15916	0	316
-3.606	7.212	1	15907	0	316
-4.508	7.140	1	15843	0	316
-6.022	4.977	1	15740	0	316
-10.314	4.940	1	15679	0	316
-6.744	9.052	1	15679	0	316
1.767	18.572	1	15705	0	316
11.107	23.801	1	15727	0	316
12.622	22.611	1	15757	0	316
4.616	14.353	1	15881	0	316
-0.541	6.996	1	16114	0	316
-2.524	6.347	1	16329	0	316
4.652	12.297	1	16457	0	316
15.182	18.897	1	16560	0	316
19.401	21.890	1	16719	0	316
19.978	23.188	1	16977	0	316
15.975	20.952	1	17325	0	316
11.612	19.077	1	17699	0	316
5.662	18.824	1	18017	0	316
1.875	16.156	1	18258	0	316
-1.983	13.307	1	18443	0	316
-2.416	11.323	1	18610	0	316
0.288	8.439	1	18800	0	316
6.419	9.737	1	18972	0	316
14.245	14.461	1	19096	0	316
20.736	19.365	1	19204	0	316
21.421	25.063	1	19324	0	316
20.159	26.794	1	19492	0	316
16.625	26.686	32768	19763	0	316
18.103	28.273	32768	20025	0	316
24.234	33.069	32768	20077	0	316
27.335	34.944	32768	19965	0	316
22.611	31.951	32768	19862	0	316
13.884	22.178	32768	19862	0	316
3.137	11.468	32768	19913	0	316
-0.108	6.058	32768	19892	1	704
3.354	11.143	32768	19737	0	704
8.727	19.762	32768	19496	0	704
12.405	29.282	32768	19221	0	704
15.507	30.436	32768	18959	0	704
16.733	27.840	32768	18688	0	704
18.500	22.034	32768	18361	0	704
17.779	21.709	32768	17957	0	704
19.510	23.585	32768	17553	0	704
19.834	30.617	32768	17218	0	704
22.431	38.226	32768	16968	0	704
26.253	38.370	32768	16770	0	704
25.532	36.278	32768	16568	0	704
23.008	31.338	32768	16376	0	704
18.608	27.624	32768	16230	0	704
14.425	26.938	32768	16152	0	704
12.441	28.633	32768	16092	0	704
10.494	27.335	32768	15989	0	704
6.094	19.510	32768	15869	0	704
1.767	11.648	32768	15783	0	704
-2.164	5.193	32768	15740	0	704
-0.397	3.426	32768	15697	0	704
6.022	8.835	32768	15593	0	704
11.792	15.002	32768	15353	0	704
15.435	20.231	32768	14961	0	704
10.674	19.005	32768	14540	0	704
4.219	14.533	32768	14235	0	704
-1.442	11.432	32768	14063	0	704
-3.029	12.261	32768	13994	0	704
1.731	17.093	32768	13973	0	704
8.691	27.371	32768	13908	0	704
16.228	32.095	32768	13818	0	704
19.365	32.961	32768	13861	0	704
21.132	29.751	32768	14089	0	704
16.985	27.047	32768	14377	0	704
12.838	25.207	32768	14626	0	704
6.924	23.188	32768	14802	0	704
2.885	19.798	32768	14936	0	704
-0.865	16.408	32768	15056	0	704
-2.056	12.694	32768	15164	0	704
0.541	14.821	32768	15241	0	704
4.183	21.204	32768	15280	0	704
10.169	25.712	32768	15323	0	704
13.631	25.460	32768	15323	0	704
10.674	21.601	32768	15138	0	704
7.465	18.680	32768	14832	0	704
4.436	18.969	32768	14613	0	704
7.248	24.775	32768	14441	0	704
13.163	28.741	32768	14239	0	704
21.241	30.905	32768	14170	0	704
21.313	28.164	32768	14312	0	704
17.779	27.407	32768	14544	0	704
11.828	28.201	32768	14798	0	704
12.045	30.689	32768	15043	0	704
14.894	35.160	32768	15241	0	704
17.779	37.288	32768	15413	0	704
21.096	36.170	32768	15615	0	704
17.274	34.872	32768	15869	0	704
15.723	32.708	32768	16122	0	704
12.333	27.587	32768	16281	0	704
10.566	22.286	32768	16333	0	704
8.258	18.247	32768	16409	0	704
5.481	13.018	32768	16586	0	704
5.878	14.569	32768	16818	0	704
8.727	16.120	32768	17033	0	704
9.556	19.149	32768	17166	0	704
6.852	16.408	32768	17243	0	704
5.337	13.379	32768	17342	0	704
4.940	13.992	32768	17484	0	704
5.770	15.795	32768	17635	0	704
7.248	21.385	32768	17738	0	704
6.022	20.447	32768	17828	0	704
2.019	17.743	32768	17944	0	704
2.560	12.333	32768	18116	0	704
4.183	10.061	32768	18275	0	704
6.888	10.819	32768	18335	0	704
5.121	11.540	32768	18305	0	704
4.291	15.002	32768	18267	0	704
4.183	16.336	32768	18258	0	704
8.402	19.726	32768	18245	0	704
11.612	20.880	32768	18129	0	704
10.061	20.664	32768	17897	0	704
5.049	16.949	32768	17604	0	704
-0.036	15.038	32768	17273	0	704
0.180	14.533	32768	16930	0	704
5.626	19.690	32768	16629	0	704
11.432	22.935	32768	16401	0	704
14.677	27.335	32768	16225	0	704
14.677	29.138	32768	16041	0	704
11.432	27.047	32768	15847	0	704
9.448	25.784	32768	15667	0	704
13.451	28.128	32768	15550	0	704
17.562	30.761	32768	15512	0	704
24.630	35.016	32768	15533	0	704
26.001	37.324	32768	15555	0	704
23.224	35.485	32768	15542	0	704
18.320	30.941	32768	15495	0	704
11.287	25.316	32768	15452	0	704
6.852	19.654	32768	15404	0	704
4.003	16.697	32768	15357	0	704
2.092	12.730	32768	15370	0	704
1.046	12.802	32768	15482	0	704
2.416	14.569	32768	15632	0	704
1.226	14.461	32768	15753	0	704
1.298	15.326	32768	15804	0	704
0.144	11.612	32768	15830	0	704
1.010	10.025	32768	15899	0	704
3.714	10.422	32768	16045	0	704
7.970	13.307	32768	16243	0	704
7.140	14.136	32768	16444	0	704
6.419	13.487	32768	16616	0	704
1.154	7.104	32768	16715	0	704
-0.505	5.337	32768	16758	0	704
2.885	10.422	32768	16796	0	704
9.809	18.320	32768	16839	0	704
15.435	26.794	32768	16869	0	704
19.690	30.472	32768	16839	0	704
19.726	29.499	32768	16727	0	704
20.519	28.705	32768	16633	0	704
18.500	28.237	32768	16672	0	704
15.182	28.886	32768	16766	0	704
8.979	26.470	32768	16697	0	704
4.327	22.178	32768	16431	0	704
2.452	20.808	32768	16096	0	704
6.491	19.618	32768	15808	0	704
9.881	22.503	32768	15550	0	704
11.251	25.460	32768	15194	0	704
9.953	24.522	32768	14721	0	704
6.924	24.450	32768	14304	0	704
5.734	23.080	32768	14054	0	704
8.799	22.106	32768	13955	0	704
12.514	25.027	32768	13968	0	704
20.087	29.499	32768	14084	0	704
26.325	35.160	32768	14256	0	704
30.004	39.019	32768	14446	0	704
29.787	40.245	32768	14665	0	704
25.352	36.675	32768	14966	0	704
17.634	30.869	32768	15318	0	704
8.979	26.433	32768	15576	0	704
2.596	20.664	32768	15619	0	704
0.613	18.860	32768	15525	0	704
3.787	16.913	1	15525	0	704
8.078	19.041	1	15654	0	704
12.009	22.322	1	15787	0	704
12.189	22.899	1	15903	0	704
10.350	24.702	1	16036	0	704
10.025	21.385	1	16170	0	704
8.366	18.103	1	16268	0	704
9.701	18.428	1	16286	0	704
8.943	18.608	1	16230	0	704
10.783	22.250	1	16062	0	704
11.251	23.224	1	15636	0	704
12.081	24.739	1	15082	0	704
14.785	25.965	1	14832	0	704
15.002	27.660	1	14927	0	704
18.897	28.777	1	15026	0	704
19.834	30.725	1	14987	0	704
23.152	30.977	1	14983	0	704
26.289	33.321	1	15176	0	704
30.617	36.964	1	15529	0	704
36.314	41.255	1	15937	0	704
36.495	41.868	1	16346	0	704
30.833	40.930	1	16723	0	704
24.883	37.505	1	17067	0	704
21.601	36.098	1	17398	0	704
24.414	36.459	1	17746	0	704
31.590	37.432	1	18095	0	704
33.862	34.367	1	18361	0	704
27.299	27.083	1	18529	0	704
13.235	15.651	1	18653	0	704
0.000	5.878	1	18782	0	704
-5.373	4.652	1	18890	0	704
-2.452	10.133	1	18920	0	704
6.275	15.002	1	18881	0	704
11.432	18.536	1	18838	0	704
8.655	14.425	1	18804	0	704
1.226	8.799	1	18778	0	704
-5.806	7.465	1	18804	1	708
-8.799	9.304	1	18834	0	708
-5.049	10.386	1	18748	0	708
-0.938	8.402	1	18568	0	708
3.498	8.655	1	18365	0	708
7.537	9.665	32768	18168	0	708
8.258	15.110	32768	17991	0	708
8.402	24.378	32768	17811	0	708
7.104	26.686	32768	17544	0	708
7.032	26.289	32768	17200	0	708
9.556	25.604	32768	16899	0	708
17.238	27.551	32768	16727	0	708
25.352	33.682	32768	16650	0	708
30.076	40.281	32768	16568	0	708
29.535	44.104	32768	16435	0	708
26.217	41.652	32768	16337	0	708
22.539	32.203	32768	16320	0	708
18.897	24.162	32768	16388	0	708
12.802	15.903	32768	16525	0	708
5.734	10.530	32768	16680	0	708
-1.803	6.527	32768	16818	0	708
-6.924	4.544	32768	16977	0	708
-5.770	1.406	32768	17205	0	708
1.623	5.554	32768	17441	0	708
8.655	11.396	32768	17592	0	708
16.336	15.435	32768	17673	0	708
16.552	19.618	32768	17755	0	708
11.432	15.975	32768	17850	0	708
7.393	10.927	32768	17927	0	708
4.724	12.333	32768	17966	0	708
6.275	13.668	32768	17983	0	708
11.215	18.644	32768	17983	0	708
11.396	20.844	32768	17966	0	708
9.088	22.395	32768	17914	0	708
5.878	19.798	32768	17824	0	708
7.248	20.627	32768	17721	0	708
11.287	18.500	32768	17579	0	708
14.353	17.021	32768	17329	0	708
11.900	12.730	32768	17015	0	708
6.058	8.835	32768	16835	0	708
-2.164	4.904	32768	16805	0	708
-6.239	4.580	32768	16801	0	708
-3.642	6.275	32768	16740	0	708
2.164	7.465	32768	16607	0	708
6.311	13.199	32768	16448	0	708
10.278	13.307	32768	16329	0	708
12.297	18.175	32768	16251	0	708
14.281	19.077	32768	16195	0	708
17.743	22.539	32768	16114	0	708
19.365	23.873	32768	16015	0	708
20.988	27.335	32768	15946	0	708
19.870	28.345	32768	15946	0	708
18.680	30.869	32768	15980	0	708
18.464	29.210	32768	15976	0	708
16.372	26.614	32768	15933	0	708
13.668	23.873	32768	15894	0	708
13.199	21.601	32768	15890	0	708
9.052	18.536	32768	15912	0	708
8.402	18.283	32768	15894	0	708
8.439	14.641	32768	15826	0	708
8.799	15.687	32768	15735	0	708
8.727	15.110	32768	15611	0	708
8.583	18.320	32768	15490	0	708
7.753	18.860	32768	15538	0	708
6.816	20.627	32768	15735	0	708
7.248	22.034	32768	15834	0	708
11.756	27.515	32768	15753	0	708
17.310	33.357	32768	15654	0	708
20.087	36.567	32768	15692	0	708
20.339	36.639	32768	15851	0	708
14.677	32.528	32768	15980	0	708
12.477	30.364	32768	16023	0	708
12.153	31.049	32768	15980	0	708
17.346	34.403	32768	15864	0	708
20.736	36.062	32768	15722	0	708
19.473	33.033	32768	15615	0	708
12.441	25.171	32768	15503	0	708
6.203	19.293	32768	15348	0	708
5.842	13.740	32768	15164	0	708
10.025	14.785	32768	14992	0	708
12.405	13.884	32768	14884	0	708
10.891	13.307	32768	14871	0	708
6.419	12.009	32768	14867	0	708
5.157	13.199	32768	14759	0	708
9.809	18.788	32768	14480	0	708
17.526	22.863	32768	14136	0	708
22.503	25.135	32768	13904	0	708
19.473	23.512	32768	13839	0	708
13.091	19.834	32768	13921	0	708
9.989	22.611	32768	14080	0	708
13.091	28.886	32768	14278	0	708
18.139	35.846	32768	14501	0	708
26.037	38.695	32768	14712	0	708
27.587	37.973	32768	14897	0	708
26.001	32.925	32768	15030	0	708
23.945	28.381	32768	15052	0	708
17.238	23.152	32768	15026	0	708
13.812	18.608	32768	15202	0	708
8.655	12.441	32768	15602	0	708
6.022	9.592	32768	15980	0	708
4.688	7.898	32768	16187	0	708
2.669	8.907	32768	16268	0	708
1.731	10.133	32768	16333	0	708
1.082	12.369	32768	16396	0	708
1.623	12.477	32768	16431	0	708
4.977	16.769	32768	16401	0	708
9.520	20.555	32768	16333	0	708
13.091	25.316	32768	16264	0	708
15.831	25.784	32768	16264	0	708
13.487	24.666	32768	16363	0	708
11.684	22.395	32768	16487	0	708
8.330	18.969	32768	16551	0	708
9.376	22.431	32768	16564	0	708
16.408	28.669	32768	16603	0	708
22.539	32.167	32768	16697	0	708
25.712	32.925	32768	16775	0	708
21.818	28.814	32768	16783	0	708
14.785	23.332	32768	16766	0	708
9.376	21.024	32768	16775	0	708
8.078	18.752	32768	16822	0	708
7.970	18.644	32768	16882	0	708
4.327	12.694	32768	16891	0	708
-3.137	7.862	32768	16865	0	708
-11.540	5.806	32768	16818	0	708
-11.648	8.871	32768	16689	0	708
-5.157	16.228	32768	16530	0	708
4.760	21.168	32768	16560	0	708
10.422	20.159	32768	16788	0	708
8.763	18.788	32768	16994	0	708
1.911	14.425	32768	17093	0	708
-2.092	14.245	32768	17170	0	708
-0.613	15.254	32768	17312	0	708
3.065	17.454	32768	17424	0	708
6.239	15.867	32768	17256	0	708
6.924	16.336	32768	16758	0	708
3.642	15.362	32768	16243	0	708
1.983	16.877	32768	15946	0	708
0.325	14.749	32768	15843	0	708
-2.272	8.114	32768	15796	0	708
-6.852	-0.036	32768	15770	0	708
-11.937	-5.481	32768	15748	0	708
-12.874	-6.131	32768	15753	0	708
-10.494	-0.469	16384	15817	0	708
-6.924	6.094	16384	15959	0	708
-1.551	9.196	16384	16122	0	708
0.938	9.556	1	16178	0	708
1.046	7.357	1	16023	0	708
-1.551	5.157	1	15744	0	708
-5.409	4.724	1	15572	0	708
-7.573	4.183	1	15572	0	708
-6.167	8.330	1	15628	0	708
0.000	12.550	1	15697	0	708
7.934	14.641	1	15783	0	708
10.783	16.805	1	15869	0	708
8.439	14.425	1	15955	0	708
3.534	13.776	1	16045	0	708
-1.911	11.468	1	16144	0	708
-6.419	8.078	1	16221	0	708
-10.350	4.003	1	16221	0	708
-11.035	-0.577	1	16148	0	708
-13.379	-2.849	1	16109	0	708
-13.992	-3.642	1	16148	0	708
-13.163	-3.895	1	16251	0	708
-13.668	-6.094	1	16346	0	708
-13.379	-6.996	1	16392	0	708
-13.091	-7.573	1	16444	0	708
-13.199	-3.137	1	16547	0	708
-10.386	1.226	1	16672	0	708
-6.563	8.943	1	16753	0	708
-1.875	12.730	1	16753	0	708
0.577	10.458	1	16749	0	708
-0.397	8.114	1	16809	0	708
-4.977	3.714	1	16942	0	708
-7.537	2.993	1	17110	0	708
-5.590	3.967	1	17230	0	708
-5.698	3.823	1	17299	0	708
-8.619	0.505	1	17351	0	708
-15.182	-5.373	1	17420	0	708
-14.461	-4.364	1	17480	0	708
-8.583	0.433	1	17471	0	708
7.393	9.556	1	17390	0	708
21.313	15.290	1	17291	0	708
21.529	18.933	1	17213	0	708
16.084	14.966	1	17140	0	708
4.003	13.379	1	17003	0	708
-1.479	13.054	1	16745	0	708
-2.092	11.107	1	16376	0	708
-0.108	11.468	1	15946	0	708
-1.370	8.114	1	15529	0	708
-7.465	1.010	1	15202	0	708
-15.398	-3.534	1	14992	0	708
-24.017	-6.527	1	14837	0	708
-25.496	-6.491	1	14643	0	708
-23.585	-6.311	1	14407	0	708
-17.779	-4.219	1	14295	0	708
-13.054	-6.275	1	14407	0	708
-10.061	-8.727	1	14643	0	708
-12.297	-7.357	1	14871	0	708
-13.451	-4.832	1	15043	0	708
-13.018	1.947	1	15194	0	708
-9.412	10.963	1	15348	0	708
-0.974	16.120	1	15512	0	708
4.400	20.772	1	15718	0	708
4.652	17.310	1	15916	0	708
2.200	15.074	1	16053	0	708
-2.019	11.504	1	16187	0	708
-1.695	10.927	1	16401	0	708
2.056	11.432	1	16667	0	708
5.013	10.061	1	16878	0	708
3.714	7.862	1	17015	0	708
-2.164	3.895	1	17132	0	708
-6.383	4.255	1	17252	0	708
-6.455	4.940	1	17381	0	708
-3.642	5.770	1	17514	0	708
-0.469	3.570	1	17626	0	708
-2.200	1.118	1	17673	0	708
-7.212	-2.488	1	17643	0	708
-9.088	-1.911	1	17587	0	708
-6.960	1.587	1	17518	0	708
-0.938	4.183	1	17424	0	708
3.714	5.770	1	17295	1	880
1.911	6.924	1	17080	0	880
-5.121	4.796	1	16805	0	880
-11.900	4.039	1	16590	0	880
-11.287	0.649	1	16478	0	880
-8.727	0.180	1	16457	0	880
-4.039	0.469	1	16448	0	880
-4.508	2.669	1	16418	0	880
-7.645	3.534	1	16418	0	880
-10.494	1.226	1	16491	0	880
-13.415	-4.147	1	16620	0	880
-14.245	-8.547	1	16753	0	880
-15.939	-9.917	1	16861	0	880
-22.214	-9.917	1	16912	0	880
-26.001	-9.737	1	16831	0	880
-28.561	-10.530	1	16684	0	880
-30.869	-16.552	1	16667	0	880
-31.987	-18.067	1	16779	0	880
-31.302	-17.923	1	16942	0	880
-27.768	-13.091	1	17157	0	880
-20.591	-7.321	1	17441	0	880
-16.156	-4.652	1	17785	0	880
-12.009	-4.508	1	18198	0	880
-14.894	-8.294	1	18610	0	880
-17.923	-11.468	1	18920	0	880
-20.014	-12.874	16384	19101	0	880
-16.084	-14.569	32768	19217	0	880
-13.631	-13.487	32768	19281	0	880
-12.297	-15.290	32768	19294	0	880
-12.838	-14.136	32768	19234	0	880
-14.821	-12.910	32768	19040	0	880
-12.730	-10.783	32768	18765	0	880
-12.405	-9.629	32768	18610	0	880
-11.684	-8.150	32768	18598	0	880
-12.658	-9.917	32768	18563	0	880
-20.087	-12.838	32768	18430	0	880
-26.325	-17.382	32768	18232	0	880
-32.816	-25.135	32768	18013	0	880
-38.334	-30.797	32768	17824	0	880
-40.786	-36.242	32768	17665	0	880
-39.993	-36.387	32768	17467	0	880
-37.324	-36.567	32768	17205	0	880
-34.836	-34.439	32768	16951	0	880
-34.656	-33.213	32768	16783	0	880
-35.341	-30.833	32768	16715	0	880
-35.557	-27.948	32768	16676	0	880
-35.160	-22.755	32768	16495	0	880
-33.105	-20.736	32768	16109	0	880
-30.364	-19.293	32768	15641	0	880
-29.787	-21.673	32768	15310	0	880
-28.741	-22.755	32768	15159	0	880
-30.148	-24.089	32768	15078	0	880
-31.807	-26.253	32768	15026	0	880
-34.692	-28.128	32768	15017	0	880
-38.406	-28.597	32768	15030	0	880
-38.442	-27.515	32768	15060	0	880
-37.036	-26.289	32768	15142	0	880
-34.079	-24.883	32768	15211	0	880
-32.925	-25.568	32768	15142	0	880
-34.800	-26.650	32768	14949	0	880
-36.603	-27.335	32768	14738	0	880
-35.557	-24.630	32768	14626	0	880
-32.528	-20.195	32768	14609	0	880
-28.237	-18.175	32768	14532	0	880
-26.217	-13.415	32768	14299	0	880
-26.217	-12.802	32768	14076	0	880
-28.705	-12.153	32768	14080	0	880
-26.830	-12.514	32768	14317	0	880
-25.135	-12.117	32768	14652	0	880
-19.654	-10.963	32768	14961	0	880
-18.788	-10.242	32768	15181	0	880
-17.562	-12.802	32768	15340	0	880
-20.988	-14.208	32768	15486	0	880
-22.935	-19.401	32768	15632	0	880
-25.568	-20.483	32768	15783	0	880
-26.145	-21.745	32768	15929	0	880
-26.181	-18.067	32768	16075	0	880
-20.988	-13.415	32768	16256	0	880
-18.247	-8.222	32768	16508	0	880
-14.930	-5.373	32768	16775	1	316
-17.382	-8.727	32768	16960	0	316
-23.476	-13.559	32768	17089	0	316
-32.708	-19.293	32768	17205	0	316
-38.478	-24.883	32768	17312	0	316
-40.858	-27.624	32768	17398	0	316
-42.697	-30.472	32768	17428	0	316
-42.012	-32.600	32768	17390	0	316
-39.812	-30.797	32768	17299	0	316
-36.495	-26.433	32768	17136	0	316
-34.043	-21.745	32768	16938	0	316
-32.312	-16.877	32768	16727	0	316
-32.961	-19.041	32768	16409	0	316
-34.223	-21.349	32768	15933	0	316
-35.810	-24.702	32768	15413	0	316
-35.882	-26.325	32768	14983	0	316
-37.685	-26.037	32768	14699	0	316
-38.586	-23.801	32768	14596	0	316
-38.370	-23.873	32768	14669	0	316
-35.918	-21.565	32768	14854	0	316
-32.203	-17.815	32768	15056	0	316
-29.859	-16.516	32768	15314	0	316
-30.328	-15.903	32768	15671	0	316
-33.826	-18.536	32768	16049	0	316
-36.531	-22.106	32768	16350	0	316
-36.242	-19.582	32768	16538	0	316
-30.581	-14.281	32768	16676	0	316
-23.981	-7.140	32768	16809	0	316
-19.906	-4.724	32768	16981	0	316
-17.382	-5.590	32768	17200	0	316
-20.231	-7.321	32768	17385	0	316
-22.142	-6.960	32768	17506	0	316
-22.178	-4.940	32768	17592	0	316
-22.827	-2.092	32768	17686	0	316
-19.762	-3.282	32768	17755	0	316
-20.375	-8.114	32768	17746	0	316
-20.519	-13.235	32768	17665	0	316
-22.899	-14.930	32768	17549	0	316
-27.624	-16.372	32768	17428	0	316
-29.968	-14.136	32768	17321	0	316
-27.876	-15.002	32768	17200	0	316
-26.397	-15.507	32768	17046	0	316
-24.666	-16.913	32768	16882	0	316
-26.397	-17.634	32768	16723	0	316
-27.660	-13.740	32768	16594	0	316
-27.804	-12.333	32768	16568	0	316
-25.063	-9.052	32768	16659	0	316
-17.923	-4.111	32768	16723	0	316
-11.035	0.288	32768	16650	0	316
-4.400	8.439	32768	16435	0	316
-0.325	15.290	32768	16182	0	316
3.173	16.661	32768	15955	0	316
1.370	14.100	32768	15757	0	316
-3.101	8.258	32768	15529	0	316
-6.744	2.957	32768	15224	0	316
-11.432	0.072	32768	14936	0	316
-13.848	-1.118	32768	14768	0	316
-13.631	-0.974	32768	14712	0	316
-11.071	-0.180	32768	14691	0	316
-5.337	1.551	32768	14656	0	316
-3.137	3.931	32768	14626	0	316
-1.118	6.708	32768	14583	0	316
-2.560	8.042	32768	14467	0	316
-5.013	7.068	32768	14342	0	316
-7.970	5.229	32768	14278	0	316
-9.232	2.993	32768	14170	0	316
-8.186	0.325	32768	13990	0	316
-6.419	-1.118	32768	13930	0	316
-5.193	0.721	32768	14054	0	316
-3.318	4.544	1	14231	0	316
-2.200	11.035	1	14411	0	316
-3.606	16.228	1	14592	0	316
-6.275	15.867	1	14781	0	316
-10.025	13.487	1	14961	0	316
-15.002	6.816	1	15146	0	316
-18.464	4.291	1	15353	0	316
-15.182	5.806	1	15568	0	316
-10.927	9.520	1	15710	0	316
-7.176	11.576	1	15791	0	316
-7.898	8.258	1	15963	0	316
-13.271	2.019	1	16273	0	316
-20.736	-4.580	1	16598	0	316
-25.965	-9.268	1	16796	0	316
-26.758	-8.691	1	16831	0	316
-23.224	-6.419	1	16813	0	316
-18.752	-1.875	1	16869	0	316
-13.307	1.442	1	16994	0	316
-12.333	3.246	1	17101	0	316
-16.949	1.046	1	17132	0	316
-21.457	-2.993	1	17123	0	316
-27.227	-8.366	1	17157	0	316
-28.237	-12.586	1	17265	0	316
-26.253	-12.838	1	17415	0	316
-22.539	-9.953	1	17518	0	316
-20.880	-9.773	1	17561	0	316
-22.395	-10.602	1	17604	0	316
-24.486	-11.576	1	17673	0	316
-27.407	-16.084	1	17733	0	316
-28.020	-16.480	1	17733	0	316
-28.958	-15.290	1	17656	0	316
-26.506	-13.054	1	17501	0	316
-23.945	-8.042	1	17261	0	316
-20.844	-2.849	1	16955	0	316
-15.759	0.577	1	16676	0	316
-13.884	4.003	1	16465	0	316
-12.441	3.642	1	16316	0	316
-11.792	3.101	1	16170	0	316
-12.910	1.370	1	16010	0	316
-12.369	-0.144	1	15838	0	316
-12.514	-1.839	1	15705	0	316
-11.937	-0.902	1	15645	0	316
-9.953	1.082	1	15615	0	316
-6.491	5.373	1	15542	0	316
-3.931	9.016	1	15495	0	316
-1.334	9.989	1	15525	0	316
-3.065	8.475	1	15611	0	316
-6.744	7.789	1	15671	0	316
-10.422	3.931	1	15692	0	316
-10.963	3.390	1	15744	0	316
-8.619	6.960	1	15877	0	316
-1.442	13.956	1	16075	0	316
5.842	21.241	1	16294	0	316
7.862	24.486	1	16469	0	316
6.888	22.755	1	16594	0	316
1.659	18.464	1	16672	0	316
-3.678	10.602	1	16723	0	316
-6.058	8.619	1	16783	0	316
-8.294	7.357	1	16831	0	316
-7.501	6.708	1	16848	0	316
-5.950	6.599	1	16856	0	316
-2.741	8.979	1	16878	0	316
0.974	11.973	1	16955	0	316
4.796	15.146	1	17157	0	316
6.275	15.146	1	17441	0	316
6.527	17.959	1	17635	0	316
8.294	18.824	1	17682	0	316
12.910	21.529	1	17643	0	316
15.615	23.945	1	17549	0	316
13.631	23.296	1	17407	0	316
11.937	20.736	1	17187	0	316
5.373	13.271	1	16835	0	316
0.469	10.097	1	16359	0	316
-3.678	6.455	1	15877	0	316
-6.058	4.688	1	15486	0	316
-7.176	5.265	1	15198	0	316
-6.708	5.481	1	14970	0	316
-3.931	8.979	1	14785	0	316
1.695	12.694	1	14673	0	316
2.669	15.146	1	14661	0	316
1.803	16.625	1	14742	0	316
-1.623	13.127	1	14875	0	316
-5.914	9.196	1	14949	0	316
-10.602	3.678	1	14858	0	316
-12.586	0.469	1	14661	0	316
-9.268	0.397	1	14592	0	316
-8.006	1.551	1	14742	0	316
-5.409	4.508	1	14987	0	316
-2.236	7.645	1	15258	0	316
1.767	9.592	1	15589	0	316
6.275	12.333	1	15980	0	316
10.314	14.749	1	16372	0	316
14.245	17.706	1	16706	0	316
12.550	21.024	1	17003	0	316
8.835	21.962	1	17291	0	316
6.022	18.716	1	17579	0	316
4.580	16.156	1	17819	0	316
6.455	11.540	1	18000	0	316
7.465	9.304	1	18163	0	316
8.258	11.432	1	18288	0	316
6.671	12.910	1	18288	0	316
0.252	12.586	1	18224	0	316
-4.436	10.819	1	18305	0	316
-5.986	7.068	1	18563	0	316
-5.914	8.006	1	18821	0	316
-4.832	10.458	1	18942	0	316
-3.606	13.848	1	18920	0	316
-0.433	13.415	1	18860	0	316
0.361	11.143	1	18838	0	316
1.082	7.357	1	18847	1	712
-1.046	2.993	1	18856	0	712
-5.265	2.777	1	18830	0	712
-9.016	0.902	1	18761	0	712
-9.340	-0.974	1	18671	0	712
-8.583	-3.498	1	18610	0	712
-12.838	-7.970	1	18576	0	712
-17.129	-9.196	32768	18499	0	712
-22.286	-8.294	32768	18378	0	712
-19.690	-6.599	32768	18249	0	712
-15.146	-5.013	32768	18142	0	712
-10.819	-3.065	32768	18022	0	712
-9.845	-3.354	32768	17850	0	712
-10.927	-1.010	32768	17656	0	712
-10.855	2.200	32768	17454	0	712
-8.222	3.678	32768	17200	0	712
-3.354	3.462	32768	16899	0	712
0.757	2.380	32768	16624	0	712
2.308	4.364	32768	16401	0	712
0.541	6.996	32768	16195	0	712
-1.442	7.645	32768	15955	0	712
-2.272	10.891	32768	15705	0	712
0.829	10.386	32768	15499	0	712
6.167	11.900	32768	15387	0	712
9.124	15.182	32768	15383	0	712
9.629	16.156	32768	15409	0	712
5.662	15.975	32768	15391	0	712
4.075	12.405	32768	15366	0	712
4.688	8.583	32768	15391	0	712
7.753	6.058	32768	15469	0	712
7.537	4.760	32768	15538	0	712
6.527	6.491	32768	15581	0	712
4.616	9.304	32768	15632	0	712
6.094	14.930	32768	15722	0	712
11.215	21.709	32768	15881	0	712
19.041	27.624	32768	16058	0	712
28.237	32.780	32768	16157	0	712
32.636	36.567	32768	16178	0	712
33.249	37.829	32768	16213	0	712
31.374	39.091	32768	16307	0	712
29.823	37.324	32768	16414	0	712
26.001	36.495	32768	16465	0	712
25.207	29.931	32768	16457	0	712
21.277	23.693	32768	16422	0	712
11.107	18.500	32768	16401	0	712
5.986	10.963	32768	16380	0	712
1.046	9.629	32768	16316	0	712
1.442	8.943	32768	16225	0	712
5.013	9.845	32768	16088	0	712
10.674	13.271	32768	15847	0	712
15.002	15.615	32768	15538	0	712
18.860	17.129	32768	15297	0	712
21.818	20.447	32768	15168	0	712
21.241	20.339	32768	15112	0	712
21.096	21.962	32768	15069	0	712
18.500	24.991	32768	15004	0	712
20.483	26.686	32768	14970	0	712
20.339	29.463	32768	15009	0	712
20.952	28.453	32768	15116	0	712
20.195	24.702	32768	15258	0	712
13.920	19.546	32768	15391	0	712
8.655	16.120	32768	15542	0	712
4.183	17.562	32768	15731	0	712
5.590	22.791	32768	15950	0	712
13.343	29.643	32768	16170	0	712
26.037	32.997	32768	16324	0	712
32.600	33.321	32768	16409	0	712
31.085	27.191	32768	16487	0	712
19.978	20.123	32768	16598	0	712
10.133	16.408	32768	16706	0	712
5.517	14.245	32768	16745	0	712
8.114	16.769	32768	16727	0	712
11.612	18.428	32768	16706	0	712
12.225	18.752	32768	16702	0	712
6.960	15.651	32768	16732	0	712
-1.551	9.629	32768	16762	0	712
-3.859	6.888	32768	16659	0	712
-3.895	5.986	32768	16367	0	712
0.541	10.566	32768	16036	0	712
6.419	17.057	32768	15826	0	712
10.314	19.041	32768	15838	0	712
11.287	19.690	32768	16023	0	712
8.655	16.300	32768	16170	0	712
4.977	12.658	32768	16165	0	712
1.803	12.081	32768	16066	0	712
0.433	9.845	32768	15963	0	712
0.649	8.330	32768	15869	0	712
-0.361	7.862	32768	15718	0	712
0.541	9.737	32768	15464	0	712
-0.685	10.061	32768	15172	0	712
-1.334	10.927	32768	14961	0	712
-1.479	10.783	32768	14888	0	712
0.902	9.989	32768	14897	0	712
3.823	9.989	32768	14923	0	712
6.094	13.559	32768	14949	0	712
8.114	15.507	32768	15009	0	712
11.468	18.860	1	15138	0	712
16.697	23.332	1	15366	0	712
20.087	25.893	1	15628	0	712
20.700	25.856	1	15838	0	712
14.821	18.464	1	15980	0	712
4.652	10.783	1	16118	0	712
-2.416	3.967	1	16290	0	712
-1.551	2.092	1	16487	0	712
1.334	4.796	16384	16680	0	712
3.029	6.347	1	16753	0	712
-1.587	4.724	1	16654	0	712
-7.645	1.659	1	16457	0	712
-14.497	-0.361	1	16268	0	712
-17.310	-1.298	1	16118	0	712
-16.408	-0.721	1	16032	0	712
-18.247	-3.859	1	15989	0	712
-17.851	-7.140	1	15955	0	712
-17.634	-8.042	1	15933	0	712
-12.225	-4.075	1	16006	0	712
-5.662	2.308	1	16161	0	712
0.505	9.520	1	16281	0	712
2.092	11.215	1	16277	0	712
1.839	13.127	1	16165	0	712
1.515	12.730	1	16062	0	712
2.452	14.172	1	16045	0	712
7.609	18.464	1	16084	0	712
11.937	18.536	1	16135	0	712
14.245	18.536	1	16157	0	712
14.245	14.605	1	16148	0	712
9.809	10.710	1	16170	0	712
2.128	6.599	1	16268	0	712
-3.642	4.291	1	16435	0	712
-7.393	4.147	1	16598	0	712
-6.491	4.760	1	16719	0	712
-5.734	2.056	1	16831	0	712
-5.157	0.793	1	16951	0	712
-8.547	-1.370	1	17067	0	712
-12.946	-6.491	1	17136	0	712
-15.543	-7.753	1	17144	0	712
-19.365	-10.963	1	17127	0	712
-17.526	-9.304	1	17114	0	712
-15.038	-7.321	1	17089	0	712
-9.556	-1.551	1	17011	0	712
-3.426	2.164	1	16887	0	712
-0.180	4.075	1	16723	0	712
-0.433	3.390	1	16521	0	712
-1.695	6.924	1	16324	0	712
-2.633	7.321	1	16165	0	712
0.036	8.835	1	16049	0	712
2.669	8.727	1	15989	0	712
4.832	9.592	1	15985	0	712
4.147	7.573	1	16019	0	712
1.659	6.022	1	16105	0	712
-0.902	2.741	1	16234	0	712
-3.137	-2.019	1	16342	0	712
-5.229	-6.744	1	16376	0	712
-5.590	-6.491	1	16342	0	712
-9.052	-4.255	1	16286	0	712
-12.658	-1.442	1	16273	0	712
-15.074	-0.902	1	16329	0	712
-20.483	-3.714	1	16388	0	712
-21.818	-9.917	1	16388	0	712
-23.945	-17.779	1	16350	0	712
-26.866	-22.322	1	16299	0	712
-28.237	-23.909	1	16221	0	712
-32.131	-25.712	1	16148	0	712
-35.124	-25.388	1	16092	0	712
-36.314	-26.938	1	15924	0	712
-36.242	-28.309	1	15559	0	712
-35.521	-26.397	1	15159	0	712
-33.574	-25.460	1	14850	0	712
-33.934	-23.657	1	14661	0	712
-34.259	-26.145	1	14600	0	712
-35.052	-28.453	1	14553	0	712
-32.997	-28.777	1	14480	0	712
-30.545	-25.388	1	14480	0	712
-26.037	-20.339	1	14544	0	712
-22.827	-14.749	1	14570	0	712
-20.087	-11.287	1	14544	0	712
-22.250	-12.153	1	14510	0	712
-24.955	-18.428	1	14514	0	712
-29.318	-21.637	1	14630	0	712
-33.502	-25.316	1	14888	0	712
-37.360	-28.164	1	15245	0	712
-39.235	-27.443	1	15602	0	712
-43.347	-29.210	1	15899	0	712
-47.962	-35.521	1	16131	0	712
-51.965	-40.137	1	16256	0	712
-52.687	-42.734	1	16311	0	712
-53.011	-41.724	1	16384	0	712
-48.648	-37.072	1	16469	0	712
-46.412	-33.682	1	16568	0	712
-43.419	-31.843	1	16736	0	712
-42.012	-31.266	1	16981	0	712
-40.317	-31.735	1	17256	0	712
-39.344	-31.194	1	17480	0	712
-37.505	-29.787	1	17639	0	712
-37.144	-29.174	1	17776	0	712
-35.593	-26.325	1	17931	0	712
-33.934	-23.873	1	18086	0	712
-32.997	-22.827	1	18181	0	712
-33.033	-24.306	1	18202	0	712
-34.656	-26.001	1	18163	0	712
-34.728	-26.181	1	18095	0	712
-34.692	-26.145	1	18004	0	712
-34.583	-21.962	1	17905	0	712
-29.679	-17.995	1	17785	1	808
-26.001	-16.120	1	17561	0	808
-21.673	-11.071	1	17200	0	808
-18.139	-8.439	1	16818	0	808
-16.084	-6.960	1	16543	0	808
-19.618	-7.753	1	16384	0	808
-21.998	-10.710	1	16324	0	808
-26.361	-16.012	1	16303	0	808
-29.607	-19.834	1	16264	0	808
-30.617	-22.070	1	16230	0	808
-29.427	-21.565	1	16225	0	808
-27.732	-21.926	1	16208	0	808
-27.407	-20.159	1	16144	0	808
-26.578	-19.870	1	16062	0	808
-24.991	-20.267	1	16036	0	808
-19.906	-14.677	1	16101	0	808
-16.084	-9.556	1	16286	0	808
-10.602	-3.678	1	16543	0	808
-5.373	1.731	1	16762	0	808
-3.534	5.517	1	16925	0	808
-0.288	5.626	1	17119	0	808
1.551	7.934	1	17372	0	808
0.325	7.825	1	17635	0	808
-2.019	5.265	1	17850	0	808
-5.049	2.524	1	18039	0	808
-7.321	-1.551	1	18206	0	808
-7.212	-3.714	1	18348	0	808
-4.832	-2.957	1	18460	0	808
-0.108	-0.505	1	18546	0	808
4.219	2.019	1	18623	0	808
5.986	2.344	1	18666	0	808
2.128	-0.325	1	18589	0	808
-0.072	-2.488	1	18413	0	808
-2.452	-0.757	1	18258	0	808
-2.092	4.364	1	18181	0	808
-3.246	8.078	1	18142	0	808
-5.229	6.888	1	18064	0	808
-11.179	0.793	1	17940	0	808
-17.779	-6.455	1	17875	0	808
-19.654	-10.530	1	17897	0	808
-22.935	-9.484	1	17905	0	808
-23.476	-7.357	1	17858	0	808
-26.001	-8.871	1	17738	0	808
-26.650	-12.333	1	17570	0	808
-23.152	-11.468	1	17415	0	808
-15.038	-7.321	1	17321	0	808
-10.566	-2.128	1	17243	0	808
-9.917	0.144	1	17110	0	808
-11.792	-2.128	1	16930	0	808
-16.444	-4.724	1	16783	0	808
-14.569	-4.544	1	16723	0	808
-7.465	1.875	16384	16723	0	808
-3.678	8.763	32768	16693	0	808
-2.452	10.566	32768	16629	0	808
-5.013	5.986	32768	16568	0	808
-9.016	-0.252	32768	16504	0	808
-10.314	-4.183	32768	16359	0	808
-10.422	-4.904	32768	16127	0	808
-9.448	-1.154	32768	15920	0	808
-6.491	4.291	32768	15770	0	808
-2.380	10.422	32768	15662	0	808
2.344	11.612	32768	15581	0	808
5.554	11.504	32768	15525	0	808
6.311	10.746	32768	15495	0	808
7.970	10.530	32768	15486	0	808
11.107	13.740	32768	15443	0	808
17.634	21.818	32768	15357	0	808
23.404	26.542	32768	15310	0	808
25.965	28.886	32768	15323	0	808
25.965	27.660	32768	15366	0	808
20.195	26.974	32768	15396	0	808
19.185	25.712	32768	15391	0	808
21.096	26.109	32768	15387	0	808
22.611	26.145	32768	15417	0	808
26.289	26.938	32768	15490	0	808
26.506	26.794	32768	15593	0	808
21.060	26.181	32768	15675	0	808
16.949	24.486	32768	15722	0	808
12.766	24.991	32768	15757	0	808
15.471	24.017	32768	15821	1	316
18.283	28.381	32768	15886	0	316
25.279	33.970	32768	15890	0	316
28.309	37.937	32768	15834	0	316
33.285	37.144	32768	15783	0	316
32.167	36.423	32768	15757	0	316
29.751	34.872	32768	15748	0	316
27.732	35.197	32768	15718	0	316
31.158	39.199	32768	15658	0	316
37.036	43.924	32768	15542	0	316
44.464	47.025	32768	15391	0	316
46.772	47.746	32768	15327	0	316
41.976	42.806	32768	15486	0	316
31.410	38.478	32768	15813	0	316
25.640	33.934	32768	16049	0	316
23.945	30.833	32768	16079	0	316
26.037	31.085	32768	16032	0	316
29.282	33.357	32768	16101	0	316
29.859	34.115	32768	16290	0	316
28.633	33.466	32768	16444	0	316
27.263	34.043	32768	16474	0	316
27.047	35.449	32768	16396	0	316
29.787	36.819	32768	16303	0	316
33.826	38.803	32768	16217	0	316
36.928	40.930	32768	16122	0	316
37.216	40.642	1	15998	0	316
36.098	39.055	1	15860	0	316
31.879	38.262	1	15731	0	316
30.689	39.344	1	15572	0	316
31.590	40.822	1	15391	0	316
33.285	40.065	1	15288	0	316
34.692	37.288	1	15207	0	316
31.771	32.095	1	15022	0	316
28.020	28.994	1	14794	0	316
23.008	27.407	1	14716	0	316
20.519	29.535	1	14828	0	316
21.060	30.833	1	15017	0	316
19.005	28.561	1	15237	0	316
15.831	25.640	1	15434	0	316
14.317	26.109	1	15538	0	316
14.317	26.938	1	15572	0	316
15.254	28.705	1	15628	0	316
17.418	28.345	1	15714	0	316
13.091	26.217	1	15813	0	316
8.691	21.421	1	15916	0	316
3.714	17.995	1	16079	0	316
2.633	18.392	1	16388	0	316
3.173	17.743	1	16826	0	316
6.960	18.428	1	17218	0	316
7.573	17.057	1	17471	0	316
7.862	18.608	1	17609	0	316
12.333	19.329	1	17686	0	316
13.956	23.008	1	17764	0	316
14.785	27.515	1	17854	0	316
18.752	29.066	1	17940	0	316
16.192	27.948	1	17957	0	316
15.326	27.804	1	17897	0	316
12.297	26.506	1	17819	0	316
11.937	23.693	1	17794	0	316
10.025	20.880	1	17789	0	316
8.294	17.923	1	17708	0	316
6.816	12.838	1	17536	0	316
4.147	9.989	1	17342	0	316
1.154	8.799	1	17183	0	316
-1.911	3.895	1	17093	0	316
-4.652	0.793	1	16998	0	316
-5.409	-0.685	1	16792	0	316
-6.599	0.325	1	16482	0	316
-3.246	5.157	1	16217	0	316
2.488	11.287	1	16079	0	316
8.907	19.762	1	16062	0	316
14.785	24.342	1	16075	0	316
15.326	25.388	1	15980	0	316
10.530	21.421	1	15778	0	316
3.390	13.018	1	15649	0	316
-4.219	5.878	1	15731	0	316
-6.419	3.606	1	15955	0	316
-3.137	6.347	1	16127	0	316
2.308	12.910	1	16139	0	316
6.996	19.005	1	16041	0	316
11.107	20.447	1	15942	0	316
10.819	19.185	1	15899	0	316
10.927	17.238	1	15916	0	316
13.992	19.906	1	15924	0	316
17.634	23.909	1	15864	0	316
27.155	31.843	1	15813	0	316
31.590	37.108	1	15821	0	316
33.069	35.774	1	15834	0	316
29.210	30.256	1	15808	0	316
22.214	24.270	1	15748	0	316
16.913	20.050	1	15675	0	316
12.874	20.159	1	15632	0	316
9.773	20.195	1	15658	0	316
5.842	17.382	1	15744	0	316
0.216	12.658	1	15778	0	316
-5.878	4.760	1	15572	0	316
-8.871	-0.938	1	15159	0	316
-11.612	-4.327	1	14850	0	316
-12.477	-4.255	1	14751	0	316
-11.468	-3.895	1	14721	0	316
-10.927	-1.046	1	14708	0	316
-9.701	0.685	1	14746	0	316
-8.114	1.695	1	14824	0	316
-8.871	-1.334	1	14949	0	316
-11.864	-4.904	1	15224	0	316
-14.245	-8.763	1	15649	0	316
-17.166	-11.287	1	16019	0	316
-17.598	-9.665	1	16182	0	316
-15.543	-6.924	1	16221	0	316
-16.156	-6.094	1	16260	0	316
-18.428	-8.727	1	16350	0	316
-23.729	-13.091	1	16469	0	316
-29.066	-22.106	1	16603	0	316
-34.331	-25.099	1	16693	0	316
-33.646	-25.820	1	16745	0	316
-31.049	-22.863	1	16809	0	316
-25.712	-16.408	1	16891	0	316
-20.591	-10.638	1	16955	0	316
-15.435	-5.301	1	16981	0	316
-10.169	0.469	1	16994	0	316
-4.111	4.580	1	17015	0	316
0.036	5.481	1	17076	0	316
1.911	7.645	1	17166	0	316
1.154	6.058	1	17222	0	316
-1.226	6.383	1	17218	0	316
1.010	11.323	1	17205	0	316
6.419	15.867	1	17218	0	316
13.740	24.234	1	17222	0	316
18.969	28.994	1	17175	0	316
19.906	31.122	1	17080	0	316
19.257	28.922	1	16960	0	316
14.605	26.470	1	16813	0	316
15.002	25.893	1	16659	0	316
18.103	28.345	1	16530	0	316
23.512	32.672	1	16431	0	316
25.424	33.141	1	16346	0	316
24.991	30.364	1	16234	0	316
22.755	27.083	1	16096	0	316
20.700	27.696	1	15942	0	316
23.008	30.725	1	15791	0	316
25.568	35.377	1	15654	0	316
20.411	32.636	1	15516	0	316
12.045	23.801	1	15378	0	316
0.793	14.858	1	15335	0	316
-4.472	7.898	1	15426	0	316
-3.787	7.032	1	15576	0	316
-1.983	9.052	1	15701	0	316
-4.111	5.986	1	15778	0	316
-9.953	-2.019	1	15847	0	316
-17.418	-5.806	1	15942	0	316
-18.644	-6.599	1	16071	0	316
-14.677	-1.370	1	16225	0	316
-7.862	3.390	1	16372	0	316
-5.409	4.183	1	16495	0	316
-9.917	-1.983	1	16633	0	316
-17.418	-8.655	1	16788	0	316
-24.270	-14.317	1	16934	0	316
-29.066	-18.428	1	17054	0	316
-30.184	-20.231	1	17114	0	316
-29.643	-19.510	1	17084	0	316
-30.797	-20.375	1	16998	0	316
-31.194	-16.805	1	16925	0	316
-30.436	-16.084	1	16865	0	316
-28.273	-13.740	1	16801	0	316
-24.919	-10.494	1	16723	0	316
-21.529	-5.301	1	16586	0	316
-16.985	-1.551	1	16426	0	316
-15.398	1.767	1	16329	0	316
-13.631	2.092	1	16105	0	316
-15.615	0.757	1	15645	0	316
-15.867	-1.370	1	15207	0	316
-20.411	-4.327	1	14936	0	316
-19.257	-6.852	1	14785	0	316
-21.998	-6.816	1	14746	0	316
-18.933	-5.121	1	14837	0	316
-18.031	-5.121	1	14987	0	316
-15.290	-3.246	1	15108	0	316
-16.769	-5.157	1	15215	0	316
-17.598	-8.439	1	15370	0	316
-21.457	-10.025	1	15602	0	316
-20.087	-8.835	1	15877	0	316
-18.536	-5.950	1	16127	0	316
-10.674	1.983	1	16359	0	316
-4.904	7.898	1	16629	0	316
0.505	13.271	1	16977	0	316
1.515	16.084	1	17364	0	316
1.731	15.254	1	17746	0	316
2.885	16.264	1	18120	0	316
3.534	15.795	1	18473	0	316
6.671	17.959	1	18795	0	316
8.330	17.346	1	19066	0	316
9.124	19.834	1	19277	0	316
9.845	19.257	1	19436	0	316
14.100	21.349	1	19561	0	316
16.480	23.693	1	19599	0	316
20.483	25.171	1	19535	0	316
21.854	27.587	1	19518	0	316
23.909	29.427	1	19617	0	316
25.784	33.538	1	19664	0	316
29.210	36.098	1	19539	0	316
32.889	39.272	1	19294	0	316
35.413	38.586	1	19032	1	804
35.846	38.334	1	18787	0	804
37.036	38.658	1	18563	0	804
36.711	40.678	1	18374	0	804
36.819	41.543	1	18172	0	804
34.187	41.291	1	17961	0	804
30.328	38.767	1	17768	0	804
28.237	36.855	1	17613	0	804
28.705	40.389	1	17454	0	804
30.004	42.625	1	17256	0	804
31.843	42.337	1	17050	0	804
28.309	39.163	1	16874	0	804
21.204	33.466	1	16745	0	804
15.651	27.515	1	16637	0	804
12.550	25.532	1	16517	0	804
14.389	24.883	1	16401	0	804
16.625	23.404	1	16299	0	804
16.444	22.827	1	16204	0	804
17.923	23.765	1	16131	0	804
18.860	26.073	1	16045	0	804
22.539	29.391	1	15933	0	804
24.883	32.708	1	15813	0	804
24.558	33.357	1	15679	0	804
21.132	33.069	1	15589	0	804
14.389	29.751	32768	15654	0	804
14.605	27.984	32768	15783	0	804
15.218	24.306	32768	15740	0	804
19.005	22.611	32768	15525	0	804
18.788	22.286	32768	15318	0	804
19.257	20.483	32768	15262	0	804
15.362	21.637	32768	15374	0	804
13.956	20.952	32768	15538	0	804
11.828	21.168	32768	15619	0	804
9.953	22.647	32768	15606	0	804
9.448	21.421	32768	15572	0	804
12.550	23.368	32768	15576	0	804
18.536	27.155	32768	15593	0	804
27.227	31.482	32768	15555	0	804
31.085	36.675	32768	15447	0	804
32.131	40.678	32768	15348	0	804
26.542	39.199	32768	15323	0	804
23.765	37.432	32768	15378	0	804
21.565	33.429	32768	15460	0	804
21.493	31.662	32768	15499	0	804
22.142	30.545	32768	15512	0	804
23.296	30.833	32768	15542	0	804
20.808	31.518	32768	15611	0	804
21.926	32.276	32768	15701	0	804
25.568	32.853	32768	15765	0	804
29.535	34.331	32768	15783	0	804
32.961	35.774	32768	15787	0	804
32.420	37.649	32768	15808	0	804
28.237	38.695	32768	15838	0	804
24.558	37.541	16384	15856	0	804
18.464	33.898	1	15873	0	804
17.129	28.777	1	15877	0	804
13.704	24.486	1	15856	0	804
10.674	20.159	1	15851	0	804
7.140	16.264	1	15950	0	804
6.275	16.336	1	16148	0	804
8.691	17.923	1	16329	0	804
12.081	22.683	1	16388	0	804
15.326	26.506	1	16359	0	804
19.041	29.282	1	16311	0	804
18.788	31.590	1	16281	0	804
20.988	30.472	1	16204	0	804
21.060	31.771	1	16062	0	804
21.565	29.715	1	15912	0	804
17.815	27.010	1	15804	0	804
13.595	21.565	1	15748	0	804
7.248	16.516	1	15740	0	804
4.219	13.379	1	15748	0	804
1.803	11.035	1	15735	0	804
1.010	11.215	1	15701	0	804
0.685	11.828	1	15701	0	804
0.252	12.658	1	15774	0	804
0.505	14.281	1	15894	0	804
1.767	11.792	1	15998	0	804
4.436	12.622	1	16066	0	804
8.402	13.271	1	16131	0	804
10.530	12.622	1	16200	0	804
11.864	16.192	1	16281	0	804
11.360	15.723	1	16380	0	804
10.314	19.005	1	16478	0	804
10.638	19.293	1	16525	0	804
14.281	23.909	1	16465	0	804
15.975	25.676	1	16342	0	804
21.277	27.371	1	16238	0	804
20.195	29.138	1	16195	0	804
19.582	28.922	1	16127	0	804
14.497	27.696	1	15873	0	804
13.812	29.787	1	15499	0	804
12.261	28.597	1	15275	0	804
10.855	26.217	1	15254	0	804
9.268	20.447	1	15224	0	804
5.373	13.379	1	15112	0	804
1.406	9.340	1	15004	0	804
0.108	8.078	1	14996	0	804
-1.010	8.979	1	15095	0	804
-1.010	11.107	1	15275	0	804
-1.226	11.468	1	15486	0	804
-0.361	12.730	1	15705	0	804
0.793	13.379	1	15937	0	804
2.200	17.562	1	16182	0	804
3.390	17.166	1	16439	0	804
4.327	18.139	1	16689	0	804
5.409	17.418	1	16891	0	804
8.691	19.654	1	17046	0	804
10.855	19.149	1	17196	0	804
9.592	18.608	1	17347	0	804
7.321	15.218	1	17488	0	804
3.318	11.684	1	17600	0	804
-1.154	7.104	1	17673	0	804
-3.354	5.517	1	17678	0	804
-1.190	5.770	1	17596	0	804
0.288	7.825	1	17458	0	804
0.757	10.566	1	17316	0	804
3.750	10.133	1	17084	0	804
2.452	10.386	1	16543	0	804
2.272	8.727	1	15800	0	804
2.236	5.481	1	15211	0	804
0.397	3.678	1	14888	0	804
-0.505	3.101	1	14742	0	804
-3.137	3.318	1	14699	0	804
-4.508	3.606	1	14618	0	804
-5.626	3.534	1	14458	0	804
-5.698	4.436	1	14403	0	804
-5.878	5.409	1	14532	0	804
-4.832	7.501	1	14759	0	804
-5.698	8.799	1	15013	0	804
-9.268	7.645	1	15267	0	804
-14.389	2.993	1	15555	0	804
-17.815	-1.262	1	15912	0	804
-18.464	-1.262	1	16333	0	804
-13.343	-0.361	1	16753	0	804
-6.996	3.787	1	17106	0	804
-2.452	5.229	1	17377	0	804
-0.865	7.140	1	17600	0	804
0.793	9.953	1	17807	0	804
3.390	14.497	1	17987	0	804
9.016	18.428	1	18116	0	804
13.199	20.231	1	18185	0	804
15.326	24.378	1	18232	0	804
22.178	30.797	1	18267	0	804
30.112	40.389	1	18314	0	804
40.822	54.490	1	18387	0	804
49.369	60.765	1	18335	0	804
50.162	60.224	1	18043	0	804
43.347	52.182	1	17656	0	804
36.747	42.553	1	17338	0	804
35.305	38.947	1	17093	0	804
33.862	38.622	1	16934	0	804
32.203	40.317	1	16801	0	804
31.554	41.760	1	16512	0	804
30.508	41.507	1	16075	0	804
32.528	40.317	1	15757	0	804
37.180	41.507	1	15675	0	804
37.180	41.435	1	15654	0	804
33.213	38.695	1	15512	0	804
26.253	38.767	1	15262	0	804
24.775	36.639	1	15090	0	804
23.585	35.593	1	15099	0	804
24.811	33.285	1	15250	0	804
23.909	32.131	1	15495	0	804
21.024	28.705	1	15744	0	804
17.598	30.364	1	15959	0	804
17.634	31.771	1	16187	0	804
16.120	32.636	1	16457	0	804
19.005	32.780	1	16745	0	804
19.978	32.131	1	16981	0	804
22.863	30.004	1	17080	0	804
19.437	28.525	1	16887	0	804
14.713	24.270	1	16478	0	804
9.232	21.385	1	16165	0	804
5.373	19.329	1	16036	0	804
4.147	15.362	1	16002	0	804
3.137	15.002	1	16010	0	804
2.200	12.946	1	16041	0	804
-0.144	11.071	1	16135	0	804
1.262	12.441	1	16372	0	804
6.708	11.828	1	16697	0	804
10.710	15.831	1	16908	0	804
15.903	21.024	1	16809	0	804
19.005	28.777	1	16495	0	804
22.106	35.052	1	16260	0	804
25.784	36.855	1	16208	0	804
27.624	34.656	1	16213	0	804
25.243	29.318	1	16109	0	804
17.274	24.775	1	15894	0	804
11.107	22.647	1	15757	0	804
6.599	20.988	1	15774	0	804
5.734	15.651	1	15881	0	804
4.111	10.999	1	16023	0	804
2.128	3.967	1	16178	0	804
-1.623	-0.721	1	16342	0	804
-3.534	-2.813	1	16530	0	804
-0.108	-0.613	1	16766	0	804
4.219	2.777	1	17041	0	804
9.845	8.150	1	17230	0	804
11.720	11.684	1	17127	0	804
9.773	14.858	1	16779	0	804
8.619	13.415	1	16521	0	804
5.085	12.297	1	16495	0	804
3.750	12.261	1	16573	0	804
6.094	14.749	1	16680	0	804
8.979	18.608	1	16822	0	804
10.386	21.962	1	16985	0	804
10.494	23.368	1	17213	0	804
7.573	19.077	1	17566	0	804
8.366	18.067	1	17996	0	804
11.215	16.048	1	18279	0	804
16.408	18.644	1	18236	0	804
16.625	19.077	1	17974	0	804
14.353	19.365	1	17768	0	804
7.393	16.264	1	17712	0	804
4.688	14.028	1	17678	1	860
6.275	12.117	1	17458	0	860
9.196	11.648	1	17063	0	860
7.537	10.206	1	16753	0	860
1.839	6.744	1	16620	0	860
-2.092	5.734	1	16581	0	860
0.397	4.003	1	16573	0	860
8.763	8.547	1	16594	0	860
16.120	13.704	1	16641	0	860
21.493	18.392	1	16650	0	860
18.392	24.666	1	16469	0	860
16.408	27.263	1	16127	0	860
15.471	26.866	1	15877	0	860
17.815	24.270	1	15830	0	860
14.677	19.690	1	15873	0	860
9.412	12.550	1	15942	0	860
-0.036	9.845	1	16019	0	860
-4.472	8.871	1	16122	0	860
-4.147	6.780	1	16268	0	860
-2.128	5.626	1	16435	0	860
-0.938	3.282	1	16594	0	860
-4.003	2.957	1	16745	0	860
-8.943	5.337	1	16895	0	860
-7.176	10.422	1	17046	0	860
0.902	14.785	1	17123	0	860
10.494	19.221	1	16977	0	860
15.002	21.024	1	16693	0	860
19.365	25.640	1	16543	0	860
17.057	30.220	1	16508	0	860
18.644	33.934	1	16414	0	860
21.277	34.800	1	16342	0	860
21.277	33.321	1	16346	0	860
20.591	28.777	1	16392	0	860
15.687	25.820	1	16431	0	860
15.074	24.955	1	16346	0	860
13.451	24.017	1	16144	0	860
10.999	23.729	1	16019	0	860
9.412	22.539	1	16036	0	860
1.370	16.877	1	16144	0	860
-7.357	12.838	1	16354	0	860
-11.540	7.934	1	16616	0	860
-14.533	4.760	1	16852	0	860
-13.704	5.157	1	17033	0	860
-9.556	5.409	1	17200	0	860
-8.078	7.140	1	17381	0	860
-7.970	7.068	1	17553	0	860
-6.094	7.789	1	17703	0	860
-5.301	10.674	32768	17828	0	860
-2.741	14.966	32768	17884	0	860
2.633	18.824	32768	17854	0	860
8.619	22.863	32768	17768	0	860
12.658	25.099	32768	17639	0	860
15.543	26.109	32768	17484	0	860
18.752	27.479	32768	17248	0	860
20.447	33.610	32768	16775	0	860
24.883	37.432	32768	16139	0	860
29.643	42.012	32768	15611	0	860
30.689	39.632	1	15267	0	860
26.578	33.790	1	14949	0	860
19.041	23.657	1	14510	0	860
12.982	16.697	1	14020	0	860
8.258	11.828	1	13715	0	860
5.554	10.855	1	13659	0	860
6.960	11.360	1	13706	0	860
4.977	10.999	1	13667	0	860
5.914	11.612	1	13461	0	860
6.311	13.848	1	13087	0	860
7.537	14.389	1	12683	0	860
10.242	15.759	1	12545	0	860
14.245	17.382	1	12734	0	860
17.202	17.382	1	13083	0	860
15.507	18.211	1	13483	0	860
14.713	17.274	1	13947	0	860
9.953	19.618	1	14506	0	860
13.127	24.053	1	15129	0	860
20.050	29.102	1	15744	0	860
30.581	36.891	1	16316	0	860
34.980	41.363	1	16874	0	860
36.711	42.878	1	17424	0	860
34.547	43.671	1	17940	0	860
34.006	43.527	1	18378	0	860
32.564	41.039	1	18727	0	860
32.239	40.281	1	19015	0	860
28.453	37.108	1	19242	0	860
23.657	33.610	1	19410	0	860
21.277	29.066	1	19513	0	860
16.805	23.765	1	19556	0	860
15.651	20.050	1	19483	0	860
11.864	16.661	1	19148	0	860
9.665	18.211	1	18636	0	860
6.455	17.706	1	18245	0	860
2.200	17.743	1	18056	1	364
-2.344	12.297	1	17918	0	364
-6.347	8.366	1	17789	0	364
-6.275	5.229	1	17673	0	364
-3.606	4.832	1	17553	0	364
1.262	8.907	1	17428	0	364
3.462	14.100	1	17261	0	364
6.058	18.211	1	16934	0	364
7.393	17.634	1	16478	0	364
9.376	18.788	1	16101	0	364
12.369	19.041	1	15890	0	364
15.002	22.899	1	15748	0	364
14.894	26.686	1	15529	0	364
14.064	27.155	1	15146	0	364
16.048	23.801	1	14592	0	364
13.595	19.473	1	13990	0	364
15.254	15.687	1	13573	0	364
14.100	17.562	1	13328	0	364
15.795	19.293	1	13151	0	364
16.480	22.034	1	13134	0	364
19.221	20.880	1	13323	0	364
17.959	19.942	1	13620	0	364
15.182	19.726	1	13960	0	364
6.347	14.497	1	14355	0	364
-2.488	11.864	1	14746	0	364
-6.203	9.665	1	14957	0	364
-3.390	7.285	1	14820	0	364
3.823	9.737	1	14476	0	364
13.812	14.425	1	14188	0	364
14.136	15.687	1	14011	0	364
10.422	13.559	1	13869	0	364
2.236	9.881	1	13762	0	364
-1.442	3.498	1	13745	0	364
0.180	0.974	1	13934	0	364
5.662	4.219	1	14364	0	364
7.645	8.835	1	14884	0	364
6.996	13.559	1	15284	0	364
4.688	13.595	1	15538	0	364
3.931	13.271	1	15830	0	364
8.222	13.018	1	16178	0	364
13.595	15.002	1	16517	0	364
19.654	21.096	1	16942	0	364
18.067	22.827	1	17411	0	364
14.930	23.585	1	17708	0	364
11.035	19.510	1	17742	0	364
7.176	16.012	1	17738	0	364
5.013	12.910	1	17905	0	364
3.895	11.323	1	18159	0	364
0.505	8.619	1	18258	0	364
-2.633	5.950	1	18125	0	364
-3.282	3.931	1	17923	0	364
-3.137	2.633	1	17716	0	364
-0.793	3.967	1	17407	0	364
0.180	5.914	1	17093	0	364
0.649	6.131	1	16994	0	364
-0.036	8.655	1	17123	0	364
1.442	11.251	1	17368	0	364
4.724	15.290	1	17682	0	364
10.566	18.536	1	18052	0	364
17.129	21.745	1	18404	0	364
20.952	22.322	1	18512	0	364
24.270	25.820	1	18279	0	364
29.463	31.302	1	17948	0	364
30.905	35.701	1	17678	0	364
33.249	37.901	1	17407	0	364
31.482	38.875	1	17050	0	364
26.073	36.351	1	16581	0	364
20.339	33.646	1	16165	0	364
19.005	31.482	1	16019	0	364
16.985	29.499	1	16079	0	364
17.093	26.073	1	16071	0	364
14.785	19.726	1	15783	0	364
9.773	15.326	1	15211	0	364
8.330	10.819	1	14540	0	364
8.727	7.825	1	14063	0	364
10.674	10.927	1	13796	0	364
16.372	13.054	1	13513	0	364
18.933	15.795	1	13199	0	364
21.818	19.293	1	13035	0	364
20.159	20.267	1	12980	0	364
20.195	21.781	1	12863	0	364
18.320	25.027	1	12657	0	364
20.087	23.945	1	12382	0	364
18.464	21.781	1	12133	0	364
15.543	19.762	1	12120	0	364
8.078	14.281	1	12429	0	364
1.154	13.595	1	12992	0	364
-0.829	14.389	1	13667	0	364
1.839	16.841	1	14235	0	364
7.212	19.293	1	14570	0	364
12.441	19.618	1	14746	0	364
14.605	18.933	1	14880	0	364
16.769	19.654	1	15078	0	364
16.228	17.129	1	15447	0	364
14.821	15.723	1	15937	0	364
12.369	13.668	1	16439	0	364
7.393	11.612	1	16921	0	364
5.121	11.900	1	17291	0	364
4.616	12.333	1	17506	0	364
6.131	13.271	1	17626	0	364
9.376	13.992	1	17738	0	364
11.323	13.271	1	17979	0	364
11.143	14.641	1	18383	0	364
10.855	18.103	1	18856	0	364
10.819	20.050	1	19281	0	364
11.864	22.575	1	19492	0	364
12.946	23.260	1	19470	0	364
10.458	20.591	1	19367	0	364
7.862	20.123	1	19367	0	364
7.429	16.985	1	19496	0	364
9.917	18.211	1	19651	0	364
10.278	18.464	1	19694	0	364
11.900	17.670	1	19509	0	364
9.737	22.431	1	19114	1	452
9.268	25.676	1	18593	0	452
13.487	30.112	1	18060	0	452
22.647	34.006	1	17570	0	452
27.660	32.095	1	17097	0	452
27.407	28.381	1	16590	0	452
23.188	24.702	1	16045	0	452
18.356	23.260	1	15538	0	452
12.189	23.837	1	15181	0	452
8.691	18.103	1	15095	0	452
6.347	14.064	1	15215	0	452
2.921	7.248	1	15327	0	452
1.370	3.859	1	15366	0	452
1.731	7.393	1	15434	0	452
2.921	12.694	1	15559	0	452
4.724	16.336	1	15679	0	452
5.770	18.680	1	15847	0	452
8.330	17.093	1	16204	0	452
11.540	16.336	1	16689	0	452
11.828	14.533	1	17050	0	452
10.674	16.084	1	17222	0	452
11.432	17.238	1	17347	0	452
12.982	21.890	1	17484	0	452
15.326	24.089	1	17686	0	452
20.267	24.955	1	18077	0	452
20.736	23.549	1	18598	0	452
21.168	21.818	1	19019	0	452
21.781	21.673	1	19255	0	452
21.385	20.952	1	19436	0	452
22.972	19.293	1	19690	0	452
20.411	18.860	1	19978	0	452
16.444	15.903	1	20124	0	452
12.405	17.093	1	20089	0	452
8.150	16.300	1	19943	0	452
5.986	17.526	1	19728	0	452
7.970	17.057	1	19625	0	452
11.360	18.031	1	19896	0	452
16.733	22.286	1	20494	0	452
19.401	27.407	1	21130	0	452
17.851	27.443	1	21512	0	452
12.297	28.056	1	21530	0	452
9.268	26.109	1	21280	0	452
11.756	25.424	1	20941	0	452
16.589	26.614	1	20648	0	452
21.060	25.352	1	20433	0	452
18.139	20.916	1	20291	0	452
14.100	14.028	1	20287	0	452
10.819	14.749	32768	20343	0	452
15.254	19.113	32768	20352	0	452
20.519	28.453	32768	20261	0	452
24.630	33.682	32768	19948	0	452
19.293	31.410	32768	19389	0	452
13.523	26.758	32768	18701	0	452
10.097	22.214	32768	17914	0	452
11.792	23.260	32768	17101	0	452
16.120	26.433	32768	16439	0	452
15.362	26.830	32768	15998	0	452
11.684	23.909	32768	15714	0	452
6.239	20.736	32768	15606	0	452
4.400	16.625	32768	15593	0	452
9.016	19.618	32768	15593	0	452
14.353	21.529	32768	15667	0	452
14.353	20.664	32768	15675	0	452
10.855	18.572	32768	15348	0	452
6.852	14.172	32768	14828	0	452
5.085	12.405	32768	14562	0	452
6.744	15.398	32768	14712	0	452
10.061	15.723	32768	14992	0	452
8.150	16.769	32768	15039	0	452
6.924	11.756	32768	14738	0	452
1.262	9.016	32768	14304	0	452
-0.938	6.491	32768	14041	0	452
-0.902	9.196	32768	14037	0	452
2.524	12.910	32768	14089	0	452
9.196	19.870	32768	14115	0	452
12.694	21.277	32768	14239	0	452
14.245	19.546	32768	14403	0	452
5.265	10.999	32768	14484	0	452
-4.580	4.364	32768	14480	0	452
-8.475	0.144	32768	14377	1	316
-7.032	3.426	32768	14291	0	316
1.515	11.287	32768	14458	0	316
8.691	14.208	32768	14807	0	316
9.917	16.841	32768	15095	0	316
6.888	14.713	32768	15250	0	316
5.878	16.516	32768	15370	0	316
8.691	19.870	32768	15533	0	316
15.182	23.621	32768	15744	0	316
19.257	24.414	32768	15864	0	316
19.942	21.890	32768	15765	0	316
12.369	17.418	32768	15628	0	316
7.898	17.057	32768	15619	0	316
6.960	18.031	32768	15507	0	316
9.809	23.116	32768	15142	0	316
16.480	30.364	32768	14742	0	316
23.512	32.780	32768	14398	0	316
25.712	30.833	32768	13943	0	316
24.739	29.354	32768	13349	0	316
21.457	25.604	32768	12795	0	316
17.274	25.388	32768	12468	0	316
13.487	29.931	32768	12425	0	316
14.245	32.131	32768	12618	0	316
17.851	33.069	32768	13070	0	316
18.392	29.679	32768	13680	0	316
18.067	25.063	32768	14196	0	316
14.785	23.440	32768	14527	0	316
12.910	19.654	32768	14807	0	316
12.081	18.933	32768	15116	0	316
12.477	17.743	32768	15464	0	316
12.225	14.281	32768	15933	0	316
8.114	11.179	32768	16534	0	316
6.311	12.622	32768	17110	0	316
6.058	15.543	32768	17510	0	316
11.035	22.214	32768	17716	0	316
14.172	25.243	32768	17746	0	316
18.752	25.820	32768	17695	0	316
19.618	25.748	32768	17725	0	316
23.116	26.902	32768	17819	0	316
28.164	32.564	32768	17832	0	316
35.521	39.776	32768	17729	0	316
40.029	42.950	32768	17510	0	316
40.029	42.986	32768	17243	0	316
36.964	40.642	32768	17024	0	316
33.862	38.550	32768	16955	0	316
31.951	36.314	32768	17101	0	316
31.158	34.908	32768	17187	0	316
27.768	30.581	32768	16960	0	316
23.549	26.686	32768	16607	0	316
18.969	22.863	32768	16329	0	316
17.779	20.591	32768	16041	0	316
19.870	21.204	32768	15787	0	316
18.860	19.798	32768	15581	0	316
16.733	18.608	32768	15254	0	316
11.612	14.821	32768	14789	0	316
7.970	15.471	32768	14368	0	316
10.278	15.867	16384	14170	0	316
14.713	19.365	1	14252	0	316
13.343	18.428	1	14372	0	316
11.648	18.103	1	14278	0	316
8.583	16.552	1	14063	0	316
9.268	21.349	1	14007	0	316
16.048	26.361	1	14093	0	316
18.860	29.174	1	14093	0	316
18.536	28.922	1	13977	0	316
12.694	27.804	1	13925	0	316
11.540	29.607	1	14072	0	316
17.166	34.187	1	14398	0	316
24.847	39.019	1	14824	0	316
30.148	38.983	1	15237	0	316
30.941	35.701	1	15550	0	316
26.181	32.636	1	15821	0	316
20.591	31.843	1	16105	0	316
18.031	30.977	1	16290	0	316
17.959	31.699	1	16422	0	316
15.723	28.489	1	16611	0	316
14.930	22.142	1	16809	0	316
9.809	18.500	1	17015	0	316
3.534	13.018	1	17299	0	316
-0.865	10.566	1	17764	0	316
-1.587	13.415	1	18370	0	316
0.397	14.028	1	18813	0	316
3.967	20.844	1	18881	0	316
8.511	26.289	1	18679	0	316
14.749	30.400	1	18430	0	316
19.293	33.574	1	18275	0	316
27.732	33.754	1	18159	0	316
30.581	31.482	1	17893	0	316
28.741	30.400	1	17463	0	316
24.017	30.905	1	17041	0	316
23.188	32.528	1	16844	0	316
25.099	37.036	1	16942	0	316
31.374	39.885	1	17076	0	316
34.331	38.875	1	16955	0	316
29.463	33.177	1	16629	0	316
21.601	27.083	1	16359	0	316
13.848	23.945	1	16290	0	316
15.975	26.830	1	16363	0	316
18.392	32.889	1	16372	0	316
22.106	37.036	1	16217	0	316
17.815	34.151	1	16088	0	316
10.386	26.506	1	16071	0	316
3.426	16.625	1	15972	0	316
-0.469	13.848	1	15727	0	316
1.370	12.694	1	15447	0	316
2.164	17.562	1	15172	0	316
3.029	19.546	1	14884	0	316
1.551	21.132	1	14596	0	316
0.865	16.841	1	14334	0	316
-1.154	13.812	1	14097	0	316
-1.587	9.917	1	13848	0	316
-2.056	8.943	1	13672	0	316
0.072	13.487	1	13831	0	316
6.094	19.906	1	14411	0	316
15.254	28.561	1	15082	0	316
20.050	33.069	1	15503	0	316
21.854	31.158	1	15675	0	316
15.759	26.253	1	15765	0	316
11.396	23.476	1	15813	0	316
11.432	27.479	1	15817	0	316
15.182	33.069	1	15796	0	316
23.152	41.399	1	15770	0	316
25.676	41.832	1	15731	0	316
23.260	35.160	1	15765	0	316
18.608	27.876	1	16010	0	316
10.386	21.565	1	16401	0	316
5.698	17.706	1	16693	0	316
3.570	18.211	1	16801	0	316
3.750	18.933	1	16856	0	316
4.255	22.431	1	17041	0	316
3.318	20.050	1	17347	0	316
1.118	18.824	1	17540	0	316
-1.226	12.730	1	17553	0	316
0.072	12.369	1	17467	0	316
4.544	13.379	1	17282	0	316
10.530	19.473	1	17093	0	316
15.398	25.820	1	17140	0	316
15.254	28.561	1	17398	0	316
10.061	27.119	1	17549	0	316
3.390	22.395	1	17497	0	316
0.000	19.473	1	17437	0	316
3.210	24.414	1	17613	0	316
14.172	32.853	1	18120	0	316
22.863	43.202	1	18675	0	316
26.470	48.684	1	18907	0	316
24.630	43.779	1	18813	0	316
17.995	34.006	1	18563	0	316
15.074	26.397	1	18258	0	316
14.749	24.162	1	17918	0	316
15.903	22.575	1	17566	0	316
11.360	20.447	1	17261	0	316
8.763	19.762	1	17136	0	316
5.914	17.093	1	17226	0	316
8.366	22.178	1	17433	0	316
16.084	28.850	1	17626	0	316
26.217	36.242	1	17639	0	316
33.718	40.642	1	17441	0	316
33.718	38.514	1	17205	0	316
28.705	34.511	1	17119	0	316
16.120	25.279	1	17218	0	316
3.895	14.461	1	17415	0	316
-3.282	6.167	1	17583	0	316
-2.019	5.517	1	17561	0	316
4.760	10.891	1	17299	0	316
10.963	18.247	1	16904	0	316
13.487	25.712	1	16478	0	316
12.189	24.739	1	16084	0	316
14.100	22.358	1	15697	0	316
15.651	23.837	1	15275	0	316
23.260	27.227	1	14845	0	316
27.263	34.043	1	14463	0	316
28.922	39.704	1	14179	0	316
28.056	39.993	1	13986	0	316
24.955	37.144	1	13839	0	316
21.673	31.085	1	13706	0	316
19.906	29.030	1	13616	0	316
16.192	27.191	1	13654	0	316
17.418	27.624	1	13930	0	316
16.120	25.207	1	14390	0	316
14.317	18.247	1	14828	0	316
8.547	11.143	1	15172	0	316
2.019	4.003	1	15533	0	316
-1.875	3.859	1	16053	0	316
0.325	9.665	1	16672	0	316
7.753	17.562	1	17140	0	316
19.005	23.440	1	17364	0	316
23.909	27.010	1	17510	0	316
26.109	28.850	1	17794	0	316
27.551	31.013	1	18189	0	316
33.466	40.281	1	18516	0	316
45.871	51.388	1	18851	0	316
59.430	61.702	1	19290	0	316
67.833	67.977	1	19771	0	316
68.554	68.806	1	20184	0	316
65.633	67.292	1	20395	0	316
60.945	62.712	1	20377	0	316
53.119	54.093	1	20206	0	316
42.120	40.966	1	19874	0	316
22.431	21.637	1	19397	0	316
-0.288	4.219	1	18881	1	796
-19.185	-10.999	1	18408	0	796
-34.980	-26.325	1	17970	0	796
-48.179	-42.806	1	17518	0	796
-60.404	-60.296	1	17015	0	796
-75.658	-77.497	1	16538	0	796
-86.909	-85.323	1	16200	0	796
-97.043	-91.129	1	16165	0	796
-101.947	-91.309	1	16469	0	796
-105.626	-96.827	1	16921	0	796
-110.025	-104.508	1	17342	0	796
-117.166	-111.504	32768	17751	0	796
-125.712	-120.916	32768	18163	0	796
-134.439	-126.794	32768	18494	0	796
-142.373	-133.898	32768	18602	0	796
-146.232	-138.695	32768	18469	0	796
-145.618	-141.652	32768	18198	0	796
-146.845	-143.274	32768	17828	0	796
-149.080	-145.078	32768	17377	0	796
-153.949	-147.746	32768	16874	0	796
-156.365	-150.415	32768	16380	0	796
-157.230	-148.720	32768	15946	0	796
-150.811	-145.150	32768	15697	0	796
-142.337	-138.478	32768	15658	0	796
-136.855	-131.951	32768	15770	0	796
-130.869	-125.784	32768	15924	0	796
-127.876	-122.611	32768	15937	0	796
-127.263	-117.093	32768	15714	0	796
-125.316	-113.379	32768	15357	0	796
-126.614	-111.287	32768	14996	0	796
-123.188	-108.979	32768	14682	0	796
-120.519	-106.527	32768	14390	0	796
-114.136	-105.265	32768	14059	0	796
-108.943	-103.967	32768	13685	0	796
-107.393	-103.787	32768	13332	0	796
-109.953	-105.662	32768	13040	0	796
-113.956	-106.816	32768	12997	0	796
-119.041	-107.501	32768	13349	0	796
-119.365	-105.806	32768	13925	0	796
-117.923	-101.479	32768	14523	0	796
-110.927	-98.738	32768	15082	0	796
-102.092	-94.771	32768	15503	0	796
-99.062	-94.627	32768	15735	0	796
-98.089	-95.420	32768	15851	0	796
-101.010	-93.617	32768	15899	0	796
-98.089	-88.388	32768	15886	0	796
-89.686	-80.022	32768	15808	0	796
-77.173	-70.862	32768	15748	0	796
-67.869	-65.669	32768	15834	0	796
-67.256	-65.957	32768	16023	0	796
-71.763	-64.731	32768	16221	0	796
-74.504	-62.856	32768	16388	0	796
-71.691	-59.971	32768	16500	0	796
-65.849	-55.139	32768	16641	0	796
-61.702	-52.110	32768	16848	0	796
-59.683	-52.651	32768	16951	0	796
-60.692	-49.946	32768	16852	0	796
-61.269	-49.513	32768	16620	0	796
-57.699	-48.395	32768	16372	0	796
-54.382	-47.674	32768	16122	0	796
-54.814	-49.513	32768	15826	0	796
-54.886	-49.982	32768	15452	0	796
-59.502	-49.657	1	15060	0	796
-58.709	-49.441	1	14751	0	796
-55.716	-45.799	1	14613	0	796
-52.326	-43.960	1	14742	0	796
-47.313	-41.507	1	15103	0	796
-41.868	-37.901	1	15572	0	796
-34.872	-31.013	1	16101	0	796
-27.984	-23.873	1	16740	0	796
-18.860	-14.821	32768	17488	0	796
-17.634	-11.720	32768	18193	0	796
-17.093	-11.035	32768	18778	0	796
-19.942	-14.245	32768	19384	0	796
-21.349	-14.821	32768	19973	0	796
-22.322	-13.668	32768	20433	0	796
-23.332	-11.360	32768	20709	0	796
-23.585	-11.035	32768	20700	0	796
-22.863	-11.504	32768	20399	0	796
-21.818	-14.677	32768	19982	0	796
-18.464	-14.533	32768	19638	0	796
-17.166	-11.504	32768	19337	1	324
-15.471	-9.629	32768	18877	0	324
-18.283	-7.609	32768	18159	0	324
-17.562	-7.825	32768	17368	0	324
-17.706	-9.340	32768	16753	0	324
-17.238	-9.304	32768	16324	0	324
-17.959	-6.275	32768	15860	0	324
-17.238	-4.364	32768	15323	0	324
-16.913	-2.524	32768	14820	0	324
-11.720	-0.829	32768	14544	0	324
-7.032	-2.128	32768	14665	0	324
-4.580	-1.370	32768	15090	0	324
-6.599	-3.390	32768	15503	0	324
-10.278	-2.957	32768	15753	0	324
-12.045	-3.498	32768	15899	0	324
-11.648	-3.859	32768	15881	0	324
-9.376	-2.488	32768	15667	0	324
-6.527	-0.288	32768	15400	0	324
-5.193	2.596	32768	15267	0	324
-3.390	6.924	32768	15211	0	324
-0.397	9.845	32768	15017	0	324
0.397	10.855	32768	14661	0	324
1.334	10.855	32768	14329	0	324
3.642	9.124	32768	14192	0	324
6.708	10.999	32768	14188	0	324
11.937	14.064	32768	14158	0	324
13.920	18.608	32768	14235	0	324
17.238	26.325	32768	14587	0	324
17.706	32.889	32768	14979	0	324
21.096	34.403	32768	15103	0	324
20.844	33.105	32768	14979	0	324
21.673	26.325	32768	14746	0	324
17.959	18.283	32768	14527	0	324
14.317	14.930	32768	14458	0	324
9.052	14.497	32768	14523	0	324
4.832	14.966	32768	14527	0	324
0.721	15.471	32768	14407	0	324
0.505	14.172	1	14205	0	324
5.121	16.589	1	13904	0	324
14.930	21.204	1	13534	0	324
22.611	29.282	1	13182	0	324
26.830	36.964	1	12855	0	324
27.551	41.255	1	12554	0	324
26.433	41.868	1	12300	0	324
24.775	41.832	1	12107	0	324
24.630	39.416	1	11986	0	324
25.893	37.432	1	11978	0	324
23.008	34.295	1	12098	0	324
24.053	34.692	1	12326	0	324
26.001	33.754	1	12618	0	324
26.217	34.475	1	12945	0	324
25.965	34.295	1	13311	0	324
22.106	33.898	1	13715	0	324
19.293	33.862	1	14132	0	324
13.992	34.006	1	14519	0	324
13.920	35.124	1	14850	0	324
16.661	33.213	1	15172	0	324
17.562	30.508	1	15555	0	324
19.690	25.893	1	15980	0	324
17.274	23.801	1	16372	0	324
11.973	19.221	1	16727	0	324
4.832	18.752	1	17153	0	324
-0.397	15.038	1	17772	0	324
-2.452	14.353	1	18507	0	324
-1.803	12.081	1	19114	0	324
0.613	12.550	1	19518	0	324
3.210	14.028	1	19806	0	324
4.436	13.631	1	19978	0	324
3.642	15.723	1	20038	0	324
2.849	13.127	1	20029	0	324
0.469	11.648	1	19952	0	324
-1.947	11.396	1	19810	0	324
-2.272	12.333	1	19617	0	324
1.262	16.408	1	19402	0	324
7.212	19.690	1	19191	0	324
15.471	25.676	1	19019	0	324
19.365	29.246	1	18886	0	324
21.673	31.013	1	18752	0	324
19.978	31.626	1	18649	0	324
17.202	30.400	1	18752	0	324
18.320	30.797	1	19028	0	324
17.346	29.607	1	19217	0	324
15.687	28.525	1	19212	0	324
10.638	22.683	1	19092	0	324
4.003	16.625	1	18911	0	324
1.479	10.710	1	18774	0	324
1.947	11.756	1	18825	0	324
5.554	14.821	1	18993	0	324
9.340	18.103	1	18997	0	324
10.927	20.123	1	18774	0	324
10.206	21.745	1	18473	0	324
9.953	21.132	1	18146	0	324
11.396	24.847	1	17789	0	324
11.612	23.440	1	17424	0	324
9.737	22.034	1	17050	0	324
7.717	20.087	1	16659	0	324
7.934	18.860	1	16273	0	324
10.061	22.972	1	15907	0	324
14.785	29.715	1	15585	0	324
18.392	32.816	1	15310	0	324
15.326	31.338	1	15069	0	324
11.937	27.371	1	14832	0	324
8.006	24.342	1	14609	0	324
8.150	26.686	1	14424	0	324
13.740	31.626	1	14360	0	324
17.634	38.082	1	14553	0	324
21.745	39.812	1	14940	0	324
21.096	39.199	1	15237	0	324
19.221	35.918	1	15374	0	324
14.749	34.403	1	15443	0	324
14.100	30.869	1	15490	0	324
14.136	29.968	1	15516	0	324
17.382	28.381	1	15516	0	324
20.375	29.931	1	15486	0	324
23.152	32.023	1	15516	0	324
23.080	33.934	1	15770	0	324
22.106	33.502	1	16191	0	324
22.106	33.213	1	16491	0	324
21.781	33.502	1	16586	0	324
25.640	37.396	1	16598	0	324
28.741	43.924	1	16607	0	324
30.977	50.090	1	16624	0	324
33.898	54.598	1	16650	0	324
34.295	52.398	1	16672	0	324
35.052	51.208	1	16663	0	324
34.800	49.657	1	16633	0	324
33.429	49.369	1	16667	0	324
28.814	50.523	1	16942	0	324
25.820	48.900	1	17407	0	324
25.856	48.143	1	17751	0	324
26.830	45.258	1	17867	0	324
29.859	43.779	1	17944	0	324
28.417	40.966	1	18181	0	324
22.539	38.190	1	18533	0	324
14.713	33.285	1	18765	0	324
12.802	31.194	1	18782	0	324
13.956	29.643	1	18684	0	324
18.139	32.997	1	18525	0	324
23.512	35.052	1	18348	0	324
25.676	37.649	1	18185	0	324
23.801	39.272	1	18017	0	324
21.277	36.495	1	17807	0	324
21.673	36.387	1	17553	0	324
21.349	37.180	1	17377	0	324
24.847	40.029	1	17428	0	324
28.994	42.481	1	17617	0	324
32.564	40.786	32768	17690	0	324
32.744	37.288	32768	17596	0	324
31.302	32.420	32768	17437	0	324
30.112	30.689	32768	17222	0	324
29.066	32.095	32768	16981	0	324
27.948	31.482	32768	16775	0	324
25.856	30.653	32768	16667	0	324
24.739	31.049	32768	16749	0	324
25.027	30.364	32768	16964	0	324
28.561	32.095	32768	17114	0	324
32.276	33.718	32768	17106	0	324
32.997	33.538	32768	17015	0	324
30.617	31.338	32768	16865	0	324
23.260	29.535	32768	16607	0	324
18.897	29.138	32768	16264	0	324
16.084	29.318	32768	15989	0	324
17.093	26.614	32768	15967	0	324
16.156	25.712	32768	16114	0	324
13.668	20.808	32768	16144	0	324
7.609	10.638	32768	15993	0	324
-0.469	5.301	32768	15821	0	324
-7.140	2.452	32768	15740	0	324
-7.573	5.806	32768	15830	0	324
-1.190	12.586	32768	16032	0	324
7.753	22.214	32768	16118	0	324
14.353	24.558	32768	16010	0	324
18.283	24.811	32768	15877	0	324
15.723	22.178	32768	15946	0	324
11.828	19.906	32768	16165	0	324
8.619	19.762	32768	16342	0	324
4.580	16.480	32768	16581	0	324
3.895	16.697	32768	17132	0	324
4.580	15.002	32768	17893	0	324
4.904	16.661	32768	18516	0	324
7.537	16.841	32768	18782	0	324
5.590	18.788	32768	18744	0	324
-0.144	16.805	32768	18537	0	324
-0.829	18.283	32768	18172	0	324
0.902	20.447	32768	17626	0	324
5.121	26.181	32768	16968	0	324
9.052	29.715	32768	16320	0	324
6.455	27.948	32768	15701	1	748
1.875	24.666	32768	15056	0	748
-0.541	23.693	32768	14403	0	748
2.308	26.542	32768	13882	0	748
8.799	30.148	32768	13650	0	748
11.107	31.518	32768	13624	0	748
8.871	29.318	32768	13521	0	748
7.212	25.171	32768	13285	0	748
9.268	24.414	32768	13078	0	748
13.091	25.352	32768	13018	0	748
17.923	25.171	32768	13203	0	748
15.723	25.604	32768	13547	0	748
7.465	21.637	32768	13796	0	748
0.000	18.356	32768	13861	0	748
-0.397	16.408	32768	13921	0	748
-0.252	13.740	32768	14179	0	748
-0.757	10.061	32768	14587	0	748
-2.452	10.963	32768	14910	0	748
-8.979	12.550	32768	15095	0	748
-12.009	11.864	32768	15284	0	748
-9.629	13.776	32768	15645	0	748
-6.563	12.405	32768	16170	0	748
-5.986	7.140	32768	16727	0	748
-7.862	1.370	32768	17226	0	748
-11.287	-1.875	32768	17626	0	748
-12.225	-2.056	32768	17996	0	748
-9.016	1.983	32768	18404	0	748
-5.337	9.052	32768	18795	0	748
-6.383	10.386	32768	19101	0	748
-14.569	1.839	32768	19195	0	748
-26.397	-11.504	32768	19019	0	748
-34.620	-20.447	32768	18739	0	748
-34.728	-21.673	32768	18628	0	748
-28.309	-13.884	32768	18666	0	748
-21.132	-6.744	32768	18537	0	748
-21.132	-6.563	32768	18120	0	748
-27.876	-11.432	32768	17617	0	748
-34.944	-18.860	32768	17299	0	748
-38.478	-21.601	32768	17205	0	748
-39.524	-25.027	32768	17179	0	748
-39.704	-31.626	32768	17110	0	748
-41.724	-36.098	32768	16899	0	748
-46.592	-40.678	32768	16547	0	748
-48.287	-38.767	32768	16200	0	748
-48.864	-36.387	32768	15998	0	748
-46.700	-34.583	32768	15920	0	748
-46.268	-35.233	32768	15813	0	748
-46.736	-37.541	32768	15787	0	748
-47.962	-36.206	32768	15998	0	748
-45.763	-32.708	32768	16191	0	748
-42.193	-27.876	32768	16079	0	748
-34.980	-23.368	32768	15761	0	748
-28.489	-22.611	32768	15404	0	748
-27.479	-24.666	32768	15108	0	748
-30.797	-30.076	32768	14987	0	748
-38.334	-30.725	32768	15000	0	748
-42.986	-32.059	32768	14940	0	748
-45.835	-29.643	32768	14734	0	748
-42.697	-27.587	32768	14446	0	748
-33.862	-26.289	32768	14063	0	748
-27.263	-21.962	32768	13594	0	748
-22.539	-19.113	32768	13104	0	748
-21.926	-17.093	32768	12627	0	748
-25.171	-14.894	32768	12219	0	748
-26.758	-15.398	1	12068	0	748
-23.801	-13.271	1	12283	0	748
-15.975	-9.088	1	12803	0	748
-15.867	-11.287	1	13457	0	748
-18.824	-18.716	1	14024	0	748
-26.578	-24.919	1	14398	0	748
-29.931	-24.306	1	14639	0	748
-25.063	-14.713	1	14828	0	748
-14.930	0.649	1	15013	0	748
-7.104	10.206	1	15185	0	748
-5.950	9.737	1	15305	0	748
-13.343	3.065	1	15357	0	748
-20.087	-1.803	1	15400	0	748
-21.998	-3.282	1	15486	0	748
-16.661	0.072	1	15619	0	748
-10.566	3.210	1	15774	1	316
-7.068	1.010	1	15903	0	316
-9.845	-2.957	1	16002	0	316
-17.202	-6.419	1	16157	0	316
-17.670	-3.967	1	16482	0	316
-6.203	6.888	1	16921	0	316
6.671	18.860	1	17248	0	316
14.930	23.512	1	17398	0	316
10.638	19.690	1	17467	0	316
1.082	7.753	1	17514	0	316
-6.347	2.056	1	17536	0	316
-3.246	4.904	1	17523	0	316
2.957	12.658	1	17480	0	316
4.364	16.156	1	17377	0	316
-2.452	9.376	1	17175	0	316
-14.317	0.108	1	16985	0	316
-20.772	-9.412	1	17050	0	316
-23.549	-8.258	1	17372	0	316
-21.890	-5.445	1	17639	0	316
-23.621	-3.029	1	17695	0	316
-26.650	-4.760	1	17622	0	316
-28.489	-7.537	1	17510	0	316
-25.676	-9.484	1	17445	0	316
-21.565	-9.520	1	17570	0	316
-19.365	-9.052	1	17837	0	316
-20.916	-8.943	1	18000	0	316
-27.299	-10.314	1	17987	0	316
-29.463	-9.448	1	17901	0	316
-27.263	-5.626	1	17807	0	316
-17.057	-2.416	1	17669	0	316
-11.576	-0.072	1	17531	0	316
-7.609	0.829	1	17566	0	316
-7.321	0.180	1	17807	0	316
-8.402	-0.613	1	18146	0	316
-7.789	-0.216	1	18443	0	316
-7.934	-0.541	1	18546	0	316
-9.088	-3.606	1	18434	0	316
-15.759	-8.258	1	18279	0	316
-23.837	-12.081	1	18245	0	316
-30.004	-13.848	1	18361	0	316
-35.233	-18.067	1	18525	0	316
-37.865	-21.493	32768	18619	0	316
-39.091	-26.325	32768	18477	0	316
-33.429	-27.119	32768	18090	0	316
-24.017	-18.283	32768	17587	0	316
-14.389	-9.088	32768	17071	0	316
-8.799	-2.128	1	16564	0	316
-11.071	-1.082	1	16045	0	316
-16.913	-5.986	1	15495	0	316
-22.611	-10.025	1	15013	0	316
-22.755	-11.720	1	14785	0	316
-23.512	-11.612	1	14837	0	316
-23.116	-9.340	1	15047	0	316
-22.647	-5.734	1	15271	0	316
-18.428	1.226	1	15357	0	316
-9.124	8.655	1	15271	0	316
-0.144	13.884	1	15116	0	316
5.445	15.651	1	14918	0	316
11.937	20.627	1	14665	0	316
13.668	25.965	1	14372	0	316
14.064	30.436	1	14106	0	316
13.199	31.013	1	13960	0	316
7.176	28.092	1	14080	0	316
5.554	23.549	1	14368	0	316
5.517	20.447	1	14562	0	316
8.619	21.673	1	14613	0	316
8.979	21.998	1	14630	0	316
4.111	20.195	1	14630	0	316
-0.144	20.952	1	14652	0	316
-1.947	16.264	1	14863	0	316
-2.128	13.884	1	15250	0	316
-2.560	7.501	1	15641	0	316
-8.006	3.210	1	16075	0	316
-16.444	0.613	1	16573	0	316
-25.604	0.541	1	16899	0	316
-27.768	-0.469	1	16960	0	316
-23.512	-1.190	1	16861	0	316
-17.202	-0.577	1	16680	0	316
-7.321	2.560	1	16469	0	316
-2.741	6.960	1	16268	0	316
-1.659	11.900	1	16079	0	316
-2.813	13.920	1	15946	0	316
-1.767	15.218	1	15851	0	316
3.642	22.395	1	15817	0	316
12.586	29.174	1	15976	0	316
22.647	37.072	1	16290	0	316
26.470	39.524	1	16521	0	316
27.515	39.957	1	16586	0	316
24.775	38.118	1	16555	0	316
23.873	36.675	1	16491	0	316
19.870	35.160	1	16491	0	316
16.805	29.463	1	16702	0	316
8.042	21.818	1	17063	0	316
2.236	14.930	1	17295	0	316
0.216	11.179	1	17312	0	316
-0.829	13.884	1	17304	0	316
-3.065	11.648	1	17488	0	316
-9.737	8.186	1	17862	0	316
-18.031	0.180	1	18305	0	316
-19.690	-5.517	1	18714	0	316
-17.274	-9.160	1	18976	0	316
-8.150	-6.167	1	19036	0	316
-4.580	-3.426	1	18967	0	316
-4.868	-3.462	1	18825	0	316
-7.393	0.433	1	18615	0	316
-6.491	5.121	1	18310	0	316
-2.957	11.143	1	17936	1	424
4.291	17.887	1	17561	0	424
10.783	18.788	1	17218	0	424
11.720	20.916	1	16908	0	424
8.330	19.185	1	16659	0	424
3.859	21.565	1	16414	0	424
-2.741	19.942	1	16139	0	424
-4.688	19.365	1	15873	0	424
-2.164	15.615	1	15684	0	424
1.118	15.867	1	15568	0	424
1.479	13.487	1	15469	0	424
-1.515	14.389	1	15327	0	424
-4.652	14.172	1	15138	0	424
-4.904	15.398	1	14992	0	424
-1.046	19.293	1	15078	0	424
3.173	17.526	1	15400	0	424
2.885	18.103	1	15697	0	424
-3.787	13.523	1	15864	0	424
-9.592	12.802	1	16075	0	424
-8.294	15.759	1	16495	0	424
-1.623	25.027	1	17050	0	424
9.304	32.889	1	17480	0	424
15.795	37.324	1	17712	0	424
19.149	36.964	1	17893	0	424
15.579	32.997	32768	18181	0	424
11.215	29.210	32768	18537	0	424
9.809	26.866	32768	18761	0	424
5.878	26.542	32768	18804	0	424
5.878	25.388	32768	18722	0	424
3.750	20.880	32768	18499	0	424
3.787	17.743	32768	18193	0	424
2.308	15.795	32768	18056	0	424
2.236	16.841	32768	18133	0	424
4.219	17.310	32768	18159	0	424
8.114	20.664	32768	17983	0	424
12.514	24.125	32768	17695	0	424
14.821	27.443	32768	17377	0	424
15.867	29.102	32768	17080	0	424
9.484	25.207	32768	16805	0	424
4.832	17.382	32768	16504	0	424
2.272	11.035	32768	16174	0	424
8.114	10.169	32768	15847	0	424
14.605	20.267	32768	15555	0	424
22.539	30.653	32768	15292	0	424
20.411	34.728	32768	15047	0	424
14.136	31.915	32768	14798	0	424
6.599	23.296	32768	14562	0	424
2.777	13.163	32768	14437	0	424
2.056	11.035	32768	14566	0	424
1.046	12.153	32768	14858	0	424
-0.216	17.634	32768	15090	0	424
-0.685	19.870	32768	15189	0	424
0.902	21.024	32768	15305	0	424
3.210	18.608	32768	15572	0	424
5.337	15.831	32768	15937	0	424
2.849	10.602	32768	16200	0	424
-2.633	8.583	32768	16311	0	424
-5.806	5.373	32768	16324	0	424
-6.996	3.823	32768	16230	0	424
-5.878	4.075	32768	16118	0	424
-2.164	4.111	32768	16251	0	424
0.108	6.888	32768	16586	0	424
-1.334	5.950	32768	16796	0	424
-4.760	4.111	32768	16732	0	424
-10.638	1.911	32768	16521	0	424
-14.245	-0.865	32768	16367	0	424
-15.146	-0.433	32768	16452	0	424
-11.756	-0.469	32768	16921	0	424
-10.169	0.325	32768	17609	0	424
-10.350	0.397	32768	18172	0	424
-9.340	-0.252	32768	18383	0	424
-12.333	1.587	32768	18318	0	424
-12.225	2.056	32768	18116	0	424
-10.025	0.902	32768	17832	0	424
-9.088	-1.262	32768	17536	0	424
-9.629	-4.436	32768	17342	0	424
-10.278	-4.075	32768	17299	0	424
-9.881	-1.983	32768	17355	0	424
-13.415	-2.128	32768	17407	0	424
-16.516	-4.327	32768	17299	0	424
-15.002	-8.042	32768	17007	0	424
-14.136	-10.674	32768	16697	0	424
-10.386	-9.304	32768	16534	0	424
-9.737	-6.455	32768	16452	0	424
-13.956	-7.140	32768	16264	0	424
-21.241	-9.881	32768	15907	0	424
-27.407	-12.477	32768	15563	0	424
-27.479	-13.812	32768	15391	0	424
-22.286	-9.160	32768	15344	0	424
-16.300	-4.219	32768	15219	0	424
-16.769	-5.337	32768	14953	0	424
-19.654	-9.520	32768	14626	0	424
-26.145	-16.516	32768	14235	0	424
-28.417	-17.815	32768	13792	0	424
-25.171	-15.290	32768	13409	0	424
-18.716	-4.652	32768	13113	0	424
-10.927	1.659	32768	12820	0	424
-10.386	2.452	32768	12528	0	424
-11.792	-4.652	32768	12317	0	424
-15.110	-11.179	32768	12219	0	424
-20.123	-18.283	32768	12206	0	424
-21.745	-16.877	1	12279	0	424
-22.214	-15.795	1	12408	0	424
-20.195	-11.792	1	12610	0	424
-17.923	-10.494	1	13014	0	424
-18.247	-11.360	1	13642	0	424
-19.654	-13.163	1	14381	0	424
-24.306	-15.471	1	15112	0	424
-27.371	-19.149	1	15688	0	424
-26.253	-18.608	1	16084	0	424
-22.286	-18.067	1	16435	0	424
-14.245	-11.684	1	16899	0	424
-10.061	-6.203	1	17411	0	424
-6.671	-1.767	1	17733	0	424
-6.563	0.469	1	17815	0	424
-6.094	-1.551	1	17850	0	424
-2.452	-2.200	1	18022	0	424
3.029	0.938	32768	18275	0	424
5.517	2.272	32768	18387	0	424
3.967	6.167	32768	18305	0	424
-0.541	6.419	32768	18103	0	424
-3.642	3.642	1	17807	0	424
-2.813	5.265	1	17424	0	424
1.262	9.016	1	17041	0	424
5.806	13.704	1	16775	0	424
5.121	17.166	1	16723	0	424
1.046	18.031	1	16805	0	424
-1.479	14.605	1	16801	0	424
2.092	15.867	1	16680	0	424
10.386	17.057	1	16555	0	424
18.680	22.034	1	16448	0	424
22.214	22.358	1	16320	0	424
14.894	18.211	1	16144	0	424
5.590	14.100	1	15955	0	424
1.370	12.766	1	15847	0	424
6.383	15.254	1	15955	0	424
14.208	24.089	1	16200	0	424
24.847	29.463	1	16346	0	424
26.506	32.239	1	16303	0	424
23.008	29.535	1	16243	0	424
19.870	25.676	1	16388	0	424
14.389	22.611	1	16689	0	424
14.533	19.293	1	16887	0	424
14.353	19.437	1	16908	0	424
12.369	15.939	1	16848	0	424
9.809	13.091	1	16753	0	424
5.337	8.655	1	16620	0	424
3.931	8.475	1	16469	0	424
5.842	13.271	1	16320	0	424
6.888	16.336	1	16152	0	424
7.825	21.132	1	15972	0	424
8.114	19.185	1	15791	0	424
10.097	17.706	1	15611	0	424
16.516	15.939	1	15452	0	424
24.991	21.745	1	15331	0	424
27.660	24.883	1	15228	0	424
25.929	27.840	1	15202	0	424
19.221	26.938	1	15409	0	424
13.379	21.962	1	15813	0	424
10.025	16.589	1	16174	0	424
8.222	16.012	1	16372	0	424
7.753	15.723	1	16435	0	424
5.157	19.113	1	16435	0	424
3.462	19.401	1	16431	0	424
4.183	19.077	1	16392	0	424
5.301	14.064	1	16268	0	424
7.789	12.297	1	16079	0	424
7.104	12.658	1	15877	0	424
8.366	13.704	1	15705	0	424
6.780	17.526	1	15563	0	424
2.957	16.048	1	15439	0	424
0.361	14.425	1	15327	0	424
-3.823	10.422	1	15237	0	424
-4.219	9.484	1	15189	0	424
0.433	12.225	1	15224	0	424
6.563	15.759	1	15318	0	424
10.422	17.779	1	15439	0	424
9.340	20.411	1	15559	0	424
8.619	19.041	1	15662	0	424
9.052	17.129	1	15735	0	424
10.350	15.146	1	15813	0	424
12.261	16.444	1	15916	0	424
9.701	13.884	1	16032	0	424
3.462	15.939	1	16165	0	424
-0.793	13.848	1	16307	0	424
-0.577	14.389	1	16431	0	424
4.219	12.874	1	16551	0	424
9.953	15.398	1	16672	0	424
15.579	21.204	1	16796	0	424
14.677	24.270	1	16908	0	424
13.812	27.335	1	16977	0	424
12.369	24.486	1	17011	0	424
8.871	18.428	1	17050	0	424
4.183	9.520	1	17123	0	424
-1.911	2.957	1	17209	0	424
-11.432	-1.659	1	17265	0	424
-13.379	-2.128	1	17265	0	424
-8.042	1.875	1	17316	0	424
0.036	5.193	1	17583	0	424
8.402	7.537	1	18026	0	424
12.838	8.330	1	18378	0	424
10.963	7.501	1	18550	0	424
9.701	7.789	1	18641	0	424
7.032	7.465	1	18718	0	424
5.013	8.402	1	18787	0	424
4.940	8.547	1	18825	0	424
6.239	10.638	1	18808	0	424
10.025	14.425	1	18705	0	424
15.038	19.906	1	18516	0	424
18.428	21.241	1	18292	0	424
19.942	22.395	1	18082	1	840
17.598	23.476	1	17910	0	840
17.490	21.565	1	17751	0	840
15.146	21.818	1	17583	0	840
14.281	18.392	1	17398	0	840
9.124	13.379	1	17218	0	840
4.940	5.049	1	17046	0	840
1.587	1.587	1	16887	0	840
1.298	1.262	1	16736	0	840
6.455	6.419	1	16581	0	840
13.559	12.586	1	16461	0	840
18.897	16.084	1	16414	0	840
21.926	18.788	1	16405	0	840
21.204	17.202	1	16392	0	840
21.998	20.087	1	16354	0	840
21.385	21.168	1	16290	0	840
18.897	23.188	1	16277	0	840
17.598	22.539	1	16478	0	840
13.451	19.221	1	16882	0	840
13.163	18.608	1	17239	0	840
15.867	15.939	1	17445	0	840
16.120	16.336	1	17647	0	840
16.516	14.389	1	17987	0	840
9.629	13.163	32768	18417	0	840
6.275	12.514	32768	18722	0	840
4.904	10.350	32768	18825	0	840
7.140	11.828	32768	18864	0	840
10.206	12.405	32768	18997	0	840
10.819	10.314	32768	19281	0	840
10.638	8.114	32768	19660	0	840
10.061	9.592	32768	19969	0	840
10.133	8.907	32768	19969	0	840
12.550	10.746	32768	19638	0	840
15.435	15.362	32768	19139	0	840
14.677	15.074	32768	18585	0	840
16.697	15.723	32768	18082	0	840
15.326	17.851	32768	17742	0	840
14.821	18.320	32768	17540	0	840
13.776	19.870	32768	17394	0	840
16.084	20.555	32768	17248	0	840
18.716	21.385	32768	17058	0	840
19.041	23.765	32768	16930	0	840
20.303	23.224	32768	16895	0	840
18.211	23.693	32768	16818	0	840
14.317	24.053	32768	16736	0	840
8.907	20.664	32768	16745	0	840
4.868	15.615	32768	16805	0	840
-0.216	7.501	32768	16813	0	840
-5.301	1.190	32768	16629	0	840
-6.671	-1.442	32768	16234	0	840
-6.131	2.669	32768	15731	0	840
-3.354	9.520	32768	15159	0	840
0.216	14.821	32768	14557	0	840
3.282	14.064	32768	14136	0	840
3.859	13.307	32768	13934	0	840
2.669	11.720	32768	13796	0	840
0.325	11.215	32768	13728	0	840
0.108	14.281	32768	13758	0	840
1.659	16.589	32768	13758	0	840
2.705	19.329	32768	13801	0	840
3.714	18.824	32768	13943	0	840
3.137	18.031	32768	13981	0	840
-0.505	14.425	32768	13848	0	840
-0.216	14.858	32768	13637	0	840
2.164	16.192	32768	13418	0	840
8.691	19.834	32768	13203	0	840
10.133	19.077	32768	12962	0	840
6.924	13.884	32768	12691	0	840
-0.685	5.662	32768	12459	0	840
-7.537	-0.685	32768	12348	0	840
-11.468	-1.190	32768	12459	0	840
-7.753	1.190	32768	12756	0	840
0.000	7.537	32768	13035	0	840
6.203	11.900	32768	13225	0	840
9.665	15.254	32768	13401	0	840
10.494	15.182	32768	13603	0	840
9.124	15.903	32768	13788	0	840
7.393	15.939	32768	13934	0	840
6.239	18.175	32768	14067	0	840
8.475	20.014	32768	14261	1	316
5.517	21.601	32768	14630	0	316
3.065	16.625	32768	15121	0	316
-0.757	10.710	32768	15507	0	316
-4.075	4.219	32768	15744	0	316
-3.426	0.288	32768	15963	0	316
-3.101	1.839	32768	16320	0	316
-0.613	4.580	32768	16758	0	316
1.154	6.455	32768	17067	0	316
1.406	6.671	32768	17192	0	316
1.190	7.357	32768	17218	0	316
1.983	8.042	32768	17144	0	316
4.940	11.323	32768	16990	0	316
9.160	17.706	32768	16826	0	316
14.028	24.306	1	16684	0	316
20.014	28.669	1	16538	0	316
21.529	31.987	1	16367	0	316
22.286	31.013	1	16260	0	316
17.454	27.804	1	16384	0	316
14.100	24.522	1	16732	0	316
9.484	21.745	1	17063	0	316
6.744	18.139	1	17269	0	316
4.111	15.326	1	17424	0	316
7.140	12.009	1	17673	0	316
7.789	8.907	1	17991	0	316
7.573	9.160	1	18168	0	316
5.481	3.570	1	18125	0	316
-0.974	-2.164	1	17953	0	316
-6.527	-5.121	1	17725	0	316
-5.373	0.252	1	17553	0	316
1.154	11.576	1	17557	0	316
7.393	20.916	1	17669	0	316
5.301	21.745	1	17652	0	316
-5.517	7.789	1	17437	0	316
-19.798	-2.921	1	17179	0	316
-28.381	-10.566	1	17071	0	316
-28.669	-8.186	1	17110	0	316
-22.719	-3.534	1	17076	0	316
-17.346	-0.036	1	16899	0	316
-14.353	-1.406	1	16672	0	316
-21.024	-3.859	1	16384	0	316
-27.912	-8.655	1	16139	0	316
-35.016	-14.677	1	16148	0	316
-39.272	-18.320	1	16350	0	316
-37.505	-18.320	1	16396	0	316
-34.547	-17.815	1	16221	0	316
-33.574	-17.562	1	15967	0	316
-36.351	-22.539	1	15722	0	316
-41.003	-26.686	1	15495	0	316
-40.353	-31.338	1	15318	0	316
-39.308	-28.597	1	15176	0	316
-34.692	-25.352	1	15022	0	316
-33.213	-23.188	1	14858	0	316
-33.466	-21.385	1	14721	0	316
-32.708	-20.050	1	14630	0	316
-30.689	-20.447	1	14557	0	316
-26.289	-16.480	1	14476	0	316
-22.719	-14.136	1	14424	0	316
-18.897	-11.107	1	14420	0	316
-15.579	-6.888	1	14433	0	316
-14.317	-3.137	1	14428	0	316
-13.595	-0.144	1	14428	0	316
-14.389	-1.659	1	14471	0	316
-20.772	-7.501	1	14523	0	316
-26.001	-15.182	1	14570	0	316
-30.364	-20.087	1	14691	0	316
-31.879	-22.863	1	15060	0	316
-28.056	-21.457	1	15645	0	316
-21.132	-16.444	1	16148	0	316
-14.858	-14.461	1	16448	0	316
-13.631	-12.081	1	16650	0	316
-14.894	-9.520	1	16822	0	316
-14.858	-6.311	1	16985	0	316
-14.281	-0.361	1	17132	0	316
-8.547	7.068	1	17235	0	316
-2.921	10.855	1	17372	0	316
-0.865	13.776	1	17716	0	316
-1.731	9.340	1	18224	0	316
-5.121	4.291	1	18602	0	316
-9.484	1.370	1	18744	0	316
-11.071	-1.118	1	18739	0	316
-11.035	-0.036	1	18666	0	316
-8.114	2.705	1	18572	0	316
-2.272	6.744	1	18469	0	316
4.508	12.586	1	18327	0	316
10.242	16.697	1	18125	0	316
15.398	21.601	1	17910	0	316
15.398	21.673	1	17690	0	316
12.910	21.204	1	17476	0	316
10.025	20.195	1	17261	0	316
6.671	17.598	1	17028	0	316
6.635	17.274	1	16775	0	316
5.085	15.146	1	16530	0	316
3.354	14.425	1	16333	0	316
-0.433	12.045	1	16182	0	316
-4.219	7.681	1	16088	0	316
-4.652	4.472	1	16036	0	316
-4.039	3.498	1	15980	0	316
-0.757	5.517	1	15907	0	316
3.714	10.061	1	15860	0	316
6.311	13.704	1	15933	0	316
10.097	15.615	1	16088	0	316
12.261	16.985	1	16182	0	316
13.523	17.418	1	16195	0	316
19.762	23.260	1	16195	0	316
25.568	31.699	1	16187	0	316
33.898	41.255	1	16165	0	316
40.822	49.153	1	16152	0	316
41.075	49.657	1	16152	0	316
37.396	46.412	1	16127	0	316
32.312	39.127	1	16066	0	316
27.840	34.259	1	16002	0	316
25.352	31.338	1	15967	0	316
24.630	29.030	1	15967	0	316
21.601	25.352	1	15980	0	316
19.185	21.998	1	15989	0	316
18.283	21.421	1	16015	0	316
15.867	23.621	1	16079	0	316
18.572	25.135	1	16165	0	316
19.293	26.722	1	16234	0	316
21.277	26.650	1	16273	0	316
21.745	24.414	1	16307	0	316
25.316	25.460	1	16359	0	316
28.850	28.958	1	16401	0	316
30.184	32.997	1	16444	0	316
31.807	35.485	1	16487	0	316
30.076	35.882	1	16517	0	316
25.929	33.285	1	16534	0	316
25.063	31.879	1	16577	0	316
23.909	29.535	1	16684	0	316
25.532	31.554	1	16822	0	316
27.407	31.374	1	16912	0	316
28.201	29.968	1	16947	0	316
28.850	28.128	1	16968	0	316
29.318	30.004	1	16968	0	316
31.771	32.131	1	16955	0	316
37.144	38.586	1	16951	0	316
43.166	44.032	1	16934	0	316
46.448	45.546	1	16964	0	316
45.546	43.924	1	17218	0	316
40.426	38.009	1	17647	0	316
32.059	33.177	1	18009	0	316
25.748	27.371	1	18189	0	316
20.844	22.935	1	18318	0	316
14.461	20.195	1	18589	0	316
12.946	15.435	1	18972	0	316
10.458	13.379	1	19217	0	316
9.484	11.792	1	19251	0	316
8.439	11.215	1	19169	0	316
9.124	13.271	1	19028	0	316
9.701	13.631	32768	18899	0	316
9.160	16.156	32768	18929	0	316
11.900	16.913	32768	19075	1	608
16.120	20.988	32768	19114	0	608
19.870	23.296	32768	18993	0	608
25.712	26.397	32768	18791	0	608
29.282	27.876	32768	18546	0	608
30.220	26.722	32768	18258	0	608
29.571	27.587	32768	17927	0	608
32.672	33.105	32768	17566	0	608
36.928	41.075	32768	17187	0	608
42.661	48.107	32768	16779	0	608
43.779	54.634	32768	16367	0	608
44.861	51.857	32768	15989	0	608
41.075	50.198	32768	15671	0	608
37.324	46.123	32768	15396	0	608
32.167	40.426	32768	15112	0	608
25.099	32.744	32768	14824	0	608
16.985	20.231	32768	14570	0	608
9.088	11.756	32768	14403	0	608
6.744	8.294	32768	14299	0	608
11.071	10.999	32768	14200	0	608
18.392	20.375	32768	14072	0	608
24.378	24.558	32768	13951	0	608
23.585	25.099	32768	13891	0	608
17.743	18.428	32768	13887	0	608
8.330	11.215	32768	13917	0	608
3.282	5.842	32768	14050	0	608
1.839	4.760	32768	14437	0	608
0.613	7.465	32768	15090	0	608
-0.144	11.323	32768	15860	0	608
-0.325	12.441	32768	16598	0	608
2.849	18.536	32768	17144	0	608
8.691	21.457	32768	17463	0	608
12.550	26.037	32768	17716	0	608
15.651	29.174	32768	18073	0	608
18.752	29.931	32768	18533	0	608
21.168	30.545	32768	19006	0	608
26.794	32.853	32768	19346	0	608
32.239	36.351	32768	19402	0	608
31.374	35.882	32768	19165	0	608
26.686	31.662	32768	18778	0	608
19.510	26.217	32768	18340	0	608
16.805	20.159	32768	17875	0	608
15.615	17.851	32768	17381	0	608
20.303	21.998	32768	16826	0	608
21.349	24.594	32768	16234	0	608
21.313	26.758	32768	15658	0	608
19.582	27.083	32768	15181	0	608
16.372	24.558	32768	14807	0	608
18.500	20.339	32768	14493	0	608
16.012	19.185	32768	14243	0	608
14.713	15.254	32768	14222	0	608
11.504	16.012	32768	14480	0	608
9.268	14.785	32768	14884	0	608
8.547	17.202	32768	15288	0	608
7.285	15.182	32768	15546	0	608
3.967	14.569	32768	15636	0	608
-0.036	10.133	32768	15714	0	608
0.180	6.563	32768	15933	0	608
3.714	6.635	32768	16234	0	608
10.314	10.891	32768	16452	0	608
16.841	17.562	32768	16689	0	608
18.392	21.637	32768	16981	0	608
17.815	25.135	32768	17110	0	608
17.562	25.207	32768	16981	0	608
19.690	24.522	32768	16758	0	608
18.969	23.476	32768	16663	0	608
16.841	23.188	32768	16770	0	608
10.638	19.077	32768	16985	0	608
6.022	15.254	32768	17256	0	608
4.147	12.189	32768	17600	0	608
7.357	11.864	32768	17936	0	608
10.710	12.009	32768	18030	0	608
10.602	14.172	32768	17802	0	608
9.340	17.021	32768	17377	0	608
8.366	16.552	32768	16899	0	608
10.025	17.598	32768	16431	0	608
13.523	17.887	32768	15989	0	608
18.356	21.854	32768	15572	0	608
20.014	22.611	32768	15159	0	608
21.529	25.929	32768	14759	1	316
22.250	27.443	32768	14454	0	316
25.027	28.850	32768	14364	0	316
29.427	31.590	32768	14424	0	316
32.420	37.541	32768	14411	0	316
35.269	37.685	32768	14256	0	316
35.233	38.550	32768	14029	0	316
29.427	35.557	32768	13762	0	316
24.666	30.977	32768	13495	0	316
19.798	27.227	32768	13237	0	316
15.038	22.575	32768	13023	0	316
18.428	22.178	32768	12945	0	316
18.824	20.411	32768	13113	0	316
20.411	24.558	32768	13465	0	316
22.214	27.768	32768	13792	0	316
20.087	28.850	32768	14033	0	316
18.824	26.830	32768	14231	0	316
19.329	26.145	32768	14398	0	316
22.972	30.148	32768	14549	0	316
29.318	36.134	32768	14686	0	316
32.744	41.363	16384	14815	0	316
33.574	40.750	1	14936	0	316
30.400	33.393	1	15000	0	316
24.702	25.640	1	15030	0	316
23.765	25.460	1	15086	0	316
23.765	29.715	1	15207	0	316
24.558	33.033	1	15370	0	316
24.666	33.357	1	15529	0	316
23.080	30.148	1	15632	0	316
20.988	26.722	1	15735	0	316
21.132	25.856	1	15946	0	316
19.654	25.352	1	16363	0	316
20.519	25.171	1	16874	0	316
20.519	23.549	1	17230	0	316
21.890	24.522	1	17411	0	316
22.899	26.470	1	17536	0	316
20.988	29.787	1	17639	0	316
22.322	34.403	1	17686	0	316
24.486	36.928	1	17678	0	316
31.158	38.586	1	17635	0	316
39.380	42.770	1	17647	0	316
46.700	45.510	1	17832	0	316
49.982	49.333	1	18138	0	316
44.032	49.477	1	18310	0	316
37.937	48.035	1	18267	0	316
32.167	44.104	1	18133	0	316
31.194	39.055	1	17961	0	316
33.105	38.658	1	17751	0	316
33.033	38.298	1	17501	0	316
29.174	34.800	1	17226	0	316
23.368	30.400	1	16912	0	316
16.913	24.919	1	16581	0	316
15.867	24.739	1	16299	0	316
14.605	23.512	1	16079	0	316
15.507	24.847	1	15920	0	316
13.379	24.017	1	15804	0	316
14.605	20.988	1	15697	0	316
15.074	16.516	1	15649	0	316
13.343	17.706	1	15834	0	316
11.251	15.903	1	16230	0	316
8.439	17.959	1	16555	0	316
8.727	20.159	1	16710	0	316
14.389	25.532	1	16762	0	316
21.060	27.912	1	16775	0	316
27.047	31.158	1	16766	0	316
24.630	31.554	1	16719	0	316
20.664	29.246	1	16629	0	316
15.362	26.073	1	16508	0	316
12.910	22.827	1	16384	0	316
11.648	18.175	1	16350	0	316
12.622	17.418	1	16543	0	316
7.753	14.677	1	16891	0	316
2.164	14.281	1	17123	0	316
-0.397	11.432	1	17166	0	316
-0.649	8.763	1	17187	0	316
2.993	8.691	1	17381	0	316
4.255	10.350	1	17690	0	316
4.940	11.432	1	17862	0	316
2.128	10.530	1	17841	0	316
-0.505	9.881	1	17729	0	316
2.272	11.179	1	17549	0	316
6.996	13.343	1	17304	0	316
10.025	18.500	1	17007	0	316
9.917	19.257	1	16676	0	316
7.970	18.608	1	16333	0	316
3.967	16.949	1	15989	0	316
3.173	19.185	1	15658	0	316
4.940	22.322	1	15357	0	316
10.386	27.660	1	15129	0	316
15.975	31.374	1	14996	0	316
19.077	33.574	1	14914	0	316
23.152	34.006	1	14828	0	316
23.008	33.502	1	14742	0	316
22.070	32.131	1	14691	0	316
16.372	27.624	1	14652	0	316
13.235	21.890	1	14605	0	316
9.268	20.159	1	14575	0	316
11.143	17.887	1	14575	0	316
15.759	21.854	1	14635	0	316
18.536	24.630	1	14777	0	316
19.546	24.089	1	14979	0	316
17.634	24.162	1	15172	0	316
17.634	25.207	1	15344	0	316
17.851	27.912	1	15602	0	316
20.916	31.302	1	16101	0	316
18.067	30.653	1	16762	0	316
15.975	27.371	1	17304	0	316
11.973	24.702	1	17609	0	316
10.350	21.024	1	17781	0	316
10.206	21.962	1	17880	0	316
10.422	21.601	1	17918	0	316
13.451	21.854	1	17888	0	316
14.136	25.027	1	17794	0	316
16.985	26.758	1	17660	0	316
19.546	28.525	1	17510	0	316
16.625	29.391	1	17415	0	316
18.788	29.138	1	17544	0	316
15.831	26.506	1	17845	0	316
15.290	23.837	1	18039	0	316
12.586	20.844	1	18026	0	316
12.009	19.690	1	17905	0	316
9.773	17.670	1	17729	0	316
10.133	22.395	1	17527	0	316
13.704	25.748	1	17334	0	316
17.310	29.318	1	17153	0	316
22.575	31.951	1	16960	0	316
22.142	30.581	1	16753	0	316
18.824	26.830	1	16581	0	316
10.458	21.962	1	16482	0	316
7.573	19.546	1	16435	0	316
8.979	20.772	1	16380	0	316
12.910	21.457	1	16303	0	316
13.415	22.755	1	16230	0	316
11.035	18.572	1	16191	0	316
5.517	16.625	1	16208	0	316
6.744	14.389	1	16256	0	316
10.494	17.562	1	16290	0	316
14.785	19.221	1	16286	0	316
13.451	21.096	1	16260	0	316
11.468	20.014	1	16329	0	316
10.206	18.608	1	16641	0	316
10.386	18.320	1	17175	0	316
12.369	16.408	1	17617	0	316
12.477	14.749	1	17828	0	316
9.160	12.189	1	17910	0	316
6.094	11.251	1	17957	0	316
8.222	14.821	1	17996	0	316
15.038	17.418	1	18034	0	316
19.401	21.926	32768	18052	0	316
22.827	21.277	32768	18077	0	316
18.175	20.087	32768	18258	0	316
14.713	15.615	32768	18580	0	316
7.825	14.425	32768	18817	0	316
7.248	11.648	32768	18825	0	316
8.258	11.468	32768	18666	0	316
6.708	14.353	32768	18421	0	316
7.934	15.362	32768	18155	0	316
9.953	20.267	32768	17918	0	316
13.884	23.512	32768	17699	1	632
15.471	25.965	32768	17433	0	632
16.841	27.660	32768	17110	0	632
12.946	22.142	32768	16809	0	632
8.979	19.185	32768	16680	0	632
6.671	16.985	32768	16715	0	632
8.294	15.723	32768	16706	0	632
9.881	20.231	32768	16568	0	632
12.802	23.296	32768	16396	0	632
14.713	26.109	32768	16238	0	632
14.533	26.794	32768	16135	0	632
15.146	26.794	32768	16200	0	632
14.389	24.522	32768	16346	0	632
14.930	24.594	32768	16333	0	632
16.372	23.008	32768	16122	0	632
15.903	23.801	32768	15838	0	632
17.021	25.099	32768	15555	0	632
10.674	20.772	32768	15292	0	632
5.049	14.136	32768	15052	0	632
-1.406	8.258	32768	14789	0	632
-1.659	6.744	32768	14553	0	632
-0.252	10.566	32768	14536	0	632
6.852	13.631	32768	14751	0	632
8.943	16.228	32768	14953	0	632
8.078	12.369	32768	15009	0	632
6.708	7.501	32768	14970	0	632
5.157	7.970	32768	14931	0	632
7.825	12.081	32768	14901	0	632
11.864	15.759	32768	14841	0	632
14.100	19.077	32768	14729	0	632
16.336	17.634	32768	14605	0	632
16.625	19.005	32768	14493	0	632
16.877	18.860	32768	14463	0	632
17.743	22.827	32768	14652	0	632
17.706	21.204	32768	15030	0	632
16.084	19.546	32768	15353	0	632
13.127	14.713	32768	15520	0	632
14.281	15.687	32768	15585	0	632
12.369	16.949	32768	15581	0	632
12.550	21.204	32768	15542	0	632
12.009	25.388	32768	15520	0	632
10.891	26.361	32768	15542	0	632
13.127	27.335	32768	15572	0	632
16.697	28.633	32768	15559	0	632
18.103	27.948	32768	15503	0	632
19.798	25.171	32768	15542	0	632
15.038	21.854	32768	15800	0	632
11.792	21.709	32768	16148	0	632
9.088	18.897	32768	16324	0	632
7.357	21.024	32768	16346	0	632
8.402	19.257	32768	16376	0	632
6.671	17.815	32768	16435	0	632
4.940	15.002	32768	16500	0	632
4.219	14.930	32768	16525	0	632
3.390	13.018	32768	16547	0	632
2.885	14.136	32768	16732	0	632
4.472	13.487	32768	17058	0	632
5.806	13.559	32768	17304	0	632
6.635	14.064	32768	17398	0	632
6.708	12.153	32768	17415	0	632
8.150	10.891	32768	17394	0	632
8.979	13.992	32768	17394	0	632
