neuroNicle FX2
D3F25R12
Bluetooth SPP
2023년 11월 17일 금요일
오전 10:42
time interval = 4msec
EEG1	EEG2	PPG	sdPPG	pulse	peak_interval(msec)
-28.633	-27.696	16382	18213	0	540
-25.352	-21.745	16382	19432	0	540
-20.375	-17.202	16383	20225	0	540
-16.661	-12.261	16384	21444	0	540
-17.995	-15.182	16384	22908	0	540
-21.457	-19.582	16384	23823	0	540
-27.407	-26.506	16384	23944	0	540
-31.013	-28.453	16385	23579	0	540
-30.004	-27.660	16385	22969	0	540
-26.578	-25.388	16385	22176	0	540
-24.270	-23.837	16385	21262	0	540
-22.503	-23.296	16385	20225	0	540
-21.168	-23.476	16384	19127	0	540
-21.637	-23.008	16384	18030	0	540
-19.618	-19.041	16384	16932	0	540
-17.238	-18.283	16384	15836	0	540
-16.661	-16.985	16384	14738	0	540
-15.435	-17.490	16384	13945	0	540
-11.973	-14.677	16384	13458	0	540
-10.891	-12.514	16383	13275	0	540
-10.278	-10.422	16384	13702	0	540
-10.855	-11.648	16384	14616	0	540
-14.281	-15.002	16384	15470	0	540
-14.966	-17.310	16384	16141	0	540
-14.605	-18.103	16384	17420	0	540
-12.189	-13.559	16385	19676	0	540
-8.475	-9.989	16386	21871	0	540
-6.239	-6.311	16388	23274	0	540
-3.931	-4.796	16388	24310	0	540
-3.462	-3.426	16390	25164	0	540
-5.049	-4.472	16390	25225	0	540
-7.248	-5.409	16391	24371	0	540
-9.160	-2.777	16391	23091	0	540
-8.727	-0.325	16391	21688	0	540
-9.376	1.767	16390	20164	0	540
-13.415	2.272	16390	18579	0	540
-18.572	-1.010	16390	16993	0	540
-25.640	-4.400	16389	15470	1	316
-29.210	-4.291	16389	13945	0	316
-29.318	0.865	16388	12543	0	316
-26.722	7.609	16387	11202	0	316
-24.594	16.877	16387	9921	0	316
-24.450	22.972	16385	8884	0	316
-23.981	30.256	16385	8031	0	316
-22.142	37.685	16384	7238	0	316
-20.591	46.232	16384	6567	0	316
-13.127	53.805	16384	6141	0	316
-8.366	60.728	16383	5897	0	316
-7.573	65.308	16382	6019	0	316
-11.468	73.098	16382	6933	0	316
-21.673	83.375	16382	8458	0	316
-26.109	94.519	16382	9616	0	316
-18.572	100.433	16382	10531	0	316
0.613	94.122	16382	11933	0	316
20.014	77.642	16383	13763	0	316
27.047	54.598	16383	15165	0	316
21.168	42.157	16383	16019	0	316
18.933	48.612	16383	16932	0	316
32.456	75.117	16384	18030	0	316
65.380	110.674	16384	18701	0	316
101.442	141.904	16384	18884	0	316
131.626	167.688	16384	18701	0	316
147.999	205.229	16384	18396	0	316
164.515	262.135	16383	17908	0	316
179.986	335.990	16383	17481	0	316
195.312	406.924	16383	16993	0	316
200.000	459.863	16383	16566	0	316
196.358	498.954	16383	16141	0	316
186.837	541.219	16382	15836	0	316
181.320	590.804	16382	15531	0	316
180.130	590.804	16381	15165	0	316
189.722	590.804	16381	14799	0	316
205.734	590.804	16380	14372	0	316
225.316	590.804	16380	14189	0	316
243.022	590.804	16380	14738	0	316
251.461	590.804	16380	15836	0	316
253.877	590.804	16381	16688	0	316
249.730	590.804	16381	17603	0	316
232.528	586.477	16382	19127	0	316
199.098	525.676	16383	21018	0	316
149.153	466.967	16384	22603	0	316
92.932	412.009	16384	23579	0	316
45.582	361.666	16384	24554	0	316
12.658	314.930	16385	25530	0	316
-14.966	266.967	16386	25896	0	316
-46.195	220.159	16386	25530	0	316
-86.260	176.055	16386	24737	0	316
-123.440	136.062	16387	23762	0	316
-152.074	95.420	16387	22603	0	316
-167.797	54.959	16387	21323	0	316
-174.180	8.006	16386	19981	0	316
-179.589	-35.305	16386	18579	0	316
-183.880	-70.465	16385	17176	0	316
-185.251	-96.646	16385	15775	0	316
-182.510	-111.504	16384	14311	0	316
-175.658	-119.618	16384	12909	0	316
-167.688	-127.732	16384	11689	0	316
-161.630	-133.862	16384	10714	0	316
-154.454	-138.082	16383	9982	0	316
-144.104	-137.901	16383	9555	0	316
-132.636	-135.052	16382	9250	0	316
-119.257	-132.167	16382	9189	0	316
-108.475	-132.961	16382	9311	0	316
-103.859	-133.826	16381	9677	0	316
-100.541	-135.413	16381	10653	0	316
-98.990	-135.052	16382	12116	0	316
-95.564	-133.898	16382	13519	0	316
-92.715	-131.987	16382	14921	0	316
-90.011	-130.833	16383	16566	0	316
-90.011	-129.427	16383	17908	0	316
-87.090	-127.335	16384	18640	0	316
-83.375	-119.401	16384	18944	0	316
-72.773	-113.163	16384	19066	0	316
-63.613	-105.085	16384	19066	0	316
-56.149	-97.512	16384	18884	0	316
-53.444	-96.069	16384	18640	0	316
-52.723	-93.437	16384	18396	1	316
-54.778	-94.627	16384	18091	0	316
-52.470	-92.679	16384	17847	0	316
-51.028	-88.821	16384	17420	0	316
-46.736	-87.234	16384	16932	0	316
-42.842	-84.962	16384	16324	0	316
-40.029	-81.212	16384	15592	0	316
-38.695	-78.976	16383	14860	0	316
-38.550	-76.632	16383	14189	0	316
-38.586	-73.206	16382	13580	0	316
-36.891	-69.996	16382	13031	0	316
-33.033	-66.643	16381	12909	0	316
-29.210	-61.991	16381	13519	0	316
-27.876	-59.322	16382	14677	0	316
-24.630	-53.732	16382	15653	0	316
-20.844	-51.821	16382	16384	0	316
-15.435	-45.943	16383	17847	0	316
-6.239	-40.353	16384	20286	0	316
1.803	-34.656	16384	22664	0	316
6.203	-30.725	16385	24066	0	316
7.609	-29.679	16386	25103	0	316
3.750	-30.328	16388	26079	0	316
-2.128	-34.944	16388	26323	0	316
-8.366	-39.452	16389	25774	0	316
-12.225	-41.183	16389	24798	0	316
-11.864	-42.084	16390	23579	0	316
-12.117	-39.957	16389	22115	0	316
-10.350	-37.324	16389	20469	0	316
-8.186	-33.898	16389	18823	0	316
-9.484	-30.869	16388	17237	0	316
-10.891	-29.318	16388	15714	0	316
-9.917	-28.381	16387	14250	0	316
-8.150	-27.479	16386	13031	0	316
-3.173	-26.289	16386	11811	0	316
3.498	-22.178	16385	10531	0	316
7.140	-19.041	16384	9311	0	316
9.412	-15.867	16384	8519	0	316
10.710	-15.038	16384	8641	0	316
11.900	-14.389	16384	9494	0	316
15.939	-9.232	16384	10165	0	316
18.139	-2.957	16384	10592	0	316
24.053	5.193	16384	11628	0	316
29.246	12.730	16384	13824	0	316
32.961	15.002	16385	16202	0	316
32.600	12.802	16386	17786	0	316
27.335	9.376	16387	19188	0	316
22.539	4.904	16387	20530	0	316
18.067	5.121	16388	21262	0	316
19.329	6.203	16388	21201	0	316
17.743	9.052	16388	20774	0	316
16.084	7.537	16388	19981	0	316
10.386	2.705	16388	18944	0	316
10.350	-4.003	16388	17786	0	316
14.064	-7.681	16387	16566	0	316
17.887	-9.088	16386	15226	0	316
21.565	-7.573	16386	13945	0	316
19.149	-6.383	16385	12787	0	316
14.569	-6.347	16384	11811	0	316
13.992	-8.222	16384	11019	0	316
18.897	-8.330	16384	10409	0	316
21.313	-10.927	16384	9982	0	316
19.329	-13.631	16384	9860	0	316
10.206	-15.687	16383	10287	0	316
0.649	-19.870	16383	11202	0	316
-5.229	-19.473	16383	11933	0	316
-4.724	-20.447	16383	12360	0	316
-1.406	-20.627	16383	13214	0	316
0.433	-18.067	16383	14555	0	316
1.082	-16.120	16384	15592	0	316
2.524	-11.107	16384	16263	0	316
8.799	-8.366	16384	17237	0	316
15.615	-8.799	16384	18396	0	316
16.336	-11.612	16384	19127	0	316
12.009	-14.317	16384	19310	0	316
1.875	-21.241	16384	19249	0	316
-8.114	-24.162	16384	18762	0	316
-10.242	-27.155	16384	17969	0	316
-12.261	-29.246	16384	17176	0	316
-10.494	-30.148	16384	16384	0	316
-10.819	-28.525	16384	15836	1	316
-11.287	-27.912	16384	15348	0	316
-12.225	-28.164	16383	14982	0	316
-10.783	-28.525	16383	14555	0	316
-13.848	-30.220	16382	14006	0	316
-20.627	-33.826	16382	13458	0	316
-25.388	-36.639	16381	12909	0	316
-27.768	-37.144	16380	12543	0	316
-26.614	-36.242	16380	12299	0	316
-23.909	-33.934	16379	12116	0	316
-20.591	-33.466	16380	12055	0	316
-20.483	-34.043	16379	12238	0	316
-20.916	-34.367	16379	13214	0	316
-18.103	-35.088	16379	14738	0	316
-15.903	-31.987	16379	16080	0	316
-12.946	-29.535	16380	17054	0	316
-12.369	-26.722	16381	18457	0	316
-18.211	-27.371	16381	20103	0	316
-24.342	-29.210	16382	21140	0	316
-31.158	-31.735	16382	21688	0	316
-34.043	-29.607	16383	22603	0	316
-32.348	-27.083	16384	23884	0	316
-28.345	-24.558	16384	24676	0	316
-26.433	-25.965	16384	24615	0	316
-24.234	-29.571	16384	24127	0	316
-20.808	-31.771	16384	23457	0	316
-16.625	-30.581	16384	22481	0	316
-10.206	-24.162	16384	21323	0	316
-4.147	-17.959	16384	20103	0	316
0.216	-12.550	16384	18884	0	316
4.760	-9.088	16384	17847	0	316
7.573	-8.907	16384	16932	0	316
6.491	-11.143	16384	16202	0	316
5.698	-13.127	16384	15531	0	316
4.400	-16.697	16384	14982	0	316
3.714	-14.497	16384	14555	0	316
7.537	-13.956	16384	14433	0	316
12.045	-14.317	16384	15043	0	316
14.281	-14.533	16384	16080	0	316
17.057	-18.356	16384	16749	0	316
16.516	-19.293	16384	17176	0	316
16.552	-21.457	16384	17908	0	316
14.028	-24.630	16385	19005	0	316
12.009	-27.010	16385	19493	0	316
13.740	-27.912	16386	19554	0	316
15.939	-26.397	16387	19920	0	316
24.414	-22.827	16387	20591	0	316
27.876	-18.824	16388	20896	0	316
29.102	-18.356	16388	20530	0	316
25.929	-15.254	16388	19920	0	316
21.962	-14.713	16388	18944	0	316
20.952	-11.035	16388	17725	0	316
24.594	-7.465	16387	16384	0	316
27.371	-7.032	16387	14860	0	316
27.010	-6.491	16386	13519	0	316
23.260	-6.744	16385	12482	0	316
20.519	-7.285	16385	11506	0	316
14.136	-9.052	16384	10531	0	316
13.127	-13.379	16384	9555	0	316
10.819	-18.824	16384	8702	0	316
9.484	-23.801	16383	7970	0	316
10.999	-23.260	16383	7665	0	316
12.838	-20.916	16383	8153	0	316
13.812	-15.218	16382	9189	0	316
16.589	-14.713	16382	10226	0	316
14.894	-13.740	16382	11141	0	316
15.831	-15.182	16383	12543	0	316
15.038	-13.992	16383	14311	0	316
15.435	-14.894	16383	15714	0	316
15.975	-15.615	16384	16505	0	316
16.589	-14.028	16384	17603	0	316
20.087	-12.766	16384	18884	0	316
22.611	-9.989	16384	19676	0	316
23.188	-8.691	16384	19859	0	316
25.460	-10.458	16384	19615	0	316
25.929	-15.290	16384	19066	0	316
26.217	-16.192	16384	18457	0	316
26.974	-16.877	16384	17847	0	316
27.840	-12.369	16384	17176	0	316
27.227	-10.819	16384	16384	0	316
25.604	-10.891	16384	15714	0	316
22.286	-11.864	16383	14982	0	316
17.634	-15.831	16383	14372	0	316
13.018	-15.254	16382	13824	0	316
10.169	-15.507	16382	13275	0	316
11.396	-12.946	16381	12726	0	316
13.379	-10.783	16381	12299	0	316
15.507	-12.514	16380	11872	0	316
17.093	-13.920	16379	11567	0	316
16.625	-15.615	16379	11324	0	316
16.516	-18.716	16378	11567	0	316
13.920	-17.562	16380	12726	0	316
14.930	-19.257	16379	14555	0	316
12.802	-18.031	16380	16019	0	316
12.117	-19.834	16380	16993	0	316
11.720	-16.877	16381	18518	0	316
12.081	-13.740	16382	20957	0	316
14.208	-8.006	16384	23274	0	316
19.798	-4.219	16384	24859	0	316
22.286	-3.210	16385	26201	0	316
21.529	-6.671	16386	27420	0	316
17.057	-12.225	16386	27908	0	316
11.684	-16.769	16387	27481	0	316
9.629	-18.969	16387	26627	0	316
13.127	-15.903	16387	25469	0	316
15.579	-13.379	16387	24005	0	316
18.356	-11.432	16387	22359	1	424
13.884	-12.081	16387	20713	0	424
11.828	-15.398	16387	19127	0	424
11.756	-16.048	16386	17481	0	424
12.081	-18.716	16385	15958	0	424
16.264	-17.238	16385	14555	0	424
17.129	-16.336	16384	13214	0	424
18.031	-14.497	16384	11994	0	424
17.382	-14.172	16384	11019	0	424
14.894	-15.290	16384	10409	0	424
13.559	-17.382	16384	10531	0	424
9.268	-22.503	16384	11202	0	424
6.203	-26.037	16384	11628	0	424
7.248	-26.397	16384	12055	0	424
8.330	-25.027	16384	13153	0	424
10.494	-23.837	16384	15287	0	424
13.704	-18.824	16385	17420	0	424
18.139	-18.644	16386	19005	0	424
18.752	-17.238	16387	20225	0	424
21.601	-18.283	16388	21505	0	424
21.277	-18.320	16388	21993	0	424
16.408	-18.608	16389	21688	0	424
14.749	-19.582	16389	21140	0	424
13.054	-18.356	16389	20530	0	424
12.045	-20.591	16389	19615	0	424
16.264	-21.421	16389	18579	0	424
16.084	-23.765	16388	17420	0	424
18.067	-24.198	16388	16263	0	424
17.166	-21.709	16387	15165	0	424
20.664	-18.572	16387	14067	0	424
22.178	-11.468	16386	13031	0	424
27.587	-5.770	16386	12055	0	424
30.472	-1.875	16385	11141	0	424
30.725	0.144	16384	10409	0	424
26.938	0.433	16384	9738	0	424
21.926	-1.010	16384	9311	0	424
22.358	-0.288	16384	9006	0	424
23.549	0.649	16384	8884	0	424
27.227	1.118	16383	9006	0	424
28.741	0.613	16383	9738	0	424
27.299	-0.685	16383	11019	0	424
23.116	-2.344	16383	11994	0	424
22.972	-2.524	16383	12726	0	424
25.893	-2.344	16383	13945	0	424
25.027	-1.154	16384	15470	0	424
25.135	-1.298	16384	16627	0	424
22.899	-0.180	16384	17237	0	424
21.637	0.865	16384	17542	0	424
21.132	4.940	16384	17664	0	424
24.991	8.078	16384	17664	0	424
24.414	9.232	16384	17420	0	424
22.827	10.169	16384	16993	0	424
22.286	8.366	16383	16566	0	424
23.188	6.635	16383	16324	0	424
27.263	7.789	16383	16080	0	424
35.485	9.989	16383	15897	0	424
40.606	13.054	16383	15714	0	424
40.930	13.559	16382	15409	0	424
39.488	14.461	16382	14982	0	424
36.242	13.163	16381	14738	0	424
36.026	12.441	16381	14555	0	424
39.163	15.218	16381	14433	0	424
42.337	15.687	16380	14372	0	424
44.212	17.815	16380	14433	0	424
41.147	15.615	16381	15165	0	424
36.928	13.163	16381	16324	0	424
32.167	8.763	16381	17054	0	424
29.102	6.527	16381	17481	0	424
29.391	4.688	16381	18213	0	424
30.508	8.078	16382	19249	0	424
32.348	13.163	16382	20042	0	424
29.715	15.723	16383	20530	0	424
25.640	14.497	16384	21384	0	424
18.680	5.193	16384	22603	0	424
14.533	-4.796	16384	23335	0	424
10.422	-9.448	16384	23335	0	424
8.439	-8.763	16385	22908	0	424
6.527	-6.419	16384	22298	0	424
3.029	-6.455	16384	21444	0	424
-0.577	-12.730	16384	20530	0	424
-3.065	-16.841	16384	19676	0	424
-2.560	-19.690	16384	18762	0	424
-2.849	-15.939	16384	17664	0	424
-2.164	-14.713	16384	16384	0	424
-0.902	-14.172	16384	15287	0	424
0.505	-17.021	16384	14311	0	424
2.452	-16.589	16383	13336	0	424
2.524	-15.723	16382	12421	0	424
2.380	-13.992	16382	11811	0	424
0.361	-13.415	16383	12116	0	424
-0.721	-15.579	16383	13031	0	424
1.551	-15.110	16383	13824	0	424
7.176	-14.713	16383	14311	0	424
13.451	-12.117	16383	14738	0	424
15.435	-9.340	16383	15592	0	424
17.202	-10.097	16384	16688	0	424
12.946	-12.009	16384	17603	0	424
7.753	-13.415	16384	18457	0	424
5.698	-15.146	16384	19981	0	424
6.239	-13.271	16385	21444	0	424
7.609	-13.018	16386	22054	0	424
11.287	-12.261	16386	21993	0	424
14.281	-10.422	16386	21871	0	424
13.631	-12.045	16387	21688	0	424
10.674	-11.396	16387	21323	0	424
5.481	-11.107	16387	20713	0	424
-1.334	-14.533	16388	19981	0	424
-5.734	-18.572	16387	19066	0	424
-6.996	-21.060	16387	17969	0	424
-6.852	-22.358	16387	16688	0	424
-5.842	-22.683	16387	15470	0	424
-4.039	-17.815	16386	14189	0	424
1.010	-16.552	16385	12970	0	424
5.481	-14.064	16385	11994	0	424
9.016	-15.831	16384	11872	0	424
8.114	-18.464	16384	12360	0	424
1.875	-24.991	16384	12665	0	424
-5.445	-29.066	16384	12909	0	424
-10.061	-30.581	16385	13702	0	424
-10.025	-27.948	16385	14921	0	424
-4.003	-21.998	16386	15775	0	424
0.865	-15.903	16386	16202	0	424
6.635	-12.117	16387	17176	0	424
7.357	-8.511	16387	19066	0	424
9.160	-5.337	16389	20896	0	424
12.369	-2.993	16389	21810	0	424
17.779	0.721	16390	21871	0	424
20.591	4.039	16390	21505	0	424
19.149	3.390	16390	20774	0	424
17.310	2.200	16390	19615	0	424
13.091	-0.216	16390	18091	0	424
13.199	-2.452	16389	16384	0	424
14.317	-4.832	16388	14738	0	424
13.451	-3.210	16387	13092	0	424
13.631	-3.462	16386	11567	0	424
17.887	-0.721	16385	10165	0	424
23.440	3.246	16384	9006	0	424
30.400	7.176	16384	8092	0	424
35.629	10.422	16384	7482	0	424
36.675	12.694	16383	6994	0	424
35.882	10.422	16383	6628	0	424
35.160	9.809	16382	6506	0	424
32.853	8.439	16382	6689	0	424
30.436	4.940	16382	7604	0	424
29.030	4.977	16381	9189	0	424
26.722	4.400	16381	10531	0	424
25.784	4.255	16381	11628	0	424
25.496	2.813	16382	13336	0	424
28.958	4.003	16383	16080	0	424
32.889	3.895	16384	19005	0	424
36.423	6.780	16384	21140	0	424
38.875	9.845	16384	22908	0	424
35.557	12.910	16385	24554	0	424
30.797	11.828	16386	25591	0	424
27.155	7.753	16387	25835	0	424
23.585	5.590	16387	25652	0	424
24.162	5.373	16388	25103	0	424
28.489	10.530	16387	24249	0	424
32.816	17.454	16388	23091	0	424
37.757	21.890	16387	21810	1	636
38.947	22.322	16387	20408	0	636
37.541	20.267	16386	19005	0	636
36.531	16.769	16386	17603	0	636
38.298	19.005	16386	16384	0	636
43.851	20.483	16385	15104	0	636
45.655	22.972	16384	13763	0	636
47.890	19.149	16384	12360	0	636
44.717	14.569	16384	11445	0	636
41.147	8.402	16384	11567	0	636
38.406	4.580	16384	12482	0	636
36.928	2.849	16384	13092	0	636
35.882	2.633	16384	13336	0	636
34.980	1.983	16384	14067	0	636
-84.529	-75.406	16389	13275	0	332
-79.950	-72.376	16390	13763	0	332
-77.389	-71.872	16390	12787	0	332
-77.353	-73.747	16388	8641	0	332
-81.789	-77.858	16384	1019	0	332
-85.864	-83.556	16379	0	0	332
-87.090	-85.828	16369	0	0	332
-80.527	-81.933	16361	0	0	332
-72.773	-77.497	16354	0	0	332
-66.318	-72.268	16349	0	0	332
-63.758	-67.400	16345	0	0	332
-63.361	-65.200	16341	0	0	332
-64.226	-65.633	16340	0	0	332
-64.551	-66.102	16339	0	0	332
-65.849	-69.672	16339	0	1	316
-66.571	-70.393	16339	0	0	316
-65.705	-69.059	16340	0	0	316
-64.371	-64.731	16342	1750	0	316
-63.974	-62.640	16344	10348	0	316
-63.722	-61.486	16347	18396	0	316
-65.885	-64.803	16349	25896	0	316
-70.069	-69.636	16352	32767	0	316
-69.636	-70.357	16354	32767	0	316
-64.912	-70.069	16358	32767	0	316
-60.440	-67.616	16361	32767	0	316
-59.611	-65.741	16365	32767	0	316
-59.430	-64.443	16368	32767	0	316
-59.142	-62.856	16372	32767	0	316
-56.798	-60.007	16375	32767	0	316
-50.270	-56.221	16379	32767	0	316
-47.566	-55.139	16384	32767	0	316
-50.739	-57.591	16386	32767	0	316
-61.378	-59.286	16390	32767	0	316
-70.177	-62.676	16393	32767	0	316
-72.809	-61.666	16397	32767	0	316
-68.915	-58.240	16399	32767	0	316
-64.118	-58.889	16401	32767	0	316
-60.656	-62.063	16403	32767	0	316
-63.722	-68.301	16404	32767	0	316
-71.944	-74.071	16405	32767	0	316
-76.848	-77.786	16406	32767	0	316
-77.281	-76.812	16406	32767	0	316
-71.150	-72.232	16406	30896	0	316
-62.964	-67.039	16404	21262	0	316
-59.142	-65.308	16399	9189	0	316
-61.594	-64.803	16395	0	0	316
-68.049	-68.806	16389	0	0	316
-73.422	-71.223	16384	0	0	316
-74.144	-70.646	16379	0	0	316
-68.590	-68.121	16375	0	0	316
-65.020	-64.443	16373	0	0	316
-62.748	-62.099	16370	0	0	316
-66.066	-63.722	16369	0	0	316
-71.655	-64.407	16369	0	0	316
-76.235	-66.210	16370	0	0	316
-77.353	-71.547	16370	0	0	316
-77.209	-74.071	16368	0	0	316
-74.468	-77.353	16366	0	0	316
-72.521	-78.723	16365	0	0	316
-71.439	-75.442	16364	0	0	316
-70.862	-72.521	16364	0	0	316
-68.734	-68.915	16361	0	0	316
-64.335	-64.118	16357	0	0	316
-58.997	-60.765	16352	0	0	316
-50.307	-55.283	16347	0	0	316
-45.222	-49.802	16343	0	0	316
-40.353	-46.772	16340	0	0	316
-38.911	-45.546	16338	0	0	316
-38.406	-45.582	16335	0	0	316
-40.462	-50.379	16332	0	0	316
-43.635	-54.309	16330	0	0	316
-51.821	-63.577	16329	0	0	316
-60.296	-71.511	16330	0	0	316
-67.508	-76.920	16331	7421	0	316
-69.708	-78.615	16331	14433	0	316
-65.813	-73.999	16330	17786	0	316
-60.332	-66.823	16329	18335	0	316
-53.119	-62.063	16330	20347	0	316
-48.107	-58.168	16330	24066	0	316
-43.347	-56.617	16329	25835	0	316
-40.966	-58.348	16328	25591	0	316
-37.360	-56.401	16329	27237	0	316
-37.072	-54.382	16331	32298	0	316
-33.718	-49.080	16334	32767	0	316
-31.049	-46.484	16338	32767	0	316
-29.499	-45.943	16342	32767	0	316
-30.148	-50.487	16347	32767	0	316
-33.069	-54.959	16352	32767	0	316
-38.550	-55.031	16357	32767	0	316
-41.580	-51.064	16362	32767	0	316
-41.760	-46.051	16367	32767	0	316
-39.668	-44.645	16366	32767	0	316
-37.577	-44.104	16364	32767	0	316
-35.990	-47.133	16363	32767	0	316
-37.396	-50.559	16361	32767	0	316
-41.327	-52.254	16359	32603	1	324
-47.205	-55.716	16355	23579	0	324
-49.405	-57.519	16349	9616	0	324
-52.398	-60.079	16343	0	0	324
-48.936	-57.843	16339	0	0	324
-46.809	-56.113	16337	0	0	324
-44.248	-55.716	16336	0	0	324
-40.822	-52.867	16335	0	0	324
-39.704	-53.155	16333	0	0	324
-38.190	-52.290	16327	0	0	324
-35.918	-52.110	16320	0	0	324
-36.062	-50.667	16315	0	0	324
-35.665	-51.785	16313	0	0	324
-37.505	-50.811	16311	0	0	324
-38.695	-52.038	16312	0	0	324
-40.389	-50.739	16313	0	0	324
-42.589	-54.742	16317	1019	0	324
-43.310	-55.536	16321	13580	0	324
-43.707	-58.709	16327	25774	0	324
-43.310	-57.339	16331	32767	0	324
-39.199	-55.247	16334	32767	0	324
-34.656	-49.261	16336	32767	0	324
-29.607	-45.799	16339	32767	0	324
-26.758	-41.111	16343	32767	0	324
-26.289	-38.658	16346	32767	0	324
-27.299	-38.911	16347	32767	0	324
-30.581	-38.550	16345	32767	0	324
-31.807	-41.327	16343	32767	0	324
-33.466	-44.573	16343	32176	0	324
-34.656	-46.520	16344	31749	0	324
-34.439	-45.294	16346	32767	0	324
-35.557	-45.078	16349	32767	0	324
-36.639	-42.950	16352	32767	0	324
-36.891	-40.029	16352	32767	0	324
-36.206	-40.534	16353	32767	0	324
-33.177	-40.642	16351	29737	0	324
-27.804	-38.334	16351	24127	0	324
-24.017	-38.298	16351	22176	0	324
-24.666	-37.901	16354	24737	0	324
-29.931	-39.776	16358	29371	0	324
-39.199	-41.976	16360	32767	0	324
-48.431	-44.717	16362	32767	0	324
-51.064	-45.222	16363	31627	0	324
-49.730	-45.258	16365	31018	0	324
-43.960	-44.861	16367	31627	0	324
-38.875	-42.842	16366	28274	0	324
-36.891	-41.291	16363	18884	0	324
-36.459	-37.829	16360	8763	0	324
-35.918	-32.997	16358	3580	0	324
-31.518	-26.614	16359	3214	0	324
-26.145	-22.214	16359	5226	0	324
-22.250	-22.575	16360	7482	0	324
-23.693	-23.404	16359	6019	0	324
-29.138	-27.119	16354	0	0	324
-35.197	-29.787	16350	0	0	324
-35.629	-26.361	16345	0	0	324
-31.626	-22.467	16341	0	0	324
-30.148	-18.897	16339	0	0	324
-30.581	-21.457	16339	0	0	324
-36.387	-23.801	16339	0	0	324
-42.193	-27.948	16339	0	0	324
-43.310	-29.499	16339	0	0	324
-40.317	-30.581	16339	0	0	324
-37.505	-27.443	16339	1872	0	324
-35.521	-25.676	16339	3945	0	324
-36.387	-26.974	16340	6750	0	324
-41.724	-26.109	16339	9738	0	324
-43.996	-29.066	16340	11689	0	324
-44.356	-28.741	16341	15409	0	324
-41.039	-27.840	16343	20957	0	324
-37.865	-25.171	16344	24615	0	324
-36.928	-21.745	16344	24981	0	324
-38.911	-19.618	16343	22054	0	324
-40.714	-20.087	16339	15470	0	324
-38.695	-18.644	16336	9128	0	324
-33.610	-19.293	16335	8031	0	324
-30.869	-19.293	16336	11872	0	324
-33.105	-21.745	16337	16688	0	324
-37.901	-23.693	16337	19249	0	324
-42.481	-23.008	16338	19859	0	324
-41.327	-22.791	16339	21444	0	324
-37.252	-20.339	16339	22664	0	324
-33.970	-16.444	16338	21201	0	324
-32.672	-17.166	16335	17115	0	324
-31.049	-16.877	16331	10226	0	324
-29.246	-19.293	16329	4006	0	324
-27.551	-19.510	16329	3702	0	324
-25.604	-22.791	16329	9189	0	324
-27.587	-22.575	16333	17481	0	324
-30.977	-22.286	16337	26871	0	324
-29.823	-19.618	16341	32767	0	324
-26.650	-15.002	16345	32767	0	324
-23.476	-13.812	16348	32767	0	324
-24.378	-14.821	16352	32767	0	324
-27.407	-16.552	16358	32767	0	324
-32.780	-19.077	16364	32767	0	324
-33.862	-16.084	16370	32767	0	324
-30.256	-12.369	16378	32767	0	324
-24.594	-6.491	16384	32767	0	324
-21.096	-5.121	16386	32767	0	324
-19.005	-3.282	16388	32767	0	324
-17.526	-4.219	16388	32767	0	324
-15.290	-1.623	16384	32767	0	324
-10.530	1.803	16380	29981	1	412
-2.272	7.753	16375	13641	0	412
2.308	15.218	16371	2848	0	412
4.508	17.093	16366	0	0	412
3.462	17.923	16358	0	0	412
-1.010	14.713	16353	0	0	412
-7.176	11.107	16349	0	0	412
-11.937	6.455	16349	0	0	412
-17.418	-0.721	16349	0	0	412
-20.952	-8.114	16351	0	0	412
-24.991	-14.930	16354	0	0	412
-23.585	-18.897	16354	0	0	412
-19.978	-14.317	16353	0	0	412
-18.031	-8.691	16352	0	0	412
-13.487	-3.895	16353	0	0	412
-13.740	-2.633	16355	4006	0	412
-14.100	-2.993	16355	8031	0	412
-12.045	-3.101	16356	10409	0	412
-12.802	-1.082	16358	15348	0	412
-15.002	2.993	16363	23213	0	412
-18.247	4.688	16367	31932	0	412
-24.630	3.895	16371	32767	0	412
-27.443	-0.216	16374	32767	0	412
-28.886	-3.570	16377	32767	0	412
-23.080	-5.698	16379	32767	0	412
-19.257	-7.393	16378	32767	0	412
-14.461	-4.904	16376	32767	0	412
-12.910	-1.803	16373	23335	0	412
-10.350	3.282	16368	13580	0	412
-9.737	8.907	16363	2238	0	412
-3.859	15.218	16356	0	0	412
0.757	13.379	16351	0	0	412
2.741	9.268	16347	0	0	412
1.623	2.777	16344	0	0	412
-2.741	-3.462	16344	0	0	412
-5.950	-4.075	16346	0	0	412
-9.773	-1.659	16348	0	0	412
-10.494	-0.144	16353	9433	0	412
-9.881	1.226	16358	21018	0	412
-6.527	2.056	16364	32725	0	412
-1.118	3.931	16370	32767	0	412
4.400	7.248	16377	32767	0	412
10.494	9.917	16384	32767	0	412
12.550	12.586	16390	32767	0	412
14.281	12.658	16395	32767	0	412
9.016	10.819	16399	32767	0	412
4.977	7.934	16404	32767	0	412
-0.252	6.275	16409	32767	0	412
-2.524	6.131	16415	32767	0	412
0.974	11.035	16421	32767	0	412
7.393	15.074	16427	32767	0	412
12.838	20.664	16431	32767	0	412
14.461	19.942	16433	32767	0	412
14.785	20.952	16431	32767	0	412
13.487	21.313	16428	32767	0	412
14.028	22.467	16428	30713	0	412
17.815	25.243	16427	24066	0	412
19.546	22.611	16427	19493	0	412
19.005	16.913	16428	16384	0	412
13.992	11.937	16430	14494	0	412
8.475	7.789	16431	12482	0	412
2.128	5.229	16429	7665	0	412
-3.895	6.275	16426	0	0	412
-3.390	6.239	16423	0	0	412
-3.282	8.330	16420	0	0	412
0.216	12.081	16417	0	0	412
3.210	14.569	16413	0	0	412
3.859	15.182	16409	0	0	412
2.741	9.737	16408	0	0	412
0.288	3.390	16407	0	0	412
1.010	0.072	16408	0	0	412
2.633	0.397	16409	0	0	412
4.075	3.678	16412	0	0	412
3.101	4.616	16413	0	0	412
0.325	4.472	16413	0	0	412
-6.852	3.750	16408	0	0	412
-11.864	1.695	16405	0	0	412
-12.874	3.173	16403	0	0	412
-12.477	3.714	16401	0	0	412
-10.746	1.767	16398	0	1	316
-7.898	1.406	16394	0	0	316
-9.124	0.721	16393	0	0	316
-9.160	2.813	16391	0	0	316
-8.366	4.291	16388	0	0	316
-5.481	3.931	16384	0	0	316
-3.137	2.092	16380	0	0	316
-1.118	-2.596	16374	0	0	316
-3.570	-3.390	16367	0	0	316
-6.852	-5.157	16364	0	0	316
-9.196	-4.544	16361	0	0	316
-9.088	-3.210	16357	0	0	316
-6.527	-0.793	16355	0	0	316
-5.445	0.108	16354	0	0	316
-5.085	1.479	16356	0	0	316
-5.914	3.931	16358	6019	0	316
-4.400	5.770	16362	18213	0	316
0.974	8.763	16365	29981	0	316
5.806	12.477	16368	32767	0	316
10.061	13.559	16370	32767	0	316
7.825	9.124	16368	32767	0	316
2.056	5.445	16365	32767	0	316
-5.193	2.488	16364	28884	0	316
-10.169	0.036	16363	27420	0	316
-10.242	1.190	16363	30530	0	316
-3.967	1.010	16364	32767	0	316
1.010	0.180	16363	32767	0	316
3.750	-0.649	16359	27542	0	316
3.426	-1.082	16353	16444	0	316
2.416	0.433	16349	7787	0	316
1.406	2.596	16346	5409	0	316
4.039	4.508	16346	7360	0	316
5.878	4.147	16344	8519	0	316
8.006	3.859	16343	8641	0	316
9.592	3.967	16342	10653	0	316
11.900	5.950	16341	13092	0	316
14.785	10.746	16340	13458	0	316
17.166	14.389	16338	11750	0	316
16.156	14.100	16334	7726	0	316
16.516	14.569	16331	3580	0	316
14.245	12.730	16328	1202	0	316
12.982	12.297	16325	0	0	316
11.648	12.622	16322	0	0	316
9.592	13.018	16317	0	0	316
9.520	12.766	16311	0	0	316
8.943	15.362	16304	0	0	316
8.006	15.471	16298	0	0	316
10.422	17.670	16293	0	0	316
14.894	16.733	16288	0	0	316
18.897	18.067	16284	0	0	316
24.702	19.546	16283	0	0	316
26.073	24.414	16281	0	0	316
24.089	29.354	16278	0	0	316
24.017	30.941	16276	0	0	316
23.224	31.554	16273	0	0	316
23.296	31.374	16269	0	0	316
25.063	31.771	16265	0	0	316
24.017	32.853	16263	0	0	316
23.621	32.708	16260	0	0	316
24.342	29.210	16256	0	0	316
21.781	24.450	16255	1445	0	316
20.411	20.844	16254	6628	0	316
19.149	21.998	16255	14860	0	316
17.923	24.414	16259	26444	0	316
21.781	24.775	16262	32767	0	316
22.719	25.316	16265	32767	0	316
22.070	23.008	16267	32767	0	316
22.467	21.421	16269	32767	0	316
18.897	23.981	16272	32767	0	316
20.519	28.056	16275	32767	0	316
20.050	30.184	16277	32767	0	316
21.854	30.400	16279	32767	0	316
21.313	28.092	16283	32767	0	316
20.087	25.965	16289	32767	0	316
21.421	24.414	16297	32767	0	316
21.132	25.784	16306	32767	0	316
24.125	27.948	16312	32767	0	316
22.503	30.040	16318	32767	0	316
18.608	27.551	16323	32767	0	316
14.894	26.145	16329	32767	0	316
11.504	21.096	16334	32767	0	316
10.999	17.129	16339	32767	1	324
11.504	10.855	16344	32767	0	324
9.088	9.665	16347	32767	0	324
5.914	9.016	16349	32767	0	324
0.613	10.746	16350	32767	0	324
-1.190	12.261	16351	32767	0	324
-3.426	13.163	16349	32767	0	324
-5.013	10.206	16349	32767	0	324
-7.285	7.573	16348	24188	0	324
-8.222	7.573	16347	16932	0	324
-6.816	12.153	16347	11445	0	324
-2.308	15.975	16348	7421	0	324
4.580	20.844	16348	4799	0	324
10.314	20.375	16347	1567	0	324
12.441	17.995	16345	0	0	324
11.540	13.307	16341	0	0	324
7.212	10.999	16336	0	0	324
2.849	11.287	16330	0	0	324
-0.144	10.855	16322	0	0	324
-1.082	13.631	16315	0	0	324
-0.902	13.956	16307	0	0	324
-0.216	15.975	16299	0	0	324
0.577	17.634	16291	0	0	324
2.993	18.175	16286	0	0	324
3.426	19.041	16282	0	0	324
3.823	15.867	16276	0	0	324
2.596	14.245	16270	0	0	324
-0.649	9.556	16264	0	0	324
-3.714	5.770	16258	0	0	324
-8.258	2.272	16253	0	0	324
-10.999	-1.983	16246	0	0	324
-12.838	-2.596	16241	0	0	324
-12.982	-4.580	16234	0	0	324
-8.763	-2.128	16230	0	0	324
-4.796	0.216	16225	0	0	324
-1.839	2.344	16220	0	0	324
1.406	4.652	16216	0	0	324
2.308	5.301	16212	0	0	324
0.974	4.652	16209	0	0	324
3.282	5.121	16207	0	0	324
3.173	5.445	16209	0	0	324
2.560	8.114	16211	11324	0	324
0.829	8.907	16212	24859	0	324
-0.685	10.999	16214	32767	0	324
0.325	13.307	16216	32767	0	324
3.173	16.697	16218	32767	0	324
9.376	20.952	16220	32767	0	324
12.441	22.575	16222	32767	0	324
15.074	22.683	16223	32767	0	324
13.884	21.601	16224	32767	0	324
12.045	19.437	16225	32767	0	324
10.963	20.123	16226	32767	0	324
8.294	19.690	16228	32767	0	324
8.006	18.356	16229	32767	0	324
9.809	18.716	16231	32767	0	324
11.900	15.579	16235	32767	0	324
11.720	15.326	16240	32767	0	324
9.520	15.615	16245	32767	0	324
6.744	13.812	16252	32767	0	324
5.085	13.595	16260	32767	0	324
5.842	12.910	16269	32767	0	324
10.025	10.133	16278	32767	0	324
12.550	9.701	16285	32767	0	324
15.543	9.592	16290	32767	0	324
13.740	10.710	16296	32767	0	324
11.792	12.802	16300	32767	0	324
7.285	11.215	16303	32767	0	324
6.527	9.845	16306	32767	0	324
7.429	9.845	16309	32767	0	324
11.792	11.504	16309	32767	0	324
12.441	12.550	16310	32767	0	324
8.727	14.605	16311	32767	0	324
4.327	12.982	16313	32767	0	324
0.757	11.360	16317	32767	0	324
1.623	11.432	16319	32767	0	324
5.229	11.648	16320	29615	0	324
9.629	13.631	16321	23884	0	324
11.035	18.247	16324	21627	0	324
12.874	21.601	16328	23274	0	324
14.821	27.299	16334	26932	1	316
14.497	28.128	16339	31384	0	316
16.084	26.217	16346	32767	0	316
14.389	19.726	16353	32767	0	316
14.281	17.093	16360	32767	0	316
12.514	12.658	16366	32767	0	316
9.665	12.514	16370	32767	0	316
9.953	11.720	16374	32767	0	316
10.855	8.979	16380	32767	0	316
11.468	5.698	16386	32767	0	316
14.894	3.642	16396	32767	0	316
15.579	3.787	16403	32767	0	316
13.199	7.032	16409	32767	0	316
14.641	11.900	16417	32767	0	316
16.120	15.615	16426	32767	0	316
20.880	17.202	16433	32767	0	316
21.962	14.641	16440	32767	0	316
20.880	12.658	16446	32767	0	316
13.415	9.448	16449	32767	0	316
8.186	6.816	16449	32767	0	316
5.301	7.104	16449	31262	0	316
5.842	6.022	16450	20103	0	316
8.943	3.931	16450	11750	0	316
9.701	1.803	16451	6080	0	316
7.609	1.226	16453	3884	0	316
2.200	3.498	16455	2909	0	316
-0.252	7.717	16457	836	0	316
-2.524	11.179	16457	0	0	316
-1.911	13.343	16455	0	0	316
1.659	11.937	16453	0	0	316
2.308	10.314	16451	0	0	316
0.902	11.215	16448	0	0	316
-2.380	9.412	16443	0	0	316
-5.445	7.934	16437	0	0	316
-4.291	8.258	16430	0	0	316
-3.282	8.078	16421	0	0	316
-0.974	9.701	16412	0	0	316
0.433	9.052	16404	0	0	316
0.721	8.150	16397	0	0	316
1.515	5.554	16392	0	0	316
3.318	5.914	16389	0	0	316
3.859	7.681	16386	0	0	316
2.705	11.504	16384	0	0	316
-0.649	12.297	16380	0	0	316
-2.777	10.638	16376	0	0	316
-4.436	8.186	16375	0	0	316
-3.029	6.419	16376	0	0	316
0.974	7.934	16378	0	0	316
4.868	11.937	16380	0	0	316
6.167	13.884	16381	3092	0	316
4.616	16.300	16382	11080	0	316
3.714	13.054	16384	19066	0	316
3.534	8.294	16390	31932	0	316
5.986	8.547	16396	32767	0	316
10.169	9.773	16401	32767	0	316
13.487	11.504	16403	32767	0	316
12.514	14.713	16404	32767	0	316
11.215	16.516	16403	32767	0	316
9.052	15.218	16399	32767	0	316
4.977	16.877	16396	32767	0	316
2.560	12.910	16390	27481	0	316
1.442	11.900	16386	18213	0	316
2.092	8.763	16384	13031	0	316
1.875	6.347	16382	11811	0	316
-0.397	6.563	16381	12970	0	316
-4.003	8.258	16382	15897	0	316
-10.278	7.176	16383	20225	0	316
-10.927	7.032	16384	23944	0	316
-7.789	7.753	16383	24310	0	316
0.397	10.638	16381	21323	0	316
6.203	12.009	16379	16627	0	316
8.619	10.278	16377	12055	0	316
4.760	8.583	16375	10043	0	316
1.046	4.724	16373	10287	0	316
-0.397	4.580	16370	8702	0	316
1.983	8.222	16367	4067	0	316
6.924	14.317	16363	0	0	316
9.376	17.743	16358	0	0	316
9.016	16.480	16352	0	0	316
6.347	15.254	16346	0	1	316
3.534	12.189	16340	0	0	316
5.301	9.917	16334	0	0	316
8.114	12.910	16328	0	0	316
12.802	15.471	16323	0	0	316
14.894	17.382	16317	0	0	316
14.713	17.743	16311	0	0	316
12.297	14.425	16307	0	0	316
5.517	10.278	16306	0	0	316
-1.515	5.698	16304	0	0	316
-8.475	3.678	16304	0	0	316
-11.612	3.787	16302	0	0	316
-7.104	8.006	16302	287	0	316
0.793	14.785	16300	5165	0	316
8.655	16.841	16299	9067	0	316
10.422	17.274	16298	12726	0	316
7.032	13.992	16297	16324	0	316
5.590	14.425	16296	19249	0	316
6.599	17.346	16296	21749	0	316
11.468	21.962	16295	24188	0	316
15.903	24.198	16294	26688	0	316
16.625	23.152	16293	28579	0	316
16.444	18.500	16293	29920	0	316
12.874	18.067	16293	32176	0	316
13.956	19.257	16296	32767	0	316
15.471	20.627	16299	32767	0	316
19.473	22.827	16302	32767	0	316
20.411	20.916	16303	32767	0	316
20.808	19.401	16306	32767	0	316
16.372	14.930	16306	32767	0	316
13.091	13.992	16309	32767	0	316
11.035	14.028	16313	32767	0	316
11.287	19.365	16316	32767	0	316
15.759	25.243	16319	32767	0	316
17.526	31.410	16322	32767	0	316
21.241	34.331	16323	32767	0	316
19.113	32.059	16326	32767	0	316
17.670	29.138	16330	32767	0	316
15.218	26.722	16334	32767	0	316
16.913	28.525	16337	32767	0	316
18.464	32.023	16340	32767	0	316
22.395	34.836	16342	32767	0	316
20.627	33.682	16343	32767	0	316
17.887	29.859	16344	32767	0	316
13.127	26.542	16345	32767	0	316
11.973	26.037	16345	32767	0	316
10.422	26.433	16344	31871	0	316
9.304	26.938	16344	25713	0	316
8.475	24.811	16343	19737	0	316
7.212	19.510	16341	14006	0	316
4.832	15.146	16340	8397	0	316
4.796	12.910	16338	3336	0	316
3.534	11.900	16336	0	0	316
0.577	11.468	16336	0	0	316
-0.433	11.360	16337	0	0	316
0.613	11.720	16339	2421	0	316
3.065	11.612	16340	5958	0	316
9.124	15.146	16342	8031	0	316
15.362	20.159	16346	12543	0	316
17.129	21.673	16349	19127	0	316
17.815	22.286	16352	23457	0	316
15.615	22.214	16354	24249	0	316
15.002	17.743	16354	23396	0	316
13.523	14.930	16355	21749	0	316
12.117	10.350	16355	19554	0	316
6.455	5.409	16356	17359	0	316
-1.298	2.596	16356	16384	0	316
-6.275	2.019	16359	18640	0	316
-9.016	4.940	16362	23274	0	316
-4.688	8.258	16364	26505	0	316
1.154	11.179	16366	26810	0	316
8.042	14.785	16366	25347	0	316
12.838	16.661	16366	22603	0	316
12.045	15.146	16367	19005	0	316
8.907	14.966	16366	16202	0	316
4.616	10.169	16368	16688	0	316
0.685	6.311	16371	19920	0	316
0.541	3.714	16371	21384	0	316
4.291	4.364	16372	19554	0	316
10.278	8.006	16371	16324	1	316
15.435	12.405	16370	12543	0	316
20.159	15.903	16368	8275	0	316
17.743	17.887	16366	3824	0	316
13.704	15.471	16364	0	0	316
9.412	15.975	16362	0	0	316
7.934	16.552	16360	0	0	316
11.756	19.077	16356	0	0	316
12.982	17.851	16354	0	0	316
10.638	16.264	16350	0	0	316
6.924	12.225	16348	0	0	316
2.416	12.117	16345	0	0	316
0.865	12.802	16343	0	0	316
1.190	13.992	16341	0	0	316
0.469	14.749	16339	0	0	316
0.252	10.963	16338	0	0	316
2.488	10.314	16337	0	0	316
6.419	12.766	16336	0	0	316
12.766	16.084	16336	0	0	316
18.969	21.349	16335	0	0	316
19.473	21.168	16335	3275	0	316
20.159	20.519	16335	6384	0	316
16.913	15.723	16335	8945	0	316
15.398	15.110	16334	11202	0	316
13.631	14.425	16334	13275	0	316
15.615	19.654	16334	15104	0	316
15.867	21.132	16334	16627	0	316
14.641	21.601	16334	18091	0	316
11.648	16.877	16333	19188	0	316
6.599	13.595	16333	20164	0	316
4.616	8.763	16333	20896	0	316
4.111	9.953	16333	21627	0	316
6.455	10.494	16333	22298	0	316
9.809	9.773	16333	23030	0	316
13.054	11.396	16333	23762	0	316
17.526	15.543	16333	24676	0	316
19.185	18.175	16333	26018	0	316
21.096	22.395	16334	27542	0	316
16.156	17.959	16334	28762	0	316
11.973	12.153	16335	29493	0	316
8.439	7.176	16336	30652	0	316
7.176	8.907	16338	32603	0	316
10.566	17.093	16340	32767	0	316
14.461	22.899	16341	32767	0	316
12.297	24.450	16342	32767	0	316
8.799	19.726	16346	32767	0	316
5.373	11.648	16350	32767	0	316
7.429	9.737	16355	32767	0	316
11.504	13.091	16359	32767	0	316
18.139	17.418	16362	32767	0	316
20.555	22.214	16365	32767	0	316
14.064	19.437	16367	32767	0	316
11.360	17.021	16369	32767	0	316
7.789	12.946	16370	32767	0	316
9.484	15.435	16371	32767	0	316
14.966	21.096	16371	32767	0	316
19.690	27.155	16371	32767	0	316
23.765	31.230	16371	28091	0	316
24.486	32.167	16370	23213	0	316
21.745	29.318	16369	18640	0	316
19.365	26.578	16369	14738	0	316
15.254	26.542	16368	11628	0	316
15.795	25.460	16368	9311	0	316
17.634	25.604	16367	7238	0	316
22.142	24.414	16367	5226	0	316
21.962	23.296	16367	3945	0	316
21.926	20.195	16366	3214	0	316
17.202	20.050	16366	2482	0	316
14.172	18.283	16366	1750	0	316
9.556	18.283	16365	1506	0	316
9.701	16.625	16365	1689	0	316
9.016	16.697	16365	1750	0	316
8.835	13.920	16365	2726	0	316
9.412	15.759	16368	7177	0	316
10.494	15.615	16372	14250	0	316
9.088	18.320	16375	20652	0	316
6.419	17.562	16380	27603	0	316
5.554	17.670	16384	32767	0	316
4.364	15.218	16387	32767	0	316
7.681	16.985	16391	32767	0	316
13.343	18.644	16396	32767	0	316
17.057	24.234	16402	32767	0	316
20.159	28.020	16406	32767	0	316
19.546	31.049	16412	32767	0	316
20.195	31.482	16418	32767	0	316
21.529	30.364	16426	32767	0	316
21.168	29.030	16432	32767	0	316
24.234	28.741	16435	32767	0	316
23.404	28.669	16438	32767	0	316
24.125	28.922	16439	32767	0	316
25.784	28.056	16440	32767	0	316
24.342	26.902	16439	32767	1	364
23.188	24.558	16437	29310	0	364
23.224	21.457	16435	18518	0	364
18.103	16.336	16433	8397	0	364
13.379	8.763	16430	104	0	364
7.248	4.472	16430	0	0	364
3.498	3.606	16430	0	0	364
3.570	7.321	16428	0	0	364
7.104	14.821	16426	0	0	364
12.117	20.267	16424	0	0	364
15.615	22.034	16421	0	0	364
19.870	23.188	16418	0	0	364
20.339	20.880	16417	0	0	364
20.447	21.024	16418	0	0	364
16.408	18.788	16415	0	0	364
13.343	17.706	16414	0	0	364
10.061	18.247	16411	0	0	364
13.054	17.887	16408	0	0	364
16.336	20.483	16404	0	0	364
18.247	20.844	16401	0	0	364
19.077	21.998	16397	0	0	364
17.743	19.762	16393	0	0	364
18.969	20.916	16389	0	0	364
19.798	20.483	16385	0	0	364
24.847	22.539	16383	0	0	364
31.158	26.758	16379	0	0	364
34.403	32.095	16375	0	0	364
37.000	35.088	16372	0	0	364
35.918	36.459	16369	0	0	364
31.230	32.564	16367	0	0	364
27.948	27.660	16364	0	0	364
24.234	24.342	16362	0	0	364
21.673	23.693	16360	0	0	364
22.358	23.080	16358	0	0	364
20.123	22.755	16356	0	0	364
22.503	24.162	16354	0	0	364
25.027	22.250	16354	3092	0	364
26.361	21.277	16356	10897	0	364
27.624	22.827	16358	20957	0	364
28.669	21.421	16359	28944	0	364
28.669	23.152	16361	32767	0	364
27.010	25.099	16362	32767	0	364
26.145	26.938	16366	32767	0	364
25.352	24.739	16370	32767	0	364
24.775	23.440	16373	32767	0	364
21.457	19.041	16375	32767	0	364
19.185	16.985	16377	32767	0	364
14.677	15.146	16378	32767	0	364
14.966	18.464	16378	32767	0	364
17.815	21.529	16378	32767	0	364
24.558	25.171	16378	32767	0	364
28.705	27.191	16377	32767	0	364
28.056	25.712	16377	32767	0	364
25.207	24.198	16376	32767	0	364
23.621	24.089	16375	32481	0	364
22.503	27.083	16375	28762	0	364
23.585	28.164	16373	24920	0	364
26.397	28.201	16372	21688	0	364
28.561	26.578	16371	19127	0	364
29.535	25.460	16370	16505	0	364
30.977	23.476	16369	13945	0	364
28.453	24.306	16367	11994	0	364
26.506	24.811	16367	10653	0	364
24.306	22.286	16366	9372	0	364
23.549	20.952	16364	7970	0	364
26.037	23.621	16364	6689	0	364
30.472	24.378	16362	5470	0	364
32.672	26.506	16361	4555	0	364
34.583	27.191	16361	5165	0	364
34.115	27.660	16363	9799	0	364
33.754	27.948	16366	17237	0	364
32.961	30.472	16368	23091	0	364
33.213	31.410	16369	25591	0	364
31.915	29.823	16371	26566	0	364
29.859	26.253	16372	26749	0	364
26.830	21.385	16372	26079	0	364
26.181	20.844	16371	24737	0	364
26.253	20.267	16371	23030	0	364
25.784	19.690	16371	21688	0	364
25.856	21.204	16372	20591	0	364
27.083	22.503	16371	19371	0	364
28.814	24.234	16370	17847	0	364
29.931	27.299	16370	16627	0	364
28.020	25.316	16370	15775	0	364
22.575	20.411	16369	14616	0	364
17.851	15.903	16368	13336	0	364
15.471	13.127	16368	12665	0	364
19.618	18.031	16368	12482	0	364
24.270	23.837	16367	12177	0	364
28.417	28.489	16367	11384	0	364
27.263	28.597	16366	10287	0	364
22.539	23.476	16364	9189	0	364
19.401	18.428	16364	8153	0	364
17.562	17.887	16363	7299	0	364
19.546	18.247	16363	7970	0	364
22.863	22.647	16365	12482	0	364
24.630	24.522	16368	19798	0	364
24.306	25.424	16370	25347	0	364
24.955	27.948	16372	27664	0	364
26.001	30.076	16373	28396	0	364
28.525	31.338	16374	28457	0	364
30.833	31.085	16374	27847	0	364
30.112	29.246	16375	26810	0	364
29.499	26.325	16375	25713	0	364
26.073	25.568	16377	25896	0	364
25.496	22.827	16380	29249	0	364
23.909	18.608	16383	32767	0	364
22.358	15.615	16385	32767	0	364
17.743	12.441	16388	32767	0	364
14.028	10.530	16390	32767	0	364
10.242	13.848	16392	32767	0	364
7.717	14.172	16393	32767	0	364
10.386	15.723	16394	32767	0	364
12.189	19.473	16394	32359	0	364
14.245	20.339	16393	28152	0	364
16.949	20.700	16392	23518	0	364
17.454	20.195	16391	18762	0	364
18.572	15.074	16390	14067	0	364
16.300	10.566	16388	9494	0	364
18.428	7.248	16386	5226	0	364
18.897	8.186	16385	1445	0	364
24.162	14.245	16384	0	0	364
27.804	22.358	16382	0	0	364
31.122	25.243	16379	0	0	364
32.600	23.873	16377	0	0	364
32.167	21.890	16375	0	0	364
34.043	21.457	16373	0	0	364
35.269	25.460	16371	0	0	364
36.964	32.816	16370	0	0	364
38.118	37.144	16368	0	0	364
39.849	37.000	16367	0	0	364
40.930	33.934	16365	0	0	364
39.776	30.148	16365	0	0	364
37.252	26.397	16365	0	0	364
34.187	23.080	16364	0	0	364
30.833	21.709	16364	1384	0	364
27.984	23.981	16363	3884	0	364
27.515	22.972	16363	6628	0	364
28.525	22.503	16363	8884	0	364
28.669	20.411	16363	10775	0	364
31.843	16.697	16363	12909	0	364
30.977	17.057	16363	15165	0	364
29.895	17.598	16363	16932	0	364
28.453	23.224	16363	18274	0	364
29.931	25.820	16363	19310	0	364
32.780	27.840	16363	20164	0	364
36.855	28.128	16363	20774	0	364
38.911	29.607	16362	21323	0	364
39.957	30.220	16363	21871	0	364
39.416	30.184	16362	22176	0	364
37.793	30.004	16362	22115	0	364
35.341	27.119	16363	21871	0	364
33.466	26.109	16361	21627	0	364
31.122	23.116	16362	21444	0	364
31.446	23.945	16361	21262	0	364
33.141	23.152	16362	21201	0	364
31.915	22.467	16361	21384	0	364
33.682	24.883	16362	22054	0	364
34.511	30.220	16362	23030	0	364
37.108	35.305	16362	23823	0	364
39.488	37.577	16363	24188	0	364
38.767	35.305	16363	24432	0	364
36.314	29.968	16364	24920	0	364
32.889	23.549	16365	25835	0	364
31.410	20.159	16365	26688	0	364
30.797	21.637	16367	27725	0	364
30.977	23.080	16368	29249	0	364
29.607	23.116	16369	30652	0	364
28.453	25.099	16371	31140	0	364
29.174	24.955	16371	30774	0	364
31.915	24.522	16372	29981	0	364
34.439	24.775	16373	29005	0	364
30.761	22.178	16373	27847	0	364
25.279	18.067	16374	26505	0	364
17.021	15.939	16374	25103	0	364
12.766	13.848	16375	23762	0	364
11.432	14.281	16374	22481	0	364
16.372	16.697	16374	21201	0	364
17.418	15.471	16375	19920	0	364
18.067	16.877	16374	18640	0	364
14.497	13.776	16375	17298	0	364
10.061	13.668	16374	16384	0	364
7.573	10.927	16375	16019	0	364
8.583	10.133	16375	16202	0	364
10.206	10.061	16375	16019	0	364
16.408	12.405	16375	15409	0	364
17.310	14.317	16376	15043	0	364
17.057	16.805	16376	15165	0	364
15.543	16.625	16376	14982	0	364
12.658	16.733	16376	14616	0	364
13.559	14.749	16377	14738	0	364
13.595	14.749	16377	15775	0	364
14.064	13.343	16378	16871	0	364
12.189	9.412	16379	17237	0	364
7.970	10.314	16379	17054	0	364
4.327	10.927	16380	17786	0	364
5.229	12.261	16383	21993	0	364
7.537	13.992	16386	28640	0	364
10.855	13.127	16389	32767	0	364
9.520	8.943	16390	32767	0	364
7.465	8.547	16393	32767	0	364
4.255	10.350	16394	32767	0	364
4.400	12.441	16394	31140	0	364
9.484	18.103	16394	28518	0	364
12.514	20.700	16394	25469	1	816
17.923	23.621	16394	22237	0	816
18.644	23.729	16393	19005	0	816
20.700	23.693	16394	16932	0	816
21.277	24.666	16396	18640	0	816
20.916	22.647	16398	23152	0	816
18.536	22.935	16401	26140	0	816
18.716	21.457	16402	26018	0	816
16.408	19.329	16403	24554	0	816
19.221	20.339	16403	22359	0	816
21.745	21.637	16403	19676	0	816
22.683	23.837	16403	18152	0	816
23.080	26.073	16406	20469	0	816
18.680	21.745	16409	25103	0	816
15.435	18.283	16410	27786	0	816
10.458	11.396	16414	28823	0	816
10.710	10.746	16417	32237	0	816
12.225	11.504	16422	32767	0	816
13.018	15.795	16426	32767	0	816
17.887	20.267	16430	32767	0	816
18.283	22.286	16435	32767	0	816
21.781	21.204	16441	32767	0	816
20.591	21.781	16448	32767	0	816
21.132	21.385	16454	32767	0	816
21.890	21.926	16460	32767	0	816
22.358	24.270	16464	32767	0	816
24.775	23.909	16470	32767	0	816
27.479	26.145	16473	32767	0	816
29.679	28.273	16475	32767	0	816
32.636	28.669	16475	32767	0	816
35.990	31.266	16474	32767	0	816
36.964	30.004	16471	24615	0	816
33.826	26.217	16468	12360	0	816
28.381	24.270	16465	1628	0	816
23.621	20.014	16463	0	0	816
21.241	18.356	16461	0	0	816
20.591	16.372	16460	0	0	816
23.368	16.589	16456	0	0	816
22.899	13.127	16453	0	0	816
23.873	12.982	16449	0	0	816
25.099	11.432	16444	0	0	816
22.503	10.458	16440	0	0	816
19.906	10.674	16435	0	0	816
16.841	9.448	16430	0	0	816
14.497	10.206	16425	0	0	816
16.444	11.937	16423	0	0	816
20.087	15.254	16420	0	0	816
24.739	16.120	16417	0	0	816
28.056	19.834	16414	0	0	816
31.626	21.998	16410	0	0	816
35.197	27.047	16410	0	0	816
38.586	34.367	16408	0	0	816
42.012	39.776	16407	0	0	816
43.563	39.776	16407	0	0	816
45.114	37.108	16406	0	0	816
45.078	34.151	16407	0	0	816
44.933	32.816	16408	5897	0	816
45.907	34.764	16411	14189	0	816
47.890	39.668	16416	26871	0	816
50.126	43.274	16421	32767	0	816
50.811	42.878	16424	32767	0	816
52.290	41.471	16425	32767	0	816
49.802	37.865	16427	32767	0	816
51.677	37.685	16430	32767	0	816
51.388	39.993	16436	32767	0	816
52.074	42.084	16440	32767	0	816
49.477	42.697	16443	32767	0	816
47.097	39.488	16445	32767	0	816
42.950	34.043	16448	32767	0	816
38.658	30.256	16450	32767	0	816
34.800	26.181	16451	32767	0	816
30.977	23.080	16454	32767	0	816
30.581	22.972	16458	32767	0	816
33.970	21.998	16466	32767	0	816
39.091	23.008	16474	32767	0	816
40.894	24.847	16480	32767	0	816
39.596	22.286	16484	32767	0	816
34.439	19.978	16484	32767	0	816
29.210	21.673	16483	32767	0	816
27.840	23.080	16480	32767	0	816
30.436	26.830	16475	25530	1	320
33.321	28.020	16468	9250	0	320
36.459	27.479	16463	0	0	320
37.505	26.542	16458	0	0	320
35.449	27.696	16454	0	0	320
32.744	29.318	16448	0	0	320
31.122	28.705	16441	0	0	320
31.915	22.935	16435	0	0	320
32.997	16.516	16431	0	0	320
32.600	12.477	16427	0	0	320
30.040	11.756	16422	0	0	320
25.460	13.631	16417	0	0	320
22.178	17.274	16412	0	0	320
18.464	17.959	16406	0	0	320
17.851	19.221	16401	0	0	320
18.500	17.815	16395	0	0	320
17.851	18.031	16392	0	0	320
20.303	15.074	16391	0	0	320
17.959	10.025	16391	0	0	320
17.346	8.222	16391	0	0	320
14.028	3.859	16390	0	0	320
12.369	1.118	16387	0	0	320
12.658	1.262	16384	0	0	320
10.963	2.092	16382	0	0	320
9.881	3.895	16380	0	0	320
10.025	6.275	16380	0	0	320
9.629	5.157	16382	9677	0	320
10.530	5.554	16384	22725	0	320
10.999	3.282	16388	32767	0	320
8.439	0.974	16392	32767	0	320
3.210	0.685	16393	32767	0	320
-1.803	-2.524	16393	32767	0	320
-6.022	-4.327	16395	32767	0	320
-5.626	-6.058	16397	32767	0	320
-1.947	-3.895	16402	32767	0	320
3.678	-2.741	16406	32767	0	320
8.186	-0.252	16412	32767	0	320
8.330	0.974	16417	32767	0	320
8.114	2.164	16423	32767	0	320
6.888	2.236	16429	32767	0	320
7.970	0.469	16432	32767	0	320
9.809	3.426	16433	32767	0	320
11.071	4.472	16433	32767	0	320
11.756	7.212	16431	32767	0	320
10.927	7.645	16428	32767	0	320
6.563	5.986	16424	32767	0	320
4.291	0.757	16420	21505	0	320
0.397	-4.111	16418	13031	0	320
1.803	-6.383	16415	7665	0	320
2.488	-7.898	16411	1324	0	320
0.685	-7.321	16407	0	0	320
-3.390	-7.248	16402	0	0	320
-8.042	-6.671	16395	0	0	320
-9.484	-6.671	16390	0	0	320
-5.554	-6.094	16387	0	0	320
2.416	-2.308	16384	0	0	320
5.806	1.118	16383	0	0	320
8.222	6.347	16382	0	0	320
8.763	8.078	16381	0	0	320
7.862	7.465	16380	0	0	320
5.662	2.380	16378	0	0	320
-1.298	-6.924	16376	0	0	320
-7.501	-12.153	16372	0	0	320
-14.677	-15.723	16368	0	0	320
-18.392	-18.211	16365	0	0	320
-17.238	-15.543	16361	0	0	320
-16.552	-12.694	16358	0	0	320
-12.514	-12.730	16357	0	0	320
-14.028	-10.819	16357	0	0	320
-17.562	-12.622	16356	0	0	320
-25.063	-15.759	16354	1750	0	320
-29.607	-19.437	16354	4189	0	320
-31.735	-22.358	16355	9555	0	320
-29.643	-22.791	16357	18152	0	320
-26.830	-21.673	16361	28091	0	320
-29.030	-22.286	16364	32767	0	320
-32.023	-20.159	16365	32767	0	320
-34.620	-18.824	16366	32767	0	320
-33.610	-18.356	16367	32767	0	320
-30.797	-18.139	16369	32767	1	316
-27.551	-22.286	16373	32767	0	316
-25.604	-24.414	16377	32767	0	316
-24.847	-28.525	16381	32767	0	316
-25.171	-27.119	16383	32767	0	316
-27.660	-24.306	16383	32767	0	316
-32.276	-20.411	16384	32767	0	316
-33.429	-19.329	16386	32767	0	316
-32.384	-16.048	16387	32767	0	316
-27.948	-14.930	16389	32767	0	316
-21.745	-11.540	16388	32767	0	316
-20.627	-6.383	16387	32767	0	316
-23.693	-3.750	16386	32767	0	316
-25.568	-3.318	16384	25896	0	316
-24.811	-5.085	16383	18213	0	316
-20.700	-7.429	16379	10897	0	316
-17.057	-8.258	16375	3519	0	316
-20.555	-6.671	16372	0	0	316
-24.017	-5.121	16367	0	0	316
-25.820	-3.173	16363	0	0	316
-22.791	-0.325	16358	0	0	316
-13.668	3.065	16352	0	0	316
-9.665	5.914	16348	0	0	316
-12.730	7.645	16344	0	0	316
-18.283	5.842	16344	0	0	316
-26.181	2.669	16347	0	0	316
-27.551	0.829	16350	0	0	316
-21.204	3.859	16351	5043	0	316
-14.389	8.979	16353	9494	0	316
-5.914	14.785	16353	11933	0	316
-1.731	19.185	16352	13153	0	316
-2.633	20.123	16352	13824	0	316
-6.455	19.041	16350	14067	0	316
-8.763	16.408	16349	13519	0	316
-6.419	17.093	16348	12421	0	316
-2.128	15.903	16346	11506	0	316
4.255	18.356	16345	11263	0	316
6.491	19.257	16344	11019	0	316
3.173	20.483	16342	10470	0	316
1.479	20.844	16340	10043	0	316
2.560	21.926	16340	11141	0	316
7.465	25.532	16342	15714	0	316
12.730	24.739	16345	22542	0	316
13.487	24.378	16345	27542	0	316
10.999	23.116	16346	29127	0	316
6.455	19.257	16347	29005	0	316
6.960	20.952	16346	27969	0	316
6.058	23.621	16345	26201	0	316
3.029	21.601	16344	23884	0	316
-1.839	20.988	16343	21323	0	316
-5.770	16.480	16342	19859	0	316
-4.868	17.598	16344	22054	0	316
-0.361	19.582	16346	26993	0	316
3.354	20.916	16348	31566	0	316
-0.361	21.818	16352	32767	0	316
-5.878	20.808	16357	32767	0	316
-6.671	21.854	16360	32767	0	316
-3.173	24.414	16364	32767	0	316
3.354	28.777	16369	32767	0	316
6.239	29.102	16378	32767	0	316
2.885	28.020	16388	32767	0	316
-4.075	24.811	16402	32767	0	316
-8.799	19.726	16416	32767	0	316
-9.953	14.245	16428	32767	0	316
-7.753	7.970	16437	32767	0	316
-4.904	4.796	16445	32767	0	316
-4.364	6.058	16452	32767	0	316
-6.239	9.160	16457	32767	0	316
-10.494	10.422	16462	32767	0	316
-14.136	8.511	16466	32767	0	316
-13.307	6.708	16471	32767	0	316
-12.838	5.770	16474	32767	0	316
-10.422	8.727	16478	32767	0	316
-8.583	14.389	16483	32767	0	316
-8.366	19.365	16487	32767	0	316
-7.825	18.392	16491	32767	0	316
-6.022	15.074	16495	32767	0	316
-4.364	7.032	16498	32767	0	316
-6.527	1.515	16498	29493	0	316
-9.556	-1.983	16498	18640	1	316
-13.884	0.649	16497	8641	0	316
-14.858	6.022	16495	0	0	316
-14.966	8.330	16494	0	0	316
-9.412	7.753	16496	0	0	316
-5.373	4.183	16498	0	0	316
-5.157	-1.406	16500	0	0	316
-11.648	-6.780	16502	0	0	316
-19.473	-7.753	16502	0	0	316
-25.965	-6.131	16504	0	0	316
-23.909	-0.793	16506	0	0	316
-17.634	5.013	16507	0	0	316
-8.078	7.465	16505	0	0	316
-5.229	5.554	16504	0	0	316
-7.789	1.839	16504	0	0	316
-12.766	0.000	16502	0	0	316
-12.225	0.541	16500	0	0	316
-12.910	2.813	16499	0	0	316
-11.179	3.570	16501	0	0	316
-13.271	-0.865	16503	0	0	316
-17.418	-5.193	16506	0	0	316
-19.149	-10.025	16511	2543	0	316
-20.375	-11.179	16517	12970	0	316
-17.093	-9.845	16523	23457	0	316
-15.110	-5.049	16530	32767	0	316
-11.648	-2.019	16537	32767	0	316
-8.258	-0.433	16544	32767	0	316
-4.760	0.469	16552	32767	0	316
-3.967	0.361	16558	32767	0	316
-3.390	0.613	16564	32767	0	316
-3.137	2.596	16567	32767	0	316
0.216	5.337	16570	32767	0	316
4.940	7.898	16573	32767	0	316
6.671	8.042	16575	32767	0	316
5.517	8.258	16577	32767	0	316
0.469	8.150	16575	32767	0	316
-3.714	6.924	16572	23396	0	316
-4.327	7.032	16568	8275	0	316
1.334	6.996	16564	0	0	316
8.547	6.852	16562	0	0	316
14.569	7.789	16558	0	0	316
17.670	8.871	16555	0	0	316
14.497	10.206	16552	0	0	316
11.323	11.468	16547	0	0	316
7.573	13.415	16543	0	0	316
6.744	14.461	16540	0	0	316
5.445	17.057	16538	0	0	316
5.085	12.514	16535	0	0	316
2.200	8.943	16530	0	0	316
-0.505	6.131	16524	0	0	316
-2.452	5.337	16517	0	0	316
-4.580	7.212	16512	0	0	316
-7.068	8.042	16509	0	0	316
-8.402	6.022	16505	0	0	316
-8.763	4.327	16500	0	0	316
-3.173	5.409	16493	0	0	316
1.839	9.448	16485	0	0	316
4.111	10.855	16478	0	0	316
1.046	9.340	16471	0	0	316
-7.357	4.436	16466	0	0	316
-16.228	-1.551	16463	0	0	316
-20.375	-3.137	16458	0	0	316
-18.211	-1.947	16455	0	0	316
-13.451	1.046	16454	0	0	316
-8.078	2.236	16454	0	0	316
-5.337	0.361	16455	0	0	316
-8.835	-3.246	16458	11384	0	316
-14.569	-6.022	16461	25225	0	316
-18.175	-7.645	16466	32767	0	316
-20.339	-6.708	16471	32767	0	316
-16.913	-7.321	16476	32767	0	316
-15.254	-6.924	16481	32767	0	316
-13.559	-6.708	16485	32767	0	316
-15.723	-7.068	16487	32767	0	316
-15.975	-4.147	16488	32767	0	316
-16.516	-3.823	16489	32767	0	316
-14.389	-2.993	16491	32767	0	316
-12.081	-3.282	16494	32767	0	316
-12.514	-3.750	16495	32767	0	316
-12.045	-7.393	16494	32767	1	316
-14.677	-9.016	16494	32767	0	316
-17.021	-9.592	16493	32767	0	316
-15.254	-7.609	16492	32767	0	316
-13.740	-2.308	16493	32767	0	316
-9.124	1.298	16494	32767	0	316
-6.167	3.570	16496	32767	0	316
-8.258	4.075	16496	32767	0	316
-10.169	1.515	16495	32767	0	316
-12.730	-0.793	16492	27420	0	316
-14.569	-3.895	16487	16019	0	316
-14.713	-6.239	16479	897	0	316
-12.297	-8.042	16470	0	0	316
-13.235	-7.429	16461	0	0	316
-13.018	-6.203	16455	0	0	316
-12.297	-4.688	16450	0	0	316
-12.441	-4.472	16442	0	0	316
-11.035	-2.560	16434	0	0	316
-9.052	-1.839	16424	0	0	316
-5.157	-2.200	16416	0	0	316
-1.623	-1.587	16408	0	0	316
-1.298	-3.246	16403	0	0	316
-2.669	-4.760	16398	0	0	316
-5.770	-7.537	16394	0	0	316
-6.924	-6.419	16390	0	0	316
-4.977	-5.554	16388	0	0	316
-0.288	-1.587	16388	0	0	316
5.301	2.741	16389	0	0	316
8.042	4.039	16392	0	0	316
9.088	5.121	16395	13763	0	316
7.176	3.137	16398	26993	0	316
4.544	2.272	16401	32767	0	316
0.974	1.695	16401	32767	0	316
-0.180	2.380	16399	32767	0	316
0.180	0.793	16396	32767	0	316
1.947	0.325	16392	30225	0	316
1.839	-0.505	16388	25957	0	316
0.757	-0.216	16386	23213	0	316
-0.216	1.262	16385	23884	0	316
1.298	7.825	16386	29005	0	316
5.770	14.533	16387	32767	0	316
10.710	17.887	16388	32767	0	316
11.684	19.401	16388	32767	0	316
11.323	15.254	16390	32767	0	316
9.556	11.071	16392	32767	0	316
7.717	9.845	16391	32767	0	316
8.943	11.684	16389	32767	0	316
13.163	16.516	16385	32767	0	316
16.156	16.300	16384	27298	0	316
17.166	17.021	16380	21201	0	316
17.310	14.208	16376	15165	0	316
10.819	9.701	16373	10592	0	316
2.849	5.842	16372	10104	0	316
-2.488	4.111	16372	13031	0	316
-4.977	3.714	16370	14982	0	316
-0.469	7.681	16370	15592	0	316
6.094	11.900	16372	18884	0	316
13.848	17.129	16375	25896	0	316
15.362	16.228	16378	32767	0	316
14.100	13.668	16378	32767	0	316
7.176	8.475	16378	32767	0	316
1.118	5.265	16378	30347	0	316
-0.108	4.760	16378	29981	0	316
1.947	8.835	16377	29920	0	316
6.671	15.074	16379	29310	0	316
8.402	17.274	16381	32054	0	316
10.242	19.005	16384	32767	0	316
8.943	17.490	16388	32767	0	316
9.376	18.031	16394	32767	0	316
12.225	19.978	16400	32767	0	316
17.851	23.512	16407	32767	0	316
17.851	27.191	16412	32767	0	316
17.021	26.722	16416	32767	0	316
14.245	24.270	16415	32767	0	316
13.668	24.594	16415	32767	0	316
15.290	23.152	16416	32767	0	316
21.529	23.837	16417	32767	0	316
25.496	26.001	16417	32767	0	316
25.279	26.542	16415	30530	0	316
25.496	25.929	16412	20713	0	316
23.440	27.479	16408	10836	0	316
24.198	29.859	16404	0	0	316
28.633	29.751	16395	0	0	316
30.076	30.148	16387	0	0	316
28.020	26.397	16381	0	0	316
24.342	22.250	16376	0	0	316
19.906	19.870	16370	0	0	316
14.353	18.680	16366	0	0	316
14.389	24.162	16364	0	0	316
15.398	26.938	16361	0	0	316
17.382	30.148	16359	0	0	316
17.670	30.292	16356	0	0	316
21.132	30.941	16350	0	0	316
21.890	29.715	16344	0	0	316
23.440	31.230	16340	0	0	316
25.893	33.177	16339	0	0	316
26.686	35.918	16338	0	0	316
26.902	38.442	16337	0	0	316
27.515	39.524	16336	0	0	316
26.361	39.921	16336	0	0	316
24.883	40.101	16336	226	0	316
22.755	37.721	16338	8763	0	316
19.978	35.701	16342	20774	0	316
14.641	33.646	16347	32767	0	316
13.559	31.013	16354	32767	0	316
14.136	32.239	16361	32767	0	316
16.769	32.997	16369	32767	0	316
19.473	34.331	16377	32767	0	316
20.736	32.997	16385	32767	0	316
19.798	30.040	16394	32767	0	316
20.736	29.823	16403	32767	0	316
19.437	30.797	16411	32767	0	316
20.808	31.049	16416	32767	0	316
18.860	29.571	16422	32767	0	316
16.877	27.515	16427	32767	0	316
13.343	23.476	16433	32767	0	316
12.766	19.978	16439	32767	1	464
12.189	19.906	16445	32767	0	464
11.576	17.418	16452	32767	0	464
13.054	19.365	16458	32767	0	464
13.523	21.024	16464	32767	0	464
15.290	27.479	16469	32767	0	464
20.772	31.194	16472	32767	0	464
24.378	32.744	16473	32767	0	464
24.666	32.312	16475	32767	0	464
22.431	30.220	16477	32767	0	464
19.257	27.371	16478	32767	0	464
14.641	27.840	16480	32481	0	464
13.884	27.912	16482	26566	0	464
15.254	27.624	16484	21140	0	464
13.848	27.551	16485	16141	0	464
14.821	26.758	16486	11567	0	464
14.785	24.883	16487	7421	0	464
18.969	25.460	16488	3824	0	464
19.906	24.739	16489	531	0	464
21.024	25.243	16491	0	0	464
16.661	24.883	16489	0	0	464
14.930	26.542	16486	0	0	464
12.802	25.676	16483	0	0	464
17.670	25.496	16481	0	0	464
22.142	27.191	16479	0	0	464
26.830	26.325	16475	0	0	464
26.830	27.010	16470	0	0	464
24.486	27.660	16466	0	0	464
23.440	29.138	16462	0	0	464
24.017	31.590	16460	0	0	464
25.640	31.518	16457	0	0	464
27.263	31.879	16455	0	0	464
29.138	28.164	16455	0	0	464
28.020	23.008	16454	0	0	464
23.837	19.618	16454	0	0	464
19.834	17.202	16453	0	0	464
17.779	19.510	16454	0	0	464
14.461	18.320	16454	0	0	464
14.930	18.788	16453	0	0	464
15.435	20.591	16449	0	0	464
15.110	20.050	16447	0	0	464
19.510	25.604	16443	0	0	464
23.476	29.968	16441	0	0	464
28.345	32.997	16440	0	0	464
32.672	35.918	16439	0	0	464
35.124	37.721	16438	0	0	464
37.793	37.577	16438	2238	0	464
41.904	40.281	16438	6811	0	464
42.193	39.416	16439	11689	0	464
38.586	35.665	16440	16688	0	464
32.600	30.545	16441	21323	0	464
27.083	25.316	16442	25530	0	464
24.198	23.729	16444	29859	0	464
27.010	27.119	16446	32767	0	464
31.951	33.141	16448	32767	0	464
36.819	38.767	16450	32767	0	464
37.432	38.695	16451	32767	0	464
36.242	35.846	16453	32767	0	464
33.862	31.951	16455	32767	0	464
30.508	27.912	16456	32767	0	464
31.122	26.650	16456	32767	0	464
33.538	25.604	16457	32767	0	464
36.026	27.443	16457	32767	0	464
38.226	31.951	16456	32767	0	464
40.426	36.423	16456	32767	0	464
39.993	41.255	16456	30408	0	464
40.462	42.301	16455	27237	0	464
41.616	40.966	16455	24188	0	464
43.130	39.091	16454	21384	0	464
44.356	38.947	16453	18823	0	464
44.464	40.209	16452	16444	0	464
43.599	41.399	16451	14250	0	464
43.347	40.570	16451	12360	0	464
43.924	37.829	16450	11080	0	464
44.212	36.459	16449	10470	0	464
45.835	35.305	16448	9921	0	464
43.599	35.197	16448	9433	0	464
40.534	34.151	16448	9494	0	464
38.334	35.341	16448	9982	0	464
39.344	37.829	16448	10226	1	316
40.570	43.599	16447	10043	0	316
47.710	48.756	16447	10104	0	316
48.107	50.992	16446	10348	0	316
44.392	45.691	16446	10165	0	316
38.298	37.252	16445	9555	0	316
32.780	31.915	16445	9250	0	316
29.931	26.830	16444	9311	0	316
27.047	23.765	16443	9128	0	316
25.352	22.575	16442	8580	0	316
22.431	18.788	16441	7787	0	316
20.411	17.526	16440	6933	0	316
19.510	14.317	16438	5958	0	316
22.034	14.317	16437	4921	0	316
18.788	11.648	16435	4006	0	316
17.057	9.592	16434	3214	0	316
14.425	9.520	16433	2604	0	316
15.507	8.979	16431	2177	0	316
17.166	10.927	16429	1872	0	316
21.349	13.235	16428	1872	0	316
20.375	13.848	16426	2177	0	316
18.644	12.405	16425	2726	0	316
12.441	11.071	16424	3580	0	316
10.566	8.042	16424	4982	0	316
11.756	8.799	16422	6811	0	316
16.877	14.785	16422	8580	0	316
25.856	20.050	16422	10043	0	316
32.131	26.722	16421	11750	0	316
33.862	28.164	16421	13641	0	316
32.672	26.614	16421	15165	0	316
27.551	22.647	16420	16263	0	316
22.358	18.716	16421	17481	0	316
20.916	13.595	16421	18762	0	316
17.670	10.566	16419	18396	0	316
18.788	7.285	16415	13763	0	316
15.146	4.364	16411	6019	0	316
14.353	3.678	16407	0	0	316
12.982	5.770	16404	0	0	316
13.451	7.140	16402	0	0	316
16.336	10.566	16399	0	0	316
16.949	11.612	16397	0	0	316
19.978	10.350	16396	0	0	316
17.634	6.780	16395	531	0	316
16.516	6.563	16393	2909	0	316
15.182	6.852	16393	5409	0	316
16.805	8.907	16392	8031	0	316
17.670	11.900	16392	10653	0	316
20.555	12.477	16392	13458	0	316
18.139	11.287	16392	16688	0	316
16.192	8.943	16393	20164	0	316
12.910	8.871	16393	23213	0	316
14.064	8.475	16394	25713	0	316
16.264	9.340	16395	28274	0	316
23.332	12.586	16396	30835	0	316
27.732	17.923	16397	32767	0	316
31.662	21.457	16398	32767	0	316
32.600	26.542	16400	32767	0	316
32.853	30.040	16401	32767	0	316
31.158	30.508	16401	32767	0	316
29.968	28.128	16402	32767	0	316
30.184	23.945	16402	32767	0	316
29.030	22.611	16399	30591	0	316
28.886	20.411	16396	22908	0	316
28.741	20.375	16394	16688	0	316
27.840	22.034	16392	13275	0	316
25.063	18.211	16390	11141	0	316
20.916	14.172	16389	9738	0	316
17.959	7.104	16388	9128	0	316
12.874	1.046	16387	9067	0	316
13.884	-1.983	16387	9494	0	316
12.514	-2.813	16386	10226	0	316
13.812	-1.695	16386	11263	0	316
13.812	0.000	16386	12482	0	316
10.963	-0.721	16386	13824	0	316
10.999	0.036	16386	15348	0	316
12.874	1.406	16386	16810	0	316
17.526	6.635	16386	17237	0	316
28.850	14.461	16384	14372	0	316
42.265	24.486	16382	9006	0	316
52.038	33.754	16380	5226	1	316
58.637	38.658	16379	4250	0	316
55.067	40.281	16378	4921	0	316
47.674	35.990	16377	6628	0	316
37.324	29.895	16377	8824	0	316
30.472	24.955	16377	11384	0	316
26.794	19.365	16378	14433	0	316
24.739	18.860	16379	17847	0	316
22.539	16.841	16380	20957	0	316
21.060	20.014	16381	23518	0	316
18.572	20.483	16383	25713	0	316
18.572	21.313	16384	27664	0	316
20.303	18.175	16384	29310	0	316
22.214	17.598	16385	30713	0	316
25.893	17.598	16386	31871	0	316
25.604	17.887	16387	32664	0	316
28.994	21.998	16389	32767	0	316
32.023	22.827	16390	32767	0	316
35.341	24.775	16391	32767	0	316
38.262	27.083	16391	32359	0	316
39.163	27.696	16392	31810	0	316
39.055	29.174	16393	31140	0	316
41.111	29.679	16394	30469	0	316
43.996	29.535	16394	29005	0	316
48.612	31.122	16392	24066	0	316
46.845	31.338	16389	16202	0	316
44.681	32.203	16386	9799	0	316
42.842	32.961	16385	7116	0	316
44.068	34.259	16384	6506	0	316
46.304	37.649	16384	6628	0	316
49.585	40.678	16384	7177	0	316
50.090	42.229	16384	8519	0	316
45.835	44.140	16385	10653	0	316
45.474	44.032	16386	12848	0	316
47.313	42.697	16387	14677	0	316
50.307	42.770	16387	16324	0	316
54.021	43.671	16388	17725	0	316
54.165	44.537	16389	18944	0	316
52.651	44.933	16390	19981	0	316
50.415	44.464	16391	20713	0	316
54.165	45.150	16390	19920	0	316
58.601	47.241	16388	15348	0	316
62.964	49.585	16384	7848	0	316
63.109	51.280	16383	2177	0	316
61.089	48.900	16380	0	0	316
57.916	47.674	16378	0	0	316
58.168	49.982	16374	0	0	316
62.279	56.437	16369	0	0	316
66.030	65.705	16366	0	0	316
69.167	69.383	16364	0	0	316
71.547	69.960	16363	0	0	316
71.259	66.390	16362	0	0	316
71.547	65.777	16362	0	0	316
71.763	64.263	16364	470	0	316
70.609	67.688	16364	6019	0	316
69.492	68.770	16365	11628	0	316
68.338	67.400	16367	17420	0	316
68.049	63.866	16369	23213	0	316
66.895	60.945	16372	28396	0	316
63.289	59.286	16374	32725	0	316
58.384	59.142	16376	32767	0	316
49.189	58.493	16378	32767	0	316
45.582	58.853	16380	32767	0	316
44.897	54.345	16382	32767	0	316
46.268	53.913	16384	32767	0	316
47.999	52.110	16384	32767	0	316
46.304	51.533	16385	32767	0	316
41.183	48.035	16387	32767	0	316
39.235	45.474	16388	32767	0	316
40.678	42.878	16390	32767	0	316
44.861	42.625	16391	32767	0	316
50.811	43.491	16392	32767	0	316
52.903	45.655	16394	32767	0	316
54.742	46.015	16395	32767	0	316
50.379	45.546	16396	32767	0	316
47.169	44.392	16396	32767	0	316
44.320	45.655	16398	31201	0	316
44.392	49.153	16399	29859	0	316
51.100	54.057	16400	28823	0	316
58.781	61.558	16400	27481	1	316
66.030	65.128	16401	25835	0	316
65.885	64.840	16403	24554	0	316
62.027	58.601	16403	23701	0	316
54.201	50.162	16404	22603	0	316
49.802	41.688	16405	21201	0	316
43.455	37.468	16405	20164	0	316
40.822	38.262	16406	19493	0	316
36.495	40.317	16406	18518	0	316
34.223	41.003	16407	17115	0	316
32.203	35.774	16406	14433	0	316
32.925	31.374	16403	7970	0	316
33.429	27.010	16399	0	0	316
35.737	27.912	16396	0	0	316
37.252	29.968	16393	0	0	316
39.668	34.295	16390	0	0	316
39.740	35.918	16388	0	0	316
39.019	36.819	16386	0	0	316
41.760	37.613	16385	0	0	316
44.068	37.937	16384	0	0	316
50.054	39.344	16384	0	0	316
56.365	41.111	16384	0	0	316
58.060	42.986	16384	0	0	316
54.814	40.858	16384	0	0	316
47.097	37.793	16384	2543	0	316
32.780	28.633	16384	6384	0	316
22.286	19.942	16385	9860	0	316
15.326	9.592	16386	13641	0	316
19.437	6.744	16388	17847	0	316
26.145	7.862	16389	21932	0	316
34.151	12.586	16391	25164	0	316
37.649	17.815	16392	27908	0	316
35.197	20.700	16394	30347	0	316
30.797	20.087	16395	31993	0	316
27.407	15.975	16397	32767	0	316
25.460	15.398	16398	32767	0	316
23.008	13.343	16398	32420	0	316
23.512	13.740	16398	31566	0	316
26.001	18.031	16399	30530	0	316
33.177	22.503	16400	29432	0	316
39.308	29.318	16399	28213	0	316
49.333	37.108	16400	26810	0	316
51.028	43.094	16400	25469	0	316
49.874	45.510	16400	24005	0	316
42.986	47.386	16400	22359	0	316
33.213	46.772	16400	20652	0	316
28.092	47.241	16400	19066	0	316
27.515	49.477	16399	17603	0	316
32.816	53.083	16399	16749	0	316
35.521	49.802	16399	16444	0	316
29.463	43.635	16399	16141	0	316
21.854	36.134	16399	15592	0	316
17.706	33.213	16399	15409	0	316
20.447	33.213	16400	15409	0	316
28.345	39.308	16399	15043	0	316
36.675	44.392	16399	14311	0	316
37.216	48.936	16400	14006	0	316
35.233	53.119	16400	14616	0	316
30.905	52.939	16400	15592	0	316
26.470	51.280	16401	16019	0	316
18.788	44.717	16401	16019	0	316
16.949	39.812	16401	16263	0	316
20.014	41.111	16402	16566	0	316
24.919	50.162	16402	16566	0	316
29.931	56.149	16401	16019	0	316
28.958	60.115	16401	15226	0	316
21.673	55.283	16401	14433	0	316
17.166	52.362	16400	13519	0	316
14.064	53.264	16400	12543	0	316
15.290	57.050	16399	11506	0	316
12.838	63.613	16398	10531	0	316
12.117	67.147	16397	9555	0	316
9.665	68.301	16397	8702	0	316
8.042	70.537	16396	7970	0	316
9.917	73.675	16395	7360	0	316
11.107	73.278	16394	6872	0	316
11.612	70.285	16394	6689	0	316
13.704	66.607	16393	7055	0	316
17.310	63.613	16393	7848	0	316
20.736	65.056	16393	8641	0	316
26.938	68.121	16392	9311	0	316
33.321	71.114	16392	10348	0	316
37.865	75.875	16392	11750	0	316
43.383	84.421	16392	12970	0	316
54.742	100.325	16392	13945	0	316
72.917	116.769	16393	15104	0	316
86.441	125.676	16392	16324	0	316
82.510	120.880	16393	17115	0	316
54.850	102.344	16392	17542	0	316
18.644	81.897	16392	17603	0	316
-2.633	73.567	16392	17359	0	316
6.167	80.310	16392	16932	0	316
30.508	92.896	16391	16566	0	316
43.419	103.462	16391	16263	0	316
36.891	103.137	16390	16080	0	316
27.660	96.790	16391	15958	0	316
42.914	99.423	16390	15775	0	316
95.564	119.654	16390	15531	0	316
162.459	157.411	16389	15287	0	316
220.447	201.190	16389	14982	0	316
256.329	235.305	16388	14738	0	316
284.998	257.411	16388	14738	0	316
321.421	267.039	16388	15226	0	316
370.429	274.793	16388	16080	0	316
419.113	287.342	16388	16810	0	316
459.250	308.258	16388	17481	0	316
494.879	324.053	16389	18579	0	316
533.718	331.446	16390	20225	0	316
573.098	326.938	16391	21871	0	316
590.804	328.597	16391	22908	0	316
590.804	352.038	16392	23762	0	316
590.804	409.989	16393	24493	0	316
590.804	487.198	16393	24737	0	316
590.804	555.680	16394	24249	0	316
590.804	590.804	16394	23335	0	316
590.804	590.804	16394	22115	0	316
590.804	590.804	16393	20713	0	316
590.804	590.804	16393	19310	0	316
590.804	590.804	16392	17969	0	316
590.804	590.804	16392	16749	0	316
590.804	590.804	16391	15653	0	316
590.804	590.804	16391	14616	0	316
590.804	590.804	16390	13641	0	316
590.804	590.804	16389	12848	0	316
590.804	590.804	16389	12116	0	316
590.804	590.804	16389	11567	0	316
590.804	590.804	16388	11202	0	316
590.804	590.804	16388	11324	0	316
590.804	590.804	16388	11933	0	316
590.804	590.804	16387	12360	0	316
590.804	590.804	16387	12604	0	316
590.804	590.804	16387	13153	0	316
590.804	541.760	16388	13945	0	316
590.804	474.973	16388	14372	0	316
590.804	404.291	16388	14616	0	316
586.982	330.472	16387	15165	0	316
432.420	255.427	16388	16080	0	316
283.484	179.589	16388	16627	0	316
143.851	99.639	16388	16993	0	316
27.587	23.332	16388	17725	0	316
-67.508	-53.119	16389	18640	0	316
-148.323	-122.611	16389	19188	0	316
-216.084	-184.205	16389	19188	0	316
-284.025	-232.961	16389	19005	0	316
-347.422	-275.370	16389	18640	0	316
-405.914	-305.157	16389	18274	0	316
-452.254	-324.811	16389	17664	0	316
-482.510	-332.889	16388	16871	0	316
-498.594	-331.085	16388	16141	0	316
-503.029	-332.167	16387	15470	0	316
-502.488	-333.934	16387	14799	0	316
-500.325	-340.894	16386	14128	0	316
-496.827	-343.887	16386	13458	0	316
-492.499	-340.462	16385	12909	0	316
-487.126	-330.689	16385	12421	0	316
-479.373	-317.202	16384	12116	0	316
-473.350	-304.291	16384	12116	0	316
-464.046	-296.105	16384	12543	0	316
-454.562	-287.414	16384	12970	0	316
-442.553	-280.346	16384	13336	0	316
-431.554	-271.799	16384	14128	0	316
-417.310	-264.082	16384	15165	0	316
-404.436	-250.487	16384	15836	0	316
-390.984	-235.377	16384	16141	0	316
-377.389	-219.510	16384	16810	0	316
-363.181	-203.498	16385	17847	0	316
-349.225	-189.867	16385	18640	0	316
-332.780	-182.366	16385	18640	0	316
-317.093	-177.065	16385	18213	0	316
-306.816	-172.521	16385	17603	0	316
-299.784	-167.508	16384	16932	0	316
-298.089	-158.096	16384	16384	0	316
-289.614	-149.874	16384	15714	0	316
-280.346	-140.606	16384	15165	0	316
-264.731	-132.528	16384	14799	0	316
-253.228	-124.414	16384	14555	0	316
-245.294	-113.559	16384	14311	0	316
-239.632	-103.570	16383	14128	0	316
-233.610	-95.240	16383	14006	0	316
-225.893	-91.237	16382	13945	0	316
-216.336	-85.359	16382	13945	0	316
-209.845	-79.625	16382	14433	0	316
-202.741	-71.078	16382	15470	0	316
-195.600	-61.197	16382	16202	0	316
-190.840	-53.336	16382	16627	0	316
-185.900	-43.671	16383	17420	0	316
-182.221	-29.787	16383	18457	0	316
-178.904	-15.110	16383	19127	0	316
-173.819	-1.118	16384	19371	0	316
-166.354	4.688	16384	19859	0	316
-159.034	3.065	16384	20652	0	316
-153.372	0.938	16384	21079	0	316
-146.736	1.659	16384	21018	0	316
-140.966	8.691	16384	20774	0	316
-134.836	15.182	16384	20591	0	316
-129.968	22.431	16384	20408	0	316
-124.378	22.863	16384	20103	0	316
-121.998	19.654	16384	19615	0	316
-117.093	17.418	16384	19005	0	316
-114.785	12.874	16384	18274	0	316
-112.297	9.484	16384	17603	0	316
-108.006	10.566	16384	17054	0	316
-104.039	15.651	16384	16444	0	316
-104.039	19.762	16384	15775	0	316
-103.570	20.483	16384	15165	0	316
-105.445	17.923	16384	14738	0	316
-102.236	12.405	16384	14372	0	316
-91.525	11.864	16384	13884	0	316
-73.314	19.401	16383	13458	0	316
-60.945	26.578	16383	13092	0	316
-59.358	34.367	16383	12970	0	316
-65.561	36.459	16382	13031	0	316
-72.809	35.882	16382	12970	0	316
-73.098	36.242	16383	12909	0	316
-64.479	37.505	16382	13092	0	316
-53.191	37.360	16382	13824	0	316
-51.857	33.754	16383	14982	0	316
-55.463	29.066	16383	15958	0	316
-65.344	24.558	16383	16627	0	316
-70.970	25.604	16384	17542	0	316
-70.177	29.607	16384	18579	0	316
-65.380	32.925	16384	19310	0	316
-61.918	32.384	16384	19554	0	316
-57.194	30.184	16384	19554	0	316
-56.653	28.381	16384	19310	0	316
-53.264	33.502	16384	19005	0	316
-48.864	40.534	16384	18579	0	316
-44.320	47.962	16384	18091	0	316
-42.301	53.119	16384	17664	1	912
-42.409	54.778	16384	17176	0	912
-43.887	54.959	16384	16688	0	912
-44.897	51.929	16384	16324	0	912
-46.772	44.248	16384	15897	0	912
-47.926	36.675	16384	15470	0	912
-49.549	28.994	16384	15287	0	912
-52.759	23.260	16384	15653	0	912
-52.578	22.827	16384	16384	0	912
-52.326	24.955	16384	16871	0	912
-47.674	26.037	16384	17115	0	912
-40.173	29.427	16384	17847	0	912
-33.610	33.718	16385	19371	0	912
-29.787	37.252	16386	20896	0	912
-26.325	41.003	16386	21749	0	912
-26.217	44.428	16387	22359	0	912
-24.919	46.809	16388	22847	0	912
-19.041	49.405	16388	22847	0	912
-16.012	50.559	16389	22359	0	912
-13.199	55.499	16389	21749	0	912
-15.182	56.690	16389	20835	0	912
-17.021	55.427	16389	19615	0	912
-22.575	53.768	16389	18274	0	912
-23.368	51.497	16388	16932	0	912
-19.654	54.345	16387	15714	0	912
-13.379	56.870	16387	14433	0	912
-4.183	62.964	16386	13214	0	912
2.380	66.138	16386	11994	0	912
7.825	67.652	16385	10897	0	912
9.124	68.446	16385	9982	0	912
13.127	69.419	16384	9311	0	912
16.985	67.905	16384	8945	0	912
18.139	67.147	16384	8824	0	912
17.670	64.335	16384	8824	0	912
13.091	61.017	16383	8945	0	912
6.491	57.158	16383	9433	0	912
2.633	52.506	16383	10409	0	912
-0.649	48.323	16383	11750	0	912
-1.803	44.753	16383	12909	0	912
-3.390	40.822	16384	13824	0	912
-8.439	38.370	16384	14982	0	912
-13.127	37.144	16384	16444	0	912
-18.392	35.882	16384	17725	0	912
-18.283	32.925	16384	18396	0	912
-18.752	31.915	16384	18701	0	912
-15.759	29.931	16384	18823	0	912
-17.129	29.535	16384	18762	0	912
-18.175	31.915	16384	18457	0	912
-18.464	34.223	16384	18030	0	912
-12.117	35.485	16384	17542	0	912
-5.085	34.908	16384	17054	0	912
0.505	35.088	16384	16566	0	912
2.741	35.413	16384	16263	0	912
1.767	35.160	16384	16019	0	912
-0.938	36.964	16384	15775	0	912
-2.236	39.127	16384	15531	0	912
-1.298	42.697	16384	15226	0	912
1.515	47.890	16383	14799	0	912
6.563	55.211	16383	14311	0	912
14.353	57.591	16382	13884	0	912
18.788	58.637	16382	13641	0	912
20.447	54.093	16382	13884	0	912
15.543	50.307	16382	14738	0	912
7.573	47.494	16382	15409	0	912
1.082	46.123	16382	15897	0	912
-1.370	43.310	16383	16505	0	912
0.974	42.409	16383	17542	0	912
7.537	41.291	16383	18274	0	912
13.848	45.655	16384	18762	0	912
15.326	47.349	16384	19493	0	912
16.949	48.539	16384	20347	0	912
13.884	47.602	16384	20896	0	912
15.507	43.635	16384	21018	0	912
14.677	44.032	16384	20896	0	912
17.562	47.710	16384	20591	0	912
18.175	52.398	16384	20103	0	912
20.988	51.929	16384	19493	0	912
21.493	49.838	16384	18701	0	912
21.637	44.356	16384	17908	0	912
18.500	37.829	16384	16993	1	316
15.435	34.692	16384	16141	0	316
10.602	34.295	16384	15409	0	316
7.862	35.449	16384	14738	0	316
3.498	31.915	16384	14250	0	316
0.541	30.364	16384	13824	0	316
-1.442	26.902	16383	13641	0	316
0.469	26.686	16383	14128	0	316
3.750	29.968	16384	15043	0	316
9.376	35.088	16384	15775	0	316
11.035	37.865	16384	16324	0	316
12.117	38.298	16384	17359	0	316
10.999	38.262	16385	19188	0	316
8.258	41.796	16386	21018	0	316
6.094	46.520	16387	22176	0	316
4.111	50.956	16388	23091	0	316
1.695	50.920	16389	23884	0	316
0.108	44.176	16389	24066	0	316
-1.154	38.298	16389	23457	0	316
-1.046	33.790	16389	22542	0	316
-0.216	37.613	16389	21323	0	316
1.659	44.681	16389	20042	0	316
4.977	50.054	16389	18762	0	316
9.520	49.297	16389	17542	0	316
10.169	46.664	16388	16384	0	316
8.186	40.209	16388	15165	0	316
4.003	37.937	16387	13884	0	316
-1.623	36.495	16386	12604	0	316
-3.823	35.233	16386	11445	0	316
-2.957	31.518	16385	10348	0	316
-2.272	24.666	16384	9311	0	316
-1.767	21.277	16384	8519	0	316
-6.094	18.933	16384	8092	0	316
-8.439	22.142	16384	7787	0	316
-5.590	26.794	16383	7604	0	316
0.613	29.571	16382	7604	0	316
9.376	30.364	16382	8275	0	316
15.182	29.427	16382	9372	0	316
17.202	30.725	16382	10348	0	316
13.127	30.292	16382	11202	0	316
8.655	31.410	16383	12482	0	316
5.590	29.931	16383	14067	0	316
4.760	27.191	16383	15409	0	316
6.744	26.145	16383	16263	0	316
10.169	29.823	16384	17298	0	316
11.864	35.341	16384	18701	0	316
14.569	39.740	16384	19676	0	316
10.458	40.137	16384	19981	0	316
6.599	34.295	16384	19981	0	316
0.721	27.155	16384	19798	0	316
-5.409	21.204	16384	19493	0	316
-12.153	18.211	16384	19066	0	316
-15.759	19.401	16384	18579	0	316
-16.048	16.697	16384	18091	0	316
-15.579	16.012	16384	17664	0	316
-11.468	12.946	16384	17237	0	316
-6.852	18.103	16384	16749	0	316
-1.911	24.847	16384	16324	0	316
4.616	34.006	16383	15836	0	316
10.963	39.488	16383	15226	0	316
19.113	37.288	16382	14555	0	316
24.558	32.492	16382	14067	0	316
27.768	27.948	16381	13702	0	316
27.083	26.181	16381	13458	0	316
23.909	24.522	16382	13214	0	316
17.490	23.008	16381	13275	0	316
16.733	25.099	16381	13884	0	316
16.084	26.830	16381	14921	0	316
20.411	29.210	16381	15958	0	316
21.998	31.338	16382	17176	0	316
24.089	28.886	16383	19127	0	316
22.972	28.164	16384	21262	0	316
23.296	31.518	16384	22664	0	316
26.902	36.819	16384	23396	0	316
29.643	37.757	16385	23701	0	316
31.194	33.466	16385	23579	0	316
29.427	26.001	16385	23152	0	316
24.450	18.824	16385	22481	0	316
22.683	20.844	16386	21688	0	316
22.972	24.775	16386	20713	1	316
27.984	32.312	16385	19676	0	316
34.692	36.567	16385	18640	0	316
37.252	36.278	16385	17603	0	316
32.853	33.429	16385	16566	0	316
26.325	28.741	16384	15531	0	316
20.375	24.775	16384	14738	0	316
16.769	20.087	16384	14555	0	316
18.860	17.057	16384	14799	0	316
18.644	16.444	16384	14860	0	316
17.382	16.408	16384	14677	0	316
11.684	17.743	16384	14921	0	316
8.547	17.923	16385	15653	0	316
10.350	20.087	16385	16324	0	316
13.343	18.860	16385	16749	0	316
20.014	23.044	16385	17420	0	316
23.008	26.830	16386	18152	0	316
25.279	29.895	16386	18457	0	316
23.152	32.312	16386	18274	0	316
23.549	32.095	16386	17908	0	316
24.955	33.249	16386	17420	0	316
29.427	37.252	16386	16932	0	316
36.206	42.229	16386	16324	0	316
40.065	45.402	16386	15470	0	316
41.471	45.078	16386	14555	0	316
34.079	40.137	16385	13702	0	316
23.332	31.518	16384	12970	0	316
10.891	22.142	16384	12299	0	316
4.436	17.274	16384	11811	0	316
4.940	15.831	16384	11567	0	316
11.143	16.156	16384	11324	0	316
15.939	18.247	16384	11445	0	316
16.949	18.211	16384	12055	0	316
10.819	15.795	16384	13031	0	316
5.986	18.644	16384	13824	0	316
4.075	20.087	16384	14372	0	316
9.268	25.965	16384	15104	0	316
14.569	30.076	16384	16019	0	316
19.906	30.941	16384	16444	0	316
24.162	31.951	16384	16688	0	316
26.253	30.328	16384	17298	0	316
24.270	31.590	16384	18213	0	316
23.008	29.787	16384	18823	0	316
23.368	29.895	16384	19066	0	316
21.060	31.122	16385	19371	0	316
20.772	30.004	16385	19920	0	316
20.736	29.246	16386	20225	0	316
15.110	24.306	16386	20042	0	316
11.143	19.005	16386	19493	0	316
7.140	15.471	16386	18701	0	316
6.852	14.028	16385	17786	0	316
8.655	17.418	16385	16993	0	316
11.756	21.457	16385	16202	0	316
15.398	25.027	16384	15348	0	316
17.238	24.234	16384	14494	0	316
20.627	22.863	16384	13763	0	316
22.178	23.368	16384	13153	0	316
22.755	21.168	16384	12665	0	316
24.702	22.755	16383	12238	0	316
21.457	25.388	16383	11933	0	316
20.087	28.164	16383	11811	0	316
20.303	30.112	16383	12238	0	316
23.008	33.177	16383	13092	0	316
29.679	36.783	16382	13824	0	316
35.665	37.541	16382	14250	0	316
38.082	37.000	16383	15104	0	316
37.000	35.629	16383	16263	0	316
31.482	31.158	16383	17298	0	316
25.316	27.155	16384	18091	0	316
16.372	21.421	16384	19127	0	316
10.927	15.471	16384	20347	0	316
6.311	11.684	16384	21079	0	316
5.986	9.773	16385	21262	0	316
9.088	12.189	16385	21201	0	316
15.254	19.365	16385	21079	0	316
17.093	25.604	16385	20774	0	316
20.772	30.545	16385	20286	0	316
20.447	34.079	16385	19615	0	316
23.621	33.538	16385	18762	0	316
25.748	34.079	16385	17847	0	316
28.525	33.466	16385	16871	0	316
27.191	32.059	16384	16019	0	316
25.352	31.518	16384	15226	0	316
21.313	28.633	16384	14433	0	316
21.457	28.056	16384	13641	0	316
24.162	27.984	16384	13214	0	316
25.027	30.220	16384	13397	0	316
26.325	33.249	16384	14067	0	316
26.758	34.764	16384	14555	0	316
25.640	33.718	16384	14799	0	316
24.306	30.725	16384	15348	0	316
21.421	26.542	16384	16202	0	316
18.572	20.808	16384	16810	0	316
13.523	18.824	16384	17115	0	316
11.432	14.858	16384	17603	0	316
13.992	15.218	16385	18396	0	316
15.435	16.048	16385	18884	0	316
19.510	18.680	16385	18823	0	316
20.519	19.077	16385	18579	0	316
22.683	21.241	16385	18030	0	316
20.050	20.050	16385	17298	0	316
19.510	22.395	16384	16566	0	316
24.125	26.974	16384	15836	0	316
29.138	33.069	16384	15043	0	316
36.747	37.865	16384	14189	0	316
40.426	39.740	16384	13397	0	316
39.272	39.380	16384	12665	0	316
35.665	37.901	16383	12116	0	316
30.436	38.082	16383	11750	0	316
27.047	36.242	16382	11628	0	316
23.909	32.384	16383	11567	0	316
22.358	25.893	16382	11628	0	316
18.572	17.743	16381	11811	0	316
15.795	13.343	16381	12055	0	316
10.746	9.124	16381	12482	0	316
5.806	7.321	16381	13336	0	316
3.318	9.304	16381	14555	0	316
5.554	12.369	16381	15653	0	316
10.133	14.821	16381	16324	0	316
16.552	18.752	16382	17115	0	316
22.250	19.185	16383	18152	0	316
25.604	22.178	16383	18944	0	316
30.400	26.542	16383	19432	0	316
34.908	33.177	16384	20042	0	316
39.380	40.173	16384	20774	0	316
43.166	40.606	16384	21140	0	316
45.979	41.652	16384	21018	0	316
48.251	41.219	16384	20713	0	316
47.241	40.353	16384	20103	0	316
45.763	39.812	16384	19371	0	316
45.510	39.560	16384	18640	0	316
39.596	36.928	16384	17969	0	316
34.006	32.167	16384	17420	0	316
26.578	25.388	16384	16993	0	316
19.618	19.041	16384	16566	0	316
12.802	10.819	16384	16141	0	316
9.773	8.186	16383	15714	0	316
8.763	8.979	16383	15409	0	316
6.924	8.871	16383	15165	0	316
5.626	9.448	16383	14982	0	316
6.924	10.530	16382	14799	0	316
10.674	12.874	16382	14494	0	316
14.533	15.939	16382	14250	0	316
19.834	22.250	16383	14128	0	316
21.241	26.073	16382	14311	0	316
23.512	27.551	16382	14921	0	316
22.395	27.876	16383	15775	0	316
24.630	28.814	16383	16566	0	316
27.371	30.436	16383	17603	0	316
27.840	32.636	16384	18884	0	316
28.958	37.432	16384	19798	0	316
30.545	37.937	16384	20164	0	316
33.502	40.534	16384	20225	0	316
35.341	38.226	16384	20164	0	316
35.449	34.475	16384	19920	0	316
32.420	30.364	16384	19493	0	316
26.397	26.037	16384	18944	0	316
23.476	22.863	16384	18274	0	316
22.647	23.837	16384	17481	0	316
24.666	27.010	16384	16749	0	316
25.279	27.371	16384	16202	0	316
21.132	24.378	16384	15592	0	316
15.975	21.349	16384	14982	0	316
10.927	15.471	16384	14494	0	316
10.278	15.362	16384	14006	0	316
18.464	18.392	16384	13580	0	316
24.811	22.431	16383	13092	0	316
29.210	25.352	16383	12604	0	316
29.030	25.568	16382	12299	0	316
28.741	28.345	16382	12482	0	316
30.436	32.889	16382	13214	0	316
33.502	40.606	16382	13824	0	316
38.514	46.412	16382	14372	0	316
39.488	44.320	16383	15409	0	316
35.882	38.586	16384	16627	0	316
32.312	31.085	16384	17481	0	316
28.020	24.919	16384	17786	0	316
21.673	24.198	16384	17847	0	316
17.779	26.650	16384	17847	0	316
14.281	25.243	16384	17664	0	316
16.913	26.506	16384	17298	0	316
17.274	25.496	16384	16871	0	316
20.447	24.594	16384	16444	0	316
21.313	21.457	16383	16080	0	316
21.060	21.168	16383	15836	0	316
24.234	24.125	16383	15653	0	316
25.243	27.984	16383	15531	0	316
27.119	30.977	16383	15287	0	316
25.676	31.626	16382	14921	0	316
18.536	27.660	16382	14555	0	316
15.543	24.017	16381	14250	0	316
14.425	23.621	16381	14006	0	316
17.310	27.191	16381	13945	0	316
19.185	32.384	16382	14189	0	316
21.349	32.889	16382	15043	0	316
20.050	30.436	16382	16263	0	316
17.454	25.388	16382	17237	0	316
18.283	21.060	16383	17908	0	316
15.254	21.277	16383	19005	0	316
15.759	22.250	16384	20774	0	316
14.858	22.431	16384	22481	0	316
13.415	19.113	16385	23396	0	316
16.012	13.956	16386	24066	0	316
18.031	14.930	16386	24676	0	316
24.919	22.178	16387	24798	0	316
32.167	31.302	16387	24249	0	316
37.252	38.298	16388	23396	0	316
42.301	41.003	16387	22237	0	316
43.671	40.065	16387	21018	0	316
42.914	37.036	16387	19676	1	836
39.055	33.790	16387	18274	0	836
34.006	31.122	16387	16749	0	836
26.001	26.506	16386	15409	0	836
23.332	25.352	16386	14128	0	836
26.542	24.486	16385	13031	0	836
31.338	27.263	16385	11994	0	836
35.377	27.948	16384	11202	0	836
33.285	28.056	16384	10531	0	836
28.453	25.640	16384	9921	0	836
25.748	24.558	16384	9494	0	836
26.037	25.171	16383	9189	0	836
28.922	23.909	16383	9250	0	836
32.708	22.683	16383	9799	0	836
30.797	21.709	16383	11080	0	836
23.476	15.615	16384	13153	0	836
12.333	10.386	16384	15287	0	836
2.560	4.977	16384	16688	0	836
-2.777	1.695	16384	17908	0	836
2.741	3.246	16385	19005	0	836
14.245	10.206	16385	19676	0	836
27.119	22.791	16385	19676	0	836
37.901	31.807	16386	19310	0	836
41.868	37.973	16385	18701	0	836
44.212	39.704	16385	18091	0	836
47.205	39.235	16385	17420	0	836
50.198	42.734	16384	16810	0	836
54.057	45.871	16384	16141	0	836
51.352	45.546	16384	15470	0	836
44.969	41.796	16384	14921	0	836
35.052	33.285	16384	14433	0	836
25.532	20.988	16384	14006	0	836
18.716	12.189	16384	13702	0	836
11.720	5.085	16383	13397	0	836
7.681	-0.577	16383	13275	0	836
4.580	-3.570	16383	13641	0	836
7.176	-0.685	16383	14311	0	836
13.199	6.131	16384	14677	0	836
19.257	16.733	16384	14921	0	836
25.027	22.899	16384	15592	0	836
27.732	27.624	16384	16627	0	836
28.597	25.424	16384	17420	0	836
30.581	24.847	16384	17969	0	836
32.853	26.145	16384	19005	0	836
34.403	29.463	16385	20774	0	836
36.819	32.708	16386	22603	0	836
38.658	33.429	16387	23762	0	836
38.911	34.043	16388	24676	0	836
37.685	36.314	16389	25408	0	836
36.675	37.829	16390	25469	0	836
33.538	39.308	16390	24798	0	836
29.282	35.485	16390	23640	0	836
26.650	29.643	16390	22298	0	836
23.765	22.503	16390	20896	0	836
19.618	16.625	16390	19493	0	836
17.743	15.615	16390	18030	0	836
13.812	17.634	16389	16566	0	836
15.110	20.303	16388	15165	0	836
13.740	22.935	16388	13824	0	836
18.680	26.037	16387	12543	0	836
22.611	27.047	16386	11384	0	836
28.958	27.804	16386	10287	0	836
33.033	28.201	16385	9311	0	836
36.531	29.643	16384	8641	0	836
36.783	30.184	16384	8641	0	836
34.439	34.043	16384	9128	0	836
33.177	37.613	16384	9555	0	836
33.682	40.858	16384	9860	0	836
39.308	44.248	16384	10775	0	836
44.861	44.897	16384	12116	0	836
47.926	44.609	16384	13092	0	836
48.215	43.238	16384	13763	0	836
41.291	38.550	16384	14555	0	836
32.276	32.636	16384	15470	0	836
24.342	28.164	16384	16141	0	836
18.644	23.332	16384	16384	0	836
16.228	18.536	16384	16566	0	836
14.389	17.057	16384	16566	0	836
14.208	13.595	16384	16384	0	836
10.638	10.674	16384	15958	1	316
11.648	11.071	16384	15531	0	316
13.992	12.982	16384	15104	0	316
16.156	16.552	16384	14738	0	316
22.467	21.204	16383	14311	0	316
23.008	25.604	16383	13824	0	316
23.549	29.210	16382	13397	0	316
24.162	32.961	16382	13153	0	316
23.693	36.351	16382	13031	0	316
26.145	38.695	16381	12909	0	316
30.400	40.245	16381	12909	0	316
32.564	40.606	16380	12970	0	316
34.620	41.471	16380	13153	0	316
32.276	38.298	16380	13580	0	316
27.010	34.908	16380	14555	0	316
19.798	29.354	16381	15958	0	316
17.490	25.712	16381	17054	0	316
14.461	23.512	16381	17847	0	316
17.057	24.089	16382	18884	0	316
15.398	22.827	16382	20042	0	316
13.740	17.706	16383	20774	0	316
9.989	13.704	16383	20957	0	316
5.157	12.153	16383	21018	0	316
4.760	14.641	16383	20896	0	316
7.068	21.601	16383	20652	0	316
11.143	26.902	16384	20225	0	316
12.550	26.181	16383	19737	0	316
11.035	22.647	16384	19127	0	316
10.133	19.149	16383	18457	0	316
10.819	18.356	16383	17725	0	316
14.100	22.575	16382	16993	0	316
21.637	27.191	16382	16384	0	316
23.549	30.328	16382	15836	0	316
24.270	32.059	16381	15287	0	316
24.702	33.646	16381	14738	0	316
25.027	36.242	16380	14311	0	316
27.732	38.154	16380	13884	0	316
30.545	38.478	16380	13580	0	316
33.466	37.180	16380	13641	0	316
34.403	34.908	16380	14311	0	316
33.502	32.816	16380	15470	0	316
30.112	31.554	16380	16384	0	316
26.758	32.925	16381	16871	0	316
23.981	33.718	16382	17603	0	316
24.306	33.754	16382	18701	0	316
28.273	33.429	16382	19615	0	316
28.994	32.456	16383	20225	0	316
29.282	30.508	16384	21018	0	316
25.965	33.069	16384	21993	0	316
24.811	33.502	16384	22542	0	316
25.856	34.764	16384	22542	0	316
29.391	33.538	16384	22359	0	316
33.718	31.590	16385	21993	0	316
34.475	28.561	16385	21505	0	316
30.581	27.010	16385	20713	0	316
27.010	26.109	16385	19737	0	316
24.666	24.198	16385	18762	0	316
22.250	19.077	16384	17786	0	316
21.998	14.785	16384	16871	0	316
23.693	10.350	16384	16019	0	316
23.693	10.061	16384	15226	0	316
24.522	15.939	16384	14433	0	316
23.765	20.231	16384	13702	0	316
18.392	21.313	16384	13092	0	316
14.930	17.526	16384	13092	0	316
12.622	17.598	16384	13519	0	316
16.805	16.949	16384	13945	0	316
20.303	21.709	16384	14311	0	316
24.486	23.440	16384	15226	0	316
20.339	21.349	16385	16871	0	316
15.579	19.113	16385	18518	0	316
9.484	14.461	16386	19615	0	316
8.583	15.939	16387	20469	0	316
11.756	17.274	16387	21323	0	316
14.425	20.195	16388	21749	0	316
18.283	23.116	16389	21505	0	316
18.392	25.965	16389	20896	0	316
19.546	28.886	16389	20103	0	316
18.464	26.974	16389	19249	0	316
18.752	23.116	16388	18335	0	316
14.641	20.555	16388	17359	0	316
13.487	15.218	16388	16384	0	316
12.297	17.851	16388	15531	0	316
14.930	20.555	16387	14677	0	316
20.627	26.542	16387	13884	0	316
21.818	28.669	16387	13092	0	316
21.024	29.571	16386	12421	0	316
20.267	27.191	16386	11689	0	316
17.598	23.549	16385	11019	0	316
20.880	24.125	16385	10714	0	316
24.775	24.594	16385	10836	0	316
29.463	28.092	16384	11080	0	316
31.699	31.771	16384	11324	0	316
29.463	34.223	16384	11994	0	316
27.047	33.646	16385	12848	0	316
22.755	32.059	16385	13458	0	316
21.277	29.571	16385	13824	0	316
23.152	25.676	16384	14433	0	316
23.224	22.503	16385	15348	0	316
22.214	22.286	16385	15897	0	316
18.392	19.582	16385	16019	0	316
13.054	16.805	16385	15836	0	316
8.727	13.920	16384	15531	0	316
8.511	10.927	16384	15226	0	316
10.530	8.871	16384	14921	0	316
12.514	10.891	16384	14494	0	316
17.021	15.218	16384	14006	0	316
17.743	17.743	16384	13641	0	316
19.546	21.709	16383	13336	0	316
18.969	21.962	16383	13031	0	316
23.476	25.027	16382	12726	0	316
26.722	28.597	16382	12360	0	316
30.508	33.249	16381	12116	0	316
31.374	36.783	16381	11933	0	316
30.761	34.728	16381	11872	0	316
28.128	30.436	16380	11933	0	316
26.506	23.945	16380	12238	0	316
25.460	19.906	16379	12848	0	316
21.745	18.500	16380	14006	0	316
18.644	16.444	16381	15470	0	316
12.405	15.579	16380	16627	0	316
9.592	16.012	16381	17542	0	316
10.891	14.497	16381	18762	0	316
13.631	16.192	16382	20286	0	316
18.680	17.346	16382	21384	0	316
24.739	20.988	16383	22176	0	316
28.056	22.034	16384	23152	0	316
26.794	23.512	16384	24249	0	316
23.729	23.981	16384	24798	0	316
18.824	19.978	16384	24554	0	316
10.999	17.598	16384	23944	0	316
10.350	15.471	16384	23213	0	316
14.641	17.057	16385	22420	0	316
19.870	17.490	16384	21444	1	532
22.972	21.313	16384	20347	0	532
24.594	20.123	16384	19249	0	532
19.473	18.572	16384	18152	0	532
18.139	16.480	16384	17054	0	532
15.651	16.372	16384	16141	0	532
15.723	14.785	16384	15104	0	532
12.730	15.074	16384	14128	0	532
11.684	11.432	16383	13214	0	532
12.550	9.196	16383	12543	0	532
14.100	10.494	16383	12665	0	532
19.546	11.973	16383	13336	0	532
21.529	18.031	16383	13884	0	532
23.585	20.087	16383	14372	0	532
25.099	23.621	16384	15043	0	532
24.666	24.125	16384	16080	0	532
24.702	24.666	16384	16810	0	532
24.991	26.325	16384	17237	0	532
22.863	24.883	16384	18030	0	532
18.860	22.755	16385	19432	0	532
15.651	20.014	16385	20713	0	532
9.556	13.704	16386	21384	0	532
4.724	8.691	16386	21505	0	532
4.075	5.157	16387	21688	0	532
3.534	3.678	16387	21932	0	532
5.914	5.157	16388	21749	0	532
9.160	8.114	16388	21018	0	532
12.405	12.910	16387	20042	0	532
15.146	16.769	16388	18884	0	532
19.762	18.392	16387	17664	0	532
22.611	19.762	16387	16505	0	532
24.270	21.457	16387	15470	0	532
27.407	23.260	16386	14433	0	532
23.332	26.037	16386	13458	0	532
21.168	24.991	16385	12787	0	532
19.041	19.365	16385	12787	0	532
14.605	14.208	16386	13336	0	532
13.235	9.052	16386	13702	0	532
13.379	9.520	16386	13824	0	532
14.136	13.127	16385	14128	0	532
15.975	14.858	16386	14799	0	532
13.704	16.372	16386	15287	0	532
10.710	17.129	16386	15348	0	532
8.222	14.028	16386	15592	0	532
8.979	14.569	16387	16202	0	532
13.523	11.828	16387	16505	0	532
20.050	11.396	16386	16384	0	532
20.050	11.287	16387	16019	0	532
18.536	11.576	16386	15470	0	532
15.543	12.694	16386	14799	0	532
16.372	16.372	16385	14006	0	532
17.346	14.533	16385	13153	0	532
18.897	15.110	16384	12421	0	532
17.454	11.612	16384	11933	0	532
16.372	11.071	16384	11567	0	532
15.146	17.093	16384	11324	0	532
21.637	24.125	16384	11202	0	532
27.371	30.977	16383	11141	0	532
33.754	31.410	16382	11019	0	532
32.925	24.811	16382	11019	0	532
26.758	16.552	16382	11202	0	532
18.536	12.117	16382	11384	0	532
9.917	8.943	16381	11628	0	532
9.484	12.045	16381	11994	0	532
10.458	15.218	16381	12787	0	532
12.874	14.064	16381	14006	0	532
15.326	14.028	16381	15043	0	532
15.579	10.963	16381	15775	0	532
15.651	9.809	16381	16810	0	532
17.490	12.730	16382	18152	0	532
18.464	16.480	16382	19066	0	532
21.096	21.421	16383	19615	0	532
25.171	22.827	16383	20530	0	532
27.227	23.296	16384	21810	0	532
26.578	21.349	16384	22664	0	532
24.414	19.077	16384	22908	0	532
16.913	18.500	16384	22786	0	532
15.326	16.048	16384	22481	0	532
14.497	17.418	16384	21932	0	532
18.536	16.228	16384	21323	0	532
23.044	17.238	16384	20591	0	532
24.234	17.093	16384	19920	0	532
27.083	18.283	16384	19188	0	532
24.306	19.365	16384	18579	0	532
23.260	22.467	16384	17908	0	532
24.198	21.709	16384	17176	0	532
24.811	22.575	16384	16384	0	532
27.083	21.168	16384	15531	0	532
26.794	22.431	16384	14921	0	532
26.325	26.181	16384	15043	0	532
22.539	29.210	16384	15592	0	532
20.844	29.751	16384	15958	0	532
23.368	25.929	16384	16019	0	532
24.450	21.601	16384	16505	0	532
24.811	17.166	16384	17908	0	532
24.270	17.093	16385	19188	0	532
17.202	16.408	16386	19859	0	532
12.586	15.615	16386	20347	0	532
9.592	11.251	16386	20957	0	532
10.674	7.825	16387	21079	0	532
14.641	4.904	16387	20652	0	532
17.887	4.291	16387	19859	0	532
19.221	3.390	16387	19005	0	532
17.093	4.868	16387	17969	0	532
15.110	6.419	16386	16932	0	532
12.514	5.337	16387	16080	0	532
13.884	4.400	16386	15287	0	532
14.713	3.318	16385	14555	0	532
13.812	3.750	16385	13702	0	532
14.317	6.239	16385	12848	0	532
12.946	9.917	16384	12116	0	532
10.566	11.396	16384	11506	0	532
14.461	9.917	16384	10958	0	532
15.038	6.816	16384	10592	0	532
19.149	6.744	16384	11019	0	532
19.906	6.888	16384	12055	0	532
21.024	8.943	16384	13031	0	532
19.473	9.881	16384	13702	0	532
19.582	9.448	16384	14616	0	532
22.575	8.835	16384	15653	0	532
25.352	12.009	16384	16384	0	532
30.148	15.182	16384	16688	0	532
33.177	19.798	16385	17176	0	532
34.836	22.755	16385	17847	0	532
33.718	25.496	16385	18213	0	532
31.626	24.270	16385	18274	0	532
28.489	25.243	16386	18518	0	532
25.027	27.155	16386	19005	0	532
24.234	25.532	16386	19188	0	532
26.506	23.260	16386	18944	0	532
26.974	21.493	16386	18457	0	532
26.614	21.024	16386	17847	0	532
21.637	20.123	16386	17115	0	532
15.975	23.476	16385	16384	0	532
13.307	25.099	16385	15531	0	532
15.038	26.722	16384	14677	0	532
22.791	30.436	16384	13884	0	532
27.551	33.141	16384	13214	0	532
32.095	37.432	16384	12665	0	532
29.895	37.649	16384	12177	0	532
25.820	33.826	16383	11689	0	532
23.368	28.886	16383	11324	0	532
21.096	26.433	16382	11202	0	532
22.719	25.712	16382	11628	0	532
27.335	28.381	16382	12604	0	532
28.164	32.023	16382	13458	0	532
28.958	32.167	16383	14006	0	532
27.515	31.590	16383	14799	0	532
24.955	29.535	16383	15958	0	532
23.909	28.958	16383	16749	0	532
24.630	31.230	16383	17237	0	532
28.273	35.413	16384	17908	0	532
29.751	39.704	16384	19005	0	532
31.230	40.966	16384	19859	0	532
30.292	41.075	16384	20103	0	532
29.210	38.118	16384	19920	0	532
25.893	34.043	16384	19493	0	532
23.765	29.354	16384	18944	0	532
19.293	20.627	16384	18152	0	532
12.946	13.127	16384	17298	0	532
9.232	9.160	16384	16505	0	532
10.494	12.117	16383	15836	0	532
17.670	19.690	16383	15104	0	532
22.647	24.666	16382	14494	0	532
23.080	21.781	16382	14006	0	532
15.182	15.615	16382	13702	0	532
1.046	7.573	16381	13458	0	532
-6.563	2.669	16382	13336	0	532
-6.888	3.354	16381	13763	0	532
-4.580	3.029	16381	14799	0	532
-3.029	-1.154	16382	15775	0	532
-4.364	-5.806	16382	16384	0	532
-11.396	-10.819	16382	16932	0	532
-15.507	-11.684	16382	17786	0	532
-16.589	-10.242	16383	18884	0	532
-17.670	-7.609	16383	19737	0	532
-16.805	-10.422	16384	20713	0	532
-19.906	-14.966	16384	22298	0	532
-19.510	-16.048	16385	23884	0	532
-16.625	-14.317	16386	24676	0	532
-11.215	-5.950	16387	24798	0	532
-5.265	0.974	16387	25042	0	532
-2.885	1.442	16388	25347	0	532
-4.904	-3.246	16389	25286	0	532
-7.645	-6.744	16389	24859	0	532
-9.376	-6.780	16390	24127	0	532
-9.448	-3.426	16390	23274	0	532
-7.212	0.757	16390	22176	1	748
-4.219	1.551	16390	20713	0	748
-4.832	-0.397	16390	19127	0	748
-3.859	-2.019	16389	17481	0	748
-1.442	-0.757	16389	15958	0	748
2.524	3.210	16388	14433	0	748
7.537	7.212	16387	13092	0	748
10.891	9.484	16387	11872	0	748
8.727	9.809	16386	10653	0	748
3.498	8.186	16386	9738	0	748
0.829	6.852	16385	9433	0	748
4.147	6.960	16385	9616	0	748
11.756	10.819	16385	9677	0	748
17.490	13.631	16385	9494	0	748
20.339	14.894	16384	9677	0	748
16.444	15.110	16384	10287	0	748
12.405	11.360	16384	10714	0	748
11.973	9.124	16384	11080	0	748
12.694	11.540	16384	11872	0	748
16.985	15.867	16384	13031	0	748
16.661	22.106	16385	13945	0	748
14.785	21.313	16384	14250	0	748
9.160	17.238	16384	14311	0	748
5.481	8.979	16384	14433	0	748
5.301	3.714	16384	14555	0	748
9.665	4.291	16384	14494	0	748
13.668	8.871	16384	14311	0	748
11.937	11.576	16384	14128	0	748
6.599	8.727	16384	13884	0	748
-0.144	4.039	16384	13641	0	748
-3.750	1.839	16383	13397	0	748
1.659	5.626	16383	13275	0	748
11.071	12.946	16383	13214	0	748
18.247	19.473	16382	13275	0	748
24.594	23.476	16382	13397	0	748
25.496	21.781	16382	14067	0	748
24.053	19.834	16382	15226	0	748
22.503	18.175	16382	16080	0	748
16.625	13.740	16382	16505	0	748
13.812	11.973	16382	17298	0	748
11.937	11.900	16383	18335	0	748
13.704	13.956	16383	18944	0	748
20.772	20.880	16384	19188	0	748
24.486	23.476	16384	19676	0	748
27.696	24.666	16384	20286	0	748
24.306	22.972	16384	20591	0	748
20.050	17.238	16384	20469	0	748
13.451	13.487	16384	20103	0	748
11.540	10.566	16384	19493	0	748
11.179	12.045	16384	18823	0	748
13.343	16.877	16384	18152	0	748
19.437	19.798	16384	17420	0	748
21.890	22.539	16383	16627	0	748
22.791	20.664	16383	15958	0	748
20.195	17.670	16383	15226	0	748
18.464	15.939	16382	14555	0	748
17.166	15.975	16381	13945	0	748
19.293	17.238	16381	13458	0	748
23.224	20.159	16380	13092	0	748
23.693	22.142	16380	13031	0	748
25.929	23.116	16381	13458	0	748
26.614	25.748	16381	14311	0	748
27.876	26.974	16381	14982	0	748
30.328	28.922	16381	15531	0	748
32.420	32.023	16381	16444	0	748
34.692	32.708	16382	17725	0	748
36.134	32.600	16382	18762	0	748
37.432	31.122	16382	19493	0	748
37.468	31.122	16384	20347	0	748
35.701	32.095	16384	21323	0	748
32.744	32.095	16384	21871	0	748
31.951	30.581	16384	21993	0	748
34.800	28.705	16384	21749	0	748
39.163	26.722	16384	21201	0	748
44.176	27.840	16384	20469	0	748
45.222	29.210	16384	19676	0	748
42.842	31.518	16384	18762	0	748
36.242	28.741	16384	17908	0	748
29.066	26.181	16384	17176	0	748
25.748	23.116	16384	16505	0	748
23.729	20.844	16384	15714	0	748
23.044	16.228	16383	13519	0	748
23.657	12.153	16379	7726	0	748
20.339	8.439	16374	0	0	748
15.975	7.068	16370	0	0	748
10.422	9.556	16368	0	0	748
7.537	12.586	16365	0	0	748
8.330	13.992	16364	0	0	748
9.232	11.900	16362	0	0	748
11.756	10.891	16362	0	0	748
13.235	10.278	16361	0	0	748
13.415	10.927	16361	287	0	748
14.172	13.343	16361	3945	0	748
16.012	14.858	16362	8092	0	748
14.605	15.182	16363	12482	0	748
15.398	16.084	16364	16566	0	748
14.317	15.867	16365	20408	0	748
17.490	18.103	16367	24371	0	748
19.221	18.247	16369	28274	0	748
21.132	19.690	16370	31444	0	748
19.077	17.706	16373	32767	0	748
19.654	16.733	16373	32767	0	748
18.897	14.136	16375	32767	0	748
22.358	15.723	16376	32767	0	748
24.017	15.507	16377	32767	0	748
20.772	16.444	16378	32767	0	748
15.831	12.838	16380	32767	0	748
8.258	6.419	16380	32767	0	748
4.652	2.019	16381	32767	0	748
5.842	-0.613	16381	32767	1	436
8.294	1.298	16382	31932	0	436
10.566	3.246	16383	30591	0	436
10.061	4.075	16383	29310	0	436
7.501	2.813	16384	28091	0	436
6.708	1.082	16384	27298	0	436
7.357	0.902	16384	26871	0	436
7.970	2.128	16385	26262	0	436
6.744	0.361	16385	25530	0	436
3.462	-1.334	16387	25225	0	436
2.236	-3.101	16388	25652	0	436
4.219	-1.154	16389	26079	0	436
9.917	3.823	16390	25896	0	436
13.559	9.412	16392	25469	0	436
15.759	12.045	16392	24920	0	436
14.208	11.287	16393	23944	0	436
10.602	8.366	16393	21140	0	436
9.701	4.868	16389	14433	0	436
10.206	3.967	16385	4860	0	436
10.783	3.462	16383	0	0	436
13.379	5.013	16380	0	0	436
16.913	8.222	16378	0	0	436
17.057	9.124	16375	0	0	436
19.546	9.052	16374	0	0	436
16.589	5.590	16372	0	0	436
13.920	1.659	16372	0	0	436
8.186	-1.947	16370	0	0	436
5.085	-1.226	16370	0	0	436
6.924	0.288	16370	0	0	436
9.845	1.731	16369	0	0	436
11.684	3.750	16369	1567	0	436
10.025	2.777	16369	4372	0	436
5.914	0.397	16370	7238	0	436
-0.072	-2.813	16370	9982	0	436
-4.219	-5.085	16370	12665	0	436
-4.796	-7.825	16371	15775	0	436
-6.780	-8.222	16373	19127	0	436
-4.544	-6.347	16374	22359	0	436
0.541	-1.262	16375	25530	0	436
6.780	3.210	16377	29127	0	436
14.172	5.698	16380	32481	0	436
18.788	8.691	16382	32767	0	436
18.536	6.888	16383	32767	0	436
17.382	5.662	16384	32767	0	436
15.615	6.924	16386	32767	0	436
14.317	7.753	16387	32767	0	436
11.576	6.888	16388	32767	0	436
12.622	7.393	16390	32767	0	436
11.576	6.996	16390	32767	0	436
11.684	7.501	16391	32767	0	436
15.326	7.789	16391	32542	0	436
14.317	8.511	16392	30164	0	436
12.982	7.393	16392	27664	0	436
8.871	7.789	16392	25042	0	436
4.760	7.501	16392	22542	0	436
3.534	7.248	16391	20103	0	436
7.321	7.609	16391	17725	0	436
10.097	7.717	16390	15531	0	436
17.310	9.268	16389	13580	0	436
17.382	9.196	16389	12360	0	436
16.444	9.304	16389	11750	0	436
9.701	5.554	16388	10043	0	436
6.347	3.390	16385	4677	0	436
5.842	2.885	16382	0	0	436
8.943	4.327	16379	0	0	436
12.441	6.744	16377	0	0	436
16.408	8.763	16374	0	0	436
17.815	11.900	16369	0	0	436
18.752	16.264	16364	0	0	436
23.657	18.969	16361	0	0	436
27.010	21.998	16358	0	0	436
27.551	20.195	16356	0	0	436
23.440	16.120	16354	0	0	436
20.231	13.451	16354	0	0	436
15.110	14.172	16353	0	0	436
18.031	15.867	16353	0	0	436
23.404	22.250	16353	0	0	436
31.230	25.099	16354	5714	0	436
37.505	26.650	16355	11506	0	436
39.957	28.597	16357	17054	1	316
42.445	29.318	16359	22359	0	316
42.589	33.754	16361	27115	0	316
46.736	36.242	16362	31323	0	316
49.513	41.075	16364	32767	0	316
54.454	44.212	16366	32767	0	316
58.420	47.638	16369	32767	0	316
61.882	51.352	16371	32767	0	316
65.957	53.949	16373	32767	0	316
66.462	51.424	16371	32767	0	316
67.652	48.756	16371	32767	0	316
66.390	43.635	16370	32767	0	316
62.604	42.373	16370	31262	0	316
58.601	43.815	16370	30530	0	316
51.533	43.743	16371	30591	0	316
47.458	42.048	16372	30835	0	316
46.304	40.281	16374	30896	0	316
47.926	40.173	16374	30957	0	316
54.634	43.022	16375	31018	0	316
54.706	48.143	16377	31079	0	316
50.307	46.556	16378	31018	0	316
42.553	39.308	16379	30774	0	316
37.541	29.607	16380	30408	0	316
38.586	23.549	16381	29981	0	316
44.897	25.135	16383	29310	0	316
50.270	29.282	16383	28579	0	316
52.146	34.259	16384	27847	0	316
48.431	35.557	16384	27054	0	316
43.094	35.016	16384	26201	0	316
40.642	33.934	16385	25469	0	316
41.399	34.259	16386	25103	0	316
43.022	35.088	16388	25042	0	316
44.501	34.944	16388	24737	0	316
43.527	33.357	16389	24188	0	316
38.695	30.545	16391	24066	0	316
31.590	26.794	16392	24249	0	316
26.037	23.909	16393	24066	0	316
25.893	25.352	16394	23518	0	316
32.456	30.040	16395	23213	0	316
39.344	36.855	16397	23091	0	316
45.835	40.714	16398	22542	0	316
46.232	38.226	16398	21566	0	316
43.707	31.699	16399	20652	0	316
39.308	25.460	16400	19981	0	316
38.009	20.952	16401	19127	0	316
37.216	23.260	16401	17908	0	316
36.206	22.467	16401	16505	0	316
32.889	23.044	16401	15043	0	316
28.741	19.798	16401	13519	0	316
26.145	16.372	16401	11811	0	316
24.955	16.480	16401	10165	0	316
22.791	16.841	16400	8580	0	316
24.739	19.762	16399	7055	0	316
26.217	19.654	16399	5714	0	316
28.633	22.467	16398	4616	0	316
33.429	24.378	16397	3702	0	316
37.757	27.263	16397	2848	0	316
40.353	32.925	16396	2238	0	316
41.291	35.774	16394	775	0	316
41.399	37.685	16389	0	0	316
41.724	37.757	16384	0	0	316
40.678	34.583	16376	0	0	316
36.603	29.679	16370	0	0	316
33.538	25.929	16366	0	0	316
30.400	20.447	16362	0	0	316
28.417	19.185	16359	0	0	316
28.669	13.235	16358	0	0	316
26.289	12.189	16357	0	0	316
21.385	7.465	16357	0	0	316
18.103	6.167	16357	0	0	316
13.451	8.475	16358	0	0	316
14.677	12.153	16358	3641	0	316
16.012	16.408	16360	10226	0	316
20.087	22.791	16361	16263	0	316
23.008	24.775	16363	21810	0	316
25.063	25.243	16364	27054	0	316
24.198	24.919	16366	31810	0	316
21.890	20.700	16366	32767	0	316
22.358	18.031	16365	32767	0	316
22.683	19.834	16363	28152	1	316
25.352	22.431	16362	24798	0	316
26.397	27.047	16361	24310	0	316
24.630	30.436	16361	24859	0	316
22.791	29.318	16361	26018	0	316
22.899	26.866	16362	28274	0	316
20.303	22.683	16364	31323	0	316
17.526	20.483	16365	32767	0	316
9.629	13.704	16367	32767	0	316
5.554	8.439	16370	32767	0	316
2.019	5.265	16372	32767	0	316
5.698	6.671	16374	32767	0	316
10.169	11.648	16377	32767	0	316
12.622	18.644	16379	32767	0	316
14.533	21.313	16381	32767	0	316
11.864	22.395	16380	32767	0	316
13.379	19.473	16375	30591	0	316
17.021	18.644	16370	17298	0	316
18.860	16.805	16367	9189	0	316
19.546	16.408	16365	5470	0	316
16.552	13.776	16363	3702	0	316
11.071	15.002	16363	3397	0	316
7.032	14.821	16363	4311	0	316
8.835	16.877	16363	6202	0	316
13.523	19.005	16364	8702	0	316
14.281	17.634	16364	11506	0	316
15.182	14.353	16365	14433	0	316
12.838	8.511	16367	17420	0	316
9.052	5.770	16368	20469	0	316
11.468	6.599	16370	23335	0	316
15.975	9.412	16372	25835	0	316
16.372	10.061	16374	28091	0	316
18.428	11.323	16376	30042	0	316
16.192	12.622	16378	31749	0	316
17.382	13.379	16379	32767	0	316
18.824	18.428	16382	32767	0	316
24.017	20.159	16384	32767	0	316
28.958	22.503	16384	32767	0	316
31.122	24.991	16387	32767	0	316
33.574	29.102	16389	32767	0	316
34.187	33.393	16391	32767	0	316
32.492	31.735	16393	32767	0	316
29.102	26.938	16395	32767	0	316
26.361	19.257	16397	32767	0	316
22.863	16.552	16399	32767	0	316
18.897	14.785	16400	32767	0	316
16.444	16.697	16401	32767	0	316
12.333	16.192	16402	30957	0	316
13.054	16.913	16403	28518	0	316
15.759	16.120	16403	25957	0	316
20.014	20.303	16404	23335	0	316
25.135	23.837	16404	20713	0	316
30.148	25.063	16404	18091	0	316
32.420	25.676	16404	15592	0	316
33.718	23.729	16404	13214	0	316
35.197	22.178	16404	11080	0	316
34.367	20.700	16403	7970	0	316
29.427	17.021	16398	1506	0	316
26.145	15.074	16395	0	0	316
22.647	13.559	16392	0	0	316
22.827	15.759	16389	0	0	316
23.224	15.939	16387	0	0	316
25.171	16.552	16384	0	0	316
26.974	16.408	16382	0	0	316
26.542	15.831	16377	0	0	316
27.191	19.726	16371	0	0	316
29.427	22.142	16365	0	0	316
30.941	25.424	16361	0	0	316
31.338	25.748	16358	0	0	316
32.348	25.388	16355	0	0	316
33.970	25.135	16354	0	0	316
34.151	26.325	16353	0	0	316
34.079	28.417	16353	0	0	316
34.115	29.535	16353	0	0	316
31.158	27.227	16353	0	0	316
30.076	22.755	16351	287	0	316
27.263	17.490	16349	104	0	316
26.145	11.576	16347	165	0	316
24.162	11.215	16343	0	0	316
23.837	13.379	16339	0	1	316
25.171	13.631	16337	0	0	316
28.345	16.156	16336	1324	0	316
27.479	16.949	16336	6689	0	316
27.371	18.031	16337	12848	0	316
22.178	17.526	16338	19615	0	316
19.221	16.913	16340	26566	0	316
14.930	14.353	16343	32767	0	316
16.877	12.730	16346	32767	0	316
17.887	14.389	16349	32767	0	316
22.395	15.471	16354	32767	0	316
23.729	17.382	16358	32767	0	316
24.594	16.733	16362	32767	0	316
23.729	16.372	16366	32767	0	316
21.096	12.802	16371	32767	0	316
20.664	13.091	16376	32767	0	316
20.519	14.569	16379	32767	0	316
19.834	13.307	16382	32767	0	316
21.962	16.264	16382	32767	0	316
21.421	15.254	16381	32767	0	316
25.748	15.146	16377	32767	0	316
28.020	14.821	16374	32481	0	316
29.968	14.858	16371	22603	0	316
30.508	17.995	16370	16810	0	316
31.085	20.844	16368	13641	0	316
31.518	24.522	16368	11933	0	316
33.033	27.551	16368	11445	0	316
31.915	24.125	16369	11933	0	316
29.102	20.231	16369	11994	0	316
24.955	17.634	16367	9006	0	316
19.870	14.172	16366	3763	0	316
20.736	15.939	16364	531	0	316
21.313	17.526	16364	592	0	316
23.657	20.231	16364	2482	0	316
25.279	20.988	16365	5653	0	316
26.614	25.929	16366	8702	0	316
28.381	29.318	16364	6994	0	316
31.266	31.807	16359	0	0	316
33.970	32.492	16356	0	0	316
34.006	28.886	16353	0	0	316
33.285	24.522	16352	0	0	316
30.256	19.149	16352	0	0	316
30.617	16.228	16352	0	0	316
31.626	18.860	16355	3945	0	316
31.482	20.808	16356	10470	0	316
29.066	23.945	16359	16749	0	316
23.368	22.863	16362	22908	0	316
19.041	18.788	16365	28762	0	316
17.851	17.454	16368	32767	0	316
23.693	16.120	16372	32767	0	316
28.417	19.942	16376	32767	0	316
30.472	20.087	16379	32767	0	316
27.479	19.582	16383	32767	0	316
24.089	15.543	16385	32767	0	316
19.978	16.697	16387	32767	0	316
21.168	17.346	16387	32767	0	316
26.109	23.440	16385	32767	0	316
29.210	26.037	16383	27908	0	316
31.735	27.768	16379	16993	0	316
32.528	27.948	16376	9189	0	316
32.780	27.624	16374	4006	0	316
30.220	26.506	16368	0	0	316
30.076	26.794	16361	0	0	316
27.912	25.640	16353	0	0	316
26.037	22.467	16346	0	0	316
24.666	19.473	16339	0	0	316
23.981	18.716	16336	0	0	316
24.847	17.670	16333	0	0	316
24.342	22.034	16332	0	0	316
26.758	24.739	16333	0	0	316
29.030	29.643	16334	0	0	316
30.148	32.672	16335	0	0	316
30.653	33.105	16334	0	0	316
28.128	33.105	16333	0	0	316
22.935	28.994	16331	0	0	316
20.627	25.099	16328	0	0	316
20.087	21.926	16324	0	0	316
22.647	21.565	16321	0	0	316
26.109	22.791	16320	0	0	316
25.388	23.152	16319	1384	1	316
24.017	22.395	16320	8031	0	316
22.539	23.080	16320	12116	0	316
20.411	22.467	16319	14250	0	316
22.395	22.972	16320	18335	0	316
25.820	20.664	16323	25652	0	316
28.345	17.490	16326	32767	0	316
28.994	15.074	16330	32767	0	316
30.328	18.933	16335	32767	0	316
27.804	20.519	16341	32767	0	316
25.856	24.955	16346	32767	0	316
21.818	25.099	16353	32767	0	316
21.277	22.827	16360	32767	0	316
18.067	19.690	16365	32767	0	316
19.329	21.277	16368	32767	0	316
23.549	22.467	16371	32767	0	316
27.479	25.171	16374	32767	0	316
29.499	27.335	16379	32767	0	316
29.895	28.525	16382	32767	0	316
26.650	25.135	16385	32767	0	316
22.358	24.306	16388	32767	0	316
18.680	22.575	16389	32767	0	316
18.680	20.195	16390	32767	0	316
16.336	19.618	16391	32767	0	316
16.408	15.471	16392	32767	0	316
16.084	14.749	16394	32767	0	316
17.887	14.569	16396	32767	0	316
21.890	20.844	16398	32767	0	316
28.453	24.919	16401	32298	0	316
29.679	28.489	16403	31079	0	316
26.397	28.814	16405	30164	0	316
18.897	23.404	16408	29310	0	316
11.215	18.283	16410	28579	0	316
9.196	17.995	16414	27969	0	316
12.441	19.329	16416	27786	0	316
17.851	22.467	16420	27786	0	316
20.736	25.748	16422	27359	0	316
21.926	23.693	16424	26444	0	316
19.870	22.322	16427	25652	0	316
19.942	18.716	16430	25042	0	316
21.349	21.601	16432	24066	0	316
24.162	25.965	16434	22603	0	316
27.119	29.751	16436	21201	0	316
25.316	30.869	16437	19859	0	316
22.467	28.489	16439	18091	0	316
19.762	23.801	16439	14799	0	316
17.490	20.267	16436	7604	0	316
20.303	18.536	16434	0	0	316
21.024	21.096	16431	0	0	316
21.241	21.349	16429	0	0	316
18.752	22.467	16427	0	0	316
15.579	23.296	16425	0	0	316
15.290	20.627	16423	0	0	316
16.480	19.149	16421	0	0	316
18.572	15.110	16416	0	0	316
23.657	16.012	16407	0	0	316
29.030	16.733	16401	0	0	316
28.453	20.050	16395	0	0	316
26.001	18.716	16389	0	0	316
16.841	15.615	16385	0	0	316
5.734	7.789	16384	0	0	316
0.108	3.931	16381	0	0	316
1.659	6.167	16376	0	0	316
10.278	13.487	16373	0	0	316
18.139	19.870	16370	0	0	316
20.303	24.017	16369	0	0	316
20.014	21.709	16367	0	0	316
16.372	19.618	16368	0	0	316
14.281	18.031	16368	0	0	316
15.867	19.473	16366	0	0	316
18.428	22.647	16365	43	0	316
16.408	19.762	16364	2970	0	316
15.651	18.608	16364	8763	0	316
11.179	12.838	16364	15470	0	316
7.789	11.576	16366	22054	0	316
5.986	10.530	16366	27603	0	316
5.301	10.422	16366	29493	0	316
9.376	12.297	16365	28457	0	316
14.713	12.369	16364	28823	0	316
19.726	11.937	16365	31810	1	316
19.185	14.821	16367	32767	0	316
18.824	17.057	16368	32767	0	316
16.120	18.969	16370	32767	0	316
19.005	22.358	16373	32767	0	316
23.693	25.893	16375	32767	0	316
24.883	24.486	16374	32767	0	316
22.034	20.339	16372	32767	0	316
13.451	16.589	16370	32767	0	316
7.321	10.386	16367	28213	0	316
4.183	7.862	16365	24005	0	316
6.455	8.330	16365	23396	0	316
8.763	8.258	16366	24676	0	316
9.232	5.049	16367	27542	0	316
10.566	3.137	16370	31993	0	316
11.143	4.291	16373	32767	0	316
14.028	7.357	16377	32767	0	316
18.572	13.379	16380	32767	0	316
17.598	16.372	16384	32767	0	316
17.598	18.247	16386	32767	0	316
15.326	16.120	16387	32767	0	316
17.021	16.625	16388	32767	0	316
19.401	17.995	16388	32767	0	316
22.322	18.716	16390	32767	0	316
22.863	18.860	16391	32767	0	316
18.897	21.277	16392	32767	0	316
18.356	21.926	16390	30957	0	316
18.969	28.020	16385	18579	0	316
23.224	30.653	16382	5348	0	316
25.856	32.420	16378	0	0	316
25.027	28.741	16376	0	0	316
22.358	21.709	16373	0	0	316
13.091	15.435	16369	0	0	316
8.114	10.422	16362	0	0	316
2.705	6.780	16357	0	0	316
2.092	8.366	16352	0	0	316
5.770	9.917	16349	0	0	316
9.124	10.746	16345	0	0	316
12.586	10.746	16340	0	0	316
14.281	13.163	16336	0	0	316
15.723	12.045	16333	0	0	316
19.257	14.208	16331	0	0	316
20.195	17.021	16331	0	0	316
19.005	15.579	16333	0	0	316
15.615	16.625	16335	0	0	316
11.360	15.615	16338	9494	0	316
9.520	19.618	16342	20896	0	316
13.451	20.267	16346	32054	0	316
16.733	21.601	16351	32767	0	316
16.120	20.339	16351	32767	0	316
16.877	17.346	16350	32767	0	316
14.317	20.952	16349	32767	0	316
17.490	25.784	16348	32481	0	316
21.096	34.079	16348	32767	0	316
27.768	39.740	16346	30774	0	316
29.354	41.940	16341	22786	0	316
27.840	39.019	16339	14677	0	316
23.801	34.583	16337	11872	0	316
20.808	30.689	16336	12787	0	316
18.572	25.856	16333	11506	0	316
16.805	23.657	16329	5531	0	316
17.490	22.142	16325	0	0	316
14.749	17.815	16324	0	0	316
11.323	16.012	16325	4372	0	316
9.448	12.153	16327	12299	0	316
6.888	10.386	16331	21079	0	316
7.970	10.097	16334	29432	0	316
10.674	10.350	16336	32767	0	316
13.920	7.717	16338	32767	0	316
12.225	5.662	16342	32767	0	316
8.186	3.534	16346	32767	0	316
3.426	2.813	16350	32767	0	316
0.180	5.229	16351	32767	0	316
0.397	8.727	16353	32767	0	316
5.590	11.973	16353	32767	0	316
13.235	17.310	16352	32767	0	316
19.365	20.880	16354	32767	0	316
24.955	25.027	16355	32767	0	316
29.643	28.561	16354	32767	0	316
31.554	29.535	16351	27298	1	316
33.105	30.004	16349	17908	0	316
36.711	30.364	16348	13763	0	316
37.613	32.925	16348	14433	0	316
38.045	33.574	16349	16202	0	316
34.620	32.853	16348	14555	0	316
29.499	29.715	16343	6628	0	316
24.053	23.404	16336	0	0	316
19.618	17.598	16329	0	0	316
17.454	15.939	16324	0	0	316
12.802	14.064	16321	0	0	316
7.681	11.504	16321	0	0	316
3.065	9.989	16320	0	0	316
1.442	7.681	16318	0	0	316
3.462	7.573	16314	0	0	316
9.592	10.206	16309	0	0	316
12.261	12.333	16301	0	0	316
12.982	13.487	16293	0	0	316
12.153	14.858	16284	0	0	316
11.504	16.012	16278	0	0	316
12.982	17.021	16271	0	0	316
19.221	21.132	16267	0	0	316
22.106	20.375	16262	0	0	316
21.890	20.555	16256	0	0	316
18.247	17.346	16250	0	0	316
10.494	12.261	16245	0	0	316
5.950	9.520	16241	0	0	316
8.150	10.927	16235	0	0	316
12.189	13.704	16230	0	0	316
14.785	15.795	16227	0	0	316
16.156	17.021	16225	0	0	316
14.353	14.641	16225	0	0	316
15.074	15.543	16228	5958	0	316
19.113	18.969	16233	24554	0	316
23.585	23.188	16239	32767	0	316
22.034	22.106	16245	32767	0	316
19.149	17.526	16251	32767	0	316
11.323	9.412	16257	32767	0	316
10.133	9.268	16261	32767	0	316
12.441	12.586	16266	32767	0	316
17.166	19.618	16270	32767	0	316
22.611	24.594	16275	32767	0	316
25.316	27.624	16281	32767	0	316
25.388	26.866	16289	32767	0	316
27.371	27.624	16296	32767	0	316
26.325	27.335	16304	32767	0	316
23.116	24.991	16312	32767	0	316
19.113	20.267	16321	32767	0	316
16.336	17.887	16330	32767	0	316
15.867	19.113	16336	32767	0	316
16.769	17.743	16341	32767	0	316
18.356	17.093	16345	32767	0	316
13.018	13.379	16347	32767	0	316
7.032	6.888	16350	32767	0	316
1.803	2.452	16352	32767	0	316
-1.046	2.957	16351	32767	0	316
2.524	6.888	16352	32767	0	316
8.366	13.343	16353	32767	0	316
16.589	18.536	16354	32767	0	316
22.431	22.070	16355	28762	0	316
21.818	23.404	16354	20347	0	316
20.916	24.739	16351	9067	0	316
19.149	26.614	16346	0	0	316
15.615	26.758	16341	0	0	316
14.064	25.676	16334	0	0	316
10.963	20.736	16325	0	0	316
8.979	19.401	16316	0	0	316
10.746	17.706	16308	0	0	316
16.877	20.591	16298	0	0	316
20.772	20.952	16289	0	0	316
20.772	20.014	16279	0	0	316
20.050	19.762	16270	0	0	316
15.831	18.320	16264	0	0	316
18.175	21.385	16260	0	0	316
19.257	23.368	16257	0	0	316
22.575	28.128	16257	0	0	316
22.791	29.679	16256	0	0	316
23.404	30.364	16257	0	0	316
23.296	29.354	16257	0	0	316
20.952	25.965	16258	0	1	316
20.050	22.683	16260	0	0	316
15.831	20.159	16260	1567	0	316
14.497	18.464	16259	6689	0	316
11.540	20.195	16257	9372	0	316
12.405	21.313	16255	10531	0	316
13.415	25.027	16253	10653	0	316
13.812	29.138	16249	10043	0	316
17.129	31.410	16246	9189	0	316
16.805	33.502	16243	8580	0	316
18.356	32.059	16240	8275	0	316
15.759	26.758	16237	8945	0	316
12.838	21.926	16238	13153	0	316
9.773	14.749	16239	20835	0	316
7.681	14.100	16239	27786	0	316
6.780	11.179	16240	31810	0	316
7.393	13.631	16239	32767	0	316
6.167	12.802	16240	32767	0	316
2.777	13.054	16241	32767	0	316
3.570	15.543	16243	32767	0	316
6.744	18.139	16247	32767	0	316
9.989	25.171	16250	32767	0	316
13.848	25.460	16255	32767	0	316
12.802	24.775	16260	32767	0	316
9.160	21.709	16263	32767	0	316
6.816	17.995	16265	32767	0	316
9.124	17.995	16266	32767	0	316
11.648	22.575	16267	32767	0	316
16.084	24.594	16267	32767	0	316
15.507	25.388	16267	32767	0	316
11.504	23.152	16266	32767	0	316
7.970	17.743	16266	32767	0	316
5.698	13.379	16264	32767	0	316
3.173	9.160	16263	28701	0	316
2.921	8.258	16261	23457	0	316
3.750	9.232	16260	18579	0	316
6.671	12.766	16258	14250	0	316
13.704	15.939	16257	10470	0	316
18.608	20.375	16256	7848	0	316
22.827	22.214	16255	6750	0	316
21.529	24.017	16254	6445	0	316
21.349	26.578	16254	6202	0	316
21.060	29.138	16254	6324	0	316
23.188	30.364	16254	6994	0	316
26.470	27.840	16254	7665	0	316
26.938	26.073	16254	8275	0	316
26.578	24.630	16254	8824	0	316
27.299	25.640	16254	9372	0	316
27.515	29.679	16254	10043	0	316
26.938	33.069	16254	10958	0	316
28.777	34.151	16255	13275	0	316
26.325	33.754	16259	19310	0	316
25.099	34.006	16264	29310	0	316
20.916	33.285	16271	32767	0	316
22.647	34.043	16278	32767	0	316
25.352	34.511	16284	32767	0	316
26.109	33.105	16288	32767	0	316
26.506	31.879	16293	32767	0	316
24.198	27.948	16296	32767	0	316
18.788	24.811	16299	32767	0	316
14.461	23.621	16305	32767	0	316
15.326	22.827	16312	32767	0	316
15.326	23.621	16318	32767	0	316
15.615	27.119	16326	32767	0	316
17.706	27.515	16332	32767	0	316
15.651	25.207	16336	32767	0	316
13.235	20.267	16339	32767	0	316
7.825	14.966	16341	32767	0	316
2.669	9.376	16345	32767	0	316
0.505	8.042	16350	32767	0	316
-0.974	9.124	16354	32767	0	316
1.406	10.025	16357	32767	0	316
3.570	11.251	16359	32767	0	316
7.825	16.408	16360	32767	0	316
11.143	22.286	16360	29920	0	316
14.930	29.427	16359	20408	0	316
20.555	32.384	16357	10958	0	316
22.863	32.600	16356	1811	0	316
26.794	30.508	16353	0	0	316
29.030	29.138	16350	0	1	316
29.246	30.436	16347	0	0	316
25.965	30.581	16344	0	0	316
21.024	28.886	16344	0	0	316
15.362	24.919	16345	0	0	316
13.668	19.113	16344	0	0	316
10.710	16.913	16344	0	0	316
12.081	14.100	16347	0	0	316
12.189	16.552	16348	0	0	316
12.045	17.454	16350	0	0	316
15.867	22.575	16350	0	0	316
17.959	24.017	16349	0	0	316
20.267	26.397	16349	0	0	316
19.834	27.371	16348	0	0	316
20.195	28.525	16346	0	0	316
21.385	31.735	16345	0	0	316
24.919	35.810	16345	0	0	316
30.905	40.426	16346	0	0	316
36.351	41.580	16349	4128	0	316
39.163	43.383	16351	10470	0	316
39.380	40.642	16352	13031	0	316
37.432	37.396	16353	14555	0	316
31.410	33.466	16356	18579	0	316
26.001	28.886	16359	24432	0	316
18.464	26.686	16360	27786	0	316
15.254	23.873	16362	27542	0	316
14.425	23.476	16361	25530	0	316
16.589	26.433	16361	22542	0	316
20.195	27.551	16361	20042	0	316
23.693	30.400	16362	20835	0	316
25.063	29.787	16364	24127	0	316
24.630	26.974	16364	25591	0	316
22.791	24.414	16365	23944	0	316
25.027	24.162	16364	20896	0	316
25.063	26.830	16364	18518	0	316
27.407	30.040	16365	19371	0	316
29.607	30.364	16369	23823	0	316
28.056	27.227	16372	30103	0	316
23.512	22.106	16378	32767	0	316
19.726	20.267	16384	32767	0	316
19.906	17.779	16389	32767	0	316
19.401	20.050	16396	32767	0	316
25.099	25.712	16402	32767	0	316
30.400	29.895	16406	32767	0	316
32.420	32.889	16409	32767	0	316
30.833	34.115	16409	32767	0	316
25.640	32.095	16409	32767	0	316
22.719	29.174	16407	32767	0	316
21.168	29.463	16405	27542	0	316
26.974	32.384	16402	16566	0	316
32.961	35.160	16400	6872	0	316
32.131	35.197	16398	1202	0	316
26.397	31.518	16397	0	0	316
15.326	25.676	16394	0	0	316
9.160	20.231	16392	0	0	316
7.609	19.257	16388	0	0	316
10.927	18.067	16385	0	0	316
14.317	20.844	16382	0	0	316
15.074	19.762	16378	0	0	316
15.507	21.709	16377	0	0	316
