neuroNicle FX2
D3F25R12
Bluetooth SPP
2023년 3월 27일 월요일
오후 5:04
time interval = 4msec
EEG1	EEG2	PPG	sdPPG	pulse	peak_interval(msec)
34.259	-3.065	16384	18884	0	316
30.148	-7.212	16384	18415	0	316
26.217	-10.458	16384	18102	0	316
23.981	-10.638	16384	17790	0	316
25.640	-7.609	16385	17790	0	316
28.237	-2.633	16385	17634	0	316
32.961	5.193	16384	17321	0	316
37.000	15.398	16384	16852	0	316
42.445	23.476	16384	16696	0	316
44.609	29.210	16384	16852	0	316
44.933	28.922	16384	16540	0	316
41.580	20.267	16384	15916	0	316
36.387	13.451	16384	15134	0	316
30.833	7.321	16384	14509	0	316
26.614	8.979	16384	14197	0	316
22.647	9.520	16384	13728	0	316
22.575	10.494	16384	13416	0	316
24.198	8.186	16384	13103	0	316
26.217	8.330	16384	12947	0	316
27.227	7.898	16384	12947	0	316
26.902	7.862	16384	13259	0	316
27.047	8.294	16384	13728	0	316
29.030	6.347	16384	14041	0	316
33.826	7.898	16384	14509	0	316
37.432	10.097	16384	15134	0	316
39.127	12.946	16384	15916	0	316
35.701	14.533	16384	16384	0	316
29.751	10.746	16384	16696	0	316
22.358	5.770	16384	16852	0	316
21.421	2.416	16384	17165	0	316
21.349	-0.216	16384	17321	0	316
25.929	0.180	16384	17165	0	316
31.122	2.092	16384	16540	0	316
32.889	6.671	16384	16228	0	316
33.141	9.088	16384	15759	0	316
34.836	11.900	16384	15291	0	316
32.708	11.432	16384	14666	0	316
32.600	10.458	16384	14041	0	316
31.122	8.619	16384	13416	0	316
27.227	6.311	16384	12791	0	316
23.476	5.842	16384	12478	0	316
18.428	1.623	16384	12478	0	316
13.127	0.865	16384	12322	0	316
11.612	-0.252	16384	12322	0	316
13.235	0.288	16384	12322	0	316
16.192	1.226	16384	12634	0	316
21.060	1.803	16384	13416	0	316
21.998	1.046	16384	14353	0	316
22.611	1.659	16384	15447	0	316
20.988	1.262	16384	16384	0	316
19.510	1.803	16384	17165	0	316
19.654	1.046	16384	17946	0	316
16.769	0.721	16384	18415	0	316
17.706	1.298	16384	18727	0	316
18.644	1.442	16384	19040	0	316
23.657	2.921	16384	19196	0	316
28.850	4.832	16384	19665	0	316
33.393	4.832	16384	19977	0	316
31.951	3.570	16384	20134	0	316
26.938	-0.325	16384	20134	0	316
23.909	-5.265	16384	20134	0	316
20.303	-8.475	16384	20290	0	316
22.322	-7.176	16384	20446	0	316
26.866	-3.210	16384	20602	0	316
26.470	0.865	16384	20602	0	316
21.601	2.344	16384	20915	0	316
14.281	-0.325	16384	21384	0	316
3.859	-2.524	16384	22009	0	316
-1.154	-3.823	16385	22321	0	316
0.036	-2.308	16385	22165	0	316
5.409	0.685	16385	21540	0	316
9.629	0.613	16385	20915	0	316
10.061	-1.406	16385	19977	0	316
7.248	-4.183	16385	19196	1	764
1.983	-9.665	16385	18259	0	764
-1.118	-13.631	16385	17634	0	764
-3.390	-14.821	16385	17165	0	764
-5.049	-16.012	16385	16384	0	764
-8.294	-16.156	16385	15759	0	764
-12.982	-19.077	16385	15134	0	764
-19.546	-22.827	16385	14822	0	764
-25.063	-30.581	16385	14666	0	764
-28.381	-36.783	16385	14509	0	764
-30.581	-39.308	16385	14353	0	764
-29.282	-39.127	16385	14041	0	764
-27.696	-36.459	16385	13728	0	764
-24.666	-34.475	16385	13572	0	764
-21.890	-33.213	16385	13728	0	764
-20.123	-34.656	16385	13884	0	764
-17.057	-35.629	16385	13884	0	764
-16.300	-32.708	16385	13884	0	764
-13.631	-28.201	16385	13884	0	764
-12.225	-24.414	16385	14041	0	764
-9.160	-18.572	16384	14041	0	764
-6.167	-17.238	16385	14509	0	764
-3.498	-13.487	16385	15134	0	764
-0.685	-12.586	16385	15759	0	764
1.442	-13.127	16384	15759	0	764
0.577	-13.559	16384	15447	0	764
-0.902	-19.077	16384	15447	0	764
-0.361	-20.844	16384	15291	0	764
0.469	-23.008	16384	14822	0	764
1.118	-23.693	16384	14197	0	764
-1.190	-23.080	16384	13728	0	764
-4.436	-22.647	16384	13572	0	764
-10.783	-24.089	16384	13884	0	764
-16.480	-27.191	16384	14353	0	764
-20.772	-36.747	16384	14822	0	764
-27.515	-48.179	16384	15134	0	764
-36.206	-63.145	16384	15291	0	764
-42.301	-73.927	16384	15134	0	764
-41.399	-75.478	16384	14822	0	764
-33.646	-69.311	16384	14197	0	764
-26.470	-59.574	16384	13572	0	764
-28.309	-52.687	16384	12947	0	764
-42.337	-56.978	16384	12478	0	764
-59.719	-63.577	16384	12634	0	764
-70.321	-68.878	16384	12947	0	764
-67.724	-65.813	16384	13572	0	764
-56.329	-55.319	16384	14041	0	764
-43.996	-43.455	16384	14197	0	764
-38.009	-33.970	16384	14509	0	764
-32.997	-29.499	16384	15134	0	764
-29.463	-25.316	16384	15603	0	764
-27.047	-26.397	16384	15759	0	764
-28.345	-28.237	16384	15759	0	764
-29.859	-31.374	16383	15603	0	764
-33.033	-33.177	16384	15603	0	764
-34.151	-32.131	16384	15916	0	764
-34.836	-28.922	16384	16228	0	764
-31.951	-23.729	16384	16540	0	764
-33.466	-20.050	16384	16852	0	764
-36.495	-19.690	16384	17009	0	764
-40.137	-19.221	16384	17321	0	764
-45.835	-21.421	16384	17634	0	764
-53.191	-22.827	16384	17790	0	764
-56.149	-22.322	16384	17790	0	764
-59.899	-22.358	16384	17790	0	764
-66.534	-22.611	16384	17946	0	764
-75.406	-27.335	16384	18259	0	764
-84.421	-31.049	16384	18727	0	764
-87.450	-32.780	16384	19040	0	764
-86.477	-31.482	16384	18884	0	764
-80.346	-30.220	16384	18259	0	764
-75.802	-28.886	16383	17477	0	764
-74.071	-28.669	16383	16696	0	764
-72.557	-27.948	16383	16228	0	764
-68.987	-25.316	16383	16228	0	764
-64.154	-21.745	16383	16384	0	764
-58.709	-23.332	16383	17009	0	764
-54.237	-27.660	16383	17634	0	764
-52.182	-28.669	16384	18415	0	764
-49.333	-26.974	16384	19352	0	764
-45.907	-23.440	16384	19977	0	764
-45.041	-24.234	16384	20446	0	764
-42.481	-30.184	16384	20446	0	764
-41.976	-39.452	16384	20134	0	764
-42.806	-45.546	16384	19665	0	764
-44.176	-45.258	16384	19040	0	764
-43.599	-42.878	16384	18571	0	764
-43.635	-41.796	16384	18571	0	764
-44.032	-43.347	16384	18571	0	764
-45.871	-46.195	16384	18571	0	764
-47.530	-47.205	16384	19196	0	764
-48.287	-46.195	16384	19977	0	764
-49.225	-42.589	16384	20915	0	764
-48.648	-39.416	16384	21071	0	764
-44.969	-34.115	16384	20602	0	764
-42.553	-28.453	16384	19509	0	764
-37.432	-21.421	16384	18571	0	764
-32.167	-12.730	16384	18102	0	764
-30.689	-7.789	16384	17790	0	764
-34.187	-10.566	16384	17790	0	764
-39.055	-17.562	16384	17477	0	764
-40.714	-27.479	16385	17321	0	764
-40.606	-32.853	16385	17321	0	764
-39.380	-35.954	16385	17165	0	764
-41.075	-36.819	16385	16852	0	764
-46.592	-39.308	16385	16540	0	764
-49.549	-39.849	16385	16384	0	764
-47.133	-41.363	16385	16384	0	764
-41.291	-39.921	16385	16072	0	764
-35.810	-39.560	16385	15916	0	764
-37.505	-42.481	16384	15291	0	764
-42.229	-44.861	16385	14353	0	764
-47.205	-47.746	16385	13572	0	764
-44.212	-46.087	16385	12947	0	764
-37.973	-44.140	16384	12322	0	764
-30.112	-43.419	16384	12166	0	764
-28.309	-46.484	16384	12322	0	764
-30.617	-50.631	16384	12478	0	764
-35.810	-54.526	16384	13103	0	764
-37.432	-55.968	16384	13728	0	764
-35.016	-53.300	16384	13884	0	764
-29.968	-50.090	16384	13884	0	764
-24.630	-45.979	16384	13572	0	764
-19.221	-46.448	16384	13103	0	764
-17.202	-45.366	16384	12634	0	764
-13.127	-44.861	16384	12478	0	764
-10.566	-46.628	16384	12322	0	764
-4.616	-45.186	16384	12009	0	764
1.262	-41.111	16384	11384	0	764
8.835	-38.190	16384	10916	0	764
12.766	-35.954	16384	10759	0	764
11.684	-37.829	16384	10916	0	764
9.016	-42.301	16383	11384	0	764
4.652	-48.864	16383	12009	0	764
7.248	-48.792	16384	12634	0	764
16.012	-47.422	16384	13572	0	764
28.777	-40.750	16384	14509	0	764
41.327	-34.656	16384	15291	0	764
47.458	-34.187	16384	16072	0	764
48.792	-34.403	16384	16852	0	764
46.484	-36.783	16384	17634	0	764
45.222	-37.829	16384	17946	0	764
46.700	-38.045	16384	17946	0	764
49.657	-39.163	16384	18259	0	764
48.792	-41.868	16384	18571	0	764
51.677	-44.068	16384	18571	0	764
55.896	-47.205	16384	18102	0	764
62.459	-46.664	16384	17165	0	764
67.580	-44.501	16383	16384	0	764
68.301	-47.818	16383	15291	0	764
62.928	-50.054	16383	14666	0	764
57.339	-51.641	16383	14509	0	764
56.906	-52.362	16383	14509	0	764
59.647	-44.681	16383	14666	0	764
66.859	-37.252	16383	14978	0	764
69.960	-32.564	16383	15603	0	764
68.085	-31.590	16383	16540	0	764
64.154	-35.846	16383	17477	0	764
61.378	-37.649	16383	18102	0	764
60.837	-36.819	16383	18571	0	764
62.712	-34.656	16383	18884	0	764
63.397	-33.105	16383	19040	0	764
59.394	-34.439	16383	19040	0	764
53.011	-35.521	16383	18727	0	764
52.614	-33.862	16383	17946	0	764
52.867	-29.391	16383	17165	0	764
56.149	-25.532	16383	16540	0	764
53.408	-24.414	16383	16384	0	764
46.448	-28.922	16383	16228	0	764
36.567	-31.771	16383	16384	0	764
31.302	-35.701	16383	16540	0	764
35.918	-32.816	16383	16696	0	764
43.310	-29.102	16383	17009	0	764
51.100	-28.128	16384	17477	0	764
51.280	-31.446	16383	18259	0	764
45.114	-36.819	16383	19196	0	764
39.921	-42.517	16384	20134	0	764
41.760	-42.084	16384	20602	0	764
49.946	-36.351	16384	20915	0	764
57.699	-28.669	16384	21071	0	764
60.368	-25.568	16384	21384	0	764
54.237	-27.768	16384	21227	0	764
43.455	-35.701	16384	21071	0	764
34.764	-45.005	16384	21071	0	764
27.515	-53.300	16384	21227	0	764
21.854	-55.788	16384	21071	1	740
17.202	-57.014	16384	20915	0	740
14.208	-55.211	16384	20759	0	740
13.379	-52.290	16384	20446	0	740
18.320	-49.693	16384	19977	0	740
22.755	-45.943	16384	19352	0	740
27.263	-41.832	16384	18571	0	740
29.246	-40.462	16384	17321	0	740
29.066	-41.219	16384	16384	0	740
29.535	-44.104	16384	15759	0	740
33.466	-46.592	16384	15134	0	740
40.822	-45.691	16384	14197	0	740
46.953	-46.015	16384	12791	0	740
53.732	-44.537	16384	11384	0	740
54.526	-46.123	16384	10447	0	740
56.617	-50.090	16384	10134	0	740
59.827	-52.975	16384	9822	0	740
64.046	-55.175	16384	9509	0	740
69.780	-55.139	16384	9509	0	740
70.970	-58.493	16383	9978	0	740
68.121	-60.332	16383	10603	0	740
64.335	-63.866	16383	11384	0	740
64.118	-64.695	16383	12166	0	740
66.534	-62.387	16383	12791	0	740
71.583	-54.057	16383	13103	0	740
74.071	-48.792	16383	12947	0	740
71.727	-45.546	16383	12791	0	740
66.138	-47.962	16383	12791	0	740
58.853	-51.244	16383	12947	0	740
54.814	-50.847	16383	13103	0	740
52.939	-51.713	16383	13728	0	740
51.785	-49.766	16383	14353	0	740
50.307	-50.847	16383	15134	0	740
44.392	-51.388	16383	15759	0	740
37.685	-52.867	16383	16072	0	740
31.879	-49.513	16383	16540	0	740
31.410	-47.349	16383	17165	0	740
34.295	-43.851	16383	17946	0	740
36.711	-42.517	16383	18727	0	740
36.964	-40.966	16383	19509	0	740
35.341	-39.812	16383	19977	0	740
35.882	-38.983	16383	20134	0	740
37.757	-34.115	16383	20134	0	740
39.488	-31.807	16383	19977	0	740
36.603	-31.987	16383	19977	0	740
28.705	-33.285	16383	19977	0	740
22.683	-35.341	16384	20134	0	740
21.926	-32.889	16384	19977	0	740
24.017	-25.676	16384	19509	0	740
25.784	-20.303	16384	19196	0	740
24.666	-19.149	16384	18884	0	740
15.651	-21.818	16384	18571	0	740
10.386	-27.624	16384	18259	0	740
4.760	-32.708	16384	17790	0	740
4.400	-35.521	16384	17477	0	740
4.472	-37.865	16384	17321	0	740
4.760	-38.911	16384	17009	0	740
3.787	-38.262	16384	17009	0	740
0.649	-36.603	16384	17009	0	740
-4.472	-34.115	16384	17009	0	740
-7.140	-32.312	16384	17009	0	740
-8.655	-31.987	16384	17165	0	740
-5.986	-33.177	16384	17009	0	740
-1.010	-34.403	16384	16852	0	740
6.022	-34.656	16384	16540	0	740
12.333	-33.862	16384	16072	0	740
21.060	-32.708	16384	15759	0	740
26.433	-36.026	16384	15447	0	740
26.506	-40.606	16384	15134	0	740
21.132	-48.071	16384	14822	0	740
10.386	-50.018	16384	14822	0	740
4.977	-47.061	16384	15134	0	740
7.176	-42.842	16384	15447	0	740
13.668	-38.695	16384	15759	0	740
20.303	-37.505	16384	16228	0	740
23.008	-38.550	16384	16696	0	740
19.401	-38.586	16384	17321	0	740
14.425	-37.829	16384	17790	0	740
10.963	-37.649	16384	18102	0	740
11.504	-39.127	16384	18571	0	740
9.881	-41.255	16384	18727	0	740
10.566	-42.265	16384	18884	0	740
12.730	-37.901	16384	18884	0	740
13.127	-30.581	16384	18727	0	740
12.586	-24.811	16384	18727	0	740
12.514	-20.772	16384	18884	0	740
7.068	-25.424	16384	19352	0	740
2.200	-33.141	16384	19665	0	740
-2.885	-38.947	16384	19665	0	740
-4.472	-40.714	16384	19665	0	740
-3.967	-37.685	16384	19509	0	740
-0.938	-34.403	16384	19509	0	740
2.669	-32.456	16385	19196	0	740
4.544	-32.744	16385	18727	0	740
5.049	-35.088	16385	18259	0	740
4.760	-36.855	16385	18102	0	740
4.291	-37.216	16385	18102	0	740
8.330	-37.036	16385	18415	0	740
10.530	-35.810	16385	18571	0	740
10.819	-34.908	16385	18259	0	740
8.583	-32.816	16385	17790	0	740
7.357	-31.554	16385	17165	0	740
6.599	-31.049	16385	16540	0	740
8.294	-29.859	16385	15759	0	740
8.150	-33.105	16385	14978	0	740
5.301	-34.872	16385	14041	0	740
-1.551	-38.514	16385	13259	0	740
-5.626	-42.229	16385	12791	0	740
-5.878	-42.625	16384	12322	0	740
-3.065	-42.084	16384	11853	0	740
-0.902	-40.930	16384	11228	0	740
-0.757	-39.235	16384	10291	0	740
-4.075	-38.947	16384	9509	0	740
-9.052	-44.969	16384	9353	0	740
-11.792	-50.920	16384	9353	0	740
-10.494	-55.608	16384	9509	0	740
-4.796	-55.680	16384	9666	0	740
1.262	-47.818	16384	9822	0	740
6.239	-40.858	16384	9978	0	740
7.032	-35.197	16384	10447	0	740
6.527	-37.793	16384	11072	0	740
4.940	-43.707	16384	11697	0	740
3.282	-46.051	16384	12634	0	740
3.390	-46.123	16384	13572	0	740
2.633	-39.632	16384	14509	0	740
3.498	-34.583	16384	15134	0	740
3.029	-33.033	16384	15759	0	740
3.426	-34.475	16384	16384	0	740
2.813	-35.593	16384	17321	0	740
1.587	-34.836	16384	18102	0	740
-1.911	-31.266	16384	18727	0	740
-2.957	-28.669	16384	18884	0	740
-4.544	-26.073	16384	19040	0	740
-6.780	-27.912	16384	19040	0	740
-9.484	-30.761	16384	18884	0	740
-9.809	-33.357	16384	18727	0	740
-11.035	-34.295	16384	18727	0	740
-9.016	-33.646	16384	19040	0	740
-4.183	-33.069	16384	19196	0	740
-5.445	-33.321	16384	19352	0	740
-9.592	-36.423	16384	19352	0	740
-19.293	-41.219	16384	19352	0	740
-25.388	-44.140	16384	19509	0	740
-27.804	-45.799	16384	19977	0	740
-26.686	-46.592	16384	20446	0	740
-24.739	-50.198	16384	20915	0	740
-23.296	-51.605	16384	20915	0	740
-24.775	-55.103	16384	20759	0	740
-23.080	-52.290	16384	20602	0	740
-16.264	-49.874	16384	20134	0	740
-14.425	-47.854	16384	19509	0	740
-13.992	-46.412	16384	18884	1	604
-18.969	-50.703	16384	18415	0	604
-19.473	-51.749	16384	17790	0	604
-18.392	-52.831	16384	17477	0	604
-9.376	-48.359	16384	17009	0	604
-2.056	-47.530	16384	16540	0	604
-0.180	-46.484	16384	16384	0	604
-2.200	-47.926	16384	16384	0	604
-8.511	-50.775	16384	16384	0	604
-8.258	-50.920	16384	16384	0	604
-8.943	-51.785	16384	16384	0	604
-7.068	-49.657	16384	16384	0	604
-7.357	-49.080	16385	16384	0	604
-9.592	-48.720	16385	16540	0	604
-9.520	-44.176	16385	16384	0	604
-5.301	-38.622	16385	16384	0	604
-2.452	-35.052	16385	16384	0	604
-1.154	-35.737	16385	16384	0	604
-3.823	-36.928	16385	16384	0	604
-7.789	-44.356	16385	16540	0	604
-7.285	-45.799	16385	16852	0	604
1.118	-43.707	16385	17009	0	604
9.629	-37.829	16385	16696	0	604
17.706	-34.259	16385	16384	0	604
17.923	-32.312	16385	15603	0	604
13.379	-32.780	16385	14822	0	604
9.268	-34.259	16384	14041	0	604
5.337	-34.944	16384	13572	0	604
4.183	-34.908	16384	13103	0	604
6.058	-35.341	16384	12791	0	604
4.940	-35.377	16384	12634	0	604
8.511	-35.124	16384	12634	0	604
13.018	-33.213	16384	12791	0	604
18.283	-31.410	16384	12634	0	604
23.188	-30.689	16384	12478	0	604
24.594	-29.931	16384	12322	0	604
24.089	-29.535	16384	12322	0	604
24.919	-23.368	16384	12322	0	604
29.066	-17.923	16384	12478	0	604
34.331	-8.439	16384	12322	0	604
40.317	-5.193	16384	12009	0	604
41.688	-3.787	16384	11853	0	604
39.632	-5.049	16384	12009	0	604
34.836	-6.203	16384	12322	0	604
31.230	-5.445	16384	12947	0	604
31.410	-3.606	16384	13572	0	604
31.879	-7.862	16384	14509	0	604
31.987	-12.838	16384	15447	0	604
28.922	-16.805	16384	16228	0	604
27.804	-20.555	16384	16540	0	604
29.571	-17.887	16384	17165	0	604
37.000	-16.084	16384	17477	0	604
39.885	-14.858	16384	17634	0	604
42.012	-19.005	16384	17790	0	604
38.118	-21.818	16384	17634	0	604
34.403	-24.847	16383	17321	0	604
35.882	-26.001	16384	16852	0	604
38.514	-22.935	16384	16384	0	604
40.570	-22.142	16383	15916	0	604
39.885	-23.116	16383	15447	0	604
39.380	-24.486	16383	15291	0	604
39.668	-27.876	16383	15291	0	604
39.957	-32.889	16383	15447	0	604
41.868	-37.216	16383	15447	0	604
41.760	-41.471	16383	15447	0	604
43.238	-43.563	16383	15603	0	604
47.097	-40.894	16383	15916	0	604
51.893	-35.521	16383	16072	0	604
60.079	-30.328	16383	16072	0	604
62.676	-28.994	16383	16228	0	604
62.964	-29.643	16383	16540	0	604
60.332	-29.679	16383	16696	0	604
58.096	-28.417	16383	16696	0	604
56.762	-21.601	16383	16696	0	604
57.266	-17.634	16383	17009	0	604
54.526	-16.264	16383	17477	0	604
45.618	-19.726	16383	18102	0	604
35.882	-25.568	16383	18415	0	604
26.145	-26.433	16383	18571	0	604
20.880	-24.594	16383	18571	0	604
15.038	-20.014	16383	18884	0	604
8.258	-15.110	16383	19196	0	604
-1.262	-14.353	16383	19509	0	604
-8.547	-14.930	16383	19821	0	604
-11.035	-14.461	16383	20134	0	604
-12.838	-16.012	16383	20290	0	604
-13.740	-16.300	16384	20602	0	604
-16.264	-17.202	16384	20759	0	604
-21.673	-17.057	16384	20915	0	604
-24.919	-18.392	16384	20759	0	604
-25.965	-19.365	16384	20602	0	604
-25.712	-22.322	16384	20602	0	604
-24.125	-25.568	16384	20446	0	604
-20.411	-24.594	16384	20290	1	372
-19.473	-22.503	16384	20134	0	372
-17.995	-22.178	16384	19821	0	372
-18.644	-20.411	16384	19196	0	372
-16.913	-24.486	16384	18415	0	372
-12.622	-24.919	16384	17790	0	372
-7.970	-24.234	16384	17477	0	372
-5.914	-22.935	16384	17634	0	372
-7.970	-24.125	16384	17477	0	372
-13.235	-24.919	16384	17165	0	372
-14.894	-27.227	16384	16696	0	372
-15.435	-25.929	16384	16384	0	372
-9.484	-21.313	16384	16384	0	372
-2.128	-18.247	16384	16384	0	372
5.481	-18.392	16384	16384	0	372
11.143	-19.437	16384	16384	0	372
13.740	-24.234	16384	16384	0	372
11.973	-24.630	16384	16540	0	372
7.357	-25.316	16384	17165	0	372
-1.298	-26.974	16384	17790	0	372
-7.934	-27.227	16384	17946	0	372
-10.783	-29.030	16384	17946	0	372
-12.189	-30.112	16384	17321	0	372
-11.215	-27.876	16384	16540	0	372
-7.212	-26.037	16384	16072	0	372
-3.029	-22.647	16384	15603	0	372
-0.036	-22.070	16384	15134	0	372
5.914	-21.457	16384	14822	0	372
13.631	-20.772	16384	14978	0	372
19.149	-22.178	16384	15291	0	372
24.630	-23.729	16384	15447	0	372
23.981	-22.719	16384	15447	0	372
22.286	-25.532	16384	15759	0	372
21.529	-29.066	16384	15916	0	372
21.421	-28.092	16384	15916	0	372
26.866	-26.902	16384	15916	0	372
30.076	-22.827	16384	15447	0	372
33.249	-21.421	16384	14822	0	372
33.826	-20.087	16384	14197	0	372
36.495	-24.089	16384	13416	0	372
36.134	-24.270	16384	12947	0	372
37.324	-24.450	16384	12791	0	372
36.567	-23.260	16384	13103	0	372
35.629	-20.123	13887	15932	0	15333
-15.002	-34.475	16383	18259	0	808
-13.451	-29.751	16383	18571	0	808
-10.242	-25.099	16384	18727	0	808
-11.900	-27.984	16384	19196	0	808
-17.959	-32.059	16384	19665	0	808
-20.988	-38.154	16384	20290	0	808
-19.077	-37.613	16384	20759	0	808
-10.278	-35.341	16384	21071	0	808
-3.606	-28.705	16384	21071	0	808
-0.577	-26.325	16384	20915	0	808
-4.039	-26.037	16384	20602	0	808
-8.186	-25.640	16384	20134	0	808
-7.104	-22.972	16384	19352	0	808
-0.577	-16.697	16384	18571	0	808
7.501	-8.835	16384	17946	0	808
12.153	-7.032	16384	17321	0	808
6.852	-11.035	16384	17165	0	808
-3.101	-21.024	16384	17009	0	808
-13.307	-30.328	16384	16696	0	808
-16.516	-34.439	16384	16540	0	808
-15.507	-31.915	16384	16540	0	808
-10.278	-28.056	16384	16852	0	808
-6.780	-23.837	16384	17634	0	808
-9.340	-24.486	16384	18102	0	808
-11.720	-26.289	16384	18259	0	808
-13.054	-28.814	16384	17946	0	808
-14.497	-28.777	16384	17321	0	808
-16.408	-30.040	16384	16540	0	808
-17.093	-30.797	16384	15916	0	808
-20.772	-33.646	16384	15134	0	808
-21.457	-35.233	16384	14666	0	808
-18.969	-32.600	16384	14509	0	808
-16.480	-24.739	16384	14353	0	808
-13.235	-18.644	16384	14509	0	808
-11.071	-14.028	16384	14822	0	808
-12.333	-15.218	16384	15291	0	808
-12.730	-19.437	16384	15603	0	808
-17.670	-21.637	16384	15603	0	808
-19.401	-22.755	16384	15291	0	808
-19.077	-21.277	16384	14822	0	808
-15.110	-17.526	16384	14509	0	808
-10.386	-17.526	16384	14509	0	808
-3.246	-17.093	16384	14509	0	808
-1.587	-21.890	16384	14666	0	808
-2.560	-26.109	16384	14822	0	808
-6.491	-29.679	16384	14822	0	808
-10.746	-32.780	16384	14978	0	808
-16.012	-33.213	16384	15291	0	808
-18.031	-34.872	16384	15447	1	316
-17.238	-35.521	16384	15603	0	316
-18.824	-36.423	16384	15916	0	316
-20.267	-37.937	16384	16540	0	316
-20.050	-39.163	16384	17165	0	316
-22.106	-39.055	16384	17321	0	316
-20.375	-36.459	16384	17321	0	316
-17.959	-33.754	16384	17165	0	316
-14.281	-30.472	16384	17321	0	316
-14.930	-29.174	16384	17477	0	316
-12.514	-30.581	16384	17634	0	316
-15.002	-30.653	16384	17477	0	316
-14.785	-29.715	16384	17321	0	316
-13.091	-23.765	16384	17009	0	316
-11.360	-20.591	16384	16852	0	316
-10.530	-17.851	16384	16384	0	316
-9.629	-16.841	16384	16228	0	316
-14.064	-21.601	16384	15916	0	316
-14.749	-22.431	16384	15759	0	316
-13.776	-21.313	16384	15759	0	316
-8.619	-16.012	16384	15916	0	316
-3.354	-13.631	16384	16384	0	316
0.144	-11.215	16384	16696	0	316
-2.344	-14.785	16384	17009	0	316
-8.655	-16.625	16384	17321	0	316
-13.848	-20.050	16384	17321	0	316
-15.579	-18.752	16384	17165	0	316
-10.206	-18.392	16384	16696	0	316
-6.094	-16.408	16384	16384	0	316
-5.590	-18.500	16384	16384	0	316
-11.937	-18.716	16384	16384	0	316
-20.159	-22.250	16384	16384	0	316
-25.965	-21.313	16384	16072	0	316
-23.512	-20.880	16384	15291	0	316
-13.631	-15.579	16384	14666	0	316
-6.383	-13.920	16384	14353	0	316
-3.210	-11.684	16384	14041	0	316
-5.049	-14.677	16384	13884	0	316
-12.189	-15.182	16384	13884	0	316
-15.002	-17.166	16384	14197	0	316
-15.182	-13.127	16384	14509	0	316
-8.439	-7.898	16384	14509	0	316
-0.469	-2.705	16384	14353	0	316
7.645	-1.298	16384	13884	0	316
12.009	-2.849	16384	13572	0	316
10.458	-6.816	16384	13259	0	316
5.626	-11.648	16384	13259	0	316
-1.154	-13.812	16384	13728	0	316
-6.816	-16.372	16384	14353	0	316
-8.078	-14.894	16384	14978	0	316
-8.078	-15.074	16384	15759	0	316
-7.104	-13.127	16384	16384	0	316
-7.068	-12.009	16384	17477	0	316
-8.691	-13.343	16384	18259	0	316
-8.727	-15.038	16384	18727	0	316
-5.770	-15.074	16384	18884	0	316
-1.983	-17.021	16384	19040	0	316
3.823	-16.985	16384	19352	0	316
5.337	-20.339	16384	19509	0	316
0.505	-25.135	16384	19509	0	316
-5.337	-28.741	16384	19352	0	316
-10.025	-31.518	16384	19040	0	316
-11.143	-31.013	16384	18884	0	316
-7.934	-27.984	16384	19040	0	316
-3.101	-23.512	16384	19509	0	316
0.613	-16.949	16384	19821	0	316
1.154	-14.172	16384	19977	0	316
0.613	-14.497	16384	19977	0	316
1.226	-17.202	16384	19665	0	316
1.479	-21.132	16384	19352	0	316
4.868	-24.414	16384	19040	0	316
5.734	-22.539	16384	18727	0	316
6.527	-23.080	16384	18259	0	316
4.977	-24.378	16384	17634	0	316
4.255	-22.106	16384	16540	0	316
8.114	-19.401	16384	15603	0	316
12.441	-10.350	16384	14666	0	316
17.706	-5.301	16384	13728	0	316
14.930	-4.472	16384	12947	0	316
10.530	-8.619	16384	12009	0	316
4.544	-16.120	16384	11384	0	316
4.291	-19.473	16384	11072	0	316
7.212	-15.507	16384	11384	0	316
11.504	-10.242	16384	12166	0	316
11.792	-4.940	16384	12791	0	316
7.934	-2.524	16384	13103	0	316
2.669	-4.327	16384	13572	0	316
1.262	-5.085	16384	14353	0	316
0.974	-3.895	16384	15291	0	316
2.019	-5.373	16384	15759	0	316
1.334	-4.111	16384	15759	0	316
0.649	-5.950	16384	15759	0	316
-0.938	-6.888	16384	15603	0	316
-1.442	-6.671	16384	15447	0	316
0.613	-6.058	16384	15447	0	316
1.911	-4.183	16384	15447	0	316
3.426	-6.491	16384	15447	0	316
2.633	-5.806	16384	15447	0	316
2.596	-5.301	16384	15759	0	316
1.118	-5.878	16384	16384	0	316
1.046	-6.058	16384	16540	0	316
2.128	-4.580	16384	16696	0	316
3.173	-6.563	16384	16696	0	316
3.426	-5.734	16384	16696	0	316
4.652	-6.167	16384	16696	0	316
2.524	-8.619	16384	16852	0	316
2.705	-10.278	16384	16696	0	316
1.226	-13.595	16384	16384	0	316
0.036	-13.415	16384	16228	0	316
0.108	-11.143	16384	16384	0	316
-1.010	-10.350	16384	16852	0	316
-3.931	-9.881	16384	17321	0	316
-9.917	-11.251	16384	17321	0	316
-12.730	-14.497	16384	17321	0	316
-11.792	-12.766	16384	17165	0	316
-2.344	-4.904	16384	16852	0	316
12.514	3.570	16384	16540	0	316
21.926	10.133	16384	16384	0	316
23.837	10.530	16384	16540	0	316
16.625	5.049	16384	16852	0	316
6.239	-1.334	16384	17165	0	316
1.118	-5.517	16384	17634	0	316
2.236	-4.075	16384	18102	0	316
3.931	-2.164	16384	18102	0	316
5.373	0.757	16384	17790	0	316
4.327	2.488	16384	17321	0	316
2.164	2.452	16384	16852	0	316
1.767	-0.685	16384	16228	0	316
1.370	-4.508	16384	15603	0	316
-0.144	-11.107	16384	14978	0	316
-0.829	-13.379	16384	14666	0	316
-1.911	-14.858	16383	14353	0	316
-1.515	-11.468	16383	14197	0	316
-0.649	-10.314	16383	14041	0	316
-1.767	-9.520	16383	13728	0	316
-4.364	-11.251	16383	13572	0	316
-7.501	-13.920	16383	13572	0	316
-12.550	-17.634	16383	13416	0	316
-14.208	-17.634	16383	13416	0	316
-12.838	-18.067	16383	13728	0	316
-8.042	-16.264	16383	14197	0	316
-0.180	-14.966	16383	14666	0	316
3.606	-14.028	16383	14978	0	316
2.308	-17.779	16383	15447	0	316
-3.173	-19.473	16383	16384	0	316
-8.330	-20.952	16383	17477	0	316
-7.681	-15.002	16383	18571	0	316
-3.318	-9.196	16383	19352	0	316
3.137	-2.452	16384	20134	0	316
7.176	-0.397	16384	20446	0	316
6.780	-2.957	16384	20290	0	316
4.940	-7.357	16384	19665	0	316
3.101	-8.727	16383	18727	0	316
3.318	-11.648	16383	17634	0	316
2.705	-11.540	16383	16852	1	616
0.721	-11.323	16383	16696	0	616
-1.731	-12.550	16383	16696	0	616
-5.373	-10.855	16383	16540	0	616
-7.645	-7.970	16383	16228	0	616
-8.006	-6.167	16383	16072	0	616
-8.402	-10.025	16383	15916	0	616
-9.124	-14.028	16383	15916	0	616
-8.799	-16.300	16383	15759	0	616
-6.383	-17.815	16383	15447	0	616
-0.902	-11.504	16383	15447	0	616
4.183	-7.357	16383	15291	0	616
5.517	-6.563	16383	15603	0	616
5.229	-10.242	16383	16072	0	616
4.183	-10.025	16383	16540	0	616
4.940	-7.825	16383	17009	0	616
9.520	-1.226	16383	17165	0	616
11.215	2.488	16383	17321	0	616
7.393	1.118	16383	17790	0	616
3.246	-3.390	16383	18415	0	616
-0.252	-7.609	16384	18884	0	616
0.433	-8.547	16384	19040	0	616
2.993	-7.537	16384	19040	0	616
4.652	-3.859	16384	19040	0	616
4.868	-6.491	16384	18884	0	616
0.685	-8.907	16384	18415	0	616
-4.255	-10.963	16384	17946	0	616
-10.025	-12.441	16384	17634	0	616
-15.507	-13.091	16384	17321	0	616
-16.589	-11.900	16384	16852	0	616
-15.831	-9.376	16384	16384	0	616
-13.018	-9.412	16384	15916	0	616
-8.547	-9.232	16384	15916	0	616
-8.619	-9.953	16384	16228	0	616
-6.816	-11.973	16384	16696	0	616
-5.698	-16.516	16384	17165	0	616
-5.085	-17.129	16384	17009	0	616
-4.868	-19.834	16384	16540	0	616
-3.318	-19.329	16384	15916	0	616
-2.488	-19.473	16384	15603	0	616
-1.659	-17.959	16384	15759	0	616
-0.252	-20.700	16384	15916	0	616
1.118	-25.388	16384	16072	0	616
3.101	-30.292	16384	16228	0	616
2.128	-34.187	16384	16384	0	616
4.724	-36.855	16384	16540	0	616
3.426	-36.855	16384	16384	0	616
0.649	-37.793	16384	15759	0	616
-3.173	-38.911	16384	15447	0	616
-7.104	-37.468	16384	14822	0	616
-13.415	-38.586	16383	14197	0	616
-17.526	-36.423	16383	13259	0	616
-21.854	-35.737	16383	12478	0	616
-21.998	-33.538	16383	12009	0	616
-23.080	-31.085	16383	11697	0	616
-19.113	-26.542	16383	11697	0	616
-19.149	-28.201	16383	11697	0	616
-18.824	-30.364	16383	12009	0	616
-22.755	-33.069	16383	12322	0	616
-23.080	-33.646	16383	12634	0	616
-20.519	-31.951	16383	13103	0	616
-18.392	-29.607	16383	13884	0	616
-15.110	-23.765	16383	15134	0	616
-16.408	-23.404	16383	16384	0	616
-17.706	-22.611	16383	17477	0	616
-22.791	-21.818	16383	18727	0	616
-23.873	-25.316	16383	19977	0	616
-24.270	-29.679	16384	21071	0	616
-24.558	-33.069	16384	22009	0	616
-24.270	-36.098	16384	22634	0	616
-23.945	-37.757	16384	23102	0	616
-25.135	-37.505	16384	23415	0	616
-26.361	-39.199	16384	23571	0	616
-25.568	-41.327	16384	23727	0	616
-26.722	-42.193	16384	23727	0	616
-28.164	-43.671	16384	23727	0	616
-31.158	-43.094	16384	23727	0	616
-34.079	-43.960	16384	23571	0	616
-38.009	-43.383	16384	23259	0	616
-37.937	-42.842	16385	23102	0	616
-37.216	-40.389	16385	23102	0	616
-34.367	-36.855	16385	22946	1	324
-30.977	-33.610	16385	22634	0	324
-27.047	-29.174	16385	22009	0	324
-24.450	-25.640	16385	20915	0	324
-23.224	-20.952	16385	19665	0	324
-24.991	-20.375	16385	18571	0	324
-24.847	-21.457	16385	17165	0	324
-24.702	-24.739	16385	16072	0	324
-24.919	-26.181	16385	14978	0	324
-23.909	-27.948	16385	14353	0	324
-26.542	-29.715	16385	14041	0	324
-31.122	-34.115	16385	13728	0	324
-34.259	-38.803	16385	13416	0	324
-34.187	-41.868	16385	13103	0	324
-33.105	-41.688	16385	12634	0	324
-31.049	-41.363	16385	12009	0	324
-31.626	-42.301	16385	11541	0	324
-33.033	-42.517	16385	11697	0	324
-33.790	-43.058	16385	11853	0	324
-30.004	-41.003	16385	11853	0	324
-24.666	-36.675	16385	11541	0	324
-21.313	-32.203	16385	11384	0	324
-16.012	-29.391	16384	11384	0	324
-16.444	-27.515	16384	11384	0	324
-14.353	-25.496	16384	11541	0	324
-13.054	-23.909	16384	11541	0	324
-10.602	-21.529	16384	11384	0	324
-11.432	-22.539	16384	11384	0	324
-14.028	-23.945	16384	11384	0	324
-14.389	-27.155	16384	11541	0	324
-15.723	-30.328	16384	11384	0	324
-14.641	-29.174	16384	11697	0	324
-9.701	-26.938	16384	12322	0	324
-10.386	-23.765	16384	13416	0	324
-13.668	-25.243	16384	14666	0	324
-18.897	-29.282	16384	16072	0	324
-26.506	-35.954	16384	17477	0	324
-30.869	-40.173	16384	18415	0	324
-31.554	-42.625	16384	19040	0	324
-32.420	-39.776	16384	19352	0	324
-27.948	-34.043	16384	19977	0	324
-24.486	-30.148	16384	20602	0	324
-21.818	-26.289	16384	20759	0	324
-17.238	-25.965	16384	20602	0	324
-17.021	-24.666	16385	20290	0	324
-17.310	-25.965	16385	20134	0	324
-20.411	-25.965	16385	20290	0	324
-20.195	-27.912	16385	20134	0	324
-19.113	-26.830	16385	19821	0	324
-15.507	-25.640	16385	18884	0	324
-9.412	-21.709	16385	17790	0	324
-3.029	-15.615	16385	16696	0	324
-1.298	-13.271	16385	16072	0	324
-3.642	-11.504	16384	15291	0	324
-8.583	-15.146	16384	15134	0	324
-15.867	-16.408	16384	15134	0	324
-21.385	-17.815	16384	15291	0	324
-26.145	-19.906	16385	15603	0	324
-30.076	-21.818	16385	16228	0	324
-32.564	-22.250	16385	16384	0	324
-31.951	-25.893	16385	16384	0	324
-28.489	-25.640	16384	16384	0	324
-23.008	-25.099	16384	16384	0	324
-22.250	-24.306	16384	16696	0	324
-23.837	-25.568	16384	16852	0	324
-25.460	-24.053	16384	16540	0	324
-23.729	-21.421	16384	16424	0	16385
-6.203	0.108	16385	16072	0	324
4.075	11.792	16384	15447	0	324
17.490	23.116	16384	14666	0	324
26.433	29.931	16384	14197	0	324
25.316	32.023	16384	14041	0	324
19.221	28.237	16384	14353	0	324
9.953	26.722	16384	14509	0	324
6.167	26.289	16384	14509	0	324
5.662	29.210	16384	14353	0	324
7.321	31.482	16384	14353	0	324
8.763	33.538	16384	14666	0	324
8.655	32.997	16384	14822	0	324
8.655	32.492	16384	14822	0	324
9.592	34.656	16384	14509	0	324
11.432	36.891	16384	14041	0	324
12.838	38.442	16384	14041	0	324
11.720	34.223	16384	14353	0	324
7.898	29.318	16384	14666	0	324
4.688	24.234	16384	14666	0	324
4.219	22.467	16384	14666	0	324
6.347	21.168	16384	14822	0	324
9.665	23.585	16384	14822	0	324
13.163	27.335	16384	14978	0	324
16.733	28.345	16384	15134	0	324
18.139	30.797	16384	15291	0	324
14.785	29.463	16384	15603	0	324
12.117	24.811	16384	15916	0	324
6.563	21.601	16384	16384	0	324
4.219	17.887	16384	16384	0	324
4.075	17.274	16384	16228	0	324
5.806	13.127	16384	16072	0	324
5.085	10.566	16384	15759	0	324
0.974	6.563	16384	15603	0	324
-2.416	4.400	16384	15603	0	324
-5.554	2.344	16384	15916	0	324
-5.229	0.865	16384	16384	0	324
-5.049	-1.623	16384	16852	0	324
-4.183	-6.383	16384	17321	0	324
-5.193	-11.396	16384	17477	0	324
-7.789	-13.091	16384	17165	0	324
-10.061	-17.634	16384	16852	0	324
-14.100	-19.293	16384	17009	0	324
-18.320	-23.693	16384	17009	0	324
-19.437	-31.338	16384	16852	0	324
-20.627	-35.269	16384	16696	0	324
-19.906	-38.947	16384	16540	0	324
-18.897	-40.101	16384	16540	0	324
-21.204	-37.468	16384	16696	0	324
-18.139	-33.826	16384	17009	0	324
-14.858	-29.931	16384	17165	0	324
-7.285	-28.381	16384	17321	0	324
-4.400	-26.902	16384	17634	0	324
-7.321	-31.915	16384	18102	0	324
-16.084	-35.990	16384	18415	0	324
-21.132	-37.432	16384	18415	0	324
-21.349	-35.701	16384	18415	0	324
-15.074	-33.826	16384	18259	0	324
-9.809	-32.925	16384	17946	0	324
-10.819	-33.970	16384	17946	0	324
-15.290	-38.550	16384	18415	0	324
-20.700	-40.930	16384	18727	0	324
-20.880	-42.770	16384	18727	0	324
-19.113	-42.986	16384	18259	0	324
-17.743	-47.422	16384	17477	0	324
-20.700	-49.153	16384	17009	0	324
-27.515	-54.057	16384	16852	0	324
-29.571	-54.886	16384	16852	0	324
-27.083	-55.391	16384	16696	0	324
-21.890	-52.831	16384	16384	0	324
-16.516	-50.595	16384	16384	0	324
-11.071	-43.635	16384	16228	0	324
-9.052	-35.485	16384	16072	0	324
-7.176	-28.561	16384	15759	0	324
-5.517	-24.270	16384	15603	0	324
-8.511	-26.866	16384	15447	0	324
-11.576	-29.787	16384	15134	0	324
-14.605	-32.203	16384	14666	0	324
-11.756	-28.489	16384	14666	0	324
-3.859	-22.899	16384	14978	0	324
2.092	-21.313	16384	15291	0	324
5.626	-20.988	16384	15603	0	324
4.616	-26.073	16384	15916	0	324
-0.793	-31.374	16384	16072	0	324
-5.085	-33.682	16384	16540	0	324
-9.232	-34.908	16384	17477	0	324
-12.117	-35.341	16384	18415	0	324
-17.923	-32.528	16384	19352	0	324
-22.647	-31.266	16384	19977	0	324
-25.604	-26.361	16384	20602	0	324
-24.558	-21.421	16384	20915	0	324
-16.769	-18.031	16384	21227	0	324
-8.619	-14.425	16384	21384	0	324
-0.180	-13.776	16384	21227	0	324
2.128	-14.389	16384	20759	0	324
-0.685	-11.035	16384	19977	0	324
-5.121	-9.737	16384	19196	0	324
-9.196	-7.068	16384	18102	1	776
-9.304	-5.878	16384	17165	0	776
-3.642	-7.753	16384	16072	0	776
2.344	-8.583	16384	14978	0	776
6.419	-6.419	16384	14353	0	776
7.321	-0.108	16384	14197	0	776
11.287	7.068	16384	13884	0	776
12.333	13.631	16384	13572	0	776
15.435	15.759	16384	13103	0	776
18.897	15.146	16384	12947	0	776
15.831	15.471	16384	12634	0	776
11.432	13.776	16384	12478	0	776
2.849	13.740	16384	12478	0	776
-3.823	11.143	16384	12478	0	776
-8.727	9.160	16384	12634	0	776
-9.232	8.799	16384	12947	0	776
-7.862	10.133	16384	13572	0	776
-3.390	12.441	16384	14197	0	776
-1.334	10.674	16384	14666	0	776
-1.551	10.061	16384	15291	0	776
-1.010	7.285	16384	15759	0	776
-1.839	6.635	16384	15759	0	776
-1.226	7.609	16384	16228	0	776
1.190	10.999	16384	16540	0	776
6.527	12.225	16384	17009	0	776
11.684	12.874	16384	17321	0	776
15.939	14.100	16384	17321	0	776
14.497	12.586	16384	17321	0	776
8.727	10.710	16384	17321	0	776
3.859	11.828	16384	17321	0	776
0.757	12.117	16384	17165	0	776
3.895	14.172	16384	16852	0	776
11.900	19.834	16384	16540	0	776
19.582	22.286	16384	16384	0	776
23.981	26.289	16384	16384	0	776
22.755	25.676	16384	16540	0	776
16.841	22.935	16384	17009	0	776
9.881	16.552	16384	17634	0	776
1.118	13.559	16384	18102	0	776
-3.859	9.989	16384	18415	0	776
-5.662	9.016	16384	18571	0	776
-5.229	6.780	16384	18415	0	776
-4.039	4.652	16384	17790	0	776
-5.121	-1.623	16384	16852	0	776
-6.780	-7.068	16384	15916	0	776
-10.963	-13.415	16384	14822	0	776
-11.973	-15.543	16384	13884	0	776
-12.045	-18.103	16384	13259	0	776
-10.314	-20.591	16384	12791	0	776
-9.196	-20.555	16384	12478	0	776
-10.386	-24.666	16384	12322	0	776
-12.153	-26.758	16384	12166	0	776
-11.287	-29.823	16384	12322	0	776
-10.242	-29.318	16384	12634	0	776
-6.022	-30.148	16384	13103	0	776
-0.829	-28.597	16383	13728	0	776
1.226	-27.047	16383	14041	0	776
3.606	-25.135	16383	14197	0	776
5.013	-22.286	16383	14353	0	776
7.140	-21.709	16383	14822	0	776
9.124	-23.585	16383	15291	0	776
6.852	-27.732	16383	15916	0	776
0.793	-32.276	16383	16540	0	776
-2.560	-33.574	16383	17165	0	776
-3.642	-28.741	16383	17790	0	776
-4.400	-24.847	16384	18571	0	776
-5.229	-21.998	16384	19352	0	776
-7.321	-23.512	16384	20290	0	776
-11.900	-25.676	16384	21227	0	776
-11.792	-27.804	16384	22321	0	776
-8.583	-25.279	16384	23102	0	776
-6.491	-23.729	16384	23259	0	776
-4.652	-22.539	16384	23102	0	776
-3.354	-20.664	16384	22634	0	776
-1.839	-21.529	16384	21852	0	776
-0.685	-21.781	16384	21227	0	776
-0.541	-19.257	16384	20602	0	776
-1.370	-19.221	16384	20134	0	776
-0.685	-16.084	16384	19821	0	776
1.767	-14.966	16384	19352	1	316
6.239	-12.261	16384	19040	0	316
9.520	-10.242	16384	18727	0	316
10.314	-9.196	16384	18415	0	316
9.124	-10.422	16384	18102	0	316
5.698	-12.946	16384	17790	0	316
0.649	-18.067	16384	17321	0	316
-2.885	-19.401	16385	16852	0	316
-6.311	-22.719	16385	16696	0	316
-8.727	-22.647	16385	16540	0	316
-13.127	-26.145	16385	16540	0	316
-15.290	-28.237	16385	16696	0	316
-15.326	-29.751	16385	16852	0	316
-14.028	-26.433	16385	16540	0	316
-10.061	-24.486	16385	16384	0	316
-8.763	-23.729	16385	16228	0	316
-9.484	-26.758	16385	16072	0	316
-11.432	-28.273	16385	15916	0	316
-9.160	-28.489	16385	15759	0	316
-4.039	-24.739	16385	15603	0	316
-0.685	-20.447	16385	15447	0	316
0.000	-15.939	16385	15447	0	316
-2.164	-16.084	16385	15759	0	316
-4.796	-13.487	16385	16228	0	316
-4.544	-9.484	16385	16384	0	316
-2.741	-9.268	16385	16384	0	316
-2.633	-8.907	16385	16072	0	316
-5.698	-10.999	16385	15759	0	316
-8.763	-12.369	16385	15603	0	316
-7.898	-15.903	16385	15447	0	316
-4.940	-14.821	16385	15134	0	316
-0.505	-16.264	16385	14666	0	316
-0.361	-16.156	16385	14041	0	316
-5.265	-19.978	16385	13416	0	316
-14.172	-22.791	16385	12947	0	316
-20.627	-29.895	16384	12322	0	316
-24.414	-37.793	16384	12009	0	316
-26.902	-40.786	16384	12322	0	316
-26.073	-39.380	16384	12791	0	316
-23.332	-33.574	16384	13103	0	316
-21.132	-27.660	16384	13103	0	316
-15.290	-21.637	16384	12947	0	316
-9.917	-14.966	16384	12634	0	316
-5.986	-11.576	16384	12478	0	316
-4.796	-5.445	16384	12478	0	316
-3.606	-0.721	16384	12478	0	316
-1.623	-0.036	16384	12166	0	316
1.406	1.515	16384	11697	0	316
3.967	1.911	16384	11228	0	316
7.825	2.813	16384	11072	0	316
8.006	3.606	16384	10759	0	316
5.337	3.967	16384	10759	0	316
3.390	4.291	16383	10759	0	316
2.236	5.986	16383	10603	0	316
3.354	9.665	16383	10447	0	316
3.173	13.307	16383	10759	0	316
0.757	13.740	16383	11228	0	316
-4.760	12.441	16383	11697	0	316
-12.081	7.357	16382	12166	0	316
-14.425	3.173	16383	12791	0	316
-10.458	1.623	16383	13416	0	316
-7.789	2.524	16382	13884	0	316
-7.321	2.777	16382	14353	0	316
-8.979	1.298	16382	15134	0	316
-10.458	-1.803	16382	15916	0	316
-11.576	-4.760	16382	16696	0	316
-9.520	-7.537	16382	17477	0	316
-8.511	-8.439	16382	18571	0	316
-12.766	-7.501	16383	19509	0	316
-15.471	-8.871	16383	20446	0	316
-14.641	-10.350	16383	21071	0	316
-12.009	-13.235	16383	21852	0	316
-7.645	-14.281	16383	22477	0	316
-6.239	-18.283	16383	23102	0	316
-8.150	-18.428	16383	24040	0	316
-11.179	-19.473	16383	24977	0	316
-10.061	-20.483	16384	25915	0	316
-4.219	-18.860	16384	26384	0	316
0.865	-18.103	16384	26540	0	316
2.957	-16.192	16384	26227	0	316
0.685	-17.706	16384	25602	0	316
-6.671	-19.005	16384	25290	0	316
-13.091	-23.765	16384	25134	0	316
-17.851	-28.669	16384	25290	1	332
-19.257	-31.302	16384	25446	0	332
-20.880	-32.023	16385	25602	0	332
-20.844	-30.256	16385	25446	0	332
-21.673	-29.607	16385	25134	0	332
-25.532	-31.590	16385	24821	0	332
-29.751	-37.901	16385	24196	0	332
-31.013	-43.383	16385	23415	0	332
-30.364	-46.015	16386	22321	0	332
-24.702	-44.356	16386	20602	0	332
-20.123	-38.695	16385	18727	0	332
-15.038	-33.862	16385	17009	0	332
-15.290	-30.761	16385	15447	0	332
-13.054	-31.122	16385	13884	0	332
-13.884	-32.348	16385	12478	0	332
-11.468	-33.177	16385	11228	0	332
-8.943	-33.321	16385	9978	0	332
-4.904	-30.797	16384	8416	0	332
-2.741	-27.804	16384	7322	0	332
-1.406	-25.676	16384	6384	0	332
-3.750	-21.745	16384	5916	0	332
-4.796	-20.303	16384	5759	0	332
-4.364	-21.096	16384	5916	0	332
-2.705	-21.998	16384	5916	0	332
-3.750	-27.227	16384	6384	0	332
-7.609	-34.403	16384	7009	0	332
-11.864	-39.596	16384	7947	0	332
-15.290	-42.589	16384	8884	0	332
-14.425	-44.032	16384	9978	0	332
-15.795	-43.779	16384	10916	0	332
-17.166	-41.724	16384	11853	0	332
-22.070	-42.914	16384	12634	0	332
-25.207	-42.445	16384	13259	0	332
-24.883	-40.570	16384	13884	0	332
-20.808	-37.108	16384	14509	0	332
-15.182	-33.574	16384	15134	0	332
-13.956	-30.040	16384	15759	0	332
-12.766	-26.470	16384	16072	0	332
-14.569	-25.099	16383	16384	0	332
-16.589	-20.844	16384	16696	0	332
-12.514	-17.923	16384	17634	0	332
-9.196	-13.920	16384	18259	0	332
-3.173	-11.973	16384	18727	0	332
1.442	-7.934	16384	18884	0	332
5.085	-5.517	16384	19352	0	332
7.753	-1.442	16384	19821	0	332
6.275	0.938	16384	20290	0	332
7.465	1.046	16384	20446	0	332
6.419	-1.551	16384	20134	0	332
2.560	-2.596	16384	19977	0	332
0.577	-4.796	16384	19821	0	332
-2.560	-2.200	16384	19977	0	332
-4.364	-0.721	16384	19977	0	332
-2.344	-1.406	16384	19821	0	332
-0.036	-6.094	16384	19665	0	332
-0.216	-12.405	16384	19352	0	332
-3.642	-18.175	16384	19040	0	332
-6.563	-21.818	16384	18571	0	332
-10.242	-23.585	16384	17946	0	332
-8.258	-19.978	16384	17321	0	332
-7.645	-20.880	16384	16852	0	332
-6.022	-19.473	16384	16384	0	332
-6.383	-19.618	16384	16228	0	332
-10.386	-21.529	16384	16384	0	332
-13.018	-19.654	16384	16540	0	332
-11.360	-18.500	16384	16696	0	332
-9.809	-12.910	16384	16696	0	332
-5.013	-11.576	16384	16540	0	332
-2.849	-9.520	16384	16384	0	332
-3.173	-8.583	16384	16540	0	332
-6.744	-6.239	16384	16696	0	332
-6.599	-2.957	16384	17009	0	332
-5.157	-1.551	16384	17009	0	332
-2.380	-1.767	16384	16696	0	332
0.577	-3.714	16384	16384	0	332
2.669	-7.501	16384	16228	0	332
-0.325	-11.071	16384	16384	0	332
-2.669	-13.271	16384	16852	0	332
-4.580	-18.680	16384	17477	0	332
-5.085	-18.103	16384	18415	0	332
-3.787	-19.365	16384	19665	0	332
-5.229	-15.939	16384	20759	0	332
-7.898	-15.939	16385	21540	0	332
-14.749	-16.192	16385	22009	0	332
-15.975	-21.962	16385	22165	0	332
-15.362	-25.748	16385	22009	0	332
-13.595	-29.715	16385	21696	0	332
-10.783	-28.201	16385	21071	0	332
-10.927	-25.460	16385	20446	0	332
-12.045	-18.680	16385	19821	0	332
-12.045	-14.713	16386	18884	0	332
-12.189	-10.530	16386	17946	0	332
-10.133	-8.330	16386	17009	0	332
-6.275	-5.409	16385	16384	0	332
-0.072	-2.164	16385	16072	0	332
6.058	0.721	16385	15447	0	332
6.996	3.462	16385	14822	0	332
2.019	1.551	16385	14041	0	332
-7.429	-4.183	16385	13416	0	332
-15.939	-10.602	16385	12634	0	332
-22.250	-15.543	16385	11853	0	332
-25.135	-18.175	16385	11228	0	332
-27.551	-13.848	16385	10759	0	332
-29.427	-12.946	16385	10134	0	332
-31.662	-13.740	16384	9666	0	332
-32.348	-17.129	16384	9353	0	332
-32.780	-24.522	16384	9509	0	332
-32.312	-29.174	16384	9822	0	332
-32.961	-30.905	16384	10291	0	332
-33.249	-25.820	16384	10759	0	332
-29.931	-19.906	16384	11541	0	332
-24.089	-11.648	16384	12322	0	332
-17.634	-4.760	16384	12478	0	332
-12.658	-1.623	16384	12634	0	332
-12.009	-0.577	16384	12791	0	332
-15.471	-1.803	16384	12947	0	332
-17.057	-4.364	16384	12947	0	332
-19.654	-6.455	16384	12791	0	332
-19.473	-7.753	16384	12634	0	332
-19.546	-6.419	16384	12634	0	332
-16.805	-4.508	16384	12791	0	332
-15.939	-3.318	16384	12947	0	332
-13.812	-4.616	16384	13259	0	332
-16.156	-8.366	16384	13884	0	332
-19.510	-10.386	16384	14822	0	332
-24.847	-12.766	16384	15447	0	332
-24.666	-12.405	16383	15447	0	332
-23.008	-13.668	16383	15134	0	332
-23.080	-16.661	16383	14978	0	332
-23.945	-20.591	16383	14822	0	332
-26.758	-25.496	16383	14822	0	332
-30.292	-26.830	16383	14978	0	332
-31.374	-25.424	16383	15759	0	332
-31.771	-24.450	16383	16696	0	332
-34.800	-25.316	16383	18102	0	332
-40.317	-27.840	16383	19509	0	332
-44.140	-29.246	16383	20759	0	332
-42.481	-28.705	16384	22009	0	332
-38.154	-22.972	16384	23259	0	332
-29.463	-15.507	16384	24509	0	332
-23.404	-8.583	16384	25446	0	332
-19.510	-5.806	16384	25759	0	332
-17.923	-3.714	16384	25602	0	332
-17.815	-5.698	16384	25290	0	332
-16.877	-7.140	16384	24509	0	332
-19.798	-8.691	16384	23884	0	332
-17.526	-7.753	16384	23259	1	584
-15.759	-4.904	16384	22946	0	584
-10.602	-0.649	16384	22790	0	584
-6.708	-0.505	16384	22634	0	584
-9.052	-2.236	16385	22165	0	584
-15.543	-5.301	16385	21384	0	584
-19.942	-9.232	16385	20759	0	584
-23.549	-11.071	16385	19977	0	584
-22.539	-8.222	16385	18884	0	584
-19.834	-8.006	16385	17634	0	584
-22.395	-7.068	16385	16384	0	584
-25.135	-9.016	16385	15447	0	584
-29.282	-10.530	16385	14509	0	584
-27.587	-14.208	16384	13572	0	584
-23.945	-13.307	16384	12478	0	584
-14.353	-8.871	16384	11697	0	584
-7.934	-6.563	16384	10916	0	584
-5.626	-2.633	16384	10291	0	584
-5.049	-2.200	16384	9978	0	584
-5.806	-4.003	16384	9978	0	584
-7.357	-5.265	16384	10134	0	584
-4.832	-4.075	16384	10447	0	584
-3.678	-1.370	16384	10916	0	584
-3.498	1.659	16384	11697	0	584
-4.255	3.895	16384	12634	0	584
-1.479	5.806	16384	13728	0	584
1.803	8.042	16384	14978	0	584
3.750	8.511	16384	16228	0	584
1.803	9.088	16384	17009	0	584
-5.085	6.058	16384	17477	0	584
-12.658	0.757	16384	17634	0	584
-18.067	-2.236	16384	17477	0	584
-15.939	-0.685	16384	17321	0	584
-11.107	3.282	16384	17321	0	584
-10.458	7.212	16384	17634	0	584
-13.559	8.583	16384	17946	0	584
-17.887	5.914	16384	18102	0	584
-20.844	4.904	16384	18259	0	584
-20.087	3.606	16384	17946	0	584
-14.100	5.265	16384	17634	0	584
-9.592	7.248	16384	17321	0	584
-7.753	10.061	16384	17165	0	584
-6.924	12.477	16384	17009	0	584
-3.462	18.283	16384	16852	0	584
0.649	20.555	16384	16384	0	584
6.094	23.549	16384	15916	0	584
7.429	25.929	16384	15291	0	584
5.806	23.657	16384	14822	0	584
2.813	24.053	16384	14353	0	584
-0.180	22.791	16384	13884	0	584
-1.046	20.483	16384	13416	0	584
-1.767	20.303	16384	13103	0	584
-5.013	19.942	16384	13103	0	584
-9.412	16.264	16384	13416	0	584
-13.054	14.713	16384	13884	0	584
-15.939	10.314	16384	14353	0	584
-15.435	7.321	16384	14822	0	584
-13.487	4.580	16384	15447	0	584
-10.891	4.760	16384	16072	0	584
-10.169	5.554	16384	16384	0	584
-11.864	6.275	16384	16852	0	584
-14.317	7.862	16384	17321	0	584
-13.307	8.475	16384	17790	0	584
-11.792	6.311	16384	18571	0	584
-10.458	6.780	16384	19509	0	584
-9.232	4.400	16384	19977	0	584
-10.169	3.210	16384	20290	0	584
-9.304	2.885	16384	20134	0	584
-6.852	2.560	16384	20134	0	584
-4.364	1.803	16384	19977	0	584
-7.789	0.325	16384	19509	0	584
-14.245	-2.993	16384	18571	0	584
-20.772	-4.111	16384	17321	0	584
-23.440	-0.108	16384	16228	0	584
-20.050	6.455	16384	14822	0	584
-16.228	11.684	16384	14041	0	584
-12.441	13.271	16384	13572	0	584
-14.930	8.799	16384	13259	0	584
-18.536	1.767	16384	12947	0	584
-19.906	-3.065	16384	12947	0	584
-15.687	-2.308	16384	12634	0	584
-9.016	1.875	16384	12166	0	584
-2.957	9.160	16384	12009	0	584
-0.433	14.281	16384	12166	0	584
-2.596	17.166	16384	12478	0	584
-7.429	13.668	16384	12947	0	584
-7.970	12.658	16384	13572	0	584
-5.734	10.061	16384	14197	0	584
-1.515	9.665	16384	14978	0	584
0.000	11.540	16384	15603	0	584
-0.685	11.864	16384	16384	0	584
-4.652	8.691	16384	17009	0	584
-7.321	9.484	16384	17790	0	584
-4.796	9.556	16384	18727	0	584
-0.072	11.792	16384	19509	0	584
4.219	14.785	16384	20290	0	584
4.075	16.336	16384	21227	0	584
-1.659	13.307	16384	22009	0	584
-10.386	8.330	16384	22321	0	584
-15.326	3.606	16384	22321	0	584
-16.408	1.082	16384	22321	0	584
-9.268	1.262	16384	22165	0	584
-2.596	2.993	16385	21852	0	584
-0.397	3.065	16385	21384	0	584
-2.741	0.072	16385	20915	0	584
-7.285	-6.780	16385	20602	0	584
-12.802	-13.595	16385	20290	0	584
-12.694	-15.795	16385	19977	0	584
-10.710	-14.208	16385	19821	0	584
-10.746	-9.845	16385	19665	0	584
-12.045	-5.878	16385	19040	0	584
-13.920	-9.592	16385	18259	0	584
-19.870	-17.057	16385	16852	0	584
-23.476	-28.201	16385	15759	0	584
-25.243	-34.079	16385	14822	0	584
-27.768	-35.341	16385	14041	0	584
-26.506	-29.427	16384	13416	0	584
-22.791	-21.637	16384	12947	0	584
-19.870	-19.726	16384	12478	0	584
-17.526	-19.942	16384	12322	0	584
-20.267	-26.073	16384	12009	0	584
-24.630	-29.102	16384	11853	0	584
-26.830	-29.030	16384	12009	0	584
-24.234	-25.027	16384	12166	0	584
-17.959	-22.899	16384	12478	0	584
-9.665	-24.486	16384	12947	0	584
-5.013	-25.929	16384	13572	0	584
-4.977	-28.020	16384	14197	0	584
-7.212	-28.128	16384	14509	0	584
-13.018	-28.453	16384	14666	0	584
-18.211	-30.148	16384	14666	0	584
-26.037	-33.862	16384	14666	0	584
-29.391	-36.747	16384	14509	0	584
-31.807	-36.206	16384	14509	0	584
-30.472	-34.223	16384	14822	0	584
-27.876	-31.662	16384	15134	0	584
-24.919	-29.030	16384	15134	0	584
-20.772	-26.902	16384	15134	0	584
-18.860	-25.820	16384	15447	0	584
-21.709	-27.263	16384	15916	0	584
-22.899	-28.850	16384	16228	0	584
-24.919	-30.833	16384	16228	0	584
-24.342	-28.922	16384	15916	0	584
-20.050	-25.784	16384	15447	0	584
-14.497	-22.070	16384	14666	0	584
-11.504	-20.123	16384	13884	0	584
-14.245	-20.700	16384	13259	0	584
-16.228	-21.241	16384	13103	0	584
-18.356	-20.916	16384	13416	0	584
-14.353	-19.510	16384	13416	0	584
-11.035	-18.680	16384	13728	0	584
-6.671	-20.627	16384	14197	0	584
-6.744	-20.195	16384	14509	0	584
-9.845	-20.880	16383	14666	0	584
-16.805	-20.267	16383	14666	0	584
-20.447	-20.700	16383	14353	0	584
-25.316	-19.077	16383	14041	0	584
-25.893	-18.860	16383	14041	0	584
-24.666	-18.139	16383	14197	0	584
-21.313	-16.264	16383	14509	0	584
-18.067	-18.608	16383	14978	0	584
-20.267	-20.808	16383	15447	0	584
-20.591	-24.125	16383	16384	0	584
-21.132	-23.765	16383	17165	0	584
-23.945	-24.450	16383	17946	0	584
-23.368	-26.470	16383	18259	0	584
-23.332	-25.820	16383	18259	0	584
-20.087	-22.755	16383	18259	0	584
-13.451	-17.670	16383	18259	0	584
-4.832	-9.917	16383	18259	0	584
-1.442	-8.078	16383	18415	0	584
-2.272	-10.386	16383	18727	0	584
-6.563	-15.723	16383	18884	0	584
-12.009	-20.195	16383	18727	0	584
-13.091	-20.411	16383	18415	0	584
-15.218	-23.116	16383	18415	0	584
-14.353	-25.820	16383	18571	0	584
-16.697	-30.725	16383	18727	0	584
-19.293	-33.790	16384	18884	0	584
-21.601	-32.528	16383	18727	0	584
-22.755	-26.722	16384	18884	0	584
-26.073	-23.585	16384	18884	0	584
-29.066	-22.358	16384	19040	0	584
-32.600	-28.201	16384	18727	0	584
-35.521	-35.088	16384	18415	0	584
-37.072	-38.154	16384	18102	0	584
-36.026	-37.432	16384	17946	0	584
-32.961	-33.321	16384	17790	0	584
-30.797	-31.699	16384	17477	0	584
-29.968	-31.518	16384	17634	0	584
-30.292	-31.662	16384	17946	0	584
-28.958	-30.977	16384	18415	0	584
-25.063	-25.171	16384	18727	0	584
-16.444	-20.736	16384	19040	0	584
-12.117	-20.627	16384	19665	0	584
-11.828	-21.457	16384	19665	0	584
-18.500	-25.604	16384	19509	0	584
-22.899	-27.263	16384	18884	0	584
-24.558	-25.388	16384	17946	0	584
-18.680	-26.037	16384	16852	0	584
-16.264	-30.076	16384	16384	1	800
-15.182	-33.502	16384	16072	0	800
-19.762	-35.810	16384	16384	0	800
-24.558	-35.629	16384	16540	0	800
-29.282	-34.872	16384	16852	0	800
-33.718	-35.701	16384	17321	0	800
-33.357	-39.127	16384	17634	0	800
-30.508	-41.688	16384	17790	0	800
-26.037	-41.435	16384	17790	0	800
-21.926	-38.658	16384	17790	0	800
-21.781	-38.695	16384	17477	0	800
-26.542	-39.488	16384	17321	0	800
-25.893	-41.471	16384	17790	0	800
-22.935	-41.111	16384	18259	0	800
-18.500	-40.786	16384	18727	0	800
-13.379	-38.947	16385	19196	0	800
-14.317	-35.160	16385	19509	0	800
-13.127	-28.850	16385	19352	0	800
-12.730	-22.863	16385	18884	0	800
-6.744	-14.353	16385	18259	0	800
-2.019	-13.343	16385	17790	0	800
0.757	-13.307	16385	17477	0	800
2.416	-16.084	16385	17321	0	800
3.390	-14.353	16385	17321	0	800
6.996	-9.556	16385	17165	0	800
10.169	-5.842	16385	16696	0	800
13.631	-5.986	16385	16228	0	800
8.727	-11.251	16385	15447	0	800
-0.252	-18.031	16385	14666	0	800
-10.566	-23.476	16385	14041	0	800
-14.497	-25.784	16385	13572	0	800
-14.569	-23.873	16385	13103	0	800
-10.710	-27.010	16385	12478	0	800
-10.242	-33.069	16385	12009	0	800
-18.572	-42.517	16384	11853	0	800
-23.873	-51.100	16384	12009	0	800
-25.316	-54.598	16384	12166	0	800
-16.192	-47.962	16384	12322	0	800
-4.436	-35.918	16384	12634	0	800
1.370	-25.712	16384	13103	0	800
-2.308	-22.791	16384	13572	0	800
-14.028	-27.624	16384	14041	0	800
-26.506	-33.718	16384	14197	0	800
-26.650	-35.737	16384	13728	0	800
-20.231	-30.761	16384	13259	0	800
-11.251	-21.385	16384	13103	0	800
-2.560	-15.831	16384	13103	0	800
-1.767	-13.379	16384	13103	0	800
-4.940	-17.166	16384	13259	0	800
-6.527	-18.933	16384	13259	0	800
-5.445	-18.428	16384	13259	0	800
-1.515	-12.586	16384	13103	0	800
3.606	-9.953	16384	13103	0	800
4.977	-9.665	16384	13572	0	800
2.596	-14.172	16384	14353	0	800
-5.121	-23.368	16384	15134	0	800
-11.396	-28.309	16384	15447	0	800
-16.012	-30.761	16384	15603	0	800
-14.749	-28.309	16384	15916	0	800
-11.540	-26.650	16384	16072	0	800
-8.439	-24.414	16384	16228	0	800
-7.537	-24.450	16384	16228	0	800
-6.744	-26.902	16384	16228	0	800
-6.527	-30.833	16384	16228	0	800
-8.114	-31.158	16384	16228	0	800
-10.025	-33.429	16384	16384	0	800
-12.730	-33.141	16384	16696	0	800
-16.480	-32.420	16384	17165	0	800
-17.670	-31.771	16384	17477	0	800
-17.959	-30.400	16384	17790	0	800
-16.048	-26.902	16384	17790	0	800
-12.045	-23.909	16384	17946	0	800
-6.744	-18.572	16384	17946	0	800
0.325	-16.769	16384	18415	0	800
2.741	-14.497	16384	18884	0	800
0.974	-15.579	16384	19352	0	800
-2.669	-16.264	16384	19821	0	800
-4.580	-20.483	16384	20290	0	800
-5.193	-19.005	16384	21071	0	800
-4.724	-20.014	16384	21852	0	800
-6.996	-20.123	16384	22165	0	800
-10.206	-21.277	16384	22165	0	800
-13.668	-23.080	16384	22321	0	800
-13.595	-25.243	16385	22634	0	800
-16.012	-28.958	16385	22634	0	800
-18.716	-35.160	16385	22165	0	800
-26.686	-41.183	16385	21227	0	800
-28.886	-44.825	16385	20134	0	800
-26.722	-43.022	16384	19040	0	800
-21.421	-35.810	16384	18259	1	356
-16.697	-28.958	16384	17165	0	356
-18.031	-27.732	16384	16072	0	356
-24.270	-33.321	16384	14666	0	356
-28.489	-40.137	16384	13728	0	356
-30.220	-40.462	16384	12791	0	356
-26.325	-34.115	16384	11853	0	356
-18.283	-21.313	16384	10759	0	356
-7.429	-12.730	16384	10134	0	356
1.623	-11.360	16384	9509	0	356
7.068	-16.084	16384	9197	0	356
4.075	-23.224	16384	9041	0	356
-1.587	-25.207	16383	9197	0	356
-7.609	-20.339	16383	9353	0	356
-7.898	-16.877	16383	9509	0	356
-3.787	-12.261	16383	9822	0	356
-3.390	-14.569	16383	10447	0	356
-4.940	-18.716	16383	11384	0	356
-12.946	-26.830	16383	12009	0	356
-18.897	-31.807	16383	12322	0	356
-23.332	-35.197	16383	12634	0	356
-20.267	-32.853	16383	13103	0	356
-18.175	-29.499	16383	14041	0	356
-14.317	-27.083	16383	15134	0	356
-12.766	-25.352	16383	16072	0	356
-9.592	-25.135	16383	16540	0	356
-9.809	-21.601	16383	16852	0	356
-8.042	-17.959	16383	17009	0	356
-10.674	-13.451	16383	17321	0	356
-11.864	-15.759	16383	17634	0	356
-15.074	-17.743	16383	18102	0	356
-13.379	-22.178	16383	18259	0	356
-9.268	-19.185	16384	18415	0	356
-6.491	-15.218	16383	18727	0	356
-5.265	-10.278	16383	19040	0	356
-6.058	-8.799	16383	19040	0	356
-7.032	-9.340	16383	19040	0	356
-6.671	-9.556	16383	18884	0	356
-6.022	-10.242	16383	18571	0	356
-6.996	-11.900	16383	18259	0	356
-9.304	-12.261	16383	18259	0	356
-10.710	-14.208	16383	18727	0	356
-15.182	-18.969	16383	19040	0	356
-16.949	-22.250	16383	19040	0	356
-20.519	-25.676	16383	19040	0	356
-21.421	-29.535	16383	19352	0	356
-23.116	-28.309	16384	19665	0	356
-18.536	-28.453	16384	19821	0	356
-18.139	-30.040	16384	19821	0	356
-18.320	-32.816	16384	19665	0	356
-21.493	-33.898	16384	19977	0	356
-21.457	-32.203	16384	20446	0	356
-20.375	-26.542	16384	20602	0	356
-17.526	-21.709	16384	20134	0	356
-13.307	-17.743	16384	19665	0	356
-12.225	-19.113	16384	19665	0	356
-15.074	-17.923	16384	19821	0	356
-14.858	-17.021	16384	19977	0	356
-14.028	-13.199	16384	19977	0	356
-7.573	-4.075	16384	19821	0	356
-1.262	3.065	16384	19509	0	356
2.344	7.681	16384	19040	0	356
3.029	7.825	16384	18415	0	356
1.442	5.626	16384	17946	0	356
-0.216	2.416	16384	17477	0	356
-1.082	0.902	16384	17009	0	356
-1.731	0.288	16384	16540	0	356
-3.065	0.397	16384	16384	0	356
-4.688	-0.180	16384	16228	0	356
-3.823	-0.325	16384	16072	0	356
-4.616	-1.803	16384	16072	0	356
-4.147	-6.455	16384	16228	0	356
-5.517	-12.189	16384	16384	0	356
-7.862	-14.966	16384	16384	0	356
-8.871	-18.103	16384	15759	0	356
-12.081	-17.093	16384	15291	0	356
-14.281	-18.644	16384	14978	0	356
-12.153	-19.257	16384	14978	0	356
-8.871	-21.277	16385	15291	0	356
-3.570	-19.041	16385	15447	0	356
-0.649	-17.598	16385	15291	0	356
-0.252	-14.172	16385	14978	0	356
-2.344	-11.251	16384	14353	0	356
-2.849	-10.783	16384	14041	0	356
-0.469	-11.720	16384	13884	0	356
2.885	-11.900	16384	13884	0	356
6.131	-11.396	16384	13728	0	356
6.816	-9.556	16384	13728	0	356
3.678	-10.746	16384	13884	0	356
-0.577	-12.658	16384	14509	0	356
-8.222	-20.519	16384	14822	0	356
-13.199	-24.378	16384	14509	0	356
-14.858	-25.063	16384	14041	0	356
-13.451	-18.536	16384	13728	0	356
-9.412	-15.002	16384	13572	0	356
-1.551	-13.451	16384	13728	0	356
1.515	-16.697	16384	13884	0	356
1.154	-19.834	16384	14041	0	356
-4.616	-23.657	16384	13728	0	356
-12.189	-27.335	16384	13103	0	356
-18.283	-28.381	16384	12634	0	356
-17.166	-32.708	16384	12322	0	356
-15.903	-34.079	16384	11853	0	356
-13.487	-30.256	16384	11384	0	356
-16.120	-26.397	16384	10916	0	356
-19.798	-24.053	16383	10603	0	356
-21.060	-23.512	16384	10447	0	356
-16.805	-24.198	16383	10916	0	356
-11.071	-23.837	16383	11697	0	356
-5.085	-17.670	16383	12634	0	356
-1.010	-11.071	16383	13416	0	356
-1.298	-5.409	16383	13884	0	356
-0.288	-3.931	16383	14666	0	356
2.777	-4.868	16383	15759	0	356
6.888	-3.137	16383	16696	0	356
11.648	2.128	16383	17634	0	356
14.749	6.744	16383	18415	0	356
12.550	7.393	16383	19509	0	356
6.599	-0.325	16383	20759	0	356
1.298	-11.504	16384	22165	0	356
-3.606	-18.283	16384	23571	0	356
-4.977	-18.716	16384	24977	0	356
-6.347	-10.206	16384	25915	0	356
-10.061	-7.681	16384	26540	0	356
-12.982	-9.268	16384	26696	0	356
-18.392	-17.634	16384	26696	0	356
-18.464	-25.604	16384	26540	0	356
-17.598	-28.020	16385	26071	0	356
-14.605	-22.683	16385	25290	0	356
-15.182	-20.808	16385	24509	0	356
-17.129	-23.116	16385	23884	1	520
-23.440	-30.076	16385	23415	0	520
-25.099	-35.593	16385	22946	0	520
-24.991	-34.187	16385	22165	0	520
-18.139	-27.551	16385	21227	0	520
-9.304	-19.473	16386	20290	0	520
-5.013	-15.939	16385	19665	0	520
-6.058	-20.483	16386	18884	0	520
-11.864	-24.883	16385	18102	0	520
-16.156	-28.741	16385	17321	0	520
-16.300	-27.876	16385	16540	0	520
-9.701	-25.243	16385	15759	0	520
-1.695	-22.719	16385	14978	0	520
1.839	-23.368	16385	14197	0	520
-1.406	-27.083	16385	13572	0	520
-8.727	-30.617	16385	12791	0	520
-16.480	-33.033	16385	11541	0	520
-22.358	-35.449	16385	10134	0	520
-26.686	-36.675	16385	8884	0	520
-28.345	-35.954	16385	8103	0	520
-28.417	-36.242	16384	7634	0	520
-25.532	-34.764	16384	7166	0	520
-19.618	-34.439	16384	7009	0	520
-15.579	-34.439	16384	7009	0	520
-18.500	-35.701	16384	7009	0	520
-23.080	-35.737	16384	7166	0	520
-29.968	-34.872	16384	7947	0	520
-31.987	-35.810	16384	9041	0	520
-28.345	-34.403	16384	9978	0	520
-22.034	-33.790	16384	10759	0	520
-18.500	-32.889	16384	11384	0	520
-19.690	-32.276	16384	12322	0	520
-22.106	-32.780	16384	13416	0	520
-26.361	-32.276	16384	14509	0	520
-25.856	-28.201	16384	15447	0	520
-20.014	-22.863	16384	16384	0	520
-16.480	-15.795	16384	17477	0	520
-12.514	-15.326	16384	18102	0	520
-14.749	-17.093	16384	18571	0	520
-20.375	-23.368	16384	19040	0	520
-24.811	-27.227	16384	19352	0	520
-26.974	-28.814	16384	19821	0	520
-26.001	-29.066	16384	20290	0	520
-25.352	-27.912	16384	20602	0	520
-24.847	-29.643	16384	20602	0	520
-23.404	-28.489	16384	20446	0	520
-21.998	-27.371	16384	20134	0	520
-20.087	-24.378	16384	19665	0	520
-15.002	-22.142	16384	19040	0	520
-17.274	-21.132	16384	18727	0	520
-17.851	-22.611	16384	18415	0	520
-17.310	-24.414	16384	18102	0	520
-18.031	-20.591	16384	17946	0	520
-13.523	-17.526	16384	17946	0	520
-10.999	-11.287	16384	18102	0	520
-8.222	-7.393	16384	18102	0	520
-5.049	-4.832	16384	17946	0	520
-1.226	-4.652	16384	17790	0	520
0.469	-5.445	16384	17321	0	520
1.875	-4.544	16384	16696	0	520
-1.118	-5.049	16384	15603	0	520
-8.907	-6.671	16384	13728	0	520
-12.766	-8.150	16384	12009	0	520
-14.389	-10.855	16384	10759	0	520
-15.831	-12.910	16384	10291	0	520
-16.408	-16.949	16383	10291	0	520
-17.129	-19.293	16383	10759	0	520
-20.772	-23.260	16383	11228	0	520
-20.519	-23.765	16383	11697	0	520
-17.021	-24.125	16384	12478	0	520
-13.235	-22.719	16384	13728	0	520
-11.612	-20.303	16384	14666	0	520
-10.278	-20.339	16384	15447	0	520
-13.379	-22.106	16384	15916	0	520
-17.202	-21.998	16384	16384	0	520
-18.933	-23.657	16384	16852	0	520
-15.507	-19.005	16384	17634	0	520
-9.737	-13.235	16384	18571	0	520
-3.210	-5.662	16384	19352	0	520
-3.823	-1.515	16384	19977	0	520
-9.989	-1.659	16384	20290	0	520
-17.598	-7.573	16384	20446	0	520
-20.591	-9.556	16384	20446	0	520
-16.516	-10.458	16384	20290	0	520
-12.297	-9.160	16384	19977	0	520
-10.891	-10.350	16384	19665	0	520
-15.615	-13.956	16384	19040	0	520
-21.529	-19.906	16384	18571	0	520
-24.342	-24.486	16384	18259	0	520
-20.483	-24.486	16384	18259	0	520
-15.687	-19.401	16384	18415	0	520
-9.340	-16.372	16384	18571	0	520
-7.573	-11.900	16384	18884	0	520
-9.016	-12.009	16384	18727	0	520
-10.350	-11.287	16384	18415	0	520
-9.448	-11.215	16384	18259	0	520
-6.635	-11.720	16384	18102	0	520
-4.291	-9.809	16384	17946	0	520
-3.173	-9.484	16384	17634	0	520
-4.688	-8.871	16384	17477	0	520
-9.412	-9.953	16384	17321	0	520
-10.350	-9.376	16384	17165	0	520
-10.206	-7.789	16384	17165	0	520
-6.671	-4.436	16384	17165	0	520
-2.813	-0.577	16384	17165	0	520
2.669	3.137	16384	17165	0	520
3.859	8.222	16384	16696	0	520
6.924	9.412	16384	16384	0	520
6.131	9.881	16384	16072	0	520
4.075	7.393	16384	15759	0	520
0.757	5.085	16384	15447	0	520
-3.714	0.649	16384	15134	0	520
-5.373	2.200	16384	14666	0	520
-5.337	8.258	16384	14509	0	520
-2.272	12.946	16384	14353	0	520
-0.288	14.677	16384	14197	0	520
-3.210	12.766	16384	14509	0	520
-9.232	5.842	16384	14978	0	520
-13.163	1.046	16384	15447	0	520
-15.254	-0.361	16384	15916	0	520
-11.720	2.921	16384	16228	0	520
-7.140	3.173	16384	16228	0	520
-6.383	4.075	16384	16228	0	520
-6.599	1.803	16384	16384	0	520
-6.347	2.885	16384	16540	0	520
-3.462	7.357	16384	16696	0	520
-1.623	10.602	16384	16852	0	520
-0.433	11.576	16384	17009	0	520
-3.570	11.396	16384	17165	0	520
-6.455	8.655	16384	17321	0	520
-10.278	7.681	16384	17634	0	520
-10.206	8.583	16384	17946	0	520
-8.547	11.215	16384	17790	0	520
-7.681	12.550	16384	17165	0	520
-8.763	11.792	16384	16384	0	520
-11.071	10.025	16384	15916	0	520
-13.271	4.688	16384	15447	0	520
-15.831	0.938	16384	14822	0	520
-13.451	-2.272	16384	14353	0	520
-8.655	-3.642	16384	13884	0	520
-8.294	-5.265	16384	13572	0	520
-10.458	-5.229	16384	13416	0	520
-10.638	-2.272	16384	13259	0	520
-13.307	-1.479	16384	12634	0	520
-11.396	2.488	16384	12009	0	520
-8.439	0.180	16384	11697	0	520
-7.681	-2.488	16384	11697	0	520
-9.665	-8.835	16384	11541	0	520
-12.153	-10.963	16384	11228	0	520
-10.927	-10.566	16383	11072	0	520
-8.366	-7.212	16383	11541	0	520
-3.390	-5.517	16383	12322	0	520
-1.046	-2.741	16383	13103	0	520
-2.344	-4.832	16383	13884	0	520
-6.888	-6.816	16383	14509	0	520
-11.937	-9.340	16383	15291	0	520
-19.618	-9.917	16383	16072	0	520
-21.890	-13.018	16384	16696	0	520
-25.460	-12.586	16384	17009	0	520
-25.965	-13.487	16384	16852	0	520
-24.450	-14.785	16383	16540	0	520
-28.850	-18.897	16383	16384	0	520
-34.547	-28.489	16383	16384	0	520
-41.255	-36.423	16383	16384	0	520
-44.501	-41.796	16383	16540	0	520
-43.022	-43.419	16383	16696	0	520
-41.652	-43.419	16383	16852	0	520
-44.212	-44.933	16383	17009	0	520
-50.847	-51.713	16383	17165	0	520
-58.060	-55.716	16383	17477	0	520
-60.656	-58.060	16383	17946	0	520
-59.647	-54.382	16383	18259	0	520
-54.778	-50.775	16383	18102	0	520
-52.434	-47.313	16383	17790	0	520
-49.982	-48.720	16383	17477	0	520
-51.569	-48.143	16383	17477	0	520
-48.359	-47.386	16384	17477	0	520
-45.438	-43.058	16383	17634	0	520
-40.029	-37.649	16383	17790	0	520
-35.088	-34.620	16383	17946	0	520
-34.656	-33.357	16383	18102	0	520
-39.885	-34.583	16383	18571	0	520
-45.114	-34.547	16383	19196	0	520
-45.691	-32.780	16384	19821	0	520
-40.426	-26.974	16384	20134	0	520
-28.345	-21.457	16384	20134	0	520
-20.050	-13.704	16384	20290	0	520
-16.372	-13.451	16384	20446	0	520
-21.890	-15.651	16384	20602	0	520
-30.328	-20.700	16384	20759	0	520
-37.468	-27.191	16384	21071	0	520
-41.616	-30.653	16384	21227	0	520
-40.570	-30.977	16384	21071	0	520
-39.596	-30.545	16384	20759	0	520
-37.324	-27.479	16384	20290	0	520
-37.036	-24.847	16384	19821	0	520
-38.586	-22.972	16384	19196	1	784
-40.642	-20.772	16384	18571	0	784
-41.580	-22.142	16384	17790	0	784
-40.317	-23.693	16384	17321	0	784
-32.997	-21.709	16384	17009	0	784
-23.152	-18.860	16384	17009	0	784
-18.320	-12.550	16384	16696	0	784
-14.064	-7.609	16384	16384	0	784
-15.398	-1.983	16384	16072	0	784
-14.713	-0.505	16384	15603	0	784
-13.018	0.361	16384	15134	0	784
-9.484	1.298	16384	14353	0	784
-7.501	0.757	16384	13728	0	784
-11.828	-1.767	16384	13259	0	784
-18.031	-6.275	16384	12791	0	784
-21.926	-9.412	16384	12478	0	784
-23.729	-13.235	16384	12478	0	784
-21.204	-11.143	16384	12634	0	784
-15.975	-7.609	16384	12791	0	784
-15.543	-3.210	16384	12947	0	784
-15.110	-1.551	16384	12947	0	784
-19.401	-6.311	16384	13103	0	784
-18.860	-11.323	16384	13416	0	784
-17.959	-14.136	16384	13884	0	784
-15.362	-14.894	16384	14509	0	784
-16.805	-10.891	16384	15291	0	784
-18.464	-8.222	16384	15916	0	784
-21.457	-6.996	16384	16384	0	784
-20.555	-6.996	16384	17165	0	784
-16.625	-3.029	16384	17946	0	784
-9.376	3.678	16384	18259	0	784
-3.210	10.638	16384	18415	0	784
0.613	17.887	16384	18571	0	784
2.272	19.077	16384	18259	0	784
0.649	16.156	16384	17790	0	784
-3.390	7.537	16384	17477	0	784
-7.140	1.695	16384	17321	0	784
-12.261	-1.334	16384	17165	0	784
-12.658	1.479	16384	16852	0	784
-12.117	7.465	16384	16852	0	784
-11.864	12.586	16384	16852	0	784
-10.133	13.523	16384	17009	0	784
-9.304	10.025	16384	16696	0	784
-6.744	8.294	16384	16384	0	784
-2.524	8.583	16384	16228	0	784
0.649	12.586	16384	15759	0	784
0.865	16.372	16384	15447	0	784
-3.137	18.680	16384	15134	0	784
-7.248	17.129	16384	15291	0	784
-8.619	12.586	16384	15447	0	784
-5.950	9.665	16384	15603	0	784
-4.940	8.835	16384	15447	0	784
-7.429	9.773	16384	15291	0	784
-10.891	11.396	16384	15447	0	784
-13.343	10.891	16384	15603	0	784
-13.307	10.783	16384	15916	0	784
-11.432	5.229	16384	16384	0	784
-10.133	0.433	16384	16384	0	784
-14.317	0.433	16384	16540	0	784
-15.398	4.364	16384	16852	0	784
-15.651	9.989	16384	17165	0	784
-17.743	15.398	16384	17634	0	784
-21.168	12.009	16384	17946	0	784
-26.470	2.524	16384	18259	0	784
-29.318	-6.131	16384	18415	0	784
-24.955	-8.763	16384	18415	0	784
-15.254	-3.931	16384	18571	0	784
-8.294	2.885	16384	18415	0	784
-5.878	4.688	16384	18102	0	784
-8.583	0.252	16384	17790	0	784
-16.264	-8.727	16384	17634	0	784
-21.385	-16.625	16384	17634	0	784
-20.050	-20.483	16384	17321	0	784
-18.608	-17.995	16384	17009	0	784
-19.437	-18.139	16384	16696	0	784
-20.050	-16.697	16384	16384	0	784
-24.378	-18.536	16384	16384	0	784
-22.358	-16.805	16384	16228	0	784
-17.743	-16.625	16384	16072	0	784
-8.258	-12.802	16384	15916	0	784
-5.229	-13.776	16384	15916	0	784
-6.671	-14.461	16384	15759	0	784
-6.924	-12.910	16384	15447	0	784
-5.373	-11.648	16384	14978	0	784
0.505	-6.852	16384	14509	0	784
2.669	-6.563	16384	14197	0	784
-1.947	-8.727	16384	13884	0	784
-12.117	-15.723	16384	13728	0	784
-20.952	-17.310	16384	13728	0	784
-22.142	-17.598	16384	13884	0	784
-19.077	-13.704	16384	14353	0	784
-12.153	-11.287	16384	14666	0	784
-10.133	-11.792	16384	14666	0	784
-9.989	-14.497	16384	14509	0	784
-11.504	-19.149	16384	14197	0	784
-11.684	-20.267	16384	13884	0	784
-11.612	-23.837	16384	13572	0	784
-9.484	-23.981	16384	13259	0	784
-11.468	-25.496	16384	13259	0	784
-12.874	-26.433	16384	13572	0	784
-13.415	-27.263	16384	14041	0	784
-15.543	-25.604	16384	14509	0	784
-13.271	-24.198	16384	14978	0	784
-9.809	-22.467	16384	15447	0	784
-7.501	-19.365	16384	16072	0	784
-7.825	-19.510	16384	16384	0	784
-9.304	-22.647	16384	16696	0	784
-14.930	-23.512	16384	17009	0	784
-15.002	-22.431	16384	17790	0	784
-9.448	-16.192	16384	18571	0	784
-3.714	-10.169	16384	19040	0	784
1.551	-5.409	16384	19040	0	784
0.000	-4.436	16384	19196	0	784
-6.563	-7.789	16384	19040	0	784
-13.595	-11.576	16384	18571	0	784
-14.172	-11.251	16384	18259	0	784
-11.323	-7.717	16384	17946	0	784
-6.924	-4.111	16384	17634	0	784
-0.974	1.298	16384	17165	0	784
0.865	2.921	16384	16540	0	784
-0.252	3.137	16384	15916	0	784
-2.380	-2.885	16384	15291	0	784
-6.527	-6.924	16384	14822	0	784
-8.150	-12.550	16384	14353	0	784
-7.321	-12.838	16384	13884	0	784
-5.229	-6.239	16384	13572	0	784
-2.741	-1.262	16383	13416	0	784
-3.173	2.344	16383	13416	0	784
-4.832	2.236	16383	13728	0	784
-6.527	-4.291	16383	13884	0	784
-6.455	-5.517	16383	14197	0	784
-4.436	-6.022	16383	14666	0	784
-3.426	-5.013	16383	15291	0	784
-4.652	-6.419	16383	15916	0	784
-7.176	-6.167	16383	16852	0	784
-6.527	-3.534	16383	17790	0	784
-4.111	-1.839	16384	18727	0	784
1.334	-0.469	16384	19196	0	784
1.911	-2.308	16384	19665	0	784
-2.524	-7.321	16384	19977	0	784
-9.809	-12.117	16384	19977	0	784
-14.821	-13.523	16384	19509	0	784
-12.982	-16.012	16384	19040	0	784
-10.494	-17.923	16384	18884	0	784
-9.520	-20.123	16384	19040	0	784
-11.973	-19.870	16384	19040	1	580
-17.598	-19.401	16384	18727	0	580
-17.202	-14.677	16384	18102	0	580
-15.471	-15.903	16384	17477	0	580
-10.746	-18.031	16384	16852	0	580
-10.638	-25.784	16384	16852	0	580
-20.555	-34.187	16384	17009	0	580
-27.371	-36.819	16384	17009	0	580
-33.574	-37.144	16384	16696	0	580
-32.203	-31.410	16384	16384	0	580
-25.929	-24.198	16384	16384	0	580
-22.647	-24.162	16384	16072	0	580
-22.791	-27.010	16384	15916	0	580
-28.056	-29.859	16384	15916	0	580
-30.112	-27.299	16384	15916	0	580
-26.650	-21.818	16384	15916	0	580
-21.457	-14.605	16384	16072	0	580
-17.779	-10.097	16384	16228	0	580
-14.281	-11.035	16384	16384	0	580
-17.779	-16.408	16384	16696	0	580
-22.286	-18.752	16384	17009	0	580
-28.597	-23.693	16384	17321	0	580
-34.187	-27.840	16384	17477	0	580
-39.668	-33.285	16384	17321	0	580
-39.885	-35.449	16384	17165	0	580
-37.180	-33.682	16384	16852	0	580
-32.131	-30.328	16384	16852	0	580
-28.958	-26.578	16384	17165	0	580
-28.417	-25.820	16384	17634	0	580
-29.643	-27.299	16384	18102	0	580
-29.174	-27.912	16384	18259	0	580
-27.479	-27.119	16384	17790	0	580
-27.732	-24.811	16384	17165	0	580
-29.643	-26.073	16384	16540	0	580
-34.223	-29.391	16384	16384	0	580
-39.921	-33.502	16384	16072	0	580
-39.885	-32.528	16384	16072	0	580
-36.062	-26.001	16384	15759	0	580
-30.220	-17.779	16384	15603	0	580
-25.856	-12.261	16384	15603	0	580
-24.847	-11.900	16384	15916	0	580
-24.919	-13.812	16384	16384	0	580
-25.784	-12.297	16384	16696	0	580
-22.935	-9.268	16384	17009	0	580
-18.428	-4.400	16384	17165	0	580
-17.382	-5.193	16384	17009	0	580
-16.372	-11.251	16384	17165	0	580
-20.014	-19.546	16384	17009	0	580
-21.818	-26.397	16384	16384	0	580
-23.332	-28.633	16384	15759	0	580
-23.044	-26.758	16384	14978	0	580
-21.926	-22.250	16384	14197	0	580
-25.027	-20.627	16384	13416	0	580
-26.722	-20.664	16384	12634	0	580
-28.489	-21.637	16384	12166	0	580
-29.427	-23.693	16384	12009	0	580
-28.237	-20.339	16384	12166	0	580
-25.532	-16.084	16384	12947	0	580
-21.493	-8.511	16384	14041	0	580
-18.572	-6.419	16384	14978	0	580
-17.382	-5.734	16384	15759	0	580
-16.300	-7.176	16384	16228	0	580
-17.129	-7.753	16384	16852	0	580
-18.067	-5.878	16384	18102	0	580
-15.579	-3.570	16384	19352	0	580
-14.894	-0.829	16384	20602	0	580
-14.533	-2.308	16384	21384	0	580
-18.860	-6.094	16384	22009	0	580
-20.087	-8.042	16385	22634	0	580
-21.168	-6.635	16385	23259	0	580
-16.589	-3.462	16385	23259	0	580
-11.937	2.488	16385	22946	0	580
-9.989	4.400	16385	22165	0	580
-15.867	1.370	16385	21071	0	580
-29.715	-8.619	16385	19665	0	580
-43.310	-18.211	16385	18259	0	580
-49.693	-26.109	16385	16852	0	580
-47.602	-28.597	16385	16072	0	580
-39.308	-27.083	16385	15447	0	580
-33.502	-22.250	16385	14666	1	316
-36.891	-21.241	16385	13884	0	316
-47.602	-25.496	16384	12947	0	316
-57.194	-30.905	16384	12166	0	316
-58.060	-34.908	16384	11541	0	316
-52.687	-34.439	16384	10603	0	316
-46.051	-29.931	16384	9822	0	316
-46.268	-29.931	16384	9041	0	316
-53.516	-35.485	16384	8884	0	316
-57.555	-41.291	16384	9197	0	316
-55.139	-42.012	16384	9509	0	316
-45.727	-34.583	16384	9822	0	316
-38.154	-24.053	16384	9978	0	316
-38.262	-21.709	16384	10291	0	316
-44.392	-24.811	16384	10759	0	316
-47.710	-33.538	16384	11697	0	316
-50.631	-39.560	16384	12322	0	316
-51.064	-42.265	16384	12791	0	316
-52.542	-44.825	16384	12947	0	316
-58.168	-48.720	16383	13416	0	316
-63.253	-52.867	16383	14041	0	316
-63.325	-58.961	16383	14822	0	316
-62.712	-58.096	16383	15916	0	316
-60.692	-55.031	16384	16852	0	316
-58.168	-50.884	16384	18102	0	316
-55.680	-44.969	16384	19352	0	316
-55.463	-43.707	16384	20602	0	316
-53.191	-45.871	16384	21696	0	316
-52.398	-45.871	16384	22477	0	316
-47.277	-42.589	16384	22634	0	316
-43.022	-36.891	16384	22165	0	316
-36.711	-30.256	16384	21696	0	316
-31.735	-25.207	16384	21227	0	316
-27.335	-22.899	16384	20759	0	316
-24.991	-21.637	16384	20290	0	316
-21.132	-17.454	16384	19509	0	316
-21.709	-16.372	16384	18884	0	316
-21.385	-15.182	16384	18259	0	316
-24.919	-17.779	16384	17946	0	316
-30.040	-21.601	16384	17634	0	316
-34.331	-26.722	16384	17634	0	316
-37.721	-28.922	16384	17634	0	316
-37.865	-28.381	16384	17165	0	316
-34.620	-26.037	16384	16852	0	316
-30.545	-24.450	16384	16696	0	316
-29.679	-21.890	16384	16384	0	316
-32.384	-23.945	16384	15916	0	316
-34.944	-26.794	16384	15603	0	316
-36.206	-26.397	16384	15603	0	316
-34.620	-26.433	16384	15603	0	316
-29.787	-25.712	16384	15291	0	316
-26.830	-24.630	16384	14509	0	316
-27.155	-23.188	16384	14041	0	316
-29.102	-23.981	16384	13728	0	316
-29.968	-23.981	16384	13728	0	316
-28.777	-18.536	16384	13884	0	316
-20.519	-13.920	16384	14353	0	316
-13.523	-7.970	16384	14978	0	316
-5.409	-2.056	16384	15759	0	316
-1.298	-2.128	16384	16384	0	316
-0.072	-1.442	16384	17009	0	316
-1.046	-2.488	16384	17946	0	316
-1.875	-2.019	16384	18884	0	316
-4.111	-1.154	16384	19977	0	316
-5.481	-1.515	16384	20915	0	316
-5.950	-2.128	16384	21852	0	316
-6.022	-2.849	16384	22634	0	316
-5.662	-2.380	16385	23102	0	316
-4.580	-2.921	16385	22790	0	316
-5.806	-4.219	16385	22009	0	316
-7.537	-7.609	16385	21227	0	316
-10.530	-10.566	16385	20602	0	316
-14.208	-16.156	16385	20290	0	316
-14.208	-15.182	16385	19977	0	316
-13.776	-15.290	16385	19665	0	316
-6.960	-11.071	16385	19196	0	316
-1.370	-5.121	16385	18415	0	316
2.813	-5.121	16385	17634	0	316
2.056	-5.121	16385	16384	0	316
-2.669	-7.898	16385	15134	0	316
-8.042	-10.097	16385	14041	0	316
-12.802	-8.439	16385	13259	0	316
-13.127	-4.904	16384	12791	0	316
-8.835	-1.010	16384	12009	0	316
-6.671	0.541	16384	11541	0	316
-3.642	1.659	16384	11384	0	316
-4.075	-0.397	16384	11384	0	316
-6.167	-4.940	16384	11384	0	316
-5.950	-9.232	16384	11228	0	316
-3.678	-9.268	16384	11228	0	316
0.974	-5.698	16384	11384	0	316
1.515	0.216	16384	11853	0	316
-3.354	1.118	16384	12478	0	316
-11.360	-4.580	16384	12947	0	316
-19.005	-16.012	16384	13259	0	316
-19.690	-21.168	16384	13728	0	316
-19.365	-23.368	16384	13884	0	316
-19.546	-18.824	16384	13884	0	316
-24.306	-17.995	16384	13572	0	316
-29.210	-18.933	16384	13416	0	316
-30.220	-22.503	16384	13103	0	316
-27.010	-25.027	16384	13103	0	316
-23.152	-25.568	16384	13259	0	316
-24.991	-29.499	16384	13416	0	316
-30.508	-33.754	16384	13572	0	316
-33.357	-37.036	16384	13884	0	316
-33.790	-37.396	16384	14197	0	316
-30.869	-33.285	16384	14509	0	316
-26.361	-29.859	16384	14822	0	316
-25.388	-27.587	16384	15134	0	316
-23.729	-29.030	16384	15291	0	316
-23.549	-29.751	16383	15447	0	316
-24.558	-30.689	16383	15603	0	316
-27.443	-34.006	16383	16228	0	316
-30.689	-35.233	16383	16384	0	316
-33.790	-36.026	16383	16540	0	316
-34.547	-34.403	16383	17009	0	316
-35.197	-31.843	16383	17477	0	316
-35.557	-28.850	16383	17790	0	316
-37.144	-28.633	16383	17790	0	316
-38.875	-31.735	16383	17790	0	316
-38.695	-30.905	16383	18259	0	316
-38.514	-30.797	16383	18727	0	316
-34.836	-27.587	16383	19040	0	316
-28.237	-23.693	16383	19352	0	316
-20.050	-19.041	16384	19821	0	316
-14.713	-13.920	16384	20290	0	316
-9.484	-12.297	16384	20759	0	316
-9.268	-10.855	16384	21384	0	316
-10.025	-10.855	16384	22165	0	316
-10.169	-12.009	16384	22634	0	316
-12.550	-13.054	16384	22790	0	316
-15.362	-12.225	16384	22790	0	316
-14.677	-14.317	16384	22477	0	316
-14.858	-12.982	16384	22165	0	316
-8.619	-10.674	16384	21696	0	316
-3.570	-8.799	16384	21227	0	316
-0.902	-7.248	16384	20602	1	548
-2.236	-9.304	16384	19977	0	548
-6.960	-12.405	16384	19196	0	548
-13.018	-17.959	16384	18415	0	548
-16.661	-18.752	16384	17477	0	548
-22.250	-21.709	16384	16540	0	548
-26.433	-19.257	16384	15916	0	548
-29.391	-18.283	16384	15134	0	548
-27.696	-13.163	16384	14353	0	548
-21.024	-10.819	16384	13728	0	548
-13.343	-7.465	16384	13103	0	548
-7.898	-7.140	16384	12634	0	548
-9.052	-6.563	16384	12322	0	548
-11.900	-6.780	16384	12009	0	548
-12.333	-6.203	16384	11853	0	548
-10.566	-3.173	16384	11853	0	548
-8.186	-2.669	16384	12166	0	548
-6.239	-1.695	16384	12166	0	548
-9.773	-2.885	16384	11697	0	548
-12.225	-3.642	16384	11072	0	548
-9.881	-0.072	16383	10447	0	548
-2.560	6.131	16383	9978	0	548
8.402	16.408	16383	9666	0	548
15.290	20.087	16383	9666	0	548
17.851	21.060	16383	9978	0	548
12.261	16.661	16383	10759	0	548
5.409	12.838	16383	11541	0	548
1.226	10.819	16383	12478	0	548
0.036	13.415	16383	13416	0	548
-0.902	14.930	16383	14353	0	548
-4.760	12.261	16383	15291	0	548
-9.881	10.386	16383	16384	0	548
-14.136	5.301	16383	17477	0	548
-17.670	2.524	16383	18259	0	548
-13.776	5.049	16383	18727	0	548
-7.465	6.888	16383	18884	0	548
-3.318	11.071	16383	19040	0	548
0.325	9.917	16383	19196	0	548
0.541	7.176	16384	19509	0	548
0.793	4.039	16384	19509	0	548
0.505	-0.108	16384	19665	0	548
-1.587	0.036	16384	19821	0	548
-5.013	1.010	16384	19665	0	548
-8.439	2.885	16384	19352	0	548
-8.366	7.032	16384	18884	0	548
-5.265	8.655	16383	18571	0	548
-1.226	7.862	16383	18415	0	548
-2.019	4.039	16384	18571	0	548
-4.724	-2.272	16384	18884	0	548
-10.278	-6.671	16384	19040	0	548
-12.477	-6.383	16384	19196	0	548
-10.530	-5.301	16384	19040	0	548
-9.016	-5.337	16384	18571	0	548
-8.366	-9.773	16384	18259	0	548
-9.304	-18.500	16384	18102	0	548
-12.586	-22.395	16384	18102	0	548
-14.966	-22.575	16384	18102	0	548
-13.848	-19.041	16384	17946	0	548
-8.439	-13.776	16384	17165	0	548
-5.265	-13.018	16384	16384	0	548
-4.796	-18.572	16384	15759	0	548
-8.727	-21.132	16383	15447	0	548
-11.179	-20.411	16383	15447	0	548
-12.730	-16.949	16384	15759	0	548
-10.097	-10.458	16384	16384	0	548
-5.842	-7.717	16384	17477	0	548
-4.652	-11.071	16384	18415	0	548
-3.750	-13.956	16384	19040	0	548
-3.642	-14.821	16384	19665	0	548
-5.193	-15.975	16384	19821	0	548
-6.131	-14.172	16384	19821	0	548
-9.016	-16.084	16384	19821	0	548
-9.448	-17.382	16384	19665	0	548
-10.422	-20.195	16384	19509	0	548
-10.025	-17.382	16384	19196	0	548
-6.455	-14.425	16384	18884	0	548
-3.967	-10.530	16384	18415	0	548
-0.577	-7.645	16384	17946	0	548
-0.108	-8.294	16384	17477	0	548
-4.219	-14.028	16384	17165	0	548
-11.432	-18.392	16384	17165	0	548
-17.490	-24.450	16384	17477	0	548
-18.536	-24.522	16384	17790	0	548
-18.356	-23.260	16385	18259	0	548
-17.526	-21.132	16385	18259	0	548
-17.454	-18.067	16385	17790	0	548
-17.021	-18.608	16385	16852	0	548
-18.283	-16.805	16385	16072	0	548
-11.828	-18.320	16385	15447	0	548
-7.032	-15.687	16385	14666	0	548
-3.606	-14.785	16385	14041	0	548
-4.724	-13.668	16385	14041	0	548
-8.006	-11.179	16385	14353	0	548
-9.376	-10.999	16385	14666	0	548
-7.393	-7.970	16385	14509	0	548
-0.649	-4.255	16385	13884	0	548
6.924	0.541	16384	13416	0	548
10.242	2.957	16384	12947	0	548
12.874	3.606	16384	12478	0	548
11.504	1.947	16384	12009	0	548
10.602	-0.505	16384	11697	0	548
8.691	-1.334	16384	11072	0	548
4.472	-1.659	16384	10447	0	548
-1.947	-1.082	16384	9978	0	548
-5.878	-0.793	16384	9978	0	548
-5.554	0.793	16384	10603	0	548
-3.065	1.479	16384	11228	0	548
1.695	-0.577	16384	11697	0	548
2.272	-3.787	16384	12322	0	548
-0.902	-7.176	16384	13103	0	548
-3.390	-12.045	16384	14041	0	548
-4.400	-11.756	16384	14978	0	548
-2.705	-10.278	16384	16228	0	548
-3.750	-11.396	16384	17165	0	548
-7.609	-11.323	16384	17790	0	548
-9.917	-9.665	16384	18102	0	548
-6.635	-8.943	16384	18102	0	548
-0.433	-3.246	16384	17946	0	548
9.232	1.262	16384	18102	0	548
13.127	3.210	16384	18259	0	548
11.432	4.075	16384	18571	0	548
10.566	3.714	16384	18884	0	548
13.415	5.914	16384	19040	0	548
15.831	7.032	16384	18884	0	548
19.005	7.573	16384	18571	0	548
13.776	5.085	16384	18102	0	548
4.796	0.829	16384	17634	0	548
-1.551	-0.577	16384	17165	0	548
-1.587	3.065	16384	17009	0	548
5.554	8.907	16384	17009	0	548
14.497	16.336	16384	17165	0	548
13.848	16.408	16384	17477	0	548
8.979	12.369	16384	17634	0	548
-1.370	6.491	16384	17634	0	548
-5.301	3.173	16384	17477	0	548
-0.469	5.013	16384	17321	0	548
9.088	9.232	16384	17165	0	548
15.831	15.038	16384	16696	0	548
14.533	18.103	16384	16228	0	548
10.891	19.870	16384	15759	0	548
6.563	16.769	16384	15447	0	548
8.763	13.776	16384	15759	0	548
10.819	7.212	16384	16384	0	548
12.586	3.210	16384	17165	0	548
7.465	2.669	16384	17790	0	548
1.262	5.373	16384	17946	0	548
-1.262	5.914	16384	18102	0	548
1.803	7.176	16384	18102	0	548
7.393	5.770	16384	18259	0	548
13.307	5.698	16384	18102	0	548
13.559	6.671	16384	18259	0	548
9.592	4.868	16384	18415	0	548
4.436	2.416	16384	18415	0	548
1.154	-2.236	16384	18415	0	548
-1.226	-8.475	16384	17790	0	548
-1.803	-9.196	16384	17477	0	548
-2.957	-6.924	16384	17477	0	548
-1.659	-4.580	16384	17946	0	548
-0.072	-3.065	16384	18571	0	548
6.816	-1.515	16384	18884	0	548
6.816	-5.554	16384	18884	0	548
2.344	-8.691	16384	18571	0	548
-7.140	-12.694	16384	17946	0	548
-13.127	-14.389	16384	17321	0	548
-12.946	-15.651	16384	16852	0	548
-7.032	-12.658	16384	16384	0	548
-2.849	-12.730	16384	16228	0	548
-6.419	-12.622	16384	15916	0	548
-17.057	-16.336	16384	15759	0	548
-20.808	-22.395	16384	15603	0	548
-20.808	-24.811	16384	15291	0	548
-13.379	-24.630	16384	14822	0	548
-9.052	-24.955	16384	14666	0	548
-10.891	-22.972	16384	14822	0	548
-15.867	-23.657	16384	14978	0	548
-19.798	-23.152	16384	15291	0	548
-15.651	-17.923	16384	15134	0	548
-9.052	-14.497	16384	14978	0	548
-2.957	-10.097	16384	14666	0	548
-2.344	-11.215	16384	14666	0	548
-6.455	-14.245	16384	14509	0	548
-8.979	-16.625	16384	14197	0	548
-7.429	-15.687	16384	14197	0	548
-1.947	-10.169	16384	14353	0	548
2.092	-5.842	16384	14509	0	548
3.534	-2.741	16384	14509	0	548
-1.154	-3.642	16384	13884	0	548
-8.186	-5.770	16384	12947	0	548
-10.891	-9.160	16384	12322	0	548
-12.009	-8.763	16384	12166	0	548
-12.117	-12.297	16384	12322	0	548
-14.100	-13.343	16384	12634	0	548
-14.858	-13.812	16384	13103	0	548
-16.552	-13.343	16384	13572	0	548
-13.379	-10.206	16384	14197	0	548
-8.294	-8.366	16384	14666	0	548
-7.393	-15.110	16384	15447	0	548
-9.592	-21.168	16384	15759	0	548
-12.189	-27.515	16384	16072	0	548
-15.939	-29.535	16384	16384	0	548
-13.271	-24.162	16384	16696	0	548
-7.645	-18.716	16384	17321	0	548
-3.570	-11.648	16384	17790	0	548
-1.551	-11.504	16384	18102	0	548
-0.361	-10.386	16384	18102	0	548
-1.767	-10.458	16384	18102	0	548
-3.642	-10.494	16384	17946	0	548
-1.731	-5.662	16384	17790	0	548
1.406	-0.685	16384	17634	0	548
3.967	0.000	16384	17477	0	548
2.993	-3.210	16384	17165	1	840
-2.416	-9.484	16384	16852	0	840
-9.556	-15.254	16384	16540	0	840
-13.956	-15.074	16384	16540	0	840
-9.304	-9.268	16384	16852	0	840
-3.426	-5.409	16384	17165	0	840
-0.433	-5.157	16384	17321	0	840
-5.013	-12.441	16384	17165	0	840
-16.769	-21.493	16384	17009	0	840
-24.666	-28.489	16384	16852	0	840
-26.722	-29.246	16384	17165	0	840
-23.368	-28.309	16384	17790	0	840
-19.654	-24.666	16384	18259	0	840
-19.726	-26.217	16384	18259	0	840
-23.260	-27.732	16384	18102	0	840
-25.388	-29.607	16384	17946	0	840
-24.089	-29.679	16384	17634	0	840
-24.522	-30.400	16384	17946	0	840
-23.224	-31.158	16384	18102	0	840
-24.847	-31.518	16384	18102	0	840
-24.955	-29.246	16384	18102	0	840
-20.123	-26.289	16384	17946	0	840
-14.208	-18.031	16384	17477	0	840
-5.734	-13.054	16384	17321	0	840
0.000	-7.032	16384	17321	0	840
1.046	-2.777	16384	17634	0	840
1.118	-0.144	16384	17634	0	840
-2.524	-0.902	16384	17321	0	840
-7.537	-4.508	16384	16696	0	840
-8.979	-8.979	16384	16384	0	840
-8.511	-11.576	16384	15759	0	840
-7.609	-12.477	16384	15291	0	840
-6.816	-15.362	16384	15291	0	840
-8.258	-18.464	16384	15447	0	840
-12.694	-25.316	16384	15291	0	840
-15.687	-29.174	16384	14822	0	840
-19.582	-31.374	16384	14509	0	840
-18.464	-29.715	16384	14666	0	840
-17.743	-26.217	16384	14978	0	840
-12.730	-22.503	16384	15291	0	840
-8.366	-16.120	16384	15447	0	840
-3.967	-12.838	16384	15447	0	840
-0.974	-9.376	16384	15603	0	840
-0.108	-7.645	16384	15759	0	840
-0.288	-8.114	16384	16072	0	840
1.983	-6.455	16384	16384	0	840
4.039	-3.282	16384	16384	0	840
7.321	-0.541	16384	16384	0	840
7.934	1.262	16384	16072	0	840
6.744	3.390	16384	15916	0	840
1.515	4.003	16384	15916	0	840
-5.481	2.452	16384	15916	0	840
-10.710	0.252	16384	15759	0	840
-13.812	-3.426	16384	15603	0	840
-13.235	-6.924	16384	15134	0	840
-12.009	-8.475	16384	14509	0	840
-14.245	-7.032	16384	13884	0	840
-13.956	-7.789	16384	13572	0	840
-16.480	-8.691	16384	12947	0	840
-13.018	-11.107	16383	12322	0	840
-6.419	-12.586	16383	12009	0	840
-0.938	-14.821	16383	11697	0	840
1.587	-14.677	16383	11853	0	840
-1.082	-17.021	16383	12166	0	840
-5.770	-19.113	16383	12478	0	840
-10.927	-22.358	16383	13103	0	840
-13.631	-20.916	16383	13884	0	840
-13.018	-21.745	16383	14666	0	840
-10.206	-16.913	16383	15291	0	840
-3.859	-13.343	16383	15603	0	840
1.010	-7.898	16383	15759	0	840
4.616	-4.508	16383	16228	0	840
5.301	-4.327	16383	16696	0	840
3.787	-4.544	16383	17321	0	840
3.137	-7.609	16383	17946	0	840
2.200	-9.556	16383	18415	0	840
-0.180	-9.448	16383	18884	0	840
-3.282	-9.052	16383	19509	0	840
-4.652	-5.193	16383	20290	0	840
-4.760	-1.659	16383	21071	0	840
-1.875	1.479	16384	21696	0	840
-1.587	2.164	16384	22009	0	840
-3.354	0.180	16384	22009	0	840
-6.563	-3.318	16384	21696	0	840
-7.537	-6.022	16384	21384	0	840
-6.383	-6.599	16384	21071	0	840
-6.527	-7.537	16384	20602	0	840
-8.078	-9.989	16384	20290	1	348
-9.953	-10.314	16384	19977	0	348
-11.107	-9.773	16384	19665	0	348
-6.022	-4.796	16384	19352	0	348
0.613	-2.164	16384	18727	0	348
6.022	-0.505	16384	17946	0	348
7.465	-4.111	16384	17321	0	348
1.947	-8.294	16384	16696	0	348
-0.036	-10.855	16384	16384	0	348
-4.327	-11.973	16384	16384	0	348
-4.111	-12.045	16384	16384	0	348
-0.974	-11.143	16384	16228	0	348
-0.036	-8.294	16384	15916	0	348
-0.288	-6.167	16384	15603	0	348
-3.823	-4.075	16384	15291	0	348
-12.297	-6.275	16384	14978	0	348
-21.421	-12.514	16384	14978	0	348
-32.312	-17.995	16384	15134	0	348
-33.141	-21.673	16384	15291	0	348
-26.866	-21.818	16384	15759	0	348
-14.677	-16.300	16384	16228	0	348
-4.075	-13.379	16384	16696	0	348
-0.433	-9.304	16384	16852	0	348
-3.678	-10.133	16384	17009	0	348
-11.179	-14.821	16384	17321	0	348
-17.923	-18.211	16384	17634	0	348
-20.627	-19.149	16384	17790	0	348
-20.880	-18.860	16384	17634	0	348
-17.057	-16.084	16384	17634	0	348
-13.992	-13.199	16384	17321	0	348
-10.710	-11.360	16384	17321	0	348
-8.799	-11.468	16384	17165	0	348
-8.150	-12.550	16384	16696	0	348
-5.698	-13.343	16384	16384	0	348
-0.397	-16.697	16384	15916	0	348
3.750	-17.238	16384	15291	0	348
4.219	-21.601	16384	14822	0	348
-1.298	-25.893	16384	14353	0	348
-8.439	-30.725	16384	14197	0	348
-11.756	-32.961	16384	14197	0	348
-11.107	-29.751	16384	14509	0	348
-9.665	-27.119	16384	14822	0	348
-11.648	-29.066	16384	14978	0	348
-18.247	-32.636	16384	15134	0	348
-26.902	-38.298	16384	14978	0	348
-29.499	-39.055	16384	14666	0	348
-23.657	-37.216	16384	14353	0	348
-16.012	-31.662	16384	14353	0	348
-11.071	-24.053	16384	14509	0	348
-6.311	-20.231	16384	15134	0	348
-7.825	-19.546	16384	15603	0	348
-7.393	-17.995	16384	16072	0	348
-5.445	-22.431	16384	16228	0	348
-0.829	-22.755	16384	16384	0	348
1.731	-19.798	16384	16228	0	348
4.508	-17.598	16384	15916	0	348
4.724	-16.480	16384	15603	0	348
3.787	-18.860	16384	15916	0	348
4.544	-19.726	16384	16384	0	348
3.210	-22.214	16384	16852	0	348
1.731	-19.618	16384	17009	0	348
-2.056	-20.736	16384	16852	0	348
-6.888	-17.598	16384	16696	0	348
-8.330	-17.923	16384	16384	0	348
-8.114	-14.317	16384	16228	0	348
-4.183	-13.018	16384	16072	0	348
-1.262	-9.592	16384	15759	0	348
0.036	-8.583	16384	15291	0	348
-0.072	-11.937	16384	15291	0	348
-1.983	-13.415	16384	15603	0	348
-2.849	-12.153	16384	16072	0	348
-2.524	-11.504	16384	16384	0	348
-1.046	-6.491	16384	16384	0	348
0.649	-3.678	16384	16228	0	348
1.695	-5.049	16384	15916	0	348
1.623	-6.131	16384	15759	0	348
1.767	-8.330	16384	15759	0	348
5.554	-6.599	16384	16228	0	348
9.268	-4.977	16384	16852	0	348
12.694	-6.167	16384	17477	0	348
9.412	-7.212	16384	18259	0	348
4.219	-9.268	16384	18884	0	348
-1.479	-7.717	16384	19196	0	348
-4.039	-4.544	16384	19352	0	348
-2.092	-0.685	16384	19352	0	348
3.642	0.288	16384	19509	0	348
7.212	-1.226	16384	19665	0	348
11.107	-3.065	16384	19665	0	348
10.674	-3.210	16384	19509	0	348
8.078	-2.885	16384	19040	0	348
7.393	-1.587	16384	18884	0	348
6.996	-2.777	16384	18571	0	348
12.225	-0.902	16384	18259	0	348
13.559	1.731	16384	17790	0	348
13.199	3.462	16384	17477	0	348
8.511	5.734	16384	17165	0	348
0.757	5.517	16384	16696	0	348
-0.072	4.760	16384	16072	0	348
2.200	5.878	16384	15291	0	348
8.583	8.366	16384	14666	0	348
12.045	11.468	16384	13884	0	348
14.713	16.552	16384	13259	0	348
11.360	17.382	16384	12947	0	348
11.360	19.870	16384	12947	0	348
14.425	19.329	16384	13259	0	348
17.274	21.313	16384	13728	0	348
20.267	24.558	16384	13884	0	348
17.598	27.119	16384	14197	0	348
17.382	28.958	16384	14353	0	348
17.923	27.263	16384	14509	0	348
22.755	26.866	16384	14822	0	348
25.604	24.991	16384	15134	0	348
23.549	25.279	16384	15134	0	348
17.779	23.765	16384	15291	0	348
9.196	17.779	16384	15447	0	348
6.203	13.992	16384	16072	0	348
6.203	10.169	16384	16384	0	348
9.232	9.665	16384	16540	0	348
9.304	7.537	16384	16852	0	348
8.402	5.193	16384	17321	0	348
3.534	1.839	16384	17634	0	348
1.082	0.252	16384	17946	0	348
2.272	2.380	16384	18102	0	348
7.789	5.554	16384	18259	0	348
9.989	3.354	16384	18415	0	348
8.511	-0.613	16384	18415	0	348
2.236	-6.996	16384	18259	0	348
-3.750	-12.333	16384	17946	0	348
-3.714	-9.917	16384	17946	0	348
-0.685	-6.311	16384	17790	0	348
3.426	-3.065	16384	17634	0	348
5.517	-3.354	16384	17477	0	348
2.669	-4.472	16384	17165	0	348
0.108	-8.330	16384	16852	0	348
-0.902	-11.648	16384	16384	0	348
0.865	-13.740	16384	15447	0	348
1.515	-16.192	16384	14666	0	348
2.308	-15.867	16384	13728	0	348
-0.902	-16.300	16384	12947	0	348
-6.275	-14.533	16384	12322	0	348
-11.900	-18.788	16384	12166	0	348
-13.271	-20.916	16384	12634	0	348
-11.504	-26.001	16384	12947	0	348
-8.547	-24.775	16384	13259	0	348
-8.583	-22.178	16384	13728	0	348
-9.484	-20.916	16384	14197	0	348
-10.602	-19.654	16384	14353	0	348
-9.268	-21.601	16384	14353	0	348
-6.527	-24.450	16384	14197	0	348
-5.265	-23.116	16384	14197	0	348
-7.970	-25.099	16384	14353	0	348
-15.687	-28.922	16384	14666	0	348
-23.621	-31.230	16384	15447	0	348
-28.128	-34.511	16384	16384	0	348
-23.873	-32.276	16384	17009	0	348
-15.182	-25.279	16384	17790	0	348
-2.452	-18.860	16384	18727	0	348
5.626	-14.641	16384	19665	0	348
6.852	-17.959	16384	20134	0	348
2.236	-20.952	16384	20134	0	348
-3.642	-23.693	16384	20134	0	348
-7.429	-24.702	16384	20134	0	348
-9.232	-21.781	16384	20290	0	348
-8.583	-19.077	16384	20446	0	348
-7.321	-14.281	16384	20134	0	348
-4.868	-11.323	16384	19509	0	348
-3.750	-9.665	16384	19040	0	348
-4.400	-8.655	16384	18884	0	348
-5.121	-13.668	16384	19040	1	672
-5.698	-16.372	16384	19352	0	672
-7.285	-18.824	16384	19509	0	672
-10.674	-18.103	16384	19352	0	672
-13.271	-18.320	16384	19040	0	672
-17.851	-16.697	16384	18571	0	672
-18.247	-18.464	16384	18102	0	672
-15.218	-16.769	16384	17477	0	672
-9.016	-17.598	16384	17009	0	672
-2.236	-15.759	16384	16540	0	672
-0.649	-17.995	16384	16384	0	672
-1.262	-20.195	16384	16384	0	672
-5.193	-24.558	16384	16228	0	672
-10.710	-26.037	16384	16072	0	672
-13.054	-26.001	16384	15759	0	672
-10.314	-25.027	16384	15447	0	672
-9.701	-24.017	16384	15291	0	672
-6.491	-21.673	16384	15134	0	672
-5.842	-21.493	16384	14978	0	672
-3.354	-17.310	16384	14509	0	672
-2.957	-16.444	16384	14041	0	672
-2.560	-15.290	16384	13728	0	672
-5.517	-16.769	16384	13572	0	672
-8.799	-17.670	16384	13259	0	672
-9.917	-18.752	16384	13259	0	672
-5.878	-18.103	16384	13416	0	672
-3.065	-20.159	16384	13572	0	672
-0.757	-20.555	16384	13884	0	672
-1.587	-22.178	16384	14041	0	672
-2.380	-22.972	16384	14197	0	672
-1.010	-19.834	16384	14666	0	672
-0.433	-18.320	16384	15134	0	672
-2.128	-16.589	16384	15603	0	672
-6.239	-20.411	16384	15603	0	672
-13.018	-22.431	16384	15447	0	672
-11.396	-23.873	16384	15134	0	672
-5.013	-19.942	16384	14822	0	672
5.517	-11.215	16384	14666	0	672
13.127	-4.868	16384	14509	0	672
14.966	-1.839	16384	14509	0	672
14.641	-2.272	16384	14353	0	672
12.081	-3.642	16384	14197	0	672
8.294	-2.452	16384	14197	0	672
7.393	-1.442	16384	14197	0	672
2.308	-0.180	16384	14509	0	672
-2.128	-0.902	16384	14822	0	672
-4.580	-0.829	16384	15291	0	672
-5.409	-0.397	16384	15603	0	672
-2.705	1.479	16384	15759	0	672
0.721	5.085	16384	15759	0	672
2.705	6.708	16384	15916	0	672
3.462	5.301	16384	16228	0	672
-3.534	2.416	16384	16384	0	672
-11.828	-4.436	16384	16540	0	672
-16.949	-12.297	16384	16696	0	672
-16.480	-11.540	16384	16540	0	672
-8.222	-2.560	16383	16540	0	672
4.255	10.278	16383	16696	0	672
10.458	19.041	16384	17165	0	672
10.927	17.779	16384	17790	0	672
5.842	4.183	16384	18415	0	672
-1.479	-9.953	16384	18571	0	672
-7.032	-15.831	16384	18415	0	672
-7.862	-13.091	16384	18102	0	672
-8.835	-4.940	16384	18102	0	672
-8.186	0.288	16384	18259	0	672
-6.599	0.649	16384	18727	0	672
-5.193	-2.957	16384	19509	0	672
-6.203	-9.088	16384	20134	0	672
-8.907	-12.514	16384	20446	0	672
-12.081	-15.254	16384	20290	0	672
-12.441	-13.920	16384	20446	0	672
-12.405	-14.894	16384	20602	0	672
-10.963	-17.598	16384	20602	0	672
-9.773	-25.532	16384	19977	0	672
-11.864	-31.518	16384	19509	0	672
-13.812	-36.062	16384	19196	0	672
-13.271	-36.026	16384	18727	0	672
-19.618	-35.701	16384	18415	0	672
-24.739	-38.334	16384	17790	1	316
-29.210	-40.426	16384	17009	0	316
-31.843	-42.806	16384	16228	0	316
-28.850	-39.668	16384	15291	0	316
-23.981	-34.980	16384	14197	0	316
-18.139	-33.033	16384	13728	0	316
-14.713	-33.213	16384	13884	0	316
-9.953	-33.682	16384	14353	0	316
-5.481	-30.869	16384	14822	0	316
-1.010	-26.722	16384	15134	0	316
0.829	-19.762	16384	15603	0	316
3.678	-18.572	16384	16072	0	316
2.416	-18.392	16384	16384	0	316
-0.541	-21.168	16384	16540	0	316
-4.472	-23.404	16384	16852	0	316
-8.294	-21.565	16384	17321	0	316
-10.566	-21.024	16384	17634	0	316
-8.078	-18.283	16384	17946	0	316
-3.606	-19.546	16384	18259	0	316
-0.361	-18.500	16384	18259	0	316
1.623	-20.664	16384	18415	0	316
0.397	-22.322	16384	18727	0	316
-4.003	-22.719	16385	18884	0	316
-8.979	-24.558	16385	18571	0	316
-17.562	-30.184	16385	17946	0	316
-23.837	-33.574	16385	17321	0	316
-26.902	-36.567	16385	16852	0	316
-24.775	-36.495	16385	16384	0	316
-17.815	-30.653	16385	16072	0	316
-13.199	-23.765	16384	15447	0	316
-10.963	-21.673	16384	14978	0	316
-12.153	-24.306	16384	14353	0	316
-13.884	-24.811	16384	13728	0	316
-10.278	-25.279	16384	13103	0	316
-7.176	-20.267	16384	12791	0	316
-2.741	-11.973	16384	12634	0	316
0.180	-8.439	16384	12634	0	316
1.947	-8.186	16384	12478	0	316
4.688	-11.540	16384	12009	0	316
6.347	-13.776	16384	12009	0	316
8.511	-15.543	16384	12322	0	316
6.491	-12.081	16384	12478	0	316
3.029	-9.845	16384	12322	0	316
0.469	-6.311	16384	12166	0	316
0.757	-3.931	16384	12009	0	316
1.479	-5.373	16384	12009	0	316
3.318	-7.898	16384	12166	0	316
2.993	-8.799	16384	12634	0	316
0.757	-12.153	16384	13416	0	316
-2.019	-11.576	16384	14353	0	316
-5.409	-9.196	16384	15447	0	316
-7.357	-7.645	16384	16540	0	316
-6.960	-6.383	16384	17477	0	316
-5.770	-4.472	16384	18102	0	316
-2.164	-4.327	16384	18415	0	316
1.983	-4.724	16384	18415	0	316
6.383	-4.796	16384	18259	0	316
9.304	-7.429	16384	18415	0	316
12.117	-8.330	16384	18884	0	316
12.153	-10.422	16384	19196	0	316
11.287	-8.943	16384	19352	0	316
8.294	-10.458	16384	19352	0	316
6.816	-10.314	16384	18884	0	316
6.888	-9.232	16384	18415	0	316
7.898	-5.698	16384	17790	0	316
7.898	-3.642	16384	17165	0	316
7.285	0.036	16384	16540	0	316
8.258	-0.144	16384	16384	0	316
10.458	1.010	16384	16228	0	316
14.605	1.803	16384	16072	0	316
15.146	4.039	16384	15916	0	316
16.480	3.787	16384	15603	0	316
13.127	3.282	16384	15447	0	316
13.920	4.111	16384	15603	0	316
15.146	7.212	16384	15759	0	316
14.749	11.684	16384	16072	0	316
13.199	10.783	16384	16384	0	316
8.547	10.674	16384	16852	0	316
7.429	10.097	16384	17477	0	316
12.369	9.989	16384	18102	0	316
18.031	15.362	16384	18571	0	316
24.558	17.490	16384	18727	0	316
23.801	20.591	16384	18884	0	316
20.375	17.202	16384	19040	0	316
14.930	16.192	16384	19352	0	316
15.110	14.569	16384	19509	0	316
17.706	16.913	16384	19352	0	316
22.539	17.995	16384	18727	0	316
19.113	18.608	16384	17946	0	316
14.136	15.218	16384	17477	0	316
7.537	8.763	16384	17321	0	316
4.688	6.996	16384	17165	0	316
11.973	7.393	16384	16696	0	316
17.995	10.638	16384	16072	0	316
23.945	11.504	16384	15447	0	316
21.962	11.323	16384	14978	0	316
16.877	6.816	16384	14666	0	316
7.429	2.019	16384	14666	0	316
2.092	-0.721	16384	14822	0	316
-1.262	-4.327	16384	15134	0	316
-1.623	-6.383	16384	15447	0	316
-1.154	-6.708	16384	15603	0	316
-3.678	-6.347	16384	16072	0	316
-7.753	-5.193	16384	16384	0	316
-13.920	-8.294	16384	17165	0	316
-15.146	-12.730	16384	17634	0	316
-15.939	-18.356	16384	17946	0	316
-13.054	-26.325	16384	18102	0	316
-14.281	-31.266	16384	18259	0	316
-18.103	-31.518	16384	18102	0	316
-21.168	-31.122	16384	18102	0	316
-20.736	-26.253	16384	18102	0	316
-14.966	-20.664	16384	18415	0	316
-5.481	-17.959	16384	18884	0	316
0.505	-17.743	16384	18727	0	316
1.046	-25.424	16384	18259	0	316
-4.904	-30.508	16384	17477	0	316
-8.366	-34.115	16384	16384	0	316
-8.475	-32.780	16384	15447	0	316
-2.416	-25.496	16384	14353	0	316
2.741	-20.447	16384	13572	0	316
1.875	-18.356	16384	13103	0	316
-5.337	-22.647	16384	13103	0	316
-15.615	-31.915	16384	13259	0	316
-21.709	-36.928	16384	13416	0	316
-25.496	-44.356	16384	13572	0	316
-28.922	-46.736	16384	13572	0	316
-31.915	-48.323	16384	13572	0	316
-37.396	-53.516	16384	13728	0	316
-38.550	-55.319	16384	13884	0	316
-36.819	-56.653	16384	13884	0	316
-31.085	-53.624	16384	14041	0	316
-27.299	-49.874	16384	14197	0	316
-26.253	-46.881	16384	14509	0	316
-26.866	-45.402	16384	15291	0	316
-30.545	-49.405	16384	16384	0	316
-30.220	-50.559	16384	17009	0	316
-26.866	-52.723	16384	17634	0	316
-19.401	-50.018	16384	18102	0	316
-12.874	-45.655	16384	18415	0	316
-8.006	-40.714	16384	18415	0	316
-6.527	-38.731	16384	18415	0	316
-7.104	-37.072	16384	18415	0	316
-7.248	-38.514	16384	18102	0	316
-6.852	-35.990	16384	17946	0	316
-6.635	-33.105	16384	17634	0	316
-7.898	-29.859	16384	17009	0	316
-8.078	-27.732	16384	15916	0	316
-6.311	-28.092	16384	14666	0	316
-4.291	-26.722	16384	13259	0	316
-1.551	-25.568	16384	12322	0	316
-1.839	-24.486	16384	12166	0	316
-2.705	-24.198	16384	12166	0	316
-4.508	-23.981	16384	12322	0	316
-3.101	-25.279	16384	12634	0	316
-3.823	-25.424	16383	13259	0	316
-2.705	-21.565	16384	14197	0	316
-5.986	-19.654	16384	15291	0	316
-10.710	-19.329	16384	16228	0	316
-13.379	-17.490	16384	16540	0	316
-15.110	-20.664	16384	16696	0	316
-14.281	-20.159	16384	16852	0	316
-10.133	-21.926	16384	16696	0	316
-7.789	-22.178	16383	16384	0	316
-6.708	-23.729	16383	15916	0	316
-6.203	-27.551	16383	15603	0	316
-7.970	-27.551	16383	15603	0	316
-11.323	-24.991	16383	15759	0	316
-10.097	-22.142	16383	16072	0	316
-9.809	-21.781	16383	16384	0	316
-9.701	-22.539	16383	16384	0	316
-7.825	-24.775	16383	16852	0	316
-5.914	-25.532	16384	17634	0	316
-1.551	-19.221	16384	18727	0	316
0.974	-16.697	16384	19665	0	316
-1.767	-14.894	16384	20290	0	316
-7.032	-19.401	16384	20602	0	316
-16.012	-21.745	16384	21071	0	316
-22.575	-22.863	16384	21696	0	316
-21.385	-22.286	16384	22477	0	316
-16.769	-17.382	16384	22946	0	316
-14.569	-16.733	16384	23102	0	316
-13.704	-17.274	16384	23102	0	316
-13.199	-20.555	16384	23102	0	316
-15.903	-20.123	16385	22946	0	316
-15.326	-21.962	16385	22477	0	316
-14.425	-18.500	16384	21852	0	316
-11.900	-16.156	16385	21227	0	316
-7.681	-11.612	16385	20602	1	752
-7.501	-11.251	16385	19977	0	752
-4.364	-9.556	16385	19352	0	752
-5.445	-9.773	16385	18571	0	752
-5.770	-9.917	16385	17634	0	752
-6.022	-10.783	16385	16540	0	752
-5.770	-10.710	16385	15759	0	752
-3.606	-9.160	16385	15291	0	752
-2.885	-8.258	16385	15134	0	752
0.469	-5.409	16385	15291	0	752
4.868	-0.216	16385	15603	0	752
11.251	4.544	16385	15759	0	752
17.923	7.825	16385	15759	0	752
20.447	7.717	16385	15447	0	752
19.041	5.554	16385	14822	0	752
13.523	2.524	16385	14353	0	752
4.580	0.902	16385	14197	0	752
-1.551	2.056	16385	14353	0	752
-1.262	4.255	16385	14353	0	752
-0.072	7.321	16385	14197	0	752
3.642	7.717	16385	14041	0	752
4.977	9.592	16385	14041	0	752
4.472	7.465	16385	13728	0	752
-1.334	1.298	16385	13259	0	752
-6.888	-4.977	16384	12791	0	752
-12.622	-9.556	16384	12478	0	752
-11.864	-13.271	16384	12322	0	752
-10.061	-9.160	16384	12322	0	752
-3.750	-5.626	16384	12166	0	752
2.056	-0.577	16384	12009	0	752
1.731	1.983	16384	12166	0	752
-0.288	1.442	16384	12478	0	752
-3.029	1.659	16384	13103	0	752
-0.865	0.000	16384	13884	0	752
1.839	-0.216	16384	14822	0	752
5.337	-0.974	16384	15603	0	752
8.619	-0.793	16384	16384	0	752
9.088	-0.325	16384	17165	0	752
12.441	2.380	16385	17790	0	752
14.028	5.950	16385	18415	0	752
11.937	8.078	16385	18727	0	752
8.258	6.744	16384	19040	0	752
-0.216	6.311	16385	19196	0	752
-5.770	2.164	16385	19040	0	752
-8.763	-3.390	16385	18727	0	752
-11.612	-10.061	16385	18415	0	752
-17.202	-16.913	16385	18102	0	752
-21.096	-20.411	16385	17634	0	752
-23.260	-21.781	16385	17165	0	752
-19.798	-18.247	16385	17009	0	752
-13.451	-19.005	16385	17165	0	752
-6.924	-16.552	16385	17009	0	752
-6.239	-18.175	16385	16852	0	752
-9.629	-18.897	16385	16384	0	752
-13.054	-20.483	16385	15916	0	752
-16.841	-23.837	16385	15603	0	752
-13.631	-24.883	16385	15603	0	752
-9.016	-23.729	16384	15447	0	752
-6.239	-20.988	16385	15291	0	752
-3.426	-15.795	16384	14978	0	752
-1.479	-13.812	16384	14509	0	752
-0.685	-11.576	16384	14197	0	752
-1.010	-9.953	16384	13884	0	752
-1.334	-12.441	16384	13884	0	752
-2.092	-13.523	16384	13572	0	752
-2.092	-12.838	16384	13416	0	752
-1.659	-14.208	16384	13103	0	752
-1.406	-12.658	16384	13103	0	752
-3.534	-16.372	16384	12947	0	752
-6.744	-19.365	16384	12634	0	752
-9.340	-24.702	16384	12791	0	752
-10.025	-23.801	16384	13103	0	752
-11.071	-21.168	16384	13572	0	752
-12.514	-18.788	16384	13728	0	752
-12.802	-15.507	16384	14041	0	752
-9.989	-17.129	16384	14197	0	752
-5.950	-17.562	16384	14509	0	752
-2.957	-18.428	16384	14978	0	752
-1.623	-21.024	16384	15291	0	752
-3.606	-24.198	16384	15603	0	752
-6.599	-23.440	16384	15916	0	752
-7.321	-21.529	16384	16072	0	752
-5.301	-18.247	16384	16384	0	752
-1.911	-12.441	16384	16540	0	752
4.544	-7.789	16384	17009	0	752
10.927	-7.104	16384	17477	0	752
14.317	-5.445	16384	17790	0	752
16.949	-4.724	16384	17946	0	752
13.704	-6.888	16384	18259	0	752
8.943	-8.439	16384	18415	0	752
4.255	-11.828	16384	18415	0	752
-0.288	-13.595	16384	18259	0	752
-3.895	-13.235	16384	17946	0	752
-4.652	-12.261	16384	17634	0	752
-5.193	-9.556	16384	17165	0	752
-2.777	-9.016	16384	16696	0	752
-0.397	-9.809	16384	16540	0	752
1.911	-13.199	16384	16696	0	752
3.210	-11.864	16383	16852	0	752
1.623	-10.530	16383	17009	0	752
-2.092	-12.333	16384	17321	0	752
-7.753	-12.045	16384	17634	0	752
-12.081	-15.759	16384	18259	0	752
-11.323	-17.129	16384	18884	0	752
-9.484	-14.605	16384	19196	0	752
-4.003	-12.658	16384	19196	0	752
-0.216	-9.412	16384	19196	0	752
-0.072	-7.789	16384	19196	0	752
-0.793	-10.999	16384	19196	0	752
-1.839	-13.018	16384	19040	0	752
-2.380	-13.740	16384	18415	0	752
-0.721	-15.507	16384	17477	0	752
0.541	-12.117	16384	16384	0	752
1.479	-10.783	16384	15447	0	752
1.659	-9.160	16384	14978	0	752
0.036	-9.088	16384	14978	0	752
-0.216	-6.419	16384	15134	0	752
1.839	-3.606	16384	15291	0	752
5.878	1.370	16384	15291	0	752
10.314	8.294	16384	15447	0	752
14.425	12.622	16384	15759	0	752
16.336	14.713	16384	16384	0	752
13.523	15.795	16384	16852	0	752
12.297	11.468	16384	17321	0	752
7.285	7.717	16384	17790	0	752
7.104	9.629	16384	18102	0	752
8.547	12.946	16384	18415	0	752
9.592	16.552	16384	18727	0	752
8.763	18.500	16384	18884	0	752
6.275	16.192	16384	19040	0	752
2.885	15.579	16384	19196	0	752
5.301	13.956	16384	19040	0	752
8.439	16.444	16384	19040	0	752
10.855	15.831	16384	19196	0	752
10.061	12.225	16384	19352	0	752
6.419	9.629	16384	19509	0	752
3.714	7.104	16384	19509	0	752
3.137	5.950	16385	19352	0	752
3.282	6.816	16385	18884	0	752
2.885	9.520	16385	17790	0	752
1.695	8.835	16384	16852	0	752
1.767	9.052	16384	16384	0	752
2.633	7.753	16384	15759	0	752
1.767	4.544	16384	15291	0	752
-1.623	2.380	16384	14822	0	752
-4.039	-0.216	16384	14509	0	752
-4.796	-2.524	16384	14197	0	752
-3.246	-2.705	16384	13884	0	752
1.262	-3.282	16384	13416	0	752
4.183	0.757	16384	13259	0	752
9.809	4.147	16384	13259	0	752
13.595	8.222	16384	13416	0	752
19.437	7.862	16384	13416	0	752
22.791	7.104	16384	13572	0	752
24.702	5.445	16384	13884	0	752
27.227	3.859	16384	14353	0	752
29.643	8.727	16384	14666	0	752
32.744	13.668	16384	15134	0	752
36.098	17.274	16384	15447	0	752
36.964	21.926	16384	15603	0	752
34.620	21.313	16384	15603	0	752
32.095	20.916	16384	15291	0	752
25.965	20.447	16384	14822	0	752
18.969	15.903	16384	14041	0	752
9.520	13.343	16384	13416	0	752
6.491	8.547	16384	13103	0	752
4.977	9.232	16384	13103	0	752
7.934	9.556	16384	13259	0	752
13.054	13.054	16384	13259	0	752
16.048	12.910	16384	13103	0	752
12.550	9.665	16384	12791	0	752
5.734	5.914	16384	12634	0	752
0.397	1.190	16383	12478	0	752
-4.003	-0.252	16383	12791	0	752
-4.436	1.010	16383	13259	0	752
-0.288	4.003	16383	13728	0	752
4.039	6.094	16383	14197	0	752
7.970	6.996	16383	14353	0	752
11.756	5.662	16383	14666	0	752
13.992	6.924	16383	14978	0	752
13.451	7.681	16383	15603	0	752
17.743	11.612	16383	16228	0	752
18.824	15.146	16383	16696	0	752
23.621	18.392	16383	17321	0	752
27.047	16.877	16383	17634	0	752
25.784	17.598	16383	17790	0	752
23.368	15.687	16383	18259	0	752
24.125	17.093	16383	18571	0	752
21.745	16.408	16383	19040	0	752
20.411	18.392	16384	19665	0	752
17.382	14.136	16384	20602	0	752
11.396	8.979	16384	21696	0	752
4.580	1.190	16384	22790	0	752
0.000	-6.131	16384	23259	0	752
-5.049	-9.629	16384	23415	0	752
-7.789	-11.432	16384	23259	0	752
-7.321	-8.042	16384	22790	0	752
-3.570	-4.940	16384	22165	0	752
-0.938	-6.203	16384	21540	0	752
-1.370	-13.848	16384	20759	1	796
-5.878	-24.486	16384	19665	0	796
-15.398	-38.009	16384	18571	0	796
-22.178	-47.602	16384	17477	0	796
-26.506	-51.857	16384	16540	0	796
-26.758	-54.886	16384	15603	0	796
-23.729	-52.939	16384	14509	0	796
-22.539	-51.028	16384	13572	0	796
-19.690	-45.546	16384	13103	0	796
-19.510	-43.779	16384	12947	0	796
-19.546	-43.491	16384	12947	0	796
-18.680	-44.753	16384	12947	0	796
-18.716	-45.150	16384	12947	0	796
-17.346	-46.304	16384	12947	0	796
-20.231	-43.924	16384	13416	0	796
-21.060	-44.068	16384	14197	0	796
-23.981	-44.789	16384	14978	0	796
-22.611	-46.628	16384	15916	0	796
-19.726	-47.025	16384	16540	0	796
-17.670	-43.924	16384	17321	0	796
-16.516	-42.878	16384	17790	0	796
-19.798	-39.993	16384	18415	0	796
-20.736	-40.426	16384	19040	0	796
-22.539	-43.419	16384	19509	0	796
-19.942	-44.284	16384	19977	0	796
-16.661	-41.399	16384	20134	0	796
-11.684	-35.990	16384	20290	0	796
-9.088	-30.977	16384	20290	0	796
-8.511	-30.653	16384	19977	0	796
-9.124	-32.023	16384	19821	0	796
-13.523	-34.331	16384	19821	0	796
-15.182	-32.636	16384	19509	0	796
-10.314	-26.325	16384	19040	0	796
-3.426	-20.591	16385	19040	0	796
3.967	-13.018	16385	19509	0	796
10.206	-13.018	16385	19665	0	796
13.992	-12.369	16385	19509	0	796
10.530	-12.405	16385	19040	0	796
10.855	-13.956	16385	18571	0	796
9.340	-10.025	16385	17946	0	796
6.131	-10.927	16385	17321	0	796
3.354	-10.602	16385	16696	0	796
-1.154	-12.802	16385	16072	0	796
-6.131	-16.012	16385	15603	0	796
-9.917	-16.552	16385	15134	0	796
-9.484	-14.425	16385	14822	0	796
-10.783	-13.054	16385	14509	0	796
-10.999	-10.530	16385	14197	0	796
-9.016	-8.475	16385	14041	0	796
-8.078	-9.340	16385	13728	0	796
-6.635	-9.737	16384	13103	0	796
-6.094	-9.088	16384	12322	0	796
-5.950	-10.855	16384	12009	0	796
-3.606	-7.465	16384	11697	0	796
2.813	-3.354	16384	11072	0	796
13.812	1.082	16384	10134	0	796
20.411	5.229	16384	9353	0	796
22.899	5.193	16384	8884	0	796
22.250	5.301	16384	8572	0	796
18.320	3.246	16384	8259	0	796
17.670	5.986	16384	8259	0	796
14.713	7.393	16384	9041	0	796
11.360	7.573	16384	10291	0	796
8.475	9.665	16384	11697	0	796
5.734	9.412	16384	12791	0	796
4.760	9.737	16384	13728	0	796
2.921	7.176	16384	14509	0	796
-0.216	2.344	16384	15291	0	796
-2.921	-3.750	16384	16228	0	796
-6.708	-5.590	16384	16852	0	796
-6.780	-3.570	16384	17946	0	796
-4.147	2.705	16384	18884	0	796
2.560	6.383	16384	19821	0	796
8.439	7.032	16384	20446	0	796
12.838	3.534	16384	20759	0	796
12.946	0.144	16384	20602	0	796
7.970	-3.390	16384	20446	0	796
4.724	-3.101	16384	19977	0	796
4.111	1.190	16384	19665	0	796
6.347	7.789	16384	19665	0	796
12.694	18.500	16384	19665	0	796
16.012	25.676	16384	19977	0	796
22.395	28.237	16384	20134	0	796
23.080	27.407	16384	19821	0	796
23.657	19.762	16384	19352	0	796
16.444	14.317	16384	18884	0	796
11.215	8.763	16384	18571	0	796
3.390	4.760	16384	18259	0	796
-0.974	2.813	16384	18259	0	796
-1.442	2.560	16384	18415	0	796
-2.344	2.777	16384	18415	0	796
-6.744	2.092	16384	18259	0	796
-11.792	-1.731	16384	17946	0	796
-22.431	-8.979	16384	17321	0	796
-25.929	-20.087	16384	16384	0	796
-27.624	-27.804	16384	15759	0	796
-25.279	-33.898	16384	15291	0	796
-23.873	-37.468	16384	14978	0	796
-27.191	-38.118	16384	14509	0	796
-33.970	-40.426	16384	14197	0	796
-37.721	-42.806	16384	13884	0	796
-40.101	-49.044	16384	13572	0	796
-38.514	-54.201	16384	13416	0	796
-39.560	-59.683	16384	13259	0	796
-43.419	-64.948	16384	13416	0	796
-48.576	-66.102	16384	13416	0	796
-49.080	-63.505	16384	13416	0	796
-42.878	-58.961	16384	13572	0	796
-33.790	-52.867	16384	13416	0	796
-21.277	-48.071	16384	13416	0	796
-16.589	-45.366	16384	13416	0	796
-16.336	-42.878	16383	13728	0	796
-21.457	-44.789	16383	14197	0	796
-26.614	-43.491	16383	14822	0	796
-27.191	-43.166	16384	15759	0	796
-22.899	-40.353	16384	16384	0	796
-18.572	-36.711	16384	17321	0	796
-12.441	-32.672	16384	18259	0	796
-13.343	-32.131	16384	19040	0	796
-14.713	-32.925	16384	19665	0	796
-16.156	-36.278	16384	19977	0	796
-18.175	-38.695	16384	20134	0	796
-17.129	-38.334	16384	20134	0	796
-19.582	-36.783	16384	20134	0	796
-19.365	-38.009	16384	20134	0	796
-21.565	-37.865	16384	20446	0	796
-23.657	-37.973	16384	20602	0	796
-22.142	-39.344	16384	20446	0	796
-20.808	-37.360	16384	20290	0	796
-13.235	-33.321	16384	20290	0	796
-7.285	-29.823	16384	20602	0	796
-4.544	-26.830	16384	21071	0	796
-5.445	-23.368	16385	21384	0	796
-7.393	-21.421	16385	21227	0	796
-7.068	-19.906	16385	21071	0	796
-3.029	-17.454	16385	20602	0	796
-0.108	-16.589	16385	19665	0	796
-1.587	-16.192	16385	18727	0	796
-8.330	-20.519	16385	17634	0	796
-15.326	-22.791	16385	16540	0	796
-19.690	-24.919	16384	15447	0	796
-15.975	-24.450	16384	14353	0	796
-11.973	-19.942	16384	13259	0	796
-7.609	-19.185	16384	12009	0	796
-5.301	-19.365	16384	10759	0	796
-6.347	-21.745	16384	9666	0	796
-8.006	-24.594	16384	8884	0	796
-8.330	-24.053	16384	8884	0	796
-7.212	-21.241	16384	9197	0	796
-3.101	-16.733	16384	9353	0	796
0.938	-14.569	16384	9666	0	796
2.092	-13.631	16384	10291	0	796
1.479	-17.129	16384	11228	0	796
-2.200	-16.913	16384	12478	0	796
-5.842	-17.490	16384	13572	0	796
-5.445	-12.838	16384	14353	0	796
-3.895	-10.458	16384	14978	0	796
-1.154	-5.806	16384	15759	0	796
1.767	-3.462	16384	16384	0	796
4.652	-1.875	16384	17165	0	796
10.350	1.370	16384	17790	0	796
13.235	2.200	16384	18571	0	796
17.274	2.019	16384	19352	0	796
17.310	-1.370	16384	19977	0	796
14.461	-3.210	16384	20602	0	796
13.487	-4.977	16384	21071	0	796
9.556	-2.813	16384	21227	0	796
3.426	0.397	16384	21071	0	796
0.433	0.974	16384	20759	0	796
-3.318	-2.056	16384	20446	0	796
-4.364	-5.337	16384	19977	0	796
-2.705	-9.268	16384	19665	1	684
0.108	-6.239	16384	19196	0	684
0.902	1.226	16384	18727	0	684
-0.072	6.996	16384	18259	0	684
-1.515	9.016	16384	17946	0	684
-1.803	6.239	16384	17477	0	684
-4.832	-2.092	16384	16852	0	684
-8.511	-9.124	16384	16384	0	684
-11.107	-13.199	16384	15759	0	684
-14.497	-9.412	16384	15291	0	684
-11.973	-1.947	16384	14822	0	684
-5.914	3.246	16384	14822	0	684
-0.721	0.541	16384	14822	0	684
-2.524	-10.350	16384	14822	0	684
-11.684	-26.217	16384	14822	0	684
-23.224	-33.898	16384	14509	0	684
-30.004	-34.079	16384	14197	0	684
-28.237	-28.633	16384	13728	0	684
-23.512	-26.109	16384	13416	0	684
-21.457	-30.617	16384	13259	0	684
-26.325	-36.351	16384	13103	0	684
-29.715	-41.291	16384	12947	0	684
-33.646	-44.320	16384	13259	0	684
-31.518	-44.681	16384	13728	0	684
-29.535	-47.313	16384	14197	0	684
-29.715	-51.929	16384	14666	0	684
-33.069	-53.119	16384	14978	0	684
-35.124	-53.985	16384	15134	0	684
-32.925	-50.270	16384	15603	0	684
-29.535	-48.612	16384	16384	0	684
-27.047	-46.195	16384	16852	0	684
-25.352	-43.455	16384	16852	0	684
-27.083	-42.373	16384	16540	0	684
-26.361	-39.308	16384	16228	0	684
-23.332	-36.062	16384	15759	0	684
-19.077	-35.269	16384	15447	0	684
-13.271	-34.620	16384	15134	0	684
-13.091	-33.141	16384	14978	0	684
-15.038	-30.761	16384	15134	0	684
-20.988	-28.922	16384	15291	0	684
-23.729	-26.614	16384	15134	0	684
-26.578	-27.696	16384	14978	0	684
-26.614	-31.194	16383	14822	0	684
-23.585	-33.429	16383	14978	0	684
-20.736	-34.151	16384	15134	0	684
-19.942	-33.646	16384	15134	0	684
-18.788	-30.076	16384	15134	0	684
-22.142	-30.400	16384	14978	0	684
-25.929	-29.895	16383	15134	0	684
-28.633	-30.689	16383	15291	0	684
-30.941	-29.102	16383	15447	0	684
-30.941	-26.722	16383	15603	0	684
-27.407	-24.883	16383	16228	0	684
-23.693	-21.493	16383	17009	0	684
-19.293	-21.781	16383	17790	0	684
-18.680	-22.214	16384	18415	0	684
-17.634	-21.060	16384	18884	0	684
-16.372	-18.897	16384	19040	0	684
-9.629	-12.910	16384	19040	0	684
-1.731	-8.583	16384	19196	0	684
1.803	-3.787	16384	19196	0	684
-1.334	-3.678	16384	18884	0	684
-4.832	-5.049	16384	18415	0	684
-7.032	-5.229	16384	18102	0	684
-3.859	-6.383	16384	18102	0	684
-0.144	-6.167	16384	17790	0	684
0.902	-8.114	16384	17477	0	684
-2.596	-9.304	16384	17165	0	684
-6.419	-10.061	16384	17165	0	684
-8.006	-11.251	16384	17165	0	684
-8.330	-12.477	16384	17477	0	684
-9.124	-12.550	16384	17790	0	684
-9.773	-11.937	16384	18102	0	684
-9.268	-8.186	16384	18259	0	684
-7.032	-4.544	16384	17946	0	684
-2.560	-2.993	16384	17165	0	684
2.813	-3.534	16384	16696	0	684
4.724	-7.645	16384	16540	0	684
3.065	-11.179	16384	16696	0	684
0.793	-13.127	16384	16852	0	684
-2.092	-13.776	16384	16852	0	684
-2.596	-8.691	16384	17009	0	684
0.361	-1.479	16384	17009	0	684
4.580	4.904	16384	17009	0	684
8.439	10.855	16384	17009	0	684
11.468	11.360	16384	16852	0	684
10.855	11.071	16384	16384	0	684
10.710	7.825	16384	16072	0	684
9.124	5.121	16384	15759	0	684
8.150	4.400	16384	15603	0	684
9.304	8.006	16384	15759	0	684
11.900	13.271	16384	16072	0	684
12.946	14.858	16384	16228	0	684
12.261	13.559	16384	16072	0	684
7.862	4.760	16384	15916	0	684
-1.370	-4.327	16384	15759	0	684
-10.133	-7.248	16384	15447	0	684
-13.740	-3.137	16384	14978	0	684
-13.704	2.741	16384	14666	0	684
-7.357	9.881	16384	14197	0	684
-0.433	11.900	16384	13884	0	684
5.013	10.891	16383	13728	0	684
8.150	10.350	16383	13728	0	684
6.383	9.953	16383	14197	0	684
5.229	9.376	16383	15134	0	684
2.452	10.783	16383	15916	0	684
2.164	9.196	16384	16384	0	684
3.101	8.150	16384	16696	0	684
5.301	9.232	16384	17009	0	684
6.599	13.812	16384	17009	0	684
5.157	14.894	16384	17165	0	684
-0.505	14.858	16384	17477	0	684
-4.291	15.362	16384	18102	0	684
-6.491	14.172	16384	18415	0	684
-0.288	18.392	16384	18727	0	684
9.917	23.116	16384	18884	0	684
16.625	26.361	16384	18727	0	684
18.788	26.253	16384	18571	0	684
13.271	20.952	16384	18259	0	684
7.645	19.906	16384	18102	0	684
8.222	18.608	16384	18259	0	684
10.999	18.392	16384	18259	0	684
11.792	17.454	16384	18259	0	684
9.304	13.776	16384	18571	0	684
1.010	10.494	16384	19196	0	684
-6.311	13.848	16384	19665	0	684
-8.655	15.867	16384	19821	0	684
-7.537	20.483	16384	19821	0	684
-6.744	17.562	16384	19821	0	684
-9.268	10.674	16384	19509	0	684
-13.668	1.731	16384	18884	0	684
-19.834	-6.455	16384	18102	0	684
-19.906	-10.025	16384	17321	0	684
-18.680	-13.992	16384	16696	0	684
-10.855	-14.461	16384	16228	0	684
-5.770	-10.025	16384	15759	0	684
-2.272	-5.950	16384	15603	0	684
-0.757	-1.947	16384	15447	0	684
-1.298	-4.400	16384	14978	0	684
-1.479	-10.999	16384	14197	0	684
-1.118	-17.346	16384	13416	0	684
-1.875	-20.844	16384	12947	0	684
-4.977	-18.428	16384	13103	0	684
-8.366	-16.913	16384	13572	0	684
-13.091	-18.392	16384	13884	0	684
-16.661	-23.188	16384	13884	0	684
-16.336	-28.056	16384	13728	0	684
-17.851	-29.931	16384	13416	0	684
-19.978	-26.722	16384	13259	0	684
-24.522	-26.325	16384	13259	0	684
-28.922	-28.128	16384	13259	0	684
-28.994	-32.203	16384	13572	0	684
-22.358	-35.160	16384	14041	0	684
-16.408	-34.656	16384	14353	0	684
-11.792	-31.482	16384	14509	0	684
-14.641	-27.696	16384	14509	0	684
-17.995	-30.797	16384	14978	0	684
-24.125	-35.377	16384	15759	0	684
-25.676	-40.029	16384	16384	0	684
-28.128	-41.904	16384	17009	0	684
-30.977	-42.770	16384	18102	0	684
-31.338	-40.462	16384	19040	0	684
-30.436	-39.668	16384	19821	0	684
-28.237	-40.245	16384	20290	0	684
-24.847	-41.832	16384	20602	0	684
-19.582	-40.534	16384	20602	0	684
-14.245	-37.577	16385	20602	0	684
-8.114	-32.636	16385	20446	0	684
-3.823	-27.804	16385	20134	0	684
-4.977	-25.243	16385	19352	0	684
-6.924	-24.594	16385	18415	0	684
-10.169	-23.476	16385	17321	1	684
-8.006	-18.283	16384	16384	0	684
-2.957	-13.307	16384	15447	0	684
3.390	-6.996	16384	14509	0	684
6.924	-4.327	16384	13728	0	684
9.520	-4.796	16384	13259	0	684
10.855	-4.832	16384	13103	0	684
12.802	-8.439	16384	13103	0	684
12.910	-9.268	16384	13103	0	684
12.766	-9.701	16384	13103	0	684
10.783	-7.429	16384	13259	0	684
7.717	-5.229	16384	13416	0	684
8.042	-0.721	16384	13884	0	684
9.268	0.829	16384	14666	0	684
10.025	-1.406	16384	15134	0	684
9.232	-2.488	16384	15447	0	684
7.753	-3.823	16384	16072	0	684
6.383	-3.210	16384	16852	0	684
5.337	-2.344	16384	18259	0	684
4.327	-0.757	16384	19352	0	684
5.085	0.721	16384	19977	0	684
7.753	3.462	16384	20290	0	684
10.963	6.167	16384	20290	0	684
14.966	8.222	16384	20290	0	684
12.982	5.662	16385	20290	0	684
7.573	1.442	16385	20134	0	684
1.082	-2.849	16385	19665	0	684
-0.505	-2.200	16385	19196	0	684
3.714	2.669	16385	18571	0	684
8.871	7.248	16385	18102	0	684
10.314	7.032	16385	18102	0	684
6.888	3.029	16385	18415	0	684
3.714	-2.705	16385	18727	0	684
3.823	-6.022	16385	18884	0	684
5.013	-4.183	16385	18884	0	684
3.282	-0.938	16385	19040	0	684
-1.154	0.938	16385	19040	0	684
-6.924	-0.144	16386	19040	0	684
-9.088	-2.452	16385	18727	0	684
-7.212	-1.911	16385	18259	0	684
2.236	0.505	16385	17634	0	684
7.789	6.058	16385	16852	0	684
13.018	9.376	16385	16228	0	684
15.182	11.468	16385	15603	0	684
16.480	12.117	16385	15134	0	684
21.637	16.408	16385	14509	0	684
28.309	21.637	16385	13884	0	684
34.547	30.364	16385	13416	0	684
41.039	37.649	16385	13103	0	684
40.714	38.622	16385	12634	0	684
38.045	37.613	16385	12166	0	684
37.252	34.908	16384	11697	0	684
35.197	31.518	16384	11541	0	684
30.905	27.551	16384	11541	0	684
24.666	25.207	16384	11384	0	684
15.975	18.175	16384	11228	0	684
9.412	14.858	16384	11384	0	684
3.534	9.881	16384	11541	0	684
0.252	5.373	16384	11697	0	684
-2.344	1.118	16384	11853	0	684
-6.888	-4.544	16384	12009	0	684
-10.025	-10.494	16384	12009	0	684
-13.812	-11.504	16384	12166	0	684
-11.648	-10.422	16384	12166	0	684
-6.203	-4.977	16384	12322	0	684
-0.036	-2.669	16384	12478	0	684
5.157	-1.334	16384	12947	0	684
8.006	-3.787	16384	13416	0	684
4.472	-8.763	16384	13884	0	684
3.318	-11.071	16384	14353	0	684
5.554	-7.681	16384	14822	0	684
11.107	-3.318	16384	15134	0	684
16.480	4.111	16384	15447	0	684
14.894	4.255	16384	15916	0	684
8.511	0.397	16384	16384	0	684
2.705	-4.544	16384	17321	0	684
1.767	-7.212	16384	18259	0	684
6.455	-0.216	16384	19040	0	684
12.225	9.484	16384	19352	0	684
12.405	13.776	16384	19352	0	684
3.678	7.537	16384	19196	0	684
-7.285	-5.950	16384	19040	0	684
-12.297	-17.562	16384	19196	0	684
-15.687	-23.440	16384	19821	0	684
-15.074	-19.546	16384	20290	0	684
-17.310	-17.129	16384	20446	0	684
-18.644	-17.454	16384	20759	0	684
-23.188	-22.935	16384	21384	0	684
-24.306	-30.797	16384	21696	0	684
-26.902	-32.997	16384	21852	0	684
-29.859	-36.351	16384	21540	0	684
-32.059	-36.675	16384	20759	0	684
-31.194	-36.314	16384	19977	0	684
-24.955	-36.206	16384	18727	0	684
-18.644	-34.511	16384	17321	1	376
-11.071	-35.413	16384	16228	0	376
-7.537	-29.751	16384	15447	0	376
-4.075	-24.522	16384	15291	0	376
0.252	-18.824	16384	15603	0	376
4.616	-12.333	16384	16072	0	376
7.573	-13.054	16384	16384	0	376
7.645	-14.749	16384	16852	0	376
1.839	-20.231	16384	17321	0	376
-5.049	-20.087	16384	17946	0	376
-13.812	-21.132	16384	18571	0	376
-16.048	-20.339	16384	19509	0	376
-18.897	-20.519	16385	20290	0	376
-19.221	-21.024	16385	20759	0	376
-22.899	-24.739	16385	21227	0	376
-24.594	-27.335	16385	21384	0	376
-24.270	-29.715	16385	21071	0	376
