neuroNicle FX2
D3F25R12
Bluetooth SPP
2023년 11월 2일 목요일
오전 10:32
time interval = 4msec
EEG1	EEG2	PPG	sdPPG	pulse	peak_interval(msec)
-21.962	-18.320	16525	16708	0	684
-25.604	-19.798	16507	16122	0	684
-25.856	-18.500	16480	15412	0	684
-20.555	-17.706	16467	14980	0	684
-13.631	-15.687	16453	14780	0	684
-10.278	-13.091	16435	14641	0	684
-12.766	-13.415	16417	14471	0	684
-17.851	-13.415	16406	14347	0	684
-25.243	-16.156	16390	14332	0	684
-24.955	-17.959	16382	14378	0	684
-20.880	-21.818	16367	14378	0	684
-17.995	-20.772	16355	14317	0	684
-15.687	-18.392	16337	14317	0	684
-17.634	-11.287	16328	14548	0	684
-15.507	-6.816	16328	15011	0	684
-11.504	-2.813	16326	15551	0	684
-4.183	-0.180	16322	15952	0	684
0.108	0.829	16322	16138	0	684
-3.678	-1.803	16310	16246	0	684
-11.396	-8.042	16313	16507	0	684
-19.690	-13.127	16313	16985	0	684
-21.529	-17.995	16317	17371	0	684
-14.136	-15.615	16313	17541	0	684
-3.101	-10.133	16313	17634	0	684
4.724	-4.868	16313	17788	0	684
4.364	-3.714	16315	18035	0	684
-4.724	-6.275	16317	18174	0	684
-16.336	-9.881	16299	17772	0	684
-21.168	-17.021	16281	16908	0	684
-18.356	-16.661	16268	16184	0	684
-12.117	-10.927	16250	15844	0	684
-2.019	-4.472	16238	15613	0	684
2.596	2.560	16223	15397	0	684
0.469	3.318	16216	15304	0	684
-7.393	-0.541	16200	15227	0	684
-16.516	-8.006	16182	14857	0	684
-23.044	-11.323	16155	14162	0	684
-21.132	-9.232	16135	13591	0	684
-13.848	-4.183	16110	13221	0	684
-3.137	4.183	16076	12665	0	684
4.760	13.523	16045	11986	0	684
6.131	16.589	16018	11570	0	684
3.606	10.350	15998	11523	0	684
-2.056	2.669	15968	11601	0	684
-7.176	-4.904	15941	11462	0	684
-6.491	-4.111	15917	11230	0	684
-0.325	5.698	15890	11292	0	684
9.016	17.129	15876	11755	0	684
16.805	21.601	15872	12526	0	684
22.214	22.683	15865	13375	0	684
21.601	15.471	15856	14054	0	684
16.877	11.612	15838	14425	0	684
6.852	6.924	15811	14116	0	684
-4.436	3.787	15775	13314	0	684
-9.556	3.967	15750	12897	0	684
-6.167	8.871	15730	13113	0	684
6.960	16.444	15716	13607	0	684
17.670	23.945	15714	14347	0	684
24.666	28.741	15719	15428	0	684
23.260	30.436	15728	16630	0	684
18.211	29.931	15737	17695	0	684
13.199	28.705	15750	18667	0	684
13.776	29.138	15766	19748	0	684
16.120	28.994	15795	20967	0	684
24.378	32.456	15822	22124	0	684
33.466	37.324	15845	22988	0	684
37.721	40.822	15865	23513	0	684
38.586	41.652	15894	23945	0	684
35.701	37.432	15919	24454	0	684
34.764	36.711	15953	25010	0	684
36.531	37.324	15977	25396	0	684
39.272	40.678	16002	25488	0	684
39.308	43.527	16025	25427	0	684
38.442	41.399	16054	25350	0	684
38.154	40.317	16079	25211	0	684
41.471	37.613	16101	24933	0	684
42.770	35.449	16119	24516	1	764
37.901	32.708	16142	24069	0	764
33.321	27.443	16160	23606	0	764
24.666	24.234	16171	23050	0	764
19.726	23.801	16187	22309	0	764
19.978	24.089	16191	21399	0	764
18.608	24.594	16198	20396	0	764
20.375	25.424	16198	19377	0	764
20.231	22.972	16191	18390	0	764
23.873	26.253	16187	17371	0	764
26.974	30.869	16182	16384	0	764
27.371	32.456	16169	15520	0	764
25.388	31.446	16157	14610	0	764
23.224	26.686	16144	13591	0	764
18.608	19.473	16124	12743	0	764
15.146	16.625	16112	12141	0	764
11.576	13.668	16090	11400	0	764
10.133	15.831	16054	10258	0	764
8.547	15.038	16031	9317	0	764
8.475	14.461	16025	9347	0	764
7.753	13.956	16029	10289	0	764
6.996	13.451	16040	11539	0	764
4.472	15.723	16056	12758	0	764
3.895	15.038	16070	13823	0	764
6.563	16.408	16090	14810	0	764
7.970	15.074	16112	15829	0	764
11.071	14.136	16135	16862	0	764
12.081	15.867	16164	17850	0	764
8.943	15.435	16191	18775	0	764
4.544	15.398	16216	19655	0	764
2.777	11.071	16250	20488	0	764
6.455	8.078	16288	21353	0	764
15.146	9.773	16324	22232	0	764
21.637	13.559	16351	22711	0	764
22.070	17.526	16362	22387	0	764
16.805	19.185	16371	21569	0	764
9.268	15.435	16388	21183	0	764
5.734	15.038	16413	21368	0	764
8.078	13.559	16440	21553	0	764
14.533	15.903	16467	21615	0	764
18.644	15.110	16491	21769	0	764
21.096	14.461	16530	22047	0	764
17.562	9.124	16559	22294	0	764
11.143	6.671	16602	22603	0	764
4.580	5.445	16638	23035	0	764
1.875	6.960	16680	23421	0	764
4.400	10.674	16723	23637	0	764
7.393	11.756	16761	23745	0	764
8.691	10.386	16793	23683	0	764
11.540	7.717	16829	23405	0	764
11.504	6.419	16856	22865	0	764
12.441	7.140	16869	21954	0	764
13.559	9.124	16881	20813	0	764
8.114	8.835	16896	19825	0	764
1.587	5.554	16908	19084	0	764
-3.462	3.678	16919	18359	0	764
-2.200	4.832	16926	17541	0	764
3.895	7.970	16935	16785	0	764
10.025	8.330	16941	16261	0	764
10.242	8.366	16964	16060	0	764
4.291	5.193	16980	16076	0	764
-4.904	1.983	16991	15952	0	764
-6.022	1.190	17004	15613	0	764
-3.787	1.551	17025	15551	0	764
1.983	3.101	17047	15844	0	764
8.511	4.724	17065	16076	0	764
10.386	6.563	17081	16107	0	764
8.799	7.501	17094	15875	0	764
2.741	5.337	17103	15567	0	764
-4.796	1.767	17117	15397	0	764
-11.468	-1.695	17121	15351	0	764
-11.468	1.623	17132	15134	0	764
-4.183	6.708	17132	14672	0	764
8.511	15.182	17132	14317	0	764
16.408	19.726	17144	14286	0	764
12.910	13.235	17153	14394	0	764
1.947	2.488	17159	14378	0	764
-11.396	-9.809	17159	14116	0	764
-19.005	-14.533	17153	13715	0	764
-12.117	-5.409	17153	13406	0	764
0.865	12.369	17153	13344	0	764
17.815	28.669	17159	13499	0	764
23.801	36.459	17153	13437	0	764
23.152	33.429	17126	12588	0	764
14.245	22.142	17094	11230	0	764
11.432	16.949	17074	10335	0	764
12.261	16.516	17061	10196	0	764
22.827	24.017	17043	10304	0	764
32.312	31.410	17031	10412	0	764
37.036	36.170	17020	10536	0	764
35.485	36.891	17009	10736	0	764
31.194	34.620	16998	11030	0	764
26.253	30.256	16991	11323	0	764
24.270	26.001	16982	11631	0	764
22.791	23.008	16973	11955	0	764
20.303	20.988	16959	12202	0	764
18.500	22.106	16957	12434	0	764
17.238	28.381	16959	13144	0	764
20.267	33.285	16971	14363	0	764
22.972	33.934	16980	15366	0	764
22.106	26.181	16980	15860	0	764
18.644	13.343	16980	16107	0	764
9.448	3.606	16980	16292	0	764
5.662	3.967	16980	16430	0	764
7.862	14.425	16971	16445	0	764
16.192	27.227	16953	16153	0	764
22.683	35.052	16941	15675	0	764
25.027	32.167	16937	15597	0	764
17.851	23.873	16937	15968	0	764
7.465	11.251	16928	16199	0	764
-0.505	2.236	16919	16107	0	764
-2.416	-2.019	16912	15783	0	764
1.947	0.108	16892	15412	0	764
8.294	5.085	16883	15181	0	764
11.396	10.638	16869	15104	0	764
11.035	11.179	16856	14918	0	764
1.118	9.340	16833	14486	0	764
-11.179	0.288	16813	14008	0	764
-21.890	-11.973	16788	13684	0	764
-28.417	-23.296	16777	13545	0	764
-25.279	-25.929	16757	13499	0	764
-12.982	-18.608	16739	13422	0	764
-2.344	-8.042	16723	13391	0	764
0.252	-5.662	16714	13591	0	764
-9.592	-20.916	16712	14101	0	764
-26.794	-48.648	16705	14702	0	764
-45.691	-73.783	16701	15088	0	764
-55.788	-83.808	16694	15335	0	764
-58.565	-80.563	16694	15752	0	764
-59.178	-71.259	16701	16399	0	764
-59.863	-67.039	16705	17109	0	764
-62.351	-69.383	16703	17448	0	764
-63.145	-71.655	16678	16924	0	764
-61.522	-69.383	16633	15366	0	764
-57.916	-63.000	16590	13576	0	764
-56.942	-58.493	16552	12480	0	764
-58.420	-57.735	16521	12033	0	764
-60.079	-63.722	16489	11801	0	764
-61.089	-65.344	16467	11786	0	764
-58.132	-62.532	16451	12017	0	764
-51.641	-51.929	16440	12588	0	764
-49.730	-44.897	16440	13530	0	764
-49.982	-42.914	16451	14718	0	764
-56.004	-46.520	16451	15721	0	764
-59.971	-55.067	16446	16230	0	764
-60.079	-57.771	16440	16292	0	764
-53.552	-58.709	16422	16261	0	764
-47.458	-57.663	16413	16292	0	764
-45.835	-59.827	16401	16276	0	764
-51.785	-62.532	16386	16091	0	764
-56.834	-64.010	16373	15906	0	764
-58.925	-59.394	16378	16276	0	764
-55.788	-53.660	16382	17124	0	764
-51.244	-51.821	16384	17803	0	764
-53.949	-51.388	16382	18019	0	764
-55.860	-55.572	16373	17880	0	764
-59.286	-55.355	16367	17664	0	764
-51.641	-52.759	16362	17572	0	764
-42.445	-45.835	16355	17618	0	764
-36.531	-44.356	16344	17510	0	764
-37.541	-47.133	16335	17155	0	764
-44.645	-50.234	16328	17016	0	764
-48.215	-48.503	16328	17309	0	764
-47.494	-47.494	16335	17742	0	764
-40.137	-40.750	16340	18050	0	764
-31.699	-36.459	16340	18235	0	764
-27.912	-35.233	16340	18359	0	764
-26.758	-37.180	16346	18436	0	764
-29.282	-37.937	16351	18606	0	764
-29.282	-38.731	16360	18899	0	764
-31.626	-37.360	16362	19084	0	764
-32.528	-37.721	16369	19069	0	764
-35.521	-36.495	16378	19084	0	764
-36.891	-38.226	16388	19346	0	764
-39.957	-38.298	16399	19671	0	764
-39.055	-36.134	16406	19763	0	764
-35.774	-32.167	16410	19593	0	764
-32.564	-28.741	16417	19300	0	764
-30.040	-28.489	16422	19115	0	764
-31.158	-31.699	16428	19038	0	764
-35.557	-36.675	16428	18822	0	764
-41.616	-38.550	16424	18405	0	764
-43.779	-36.387	16428	17958	0	764
-38.947	-30.292	16428	17603	0	764
-31.554	-23.765	16422	17263	0	764
-22.935	-21.890	16422	16970	0	764
-21.962	-21.493	16424	16785	0	764
-24.919	-22.899	16422	16600	0	764
-26.614	-22.322	16413	16230	0	764
-27.768	-17.454	16401	15628	0	764
-25.748	-15.903	16388	15026	0	764
-22.827	-13.271	16382	14594	0	764
-19.185	-15.218	16369	14224	0	764
-17.418	-16.084	16344	13591	0	764
-11.323	-18.788	16324	12881	0	764
-6.671	-18.211	16322	12820	0	764
-2.921	-18.211	16322	13422	0	764
-4.977	-13.812	16322	13915	0	764
-10.458	-11.937	16310	13900	0	764
-16.877	-10.061	16290	13560	0	764
-23.945	-13.018	16277	13236	0	764
-29.282	-19.113	16268	13082	0	764
-32.203	-24.053	16250	13144	0	764
-35.377	-27.912	16245	13344	0	764
-39.199	-27.407	16232	13468	0	764
-37.937	-23.657	16223	13499	0	764
-35.449	-22.106	16211	13622	0	764
-25.856	-19.798	16209	13946	0	764
-15.831	-17.851	16198	14224	0	764
-11.468	-16.552	16189	14239	0	764
-9.232	-11.179	16178	14224	0	764
-10.422	-5.373	16169	14425	0	764
-13.271	-2.164	16166	14826	0	764
-14.389	-4.832	16164	15165	0	764
-16.048	-12.730	16148	15273	0	764
-23.008	-18.897	16146	15320	0	764
-26.866	-21.673	16142	15520	0	764
-28.092	-17.562	16144	15937	0	764
-24.630	-12.477	16142	16384	0	764
-18.824	-9.232	16133	16384	0	764
-13.271	-10.746	16101	15613	0	764
-8.439	-13.018	16070	14425	0	764
-8.402	-14.028	16045	13699	0	764
-11.648	-14.497	16029	13607	0	764
-17.346	-16.661	16011	13715	0	764
-25.856	-17.166	16002	13838	0	764
-29.968	-18.644	15986	13977	0	764
-28.201	-15.615	15966	13931	0	764
-25.424	-13.704	15941	13545	0	764
-23.440	-11.648	15912	13036	0	764
-22.178	-14.677	15883	12480	0	764
-19.870	-13.271	15845	11940	0	764
-18.139	-9.665	15827	11786	0	764
-14.749	-5.878	15809	12187	0	764
-14.569	-2.019	15800	12835	0	764
-13.992	-4.327	15795	13607	0	764
-13.523	-9.160	15795	14502	0	764
-11.143	-9.845	15800	15443	0	764
-7.248	-6.599	15804	16354	0	764
-7.717	-3.065	15811	17140	0	764
-12.405	-2.164	15827	17988	0	764
-17.995	-4.508	15831	18853	0	764
-18.680	-8.150	15842	19454	0	764
-18.933	-8.619	15851	19779	0	764
-12.730	-7.212	15863	20242	0	764
-7.573	-5.842	15887	21013	0	764
-4.796	-6.599	15908	21831	0	764
-4.364	-9.412	15930	22448	0	764
-8.294	-11.973	15950	22819	0	764
-14.497	-13.127	15975	23251	0	764
-16.552	-12.297	16011	23899	0	764
-16.372	-8.475	16045	24640	0	764
-13.271	-5.229	16074	25103	0	764
-5.517	-3.065	16101	25149	0	764
-2.488	-3.137	16130	25134	0	764
-1.839	-5.445	16166	25257	0	764
-4.977	-9.412	16189	25103	0	764
-6.527	-10.963	16202	24470	0	764
-11.215	-14.064	16223	23775	0	764
-15.831	-16.697	16245	23421	1	1036
-22.286	-17.418	16277	23421	0	1036
-23.152	-16.877	16317	23667	0	1036
-19.041	-8.799	16355	24022	0	1036
-9.809	-2.236	16395	24269	0	1036
2.200	2.236	16435	24377	0	1036
4.904	-1.082	16473	24454	0	1036
0.793	-9.052	16521	24609	0	1036
-11.720	-17.598	16559	24717	0	1036
-18.860	-20.123	16604	24624	0	1036
-16.589	-15.435	16638	24377	0	1036
-9.088	-6.022	16680	24115	0	1036
1.406	2.669	16723	23930	0	1036
7.501	8.186	16761	23775	0	1036
5.193	8.114	16788	23266	0	1036
0.757	3.246	16800	21939	0	1036
-4.580	-0.649	16802	20087	0	1036
-9.232	-4.111	16806	18590	0	1036
-9.448	-1.587	16822	17695	0	1036
-6.491	6.455	16833	17001	0	1036
0.325	17.310	16840	16384	0	1036
11.071	26.614	16860	16030	0	1036
17.310	23.404	16881	15891	0	1036
13.956	13.415	16903	15860	0	1036
7.934	-1.010	16919	15767	0	1036
2.344	-8.294	16939	15644	0	1036
2.056	-1.767	16953	15443	0	1036
9.592	13.848	16962	14918	0	1036
17.851	29.174	16959	14131	0	1036
22.791	32.636	16962	13530	0	1036
19.185	26.289	16968	13252	0	1036
10.819	14.028	16971	13005	0	1036
3.498	6.203	16962	12496	0	1036
2.308	6.563	16957	11786	0	1036
10.855	18.716	16948	11261	0	1036
23.188	27.335	16950	11230	0	1036
31.302	31.013	16957	11601	0	1036
30.328	26.470	16964	12002	0	1036
19.978	19.978	16971	12202	0	1036
12.405	13.812	16962	12218	0	1036
9.232	17.057	16948	11755	0	1036
12.550	20.483	16926	10952	0	1036
16.120	23.404	16914	10412	0	1036
13.956	21.168	16896	10335	0	1036
15.326	18.103	16892	10520	0	1036
15.543	18.500	16892	10952	0	1036
20.411	18.536	16892	11554	0	1036
20.447	20.303	16896	12202	0	1036
18.392	17.598	16896	12851	0	1036
11.540	16.408	16905	13576	0	1036
6.852	15.146	16923	14409	0	1036
10.314	20.555	16939	15351	0	1036
13.451	23.440	16957	16323	0	1036
12.369	23.044	16973	17124	0	1036
8.727	15.471	16991	17726	0	1036
4.436	11.648	17013	18328	0	1036
5.337	11.468	17031	19038	0	1036
11.071	17.779	17058	19763	0	1036
17.706	22.250	17065	19948	0	1036
16.084	24.125	17052	19115	0	1036
13.451	20.014	17036	17664	0	1036
12.225	19.365	17025	16600	0	1036
12.838	20.087	17013	16122	0	1036
16.805	22.647	17004	15767	0	1036
14.749	24.270	16998	15459	0	1036
10.133	19.618	16995	15351	0	1036
2.669	16.552	16993	15289	0	1036
-2.128	10.927	16980	14872	0	1036
-1.947	10.963	16959	14162	0	1036
-0.613	10.855	16941	13622	0	1036
2.236	9.917	16926	13298	0	1036
3.390	11.179	16905	12743	0	1036
1.479	9.809	16878	12048	0	1036
-3.173	5.842	16860	11709	0	1036
-7.681	3.065	16845	11801	0	1036
-11.432	-0.902	16829	11940	0	1036
-11.396	-4.039	16813	11909	0	1036
-9.809	-3.426	16800	11863	0	1036
-8.727	-2.236	16784	12064	0	1036
-10.638	-1.479	16782	12588	0	1036
-14.281	-6.058	16777	13283	0	1036
-19.870	-13.379	16777	13869	0	1036
-29.102	-24.883	16766	14162	0	1036
-36.783	-33.502	16761	14409	0	1036
-44.104	-37.468	16759	14826	0	1036
-45.943	-39.560	16757	15366	0	1036
-43.960	-37.685	16759	15844	0	1036
-42.553	-40.822	16750	16091	0	1036
-41.616	-44.897	16750	16261	0	1036
-44.537	-47.782	16755	16569	0	1036
-48.323	-47.241	16757	17032	0	1036
-51.244	-46.232	16750	17340	0	1036
-51.461	-45.330	16748	17279	0	1036
-53.336	-46.845	16743	17109	0	1036
-54.237	-48.648	16737	17109	0	1036
-56.798	-43.960	16737	17248	0	1036
-56.113	-34.043	16739	17433	0	1036
-57.375	-23.585	16737	17541	0	1036
-57.880	-18.428	16734	17587	0	1036
-56.906	-17.526	16734	17603	0	1036
-57.519	-23.080	16728	17495	0	1036
-55.391	-25.929	16725	17309	0	1036
-53.083	-25.207	16714	17001	0	1036
-52.542	-25.171	16689	16199	0	1036
-51.965	-26.397	16665	15042	0	1036
-56.257	-28.201	16642	14363	0	1036
-55.788	-31.482	16626	14317	0	1036
-56.870	-32.384	16620	14409	0	1036
-52.290	-30.977	16611	14517	0	1036
-51.461	-29.318	16611	14749	0	1036
-49.657	-28.345	16608	15150	0	1036
-52.146	-29.535	16608	15644	0	1036
-51.497	-30.112	16613	16060	0	1036
-51.857	-31.230	16608	16276	0	1036
-49.441	-30.977	16602	16276	0	1036
-44.248	-28.309	16590	15968	0	1036
-41.039	-24.558	16575	15567	0	1036
-35.846	-19.510	16579	15814	0	1036
-33.177	-17.238	16586	16553	0	1036
-32.744	-18.680	16568	16522	0	1036
-36.423	-22.972	16543	15551	0	1036
-39.632	-28.814	16523	14733	0	1036
-40.245	-31.951	16523	14872	0	1036
-38.262	-31.049	16532	15736	0	1036
-34.800	-25.929	16536	16492	0	1036
-31.049	-19.618	16525	16522	0	1036
-4.868	2.380	16824	13653	0	852
-1.334	3.426	16838	14317	0	852
-1.370	0.577	16851	15073	0	852
-2.813	-2.236	16867	15659	0	852
-0.072	-2.524	16874	16014	0	852
3.570	1.334	16890	16354	0	852
8.619	2.669	16908	16785	0	852
11.323	5.085	16919	17186	0	852
9.917	5.085	16923	17263	0	852
7.825	7.104	16928	17016	0	852
7.681	10.025	16928	16754	0	852
11.071	15.543	16928	16584	0	852
15.110	22.286	16930	16384	0	852
23.476	29.066	16923	16014	0	852
31.302	37.108	16905	15320	0	852
37.288	41.399	16874	14008	0	852
38.983	44.717	16829	12233	0	852
35.052	44.645	16788	10582	0	852
30.833	44.212	16748	9486	0	852
29.354	42.373	16721	9039	0	852
33.069	42.697	16692	8869	0	852
39.055	43.851	16658	8560	0	852
44.464	43.527	16624	8190	0	852
46.268	43.887	16602	8159	0	852
46.412	43.274	16577	8530	0	852
42.229	41.904	16557	9070	0	852
38.298	43.130	16545	9687	0	852
32.420	43.166	16534	10459	0	852
30.148	41.543	16532	11415	0	852
29.174	39.668	16534	12511	0	852
32.672	38.586	16534	13638	0	852
35.413	41.652	16534	14548	0	852
37.937	46.304	16530	15119	0	852
38.045	48.323	16530	15582	0	852
35.305	46.268	16523	16138	0	852
29.499	40.029	16530	16769	0	852
25.568	33.502	16530	17325	0	852
24.486	32.780	16530	17618	0	852
25.965	35.160	16525	17865	0	852
30.689	39.560	16534	18313	0	852
34.800	42.084	16548	19053	0	852
37.396	42.120	16568	19948	0	852
38.334	39.308	16586	20735	0	852
37.541	38.190	16604	21337	0	852
35.124	38.118	16622	21877	0	852
29.895	37.973	16644	22325	0	852
26.506	37.144	16660	22587	0	852
26.037	35.305	16676	22603	0	852
28.309	33.898	16687	22402	0	852
31.699	34.079	16689	22032	0	852
33.141	35.990	16687	21291	0	852
33.790	37.865	16676	20134	0	852
30.797	37.613	16656	18729	0	852
26.506	32.528	16613	16924	0	852
18.933	24.991	16575	14872	0	852
10.206	14.821	16536	13190	0	852
4.580	11.071	16500	12141	0	852
3.534	11.973	16480	11570	0	852
8.222	18.320	16462	11431	0	852
13.920	22.791	16453	11631	0	852
14.858	25.604	16440	11986	0	852
15.038	22.539	16435	12357	0	852
13.235	20.375	16424	12665	0	852
11.864	21.385	16422	13051	0	852
11.251	20.952	16417	13422	0	852
7.609	21.421	16397	13375	0	852
4.147	17.887	16378	12928	0	852
1.515	15.543	16360	12696	0	852
2.741	12.009	16346	12851	0	852
6.599	10.710	16333	13067	0	852
8.871	12.225	16306	12974	0	852
9.196	12.045	16295	12789	0	852
8.547	13.920	16288	13113	0	852
7.321	13.199	16281	13915	0	852
7.717	10.025	16281	14564	0	852
7.609	7.609	16265	14764	0	852
5.409	4.796	16254	14687	0	852
2.669	4.400	16238	14687	0	852
0.252	8.330	16232	14903	0	852
1.947	11.468	16227	15258	0	852
4.436	14.677	16220	15613	0	852
11.215	15.543	16220	15968	0	852
17.418	21.132	16223	16476	0	852
19.510	26.109	16227	17217	0	852
21.168	32.889	16238	18019	0	852
21.745	35.629	16250	18683	0	852
16.661	33.249	16256	19100	0	852
15.290	27.371	16268	19377	0	852
12.910	22.827	16270	19640	0	852
11.792	19.942	16279	19825	0	852
11.540	19.329	16283	19809	0	852
11.396	16.589	16279	19593	0	852
10.602	15.002	16281	19346	0	852
10.674	11.900	16290	19316	0	852
10.206	11.071	16299	19578	0	852
9.196	12.297	16317	20041	0	852
8.655	11.792	16335	20566	0	852
8.294	12.910	16358	20998	0	852
4.724	12.369	16373	21198	0	852
5.049	10.674	16386	21229	0	852
7.501	11.937	16399	21198	0	852
10.927	14.894	16413	21059	0	852
17.995	17.887	16422	20828	0	852
21.673	21.926	16431	20488	0	852
20.952	22.899	16440	20087	0	852
17.490	20.050	16442	19547	0	852
11.937	18.392	16435	18884	0	852
10.278	16.444	16435	18189	0	852
12.117	17.454	16428	17495	0	852
12.297	18.752	16422	16769	0	852
11.215	21.060	16410	16045	0	852
12.153	20.303	16399	15320	0	852
13.631	20.700	16388	14672	0	852
16.661	16.228	16378	14116	0	852
20.700	15.975	16355	13375	0	852
17.959	10.314	16328	12434	0	852
14.317	7.609	16315	11940	0	852
7.212	5.590	16310	12048	0	852
0.793	3.426	16288	12017	0	852
-0.036	2.921	16261	11446	0	852
-2.452	1.659	16238	10752	0	852
-0.072	2.921	16216	10505	0	852
4.472	5.517	16209	10767	0	852
10.602	8.511	16193	11184	0	852
14.425	12.766	16182	11477	0	852
12.297	9.917	16169	11631	0	852
7.898	4.075	16148	11770	0	852
-0.469	-3.714	16142	12033	0	852
-7.357	-10.530	16135	12496	0	852
-10.458	-11.179	16130	13113	0	852
-11.576	-8.583	16119	13499	0	852
-7.501	-3.210	16090	13252	0	852
-2.885	1.010	16065	12634	0	852
2.092	-0.577	16045	12418	0	852
2.056	-8.258	16034	12835	0	852
-6.924	-18.788	16025	13406	0	852
-19.437	-27.263	16018	13838	0	852
-29.138	-32.023	16002	14131	0	852
-31.735	-31.194	15991	14363	0	852
-26.217	-26.794	15986	14610	0	852
-22.142	-25.279	15968	14841	0	852
-19.690	-26.253	15962	15042	0	852
-28.273	-29.246	15955	15243	0	852
-36.891	-33.466	15944	15567	0	852
-42.806	-35.377	15939	15952	0	852
-43.924	-34.511	15939	16307	0	852
-39.993	-33.249	15935	16677	0	852
-36.134	-33.718	15939	17078	0	852
-34.692	-35.377	15928	17340	0	852
-35.341	-37.072	15923	17340	0	852
-36.495	-36.206	15917	17309	0	852
-34.295	-32.203	15912	17356	0	852
-29.571	-26.794	15905	17417	0	852
-24.198	-21.601	15890	17155	0	852
-18.608	-16.661	15872	16600	0	852
-15.507	-16.408	15860	16199	0	852
-17.346	-15.723	15849	16138	0	852
-18.356	-21.601	15845	16338	0	852
-22.070	-26.037	15840	16553	0	852
-21.601	-29.030	15840	16708	0	852
-21.998	-30.941	15833	16924	0	852
-22.106	-30.689	15842	17309	0	852
-24.594	-31.194	15851	17850	0	852
-27.551	-29.535	15854	18359	0	852
-28.958	-27.407	15865	18637	0	852
-25.027	-23.657	15865	18683	0	852
-22.106	-21.998	15863	18652	0	852
-22.683	-20.591	15872	18683	0	852
-24.486	-23.801	15874	18822	0	852
-28.994	-26.722	15883	18945	0	852
-31.951	-28.345	15894	19146	0	852
-27.984	-26.470	15908	19609	0	852
-22.034	-20.700	15932	20350	0	852
-13.992	-7.465	15962	21090	0	852
-10.169	1.370	15968	21245	0	852
-7.789	4.255	15962	20535	0	852
-7.465	3.390	15962	19470	0	852
-5.409	-2.741	15964	19053	0	852
1.010	-3.498	15980	19408	0	852
9.304	-1.334	16007	19933	1	824
12.874	2.308	16029	20396	0	824
10.458	2.993	16054	20936	0	824
4.183	0.505	16081	21384	0	824
-3.210	-2.993	16110	21708	0	824
-5.986	-5.229	16137	22032	0	824
-6.708	-6.744	16160	22109	0	824
-4.616	-5.193	16171	21615	0	824
-2.164	-2.272	16182	21013	0	824
1.082	2.452	16205	20766	0	824
3.318	6.347	16223	20704	0	824
3.246	8.078	16247	20674	0	824
-0.108	4.544	16265	20566	0	824
-4.075	3.354	16277	20164	0	824
-4.904	2.669	16290	19655	0	824
1.587	7.140	16322	19732	0	824
10.855	15.471	16351	20288	0	824
19.185	20.339	16380	20612	0	824
21.890	20.700	16397	20458	0	824
22.178	18.392	16417	20056	0	824
18.175	14.100	16440	19748	0	824
20.627	15.471	16467	19809	0	824
22.358	16.408	16498	20211	0	824
25.712	22.395	16534	20689	0	824
27.624	23.801	16568	21044	0	824
26.181	24.558	16611	21414	0	824
22.863	20.736	16660	21954	0	824
21.998	19.257	16701	22417	0	824
17.418	19.798	16732	22479	0	824
17.959	19.654	16766	22140	0	824
14.245	21.385	16791	21661	0	824
13.992	18.824	16818	21198	0	824
9.809	17.598	16840	20797	0	824
11.792	16.156	16863	20334	0	824
15.435	20.772	16872	19563	0	824
21.781	24.775	16878	18359	0	824
28.309	28.597	16878	17078	0	824
30.941	30.761	16883	16199	0	824
28.381	31.915	16894	15721	0	824
23.657	31.374	16896	15243	0	824
23.404	33.610	16896	14440	0	824
27.371	35.918	16867	12943	0	824
34.151	39.055	16836	10999	0	824
41.435	40.462	16806	9502	0	824
42.012	39.488	16795	8931	0	824
37.108	34.764	16788	8993	0	824
32.600	29.427	16791	9332	0	824
29.859	25.676	16788	9841	0	824
28.056	24.450	16800	10474	0	824
26.325	23.224	16804	11091	0	824
20.880	23.152	16806	11709	0	824
16.084	18.139	16824	12372	0	824
9.953	14.353	16833	13036	0	824
4.508	7.140	16838	13576	0	824
3.029	1.875	16849	14039	0	824
-0.180	-1.046	16858	14594	0	824
0.685	-2.416	16867	15057	0	824
6.816	1.623	16860	15026	0	824
13.992	8.366	16860	14702	0	824
18.572	15.218	16867	14872	0	824
20.700	17.562	16878	15505	0	824
15.759	19.978	16872	15690	0	824
11.287	15.398	16858	15042	0	824
8.583	15.435	16836	14116	0	824
13.379	18.428	16822	13499	0	824
23.008	25.207	16806	13236	0	824
32.492	32.059	16800	13144	0	824
37.793	34.331	16784	13113	0	824
35.377	33.646	16777	13097	0	824
28.886	30.112	16770	13236	0	824
20.627	24.630	16766	13591	0	824
15.146	22.106	16768	13962	0	824
11.035	16.192	16761	14224	0	824
12.946	16.048	16755	14317	0	824
14.713	16.084	16746	14317	0	824
19.149	21.818	16739	14533	0	824
21.962	24.775	16748	15073	0	824
22.034	25.063	16755	15659	0	824
15.326	20.339	16743	15783	0	824
9.412	11.179	16716	15088	1	316
6.022	8.330	16689	14023	0	316
5.013	7.717	16671	13483	0	316
9.304	10.638	16658	13607	0	316
12.117	14.172	16653	13838	0	316
15.074	17.057	16635	13838	0	316
12.153	16.552	16597	13190	0	316
13.091	16.552	16554	11909	0	316
14.028	15.939	16523	10906	0	316
17.093	16.805	16498	10783	0	316
20.447	16.192	16480	11354	0	316
18.536	17.670	16476	12064	0	316
16.408	17.166	16464	12665	0	316
13.631	19.978	16462	13267	0	316
12.838	19.221	16453	13931	0	316
12.874	20.339	16453	14610	0	316
12.730	17.129	16451	15273	0	316
10.819	13.415	16453	15922	0	316
9.701	10.602	16451	16492	0	316
11.864	8.186	16455	17032	0	316
15.615	11.143	16458	17587	0	316
15.254	9.917	16464	18096	0	316
11.864	7.970	16462	18405	0	316
6.275	6.996	16464	18467	0	316
3.534	5.229	16464	18606	0	316
5.193	6.708	16473	18914	0	316
9.016	9.917	16476	19316	0	316
12.982	11.973	16487	19640	0	316
12.477	12.766	16489	19686	0	316
10.674	10.314	16487	19578	0	316
9.881	7.825	16496	19516	0	316
10.999	6.599	16500	19547	0	316
14.533	7.212	16498	19485	0	316
17.743	10.855	16500	19161	0	316
14.425	14.353	16489	18575	0	316
12.369	16.949	16476	17911	0	316
7.789	11.720	16469	17340	0	316
6.960	7.068	16458	16908	0	316
8.078	2.705	16451	16507	0	316
8.799	1.767	16435	16138	0	316
8.258	3.787	16433	15891	0	316
5.770	8.511	16433	15906	0	316
6.888	9.124	16433	16168	0	316
6.563	6.888	16440	16461	0	316
7.934	3.642	16444	16738	0	316
4.472	1.190	16444	17001	0	316
-0.433	-1.623	16462	17387	0	316
-4.977	-3.787	16473	17880	0	316
-6.599	-4.616	16485	18266	0	316
-3.498	-5.121	16487	18421	0	316
0.469	-2.849	16496	18374	0	316
8.150	-0.577	16496	18158	0	316
10.350	-0.902	16491	17865	0	316
5.265	-8.042	16496	17634	0	316
-6.671	-16.589	16487	17248	0	316
-19.762	-26.542	16464	16384	0	316
-30.472	-29.607	16442	15181	0	316
-30.581	-25.748	16410	13962	0	316
-20.339	-20.772	16386	13067	0	316
-12.333	-14.533	16369	12573	0	316
-7.357	-14.785	16340	12125	0	316
-11.576	-18.933	16310	11477	0	316
-20.880	-27.587	16281	10752	0	316
-31.843	-32.708	16250	10273	0	316
-36.314	-35.665	16234	10289	0	316
-36.711	-37.072	16216	10705	0	316
-34.620	-36.783	16205	11138	0	316
-31.266	-36.747	16189	11477	0	316
-28.705	-36.098	16189	12094	0	316
-26.217	-33.285	16189	12974	0	316
-26.145	-29.823	16182	13746	0	316
-26.722	-28.705	16180	14317	0	316
-29.535	-30.004	16178	14780	0	316
-34.115	-31.771	16171	15227	0	316
-36.242	-33.934	16175	15736	0	316
-37.036	-34.728	16178	16338	0	316
-36.459	-37.973	16182	16939	0	316
-35.810	-42.120	16182	17417	0	316
-34.331	-43.887	16180	17649	0	316
-30.977	-43.274	16187	17772	0	316
-27.155	-37.324	16191	18127	0	316
-25.460	-31.699	16200	18745	0	316
-25.027	-28.741	16202	19084	0	316
-25.243	-30.617	16182	18513	0	316
-26.686	-35.593	16164	17356	0	316
-29.427	-40.209	16153	16677	0	316
-31.158	-42.697	16146	16615	0	316
-32.239	-40.642	16133	16600	0	316
-32.276	-35.124	16133	16522	0	316
-23.837	-30.617	16126	16538	0	316
-15.038	-23.512	16121	16553	0	316
-2.272	-19.798	16112	16430	0	316
6.383	-13.163	16108	16354	0	316
9.376	-7.970	16101	16384	0	316
8.511	-4.580	16101	16476	0	316
3.534	-5.049	16099	16538	0	316
-0.974	-7.393	16092	16553	0	316
-4.472	-11.107	16090	16553	0	316
-5.229	-14.461	16088	16584	0	316
-7.573	-17.598	16085	16600	0	316
-10.927	-18.211	16081	16615	0	316
-15.146	-22.034	16079	16661	0	316
-17.743	-21.637	16079	16723	0	316
-15.939	-20.880	16079	16816	0	316
-15.254	-21.168	16074	16862	0	316
-12.477	-19.726	16058	16569	0	316
-14.641	-21.457	16043	15891	0	316
-16.552	-21.421	16025	15165	0	316
-20.123	-21.277	16009	14733	0	316
-17.959	-22.358	16000	14656	0	316
-15.507	-16.589	15995	14733	0	316
-10.097	-12.946	15984	14810	0	316
-6.888	-8.222	15977	14903	0	316
-3.787	-5.662	15973	15104	0	316
-4.940	-6.852	15975	15412	0	316
-5.085	-9.592	15966	15659	0	316
-5.337	-11.828	15964	15767	0	316
-5.409	-10.097	15968	15952	0	316
-6.131	-11.432	15968	16384	0	316
-10.710	-14.353	15980	16970	0	316
-19.834	-17.166	15989	17572	0	316
-29.463	-22.214	16000	18004	0	316
-37.000	-23.440	16002	18251	0	316
-40.245	-17.959	16013	18482	0	316
-36.062	-13.199	16025	18822	0	316
-28.056	-10.133	16034	19161	0	316
-19.293	-9.304	16036	19177	0	316
-17.706	-13.235	16022	18436	0	316
-18.500	-18.788	16002	17171	0	316
-25.460	-21.096	15984	16199	0	316
-28.273	-16.480	15973	15705	0	316
-26.614	-14.028	15957	15351	0	316
-22.647	-9.124	15944	15011	0	316
-19.618	-7.681	15939	14872	0	316
-18.356	-10.169	15939	14980	0	316
-21.529	-11.323	15932	15243	0	316
-18.572	-10.566	15935	15505	0	316
-16.444	-8.835	15935	15814	0	316
-10.783	-8.330	15939	16076	0	316
-6.275	-7.501	15935	16060	0	316
-4.219	-6.852	15930	15983	0	316
-6.275	-4.652	15953	16615	0	316
-10.602	-4.183	15977	17973	0	316
-15.074	-4.544	16000	19053	0	316
-19.978	-7.609	16013	19485	0	316
-17.923	-7.501	16025	19563	0	316
-13.740	-6.708	16040	19701	0	316
-7.393	-1.911	16063	20087	0	316
-3.246	-0.216	16085	20596	0	316
-0.541	-2.308	16103	20951	0	316
-2.524	-6.491	16119	21029	0	316
-1.623	-9.160	16126	20735	0	316
-1.298	-12.225	16119	19840	0	316
-0.865	-12.153	16110	18637	0	316
-1.911	-12.946	16101	17834	0	316
-2.272	-14.064	16108	17479	1	620
0.252	-10.674	16115	17402	0	620
6.167	-6.996	16124	17587	0	620
13.271	2.344	16146	18035	0	620
18.175	8.547	16166	18637	0	620
19.293	14.930	16193	19208	0	620
18.788	16.661	16216	19593	0	620
16.913	19.077	16234	19825	0	620
18.175	18.644	16254	19933	0	620
20.483	22.791	16272	19902	0	620
26.361	25.099	16277	19547	0	620
33.466	28.164	16268	18590	0	620
37.216	31.410	16265	17387	0	620
37.541	33.141	16268	16800	0	620
31.230	33.898	16279	16908	0	620
26.001	31.843	16283	17016	0	620
22.178	29.427	16299	17032	0	620
25.676	26.794	16315	17279	0	620
31.338	26.397	16337	17680	0	620
33.934	28.237	16351	17927	0	620
35.052	28.561	16369	18066	0	620
34.259	29.354	16390	18436	0	620
34.295	29.102	16417	18976	0	620
37.649	30.400	16442	19439	0	620
43.455	32.456	16473	19794	0	620
46.123	34.547	16503	20195	0	620
46.232	37.108	16530	20535	0	620
44.464	39.524	16557	20735	0	620
42.229	41.543	16581	20828	0	620
40.389	41.940	16611	20890	0	620
41.039	38.767	16638	20890	0	620
38.550	31.807	16660	20843	0	620
34.187	25.063	16683	20689	0	620
29.102	20.916	16694	20226	0	620
24.270	20.555	16710	19563	0	620
22.791	18.644	16732	19238	0	620
23.116	19.077	16757	19424	0	620
24.162	15.543	16791	19748	0	620
23.152	14.136	16813	19794	0	620
21.529	14.569	16829	19485	0	620
18.211	17.454	16849	19038	0	620
20.159	19.149	16863	18683	0	620
19.473	21.132	16883	18405	0	620
20.231	19.077	16892	18035	0	620
17.959	19.618	16905	17479	0	620
16.336	17.021	16905	16862	0	620
15.795	17.634	16912	16323	0	620
19.762	16.552	16923	15860	0	620
24.089	20.014	16919	15428	0	620
28.273	22.539	16926	14996	0	620
31.194	27.948	16935	14672	0	620
31.230	32.203	16935	14502	0	620
31.158	33.466	16946	14471	0	620
31.122	31.518	16950	14486	0	620
29.210	28.705	16959	14378	0	620
25.388	24.162	16959	14193	0	620
22.899	20.231	16959	14070	0	620
16.697	18.464	16968	14101	0	620
15.362	14.281	16980	14332	0	620
14.749	13.631	16991	14733	0	620
17.562	13.595	17007	15150	0	620
20.916	15.831	17016	15428	0	620
23.945	21.637	17025	15505	0	620
22.683	22.142	17029	15459	0	620
19.726	21.349	17029	15243	0	620
19.582	19.113	17027	14872	0	620
19.365	16.408	17018	14409	0	620
21.385	17.779	17007	13884	0	620
21.818	19.798	16993	13360	0	620
17.706	21.962	16982	12866	0	620
14.389	21.493	16964	12465	0	620
13.018	22.827	16946	12002	0	620
15.182	26.001	16908	11107	0	620
21.132	27.083	16872	9857	0	620
23.657	26.001	16827	8684	0	620
21.601	22.503	16773	7434	0	620
18.031	13.451	16714	6076	0	620
11.576	9.917	16665	5134	0	620
7.068	5.265	16622	4718	0	620
3.642	4.760	16579	4764	0	620
1.947	5.157	16548	5227	0	620
1.442	2.633	16523	5922	0	620
3.498	4.291	16480	6323	0	620
6.635	6.852	16424	5875	0	620
12.081	12.405	16369	5011	0	620
14.930	15.651	16315	4687	0	620
13.235	17.923	16277	5119	0	620
7.465	12.838	16245	6030	0	620
2.777	8.258	16220	7233	0	620
1.623	6.744	16205	8668	0	620
6.527	9.665	16198	10335	0	620
15.146	16.516	16205	12264	0	620
19.834	23.440	16209	14209	0	620
21.024	25.748	16216	15860	0	620
14.858	22.070	16223	17294	0	620
9.016	17.562	16243	18775	0	620
5.337	9.232	16261	20365	0	620
6.347	7.357	16288	21877	0	620
8.799	6.239	16301	23035	0	620
12.117	5.554	16315	23683	0	620
8.655	3.606	16310	23590	0	620
1.731	0.288	16310	23004	0	620
-6.671	-3.390	16306	22680	0	620
-10.999	-4.219	16315	22850	0	620
-7.429	-0.757	16328	23220	1	416
-0.541	0.865	16340	23544	0	416
6.996	2.524	16355	23637	0	416
11.215	1.479	16367	23513	0	416
10.891	-1.695	16371	23251	0	416
5.049	-6.816	16378	22958	0	416
-1.442	-11.360	16380	22525	0	416
-9.124	-17.598	16382	21939	0	416
-11.684	-17.526	16382	21353	0	416
-6.671	-13.451	16380	20751	0	416
0.865	-6.780	16378	20134	0	416
8.366	-1.515	16369	19439	0	416
6.491	-4.796	16355	18498	0	416
-1.406	-13.127	16344	17448	0	416
-10.999	-22.755	16326	16553	0	416
-14.749	-23.260	16295	15520	0	416
-15.182	-18.897	16268	14162	0	416
-10.458	-12.514	16238	13020	0	416
-9.881	-9.232	16211	12326	0	416
-13.091	-11.504	16191	11940	0	416
-17.418	-16.913	16180	11940	0	416
-26.001	-22.358	16171	12264	0	416
-32.708	-28.237	16157	12573	0	416
-35.593	-32.167	16148	12650	0	416
-36.134	-36.062	16142	12758	0	416
-31.302	-37.432	16137	13190	0	416
-27.840	-34.728	16137	13884	0	416
-26.037	-30.761	16144	14641	0	416
-26.470	-26.830	16148	15320	0	416
-24.991	-21.781	16157	15968	0	416
-21.926	-21.493	16160	16569	0	416
-18.933	-19.942	16169	17016	0	416
-16.949	-23.080	16169	17171	0	416
-22.791	-27.155	16155	16985	0	416
-27.119	-26.938	16135	16246	0	416
-31.013	-30.040	16108	15150	0	416
-31.194	-31.158	16090	14502	0	416
-29.463	-30.869	16079	14517	0	416
-26.253	-31.158	16074	14795	0	416
-25.424	-30.472	16074	15134	0	416
-22.863	-27.299	16079	15675	0	416
-21.565	-24.847	16088	16430	0	416
-19.365	-23.116	16103	17340	0	416
-16.264	-21.854	16124	18343	0	416
-17.815	-22.034	16148	19439	0	416
-21.854	-25.820	16171	20350	0	416
-26.470	-27.551	16189	20674	0	416
-31.554	-29.895	16191	20535	0	416
-31.626	-27.948	16200	20319	0	416
-25.352	-23.440	16205	20149	0	416
-18.428	-18.860	16214	19933	0	416
-10.783	-13.992	16202	19377	0	416
-7.681	-8.439	16198	18498	0	416
-5.193	-4.183	16189	17742	0	416
-4.508	0.829	16182	17387	0	416
-4.219	1.046	16187	17279	0	416
-7.501	-3.246	16180	16985	0	416
-14.461	-12.189	16166	16384	0	416
-20.916	-20.050	16171	16153	0	416
-29.931	-28.597	16180	16492	0	416
-32.420	-31.987	16187	16954	0	416
-32.131	-31.049	16193	17124	0	416
-29.499	-25.929	16191	17016	0	416
-26.650	-19.762	16200	16862	0	416
-26.397	-15.290	16200	16846	0	416
-26.361	-12.514	16205	16877	0	416
-25.676	-13.740	16202	16785	0	416
-24.847	-17.670	16193	16445	0	416
-24.270	-19.690	16189	16014	0	416
-19.834	-22.827	16182	15644	0	416
-18.428	-24.486	16182	15536	0	416
-17.670	-22.395	16180	15597	0	416
-14.533	-19.293	16171	15443	0	416
-12.117	-12.946	16166	15073	0	416
-10.566	-8.222	16160	14888	0	416
-7.357	-1.839	16164	15026	0	416
-1.479	4.652	16166	15443	0	416
4.977	9.917	16169	15736	0	416
13.451	16.192	16153	15381	0	416
17.851	16.589	16126	14425	0	416
18.247	14.389	16112	13699	0	416
10.530	10.242	16099	13483	0	416
5.193	8.583	16085	13391	0	416
4.255	11.215	16070	13267	0	416
11.576	19.149	16058	13190	0	416
19.221	25.279	16045	13159	0	416
24.306	28.777	16031	13159	0	416
23.116	28.561	16020	13144	0	416
19.473	25.135	16009	13144	0	416
20.050	23.224	15995	13221	0	416
22.395	22.575	15986	13391	0	416
27.912	23.873	15977	13715	0	416
31.410	23.404	15977	14147	0	416
31.554	23.585	15968	14548	0	416
31.049	27.732	15962	14764	0	416
31.843	31.266	15944	14594	0	416
34.043	38.154	15928	14255	0	416
38.370	41.868	15923	14347	0	416
40.822	45.041	15919	14918	0	416
41.832	43.310	15921	15551	0	416
37.324	41.039	15923	16076	0	416
29.859	40.426	15928	16538	0	416
23.224	37.072	15939	17124	0	416
18.356	35.449	15946	17896	0	416
18.897	31.951	15966	18775	0	416
20.303	32.167	15984	19501	0	416
23.044	31.590	15995	19948	0	416
25.063	33.249	16011	20319	0	416
24.053	34.692	16034	20859	0	416
21.745	32.744	16058	21615	0	416
21.565	27.010	16085	22294	0	416
18.175	22.431	16108	22649	0	416
18.175	17.382	16126	22649	0	416
17.634	16.589	16146	22572	0	416
19.654	16.264	16166	22664	0	416
19.005	18.788	16193	22942	0	416
21.529	20.880	16223	23158	0	416
21.962	24.919	16254	23313	0	416
23.188	28.453	16279	23513	0	416
26.758	31.590	16315	23745	0	416
26.794	33.033	16349	23945	0	416
26.397	31.843	16384	24130	0	416
24.630	28.020	16417	24269	0	416
23.801	25.965	16453	24238	0	416
21.854	25.460	16485	24130	0	416
20.519	24.775	16512	23976	0	416
18.283	23.368	16548	23667	1	504
10.458	19.293	16575	23251	0	504
2.128	11.432	16602	22803	0	504
-2.308	7.140	16622	22294	0	504
-2.560	6.563	16647	21708	0	504
-1.551	8.547	16667	21106	0	504
0.685	9.124	16687	20488	0	504
0.252	5.986	16698	19732	0	504
-4.183	3.642	16698	18590	0	504
-5.950	-0.252	16698	17248	0	504
-6.996	-0.685	16710	16522	0	504
-4.832	0.144	16732	16553	0	504
-2.993	3.426	16750	16754	0	504
-1.479	5.662	16768	16630	0	504
-0.865	7.285	16777	16276	0	504
-2.921	5.950	16791	15875	0	504
-9.016	-2.777	16802	15628	0	504
-18.103	-15.435	16818	15505	0	504
-28.633	-22.286	16824	15320	0	504
-31.446	-25.676	16836	15057	0	504
-28.381	-21.096	16845	14965	0	504
-21.565	-13.631	16863	15073	0	504
-18.428	-10.710	16872	15104	0	504
-19.870	-12.838	16878	14903	0	504
-28.922	-16.769	16881	14610	0	504
-35.918	-24.198	16885	14347	0	504
-39.596	-32.239	16892	14224	0	504
-38.767	-35.846	16901	14317	0	504
-37.144	-41.147	16912	14455	0	504
-36.603	-40.714	16901	14131	0	504
-35.701	-38.983	16878	12943	0	504
-37.144	-35.377	16845	11369	0	504
-36.855	-33.574	16824	10320	0	504
-35.810	-34.043	16802	9980	0	504
-33.105	-33.285	16784	9764	0	504
-28.056	-32.131	16766	9533	0	504
-24.125	-29.859	16748	9409	0	504
-19.690	-24.702	16732	9347	0	504
-16.408	-20.339	16712	9347	0	504
-18.572	-20.952	16701	9625	0	504
-18.860	-20.952	16694	10212	0	504
-23.188	-23.440	16687	10798	0	504
-25.929	-24.558	16683	11292	0	504
-28.850	-23.909	16678	11817	0	504
-29.931	-23.116	16671	12388	0	504
-28.922	-24.378	16671	13020	0	504
-30.076	-28.741	16667	13545	0	504
-28.741	-32.780	16649	13653	0	504
-30.869	-35.774	16638	13437	0	504
-32.780	-36.026	16615	13267	0	504
-36.170	-32.961	16602	13267	0	504
-34.872	-29.787	16586	13267	0	504
-34.656	-28.020	16563	13097	0	504
-32.672	-28.128	16541	12897	0	504
-29.679	-27.371	16525	12912	0	504
-27.119	-25.496	16518	13267	0	504
-25.460	-23.224	16509	13869	0	504
-19.437	-20.519	16503	14378	0	504
-18.572	-18.933	16496	14687	0	504
-16.697	-20.844	16496	15165	0	504
-20.159	-21.060	16500	15999	0	504
-20.591	-21.745	16503	16846	0	504
-19.365	-16.733	16509	17402	0	504
-10.422	-12.441	16509	17649	0	504
-2.524	-4.255	16509	17896	0	504
3.246	-1.226	16518	18313	0	504
0.072	-2.741	16523	18868	0	504
-6.671	-5.662	16541	19393	0	504
-11.612	-6.888	16543	19701	0	504
-10.350	-5.193	16554	19840	0	504
-5.085	-3.282	16563	20010	0	504
-2.633	-4.940	16577	20334	0	504
-3.931	-11.973	16588	20704	0	504
-11.540	-19.834	16593	20782	0	504
-17.779	-22.106	16590	20164	0	504
-23.332	-22.647	16570	19053	0	504
-22.827	-17.959	16566	18235	0	504
-21.998	-17.490	16563	17896	0	504
-17.598	-14.858	16554	17634	0	504
-10.350	-14.317	16554	17325	0	504
-5.517	-9.340	16545	17047	0	504
-1.587	-3.895	16541	16677	0	504
0.000	-0.469	16530	16230	0	504
-0.829	0.829	16523	15860	0	504
-1.947	-0.433	16518	15659	0	504
-5.193	-3.426	16503	15412	0	504
-9.268	-5.590	16487	14857	0	504
-10.963	-5.481	16467	14131	0	504
-7.429	-2.056	16446	13653	0	504
-2.524	2.633	16431	13314	0	504
3.029	6.131	16395	12526	0	504
3.931	7.032	16358	11369	0	504
-0.793	3.859	16328	10536	0	504
-3.570	-1.767	16304	10289	0	504
-3.534	-0.757	16279	10412	0	504
2.200	2.849	16268	10829	0	504
9.124	10.963	16256	11307	0	504
16.012	17.490	16236	11601	0	504
13.271	15.038	16227	11894	0	504
6.816	7.789	16216	12434	0	504
-2.885	-5.121	16216	13205	0	504
-7.573	-12.081	16211	14008	0	504
-3.318	-11.360	16211	14641	0	504
7.609	-2.885	16209	15258	0	504
20.627	10.422	16216	16014	0	504
24.162	16.589	16223	16846	0	504
20.267	18.428	16223	17495	0	504
10.025	12.261	16227	17865	0	504
1.803	4.977	16232	18235	0	504
-3.137	1.298	16243	18745	0	504
1.406	5.157	16259	19408	0	504
12.586	12.405	16270	20072	0	504
25.063	26.361	16281	20488	0	504
37.973	37.108	16290	20596	0	504
43.202	43.238	16299	20612	0	504
45.222	45.763	16310	20720	0	504
42.553	43.455	16326	20936	0	504
38.045	38.658	16337	21106	0	504
34.980	35.413	16349	21229	0	504
28.453	29.968	16367	21306	0	504
22.863	23.440	16382	21368	0	504
16.552	20.375	16390	21306	0	504
17.238	16.913	16397	20951	0	504
21.421	19.906	16399	20380	0	504
24.955	21.349	16397	19794	0	504
26.325	23.332	16397	19177	0	504
21.132	23.440	16399	18698	0	504
18.067	21.024	16413	18745	0	504
15.507	22.791	16433	19130	0	504
20.411	24.378	16444	19254	0	504
24.270	27.047	16451	18914	0	504
25.965	29.066	16451	18374	0	504
23.440	27.263	16444	17695	0	504
17.382	23.945	16435	16924	0	504
15.074	19.293	16424	16076	0	504
15.146	17.634	16397	14918	0	504
21.529	17.815	16378	13653	0	504
27.371	24.666	16358	12804	0	504
32.889	31.338	16344	12403	0	504
36.783	38.442	16326	12064	0	504
36.819	41.868	16304	11693	0	504
35.088	38.983	16283	11307	0	504
35.160	34.656	16265	10983	0	504
33.357	28.777	16247	10860	0	504
31.266	22.935	16234	10983	0	504
25.820	17.238	16223	11199	0	504
20.627	14.497	16205	11307	0	504
13.523	12.441	16189	11354	0	504
12.009	12.297	16178	11539	0	504
12.838	13.812	16169	11940	0	504
17.923	13.956	16160	12403	0	504
23.296	17.779	16146	12681	0	504
28.525	20.447	16135	12881	0	504
32.564	26.542	16121	13097	0	504
36.855	29.751	16108	13298	0	504
37.072	30.545	16099	13437	0	504
32.239	26.433	16079	13483	0	504
21.529	20.988	16047	13097	0	504
10.278	14.028	16013	12310	0	504
1.839	11.864	15989	11847	0	504
2.344	10.674	15964	11925	0	504
7.068	13.091	15944	12141	0	504
15.759	16.949	15930	12434	0	504
19.618	19.221	15912	12835	0	504
17.562	22.431	15908	13391	0	504
17.779	21.818	15901	14162	0	504
16.120	20.664	15905	15057	0	504
17.815	20.195	15908	15937	0	504
14.245	15.975	15910	16677	0	504
10.386	13.343	15901	17078	0	504
3.101	9.592	15899	17186	0	504
-2.308	6.491	15894	17371	0	504
-4.255	2.164	15896	17757	0	504
-4.364	0.361	15894	18096	0	504
-4.796	-0.469	15890	18189	0	504
-5.662	-0.252	15883	18050	0	504
-2.633	0.252	15876	18004	0	504
0.757	4.003	15878	18204	0	504
3.642	2.741	15883	18575	0	504
1.623	-0.685	15885	18853	0	504
-3.137	-4.544	15885	18945	0	504
-9.773	-8.258	15899	19208	0	504
-11.612	-5.878	15910	19748	0	504
-6.131	0.541	15921	20257	0	504
1.875	8.763	15930	20411	0	504
11.828	15.218	15935	20211	0	504
12.405	14.533	15939	19995	0	504
6.852	7.321	15946	19964	0	504
-4.147	-1.839	15953	19979	0	504
-12.405	-8.799	15957	19902	1	756
-13.054	-10.710	15964	19686	0	756
-4.544	-4.039	15966	19501	0	756
3.895	2.308	15968	19300	0	756
8.078	5.770	15966	18868	0	756
4.472	0.613	15964	18235	0	756
-4.291	-7.537	15946	17387	0	756
-13.668	-13.884	15917	16045	0	756
-16.625	-19.329	15883	14455	0	756
-16.156	-15.975	15867	13607	0	756
-10.206	-12.153	15860	13668	0	756
-5.481	-7.537	15856	13977	0	756
-4.616	-4.291	15856	14286	0	756
-8.691	-6.455	15863	14780	0	756
-15.110	-9.520	15876	15489	0	756
-23.152	-15.795	15887	16246	0	756
-25.712	-18.752	15899	16893	0	756
-24.198	-19.473	15921	17618	0	756
-19.546	-13.595	15944	18513	0	756
-15.579	-10.061	15975	19501	0	756
-13.740	-8.150	16007	20473	0	756
-15.435	-8.475	16040	21322	0	756
-14.858	-11.828	16070	22032	0	756
-16.733	-16.589	16103	22618	0	756
-16.156	-17.166	16135	23035	0	756
-18.536	-19.798	16164	23266	0	756
-21.854	-20.375	16193	23482	0	756
-26.145	-23.332	16232	23760	0	756
-28.850	-26.794	16259	23899	0	756
-31.699	-28.669	16283	23606	0	756
-33.646	-30.364	16295	22880	0	756
-35.593	-30.040	16313	22186	0	756
-34.367	-29.751	16335	21846	0	756
-31.194	-28.922	16362	21785	0	756
-26.145	-29.246	16388	21800	0	756
-21.385	-26.938	16413	21646	0	756
-15.110	-18.969	16431	21260	0	756
-10.710	-11.900	16451	20704	0	756
-4.327	-3.678	16467	20103	0	756
-1.406	-0.469	16476	19578	0	756
0.144	-1.118	16496	19069	0	756
0.072	-4.400	16512	18637	0	756
-1.082	-7.068	16532	18529	0	756
-2.993	-6.780	16566	18806	0	756
-5.013	-6.852	16593	19208	0	756
-6.599	-7.934	16615	19223	0	756
-7.321	-6.888	16624	18621	0	756
-4.364	-7.248	16638	17788	0	756
-1.911	-4.147	16653	17387	0	756
1.082	-1.911	16671	17479	0	756
1.406	-1.983	16694	17572	0	756
-3.570	-6.311	16716	17603	0	756
-7.609	-13.018	16746	17788	0	756
-12.045	-14.100	16770	18127	0	756
-10.458	-11.792	16804	18544	0	756
-5.662	-3.354	16838	18945	0	756
-0.793	5.085	16867	19285	0	756
0.144	7.321	16901	19439	0	756
-4.940	3.606	16926	19470	0	756
-10.602	-4.832	16953	19485	0	756
-15.182	-11.107	16980	19408	0	756
-11.432	-11.396	16998	19161	0	756
-8.222	-7.285	17020	18806	0	756
-2.885	-2.128	17036	18359	0	756
-0.108	2.200	17047	17788	0	756
0.072	2.669	17052	17140	0	756
1.046	4.327	17061	16507	0	756
-0.072	5.734	17063	15891	0	756
-1.659	6.708	17054	14996	0	756
-3.750	2.128	17043	13900	0	756
-4.688	-1.370	17031	12912	0	756
-1.442	-2.524	17020	12187	0	756
2.993	2.488	17013	11693	0	756
6.744	8.258	17002	11292	0	756
7.825	10.169	16984	10752	0	756
1.442	3.498	16973	10196	0	756
-7.140	-6.671	16959	9934	0	756
-12.550	-14.064	16950	9965	0	756
-9.881	-12.189	16941	10042	0	756
-2.560	-2.416	16926	9949	1	316
9.376	11.900	16908	9795	0	316
18.392	21.060	16894	9672	0	316
17.166	24.198	16874	9656	0	316
13.920	17.093	16860	9749	0	316
5.842	8.943	16847	9965	0	316
2.092	-0.072	16838	10304	0	316
1.731	-0.433	16829	10767	0	316
8.078	5.626	16827	11323	0	316
17.995	14.569	16822	11971	0	316
25.424	24.198	16813	12557	0	316
29.607	27.083	16813	12974	0	316
28.597	24.558	16806	13375	0	316
23.585	19.582	16802	13915	0	316
19.257	14.245	16804	14455	0	316
19.762	15.615	16802	14903	0	316
20.736	18.247	16795	15273	0	316
23.296	22.286	16800	15628	0	316
25.676	21.601	16800	15999	0	316
22.070	18.969	16802	16384	0	316
18.536	13.523	16800	16692	0	316
16.084	13.199	16795	16800	0	316
14.353	12.874	16791	16708	0	316
14.136	16.120	16779	16584	0	316
15.543	16.552	16788	16769	0	316
14.713	18.247	16804	17634	0	316
15.543	14.858	16824	18837	0	316
15.110	13.740	16840	19578	0	316
17.562	15.182	16845	19609	0	316
17.887	15.759	16845	19346	0	316
20.988	20.519	16845	18992	0	316
21.673	24.162	16836	18606	0	316
23.549	24.919	16829	18143	0	316
21.241	23.476	16815	17417	0	316
20.880	18.969	16793	16461	0	316
20.375	16.985	16773	15582	0	316
17.670	14.172	16755	14888	0	316
17.238	14.569	16734	14347	0	316
12.369	12.622	16710	13761	0	316
10.566	11.432	16678	12959	0	316
10.819	10.855	16653	12218	0	316
12.045	10.566	16626	11801	0	316
13.018	9.953	16608	11709	0	316
13.307	12.261	16593	11817	0	316
9.592	7.862	16577	11955	0	316
7.393	4.364	16563	12218	0	316
8.979	1.515	16554	12665	0	316
10.386	1.767	16554	13329	0	316
10.278	3.606	16552	14101	0	316
11.504	9.376	16552	14718	0	316
10.602	13.127	16545	15104	0	316
8.583	12.081	16543	15366	0	316
10.133	11.576	16536	15659	0	316
12.586	9.304	16532	15891	0	316
12.477	6.563	16507	15644	0	316
9.917	4.291	16473	14687	0	316
9.124	3.390	16435	13406	0	316
8.763	3.859	16401	12604	0	316
10.061	7.212	16380	12418	0	316
12.369	12.730	16358	12403	0	316
15.615	15.507	16335	12434	0	316
12.045	14.821	16315	12526	0	316
9.773	9.989	16288	12526	0	316
5.409	3.498	16259	12202	0	316
-0.829	-0.036	16223	11724	0	316
-4.580	-3.426	16198	11477	0	316
-7.212	-1.010	16166	11477	0	316
-4.832	3.210	16126	11323	0	316
-1.082	8.330	16099	11091	0	316
3.282	10.458	16063	10937	0	316
3.787	7.140	16018	10459	0	316
-4.003	-2.019	15957	9502	0	316
-13.018	-13.451	15908	8746	0	316
-22.358	-19.041	15867	8576	0	316
-23.332	-19.257	15838	9023	0	316
-16.264	-10.638	15815	10057	0	316
-7.717	-2.560	15815	11554	0	316
-3.318	-0.397	15818	13298	0	316
-6.888	-4.688	15831	15119	0	316
-14.930	-14.966	15849	17078	0	316
-23.549	-22.034	15885	19223	0	316
-26.866	-24.955	15917	21291	0	316
-25.748	-24.053	15950	23004	0	316
-25.424	-21.781	15977	24254	0	316
-26.145	-23.224	16002	25134	0	316
-25.243	-28.669	16031	25751	0	316
-27.732	-33.574	16045	25967	0	316
-27.515	-37.721	16056	25689	0	316
-25.784	-41.255	16063	25211	0	316
-23.945	-43.202	16074	24917	0	316
-25.063	-42.661	16092	24809	0	316
-26.253	-41.435	16110	24732	1	364
-27.479	-38.983	16124	24593	0	364
-29.715	-35.810	16142	24346	0	364
-33.718	-33.502	16155	24007	0	364
-35.882	-29.895	16166	23606	0	364
-34.223	-26.794	16182	23235	0	364
-30.184	-22.395	16200	22958	0	364
-22.575	-18.536	16223	22834	0	364
-15.254	-15.723	16245	22834	0	364
-15.398	-15.507	16268	22726	0	364
-19.473	-16.444	16290	22541	0	364
-24.378	-15.507	16306	22279	0	364
-25.604	-16.949	16324	21800	0	364
-22.395	-14.785	16326	21044	0	364
-19.582	-15.651	16326	20010	0	364
-16.697	-17.923	16324	18806	0	364
-20.411	-23.116	16315	17695	0	364
-26.289	-26.578	16313	16738	0	364
-28.777	-26.145	16301	15906	0	364
-27.912	-23.837	16290	15057	0	364
-24.306	-20.050	16268	13977	0	364
-19.762	-14.713	16247	12696	0	364
-16.264	-12.550	16220	11616	0	364
-17.526	-9.448	16202	10937	0	364
-17.093	-6.888	16180	10428	0	364
-18.103	-8.006	16153	9872	0	364
-17.454	-10.746	16130	9239	0	364
-15.831	-14.821	16108	8915	0	364
-14.389	-15.939	16090	9023	0	364
-12.477	-18.139	16079	9363	0	364
-16.264	-17.346	16065	9687	0	364
-20.411	-19.582	16047	9841	0	364
-24.739	-20.087	16022	9810	0	364
-25.027	-20.627	15989	9425	0	364
-21.204	-17.562	15962	8869	0	364
-18.933	-17.093	15928	8715	0	364
-16.408	-16.985	15910	9070	0	364
-18.933	-18.211	15890	9610	0	364
-17.923	-16.625	15883	10335	0	364
-16.372	-14.064	15883	11462	0	364
-11.215	-10.061	15894	12866	0	364
-9.160	-11.540	15896	14116	0	364
-10.638	-15.218	15905	15104	0	364
-13.956	-17.346	15910	16030	0	364
-19.906	-20.916	15928	17078	0	364
-20.627	-19.293	15939	18204	0	364
-22.467	-19.582	15953	19069	0	364
-19.005	-18.860	15964	19686	0	364
-18.680	-15.867	15980	20226	0	364
-16.120	-12.514	15989	20612	0	364
-14.425	-9.556	16000	20766	0	364
-9.448	-6.852	16002	20813	0	364
-5.806	-4.111	16013	20843	0	364
1.587	-0.325	16020	20813	0	364
4.977	4.616	16025	20704	0	364
5.770	6.094	16034	20674	0	364
1.623	2.885	16058	21059	0	364
-5.662	-4.904	16081	21692	0	364
-10.674	-9.665	16088	21708	0	364
-13.776	-10.422	16067	20519	0	364
-9.484	-6.347	16052	18837	0	364
-2.380	1.154	16047	17927	0	364
3.534	8.258	16052	17896	0	364
6.563	9.953	16045	17726	0	364
5.517	9.052	16036	17047	0	364
-0.433	3.101	16020	16184	0	364
-5.590	-4.075	16007	15505	0	364
-8.439	-7.934	16002	15227	0	364
-6.131	-6.167	16000	15273	0	364
0.685	0.252	15991	15212	0	364
7.970	8.943	15984	14780	0	364
15.146	15.435	15973	14455	0	364
12.153	13.487	15968	14486	0	364
7.393	9.124	15973	14641	0	364
0.685	4.544	15966	14888	0	364
-2.236	4.327	15973	15212	0	364
4.003	10.133	15980	15675	0	364
14.749	20.123	15998	16384	0	364
23.404	26.109	16013	17232	0	364
26.109	29.174	16034	18019	0	364
26.073	26.073	16054	18637	0	364
21.024	20.916	16076	19254	0	364
19.942	21.060	16108	20056	0	364
21.529	18.572	16144	21090	0	364
21.313	22.395	16182	22248	0	364
24.125	27.119	16227	23266	0	364
25.279	28.345	16268	24084	0	364
28.128	31.013	16315	24825	0	364
28.345	30.256	16362	25519	0	364
27.479	25.496	16410	26152	0	364
24.486	22.178	16464	26708	0	364
20.159	17.562	16512	27186	0	364
20.123	17.743	16557	27402	0	364
21.060	17.959	16602	27340	0	364
23.080	20.844	16647	27047	0	364
26.470	21.781	16678	26461	0	364
26.037	24.630	16705	25596	0	364
26.578	27.768	16732	24624	1	388
28.814	30.653	16750	23698	0	388
28.381	29.643	16777	22788	0	388
29.823	25.929	16793	21785	0	388
28.273	19.726	16811	20704	0	388
26.325	16.228	16822	19717	0	388
24.414	15.471	16833	18791	0	388
23.729	17.923	16840	17819	0	388
23.080	19.582	16849	16862	0	388
21.709	17.923	16856	16045	0	388
19.293	13.920	16867	15443	0	388
16.300	9.232	16872	14996	0	388
14.930	6.022	16881	14486	0	388
12.117	4.255	16881	13900	0	388
6.383	5.481	16885	13391	0	388
1.659	4.832	16885	13036	0	388
-2.380	4.111	16892	12758	0	388
-0.397	3.570	16890	12434	0	388
4.255	3.931	16892	12202	0	388
11.900	8.114	16901	12141	0	388
16.625	12.766	16896	12156	0	388
14.281	13.884	16896	12110	0	388
14.028	14.749	16901	12002	0	388
10.710	12.946	16896	11925	0	388
9.737	8.330	16901	12002	0	388
10.061	7.645	16905	12357	0	388
8.907	7.934	16914	12866	0	388
8.763	11.143	16923	13190	0	388
7.537	14.785	16919	13314	0	388
8.475	17.634	16926	13483	0	388
10.314	14.389	16937	13869	0	388
9.773	9.556	16946	14425	0	388
9.592	7.681	16953	14795	0	388
9.845	9.701	16941	14564	0	388
8.835	12.946	16928	13807	0	388
8.763	16.769	16917	13314	0	388
7.681	13.740	16912	13298	0	388
5.734	10.025	16903	13283	0	388
6.311	7.068	16892	13144	0	388
8.547	5.626	16881	12989	0	388
11.179	8.727	16872	12804	0	388
12.694	10.674	16856	12573	0	388
9.953	13.415	16840	12403	0	388
5.986	11.179	16829	12341	0	388
2.957	7.537	16811	12310	0	388
0.721	6.131	16788	12033	0	388
4.652	5.373	16766	11570	0	388
8.114	7.212	16748	11354	0	388
10.386	10.927	16728	11462	0	388
9.196	11.756	16714	11662	0	388
2.849	9.088	16701	11925	0	388
-0.361	7.501	16698	12465	0	388
-1.154	8.366	16701	13344	0	388
2.885	9.376	16705	14378	0	388
6.527	10.674	16710	15165	0	388
6.924	8.222	16703	15551	0	388
1.623	3.606	16703	15767	0	388
-5.590	-2.560	16703	16168	0	388
-9.845	-7.429	16705	16661	0	388
-14.785	-8.150	16710	17155	0	388
-14.713	-5.662	16712	17495	0	388
-12.261	-5.157	16710	17587	0	388
-12.405	-5.806	16705	17572	0	388
-13.992	-9.953	16710	17711	0	388
-16.552	-17.238	16716	18096	0	388
-23.332	-25.135	16725	18544	0	388
-29.535	-30.977	16728	18729	0	388
-32.672	-32.492	16721	18498	0	388
-32.312	-29.499	16716	18112	0	388
-29.282	-24.558	16716	17958	0	388
-26.650	-18.752	16721	18096	0	388
-25.604	-18.103	16725	18282	0	388
-27.227	-19.077	16732	18390	0	388
-27.083	-21.457	16734	18421	0	388
-26.289	-24.919	16734	18390	0	388
-25.388	-25.243	16732	18158	0	388
-26.542	-27.624	16728	17850	0	388
-30.905	-31.194	16725	17510	0	388
-36.206	-34.475	16701	16692	0	388
-37.360	-37.036	16671	15351	0	388
-37.577	-37.757	16653	14301	0	388
-36.567	-36.891	16638	14039	0	388
-35.413	-35.377	16635	14255	0	388
-34.331	-34.079	16624	14394	0	388
-30.328	-31.230	16611	14131	0	388
-28.056	-28.237	16588	13591	0	388
-24.847	-26.289	16570	13236	0	388
-24.486	-22.467	16559	13159	0	388
-20.916	-22.827	16543	13175	0	388
-19.329	-23.440	16534	13190	0	388
-17.779	-23.152	16518	13267	0	388
-19.690	-23.837	16509	13437	0	388
-24.558	-23.152	16503	13761	0	388
-29.210	-21.601	16498	14270	0	388
-28.994	-21.998	16496	14687	0	388
-23.981	-19.221	16489	14872	0	388
-17.310	-17.129	16485	15104	0	388
-11.756	-13.199	16476	15273	0	388
-10.350	-10.602	16462	15134	0	388
-12.225	-9.340	16446	14903	0	388
-15.218	-11.143	16431	14718	0	388
-19.798	-15.903	16419	14625	0	388
-20.664	-17.526	16406	14656	0	388
-21.493	-21.204	16399	14888	0	388
-19.041	-19.257	16395	15212	0	388
-18.392	-17.670	16388	15474	0	388
-15.074	-11.179	16382	15628	0	388
-15.543	-7.393	16373	15721	0	388
-13.054	-6.022	16369	15814	0	388
-15.651	-9.340	16362	16014	0	388
-17.202	-15.038	16355	16184	0	388
-19.257	-21.709	16351	16261	0	388
-19.401	-21.024	16355	16476	0	388
-18.139	-17.526	16358	17032	0	388
-13.992	-11.035	16362	17664	0	388
-12.766	-8.294	16360	17865	0	388
-10.783	-7.825	16340	17217	0	388
-7.862	-7.862	16315	16107	0	388
-5.409	-7.357	16292	15320	0	388
-3.390	-7.357	16279	14980	0	388
-4.868	-7.501	16259	14749	0	388
-7.248	-8.439	16243	14548	0	388
-7.393	-8.511	16225	14455	0	388
-4.003	-7.032	16214	14425	0	388
1.010	-4.940	16200	14409	0	388
4.724	-4.796	16191	14533	0	388
3.390	-6.167	16182	14795	0	388
0.829	-6.419	16175	14949	0	388
-3.282	-6.599	16155	14749	0	388
-6.455	-4.400	16135	14301	0	388
-8.439	-4.147	16115	14101	0	388
-9.124	-3.714	16108	14239	0	388
-5.950	-2.056	16092	14425	0	388
-2.705	-1.442	16074	14363	0	388
0.108	-3.426	16056	14147	0	388
-0.865	-5.590	16043	14209	0	388
-4.688	-8.258	16043	14656	0	388
-4.255	-7.068	16045	15443	0	388
-0.974	-4.327	16054	16292	0	388
6.527	0.938	16056	16970	0	388
11.396	3.065	16067	17711	0	388
9.412	1.334	16081	18606	0	388
2.200	-2.019	16099	19408	0	388
-4.364	-3.714	16112	19979	0	388
-7.465	-5.445	16124	20334	0	388
-3.101	-3.462	16137	20612	0	388
6.780	3.606	16155	20998	0	388
16.552	10.025	16171	21507	0	388
23.585	17.851	16189	21831	0	388
24.847	18.464	16198	21723	0	388
18.139	16.192	16209	21399	0	388
11.396	9.989	16220	21245	0	388
5.121	5.445	16232	21229	0	388
5.590	7.501	16243	21137	0	388
10.783	15.435	16250	20813	0	388
22.250	22.899	16243	20087	0	388
31.410	31.302	16223	18698	0	388
39.199	35.954	16193	16924	0	388
39.885	38.803	16175	15613	0	388
40.462	39.524	16155	14795	0	388
37.865	39.596	16137	14162	0	388
38.262	41.039	16121	13715	0	388
41.003	41.796	16115	13560	0	388
42.806	40.786	16108	13607	0	388
42.950	41.507	16103	13730	0	388
42.697	39.272	16101	13869	0	388
39.596	36.639	16103	14147	0	388
34.944	33.321	16101	14533	0	388
27.479	28.525	16103	14888	0	388
19.978	22.106	16103	15150	0	388
16.156	14.533	16110	15412	0	388
15.218	13.956	16108	15628	0	388
19.834	15.110	16101	15567	0	388
20.664	18.464	16090	15212	0	388
22.539	21.781	16081	14872	0	388
21.890	24.414	16070	14702	0	388
20.447	23.008	16056	14455	0	388
21.890	22.178	16031	13884	0	388
22.972	21.277	16007	13128	0	388
20.014	15.975	15984	12604	0	388
20.303	12.694	15973	12511	0	388
18.392	9.520	15955	12696	0	388
20.014	8.691	15946	12974	0	388
18.428	9.917	15944	13314	0	388
17.490	12.441	15941	13915	0	388
12.838	11.720	15950	14780	0	388
9.448	11.035	15955	15659	0	388
6.635	9.556	15964	16384	0	388
7.032	6.996	15975	16924	0	388
9.052	8.006	15975	17371	0	388
12.622	10.746	15986	17834	0	388
15.074	14.821	16002	18498	0	388
20.483	18.788	16020	19238	0	388
19.870	22.935	16034	19732	0	388
20.123	21.277	16043	19964	0	388
16.661	18.464	16056	20149	0	388
14.425	13.740	16067	20319	0	388
13.848	10.674	16074	20272	0	388
14.353	8.943	16081	20056	0	388
15.759	9.160	16088	19933	0	388
12.586	9.448	16099	19948	0	388
11.720	10.278	16110	19948	0	388
10.855	10.025	16119	19887	0	388
11.179	9.484	16126	19701	0	388
16.733	10.674	16133	19362	0	388
17.634	7.140	16130	18945	0	388
15.939	6.311	16133	18498	0	388
10.494	4.904	16142	18220	0	388
4.724	5.337	16160	18575	0	388
1.515	7.212	16182	19377	0	388
1.479	8.943	16209	19917	0	388
4.652	8.727	16220	19856	0	388
7.681	5.698	16225	19362	0	388
9.484	5.770	16225	18760	0	388
9.376	7.609	16236	18421	0	388
11.035	12.333	16247	18390	0	388
12.910	17.093	16259	18359	0	388
13.704	18.933	16261	18143	0	388
16.480	16.625	16272	17958	0	388
15.038	14.317	16290	18004	0	388
12.045	10.963	16310	18297	0	388
11.143	10.602	16326	18637	0	388
10.206	9.989	16346	18837	0	388
12.658	11.143	16369	19007	0	388
16.228	13.559	16388	19269	0	388
17.526	14.677	16408	19424	0	388
17.202	13.127	16419	19238	0	388
13.415	12.441	16428	18853	0	388
7.717	10.494	16444	18606	0	388
7.321	6.924	16464	18683	0	388
6.275	6.419	16487	19069	1	920
7.501	7.970	16514	19516	0	920
8.402	10.061	16541	19748	0	920
8.583	10.891	16566	19779	0	920
5.914	12.658	16577	19578	0	920
4.796	10.242	16577	18806	0	920
3.750	4.977	16570	17680	0	920
4.472	1.695	16563	16584	0	920
3.173	-0.505	16545	15351	0	920
2.777	-2.164	16521	13900	0	920
1.839	-2.596	16512	12928	0	920
-0.902	-2.416	16507	12727	0	920
-1.298	-2.128	16507	12912	0	920
-1.370	0.649	16518	13267	0	920
-1.082	-0.541	16525	13746	0	920
-0.974	-0.397	16541	14270	0	920
-4.075	-4.327	16559	15042	0	920
-7.032	-11.287	16604	16430	0	920
-12.658	-18.320	16647	18282	0	920
-16.552	-23.332	16694	19887	0	920
-22.467	-28.345	16739	20982	0	920
-26.578	-30.725	16779	21785	0	920
-29.282	-32.095	16811	22294	0	920
-32.420	-33.393	16847	22510	0	920
-35.413	-35.377	16872	22525	0	920
-37.036	-35.449	16892	22171	0	920
-39.812	-36.026	16901	21353	0	920
-40.786	-35.088	16912	20519	0	920
-40.858	-36.603	16930	20010	0	920
-41.111	-38.118	16946	19794	0	920
-42.878	-41.904	16962	19547	0	920
-45.618	-46.772	16971	18992	0	920
-48.395	-49.116	16973	18235	0	920
-49.513	-48.720	16982	17464	0	920
-46.628	-45.258	16975	16692	0	920
-41.075	-36.819	16973	15937	0	920
-35.305	-29.427	16968	15104	0	920
-28.309	-25.352	16957	14239	0	920
-26.289	-24.342	16941	13391	0	920
-27.155	-26.217	16930	12588	0	920
-28.561	-28.092	16908	11817	0	920
-30.040	-29.823	16892	11060	0	920
-29.174	-27.407	16874	10459	0	920
-25.171	-27.191	16858	10119	0	920
-21.890	-23.116	16849	10073	0	920
-18.752	-22.286	16836	10165	0	920
-16.048	-21.060	16815	10088	0	920
-17.274	-17.634	16795	9810	0	920
-20.050	-19.690	16779	9625	0	920
-26.902	-20.087	16761	9718	0	920
-30.833	-22.286	16750	9980	0	920
-32.203	-24.017	16734	10165	0	920
-27.804	-23.729	16716	10273	0	920
-21.926	-22.683	16703	10505	0	920
-17.815	-18.716	16692	10922	0	920
-18.788	-18.356	16678	11338	0	920
-22.647	-17.274	16667	11616	0	920
-24.089	-15.723	16653	11755	0	920
-23.512	-12.550	16626	11755	0	920
-21.529	-11.576	16599	11493	0	920
-15.975	-10.746	16568	11091	0	920
-12.514	-8.583	16541	10860	0	920
-10.494	-6.383	16518	10937	0	920
-7.898	-5.914	16489	11076	0	920
-11.179	-6.203	16464	11045	0	920
-13.920	-10.314	16435	10968	0	920
-17.526	-13.235	16413	11153	0	920
-22.575	-16.408	16397	11662	0	920
-22.034	-15.326	16384	12388	0	920
-20.591	-14.028	16373	13082	0	920
-16.192	-12.838	16360	13560	0	920
-11.251	-9.881	16346	13900	0	920
-7.357	-8.763	16326	14147	0	920
-8.691	-8.763	16310	14286	0	920
-14.245	-11.323	16295	14471	0	920
-20.087	-18.175	16279	14826	0	920
-23.296	-18.428	16272	15320	0	920
-23.440	-17.887	16272	15999	0	920
-16.336	-12.946	16270	16816	0	920
-13.199	-7.248	16272	17618	1	316
-9.124	-7.501	16281	18313	0	316
-7.357	-8.475	16288	19007	0	316
-6.455	-9.412	16301	19825	0	316
-7.645	-8.943	16324	20674	0	316
-10.025	-7.285	16335	21384	0	316
-13.992	-8.330	16346	21862	0	316
-15.507	-11.323	16362	22155	0	316
-11.107	-10.746	16378	22402	0	316
-1.334	-9.052	16395	22742	0	316
6.491	-2.633	16417	23204	0	316
8.871	1.370	16442	23745	0	316
5.626	1.046	16464	24115	0	316
0.938	-1.731	16487	24161	0	316
-1.082	-4.616	16507	23992	0	316
2.019	-4.760	16518	23714	0	316
4.544	-2.741	16530	23220	0	316
10.422	2.236	16532	22479	0	316
13.451	8.583	16534	21600	0	316
14.100	12.910	16534	20735	0	316
14.208	14.605	16543	20087	0	316
8.114	10.855	16559	20010	0	316
3.101	5.770	16581	20380	0	316
3.065	4.183	16593	20427	0	316
7.212	7.429	16599	19840	0	316
20.014	17.274	16593	18760	0	316
30.004	28.814	16570	17340	0	316
38.803	37.721	16557	16014	0	316
42.734	43.527	16543	14965	0	316
43.527	46.232	16518	13915	0	316
41.796	46.087	16487	12696	0	316
40.209	45.150	16455	11446	0	316
39.380	41.399	16419	10212	0	316
39.488	37.252	16384	9147	0	316
39.127	32.997	16355	8483	0	316
36.206	27.912	16328	8252	0	316
34.583	26.938	16310	8391	0	316
27.768	24.594	16306	8993	0	316
22.034	25.316	16301	9949	0	316
21.890	24.919	16299	10906	0	316
21.673	25.388	16292	11631	0	316
25.604	26.686	16301	12357	0	316
29.859	26.361	16301	13329	0	316
29.282	24.522	16317	14486	0	316
25.388	21.890	16333	15721	0	316
18.969	19.257	16351	16846	0	316
15.687	15.110	16373	17819	0	316
14.100	15.939	16388	18729	0	316
19.185	15.831	16408	19609	0	316
23.260	19.149	16433	20380	0	316
26.722	22.178	16444	20735	0	316
27.010	26.686	16440	20319	0	316
22.647	29.499	16431	19316	0	316
18.500	27.443	16424	18621	0	316
13.668	21.818	16422	18467	0	316
13.523	17.418	16424	18343	0	316
13.812	15.074	16424	18096	0	316
17.815	17.887	16422	17865	0	316
19.690	19.654	16422	17664	0	316
20.916	22.972	16424	17525	0	316
19.654	20.736	16440	17772	0	316
18.752	19.185	16455	18451	0	316
13.776	17.815	16473	18961	0	316
12.550	19.005	16469	18729	0	316
11.973	17.959	16464	17927	0	316
15.507	19.978	16453	17186	0	316
21.709	24.522	16451	16738	0	316
26.289	25.099	16440	16292	0	316
27.119	26.073	16419	15489	0	316
23.044	24.811	16397	14486	0	316
20.411	21.024	16382	13761	0	316
16.228	17.923	16371	13468	0	316
15.110	17.706	16360	13468	0	316
14.208	14.930	16349	13437	0	316
12.045	14.100	16337	13267	0	316
13.595	16.012	16328	13283	0	316
15.903	18.428	16328	13560	0	316
22.611	24.883	16324	13915	0	316
25.965	30.076	16324	14255	0	316
27.407	31.626	16317	14502	1	316
28.092	31.122	16315	14764	0	316
28.850	29.030	16324	15150	0	316
27.227	28.201	16326	15690	0	316
27.948	29.535	16333	16246	0	316
23.404	28.309	16337	16646	0	316
18.897	22.755	16344	16939	0	316
12.117	15.903	16349	17294	0	316
7.465	9.737	16360	17726	0	316
4.436	8.330	16369	18019	0	316
2.633	11.576	16360	17865	0	316
3.606	11.792	16337	16954	0	316
4.940	13.668	16306	15551	0	316
8.294	12.441	16283	14455	0	316
10.242	13.812	16268	13962	0	316
13.668	18.536	16245	13653	0	316
16.228	21.601	16232	13391	0	316
18.897	24.342	16211	13252	0	316
21.998	28.056	16202	13283	0	316
25.820	29.895	16191	13499	0	316
29.499	30.292	16193	13962	0	316
29.030	29.318	16193	14502	0	316
24.811	23.224	16182	14810	0	316
21.132	19.834	16169	14656	0	316
16.913	16.985	16155	14286	0	316
18.356	20.303	16135	14039	0	316
18.536	22.322	16119	13869	0	316
19.654	24.017	16092	13483	0	316
15.579	21.745	16065	12928	0	316
16.697	16.733	16040	12526	0	316
12.586	14.353	16020	12449	0	316
13.848	13.704	16009	12696	0	316
12.838	18.103	16000	13190	0	316
13.812	22.575	15986	13622	0	316
17.382	24.630	15973	13792	0	316
19.582	23.621	15962	13915	0	316
19.257	20.159	15950	14209	0	316
16.012	13.956	15946	14718	0	316
8.402	11.540	15941	15196	0	316
1.695	7.934	15930	15443	0	316
-1.911	4.652	15930	15814	0	316
-2.236	4.291	15932	16492	0	316
-1.695	4.616	15939	17217	0	316
1.479	6.671	15944	17726	0	316
5.013	10.314	15939	17927	0	316
7.681	12.910	15941	18081	0	316
8.222	14.425	15946	18482	0	316
10.422	12.658	15966	19254	0	316
8.979	10.566	15984	20180	0	316
7.429	8.871	16009	20936	0	316
4.616	5.409	16022	21476	0	316
0.865	1.767	16045	21862	0	316
0.721	1.226	16063	22124	0	316
-0.793	0.649	16079	22279	0	316
-1.551	0.974	16088	22186	0	316
-5.085	1.551	16079	21414	0	316
-7.465	1.406	16070	20257	0	316
-10.242	-0.072	16074	19593	0	316
-9.701	-1.046	16081	19563	0	316
-8.547	-0.938	16090	19578	0	316
-9.701	-3.101	16099	19485	0	316
-12.514	-5.121	16115	19516	0	316
-11.864	-7.537	16133	19717	0	316
-13.920	-9.160	16157	20118	0	316
-15.182	-12.333	16198	21013	0	316
-21.349	-17.923	16247	22371	0	316
-26.361	-22.467	16288	23451	0	316
-30.184	-26.578	16315	23683	0	316
-29.823	-29.535	16344	23421	0	316
-28.994	-30.472	16371	23174	0	316
-30.004	-33.105	16390	23112	0	316
-33.429	-36.387	16419	22958	0	316
-36.783	-38.622	16433	22356	0	316
-38.478	-37.468	16440	21353	0	316
-37.144	-35.846	16453	20473	0	316
-36.855	-33.610	16473	20103	0	316
-34.800	-31.771	16491	20087	0	316
-34.079	-30.472	16518	20072	0	316
-34.547	-28.814	16541	19887	0	316
-32.023	-28.669	16568	19794	0	316
-31.735	-28.777	16593	19933	0	316
-31.590	-30.869	16624	20134	0	316
-31.699	-32.780	16656	20211	0	316
-32.708	-33.285	16680	20103	0	316
-33.682	-31.085	16701	19902	0	316
-30.184	-26.938	16728	19763	0	316
-26.686	-22.575	16759	19748	0	316
-25.063	-22.322	16782	19686	0	316
-23.332	-25.135	16804	19393	0	316
-26.433	-25.388	16818	18945	0	316
-29.751	-25.784	16840	18513	0	316
-28.597	-21.781	16858	18235	0	316
-26.361	-15.398	16878	18050	0	316
-22.358	-13.199	16892	17772	0	316
-18.933	-13.704	16905	17371	0	316
-18.608	-17.129	16919	16985	0	316
-23.801	-21.601	16939	16816	0	316
-25.027	-24.198	16959	16908	0	316
-22.719	-22.322	16982	16924	0	316
-19.221	-19.654	16980	16384	0	316
-11.756	-15.867	16971	15227	0	316
-11.900	-17.454	16964	14101	0	316
-16.949	-21.024	16953	13344	0	316
-22.791	-25.929	16946	12727	0	316
-27.335	-27.515	16939	12156	0	316
-28.309	-27.083	16919	11508	0	316
-26.109	-24.955	16896	10659	0	316
-24.378	-26.181	16881	9795	0	316
-23.909	-27.479	16872	9564	0	316
-26.001	-29.607	16872	10042	0	316
-24.414	-27.912	16863	10505	0	316
-21.204	-21.781	16851	10459	0	316
-17.562	-16.084	16833	10150	0	316
-10.819	-11.287	16818	9903	0	316
-10.206	-11.143	16804	9888	0	316
-9.016	-13.559	16788	10073	0	316
-9.520	-13.812	16773	10212	0	316
-6.599	-13.199	16755	10150	0	316
-4.255	-10.061	16737	10165	0	316
-1.298	-6.527	16725	10443	0	316
-1.839	-5.734	16716	10983	0	316
-3.859	-8.078	16710	11554	0	316
-8.402	-11.432	16701	11971	0	316
-9.953	-14.785	16689	12310	0	316
-12.766	-19.473	16683	12727	0	316
-13.668	-19.077	16678	13298	0	316
-11.648	-19.690	16669	13776	0	316
-11.107	-18.067	16653	13823	0	316
-11.504	-18.644	16635	13576	0	316
-11.720	-17.706	16626	13653	0	316
-12.441	-19.221	16622	14270	0	316
-11.504	-17.021	16624	15119	0	316
-7.212	-13.235	16626	15844	0	316
-3.895	-6.022	16638	16492	0	316
-1.767	-2.669	16638	17093	0	316
-1.082	-1.515	16642	17479	0	316
-1.695	-4.760	16638	17603	0	316
-2.272	-9.592	16642	17803	0	316
-0.757	-10.422	16649	18204	0	316
-1.298	-7.176	16649	18559	0	316
-2.380	-4.688	16658	18868	0	316
-3.931	-3.787	16669	19208	0	316
-6.094	-6.275	16676	19454	0	316
-8.943	-11.792	16680	19547	0	316
-8.475	-13.271	16687	19547	0	316
-8.547	-11.576	16689	19501	0	316
-5.950	-7.645	16701	19593	0	316
-4.832	-4.688	16725	20195	0	316
-6.563	-5.301	16755	21167	0	316
-8.222	-8.330	16773	21723	0	316
-10.061	-12.838	16779	21414	0	316
-9.052	-12.766	16773	20519	0	316
-3.967	-9.809	16770	19578	0	316
1.226	-7.970	16761	18822	0	316
0.829	-8.763	16757	18143	1	616
-5.409	-12.658	16746	17433	0	616
-12.838	-15.218	16737	16754	0	616
-20.591	-15.903	16723	16168	0	616
-17.743	-9.340	16692	14980	0	616
-12.477	-1.803	16642	12866	0	616
-5.445	-0.325	16577	10412	0	616
-1.947	-0.505	16523	8483	0	616
-4.832	-2.560	16476	7449	0	616
-6.347	-4.580	16446	7187	0	616
-6.491	-2.236	16417	7310	0	616
-2.669	2.056	16388	7542	0	616
1.406	7.285	16367	7804	0	616
4.760	10.242	16346	8252	0	616
3.101	10.674	16333	9023	0	616
-3.101	4.832	16335	10212	0	616
-5.878	1.623	16335	11616	0	616
-3.823	0.541	16326	12650	0	616
6.527	6.311	16310	12928	0	616
20.700	19.690	16290	12835	0	616
31.482	30.508	16283	13236	0	616
33.790	36.206	16279	14193	0	616
29.391	34.872	16281	15196	0	616
23.621	27.948	16290	16076	0	616
19.582	24.775	16295	17047	0	616
20.591	21.529	16313	18174	0	616
25.424	25.640	16328	19316	0	616
29.535	31.843	16349	20272	0	616
33.105	36.747	16358	20720	0	616
35.305	38.442	16355	20612	0	616
36.747	38.226	16358	20442	0	616
38.009	36.062	16360	20458	0	616
41.796	34.006	16369	20504	0	616
43.924	35.449	16371	20442	0	616
46.340	36.928	16369	20257	0	616
44.861	36.062	16362	19794	0	616
41.219	32.203	16346	18961	0	616
36.459	26.974	16326	17942	0	616
31.158	23.693	16315	17109	0	616
28.489	21.277	16292	16445	0	616
28.092	21.565	16268	15628	0	616
28.994	22.395	16238	14564	0	616
27.479	18.356	16211	13684	0	616
22.142	15.903	16193	13252	0	616
17.310	11.792	16178	13221	0	616
12.982	10.422	16166	13329	0	616
15.146	14.172	16153	13391	0	616
18.139	18.969	16137	13406	0	616
22.647	25.171	16119	13252	0	616
23.657	24.017	16097	12989	0	616
18.644	21.926	16081	12897	0	616
15.074	16.805	16065	12943	0	616
11.576	12.081	16052	13082	0	616
10.891	13.595	16043	13437	0	616
15.254	15.975	16045	14101	0	616
18.716	15.975	16043	14872	0	616
22.647	15.435	16045	15582	0	616
19.365	10.566	16054	16384	0	616
16.769	7.970	16070	17448	0	616
11.179	8.222	16092	18606	0	616
8.871	9.881	16110	19640	0	616
6.816	11.756	16133	20365	0	616
2.705	9.953	16153	20874	0	616
-0.541	5.770	16169	21337	0	616
-2.741	1.983	16189	21893	0	616
-0.865	2.669	16216	22417	0	616
5.445	5.265	16223	22448	0	616
10.278	6.924	16220	21646	0	616
13.956	8.222	16205	20350	0	616
11.576	7.970	16200	19316	0	616
5.085	4.977	16191	18683	0	616
1.010	4.291	16180	18096	0	616
-1.479	4.436	16178	17572	0	616
1.983	4.760	16169	17063	0	616
7.465	4.616	16148	16292	0	616
12.225	6.491	16142	15489	0	616
8.799	4.724	16146	15489	0	616
3.606	3.354	16164	16323	0	616
-2.128	2.560	16169	17016	0	616
-3.678	2.524	16169	17001	1	316
-2.596	3.101	16166	16538	0	316
0.613	3.137	16157	16122	0	316
2.777	3.750	16157	15922	0	316
4.364	2.741	16153	15783	0	316
3.895	1.334	16135	15381	0	316
1.046	-0.829	16119	14656	0	316
-5.409	-4.760	16108	14101	0	316
-9.376	-7.140	16097	13962	0	316
-9.088	-9.412	16097	14162	0	316
-6.491	-7.825	16097	14517	0	316
-1.659	-5.337	16097	14857	0	316
-1.226	-4.400	16099	15104	0	316
-5.481	-7.862	16097	15335	0	316
-10.710	-13.271	16099	15628	0	316
-14.749	-18.788	16097	15814	0	316
-19.005	-25.063	16099	15891	0	316
-20.014	-27.083	16099	15968	0	316
-23.873	-27.515	16099	16138	0	316
-27.083	-28.164	16103	16461	0	316
-31.230	-29.823	16112	16862	0	316
-32.961	-28.309	16115	17078	0	316
-33.105	-28.164	16115	17078	0	316
-28.128	-25.424	16119	17171	0	316
-24.125	-22.611	16133	17495	0	316
-19.618	-22.431	16137	17865	0	316
-20.267	-21.277	16144	17958	0	316
-21.421	-24.450	16137	17757	0	316
-23.044	-27.263	16144	17525	0	316
-25.316	-26.974	16144	17417	0	316
-24.089	-27.047	16144	17340	0	316
-22.503	-26.361	16142	17171	0	316
-23.440	-23.296	16137	16970	0	316
-23.440	-19.870	16142	16816	0	316
-23.693	-19.077	16135	16600	0	316
-25.748	-15.579	16137	16414	0	316
-25.640	-16.048	16153	16877	0	316
-25.171	-15.543	16180	17942	0	316
-26.181	-20.050	16193	18714	0	316
-27.407	-22.322	16193	18637	0	316
-29.643	-24.125	16198	18096	0	316
-27.912	-22.791	16198	17680	0	316
-23.621	-16.733	16202	17541	0	316
-17.093	-9.809	16209	17587	0	316
-9.160	-5.085	16214	17726	0	316
-4.760	-4.796	16232	17958	0	316
-6.239	-8.943	16247	18482	0	316
-10.169	-14.100	16261	18945	0	316
-14.064	-16.264	16259	18482	0	316
-17.382	-13.848	16232	17047	0	316
-18.716	-9.484	16214	15628	0	316
-15.326	-5.121	16193	14780	0	316
-15.398	-2.128	16191	14455	0	316
-13.812	-2.236	16191	14564	0	316
-12.766	-1.479	16191	14918	0	316
-9.052	2.416	16200	15273	0	316
-5.986	5.734	16202	15551	0	316
-4.544	6.094	16202	15520	0	316
-8.330	2.128	16198	15273	0	316
-14.100	-3.895	16202	15351	0	316
-16.589	-8.258	16211	15814	0	316
-17.887	-6.383	16223	16414	0	316
-12.189	-0.469	16250	17279	0	316
-8.114	6.239	16281	18498	0	316
-6.094	9.196	16324	19948	0	316
-5.085	5.626	16369	21414	0	316
-6.527	-1.262	16413	22726	0	316
-9.088	-6.599	16462	23775	0	316
-12.874	-7.970	16503	24578	0	316
-13.199	-5.517	16552	25164	0	316
-6.996	2.344	16588	25458	0	316
-0.108	9.592	16620	25427	0	316
10.530	13.992	16658	25242	0	316
13.884	15.831	16689	25025	0	316
8.583	13.848	16721	24763	0	316
0.469	6.816	16739	24223	0	316
-8.619	0.433	16755	23158	0	316
-14.966	-4.652	16755	21630	0	316
-9.881	-2.452	16743	19856	0	316
-0.793	5.806	16734	18143	1	316
14.208	16.048	16725	16708	0	316
22.863	25.207	16721	15659	0	316
24.558	27.083	16716	14903	0	316
15.903	19.942	16712	14347	0	316
6.780	11.900	16714	13915	0	316
-1.226	1.983	16723	13807	0	316
-2.019	0.397	16734	14054	0	316
3.570	4.147	16746	14394	0	316
10.025	12.153	16757	14455	0	316
15.002	19.510	16755	14147	0	316
20.411	21.926	16757	13823	0	316
19.942	18.897	16761	13776	0	316
21.060	17.274	16768	13977	0	316
20.411	16.156	16782	14317	0	316
20.519	19.005	16791	14641	0	316
22.935	22.827	16806	14996	0	316
22.863	26.938	16818	15474	0	316
24.162	25.316	16845	16014	0	316
26.181	23.404	16856	16445	0	316
27.119	24.486	16872	16723	0	316
28.669	24.666	16883	16816	0	316
28.164	24.919	16894	16908	0	316
27.155	22.106	16912	17140	0	316
19.654	18.175	16930	17525	0	316
16.516	12.153	16950	17803	0	316
11.864	10.746	16957	17788	0	316
10.927	13.884	16964	17587	0	316
9.268	15.867	16975	17433	0	316
7.176	16.805	16986	17433	0	316
6.455	14.605	16993	17356	0	316
5.734	11.900	16982	16708	0	316
9.917	12.297	16971	15474	0	316
13.451	14.028	16950	14394	0	316
21.457	19.690	16937	13746	0	316
24.811	22.467	16923	13205	0	316
26.037	26.433	16912	12712	0	316
26.866	23.549	16894	12357	0	316
22.214	24.775	16883	12094	0	316
16.697	25.712	16869	11878	0	316
15.867	27.551	16860	11770	0	316
16.589	27.047	16847	11832	0	316
20.087	27.047	16836	11847	0	316
21.745	25.388	16806	11462	0	316
23.332	25.063	16791	10922	0	316
21.132	25.171	16779	10968	0	316
20.916	25.712	16782	11786	0	316
16.625	23.801	16777	12681	0	316
16.913	17.418	16777	13128	0	316
11.973	14.785	16761	13190	0	316
10.746	12.369	16748	13128	0	316
11.215	15.074	16737	13175	0	316
12.982	18.572	16725	13344	0	316
16.552	27.407	16710	13406	0	316
17.346	31.013	16689	13205	0	316
18.897	33.862	16671	12989	0	316
16.408	33.393	16656	13005	0	316
14.281	31.266	16644	13190	0	316
11.143	27.660	16624	13314	0	316
8.727	25.316	16608	13221	0	316
10.819	23.909	16579	12974	0	316
12.333	23.368	16545	12403	0	316
11.900	25.279	16518	11755	0	316
10.242	23.873	16489	11539	0	316
4.760	20.772	16462	11631	0	316
0.721	19.762	16444	11817	0	316
3.318	18.644	16431	12310	0	316
9.953	24.125	16431	13236	0	316
19.005	29.895	16433	14363	0	316
21.421	32.167	16433	15366	0	316
20.303	31.230	16440	16261	0	316
12.838	26.758	16446	17109	0	316
3.714	22.395	16458	17973	0	316
0.865	23.404	16469	18822	0	316
1.118	23.368	16476	19485	0	316
5.013	24.739	16489	19948	0	316
9.917	25.965	16491	20180	0	316
11.251	22.034	16487	20134	0	316
9.809	19.185	16489	19902	0	316
6.022	17.057	16480	19563	0	316
2.128	15.038	16469	18976	0	316
0.721	14.533	16446	18143	0	316
4.219	18.824	16428	17201	0	316
8.979	18.139	16401	16338	0	316
14.533	20.195	16386	15736	0	316
16.336	21.745	16373	15489	0	316
14.533	22.070	16367	15443	0	316
13.199	25.784	16355	15474	0	316
14.281	30.508	16351	15597	0	316
17.021	31.915	16358	15983	0	316
18.356	29.787	16371	16769	0	316
11.900	25.027	16382	17726	0	316
7.248	20.555	16390	18421	0	316
2.596	15.795	16397	18698	0	316
3.390	16.913	16406	18791	0	316
11.540	15.398	16413	18945	0	316
15.218	15.687	16419	19053	0	316
18.536	12.874	16413	18868	0	316
14.966	13.559	16408	18374	0	316
13.559	14.425	16401	17880	0	316
11.143	15.903	16401	17618	0	316
10.133	15.471	16401	17587	0	316
10.819	12.622	16406	17634	0	316
10.494	10.891	16399	17510	0	316
11.071	10.674	16397	17217	0	316
11.323	9.845	16395	16939	0	316
9.917	10.242	16397	16893	0	316
8.763	7.068	16399	17063	0	316
7.862	3.750	16399	17140	0	316
7.609	3.787	16399	17016	0	316
9.088	7.934	16399	16862	0	316
11.251	10.891	16401	16800	0	316
12.261	12.153	16406	16877	0	316
8.943	8.330	16399	16862	0	316
1.515	3.498	16386	16323	0	316
-4.003	0.108	16367	15335	0	316
-6.924	-0.613	16351	14564	0	316
-4.364	1.767	16337	14209	0	316
0.613	3.354	16326	13977	0	316
4.003	3.714	16310	13761	0	316
2.741	1.659	16295	13560	0	316
-2.560	-1.515	16279	13252	0	316
-6.708	-3.029	16256	12820	0	316
-8.042	-4.868	16250	12789	0	316
-10.097	-7.681	16254	13422	0	316
-10.025	-10.169	16243	13962	0	316
-10.494	-10.169	16223	13761	0	316
-11.648	-10.674	16202	13221	0	316
-17.129	-11.684	16202	13283	0	316
-20.050	-11.973	16202	14101	0	316
-24.089	-16.048	16209	15042	0	316
-22.431	-19.005	16209	15551	0	316
-17.851	-19.329	16200	15659	0	316
-14.858	-17.238	16198	15675	0	316
-13.776	-17.815	16189	15814	0	316
-20.664	-18.175	16189	15983	0	316
-23.549	-21.781	16178	15937	0	316
-27.804	-23.549	16157	15597	0	316
-28.705	-25.929	16153	15335	0	316
-27.551	-28.561	16144	15381	0	316
-28.922	-28.850	16137	15597	0	316
-32.672	-30.076	16124	15705	0	316
-35.485	-30.869	16119	15582	0	316
-38.767	-31.807	16103	15397	0	316
-40.894	-34.187	16099	15412	0	316
-42.589	-36.531	16099	15752	0	316
-41.003	-38.875	16101	16323	0	316
-39.812	-37.252	16108	16785	0	316
-37.180	-33.754	16103	17063	0	316
-34.079	-30.076	16101	17186	0	316
-31.879	-26.506	16103	17279	0	316
-31.951	-26.902	16108	17433	0	316
-34.475	-28.345	16103	17541	0	316
-33.538	-29.210	16103	17556	0	316
-30.977	-26.433	16103	17618	0	316
-21.024	-19.077	16108	17757	0	316
-13.992	-12.153	16108	17896	0	316
-9.881	-9.268	16103	17896	0	316
-12.405	-11.828	16110	17819	0	316
-20.159	-16.733	16110	17757	0	316
-26.470	-23.945	16108	17711	0	316
-26.253	-24.666	16112	17803	0	316
-25.856	-21.673	16133	18297	0	316
-22.827	-20.195	16137	18884	0	316
-21.024	-16.192	16144	18853	0	316
-23.224	-18.139	16133	18189	0	316
-25.460	-19.005	16124	17433	0	316
-26.758	-21.601	16124	17093	0	316
-28.237	-21.060	16126	17279	0	316
-27.479	-20.267	16133	17541	0	316
-24.522	-17.743	16130	17387	0	316
-21.060	-16.264	16121	16877	0	316
-18.211	-12.153	16112	16307	0	316
-12.802	-11.251	16101	15860	0	316
-9.016	-7.285	16090	15474	0	316
-4.904	-5.878	16074	14949	0	316
0.397	-2.777	16052	14147	0	316
2.380	0.108	16029	13422	0	316
2.633	2.813	16011	13067	0	316
1.406	3.823	16002	13067	0	316
0.288	3.065	15989	13175	0	316
0.938	2.344	15986	13283	0	316
3.498	3.642	15975	13483	0	316
9.016	7.898	15977	13946	0	316
14.172	15.831	15984	14687	0	316
18.139	23.693	15998	15582	0	316
19.437	24.162	16007	16414	0	316
18.788	23.873	16022	17248	0	316
18.933	21.601	16045	18204	0	316
18.175	20.483	16074	19254	0	316
23.801	23.837	16099	20226	0	316
27.263	29.643	16124	20951	0	316
30.436	32.348	16142	21399	0	316
30.148	32.312	16166	21661	0	316
29.787	29.463	16189	21862	0	316
27.876	25.568	16211	22186	0	316
24.306	23.585	16238	22556	0	316
22.899	22.286	16254	22587	0	316
22.322	23.585	16268	22140	0	316
22.972	25.532	16283	21646	0	316
24.414	26.650	16295	21384	0	316
26.253	25.316	16313	21260	0	316
24.270	25.568	16337	21260	1	808
23.801	27.371	16362	21384	0	808
25.027	30.941	16384	21507	0	808
28.345	33.610	16401	21476	0	808
28.561	36.278	16424	21260	0	808
28.345	34.511	16442	20843	0	808
26.217	31.590	16451	20288	0	808
27.191	27.876	16458	19593	0	808
25.640	26.974	16458	18806	0	808
27.083	25.640	16473	18220	0	808
26.325	24.270	16485	17958	0	808
25.207	24.270	16496	17788	0	808
23.693	25.171	16498	17433	0	808
23.549	26.073	16507	16954	0	808
24.666	25.496	16521	16738	0	808
21.745	22.106	16541	16877	0	808
19.113	18.716	16557	17201	0	808
15.398	12.117	16581	17541	0	808
9.376	11.396	16599	17819	0	808
6.924	14.894	16631	18204	0	808
8.042	19.221	16658	18729	0	808
12.550	23.765	16692	19269	0	808
15.795	23.909	16723	19701	0	808
18.716	19.906	16750	19948	0	808
16.552	17.743	16779	20118	0	808
15.435	15.398	16813	20411	0	808
13.884	18.752	16849	20905	0	808
12.694	21.457	16892	21461	0	808
15.759	24.125	16928	21877	0	808
16.552	21.385	16959	21924	0	808
17.346	14.749	16980	21414	0	808
14.028	8.907	16993	20596	0	808
6.852	3.534	17013	19995	0	808
3.210	3.390	17038	19686	0	808
0.974	4.219	17054	19454	0	808
2.344	5.481	17076	19146	0	808
5.157	3.137	17094	18760	0	808
4.472	-0.757	17114	18467	0	808
2.416	-2.164	17141	18436	0	808
0.757	-0.577	17155	18251	0	808
4.039	5.193	17153	17402	0	808
7.176	9.989	17141	15891	0	808
9.845	12.982	17126	14209	0	808
9.773	9.917	17105	12804	0	808
5.049	4.940	17094	11817	0	808
1.226	1.983	17074	11030	0	808
-2.488	2.236	17049	10104	0	808
-1.947	8.114	17031	9286	0	808
2.524	13.956	17027	9209	0	808
6.094	14.930	17027	9795	0	808
4.183	13.018	17027	10381	0	808
-0.974	5.554	17025	10736	0	808
-6.491	-0.072	17018	10922	0	808
-9.196	-3.895	17016	11045	0	808
-5.626	-3.029	17013	11276	0	808
-0.685	-2.308	17013	11662	0	808
1.082	-2.741	17013	12141	0	808
-1.226	-4.111	17007	12496	0	808
-5.517	-7.789	17002	12650	0	808
-10.891	-13.740	16998	12851	0	808
-18.572	-19.834	16998	13267	0	808
-25.352	-26.397	16998	13684	0	808
-30.941	-29.246	16995	13946	0	808
-33.393	-28.814	16993	14131	0	808
-28.669	-23.945	16993	14378	0	808
-23.909	-22.070	16995	14749	0	808
-20.159	-20.375	16993	15134	0	808
-21.421	-23.657	16993	15381	0	808
-25.893	-26.866	16991	15536	0	808
-27.047	-28.525	16993	15721	0	808
-27.119	-26.397	16995	16030	0	808
-21.601	-21.493	17002	16445	0	808
-11.684	-13.235	17013	16970	0	808
-4.688	-7.717	17025	17525	0	808
-2.633	-4.400	17031	17973	0	808
-6.239	-6.203	17040	18251	0	808
-13.451	-9.520	17052	18436	0	808
-18.969	-13.271	17058	18529	0	808
-21.168	-15.867	17061	18436	0	808
-20.303	-15.254	17049	18019	0	808
-15.615	-16.408	17031	17124	0	808
-16.156	-14.858	17016	16138	0	808
-14.569	-14.966	17009	15705	0	808
-14.245	-13.163	17004	15705	0	808
-14.353	-14.100	16986	15366	0	808
-14.497	-14.317	16964	14548	0	808
-14.425	-12.622	16941	13699	0	808
-10.566	-12.622	16928	13283	0	808
-4.904	-8.042	16917	13344	0	808
0.325	-5.986	16903	13391	0	808
3.462	-3.173	16883	13051	0	808
2.921	-1.659	16856	12480	0	808
0.649	-2.705	16845	12233	0	808
-2.993	-3.714	16829	12526	0	808
-4.327	-5.806	16827	12959	0	808
-3.750	-8.078	16813	13205	0	808
-1.983	-5.842	16793	13205	0	808
0.505	-2.452	16784	13190	0	808
3.318	2.921	16770	13314	0	808
5.590	6.599	16759	13483	0	808
5.517	6.852	16743	13607	0	808
4.904	5.265	16725	13653	0	808
4.039	6.022	16716	13776	0	808
6.383	7.970	16710	14054	0	808
9.701	13.199	16703	14502	0	808
15.831	18.752	16698	14949	0	808
22.467	27.912	16687	15165	0	808
30.040	32.780	16678	15212	0	808
34.151	39.163	16669	15381	0	808
36.711	44.681	16667	15798	0	808
37.036	46.123	16665	16246	0	808
35.305	44.320	16656	16414	0	808
32.961	41.471	16644	16307	0	808
32.095	38.767	16631	16138	0	808
32.780	36.639	16624	15999	0	808
33.466	39.416	16608	15952	0	808
35.846	41.904	16597	15891	0	808
37.288	43.022	16588	15814	0	808
39.560	43.347	16570	15705	0	808
39.704	41.543	16557	15536	0	808
39.091	45.078	16536	15258	0	808
37.973	48.143	16523	14980	0	808
36.387	50.667	16500	14733	0	808
34.295	49.838	16478	14347	0	808
28.669	43.347	16444	13622	0	808
23.296	35.990	16408	12743	0	808
18.356	33.429	16380	12187	0	808
18.897	34.403	16355	12033	0	808
20.267	38.154	16326	11986	0	808
24.883	38.731	16292	11678	0	808
28.994	39.235	16259	11184	0	808
29.643	38.695	16236	11215	0	808
32.600	41.940	16236	12110	0	808
33.141	47.169	16234	13437	0	808
32.131	46.159	16236	14594	0	808
28.020	42.914	16236	15443	0	808
24.775	35.737	16234	16076	0	808
21.565	29.787	16236	16646	0	808
19.834	28.777	16236	17294	0	808
19.257	28.128	16247	18035	0	808
16.661	28.994	16250	18698	0	808
16.985	29.354	16261	19300	0	808
14.713	29.607	16270	19917	0	808
16.480	29.427	16283	20519	0	808
15.254	28.453	16295	20859	0	808
17.923	26.614	16292	20828	0	808
19.582	25.171	16295	20596	0	808
24.522	26.397	16295	20458	0	808
26.433	25.496	16306	20504	0	808
27.119	25.784	16306	20550	0	808
23.873	25.388	16313	20396	0	808
19.365	24.089	16304	19917	1	604
15.723	22.431	16281	18775	0	604
13.956	20.591	16243	17032	0	604
13.487	18.752	16214	15459	0	604
10.819	15.975	16189	14610	0	604
10.314	13.343	16178	14347	0	604
8.222	14.425	16164	14209	0	604
4.580	10.350	16142	13993	0	604
2.128	6.635	16133	13776	0	604
-0.108	4.688	16115	13699	0	604
-0.505	4.183	16101	13638	0	604
2.849	8.222	16076	13267	0	604
7.934	12.441	16045	12511	0	604
11.648	17.706	16013	11755	0	604
11.287	15.002	15989	11446	0	604
6.816	11.396	15975	11570	0	604
3.065	7.285	15953	11847	0	604
2.993	6.635	15930	11955	0	604
6.419	9.412	15910	11909	0	604
16.264	14.785	15890	12033	0	604
18.860	16.877	15883	12480	0	604
18.211	12.369	15874	13144	0	604
11.792	7.248	15863	13746	0	604
1.298	-0.541	15860	14193	0	604
-2.308	-5.121	15860	14903	0	604
-3.101	-4.652	15867	16014	0	604
-0.541	-1.406	15885	17294	0	604
4.075	1.226	15901	18451	0	604
5.301	4.832	15919	19346	0	604
7.898	6.960	15928	19979	0	604
5.121	3.570	15944	20458	0	604
-1.370	-1.623	15953	20843	0	604
-8.042	-7.104	15966	21152	0	604
-13.595	-10.638	15977	21353	0	604
-12.297	-9.016	15989	21461	0	604
-6.599	-2.596	16000	21569	0	604
0.577	2.236	16013	21692	0	604
-1.118	-0.072	16029	21769	0	604
-7.862	-7.032	16036	21692	0	604
-17.454	-16.156	16047	21430	0	604
-20.916	-24.378	16058	21198	0	604
-23.368	-24.198	16074	21121	0	604
-18.933	-20.483	16090	21198	0	604
-16.949	-15.579	16110	21368	0	604
-17.057	-13.091	16126	21492	0	604
-21.385	-14.497	16142	21353	0	604
-25.171	-20.087	16148	21029	0	604
-30.004	-26.866	16171	20828	0	604
-35.233	-33.790	16187	20782	0	604
-37.793	-37.072	16189	20427	0	604
-37.144	-37.288	16187	19439	0	604
-34.511	-35.016	16169	17988	0	604
-30.112	-31.807	16146	16461	0	604
-27.876	-31.410	16133	15273	0	604
-27.840	-31.626	16119	14471	0	604
-30.328	-31.915	16103	13900	0	604
-28.597	-30.905	16090	13314	0	604
-27.083	-29.787	16081	12912	0	604
-26.253	-27.479	16085	13051	0	604
-27.876	-28.128	16088	13653	0	604
-33.249	-29.715	16092	14193	0	604
-37.288	-33.177	16099	14471	0	604
-38.695	-33.105	16099	14594	0	604
-35.846	-33.754	16103	14780	0	604
-31.843	-31.843	16112	15150	0	604
-30.869	-30.364	16126	15752	0	604
-26.794	-27.732	16137	16354	0	604
-26.506	-24.919	16144	16661	0	604
-26.361	-21.926	16157	16877	0	604
-25.496	-17.959	16171	17294	0	604
-23.765	-16.048	16191	17927	0	604
-22.539	-15.831	16214	18606	0	604
-19.762	-16.192	16234	19161	0	604
-15.615	-13.487	16259	19624	0	604
-15.651	-12.369	16283	20164	0	604
-16.552	-11.215	16317	20890	0	604
-18.283	-11.792	16358	21769	0	604
-17.779	-14.533	16390	22525	0	604
-19.726	-15.290	16424	22973	0	604
-16.156	-16.408	16462	23313	0	604
-16.552	-13.884	16500	23698	0	604
-17.021	-11.107	16534	24053	0	604
-14.894	-9.016	16570	24100	0	604
-12.838	-7.032	16597	23853	0	604
-7.465	-4.472	16624	23467	0	604
-4.796	-3.895	16649	23096	0	604
-5.445	-3.787	16678	22757	1	344
-10.169	-6.058	16701	22309	0	344
-13.668	-8.943	16723	21769	0	344
-15.435	-10.386	16739	21121	0	344
-15.110	-8.583	16750	20334	0	344
-10.927	-6.744	16759	19470	0	344
-10.061	-1.875	16770	18667	0	344
-9.953	-1.082	16777	17942	0	344
-8.583	-3.498	16777	17109	0	344
-7.862	-6.996	16770	16030	0	344
-6.852	-10.169	16770	14980	0	344
-5.229	-12.694	16782	14594	0	344
-5.878	-11.612	16793	14810	0	344
-7.104	-6.996	16811	14980	0	344
-9.592	-5.734	16815	14826	0	344
-14.497	-5.770	16815	14486	0	344
-16.589	-10.386	16822	14193	0	344
-19.293	-14.425	16829	14147	0	344
-16.084	-13.451	16845	14347	0	344
-15.110	-12.730	16849	14440	0	344
-13.163	-10.278	16849	14270	0	344
-14.713	-11.468	16863	14270	0	344
-19.149	-17.093	16878	14702	0	344
-19.113	-17.418	16894	15289	0	344
-19.041	-14.749	16914	15675	0	344
-15.218	-5.878	16923	15829	0	344
-13.271	-0.685	16935	15952	0	344
-11.900	-0.613	16950	16107	0	344
-12.153	-5.950	16950	16060	0	344
-14.172	-12.045	16950	15659	0	344
-11.179	-14.605	16946	15134	0	344
-11.792	-13.379	16948	14780	0	344
-13.704	-15.290	16941	14579	0	344
-17.887	-18.752	16937	14286	0	344
-23.512	-26.253	16926	13823	0	344
-24.847	-29.030	16923	13452	0	344
-20.159	-26.073	16914	13314	0	344
-15.290	-21.204	16912	13360	0	344
-11.396	-15.182	16919	13622	0	344
-11.684	-15.435	16923	14085	0	344
-14.425	-15.687	16937	14718	0	344
-11.540	-17.634	16948	15428	0	344
-9.773	-15.615	16968	16045	0	344
-5.806	-15.218	16975	16461	0	344
-5.770	-12.586	16986	16800	0	344
-9.412	-14.785	16998	17063	0	344
-15.435	-16.589	17007	17248	0	344
-18.824	-17.057	17009	17279	0	344
-15.759	-16.913	17004	16862	0	344
-10.710	-10.855	16991	16045	0	344
-3.029	-5.085	16973	15196	0	344
2.524	-2.344	16964	14625	0	344
4.219	-1.154	16950	14286	0	344
4.219	-2.092	16941	14070	0	344
5.770	-2.200	16939	14023	0	344
5.734	0.288	16948	14440	0	344
4.868	2.452	16957	15181	0	344
2.128	4.796	16962	15798	0	344
3.498	7.104	16964	15999	0	344
9.881	10.169	16962	15906	0	344
20.555	18.283	16962	15752	0	344
32.023	23.080	16957	15551	0	344
38.586	28.345	16937	15073	0	344
39.488	32.889	16914	14301	0	344
35.882	34.980	16896	13530	0	344
33.321	36.711	16874	13082	0	344
28.922	35.449	16867	13020	0	344
26.722	30.472	16858	13314	0	344
21.998	24.450	16858	13761	0	344
19.726	19.942	16851	14147	0	344
20.916	21.962	16851	14455	0	344
22.214	27.912	16849	14826	0	344
29.246	34.331	16858	15351	0	344
33.429	40.245	16863	15968	0	344
36.459	41.760	16863	16323	0	344
36.459	39.632	16845	15952	0	344
34.367	36.567	16827	15073	0	344
32.492	34.151	16806	14425	0	344
31.951	33.249	16791	14255	0	344
30.148	33.862	16782	14239	0	344
30.581	33.538	16759	14039	0	344
29.030	34.223	16739	13560	0	344
25.820	33.466	16716	13221	0	344
26.794	34.800	16703	13221	0	344
25.893	35.269	16692	13391	0	344
27.263	34.511	16680	13653	0	344
27.119	33.393	16676	13977	0	344
26.145	29.895	16667	14270	0	344
26.073	27.587	16667	14718	0	344
26.722	28.056	16680	15736	0	344
27.840	29.679	16701	17093	0	344
28.453	29.354	16710	18004	0	344
27.624	29.282	16705	18127	0	344
25.243	26.686	16703	17911	0	344
22.935	24.739	16703	17803	0	344
23.585	23.476	16703	17896	0	344
23.981	21.854	16703	18019	0	344
24.522	18.969	16694	17927	0	344
25.496	17.310	16689	17603	0	344
23.224	14.208	16692	17525	0	344
19.473	15.218	16698	17865	0	344
19.077	16.408	16703	18235	0	344
16.769	15.903	16705	18421	0	344
18.067	19.005	16710	18390	0	344
20.555	23.008	16710	18282	0	344
27.335	29.427	16710	18127	0	344
32.420	34.728	16703	17850	0	344
33.826	34.547	16701	17510	0	344
30.617	29.968	16692	17186	0	344
22.791	23.080	16689	16908	0	344
15.975	17.346	16687	16800	0	344
11.468	15.254	16692	16939	0	344
14.208	12.405	16694	17124	0	344
16.336	13.812	16692	17078	0	344
19.365	12.838	16692	16893	0	344
19.005	13.848	16692	16831	0	344
17.021	14.569	16694	16954	0	344
13.307	13.848	16701	17078	0	344
8.727	13.343	16694	16939	0	344
10.278	11.937	16687	16600	0	344
9.484	10.314	16676	16122	0	344
11.360	11.251	16665	15597	0	344
11.107	10.350	16656	15258	0	344
9.845	5.914	16644	14996	0	344
6.996	0.938	16631	14718	0	344
6.852	-3.859	16620	14347	0	344
8.727	-4.724	16590	13761	0	344
11.720	0.361	16575	13175	0	344
11.468	7.934	16575	13283	0	344
13.523	12.477	16570	14023	0	344
12.658	13.235	16568	14517	0	344
12.009	11.973	16548	14270	0	344
13.631	9.412	16532	13668	0	344
10.314	9.268	16509	13252	0	344
4.472	7.176	16498	13221	0	344
-1.046	5.373	16487	13314	0	344
-4.111	4.868	16458	13113	0	344
-1.515	3.065	16431	12480	0	344
2.633	3.390	16406	11925	0	344
4.039	3.750	16384	11832	0	344
1.370	2.560	16371	12094	0	344
-2.596	1.334	16355	12388	0	344
-6.816	-0.757	16337	12573	0	344
-8.078	-2.849	16328	12835	0	344
-6.058	-3.354	16322	13375	0	344
-4.219	-2.019	16315	14085	0	344
-2.741	-0.757	16310	14610	0	344
-2.921	-1.551	16295	14826	0	344
-6.744	-6.094	16290	14980	0	344
-14.353	-15.218	16279	15289	0	344
-21.493	-21.024	16281	15844	0	344
-28.092	-24.739	16283	16476	0	344
-30.112	-22.791	16279	16954	0	344
-29.499	-19.113	16279	17201	0	344
-28.056	-19.329	16277	17325	0	344
-29.354	-21.709	16268	17371	0	344
-32.167	-27.443	16261	17356	0	344
-35.197	-29.823	16254	17279	0	344
-38.298	-31.915	16245	17201	0	344
-38.226	-32.167	16245	17232	0	344
-37.000	-32.492	16243	17433	0	344
-35.088	-34.223	16243	17695	0	344
-32.059	-34.151	16234	17788	0	344
-29.499	-33.069	16227	17572	0	344
-30.545	-30.148	16205	16985	0	344
-31.122	-30.761	16187	16168	0	344
-33.429	-31.699	16178	15752	0	344
-34.187	-32.348	16182	16246	0	344
-32.672	-33.826	16200	17325	0	344
-31.987	-33.357	16205	18204	0	344
-32.925	-33.141	16223	18621	0	344
-37.288	-35.413	16234	19038	0	344
-38.658	-36.567	16261	19917	0	344
-39.704	-37.036	16290	21090	0	344
-36.855	-36.278	16317	21924	0	344
-34.115	-35.918	16335	22217	0	344
-33.033	-35.377	16358	22248	0	344
-32.889	-33.682	16373	22294	0	344
-34.692	-30.292	16388	22279	0	344
-28.092	-23.765	16397	21924	0	344
-19.293	-15.326	16395	21152	0	344
-10.206	-9.989	16388	20056	0	344
-5.157	-9.809	16380	18868	1	728
-6.203	-13.307	16367	17788	0	728
-10.819	-18.392	16355	16908	0	728
-15.326	-19.149	16344	16184	0	728
-12.225	-16.841	16333	15597	0	728
-10.061	-12.333	16333	15335	0	728
-11.071	-9.737	16333	15351	0	728
-13.307	-14.677	16335	15459	0	728
-14.641	-17.454	16335	15489	0	728
-16.372	-20.123	16333	15289	0	728
-11.612	-15.543	16317	14872	0	728
-9.232	-11.720	16306	14347	0	728
-10.386	-8.727	16288	13730	0	728
-11.973	-10.169	16268	12989	0	728
-14.281	-15.254	16236	12187	0	728
-12.405	-19.293	16214	11508	0	728
-6.888	-15.939	16187	11060	0	728
-3.246	-13.235	16171	10860	0	728
-2.019	-9.629	16153	10860	0	728
-7.285	-10.206	16142	11030	0	728
-12.009	-14.533	16121	11276	0	728
-14.461	-16.300	16110	11523	0	728
-14.425	-16.516	16097	11755	0	728
-11.648	-14.353	16081	12017	0	728
-8.475	-12.910	16070	12280	0	728
-7.465	-13.307	16056	12496	0	728
-5.950	-11.576	16040	12604	0	728
-1.803	-9.592	16018	12557	0	728
2.092	-5.806	15989	12141	0	728
3.246	-6.852	15935	11168	0	728
-0.325	-11.287	15890	9949	0	728
-6.852	-18.500	15845	9209	0	728
-15.146	-20.519	15806	9008	0	728
-19.618	-20.591	15775	9039	0	728
-18.031	-14.317	15761	9672	0	728
-13.091	-10.278	15761	11091	0	728
-6.203	-8.619	15770	12881	0	728
-2.596	-8.330	15777	14502	0	728
-1.442	-8.619	15784	15814	0	728
-4.003	-9.989	15797	17047	0	728
-7.681	-8.727	15822	18498	0	728
-10.783	-8.655	15854	20180	0	728
-13.235	-9.520	15887	21908	0	728
-10.242	-10.638	15930	23467	0	728
-5.698	-10.025	15968	24794	0	728
-2.813	-7.321	16011	26059	0	728
0.144	-3.931	16063	27279	0	728
-0.865	-0.902	16108	28235	0	728
-1.082	0.829	16146	28822	0	728
-2.416	0.757	16191	29161	0	728
-1.190	-0.541	16232	29393	0	728
-2.164	-1.587	16268	29300	0	728
-3.065	-2.560	16301	28853	0	728
-3.354	-2.741	16328	28313	0	728
-0.865	-1.190	16367	27927	0	728
2.200	3.642	16399	27618	0	728
3.462	7.429	16442	27417	0	728
1.587	8.294	16476	27248	0	728
-5.013	2.019	16518	26893	0	728
-11.612	-7.357	16543	26152	0	728
-12.225	-11.107	16563	25010	0	728
-7.934	-7.970	16577	23667	0	728
3.210	5.193	16590	22464	0	728
13.091	18.788	16602	21368	0	728
18.320	28.633	16620	20350	0	728
15.579	28.309	16631	19485	0	728
10.097	23.476	16642	18575	0	728
4.977	19.582	16649	17680	0	728
5.517	21.601	16676	17433	0	728
12.802	25.171	16703	17695	0	728
25.171	31.807	16723	17649	0	728
32.961	35.413	16734	17063	0	728
36.387	35.629	16743	16354	0	728
36.062	36.964	16755	15891	0	728
34.475	38.731	16773	15736	0	728
35.377	41.688	16788	15644	0	728
39.380	44.392	16802	15428	0	728
42.842	46.304	16813	15196	0	728
44.104	46.448	16833	15243	0	728
43.635	45.150	16856	15551	1	316
43.635	45.005	16878	15860	0	316
42.012	43.924	16894	15983	0	316
42.084	40.137	16908	15922	0	316
41.291	36.206	16919	15736	0	316
37.252	30.040	16930	15536	0	316
33.069	23.801	16937	15289	0	316
28.128	22.106	16948	15057	0	316
24.053	20.555	16950	14857	0	316
20.447	22.719	16957	14625	0	316
21.385	23.837	16962	14440	0	316
21.024	24.270	16975	14517	0	316
22.286	25.532	16986	14718	0	316
25.388	27.119	16993	14749	0	316
28.381	26.181	16998	14687	0	316
28.309	27.119	17004	14687	0	316
24.486	26.866	17016	14841	0	316
22.647	25.171	17027	15011	0	316
17.166	23.368	17027	14965	0	316
17.382	20.772	17027	14702	0	316
18.356	20.988	17029	14502	0	316
23.116	20.664	17031	14486	0	316
28.092	25.316	17038	14594	0	316
32.600	31.446	17040	14625	0	316
36.242	33.213	17040	14548	0	316
37.144	34.980	17036	14363	0	316
34.547	31.843	17036	14147	0	316
30.905	26.686	17038	14162	0	316
25.063	21.024	17058	14780	0	316
20.808	18.716	17074	15798	0	316
12.982	14.677	17085	16384	0	316
11.937	14.317	17085	16199	0	316
11.432	13.343	17074	15551	0	316
11.179	9.665	17063	14903	0	316
15.507	9.376	17054	14471	0	316
15.651	9.845	17049	14224	0	316
18.500	11.900	17040	14131	0	316
18.464	15.543	17038	14131	0	316
20.447	20.087	17038	14270	0	316
19.401	20.447	17040	14548	0	316
19.041	19.329	17038	14718	0	316
14.966	18.211	17029	14610	0	316
12.369	15.002	17018	14209	0	316
8.222	12.730	17002	13746	0	316
6.996	14.966	16991	13499	0	316
8.871	13.595	16982	13483	0	316
10.710	15.038	16964	13391	0	316
11.432	14.100	16953	13097	0	316
13.163	13.054	16937	12881	0	316
13.595	11.720	16923	12881	0	316
14.245	11.468	16903	12743	0	316
14.966	9.484	16878	12341	0	316
13.668	10.638	16858	11894	0	316
9.304	9.052	16833	11693	0	316
6.275	7.285	16818	11739	0	316
2.344	4.616	16806	12141	0	316
-0.469	-0.974	16804	12773	0	316
-2.524	-5.049	16795	13329	0	316
-1.587	-4.255	16788	13684	0	316
2.524	2.236	16777	13993	0	316
10.530	10.422	16773	14347	0	316
12.730	16.913	16768	14764	0	316
13.523	14.533	16768	15273	0	316
5.229	8.258	16766	15875	0	316
-5.265	-1.046	16768	16384	0	316
-10.422	-6.780	16768	16708	0	316
-13.054	-6.275	16761	16862	0	316
-6.671	-2.308	16757	16908	0	316
0.938	3.210	16739	16646	0	316
6.383	5.445	16705	15736	0	316
4.436	4.760	16667	14363	0	316
-4.904	-1.551	16633	13283	0	316
-18.283	-9.881	16602	12727	0	316
-26.830	-17.382	16577	12434	0	316
-27.624	-16.661	16548	12295	0	316
-22.791	-13.668	16523	12141	0	316
-15.218	-6.311	16496	11971	0	316
-11.540	-1.298	16485	12156	0	316
-11.792	-3.246	16469	12665	0	316
-19.149	-7.609	16453	13097	0	316
-24.811	-16.120	16435	13360	0	316
-31.554	-21.998	16422	13530	0	316
-33.718	-27.876	16406	13746	0	316
-33.970	-30.617	16397	14178	0	316
-32.348	-30.545	16388	14764	0	316
-33.069	-27.768	16382	15258	0	316
-35.124	-26.866	16371	15536	0	316
-35.665	-25.604	16367	15829	0	316
-34.367	-29.030	16362	16323	0	316
-31.158	-29.066	16369	16970	0	316
-26.145	-28.886	16373	17726	0	316
-24.306	-26.938	16378	18405	0	316
-27.660	-25.820	16382	18914	0	316
-30.761	-27.047	16386	19254	0	316
-34.475	-29.895	16384	19346	0	316
-33.574	-29.210	16378	19146	0	316
-28.128	-27.263	16369	18791	0	316
-24.739	-25.748	16367	18482	0	316
-25.279	-25.929	16358	18359	0	316
-29.427	-26.938	16358	18451	0	316
-33.105	-28.886	16358	18606	0	316
-36.387	-29.282	16358	18544	0	316
-33.862	-28.850	16351	18343	0	316
-30.508	-27.551	16349	18204	0	316
-29.318	-26.902	16346	18158	0	316
-27.660	-25.893	16344	18096	0	316
-27.515	-24.378	16346	18004	0	316
-27.732	-21.132	16346	17958	0	316
-24.919	-21.277	16344	17942	0	316
-24.847	-21.457	16340	17865	0	316
-25.712	-24.162	16340	17726	0	316
-29.463	-28.958	16335	17541	0	316
-32.816	-31.085	16333	17340	0	316
-37.252	-30.833	16326	17016	0	316
-46.628	-26.506	16304	16384	0	316
-55.860	-20.772	16292	15675	0	316
-65.921	-16.877	16283	15443	0	316
-67.905	-12.910	16292	15814	0	316
-58.529	-10.746	16292	16292	0	316
-46.340	-12.586	16292	16507	0	316
-37.577	-12.009	16288	16399	0	316
-38.695	-14.641	16279	16107	0	316
-44.897	-17.057	16272	15922	0	316
-48.431	-17.202	16277	15999	0	316
-43.455	-17.526	16270	16199	0	316
-35.197	-13.559	16270	16246	0	316
-25.748	-9.484	16272	16276	0	316
-22.395	-4.436	16270	16430	0	316
-21.024	1.659	16272	16661	0	316
-22.503	3.065	16277	16754	0	316
-23.621	0.902	16265	16569	0	316
-20.591	-3.823	16259	16215	0	316
-19.834	-9.232	16247	15922	0	316
-17.995	-10.097	16245	15814	0	316
-11.720	-5.626	16245	15860	0	316
-5.337	1.803	16238	15922	0	316
1.983	8.691	16238	15983	0	316
7.573	12.514	16234	16060	0	316
8.547	13.559	16236	16153	0	316
5.662	9.917	16232	16276	0	316
2.957	9.268	16232	16292	0	316
2.849	8.799	16216	16014	0	316
8.511	10.963	16193	15196	0	316
18.211	18.103	16164	14054	0	316
26.073	25.424	16142	13221	0	316
32.312	33.285	16119	12820	0	316
32.961	37.036	16099	12634	0	316
32.420	38.514	16079	12465	0	316
30.833	38.911	16052	12110	0	316
31.158	37.793	16022	11616	0	316
31.410	37.432	16000	11369	0	316
25.424	34.367	15984	11446	0	316
19.510	28.020	15957	11570	0	316
15.759	24.306	15939	11647	0	316
13.668	21.529	15921	11755	0	316
19.041	24.811	15901	12033	0	316
23.585	29.823	15896	12588	0	316
26.902	31.735	15890	13344	0	316
26.794	32.276	15885	13993	0	316
25.388	29.823	15878	14486	0	316
25.352	29.318	15885	15273	0	316
26.289	26.253	15894	16338	0	316
30.220	24.739	15899	17263	0	316
34.403	25.820	15908	17865	0	316
36.603	27.551	15908	18251	0	316
37.757	32.672	15917	18652	0	316
33.429	35.629	15921	19115	0	316
30.653	35.160	15932	19640	0	316
24.739	28.273	15950	20149	0	316
20.772	21.745	15957	20550	0	316
19.113	14.749	15964	20735	0	316
19.762	14.172	15973	20643	0	316
23.657	15.903	15966	20303	0	316
27.155	21.241	15966	19856	0	316
29.571	25.099	15957	19223	0	316
31.194	28.345	15923	17988	0	316
30.292	31.410	15896	16384	0	316
29.066	30.076	15874	15397	0	316
24.089	27.191	15867	15212	0	316
19.257	21.493	15863	15335	0	316
15.651	16.480	15856	15520	0	316
15.687	13.271	15856	15721	0	316
22.034	16.697	15856	15891	0	316
27.155	19.041	15851	16030	0	316
30.725	22.647	15851	16122	0	316
32.059	22.034	15854	16215	0	316
30.472	21.493	15845	16307	0	316
28.633	21.890	15840	16215	0	316
25.929	21.204	15842	16184	0	316
23.224	20.916	15860	16877	0	316
23.008	20.555	15887	18220	0	316
20.952	18.788	15905	19208	0	316
17.382	18.933	15923	19609	0	316
12.153	17.202	15935	19871	0	316
6.671	17.202	15957	20211	0	316
2.236	12.658	15977	20612	0	316
3.065	9.701	15998	20967	0	316
6.203	7.825	16011	21090	0	316
8.547	7.789	16029	21075	0	316
10.350	6.239	16052	21152	0	316
10.746	5.481	16058	20998	0	316
9.520	2.669	16063	20365	0	316
10.133	1.046	16067	19748	0	316
13.776	4.832	16074	19393	0	316
18.139	11.756	16085	19177	0	316
23.549	16.949	16097	19130	0	316
24.630	24.089	16112	19238	0	316
23.909	24.486	16126	19238	0	316
22.106	22.467	16142	19069	0	316
18.572	21.241	16153	18961	0	316
16.949	17.670	16178	19130	0	316
11.684	17.490	16202	19516	0	316
8.907	15.110	16225	19933	0	316
6.527	14.317	16247	20118	0	316
5.409	11.107	16272	20180	0	316
7.140	8.691	16301	20365	0	316
8.006	8.907	16328	20689	0	316
8.727	8.511	16360	21013	0	316
8.078	8.439	16390	21275	0	316
4.796	7.898	16422	21538	0	316
3.390	5.950	16455	21785	0	316
1.587	6.203	16491	22032	0	316
0.433	7.465	16525	22279	0	316
0.829	7.393	16563	22371	0	316
-0.144	6.708	16593	22356	0	316
-0.505	3.823	16624	22248	0	316
0.938	4.111	16647	21908	0	316
3.101	7.898	16671	21291	0	316
6.203	13.523	16701	20890	1	912
6.744	16.949	16734	20936	0	912
7.465	17.202	16759	20843	0	912
6.022	10.963	16782	20396	0	912
6.563	6.816	16802	19840	0	912
3.750	4.075	16813	19208	0	912
1.370	5.806	16833	18529	0	912
0.361	7.789	16840	17896	0	912
-0.072	10.674	16849	17124	0	912
3.534	14.172	16849	16168	0	912
8.691	17.851	16851	15397	0	912
12.081	17.382	16867	15026	0	912
11.612	18.103	16874	14888	0	912
9.448	11.720	16881	14672	0	912
4.796	6.094	16883	14193	0	912
0.252	3.534	16883	13684	0	912
-0.433	2.488	16892	13452	0	912
-0.180	5.301	16894	13406	0	912
2.164	7.032	16896	13267	0	912
4.904	5.085	16892	12866	0	912
6.275	2.164	16890	12496	0	912
4.544	-2.308	16894	12403	0	912
2.669	-4.436	16892	12526	0	912
-0.216	-3.498	16892	12604	0	912
-0.974	0.000	16885	12403	0	912
-0.865	2.452	16878	12141	0	912
0.685	4.977	16878	12079	0	912
3.498	8.943	16878	12280	0	912
6.203	12.946	16878	12573	0	912
6.347	13.271	16874	12727	0	912
1.767	12.766	16867	12696	0	912
-4.039	8.619	16849	12403	0	912
-8.006	2.849	16838	11955	0	912
-7.248	0.829	16822	11693	0	912
-1.623	0.974	16811	11601	0	912
3.967	4.219	16795	11585	0	912
6.094	7.898	16784	11678	0	912
3.282	9.701	16773	11925	0	912
-0.180	7.429	16777	12388	0	912
-5.121	0.433	16779	13159	0	912
-5.734	-4.039	16788	14054	0	912
-3.426	-2.452	16782	14564	0	912
1.767	2.380	16782	14687	0	912
8.078	9.340	16770	14672	0	912
10.494	11.179	16766	14702	0	912
8.294	8.439	16759	14857	0	912
3.714	3.137	16750	15042	0	912
-2.705	-0.974	16743	14918	0	912
-6.491	-3.173	16723	14548	0	912
-5.986	-1.334	16705	14193	0	912
-0.577	2.056	16680	13715	0	912
5.842	7.537	16656	13128	0	912
7.140	9.232	16638	12789	0	912
2.200	5.734	16615	12712	0	912
-9.268	-4.039	16602	12789	0	912
-15.975	-12.477	16597	13190	0	912
-17.418	-14.930	16593	13900	0	912
-10.927	-12.261	16590	14548	0	912
-3.678	-5.554	16586	14934	0	912
-2.019	-0.216	16586	15366	0	912
-6.022	0.072	16590	16014	0	912
-11.143	-4.616	16602	16754	0	912
-15.290	-8.655	16602	17433	0	912
-12.874	-13.271	16611	17911	0	912
-11.143	-16.516	16613	18266	0	912
-9.737	-18.211	16620	18498	0	912
-10.602	-21.709	16604	18235	0	912
-18.392	-24.342	16588	17525	0	912
-21.854	-25.929	16579	16862	0	912
-24.486	-25.316	16568	16600	0	912
-21.168	-21.277	16563	16600	0	912
-17.346	-16.697	16563	16831	0	912
-14.677	-13.595	16568	17201	0	912
-12.369	-11.864	16566	17448	0	912
-8.402	-8.186	16566	17541	0	912
-8.186	-9.412	16568	17525	0	912
-5.950	-9.881	16566	17464	0	912
-7.825	-11.864	16563	17417	0	912
-11.323	-15.543	16557	17371	0	912
-18.897	-17.202	16559	17309	0	912
-18.464	-16.625	16552	17171	0	912
-19.257	-17.418	16536	16646	0	912
-16.697	-16.769	16518	15922	0	912
-15.975	-20.087	16518	15721	0	912
-16.589	-21.493	16514	16091	0	912
-17.166	-23.188	16512	16168	0	912
-18.897	-24.234	16496	15675	0	912
-19.437	-24.955	16473	15042	0	912
-16.156	-27.083	16458	14548	0	912
-17.815	-30.436	16446	14286	0	912
-18.139	-31.013	16440	14317	0	912
-19.798	-29.823	16424	14425	0	912
-18.608	-23.657	16417	14455	0	912
-16.733	-16.661	16419	14718	0	912
-10.819	-11.035	16422	15320	0	912
-7.068	-9.881	16422	15875	0	912
-8.943	-12.694	16419	16091	0	912
-16.228	-17.382	16413	15983	0	912
-22.827	-23.368	16406	15829	0	912
-27.912	-27.010	16399	15875	0	912
-27.407	-23.909	16399	16153	0	912
-21.854	-18.680	16399	16399	0	912
-17.238	-13.992	16397	16538	0	912
-14.208	-11.360	16397	16661	0	912
-11.468	-10.530	16399	16970	0	912
-6.780	-10.674	16413	17495	0	912
-3.967	-8.655	16422	18050	0	912
-3.210	-4.472	16428	18374	0	912
-3.859	-5.590	16433	18405	0	912
-6.347	-8.366	16435	18374	0	912
-10.097	-13.595	16440	18374	0	912
-8.475	-15.759	16435	18313	0	912
-9.629	-17.995	16433	17942	0	912
-11.576	-16.408	16408	17032	0	912
-9.809	-14.894	16384	15829	0	912
-6.852	-9.340	16367	14903	0	912
-1.370	-4.544	16349	14440	0	912
3.750	-1.370	16335	14039	0	912
6.058	-0.577	16313	13607	0	912
5.301	-1.839	16292	13283	0	912
3.534	-2.596	16279	13113	0	912
1.226	-1.803	16265	13036	0	912
-1.298	-2.128	16247	13036	0	912
-2.705	0.361	16236	13067	0	912
1.695	-0.505	16223	13190	0	912
9.304	6.419	16214	13391	0	912
14.245	12.802	16202	13653	0	912
16.264	13.992	16200	13962	0	912
9.088	13.920	16193	14301	0	912
3.606	10.169	16189	14672	0	912
1.406	7.862	16178	14795	0	912
4.039	12.153	16160	14718	0	912
10.566	17.779	16160	14872	0	912
14.785	19.942	16155	15289	0	912
13.271	20.123	16144	15412	0	912
12.405	17.526	16121	15057	0	912
9.412	16.264	16108	14625	0	912
9.845	16.084	16085	14286	0	912
12.838	19.005	16045	13576	0	912
16.516	21.024	16011	12557	0	912
18.464	21.926	15984	11955	0	912
19.906	25.496	15957	12017	0	912
25.279	27.768	15944	12388	0	912
31.807	32.961	15939	12959	0	912
41.724	39.199	15939	13838	0	912
51.136	43.491	15944	14965	0	912
53.228	44.248	15950	16045	0	912
51.713	40.426	15957	16908	0	912
44.428	33.069	15975	17742	0	912
35.665	26.830	15986	18714	0	912
27.984	21.060	16007	19671	0	912
24.125	18.464	16022	20442	0	912
23.404	19.546	16040	21029	0	912
23.224	18.392	16056	21538	0	912
25.820	19.654	16076	21939	0	912
26.938	19.546	16090	22217	0	912
26.938	21.529	16103	22279	0	912
26.253	19.582	16119	22263	0	912
23.512	19.329	16130	22155	0	912
19.113	16.877	16135	21877	0	912
15.939	15.939	16144	21461	0	912
15.939	16.480	16146	20982	1	644
19.113	21.060	16148	20458	0	644
19.149	21.745	16142	19794	0	644
23.945	24.594	16130	18775	0	644
26.722	25.063	16112	17464	0	644
30.076	26.794	16090	16276	0	644
32.203	29.391	16070	15258	0	644
32.059	32.203	16043	14224	0	644
29.643	32.420	16007	12974	0	644
26.614	31.446	15973	11601	0	644
28.201	30.328	15930	10443	0	644
30.256	28.020	15899	9702	0	644
29.282	23.008	15867	9363	0	644
25.171	18.860	15842	9224	0	644
20.050	14.461	15820	9162	0	644
13.848	9.340	15800	9409	0	644
12.333	6.599	15795	10088	0	644
11.792	4.364	15786	10906	0	644
12.982	5.229	15775	11585	0	644
14.317	8.475	15766	12110	0	644
14.353	12.766	15761	12634	0	644
17.382	17.562	15759	13360	0	644
19.365	20.591	15764	14286	0	644
24.991	21.998	15764	15181	0	644
30.328	22.755	15764	15783	0	644
33.357	23.873	15764	16199	0	644
31.915	22.431	15766	16692	0	644
27.083	20.664	15777	17464	0	644
19.077	21.529	15788	18405	0	644
15.362	19.798	15809	19254	0	644
15.939	19.293	15822	19887	0	644
16.589	16.733	15838	20380	0	644
21.132	17.923	15851	20874	0	644
22.683	18.464	15874	21353	0	644
26.325	22.575	15896	21893	0	644
26.253	25.316	15919	22448	0	644
23.873	23.549	15944	22911	0	644
18.211	18.752	15975	23297	0	644
13.920	11.215	16000	23745	0	644
9.809	7.645	16031	24130	0	644
9.701	7.717	16063	24377	0	644
11.720	10.025	16090	24516	0	644
9.917	11.179	16121	24516	0	644
7.609	11.864	16148	24547	0	644
4.940	9.052	16200	24995	0	644
5.409	10.169	16245	25797	0	644
8.114	15.939	16290	26260	0	644
11.720	21.060	16317	26013	0	644
16.841	26.109	16349	25350	0	644
20.231	25.568	16369	24563	0	644
16.661	23.044	16373	23313	0	644
17.418	22.395	16373	21646	0	644
13.992	21.060	16369	19964	0	644
13.235	20.555	16360	18390	0	644
11.720	20.627	16358	17047	0	644
7.573	14.245	16362	16246	0	644
2.921	9.340	16369	15937	0	644
-4.111	3.931	16378	15752	0	644
-6.022	2.236	16384	15489	0	644
-6.094	2.993	16388	15181	0	644
-3.714	4.219	16386	14672	0	644
-2.596	5.806	16382	13946	0	644
-4.219	4.003	16382	13483	0	644
-4.003	-0.036	16386	13391	0	644
-4.904	-2.633	16390	13514	0	644
-3.210	-4.832	16399	13792	0	644
0.397	-4.147	16422	14270	0	644
2.164	-0.721	16444	14980	0	644
4.652	1.803	16464	15736	0	644
3.426	4.436	16489	16354	0	644
0.757	2.741	16512	16908	0	644
-5.157	-1.947	16541	17556	0	644
-11.107	-6.563	16566	18189	0	644
-14.930	-10.278	16588	18575	0	644
-12.982	-9.268	16611	18637	0	644
-6.599	-4.832	16622	18544	0	644
-0.974	-0.577	16635	18343	0	644
-0.180	0.505	16638	17865	0	644
-8.655	-4.255	16649	17356	0	644
-19.942	-11.828	16658	17171	1	316
-31.915	-18.428	16660	16970	0	316
-37.072	-26.001	16656	16261	0	316
-39.596	-28.273	16642	15212	0	316
-37.829	-29.823	16633	14378	0	316
-36.026	-29.354	16631	13900	0	316
-34.403	-29.246	16615	13499	0	316
-32.744	-27.515	16604	13036	0	316
-31.807	-29.499	16602	12743	0	316
-32.889	-28.741	16597	12758	0	316
-32.600	-28.453	16586	12650	0	316
-32.961	-26.109	16570	12187	0	316
-33.141	-26.217	16548	11647	0	316
-31.807	-25.712	16534	11230	0	316
-29.751	-25.712	16514	10983	0	316
-26.037	-23.332	16507	11060	0	316
-22.539	-20.483	16500	11477	0	316
-22.935	-18.031	16500	11986	0	316
-28.958	-21.745	16498	12449	0	316
-35.593	-27.299	16496	12989	0	316
-40.498	-32.672	16503	13668	0	316
-41.039	-34.908	16512	14394	0	316
-38.514	-33.213	16518	15150	0	316
-36.964	-31.554	16532	15906	0	316
-35.737	-30.653	16543	16646	0	316
-34.980	-29.787	16563	17479	0	316
-30.076	-26.722	16586	18421	0	316
-21.890	-19.690	16608	19285	0	316
-16.480	-12.982	16626	19779	0	316
-14.064	-11.720	16635	19948	0	316
-19.510	-14.064	16649	20056	0	316
-21.204	-18.969	16667	20257	0	316
-22.791	-17.743	16683	20488	0	316
-16.012	-13.631	16694	20550	0	316
-10.783	-5.517	16692	20056	0	316
-9.232	-0.252	16678	18884	0	316
-8.835	1.010	16667	17726	0	316
-12.189	0.216	16665	17109	0	316
-11.648	-0.685	16660	16754	0	316
-9.160	-2.056	16653	16384	0	316
-7.537	-4.364	16647	16076	0	316
-8.294	-7.285	16642	15736	0	316
-8.402	-9.629	16644	15567	0	316
-8.835	-6.744	16658	15937	0	316
-8.871	-3.354	16669	16522	0	316
-10.530	-0.397	16667	16615	0	316
-13.271	-2.344	16656	16060	0	316
-15.002	-10.025	16644	15273	0	316
-18.175	-18.608	16631	14656	0	316
-16.156	-23.404	16620	14378	0	316
-16.805	-26.361	16615	14301	0	316
-17.959	-26.758	16604	14224	0	316
-23.260	-29.427	16599	14116	0	316
-24.594	-29.282	16593	14008	0	316
-22.178	-25.748	16586	14039	0	316
-18.464	-21.060	16581	14224	0	316
-11.071	-11.576	16579	14317	0	316
-7.645	-5.950	16563	14116	0	316
-5.986	-1.803	16552	13838	0	316
-4.508	1.154	16536	13653	0	316
-3.678	2.272	16523	13514	0	316
-2.741	1.190	16507	13252	0	316
-4.255	-2.452	16489	12928	0	316
-5.842	-5.590	16476	12820	0	316
-6.744	-7.068	16469	13067	0	316
-5.806	-6.058	16464	13607	0	316
-2.344	-0.216	16467	14301	0	316
2.921	5.986	16469	14903	0	316
6.455	8.907	16464	15351	0	316
5.878	6.744	16469	15690	0	316
1.587	0.974	16469	16060	0	316
-2.849	-7.393	16476	16476	0	316
-7.898	-10.422	16473	16862	0	316
-5.986	-7.825	16478	17078	0	316
0.325	-0.938	16478	17217	0	316
7.789	11.071	16476	17340	0	316
14.353	18.103	16480	17448	0	316
18.103	19.726	16476	17433	0	316
16.516	18.969	16462	17032	0	316
14.894	13.884	16435	16230	0	316
12.045	13.199	16417	15335	0	316
15.002	17.454	16395	14594	0	316
19.726	26.686	16373	14039	0	316
29.354	33.610	16358	13730	0	316
34.079	37.288	16344	13638	0	316
36.459	34.583	16324	13591	0	316
35.233	30.040	16313	13638	0	316
28.525	22.972	16317	14178	0	316
23.549	18.283	16328	15304	0	316
22.322	18.283	16344	16384	0	316
21.673	18.428	16340	16785	0	316
21.457	20.375	16324	16414	0	316
22.178	18.572	16313	15875	0	316
16.661	17.382	16299	15628	0	316
14.100	14.569	16295	15675	0	316
12.802	17.021	16281	15721	0	316
18.247	18.969	16270	15597	0	316
21.241	22.395	16265	15489	0	316
25.532	22.178	16247	15428	0	316
25.496	24.522	16225	14980	0	316
28.201	27.371	16191	14070	0	316
29.968	32.600	16166	13267	0	316
32.131	34.764	16148	12974	0	316
30.220	32.312	16133	13159	0	316
24.883	26.938	16133	13730	0	316
19.221	23.585	16130	14455	0	316
20.700	25.135	16133	15119	0	316
23.476	28.309	16137	15829	0	316
28.453	31.374	16144	16677	0	316
27.840	29.427	16160	17541	0	316
23.549	24.450	16169	18235	0	316
14.136	18.752	16175	18698	0	316
8.186	15.218	16189	19038	0	316
6.780	14.281	16198	19362	0	316
8.763	16.769	16202	19686	0	316
12.694	16.408	16200	19609	0	316
13.523	15.723	16166	18451	0	316
9.052	9.376	16115	16045	0	316
2.669	3.101	16054	13298	0	316
-1.334	-2.488	15998	11184	0	316
-1.082	-2.344	15953	10104	0	316
1.695	1.479	15935	10212	0	316
4.652	5.445	15932	11184	0	316
6.780	8.835	15919	12079	0	316
6.527	9.953	15901	12341	0	316
4.075	6.563	15878	12280	0	316
1.479	3.029	15867	12357	0	316
0.288	-0.433	15856	12743	0	316
1.803	-2.128	15840	13205	0	316
8.258	1.983	15827	13468	0	316
15.110	9.016	15811	13560	0	316
22.647	17.057	15800	13792	0	316
24.775	22.070	15788	14332	0	316
26.325	24.342	15793	15026	0	316
24.847	22.899	15786	15597	0	316
24.811	17.454	15775	15844	0	316
20.952	12.658	15764	15952	0	316
18.031	6.563	15761	16230	0	316
10.025	-0.938	15766	16816	0	316
3.354	-6.347	15775	17649	0	316
-4.796	-9.953	15786	18498	0	316
-8.222	-11.323	15800	19362	0	316
-6.635	-9.953	15815	20180	0	316
-0.433	-5.914	15829	20612	0	316
5.409	-0.938	15831	20612	0	316
7.176	0.108	15833	20427	0	316
5.301	-0.325	15833	20319	0	316
0.144	-1.839	15851	20458	0	316
-4.616	-4.544	15865	20843	0	316
-4.111	-4.688	15883	21368	0	316
-2.813	-0.974	15908	21893	0	316
-2.092	-0.757	15928	22294	0	316
-3.787	-0.144	15944	22464	0	316
-9.088	-6.094	15966	22433	0	316
-14.821	-12.441	15984	22387	0	316
-21.024	-16.228	15998	22309	0	316
-21.024	-19.762	16011	22063	0	316
-21.709	-19.113	16025	21630	0	316
-18.752	-19.546	16029	21106	0	316
-18.175	-17.995	16040	20674	0	316
-17.202	-18.680	16058	20550	0	316
-18.644	-17.851	16079	20689	0	316
-20.303	-21.204	16090	20566	0	316
-24.125	-23.621	16090	19840	0	316
-29.715	-28.128	16085	18714	0	316
-33.934	-31.518	16074	17572	0	316
-35.124	-29.427	16065	16584	0	316
-32.384	-26.181	16058	15736	0	316
-27.624	-18.860	16045	14996	0	316
-18.644	-13.235	16031	14301	0	316
-14.172	-7.501	16018	13684	0	316
-9.629	-5.445	16011	13267	0	316
-7.681	-6.455	16007	13144	0	316
-8.835	-6.888	15995	13051	0	316
-9.268	-7.285	15986	12712	0	316
-9.556	-4.147	15966	12264	0	316
-8.330	-1.947	15950	11863	0	316
-9.016	-1.010	15935	11493	0	316
-11.684	-2.380	15910	11138	0	316
-14.100	-5.986	15894	10844	0	316
-17.310	-9.088	15878	10829	0	316
-15.759	-9.592	15874	11215	0	316
-14.497	-6.491	15874	11894	0	316
-13.487	-6.131	15874	12712	0	316
-11.360	-3.318	15883	13530	0	316
-12.153	-2.524	15885	14363	0	316
-11.756	-1.659	15908	15335	0	316
-11.071	-1.226	15928	16538	0	316
-14.245	-2.705	15955	17880	0	316
-14.713	-4.868	15977	19038	0	316
-15.579	-5.842	16009	19979	0	316
-12.441	-3.606	16040	20967	0	316
-8.907	-2.019	16079	22109	0	316
-6.058	-0.397	16124	23328	0	316
-6.419	-0.325	16175	24532	0	316
-8.366	-3.534	16220	25612	0	316
-9.160	-3.750	16268	26384	0	316
-8.006	-2.524	16317	26877	0	316
-5.517	-0.361	16358	27248	0	316
-4.219	1.731	16397	27387	0	316
-3.823	1.226	16440	27340	0	316
-4.796	4.688	16476	27124	0	316
-3.318	5.914	16507	26630	0	316
-1.695	8.330	16534	25890	0	316
-0.649	8.655	16575	25334	1	816
0.325	8.042	16604	25134	0	816
0.469	7.753	16633	24655	0	816
4.472	9.881	16647	23421	0	816
10.206	13.956	16656	21816	0	816
16.300	21.385	16658	20350	0	816
22.250	26.397	16660	19146	0	816
22.899	29.066	16667	18050	0	816
19.870	28.669	16665	16846	0	816
18.500	27.912	16656	15520	0	816
18.464	27.047	16647	14301	0	816
23.945	30.256	16649	13499	0	816
31.807	37.649	16649	13144	0	816
37.072	42.409	16653	12989	0	816
38.767	43.383	16658	12773	0	816
37.000	40.245	16665	12727	0	816
34.656	34.583	16676	12943	0	816
31.951	30.725	16687	13252	0	816
28.850	26.794	16694	13344	0	816
23.008	23.693	16698	13221	0	816
18.211	22.575	16701	13082	0	816
12.405	17.779	16705	13175	0	816
13.704	18.500	16716	13545	0	816
15.687	23.729	16732	14008	0	816
22.503	27.912	16737	14332	0	816
25.135	29.391	16746	14471	0	816
25.568	28.814	16755	14579	0	816
22.899	24.883	16766	14826	0	816
21.385	24.847	16770	15165	0	816
24.919	29.282	16782	15366	0	816
29.787	35.305	16784	15335	0	816
31.554	37.468	16791	15243	0	816
32.384	36.351	16791	15227	0	816
30.040	33.718	16802	15366	0	816
29.138	34.295	16813	15705	0	816
30.797	35.088	16822	16076	0	816
31.626	32.925	16827	16153	0	816
28.633	28.741	16818	15690	0	816
23.188	21.385	16804	14903	0	816
21.241	16.228	16793	14224	0	816
20.916	18.211	16784	13838	0	816
19.293	17.851	16768	13560	0	816
16.913	18.716	16761	13267	0	816
10.422	12.369	16759	13190	0	816
4.075	5.842	16766	13715	0	816
1.442	1.226	16782	14733	0	816
3.787	-0.325	16793	15659	0	816
6.708	0.036	16806	16168	0	816
7.212	-0.649	16806	16230	0	816
6.239	-2.777	16802	16076	0	816
4.796	-3.426	16804	15922	0	816
2.452	-2.128	16804	15906	0	816
6.383	1.226	16804	16014	0	816
8.943	7.285	16806	16107	0	816
9.160	9.845	16806	16153	0	816
9.592	10.602	16811	16215	0	816
8.475	10.855	16811	16246	0	816
7.934	12.225	16806	16107	0	816
10.530	14.785	16800	15875	0	816
15.903	17.743	16800	15736	0	816
20.988	22.972	16800	15829	0	816
22.142	24.883	16811	16199	0	816
21.673	24.125	16813	16615	0	816
20.014	21.926	16818	16785	0	816
13.415	18.644	16813	16615	0	816
9.629	15.146	16813	16354	0	816
5.445	12.441	16813	16261	0	816
2.164	14.821	16815	16399	0	816
1.118	14.749	16824	16708	0	816
0.397	16.084	16833	17047	0	816
-1.767	13.307	16838	17340	0	816
-5.013	9.520	16847	17510	0	816
-7.393	5.554	16851	17572	0	816
-7.357	3.137	16856	17448	0	816
-5.878	0.938	16849	17124	0	816
-3.750	-0.180	16845	16677	0	816
-6.455	-2.488	16829	16091	0	816
-12.766	-5.662	16815	15505	0	816
