neuroNicle FX2
D3F25R12
Bluetooth SPP
2023년 3월 27일 월요일
오후 3:08
time interval = 4msec
EEG1	EEG2	PPG	sdPPG	pulse	peak_interval(msec)
-39.416	-40.786	16349	16101	0	512
-34.006	-35.774	16209	15964	0	512
-32.312	-26.794	16034	15737	0	512
-35.377	-19.726	15823	15486	0	512
-38.875	-15.975	15683	15296	0	512
-41.868	-15.975	15683	15341	0	512
-40.245	-19.221	15683	15571	0	512
-39.091	-24.017	15648	15693	0	512
-39.380	-28.958	15507	15620	0	512
-43.887	-35.016	15297	15466	0	512
-49.730	-37.613	15069	15292	0	512
-49.802	-36.423	14946	15191	0	512
-45.907	-31.230	15034	15337	0	512
-39.993	-24.739	15121	15753	0	512
-36.567	-18.536	15420	16300	0	512
-38.983	-17.959	15770	16901	0	512
-43.743	-21.565	16209	17540	0	512
-47.638	-27.804	16647	18099	0	512
-47.530	-32.384	16910	18382	0	512
-44.861	-37.036	17033	18350	0	512
-43.743	-38.622	17085	18139	0	512
-43.960	-37.721	17085	17909	0	512
-45.294	-36.351	17384	17937	0	512
-42.914	-33.213	17822	18354	0	512
-40.173	-28.597	18261	18815	0	512
-35.810	-25.784	18524	18997	0	512
-35.052	-23.152	19015	19078	0	512
-38.514	-25.676	19313	19175	0	512
-42.445	-29.715	19489	19041	0	512
-43.130	-33.682	19454	18604	0	512
-40.137	-34.115	19366	18018	0	512
-36.278	-29.823	19226	17358	0	512
-35.160	-24.053	18875	16659	0	512
-37.072	-23.152	18524	15944	0	512
-40.426	-26.361	18138	15240	0	512
-41.363	-30.220	17699	14653	0	512
-37.685	-28.886	17524	14366	0	512
-30.617	-22.899	17384	14334	0	512
-23.837	-17.238	17173	14245	0	512
-22.791	-16.192	16857	14002	0	512
-27.227	-22.935	16506	13715	0	512
-36.495	-31.482	16121	13444	0	512
-44.392	-37.721	15735	13189	0	512
-49.116	-39.380	15297	12970	0	512
-50.595	-36.170	14858	12792	0	512
-49.910	-32.420	14455	12663	0	512
-51.677	-32.023	13981	12574	0	512
-53.300	-34.475	13718	12610	0	512
-52.254	-39.199	13542	12942	0	512
-49.657	-43.491	13630	13585	0	512
-45.907	-42.265	13753	14402	0	512
-43.743	-39.416	14069	15215	0	512
-44.861	-36.351	14156	15822	0	512
-48.179	-35.593	14332	16251	0	512
-51.280	-36.639	14595	16764	0	512
-51.641	-39.740	14893	17371	0	512
-49.693	-40.642	15069	17771	0	512
-48.359	-39.452	15156	17884	0	512
-50.343	-38.262	15156	17836	0	512
-52.651	-34.223	15069	17698	0	512
-52.110	-31.230	15034	17496	0	512
-45.979	-28.164	14806	17249	0	512
-36.062	-29.535	14630	16982	0	512
-29.246	-32.023	14420	16699	0	512
-30.941	-34.115	14156	16416	0	512
-35.557	-30.256	13928	16150	0	512
-42.409	-23.621	13630	15899	0	512
-41.940	-16.336	13402	15664	0	512
-37.360	-16.192	13104	15450	0	512
-32.672	-24.883	12788	15264	0	512
-31.626	-34.764	12665	15183	0	512
-32.744	-41.327	12665	15389	0	512
-36.639	-40.245	12788	15903	0	512
-40.389	-33.754	13192	16574	0	512
-41.507	-26.902	13542	17233	0	512
-40.317	-22.935	13753	17690	0	512
-35.413	-22.791	14069	17969	0	512
-29.535	-26.073	14455	18354	0	512
-23.945	-31.879	14858	18831	0	512
-22.791	-34.006	15156	19106	0	512
-23.260	-31.771	15332	19090	0	512
-26.253	-25.748	15420	18904	0	512
-32.276	-22.647	15595	18706	0	512
-40.137	-23.801	15823	18685	0	512
-48.071	-30.220	16086	18811	1	848
-52.795	-37.685	16262	18786	0	848
-50.595	-38.875	16297	18519	0	848
-44.789	-37.072	16297	18143	0	848
-39.668	-33.141	16209	17722	0	848
-38.154	-30.508	16174	17269	0	848
-40.317	-29.354	15946	16796	0	848
-40.966	-28.164	15735	16328	0	848
-39.524	-26.974	15472	15863	0	848
-37.216	-27.371	15297	15511	0	848
-34.728	-27.263	15297	15450	0	848
-34.223	-27.840	15507	15705	0	848
-35.882	-28.922	15770	16130	0	848
-37.288	-28.597	16121	16630	0	848
-39.163	-27.443	16594	17193	0	848
-38.190	-23.260	17033	17694	0	848
-36.387	-18.211	17436	18022	0	848
-35.629	-14.281	17910	18297	0	848
-35.341	-13.235	18313	18576	0	848
-36.242	-16.264	18612	18706	0	848
-36.495	-20.375	19103	18782	0	848
-36.062	-22.935	19401	18884	0	848
-35.882	-25.135	19717	18851	0	848
-37.432	-27.551	20068	18774	0	848
-38.442	-30.184	20331	18730	0	848
-40.029	-32.095	20506	18568	0	848
-37.108	-27.696	20805	18378	0	848
-32.997	-21.168	20980	18236	0	848
-29.968	-15.110	21033	17921	0	848
-26.397	-14.894	20945	17354	0	848
-26.650	-21.926	20769	16679	0	848
-27.624	-29.499	20541	15972	0	848
-32.131	-34.115	20103	15240	0	848
-36.314	-31.049	19664	14512	0	848
-39.272	-23.116	19226	13820	0	848
-38.045	-16.336	18664	13181	0	848
-34.043	-15.579	18138	12598	0	848
-31.302	-20.988	17524	12088	0	848
-30.040	-29.931	16910	11660	0	848
-33.393	-34.331	16384	11316	0	848
-37.649	-33.754	15858	11053	0	848
-41.724	-27.768	15332	10960	0	848
-45.222	-23.116	15156	11283	0	848
-48.756	-24.125	15244	12117	0	848
-51.605	-30.545	15384	13079	0	848
-53.047	-38.154	15472	13759	0	848
-51.280	-44.284	15384	14156	0	848
-46.520	-43.130	15244	14418	0	848
-43.274	-38.442	15121	14601	0	848
-39.921	-34.692	14946	14718	0	848
-40.209	-30.905	14683	14787	0	848
-40.750	-32.023	14455	14815	0	848
-42.048	-34.692	14156	14819	0	848
-43.960	-36.819	13928	14904	0	848
-44.464	-37.973	13981	15240	0	848
-45.294	-36.603	14016	15766	0	848
-44.068	-35.846	14069	16170	0	848
-43.383	-36.134	13981	16352	0	848
-43.563	-39.416	13893	16428	0	848
-46.520	-45.582	13753	16472	0	848
-48.900	-49.766	13753	16566	0	848
-49.838	-50.054	13841	16873	0	848
-48.251	-45.366	14069	17338	0	848
-46.159	-37.396	14104	17658	0	848
-43.815	-34.115	14192	17743	0	848
-45.114	-33.934	14156	17714	0	848
-46.664	-38.550	14104	17629	0	848
-50.234	-42.806	13981	17496	0	848
-51.208	-43.779	13893	17318	0	848
-50.270	-42.301	13806	17193	0	848
-48.612	-40.498	13981	17314	0	848
-45.330	-39.488	14104	17625	0	848
-44.501	-38.370	14244	17824	0	848
-42.337	-36.242	14332	17803	0	848
-42.409	-32.167	14192	17674	0	848
-42.481	-27.263	14192	17500	0	848
-42.373	-27.083	14104	17298	0	848
-42.337	-28.345	14016	17075	0	848
-38.586	-31.338	13841	16841	0	848
-33.393	-34.079	13718	16598	0	848
-30.076	-33.141	13490	16360	0	848
-29.968	-29.751	13367	16134	0	848
-34.475	-23.512	13139	15923	0	848
-39.127	-20.519	12928	15741	0	848
-42.625	-20.339	12788	15588	0	848
-43.815	-25.568	12613	15462	0	848
-44.609	-31.987	12490	15450	0	848
-43.274	-31.122	12700	15798	0	848
-41.039	-26.217	13227	16606	0	848
-37.180	-17.959	13665	17496	0	848
-32.672	-15.867	14069	18062	0	848
-31.735	-20.231	14332	18309	0	848
-34.367	-29.715	14595	18390	0	848
-38.009	-33.466	14718	18354	0	848
-41.075	-30.508	14806	18216	0	848
-39.632	-22.539	14946	18091	0	848
-37.685	-14.677	15332	18252	0	848
-36.134	-13.631	15999	18900	0	848
-38.190	-21.241	16857	19834	0	848
-42.517	-31.554	17612	20591	0	848
-44.320	-38.839	18173	20874	0	848
-43.599	-37.613	18612	20752	0	848
-39.380	-28.814	18840	20405	0	848
-37.613	-20.087	19015	19907	0	848
-40.389	-16.949	19015	19288	0	848
-43.599	-21.890	18962	18588	1	420
-44.356	-29.499	18752	17840	0	420
-42.770	-33.141	18576	17075	0	420
-38.298	-31.554	18261	16332	0	420
-38.190	-25.207	18050	15697	0	420
-43.563	-21.241	17998	15345	0	420
-47.962	-19.473	17910	15236	0	420
-47.999	-20.231	17822	15074	0	420
-40.534	-19.798	17647	14758	0	420
-28.741	-18.428	17384	14406	0	420
-20.339	-18.536	17120	14062	0	420
-19.834	-20.664	16769	13735	0	420
-28.020	-26.974	16506	13431	0	420
-36.783	-30.112	16121	13160	0	420
-43.563	-30.292	15823	12930	0	420
-43.058	-27.660	15384	12744	0	420
-36.062	-24.955	15069	12687	0	420
-29.535	-26.650	15034	12938	0	420
-27.227	-28.886	15034	13419	0	420
-28.525	-29.354	14946	13828	0	420
-34.115	-25.640	14858	14054	0	420
-40.317	-21.962	14770	14208	0	420
-44.753	-20.736	14595	14342	0	420
-47.674	-23.476	14367	14443	0	420
-47.133	-30.328	14244	14528	0	420
-43.851	-33.141	14104	14677	0	420
-39.380	-33.862	14367	15151	0	420
-36.026	-32.780	14770	16053	0	420
-35.990	-30.220	15156	17015	0	420
-40.317	-30.076	15507	17634	0	420
-45.799	-31.843	15735	17913	0	420
-50.595	-36.603	15911	18018	0	420
-52.254	-41.183	16034	18087	0	420
-48.612	-42.986	16419	18378	0	420
-41.796	-39.668	16945	19029	0	420
-32.492	-31.122	17559	19689	0	420
-28.669	-23.440	17910	19960	0	420
-28.056	-18.428	18173	19867	0	420
-33.141	-17.815	18226	19575	0	420
-35.665	-18.897	18261	19155	0	420
-35.305	-19.870	18138	18641	0	420
-34.583	-23.044	18173	18151	0	420
-37.036	-27.119	18261	17880	0	420
-43.058	-32.167	18261	17783	0	420
-49.730	-34.872	18313	17573	0	420
-50.920	-33.610	18348	17249	0	420
-47.530	-30.797	18401	17100	0	420
-41.147	-27.984	18576	17124	0	420
-37.757	-28.777	18524	17011	0	420
-37.252	-30.797	18489	16679	0	420
-40.245	-33.321	18313	16259	0	420
-45.438	-35.846	18050	15810	0	420
-49.549	-36.891	17910	15426	0	420
-52.398	-35.701	17962	15377	0	420
-51.821	-32.276	18226	15786	0	420
-47.962	-30.148	18524	16291	0	420
-44.248	-30.256	18699	16566	0	420
-43.310	-34.944	19050	16800	0	420
-45.402	-41.327	19278	17083	0	420
-44.248	-45.691	19454	17164	0	420
-41.976	-43.779	19401	16962	0	420
-37.937	-39.344	19454	16687	0	420
-35.882	-34.295	19541	16586	0	420
-38.478	-31.338	19576	16614	0	420
-41.832	-30.833	19541	16493	0	420
-42.229	-28.525	19366	16158	0	420
-36.783	-25.712	19103	15729	0	420
-30.184	-20.988	18840	15272	0	420
-24.342	-16.372	18436	14803	0	420
-21.385	-13.199	18085	14334	0	420
-18.788	-11.612	17647	13889	0	420
-18.572	-12.405	17261	13569	0	420
-20.700	-15.759	17033	13545	0	420
-28.237	-22.863	16945	13759	0	420
-36.062	-30.400	16734	13905	0	420
-42.012	-34.980	16506	13893	0	420
-40.317	-33.826	16209	13828	0	420
-35.124	-29.210	15911	13755	0	420
-32.131	-26.001	15595	13674	0	420
-33.069	-27.010	15209	13601	0	420
-36.639	-32.925	14806	13533	0	420
-39.091	-39.163	14455	13488	0	420
-39.199	-40.281	14156	13468	0	420
-37.505	-37.685	13718	13488	0	420
-37.288	-35.774	13402	13545	0	420
-39.812	-35.665	13051	13634	0	420
-40.966	-38.406	12700	13747	0	420
-41.832	-41.760	12437	13889	0	420
-43.058	-40.498	12139	14050	0	420
-41.760	-39.055	11876	14228	0	420
-40.894	-35.377	11648	14423	0	420
-39.560	-34.980	11437	14641	0	420
-37.252	-34.620	11209	14872	0	420
-34.151	-34.800	11034	15106	0	420
-32.239	-33.610	10858	15353	0	420
-32.059	-29.751	10823	15689	0	420
-32.853	-27.732	11086	16348	0	420
-35.774	-30.581	11613	17427	0	420
-41.507	-36.026	12174	18568	0	420
-45.402	-44.933	12665	19349	0	420
-45.546	-47.458	13016	19761	0	420
-39.163	-43.491	13314	19980	0	420
-25.965	-33.357	13577	20061	0	420
-11.828	-25.207	13665	20028	0	420
-5.554	-21.745	13841	19903	0	420
-7.032	-26.686	13893	19693	0	420
-11.756	-31.482	14069	19506	0	420
-12.730	-33.249	14279	19523	0	420
-3.246	-25.063	14683	19689	0	420
10.638	-10.783	14858	19713	0	420
21.241	0.974	14981	19506	0	420
21.818	5.734	15069	19199	0	420
15.975	-2.164	15121	18839	0	420
9.881	-13.343	15069	18434	0	420
6.888	-21.818	15034	18006	0	420
11.035	-20.808	14946	17569	0	420
16.048	-8.871	14806	17144	0	420
21.529	5.590	14630	16739	0	420
26.001	18.211	14542	16368	0	420
26.145	21.745	14420	16101	0	420
24.089	14.605	14542	16118	0	420
18.680	2.452	14718	16348	0	420
12.802	-10.314	14806	16485	0	420
11.504	-11.973	14981	16521	0	420
13.343	-4.616	15332	16808	0	420
17.634	7.645	15999	17492	0	420
18.608	14.821	16506	18208	0	420
15.939	11.360	16910	18568	0	420
9.340	0.108	17208	18584	0	420
2.200	-10.169	17436	18430	0	420
-3.029	-13.054	17524	18159	0	420
-5.842	-8.402	17524	17799	0	420
-2.380	-2.380	17559	17456	0	420
5.662	1.911	17787	17322	0	420
12.982	2.705	17998	17362	0	420
15.687	0.252	17998	17273	0	420
8.150	-4.219	18138	17051	0	420
-8.835	-10.783	18401	16982	0	420
-23.837	-17.418	18612	17144	0	420
-31.049	-22.214	19050	17411	0	420
-25.460	-21.277	19454	17714	0	420
-11.323	-17.129	19980	18046	0	420
0.180	-14.713	20419	18289	0	420
1.262	-17.166	20629	18261	0	420
-9.665	-24.053	20717	17945	0	420
-25.676	-31.879	20717	17472	0	420
-38.154	-33.826	20594	16922	0	420
-41.616	-29.968	20419	16312	0	420
-37.396	-23.657	20155	15668	0	420
-32.853	-19.798	19752	15013	0	420
-33.105	-21.998	19313	14378	0	420
-38.983	-32.312	18927	13787	0	420
-47.097	-44.861	18436	13262	0	420
-54.454	-53.588	18085	12889	0	420
-55.427	-57.050	17910	12829	0	420
-52.362	-54.057	17699	13015	0	420
-45.330	-47.061	17524	13156	0	420
-38.550	-39.740	17384	13221	0	420
-33.610	-33.466	17436	13480	0	420
-31.843	-31.194	17436	13925	0	420
-30.364	-32.348	17436	14321	0	420
-31.158	-40.065	17734	14843	0	420
-31.735	-50.559	18226	15705	0	420
-32.564	-58.096	18576	16574	0	420
-34.583	-57.916	18875	17055	0	420
-37.432	-48.539	18962	17184	0	420
-40.462	-35.557	19015	17124	0	420
-43.347	-26.650	18962	17019	0	420
-41.796	-24.883	19278	17132	0	420
-34.692	-29.427	19629	17601	0	420
-27.155	-36.819	19927	18087	0	420
-24.919	-43.202	20068	18208	0	420
-33.862	-47.241	20278	18066	0	420
-48.900	-52.903	20419	18010	0	420
-62.712	-57.952	20541	18046	0	420
-65.669	-60.548	20682	17973	0	420
-58.673	-55.752	20805	17880	0	420
-48.071	-46.772	20945	17848	0	420
-43.310	-37.865	20892	17638	0	420
-43.130	-32.059	20805	17176	0	420
-46.953	-31.122	20506	16606	0	420
-49.225	-33.285	20155	16000	0	420
-45.763	-35.160	19840	15450	0	420
-44.284	-37.072	19717	15147	0	420
-43.455	-40.966	19489	15046	0	420
-47.133	-47.746	19226	14863	0	420
-51.713	-50.126	18962	14516	0	420
-53.877	-47.782	18524	14119	0	420
-52.290	-41.868	18050	13735	0	420
-46.772	-33.934	17612	13363	0	420
-41.003	-28.489	17085	13027	0	420
-35.124	-26.289	16559	12732	0	420
-33.213	-24.811	16034	12493	0	420
-33.646	-23.801	15595	12392	0	420
-35.377	-22.322	15384	12598	0	420
-36.278	-22.575	15209	13047	0	420
-36.278	-23.621	15034	13427	0	420
-35.954	-26.289	14858	13711	0	420
-36.242	-27.912	14893	14180	0	420
-38.947	-29.643	14981	14823	0	420
-41.363	-30.581	14946	15325	0	420
-40.462	-29.282	14946	15668	0	420
-37.829	-28.092	15121	16138	0	420
-34.583	-26.650	15332	16719	0	420
-34.908	-25.532	15507	17213	0	420
-36.891	-26.902	15911	17779	0	420
-40.534	-29.968	16506	18633	0	420
-43.310	-31.518	17033	19462	0	420
-42.950	-30.653	17384	19871	0	420
-40.426	-27.263	17699	19976	0	420
-39.055	-26.181	18138	20117	0	420
-38.370	-27.263	18489	20295	0	420
-37.901	-33.393	18612	20222	0	420
-36.964	-38.658	18699	19850	0	420
-36.747	-41.399	18612	19316	0	420
-36.855	-39.740	18489	18706	0	420
-36.531	-36.423	18226	18046	1	864
-37.000	-31.662	17910	17358	0	864
-37.685	-26.109	17612	16667	0	864
-40.209	-24.053	17173	16000	0	864
-43.094	-25.316	16734	15365	0	864
-47.746	-28.994	16297	14774	0	864
-49.261	-30.653	15911	14321	0	864
-48.107	-29.427	15735	14192	0	864
-45.655	-26.001	15560	14321	0	864
-42.914	-25.496	15420	14398	0	864
-42.986	-32.816	15156	14325	0	864
-41.471	-42.409	14893	14212	0	864
-40.642	-46.123	14595	14107	0	864
-38.334	-41.940	14332	14006	0	864
-38.226	-30.581	14069	13990	0	864
-40.642	-19.906	14156	14309	0	864
-46.592	-16.264	14455	15090	0	864
-50.884	-21.565	14858	16053	0	864
-52.759	-31.843	15384	16946	0	864
-47.926	-39.957	15823	17706	0	864
-40.426	-42.481	16121	18180	0	864
-33.466	-39.127	16419	18406	0	864
-32.456	-36.747	16822	18665	0	864
-37.468	-36.603	17120	18985	0	864
-43.130	-40.101	17348	19078	0	864
-46.917	-43.491	17436	18879	0	864
-44.176	-41.363	17384	18519	0	864
-37.541	-33.141	17208	18074	0	864
-30.545	-25.207	17085	17569	0	864
-24.342	-19.582	16822	17019	0	864
-22.827	-20.014	16506	16452	0	864
-20.627	-21.349	16174	15903	0	864
-20.700	-22.683	15858	15470	0	864
-20.916	-20.123	15770	15333	0	864
-22.791	-17.743	15823	15426	0	864
-26.866	-17.706	15595	15446	0	864
-31.338	-21.529	15420	15296	0	864
-36.531	-26.109	15244	15102	0	864
-39.921	-30.617	15069	14985	0	864
-42.553	-29.895	15156	15114	0	864
-44.032	-29.102	15156	15434	0	864
-42.301	-28.128	15156	15644	0	864
-40.534	-28.201	15034	15656	0	864
-37.252	-30.292	14981	15579	0	864
-35.305	-32.564	14718	15474	0	864
-35.124	-32.708	14542	15357	0	864
-35.197	-28.417	14507	15312	0	864
-32.925	-22.611	14455	15507	0	864
-29.931	-16.552	14595	15879	0	864
-29.931	-15.435	14595	16134	0	864
-32.853	-20.483	14542	16186	0	864
-40.065	-28.128	14507	16146	0	864
-47.349	-32.564	14332	16069	0	864
-47.025	-30.977	14244	15956	0	864
-40.894	-23.260	14016	15822	0	864
-30.400	-16.913	13893	15753	0	864
-23.044	-14.028	14016	15931	0	864
-22.575	-18.175	14069	16296	0	864
-28.128	-25.207	14104	16549	0	864
-36.459	-29.895	14069	16610	0	864
-42.012	-31.987	14069	16578	0	864
-46.051	-29.679	13981	16509	0	864
-44.212	-28.705	13893	16400	0	864
-41.039	-30.220	13718	16267	0	864
-35.521	-32.203	13577	16118	0	864
-31.699	-36.062	13367	15964	0	864
-33.357	-38.767	13139	15802	0	864
-40.245	-41.003	13104	15729	0	864
-47.422	-39.993	13104	15927	0	864
-49.766	-37.072	13314	16348	0	864
-46.628	-32.600	13455	16675	0	864
-41.075	-31.590	13402	16800	0	864
-39.416	-37.685	13577	16901	0	864
-45.366	-49.297	13806	17209	0	864
-51.497	-59.070	14294	10588	0	316
12.369	6.635	14595	11045	0	316
7.465	4.327	14542	11825	0	316
5.590	3.246	14770	12873	0	316
11.432	8.835	15209	14176	0	316
19.618	17.346	15648	15478	0	316
19.582	19.293	15946	16392	0	316
9.520	12.441	16174	16934	0	316
-3.678	-0.036	16262	17257	0	316
-9.629	-7.537	16384	17496	0	316
-3.462	-5.337	16594	17848	0	316
6.599	2.741	16769	18285	0	316
9.845	6.599	16945	18523	0	316
3.390	2.488	16945	18491	0	316
-8.727	-8.475	16910	18309	0	316
-17.995	-17.706	16910	18123	0	316
-19.149	-20.231	16998	18111	0	316
-15.146	-17.815	17033	18232	0	316
-12.658	-12.477	17085	18208	0	316
-12.333	-12.009	16998	17957	0	316
-17.418	-17.021	16769	17597	0	316
-24.486	-25.532	16594	17205	0	316
-33.177	-34.836	16349	16792	0	316
-40.498	-43.779	16034	16380	0	316
-43.887	-47.169	15911	16057	0	316
-42.914	-46.917	15770	15992	0	316
-39.668	-41.724	15735	16138	0	316
-35.269	-36.567	15770	16279	0	316
-32.961	-30.725	15946	16485	0	316
-32.167	-26.361	16086	16800	0	316
-30.941	-26.073	16121	16974	0	316
-27.155	-26.145	16086	16905	0	316
-24.558	-27.263	15999	16715	0	316
-22.214	-26.794	15823	16477	0	316
-21.024	-27.587	15648	16198	0	316
-25.063	-27.876	15384	15887	0	316
-29.210	-31.013	15069	15575	0	316
-33.249	-34.187	14770	15284	0	316
-35.954	-37.577	14455	15017	0	316
-37.180	-40.389	14192	14859	0	316
-39.019	-42.301	14244	14985	0	316
-40.930	-45.114	14332	15422	0	316
-44.645	-45.871	14595	16029	0	316
-47.890	-47.061	14893	16626	0	316
-53.047	-48.359	15034	17027	0	316
-58.889	-51.208	15156	17164	0	316
-62.676	-53.228	15156	17152	0	316
-61.955	-50.162	15156	17063	0	316
-55.139	-42.697	15034	16901	0	316
-47.710	-33.898	14893	16699	0	316
-43.743	-27.948	14770	16460	0	316
-44.356	-26.145	14507	16211	0	316
-47.710	-25.063	14420	16033	0	316
-49.405	-23.080	14455	16118	0	316
-49.080	-17.959	14507	16408	0	316
-47.386	-15.326	14542	16602	0	316
-50.415	-17.743	14595	16594	0	316
-56.798	-24.270	14455	16501	0	316
-63.397	-31.843	14420	16384	0	316
-68.049	-37.865	14244	16243	0	316
-70.105	-39.163	14156	16081	0	316
-71.619	-39.308	13928	15915	0	316
-73.314	-39.235	13753	15753	0	316
-75.694	-38.586	13542	15612	0	316
-75.370	-37.396	13367	15482	0	316
-73.350	-34.980	13104	15369	0	316
-73.314	-33.718	12963	15272	0	316
-76.343	-32.780	12788	15199	0	316
-80.346	-32.744	12665	15228	0	316
-82.005	-31.626	12753	15531	0	316
-76.524	-29.679	12963	16045	0	316
-69.924	-25.965	13104	16444	0	316
-65.705	-25.820	13104	16638	0	316
-65.633	-25.460	13192	16735	0	316
-67.111	-26.506	13192	16788	0	316
-66.426	-25.352	13139	16804	0	316
-62.676	-21.313	13139	16784	0	316
-55.752	-16.841	13139	16812	0	316
-49.874	-12.189	13455	17071	0	316
-46.809	-9.232	13718	17504	0	316
-44.068	-11.973	13981	17884	0	316
-43.779	-17.851	14507	18366	0	316
-44.176	-24.666	15297	19167	0	316
-45.763	-30.941	15911	19972	0	316
-47.962	-34.259	16419	20376	0	316
-49.369	-34.403	16822	20396	0	316
-52.218	-33.898	17120	20202	0	316
-52.651	-32.744	17348	19939	0	316
-51.713	-29.751	17734	19810	0	316
-50.595	-27.804	18173	19875	0	316
-49.730	-28.273	18612	20012	1	544
-51.713	-29.787	19103	20077	0	544
-55.680	-34.403	19366	19895	0	544
-58.853	-36.567	19541	19438	0	544
-58.745	-34.006	19576	18827	0	544
-55.608	-28.092	19454	18135	0	544
-48.287	-20.988	19313	17391	0	544
-39.272	-13.379	19138	16719	0	544
-31.266	-7.537	19191	16308	0	544
-25.640	-7.789	19278	16182	0	544
-21.673	-9.665	19454	16219	0	544
-22.647	-13.920	19629	16263	0	544
-24.522	-17.274	19629	16134	0	544
-24.847	-16.913	19541	15790	0	544
-23.585	-12.081	19401	15353	0	544
-21.024	-8.907	19103	14880	0	544
-17.490	-5.337	18840	14394	0	544
-15.723	-4.977	18524	13990	0	544
-16.084	-5.481	18489	13860	0	544
-17.815	-6.275	18348	13953	0	544
-19.582	-9.412	18348	14058	0	544
-20.916	-13.127	18436	14249	0	544
-21.096	-17.202	18436	14560	0	544
-22.106	-20.159	18436	14730	0	544
-21.529	-19.041	18261	14661	0	544
-20.880	-15.038	18138	14491	0	544
-17.923	-11.323	17875	14281	0	544
-16.372	-9.052	17524	14046	0	544
-15.398	-8.222	17120	13808	0	544
-16.372	-8.871	16822	13585	0	544
-17.093	-8.511	16384	13387	0	544
-15.615	-9.448	15999	13217	0	544
-13.704	-10.169	15648	13079	0	544
-11.215	-13.415	15156	12974	0	544
-11.396	-15.326	14718	12914	0	544
-12.153	-16.120	14367	12897	0	544
-14.569	-15.867	13928	12926	0	544
-19.401	-16.733	13630	12995	0	544
-25.820	-19.618	13314	13181	0	544
-31.735	-23.837	13279	13650	0	544
-34.403	-24.955	13279	14325	0	544
-32.059	-22.827	13314	14912	0	544
-27.191	-19.582	13279	15296	0	544
-22.719	-16.372	13279	15673	0	544
-20.627	-16.048	13490	16243	0	544
-20.375	-15.507	13841	17031	0	544
-19.473	-13.956	14507	17989	0	544
-14.749	-10.891	15209	19134	0	544
-9.629	-8.402	15946	20198	0	544
-5.590	-7.537	16471	20821	0	544
-4.977	-8.330	16910	21011	0	544
-11.432	-7.970	17173	20951	0	544
-18.211	-6.960	17296	20708	0	544
-24.270	-8.186	17348	20316	0	544
-26.181	-9.737	17384	19814	0	544
-22.899	-13.199	17261	19239	0	544
-20.519	-15.182	17085	18621	0	544
-17.346	-16.372	16998	18062	0	544
-17.526	-14.028	16998	17763	0	544
-18.211	-12.117	17033	17682	0	544
-20.483	-13.199	16998	17520	0	544
-25.893	-17.815	16945	17180	0	544
-32.059	-25.748	16769	16776	0	544
-37.577	-32.853	16594	16356	0	544
-41.760	-34.475	16349	15923	0	544
-41.039	-30.328	16174	15592	0	544
-38.154	-23.837	16174	15531	0	544
-33.682	-19.005	16209	15685	0	544
-27.804	-16.480	16174	15749	0	544
-21.745	-15.615	16086	15640	0	544
-15.615	-13.199	16034	15470	0	544
-13.271	-10.819	15911	15365	0	544
-13.415	-8.366	16086	15567	0	544
-16.985	-10.458	16594	16287	0	544
-21.457	-14.641	17208	17322	0	544
-25.352	-19.510	17998	18297	0	544
-28.056	-21.998	18699	19070	0	544
-28.309	-20.303	19313	19628	0	544
-24.702	-14.858	19752	19846	0	544
-17.815	-7.176	20068	19693	1	316
-10.927	-1.911	20155	19304	0	316
-8.114	-0.288	20155	18778	0	316
-9.773	-1.983	20015	18143	0	316
-15.146	-5.121	19840	17435	0	316
-19.077	-6.419	19489	16699	0	316
-19.870	-6.780	19138	15972	0	316
-18.680	-6.419	18699	15256	0	316
-18.500	-5.554	18401	14665	0	316
-18.680	-8.150	18261	14471	0	316
-19.834	-9.701	18489	14774	0	316
-19.401	-11.937	18576	15211	0	316
-17.670	-13.379	18752	15458	0	316
-17.346	-13.235	18927	15689	0	316
-16.949	-15.110	19191	16000	0	316
-20.123	-15.723	19138	16130	0	316
-23.404	-15.435	19138	15988	0	316
-24.089	-12.189	19050	15786	0	316
-20.519	-3.678	19138	15766	0	316
-13.884	5.698	19138	15883	0	316
-5.157	11.684	19191	15927	0	316
-0.144	12.874	19278	15992	0	316
-1.082	8.871	19366	16142	0	316
-4.039	7.753	19313	16146	0	316
-6.563	10.169	19103	15911	0	316
-3.787	15.759	19015	15644	0	316
3.318	21.745	18962	15579	0	316
7.357	22.935	19015	15685	0	316
7.609	19.257	18927	15737	0	316
1.118	14.497	19050	15822	0	316
-5.481	7.825	19050	16000	0	316
-8.186	5.157	19050	16029	0	316
-3.390	4.724	18927	15891	0	316
3.859	7.429	19015	15895	0	316
9.629	13.199	18962	16041	0	316
12.622	17.743	18927	16041	0	316
12.441	22.070	18699	15810	0	316
12.658	20.916	18489	15478	0	316
12.802	17.634	18085	15118	0	316
13.704	12.622	17699	14734	0	316
12.189	9.809	17384	14427	0	316
11.071	11.035	17208	14374	0	316
11.576	16.877	17085	14536	0	316
13.704	23.945	16822	14621	0	316
19.654	28.309	16594	14528	0	316
24.053	29.354	16262	14378	0	316
26.938	28.381	15946	14224	0	316
26.001	25.640	15648	14151	0	316
24.450	25.712	15560	14342	0	316
21.060	26.073	15560	14811	0	316
18.716	27.551	15770	15422	0	316
18.680	26.470	15946	16016	0	316
18.752	21.601	15999	16400	0	316
17.274	15.579	15946	16525	0	316
14.930	5.229	15858	16505	0	316
8.799	-0.865	15770	16404	0	316
3.029	-7.032	15507	16247	0	316
-1.731	-9.268	15332	16126	0	316
-2.236	-8.871	15332	16239	0	316
0.613	-6.816	15384	16521	0	316
4.868	-2.272	15472	16768	0	316
5.842	0.180	15648	17043	0	316
2.164	-1.767	15823	17411	0	316
-7.068	-9.016	15858	17625	0	316
-14.858	-16.480	15911	17577	0	316
-16.697	-18.716	15823	17395	0	316
-10.710	-14.461	15648	17152	0	316
-1.983	-6.419	15560	16942	0	316
1.154	-0.685	15770	17043	0	316
-2.128	-0.180	16086	17565	0	316
-10.242	-5.229	16419	18143	0	316
-17.057	-11.937	16647	18378	0	316
-19.401	-17.238	16734	18289	0	316
-20.014	-22.431	16822	18131	0	316
-24.089	-28.597	17085	18143	0	316
-29.318	-32.203	17348	18354	0	316
-35.846	-36.711	17734	18645	0	316
-39.812	-38.262	17998	18859	0	316
-41.255	-39.163	18173	18831	0	316
-41.291	-38.478	18348	18604	0	316
-42.120	-37.757	18612	18560	0	316
-40.209	-37.793	19138	18871	0	316
-37.937	-37.396	19541	19187	0	316
-34.331	-36.351	19752	19126	0	316
-33.249	-35.124	19892	18714	0	316
-34.115	-32.492	19752	18139	0	316
-35.990	-29.030	19576	17480	0	316
-35.088	-25.965	19401	16837	0	316
-31.879	-23.801	19278	16416	0	316
-28.020	-22.467	19278	16182	0	316
-26.722	-22.611	19015	15846	0	316
-27.371	-22.575	18787	15329	0	316
-28.777	-21.890	18401	14766	0	316
-27.948	-21.457	17998	14220	0	316
-26.145	-19.077	17524	13698	0	316
-23.224	-17.490	17033	13205	0	316
-23.837	-18.500	16506	12752	0	316
-27.191	-21.854	15999	12355	0	316
-32.167	-26.073	15420	12032	0	316
-36.819	-29.823	14858	11785	0	316
-37.360	-28.958	14367	11611	0	316
-34.223	-26.361	13806	11502	0	316
-29.499	-21.060	13314	11461	0	316
-24.739	-19.906	12788	11494	0	316
-25.388	-20.952	12437	11672	0	316
-26.109	-24.089	12314	12157	0	316
-28.741	-26.902	12262	12877	0	316
-28.453	-29.354	12139	13520	0	316
-27.119	-27.371	12051	13982	0	316
-21.313	-25.099	11876	14358	0	316
-16.480	-20.195	11823	14779	0	316
-9.845	-16.480	11999	15397	0	316
-7.212	-11.504	12174	16158	0	316
-6.671	-8.078	12437	16841	0	316
-7.465	-3.750	12788	17532	0	316
-6.708	2.993	13139	18269	0	316
-2.452	9.196	13455	18795	0	316
1.551	10.602	13577	19021	0	316
3.282	8.114	13753	19082	0	316
1.551	2.741	13753	19037	0	316
-2.200	-2.705	13841	18892	0	316
-2.596	-4.977	13753	18677	0	316
-1.515	-2.560	13718	18414	0	316
2.633	1.947	13577	18119	0	316
6.816	5.986	13367	17803	0	316
7.429	9.304	13227	17476	0	316
7.140	10.638	13104	17241	0	316
4.760	7.429	13279	17273	0	316
2.849	4.436	13402	17504	0	316
3.462	3.137	13542	17727	0	316
8.655	7.032	13928	18002	0	316
16.444	15.651	14192	18382	0	316
23.549	24.125	14507	18596	0	316
27.660	28.669	14630	18552	0	316
26.433	29.463	14858	18463	0	316
22.106	25.820	15121	18556	0	316
18.356	23.512	15507	18770	0	316
17.743	22.503	15648	18811	0	316
20.375	21.781	15770	18596	0	316
23.296	22.647	15823	18261	0	316
23.512	21.529	15770	17872	0	316
22.539	21.313	15770	17520	0	316
18.536	21.241	16034	17476	0	316
16.661	19.546	16471	17844	0	316
15.903	17.598	16857	18285	0	316
15.687	14.785	17173	18402	0	316
13.956	11.756	17436	18289	0	316
10.819	11.828	17787	18285	0	316
10.458	12.802	18050	18370	0	316
12.297	14.064	18261	18269	0	316
13.523	14.569	18261	17896	0	316
14.533	13.415	18226	17395	0	316
10.963	11.035	18085	16841	0	316
6.167	9.160	17875	16259	0	316
6.924	13.199	17559	15660	0	316
11.576	18.897	17261	15078	0	316
18.897	24.378	17033	14617	0	316
23.693	28.850	16945	14447	0	316
25.135	32.059	16857	14507	0	316
26.686	32.780	16734	14507	0	316
27.407	34.872	16559	14346	0	316
29.679	35.305	16349	14131	0	316
30.364	32.600	16086	13921	0	316
26.073	27.587	15735	13702	0	316
21.709	21.060	15507	13569	0	316
14.713	16.516	15472	13707	0	316
8.871	11.684	15560	14147	0	316
1.695	5.806	15770	14754	0	316
-5.409	-1.479	15999	15361	0	316
-10.386	-6.347	16209	15838	0	316
-12.045	-9.412	16506	16312	0	316
-11.071	-8.475	16822	16816	0	316
-10.206	-10.025	16945	17120	0	316
-13.668	-13.920	17033	17136	0	316
-22.467	-22.611	16998	16990	0	316
-32.708	-32.167	16910	16752	0	316
-39.452	-38.911	16734	16456	0	316
-39.055	-38.839	16471	16126	0	316
-31.735	-34.403	16209	15786	0	316
-23.549	-28.092	15911	15438	0	316
-16.985	-22.070	15560	15098	0	316
-16.192	-20.916	15297	14859	0	316
-16.480	-21.277	15420	14993	0	316
-13.343	-21.204	15648	15596	0	316
-9.304	-20.519	15858	16291	0	316
-5.517	-18.067	16121	16752	0	316
-7.104	-16.552	16506	17172	0	316
-10.061	-15.795	16857	17642	0	316
-13.523	-13.920	17120	17989	0	316
-13.235	-13.018	17612	18370	0	316
-12.802	-14.821	18313	19021	0	316
-16.120	-20.555	18840	19640	0	316
-25.352	-30.400	19191	19838	0	316
-34.872	-38.731	19489	19725	0	316
-42.084	-42.553	19840	19648	0	316
-42.553	-41.868	20243	19705	0	316
-39.849	-38.550	20629	19794	0	316
-38.839	-37.793	20980	19782	1	788
-38.226	-38.586	21120	19494	0	788
-39.019	-39.272	21120	18912	0	788
-38.082	-35.918	20980	18180	0	788
-32.672	-28.705	20717	17387	0	788
-26.109	-20.303	20419	16557	0	788
-19.113	-13.920	19980	15725	0	788
-16.589	-14.136	19454	14912	0	788
-19.221	-16.913	18962	14135	0	788
-23.873	-21.313	18401	13423	0	788
-28.164	-24.522	17822	12784	0	788
-28.092	-22.972	17261	12234	0	788
-22.683	-18.752	16682	11854	0	788
-16.372	-15.939	16384	11813	0	788
-15.110	-15.831	16174	12056	0	788
-18.716	-19.005	15946	12343	0	788
-25.279	-23.440	15946	12732	0	788
-30.400	-26.866	15946	13274	0	788
-29.643	-25.965	15858	13702	0	788
-25.171	-23.549	15683	13909	0	788
-18.608	-21.060	15507	14010	0	788
-14.713	-20.231	15332	14147	0	788
-13.487	-19.618	15332	14495	0	788
-13.271	-20.231	15507	15086	0	788
-14.533	-20.555	15823	15871	0	788
-17.057	-21.565	16349	16853	0	788
-20.627	-22.395	16822	17795	0	788
-24.270	-23.693	17173	18337	0	788
-27.660	-24.991	17384	18491	0	788
-27.119	-24.053	17436	18430	0	788
-22.539	-20.880	17348	18224	0	788
-14.281	-16.336	17208	17900	0	788
-5.626	-9.592	17033	17496	0	788
2.560	-3.354	16769	17047	0	788
5.914	1.731	16471	16574	0	788
4.147	3.678	16121	16105	0	788
-0.938	4.255	15735	15648	0	788
-5.554	2.524	15297	15215	0	788
-6.203	1.515	14946	14823	0	788
-2.380	2.488	14455	14479	0	788
4.003	5.121	14192	14281	0	788
8.042	6.563	14016	14394	0	788
7.248	8.294	14016	14742	0	788
5.301	7.176	13893	15017	0	788
3.210	6.419	13806	15122	0	788
2.128	3.859	13577	15163	0	788
1.226	1.551	13402	15179	0	788
-1.370	-1.154	13227	15256	0	788
-4.688	-3.065	13455	15644	0	788
-4.904	-3.137	13893	16541	0	788
-2.236	-0.325	14630	17759	0	788
4.147	2.056	15244	18819	0	788
10.638	3.065	15770	19430	0	788
11.323	2.092	16121	19648	0	788
7.573	-3.354	16349	19640	0	788
-1.154	-9.088	16471	19474	0	788
-8.042	-13.307	16506	19175	0	788
-10.061	-11.396	16471	18774	0	788
-5.914	-5.193	16349	18301	0	788
1.839	3.714	16121	17779	0	788
6.455	9.845	15911	17241	0	788
5.734	10.783	15595	16703	0	788
-0.216	5.698	15472	16275	0	788
-8.583	-1.370	15384	16118	0	788
-16.408	-6.852	15384	16178	0	788
-20.952	-8.907	15332	16162	0	788
-23.296	-9.016	15297	16049	0	788
-23.116	-8.006	15472	16130	0	788
-22.503	-7.898	15648	16468	0	788
-20.664	-11.468	15999	16942	0	788
-18.608	-16.336	16384	17464	0	788
-17.923	-20.195	16910	18010	0	788
-20.303	-25.784	17348	18463	0	788
-23.080	-28.994	17612	18641	0	788
-27.768	-31.374	17910	18588	0	788
-27.984	-29.715	18261	18604	0	788
-26.397	-26.830	18612	18782	0	788
-22.322	-21.673	19103	19009	0	788
-20.267	-17.562	19401	19142	0	788
-18.572	-14.172	19629	19017	0	788
-18.680	-12.766	19717	18608	0	788
-19.437	-12.261	19629	18042	0	788
-20.231	-10.206	19454	17387	0	788
-19.618	-9.989	19226	16679	0	788
-17.815	-9.088	18787	15960	0	788
-16.913	-10.710	18436	15240	0	788
-16.480	-12.189	18050	14544	0	788
-18.283	-14.858	17471	13884	0	788
-18.752	-16.949	16945	13290	0	788
-17.851	-16.192	16419	12780	0	788
-15.074	-15.723	15911	12351	0	788
-12.946	-17.021	15507	12084	0	788
-16.156	-19.690	15244	12149	0	788
-21.637	-24.739	15069	12489	0	788
-27.299	-28.850	14858	12780	0	788
-29.931	-31.194	14718	12995	0	788
-27.083	-29.859	14718	13407	0	788
-22.503	-27.371	14770	13998	0	788
-16.589	-22.935	14770	14467	0	788
-13.163	-20.123	14770	14791	0	788
-14.208	-18.716	14946	15256	0	788
-14.713	-18.247	15156	15851	0	788
-15.615	-18.320	15209	16275	0	788
-14.821	-16.733	15209	16440	0	788
-11.648	-13.235	15156	16468	0	788
-9.304	-10.494	15069	16424	0	788
-5.193	-10.386	14858	16320	0	788
-0.505	-10.133	14718	16251	0	788
3.029	-11.251	14806	16396	0	788
4.255	-12.586	14946	16719	0	788
1.947	-12.802	14981	16998	0	788
-4.688	-16.552	15244	17306	0	788
-10.458	-21.168	15472	17706	0	788
-13.848	-24.089	15683	17949	0	788
-13.956	-24.125	15823	18014	0	788
-10.097	-21.132	16086	18192	0	788
-8.943	-17.995	16349	18475	0	788
-8.547	-16.985	16594	18653	0	788
-12.225	-18.716	16910	18807	0	788
-16.913	-20.916	17208	19009	0	788
-18.356	-22.178	17436	19017	0	788
-15.326	-21.204	17436	18742	0	788
-10.566	-18.969	17436	18321	0	788
-4.652	-16.697	17261	17840	0	788
-2.813	-15.146	17173	17395	0	788
-2.957	-15.687	17208	17180	0	788
-4.868	-16.805	17261	17140	0	788
-3.895	-16.516	17208	16990	0	788
-1.587	-16.733	17120	16638	0	788
1.154	-15.435	16857	16219	0	788
2.056	-16.192	16734	15855	0	788
0.288	-19.510	16734	15737	0	788
-3.678	-22.791	16734	15818	0	788
-5.481	-25.965	16647	15802	0	788
-7.357	-26.289	16559	15681	0	788
-7.068	-28.020	16734	15741	0	788
-7.032	-27.624	16857	16053	0	788
-8.655	-29.751	17173	16472	0	788
-9.268	-32.131	17471	16857	0	788
-11.648	-33.610	17699	17095	0	788
-13.054	-34.836	17962	17314	0	788
-12.838	-34.764	18261	17569	0	788
-10.602	-31.590	18436	17629	0	788
-4.616	-27.876	18489	17488	0	788
-2.092	-25.568	18699	17447	0	788
-2.452	-25.424	18927	17597	0	788
-7.970	-29.895	19401	17896	0	788
-14.281	-32.600	19892	18378	0	788
-16.084	-34.079	20331	18803	0	788
-13.740	-32.239	20594	18831	0	788
-9.520	-29.174	20682	18483	0	788
-6.131	-27.479	20594	17949	0	788
-6.022	-28.092	20506	17310	0	788
-6.888	-29.210	20103	16598	0	788
-9.917	-28.345	19717	15855	1	616
-12.297	-28.741	19313	15102	0	616
-17.454	-29.246	18875	14455	0	616
-23.512	-33.141	18664	14099	0	616
-27.804	-38.550	18401	13990	0	616
-29.210	-42.914	18085	13824	0	616
-29.787	-47.169	17734	13516	0	616
-28.164	-48.900	17384	13270	0	616
-29.968	-50.667	17384	13379	0	616
-31.662	-51.533	17524	13949	0	616
-31.554	-50.523	17699	14613	0	616
-31.446	-48.431	17787	15054	0	616
-31.374	-47.999	17962	15446	0	616
-32.239	-48.323	18173	15891	0	616
-34.331	-50.198	18138	16126	0	616
-33.898	-49.153	18138	16065	0	616
-30.617	-45.943	17910	15851	0	616
-26.433	-41.291	17734	15640	0	616
-25.171	-38.550	17699	15632	0	616
-24.991	-35.810	17647	15778	0	616
-24.955	-34.295	17524	15798	0	616
-22.863	-32.889	17261	15600	0	616
-20.988	-31.482	17033	15397	0	616
-20.267	-32.312	17120	15495	0	616
-21.385	-34.187	17348	16000	0	616
-22.503	-34.692	17559	16557	0	616
-23.440	-35.052	17559	16792	0	616
-23.549	-36.603	17524	16719	0	616
-27.047	-39.488	17436	16509	0	616
-28.850	-43.274	17261	16304	0	616
-30.653	-43.996	17261	16279	0	616
-30.581	-42.120	17208	16404	0	616
-29.571	-40.462	17208	16481	0	616
-33.754	-40.930	17296	16586	0	616
-38.334	-43.022	17384	16788	0	616
-40.606	-44.464	17348	16833	0	616
-38.658	-39.812	17348	16715	0	616
-31.230	-32.925	17384	16727	0	616
-22.683	-24.811	17384	16869	0	616
-19.437	-22.106	17348	16845	0	616
-18.320	-21.241	17208	16590	0	616
-18.103	-23.116	16945	16243	0	616
-18.608	-23.368	16647	15851	0	616
-17.418	-24.162	16384	15511	0	616
-16.408	-24.342	16262	15422	0	616
-15.651	-24.162	16262	15616	0	616
-13.054	-21.745	16384	15968	0	616
-7.970	-18.175	16506	16324	0	616
-3.895	-12.477	16559	16481	0	616
-0.252	-8.835	16471	16400	0	616
-0.505	-5.878	16297	16198	0	616
-4.183	-6.599	16034	15927	0	616
-7.934	-7.176	15735	15608	0	616
-13.595	-10.422	15420	15268	0	616
-17.274	-16.300	15034	14932	0	616
-20.880	-21.926	14683	14596	0	616
-24.775	-26.794	14156	14285	0	616
-28.417	-30.256	13753	14010	0	616
-34.331	-33.177	13279	13787	0	616
-38.803	-32.239	13016	13698	0	616
-38.875	-30.869	12876	13913	0	616
-32.997	-26.217	12928	14439	0	616
-22.683	-18.824	13104	15143	0	616
-12.514	-11.720	13314	15842	0	616
-6.816	-9.016	13402	16352	0	616
-7.248	-8.835	13577	16695	0	616
-12.045	-11.576	13981	17229	0	616
-13.884	-12.874	14595	18115	0	616
-12.910	-11.215	15069	18993	0	616
-8.294	-7.898	15472	19462	0	616
-5.229	-3.931	15735	19543	0	616
-6.203	-4.183	15823	19417	0	616
-11.287	-5.481	16034	19235	0	616
-16.661	-8.763	16262	19195	0	616
-18.572	-11.287	16471	19268	0	616
-19.798	-11.973	16559	19171	0	616
-20.844	-14.208	16594	18823	0	616
-25.243	-17.093	16471	18362	0	616
-31.194	-21.709	16349	17840	0	616
-37.072	-26.578	16174	17282	1	316
-39.488	-30.400	15858	16707	0	316
-38.009	-30.076	15507	16142	0	316
-32.384	-28.850	15156	15612	0	316
-27.479	-26.578	14806	15126	0	316
-23.549	-23.981	14455	14690	0	316
-21.457	-23.657	14069	14309	0	316
-20.736	-20.988	13718	13994	0	316
-17.418	-17.346	13367	13812	0	316
-11.720	-11.035	13314	13941	0	316
-4.796	-4.796	13367	14313	0	316
0.252	-0.216	13367	14702	0	316
2.019	1.551	13577	15151	0	316
2.380	1.226	13753	15717	0	316
-0.469	-0.613	13893	16142	0	316
-4.039	-2.813	14016	16400	0	316
-7.789	-4.832	14367	16776	0	316
-10.746	-5.806	14630	17269	0	316
-9.412	-3.173	14806	17581	0	316
-2.164	2.308	14946	17629	0	316
5.301	9.845	15034	17613	0	316
7.862	11.612	15244	17759	0	316
3.029	7.104	15507	18014	0	316
-7.898	-2.741	15735	18180	0	316
-18.933	-13.415	16121	18341	0	316
-23.440	-17.706	16384	18564	0	316
-20.916	-15.471	16647	18681	0	316
-15.795	-10.025	17033	18782	0	316
-11.900	-4.400	17296	18928	0	316
-10.855	-3.173	17524	18879	0	316
-11.720	-2.741	17559	18552	0	316
-11.107	-3.246	17471	18087	0	316
-11.540	-3.967	17384	17557	0	316
-10.819	-4.039	17261	17067	0	316
-10.963	-5.986	17296	16808	0	316
-12.045	-6.960	17348	16731	0	316
-11.504	-5.662	17261	16545	0	316
-10.242	-4.544	17085	16166	0	316
-10.097	-0.577	16857	15717	0	316
-10.927	0.180	16594	15264	0	316
-13.415	-1.442	16262	14807	0	316
-15.290	-4.796	15999	14447	0	316
-15.146	-5.301	15999	14451	0	316
-12.982	-3.714	16262	14936	0	316
-12.045	-1.442	16506	15531	0	316
-12.405	0.216	16559	15826	0	316
-15.362	-2.164	16559	15834	0	316
-20.123	-7.825	16594	15798	0	316
-26.902	-13.091	16734	15940	0	316
-30.833	-16.516	16857	16207	0	316
-32.564	-17.310	16910	16320	0	316
-31.085	-16.516	16822	16190	0	316
-27.479	-15.939	16682	15952	0	316
-22.467	-16.336	16419	15660	0	316
-19.473	-17.634	16262	15418	0	316
-18.608	-17.021	16262	15410	0	316
-17.815	-13.884	16262	15592	0	316
-17.382	-8.907	16297	15749	0	316
-17.923	-4.111	16559	16037	0	316
-20.159	-2.524	16945	16663	0	316
-23.657	-3.895	17384	17403	0	316
-24.991	-6.455	17910	18022	0	316
-23.260	-5.085	18348	18483	0	316
-20.555	-1.118	18576	18653	0	316
-16.264	3.246	18875	18572	0	316
-15.398	6.635	19103	18540	0	316
-16.877	5.806	19401	18653	0	316
-20.050	2.885	19717	18803	0	316
-23.008	-2.560	20015	18859	0	316
-26.073	-8.294	20155	18661	0	316
-30.292	-14.100	20068	18180	0	316
-31.230	-19.510	19892	17561	0	316
-30.941	-21.601	19805	16966	0	316
-27.407	-17.959	19717	16574	0	316
-21.132	-10.638	19717	16436	0	316
-15.795	-3.823	19840	16432	0	316
-13.776	-0.974	19892	16420	0	316
-16.769	-5.878	19752	16231	0	316
-22.791	-15.002	19576	15810	0	316
-28.237	-21.565	19313	15284	0	316
-27.407	-22.106	18840	14722	0	316
-23.837	-14.858	18524	14228	0	316
-18.247	-5.950	18348	13998	0	316
-15.038	-0.361	18085	13982	0	316
-13.163	2.813	17822	13893	0	316
-11.215	3.137	17471	13634	0	316
-10.061	3.318	17120	13419	0	316
-11.107	1.803	16945	13468	0	316
-12.802	-0.649	16857	13715	0	316
-16.192	-3.606	16594	13856	0	316
-17.166	-4.039	16349	13812	0	316
-16.661	-3.967	15999	13702	0	316
-16.372	-2.596	15648	13581	0	316
-16.264	-3.967	15209	13452	0	316
-16.048	-6.888	14770	13330	0	316
-15.146	-9.881	14367	13225	0	316
-13.307	-10.855	14016	13229	0	316
-14.894	-13.235	13841	13504	0	316
-17.526	-15.362	13806	13994	0	316
-21.241	-18.500	13630	14394	0	316
-23.476	-21.529	13402	14609	0	316
-25.929	-23.873	13227	14742	0	316
-27.227	-26.145	12928	14843	0	316
-28.777	-27.804	12700	14924	0	316
-29.427	-27.263	12437	14997	0	316
-27.119	-22.972	12174	15066	0	316
-20.411	-14.172	11876	15126	0	316
-12.189	-4.832	11613	15179	0	316
-4.977	1.515	11472	15308	0	316
-2.308	2.056	11472	15701	0	316
-3.246	-1.334	11613	16291	0	316
-6.022	-5.193	11788	16849	0	316
-7.970	-5.950	12051	17451	0	316
-7.212	-3.931	12437	18123	0	316
-5.373	-2.849	12753	18685	0	316
-4.255	-2.524	13314	19288	0	316
-6.347	-5.121	14016	20158	0	316
-8.186	-7.501	14683	20995	0	316
-10.746	-11.179	15209	21404	0	316
-16.300	-15.218	15560	21416	0	316
-23.549	-20.808	15823	21206	0	316
-31.843	-27.876	15999	20845	0	316
-37.865	-29.607	16034	20368	0	316
-39.704	-28.741	15999	19802	0	316
-33.574	-24.125	15858	19171	1	496
-28.345	-19.690	15683	18507	0	496
-25.135	-19.401	15472	17832	0	496
-26.109	-22.791	15209	17180	0	496
-27.804	-24.450	14893	16566	0	496
-23.981	-22.395	14595	16008	0	496
-15.398	-14.749	14455	15579	0	496
-5.301	-7.285	14332	15458	0	496
1.442	-2.849	14542	15664	0	496
0.649	-2.921	14770	16053	0	496
-5.626	-5.770	15121	16529	0	496
-13.091	-8.835	15560	17079	0	496
-19.510	-11.612	15946	17573	0	496
-23.549	-15.615	16349	17816	0	496
-25.063	-17.743	16419	17767	0	496
-22.935	-16.697	16471	17561	0	496
-19.437	-12.910	16594	17342	0	496
-15.903	-7.573	16769	17302	0	496
-15.723	-7.068	16945	17395	0	496
-17.202	-10.206	16998	17342	0	496
-20.772	-16.877	16998	17051	0	496
-23.224	-23.044	16998	16731	0	496
-26.614	-24.919	17085	16626	0	496
-27.371	-25.243	17208	16679	0	496
-28.453	-23.404	17173	16614	0	496
-27.010	-20.087	17120	16340	0	496
-24.811	-20.375	17085	16057	0	496
-22.863	-19.798	17173	15992	0	496
-20.880	-19.582	17261	16093	0	496
-20.267	-18.536	17208	16077	0	496
-17.815	-16.769	17085	15846	0	496
-16.336	-14.605	16945	15523	0	496
-17.454	-15.218	16769	15256	0	496
-20.700	-17.093	16769	15219	0	496
-24.811	-19.582	16769	15361	0	496
-27.227	-19.473	16734	15389	0	496
-26.974	-17.887	16559	15223	0	496
-22.286	-13.956	16471	15062	0	496
-17.526	-10.530	16471	15134	0	496
-11.540	-7.934	16647	15466	0	496
-8.475	-7.898	16998	16004	0	496
-10.963	-11.973	17612	16837	0	496
-16.697	-19.618	18313	17892	0	496
-24.847	-28.020	18962	18746	0	496
-32.384	-35.233	19366	19098	0	496
-35.629	-37.396	19629	19025	0	496
-34.728	-36.783	19717	18714	0	496
-33.502	-34.187	19629	18244	0	496
-32.672	-32.167	19489	17654	0	496
-29.030	-30.545	19278	17006	0	496
-26.722	-26.109	18875	16332	0	496
-22.503	-22.899	18612	15725	0	496
-19.690	-20.087	18489	15389	0	496
-16.625	-18.752	18313	15276	0	496
-16.084	-20.123	18138	15094	0	496
-16.805	-21.168	17787	14742	0	496
-16.697	-23.693	17471	14342	0	496
-16.661	-23.909	17033	13945	0	496
-15.290	-23.116	16594	13573	0	496
-12.009	-22.106	16262	13310	0	496
-10.061	-18.788	16086	13334	0	496
-8.258	-15.002	15911	13585	0	496
-8.511	-10.927	15683	13767	0	496
-6.960	-4.364	15472	13787	0	496
-6.491	0.036	15156	13747	0	496
-6.960	-0.397	14806	13707	0	496
-13.307	-6.491	14542	13666	0	496
-21.601	-17.815	14156	13626	0	496
-31.158	-26.145	13806	13593	0	496
-35.449	-29.391	13455	13581	0	496
-33.790	-24.702	13104	13593	0	496
-28.345	-16.444	12665	13626	0	496
-20.736	-6.996	12402	13686	0	496
-14.713	-2.885	12051	13787	0	496
-11.504	-1.875	11735	13913	0	496
-12.586	-5.049	11472	14071	0	496
-13.848	-7.862	11174	14261	0	496
-18.139	-11.287	10946	14463	0	496
-22.142	-12.189	10735	14685	0	496
-22.467	-13.091	10648	14993	0	496
-19.870	-11.540	10735	15559	0	496
-11.684	-5.842	10911	16316	0	496
-0.288	1.767	11086	16942	0	496
9.917	12.153	11297	17427	0	496
15.939	18.824	11648	18034	0	496
18.139	21.890	12174	18835	0	496
16.841	23.621	12753	19680	0	496
12.405	21.529	13367	20421	0	496
6.167	18.897	13841	20878	0	496
-1.046	14.533	14244	21003	0	496
-7.645	9.484	14420	20918	0	496
-10.566	5.626	14770	20781	0	496
-10.422	4.183	15121	20777	0	496
-9.376	5.770	15507	20882	0	496
-6.960	10.602	15770	20813	1	376
-4.760	16.372	15946	20481	0	376
-4.003	18.969	16034	20008	0	376
-2.056	19.077	16034	19466	0	376
0.325	16.372	15946	18875	0	376
4.724	15.651	15999	18337	0	376
9.845	20.159	16086	18042	0	376
14.208	26.902	16209	17937	0	376
14.281	31.807	16262	17739	0	376
12.838	33.862	16209	17362	0	376
11.648	32.889	16121	16922	0	376
14.821	35.016	15999	16477	0	376
20.916	40.858	15823	16037	0	376
25.748	49.261	15648	15600	0	376
29.571	58.096	15384	15183	0	376
30.112	64.479	15156	14795	0	376
30.725	69.059	14858	14451	0	376
31.302	70.105	14542	14151	0	376
31.987	68.590	14332	13897	0	376
31.122	65.885	14069	13763	0	376
28.669	61.882	14244	14018	0	376
22.467	57.375	14683	14839	0	376
13.091	50.126	15297	16020	0	376
2.344	41.616	16034	17148	0	376
-7.934	31.410	16822	18091	0	376
-13.884	22.972	17471	18839	0	376
-13.235	19.762	17962	19252	0	376
-6.708	24.955	18401	19381	0	376
4.436	36.639	19015	19604	0	376
14.605	50.559	19717	20113	0	376
20.303	58.024	20366	20570	0	376
19.942	55.788	20769	20587	0	376
13.595	45.835	20980	20202	0	376
3.931	35.269	21068	19604	0	376
0.397	28.633	21033	18867	0	376
0.072	31.049	20892	18038	0	376
7.717	39.055	20594	17164	0	376
15.290	46.087	20191	16296	0	376
18.536	48.576	19805	15442	0	376
15.182	44.645	19366	14629	0	376
6.599	33.285	18927	13945	0	376
-2.056	23.981	18840	13662	0	376
-7.140	20.231	18840	13897	0	376
-7.501	22.611	18962	14289	0	376
-9.737	25.424	18875	14427	0	376
-12.261	22.647	18787	14321	0	376
-17.490	15.471	18524	14115	0	376
-19.293	9.448	18313	13876	0	376
-17.346	8.150	17962	13618	0	376
-12.802	13.559	17559	13351	0	376
-10.494	18.067	17261	13164	0	376
-14.785	16.697	17261	13330	0	376
-22.106	9.412	17436	13957	0	376
-30.617	-1.046	17612	14677	0	376
-36.567	-7.032	17612	15086	0	376
-38.442	-7.789	17699	15280	0	376
-40.534	-7.465	17875	15588	0	376
-41.183	-6.780	18050	16081	0	376
-41.796	-8.330	18401	16634	0	376
-38.983	-7.501	18699	17104	0	376
-36.098	-6.131	18752	17306	0	376
-36.495	-4.724	18787	17213	0	376
-42.625	-9.268	18699	17039	0	376
-52.903	-19.185	18840	17023	0	376
-62.964	-29.354	18840	17120	0	376
-68.915	-34.187	18840	17055	0	376
-69.924	-35.233	18612	16756	0	376
-69.564	-35.016	18401	16356	0	376
-69.095	-36.314	17998	15911	0	376
-66.534	-37.108	17647	15442	0	376
-63.253	-35.665	17261	14989	0	376
-59.611	-32.276	16857	14560	0	376
-61.522	-30.869	16349	14164	0	376
-65.705	-31.049	15999	13889	0	376
-70.032	-32.276	15823	13917	0	376
-70.501	-30.545	15683	14180	0	376
-68.482	-30.076	15472	14378	0	376
-65.849	-30.364	15244	14402	0	376
-66.607	-35.990	14946	14374	0	376
-69.095	-38.983	14683	14338	0	376
-66.787	-37.324	14367	14297	0	376
-61.738	-29.968	14016	14257	0	376
-56.473	-22.214	13718	14220	0	376
-52.939	-18.788	13314	14188	0	376
-56.401	-22.431	13016	14172	0	376
-63.649	-32.528	12841	14269	0	376
-70.105	-42.301	12841	14722	0	376
-72.232	-47.313	13192	15632	0	376
-67.977	-45.222	13577	16622	0	376
-60.151	-37.901	13806	17298	0	376
-55.067	-30.833	14016	17658	0	376
-56.762	-29.787	14069	17852	0	376
-62.568	-34.944	14156	17937	0	376
-67.905	-40.606	14104	17917	0	376
-67.220	-41.291	14069	17820	0	376
-62.243	-37.721	14016	17670	0	376
-56.653	-31.735	13928	17557	0	376
-54.850	-27.984	14156	17747	0	376
-55.752	-30.004	14595	18358	0	376
-56.762	-33.249	15069	19025	0	376
-58.240	-35.882	15420	19349	0	376
-58.312	-36.134	15683	19417	0	376
-58.637	-35.701	16086	19571	0	376
-60.188	-35.521	16471	19802	0	376
-59.142	-36.747	16682	19826	0	376
-56.545	-37.324	16945	19648	0	376
-55.752	-37.541	17296	19575	0	376
-54.562	-36.747	17647	19693	0	376
-55.608	-36.062	18261	19956	0	376
-56.473	-36.495	18927	20392	0	376
-56.690	-37.432	19576	20761	0	376
-57.122	-39.163	20068	20805	0	376
-60.332	-42.481	20594	20712	0	376
-62.351	-45.979	21033	20607	0	376
-63.613	-48.539	21243	20251	0	376
-58.601	-47.854	21296	19591	0	376
-51.569	-43.347	21243	18766	1	464
-45.546	-36.928	21120	17941	0	464
-45.078	-34.403	21120	17326	0	464
-47.241	-32.853	21068	16885	0	464
-49.838	-34.223	21033	16424	0	464
-49.585	-36.891	21068	16033	0	464
-48.107	-37.793	20980	15757	0	464
-46.123	-39.272	20805	15369	0	464
-46.195	-39.308	20506	14787	0	464
-46.304	-38.839	20103	14147	0	464
-42.806	-37.793	19717	13508	0	464
-40.750	-35.557	19191	12881	0	464
-37.793	-34.872	18612	12299	0	464
-37.685	-35.990	18085	11773	0	464
-39.668	-38.731	17471	11328	0	464
-44.537	-44.176	16857	10964	0	464
-49.549	-46.809	16297	10762	0	464
-53.588	-47.674	15999	10883	0	464
-54.634	-44.969	15770	11275	0	464
-52.398	-40.750	15472	11627	0	464
-47.277	-38.622	15121	11834	0	464
-43.419	-39.596	14806	11995	0	464
-40.966	-41.039	14507	12238	0	464
-39.632	-41.868	14455	12723	0	464
-42.373	-40.498	14367	13391	0	464
-44.284	-40.498	14420	14026	0	464
-48.179	-41.255	14542	14690	0	464
-48.828	-42.553	14683	15430	0	464
-48.756	-44.609	14770	16000	0	464
-45.005	-42.517	14770	16300	0	464
-39.596	-39.127	14683	16444	0	464
-36.242	-33.105	14683	16582	0	464
-33.610	-28.561	14806	16885	0	464
-31.049	-25.027	14893	17310	0	464
-31.482	-24.198	15069	17654	0	464
-32.167	-24.522	15332	18002	0	464
-33.754	-27.047	15560	18414	0	464
-36.278	-29.895	15683	18645	0	464
-39.632	-31.626	15823	18681	0	464
-41.724	-32.492	16121	18819	0	464
-41.832	-31.807	16384	19061	0	464
-41.507	-31.771	16506	19114	0	464
-39.524	-31.735	16506	18896	0	464
-36.711	-33.069	16559	18612	0	464
-35.557	-33.574	16647	18515	0	464
-35.124	-33.357	16822	18556	0	464
-35.413	-29.210	16857	18447	0	464
-36.675	-27.299	16769	18107	0	464
-37.901	-27.479	16647	17666	0	464
-37.613	-28.741	16559	17269	0	464
-37.829	-30.256	16559	17095	0	464
-37.468	-29.607	16647	17100	0	464
-37.685	-27.948	16682	17075	0	464
-37.468	-26.830	16822	17095	0	464
-37.468	-27.407	17085	17294	0	464
-36.603	-29.246	17524	17678	0	464
-37.000	-30.328	18173	18341	0	464
-36.567	-28.128	18962	19211	0	464
-35.449	-27.443	19752	19956	0	464
-34.872	-26.001	20541	20526	0	464
-34.043	-26.289	21471	21112	0	464
-32.853	-25.388	22296	21606	0	464
-31.122	-23.909	23050	21841	0	464
-29.210	-20.700	23699	21877	0	464
-26.361	-17.670	24366	21788	0	464
-24.594	-16.841	24717	21497	0	464
-26.542	-17.959	24892	20858	0	464
-29.787	-19.546	24927	19871	0	464
-31.338	-19.798	24629	18706	0	464
-31.626	-19.221	24313	17456	0	464
-30.689	-17.634	23752	16170	0	464
-27.984	-17.454	23173	14896	0	464
-28.020	-18.464	22384	13670	0	464
-29.318	-20.988	21682	12517	0	464
-32.239	-20.411	20980	11554	0	464
-32.925	-20.772	20366	10964	0	464
-32.925	-21.565	19840	10685	0	464
-33.393	-23.044	19226	10410	0	464
-34.223	-26.902	18612	10041	0	464
-35.341	-27.551	17910	9698	1	316
-36.387	-24.558	17208	9418	0	316
-33.285	-19.221	16471	9220	0	316
-27.227	-12.874	15770	9103	0	316
-23.981	-10.133	15034	9058	0	316
-22.575	-10.025	14420	9176	0	316
-22.719	-11.900	14069	9613	0	316
-21.024	-13.523	13753	10308	0	316
-16.336	-11.360	13455	10956	0	316
-8.691	-9.376	13104	11437	0	316
-3.354	-4.436	12700	11862	0	316
-2.596	-1.803	12349	12262	0	316
-7.753	0.144	11999	12630	0	316
-16.084	-2.128	11648	12982	0	316
-22.250	-6.780	11349	13403	0	316
-23.549	-11.468	11297	14079	0	316
-21.060	-16.733	11349	14932	0	316
-16.192	-19.005	11349	15660	0	316
-15.074	-16.805	11297	16150	0	316
-18.247	-11.864	11209	16509	0	316
-23.080	-7.573	11174	16873	0	316
-26.037	-5.517	11437	17496	0	316
-24.702	-7.248	11963	18495	0	316
-20.159	-11.540	12437	19506	0	316
-14.281	-15.471	12841	20214	0	316
-9.629	-16.084	13577	20882	0	316
-6.239	-14.821	14455	21865	0	316
-5.914	-11.360	15472	23006	0	316
-4.400	-5.445	16349	23851	0	316
-1.911	0.288	16998	24138	0	316
-0.072	3.137	17612	24029	0	316
-0.072	1.010	18261	23964	0	316
-2.128	-4.219	19015	24146	0	316
-4.255	-9.376	19840	24324	0	316
-7.934	-11.468	20541	24300	0	316
-8.330	-8.835	21120	24045	0	316
-9.989	-6.239	21471	23451	0	316
-10.278	-4.111	21594	22504	0	316
-10.746	-2.056	21559	21363	0	316
-8.619	-0.180	21384	20125	0	316
-7.681	0.433	21155	18916	0	316
-7.645	-2.200	21120	18030	0	316
-9.737	-6.455	21243	17605	0	316
-11.251	-11.071	21331	17302	0	316
-12.766	-12.225	21208	16735	0	316
-12.261	-8.186	20980	15931	0	316
-8.835	-4.436	20629	15062	0	316
-6.780	-1.190	20155	14184	0	316
-5.121	-1.623	19664	13326	0	316
-4.472	-3.931	19015	12509	0	316
-8.547	-6.203	18401	11753	0	316
-11.468	-9.016	17699	11073	0	316
-12.586	-8.835	16998	10482	0	316
-11.720	-8.907	16262	9993	0	316
-7.104	-7.645	15595	9613	0	316
-1.298	-5.157	14858	9354	0	316
2.452	-3.462	14156	9208	0	316
4.832	-2.272	13630	9240	0	316
1.839	-3.931	13279	9613	0	316
-5.121	-9.520	13016	10260	0	316
-12.694	-17.995	12753	10851	0	316
-17.346	-24.414	12402	11283	0	316
-16.372	-27.191	12174	11740	0	316
-10.314	-23.512	12139	12448	0	316
-3.462	-15.615	12139	13330	0	316
0.865	-9.160	12139	14083	0	316
-0.865	-6.239	12086	14588	0	316
-4.868	-5.770	11963	14973	0	316
-8.078	-5.409	11788	15288	0	316
-7.934	-3.895	11648	15551	0	316
-3.462	1.623	11472	15762	0	316
0.361	3.534	11297	15927	0	316
0.541	3.859	11086	16061	0	316
-4.760	-1.154	10999	16255	0	316
-10.855	-6.383	11209	16764	0	316
-13.884	-9.520	11648	17698	0	316
-11.323	-6.527	12139	18685	0	316
-5.734	-2.416	12490	19308	0	316
-2.416	2.019	12700	19579	0	316
-3.210	1.767	13016	19741	1	316
-6.419	0.216	13542	20109	0	316
-9.412	-2.128	14192	20805	0	316
-8.366	-0.288	14806	21481	0	316
-4.940	1.767	15244	21735	0	316
-2.633	3.570	15648	21602	0	316
-1.298	-0.036	15770	21262	0	316
-2.885	-4.652	15946	20866	0	316
-4.003	-9.665	16209	20607	0	316
-3.462	-10.133	16471	20457	0	316
-1.695	-8.114	16594	20142	0	316
-1.010	-4.291	16647	19591	0	316
-0.757	-2.164	16559	18936	0	316
-2.200	-3.823	16384	18244	0	316
-3.823	-6.635	16297	17605	0	316
-5.734	-8.943	16297	17221	0	316
-5.157	-11.071	16349	17047	0	316
-6.816	-11.468	16262	16784	0	316
-8.583	-13.271	16121	16352	0	316
-11.684	-16.300	15911	15867	0	316
-13.018	-20.447	15683	15385	0	316
-14.028	-22.431	15384	14920	0	316
-11.648	-21.601	15121	14491	0	316
-8.871	-17.815	14858	14188	0	316
-8.511	-12.982	14858	14249	0	316
-8.006	-10.674	15244	14863	0	316
-8.763	-11.396	15858	15838	0	316
-7.681	-11.468	16349	16691	0	316
-7.645	-13.127	16647	17136	0	316
-8.835	-14.172	16857	17229	0	316
-12.622	-15.290	16945	17136	0	316
-17.598	-17.346	16945	16917	0	316
-19.041	-18.644	16822	16598	0	316
-15.903	-15.038	16647	16211	0	316
-8.619	-8.366	16419	15786	0	316
-0.397	-3.895	16121	15369	0	316
5.517	-1.839	15946	15046	0	316
6.708	-5.373	15858	14985	0	316
4.580	-11.287	15823	15134	0	316
0.902	-15.759	15735	15195	0	316
-0.649	-16.156	15648	15066	0	316
1.695	-13.163	15384	14868	0	316
6.960	-9.052	15069	14665	0	316
15.254	-3.642	14806	14451	0	316
23.440	1.875	14507	14240	0	316
29.895	6.816	14156	14046	0	316
36.387	11.251	13841	13876	0	316
41.724	14.785	13455	13747	0	316
44.609	15.759	13227	13731	0	316
45.871	15.687	13227	14006	0	316
44.861	15.435	13192	14499	0	316
42.986	15.471	13192	14912	0	316
41.724	17.166	13139	15126	0	316
43.419	17.093	13016	15248	0	316
43.743	18.356	12876	15333	0	316
46.051	17.959	12700	15385	0	316
46.917	17.598	12525	15418	0	316
47.710	16.877	12349	15434	0	316
47.530	14.172	12174	15446	0	316
45.114	10.386	11999	15462	0	316
43.924	5.986	11823	15486	0	316
41.075	1.659	11613	15511	0	316
40.750	-0.288	11437	15547	0	316
39.812	-1.731	11384	15681	0	316
38.767	-2.669	11525	16073	0	316
37.973	-3.137	11735	16659	0	316
38.009	-3.065	11999	17213	0	316
37.000	-3.318	12402	17795	0	316
35.269	-5.626	12841	18451	0	316
31.771	-8.222	13192	18916	0	316
28.417	-12.117	13490	19171	0	316
25.712	-12.946	14016	19519	0	316
24.702	-14.208	14542	20036	0	316
21.421	-14.894	15332	20688	0	316
16.805	-18.320	16262	21477	0	316
11.612	-23.260	17085	22152	0	316
8.835	-26.361	17699	22371	0	316
7.537	-26.433	18138	22160	0	316
9.016	-24.378	18401	21707	0	316
9.881	-21.818	18576	21100	0	316
11.792	-21.168	18576	20376	0	316
12.189	-21.385	18664	19660	0	316
12.874	-20.952	18927	19227	0	316
12.081	-20.014	19366	19215	0	316
9.665	-18.788	19717	19280	0	316
6.383	-20.231	19927	19013	0	316
3.173	-21.962	20068	18443	0	316
-0.036	-26.001	19927	17747	0	316
-1.767	-26.397	19892	17079	0	316
-0.974	-24.558	19927	16626	0	316
1.623	-19.942	19927	16356	0	316
3.967	-16.805	19805	15976	0	316
6.167	-16.949	19664	15410	0	316
4.724	-20.808	19313	14787	0	316
1.767	-28.525	18962	14172	0	316
-2.200	-33.357	18576	13573	0	316
-5.626	-37.036	18138	13015	0	316
-6.744	-36.098	17699	12578	0	316
-7.825	-32.492	17612	12533	0	316
-6.599	-29.787	17734	12986	0	316
-5.878	-27.407	17822	13581	0	316
-8.114	-27.155	17910	13982	0	316
-9.412	-28.237	18226	14439	0	316
-12.369	-29.968	18612	15223	0	316
-14.569	-29.354	19191	16101	0	316
-13.956	-28.669	19664	16833	0	316
-14.317	-27.047	20103	17387	0	316
-14.208	-26.974	20419	17617	0	316
-14.966	-27.155	20419	17492	0	316
-16.985	-28.705	20331	17148	0	316
-16.913	-29.499	20155	16671	0	316
-16.589	-27.479	19840	16113	0	316
-14.785	-25.640	19454	15515	0	316
-14.930	-22.611	19015	14912	0	316
-15.975	-22.214	18576	14334	0	316
-17.310	-22.250	18138	13872	0	316
-17.346	-23.152	17822	13694	0	316
-16.048	-23.296	17612	13751	0	316
-15.362	-23.549	17348	13751	0	316
-16.552	-24.775	16998	13597	0	316
-19.978	-27.984	16559	13395	0	316
-21.781	-30.184	16121	13201	0	316
-20.483	-29.535	15770	13100	0	316
-15.831	-26.109	15595	13274	0	316
-12.802	-21.709	15472	13666	0	316
-11.937	-19.546	15332	14054	0	316
-16.300	-20.483	15472	14512	0	316
-20.303	-22.899	15507	15090	0	316
-22.431	-26.325	15507	15527	0	316
-21.349	-26.217	15420	15717	0	316
-18.788	-26.289	15297	15774	0	316
-15.398	-23.368	15156	15762	0	316
-13.307	-21.385	14858	15701	0	316
-12.405	-20.050	14595	15608	0	316
-13.271	-20.808	14420	15567	0	316
-17.562	-24.991	14367	15766	0	316
-22.755	-29.354	14455	16154	0	316
-25.929	-30.076	14367	16428	0	316
-23.080	-27.299	14420	16570	0	316
-16.048	-21.421	14542	16857	0	316
-10.530	-16.264	14806	17367	0	316
-7.825	-13.379	15297	18054	0	316
-9.124	-13.091	15911	18928	0	316
-11.107	-12.225	16471	19741	0	316
-10.891	-11.035	16998	20222	0	316
-10.025	-9.629	17559	20550	0	316
-8.583	-10.891	18085	20841	0	316
-10.530	-10.819	18348	20854	0	316
-12.514	-10.530	18524	20522	0	316
-11.792	-7.825	18489	20000	0	316
-11.035	-5.554	18436	19365	0	316
-9.989	-4.760	18313	18649	0	316
-8.330	-5.734	17998	17892	0	316
-9.629	-7.393	17699	17128	0	316
-11.360	-9.304	17348	16384	0	316
-15.254	-11.937	16857	15677	0	316
-19.293	-15.795	16419	15021	0	316
-22.503	-16.985	15999	14423	0	316
-23.404	-17.562	15507	13897	0	316
-21.745	-15.326	15034	13440	0	316
-19.473	-12.730	14542	13055	0	316
-17.093	-12.189	14069	12752	0	316
-15.326	-12.658	13630	12533	0	316
-13.668	-10.710	13139	12400	0	316
-9.953	-8.907	12841	12424	0	316
-9.052	-6.275	12876	12841	0	316
-7.717	-5.013	13051	13747	0	316
-9.304	-3.967	13367	14774	0	316
-10.242	-3.390	13630	15495	0	316
-12.045	-3.137	13665	15911	0	316
-14.389	-7.321	13806	16174	0	316
-18.933	-12.730	13841	16420	0	316
-24.053	-20.087	14244	16909	0	316
-27.768	-24.378	14770	17759	0	316
-29.318	-24.378	15332	18697	0	316
-25.893	-20.447	16034	19486	0	316
-21.349	-15.939	16594	20089	0	316
-15.795	-11.251	17033	20376	0	316
-12.081	-6.131	17384	20384	0	316
-9.124	-2.596	17787	20425	0	316
-7.753	1.731	18226	20518	0	316
-5.373	2.849	18436	20384	0	316
-6.816	0.829	18489	19947	0	316
-8.439	-2.813	18489	19349	0	316
-13.668	-8.763	18401	18742	0	316
-15.002	-10.206	18664	18402	1	740
-13.163	-7.285	18962	18475	0	740
-6.599	-0.613	19278	18617	0	740
1.046	7.248	19454	18515	0	740
5.157	10.746	19892	18463	0	740
4.868	11.287	20366	18722	0	740
0.469	8.258	20892	19057	0	740
-4.291	3.426	21419	19248	0	740
-7.068	0.216	21822	19272	0	740
-7.321	-0.829	22033	19001	0	740
-5.517	2.128	21998	18418	0	740
0.000	8.042	22033	17739	0	740
5.193	14.966	21998	17213	0	740
9.232	20.844	21998	16816	0	740
13.487	22.899	21822	16287	0	740
15.543	23.657	21506	15547	0	740
17.526	24.162	21068	14750	0	740
17.562	24.198	20594	13957	0	740
17.706	22.827	20103	13274	0	740
16.192	21.385	19840	12889	0	740
14.136	16.985	19454	12760	0	740
10.350	14.100	19226	12663	0	740
7.393	9.268	19138	12752	0	740
2.669	6.816	19401	13326	0	740
-1.659	3.354	19752	14236	0	740
-2.272	1.695	20068	15009	0	740
0.036	3.029	20191	15365	0	740
3.750	5.481	20103	15361	0	740
7.212	7.537	19980	15167	0	740
7.321	9.953	19629	14863	0	740
4.977	9.556	19313	14483	0	740
4.219	10.133	18787	14058	0	740
5.157	11.323	18313	13618	0	740
8.186	13.415	17699	13177	0	740
11.071	16.589	17120	12760	0	740
12.441	19.437	16594	12461	0	740
13.812	23.512	16262	12469	0	740
17.166	27.479	15946	12723	0	740
21.565	29.607	15595	12918	0	740
24.162	26.974	15297	12966	0	740
24.234	23.152	14770	12966	0	740
21.096	19.077	14332	12966	0	740
18.500	16.625	13893	12966	0	740
17.490	16.913	13402	12978	0	740
16.372	17.743	12928	13019	0	740
12.910	14.785	12490	13088	0	740
7.068	10.386	12174	13270	0	740
-0.433	3.570	11999	13731	0	740
-6.383	-0.829	11963	14398	0	740
-10.494	-4.436	11963	15050	0	740
-9.701	-4.832	12262	15834	0	740
-6.996	-1.406	12753	16962	0	740
-0.902	3.642	13279	18107	0	740
4.652	7.176	13542	18835	0	740
5.121	6.419	13806	19175	0	740
-2.849	-2.128	13893	19300	0	740
-15.290	-14.749	13981	19272	0	740
-28.056	-26.145	13893	19114	0	740
-33.393	-30.400	13841	18871	0	740
-27.335	-25.243	13665	18564	0	740
-17.418	-15.507	13490	18220	0	740
-10.097	-9.052	13279	17856	0	740
-9.088	-8.042	13139	17569	0	740
-15.939	-12.874	13227	17540	0	740
-23.332	-17.743	13227	17706	0	740
-25.748	-20.555	13367	17852	0	740
-24.594	-20.555	13665	18046	0	740
-21.277	-19.401	13841	18341	0	740
-21.962	-20.844	14156	18568	0	740
-24.198	-24.594	14595	18884	0	740
-30.545	-29.391	15209	19511	0	740
-37.288	-35.016	15823	20142	0	740
-41.724	-40.101	16209	20368	0	740
-44.032	-43.635	16471	20214	0	740
-44.032	-43.094	16647	19858	0	740
-40.858	-42.120	16647	19377	0	740
-39.849	-39.560	16594	18803	0	740
-39.055	-38.731	16471	18163	0	740
-40.714	-38.478	16262	17496	0	740
-42.229	-39.993	15946	16828	0	740
-44.068	-39.272	15648	16186	0	740
-44.032	-38.298	15332	15575	0	740
-44.248	-36.855	14946	15017	0	740
-42.265	-34.475	14542	14507	0	740
-41.652	-33.069	14192	14054	0	740
-40.101	-30.400	13753	13674	0	740
-38.045	-27.515	13490	13448	0	740
-34.331	-23.440	13367	13533	0	740
-29.968	-20.519	13455	13941	0	740
-26.650	-18.464	13718	14536	0	740
-24.594	-17.995	13893	15155	0	740
-27.299	-18.392	14016	15600	0	740
-29.246	-19.690	14156	15814	0	740
-31.410	-22.395	14104	15899	0	740
-32.095	-25.352	14069	15907	0	740
-31.951	-28.309	13928	15851	0	740
-30.004	-28.814	13841	15745	0	740
-31.158	-29.859	13630	15616	0	740
-35.341	-32.780	13455	15466	0	740
-42.553	-36.206	13279	15317	0	740
-49.441	-41.507	13016	15171	0	740
-49.730	-41.940	12788	15046	0	740
-45.330	-37.505	12577	14940	0	740
-36.206	-30.761	12314	14872	0	740
-31.518	-25.784	12174	14916	0	740
-30.328	-23.945	12314	15240	0	740
-33.249	-23.585	12577	15851	0	740
-34.223	-23.981	12963	16598	0	740
-31.735	-23.260	13402	17403	0	740
-28.201	-20.988	14069	18232	0	740
-22.575	-19.582	14595	18964	0	740
-18.139	-16.769	15034	19413	0	740
-15.146	-11.900	15420	19531	0	740
-11.828	-7.068	15648	19515	0	740
-11.035	-2.633	16034	19616	0	740
-9.881	-2.849	16384	19790	0	740
-10.350	-5.734	16647	19765	0	740
-11.143	-11.468	16769	19478	0	740
-11.864	-14.569	16822	19049	0	740
-15.218	-18.031	16910	18633	0	740
-19.942	-21.096	17033	18410	1	480
-25.352	-24.414	17261	18354	0	480
-30.545	-28.237	17348	18163	0	480
-32.348	-31.518	17436	17836	0	480
-32.672	-32.239	17699	17743	0	480
-31.302	-31.843	18173	18058	0	480
-29.607	-31.879	18612	18418	0	480
-26.758	-31.230	18840	18426	0	480
-24.522	-32.131	19050	18180	0	480
-21.060	-32.492	19313	18026	0	480
-19.113	-34.331	19541	17969	0	480
-18.139	-35.629	19664	17722	0	480
-18.500	-36.278	19541	17221	0	480
-18.139	-35.882	19401	16606	0	480
-16.985	-33.538	19191	16037	0	480
-15.867	-31.446	19278	15774	0	480
-13.235	-29.066	19576	15960	0	480
-11.937	-29.895	19717	16239	0	480
-12.261	-30.508	19752	16211	0	480
-13.668	-34.439	19840	15976	0	480
-15.867	-38.406	19892	15871	0	480
-17.346	-40.498	19980	15887	0	480
-16.877	-43.202	19927	15737	0	480
-16.408	-43.347	19717	15345	0	480
-16.192	-43.383	19401	14859	0	480
-17.815	-45.114	19050	14358	0	480
-19.401	-46.953	18612	13844	0	480
-18.969	-45.907	18261	13431	0	480
-16.552	-46.268	18173	13375	0	480
-14.785	-44.464	18226	13804	0	480
-15.254	-45.438	18348	14354	0	480
-18.824	-46.232	18261	14613	0	480
-22.575	-46.736	18226	14592	0	480
-21.745	-44.356	17962	14447	0	480
-16.336	-38.550	17647	14232	0	480
-6.708	-31.915	17348	14054	0	480
-0.072	-26.181	17348	14188	0	480
4.255	-19.978	17559	14770	0	480
2.236	-16.516	17699	15438	0	480
-2.272	-14.461	17734	15778	0	480
-4.940	-10.530	17699	15810	0	480
-6.347	-7.681	17647	15782	0	480
-3.534	-1.154	17787	16008	0	480
-1.551	5.193	18085	16598	0	480
-0.974	8.547	18401	17217	0	480
-5.121	10.638	18489	17464	0	480
-11.287	10.350	18524	17371	0	480
-11.504	13.595	18524	17197	0	480
-8.150	23.296	18576	17168	0	480
2.092	35.052	18752	17338	0	480
11.323	46.159	18927	17597	0	480
15.795	51.100	19191	17799	0	480
10.494	48.395	19138	17767	0	480
4.003	44.897	19050	17460	0	480
-0.325	45.005	19015	17091	0	480
3.354	53.552	18962	16897	0	480
13.415	65.525	18927	16849	0	480
26.109	77.894	18752	16667	0	480
36.098	84.097	18524	16271	0	480
40.678	85.467	18226	15778	0	480
40.065	83.015	17787	15268	0	480
37.324	77.065	17348	14754	0	480
31.987	69.636	16857	14253	0	480
26.578	65.561	16384	13779	0	480
26.722	65.489	15823	13351	0	480
31.085	71.295	15244	12978	0	480
37.288	77.389	14718	12671	0	480
38.550	76.848	14244	12517	0	480
35.665	67.616	14016	12691	0	480
24.450	56.076	13806	13136	0	480
15.435	48.323	13665	13529	0	480
9.376	45.871	13402	13755	0	480
7.321	49.405	13192	13917	0	480
6.167	51.244	12928	14058	0	480
5.698	51.280	12577	14180	0	480
6.491	49.549	12314	14293	0	480
8.186	46.628	12051	14402	0	480
11.504	44.825	11788	14512	0	480
13.307	43.347	11525	14621	0	480
13.127	42.193	11209	14738	0	480
11.937	42.265	11086	14952	0	480
12.874	45.943	11209	15507	0	480
17.382	50.090	11613	16493	0	480
23.549	55.860	12051	17553	0	480
28.922	60.079	12402	18269	0	480
31.662	57.663	12613	18649	0	480
29.391	51.893	12841	18928	0	480
24.558	45.222	13279	19324	0	480
21.781	43.166	13718	19871	0	480
20.087	44.609	14455	20542	0	480
20.411	48.467	15244	21359	0	480
21.637	48.287	15999	22063	0	480
20.664	43.924	16506	22310	0	480
15.975	35.197	16910	22128	0	480
10.746	28.705	17173	21715	0	480
5.121	27.263	17208	21153	0	480
-0.577	27.804	17173	20469	0	480
-4.436	30.364	17173	19717	1	388
-7.357	30.581	17085	19009	0	388
-11.107	29.354	17173	18544	0	388
-11.504	26.758	17348	18366	0	388
-12.297	26.542	17612	18337	0	388
-13.054	27.732	17822	18317	0	388
-14.425	30.797	17962	18115	0	388
-13.848	33.970	17998	17690	0	388
-11.071	36.783	17822	17148	0	388
-6.275	40.858	17647	16557	0	388
0.613	43.743	17524	16020	0	388
5.337	47.313	17471	15721	0	388
6.527	48.395	17436	15628	0	388
6.671	48.359	17436	15458	0	388
5.229	47.566	17208	15110	0	388
4.652	45.618	16945	14706	0	388
8.078	46.664	16769	14386	0	388
9.340	48.936	16682	14329	0	388
10.891	48.107	16682	14475	0	388
6.888	46.304	16559	14528	0	388
2.524	43.130	16384	14398	0	388
-2.705	39.308	16262	14281	0	388
-3.426	38.803	16297	14394	0	388
-2.705	39.524	16297	14685	0	388
-1.479	38.190	16262	14859	0	388
-4.760	32.961	16121	14827	0	388
-9.088	28.922	15911	14706	0	388
-13.740	24.955	15735	14556	0	388
-17.129	26.686	15420	14390	0	388
-17.346	28.489	15244	14293	0	388
-17.995	28.922	15156	14443	0	388
-18.283	26.325	15156	14787	0	388
-21.601	21.673	15069	15021	0	388
-23.801	18.933	14981	15062	0	388
-23.152	20.014	14770	15017	0	388
-19.437	21.818	14507	14944	0	388
-13.992	24.666	14279	14847	0	388
-9.448	24.558	13981	14742	0	388
-11.612	21.601	13718	14641	0	388
-16.192	18.211	13490	14633	0	388
-23.981	12.946	13490	14892	0	388
-29.246	7.068	13490	15353	0	388
-32.708	2.885	13542	15721	0	388
-32.600	-0.505	13542	15891	0	388
-33.069	-1.154	13402	15972	0	388
-33.538	-0.216	13314	16016	0	388
-35.593	0.793	13104	16016	0	388
-36.819	0.649	13016	15980	0	388
-36.964	-1.010	12928	16016	0	388
-37.072	-3.787	13016	16304	0	388
-36.891	-7.970	13279	16853	0	388
-40.606	-11.937	13718	17532	0	388
-44.140	-16.408	14069	18176	0	388
-46.051	-17.129	14420	18588	0	388
-46.736	-16.552	14595	18718	0	388
-46.340	-16.084	14683	18681	0	388
-45.222	-18.247	14770	18540	0	388
-46.412	-22.286	14858	18406	0	388
-45.366	-24.811	15069	18463	0	388
-41.760	-24.811	15332	18657	0	388
-38.586	-20.231	15507	18693	0	388
-37.937	-17.093	15560	18499	0	388
-39.452	-17.526	15560	18200	0	388
-42.914	-22.575	15472	17856	0	388
-44.032	-27.768	15384	17476	0	388
-43.166	-29.823	15209	17071	0	388
-38.947	-25.388	15209	16739	0	388
-34.620	-16.769	15209	16659	0	388
-33.177	-11.432	15332	16776	0	388
-34.547	-11.179	15332	16800	0	388
-36.855	-16.985	15420	16719	0	388
-38.009	-22.791	15648	16812	0	388
-37.180	-24.558	15858	17071	0	388
-32.023	-19.257	15999	17201	0	388
-24.630	-12.946	16034	17100	0	388
-20.375	-8.583	16034	16885	0	388
-17.129	-8.943	15946	16622	0	388
-15.146	-9.124	15946	16400	0	388
-15.435	-8.006	16034	16404	0	388
-14.425	-2.669	16174	16586	0	388
-17.166	-0.974	16209	16646	0	388
-22.575	-2.380	16209	16501	0	388
-29.787	-9.629	16121	16275	0	388
-34.006	-17.129	16086	16012	0	388
-34.764	-22.719	15858	15725	0	388
-31.446	-22.539	15595	15426	0	388
-27.696	-20.447	15384	15122	0	388
-25.893	-16.589	15121	14831	0	388
-24.739	-12.297	14946	14649	0	388
-24.198	-8.691	15034	14835	0	388
-24.414	-6.131	15384	15490	0	388
-24.594	-5.049	15735	16239	0	388
-26.433	-5.950	15946	16663	0	388
-26.037	-5.842	16174	16869	0	388
-24.811	-5.698	16506	17184	0	388
-23.008	-7.609	16822	17601	0	388
-22.286	-9.124	17033	17816	0	388
-22.611	-10.314	17173	17743	0	388
-23.657	-8.006	17120	17516	0	388
-23.873	-4.760	17085	17209	0	388
-24.594	-0.397	16910	16845	0	388
-25.460	1.406	16734	16436	0	388
-25.929	-0.108	16471	16020	0	388
-27.768	-3.787	16174	15596	0	388
-27.443	-6.203	15911	15191	0	388
-27.660	-9.088	15648	14900	0	388
-26.001	-7.970	15595	14912	0	388
-25.316	-6.960	15595	15155	0	388
-25.893	-6.239	15560	15312	0	388
-30.184	-8.727	15472	15284	0	388
-37.505	-16.877	15332	15191	0	388
-43.815	-24.883	15121	15078	0	388
-46.772	-26.830	14893	14952	0	388
-47.025	-24.666	14683	14823	0	388
-47.782	-20.339	14455	14698	0	388
-50.198	-17.923	14244	14677	0	388
-54.526	-19.726	14332	14928	0	388
-57.050	-22.683	14420	15393	0	388
-53.841	-20.303	14455	15753	0	388
-49.585	-14.858	14507	15903	0	388
-43.779	-8.979	14455	16037	0	388
-39.812	-3.354	14718	16384	0	388
-37.144	-0.144	15034	16958	0	388
-35.485	-1.154	15472	17629	0	388
-35.233	-4.111	16034	18317	0	388
-35.846	-9.629	16594	18997	0	388
-35.160	-11.251	17261	19648	0	388
-31.518	-9.232	18050	20336	0	388
-26.145	-1.370	19050	21206	0	388
-20.736	5.770	20103	22168	0	388
-19.906	5.481	21033	22836	0	388
-24.955	-0.721	21682	22945	0	388
-30.869	-8.835	22120	22589	0	388
-36.314	-14.605	22384	21954	0	388
-37.865	-15.579	22436	21129	0	388
-36.062	-14.461	22348	20158	0	388
-33.393	-13.054	22173	19094	1	544
-35.016	-15.723	21857	17989	0	544
-41.147	-20.627	21559	16970	0	544
-49.693	-26.109	21384	16235	0	544
-52.903	-28.128	21296	15806	0	544
-48.431	-26.001	21296	15571	0	544
-36.278	-19.906	21243	15381	0	544
-23.981	-14.425	21068	15054	0	544
-21.060	-14.353	20805	14548	0	544
-26.289	-17.454	20506	13982	0	544
-34.872	-21.168	20015	13407	0	544
-38.118	-20.375	19629	12926	0	544
-33.862	-16.408	19454	12719	0	544
-26.614	-12.297	19191	12748	0	544
-19.546	-11.432	18927	12719	0	544
-19.041	-14.281	18612	12618	0	544
-20.483	-15.975	18524	12723	0	544
-20.411	-15.074	18348	13027	0	544
-16.769	-11.576	18173	13225	0	544
-10.602	-9.196	17910	13233	0	544
-4.652	-8.006	17559	13160	0	544
-4.219	-10.530	17208	13067	0	544
-6.311	-11.973	16822	12958	0	544
-9.196	-12.369	16384	12841	0	544
-12.369	-11.864	16034	12825	0	544
-12.225	-10.927	15858	13088	0	544
-11.432	-12.658	15735	13561	0	544
-12.081	-14.353	15595	13941	0	544
-13.127	-16.120	15384	14123	0	544
-13.523	-15.002	15069	14224	0	544
-13.848	-10.422	14806	14293	0	544
-12.694	-7.393	14630	14418	0	544
-13.956	-6.455	14542	14783	0	544
-16.444	-10.206	14595	15329	0	544
-20.375	-13.307	14683	15838	0	544
-24.234	-14.533	14806	16376	0	544
-24.630	-11.648	15069	16986	0	544
-23.368	-8.583	15297	17496	0	544
-25.352	-9.304	15595	17973	0	544
-27.047	-12.369	15858	18479	0	544
-31.662	-14.064	16034	18778	0	544
-35.016	-14.605	16209	18859	0	544
-35.233	-10.855	16471	19025	0	544
-32.961	-7.465	16734	19288	0	544
-28.958	-4.255	16910	19357	0	544
-26.109	-3.173	16945	19146	0	544
-22.863	-2.380	16857	18786	0	544
-23.801	-2.596	16734	18345	0	544
-25.604	-4.688	16559	17840	0	544
-28.381	-6.022	16349	17387	0	544
-32.492	-8.402	16349	17193	0	544
-36.423	-10.422	16349	17201	0	544
-41.363	-12.730	16384	17197	0	544
-48.395	-16.697	16559	17249	0	544
-54.670	-21.313	16682	17411	0	544
-63.000	-25.893	16769	17427	0	544
-68.987	-29.643	16734	17213	0	544
-73.062	-31.987	16594	16893	0	544
-73.386	-30.292	16419	16525	0	544
-70.646	-28.705	16174	16126	0	544
-65.561	-26.470	15999	15790	0	544
-63.938	-25.063	15946	15713	0	544
-66.246	-26.974	16034	15927	0	544
-72.088	-28.850	16349	16380	0	544
-78.002	-31.085	16857	17079	0	544
-82.005	-32.816	17436	17856	0	544
-82.366	-32.203	18050	18511	0	544
-79.950	-30.941	18524	18989	0	544
-77.786	-28.561	18962	19235	0	544
-74.107	-25.099	19401	19381	0	544
-68.338	-19.870	19840	19494	0	544
-59.683	-13.956	19980	19357	0	544
-52.506	-9.304	20015	18904	0	544
-46.159	-7.970	19927	18289	0	544
-47.926	-12.369	19752	17593	0	544
-54.129	-19.041	19454	16845	0	544
-63.181	-27.876	19103	16089	0	544
-71.367	-32.312	18664	15345	0	544
-76.920	-36.928	18226	14625	0	544
-80.959	-40.498	17612	13949	0	544
-82.907	-45.005	17120	13334	0	544
-82.654	-45.691	16559	12796	0	544
-81.933	-45.727	15999	12339	0	544
-80.058	-42.265	15472	11963	0	544
-77.966	-41.003	14858	11680	0	544
-78.796	-41.399	14279	11486	0	544
-77.858	-41.868	13806	11380	0	544
-73.927	-41.255	13279	11356	0	544
-64.010	-36.062	12841	11405	0	544
-50.307	-28.273	12402	11522	0	544
-37.108	-20.664	11911	11692	0	544
-29.607	-16.625	11525	11914	0	544
-26.253	-15.290	11174	12181	0	544
-25.279	-13.740	10823	12489	0	544
-21.601	-12.045	10560	12833	0	544
-17.454	-9.304	10384	13282	0	544
-14.281	-7.248	10472	13994	0	544
-15.471	-9.881	10595	14900	0	544
-17.815	-12.874	10770	15770	0	544
-17.706	-14.245	11121	16663	0	544
-13.776	-10.855	11560	17625	0	544
-7.898	-4.003	11911	18390	0	544
-3.210	0.072	12174	18851	0	544
-0.361	1.370	12437	19207	0	544
1.298	0.613	13016	19761	0	544
3.606	-2.344	13893	20716	0	544
6.311	-3.426	14806	21885	0	544
9.124	-0.902	15770	22888	0	544
12.261	2.741	16822	23617	0	544
15.615	6.852	17734	24163	0	544
18.752	13.163	18664	24563	0	544
26.145	18.608	19489	24729	0	544
33.249	23.512	20015	24502	0	544
41.291	28.092	20366	23871	0	544
49.585	32.059	20717	23078	0	544
54.345	33.718	21155	22476	0	544
55.572	35.413	21682	22205	1	464
55.283	36.711	22173	21946	0	464
53.877	36.964	22384	21323	0	464
53.913	35.593	22436	20372	0	464
53.949	32.636	22296	19292	0	464
54.526	32.131	22085	18143	0	464
55.463	33.429	21734	16970	0	464
56.906	38.478	21419	15899	0	464
59.106	44.537	21208	15114	0	464
60.188	45.222	20945	14576	0	464
58.312	43.166	20629	14006	0	464
54.670	36.747	20243	13310	0	464
50.523	31.194	19717	12618	0	464
48.035	28.777	19191	11979	0	464
49.405	27.155	18612	11393	0	464
51.569	27.407	17998	10879	0	464
54.562	26.614	17348	10434	0	464
57.086	27.479	16734	10078	0	464
59.394	26.974	16121	9819	0	464
59.574	27.768	15507	9653	0	464
57.555	27.227	14893	9576	0	464
55.139	24.342	14367	9673	0	464
53.516	23.729	14156	10094	0	464
54.454	24.089	14016	10855	0	464
60.332	27.768	14104	11805	0	464
64.695	31.049	14192	12772	0	464
67.652	33.610	14244	13545	0	464
66.210	31.843	14156	14062	0	464
60.692	26.145	14069	14451	0	464
56.798	22.070	13981	14766	0	464
54.670	18.572	13841	15090	0	464
54.273	18.752	14016	15596	0	464
55.788	19.654	14104	16239	0	464
56.221	19.762	14192	16719	0	464
55.211	16.877	14156	16958	0	464
52.939	11.864	14156	17059	0	464
48.684	6.888	14016	17087	0	464
42.589	2.056	14016	17124	0	464
36.819	-1.731	14104	17358	0	464
35.485	-2.813	14420	17828	0	464
38.658	-0.902	14718	18410	0	464
42.986	-0.216	15069	18940	0	464
41.219	-3.173	15332	19227	0	464
35.701	-9.196	15420	19215	0	464
27.912	-16.120	15507	19029	0	464
27.299	-16.805	15507	18831	0	464
34.836	-11.720	15683	18807	0	464
44.248	-3.750	15911	18924	0	464
47.746	-0.577	15999	18884	0	464
43.022	-5.914	15999	18612	0	464
35.160	-12.910	15911	18240	0	464
29.823	-18.247	15770	17828	0	464
30.545	-19.618	15683	17379	0	464
33.790	-17.887	15420	16922	0	464
35.990	-18.067	15244	16549	0	464
34.439	-22.972	15297	16444	0	464
27.984	-29.715	15297	16553	0	464
22.178	-36.783	15472	16659	0	464
17.310	-39.055	15595	16828	0	464
15.398	-39.993	15823	17100	0	464
16.697	-38.442	15946	17217	0	464
19.473	-38.731	16086	17168	0	464
21.132	-40.209	16297	17257	0	464
21.277	-41.868	16506	17480	0	464
21.601	-43.455	16734	17613	0	464
20.844	-42.914	17033	17743	0	464
19.185	-44.212	17261	17937	0	464
17.418	-45.835	17384	17965	0	464
15.182	-48.792	17471	17731	0	464
13.271	-51.280	17471	17435	0	464
12.297	-51.785	17647	17322	0	464
11.828	-50.956	17787	17350	0	464
11.612	-47.638	17787	17241	0	464
12.766	-45.871	17734	16909	0	464
12.333	-45.222	17612	16477	0	464
12.658	-45.258	17436	16085	0	464
12.153	-46.664	17436	15915	0	464
8.402	-46.340	17471	15935	0	464
6.203	-44.537	17384	15863	0	464
3.967	-42.193	17208	15596	0	464
1.154	-43.238	16998	15244	0	464
-1.695	-44.320	16682	14868	0	464
-4.183	-47.674	16384	14495	0	464
-6.635	-49.910	16121	14220	0	464
-8.799	-51.929	16121	14301	0	464
-11.973	-53.228	16349	14843	0	464
-17.238	-57.771	16559	15486	0	464
-23.765	-62.171	16682	15834	0	464
-30.364	-65.308	16647	15895	0	464
-34.295	-66.823	16647	15834	0	464
-36.206	-65.308	16419	15697	0	464
-36.855	-65.633	16262	15495	0	464
-38.803	-67.364	16086	15248	0	464
-40.750	-72.449	15735	14981	0	464
-43.924	-76.343	15384	14714	0	464
-42.661	-76.956	15034	14467	0	464
-39.560	-73.278	14806	14325	0	464
-34.079	-67.941	14858	14548	0	464
-30.797	-64.046	15069	15240	0	464
-28.092	-60.873	15384	16029	0	464
-29.318	-60.548	15560	16505	0	464
-28.850	-57.447	15648	16683	0	464
-26.217	-54.886	15648	16711	0	464
-24.125	-51.677	15648	16723	0	464
-23.801	-49.369	15823	16905	0	464
-26.001	-50.018	16086	17286	0	464
-31.662	-51.677	16559	17836	0	464
-39.055	-55.211	17173	18584	0	464
-44.861	-57.880	17787	19357	0	464
-50.451	-63.217	18436	19972	0	464
-54.345	-64.840	19015	20384	0	464
-56.906	-67.616	19366	20473	0	464
-59.538	-69.419	19576	20202	0	464
-61.089	-70.249	19664	19713	0	464
-62.712	-70.501	19664	19179	0	464
-60.837	-68.662	19892	18879	0	464
-56.365	-64.659	20278	18956	0	464
-48.395	-57.555	20594	19066	0	464
-40.714	-50.054	20682	18835	0	464
-34.439	-45.258	20682	18289	0	464
-32.312	-42.950	20541	17609	0	464
-30.725	-42.193	20243	16861	0	464
-29.859	-41.471	19927	16085	0	464
-30.617	-40.786	19576	15381	0	464
-33.466	-41.183	19401	14944	0	464
-38.550	-43.310	19226	14726	0	464
-43.491	-47.854	18875	14439	0	464
-44.248	-50.090	18576	13998	0	464
-42.445	-50.090	18138	13529	0	464
-39.272	-46.953	17647	13088	0	464
-36.855	-45.799	17173	12675	0	464
-35.737	-45.041	16734	12384	0	464
-34.692	-43.996	16506	12396	0	464
-34.403	-43.130	16419	12736	0	464
-35.846	-41.832	16419	13270	0	464
-41.399	-41.832	16594	13905	0	464
-48.287	-46.592	16822	14609	0	464
-55.247	-51.424	16998	15260	0	464
-56.870	-54.995	17085	15668	0	464
-54.670	-52.939	16998	15782	0	464
-49.333	-46.268	16910	15729	0	464
-47.674	-43.635	16682	15588	0	464
-50.956	-45.799	16506	15462	0	464
-60.728	-53.228	16471	15543	0	464
-67.075	-57.519	16419	15786	0	464
-66.607	-54.886	16349	15907	0	464
-61.414	-44.681	16121	15830	0	464
-56.076	-36.387	15911	15668	0	464
-57.771	-36.170	15770	15559	0	464
-63.794	-42.734	15858	15762	0	464
-67.797	-48.936	16121	16380	0	464
-64.551	-47.782	16384	17047	0	464
-55.572	-39.380	16506	17375	0	464
-50.198	-32.203	16559	17383	0	464
-52.470	-32.564	16471	17245	0	464
-63.794	-41.543	16349	17019	0	464
-71.295	-51.316	16121	16723	0	464
-71.367	-53.985	15946	16460	0	464
-61.125	-46.556	15911	16424	0	464
-48.143	-33.862	15911	16561	0	464
-38.695	-23.512	15858	16590	0	464
-37.216	-19.870	15683	16420	0	464
-41.832	-21.601	15472	16178	0	464
-42.481	-23.224	15244	15903	0	464
-36.675	-21.781	14946	15616	0	464
-24.342	-14.497	14595	15329	0	464
-6.347	-2.813	14279	15062	0	464
11.251	11.251	13893	14819	0	464
27.732	26.145	13577	14605	0	464
41.327	41.291	13192	14418	0	464
52.831	54.886	12841	14277	0	464
61.161	65.525	12613	14261	0	464
64.587	70.898	12577	14536	0	464
64.226	72.449	12577	15029	0	464
63.253	73.062	12665	15511	0	464
64.840	75.730	13051	16126	0	464
68.338	79.553	13542	17087	0	464
70.213	83.664	14104	18087	0	464
72.376	83.700	14595	18786	0	464
75.514	85.792	15156	19365	0	464
81.969	92.752	15770	19915	0	464
93.256	104.580	16086	20198	0	464
103.570	119.906	16349	20142	0	464
109.376	129.751	16471	19883	0	464
109.737	131.158	16506	19502	0	464
106.996	127.696	16471	19021	0	464
106.058	125.027	16349	18479	0	464
108.402	131.049	16121	17900	0	464
112.982	143.419	15911	17314	0	464
115.254	156.329	15595	16735	0	464
116.120	161.918	15297	16182	0	464
112.297	159.358	14981	15660	0	464
108.763	150.559	14683	15195	0	464
107.285	147.422	14279	14779	0	464
106.599	149.693	13981	14418	0	464
104.400	152.975	13577	14115	0	464
100.325	152.434	13279	13864	0	464
93.978	147.926	12876	13670	0	464
91.093	141.616	12525	13529	0	464
89.975	138.586	12314	13529	0	464
87.775	139.596	12314	13832	0	464
83.988	140.894	12402	14370	0	464
74.757	139.199	12490	14912	0	464
67.905	134.475	12753	15523	0	464
61.486	127.443	13104	16243	0	464
60.368	122.395	13367	16796	0	464
57.952	116.805	13490	17087	0	464
51.533	112.441	13630	17221	0	464
42.229	106.780	13630	17273	0	464
30.148	100.144	13665	17249	0	464
23.080	97.043	13577	17160	0	464
21.349	96.430	13542	17027	0	464
25.676	100.036	13402	16865	0	464
29.102	104.111	13367	16691	0	464
29.246	104.652	13192	16513	0	464
23.080	101.839	13016	16344	0	464
16.552	94.699	12876	16182	0	464
8.547	86.982	12753	16033	0	464
2.705	77.209	12577	15903	0	464
-3.895	68.265	12490	15879	0	464
-13.415	57.483	12665	16118	0	464
-23.837	49.153	12963	16638	0	464
-34.908	41.399	13367	17306	0	464
-43.022	35.233	13981	18030	0	464
-48.612	30.400	14683	18855	0	464
-54.165	24.125	15560	19834	0	464
-59.899	13.884	16384	20700	0	464
-69.203	3.065	16998	21112	0	464
-79.877	-8.475	17436	21112	0	464
-90.047	-18.608	17787	20882	0	464
-99.820	-26.253	17962	20481	0	464
-105.085	-32.492	17998	19939	0	464
-110.602	-38.947	18050	19304	0	464
-118.536	-46.232	17910	18612	1	932
-126.722	-56.293	17734	17896	0	932
-137.829	-64.948	17559	17176	0	932
-146.087	-71.836	17384	16549	0	932
-147.349	-73.819	17471	16291	0	932
-143.238	-72.485	17734	16505	0	932
-139.416	-73.927	18050	16837	0	932
-139.019	-78.976	18261	16877	0	932
-143.347	-88.063	18348	16731	0	932
-148.107	-96.935	18612	16723	0	932
-151.352	-101.226	18787	16849	0	932
-149.657	-101.551	18927	16800	0	932
-148.179	-101.370	18875	16501	0	932
-147.674	-103.318	18787	16081	0	932
-148.756	-106.852	18664	15693	0	932
-148.792	-109.124	18699	15519	0	932
-146.123	-109.268	18664	15527	0	932
-145.041	-108.150	18752	15507	0	932
-143.383	-107.393	18962	15632	0	932
-143.130	-110.061	19401	16118	0	932
-143.419	-114.461	19717	16642	0	932
-141.652	-118.500	19927	16820	0	932
-138.550	-118.500	20015	16663	0	932
-137.360	-118.788	19892	16344	0	932
-139.849	-119.185	19717	15919	0	932
-145.799	-121.132	19454	15426	0	932
-150.487	-121.890	19050	14908	0	932
-150.631	-117.490	18699	14394	0	932
-145.727	-111.360	18313	13986	0	932
-137.144	-105.770	18173	13852	0	932
-131.951	-105.193	18050	13945	0	932
-127.551	-109.520	17787	13969	0	932
-126.433	-112.225	17524	13824	0	932
-123.693	-112.369	17208	13634	0	932
-120.988	-107.501	16857	13448	0	932
-117.959	-101.947	16419	13274	0	932
-113.559	-96.574	16034	13124	0	932
-108.439	-91.129	15770	13075	0	932
-101.695	-86.008	15595	13298	0	932
-94.446	-81.933	15507	13735	0	932
-94.122	-82.041	15420	14091	0	932
-96.502	-86.657	15209	14261	0	932
-103.426	-94.230	15069	14431	0	932
-108.799	-102.380	15121	14815	0	932
-110.169	-105.229	15209	15353	0	932
-107.032	-103.678	15209	15762	0	932
-103.498	-98.233	15209	16029	0	932
-102.056	-96.177	15420	16432	0	932
-102.524	-95.889	15595	16966	0	932
-103.137	-97.800	15735	17314	0	932
-103.426	-97.223	15735	17391	0	932
-101.983	-95.060	15770	17411	0	932
-101.695	-90.552	15946	17605	0	932
-103.137	-87.955	16121	17921	0	932
-100.433	-85.647	16297	18155	0	932
-93.797	-82.690	16734	18479	0	932
-81.320	-78.110	17261	19110	0	932
-69.203	-73.278	17734	19737	0	932
-60.368	-69.419	18138	19960	0	932
-60.692	-67.328	18436	19895	0	932
-65.813	-66.210	18752	19887	0	932
-73.567	-66.751	19191	20012	0	932
-77.425	-68.301	19717	20247	0	932
-76.596	-70.321	20419	20631	0	932
-71.655	-71.331	21033	21011	0	932
-65.849	-70.141	21647	21218	0	932
-63.649	-68.878	22261	21295	0	932
-64.515	-68.987	22822	21282	0	932
-66.607	-68.842	23313	21185	0	932
-66.318	-68.013	23787	21015	0	932
-66.390	-65.344	24103	20712	0	932
-64.407	-62.856	24278	20113	0	932
-65.200	-59.611	24278	19280	0	932
-64.767	-56.581	24313	18532	0	932
-59.538	-52.218	24366	17900	0	932
-50.198	-44.068	24050	17128	0	932
-34.764	-34.295	23752	16150	0	932
-21.709	-27.227	23313	15183	0	932
-15.038	-22.178	23226	14548	0	932
-16.841	-19.618	23173	14378	1	316
-23.296	-19.726	22998	14321	0	316
-31.626	-19.113	22787	13998	0	316
-34.836	-20.555	22436	13431	0	316
-34.908	-23.801	21945	12792	0	316
-32.023	-28.020	21419	12234	0	316
-29.066	-33.682	21033	11935	0	316
-29.174	-38.731	20682	11862	0	316
-32.023	-41.147	20243	11720	0	316
-38.550	-42.517	19717	11425	0	316
-45.438	-41.363	19191	11186	0	316
-46.159	-40.029	18875	11235	0	316
-44.104	-39.740	18524	11494	0	316
-41.940	-42.445	18261	11745	0	316
-45.330	-45.979	17998	12056	0	316
-53.480	-50.631	17875	12501	0	316
-57.843	-51.244	17612	12829	0	316
-55.139	-48.107	17348	13019	0	316
-43.058	-41.363	17173	13355	0	316
-30.977	-35.233	17208	13917	0	316
-27.660	-28.092	17296	14584	0	316
-28.922	-23.440	17348	15203	0	316
-29.499	-16.769	17384	15673	0	316
-24.811	-10.350	17471	16101	0	316
-13.812	-4.688	17612	16549	0	316
-4.003	-1.551	17524	16796	0	316
-1.875	-0.974	17384	16752	0	316
-6.635	-2.777	17085	16553	0	316
-14.605	-5.698	16769	16283	0	316
-20.303	-12.586	16384	15944	0	316
-21.241	-17.706	15911	15571	0	316
-19.293	-24.342	15507	15264	0	316
-15.723	-25.027	15332	15288	0	316
-14.966	-21.962	15472	15770	0	316
-16.805	-20.375	15507	16352	0	316
-21.673	-21.241	15560	16634	0	316
-24.919	-25.207	15507	16727	0	316
-24.162	-30.581	15683	17031	0	316
-17.706	-32.889	16209	17775	0	316
-10.891	-30.220	16822	18774	0	316
-6.816	-23.332	17296	19579	0	316
-7.825	-17.382	17612	19903	0	316
-14.028	-13.631	17822	19822	0	316
-17.959	-15.543	17822	19511	0	316
-17.779	-19.113	17822	19126	0	316
-11.792	-18.536	17875	18875	0	316
-7.862	-13.018	17962	18734	0	316
-4.472	-2.705	17875	18439	0	316
-5.590	4.508	17612	17913	0	316
-7.573	3.606	17436	17362	0	316
-5.013	-1.731	17384	17031	0	316
-2.813	-8.186	17348	16873	0	316
-2.452	-11.143	17120	16606	0	316
-8.475	-9.701	16822	16158	0	316
-18.356	-9.881	16506	15636	0	316
-24.234	-10.710	16086	15110	0	316
-22.791	-15.002	15595	14592	0	316
-15.939	-18.933	15121	14107	0	316
-10.206	-22.827	14630	13666	0	316
-10.602	-24.450	14104	13286	0	316
-16.516	-26.181	13542	12974	0	316
-22.358	-25.604	13051	12728	0	316
-24.342	-23.945	12577	12558	0	316
-20.339	-20.916	12086	12448	0	316
-15.074	-18.644	11613	12400	0	316
-12.838	-18.716	11121	12408	0	316
-14.785	-20.159	10823	12558	0	316
-16.697	-20.627	10683	13015	0	316
-15.687	-19.834	10683	13711	0	316
-8.907	-17.166	10735	14410	0	316
-1.695	-15.579	10946	15175	0	316
2.380	-11.900	11209	16037	0	316
2.056	-7.825	11384	16715	0	316
-1.515	-1.334	11613	17205	0	316
-1.587	5.662	11999	17791	0	316
-0.541	6.419	12349	18467	0	316
-0.325	2.308	12665	18920	0	316
-1.875	-5.157	12788	19074	0	316
-5.085	-9.881	12876	19053	0	316
-7.032	-11.720	12928	18920	0	316
-7.753	-10.819	12841	18697	0	316
-7.357	-10.386	12753	18422	0	316
-6.816	-7.609	12665	18115	0	316
-8.078	-4.652	12525	17787	0	316
-10.350	-0.325	12314	17451	0	316
-15.254	-0.180	12139	17128	0	316
-20.519	-5.806	11911	16824	0	316
-24.991	-15.543	11735	16545	0	316
-27.335	-21.709	11648	16372	0	316
-25.316	-21.277	11735	16472	0	316
-22.214	-16.156	11876	16796	0	316
-15.795	-10.746	11963	17027	0	316
-11.576	-8.114	12139	17132	0	316
-7.681	-8.547	12402	17399	0	316
-9.953	-8.619	12665	17816	0	316
-12.514	-8.835	12963	18078	0	316
-14.930	-6.671	13104	18091	0	316
-12.550	-6.996	13104	17977	0	316
-7.104	-7.645	13227	17791	0	316
-4.580	-8.330	13192	17553	0	316
-5.517	-7.357	13051	17286	0	316
-8.258	-3.606	13016	17011	0	316
-11.900	-1.983	12928	16723	0	316
-12.550	-3.354	12700	16432	0	316
-10.314	-8.979	12613	16154	0	316
-9.304	-16.408	12402	15875	0	316
-7.573	-18.788	12227	15616	0	316
-8.799	-16.877	11999	15389	0	316
-11.215	-11.576	11823	15207	0	316
-15.615	-9.196	11648	15070	0	316
-19.041	-10.350	11560	15050	0	316
-19.654	-12.622	11788	15397	0	316
-18.211	-14.821	12262	16198	0	316
-16.156	-14.713	12753	17079	0	316
-14.641	-12.730	13279	17718	0	316
-15.723	-8.979	13806	18293	0	316
-18.139	-8.871	14507	18968	0	316
-19.221	-9.268	15209	19656	0	316
-17.706	-11.215	15823	20210	0	316
-12.369	-11.179	16384	20465	0	316
-4.688	-10.061	16734	20380	0	316
-1.190	-7.032	16945	20081	0	316
-2.777	-5.121	17173	19725	0	316
-7.681	-5.301	17471	19502	0	316
-12.694	-9.629	17875	19474	1	496
-15.831	-11.864	18348	19531	0	496
-18.031	-15.182	18787	19616	0	496
-19.185	-17.670	19366	19713	0	496
-20.700	-19.329	19805	19729	0	496
-19.077	-19.005	20068	19478	0	496
-15.615	-17.382	20155	18936	0	496
-9.845	-14.785	20278	18321	0	496
-7.753	-12.982	20366	17872	0	496
-5.337	-11.179	20506	17565	0	496
-4.832	-11.864	20506	17120	0	496
-2.705	-10.819	20331	16468	0	496
-0.216	-6.599	20103	15745	0	496
1.334	-2.019	19840	15090	0	496
1.695	4.508	19752	14694	0	496
2.596	8.258	19664	14503	0	496
3.606	8.619	19541	14321	0	496
8.763	9.016	19541	14236	0	496
13.451	8.258	19576	14293	0	496
18.824	11.287	19489	14317	0	496
23.404	16.552	19576	14374	0	496
27.912	24.198	19664	14532	0	496
33.466	31.410	19489	14540	0	496
36.278	34.547	19366	14309	0	496
35.521	33.069	19050	13982	0	496
30.328	26.614	18699	13630	0	496
25.424	22.250	18348	13351	0	496
21.421	18.139	18226	13322	0	496
20.339	18.572	18138	13581	0	496
20.303	18.608	18261	13994	0	496
18.283	17.093	18401	14487	0	496
16.336	13.668	18576	15041	0	496
16.120	12.081	18787	15547	0	496
18.320	12.838	18787	15806	0	496
26.289	18.788	18840	15859	0	496
35.449	27.083	18927	16004	0	496
45.510	37.036	19015	16247	0	496
51.569	44.068	19015	16384	0	496
52.651	47.169	19191	16509	0	496
50.487	44.969	19226	16699	0	496
49.549	42.697	19226	16715	0	496
51.208	40.065	19138	16553	0	496
53.877	40.606	19313	16598	0	496
57.843	42.553	19629	17019	0	496
58.493	45.618	19840	17468	0	496
59.070	48.071	20015	17621	0	496
62.423	50.343	20243	17682	0	496
66.859	51.713	20366	17767	0	496
70.429	50.198	20331	17642	0	496
68.518	45.330	20243	17314	0	496
61.414	39.127	20419	17176	0	496
52.038	32.276	20629	17415	0	496
44.933	26.686	20945	17678	0	496
40.426	22.070	20892	17585	0	496
38.118	17.670	20717	17168	0	496
33.754	13.199	20454	16614	0	496
31.915	11.792	20103	15992	0	496
33.610	15.074	19664	15329	0	496
42.373	23.188	19138	14653	0	496
54.021	31.807	18612	13998	0	496
62.892	38.190	18050	13464	0	496
66.751	40.642	17822	13310	0	496
66.931	38.550	17822	13650	0	496
65.128	38.767	17787	14196	0	496
67.869	39.704	17962	14726	0	496
72.881	42.842	18085	15191	0	496
78.759	47.097	17998	15446	0	496
82.762	47.962	17998	15511	0	496
80.923	45.691	18085	15673	0	496
78.219	41.724	18050	15931	0	496
75.838	36.278	17962	16012	0	496
76.488	33.069	17734	15838	0	496
79.156	32.456	17436	15547	0	496
79.913	31.771	17033	15199	0	496
77.209	28.814	16647	14815	0	496
71.295	25.027	16121	14418	0	496
66.715	17.851	15648	14038	0	496
61.955	9.665	15069	13686	0	496
58.276	1.911	14455	13383	0	496
52.903	-5.626	13981	13136	0	496
47.205	-11.468	13490	13027	0	496
43.527	-11.287	13279	13229	0	496
44.320	-6.491	13279	13767	0	496
47.710	2.056	13402	14568	0	496
53.155	9.232	13841	15628	0	496
55.860	13.343	14279	16752	0	496
55.103	11.360	14858	17763	0	496
51.749	8.907	15332	18588	0	496
50.307	7.753	15648	19102	0	496
50.018	11.251	15946	19333	0	496
51.929	14.930	16419	19664	0	496
53.191	17.526	16998	20275	0	496
51.100	15.723	17471	20817	0	496
45.943	10.133	17875	20926	0	496
36.098	1.947	18138	20724	0	496
25.532	-5.481	18401	20566	0	496
17.670	-12.009	18699	20469	0	496
10.674	-14.208	18752	20150	0	496
7.681	-17.166	18752	19539	1	392
3.354	-21.457	18524	18790	0	392
-3.137	-27.876	18226	17985	0	392
-11.287	-36.531	17875	17148	0	392
-16.300	-41.183	17436	16320	0	392
-17.779	-40.930	16945	15519	0	392
-16.769	-37.180	16559	14847	0	392
-16.408	-33.646	16297	14491	0	392
-18.428	-33.141	16086	14406	0	392
-22.719	-34.259	15823	14281	0	392
-27.263	-36.170	15472	14018	0	392
-26.253	-35.341	15209	13796	0	392
-21.781	-30.653	15069	13840	0	392
-12.946	-21.709	15034	14083	0	392
-3.787	-13.812	14806	14236	0	392
0.685	-6.960	14595	14212	0	392
1.442	-6.780	14455	14208	0	392
1.623	-7.176	14420	14439	0	392
3.173	-8.114	14507	14847	0	392
5.950	-8.871	14367	15134	0	392
7.645	-8.439	14279	15203	0	392
4.940	-10.278	14104	15171	0	392
-0.721	-12.189	13806	15098	0	392
-4.868	-12.045	13718	15074	0	392
-8.330	-10.674	13665	15284	0	392
-8.835	-8.763	13806	15673	0	392
-12.730	-10.638	13806	16024	0	392
-19.113	-15.290	14069	16408	0	392
-28.958	-23.152	14192	16881	0	392
-39.704	-30.725	14332	17189	0	392
-50.162	-36.675	14279	17225	0	392
-55.031	-38.406	14279	17124	0	392
-52.795	-35.737	14104	16958	0	392
-46.195	-30.689	13981	16735	0	392
-35.052	-26.181	13718	16489	0	392
-24.811	-22.719	13630	16316	0	392
-16.733	-20.844	13630	16380	0	392
-12.081	-20.844	13718	16630	0	392
-8.943	-18.356	13753	16861	0	392
-5.337	-16.913	14156	17213	0	392
-2.633	-14.641	14630	17917	0	392
2.669	-10.242	15156	18657	0	392
8.511	-6.599	15507	19021	0	392
11.684	-3.354	15735	19025	0	392
13.235	-2.669	15823	18839	0	392
12.117	-4.760	15823	18532	0	392
10.422	-6.816	15735	18119	0	392
10.999	-5.157	15595	17634	0	392
10.278	-2.849	15332	17112	0	392
9.592	0.144	15121	16582	0	392
3.859	-3.210	14858	16154	0	392
-2.092	-11.035	14858	15988	0	392
-8.439	-19.978	14946	16126	0	392
-8.835	-24.522	15244	16501	0	392
-7.032	-22.034	15735	17140	0	392
-3.859	-17.093	16174	17783	0	392
-5.806	-11.215	16471	18062	0	392
-13.054	-9.953	16594	17985	0	392
-27.263	-13.018	16647	17731	0	392
-43.419	-14.064	16559	17371	0	392
-57.591	-15.038	16419	16926	0	392
-68.482	-13.307	16297	16525	0	392
-74.360	-10.097	16349	16364	0	392
-76.235	-6.491	16349	16380	0	392
-78.507	-6.780	16297	16291	0	392
-80.418	-7.609	16121	16008	0	392
-83.628	-12.622	15911	15648	0	392
-87.342	-17.057	15770	15345	0	392
-87.703	-18.680	15770	15280	0	392
-86.585	-16.697	15735	15418	0	392
-85.792	-12.081	15770	15539	0	392
-87.919	-8.511	15999	15721	0	392
-92.247	-6.239	16086	16012	0	392
-100.036	-9.160	16086	16158	0	392
-106.383	-12.586	16034	16057	0	392
-111.360	-19.365	15911	15846	0	392
-115.831	-25.388	15770	15673	0	392
-115.723	-29.030	15858	15721	0	392
-114.641	-26.001	15911	15931	0	392
-109.520	-19.293	15858	16016	0	392
-104.400	-11.143	15735	15883	0	392
-103.823	-5.698	15683	15741	0	392
-108.042	-7.140	15735	15810	0	392
-114.317	-9.989	15770	16041	0	392
-118.572	-11.684	15735	16138	0	392
-117.418	-7.032	15683	16016	0	392
-112.946	-1.911	15472	15810	0	392
-111.576	1.911	15332	15656	0	392
-113.956	2.524	15472	15733	0	392
-119.726	-1.154	15472	15980	0	392
-124.125	-4.616	15420	16101	0	392
-124.739	-3.642	15332	16008	0	392
-122.755	-1.839	15156	15822	0	392
-121.168	0.938	14946	15604	0	392
-120.916	3.750	14630	15369	0	392
-120.591	7.212	14420	15134	0	392
-118.067	9.953	14069	14900	0	392
-116.408	9.556	13806	14677	0	392
-118.824	6.996	13490	14552	0	392
-124.089	0.072	13490	14710	0	392
-130.328	-6.167	13455	15090	0	392
-132.997	-7.537	13455	15393	0	392
-131.735	-5.734	13314	15515	0	392
-127.696	-1.226	13314	15563	0	392
-126.470	2.488	13139	15579	0	392
-125.856	5.229	12928	15575	0	392
-125.388	6.996	12928	15632	0	392
-124.847	7.140	13016	15927	0	392
-124.089	5.481	13139	16400	0	392
-123.440	2.993	13402	16849	0	392
-121.132	1.118	13841	17411	0	392
-114.425	3.210	14420	18289	0	392
-103.462	7.789	15034	19159	0	392
-93.869	15.651	15472	19632	0	392
-84.638	18.933	15823	19721	0	392
-78.940	21.998	15999	19595	0	392
-74.252	21.204	16034	19328	0	392
-71.475	18.464	16034	18952	0	392
-69.203	16.589	15999	18503	0	392
-67.544	16.120	15823	17998	0	392
-65.380	16.769	15770	17549	0	392
-63.289	17.995	15823	17350	0	392
-62.243	16.228	15911	17354	0	392
-65.813	12.694	15999	17350	0	392
-69.852	6.131	16262	17407	0	392
-70.177	5.806	16471	17577	0	392
-65.813	7.645	16594	17597	0	392
-58.168	14.281	16594	17371	0	392
-54.454	18.175	16559	17035	0	392
-54.129	20.050	16419	16642	0	392
-57.375	21.168	16349	16300	0	392
-56.870	22.142	16384	16186	0	392
-50.847	25.279	16471	16263	0	392
-43.419	31.013	16419	16231	0	392
-37.180	31.735	16349	15992	0	392
-36.711	30.364	16174	15673	0	392
-43.274	24.702	15946	15341	0	392
-49.946	18.752	15735	15009	0	392
-54.995	14.605	15420	14690	0	392
-54.995	14.136	15069	14390	0	392
-50.523	16.661	14770	14123	0	392
-45.979	17.562	14455	13889	0	392
-44.573	16.841	14069	13694	0	392
-45.691	14.785	13806	13541	0	392
-48.107	11.360	13402	13431	0	392
-51.821	8.366	13104	13363	0	392
-54.093	4.868	12753	13338	0	392
-59.286	-0.829	12525	13440	0	392
-63.938	-7.104	12577	13832	0	392
-67.220	-11.468	12665	14443	0	392
-65.705	-11.792	12665	14961	0	392
-58.781	-7.032	12665	15288	0	392
-50.487	-0.865	12665	15531	0	392
-45.727	2.957	12613	15729	0	392
-47.313	1.803	12525	15883	0	392
-53.011	-3.318	12437	16004	0	392
-59.899	-7.501	12437	16101	0	392
-61.486	-9.953	12314	16186	0	392
-60.296	-7.645	12227	16251	0	392
-56.690	-4.977	12174	16296	0	392
-52.975	-1.587	12139	16404	0	392
-48.612	1.046	12402	16837	0	392
-43.996	3.029	13016	17694	0	392
-40.245	4.075	13630	18693	0	392
-37.396	3.787	14332	19583	0	392
-38.370	3.173	14981	20307	0	392
-40.389	-0.108	15560	20724	0	392
-42.301	-2.705	15911	20789	0	392
-41.940	-5.770	16209	20635	0	392
-41.039	-5.878	16384	20352	0	392
-37.396	-3.895	16471	19956	0	392
-34.187	0.433	16506	19474	0	392
-31.843	4.039	16559	19017	1	688
-31.915	4.255	16822	18859	0	688
-33.429	0.865	17471	19199	0	688
-36.891	-4.760	18226	19858	0	688
-39.380	-9.881	18787	20364	0	688
-40.389	-11.360	19313	20429	0	688
-37.180	-7.898	19576	20121	0	688
-32.780	-0.252	19805	19616	0	688
-28.201	6.599	19805	18985	0	688
-27.083	11.432	19717	18256	0	688
-28.056	8.439	19576	17480	0	688
-33.321	4.544	19313	16683	0	688
-37.252	0.469	18927	15895	0	688
-39.488	0.577	18699	15207	0	688
-38.190	4.436	18699	14892	0	688
-34.295	9.773	19015	15147	0	688
-28.489	15.362	19541	15859	0	688
-22.791	18.536	20243	16723	0	688
-18.788	18.752	20892	17472	0	688
-17.779	17.166	21506	18018	0	688
-17.743	14.894	21998	18358	0	688
-17.526	12.946	22348	18362	0	688
-16.552	13.559	22436	18002	0	688
-14.749	14.497	22436	17427	0	688
-13.018	17.418	22208	16735	0	688
-10.855	20.591	21910	15972	0	688
-10.999	21.529	21506	15167	0	688
-11.432	22.972	21033	14354	0	688
-10.891	21.349	20454	13569	0	688
-10.746	21.168	19840	12837	0	688
-9.629	22.683	19278	12177	0	688
-9.124	26.253	18576	11599	0	688
-13.704	26.253	18050	11186	0	688
-19.365	23.476	17612	11122	0	688
-27.912	17.743	17348	11340	0	688
-31.446	14.136	16998	11542	0	688
-32.095	13.415	16594	11599	0	688
-30.220	13.451	16174	11623	0	688
-31.951	12.297	15735	11660	0	688
-36.351	7.609	15384	11793	0	688
-44.933	1.442	15209	12202	0	688
-50.018	-2.416	15209	12910	0	688
-51.569	-2.092	15384	13767	0	688
-49.044	-0.829	15507	14609	0	688
-44.428	1.442	15595	15236	0	688
-41.291	2.524	15560	15588	0	688
-38.622	1.947	15420	15778	0	688
-38.767	0.793	15244	15883	0	688
-38.586	-0.757	15069	15911	0	688
-38.586	-0.577	14858	15883	0	688
-37.360	1.370	14595	15826	0	688
-35.882	3.714	14332	15749	0	688
-37.541	4.436	14069	15656	0	688
-41.832	1.010	13718	15559	0	688
-48.972	-6.239	13455	15474	0	688
-53.480	-12.694	13139	15410	0	688
-52.687	-15.218	12788	15373	0	688
-47.241	-10.097	12525	15357	0	688
-39.452	-3.029	12262	15357	0	688
-34.187	3.967	11999	15373	0	688
-29.246	6.203	11735	15410	0	688
-28.092	5.265	11472	15458	0	688
-29.607	-0.829	11262	15527	0	688
-31.662	-6.924	11174	15697	0	688
-34.006	-11.432	11262	16130	0	688
-34.764	-12.333	11472	16756	0	688
-32.853	-11.937	11560	17269	0	688
-31.662	-11.612	11648	17569	0	688
-33.213	-13.920	11735	17763	0	688
-37.396	-20.447	11823	17896	0	688
-38.983	-23.080	11963	18054	0	688
-38.262	-23.224	12349	18499	0	688
-33.754	-17.923	13016	19337	0	688
-28.237	-12.297	13630	20186	0	688
-23.512	-9.088	14192	20740	0	688
-19.113	-6.635	14893	21181	0	688
-13.595	-4.904	15560	21614	0	688
-8.835	-6.131	16034	21796	0	688
-4.796	-7.753	16384	21642	0	688
-2.633	-10.746	16594	21286	0	688
-0.541	-15.543	16734	20797	0	688
5.626	-15.975	16910	20287	0	688
15.182	-14.281	17173	19951	1	328
26.974	-10.638	17384	19765	0	328
38.658	-6.275	17559	19442	0	328
47.241	-4.796	17699	18993	0	328
55.716	-0.974	17910	18697	0	328
65.200	2.200	18261	18637	0	328
77.317	5.373	18612	18689	0	328
88.424	9.232	19015	18710	0	328
95.817	8.114	19278	18600	0	328
98.089	5.914	19717	18487	0	328
96.430	2.741	19980	18434	0	328
98.630	4.183	20155	18200	0	328
103.390	10.097	20191	17698	0	328
110.530	17.274	20243	17152	0	328
113.451	23.188	20331	16804	0	328
112.297	22.935	20419	16610	0	328
107.285	19.906	20366	16304	0	328
105.265	15.435	20331	15867	0	328
104.652	13.415	20419	15588	0	328
103.859	11.720	20419	15474	0	328
100.180	10.855	20366	15317	0	328
95.312	10.025	20594	15292	0	328
94.122	9.484	20945	15628	0	328
99.675	13.920	21208	16004	0	328
107.357	19.654	21296	16037	0	328
113.523	23.440	21243	15753	0	328
109.989	21.637	21033	15321	0	328
100.072	14.425	20717	14803	0	328
89.758	5.914	20419	14236	0	328
84.926	2.669	20015	13743	0	328
86.369	6.239	19840	13512	0	328
92.283	14.858	19629	13504	0	328
96.971	21.529	19313	13423	0	328
96.430	22.142	19050	13257	0	328
94.591	19.978	19015	13294	0	328
91.922	16.480	18927	13605	0	328
89.290	16.372	19015	14042	0	328
85.792	16.805	19015	14451	0	328
80.418	16.985	18962	14653	0	328
75.009	15.362	18840	14702	0	328
70.826	12.802	18927	14876	0	328
69.528	11.792	18875	15171	0	328
68.987	11.035	18927	15381	0	328
67.147	10.386	19050	15677	0	328
62.784	7.645	19454	16291	0	328
58.168	4.652	19664	16917	0	328
52.723	1.010	19805	17168	0	328
49.549	-1.298	19805	17055	0	328
47.530	-3.570	19576	16772	0	328
46.268	-4.400	19313	16388	0	328
47.061	-4.436	19015	15940	0	328
47.458	-5.842	18664	15527	0	328
44.140	-8.042	18524	15353	0	328
40.173	-12.297	18401	15377	0	328
35.052	-14.858	18085	15304	0	328
31.662	-15.579	17787	15041	0	328
33.177	-12.838	17436	14722	0	328
38.009	-7.825	16945	14398	0	328
44.248	-3.390	16471	14071	0	328
50.198	0.902	15999	13763	0	328
49.946	3.282	15472	13488	0	328
46.087	1.947	14946	13270	0	328
38.514	-1.118	14507	13100	0	328
32.131	-4.652	13981	12982	0	328
32.203	-4.688	13542	12910	0	328
37.036	-2.344	13016	12889	0	328
44.861	1.659	12577	12926	0	328
46.123	4.075	12139	13007	0	328
41.976	0.469	11700	13132	0	328
33.934	-3.065	11349	13302	0	328
27.696	-7.068	10999	13504	0	328
26.037	-7.789	10683	13743	0	328
30.328	-6.022	10384	14006	0	328
34.151	-5.373	10121	14285	0	328
35.305	-3.534	9858	14580	0	328
32.636	-4.580	9718	14969	0	328
28.381	-6.383	9893	15612	0	328
23.368	-10.386	10034	16428	0	328
20.447	-13.415	10156	17120	0	328
18.933	-15.723	10420	17662	0	328
19.401	-16.300	10911	18422	0	328
18.608	-14.136	11613	19547	0	328
15.975	-12.081	12314	20651	0	328
12.694	-13.127	12928	21335	0	328
8.511	-12.622	13314	21626	0	328
7.753	-13.884	13841	21772	0	328
9.160	-13.235	14332	22002	0	328
13.091	-11.900	14946	22261	0	328
15.543	-8.511	15297	22278	0	328
17.310	-6.058	15560	21982	0	328
17.634	-3.859	15770	21517	0	328
17.815	-4.472	15823	20955	0	328
17.490	-6.491	15823	20324	0	328
16.949	-10.494	15770	19644	1	372
15.326	-12.045	15735	18940	0	372
12.297	-13.235	15472	18228	0	372
8.439	-13.704	15244	17532	0	372
5.193	-16.192	15034	16869	0	372
1.046	-18.644	14770	16255	0	372
-0.108	-21.385	14455	15693	0	372
-0.793	-23.296	14279	15272	0	372
-1.479	-22.431	14332	15163	0	372
-4.219	-24.342	14332	15308	0	372
-8.006	-25.820	14455	15478	0	372
-12.081	-28.453	14683	15737	0	372
-15.543	-31.518	14946	16122	0	372
-15.615	-33.033	15121	16360	0	372
-14.136	-33.754	15209	16364	0	372
-13.163	-35.233	15209	16259	0	372
-10.819	-35.737	15156	16109	0	372
-8.979	-35.665	15121	15911	0	372
-8.114	-35.269	14946	15681	0	372
-6.924	-35.377	14770	15434	0	372
-5.157	-34.692	14595	15183	0	372
-4.580	-34.583	14420	14948	0	372
-3.246	-34.079	14104	14738	0	372
-5.049	-34.656	13928	14552	0	372
-9.845	-37.432	13665	14402	0	372
-17.779	-42.229	13455	14297	0	372
-23.729	-46.159	13279	14228	0	372
-27.227	-47.926	13016	14192	0	372
-25.316	-46.881	12841	14180	0	372
-21.421	-43.599	12613	14196	0	372
-20.050	-43.599	12525	14321	0	372
-20.591	-44.825	12700	14811	0	372
-23.585	-47.386	13314	15846	0	372
-23.909	-46.664	14069	17205	0	372
-23.873	-45.438	14858	18402	0	372
-21.565	-41.976	15420	19134	0	372
-21.998	-41.291	15823	19458	0	372
-22.142	-42.157	16297	19616	0	372
-21.421	-42.589	16769	19842	0	372
-15.579	-38.767	17208	20121	0	372
-6.960	-29.931	17524	20174	0	372
2.236	-20.411	17787	19923	0	372
7.717	-14.425	17875	19515	0	372
7.970	-15.326	17822	19021	0	372
4.147	-19.005	17787	18467	0	372
1.370	-22.142	17647	17876	0	372
1.406	-20.772	17471	17261	0	372
4.724	-16.552	17261	16655	0	372
7.248	-12.514	16998	16073	0	372
6.563	-11.432	16682	15535	0	372
4.003	-10.314	16384	15046	0	372
0.938	-10.133	16086	14601	0	372
-0.902	-9.052	15735	14212	0	372
-1.731	-9.629	15507	13965	0	372
-3.210	-11.684	15420	14014	0	372
-5.950	-15.615	15472	14305	0	372
-5.590	-16.769	15420	14528	0	372
-1.046	-13.812	15384	14576	0	372
3.570	-10.133	15209	14564	0	372
5.626	-8.042	14981	14540	0	372
0.361	-12.225	14858	14499	0	372
-7.934	-18.536	14806	14536	0	372
-14.821	-24.666	14806	14815	0	372
-15.218	-23.008	14946	15288	0	372
-8.114	-15.002	15034	15664	0	372
1.479	-6.852	15156	15911	0	372
8.402	-0.361	15420	16308	0	372
10.350	-0.865	15683	16833	0	372
8.619	-3.895	15999	17265	0	372
3.714	-8.150	16349	17682	0	372
1.803	-8.114	16734	18147	0	372
2.200	-7.645	16998	18418	0	372
5.986	-4.652	17261	18479	0	372
11.504	-1.082	17647	18633	0	372
15.759	0.685	17910	18875	0	372
17.418	0.288	18138	18912	0	372
15.651	-0.325	18261	18677	0	372
12.514	-2.056	18226	18301	0	372
7.717	-2.813	18173	17856	0	372
8.366	-2.560	18138	17447	0	372
9.196	-1.406	18173	17261	0	372
11.684	-1.118	18313	17249	0	372
12.189	-2.452	18261	17120	0	372
8.655	-5.049	18226	16776	0	372
4.003	-7.898	18050	16356	0	372
-1.010	-12.045	17734	15911	0	372
-2.849	-13.127	17559	15458	0	372
-2.380	-11.828	17208	15013	0	372
0.938	-9.556	16857	14601	0	372
4.039	-5.517	16506	14216	0	372
7.068	-4.616	16262	13961	0	372
6.455	-5.878	16174	14014	0	372
4.544	-9.809	16174	14309	0	372
0.577	-15.254	16086	14536	0	372
-3.606	-19.041	16034	14669	0	372
-5.373	-19.329	16174	14993	0	372
-5.806	-17.238	16349	15482	0	372
-3.137	-13.559	16384	15826	0	372
-0.505	-12.477	16419	15935	0	372
1.082	-12.982	16471	16008	0	372
-0.036	-17.093	16647	16275	0	372
-3.931	-19.726	16857	16679	0	372
-8.150	-19.437	16945	16930	0	372
-8.150	-18.283	16998	16934	0	372
-5.301	-16.877	16910	16804	0	372
-2.272	-17.454	16769	16606	0	372
-1.587	-19.870	16647	16364	0	372
-5.049	-23.549	16419	16093	0	372
-11.900	-27.768	16209	15814	0	372
-20.267	-33.862	15911	15543	0	372
-25.820	-38.154	15648	15288	0	372
-29.895	-43.419	15420	15134	0	372
-32.997	-45.979	15560	15337	0	372
-33.970	-46.123	15911	16000	0	372
-34.692	-45.763	16209	16748	0	372
-35.124	-46.195	16419	17176	0	372
-33.177	-44.537	16682	17383	0	372
-29.499	-38.911	17033	17686	0	372
-23.512	-30.905	17348	18070	0	372
-19.257	-23.621	17559	18252	0	372
-17.418	-18.139	17612	18147	0	372
-17.743	-17.093	17559	17892	0	372
-18.103	-16.589	17612	17642	0	372
-15.687	-15.651	17787	17577	0	372
-11.179	-12.153	17962	17743	0	372
-9.232	-11.612	18313	18022	0	372
-10.530	-13.343	18664	18265	0	372
-16.264	-18.608	18752	18289	0	372
-22.395	-23.440	18875	18054	0	372
-25.424	-26.686	18787	17682	0	372
-24.594	-27.227	18699	17237	0	372
-21.060	-26.506	18524	16820	0	372
-18.716	-24.702	18612	16622	0	372
-18.572	-23.657	18576	16598	0	372
-20.988	-25.316	18576	16452	0	372
-24.558	-26.938	18348	16118	0	372
-27.479	-29.318	18226	15713	0	372
-24.630	-27.840	17910	15300	0	372
-17.779	-23.332	17559	14880	0	372
-7.645	-14.172	17261	14544	0	372
2.813	-6.022	17173	14479	0	372
7.212	-0.974	17120	14637	0	372
7.104	0.469	16998	14710	0	372
3.137	-1.587	16822	14613	0	372
-1.010	-3.246	16647	14536	0	372
-4.255	-6.311	16647	14706	0	372
-6.599	-8.439	16734	15058	0	372
-5.698	-8.186	16769	15373	0	372
-3.823	-5.517	16998	15725	0	372
2.164	-0.036	17261	16251	0	372
6.383	4.183	17647	16849	0	372
4.580	1.731	17998	17371	0	372
-4.940	-7.321	18138	17638	0	372
-17.923	-18.464	18226	17613	0	372
-27.263	-26.650	18226	17411	0	372
-28.345	-25.532	18050	17104	0	372
-21.565	-19.005	17875	16719	0	372
-10.999	-9.016	17612	16304	0	372
-4.183	-4.003	17296	15863	0	372
-1.983	-4.760	17033	15511	0	372
-5.157	-10.061	16998	15430	0	372
-8.799	-18.500	16910	15567	0	372
-13.054	-24.270	16910	15697	0	372
-15.867	-28.201	17033	15891	0	372
-15.290	-27.155	17173	16202	0	372
-13.523	-25.532	17173	16368	0	372
-9.160	-22.358	17085	16304	0	372
-2.488	-18.969	16910	16118	0	372
0.938	-17.202	16769	15883	0	372
2.308	-16.661	16471	15608	0	372
-1.479	-17.851	16174	15325	0	372
-7.248	-20.591	15858	15041	0	372
-12.982	-26.037	15595	14766	0	372
-15.507	-31.013	15156	14512	0	372
-16.552	-36.134	14893	14378	0	372
-16.192	-38.118	14858	14528	0	372
-17.706	-37.541	14893	14900	0	372
-21.349	-36.711	14718	15183	0	372
-26.217	-37.468	14630	15292	0	372
-29.607	-40.822	14542	15329	0	372
-31.194	-45.618	14279	15341	0	372
-30.833	-48.864	14156	15317	0	372
-30.725	-48.648	13893	15276	0	372
-30.869	-48.828	13718	15232	0	372
-33.790	-49.225	13455	15195	0	372
-36.134	-50.956	13227	15171	0	372
-38.118	-52.326	13051	15163	0	372
-38.045	-50.343	12841	15240	0	372
-37.144	-45.979	12963	15571	0	372
-35.701	-40.426	13104	16105	0	372
-34.331	-36.062	13227	16606	0	372
-32.456	-32.564	13630	17160	0	372
-29.535	-28.777	13928	17799	0	372
-24.991	-23.440	14244	18265	0	372
-20.664	-20.736	14420	18455	0	372
-19.798	-21.313	14683	18560	0	372
-21.637	-24.919	14981	18819	0	372
-23.693	-29.931	15332	19179	0	372
-23.657	-29.246	15595	19349	0	372
-19.510	-25.532	15735	19256	0	372
-16.048	-19.978	15911	19110	0	372
-15.146	-18.788	16262	19142	0	372
-18.356	-22.972	16559	19284	0	372
-22.070	-27.335	16857	19337	1	812
-22.575	-27.660	17208	19385	0	812
-18.139	-24.342	17559	19494	0	812
-13.812	-17.670	17822	19422	0	812
-12.766	-13.884	17875	19082	0	812
-12.694	-13.992	17875	18600	0	812
-13.054	-13.199	17822	18054	0	812
-10.963	-12.874	17647	17460	0	812
-6.780	-10.566	17436	16857	0	812
-5.590	-10.133	17208	16271	0	812
-4.364	-10.097	16945	15705	0	812
-4.400	-9.520	16734	15260	0	812
-4.472	-7.393	16682	15102	0	812
-2.416	-2.885	16647	15179	0	812
-1.659	-0.252	16594	15195	0	812
-1.659	-0.757	16471	15046	0	812
-1.839	-4.544	16297	14839	0	812
-3.787	-9.160	16086	14625	0	812
-6.383	-13.884	15858	14406	0	812
-10.855	-16.084	15735	14273	0	812
-15.543	-17.274	15683	14398	0	812
-16.480	-17.779	15735	14738	0	812
-16.661	-17.815	15735	14989	0	812
-14.497	-17.418	15823	15130	0	812
-12.910	-16.012	15946	15434	0	812
-11.937	-13.956	16121	15895	0	812
-10.097	-9.520	16209	16198	0	812
-7.862	-5.986	16262	16263	0	812
-2.885	-2.741	16209	16207	0	812
-0.072	-0.757	16086	16085	0	812
0.108	-1.479	15911	15907	0	812
-3.570	-3.750	15770	15701	0	812
-8.150	-7.140	15507	15490	0	812
-9.304	-7.681	15332	15292	0	812
-7.321	-5.481	15069	15110	0	812
-0.108	-0.757	14858	15025	0	812
7.898	5.157	14946	15211	0	812
15.543	9.773	15034	15612	0	812
17.418	9.629	15034	15915	0	812
15.795	8.475	14981	16020	0	812
10.278	5.193	14946	16033	0	812
5.301	1.479	14893	16000	0	812
5.409	3.210	14718	15931	0	812
10.206	7.537	14595	15842	0	812
17.093	13.631	14455	15757	0	812
18.356	16.697	14332	15753	0	812
14.281	14.713	14507	15996	0	812
8.619	10.242	14595	16424	0	812
6.239	8.366	14806	16816	0	812
10.746	12.586	15156	17229	0	812
17.706	18.752	15472	17722	0	812
22.827	23.476	15683	18046	0	812
23.693	24.883	15823	18095	0	812
21.024	23.404	15911	17994	0	812
19.113	23.188	15911	17803	0	812
20.483	23.224	15823	17553	0	812
20.916	23.549	15823	17342	0	812
22.034	25.027	16034	17350	0	812
21.637	24.630	16121	17532	0	812
21.818	26.001	16209	17605	0	812
22.106	27.407	16262	17476	0	812
24.919	29.895	16209	17257	0	812
26.578	29.282	16262	17071	0	812
28.056	30.040	16384	17095	0	812
27.587	29.643	16559	17282	0	812
25.640	26.650	16769	17427	0	812
21.493	23.945	17173	17682	0	812
15.975	18.752	17734	18273	0	812
11.143	12.874	18313	18879	0	812
8.078	10.097	18612	19106	0	812
7.285	8.547	18927	18981	0	812
10.783	11.323	18962	18681	0	812
12.441	14.497	19050	18265	0	812
12.189	13.740	18927	17751	0	812
10.602	13.091	18787	17164	0	812
8.655	12.477	18489	16549	0	812
10.061	14.677	18348	16024	0	812
11.468	17.057	18348	15774	0	812
13.054	19.185	18261	15737	0	812
14.136	17.634	18313	15705	1	316
13.884	15.615	18401	15741	0	316
16.012	15.074	18524	15903	0	316
18.608	18.320	18612	16016	0	316
18.680	19.690	18875	16150	0	316
16.552	21.060	19015	16376	0	316
11.684	18.283	19138	16440	0	316
7.176	15.326	19015	16263	0	316
5.049	14.172	18927	15952	0	316
7.104	16.589	18664	15592	0	316
10.999	22.250	18436	15199	0	316
14.028	27.912	18173	14787	0	316
11.035	27.587	17734	14382	0	316
1.875	19.582	17348	14002	0	316
-9.629	7.321	17085	13731	0	316
-18.283	-4.977	16945	13747	0	316
-19.510	-9.160	16822	13998	0	316
-14.569	-6.708	16682	14176	0	316
-9.556	-1.695	16471	14184	0	316
-7.825	1.334	16262	14131	0	316
-11.215	-2.056	15946	14079	0	316
-15.435	-6.131	15648	14014	0	316
-17.129	-8.330	15384	13953	0	316
-13.884	-4.724	15156	13982	0	316
-8.907	0.108	15209	14277	0	316
-5.121	2.236	15244	14863	0	316
-8.763	-2.164	15507	15600	0	316
-14.136	-8.439	15823	16312	0	316
-19.654	-14.569	15999	16800	0	316
-20.736	-14.966	16174	17108	0	316
-16.444	-10.638	16471	17500	0	316
-7.248	-1.911	16769	17977	0	316
0.505	7.681	16945	18248	0	316
7.321	14.677	17033	18232	0	316
7.501	19.077	17033	18066	0	316
2.596	17.021	16945	17807	0	316
-2.380	11.973	16910	17561	0	316
-6.239	8.691	16998	17512	0	316
-5.013	7.609	17033	17625	0	316
-0.721	9.520	17085	17613	0	316
2.092	9.917	16998	17383	0	316
2.056	10.530	16857	17051	0	316
0.541	11.143	16682	16683	0	316
-0.433	9.268	16419	16300	0	316
-1.334	7.537	16262	15996	0	316
-1.190	4.977	16262	15960	0	316
-1.551	3.534	16384	16215	0	316
-2.092	3.246	16734	16699	0	316
-4.219	5.265	17296	17427	0	316
-7.248	5.121	17699	18135	0	316
-9.701	3.750	18173	18552	0	316
-10.602	1.875	18664	18859	0	316
-9.016	1.767	19050	19175	0	316
-5.481	5.878	19366	19235	0	316
-0.216	10.314	19454	18972	0	316
5.193	15.362	19401	18544	0	316
8.871	18.788	19366	18018	0	316
11.035	20.159	19138	17415	0	316
10.530	19.690	18875	16768	0	316
8.114	18.788	18524	16118	0	316
5.950	18.175	18261	15559	0	316
6.996	18.211	18138	15280	0	316
8.402	18.572	18050	15232	0	316
9.737	19.113	17875	15114	0	316
9.448	18.500	17612	14839	0	316
8.511	16.156	17296	14520	0	316
3.678	12.153	17033	14208	0	316
-1.406	6.022	16647	13909	0	316
-8.150	-0.865	16262	13634	0	316
-12.081	-5.986	15858	13387	0	316
-13.091	-6.816	15595	13257	0	316
-11.468	-6.347	15472	13415	0	316
-8.979	-5.085	15384	13812	0	316
-10.891	-6.167	15244	14131	0	316
-13.631	-9.520	15209	14358	0	316
-16.372	-12.333	15332	14762	0	316
-18.428	-14.461	15560	15406	0	316
-19.365	-15.362	15911	16142	0	316
-22.286	-18.247	16209	16808	0	316
-27.984	-23.909	16384	17229	0	316
-31.771	-29.679	16594	17447	0	316
-33.357	-32.672	16998	17828	0	316
-29.499	-29.931	17559	18532	0	316
-21.204	-22.719	18050	19207	0	316
-12.982	-15.146	18489	19559	0	316
-7.753	-12.946	19015	19871	0	316
-9.376	-15.074	19805	20425	0	316
-12.982	-21.096	20454	20987	0	316
-18.752	-26.181	21120	21343	0	316
-22.755	-28.850	21647	21464	0	316
-27.047	-30.184	21945	21250	0	316
-30.545	-31.302	22173	20756	0	316
-34.836	-33.285	22436	20307	0	316
-37.396	-33.934	22612	19923	0	316
-36.531	-33.105	22647	19345	1	376
-33.393	-30.833	22524	18588	0	376
-30.436	-29.427	22612	17965	0	376
-29.535	-26.902	22524	17500	0	376
-28.633	-26.397	22384	16905	0	376
-27.479	-23.440	22033	16122	0	376
-22.358	-18.067	21594	15264	0	376
-15.362	-9.340	21120	14406	0	376
-5.662	-2.272	20541	13573	0	376
-0.721	1.587	19892	12796	0	376
-1.839	0.757	19278	12092	0	376
-8.366	-3.787	18664	11542	0	376
-15.471	-6.275	18261	11336	0	376
-15.831	-3.931	17962	11506	0	376
-8.402	3.462	17910	11910	0	376
-0.685	11.756	17822	12372	0	376
4.508	12.838	17612	12687	0	376
1.875	8.835	17348	12796	0	376
-3.931	0.252	17033	12808	0	376
-8.222	-6.094	16734	12865	0	376
-6.671	-5.265	16647	13144	0	376
-3.714	1.442	16506	13589	0	376
-2.777	7.321	16349	13913	0	376
-3.173	8.366	16086	14026	0	376
-5.193	5.554	15770	14046	0	376
-6.563	1.731	15384	14022	0	376
-8.763	0.829	15069	13965	0	376
-8.655	3.895	14595	13905	0	376
-10.386	10.061	14244	13852	0	376
-9.124	15.867	13753	13812	0	376
-5.229	22.178	13402	13796	0	376
1.118	28.850	13016	13897	0	376
6.022	34.367	12963	14277	0	376
9.629	38.658	12928	14872	0	376
11.035	41.183	12788	15365	0	376
14.172	45.402	12700	15656	0	376
18.572	48.503	12700	15931	0	376
22.827	52.975	12788	16404	0	376
25.748	57.735	13051	17095	0	376
29.102	63.289	13490	17884	0	376
31.879	68.734	13806	18608	0	376
35.882	73.747	14104	19082	0	376
38.442	73.134	14367	19333	0	376
36.278	69.311	14806	19644	0	376
30.292	60.440	15244	20101	0	376
22.503	52.254	15735	20583	0	376
13.812	47.025	16262	20947	0	376
7.357	42.842	16559	21028	0	376
1.731	41.616	16682	20797	0	376
-2.560	40.678	16769	20376	0	376
-4.616	40.534	16769	19850	0	376
-4.219	38.695	16682	19248	0	376
-4.255	36.928	16594	18685	0	376
-7.681	32.925	16769	18422	0	376
-12.369	30.184	17085	18592	0	376
-18.933	29.391	17524	18916	0	376
-23.729	31.194	17998	19163	0	376
-23.621	34.728	18313	19304	0	376
-21.277	37.937	18612	19199	0	376
-16.985	39.921	18699	18811	0	376
-13.704	40.137	18612	18265	0	376
-13.127	39.308	18524	17634	0	376
-12.802	40.101	18348	17031	0	376
-15.759	40.570	18348	16650	0	376
-18.500	40.498	18401	16541	0	376
-21.745	40.353	18752	16663	0	376
-24.666	38.983	19138	17031	0	376
-29.318	37.468	19489	17391	0	376
-33.177	35.918	19717	17480	0	376
-36.747	33.177	20068	17484	0	376
-41.399	29.030	20331	17524	0	376
-44.320	23.080	20366	17358	0	376
-47.962	18.969	20278	16909	0	376
-53.228	13.812	20103	16324	0	376
-58.384	10.855	19927	15749	0	376
-65.020	7.140	19805	15381	0	376
-67.472	4.183	19629	15195	0	376
-67.436	2.344	19454	14904	0	376
-65.741	1.479	19191	14516	0	376
-62.676	2.777	19103	14325	0	376
-61.342	3.282	19015	14325	0	376
-63.000	2.921	18752	14220	0	376
-62.928	0.288	18436	13921	0	376
-63.289	-2.344	18050	13549	0	376
-62.928	-4.111	17647	13245	0	376
-64.118	-4.868	17471	13193	0	376
-68.085	-4.977	17348	13431	0	376
-72.052	-7.681	17524	13913	0	376
-75.838	-11.035	17787	14649	0	376
-78.182	-15.651	17998	15385	0	376
-77.894	-19.726	18226	15846	0	376
-79.553	-21.818	18401	16223	0	376
-81.680	-24.847	18699	16610	0	376
-85.467	-28.345	18699	16780	0	376
-88.424	-32.528	18699	16723	0	376
-89.686	-35.918	18927	16828	0	376
-89.181	-38.009	19226	17282	0	376
-88.388	-38.731	19576	17816	0	376
-87.198	-39.668	19980	18212	0	376
-87.126	-43.347	20191	18439	0	376
-87.018	-47.025	20278	18374	0	376
-86.693	-50.054	20243	17994	0	376
-83.411	-48.720	20015	17423	0	376
-79.228	-43.202	19629	16760	0	376
-73.711	-38.154	19191	16045	0	376
-68.301	-35.485	18699	15304	0	376
-64.263	-35.954	18138	14580	0	376
-61.089	-36.351	17471	13889	0	376
-60.440	-35.737	16857	13262	0	376
-60.728	-34.079	16209	12715	0	376
-62.604	-32.925	15507	12250	0	376
-61.918	-32.889	14981	11963	0	376
-57.843	-31.843	14595	12020	0	376
-48.287	-27.696	14332	12343	0	376
-37.468	-18.824	14069	12626	0	376
-29.643	-10.314	13665	12764	0	376
-25.604	-4.508	13402	12942	0	376
-27.155	-3.931	13314	13367	0	376
-26.722	-6.022	13314	14058	0	376
-22.863	-5.554	13542	14876	0	376
-15.435	-3.354	13665	15660	0	376
-7.321	2.633	13806	16211	0	376
-2.993	7.104	13893	16570	0	376
-3.534	6.599	14104	17023	0	376
-7.429	3.173	14244	17561	0	376
-10.169	-1.010	14420	17900	0	376
-11.107	-1.334	14367	17961	0	376
-8.727	0.469	14455	17949	0	376
-5.517	4.255	14683	18188	0	376
-0.325	8.979	15209	18871	0	376
4.616	11.648	15946	19822	0	376
8.871	12.730	16559	20570	0	376
10.999	12.982	17033	20918	0	376
10.169	10.386	17612	21100	0	376
7.140	8.186	17962	21238	0	376
7.573	7.393	18313	21096	0	376
10.999	11.756	18401	20611	0	376
16.985	17.129	18261	19935	0	376
22.034	22.467	18138	19159	0	376
23.945	25.784	17875	18317	1	556
