neuroNicle FX2
D3F25R12
Bluetooth SPP
2023년 11월 20일 월요일
오후 4:52
time interval = 4msec
EEG1	EEG2	PPG	sdPPG	pulse	peak_interval(msec)
-49.730	-49.261	16510	14469	0	316
-40.642	-45.546	16485	14133	0	316
-36.819	-42.265	16465	13844	0	316
-39.019	-41.616	16463	13884	0	316
-44.573	-45.618	16476	14445	0	316
-48.071	-52.038	16508	15331	0	316
-44.537	-48.576	16527	16080	0	316
-36.495	-41.616	16532	16412	0	316
-30.941	-31.266	16536	16404	0	316
-34.006	-30.653	16527	16236	0	316
-43.347	-35.341	16516	15972	0	316
-50.379	-47.638	16493	15627	0	316
-48.539	-49.874	16476	15219	0	316
-38.082	-43.743	16453	14862	0	316
-29.102	-35.233	16451	14838	0	316
-31.771	-35.954	16459	15263	0	316
-47.494	-46.159	16465	15792	0	316
-63.397	-63.361	16468	16036	0	316
-75.514	-74.432	16463	15992	0	316
-77.533	-76.632	16448	15812	0	316
-72.990	-72.845	16431	15567	0	316
-65.525	-65.128	16417	15367	0	316
-57.952	-59.899	16414	15379	0	316
-51.461	-53.660	16408	15559	0	316
-45.907	-48.576	16408	15703	0	316
-47.241	-46.809	16412	15904	0	316
-55.716	-54.922	16423	16280	0	316
-66.462	-64.731	16437	16744	0	316
-75.550	-73.062	16448	17145	0	316
-75.334	-72.701	16457	17293	0	316
-70.177	-65.164	16451	17153	0	316
-64.226	-58.276	16442	16868	0	316
-64.479	-59.070	16423	16512	0	316
-66.498	-63.686	16412	16196	0	316
-68.554	-66.426	16406	16096	0	316
-65.597	-62.784	16400	16172	0	316
-59.286	-55.968	16391	16136	0	316
-57.122	-50.270	16379	15908	0	316
-59.214	-54.634	16365	15607	0	316
-65.633	-61.522	16339	15291	0	316
-70.285	-66.607	16315	14962	0	316
-68.987	-64.118	16292	14722	0	316
-61.955	-57.807	16292	14826	0	316
-56.942	-50.487	16309	15387	0	316
-52.759	-49.657	16322	16124	0	316
-57.952	-55.536	16345	16804	0	316
-64.695	-63.974	16371	17381	0	316
-71.042	-66.967	16382	17698	0	316
-73.530	-64.407	16384	17698	0	316
-68.229	-56.581	16382	17537	0	316
-59.683	-46.412	16382	17373	0	316
-53.516	-41.832	16386	17373	0	316
-46.556	-43.851	16395	17505	0	316
-46.809	-46.953	16391	17481	0	316
-49.657	-49.621	16386	17229	0	316
-50.451	-50.667	16382	16944	0	316
-49.693	-48.792	16389	16936	0	316
-46.376	-44.969	16408	17333	0	316
-44.789	-48.215	16429	17786	0	316
-47.746	-51.713	16434	17906	0	316
-51.677	-54.309	16434	17710	0	316
-59.647	-57.014	16437	17449	0	316
-61.991	-59.214	16442	17357	0	316
-60.332	-55.247	16451	17397	0	316
-56.834	-54.670	16446	17281	0	316
-47.313	-48.792	16446	17013	0	316
-39.993	-43.383	16448	16884	0	316
-33.754	-37.649	16453	16904	0	316
-33.646	-34.331	16457	16872	0	316
-39.812	-35.305	16465	16864	0	316
-49.693	-41.507	16470	16952	0	316
-56.293	-46.628	16470	16900	0	316
-62.351	-53.155	16465	16608	0	316
-60.765	-54.670	16451	16200	0	316
-59.502	-54.165	16431	15739	0	316
-54.670	-48.251	16412	15263	0	316
-53.552	-47.530	16384	14782	0	316
-50.992	-46.556	16365	14401	0	316
-50.775	-46.015	16360	14293	0	316
-50.631	-48.864	16345	14409	0	316
-55.608	-49.261	16331	14441	0	316
-58.493	-50.054	16311	14293	0	316
-63.866	-53.660	16292	14093	0	316
-64.082	-53.191	16269	13897	0	316
-60.476	-53.768	16241	13700	0	316
-55.463	-50.234	16219	13516	0	316
-54.742	-48.720	16187	13360	0	316
-56.040	-49.116	16162	13247	0	316
-61.486	-49.153	16140	13191	0	316
-64.731	-52.903	16111	13179	0	316
-63.036	-52.903	16085	13203	0	316
-55.968	-51.280	16063	13264	0	316
-49.369	-44.609	16040	13372	0	316
-40.462	-40.930	16018	13520	0	316
-39.019	-36.531	15998	13696	0	316
-42.084	-39.740	15982	13905	0	316
-50.775	-46.664	15967	14157	0	316
-55.608	-51.461	15953	14433	0	316
-57.771	-53.768	15939	14714	0	316
-53.624	-48.576	15931	15002	0	316
-50.956	-47.854	15919	15307	0	316
-51.497	-48.251	15916	15607	0	316
-59.070	-52.470	15908	15900	0	316
-64.731	-58.276	15905	16176	0	316
-64.695	-58.493	15899	16444	0	316
-61.017	-55.572	15899	16696	0	316
-57.916	-53.372	15894	16928	0	316
-54.201	-51.244	15897	17137	0	316
-55.427	-53.696	15891	17325	0	316
-54.382	-52.398	15894	17489	0	316
-49.730	-50.884	15894	17646	0	316
-46.448	-46.917	15897	17786	0	316
-49.369	-43.851	15897	17914	0	316
-53.408	-45.510	15903	18030	0	316
-60.332	-48.576	15910	18206	0	316
-61.774	-50.451	15944	18687	0	316
-58.096	-53.372	15989	19577	0	316
-56.004	-53.011	16035	20510	0	316
-53.408	-54.778	16074	21079	0	316
-56.690	-55.031	16111	21375	0	316
-62.532	-58.745	16157	21736	0	316
-62.243	-61.486	16207	22161	0	316
-58.457	-57.916	16243	22337	0	316
-51.965	-56.293	16275	22185	0	316
-44.645	-50.992	16294	21848	0	316
-45.835	-51.785	16315	21408	0	316
-54.598	-57.050	16331	20959	0	316
-63.541	-65.344	16362	20678	1	708
-67.688	-69.888	16384	20542	0	708
-64.840	-65.453	16403	20262	0	708
-57.952	-59.394	16417	19813	0	708
-52.723	-52.398	16442	19492	0	708
-52.398	-51.461	16465	19312	0	708
-51.316	-49.513	16487	19068	0	708
-48.900	-48.467	16510	18851	0	708
-42.878	-44.104	16536	18723	0	708
-38.478	-37.829	16547	18435	0	708
-36.603	-34.872	16561	17982	0	708
-41.543	-37.180	16578	17662	0	708
-45.763	-40.101	16600	17565	0	708
-49.297	-46.340	16626	17569	0	708
-46.592	-46.448	16651	17613	0	708
-42.337	-42.337	16683	17694	0	708
-37.216	-36.531	16705	17710	0	708
-37.901	-34.187	16724	17553	0	708
-42.265	-36.855	16747	17361	0	708
-47.782	-45.294	16767	17297	0	708
-50.884	-53.444	16795	17301	0	708
-49.116	-52.795	16812	17225	0	708
-43.058	-49.225	16818	16900	0	708
-40.353	-42.770	16812	16320	0	708
-40.426	-41.976	16801	15603	0	708
-44.032	-43.310	16779	14822	0	708
-47.025	-47.890	16750	14013	0	708
-46.809	-47.277	16719	13211	0	708
-41.976	-43.274	16685	12446	0	708
-38.009	-39.704	16643	11737	0	708
-36.206	-39.235	16598	11108	0	708
-39.885	-41.580	16561	10655	0	708
-42.229	-44.068	16542	10531	0	708
-43.743	-46.556	16519	10687	0	708
-46.015	-48.612	16487	10824	0	708
-47.746	-50.559	16463	10836	0	708
-47.097	-53.119	16434	10820	0	708
-49.080	-53.011	16406	10912	0	708
-48.576	-51.316	16391	11268	0	708
-46.989	-53.119	16382	11841	0	708
-48.287	-53.047	16371	12330	0	708
-45.618	-53.985	16351	12626	0	708
-42.914	-48.539	16331	12839	0	708
-41.796	-45.005	16320	13099	0	708
-43.347	-45.366	16315	13580	0	708
-48.864	-51.316	16317	14225	0	708
-56.726	-60.079	16309	14738	0	708
-58.024	-61.342	16309	15102	0	708
-58.565	-54.562	16315	15619	0	708
-54.670	-47.674	16326	16268	0	708
-54.129	-43.130	16326	16728	0	708
-52.867	-44.753	16322	16920	0	708
-53.336	-49.080	16320	16976	0	708
-51.388	-50.162	16309	16956	0	708
-51.028	-47.241	16298	16872	0	708
-48.359	-43.527	16281	16748	0	708
-51.497	-42.481	16266	16600	0	708
-50.415	-43.887	16249	16432	0	708
-53.228	-46.592	16230	16256	0	708
-51.100	-49.693	16213	16080	0	708
-52.038	-47.926	16190	15916	0	708
-50.559	-48.720	16173	15784	0	708
-52.759	-48.792	16157	15675	0	708
-49.946	-46.232	16136	15599	0	708
-43.707	-42.553	16119	15547	0	708
-38.009	-35.737	16111	15607	0	708
-33.285	-31.194	16123	16008	0	708
-36.819	-33.574	16147	16852	0	708
-44.861	-40.462	16173	17782	0	708
-53.444	-47.890	16198	18383	0	708
-56.978	-50.307	16213	18667	0	708
-56.004	-51.064	16221	18779	0	708
-53.408	-50.090	16230	18783	0	708
-47.169	-49.441	16238	18771	0	708
-45.150	-47.386	16258	18944	0	708
-41.652	-44.140	16277	19244	0	708
-44.753	-41.507	16292	19392	0	708
-50.920	-45.366	16303	19304	0	708
-59.538	-52.867	16317	19164	0	708
-66.282	-62.135	16337	19184	0	708
-65.380	-64.082	16354	19328	0	708
-61.810	-60.837	16368	19316	0	708
-56.473	-55.463	16373	19064	0	708
-49.982	-49.657	16377	18675	0	708
-48.792	-49.333	16379	18319	0	708
-47.422	-48.576	16391	18178	0	708
-50.126	-50.811	16403	18202	0	708
-52.939	-49.369	16412	18094	0	708
-57.952	-48.792	16412	17766	0	708
-59.034	-50.811	16414	17429	0	708
-57.663	-48.179	16425	17305	0	708
-51.136	-46.881	16437	17333	0	708
-42.301	-41.075	16440	17229	0	708
-37.973	-37.072	16440	16908	0	708
-41.796	-37.901	16429	16500	0	708
-50.343	-43.238	16420	16068	0	708
-60.512	-51.533	16406	15619	0	708
-62.964	-54.093	16389	15175	0	708
-56.293	-46.772	16377	14838	0	708
-49.513	-40.137	16377	14778	0	708
-46.772	-35.918	16377	14950	0	708
-53.083	-41.039	16373	15046	0	708
-59.142	-48.936	16368	14978	0	708
-59.142	-50.775	16356	14838	0	708
-52.326	-45.727	16343	14682	0	708
-43.347	-35.557	16328	14514	0	708
-36.928	-27.912	16320	14429	0	708
-39.055	-27.876	16320	14590	0	708
-45.474	-35.088	16328	14946	0	708
-50.920	-41.976	16326	15211	0	708
-51.569	-45.979	16320	15283	0	708
-50.956	-45.366	16315	15267	0	708
-51.280	-43.599	16309	15215	0	708
-53.336	-44.681	16294	15130	0	708
-58.925	-49.513	16281	15030	0	708
-59.791	-51.857	16266	14922	0	708
-54.273	-52.867	16252	14818	0	708
-48.792	-44.573	16232	14726	0	708
-43.419	-40.678	16219	14646	0	708
-43.094	-38.298	16204	14666	0	708
-45.005	-40.894	16221	15030	0	708
-44.501	-42.806	16241	15840	0	708
-42.229	-41.219	16275	16804	0	708
-41.471	-41.796	16309	17698	0	708
-46.736	-43.563	16351	18543	0	708
-52.038	-49.838	16395	19344	0	708
-55.463	-52.723	16437	20009	0	708
-54.129	-51.713	16465	20358	0	708
-44.969	-44.933	16493	20430	0	708
-39.812	-39.524	16532	20594	0	708
-40.894	-38.983	16575	21039	0	708
-50.054	-46.520	16621	21428	0	708
-61.125	-52.831	16645	21384	0	708
-64.984	-54.742	16660	20943	0	708
-60.656	-48.756	16666	20306	0	708
-52.146	-42.553	16662	19545	0	708
-43.996	-37.505	16651	18691	1	544
-43.671	-40.462	16640	17874	0	544
-50.307	-45.979	16649	17377	0	544
-53.588	-48.179	16668	17401	0	544
-54.165	-46.592	16696	17770	0	544
-49.153	-42.048	16728	18110	0	544
-44.681	-40.894	16758	18295	0	544
-45.871	-42.914	16786	18415	0	544
-49.730	-47.710	16818	18507	0	544
-56.906	-50.343	16835	18479	0	544
-55.572	-47.169	16849	18158	0	544
-50.811	-41.580	16843	17529	0	544
-42.842	-36.855	16826	16732	0	544
-40.894	-37.468	16807	15864	0	544
-47.097	-41.471	16773	14942	0	544
-52.326	-47.097	16739	14029	0	544
-53.408	-44.753	16700	13167	0	544
-48.251	-38.154	16657	12370	0	544
-38.586	-30.797	16611	11645	0	544
-33.862	-28.092	16566	11012	0	544
-38.334	-31.085	16521	10495	0	544
-45.546	-35.088	16476	10090	0	544
-54.418	-38.154	16429	9794	0	544
-56.437	-38.334	16384	9610	0	544
-56.221	-38.009	16348	9610	0	544
-52.831	-40.750	16322	9930	0	544
-55.752	-44.825	16303	10507	0	544
-59.827	-51.713	16283	11040	0	544
-65.597	-53.805	16266	11417	0	544
-70.898	-57.014	16236	11741	0	544
-69.059	-55.644	16215	12058	0	544
-64.371	-56.221	16196	12438	0	544
-61.666	-56.076	16193	13063	0	544
-61.738	-55.752	16193	13884	0	544
-63.541	-56.942	16187	14582	0	544
-68.482	-56.185	16185	15054	0	544
-71.259	-57.158	16176	15411	0	544
-71.727	-57.699	16164	15703	0	544
-69.852	-57.158	16157	15936	0	544
-65.705	-56.834	16145	16124	0	544
-62.135	-53.228	16131	16288	0	544
-58.060	-52.434	16125	16428	0	544
-54.598	-48.143	16117	16620	0	544
-53.588	-46.809	16125	17021	0	544
-50.162	-43.851	16134	17577	0	544
-49.838	-44.645	16140	18010	0	544
-49.189	-47.638	16145	18210	0	544
-54.237	-50.992	16145	18291	0	544
-57.555	-51.965	16153	18387	0	544
-62.964	-52.723	16164	18679	0	544
-63.722	-50.992	16185	19104	0	544
-61.991	-52.290	16198	19368	0	544
-57.591	-52.434	16204	19384	0	544
-56.726	-56.545	16213	19268	0	544
-55.716	-55.499	16210	19084	0	544
-60.151	-55.608	16210	18831	0	544
-61.955	-54.382	16202	18527	0	544
-63.866	-51.352	16198	18198	0	544
-59.791	-50.270	16190	17862	0	544
-56.509	-49.441	16179	17537	0	544
-55.319	-48.143	16170	17221	0	544
-54.454	-50.667	16168	17000	0	544
-57.266	-50.631	16173	17053	0	544
-57.050	-50.847	16187	17313	0	544
-56.185	-49.982	16190	17469	0	544
-52.398	-48.828	16204	17513	0	544
-50.920	-49.333	16230	17806	0	544
-48.648	-47.169	16272	18503	0	544
-48.720	-46.953	16309	19228	0	544
-46.448	-44.609	16339	19585	0	544
-47.349	-42.697	16360	19593	0	544
-51.713	-46.123	16373	19420	0	544
-55.788	-53.191	16382	19112	0	544
-60.728	-55.716	16384	18699	0	544
-58.240	-55.139	16382	18222	0	544
-50.126	-45.907	16382	17786	0	544
-42.012	-39.272	16391	17577	0	544
-40.389	-36.351	16408	17642	0	544
-45.655	-40.714	16431	17854	0	544
-54.670	-47.854	16457	18046	0	544
-63.109	-51.028	16468	18030	0	544
-62.928	-51.028	16479	17842	0	544
-56.185	-47.710	16499	17774	0	544
-51.388	-46.700	16521	17910	0	544
-48.972	-46.989	16553	18126	0	544
-54.850	-47.674	16575	18279	0	544
-62.387	-51.352	16589	18186	0	544
-67.436	-52.867	16592	17814	0	544
-64.551	-54.273	16589	17293	0	544
-58.168	-52.362	16581	16696	0	544
-53.011	-49.477	16564	16060	0	544
-51.280	-45.871	16547	15411	0	544
-56.834	-43.851	16519	14770	0	544
-60.115	-47.205	16496	14161	0	544
-63.217	-52.398	16470	13604	0	544
-61.053	-55.031	16437	13103	0	544
-55.067	-55.644	16408	12659	0	544
-50.703	-49.116	16377	12274	0	544
-48.756	-44.645	16356	12066	0	544
-54.418	-44.933	16343	12202	0	544
-61.558	-47.818	16334	12602	0	544
-68.662	-55.608	16322	12943	0	544
-68.878	-56.834	16315	13115	0	544
-63.109	-54.490	16300	13231	0	544
-56.040	-47.782	16283	13340	0	544
-49.116	-43.419	16266	13432	0	544
-48.035	-42.986	16252	13516	0	544
-49.838	-43.924	16232	13604	0	544
-50.631	-46.340	16215	13696	0	544
-54.418	-48.792	16196	13792	0	544
-54.814	-47.999	16179	13893	0	544
-56.978	-48.215	16168	14093	0	544
-55.752	-49.730	16170	14554	0	544
-50.559	-47.674	16179	15219	0	544
-45.691	-47.674	16179	15772	0	544
-44.140	-47.097	16185	16108	0	544
-45.114	-46.015	16185	16344	0	544
-51.172	-47.422	16179	16520	0	544
-55.716	-48.215	16176	16652	0	544
-54.598	-48.215	16176	16744	0	544
-50.415	-47.674	16168	16808	0	544
-42.409	-44.825	16162	16836	0	544
-37.505	-38.442	16159	16836	0	544
-34.151	-33.610	16147	16828	0	544
-35.341	-31.987	16147	16824	0	544
-37.685	-35.016	16140	16816	0	544
-37.108	-38.118	16140	16876	0	544
-31.843	-39.308	16147	17177	0	544
-29.210	-34.547	16170	17658	0	544
-26.614	-27.696	16179	18010	0	544
-33.141	-26.794	16185	18130	0	544
-40.894	-33.177	16193	18134	0	544
-47.313	-43.527	16198	18074	0	544
-50.847	-50.162	16193	17958	0	544
-48.431	-50.198	16193	17794	0	544
-44.032	-43.815	16187	17601	0	544
-43.743	-37.649	16185	17409	0	544
-47.422	-37.829	16181	17225	0	544
-51.352	-42.878	16173	17045	0	544
-54.995	-48.792	16170	16872	0	544
-50.739	-49.549	16168	16708	0	544
-45.294	-42.770	16164	16644	0	544
-41.003	-38.262	16179	16836	0	544
-41.580	-35.701	16204	17309	0	544
-45.655	-39.524	16232	17930	0	544
-50.343	-46.340	16275	18627	0	544
-52.398	-49.838	16320	19336	0	544
-56.834	-53.985	16362	19937	0	544
-59.286	-52.362	16400	20334	0	544
-62.171	-55.319	16442	20654	0	544
-63.541	-55.536	16491	21047	0	544
-64.407	-57.411	16549	21512	0	544
-60.476	-55.283	16609	22081	0	544
-58.096	-52.110	16662	22525	0	544
-52.110	-44.969	16713	22585	0	544
-46.772	-38.370	16762	22453	0	544
-42.012	-34.331	16795	22273	0	544
-40.822	-34.728	16832	21896	0	544
-40.209	-37.541	16869	21500	0	544
-41.976	-40.389	16914	21420	1	636
-44.320	-39.560	16965	21556	0	636
-44.140	-37.577	17016	21552	0	636
-47.530	-39.019	17055	21307	0	636
-52.398	-43.094	17095	20935	0	636
-57.591	-48.900	17123	20486	0	636
-60.260	-52.182	17142	19893	0	636
-58.096	-46.520	17157	19092	0	636
-48.576	-40.462	17162	18234	0	636
-42.950	-35.269	17162	17405	0	636
-44.176	-37.072	17148	16404	0	636
-47.926	-44.537	17119	15195	0	636
-54.309	-48.467	17086	13913	0	636
-54.959	-46.592	17040	12643	0	636
-56.293	-46.809	16993	11429	0	636
-56.473	-49.549	16937	10311	0	636
-60.404	-52.975	16877	9305	0	636
-62.459	-56.437	16812	8408	0	636
-61.846	-54.598	16753	7651	0	636
-60.368	-50.090	16688	7042	0	636
-60.620	-46.917	16632	6653	0	636
-60.584	-51.893	16592	6741	0	636
-58.673	-52.398	16575	7414	0	636
-54.021	-49.297	16564	8368	0	636
-46.556	-41.255	16555	9333	0	636
-44.609	-35.305	16553	10239	0	636
-48.539	-36.603	16536	10944	0	636
-53.696	-39.632	16519	11389	0	636
-54.309	-43.924	16496	11769	0	636
-47.277	-37.324	16499	12398	0	636
-34.187	-26.722	16508	13396	0	636
-28.886	-17.382	16519	14493	0	636
-33.466	-20.267	16547	15555	0	636
-45.727	-31.194	16578	16696	0	636
-55.716	-41.183	16606	17722	0	636
-54.670	-42.229	16623	18283	0	636
-41.219	-29.895	16623	18411	0	636
-27.047	-17.129	16617	18299	0	636
-20.195	-10.314	16604	18014	0	636
-21.818	-12.982	16581	17593	0	636
-51.064	-41.471	16210	18675	0	448
-52.578	-42.950	16236	19052	0	448
-58.204	-45.366	16264	19392	0	448
-60.332	-44.753	16281	19509	0	448
-61.378	-41.147	16292	19352	0	448
-62.712	-40.245	16298	19036	0	448
-67.652	-42.517	16300	18631	0	448
-68.698	-44.284	16292	18162	0	448
-68.554	-44.032	16292	17734	0	448
-65.092	-39.921	16298	17537	0	448
-61.017	-36.928	16303	17513	0	448
-62.135	-36.639	16305	17381	0	448
-64.912	-35.846	16303	17069	0	448
-64.443	-36.242	16298	16684	0	448
-58.889	-32.961	16283	16280	0	448
-51.424	-31.554	16269	15852	0	448
-43.238	-28.886	16264	15519	0	448
-46.232	-30.833	16264	15459	0	448
-53.696	-34.620	16266	15611	0	448
-63.325	-38.983	16275	15768	0	448
-67.292	-40.353	16286	15992	0	448
-62.027	-36.711	16303	16328	0	448
-53.516	-30.076	16311	16508	0	448
-46.015	-27.443	16320	16536	0	448
-49.477	-30.508	16334	16700	0	448
-57.483	-40.065	16356	17073	0	448
-63.217	-48.071	16386	17521	0	448
-61.161	-48.720	16412	17902	0	448
-50.487	-40.353	16423	18038	0	448
-42.842	-31.987	16431	17874	0	448
-41.904	-27.732	16429	17537	0	448
-48.900	-30.292	16425	17113	0	448
-58.601	-36.134	16412	16628	0	448
-63.902	-43.383	16395	16108	0	448
-66.066	-46.376	16377	15575	0	448
-64.190	-50.090	16354	15062	0	448
-63.541	-52.723	16334	14586	0	448
-63.974	-54.057	16305	14149	0	448
-57.663	-51.533	16277	13756	0	448
-54.562	-43.022	16252	13420	0	448
-51.028	-35.918	16226	13143	0	448
-54.742	-35.485	16202	12939	0	448
-60.945	-42.012	16173	12803	0	448
-66.426	-51.208	16147	12727	0	448
-66.426	-54.021	16134	12791	0	448
-59.863	-49.982	16128	13155	0	448
-52.795	-41.075	16128	13748	0	448
-50.234	-35.665	16125	14257	0	448
-52.074	-34.800	16131	14670	0	448
-54.886	-37.613	16147	15267	0	448
-55.824	-38.442	16168	16092	0	448
-53.011	-38.514	16202	16992	0	448
-53.228	-38.839	16232	17818	0	448
-52.001	-41.543	16264	18467	0	448
-55.716	-44.212	16294	19048	0	448
-58.673	-45.474	16331	19613	0	448
-61.053	-45.727	16354	19925	0	448
-59.971	-41.832	16371	19909	0	448
-57.375	-40.570	16379	19697	0	448
-56.257	-38.406	16386	19440	0	448
-57.880	-40.245	16403	19332	0	448
-57.483	-41.688	16420	19348	0	448
-59.466	-45.222	16429	19208	0	448
-56.149	-45.294	16431	18819	0	448
-46.989	-39.199	16425	18311	0	448
-37.541	-31.518	16417	17766	0	448
-33.934	-26.722	16406	17213	0	448
-35.269	-26.650	16391	16660	0	448
-40.606	-31.843	16373	16120	0	448
-48.684	-38.118	16354	15583	0	448
-49.153	-37.721	16331	15082	0	448
-45.618	-34.367	16305	14634	0	448
-43.310	-33.502	16286	14249	0	448
-44.428	-38.478	16266	13933	0	448
-49.693	-45.763	16238	13688	0	448
-59.791	-55.211	16221	13500	0	448
-60.368	-57.303	16196	13352	0	448
-55.608	-51.929	16176	13259	0	448
-43.635	-44.645	16159	13231	0	448
-33.970	-39.308	16136	13255	0	448
-32.095	-37.216	16123	13324	0	448
-32.708	-36.098	16102	13436	0	448
-37.216	-34.944	16097	13656	0	448
-42.950	-33.790	16108	14225	0	448
-43.527	-34.295	16145	15327	0	448
-48.179	-38.767	16187	16744	0	448
-49.874	-42.517	16236	18006	0	448
-48.828	-42.661	16269	18811	0	448
-41.904	-39.199	16303	19300	0	448
-35.737	-33.069	16351	19881	0	448
-33.466	-30.436	16400	20710	0	448
-35.521	-30.725	16453	21460	0	448
-41.976	-34.475	16487	21748	0	448
-50.487	-39.127	16513	21608	0	448
-57.771	-44.392	16527	21223	0	448
-62.604	-49.044	16544	20763	0	448
-60.620	-48.395	16561	20434	0	448
-54.634	-43.347	16578	20214	1	420
-46.304	-38.082	16587	19837	0	420
-41.291	-33.538	16587	19228	0	420
-45.691	-36.819	16587	18583	0	420
-54.922	-45.691	16598	18134	0	420
-62.928	-51.424	16598	17850	0	420
-60.873	-52.578	16598	17465	0	420
-49.730	-45.871	16592	16884	0	420
-39.308	-35.124	16572	16232	0	420
-31.879	-27.840	16564	15651	0	420
-30.977	-24.414	16564	15399	0	420
-35.377	-25.496	16581	15599	0	420
-39.163	-29.823	16595	15888	0	420
-43.851	-36.891	16595	15884	0	420
-49.838	-43.635	16592	15603	0	420
-59.214	-50.523	16578	15215	0	420
-64.010	-51.821	16566	14854	0	420
-61.738	-49.189	16566	14706	0	420
-55.716	-41.580	16561	14734	0	420
-46.340	-36.423	16553	14654	0	420
-42.373	-34.547	16542	14461	0	420
-44.789	-37.973	16542	14445	0	420
-46.628	-41.363	16538	14602	0	420
-46.232	-43.130	16532	14634	0	420
-41.291	-43.779	16513	14461	0	420
-33.646	-40.426	16496	14193	0	420
-28.056	-38.045	16476	13897	0	420
-28.345	-33.682	16448	13596	0	420
-28.273	-31.410	16417	13312	0	420
-32.095	-30.292	16389	13051	0	420
-32.239	-31.771	16360	12835	0	420
-31.518	-32.672	16337	12671	0	420
-27.587	-28.020	16303	12562	0	420
-27.119	-23.585	16269	12494	0	420
-27.696	-21.673	16252	12550	0	420
-33.682	-22.395	16238	12895	0	420
-40.137	-28.669	16236	13456	0	420
-43.094	-35.233	16230	14005	0	420
-43.743	-36.855	16247	14698	0	420
-41.580	-37.180	16277	15759	0	420
-41.868	-34.115	16303	16852	0	420
-43.274	-32.925	16322	17549	0	420
-43.274	-30.112	16334	17870	0	420
-45.402	-28.922	16339	17994	0	420
-48.107	-31.843	16339	17982	0	420
-53.191	-36.459	16334	17858	0	420
-60.188	-39.272	16331	17722	0	420
-62.856	-42.193	16339	17778	0	420
-59.178	-40.426	16345	17986	0	420
-56.329	-38.298	16348	18062	0	420
-54.634	-37.360	16348	17910	0	420
-54.490	-39.740	16339	17658	0	420
-58.781	-41.435	16328	17369	0	420
-57.122	-41.868	16322	17133	0	420
-53.191	-34.980	16328	17129	0	420
-44.645	-28.886	16331	17301	0	420
-40.462	-22.827	16334	17365	0	420
-40.281	-22.791	16331	17213	0	420
-46.772	-27.804	16322	16968	0	420
-50.920	-34.800	16309	16692	0	420
-51.785	-35.485	16298	16396	0	420
-41.471	-29.968	16283	16096	0	420
-31.915	-21.673	16266	15796	0	420
-27.840	-20.303	16252	15523	0	420
-34.006	-22.611	16238	15359	0	420
-44.717	-31.410	16238	15455	0	420
-51.605	-39.019	16249	15844	0	420
-54.309	-40.930	16264	16388	0	420
-49.477	-39.524	16286	16932	0	420
-47.349	-38.082	16298	17269	0	420
-46.664	-38.947	16309	17429	0	420
-47.169	-38.045	16331	17690	0	420
-46.845	-37.541	16351	18054	0	420
-43.635	-34.331	16362	18238	0	420
-38.009	-31.699	16368	18154	0	420
-36.242	-32.780	16373	17934	0	420
-38.983	-37.396	16371	17634	0	420
-44.861	-44.428	16360	17273	0	420
-52.831	-51.136	16348	16880	0	420
-53.985	-51.352	16334	16472	0	420
-51.641	-49.766	16317	16076	0	420
-45.871	-44.681	16303	15699	0	420
-40.389	-40.714	16286	15359	0	420
-37.468	-37.360	16272	15130	0	420
-34.583	-34.367	16272	15191	0	420
-33.718	-32.816	16277	15483	0	420
-36.495	-32.816	16275	15695	0	420
-43.671	-37.613	16272	15711	0	420
-51.569	-43.455	16269	15655	0	420
-51.857	-45.186	16258	15579	0	420
-46.809	-40.534	16252	15475	0	420
-36.783	-32.600	16238	15355	0	420
-33.934	-25.784	16226	15235	0	420
-39.488	-27.912	16213	15126	0	420
-51.172	-37.324	16207	15098	0	420
-61.378	-48.720	16207	15323	0	420
-64.371	-52.326	16219	15751	0	420
-58.420	-50.631	16219	16076	0	420
-51.388	-43.202	16221	16196	0	420
-41.688	-36.242	16219	16224	0	420
-37.649	-32.492	16215	16212	0	420
-36.495	-32.456	16207	16160	0	420
-37.252	-32.203	16202	16100	0	420
-39.091	-31.230	16196	16116	0	420
-38.731	-30.508	16221	16452	0	420
-35.557	-27.263	16249	17225	0	420
-32.889	-26.794	16283	18066	0	420
-31.987	-27.948	16305	18559	0	420
-33.718	-30.112	16326	18711	0	420
-35.341	-33.321	16337	18703	0	420
-34.367	-31.013	16345	18595	0	420
-29.499	-27.010	16351	18383	0	420
-27.155	-23.585	16348	18086	0	420
-24.378	-20.267	16343	17742	0	420
-29.787	-25.460	16343	17461	0	420
-37.613	-30.689	16351	17413	0	420
-43.671	-35.954	16365	17541	0	420
-45.258	-38.370	16379	17629	0	420
-43.238	-37.757	16403	17846	0	420
-40.137	-35.052	16448	18479	0	420
-36.423	-33.429	16504	19452	0	420
-34.583	-33.285	16575	20474	0	420
-33.429	-31.482	16626	21195	0	420
-33.790	-31.699	16674	21476	0	420
-35.341	-32.925	16728	21628	0	420
-38.839	-35.485	16784	21952	0	420
-42.806	-37.577	16826	22161	0	420
-41.616	-39.957	16860	21888	0	420
-39.921	-38.586	16880	21275	0	420
-40.534	-37.829	16914	20763	0	420
-42.373	-39.560	16942	20538	0	420
-45.979	-40.065	16967	20278	1	524
-43.094	-38.118	16973	19625	0	524
-38.875	-35.052	16978	18711	0	524
-35.701	-31.338	16978	17906	0	524
-39.127	-33.141	16976	17233	0	524
-44.176	-37.541	16961	16420	0	524
-47.133	-39.488	16939	15407	0	524
-39.235	-35.846	16908	14333	0	524
-25.532	-27.768	16865	13280	0	524
-17.923	-22.142	16826	12266	0	524
-17.093	-22.467	16775	11320	0	524
-27.047	-29.210	16724	10475	0	524
-38.658	-37.000	16677	9738	0	524
-44.789	-40.389	16626	9193	0	524
-46.700	-41.940	16587	9005	0	524
-44.320	-41.435	16558	9109	0	524
-44.789	-43.130	16525	9297	0	524
-47.277	-46.376	16508	9622	0	524
-45.078	-47.241	16485	10122	0	524
-42.697	-42.301	16468	10543	0	524
-34.583	-35.052	16446	10868	0	524
-29.138	-29.499	16437	11368	0	524
-30.508	-28.237	16425	12038	0	524
-38.983	-34.836	16412	12570	0	524
-46.917	-41.760	16395	12875	0	524
-54.093	-46.268	16373	13075	0	524
-53.660	-49.369	16356	13312	0	524
-51.569	-48.035	16348	13752	0	524
-43.960	-42.986	16343	14365	0	524
-38.658	-38.298	16337	14854	0	524
-34.151	-33.970	16322	15098	0	524
-35.629	-33.826	16305	15215	0	524
-38.514	-38.586	16292	15355	0	524
-42.553	-42.842	16289	15699	0	524
-43.815	-43.815	16289	16192	0	524
-40.137	-38.983	16289	16536	0	524
-37.108	-35.197	16281	16732	0	524
-36.567	-33.429	16286	17065	0	524
-37.649	-35.052	16294	17521	0	524
-39.127	-38.298	16300	17886	0	524
-41.363	-39.199	16322	18319	0	524
-42.193	-38.983	16354	19040	0	524
-43.527	-37.396	16382	19757	0	524
-42.084	-34.547	16400	20073	0	524
-38.406	-31.771	16412	20021	0	524
-34.511	-29.859	16420	19853	0	524
-33.898	-29.787	16434	19797	0	524
-40.209	-34.836	16451	19905	0	524
-49.405	-39.632	16474	20077	0	524
-52.146	-40.281	16493	20178	0	524
-47.277	-36.387	16504	20029	0	524
-37.721	-27.191	16502	19597	0	524
-29.895	-21.709	16499	19012	0	524
-29.138	-21.890	16485	18359	0	524
-31.699	-25.676	16465	17670	0	524
-34.583	-30.725	16446	16968	0	524
-34.944	-34.079	16423	16280	0	524
-35.593	-35.341	16395	15631	0	524
-37.036	-35.882	16377	15114	0	524
-37.793	-33.213	16362	14890	0	524
-37.108	-30.040	16354	14898	0	524
-35.521	-27.912	16343	14858	0	524
-34.692	-26.866	16326	14674	0	524
-36.711	-29.318	16311	14449	0	524
-35.593	-32.167	16286	14217	0	524
-32.492	-31.554	16264	13989	0	524
-29.246	-30.545	16247	13844	0	524
-30.076	-29.895	16236	13977	0	524
-33.141	-30.508	16236	14325	0	524
-36.711	-30.977	16226	14598	0	524
-36.855	-30.689	16219	14682	0	524
-34.367	-27.515	16202	14686	0	524
-31.122	-25.712	16190	14670	0	524
-31.771	-25.820	16170	14634	0	524
-34.006	-27.912	16153	14594	0	524
-38.478	-32.780	16145	14646	0	524
-40.822	-35.341	16145	14962	0	524
-40.750	-36.891	16151	15475	0	524
-39.308	-36.134	16151	15880	0	524
-38.298	-35.990	16151	16084	0	524
-37.144	-35.485	16147	16192	0	524
-34.872	-33.646	16140	16244	0	524
-34.006	-30.220	16131	16256	0	524
-29.751	-27.660	16123	16248	0	524
-29.138	-28.814	16119	16304	0	524
-34.800	-34.223	16136	16664	0	524
-41.003	-42.193	16170	17529	0	524
-45.186	-46.628	16221	18699	0	524
-47.061	-45.294	16264	19701	0	524
-45.041	-41.219	16300	20242	0	524
-43.491	-40.894	16326	20390	0	524
-42.914	-43.419	16343	20318	0	524
-42.229	-44.753	16351	20069	0	524
-38.767	-40.498	16356	19689	0	524
-34.331	-33.970	16354	19216	0	524
-30.797	-26.758	16354	18763	0	524
-30.869	-27.912	16362	18511	0	524
-36.098	-33.790	16371	18423	0	524
-42.770	-43.022	16373	18214	0	524
-48.107	-46.015	16371	17810	0	524
-48.684	-45.546	16365	17325	0	524
-46.087	-43.455	16354	16824	0	524
-40.606	-40.750	16337	16320	0	524
-36.387	-36.314	16320	15824	0	524
-34.403	-33.429	16303	15363	0	524
-33.429	-29.679	16283	14934	0	524
-32.780	-27.624	16260	14550	0	524
-37.288	-29.102	16243	14301	0	524
-42.517	-33.429	16247	14369	0	524
-46.304	-38.298	16247	14682	0	524
-49.730	-41.255	16255	14994	0	524
-49.153	-39.993	16266	15375	0	524
-44.753	-36.098	16283	15872	0	524
-42.229	-32.997	16294	16212	0	524
-39.344	-30.617	16294	16296	0	524
-36.170	-30.689	16292	16256	0	524
-31.410	-28.633	16289	16152	0	524
-26.902	-23.909	16286	15988	0	524
-22.286	-20.411	16269	15784	0	524
-22.286	-18.500	16260	15555	0	524
-25.352	-22.647	16243	15331	0	524
-30.292	-28.020	16226	15122	0	524
-32.276	-33.141	16213	14930	0	524
-34.800	-32.456	16196	14754	0	524
-36.242	-30.869	16181	14686	0	524
-39.199	-29.354	16185	14902	0	524
-39.272	-30.292	16187	15339	0	524
-39.452	-30.292	16196	15687	0	524
-36.495	-32.744	16196	15852	0	524
-34.151	-33.790	16190	15944	0	524
-33.213	-32.961	16190	16004	0	524
-32.997	-31.266	16187	16100	0	524
-33.754	-32.925	16204	16412	0	524
-34.728	-33.033	16221	16892	0	524
-39.885	-38.550	16226	17241	0	524
-49.910	-45.258	16236	17357	0	524
-54.201	-51.280	16241	17365	0	524
-55.427	-49.838	16238	17325	0	524
-47.854	-44.933	16241	17229	0	524
-36.206	-36.098	16232	17085	0	524
-27.515	-30.436	16230	16900	0	524
-25.532	-28.561	16221	16692	0	524
-34.295	-33.466	16213	16472	0	524
-46.340	-40.606	16198	16256	0	524
-55.103	-46.953	16190	16044	0	524
-58.925	-50.956	16187	15936	0	524
-54.021	-51.641	16190	16096	0	524
-44.428	-46.917	16204	16448	0	524
-35.918	-38.622	16207	16712	0	524
-30.761	-30.220	16215	16784	0	524
-28.777	-24.198	16213	16780	0	524
-33.249	-23.837	16215	16748	0	524
-38.406	-27.840	16213	16676	0	524
-41.291	-32.095	16213	16576	0	524
-42.914	-32.672	16207	16468	0	524
-39.055	-29.823	16198	16360	0	524
-35.774	-27.263	16196	16244	0	524
-34.403	-27.948	16193	16216	0	524
-34.692	-31.699	16210	16444	0	524
-32.853	-34.331	16221	16872	0	524
-32.744	-34.836	16238	17185	0	524
-33.862	-34.908	16249	17365	0	524
-35.701	-34.403	16277	17698	0	524
-36.964	-34.331	16309	18234	0	524
-35.052	-33.862	16345	18839	0	524
-30.364	-29.138	16384	19372	0	524
-27.515	-24.594	16412	19641	0	524
-31.446	-24.775	16429	19597	0	524
-39.163	-28.561	16442	19360	0	524
-44.501	-35.269	16448	19012	0	524
-42.481	-38.803	16451	18579	0	524
-34.115	-35.485	16448	18070	0	524
-25.532	-29.138	16440	17521	0	524
-23.080	-25.279	16434	17037	0	524
-27.804	-26.397	16437	16804	0	524
-35.485	-31.049	16453	16852	0	524
-43.202	-36.351	16470	17057	0	524
-47.746	-39.163	16491	17265	0	524
-50.126	-41.255	16499	17293	0	524
-51.857	-41.147	16504	17097	0	524
-48.395	-39.812	16504	16780	0	524
-43.455	-37.108	16504	16480	0	524
-32.203	-30.256	16513	16388	0	524
-23.801	-23.224	16519	16464	0	524
-17.743	-22.070	16530	16500	0	524
-21.385	-22.791	16544	16560	0	524
-26.397	-30.328	16561	16716	0	524
-32.853	-34.800	16570	16804	0	524
-33.646	-36.711	16592	16900	0	524
-32.239	-32.853	16606	17065	0	524
-29.499	-29.463	16611	17049	0	524
-29.246	-28.886	16611	16768	0	524
-30.256	-32.997	16609	16356	0	524
-26.758	-35.521	16589	15876	0	524
-23.260	-36.891	16572	15359	0	524
-22.539	-34.223	16555	14846	0	524
-24.558	-33.033	16530	14341	0	524
-30.941	-33.718	16499	13856	0	524
-33.790	-34.620	16470	13400	0	524
-31.590	-32.456	16440	12999	0	524
-25.712	-29.030	16412	12675	0	524
-22.106	-28.345	16382	12418	0	524
-23.981	-30.400	16351	12230	0	524
-31.266	-37.685	16320	12110	0	524
-36.891	-41.399	16292	12054	0	524
-36.098	-38.586	16266	12050	0	524
-30.545	-30.292	16238	12094	0	524
-24.162	-23.332	16221	12270	0	524
-22.611	-23.765	16213	12743	0	524
-30.653	-29.246	16215	13448	0	524
-38.658	-36.964	16210	14073	0	524
-41.363	-39.488	16210	14501	0	524
-37.144	-34.367	16202	14850	0	524
-30.292	-25.676	16196	15147	0	524
-26.902	-23.080	16187	15391	0	524
-30.400	-26.830	16185	15599	0	524
-36.783	-32.456	16176	15788	0	524
-43.383	-39.921	16164	15952	0	524
-42.986	-41.183	16168	16172	0	524
-40.426	-37.000	16179	16620	0	524
-33.898	-32.167	16190	17249	0	524
-26.830	-28.128	16204	17734	0	524
-21.529	-24.558	16219	18050	0	524
-18.500	-23.476	16243	18487	0	524
-19.149	-24.017	16264	19036	0	524
-25.135	-25.640	16286	19396	0	524
-31.410	-31.085	16298	19480	0	524
-38.118	-37.721	16305	19404	0	524
-42.734	-40.858	16311	19240	0	524
-42.084	-42.337	16315	19008	0	524
-37.937	-38.334	16311	18731	0	524
-33.502	-35.269	16315	18499	1	924
-27.515	-32.961	16331	18487	0	924
-23.693	-29.174	16345	18643	0	924
-21.962	-28.092	16354	18683	0	924
-24.522	-27.768	16360	18499	0	924
-28.525	-28.237	16365	18214	0	924
-33.646	-33.213	16368	17974	0	924
-38.839	-37.973	16382	17942	0	924
-42.157	-39.596	16403	18150	0	924
-40.498	-36.351	16429	18487	0	924
-34.439	-29.427	16457	18799	0	924
-26.037	-22.863	16476	18892	0	924
-17.418	-17.779	16493	18791	0	924
-17.923	-22.070	16525	18867	0	924
-23.585	-28.273	16572	19376	0	924
-30.220	-33.321	16632	20121	0	924
-30.761	-30.545	16674	20650	0	924
-25.460	-23.368	16707	20698	0	924
-18.969	-20.014	16736	20430	0	924
-18.247	-23.332	16764	20182	0	924
-23.585	-31.482	16784	19969	0	924
-26.289	-34.692	16803	19601	0	924
-23.008	-29.535	16824	19188	0	924
-17.382	-19.401	16835	18819	0	924
-11.468	-12.694	16837	18271	0	924
-13.018	-14.533	16826	17473	0	924
-20.014	-21.168	16812	16572	0	924
-27.948	-26.974	16798	15735	0	924
-30.148	-29.391	16784	15147	0	924
-29.643	-28.345	16779	14762	0	924
-28.056	-27.515	16758	14317	0	924
-25.316	-27.155	16736	13724	0	924
-26.397	-29.679	16705	13099	0	924
-25.424	-28.056	16674	12494	0	924
-27.660	-26.470	16637	11925	0	924
-29.210	-25.640	16598	11421	0	924
-31.482	-26.470	16558	10980	0	924
-32.492	-30.797	16519	10607	0	924
-33.970	-36.206	16474	10327	0	924
-34.187	-40.245	16437	10143	0	924
-36.891	-40.426	16397	10042	0	924
-39.668	-40.534	16360	10014	0	924
-42.806	-39.380	16328	10151	0	924
-43.924	-38.334	16311	10607	0	924
-44.609	-40.137	16305	11384	0	924
-45.691	-42.697	16309	12326	0	924
-48.143	-47.205	16317	13272	0	924
-48.431	-50.451	16326	14105	0	924
-43.924	-48.503	16339	14922	0	924
-39.993	-40.606	16354	15772	0	924
-36.098	-35.088	16368	16484	0	924
-34.620	-31.374	16389	17149	0	924
-36.351	-32.023	16408	17822	0	924
-37.577	-34.800	16420	18267	0	924
-36.495	-33.682	16423	18391	0	924
-36.531	-30.833	16425	18327	0	924
-39.019	-31.338	16417	18150	0	924
-43.815	-35.954	16406	17886	0	924
-45.186	-40.498	16391	17565	0	924
-44.104	-42.589	16377	17213	0	924
-37.360	-38.695	16356	16852	0	924
-34.006	-32.276	16337	16496	0	924
-33.502	-28.814	16315	16152	0	924
-37.685	-30.184	16292	15836	0	924
-40.173	-34.547	16269	15559	0	924
-38.550	-36.675	16247	15307	0	924
-32.059	-34.836	16224	15094	0	924
-26.217	-31.518	16204	14934	0	924
-26.506	-29.643	16185	14902	0	924
-30.328	-29.715	16185	15143	0	924
-35.160	-33.970	16190	15587	0	924
-38.695	-35.088	16185	15948	0	924
-38.334	-35.233	16185	16120	0	924
-37.649	-33.429	16185	16288	0	924
-35.846	-33.141	16196	16664	0	924
-33.574	-34.367	16213	17193	0	924
-30.076	-31.735	16226	17654	0	924
-28.597	-32.059	16255	18118	0	924
-30.725	-32.744	16277	18639	0	924
-38.478	-36.098	16298	19048	1	316
-43.022	-41.507	16331	19408	0	316
-44.825	-46.304	16365	19873	0	316
-44.717	-44.681	16400	20374	0	316
-42.193	-42.301	16446	20839	0	316
-42.120	-39.380	16491	21267	0	316
-41.075	-38.009	16532	21644	0	316
-39.380	-38.118	16581	21952	0	316
-36.170	-36.242	16621	22097	0	316
-33.213	-36.170	16649	21920	0	316
-34.439	-33.502	16662	21412	0	316
-37.468	-35.449	16668	20694	0	316
-37.613	-36.278	16674	19937	0	316
-38.586	-38.875	16688	19348	0	316
-37.541	-38.370	16690	18908	0	316
-36.747	-38.622	16688	18335	0	316
-36.423	-37.937	16685	17621	0	316
-35.088	-35.701	16685	17081	0	316
-34.475	-33.357	16690	16800	0	316
-32.420	-30.148	16702	16664	0	316
-34.620	-28.741	16713	16596	0	316
-38.875	-29.751	16730	16580	0	316
-43.238	-33.574	16747	16608	0	316
-47.349	-38.911	16762	16660	0	316
-45.366	-39.308	16775	16644	0	316
-42.553	-36.711	16775	16380	0	316
-36.098	-30.617	16764	15844	0	316
-30.220	-23.585	16747	15179	0	316
-29.715	-21.781	16728	14550	0	316
-32.564	-25.424	16711	14137	0	316
-37.685	-33.357	16702	13917	0	316
-42.806	-39.849	16679	13608	0	316
-42.481	-41.543	16649	13139	0	316
-38.947	-35.269	16617	12626	0	316
-35.124	-31.013	16581	12150	0	316
-32.564	-26.253	16544	11733	0	316
-30.328	-25.207	16504	11364	0	316
-28.345	-25.784	16463	11040	0	316
-26.938	-24.666	16423	10776	0	316
-23.332	-23.188	16389	10659	0	316
-22.358	-22.899	16368	10860	0	316
-20.988	-23.909	16348	11308	0	316
-21.637	-24.162	16326	11717	0	316
-25.388	-26.433	16309	11981	0	316
-32.636	-28.128	16281	12198	0	316
-39.812	-31.374	16255	12394	0	316
-41.868	-33.177	16232	12574	0	316
-41.075	-33.033	16210	12831	0	316
-37.649	-32.816	16204	13332	0	316
-35.918	-33.718	16198	14017	0	316
-37.180	-36.639	16187	14594	0	316
-40.498	-39.019	16181	14958	0	316
-40.750	-39.199	16176	15315	0	316
-37.541	-35.701	16187	15948	0	316
-36.351	-34.439	16215	16944	0	316
-34.511	-33.682	16241	17966	0	316
-35.269	-36.531	16260	18619	0	316
-36.603	-41.111	16272	18916	0	316
-36.170	-40.173	16275	19020	0	316
-34.331	-38.045	16281	18988	0	316
-30.689	-32.925	16275	18851	0	316
-28.056	-27.479	16266	18627	0	316
-28.525	-27.912	16258	18331	0	316
-31.194	-26.650	16243	18002	0	316
-31.843	-28.453	16238	17746	0	316
-30.292	-26.686	16238	17726	0	316
-28.056	-23.440	16243	17882	0	316
-25.929	-23.476	16247	17938	0	316
-27.191	-27.479	16241	17802	0	316
-31.626	-30.400	16236	17577	0	316
-31.049	-30.869	16224	17321	0	316
-27.227	-25.207	16215	17037	0	316
-21.709	-19.906	16198	16740	0	316
-22.070	-19.510	16187	16448	0	316
-27.551	-23.873	16179	16256	0	316
-33.249	-32.095	16179	16324	0	316
-36.711	-37.216	16187	16604	0	316
-35.918	-36.567	16190	16800	0	316
-34.223	-33.934	16187	16808	0	316
-35.449	-32.312	16187	16728	1	316
-38.586	-31.085	16179	16616	0	316
-40.930	-30.328	16173	16476	0	316
-37.937	-27.407	16164	16328	0	316
-31.446	-22.142	16153	16176	0	316
-26.614	-19.221	16147	16036	0	316
-24.089	-17.779	16136	15920	0	316
-25.316	-22.611	16134	15900	0	316
-31.951	-29.463	16142	16132	0	316
-38.947	-36.928	16159	16636	0	316
-45.150	-40.137	16196	17377	0	316
-46.304	-39.019	16241	18339	0	316
-45.114	-33.970	16286	19248	0	316
-38.478	-28.814	16320	19757	0	316
-33.321	-26.217	16343	19877	0	316
-31.915	-27.732	16360	19777	0	316
-35.305	-32.456	16379	19601	0	316
-41.111	-36.387	16400	19553	0	316
-45.763	-37.144	16423	19605	0	316
-44.933	-35.485	16434	19464	0	316
-40.858	-31.049	16437	19060	0	316
-37.396	-29.174	16440	18535	0	316
-35.052	-29.174	16431	17966	0	316
-35.485	-31.374	16429	17441	0	316
-37.252	-34.439	16434	17149	0	316
-37.036	-34.006	16437	17037	0	316
-34.764	-31.951	16437	16828	0	316
-34.908	-31.230	16431	16448	0	316
-37.396	-33.393	16420	16016	0	316
-42.012	-38.658	16408	15575	0	316
-46.195	-42.157	16395	15143	0	316
-44.248	-42.734	16377	14742	0	316
-37.757	-36.531	16360	14369	0	316
-28.345	-28.273	16345	14109	0	316
-20.736	-24.558	16348	14217	0	316
-23.116	-26.109	16373	14810	0	316
-31.194	-34.403	16389	15511	0	316
-40.353	-40.281	16406	15984	0	316
-43.815	-43.671	16434	16404	0	316
-40.786	-38.839	16453	16876	0	316
-33.538	-33.466	16468	17133	0	316
-27.479	-26.794	16474	17089	0	316
-30.184	-29.427	16470	16880	0	316
-39.127	-36.819	16465	16588	0	316
-49.116	-44.717	16457	16228	0	316
-53.011	-50.595	16440	15816	0	316
-51.280	-49.405	16417	15379	0	316
-41.760	-40.570	16397	14954	0	316
-33.069	-30.508	16373	14550	0	316
-27.732	-25.640	16354	14177	0	316
-30.581	-28.417	16326	13844	0	316
-37.108	-34.583	16298	13572	0	316
-41.111	-37.829	16272	13360	0	316
-38.983	-35.954	16247	13203	0	316
-32.528	-27.948	16226	13175	0	316
-25.929	-23.080	16224	13448	0	316
-24.089	-20.411	16221	13969	0	316
-26.650	-24.775	16221	14421	0	316
-28.237	-24.955	16215	14694	0	316
-27.696	-22.142	16213	14886	0	316
-25.496	-21.962	16202	15054	0	316
-26.578	-23.549	16204	15271	0	316
-34.764	-30.292	16213	15691	0	316
-41.868	-38.226	16230	16356	0	316
-44.284	-36.819	16258	17129	0	316
-38.803	-29.643	16283	17838	0	316
-27.443	-18.860	16305	18367	0	316
-15.362	-8.835	16339	18859	0	316
-13.091	-7.285	16371	19376	0	316
-17.310	-12.153	16389	19661	0	316
-27.660	-20.087	16403	19617	0	316
-37.649	-28.525	16408	19380	0	316
-43.383	-33.934	16408	19036	0	316
-43.383	-36.964	16412	18683	0	316
-39.488	-35.160	16420	18527	0	316
-32.636	-32.131	16431	18523	0	316
-27.479	-29.463	16434	18379	0	316
-27.155	-27.551	16431	18026	0	316
-31.482	-30.220	16434	17670	0	316
-39.488	-35.413	16442	17525	0	316
-45.474	-39.452	16451	17549	0	316
-46.087	-39.019	16453	17453	0	316
-40.101	-33.538	16448	17141	0	316
-34.728	-26.001	16440	16740	0	316
-30.761	-21.709	16431	16324	0	316
-30.436	-25.640	16417	15900	0	316
-32.312	-29.535	16403	15555	0	316
-32.708	-33.970	16403	15467	0	316
-32.384	-35.485	16406	15591	0	316
-32.961	-33.213	16408	15715	0	316
-37.000	-34.872	16425	15988	0	316
-42.409	-39.308	16468	16684	0	316
-45.582	-43.130	16513	17678	0	316
-45.979	-43.166	16549	18495	0	316
-41.904	-40.678	16581	18847	0	316
-35.701	-34.728	16598	18791	0	316
-31.554	-29.463	16606	18507	0	316
-30.869	-29.607	16604	18074	0	316
-33.646	-31.194	16595	17529	0	316
-38.045	-34.006	16581	16912	0	316
-41.075	-36.026	16561	16264	0	316
-43.058	-35.160	16544	15699	0	316
-40.029	-31.807	16544	15479	0	316
-35.737	-27.479	16555	15719	0	316
-31.951	-25.893	16570	16072	0	316
-29.931	-27.768	16570	16140	0	316
-33.357	-31.626	16570	15940	0	316
-37.649	-38.226	16555	15619	0	316
-39.308	-38.658	16538	15235	0	316
-38.622	-35.341	16521	14822	0	316
-31.662	-30.148	16499	14409	0	316
-26.109	-23.440	16474	14081	0	316
-24.883	-23.909	16468	14017	0	316
-28.525	-27.551	16463	14177	0	316
-32.384	-31.122	16448	14273	0	316
-34.944	-33.682	16434	14197	0	316
-34.439	-34.259	16414	14057	0	316
-29.643	-31.446	16397	13913	0	316
-25.027	-27.083	16373	13756	0	316
-24.414	-24.234	16354	13596	0	316
-22.611	-23.296	16322	13444	0	316
-25.965	-23.116	16294	13312	0	316
-31.122	-28.597	16269	13223	0	316
-36.531	-35.593	16243	13175	0	316
-40.858	-39.668	16215	13155	0	316
-42.157	-41.796	16193	13167	0	316
-42.193	-40.101	16170	13215	0	316
-42.120	-39.524	16142	13312	0	316
-44.825	-39.488	16123	13444	0	316
-48.792	-42.770	16100	13604	0	316
-48.071	-43.887	16083	13796	0	316
-47.530	-43.779	16066	14029	0	316
-44.969	-41.075	16052	14293	0	316
-44.068	-39.993	16044	14654	0	316
-47.782	-43.635	16049	15263	0	316
-51.424	-47.277	16063	16064	0	316
-49.982	-47.890	16072	16732	0	316
-47.602	-45.655	16085	17261	0	316
-43.671	-42.265	16119	18006	0	316
-46.051	-43.419	16164	19108	0	316
-53.336	-47.494	16207	20194	0	316
-59.574	-55.644	16247	20859	0	316
-62.784	-58.024	16281	21219	0	316
-57.807	-56.401	16326	21684	0	316
-48.612	-49.874	16384	22413	0	316
-44.897	-45.041	16437	23054	0	316
-46.123	-43.563	16474	23246	0	316
-47.746	-42.842	16502	23010	0	316
-48.215	-43.022	16521	22529	0	316
-44.392	-39.849	16530	21880	0	316
-37.108	-33.934	16532	21107	0	316
-34.656	-30.112	16527	20254	1	604
-38.550	-32.961	16530	19440	0	604
-46.953	-42.193	16532	18867	0	604
-54.129	-49.116	16536	18495	0	604
-52.614	-50.054	16536	18030	0	604
-44.104	-43.671	16532	17473	0	604
-32.420	-33.105	16547	17189	0	604
-27.010	-26.325	16570	17333	0	604
-28.850	-27.551	16589	17545	0	604
-38.514	-34.223	16600	17449	0	604
-49.261	-43.238	16600	17065	0	604
-54.382	-50.379	16598	16548	0	604
-57.735	-54.995	16587	15984	0	604
-55.211	-55.067	16566	15383	0	604
-54.850	-50.992	16549	14782	0	604
-49.693	-46.051	16521	14193	0	604
-48.936	-41.904	16499	13640	0	604
-45.691	-39.344	16468	13135	0	604
-43.310	-39.308	16437	12683	0	604
-44.573	-39.163	16406	12298	0	604
-46.051	-43.058	16384	12078	0	604
-48.071	-44.969	16373	12186	0	604
-46.340	-47.205	16365	12542	0	604
-44.140	-44.212	16356	12835	0	604
-41.255	-41.796	16343	12955	0	604
-42.445	-39.740	16331	13099	0	604
-46.340	-40.101	16337	13560	0	604
-48.720	-41.688	16368	14522	0	604
-44.320	-39.812	16406	15776	0	604
-37.901	-34.944	16440	16864	0	604
-30.977	-32.095	16463	17513	0	604
-29.282	-30.292	16476	17782	0	604
-32.997	-31.338	16493	17898	0	604
-37.180	-31.879	16510	18094	0	604
-36.783	-30.184	16527	18347	0	604
-33.141	-28.705	16536	18395	0	604
-31.374	-27.840	16532	18166	0	604
-32.492	-29.895	16536	17878	0	604
-39.380	-30.508	16547	17850	0	604
-46.664	-31.049	16578	18198	0	604
-44.212	-30.689	16595	18579	0	604
-38.442	-28.381	16606	18607	0	604
-32.167	-26.686	16609	18327	0	604
-27.840	-27.191	16609	17898	0	604
-32.095	-29.246	16600	17461	0	604
-37.216	-31.807	16604	17197	0	604
-42.229	-34.439	16604	17081	0	604
-46.484	-36.603	16595	16828	0	604
-48.792	-37.613	16583	16372	0	604
-48.828	-38.045	16564	15832	0	604
-47.458	-37.468	16536	15267	0	604
-43.491	-35.305	16510	14682	0	604
-36.531	-30.797	16482	14109	0	604
-32.456	-29.282	16442	13576	0	604
-31.374	-28.417	16412	13095	0	604
-33.033	-31.338	16373	12687	0	604
-39.524	-35.846	16343	12358	0	604
-45.330	-39.704	16303	12106	0	604
-47.890	-40.606	16275	12005	0	604
-45.979	-38.082	16264	12230	0	604
-40.281	-33.610	16249	12707	0	604
-35.629	-30.328	16238	13123	0	604
-34.583	-28.381	16224	13388	0	604
-38.622	-31.590	16210	13604	0	604
-43.202	-37.829	16196	13808	0	604
-45.474	-40.462	16179	13985	0	604
-44.573	-41.219	16159	14145	0	604
-41.003	-38.658	16142	14309	0	604
-39.380	-36.062	16134	14554	0	604
-42.661	-36.531	16140	15038	0	604
-48.684	-38.226	16142	15703	0	604
-49.513	-41.075	16147	16248	0	604
-46.628	-40.137	16147	16564	0	604
-44.140	-39.055	16147	16772	0	604
-39.921	-37.541	16147	16992	0	604
-38.550	-39.272	16162	17397	0	604
-38.767	-38.442	16181	17938	0	604
-39.885	-35.449	16187	18323	0	604
-40.498	-31.194	16196	18451	0	604
-42.481	-28.237	16202	18435	0	604
-46.087	-29.030	16196	18335	0	604
-49.766	-33.934	16196	18174	0	604
-49.153	-42.193	16193	18070	0	604
-50.487	-47.674	16207	18194	0	604
-49.008	-50.884	16221	18491	0	604
-50.054	-50.126	16232	18647	0	604
-51.965	-47.890	16236	18575	0	604
-55.968	-49.261	16241	18407	0	604
-61.522	-49.657	16238	18194	0	604
-61.846	-49.802	16238	17930	0	604
-56.329	-47.854	16230	17629	0	604
-46.448	-41.003	16224	17325	0	604
-40.317	-37.252	16213	17037	0	604
-42.770	-37.829	16213	16840	0	604
-46.736	-40.317	16221	16896	0	604
-48.431	-41.147	16236	17161	0	604
-45.330	-37.793	16241	17341	0	604
-37.216	-34.259	16249	17313	0	604
-36.747	-36.170	16255	17265	0	604
-45.871	-44.140	16275	17433	0	604
-54.201	-49.802	16294	17758	0	604
-59.250	-50.775	16305	17926	0	604
-53.768	-45.150	16311	17846	0	604
-50.956	-41.147	16317	17654	0	604
-47.458	-42.553	16317	17401	0	604
-49.405	-49.225	16315	17109	0	604
-48.287	-50.667	16305	16784	0	604
-45.186	-45.474	16298	16440	0	604
-43.779	-38.550	16294	16192	0	604
-46.556	-35.774	16300	16208	0	604
-49.441	-37.324	16309	16424	0	604
-51.857	-41.471	16322	16628	0	604
-47.205	-41.796	16348	16960	0	604
-44.392	-41.832	16386	17642	0	604
-42.337	-44.140	16423	18343	0	604
-45.150	-49.730	16457	18751	0	604
-46.845	-52.326	16502	19144	0	604
-48.035	-53.768	16549	19801	0	604
-48.648	-50.956	16598	20386	0	604
-50.523	-50.487	16628	20514	0	604
-56.942	-52.326	16649	20238	0	604
-58.745	-54.850	16660	19749	0	604
-58.384	-51.893	16662	19120	0	604
-56.221	-50.090	16657	18379	0	604
-51.424	-47.999	16643	17581	0	604
-51.821	-49.080	16632	16756	0	604
-52.182	-55.499	16604	15924	0	604
-57.735	-59.683	16578	15102	0	604
-62.351	-64.984	16547	14329	0	604
-66.354	-68.013	16513	13616	0	604
-69.167	-67.364	16485	12979	0	604
-69.383	-64.371	16448	12422	0	604
-66.426	-61.918	16414	11961	0	604
-61.450	-56.004	16377	11597	0	604
-56.726	-56.726	16343	11332	0	604
-54.201	-55.896	16311	11152	0	604
-55.283	-59.250	16281	11048	0	604
-57.952	-60.837	16247	11024	0	604
-60.332	-60.548	16219	11088	0	604
-58.709	-55.716	16193	11228	0	604
-54.129	-52.074	16168	11429	0	604
-51.208	-47.386	16151	11765	0	604
-49.333	-47.746	16153	12486	0	604
-52.290	-52.939	16185	13756	0	604
-54.598	-57.591	16224	15351	0	604
-56.545	-59.034	16269	16788	0	604
-56.004	-59.899	16300	17778	0	604
-55.644	-55.932	16326	18367	0	604
-54.959	-54.237	16343	18703	0	604
-57.050	-56.870	16354	18851	0	604
-58.529	-57.988	16360	18851	0	604
-57.194	-60.188	16365	18723	0	604
-57.303	-59.611	16360	18499	0	604
-54.201	-55.139	16351	18214	0	604
-53.985	-54.454	16339	17882	0	604
-54.201	-53.516	16334	17593	0	604
-53.480	-55.896	16348	17617	0	604
-54.345	-55.716	16371	18070	0	604
-54.742	-56.149	16395	18599	0	604
-57.916	-54.273	16412	18815	0	604
-59.647	-54.778	16425	18803	0	604
-58.601	-56.076	16446	18884	0	604
-57.519	-57.735	16463	19056	0	604
-54.165	-58.889	16479	19036	0	604
-57.663	-61.558	16491	18843	0	604
-64.731	-63.577	16504	18755	0	604
-69.203	-65.669	16530	18863	0	604
-70.537	-65.453	16555	19060	0	604
-64.767	-61.161	16589	19280	0	604
-58.853	-56.401	16623	19581	0	604
-58.529	-56.257	16671	20029	0	604
-63.325	-62.207	16711	20398	0	604
-70.537	-68.085	16741	20422	0	604
-72.485	-71.150	16773	20290	0	604
-69.672	-65.597	16795	20129	0	604
-64.263	-57.627	16812	19805	0	604
-61.053	-52.218	16835	19408	0	604
-61.774	-51.533	16843	19028	1	708
-63.109	-55.427	16846	18463	0	708
-61.774	-54.309	16837	17642	0	708
-59.034	-51.749	16815	16708	0	708
-55.968	-45.510	16790	15735	0	708
-53.768	-44.176	16756	14746	0	708
-58.745	-45.510	16719	13788	0	708
-66.030	-48.359	16677	12883	0	708
-71.403	-54.345	16632	12054	0	708
-73.494	-54.345	16587	11316	0	708
-71.006	-53.300	16542	10675	0	708
-67.472	-48.539	16491	10159	0	708
-65.957	-49.116	16442	9762	0	708
-71.186	-53.011	16397	9481	0	708
-78.146	-60.296	16354	9317	0	708
-83.448	-66.751	16320	9337	0	708
-83.700	-66.895	16300	9786	0	708
-79.192	-62.459	16300	10747	0	708
-74.107	-58.240	16305	11853	0	708
-71.114	-56.257	16311	12767	0	708
-71.511	-58.168	16326	13640	0	708
-74.612	-59.611	16337	14562	0	708
-74.540	-58.384	16351	15359	0	708
-70.609	-55.572	16377	16188	0	708
-66.751	-54.418	16420	17341	0	708
-62.423	-53.191	16470	18691	0	708
-61.089	-56.870	16513	19781	0	708
-61.197	-60.728	16544	20334	0	708
-62.243	-63.145	16561	20422	0	708
-61.125	-63.469	16572	20230	0	708
-61.414	-61.810	16566	19849	0	708
-59.250	-56.726	16564	19328	0	708
-57.158	-54.959	16553	18791	0	708
-55.716	-51.497	16549	18439	0	708
-54.129	-51.677	16558	18307	0	708
-58.961	-53.155	16561	18295	0	708
-62.892	-56.942	16570	18263	0	708
-66.498	-59.755	16564	18046	0	708
-65.020	-63.000	16555	17593	0	708
-58.781	-63.181	16538	17033	0	708
-47.061	-59.070	16519	16444	0	708
-40.498	-52.182	16491	15848	0	708
-39.560	-49.044	16465	15251	0	708
-42.914	-46.736	16434	14682	0	708
-45.655	-50.775	16403	14169	0	708
-46.664	-52.506	16371	13708	0	708
-41.976	-51.893	16337	13304	0	708
-36.134	-50.811	16300	12963	0	708
-35.305	-47.097	16269	12707	0	708
-40.209	-47.674	16232	12534	0	708
-43.671	-49.333	16204	12426	0	708
-42.517	-49.008	16179	12466	0	708
-34.656	-47.025	16179	12891	0	708
-22.791	-42.373	16190	13792	0	708
-15.146	-41.688	16202	14786	0	708
-17.021	-43.743	16213	15479	0	708
-25.135	-49.946	16215	15884	0	708
-31.013	-52.578	16219	16160	0	708
-28.814	-53.516	16213	16340	0	708
-21.024	-48.828	16207	16424	0	708
-12.477	-46.015	16202	16444	0	708
-8.691	-47.025	16187	16416	0	708
-9.665	-47.025	16179	16368	0	708
-9.592	-46.628	16162	16288	0	708
-2.344	-41.976	16151	16188	0	708
5.265	-37.180	16142	16176	0	708
11.287	-37.180	16147	16420	0	708
10.350	-40.389	16153	16856	0	708
4.327	-44.428	16162	17173	0	708
0.721	-46.340	16162	17273	0	708
2.560	-43.599	16157	17273	0	708
12.766	-36.423	16159	17313	0	708
21.421	-30.545	16176	17573	0	708
27.335	-27.551	16190	17998	0	708
27.371	-28.453	16202	18275	0	708
23.260	-33.357	16210	18315	0	708
21.168	-34.908	16219	18323	0	708
22.827	-34.728	16241	18499	0	708
25.135	-30.725	16255	18791	0	708
27.119	-25.784	16269	18924	0	708
27.696	-24.558	16277	18807	0	708
27.227	-24.089	16281	18575	0	708
27.551	-24.017	16281	18267	0	708
31.735	-22.431	16281	17982	0	708
32.636	-23.476	16292	17906	0	708
31.879	-21.529	16303	18002	0	708
31.266	-22.755	16309	17982	0	708
31.554	-24.162	16315	17746	0	708
34.764	-22.322	16315	17493	0	708
39.560	-21.421	16326	17469	0	708
41.399	-22.683	16339	17613	0	708
40.137	-22.142	16348	17634	0	708
36.891	-24.234	16348	17425	0	708
36.675	-23.801	16351	17117	0	708
38.731	-19.510	16343	16776	0	708
41.760	-17.815	16334	16412	0	708
43.491	-15.723	16326	16112	0	708
41.616	-18.716	16334	16064	0	708
37.432	-22.178	16345	16296	0	708
35.629	-24.162	16365	16668	0	708
38.370	-23.801	16384	17025	0	708
43.455	-18.572	16397	17189	0	708
45.618	-16.841	16403	17105	0	708
44.356	-15.398	16403	16876	0	708
39.055	-18.428	16397	16568	0	708
33.862	-17.562	16389	16216	0	708
32.384	-16.733	16377	15836	0	708
34.944	-13.487	16362	15447	0	708
35.160	-10.819	16348	15143	0	708
30.689	-14.821	16348	15106	0	708
22.899	-18.644	16362	15367	0	708
14.100	-24.847	16379	15868	0	708
11.432	-25.243	16412	16608	0	708
14.353	-23.909	16451	17417	0	708
19.149	-21.709	16496	18190	0	708
23.260	-16.697	16547	19048	0	708
23.044	-17.202	16598	19781	0	708
15.362	-17.670	16626	20037	0	708
9.629	-21.096	16649	19849	0	708
6.058	-22.863	16662	19504	0	708
6.816	-22.611	16679	19256	0	708
11.179	-20.483	16694	19080	0	708
16.661	-16.625	16705	18791	1	488
16.769	-17.995	16724	18579	0	488
15.975	-18.608	16762	18751	0	488
12.874	-21.637	16809	19260	0	488
12.297	-18.464	16863	19909	0	488
12.477	-15.543	16925	20522	0	488
10.061	-10.783	16967	20815	0	488
5.265	-12.550	16999	20638	0	488
-0.865	-17.598	17027	20254	0	488
-3.642	-22.358	17049	19893	0	488
-0.649	-21.204	17069	19500	0	488
5.121	-15.218	17078	18960	0	488
13.018	-7.068	17074	18134	0	488
16.048	-3.029	17052	17029	0	488
13.595	-3.642	17021	15792	0	488
12.477	-7.537	16978	14518	0	488
10.133	-12.117	16933	13264	0	488
8.799	-14.281	16877	12066	0	488
10.530	-17.923	16820	10952	0	488
14.425	-17.418	16758	9950	0	488
17.923	-17.959	16696	9077	0	488
23.981	-14.425	16632	8340	0	488
25.640	-16.877	16566	7755	0	488
20.736	-19.113	16504	7326	0	488
14.858	-26.145	16442	7042	0	488
9.196	-31.626	16382	6901	0	488
8.006	-33.718	16326	6901	0	488
11.937	-31.987	16266	7005	0	488
14.930	-29.499	16215	7218	0	488
15.290	-27.660	16164	7538	0	488
18.067	-27.335	16117	7975	0	488
17.598	-26.722	16078	8496	0	488
18.644	-26.073	16035	9073	0	488
21.132	-24.558	16010	9782	0	488
20.339	-22.972	16001	10860	0	488
22.358	-20.087	16018	12466	0	488
24.847	-20.303	16052	14381	0	488
26.470	-19.329	16091	16208	0	488
27.804	-20.014	16134	17806	0	488
27.624	-22.683	16170	19176	0	488
24.702	-25.171	16204	20162	0	488
21.024	-27.263	16224	20722	0	488
19.185	-28.453	16241	20991	0	488
14.749	-30.941	16243	21047	0	488
14.930	-29.102	16249	20927	0	488
14.172	-27.515	16249	20750	0	488
12.189	-26.866	16260	20726	0	488
7.898	-28.705	16275	20827	0	488
4.400	-30.941	16275	20767	0	488
0.397	-35.701	16281	20538	0	488
0.793	-33.429	16300	20442	0	488
3.534	-30.220	16309	20482	0	488
7.140	-26.758	16317	20362	0	488
7.321	-23.837	16317	19993	0	488
4.039	-24.342	16311	19504	0	488
-2.813	-24.558	16309	19048	0	488
-7.573	-25.171	16315	18803	0	488
-8.006	-27.840	16322	18731	0	488
-2.885	-28.309	16322	18547	0	488
1.442	-29.607	16328	18238	0	488
0.180	-30.364	16334	18082	0	488
-9.376	-32.203	16343	18074	0	488
-18.283	-36.314	16345	17942	0	488
-25.748	-39.055	16339	17597	0	488
-23.837	-40.426	16331	17153	0	488
-15.723	-37.649	16320	16676	0	488
-9.989	-35.521	16309	16268	0	488
-10.422	-36.278	16309	16112	0	488
-12.261	-37.757	16311	16164	0	488
-18.031	-37.432	16309	16124	0	488
-19.942	-38.478	16298	15896	0	488
-22.719	-37.541	16286	15599	0	488
-23.152	-39.596	16272	15303	0	488
-26.109	-43.238	16258	15010	0	488
-26.974	-44.861	16236	14722	0	488
-25.027	-45.366	16224	14526	0	488
-23.404	-46.123	16221	14602	0	488
-23.657	-45.655	16224	14898	0	488
-28.489	-44.212	16219	15106	0	488
-30.328	-46.592	16215	15130	1	316
-31.158	-45.546	16202	15094	0	316
-27.155	-44.753	16202	15106	0	316
-22.539	-43.743	16215	15423	0	316
-16.264	-40.462	16238	16160	0	316
-16.589	-38.154	16264	16952	0	316
-17.021	-38.262	16289	17477	0	316
-21.601	-43.671	16322	17986	0	316
-27.047	-48.503	16365	18767	0	316
-28.886	-52.723	16408	19525	0	316
-27.371	-50.523	16434	19853	0	316
-23.296	-45.763	16457	19853	0	316
-16.264	-37.468	16487	19877	0	316
-16.949	-33.790	16510	19933	0	316
-17.851	-35.413	16519	19749	0	316
-21.385	-41.688	16525	19268	0	316
-23.801	-48.503	16516	18635	0	316
-24.306	-51.280	16510	17942	0	316
-27.443	-53.552	16493	17213	0	316
-30.905	-52.398	16468	16468	0	316
-33.574	-54.526	16448	15735	0	316
-35.305	-52.506	16425	15114	0	316
-32.600	-51.316	16417	14802	0	316
-30.364	-43.960	16408	14734	0	316
-25.243	-38.767	16403	14698	0	316
-24.847	-38.803	16403	14774	0	316
-25.496	-41.291	16408	15006	0	316
-23.729	-45.258	16406	15122	0	316
-23.368	-46.664	16406	15102	0	316
-24.666	-45.041	16414	15235	0	316
-26.686	-43.960	16417	15519	0	316
-29.571	-45.835	16417	15651	0	316
-36.098	-49.405	16412	15551	0	316
-41.039	-56.040	16403	15347	0	316
-41.363	-56.653	16386	15102	0	316
-41.003	-56.076	16368	14818	0	316
-37.937	-50.775	16354	14590	0	316
-33.213	-46.268	16354	14686	0	316
-28.453	-42.986	16368	15227	0	316
-23.945	-41.147	16384	15852	0	316
-21.385	-42.445	16389	16172	0	316
-21.493	-43.743	16389	16200	0	316
-21.168	-42.878	16382	16104	0	316
-25.099	-43.058	16373	15928	0	316
-28.309	-41.652	16362	15691	0	316
-29.427	-42.409	16339	15415	0	316
-30.220	-43.310	16320	15118	0	316
-30.472	-43.851	16294	14826	0	316
-31.807	-44.320	16275	14550	0	316
-34.403	-46.809	16255	14373	0	316
-40.281	-52.110	16247	14481	0	316
-45.402	-57.158	16247	14830	0	316
-49.261	-62.532	16243	15179	0	316
-49.657	-63.181	16258	15591	0	316
-44.176	-58.420	16266	16116	0	316
-38.118	-53.047	16275	16484	0	316
-30.184	-50.451	16283	16688	0	316
-28.237	-48.143	16294	17004	0	316
-32.528	-51.821	16309	17433	0	316
-40.642	-58.276	16317	17674	0	316
-46.664	-63.541	16322	17654	0	316
-47.241	-66.102	16317	17497	0	316
-42.229	-63.649	16309	17277	0	316
-34.872	-58.961	16300	17000	0	316
-32.239	-58.457	16294	16764	0	316
-33.249	-60.440	16298	16748	0	316
-37.036	-61.810	16305	16996	0	316
-38.478	-61.846	16326	17377	0	316
-34.151	-55.247	16343	17738	0	316
-30.256	-47.205	16351	17894	0	316
-27.155	-44.681	16360	17798	0	316
-29.535	-49.080	16354	17557	0	316
-35.629	-56.617	16345	17249	0	316
-41.003	-63.505	16334	16880	0	316
-40.894	-65.417	16320	16488	0	316
-37.252	-60.801	16303	16088	0	316
-32.420	-52.614	16286	15703	0	316
-28.886	-48.792	16264	15343	0	316
-29.174	-46.412	16247	15014	0	316
-28.741	-48.035	16224	14734	0	316
-28.705	-49.910	16204	14505	0	316
-28.092	-48.864	16181	14317	0	316
-26.974	-49.477	16170	14249	0	316
-29.246	-51.965	16176	14558	0	316
-32.961	-54.382	16198	15347	0	316
-35.377	-56.762	16224	16220	0	316
-35.810	-55.319	16243	16852	0	316
-35.197	-50.739	16275	17437	0	316
-34.800	-51.569	16309	18134	0	316
-38.009	-55.427	16348	18847	0	316
-43.996	-63.541	16382	19428	0	316
-53.516	-71.836	16414	19789	0	316
-59.250	-74.288	16446	20057	0	316
-61.666	-70.573	16482	20294	0	316
-59.755	-66.931	16499	20278	0	316
-57.050	-63.433	16508	19937	0	316
-58.132	-64.803	16510	19424	0	316
-61.810	-71.114	16508	18815	0	316
-68.915	-75.081	16493	18142	0	316
-71.439	-75.838	16479	17425	0	316
-71.619	-74.252	16463	16684	0	316
-69.852	-70.682	16437	15968	0	316
-68.554	-70.537	16417	15375	0	316
-69.636	-72.917	16412	15082	0	316
-69.672	-74.144	16403	15042	0	316
-67.184	-70.790	16395	14958	0	316
-62.315	-65.164	16382	14730	0	316
-61.918	-63.361	16373	14530	0	316
-66.895	-65.885	16373	14594	0	316
-74.865	-74.865	16377	14870	0	316
-82.474	-80.202	16373	15042	0	316
-82.185	-80.274	16377	15086	0	316
-78.002	-72.809	16384	15291	0	316
-71.150	-62.820	16391	15655	0	316
-67.003	-57.014	16397	15872	0	316
-65.885	-54.995	16391	15852	0	316
-66.859	-57.988	16384	15715	0	316
-70.537	-63.361	16373	15523	0	316
-74.612	-65.200	16356	15291	0	316
-77.966	-65.597	16345	15038	0	316
-77.353	-61.522	16322	14782	0	316
-71.295	-55.355	16300	14534	0	316
-64.876	-49.261	16281	14313	0	316
-61.918	-50.487	16264	14205	0	316
-64.154	-53.516	16258	14369	0	316
-71.078	-60.440	16260	14750	0	316
-77.533	-65.417	16255	15046	0	316
-83.628	-64.767	16249	15163	0	316
-85.936	-61.414	16241	15207	0	316
-83.700	-58.745	16226	15231	0	316
-80.346	-55.968	16219	15243	0	316
-74.107	-55.896	16204	15235	0	316
-66.498	-56.076	16198	15287	0	316
-66.787	-52.182	16207	15583	0	316
-68.987	-52.975	16219	16164	0	316
-74.612	-54.562	16243	16872	0	316
-80.094	-58.781	16266	17553	0	316
-80.274	-62.712	16283	18014	0	316
-80.454	-65.777	16298	18202	0	316
-79.228	-67.003	16309	18226	0	316
-80.851	-67.688	16305	18138	0	316
-80.779	-66.859	16305	17962	0	316
-81.825	-65.525	16300	17710	0	316
-78.038	-63.217	16294	17405	0	316
-74.288	-59.178	16286	17153	0	316
-71.944	-55.824	16292	17133	0	316
-71.547	-56.726	16303	17317	0	316
-73.134	-56.978	16305	17401	0	316
-74.396	-59.214	16303	17281	0	316
-76.307	-63.072	16300	17069	0	316
-77.389	-64.443	16294	16832	0	316
-77.028	-62.820	16283	16576	0	316
-77.245	-60.007	16275	16308	0	316
-74.648	-55.283	16269	16108	0	316
-72.593	-51.280	16272	16168	0	316
-71.403	-53.408	16281	16424	0	316
-74.576	-56.076	16292	16664	0	316
-79.192	-62.423	16309	16948	0	316
-86.873	-67.616	16326	17337	0	316
-86.801	-66.210	16348	17658	0	316
-85.611	-61.810	16373	17978	0	316
-79.805	-54.995	16395	18343	0	316
-76.488	-51.028	16414	18511	0	316
-78.363	-52.506	16429	18479	0	316
-81.572	-57.122	16448	18535	0	316
-82.402	-61.197	16468	18675	0	316
-79.553	-62.207	16491	18707	0	316
-74.107	-60.332	16519	18807	0	316
-69.924	-58.457	16555	19204	0	316
-70.537	-59.647	16592	19593	0	316
-73.458	-61.955	16617	19673	0	316
-73.242	-64.154	16645	19637	0	316
-70.429	-60.692	16671	19601	0	316
-64.731	-57.375	16683	19332	0	316
-61.594	-53.841	16685	18763	0	316
-59.538	-50.018	16685	18126	1	700
-59.791	-51.461	16696	17754	0	700
-58.457	-52.254	16719	17770	0	700
-54.454	-53.264	16736	17830	0	700
-54.345	-53.660	16747	17642	0	700
-56.834	-56.798	16762	17405	0	700
-64.551	-61.305	16770	17237	0	700
-68.878	-63.109	16767	16884	0	700
-63.974	-61.197	16756	16280	0	700
-51.569	-52.398	16739	15567	0	700
-39.163	-44.861	16713	14830	0	700
-34.403	-40.822	16685	14085	0	700
-40.642	-46.628	16651	13364	0	700
-49.982	-58.204	16621	12771	0	700
-57.843	-63.289	16600	12478	0	700
-54.598	-61.630	16578	12442	0	700
-50.054	-55.355	16558	12370	0	700
-46.232	-49.189	16536	12238	0	700
-50.054	-52.110	16525	12310	0	700
-52.651	-57.339	16510	12586	0	700
-57.158	-61.558	16499	12767	0	700
-53.696	-60.224	16485	12839	0	700
-51.461	-55.283	16474	13079	0	700
-48.684	-54.922	16479	13560	0	700
-51.028	-54.237	16485	14157	0	700
-52.146	-56.581	16491	14726	0	700
-52.687	-56.365	16493	15155	0	700
-54.814	-53.732	16508	15571	0	700
-58.024	-52.759	16510	16024	0	700
-60.368	-51.533	16513	16276	0	700
-62.423	-54.237	16508	16248	0	700
-61.991	-53.191	16491	16072	0	700
-61.269	-56.185	16479	15908	0	700
-63.253	-57.807	16479	15940	0	700
-67.724	-60.548	16470	16132	0	700
-67.616	-60.584	16465	16184	0	700
-63.722	-54.021	16457	16096	0	700
-60.801	-48.215	16459	16152	0	700
-60.224	-43.707	16459	16444	0	700
-64.984	-44.428	16476	16848	0	700
-72.340	-48.539	16485	17201	0	700
-78.038	-48.395	16485	17325	0	700
-80.815	-45.835	16479	17189	0	700
-85.611	-42.842	16468	16900	0	700
-92.247	-44.212	16451	16520	0	700
-98.666	-49.044	16425	16088	0	700
-101.154	-56.185	16400	15639	0	700
-97.079	-55.067	16373	15195	0	700
-89.506	-50.234	16343	14770	0	700
-79.373	-43.130	16311	14381	0	700
-75.658	-40.389	16281	14033	0	700
-73.855	-41.183	16247	13728	0	700
-73.530	-46.015	16213	13484	0	700
-74.829	-48.612	16190	13392	0	700
-74.071	-48.359	16176	13608	0	700
-75.117	-46.556	16170	14069	0	700
-75.622	-44.645	16168	14546	0	700
-78.759	-45.763	16176	15090	0	700
-85.179	-50.992	16185	15764	0	700
-90.732	-55.067	16202	16380	0	700
-98.089	-59.322	16215	16980	0	700
-100.288	-57.663	16238	17617	0	700
-98.233	-53.877	16258	18138	0	700
-93.869	-52.001	16283	18631	0	700
-91.237	-51.352	16309	19132	0	700
-89.145	-52.614	16326	19396	0	700
-88.100	-53.372	16339	19428	0	700
-83.916	-46.881	16368	19613	0	700
-79.913	-40.462	16403	20109	0	700
-75.694	-37.865	16442	20658	0	700
-76.271	-41.003	16479	21067	0	700
-80.166	-46.700	16519	21303	0	700
-82.871	-54.562	16547	21307	0	700
-83.267	-52.759	16575	21199	0	700
-79.481	-48.431	16598	21075	0	700
-77.209	-41.832	16611	20714	0	700
-76.740	-39.668	16611	20045	0	700
-81.067	-43.022	16604	19216	0	700
-85.287	-50.307	16598	18395	0	700
-90.335	-57.014	16592	17774	1	316
-87.559	-56.113	16592	17413	0	316
-85.106	-52.614	16604	17209	0	316
-81.031	-50.162	16611	17089	0	316
-79.625	-48.323	16628	17113	0	316
-80.490	-49.982	16657	17357	0	316
-82.510	-54.454	16683	17650	0	316
-81.969	-53.372	16716	17906	0	316
-81.608	-51.208	16756	18258	0	316
-79.048	-47.133	16792	18607	0	316
-74.396	-43.743	16818	18771	0	316
-72.304	-39.668	16846	18723	0	316
-69.600	-37.072	16860	18439	0	316
-68.013	-35.990	16869	18074	0	316
-67.003	-34.872	16874	17706	0	316
-65.272	-31.735	16869	17117	0	316
-60.188	-28.705	16854	16348	0	316
-58.420	-27.912	16846	15707	0	316
-55.932	-27.876	16832	15215	0	316
-61.882	-32.203	16801	14590	0	316
-69.383	-40.137	16770	13780	0	316
-78.002	-45.943	16730	12931	0	316
-80.887	-50.307	16685	12106	0	316
-77.137	-48.395	16634	11308	0	316
-68.410	-41.652	16581	10579	0	316
-58.096	-35.124	16530	10022	0	316
-54.165	-30.725	16493	9826	0	316
-55.247	-33.970	16459	9922	0	316
-60.873	-38.983	16423	10010	0	316
-65.164	-45.763	16384	9982	0	316
-66.354	-48.323	16345	9958	0	316
-66.390	-47.494	16303	9986	0	316
-63.469	-47.638	16260	10054	0	316
-61.414	-46.195	16221	10175	0	316
-59.611	-46.087	16179	10351	0	316
-57.194	-46.159	16145	10575	0	316
-55.427	-47.169	16106	10828	0	316
-52.182	-47.097	16072	11128	0	316
-49.585	-45.474	16038	11477	0	316
-43.166	-42.734	16006	11857	0	316
-40.065	-39.957	15978	12258	0	316
-40.353	-39.668	15950	12679	0	316
-45.150	-40.498	15931	13191	0	316
-50.920	-42.770	15927	13965	0	316
-57.627	-43.347	15927	14914	0	316
-58.601	-42.734	15936	15816	0	316
-60.656	-46.087	15950	16728	0	316
-63.794	-49.261	15978	17794	0	316
-67.220	-54.850	16010	18908	0	316
-71.980	-54.850	16040	19897	0	316
-72.629	-53.047	16068	20578	0	316
-71.367	-48.107	16089	20919	0	316
-67.075	-45.294	16100	21039	0	316
-60.115	-41.832	16108	21011	0	316
-54.273	-37.072	16114	20851	0	316
-54.093	-35.701	16117	20602	0	316
-53.985	-34.836	16111	20298	0	316
-58.060	-37.468	16108	19937	0	316
-56.473	-39.199	16100	19545	0	316
-52.867	-37.757	16091	19140	0	316
-45.114	-29.859	16083	18731	0	316
-42.481	-23.837	16074	18327	0	316
-45.655	-23.116	16068	18026	0	316
-50.343	-28.994	16078	18006	0	316
-56.185	-32.564	16091	18198	0	316
-55.139	-35.737	16097	18295	0	316
-54.093	-35.341	16102	18198	0	316
-52.651	-37.649	16102	18018	0	316
-55.103	-41.543	16102	17790	0	316
-54.201	-46.989	16100	17529	0	316
-49.008	-43.743	16091	17257	0	316
-36.242	-34.367	16089	16988	0	316
-23.080	-25.712	16078	16720	0	316
-19.726	-24.811	16068	16464	0	316
-23.512	-34.331	16068	16312	0	316
-33.754	-44.825	16083	16496	0	316
-39.380	-51.497	16117	17137	0	316
-40.426	-47.530	16147	17870	0	316
-36.423	-38.947	16170	18283	0	316
-34.475	-32.564	16198	18467	0	316
-36.134	-31.410	16230	18743	0	316
-39.452	-34.872	16266	19184	0	316
-45.222	-38.731	16305	19653	0	316
-47.818	-39.416	16343	20017	0	316
-49.730	-40.642	16371	20109	0	316
-53.841	-41.039	16389	19897	0	316
-54.345	-40.101	16406	19581	0	316
-56.365	-41.904	16431	19404	0	316
-54.273	-40.642	16451	19332	0	316
-53.913	-38.370	16463	19088	0	316
-53.228	-40.209	16465	18591	0	316
-59.070	-43.599	16465	17982	0	316
-65.380	-47.133	16459	17333	0	316
-71.331	-48.900	16446	16648	0	316
-70.141	-48.648	16431	15964	0	316
-67.111	-45.402	16414	15383	0	316
-62.856	-42.445	16423	15167	0	316
-58.925	-41.724	16437	15419	0	316
-60.909	-40.930	16453	15784	0	316
-62.676	-39.524	16463	15876	0	316
-69.023	-41.003	16457	15695	0	316
-75.514	-44.717	16457	15399	0	316
-79.986	-51.424	16442	15038	0	316
-81.608	-52.903	16434	14714	0	316
-75.730	-53.480	16429	14614	0	316
-69.708	-47.638	16431	14714	0	316
-63.794	-42.120	16423	14730	0	316
-61.955	-40.173	16414	14566	0	316
-62.135	-41.976	16397	14337	0	316
-62.568	-46.268	16389	14173	0	316
-63.469	-47.061	16386	14241	0	316
-65.020	-50.054	16395	14582	0	316
-67.256	-46.628	16408	15074	0	316
-70.141	-45.474	16423	15559	0	316
-71.655	-44.861	16429	15840	0	316
-72.593	-47.494	16431	15868	0	316
-72.449	-49.802	16423	15764	0	316
-71.763	-54.922	16412	15583	0	316
-70.970	-54.418	16397	15339	0	316
-69.528	-52.903	16382	15050	0	316
-68.049	-47.458	16362	14762	0	316
-68.987	-42.589	16339	14489	0	316
-70.934	-42.337	16315	14241	0	316
-73.242	-43.527	16292	14013	0	316
-71.980	-43.779	16275	13893	0	316
-69.600	-43.274	16266	14049	0	316
-67.472	-42.193	16264	14421	0	316
-67.905	-41.219	16258	14706	0	316
-73.098	-47.602	16243	14802	0	316
-78.759	-52.290	16236	14830	0	316
-76.415	-54.995	16219	14838	0	316
-68.951	-48.107	16204	14830	0	316
-58.817	-39.416	16185	14814	0	316
-54.742	-34.187	16170	14798	0	316
-56.473	-33.934	16162	14878	0	316
-63.289	-38.442	16168	15295	0	316
-67.400	-42.842	16196	16152	0	316
-65.813	-41.003	16226	17165	0	316
-59.971	-35.088	16269	18114	0	316
-57.014	-31.302	16300	18928	0	316
-59.899	-34.079	16328	19444	0	316
-63.722	-40.426	16348	19617	0	316
-67.761	-45.546	16368	19669	0	316
-67.400	-44.537	16395	19825	0	316
-60.801	-39.199	16417	20037	0	316
-56.040	-32.780	16431	20037	0	316
-54.454	-34.115	16440	19761	0	316
-59.538	-42.301	16442	19324	0	316
-63.649	-48.359	16437	18799	0	316
-61.450	-46.087	16425	18214	0	316
-52.146	-38.406	16414	17593	1	600
-43.815	-28.020	16395	16964	0	600
-40.894	-23.044	16377	16352	0	600
-49.116	-28.994	16354	15776	0	600
-61.053	-38.406	16334	15239	0	600
-69.528	-45.258	16305	14758	0	600
-70.393	-47.782	16286	14405	0	600
-66.354	-48.900	16283	14357	0	600
-62.604	-47.890	16286	14642	0	600
-59.430	-46.087	16298	15130	0	600
-54.382	-44.104	16311	15651	0	600
-48.936	-39.596	16328	16076	0	600
-42.589	-34.980	16351	16516	0	600
-38.334	-33.033	16373	17025	0	600
-39.704	-34.259	16386	17349	0	600
-46.520	-37.613	16391	17381	0	600
-53.336	-41.616	16403	17337	0	600
-61.414	-42.265	16414	17457	0	600
-60.801	-40.606	16434	17686	0	600
-54.490	-35.449	16440	17734	0	600
-50.054	-31.590	16442	17529	0	600
-49.044	-30.977	16437	17209	0	600
-52.723	-38.334	16425	16836	0	600
-60.512	-43.707	16414	16416	0	600
-61.378	-43.851	16397	15992	0	600
-52.254	-36.603	16382	15563	0	600
-44.789	-27.696	16362	15143	0	600
-40.930	-23.404	16343	14818	0	600
-42.806	-27.227	16337	14770	0	600
-48.539	-33.249	16334	14950	0	600
-52.506	-34.980	16337	15130	0	600
-49.621	-30.148	16345	15387	0	600
-45.871	-24.847	16354	15772	0	600
-43.743	-23.837	16356	16032	0	600
-42.337	-27.335	16362	16064	0	600
-41.940	-32.203	16354	15992	0	600
-44.032	-36.855	16343	15860	0	600
-47.061	-39.272	16331	15691	0	600
-51.280	-42.661	16320	15503	0	600
-58.060	-45.943	16303	15299	0	600
-57.339	-47.674	16289	15098	0	600
-54.814	-42.625	16269	14926	0	600
-47.458	-37.541	16260	14866	0	600
-45.041	-33.105	16272	15143	0	600
-44.068	-32.456	16298	15940	0	600
-44.825	-35.449	16339	17077	0	600
-46.736	-39.921	16379	18098	0	600
-45.222	-42.878	16408	18691	0	600
-43.815	-41.760	16429	18888	0	600
-42.878	-41.688	16442	18851	0	600
-44.861	-43.347	16446	18663	0	600
-45.438	-44.212	16448	18427	0	600
-44.104	-45.114	16463	18331	0	600
-42.914	-42.806	16474	18359	0	600
-39.921	-38.334	16476	18238	0	600
-40.534	-34.872	16474	17898	0	600
-46.304	-36.747	16468	17461	0	600
-51.713	-42.950	16457	16976	0	600
-57.771	-47.602	16440	16464	0	600
-56.185	-50.451	16423	15952	0	600
-52.001	-46.412	16406	15531	0	600
-44.284	-39.488	16403	15379	0	600
-42.157	-36.314	16400	15451	0	600
-42.445	-35.990	16400	15531	0	600
-46.700	-39.055	16408	15695	0	600
-51.533	-43.347	16417	15980	0	600
-56.581	-45.294	16429	16224	0	600
-58.060	-44.320	16446	16488	0	600
-58.457	-42.914	16459	16820	0	600
-58.457	-41.580	16465	16972	0	600
-51.461	-37.685	16468	16868	0	600
-44.753	-31.915	16470	16716	0	600
-37.793	-27.840	16476	16744	0	600
-35.305	-23.765	16491	16900	0	600
-38.983	-25.388	16491	16912	0	600
-43.671	-30.220	16482	16700	0	600
-51.100	-35.052	16485	16452	0	600
-55.716	-38.658	16493	16480	0	600
-61.197	-42.120	16513	16904	0	600
-61.918	-44.464	16536	17377	0	600
-62.243	-45.005	16547	17501	0	600
-60.873	-47.422	16547	17305	0	600
-58.457	-47.962	16538	16964	0	600
-57.339	-46.195	16532	16540	0	600
-57.158	-45.979	16521	16152	0	600
-55.175	-41.399	16525	16056	0	600
-51.352	-35.701	16549	16448	0	600
-47.782	-32.961	16578	17149	0	600
-48.395	-33.790	16606	17722	0	600
-49.766	-37.468	16623	17882	0	600
-55.175	-42.842	16626	17694	0	600
-57.266	-44.428	16621	17321	0	600
-57.591	-40.894	16611	16848	0	600
-54.309	-34.908	16600	16384	0	600
-48.143	-29.391	16595	16112	0	600
-41.580	-27.515	16592	16020	0	600
-39.019	-28.345	16583	15828	0	600
-36.603	-28.741	16564	15439	0	600
-37.324	-25.424	16553	15046	0	600
-39.055	-20.411	16542	14894	0	600
-40.570	-18.644	16538	14934	0	600
-41.327	-20.772	16525	14870	0	600
-42.193	-28.669	16508	14610	0	600
-44.609	-38.154	16485	14289	0	600
-47.854	-41.760	16457	13969	0	600
-48.143	-38.262	16437	13724	0	600
-45.114	-30.977	16425	13732	0	600
-43.094	-23.476	16417	13949	0	600
-42.048	-22.431	16400	14081	0	600
-44.068	-24.450	16384	14029	0	600
-46.845	-27.263	16362	13901	0	600
-47.782	-29.138	16337	13768	0	600
-45.005	-26.289	16311	13644	0	600
-42.120	-23.801	16294	13620	0	600
-42.878	-25.604	16292	13941	0	600
-46.809	-32.095	16303	14698	0	600
-49.369	-34.836	16317	15547	0	600
-46.809	-36.459	16326	16092	0	600
-45.150	-34.764	16337	16408	0	600
-41.868	-30.508	16354	16900	0	600
-37.973	-28.597	16386	17718	0	600
-34.511	-25.712	16414	18527	0	600
-29.643	-23.296	16431	18940	0	600
-26.037	-22.358	16446	18972	0	600
-28.128	-23.765	16453	18884	0	600
-34.295	-30.076	16468	18912	0	600
-44.717	-36.098	16479	19008	0	600
-45.618	-36.891	16482	18916	0	600
-40.678	-33.934	16482	18571	0	600
-35.233	-29.318	16470	18106	0	600
-34.223	-32.023	16457	17585	0	600
-37.577	-35.954	16446	17097	0	600
-43.419	-41.111	16442	16844	0	600
-46.484	-40.786	16440	16772	0	600
-43.491	-36.314	16429	16604	0	600
-41.039	-31.410	16423	16332	0	600
-41.003	-30.328	16423	16244	0	600
-40.822	-32.744	16425	16324	0	600
-37.216	-31.735	16420	16288	0	600
-34.475	-27.371	16408	16048	0	600
-27.984	-23.224	16391	15711	0	600
-28.741	-18.139	16382	15427	0	600
-32.239	-21.781	16384	15459	0	600
-35.593	-25.316	16400	15932	0	600
-35.305	-26.902	16414	16472	0	600
-33.213	-27.624	16429	16788	0	600
-32.348	-28.345	16446	17061	0	600
-35.341	-32.384	16459	17385	0	600
-45.510	-38.622	16470	17501	0	600
-54.382	-45.871	16470	17341	0	600
-58.457	-45.691	16463	17049	0	600
-53.516	-40.750	16451	16680	0	600
-46.736	-35.954	16442	16332	0	600
-40.137	-33.285	16448	16272	0	600
-38.767	-34.439	16465	16624	0	600
-40.389	-37.324	16476	17033	0	600
-44.356	-38.695	16485	17121	0	600
-47.205	-35.846	16487	16988	0	600
-45.474	-33.898	16499	17049	0	600
-45.546	-33.682	16530	17461	0	600
-44.753	-35.882	16547	17878	0	600
-42.553	-38.082	16558	17922	0	600
-42.265	-36.819	16553	17638	0	600
-40.966	-33.429	16547	17201	0	600
-40.101	-30.256	16530	16676	0	600
-40.858	-29.463	16510	16088	0	600
-43.383	-32.600	16487	15471	0	600
-45.871	-35.197	16453	14862	0	600
-46.195	-37.036	16425	14281	0	600
-45.474	-36.278	16397	13824	0	600
-41.327	-33.033	16382	13676	0	600
-36.964	-30.617	16368	13780	0	600
-32.997	-27.948	16351	13820	0	600
-32.961	-30.472	16334	13704	0	600
-33.574	-30.292	16317	13640	0	600
-34.656	-31.590	16309	13844	0	600
-34.511	-30.004	16315	14313	0	600
-34.728	-28.056	16322	14910	0	600
-35.557	-26.037	16339	15487	0	600
-39.163	-29.282	16337	15864	0	600
-42.661	-29.715	16339	16060	0	600
-40.426	-29.607	16354	16352	0	600
-33.249	-26.506	16365	16756	0	600
-24.017	-21.637	16368	16992	0	600
-19.005	-18.752	16365	16964	0	600
-20.231	-21.060	16354	16792	0	600
-21.673	-22.935	16343	16540	0	600
-27.010	-26.361	16337	16328	0	600
-29.066	-28.164	16331	16336	0	600
-29.138	-27.732	16331	16508	0	600
-30.545	-26.397	16326	16556	0	600
-33.502	-26.686	16317	16396	0	600
-36.423	-28.561	16303	16160	0	600
-35.341	-30.256	16292	15980	0	600
-37.360	-32.853	16292	16024	0	600
-36.134	-36.675	16294	16252	0	600
-33.682	-36.783	16292	16368	0	600
-28.777	-35.197	16281	16288	0	600
-23.801	-29.391	16272	16112	0	600
-20.231	-24.666	16258	15904	0	600
-14.641	-16.805	16238	15679	0	600
-17.129	-15.074	16221	15451	0	600
-17.166	-14.641	16198	15223	0	600
-19.329	-15.831	16187	15094	0	600
-25.135	-20.087	16187	15239	0	600
-29.354	-25.063	16185	15579	0	600
-33.285	-26.974	16185	15828	0	600
-32.600	-27.660	16176	15892	0	600
-27.047	-25.496	16173	15880	0	600
-22.503	-23.873	16168	15912	0	600
-24.089	-23.188	16170	16160	0	600
-29.895	-28.201	16185	16572	0	600
-35.774	-31.735	16187	16860	0	600
-38.983	-34.187	16185	16932	0	600
-36.062	-33.790	16190	16984	0	600
-30.761	-33.069	16207	17229	0	600
-25.784	-28.417	16219	17613	0	600
-23.585	-25.027	16230	17850	0	600
-25.099	-24.342	16232	17842	0	600
-27.479	-24.558	16232	17710	0	600
-32.239	-27.876	16230	17513	0	600
-36.567	-31.771	16221	17273	0	600
-37.324	-35.413	16215	17009	1	888
-34.403	-34.692	16204	16732	0	888
-30.004	-32.203	16190	16460	0	888
-27.984	-28.886	16187	16288	0	888
-29.823	-27.551	16187	16372	0	888
-33.105	-27.696	16207	16732	0	888
-35.918	-29.571	16230	17249	0	888
-32.961	-28.741	16255	17758	0	888
-29.102	-25.676	16269	18046	0	888
-23.152	-20.303	16283	18066	0	888
-22.683	-17.346	16286	17950	0	888
-26.794	-20.916	16286	17762	0	888
-31.951	-23.873	16286	17501	0	888
-35.088	-29.354	16281	17185	0	888
-34.656	-29.463	16269	16832	0	888
-30.653	-27.696	16260	16468	0	888
-24.991	-24.594	16247	16120	0	888
-26.542	-23.765	16232	15780	0	888
-31.230	-27.732	16215	15463	0	888
-37.000	-32.167	16202	15175	0	888
-39.019	-33.466	16181	14926	0	888
-34.331	-33.574	16168	14722	0	888
-28.922	-27.840	16151	14550	0	888
-26.938	-23.693	16134	14413	0	888
-28.453	-24.558	16117	14325	0	888
-30.040	-27.299	16106	14285	0	888
-28.381	-28.777	16091	14285	0	888
-23.476	-28.164	16085	14405	0	888
-19.437	-26.217	16091	14814	0	888
-22.575	-23.404	16102	15423	0	888
-29.174	-22.683	16114	15928	0	888
-34.043	-24.775	16119	16224	0	888
-36.603	-27.299	16125	16424	0	888
-34.259	-27.660	16128	16572	0	888
-28.453	-29.823	16131	16664	0	888
-28.056	-31.662	16128	16712	0	888
-32.889	-33.069	16134	16816	0	888
-38.803	-33.682	16151	17137	0	888
-42.481	-34.692	16179	17690	0	888
-40.822	-33.393	16210	18355	0	888
-33.538	-28.850	16252	19056	0	888
-20.736	-24.883	16294	19753	0	888
-17.779	-20.123	16339	20338	0	888
-15.723	-19.798	16371	20614	0	888
-20.700	-17.238	16391	20558	0	888
-22.214	-17.562	16414	20374	0	888
-23.837	-14.569	16442	20310	0	888
-24.811	-14.245	16468	20322	0	888
-22.503	-14.245	16491	20230	0	888
-22.791	-18.283	16519	20121	0	888
-25.460	-20.303	16544	20077	0	888
-25.171	-22.539	16564	19849	0	888
-18.536	-17.346	16570	19364	0	888
-13.199	-12.910	16581	18831	0	888
-6.996	-6.671	16592	18483	0	888
-3.390	-5.662	16604	18275	0	888
-5.590	-9.773	16617	18014	0	888
-9.304	-15.326	16637	17794	0	888
-11.864	-20.483	16654	17738	0	888
-12.153	-24.666	16685	17846	0	888
-16.084	-25.893	16722	18142	0	888
-20.664	-25.784	16753	18395	0	888
-24.883	-26.001	16767	18263	0	888
-24.847	-25.243	16784	17854	0	888
-23.044	-21.132	16803	17609	0	888
-19.041	-16.769	16832	17706	0	888
-16.192	-16.661	16849	17786	0	888
-18.933	-16.625	16860	17485	0	888
-19.906	-18.536	16852	16840	0	888
-21.998	-19.726	16837	16056	0	888
-20.519	-18.572	16818	15283	0	888
-20.050	-15.759	16807	14718	0	888
-17.995	-13.487	16795	14345	0	888
-21.168	-18.211	16779	13965	0	888
-26.433	-24.558	16767	13672	0	888
-32.059	-33.033	16756	13528	0	888
-35.377	-37.649	16736	13276	0	888
-35.557	-36.891	16711	12839	0	888
-32.348	-31.807	16677	12354	0	888
-28.201	-26.361	16640	11881	1	316
-27.371	-25.748	16604	11433	0	316
-28.201	-28.381	16558	11036	0	316
-28.814	-29.859	16519	10703	0	316
-25.496	-28.381	16470	10427	0	316
-21.349	-22.647	16429	10215	0	316
-21.493	-20.483	16386	10082	0	316
-22.972	-21.132	16343	10034	0	316
-29.679	-26.506	16303	10062	0	316
-32.961	-28.345	16260	10163	0	316
-30.545	-23.981	16226	10335	0	316
-26.253	-17.851	16187	10563	0	316
-22.755	-15.579	16153	10844	0	316
-23.621	-16.589	16119	11156	0	316
-23.224	-21.204	16089	11517	0	316
-21.890	-20.880	16066	11997	0	316
-21.241	-20.772	16061	12759	0	316
-21.854	-18.752	16057	13724	0	316
-26.974	-22.431	16063	14666	0	316
-36.387	-32.636	16078	15631	0	316
-44.681	-38.009	16100	16744	0	316
-47.999	-43.851	16136	17910	0	316
-49.261	-43.202	16164	18964	0	316
-44.104	-39.055	16198	19785	0	316
-38.334	-32.708	16232	20514	0	316
-34.006	-27.804	16266	21199	0	316
-33.898	-24.234	16292	21608	0	316
-36.747	-23.585	16309	21672	0	316
-40.822	-26.037	16320	21520	0	316
-43.924	-27.587	16326	21219	0	316
-43.130	-28.886	16326	20795	0	316
-38.045	-27.840	16331	20378	0	316
-34.764	-27.840	16337	20146	0	316
-33.249	-30.472	16348	20057	0	316
-34.331	-33.285	16351	19845	0	316
-36.387	-36.423	16354	19432	0	316
-34.908	-35.629	16348	18944	0	316
-29.823	-29.715	16345	18499	0	316
-24.847	-24.414	16351	18275	0	316
-22.178	-20.447	16362	18230	0	316
-24.522	-24.811	16362	18066	0	316
-29.427	-32.384	16365	17786	0	316
-32.816	-39.272	16382	17750	0	316
-35.305	-42.157	16408	18122	0	316
-35.882	-39.488	16434	18547	0	316
-35.124	-33.466	16453	18639	0	316
-33.826	-31.266	16470	18495	0	316
-34.295	-32.348	16491	18447	0	316
-34.079	-35.737	16508	18491	0	316
-33.790	-37.144	16516	18343	0	316
-30.256	-32.131	16513	17926	0	316
-24.702	-25.460	16510	17377	0	316
-21.168	-17.959	16504	16852	0	316
-17.887	-19.257	16504	16548	0	316
-19.365	-24.270	16513	16508	0	316
-20.844	-29.427	16525	16616	0	316
-17.959	-28.345	16538	16712	0	316
-15.038	-21.096	16547	16708	0	316
-9.196	-10.927	16564	16716	0	316
-4.291	-6.852	16578	16864	0	316
-3.426	-10.674	16604	17089	0	316
-5.662	-16.372	16626	17333	0	316
-12.009	-25.676	16657	17662	0	316
-17.382	-28.777	16700	18142	0	316
-21.024	-27.263	16728	18539	0	316
-18.464	-26.109	16745	18515	0	316
-16.877	-23.152	16747	18098	0	316
-12.586	-20.916	16741	17481	0	316
-12.658	-21.096	16724	16752	0	316
-15.651	-22.611	16705	15948	0	316
-17.490	-24.306	16677	15106	0	316
-21.313	-27.191	16645	14345	0	316
-20.123	-27.155	16623	13860	0	316
-18.608	-27.227	16606	13612	0	316
-16.480	-24.234	16581	13320	0	316
-15.362	-25.027	16549	12903	0	316
-17.706	-28.020	16519	12466	0	316
-21.493	-30.364	16482	12074	0	316
-22.899	-32.348	16446	11721	0	316
-21.349	-31.843	16408	11425	1	316
-21.385	-29.463	16371	11188	0	316
-19.365	-30.653	16331	11024	0	316
-20.231	-31.194	16294	10928	0	316
-22.683	-31.410	16255	10896	0	316
-21.168	-31.302	16226	10996	0	316
-23.440	-29.174	16215	11501	0	316
-27.263	-30.977	16232	12578	0	316
-33.249	-36.170	16258	14017	0	316
-40.462	-41.796	16283	15323	0	316
-42.481	-44.356	16303	16208	0	316
-38.695	-39.668	16317	16720	0	316
-32.348	-33.069	16317	17021	0	316
-29.823	-28.273	16315	17161	0	316
-27.191	-24.775	16309	17169	0	316
-29.066	-24.270	16298	17073	0	316
-29.138	-26.866	16281	16908	0	316
-26.830	-27.155	16266	16696	0	316
-24.775	-27.191	16252	16540	0	316
-20.519	-26.145	16249	16628	0	316
-19.077	-24.306	16255	16908	0	316
-18.031	-21.998	16249	17089	0	316
-21.781	-20.195	16241	17057	0	316
-28.273	-23.693	16236	16924	0	316
-29.715	-25.965	16215	16760	0	316
-28.525	-25.568	16204	16580	0	316
-23.729	-25.135	16198	16468	0	316
-18.392	-22.467	16198	16612	0	316
-15.579	-17.743	16213	17033	0	316
-17.454	-15.723	16232	17585	0	316
-16.589	-12.225	16255	18106	0	316
-15.362	-12.550	16266	18415	0	316
-13.956	-13.848	16275	18467	0	316
-13.740	-16.516	16281	18371	0	316
-18.536	-21.637	16277	18170	0	316
-20.591	-23.729	16277	17974	0	316
-22.322	-26.001	16289	17974	0	316
-21.132	-26.506	16305	18198	0	316
-15.975	-25.027	16326	18527	0	316
-15.651	-23.765	16356	18892	0	316
-19.942	-22.719	16386	19284	0	316
-27.876	-25.388	16414	19593	0	316
-33.862	-28.020	16434	19629	0	316
-36.531	-31.194	16448	19440	0	316
-33.466	-30.545	16474	19412	0	316
-25.640	-27.371	16510	19717	0	316
-17.021	-20.988	16542	20017	0	316
-7.825	-14.389	16564	19933	0	316
-4.904	-10.963	16575	19585	0	316
-8.943	-14.281	16598	19312	0	316
-17.562	-20.303	16617	19204	0	316
-28.669	-27.912	16640	19144	0	316
-32.925	-30.040	16666	19092	0	316
-28.345	-25.965	16696	19132	0	316
-22.431	-18.500	16736	19336	0	316
-21.349	-14.245	16773	19549	0	316
-21.241	-13.415	16809	19613	0	316
-26.037	-16.336	16832	19504	0	316
-27.443	-17.995	16846	19096	0	316
-27.083	-20.952	16846	18435	0	316
-23.008	-22.683	16854	17842	0	316
-23.188	-24.450	16852	17341	0	316
-26.001	-27.191	16843	16672	0	316
-26.758	-28.020	16824	15780	0	316
-26.902	-26.181	16790	14802	0	316
-25.604	-24.666	16762	13897	0	316
-19.618	-23.873	16745	13332	0	316
-12.622	-19.978	16739	13247	0	316
-7.032	-17.779	16728	13300	0	316
-4.977	-13.704	16716	13175	0	316
-8.619	-15.975	16707	13059	0	316
-15.723	-20.411	16696	13059	0	316
-20.195	-28.633	16674	12931	0	316
-20.627	-32.780	16651	12663	0	316
-15.723	-29.318	16637	12558	0	316
-11.215	-22.539	16623	12635	0	316
-8.439	-20.772	16598	12594	0	316
-11.612	-21.168	16572	12446	0	316
-15.615	-25.352	16561	12490	0	316
-17.310	-32.276	16549	12803	0	316
-21.349	-33.285	16549	13251	0	316
-24.089	-34.295	16542	13680	0	316
-24.234	-34.547	16530	13909	0	316
-23.440	-35.846	16508	13889	0	316
-24.342	-37.577	16485	13744	0	316
-23.729	-38.586	16463	13632	0	316
-26.902	-40.353	16446	13732	0	316
-27.479	-38.803	16431	13997	0	316
-25.460	-32.780	16417	14221	0	316
-19.293	-29.030	16412	14493	0	316
-16.661	-27.119	16408	14874	0	316
-14.785	-30.400	16395	15106	0	316
-17.526	-33.718	16379	15098	0	316
-18.067	-35.701	16356	14982	0	316
-17.382	-30.689	16328	14830	0	316
-13.054	-22.431	16300	14642	0	316
-12.369	-19.798	16269	14437	0	316
-17.129	-20.339	16238	14237	0	316
-19.510	-26.001	16213	14137	0	316
-21.349	-30.761	16207	14401	0	316
-16.156	-30.004	16210	15122	0	316
-10.891	-27.768	16221	15936	0	316
-7.321	-25.171	16221	16424	0	316
-10.674	-29.354	16219	16624	0	316
-19.077	-34.980	16213	16772	0	316
-21.854	-39.127	16224	17085	0	316
-21.204	-37.541	16230	17521	0	316
-15.471	-31.879	16241	17874	0	316
-12.730	-27.804	16255	18226	0	316
-13.451	-28.453	16269	18623	0	316
-18.211	-31.230	16277	18827	0	316
-18.031	-33.033	16277	18759	0	316
-14.136	-28.489	16275	18535	0	316
-6.419	-20.411	16266	18226	0	316
0.974	-16.480	16249	17854	0	316
-1.190	-15.903	16243	17525	0	316
-8.150	-23.404	16249	17501	0	316
-17.418	-29.787	16269	17902	0	316
-16.805	-32.636	16289	18383	0	316
-15.723	-27.515	16298	18543	0	316
-8.258	-22.647	16300	18399	0	316
-4.616	-16.156	16300	18106	0	316
-7.645	-19.221	16289	17734	0	316
-15.110	-23.657	16281	17385	0	316
-18.103	-27.587	16286	17257	0	316
-17.057	-29.715	16292	17305	0	316
-16.985	-28.922	16286	17245	0	316
-15.471	-31.049	16281	16968	0	316
-19.221	-33.429	16269	16612	0	316
-21.349	-37.000	16258	16320	0	316
-22.972	-37.541	16264	16252	0	316
-23.476	-37.000	16264	16376	0	316
-21.132	-34.511	16266	16480	0	316
-20.772	-32.961	16281	16640	0	316
-19.618	-28.958	16292	16892	0	316
-16.048	-24.234	16294	17004	0	316
-12.838	-21.060	16294	16884	0	316
-14.172	-22.142	16300	16728	0	316
-13.379	-21.349	16303	16748	0	316
-13.631	-23.765	16311	16904	0	316
-8.547	-20.591	16311	16928	0	316
-0.613	-17.815	16315	16800	0	316
3.859	-15.002	16322	16816	0	316
3.534	-16.877	16331	16968	0	316
-1.370	-19.762	16334	16976	0	316
-5.229	-23.368	16328	16748	0	316
-8.006	-26.325	16320	16412	0	316
-5.373	-25.856	16303	16040	0	316
-7.140	-26.758	16286	15639	0	316
-12.586	-29.859	16272	15315	0	316
-19.149	-32.961	16272	15243	0	316
-24.450	-35.846	16266	15383	0	316
-23.152	-33.069	16264	15447	0	316
-14.605	-24.378	16252	15347	0	316
-6.671	-13.523	16247	15259	0	316
-2.596	-8.547	16255	15479	0	316
-5.842	-12.802	16277	16120	0	316
-15.362	-21.926	16309	16908	0	316
-24.991	-35.737	16343	17609	0	316
-31.410	-42.445	16377	18162	0	316
-31.771	-41.904	16391	18423	0	316
-28.237	-35.413	16397	18371	0	316
-23.008	-24.919	16403	18130	0	316
-17.634	-18.536	16397	17778	0	316
-17.310	-17.779	16395	17417	0	316
-17.923	-20.087	16400	17249	0	316
-21.926	-24.630	16403	17233	0	316
-26.578	-25.243	16403	17089	0	316
-23.981	-23.224	16395	16740	0	316
-23.801	-22.647	16389	16396	0	316
-23.440	-21.818	16389	16268	0	316
-21.349	-25.171	16389	16284	0	316
-19.906	-24.017	16384	16184	0	316
-13.884	-18.969	16373	15884	0	316
-10.891	-16.805	16360	15503	0	316
-13.559	-16.012	16337	15110	0	316
-22.142	-23.116	16317	14710	0	316
-33.285	-32.564	16292	14325	0	316
-38.550	-40.570	16264	13969	0	316
-33.898	-41.075	16247	13732	0	316
-24.414	-36.639	16236	13792	0	316
-15.795	-28.489	16232	14089	0	316
-10.422	-21.637	16221	14313	0	316
-10.350	-18.283	16219	14453	0	316
-15.038	-19.978	16221	14778	0	316
-15.218	-20.411	16230	15279	0	316
-13.235	-20.411	16230	15663	0	316
-10.278	-16.372	16232	15816	0	316
-7.429	-16.228	16224	15848	0	316
-11.179	-16.769	16219	15824	0	316
-17.057	-22.647	16204	15755	0	316
-20.555	-28.345	16193	15655	0	316
-20.627	-26.433	16176	15531	0	316
-17.238	-23.657	16162	15411	0	316
-17.959	-23.801	16157	15391	0	316
-20.014	-27.227	16162	15703	0	316
-24.450	-34.836	16190	16448	0	316
-27.227	-39.704	16215	17269	0	316
-25.243	-38.731	16226	17758	0	316
-22.286	-33.321	16249	17994	0	316
-22.503	-29.823	16269	18311	0	316
-26.325	-31.374	16289	18707	0	316
-31.085	-35.774	16305	18904	0	316
-32.564	-38.767	16326	18908	0	316
-30.508	-38.839	16343	19000	0	316
-24.594	-34.872	16362	19184	0	316
-17.057	-27.948	16373	19168	0	316
-12.297	-21.854	16384	18972	0	316
-13.559	-19.726	16400	18884	0	316
-17.634	-20.844	16414	18916	0	316
-21.565	-24.198	16425	18787	1	840
-22.972	-28.489	16423	18427	0	840
-19.582	-26.361	16423	17938	0	840
-13.631	-23.512	16408	17385	0	840
-8.835	-19.005	16395	16796	0	840
-9.917	-14.894	16379	16212	0	840
-10.386	-16.084	16356	15639	0	840
-9.809	-16.985	16339	15179	0	840
-8.619	-18.139	16339	15014	0	840
-7.862	-16.625	16334	15098	0	840
-8.511	-17.815	16326	15106	0	840
-12.009	-17.779	16317	14946	0	840
-18.464	-22.611	16303	14730	0	840
-20.880	-25.604	16286	14497	0	840
-22.358	-29.282	16266	14257	0	840
-20.880	-26.397	16249	14025	0	840
-15.002	-21.890	16224	13824	0	840
-11.035	-17.959	16204	13656	0	840
-11.035	-17.959	16179	13528	0	840
-11.648	-16.661	16159	13448	0	840
-14.713	-20.736	16145	13488	0	840
-18.356	-20.736	16142	13812	0	840
-18.139	-21.745	16145	14361	0	840
-18.500	-21.745	16153	14902	0	840
-15.831	-22.034	16170	15499	0	840
-14.677	-23.044	16187	16196	0	840
-12.514	-22.791	16204	16740	0	840
-13.163	-22.106	16210	17025	0	840
-13.704	-20.411	16215	17149	0	840
-12.441	-17.995	16213	17181	0	840
-13.127	-20.014	16221	17221	0	840
-14.749	-23.440	16232	17453	0	840
-23.765	-30.797	16249	17826	0	840
-29.463	-37.396	16258	18058	0	840
-34.403	-39.308	16269	18050	0	840
-30.761	-39.668	16266	17918	0	840
-25.279	-36.351	16264	17718	0	840
-19.690	-34.079	16260	17469	0	840
-17.526	-30.545	16258	17273	0	840
-17.598	-27.227	16266	17305	0	840
-14.317	-22.899	16281	17509	0	840
-13.307	-17.346	16289	17674	0	840
-12.550	-18.356	16311	17866	0	840
-13.127	-19.041	16337	18238	0	840
-17.562	-24.125	16368	18703	0	840
-19.185	-28.777	16397	19088	0	840
-21.060	-29.282	16420	19212	0	840
-18.067	-28.056	16429	19052	0	840
-13.884	-25.676	16437	18731	0	840
-8.150	-23.512	16437	18311	0	840
-4.111	-18.392	16429	17814	0	840
-1.118	-16.120	16420	17273	0	840
0.000	-10.783	16412	16780	0	840
-3.101	-12.189	16412	16536	0	840
-8.619	-16.697	16414	16512	0	840
-15.146	-22.539	16414	16416	0	840
-19.293	-28.417	16408	16136	0	840
-20.014	-31.374	16400	15788	0	840
-12.369	-27.299	16386	15431	0	840
-3.967	-20.483	16371	15074	0	840
1.659	-13.595	16354	14718	0	840
1.947	-10.278	16331	14381	0	840
-3.787	-14.677	16315	14081	0	840
-11.828	-23.657	16292	13832	0	840
-16.805	-33.574	16269	13624	0	840
-17.346	-33.610	16255	13536	0	840
-10.133	-26.037	16258	13808	0	840
-1.947	-16.192	16277	14550	0	840
1.082	-10.314	16298	15391	0	840
-1.262	-10.891	16317	16008	0	840
-11.071	-20.844	16339	16564	0	840
-19.401	-28.417	16368	17165	0	840
-20.808	-30.545	16384	17565	0	840
-14.317	-26.578	16400	17750	0	840
-6.455	-19.221	16423	18002	0	840
-1.767	-14.858	16442	18339	0	840
-5.914	-20.555	16453	18471	0	840
-15.002	-28.309	16465	18323	0	840
-17.274	-33.466	16463	18022	0	840
-16.336	-29.643	16459	17646	0	840
-8.979	-21.349	16448	17221	0	840
-4.327	-12.802	16431	16764	0	840
-7.104	-13.199	16417	16292	0	840
-13.235	-16.192	16406	15912	0	840
-17.490	-22.106	16403	15800	0	840
-19.401	-21.204	16406	15888	0	840
-17.346	-21.890	16400	15884	0	840
-18.680	-24.234	16391	15707	0	840
-17.129	-26.578	16382	15471	0	840
-16.480	-29.102	16365	15215	0	840
-11.864	-26.758	16354	15018	0	840
-9.196	-22.070	16354	15070	0	840
-12.045	-18.608	16354	15331	0	840
-17.670	-21.637	16360	15583	0	840
-24.702	-23.945	16373	15888	0	840
-25.027	-28.886	16384	16288	0	840
-21.277	-30.436	16397	16620	0	840
-18.933	-28.886	16417	16960	0	840
-18.320	-26.794	16442	17445	0	840
-23.693	-25.929	16470	17970	0	840
-26.289	-26.361	16496	18395	0	840
-24.811	-27.840	16510	18543	0	840
-20.231	-27.587	16527	18471	0	840
-15.182	-26.722	16549	18539	0	840
-16.084	-24.053	16587	18944	0	840
-20.447	-22.539	16611	19340	0	840
-25.820	-22.250	16628	19356	0	840
-26.938	-24.342	16637	19012	0	840
-24.342	-26.614	16634	18499	0	840
-21.529	-26.145	16632	17902	0	840
-20.195	-25.568	16621	17317	0	840
-19.113	-23.945	16621	16928	1	444
-21.204	-23.368	16617	16716	0	444
-22.972	-22.431	16617	16484	0	444
-28.164	-29.607	16617	16312	0	444
-32.636	-35.954	16621	16252	0	444
-34.151	-38.875	16617	16060	0	444
-29.499	-34.980	16600	15647	0	444
-21.709	-25.424	16578	15134	0	444
-13.812	-15.110	16558	14598	0	444
-15.002	-13.379	16532	14133	0	444
-17.490	-16.408	16521	13929	0	444
-18.897	-24.739	16508	13949	0	444
-19.401	-27.804	16496	13897	0	444
-18.283	-27.912	16474	13680	0	444
-16.661	-27.660	16446	13416	0	444
-19.437	-27.479	16420	13155	0	444
-17.815	-27.660	16389	12911	0	444
-16.985	-24.991	16365	12691	0	444
-16.012	-23.008	16328	12506	0	444
-15.435	-22.755	16298	12370	0	444
-19.041	-22.935	16266	12278	0	444
-23.440	-25.135	16236	12230	0	444
-21.926	-29.138	16202	12242	0	444
-22.935	-29.499	16181	12394	0	444
-19.113	-26.686	16176	12847	0	444
-17.310	-24.630	16168	13528	0	444
-15.038	-23.693	16164	14137	0	444
-16.300	-20.916	16159	14558	0	444
-15.939	-22.503	16147	14878	0	444
-17.959	-27.479	16142	15139	0	444
-16.300	-29.246	16131	15351	0	444
-18.860	-29.787	16119	15527	0	444
-18.969	-30.653	16106	15671	0	444
-22.899	-29.282	16094	15796	0	444
-25.820	-29.499	16083	15908	0	444
-24.234	-27.515	16068	16004	0	444
-21.457	-25.568	16057	16096	0	444
-15.651	-22.178	16046	16180	0	444
-16.300	-23.296	16035	16268	0	444
-22.034	-31.158	16023	16356	0	444
-30.364	-39.055	16015	16452	0	444
-39.344	-47.710	16010	16564	0	444
-39.632	-49.405	16001	16676	0	444
-33.574	-40.462	16004	16864	0	444
-23.693	-34.367	16015	17293	0	444
-15.038	-24.847	16035	17906	0	444
-10.819	-19.185	16049	18403	0	444
-14.713	-21.781	16063	18683	0	444
-19.618	-23.585	16074	18855	0	444
-23.945	-25.784	16085	18952	0	444
-20.808	-24.919	16100	19048	0	444
-19.798	-20.555	16123	19332	0	444
-16.841	-20.808	16157	19753	0	444
-18.247	-22.539	16181	20097	0	444
-19.473	-24.450	16215	20426	0	444
-19.726	-23.729	16255	20807	0	444
-15.074	-19.582	16281	20991	0	444
-12.766	-15.831	16311	20955	0	444
-11.900	-15.507	16343	20983	0	444
-16.336	-19.185	16379	21083	0	444
-17.021	-21.529	16400	20971	0	444
-20.014	-19.041	16420	20666	0	444
-20.519	-20.375	16448	20470	0	444
-22.142	-21.890	16474	20382	0	444
-24.702	-28.561	16496	20194	0	444
-26.650	-36.351	16530	20009	0	444
-26.001	-38.839	16553	19893	0	444
-22.683	-34.728	16570	19597	0	444
-22.070	-27.191	16581	19128	0	444
-25.135	-24.847	16604	18787	0	444
-28.381	-24.775	16621	18567	0	444
-31.374	-30.364	16632	18258	0	444
-32.312	-33.682	16651	17978	0	444
-31.158	-34.836	16668	17794	0	444
-30.256	-34.331	16679	17533	0	444
-31.049	-34.331	16694	17277	0	444
-29.859	-34.764	16711	17097	0	444
-27.515	-32.961	16713	16780	0	444
-23.368	-30.761	16707	16244	0	444
-20.014	-27.010	16694	15595	1	316
-16.048	-24.558	16683	14910	0	316
-15.507	-25.207	16660	14285	0	316
-13.307	-24.919	16651	13913	0	316
-17.454	-24.486	16640	13756	0	316
-19.906	-24.775	16632	13612	0	316
-23.981	-26.037	16628	13556	0	316
-23.440	-25.676	16628	13644	0	316
-20.700	-26.866	16615	13628	0	316
-20.952	-28.201	16600	13412	0	316
-20.664	-25.388	16581	13131	0	316
-24.342	-25.424	16553	12835	0	316
-28.669	-23.476	16527	12534	0	316
-29.102	-25.352	16493	12254	0	316
-27.119	-28.561	16465	12005	0	316
-25.856	-31.085	16431	11793	0	316
-26.145	-31.987	16400	11633	0	316
-26.866	-29.499	16365	11517	0	316
-28.705	-24.919	16334	11453	0	316
-30.292	-24.450	16300	11449	0	316
-29.030	-24.522	16269	11505	0	316
-24.955	-24.991	16236	11609	0	316
-20.087	-24.234	16210	11757	0	316
-17.995	-20.952	16179	11961	0	316
-17.238	-21.241	16153	12210	0	316
-20.483	-25.279	16131	12486	0	316
-22.142	-26.145	16106	12795	0	316
-16.336	-23.729	16085	13127	0	316
-10.494	-19.437	16066	13472	0	316
-7.321	-15.867	16049	13832	0	316
-11.792	-21.313	16040	14289	0	316
-26.578	-30.508	16046	15002	0	316
-37.468	-38.839	16057	15896	0	316
-44.284	-42.589	16066	16640	0	316
-41.796	-39.740	16072	17153	0	316
-36.928	-35.990	16078	17533	0	316
-32.564	-34.944	16085	17910	0	316
-30.040	-33.646	16114	18531	0	316
-29.210	-32.456	16153	19509	0	316
-30.977	-32.420	16196	20490	0	316
-31.410	-33.177	16224	21071	0	316
-35.052	-35.990	16252	21275	0	316
-35.846	-37.468	16269	21275	0	316
-33.466	-37.649	16286	21135	0	316
-29.102	-34.800	16294	20875	0	316
-25.784	-30.689	16298	20526	0	316
-24.666	-30.508	16305	20194	0	316
-23.981	-27.443	16322	20069	0	316
-23.981	-26.794	16345	20109	0	316
-24.558	-24.162	16356	20009	0	316
-24.342	-22.503	16362	19677	0	316
-26.758	-24.089	16371	19320	0	316
-31.843	-27.227	16389	19176	0	316
-33.213	-28.273	16406	19176	0	316
-32.708	-29.174	16417	19032	0	316
-32.780	-26.397	16425	18751	0	316
-31.013	-27.587	16457	18703	0	316
-31.879	-29.463	16491	19032	0	316
-31.230	-29.643	16525	19384	0	316
-31.699	-30.472	16547	19376	0	316
-31.158	-29.391	16564	19120	0	316
-31.662	-27.696	16595	19024	0	316
-33.033	-28.417	16632	19252	0	316
-29.895	-26.686	16671	19549	0	316
-25.243	-25.352	16707	19709	0	316
-19.582	-20.700	16741	19717	0	316
-17.634	-19.582	16758	19448	0	316
-23.224	-18.752	16764	18863	0	316
-26.542	-23.368	16758	18098	0	316
-28.922	-26.938	16750	17245	0	316
-25.929	-27.768	16730	16348	0	316
-17.310	-24.522	16705	15439	0	316
-14.281	-20.087	16677	14554	0	316
-13.271	-14.353	16645	13724	0	316
-17.274	-12.369	16621	13051	0	316
-19.041	-13.415	16598	12691	0	316
-23.224	-16.733	16583	12594	0	316
-24.919	-21.854	16566	12474	0	316
-27.732	-28.273	16538	12234	0	316
-32.456	-32.600	16513	11969	1	316
-33.502	-33.213	16493	11813	0	316
-32.348	-29.463	16476	11937	0	316
-27.804	-22.142	16470	12278	0	316
-28.453	-20.664	16457	12526	0	316
-29.318	-22.467	16437	12590	0	316
-33.718	-30.256	16417	12594	0	316
-35.413	-36.062	16400	12667	0	316
-29.679	-34.908	16397	13055	0	316
-22.683	-27.227	16414	13876	0	316
-18.572	-20.087	16425	14774	0	316
-19.185	-16.192	16434	15347	0	316
-26.866	-20.844	16434	15607	0	316
-31.518	-26.578	16437	15788	0	316
-30.400	-29.571	16442	16104	0	316
-24.486	-25.856	16457	16604	0	316
-21.168	-21.745	16476	17181	0	316
-21.854	-18.175	16496	17682	0	316
-29.787	-22.755	16502	17926	0	316
-37.396	-27.191	16508	17886	0	316
-36.206	-31.085	16502	17678	0	316
-29.246	-30.220	16487	17365	0	316
-21.132	-25.604	16474	16984	0	316
-15.759	-23.080	16459	16588	0	316
-21.168	-22.178	16442	16256	0	316
-29.751	-27.768	16434	16148	0	316
-36.928	-33.321	16431	16236	0	316
-41.976	-38.298	16431	16320	0	316
-38.118	-38.514	16437	16448	0	316
-35.557	-36.206	16451	16760	0	316
-34.151	-32.095	16463	17169	0	316
-35.701	-29.607	16482	17525	0	316
-37.721	-29.391	16487	17650	0	316
-35.954	-29.246	16485	17497	0	316
-30.869	-25.676	16482	17269	0	316
-26.073	-22.935	16493	17293	0	316
-23.404	-23.224	16513	17690	0	316
-25.640	-22.899	16538	18122	0	316
-26.686	-26.758	16553	18291	0	316
-27.299	-27.263	16575	18383	0	316
-21.709	-21.709	16587	18511	0	316
-19.293	-17.418	16595	18427	0	316
-14.281	-11.396	16589	18050	0	316
-14.930	-9.412	16583	17597	0	316
-15.435	-11.540	16589	17325	0	316
-21.745	-15.759	16587	17193	0	316
-26.217	-22.106	16581	16916	0	316
-29.787	-26.145	16566	16436	0	316
-31.771	-25.820	16544	15892	0	316
-32.203	-26.001	16527	15399	0	316
-34.511	-27.010	16516	15147	0	316
-38.983	-31.518	16513	15102	0	316
-42.409	-34.764	16504	15062	0	316
-43.455	-38.803	16499	15090	0	316
-43.058	-40.534	16502	15239	0	316
-40.245	-37.505	16502	15363	0	316
-40.426	-38.298	16504	15527	0	316
-41.435	-37.577	16513	15768	0	316
-40.353	-37.973	16513	15924	0	316
-37.793	-37.396	16521	16080	0	316
-32.780	-38.118	16532	16308	0	316
-26.722	-35.701	16527	16364	0	316
-23.260	-32.348	16519	16148	0	316
-20.483	-29.102	16508	15880	0	316
-20.952	-26.361	16504	15796	0	316
-20.988	-25.676	16504	15944	0	316
-18.752	-23.765	16519	16212	0	316
-17.779	-22.395	16530	16520	0	316
-17.310	-22.647	16544	16860	0	316
-22.683	-25.352	16558	17133	0	316
-28.741	-29.030	16558	17161	0	316
-32.961	-30.292	16553	16904	0	316
-34.043	-29.931	16542	16504	0	316
-29.246	-26.037	16521	16048	0	316
-24.378	-23.188	16499	15615	0	316
-23.585	-23.873	16496	15487	0	316
-24.919	-25.820	16502	15796	0	316
-29.499	-24.450	16516	16196	0	316
-32.528	-26.181	16513	16284	0	316
-34.259	-26.073	16499	16084	0	316
-33.213	-23.729	16485	15772	0	316
-28.201	-21.060	16465	15399	0	316
-20.231	-17.995	16440	14978	0	316
-16.769	-12.874	16408	14526	0	316
-15.110	-12.766	16379	14081	0	316
-20.303	-18.211	16348	13668	0	316
-26.433	-23.152	16309	13300	0	316
-29.931	-27.407	16272	12979	0	316
-32.600	-30.004	16238	12723	0	316
-32.023	-31.807	16202	12534	0	316
-33.970	-32.816	16168	12418	0	316
-33.429	-33.574	16134	12378	0	316
-32.239	-34.043	16102	12402	0	316
-30.689	-31.554	16074	12494	0	316
-32.312	-30.148	16049	12643	0	316
-37.036	-31.807	16029	12919	0	316
-44.753	-35.629	16023	13472	0	316
-49.513	-41.291	16029	14321	0	316
-48.323	-42.661	16049	15323	0	316
-45.078	-40.930	16078	16384	0	316
-39.885	-33.285	16117	17537	0	316
-35.160	-27.515	16164	18847	0	316
-35.846	-23.729	16224	20133	0	316
-36.134	-25.640	16277	21207	0	316
-35.629	-29.318	16326	22017	0	316
-31.735	-30.112	16368	22433	0	316
-26.397	-29.679	16389	22441	0	316
-22.142	-25.171	16406	22173	0	316
-21.565	-23.440	16417	21716	0	316
-25.388	-24.486	16414	21115	0	316
-27.984	-24.630	16412	20402	0	316
-29.463	-26.974	16406	19705	1	444
-26.686	-28.958	16412	19224	0	444
-27.407	-30.076	16420	19004	0	444
-31.158	-32.564	16434	18932	0	444
-34.511	-35.774	16448	18863	0	444
-36.098	-36.098	16451	18611	0	444
-34.908	-34.908	16457	18214	0	444
-28.886	-31.735	16476	18046	0	444
-24.702	-25.748	16508	18351	0	444
-18.103	-19.221	16553	18932	0	444
-19.113	-16.480	16583	19332	0	444
-17.670	-16.805	16609	19300	0	444
-21.709	-22.431	16617	18904	0	444
-23.801	-26.289	16617	18319	0	444
-24.125	-27.587	16609	17621	0	444
-23.729	-25.027	16595	16856	0	444
-22.358	-21.962	16572	16068	0	444
-24.414	-22.539	16549	15271	0	444
-26.397	-25.640	16516	14481	0	444
-26.109	-27.299	16485	13728	0	444
-20.050	-25.352	16446	13035	0	444
-15.398	-22.322	16414	12494	0	444
-11.540	-17.670	16403	12366	0	444
-13.487	-16.661	16403	12763	0	444
-21.024	-19.834	16408	13312	0	444
-30.508	-26.361	16400	13600	0	444
-36.134	-33.898	16389	13628	0	444
-40.462	-39.235	16373	13552	0	444
-36.639	-40.101	16354	13428	0	444
-30.797	-35.629	16334	13268	0	444
-23.693	-28.164	16303	13103	0	444
-14.894	-23.260	16275	12943	0	444
-16.733	-21.385	16249	12799	0	444
-20.664	-25.712	16219	12695	0	444
-29.066	-30.941	16190	12643	0	444
-34.439	-33.898	16164	12707	0	444
-35.774	-33.393	16159	13055	0	444
-32.059	-30.472	16153	13632	0	444
-26.073	-24.847	16147	14137	0	444
-25.640	-23.765	16136	14453	0	444
-29.607	-27.551	16128	14698	0	444
-34.692	-32.131	16117	14914	0	444
-41.832	-36.495	16106	15098	0	444
-43.455	-36.495	16091	15255	0	444
-39.632	-33.538	16080	15387	0	444
-35.557	-30.472	16074	15591	0	444
-34.079	-28.453	16080	16020	0	444
-35.665	-28.597	16091	16616	0	444
-39.704	-30.112	16097	17101	0	444
-39.812	-30.004	16102	17369	0	444
-40.137	-27.984	16102	17513	0	444
-36.964	-29.066	16102	17581	0	444
-35.593	-29.427	16097	17573	0	444
-35.882	-29.571	16100	17597	0	444
-34.006	-27.515	16108	17830	0	444
-31.879	-24.702	16125	18222	0	444
-32.131	-24.017	16134	18483	0	444
-31.482	-23.693	16140	18519	0	444
-35.233	-30.977	16145	18451	0	444
-38.731	-34.295	16145	18335	0	444
-37.144	-33.393	16142	18158	0	444
-35.846	-28.309	16140	17946	0	444
-33.033	-22.972	16134	17706	0	444
-28.886	-21.313	16136	17533	0	444
-27.840	-24.811	16142	17609	0	444
-27.840	-26.109	16162	17882	0	444
-26.614	-24.991	16176	18134	0	444
-24.702	-21.349	16198	18431	0	444
-23.657	-16.913	16230	18811	0	444
-24.883	-20.123	16247	19028	0	444
-29.282	-27.984	16264	18992	0	444
-33.321	-32.744	16269	18811	0	444
-35.413	-33.538	16275	18543	0	444
-34.800	-31.374	16277	18210	0	444
-31.266	-26.650	16272	17834	0	444
-26.614	-25.965	16269	17429	0	444
-24.270	-25.388	16260	17017	0	444
-22.683	-23.152	16249	16608	0	444
-23.188	-21.709	16241	16220	0	444
-27.047	-22.972	16226	15852	0	444
-29.643	-22.755	16215	15515	0	444
-31.158	-28.922	16198	15207	0	444
-29.499	-32.203	16187	14934	0	444
-30.220	-34.620	16170	14706	0	444
-34.006	-38.118	16157	14526	0	444
-38.370	-40.389	16142	14389	0	444
-39.019	-39.127	16131	14297	0	444
-36.278	-34.764	16117	14253	0	444
-31.771	-29.715	16106	14249	0	444
-30.364	-27.660	16091	14265	0	444
-32.420	-30.941	16085	14317	0	444
-36.495	-31.446	16074	14401	0	444
-37.216	-32.384	16066	14518	0	444
-37.324	-31.266	16061	14658	0	444
-35.737	-29.318	16055	14822	0	444
-35.629	-32.780	16049	15010	0	444
-35.774	-37.108	16049	15203	0	444
-36.855	-38.839	16049	15387	0	444
-37.685	-37.072	16044	15583	0	444
-39.849	-34.800	16044	15788	0	444
-43.166	-34.764	16044	15988	0	444
-43.635	-35.269	16049	16252	0	444
-42.445	-37.432	16068	16744	0	444
-36.423	-37.252	16094	17405	0	444
-32.348	-36.603	16114	17926	0	444
-29.427	-35.629	16131	18206	0	444
-31.085	-35.160	16145	18363	0	444
-33.177	-32.095	16159	18447	0	444
-34.259	-29.535	16164	18463	0	444
-34.800	-29.535	16179	18423	0	444
-33.862	-32.059	16185	18335	0	444
-34.367	-35.016	16185	18210	0	444
-34.187	-35.521	16190	18054	0	444
-32.023	-31.699	16196	17882	0	444
-28.201	-26.361	16193	17694	0	444
-25.712	-22.935	16204	17581	0	444
-27.263	-23.585	16219	17710	0	444
-28.922	-26.974	16241	18018	0	444
-31.843	-28.525	16258	18210	0	444
-34.728	-29.246	16272	18202	0	444
-38.478	-31.122	16283	18106	0	444
-39.272	-31.410	16289	17946	0	444
-39.740	-31.085	16294	17734	0	444
-35.557	-29.138	16298	17497	0	444
-29.391	-24.630	16303	17329	0	444
-27.155	-21.890	16320	17389	0	444
-30.148	-26.650	16348	17694	0	444
-37.468	-34.223	16379	18126	0	444
-40.606	-41.868	16412	18535	0	444
-38.803	-42.950	16437	18719	0	444
-30.869	-35.882	16451	18623	0	444
-23.080	-27.227	16468	18451	0	444
-19.546	-23.945	16493	18435	0	444
-23.837	-23.801	16519	18535	0	444
-27.263	-28.128	16530	18467	0	444
-30.364	-31.410	16542	18146	0	444
-31.122	-30.436	16538	17710	0	444
-28.886	-30.040	16542	17229	0	444
-28.164	-31.590	16530	16720	0	444
-27.768	-31.771	16521	16192	0	444
-27.407	-33.790	16504	15655	0	444
-25.820	-31.843	16496	15143	0	444
-25.965	-29.427	16482	14754	0	444
-26.938	-28.741	16482	14658	0	444
-30.725	-30.256	16485	14798	0	444
-32.095	-32.672	16485	14866	0	444
-31.554	-34.692	16476	14758	0	444
-27.732	-32.203	16468	14582	0	444
-22.214	-26.001	16465	14489	0	444
-16.048	-18.933	16474	14650	0	444
-15.867	-18.139	16476	14994	0	444
-16.084	-17.887	16485	15219	0	444
-20.050	-23.296	16482	15235	0	444
-20.123	-24.775	16474	15167	0	444
-22.431	-24.089	16465	15050	0	444
-21.277	-23.981	16453	14890	0	444
-22.395	-23.188	16440	14710	0	444
-26.181	-23.296	16425	14518	0	444
-24.522	-23.152	16406	14325	0	444
-22.106	-17.274	16386	14145	0	444
-20.303	-14.353	16368	13989	0	444
-17.779	-14.317	16354	13941	0	444
-19.906	-17.129	16360	14253	0	444
-17.959	-17.346	16382	15034	0	444
-15.759	-15.723	16403	15916	0	444
-11.215	-10.746	16423	16564	0	444
-12.405	-8.619	16451	17161	0	444
-17.238	-13.704	16479	17786	0	444
-23.404	-20.050	16499	18178	0	444
-24.342	-25.640	16510	18263	0	444
-21.277	-21.565	16516	18178	0	444
-14.605	-14.858	16519	17986	0	444
-13.523	-8.655	16510	17702	0	444
-14.064	-9.989	16504	17361	0	444
-19.798	-15.110	16493	16992	0	444
-20.519	-19.329	16479	16600	0	444
-21.565	-21.024	16470	16284	0	444
-20.087	-17.166	16474	16216	0	444
-20.159	-13.776	16470	16352	0	444
-22.106	-12.405	16470	16388	0	444
-24.053	-15.759	16465	16232	0	444
-25.748	-18.644	16463	16072	0	444
-27.335	-25.099	16465	16144	0	444
-27.984	-27.010	16474	16380	0	444
-30.797	-27.624	16476	16476	0	444
-32.348	-26.433	16470	16364	0	444
-33.393	-25.856	16459	16156	0	444
-32.348	-26.433	16457	15988	0	444
-31.590	-28.814	16463	16032	0	444
-31.338	-28.669	16474	16332	0	444
-31.771	-29.030	16491	16756	0	444
-32.925	-27.984	16510	17165	0	444
-36.567	-32.420	16521	17437	0	444
-37.685	-34.187	16547	17694	0	444
-39.091	-36.206	16570	18066	0	444
-39.416	-36.098	16604	18491	0	444
-38.406	-32.600	16628	18819	0	444
-37.180	-29.679	16643	18867	0	444
-36.855	-28.273	16649	18607	0	444
-37.685	-30.220	16654	18258	0	444
-36.928	-30.040	16662	18058	0	444
-35.485	-29.823	16677	17970	0	444
-32.167	-26.325	16671	17734	1	808
-30.184	-21.601	16666	17269	0	808
-31.338	-22.719	16657	16776	0	808
-37.432	-27.587	16657	16484	0	808
-43.491	-35.701	16654	16368	0	808
-44.428	-39.560	16645	16132	0	808
-40.534	-36.134	16634	15699	0	808
-32.095	-28.597	16617	15279	0	808
-26.650	-22.935	16615	15102	0	808
-26.361	-23.008	16611	15114	0	808
-32.023	-25.820	16598	15030	0	808
-34.403	-28.886	16581	14750	0	808
-33.682	-26.289	16564	14393	0	808
-29.210	-22.286	16536	14025	0	808
-29.463	-17.995	16510	13664	0	808
-30.220	-21.421	16479	13336	0	808
-37.901	-28.201	16459	13115	0	808
-42.517	-35.774	16446	13179	0	808
-44.212	-38.190	16437	13472	0	808
-42.914	-37.000	16420	13688	0	808
-39.740	-33.285	16403	13732	0	808
-35.774	-28.056	16386	13724	0	808
-33.141	-23.873	16368	13724	0	808
-29.968	-21.709	16345	13712	0	808
-31.626	-21.565	16320	13692	0	808
-34.764	-21.890	16300	13684	0	808
-42.373	-29.823	16277	13704	0	808
-49.044	-36.459	16252	13740	0	808
-52.614	-39.776	16236	13796	0	808
-52.146	-37.432	16210	13884	0	808
-42.986	-28.561	16198	14085	0	808
-36.495	-20.339	16196	14542	0	808
-34.656	-17.238	16207	15271	0	808
-40.642	-25.460	16224	16128	0	808
-51.677	-39.308	16247	16944	0	808
-58.709	-48.576	16260	17541	0	808
-59.286	-49.297	16269	17862	0	808
-53.444	-42.084	16286	18098	0	808
-45.979	-33.502	16305	18559	0	808
-42.048	-30.256	16348	19364	0	808
-41.363	-28.273	16384	20158	0	808
-39.199	-28.886	16412	20546	0	808
-37.829	-27.551	16429	20558	0	808
-36.459	-24.955	16442	20366	0	808
-37.216	-24.739	16446	20037	0	808
-40.930	-26.578	16440	19593	0	808
-43.383	-28.777	16437	19080	0	808
-41.147	-27.551	16429	18531	0	808
-35.774	-24.089	16414	17962	0	808
-30.292	-21.132	16400	17385	0	808
-25.856	-18.500	16384	16828	0	808
-25.712	-16.480	16365	16312	0	808
-28.020	-19.329	16345	15828	0	808
-29.066	-20.772	16322	15375	0	808
-32.239	-23.693	16303	14978	0	808
-36.351	-26.578	16277	14642	0	808
-38.190	-26.506	16255	14357	0	808
-37.468	-25.676	16238	14125	0	808
-34.295	-23.801	16213	13961	0	808
-32.708	-21.277	16196	13864	0	808
-33.718	-24.414	16179	13816	0	808
-36.711	-29.968	16159	13800	0	808
-44.897	-34.692	16142	13812	0	808
-47.746	-37.865	16134	13937	0	808
-47.061	-35.737	16136	14337	0	808
-40.498	-30.653	16142	14946	0	808
-34.151	-26.145	16147	15467	0	808
-27.660	-23.657	16159	15864	0	808
-27.840	-25.676	16176	16420	0	808
-31.410	-27.443	16207	17209	0	808
-35.341	-27.155	16243	18074	0	808
-34.006	-25.135	16281	18839	0	808
-31.374	-23.296	16305	19320	0	808
-25.424	-22.539	16334	19565	0	808
-23.224	-21.818	16365	19853	0	808
-17.490	-22.539	16395	20198	0	808
-19.113	-19.257	16417	20326	0	808
-19.149	-17.670	16434	20150	0	808
-22.719	-18.824	16440	19805	0	808
-25.640	-19.798	16448	19444	1	316
-26.289	-24.017	16470	19336	0	316
-24.450	-21.565	16508	19609	0	316
-19.041	-18.716	16536	19913	0	316
-16.264	-15.471	16558	19869	0	316
-21.818	-17.202	16566	19513	0	316
-24.522	-21.204	16575	19000	0	316
-30.653	-25.027	16570	18383	0	316
-29.138	-24.558	16564	17706	0	316
-24.991	-19.113	16547	17000	0	316
-20.952	-18.283	16532	16296	0	316
-22.539	-20.627	16508	15603	0	316
-31.049	-29.859	16485	14938	0	316
-34.944	-35.377	16459	14325	0	316
-35.341	-34.295	16437	13864	0	316
-28.056	-25.784	16429	13732	0	316
-20.700	-17.490	16425	13852	0	316
-18.500	-14.245	16417	13917	0	316
-20.447	-14.930	16403	13824	0	316
-26.109	-21.241	16395	13768	0	316
-27.948	-24.811	16397	13969	0	316
-26.001	-23.404	16400	14369	0	316
-22.755	-23.008	16406	14754	0	316
-23.981	-20.014	16423	15171	0	316
-24.125	-20.123	16434	15671	0	316
-26.253	-24.053	16446	16016	0	316
-29.282	-26.902	16448	16104	0	316
-27.768	-28.309	16446	16044	0	316
-30.472	-26.506	16434	15900	0	316
-31.446	-25.460	16423	15703	0	316
-34.475	-25.460	16408	15471	0	316
-33.934	-27.083	16395	15227	0	316
-28.056	-27.299	16377	14986	0	316
-20.736	-23.476	16356	14758	0	316
-15.903	-15.507	16334	14546	0	316
-12.802	-12.153	16320	14433	0	316
-16.084	-12.514	16317	14598	0	316
-22.286	-16.625	16317	14962	0	316
-25.929	-23.440	16315	15223	0	316
-27.551	-26.614	16305	15303	0	316
-28.020	-23.945	16300	15395	0	316
-25.893	-21.781	16309	15703	0	316
-24.558	-18.644	16326	16248	0	316
-21.132	-17.057	16356	16988	0	316
-21.096	-17.310	16397	17950	0	316
-19.546	-16.552	16434	18855	0	316
-21.421	-18.356	16465	19348	0	316
-26.397	-21.637	16485	19456	0	316
-32.816	-28.994	16493	19348	0	316
-38.190	-34.620	16499	19092	0	316
-38.875	-35.665	16504	18803	0	316
-34.403	-31.085	16516	18695	0	316
-26.109	-21.493	16530	18711	0	316
-20.231	-16.625	16530	18559	0	316
-20.808	-16.156	16536	18166	0	316
-25.712	-22.358	16527	17674	0	316
-33.213	-28.669	16510	17145	0	316
-37.865	-31.446	16496	16584	0	316
-37.685	-30.184	16479	16096	0	316
-35.449	-27.227	16479	15856	0	316
-33.502	-27.876	16479	15900	0	316
-31.987	-29.715	16496	16196	0	316
-33.357	-31.374	16525	16748	0	316
-31.590	-30.436	16553	17301	0	316
-27.804	-20.591	16570	17577	0	316
-25.171	-15.326	16600	17846	0	316
-24.666	-13.018	16640	18383	0	316
-29.138	-19.257	16671	18875	0	316
-35.377	-27.732	16690	18952	0	316
-40.317	-33.502	16696	18639	0	316
-40.137	-33.826	16694	18130	0	316
-36.711	-27.840	16690	17589	0	316
-33.790	-22.575	16694	17225	0	316
-30.184	-18.788	16694	17004	0	316
-27.371	-20.411	16685	16648	0	316
-22.250	-19.113	16668	16096	0	316
-15.435	-19.113	16657	15547	0	316
-12.982	-18.175	16654	15311	0	316
-13.523	-17.057	16662	15503	0	316
-21.926	-17.562	16674	15796	0	316
-25.568	-20.303	16674	15792	0	316
-26.974	-20.087	16668	15587	0	316
-22.719	-16.372	16671	15507	0	316
-18.572	-16.516	16677	15619	0	316
-22.106	-17.815	16685	15804	0	316
-28.705	-23.332	16690	15936	0	316
-35.269	-27.551	16685	15852	0	316
-36.026	-28.020	16679	15599	0	316
-32.564	-24.198	16677	15471	0	316
-27.876	-20.700	16671	15467	0	316
-30.004	-20.195	16660	15315	0	316
-36.062	-26.506	16643	14930	0	316
-43.491	-33.682	16621	14534	0	316
-44.428	-37.180	16606	14361	0	316
-41.507	-36.423	16595	14365	0	316
-32.059	-29.318	16581	14345	0	316
-26.073	-20.952	16581	14465	0	316
-26.470	-21.601	16595	14946	0	316
-34.295	-27.010	16600	15491	0	316
-40.894	-35.413	16600	15695	0	316
-39.849	-37.108	16598	15675	0	316
-30.905	-28.741	16598	15772	0	316
-18.824	-15.831	16600	15968	0	316
-11.720	-10.422	16592	15984	0	316
-14.785	-11.973	16581	15828	0	316
-21.781	-19.654	16581	15804	0	316
-27.876	-28.777	16578	15904	0	316
-29.066	-30.545	16561	15840	0	316
-30.545	-29.030	16544	15555	0	316
-31.446	-29.607	16519	15179	0	316
-33.393	-31.518	16496	14842	0	316
-32.059	-32.095	16485	14738	0	316
-26.938	-31.013	16476	14898	0	316
-20.988	-24.919	16485	15291	0	316
-18.428	-20.700	16510	16004	0	316
-17.526	-17.815	16538	16944	0	316
-22.250	-22.503	16566	17714	0	316
-24.955	-27.479	16587	18098	0	316
-26.578	-30.292	16606	18343	0	316
-25.784	-30.977	16623	18563	0	316
-24.666	-27.984	16626	18523	0	316
-25.135	-29.282	16617	18170	0	316
-27.696	-31.194	16606	17650	0	316
-30.292	-34.295	16583	17033	0	316
-31.626	-34.151	16555	16360	0	316
-30.977	-31.158	16525	15663	0	316
-28.020	-27.263	16487	14978	0	316
-26.361	-25.243	16451	14325	0	316
-24.522	-23.981	16408	13720	0	316
-19.906	-22.575	16371	13187	0	316
-15.507	-20.664	16328	12739	0	316
-9.773	-14.749	16289	12378	0	316
-10.638	-13.091	16247	12102	0	316
-16.372	-13.127	16210	11917	0	316
-26.470	-20.952	16170	11817	0	316
-33.466	-27.696	16134	11789	0	316
-38.406	-36.134	16100	11817	0	316
-39.488	-40.498	16066	11897	0	316
-37.829	-40.534	16035	12038	0	316
-37.072	-38.406	16004	12234	0	316
-36.351	-36.459	15976	12474	0	316
-35.882	-34.944	15948	12751	0	316
-36.314	-35.269	15931	13151	0	316
-37.541	-36.242	15939	13921	0	316
-37.360	-36.098	15959	15147	0	316
-34.692	-34.583	15993	16516	0	316
-30.004	-29.859	16029	17798	0	316
-27.804	-27.876	16074	19000	0	316
-27.912	-28.020	16123	20133	0	316
-30.328	-32.203	16168	21087	0	316
-32.420	-35.160	16202	21688	0	316
-31.879	-37.360	16232	21920	0	316
-27.515	-35.413	16249	21888	0	316
-22.935	-31.843	16264	21668	0	316
-17.166	-26.325	16266	21295	0	316
-16.372	-23.945	16269	20823	0	316
-17.310	-20.844	16266	20274	1	624
-23.549	-25.279	16258	19669	0	624
-30.761	-33.105	16255	19124	0	624
-35.377	-38.839	16258	18831	0	624
-37.432	-42.589	16266	18731	0	624
-35.233	-40.822	16269	18527	0	624
-32.744	-38.009	16264	18134	0	624
-32.239	-36.964	16255	17666	0	624
-31.951	-37.937	16249	17185	0	624
-33.321	-37.937	16230	16700	0	624
-32.600	-34.475	16224	16312	0	624
-30.725	-30.508	16221	16184	0	624
-28.309	-28.814	16230	16272	0	624
-25.640	-27.587	16232	16372	0	624
-22.395	-28.850	16252	16536	0	624
-19.437	-25.929	16264	16824	0	624
-13.920	-22.178	16275	16972	0	624
-11.071	-20.231	16281	16884	0	624
-10.819	-17.779	16275	16676	0	624
-13.559	-20.988	16272	16420	0	624
-19.654	-22.791	16260	16140	0	624
-21.818	-24.522	16249	15836	0	624
-22.683	-25.316	16238	15527	0	624
-26.001	-29.823	16221	15231	0	624
-28.020	-33.033	16207	14962	0	624
-33.502	-38.767	16187	14730	0	624
-35.341	-39.704	16185	14598	0	624
-31.771	-36.855	16190	14830	0	624
-22.719	-31.302	16213	15531	0	624
-18.175	-25.352	16238	16328	0	624
-15.362	-22.286	16260	16872	0	624
-22.250	-27.227	16292	17361	0	624
-30.076	-33.069	16320	17882	0	624
-36.242	-40.462	16337	18178	0	624
-36.964	-41.688	16348	18170	0	624
-31.843	-37.793	16351	17986	0	624
-25.424	-30.977	16354	17702	0	624
-21.890	-26.506	16348	17345	0	624
-19.365	-25.243	16337	16952	0	624
-18.031	-23.585	16326	16532	0	624
-12.189	-20.772	16315	16108	0	624
-6.347	-15.110	16294	15703	0	624
-0.433	-12.009	16283	15407	0	624
1.623	-9.917	16283	15383	0	624
-0.541	-10.133	16292	15651	0	624
-4.940	-14.605	16309	16100	0	624
-10.278	-17.310	16328	16556	0	624
-15.975	-25.784	16339	16828	0	624
-22.070	-31.771	16356	16936	0	624
-25.027	-35.810	16373	17153	0	624
-22.935	-32.925	16395	17557	0	624
-17.129	-23.404	16423	18018	0	624
-8.799	-15.579	16451	18403	0	624
-6.708	-11.071	16470	18543	0	624
-9.232	-16.192	16487	18463	0	624
-16.444	-23.188	16504	18455	0	624
-19.906	-29.715	16525	18543	0	624
-15.326	-28.128	16530	18439	0	624
-5.265	-21.781	16542	18142	0	624
1.623	-15.831	16553	17958	0	624
3.931	-15.038	16566	17894	0	624
-2.669	-16.084	16566	17674	0	624
-12.297	-17.851	16564	17217	0	624
-18.644	-19.365	16549	16660	0	624
-18.933	-17.021	16542	16156	0	624
-18.536	-18.680	16544	15948	0	624
-12.405	-23.188	16564	16172	0	624
-9.665	-23.080	16575	16472	0	624
-5.085	-23.188	16578	16464	0	624
-3.101	-18.428	16575	16172	0	624
-4.291	-17.166	16561	15759	0	624
-6.491	-16.336	16547	15303	0	624
-11.468	-21.132	16530	14894	0	624
-15.975	-23.837	16532	14814	0	624
-14.605	-22.539	16544	15187	0	624
-12.586	-22.719	16566	15719	0	624
-9.520	-21.529	16583	16180	0	624
-9.701	-23.152	16604	16524	0	624
-13.668	-26.974	16611	16644	0	624
-17.526	-29.823	16609	16484	0	624
-21.818	-30.220	16606	16236	0	624
-21.132	-29.246	16609	16132	0	624
-19.149	-26.037	16609	16156	0	624
-9.917	-23.729	16600	16024	0	624
-1.695	-17.202	16589	15655	0	624
3.750	-14.930	16564	15171	0	624
1.442	-14.461	16538	14650	0	624
-7.862	-20.591	16510	14121	0	624
-20.195	-26.722	16474	13616	0	624
-22.034	-30.617	16437	13155	0	624
-17.779	-25.856	16403	12747	0	624
-5.662	-17.310	16365	12394	0	624
1.515	-8.583	16326	12094	0	624
1.226	-5.409	16286	11857	0	624
-1.659	-11.396	16252	11705	0	624
-9.520	-16.516	16215	11637	0	624
-14.497	-20.339	16190	11721	0	624
-12.946	-20.988	16179	12198	0	624
-9.665	-16.408	16190	13163	0	624
-4.003	-9.989	16202	14257	0	624
0.721	-5.265	16213	15042	0	624
0.974	-5.734	16215	15519	0	624
-4.147	-10.783	16210	15848	0	624
-10.242	-19.113	16213	16164	0	624
-15.651	-24.594	16221	16636	0	624
-18.392	-27.010	16243	17305	0	624
-17.562	-24.270	16275	18126	0	624
-17.598	-20.411	16317	19108	0	624
-12.297	-16.300	16362	20077	0	624
-4.616	-14.245	16406	20847	0	624
6.203	-9.412	16446	21392	0	624
14.677	-3.931	16476	21592	0	624
18.320	-2.308	16487	21416	0	624
9.773	-4.904	16499	20995	0	624
-0.505	-10.819	16499	20422	0	624
-8.583	-16.913	16487	19737	0	624
