neuroNicle FX2
D3F25R13
Bluetooth SPP
2023년 10월 30일 월요일
오후 4:12
time interval = 4msec
EEG1	EEG2	PPG	sdPPG	pulse	peak_interval(msec)
13.018	11.143	15286	17719	0	948
14.028	7.501	15395	17681	0	948
13.451	8.763	15450	17853	0	948
14.136	14.064	15450	17834	0	948
17.490	23.909	15395	17471	0	948
19.942	34.043	15231	16956	0	948
23.440	40.029	15176	16555	0	948
21.854	39.055	15011	16365	0	948
14.749	28.814	15121	16251	0	948
7.248	14.028	14846	15984	0	948
2.092	3.750	14626	15583	0	948
5.842	3.173	14461	15220	0	948
17.057	12.838	14352	14991	0	948
27.912	24.739	14187	14896	0	948
31.807	31.302	14132	15010	0	948
25.532	28.237	14297	15411	0	948
15.471	18.680	14461	15926	0	948
3.967	9.881	14571	16365	0	948
1.406	5.590	14681	16613	0	948
5.265	7.609	14846	16803	0	948
13.776	14.858	14901	16918	0	948
21.565	24.234	14901	16956	0	948
25.712	30.148	14956	17051	0	948
26.758	30.256	15011	17147	0	948
22.791	22.431	15176	17223	0	948
18.644	11.612	15121	17166	0	948
10.783	4.652	14956	16784	0	948
5.878	4.904	14681	16175	0	948
3.714	11.937	14461	15659	0	948
8.294	22.178	14352	15392	0	948
13.704	27.876	14297	15259	0	948
17.238	26.397	14132	15144	0	948
15.723	23.404	13912	15030	0	948
13.127	20.808	13802	14839	0	948
10.494	20.231	13582	14667	0	948
12.694	21.132	13472	14629	0	948
14.172	19.798	13363	14667	0	948
15.182	18.716	13198	14667	0	948
12.766	15.110	13033	14514	0	948
10.566	14.281	12758	14304	0	948
9.737	15.398	12648	14323	0	948
8.727	16.444	12648	14552	0	948
9.340	18.103	12428	14801	0	948
11.071	20.303	12428	14858	0	948
14.966	22.575	12209	14781	0	948
18.969	24.955	11934	14724	0	948
20.303	22.935	11934	14858	0	948
14.966	16.120	11824	15182	0	948
4.508	6.960	11824	15449	0	948
-3.750	0.252	11604	15526	0	948
-2.416	0.288	11549	15526	0	948
6.347	6.671	11549	15621	0	948
17.923	18.067	11439	15946	0	948
25.027	27.083	11549	16289	0	948
29.354	35.810	11549	16555	0	948
30.941	44.068	11604	16842	0	948
34.583	48.287	11879	17357	0	948
36.134	46.772	12154	18120	0	948
31.518	37.360	12538	18960	0	948
22.755	24.234	12923	19704	0	948
13.054	13.307	13363	20258	0	948
8.078	10.855	13747	20658	0	948
7.862	12.946	14132	21059	0	948
12.802	17.743	14626	21460	0	948
16.444	20.880	15011	21803	0	948
18.464	21.962	15450	22013	0	948
18.031	21.673	15835	22128	0	948
13.235	22.827	16220	22109	0	948
8.186	21.132	16548	22013	0	948
4.580	17.995	16988	21994	0	948
4.003	13.379	17482	22090	0	948
7.393	10.566	17867	22109	0	948
12.189	9.629	18307	21842	0	948
13.884	12.514	18471	21326	0	948
13.199	15.218	18691	20754	0	948
10.097	15.795	18911	20277	0	948
6.527	14.461	19131	19761	0	948
7.573	15.471	19186	19055	0	948
8.511	18.139	19131	18177	1	316
10.819	22.719	19186	17471	0	316
11.251	25.965	19241	17051	0	316
11.143	24.486	19405	16822	0	316
9.304	18.428	19570	16670	0	316
8.402	11.540	19680	16498	0	316
4.868	8.222	19845	16365	0	316
3.065	7.465	19955	16213	0	316
2.019	9.773	20120	16079	0	316
4.544	12.369	20285	16022	0	316
9.160	15.687	20504	16041	0	316
15.326	18.211	20614	16060	0	316
18.067	20.303	20834	16003	0	316
19.257	21.601	20944	16003	0	316
19.293	24.594	21329	16175	0	316
18.392	26.433	21493	16403	0	316
16.877	29.679	21713	16574	0	316
13.704	28.597	21933	16632	0	316
9.953	22.719	22263	16651	0	316
5.265	12.802	22318	16708	0	316
2.849	5.914	22537	16689	0	316
4.075	4.111	22702	16574	0	316
5.229	8.763	22812	16403	0	316
7.393	15.507	22812	16213	0	316
10.566	21.277	22812	15984	0	316
13.343	23.476	22812	15736	0	316
15.975	24.847	22977	15564	0	316
15.218	24.739	22867	15354	0	316
11.648	21.385	22702	14858	0	316
5.842	16.733	22318	14018	0	316
5.085	12.261	21988	13274	0	316
8.835	12.766	21768	12797	0	316
16.156	18.500	21493	12453	0	316
21.673	29.823	21109	12052	0	316
21.745	36.891	20834	11671	0	316
18.428	35.269	20559	11575	0	316
13.848	27.696	20504	11862	0	316
13.054	18.356	20504	12396	0	316
14.677	14.389	20504	12968	0	316
16.264	15.759	20504	13503	0	316
16.264	19.149	20394	13961	0	316
13.812	18.536	20559	14343	0	316
10.819	14.858	20559	14820	0	316
10.891	13.127	20834	15411	0	316
12.838	14.353	20889	15984	0	316
16.769	21.349	21054	16403	0	316
21.385	27.984	21109	16708	0	316
24.017	29.751	21219	17071	0	316
24.702	27.227	21493	17548	0	316
21.565	20.627	21658	17948	0	316
14.894	13.018	21878	18196	0	316
8.258	7.753	22043	18368	0	316
4.327	5.626	22208	18521	0	316
6.239	8.655	22263	18578	0	316
9.953	13.451	22427	18502	0	316
15.182	18.283	22482	18330	0	316
16.156	20.555	22482	18158	0	316
16.913	19.726	22482	17967	0	316
16.156	18.067	22482	17738	0	316
15.146	16.552	22537	17548	0	316
12.802	14.785	22592	17452	0	316
9.196	13.018	22592	17376	0	316
5.878	9.881	22592	17204	0	316
3.859	6.635	22702	17090	0	316
4.616	6.311	22867	17223	0	316
6.996	9.953	23087	17567	0	316
9.448	17.382	23252	17738	0	316
10.783	26.506	23252	17529	0	316
11.071	33.249	23142	17128	0	316
9.196	32.095	23087	16727	0	316
8.979	26.181	23032	16403	0	316
9.701	18.103	23032	16213	0	316
11.215	12.081	22977	16079	0	316
11.323	9.737	22977	15888	0	316
9.989	10.638	22702	15488	0	316
8.907	13.776	22263	14686	0	316
9.592	18.860	21768	13694	0	316
14.064	24.883	21438	12930	0	316
17.634	29.318	20944	12453	0	316
17.743	27.912	20614	12052	0	316
14.425	22.503	20230	11843	0	316
9.809	16.480	20065	11938	0	316
9.448	13.631	19790	12186	0	316
10.097	15.218	19570	12377	0	316
12.441	19.257	19296	12491	0	316
13.595	23.585	19131	12644	0	316
16.336	27.660	18966	12892	0	316
18.752	30.941	18746	13197	0	316
23.657	31.122	18636	13541	0	316
22.683	23.693	18636	13942	0	316
17.129	14.064	18416	14343	0	316
10.025	3.931	18416	14648	0	316
6.203	1.298	18197	14877	0	316
10.242	10.927	18197	15125	0	316
17.779	23.008	18087	15392	0	316
22.178	32.384	17812	15507	0	316
20.736	31.807	17537	15297	0	316
16.228	21.529	17208	14915	0	316
12.477	10.530	16933	14724	0	316
12.946	6.527	16713	14705	0	316
13.704	9.881	16384	14648	0	316
14.569	20.447	16000	14419	0	316
14.100	29.643	15560	14075	0	316
14.245	33.826	15231	13884	0	316
17.418	31.482	14956	13999	0	316
18.860	26.109	14901	14343	0	316
16.913	16.444	14681	14743	0	316
12.117	8.006	14571	15106	0	316
6.996	2.921	14461	15411	0	316
7.573	3.101	14406	15717	0	316
11.937	11.756	14352	16098	0	316
17.490	21.890	14297	16460	0	316
20.627	29.859	14297	16803	0	316
18.860	31.446	14297	17051	0	316
14.677	25.027	14297	17300	0	316
12.333	18.500	14352	17662	0	316
14.136	14.425	14406	18120	0	316
16.661	14.353	14571	18387	0	316
18.969	18.608	14297	18177	0	316
18.897	20.772	14132	17738	0	316
16.805	22.358	14187	17738	0	316
16.192	21.854	14352	18235	0	316
17.490	23.512	14461	18750	0	316
18.464	25.243	14736	19093	0	316
15.831	26.614	14846	19246	0	316
9.989	22.719	14956	19151	0	316
5.806	17.995	14901	18922	0	316
7.537	11.756	14901	18788	0	316
18.933	12.297	15011	18769	0	316
34.295	18.897	14956	18597	0	316
46.736	27.768	14846	18139	0	316
51.136	33.249	14626	17509	0	316
46.159	29.895	14406	16937	0	316
36.711	18.031	14187	16441	0	316
29.174	5.121	14022	15946	0	316
26.722	-1.731	13637	15411	0	316
27.912	-1.010	13363	14915	0	316
30.725	4.724	13198	14648	0	316
32.961	10.927	13033	14686	0	316
31.049	12.550	13088	14915	0	316
30.941	12.550	12978	15163	0	316
31.194	12.730	13033	15335	0	316
34.079	11.756	12923	15468	0	316
37.360	10.314	12978	15678	0	316
37.468	8.150	12978	15946	0	316
34.872	9.917	12978	16175	0	316
30.905	15.507	13033	16327	0	316
30.977	26.001	13033	16460	0	316
32.059	33.069	13198	16689	0	316
33.105	33.466	13198	16956	0	316
27.876	24.378	13253	17147	0	316
15.651	10.963	13308	17280	0	316
4.977	-0.072	13363	17357	0	316
1.731	-0.938	13527	17452	0	316
12.081	8.294	13582	17586	0	316
25.532	23.044	13637	17758	0	316
35.918	33.646	13857	17948	0	316
33.574	33.213	13912	18025	0	316
19.257	19.798	13912	17987	0	316
3.101	3.426	14077	17891	0	316
-6.491	-9.160	14132	17834	0	316
-7.393	-9.088	14132	17796	0	316
1.659	-0.072	14132	17586	0	316
11.684	12.730	14022	17128	0	316
20.267	22.972	13802	16517	0	316
24.198	26.974	13527	15926	0	316
25.135	25.712	13363	15488	0	316
22.395	21.962	13253	15335	0	316
17.346	15.543	13308	15354	0	316
11.540	10.350	13198	15430	0	316
8.114	7.321	13088	15449	0	316
8.475	11.684	13198	15411	0	316
15.074	18.969	13033	15468	0	316
21.673	25.856	13198	15697	0	316
23.801	29.463	13088	15907	0	316
18.536	26.325	13198	15984	0	316
11.251	19.834	13198	16041	0	316
6.708	15.038	13198	16136	0	316
7.501	14.497	13198	16194	0	316
13.595	18.211	13088	16175	0	316
17.706	22.972	13198	16155	0	316
19.546	27.407	13088	16232	0	316
20.519	28.164	13198	16403	0	316
22.972	25.604	13363	16632	0	316
25.640	21.168	13363	16899	0	316
27.083	15.074	13582	17147	0	316
22.539	10.855	13527	17223	0	316
14.281	8.150	13363	16842	0	316
8.475	13.307	13088	16136	0	316
6.094	25.207	12923	15640	0	316
10.927	40.065	12923	15564	0	316
17.526	51.677	12758	15659	0	316
20.736	51.641	12813	15755	0	316
18.356	38.586	12813	15888	0	316
13.776	20.050	12923	16098	0	316
9.340	7.176	12923	16289	0	316
10.783	5.265	12978	16479	0	316
15.218	11.540	13088	16746	0	316
17.851	20.050	13088	16899	0	316
17.490	24.919	13253	16880	0	316
13.307	24.414	13253	16899	0	316
10.386	24.234	13363	17071	0	316
11.107	23.476	13472	17300	0	316
13.127	20.844	13472	17300	0	316
16.228	16.228	13527	17147	0	316
15.435	12.117	13637	17223	0	316
13.776	13.992	13802	17605	0	316
12.766	21.926	14077	17929	0	316
12.369	30.977	14187	18063	0	316
13.559	37.144	14352	18158	0	316
14.858	35.990	14626	18349	0	316
15.975	30.184	14846	18445	0	316
16.552	23.512	14956	18425	0	316
16.769	18.680	15176	18540	0	316
14.966	15.471	15505	18884	0	316
9.520	13.415	15945	19303	0	316
3.534	11.756	16330	19704	0	316
-1.587	9.304	16713	20048	0	316
-3.029	8.547	17098	20296	0	316
1.839	8.186	17373	20353	0	316
9.160	10.566	17537	20009	0	316
16.661	15.182	17537	19265	0	316
21.024	18.500	17647	18635	0	316
21.781	22.719	17812	18368	1	892
21.204	24.306	17922	18216	0	892
19.618	24.306	18087	18063	0	892
17.526	24.739	18307	17987	0	892
14.821	22.791	18581	17987	0	892
10.458	20.014	18856	17987	0	892
7.898	17.995	19131	18006	0	892
8.294	15.939	19405	18082	0	892
14.785	16.300	19570	18063	0	892
22.286	20.555	19570	17719	0	892
28.237	26.578	19680	17147	0	892
28.669	32.961	19680	16689	0	892
22.250	33.393	19735	16384	0	892
11.215	27.299	19790	16117	0	892
1.406	14.930	19570	15640	0	892
-4.796	3.859	19515	15068	0	892
-4.580	0.288	19460	14762	0	892
3.498	6.167	19680	14858	0	892
15.038	19.798	19790	15144	0	892
22.755	29.679	19955	15430	0	892
25.856	31.879	20120	15640	0	892
18.824	22.935	20285	15812	0	892
7.862	13.018	20504	15946	0	892
-4.039	6.094	20504	15965	0	892
-9.845	9.124	20504	15850	0	892
-11.504	18.788	20559	15678	0	892
-8.979	29.138	20394	15507	0	892
-4.796	35.882	20504	15354	0	892
0.288	36.134	20504	15373	0	892
4.688	31.987	20614	15507	0	892
8.979	24.991	20614	15602	0	892
8.475	17.093	20779	15640	0	892
4.255	11.071	20779	15736	0	892
-4.111	9.088	20944	15946	0	892
-12.550	10.242	20944	16060	0	892
-13.812	14.533	20834	15774	0	892
-9.701	20.627	20614	15144	0	892
-0.072	24.522	20340	14610	0	892
9.484	27.227	20230	14304	0	892
12.802	26.578	20010	14209	0	892
10.783	21.818	20065	14285	0	892
4.580	16.408	20010	14495	0	892
0.433	8.943	20065	14781	0	892
0.577	6.744	20065	15049	0	892
5.265	10.242	20230	15297	0	892
10.674	19.834	20285	15545	0	892
13.018	32.095	20285	15812	0	892
13.776	38.442	20340	16003	0	892
10.602	34.295	20285	16022	0	892
8.511	23.260	20285	15869	0	892
3.462	8.835	20010	15621	0	892
-1.803	0.938	19845	15259	0	892
-6.131	1.875	19570	14972	0	892
-6.635	9.232	19515	14877	0	892
-1.406	19.942	19405	14915	0	892
6.275	27.191	19296	15010	0	892
12.622	28.273	19296	15106	0	892
15.795	24.883	19241	15316	0	892
15.795	19.257	19296	15640	0	892
14.930	14.533	19241	15926	0	892
13.451	15.326	19405	16117	0	892
14.569	21.962	19460	16308	0	892
16.048	31.590	19460	16593	0	892
20.988	43.130	19570	16918	0	892
26.289	49.766	19570	17090	0	892
30.328	49.874	19735	17128	0	892
29.318	38.262	19790	17147	0	892
25.171	23.621	19735	17185	0	892
19.906	11.396	19790	17204	0	892
18.175	7.789	19735	17185	0	892
17.779	12.622	19845	17223	0	892
18.139	20.700	19845	17319	0	892
19.041	30.328	20010	17414	0	892
20.664	36.891	19955	17395	0	892
23.693	42.770	20120	17319	0	892
25.568	41.327	20230	17319	0	892
23.296	31.843	20065	17261	0	892
15.435	19.401	20010	16937	0	892
7.573	11.287	19845	16498	0	892
3.354	13.848	19790	16251	0	892
4.219	22.322	19680	16136	0	892
7.789	26.542	19570	15965	0	892
6.960	20.303	19296	15621	0	892
3.642	8.114	19241	15220	0	892
2.128	1.118	19021	14953	0	892
3.173	3.173	18746	14801	0	892
8.439	12.910	18691	14705	0	892
14.281	24.017	18581	14591	0	892
15.254	28.777	18307	14400	0	892
11.360	27.948	18032	14228	0	892
5.770	22.755	17867	14171	0	892
1.442	18.860	17812	14247	0	892
2.705	15.975	17647	14362	0	892
7.068	17.057	17537	14457	0	892
13.559	20.519	17482	14610	0	892
18.031	23.765	17373	14896	0	892
19.510	25.388	17373	15239	0	892
16.480	22.214	17373	15602	0	892
10.566	13.920	17482	15869	0	892
3.426	4.977	17482	16117	0	892
-1.839	-0.685	17482	16384	0	892
-2.921	0.685	17537	16689	0	892
-0.433	10.242	17537	16880	0	892
4.291	18.283	17537	16937	0	892
6.671	23.296	17482	16880	0	892
5.986	19.942	17318	16689	0	892
4.291	15.795	17208	16403	0	892
5.085	16.372	17043	16213	0	892
9.016	23.837	16933	16117	0	892
16.769	33.213	16768	16022	0	892
23.404	38.622	16548	15831	0	892
26.470	35.449	16384	15507	0	892
26.433	24.991	16110	15144	0	892
21.890	16.228	16000	15010	0	892
19.870	10.855	15835	15163	0	892
17.995	14.317	15725	15316	0	892
17.382	21.998	15505	15239	0	892
17.382	28.994	15286	14953	0	892
17.346	35.016	15011	14724	0	892
16.264	35.665	14956	14724	0	892
15.759	31.590	14846	14953	0	892
12.730	24.883	14681	15201	0	892
10.746	18.824	14626	15297	0	892
10.242	15.903	14461	15354	0	892
12.369	16.516	14461	15430	0	892
18.536	19.149	14187	15526	0	892
23.585	22.250	14132	15526	0	892
26.758	24.847	13912	15449	0	892
26.217	28.886	13747	15354	0	892
23.549	30.040	13527	15392	0	892
17.129	27.948	13582	15583	0	892
11.720	21.529	13472	15869	0	892
7.248	15.579	13472	16155	0	892
7.862	16.661	13363	16327	0	892
10.855	25.820	13198	16251	0	892
16.372	35.882	13088	16060	0	892
20.339	39.849	12978	16079	0	892
21.890	34.764	13033	16384	0	892
19.185	20.736	13033	16670	0	892
15.254	12.225	12978	16861	0	892
13.235	9.809	13033	17051	0	892
15.651	16.012	13088	17357	0	892
22.178	24.666	13308	17738	0	892
28.453	27.984	13363	18063	0	892
29.246	27.155	13472	18158	0	892
21.277	21.890	13527	18120	0	892
11.864	20.267	13582	18196	0	892
3.823	21.709	13857	18521	0	892
3.282	26.289	14187	19074	0	892
11.720	31.338	14406	19551	0	892
21.349	34.079	14681	19723	0	892
12.225	19.185	19131	12281	0	824
17.887	22.683	18911	12148	0	824
11.612	21.709	18856	12301	0	824
2.272	16.913	18746	12549	0	824
1.190	16.661	18581	12701	0	824
10.963	22.503	18416	12720	0	824
28.237	31.482	18362	12778	0	824
39.127	34.259	18142	12930	0	824
37.108	26.073	18087	13197	0	824
22.503	13.956	18087	13579	0	824
4.039	3.570	18087	13961	0	824
-6.816	2.669	17922	14247	0	824
-8.943	10.746	17867	14419	0	824
-4.868	20.375	17757	14552	0	824
2.164	28.705	17647	14743	0	824
8.222	29.931	17592	14839	0	824
10.674	28.597	17482	14839	0	824
12.405	24.342	17208	14743	0	824
13.668	19.834	16988	14629	0	824
13.848	19.762	16768	14514	0	824
17.310	23.657	16493	14419	0	824
19.618	30.472	16330	14400	0	824
19.762	33.790	16220	14476	0	824
17.346	31.879	16055	14686	0	824
8.547	23.404	16000	14991	0	824
1.911	9.953	16000	15354	0	824
-2.488	-0.433	16000	15755	0	824
2.308	-4.003	16000	16175	0	824
10.566	1.479	16055	16517	0	824
19.185	15.903	16220	16861	0	824
21.168	32.167	16220	17185	0	824
15.435	43.058	16275	17414	0	824
9.556	45.438	16275	17490	0	824
4.904	41.868	16110	17395	0	824
7.717	35.052	16110	17261	0	824
12.982	30.004	16110	17319	0	824
20.447	26.037	16220	17529	0	824
25.171	22.358	16220	17719	0	824
24.414	20.087	16275	17853	0	824
19.870	19.077	16330	17948	0	824
12.730	22.070	16384	18006	0	824
4.940	24.342	16438	18082	0	824
5.698	24.306	16548	18177	0	824
12.766	23.296	16658	18273	0	824
23.476	20.844	16713	18273	0	824
28.669	22.863	16768	18158	0	824
27.047	28.273	16933	18101	0	824
18.175	36.134	16988	18158	0	824
7.825	38.442	17043	18235	0	824
5.373	31.013	17208	18235	0	824
8.907	19.870	17318	18196	0	824
17.887	10.999	17482	18196	0	824
23.981	11.684	17537	18196	0	824
23.909	21.529	17647	18158	0	824
16.048	32.636	17812	18082	0	824
7.212	35.088	17922	18063	0	824
4.003	30.581	18032	18006	0	824
8.763	23.332	18032	17815	0	824
19.221	21.204	18032	17490	0	824
29.427	26.470	17922	17090	0	824
28.886	32.348	17757	16574	0	824
22.070	34.475	17537	15926	0	824
11.179	29.246	17318	15259	0	824
3.787	21.421	17043	14743	0	824
2.272	14.894	16823	14419	0	824
7.825	16.625	16658	14152	0	824
16.336	25.460	16384	13808	0	824
25.676	35.557	16055	13369	0	824
32.997	40.858	15725	12968	0	824
34.980	37.685	15505	12797	0	824
30.184	27.371	15395	12911	0	824
21.601	17.706	15176	13083	0	824
15.398	16.012	14901	13102	0	824
13.127	21.890	14461	12720	0	824
16.841	28.128	14077	12167	0	824
20.159	30.508	13637	11919	0	824
19.257	29.751	13308	12052	0	824
14.136	28.669	13198	12377	0	824
5.409	29.823	12978	12759	0	824
-2.813	31.302	12978	13236	0	824
-3.714	26.578	12813	13846	0	824
2.596	20.736	12978	14514	0	824
16.156	17.238	12923	15106	0	824
31.013	18.933	12923	15564	0	824
37.216	23.440	12923	15926	0	824
33.682	23.188	12923	16346	0	824
22.106	18.356	13033	16784	0	824
8.655	11.504	13033	17223	0	824
-1.118	8.186	13253	17662	0	824
-5.085	11.792	13308	18120	0	824
-2.308	17.562	13472	18464	0	824
6.167	23.945	13582	18654	0	824
17.346	27.912	13637	18769	0	824
24.847	25.496	13747	18845	0	824
21.457	19.978	13802	18845	0	824
8.835	12.910	13802	18731	0	824
-2.633	9.629	13802	18540	0	824
-5.842	14.172	13802	18311	0	824
5.914	23.621	13747	18216	0	824
23.368	31.951	13802	18196	0	824
33.466	34.620	13802	18063	0	824
34.620	32.925	13637	17662	0	824
29.066	32.239	13527	17147	0	824
26.253	35.485	13308	16708	0	824
26.397	40.353	13088	16365	0	824
26.650	39.488	12978	15965	0	824
22.611	33.069	12538	15430	0	824
15.110	20.916	12374	14820	0	824
11.684	13.776	11934	14323	0	824
15.507	15.975	11714	14037	0	824
22.755	24.198	11439	13923	0	824
27.804	33.610	11275	13884	0	824
26.542	38.045	11110	13904	0	824
17.706	34.656	10890	14018	0	824
9.665	25.748	10780	14152	0	824
3.354	16.733	10615	14247	0	824
3.895	12.946	10505	14343	0	824
8.691	16.480	10341	14476	0	824
17.093	26.253	10176	14629	0	824
26.037	36.603	10011	14686	0	824
31.554	40.462	9736	14514	0	824
33.826	37.036	9406	14171	0	824
31.049	28.525	9077	13904	0	824
26.073	22.286	8637	13713	0	824
18.175	20.087	8308	13541	0	824
11.864	20.988	8033	13446	0	824
7.032	18.897	7813	13636	0	824
6.347	15.038	7703	13999	0	824
6.671	13.920	7538	14362	0	824
7.285	16.156	7319	14552	0	824
5.770	23.152	6989	14476	0	824
4.400	30.220	6659	14323	0	824
10.494	32.997	6439	14285	0	824
19.401	30.040	6330	14495	0	824
29.931	26.578	6110	14839	0	824
31.662	23.621	5890	15144	0	824
26.686	20.195	5835	15278	0	824
17.021	17.887	5560	15354	0	824
11.684	17.310	5505	15545	0	824
11.360	20.231	5395	15926	0	824
13.776	25.352	5286	16308	0	824
15.651	30.761	5341	16593	0	824
15.435	27.047	5341	16956	0	824
14.497	15.362	5505	17490	0	824
10.350	0.433	5560	18006	0	824
4.832	-4.724	5615	18368	0	824
2.813	7.285	5780	18597	0	824
3.787	27.119	5780	18712	0	824
8.871	41.003	5780	18788	0	824
12.874	36.711	5945	18884	0	824
14.641	20.087	6055	19055	0	824
13.271	7.140	6165	19303	0	824
13.163	6.816	6384	19494	0	824
15.002	18.139	6494	19647	0	824
17.238	25.496	6714	19838	0	824
16.156	22.250	7154	20181	0	824
13.091	11.251	7483	20601	0	824
11.287	5.121	7758	20925	0	824
12.802	8.330	8143	20945	0	824
20.303	19.870	8253	20754	0	824
27.479	31.626	8363	20410	0	824
34.151	37.577	8417	19971	0	824
33.393	35.485	8582	19590	0	824
24.594	27.479	8637	19303	1	792
14.858	18.680	8692	18941	0	792
5.013	13.740	8857	18635	0	792
2.272	14.208	8967	18521	0	792
6.527	18.031	9132	18464	0	792
13.307	22.322	9242	18273	0	792
19.257	21.385	9242	17910	0	792
21.132	19.906	9242	17452	0	792
16.228	17.923	9352	17090	0	792
10.061	19.221	9406	16937	0	792
7.862	19.726	9516	16918	0	792
10.314	18.572	9681	16918	0	792
16.192	12.477	9791	16918	0	792
17.274	6.347	9956	16975	0	792
11.179	1.623	10176	17051	0	792
-2.164	2.308	10450	17185	0	792
-11.900	6.491	10725	17395	0	792
-11.468	11.432	10890	17719	0	792
2.236	15.002	11330	18101	0	792
18.536	15.182	11824	18464	0	792
29.607	14.641	12099	18750	0	792
29.607	17.274	12538	19055	0	792
22.034	21.349	12923	19361	0	792
16.228	25.929	13472	19590	0	792
16.156	27.804	13802	19761	0	792
17.743	23.801	14187	19914	0	792
17.743	14.208	14626	20029	0	792
7.212	4.760	15121	20067	0	792
-3.570	-2.380	15395	19933	0	792
-12.261	-1.947	15670	19666	0	792
-7.645	7.573	15945	19361	0	792
1.587	21.854	16220	19074	0	792
14.245	33.069	16493	18960	0	792
20.988	37.793	16768	18922	0	792
23.080	33.177	16988	18635	0	792
19.293	25.388	16988	17910	0	792
17.238	20.014	16933	16975	0	792
17.887	20.808	16933	16232	0	792
20.159	27.876	16933	15793	0	792
21.673	31.302	16933	15507	0	792
18.356	25.820	16933	15125	0	792
5.481	9.340	16823	14667	0	792
-11.612	-8.366	16823	14362	0	792
-23.008	-16.733	16823	14247	0	792
-20.231	-5.301	16933	14171	0	792
-2.092	19.762	16933	14094	0	792
24.919	42.697	16933	13961	0	792
42.229	49.621	16768	13827	0	792
42.337	37.757	16768	13789	0	792
29.282	18.175	16823	13865	0	792
10.819	2.344	16823	14037	0	792
2.560	-0.325	16933	14171	0	792
3.210	8.583	16823	14171	0	792
10.061	17.490	16768	14133	0	792
12.081	21.998	16823	14228	0	792
9.520	22.395	16823	14476	0	792
5.986	19.077	16933	14743	0	792
6.419	17.562	16988	14915	0	792
12.117	16.985	17043	15087	0	792
16.877	15.254	17098	15278	0	792
17.634	12.802	17263	15545	0	792
13.992	8.547	17318	15907	0	792
7.032	6.744	17482	16194	0	792
2.019	5.301	17482	16175	0	792
0.938	4.616	17318	15965	0	792
1.911	8.979	17318	15793	0	792
6.058	15.615	17263	15640	0	792
12.694	25.171	17098	15430	0	792
18.572	31.987	16823	15010	0	792
22.395	31.626	16493	14400	0	792
20.988	22.719	16275	13846	0	792
16.516	13.631	16055	13636	0	792
10.494	12.009	15945	13732	0	792
9.016	20.772	15780	13904	0	792
9.160	36.459	15670	14018	0	792
13.631	48.900	15450	14094	0	792
15.146	45.907	15395	14190	0	792
16.012	30.400	15231	14304	0	792
13.559	9.448	15121	14419	0	792
9.520	-6.744	14956	14514	0	792
7.285	-7.429	14901	14648	0	792
5.590	4.039	14846	14915	0	792
5.121	19.293	14901	15259	0	792
7.825	30.833	14901	15678	0	792
11.035	31.374	14901	16041	0	792
14.461	25.460	14901	16232	0	792
15.759	16.625	14846	16289	0	792
15.038	12.622	14846	16289	0	792
9.809	14.136	14736	16365	0	792
8.258	18.824	14681	16441	0	792
8.691	23.837	14626	16479	0	792
14.028	25.604	14626	16479	0	792
20.195	28.020	14461	16479	0	792
25.929	26.650	14406	16517	0	792
27.083	26.470	14406	16593	0	792
25.099	24.162	14461	16765	0	792
21.421	22.322	14571	17032	0	792
17.418	19.870	14626	17280	0	792
13.018	20.123	14681	17395	0	792
8.475	19.437	14626	17414	0	792
4.796	17.887	14736	17471	0	792
0.577	16.444	14846	17605	0	792
2.488	16.372	14846	17681	0	792
9.520	17.779	14846	17624	0	792
18.860	18.824	14846	17529	0	792
24.558	17.093	14901	17452	0	792
22.899	15.002	14901	17433	0	792
18.572	15.507	14956	17490	0	792
15.398	22.503	15011	17529	0	792
16.084	31.302	15011	17529	0	792
17.959	33.682	15176	17490	0	792
15.471	25.748	15231	17471	0	792
7.537	11.071	15286	17529	0	792
0.685	0.433	15286	17586	0	792
0.938	3.065	15286	17509	0	792
7.862	16.012	15395	17338	0	792
18.067	32.131	15450	17223	0	792
23.837	40.281	15505	17280	0	792
22.899	36.747	15670	17357	0	792
15.579	25.279	15670	17300	0	792
9.268	13.920	15725	17166	0	792
7.681	8.366	15725	17032	0	792
11.828	12.946	15780	16994	0	792
15.903	22.539	15835	17032	0	792
16.841	29.391	16055	17166	0	792
12.766	30.076	16220	17319	0	792
9.520	25.027	16275	17414	0	792
9.484	23.693	16384	17395	0	792
15.038	27.191	16384	17280	0	792
21.601	35.377	16384	17071	0	792
22.395	38.334	16330	16765	0	792
18.031	32.131	16220	16327	0	792
8.727	20.844	16000	15736	0	792
3.282	13.487	15725	15163	0	792
4.039	14.461	15505	14743	0	792
8.547	22.899	15395	14514	0	792
15.074	32.744	15286	14362	0	792
15.723	36.964	14956	14114	0	792
13.812	34.187	14681	13808	0	792
12.586	29.354	14571	13598	0	792
17.959	23.801	14352	13541	0	792
26.506	23.512	14132	13560	0	792
29.931	26.758	14022	13694	0	792
27.443	30.905	13912	13865	0	792
18.356	32.276	13857	14114	0	792
9.917	28.633	13857	14476	0	792
8.547	22.322	13857	14839	0	792
13.776	16.408	13857	15163	0	792
18.320	16.661	13802	15335	0	792
18.897	20.591	13747	15430	0	792
13.992	25.856	13747	15602	0	792
11.035	30.689	13637	15831	0	792
10.674	30.581	13637	16022	0	792
16.913	29.138	13747	16117	0	792
23.657	26.686	13582	16213	0	792
22.611	21.349	13747	16422	0	792
14.353	13.956	13747	16746	0	792
1.911	6.491	13802	17051	0	792
-8.835	1.118	14022	17319	0	792
-11.323	0.649	14022	17567	0	792
-6.419	3.859	14022	17681	0	792
2.705	11.684	14077	17643	0	792
9.196	17.238	14077	17548	0	792
11.396	22.070	14022	17433	0	792
8.042	23.260	13912	17166	0	792
1.623	17.202	13747	16708	0	792
-2.560	10.602	13472	16175	0	792
-3.210	5.770	13308	15812	0	792
3.462	9.917	13253	15736	0	792
12.694	18.464	13033	15717	0	792
19.401	31.915	12923	15545	0	792
23.044	38.983	12648	15220	0	792
20.519	41.039	12428	14858	0	792
17.418	36.711	12154	14610	0	792
16.012	32.312	12099	14572	0	792
20.916	31.699	11934	14781	0	792
24.811	34.006	11934	15068	0	792
26.073	37.396	11989	15335	0	792
22.178	39.019	11934	15602	0	792
17.887	36.855	11989	15888	0	792
18.680	34.115	11934	16155	0	792
26.686	33.429	11989	16365	0	792
36.928	35.269	11934	16479	0	792
42.084	36.387	11989	16593	0	792
35.413	32.853	11989	16727	0	792
22.683	25.388	11989	16899	0	792
10.422	15.110	12154	17032	0	792
6.094	10.819	12099	17147	0	792
8.979	13.199	12154	17204	0	792
14.605	24.234	12099	17185	0	792
20.195	36.855	12099	17051	0	792
22.214	43.743	11934	16937	0	792
23.585	42.193	11934	16842	0	792
23.621	35.521	11879	16670	0	792
23.296	26.109	11714	16460	0	792
20.916	19.293	11659	16270	0	792
16.192	16.589	11439	16117	0	792
10.999	16.877	11384	16022	0	792
6.960	18.175	11384	15965	0	792
5.590	19.942	11110	15812	0	792
8.186	20.664	10890	15430	0	792
15.867	20.952	10615	14953	0	792
22.431	23.260	10341	14629	0	792
21.781	28.237	10176	14514	0	792
16.625	31.554	10011	14533	0	792
4.868	26.542	9901	14610	0	792
-4.580	16.336	9791	14667	0	792
-7.429	4.075	9626	14781	0	792
-1.046	2.164	9406	14781	0	792
10.133	12.586	9077	14400	0	792
26.253	31.951	8637	13808	0	792
38.190	49.116	8308	13426	0	792
42.409	56.185	8033	13446	0	792
38.406	50.379	7868	13732	0	792
25.820	37.288	7758	14114	0	792
13.235	22.611	7703	14514	0	792
6.058	12.838	7703	14915	0	792
4.724	8.078	7703	15354	0	792
6.816	10.458	7593	15736	0	792
9.412	13.812	7703	16136	0	792
7.140	18.572	7868	16651	0	792
7.248	23.549	8033	17357	0	792
6.239	29.463	8363	18158	0	792
7.032	33.393	8692	18960	0	792
9.340	31.915	9132	19742	0	792
10.819	26.506	9516	20525	0	792
11.540	18.283	10176	21364	0	792
13.920	9.088	10725	22147	0	792
17.310	6.816	11275	22681	0	792
21.529	10.602	11714	23082	0	792
25.027	21.313	12374	23483	0	792
25.640	32.312	12813	23788	0	792
22.863	38.370	13472	23903	0	792
14.281	36.098	13912	23884	0	792
5.409	22.322	14406	23826	0	792
-3.426	8.619	14901	23654	0	792
-4.327	2.092	15286	23330	0	792
-0.865	6.239	15725	22929	1	948
8.511	15.110	16055	22452	0	948
19.401	23.909	16275	21880	0	948
24.811	24.017	16438	21154	0	948
25.784	17.490	16713	20544	0	948
19.762	11.360	17098	20200	0	948
11.720	10.710	17482	20124	0	948
6.419	13.776	18087	20296	0	948
5.878	19.726	18691	20601	0	948
8.475	21.277	19241	20716	0	948
10.999	19.762	19570	20448	0	948
11.360	21.024	20010	19971	0	948
10.133	26.542	20285	19513	0	948
12.550	36.242	20669	19151	0	948
18.572	44.428	20889	18788	0	948
26.686	41.616	21164	18387	0	948
26.253	29.895	21438	17948	0	948
19.113	16.552	21658	17567	0	948
6.816	9.016	21933	17204	0	948
-2.849	9.124	22043	16784	0	948
-1.154	16.877	22208	16346	0	948
9.232	25.352	22263	15946	0	948
20.952	30.292	22482	15583	0	948
30.256	31.807	22537	15220	0	948
28.705	29.931	22592	14858	0	948
21.349	26.001	22592	14533	0	948
9.737	21.385	22592	14266	0	948
-0.397	18.103	22812	14190	0	948
-3.859	16.408	23087	14514	0	948
0.938	15.290	23416	14972	0	948
12.441	15.507	23581	15144	0	948
25.424	17.670	23636	14915	0	948
32.853	21.818	23581	14495	0	948
33.429	27.624	23526	14094	0	948
28.814	32.672	23416	13827	0	948
20.483	35.124	23362	13636	0	948
13.343	32.672	23307	13369	0	948
7.862	25.712	23087	13026	0	948
4.940	18.644	22867	12720	0	948
2.813	11.612	22757	12549	0	948
3.354	6.058	22592	12434	0	948
3.426	3.173	22427	12396	0	948
2.560	-0.216	22263	12377	0	948
1.587	-0.685	22153	12377	0	948
4.075	4.364	21933	12434	0	948
8.943	14.713	21713	12472	0	948
16.877	25.424	21603	12472	0	948
22.503	31.807	21384	12415	0	948
24.594	31.085	20944	12320	0	948
23.224	25.640	20834	12262	0	948
22.070	22.935	20559	12358	0	948
21.349	23.981	20394	12549	0	948
19.834	26.397	20120	12720	0	948
13.776	26.433	20010	12892	0	948
4.688	21.565	19790	13159	0	948
-1.551	12.730	19735	13484	0	948
-0.577	7.140	19515	13846	0	948
9.845	5.229	19515	14228	0	948
23.404	12.369	19515	14667	0	948
34.547	22.395	19405	15068	0	948
36.711	35.557	19296	15259	0	948
30.653	42.517	19131	15316	0	948
20.339	41.507	18966	15373	0	948
12.153	32.528	18911	15468	0	948
7.789	20.952	18691	15545	0	948
4.111	14.605	18471	15564	0	948
1.551	14.461	18416	15602	0	948
-1.154	20.772	18307	15697	0	948
-2.560	25.063	18142	15926	0	948
0.036	25.820	18307	16327	0	948
5.914	19.546	18307	16689	0	948
7.321	7.753	18362	16975	0	948
5.409	-2.524	18362	17300	0	948
5.878	-8.222	18416	17643	0	948
9.196	-0.072	18581	17891	0	948
15.975	19.546	18581	18025	0	948
25.207	44.212	18471	18044	0	948
28.164	58.565	18581	18006	0	948
27.660	59.358	18581	17967	0	948
25.496	46.159	18581	17929	0	948
26.650	31.049	18471	17834	0	948
27.155	24.522	18362	17567	0	948
29.391	25.965	18142	17051	0	948
30.076	34.980	17867	16498	0	948
30.905	42.950	17647	16194	0	948
27.479	45.618	17537	16060	0	948
20.303	39.849	17482	15946	0	948
9.737	28.922	17318	15812	0	948
1.370	16.733	17263	15755	0	948
-2.524	9.232	17098	15755	0	948
2.560	11.540	17043	15831	0	948
11.720	21.024	17043	15984	0	948
23.008	30.328	17043	16136	0	948
30.328	37.216	16933	16232	0	948
35.269	38.767	16933	16175	0	948
35.737	35.413	16713	16041	0	948
30.508	29.427	16658	15984	0	948
24.775	23.981	16548	16041	0	948
19.473	20.231	16493	16003	0	948
17.887	21.349	16330	15831	0	948
16.697	25.748	16220	15621	0	948
15.038	31.879	16000	15488	0	948
14.461	33.970	15945	15488	0	948
13.992	31.879	15835	15602	0	948
18.572	25.532	15945	15774	0	948
24.739	20.050	15780	15888	0	948
28.561	17.454	15670	15869	0	948
26.542	17.238	15505	15774	0	948
20.123	20.050	15395	15697	0	948
15.975	24.125	15231	15621	0	948
16.120	28.525	15011	15449	0	948
20.808	31.554	14901	15297	0	948
21.962	33.502	14736	15335	0	948
15.290	31.987	14736	15583	0	948
3.426	28.237	14681	15926	0	948
-4.039	21.926	14736	16213	0	948
-1.839	17.670	14736	16327	0	948
10.422	17.526	14571	16213	0	948
23.873	19.293	14187	15755	0	948
29.535	21.385	13857	15182	0	948
27.840	22.899	13582	14820	0	948
21.313	22.972	13308	14705	0	948
14.894	23.152	13253	14724	0	948
10.602	24.414	13033	14839	0	948
4.904	23.008	12978	15010	0	948
-0.793	17.093	12813	15182	0	948
-2.344	11.251	12648	15278	0	948
3.210	12.009	12538	15316	0	948
12.369	19.473	12264	15220	0	948
22.431	31.266	12099	15030	0	948
24.378	38.803	11934	14991	0	948
20.988	35.882	11824	15163	0	948
12.658	26.289	11714	15392	0	948
5.986	14.461	11549	15583	0	948
4.868	4.327	11604	15831	0	948
5.049	1.695	11604	16155	0	948
8.691	7.032	11604	16517	0	948
12.514	18.860	11714	16899	0	948
16.877	31.338	11714	17261	0	948
16.733	38.695	11824	17509	0	948
14.317	36.351	11879	17643	0	948
9.160	24.955	11934	17853	0	948
5.337	10.783	12099	18101	0	948
6.708	1.370	12154	18330	0	948
13.054	2.128	12264	18502	0	948
22.395	14.641	12264	18597	0	948
28.994	34.475	12483	18712	0	948
28.597	51.929	12538	18845	0	948
26.109	54.959	12758	18941	0	948
20.844	40.570	12813	18960	0	948
13.163	18.031	13033	18960	0	948
7.681	-1.406	13088	18922	0	948
0.397	-5.590	13253	18826	0	948
-2.344	2.236	13363	18731	0	948
-2.416	12.297	13472	18712	0	948
-0.541	15.759	13637	18693	0	948
-2.128	9.556	13747	18654	0	948
-5.626	3.065	13802	18521	0	948
-9.088	2.019	14022	18330	0	948
-6.599	8.150	14022	18158	0	948
1.947	16.841	14077	18044	0	948
10.674	20.303	14187	17910	0	948
14.389	17.021	14297	17719	0	948
12.477	13.523	14297	17433	0	948
12.153	18.752	14132	16994	0	948
15.507	30.977	13912	16308	0	948
21.421	43.130	13527	15373	0	948
22.431	40.858	13198	14495	0	948
13.054	22.935	12813	13770	0	948
0.252	-0.974	12428	13236	0	948
-7.970	-12.441	12209	12930	0	948
-7.573	-4.652	11934	12854	0	948
2.560	17.346	11824	12892	0	948
13.415	38.045	11714	12988	0	948
18.356	44.032	11549	13121	0	948
18.175	35.846	11439	13312	0	948
10.891	19.329	11384	13617	0	948
1.911	1.803	11275	13923	0	948
-5.337	-7.970	11275	14152	0	948
-6.347	-5.842	11165	14400	0	948
-0.180	5.409	11275	14858	0	948
7.465	23.404	11384	15411	0	948
10.963	35.557	11384	15984	0	948
6.455	34.944	11659	16498	0	948
-2.380	21.060	11824	16956	0	948
-6.347	3.714	11824	17223	0	948
-2.560	-4.796	11934	17376	0	948
10.206	1.695	11934	17509	0	948
24.306	18.175	12154	17758	0	948
31.482	34.583	12209	18025	0	948
28.489	38.911	12483	18216	0	948
19.221	31.843	12538	18368	0	948
8.799	20.411	12758	18502	0	948
6.527	13.559	12758	18578	0	948
7.248	16.192	12978	18597	0	948
11.937	22.935	13033	18559	0	948
12.658	28.777	13253	18578	0	948
13.848	28.309	13363	18693	0	948
15.579	27.155	13637	18903	0	948
23.296	27.660	14022	19170	0	948
31.374	31.194	14297	19456	0	948
34.115	31.518	14626	19666	0	948
28.020	27.551	14901	19780	0	948
17.418	19.654	15231	19876	0	948
11.035	16.120	15395	19800	0	948
11.937	19.654	15505	19456	0	948
17.274	26.470	15560	19074	0	948
20.087	30.364	15725	18769	0	948
15.867	30.869	15945	18559	1	832
11.323	28.922	16220	18578	0	832
6.419	29.138	16548	18864	0	832
7.501	31.482	16988	19227	0	832
8.727	28.777	17263	19303	0	832
8.186	22.070	17482	19113	0	832
12.045	15.002	17647	18884	0	832
20.303	13.379	17867	18712	0	832
30.725	20.916	18197	18635	0	832
37.144	29.931	18471	18597	0	832
32.889	34.836	18691	18483	0	832
19.293	29.968	18911	18292	0	832
2.957	14.966	19131	18063	0	832
-7.465	1.623	19241	17815	0	832
-11.540	-3.101	19405	17567	0	832
-8.258	6.094	19460	17185	0	832
1.406	21.890	19296	16593	0	832
11.792	36.026	19296	15946	0	832
20.772	37.468	19296	15411	0	832
24.594	26.974	19131	14953	0	832
23.981	11.648	19021	14572	0	832
17.851	1.370	18911	14190	0	832
13.740	-0.036	18746	13827	0	832
12.477	5.049	18746	13694	0	832
10.891	11.576	18966	13999	0	832
9.484	15.110	19131	14591	0	832
9.701	15.074	19405	15144	0	832
9.016	15.002	19460	15354	0	832
13.595	16.805	19460	15278	0	832
15.074	21.132	19515	15182	0	832
12.730	24.378	19460	15220	0	832
8.006	21.168	19515	15278	0	832
1.623	11.864	19515	15278	0	832
1.082	3.318	19515	15201	0	832
5.878	-1.442	19515	15144	0	832
12.225	1.659	19405	15087	0	832
16.444	7.501	19460	15068	0	832
14.641	8.222	19405	15049	0	832
6.419	5.914	19296	15010	0	832
-0.541	2.777	19296	15049	0	832
-6.816	4.904	19241	15182	0	832
-7.176	10.891	19405	15411	0	832
-1.406	14.100	19570	15755	0	832
4.796	12.802	19680	16098	0	832
9.268	7.176	19735	16308	0	832
14.317	2.380	19735	16365	0	832
17.923	3.137	19845	16384	0	832
23.116	9.845	19790	16441	0	832
28.994	22.467	19845	16441	0	832
34.728	36.783	19845	16327	0	832
34.620	45.691	19735	16155	0	832
28.381	44.104	19735	16041	0	832
16.048	28.705	19570	15926	0	832
2.741	10.242	19735	15965	0	832
-2.813	0.685	19735	16194	0	832
2.452	5.337	19790	16346	0	832
15.471	19.221	19680	16194	0	832
25.424	29.391	19570	15888	0	832
25.748	26.794	19515	15678	0	832
14.281	12.081	19405	15583	0	832
-3.173	-3.029	19296	15507	0	832
-13.127	-9.917	19186	15392	0	832
-15.182	-7.609	19021	15239	0	832
-10.422	1.082	18966	15163	0	832
-2.849	7.104	18911	15239	0	832
1.479	8.727	18911	15468	0	832
6.960	10.422	19021	15774	0	832
13.848	14.281	19131	16117	0	832
21.168	20.700	19186	16384	0	832
24.594	25.135	19241	16574	0	832
19.437	21.204	19186	16632	0	832
11.251	12.405	19296	16613	0	832
4.147	5.986	19296	16651	0	832
5.554	6.671	19296	16765	0	832
8.547	14.894	19405	16861	0	832
12.766	24.486	19460	16975	0	832
8.042	26.902	19515	17128	0	832
0.288	17.129	19680	17204	0	832
-5.373	0.036	19515	17090	0	832
-4.291	-15.759	19405	16670	0	832
5.193	-21.132	19131	16098	0	832
15.759	-9.845	18911	15659	0	832
18.933	11.287	18856	15449	0	832
15.471	32.276	18691	15392	0	832
9.737	42.193	18636	15430	0	832
9.592	40.137	18581	15488	0	832
15.182	30.761	18636	15545	0	832
19.473	22.142	18636	15869	0	832
20.123	18.175	18966	16460	0	832
14.281	17.706	19131	16937	0	832
9.520	18.103	19021	17051	0	832
10.819	18.103	19131	16937	0	832
15.615	15.903	19131	16822	0	832
15.471	13.884	18911	16593	0	832
7.140	9.052	18746	16213	0	832
-0.938	4.688	18636	15812	0	832
-7.321	1.226	18416	15526	0	832
-3.246	3.967	18197	15373	0	832
8.943	15.759	18197	15411	0	832
22.972	34.728	18307	15602	0	832
29.499	49.730	18307	15888	0	832
30.220	52.831	18362	16232	0	832
21.890	38.622	18471	16517	0	832
11.143	15.110	18581	16727	0	832
-0.252	-6.311	18471	16670	0	832
-5.734	-14.136	18416	16460	0	832
-2.056	-6.094	18362	16346	0	832
7.393	9.196	18362	16308	0	832
16.228	19.690	18307	16327	0	832
21.854	25.207	18307	16384	0	832
19.365	21.854	18362	16517	0	832
13.415	16.336	18416	16593	0	832
7.609	10.746	18362	16670	0	832
1.442	5.409	18471	16727	0	832
-1.767	-1.406	18416	16746	0	832
-5.337	-7.537	18416	16746	0	832
-4.219	-10.278	18362	16746	0	832
0.541	-3.787	18416	16689	0	832
7.573	6.167	18362	16555	0	832
8.871	18.824	18142	16308	0	832
5.806	24.053	17922	15907	0	832
-2.308	18.139	17867	15564	0	832
-10.242	5.409	17647	15354	0	832
-12.225	-5.950	17537	15144	0	832
-3.967	-8.402	17318	14858	0	832
4.652	-0.361	17043	14610	0	832
14.281	12.225	16933	14533	0	832
17.418	24.558	16768	14629	0	832
14.785	30.184	16768	14820	0	832
9.124	30.508	16713	15068	0	832
2.993	26.145	16658	15278	0	832
-0.469	18.644	16713	15468	0	832
0.829	13.343	16658	15678	0	832
5.481	12.405	16658	15946	0	832
11.864	12.946	16713	16270	0	832
14.677	15.218	16768	16498	0	832
13.054	14.677	16768	16593	0	832
7.248	13.595	16713	16555	0	832
5.157	13.668	16713	16574	0	832
6.888	14.749	16713	16670	0	832
12.225	15.903	16713	16727	0	832
12.369	12.982	16658	16727	0	832
5.121	9.701	16713	16746	0	832
-4.219	7.068	16713	16842	0	832
-9.845	9.701	16658	16861	0	832
-8.258	11.576	16493	16708	0	832
1.046	13.379	16275	16251	0	832
7.068	12.658	15945	15564	0	832
8.294	8.402	15725	15010	0	832
4.688	6.419	15450	14743	0	832
-0.757	5.878	15176	14610	0	832
-4.291	6.167	15121	14552	0	832
-6.347	4.652	14901	14610	0	832
-6.275	2.741	14681	14648	0	832
-6.383	-0.144	14626	14781	0	832
-3.065	0.469	14736	15239	0	832
0.397	4.688	14956	15984	0	832
6.888	13.091	15121	16593	0	832
11.828	17.670	15121	16899	0	832
14.208	17.454	15121	16975	0	832
9.052	10.061	15176	17032	0	832
-3.029	-2.416	15121	17071	0	832
-16.048	-13.054	15176	17071	0	832
-22.755	-16.913	15011	16994	0	832
-17.706	-9.953	14956	16822	0	832
-2.993	2.380	14736	16593	0	832
10.927	13.451	14681	16403	0	832
15.939	15.182	14681	16327	0	832
5.698	4.940	14571	16308	0	832
-10.855	-9.989	14461	16308	0	832
-23.657	-20.808	14406	16270	0	832
-24.053	-22.683	14406	16232	0	832
-6.888	-10.999	14352	16289	0	832
16.841	6.888	14297	16403	0	832
35.701	22.899	14352	16498	0	832
38.045	28.958	14406	16593	0	832
24.955	21.781	14406	16746	0	832
6.563	6.527	14461	17013	0	832
-7.934	-5.986	14681	17338	0	832
-10.783	-8.258	14846	17586	0	832
-6.599	-0.397	14736	17567	0	832
-2.380	7.862	14626	17242	0	832
0.325	9.340	14461	16918	0	832
1.731	7.248	14461	16727	0	832
3.029	3.823	14461	16593	0	832
4.544	2.957	14352	16517	0	832
2.416	1.154	14352	16498	0	832
-0.938	-2.164	14352	16441	0	832
-1.587	-4.904	14461	16479	0	832
5.193	0.216	14461	16765	0	832
11.828	10.494	14846	17300	0	832
15.435	21.493	15011	17834	0	832
11.360	23.837	15231	18177	0	832
1.010	16.913	15505	18368	0	832
-3.029	9.124	15560	18464	0	832
3.714	5.662	15725	18445	0	832
17.129	8.042	15780	18368	0	832
31.338	13.992	15945	18330	0	832
36.134	20.267	16110	18425	0	832
30.977	25.856	16384	18578	0	832
19.870	28.814	16658	18750	0	832
7.609	26.650	16823	18941	0	832
-2.524	17.526	17208	19170	0	832
-10.133	2.524	17537	19342	0	832
-15.254	-10.891	17647	19361	0	832
-20.231	-17.418	17757	19017	1	820
-22.683	-16.733	17812	18406	0	820
-18.824	-12.153	17867	18006	0	820
-13.848	-5.517	17922	17815	0	820
-9.124	-1.803	18032	17624	0	820
-6.455	0.865	18197	17414	0	820
-7.645	1.190	18307	17300	0	820
-11.540	-1.947	18471	17319	0	820
-16.192	-8.835	18636	17433	0	820
-20.267	-18.428	18911	17548	0	820
-24.811	-23.116	19131	17529	0	820
-23.585	-20.195	19186	17414	0	820
-18.752	-11.323	19296	17300	0	820
-6.094	-1.010	19515	17261	0	820
3.426	5.445	19570	17166	0	820
7.717	3.895	19735	16956	0	820
1.515	-2.993	19735	16708	0	820
-8.330	-11.323	19845	16574	0	820
-15.579	-13.523	20010	16651	0	820
-10.206	-9.953	20285	16918	0	820
2.813	0.180	20504	17147	0	820
17.346	15.326	20669	17128	0	820
23.549	25.568	20614	16822	0	820
17.851	25.207	20559	16308	0	820
7.176	14.136	20285	15621	0	820
-4.940	-5.517	20120	14877	0	820
-9.520	-22.106	19790	14209	0	820
-12.802	-25.207	19515	13636	0	820
-13.379	-12.766	19296	13255	0	820
-13.523	4.472	19186	13121	0	820
-11.864	16.012	19131	13159	0	820
-7.934	12.658	18966	13255	0	820
-3.137	-2.488	18856	13331	0	820
-0.361	-17.670	18636	13217	0	820
-4.039	-23.909	18362	12949	0	820
-13.595	-21.926	18087	12778	0	820
-22.214	-14.930	17922	12835	0	820
-27.624	-7.753	17812	12988	0	820
-24.558	-4.796	17647	13197	0	820
-16.480	-3.931	17537	13446	0	820
-10.422	-3.931	17537	13751	0	820
-5.445	-7.393	17482	14133	0	820
-3.931	-9.881	17482	14552	0	820
-3.246	-12.946	17482	14953	0	820
-2.741	-11.792	17537	15354	0	820
-6.311	-10.206	17592	15717	0	820
-8.078	-7.537	17592	16060	0	820
-7.465	-3.678	17592	16270	0	820
0.757	1.262	17482	16327	0	820
8.222	8.691	17373	16232	0	820
10.350	17.418	17208	16060	0	820
6.022	24.125	17043	15869	0	820
0.902	25.640	16988	15850	0	820
1.442	25.496	16988	16060	0	820
6.239	24.270	16988	16384	0	820
10.602	24.162	16988	16536	0	820
6.816	24.125	16823	16479	0	820
-1.010	19.077	16768	16346	0	820
-6.563	10.999	16713	16365	0	820
-1.659	5.049	16768	16555	0	820
8.871	3.426	16768	16861	0	820
19.906	9.304	16933	17071	0	820
21.421	17.851	16823	17128	0	820
14.064	23.837	16823	17109	0	820
5.554	26.830	16768	17090	0	820
2.380	28.489	16768	17032	0	820
7.898	29.174	16713	16937	0	820
18.933	30.508	16713	16842	0	820
24.270	27.732	16658	16765	0	820
20.447	20.664	16658	16746	0	820
10.097	12.838	16658	16784	0	820
0.252	9.160	16493	16708	0	820
-1.334	10.855	16275	16289	0	820
3.282	16.733	16000	15583	0	820
6.094	19.798	15725	15087	0	820
1.515	13.631	15505	14915	0	820
-15.254	1.010	15395	14915	0	820
-32.276	-12.982	15286	15030	0	820
-37.829	-18.824	15231	15182	0	820
-28.669	-12.477	15011	15220	0	820
-6.924	1.659	14901	15201	0	820
10.638	16.589	14846	15182	0	820
14.894	22.395	14681	15220	0	820
3.678	16.336	14626	15259	0	820
-10.206	6.022	14406	15220	0	820
-18.788	-4.327	14187	15144	0	820
-16.444	-6.383	14187	15163	0	820
-7.898	-4.183	14077	15335	0	820
-2.272	-0.577	14022	15583	0	820
-1.623	1.082	13857	15659	0	820
-5.085	1.947	13582	15335	0	820
-8.114	3.029	13253	14820	0	820
-11.612	2.921	13088	14705	0	820
-11.432	2.416	12978	14991	0	820
-6.203	-0.829	13033	15316	0	820
0.757	-3.570	12923	15564	0	820
4.039	-5.878	12813	15793	0	820
-0.180	-6.816	12813	16041	0	820
-12.333	-9.484	12758	16289	0	820
-23.909	-13.199	12923	16498	0	820
-26.902	-16.805	12813	16765	0	820
-20.700	-18.716	12978	17071	0	820
-14.821	-17.238	13033	17395	0	820
-14.641	-12.550	13253	17758	0	820
-22.431	-4.904	13363	18177	0	820
-30.184	-1.226	13582	18578	0	820
-33.970	-3.282	13857	18903	0	820
-32.059	-10.386	14077	19170	0	820
-26.866	-19.870	14187	19399	0	820
-20.339	-22.719	14406	19532	0	820
-15.687	-17.418	14571	19475	0	820
-11.396	-8.583	14571	19189	0	820
-11.973	-3.606	14406	18654	0	820
-12.441	-5.914	14352	18063	0	820
-16.552	-12.730	14352	17605	1	456
-18.788	-15.831	14406	17567	0	456
-18.824	-10.133	14461	17815	0	456
-17.310	3.065	14626	17872	0	456
-13.451	14.966	14681	17681	0	456
-8.222	20.519	14681	17471	0	456
-3.967	18.860	14681	17357	0	456
-4.472	11.900	14846	17261	0	456
-9.701	5.986	14901	17242	0	456
-16.156	0.577	15011	17300	0	456
-20.123	-2.596	15121	17338	0	456
-19.798	-3.282	15176	17280	0	456
-15.110	-0.829	15286	17185	0	456
-8.366	2.056	15286	17090	0	456
-5.157	1.623	15395	16994	0	456
-2.488	-4.940	15450	16880	0	456
-1.262	-12.477	15450	16746	0	456
-1.226	-14.677	15450	16613	0	456
-0.108	-6.996	15395	16422	0	456
2.741	6.635	15395	16213	0	456
5.806	19.257	15395	16003	0	456
11.143	24.883	15286	15869	0	456
14.966	21.637	15286	15850	0	456
14.785	14.749	15450	15965	0	456
8.907	6.599	15505	16155	0	456
-1.551	-2.308	15560	16308	0	456
-13.199	-8.330	15670	16384	0	456
-23.729	-12.009	15725	16460	0	456
-29.499	-11.973	15780	16479	0	456
-30.040	-6.058	15835	16441	0	456
-23.188	2.705	15945	16441	0	456
-11.828	11.360	16055	16536	0	456
-1.406	14.208	16055	16613	0	456
3.354	9.989	16000	16403	0	456
-0.974	0.397	15780	15965	0	456
-12.586	-8.114	15560	15392	0	456
-21.168	-11.179	15176	14591	0	456
-25.171	-6.527	14626	13598	0	456
-25.135	0.180	14077	12701	0	456
-22.142	3.101	13747	12110	0	456
-19.654	0.613	13308	11881	0	456
-15.543	-4.868	13033	11957	0	456
-10.530	-10.133	12978	12320	0	456
-7.393	-12.802	12923	12911	0	456
-7.717	-11.612	13033	13560	0	456
-10.746	-6.888	13033	14228	0	456
-14.605	-1.406	13253	14896	0	456
-12.261	4.147	13363	15602	0	456
-6.780	8.330	13527	16346	0	456
1.911	9.412	13857	17051	0	456
4.688	6.996	14077	17681	0	456
1.875	0.469	14187	18196	0	456
-7.717	-7.537	14461	18559	0	456
-18.572	-15.723	14681	18845	0	456
-27.299	-20.664	14901	19093	0	456
-27.335	-18.608	15011	19246	0	456
-23.368	-13.776	15286	19399	0	456
-18.897	-10.638	15560	19666	0	456
-17.887	-14.136	15835	19990	0	456
-23.188	-23.440	16110	20124	0	456
-32.708	-33.357	16330	20067	0	456
-37.541	-35.160	16438	19876	0	456
-37.144	-28.201	16548	19609	0	456
-31.482	-15.723	16713	19380	0	456
-22.358	-6.491	16933	19246	0	456
-19.221	-3.029	17043	19132	0	456
-19.005	-4.508	17208	18884	0	456
-21.673	-5.265	17208	18445	0	456
-25.893	-5.842	17098	17891	0	456
-28.489	-6.635	17043	17395	0	456
-28.417	-8.402	16988	16918	0	456
-24.775	-9.448	16988	16460	0	456
-16.264	-5.157	16933	16098	0	456
-5.229	2.705	16768	15812	0	456
0.865	9.737	16823	15755	0	456
-2.885	7.681	16988	15869	0	456
-14.136	0.108	17208	16155	0	456
-27.912	-9.881	17373	16479	0	456
-33.790	-11.937	17592	16784	0	456
-30.436	-6.311	17812	17013	1	316
-20.447	4.940	18087	17204	0	316
-10.350	13.523	18307	17452	0	316
-8.691	14.821	18581	17681	0	316
-14.930	7.104	18746	17796	0	316
-27.660	-5.481	18911	17853	0	316
-39.163	-17.346	19186	17910	0	316
-41.507	-23.080	19460	18082	0	316
-33.466	-19.582	19680	18235	0	316
-21.096	-8.402	19790	18101	0	316
-13.054	2.957	19570	17509	0	316
-15.218	5.373	19460	16613	0	316
-26.542	1.839	19186	15755	0	316
-39.452	-9.124	18966	15049	0	316
-44.681	-16.336	18856	14552	0	316
-43.347	-20.736	18636	14266	0	316
-37.216	-22.034	18471	14133	0	316
-34.439	-25.027	18416	14075	0	316
-36.459	-25.099	18471	14152	0	316
-41.760	-21.926	18581	14495	0	316
-46.953	-17.743	18746	15087	0	316
-49.333	-13.704	18966	15640	0	316
-51.064	-16.625	19131	15926	0	316
-56.509	-26.217	19186	16079	0	316
-67.292	-38.082	19296	16232	0	316
-80.563	-49.621	19405	16422	0	316
-92.860	-60.368	19515	16613	0	316
-100.505	-73.783	19680	16689	0	316
-102.813	-87.306	19570	16632	0	316
-105.734	-100.072	19735	16593	0	316
-108.366	-106.960	19735	16613	0	316
-114.569	-105.698	19790	16574	0	316
-121.601	-97.728	19570	16346	0	316
-129.571	-90.660	19515	15984	0	316
-137.829	-94.735	19515	15717	0	316
-146.412	-111.720	19405	15659	0	316
-154.418	-135.197	19460	15717	0	316
-159.791	-153.336	19405	15774	0	316
-166.066	-157.807	19515	15793	0	316
-168.590	-152.759	19515	15793	0	316
-169.131	-146.268	19405	15831	0	316
-162.279	-141.471	19515	15946	0	316
-148.503	-137.360	19460	16098	0	316
-129.391	-126.073	19680	16232	0	316
-113.740	-107.717	19735	16327	0	316
-105.121	-87.919	19680	16365	0	316
-101.623	-76.740	19680	16270	0	316
-97.115	-74.504	19405	16003	0	316
-90.155	-74.540	19296	15659	0	316
-75.766	-71.114	19296	15468	0	316
-58.925	-58.781	19131	15449	0	316
-45.871	-42.084	19021	15335	0	316
-39.776	-28.381	18911	15144	0	316
-40.714	-25.820	18691	14953	0	316
-44.825	-28.705	18416	14629	0	316
-43.094	-30.725	18087	14056	0	316
-30.581	-23.476	17592	13388	0	316
-13.884	-8.258	17263	12988	0	316
2.380	9.484	16988	12988	0	316
8.979	23.837	16988	13274	0	316
8.979	33.141	16823	13655	0	316
12.766	42.409	16713	14018	0	316
20.664	50.956	16658	14304	0	316
29.354	55.499	16658	14648	0	316
31.266	52.470	16713	15087	0	316
27.551	40.678	16713	15583	0	316
21.096	32.312	16768	16022	0	316
24.089	33.105	16768	16289	0	316
37.000	48.684	16823	16498	0	316
54.562	71.042	16933	16842	0	316
62.207	86.585	16988	17204	0	316
58.457	85.575	17043	17509	0	316
44.573	68.446	17098	17738	0	316
32.564	49.369	17263	17891	0	316
32.276	42.301	17263	17967	0	316
43.635	51.821	17263	17948	0	316
58.709	71.439	17263	17891	0	316
64.082	85.539	17318	17796	0	316
59.538	83.375	17318	17700	0	316
48.936	70.465	17208	17509	0	316
41.796	54.995	17098	17261	0	316
43.815	47.746	17043	17032	0	316
52.182	49.874	16988	16861	0	316
60.837	57.952	16823	16613	0	316
61.666	65.525	16548	16232	0	316
57.771	65.453	16438	15793	0	316
49.369	62.279	16220	15430	0	316
35.846	56.004	16110	15125	0	316
25.640	48.756	15780	14858	0	316
17.346	39.380	15560	14667	0	316
13.884	31.410	15395	14572	0	316
18.464	23.260	15231	14572	0	316
27.696	21.204	15231	14781	0	316
38.262	28.922	15231	15163	0	316
40.858	38.045	15231	15583	0	316
37.324	45.799	15395	15926	0	316
30.761	44.861	15395	16175	0	316
23.080	39.993	15395	16403	0	316
25.279	34.403	15505	16746	0	316
28.597	31.662	15560	17109	0	316
30.797	31.302	15725	17300	0	316
27.912	29.499	15670	17280	0	316
19.546	27.263	15670	17223	0	316
12.009	24.919	15670	17185	0	316
9.340	24.522	15670	17128	0	316
12.009	27.155	15670	17071	0	316
18.211	32.708	15560	17032	0	316
23.765	36.134	15560	16994	0	316
22.142	34.475	15560	17051	0	316
15.687	28.128	15670	17147	0	316
5.121	19.510	15725	17166	0	316
0.902	17.021	15725	17109	0	316
3.390	21.637	15670	17032	0	316
10.169	28.850	15670	16918	0	316
16.661	31.085	15670	16784	0	316
17.634	27.335	15505	16593	0	316
12.622	21.673	15286	16270	0	316
6.455	17.562	15121	15774	0	316
2.092	17.021	14736	15259	0	316
-1.515	17.166	14461	14743	0	316
-2.452	16.156	14187	14228	0	316
-0.505	15.471	13857	13846	0	316
3.029	16.516	13582	13675	0	316
7.032	16.048	13308	13560	0	316
7.176	14.569	12978	13426	0	316
3.642	12.045	12813	13331	0	316
-0.325	10.891	12648	13522	0	316
-4.003	12.910	12703	13980	0	316
-3.426	19.077	12648	14495	0	316
-0.325	24.666	12703	14934	0	316
3.318	30.220	12648	15297	0	316
4.652	32.672	12703	15621	0	316
4.544	28.453	12648	16003	0	316
1.262	20.195	12703	16384	0	316
-4.400	9.556	12813	16689	0	316
-12.369	3.173	12703	16880	0	316
-16.372	5.698	12758	17013	0	316
-16.480	11.540	12703	17128	0	316
-12.369	17.490	12813	17280	0	316
-2.921	19.618	12813	17471	0	316
5.517	19.762	12978	17624	0	316
12.658	20.880	12923	17700	0	316
13.776	23.729	13033	17719	0	316
11.504	26.578	13033	17777	0	316
5.842	25.712	13088	17834	0	316
0.397	24.162	13198	17910	0	316
-2.200	21.277	13198	17987	0	316
-4.255	20.375	13308	18044	0	316
-1.875	21.854	13308	17987	0	316
2.344	25.316	13308	17815	0	316
9.304	31.049	13253	17548	0	316
14.749	35.557	13198	17261	0	316
14.713	33.754	13198	17071	0	316
9.232	26.037	13033	16880	0	316
2.272	15.110	13033	16651	0	316
0.325	9.412	13033	16555	0	316
4.400	12.586	13033	16613	0	316
12.694	22.719	12978	16517	0	316
19.329	32.059	12703	16117	0	316
20.591	33.826	12483	15526	0	316
19.005	31.410	12154	14972	0	316
14.208	28.886	11879	14476	0	316
8.871	29.210	11439	13999	0	316
3.426	29.138	11110	13541	0	316
2.705	27.876	10725	13026	0	316
7.717	26.037	10176	12396	0	316
19.618	28.381	9516	11709	0	316
32.780	38.550	8967	11136	0	316
38.154	47.818	8417	10793	0	316
33.970	49.657	7978	10602	0	316
19.113	41.255	7483	10602	0	316
7.501	28.092	7044	10793	0	316
1.226	18.283	6879	11175	0	316
5.157	14.930	6659	11747	0	316
11.576	15.975	6439	12301	0	316
19.329	18.031	6165	12778	0	316
26.145	20.231	6055	13197	0	316
29.968	22.575	5890	13675	0	316
32.131	24.450	5670	14228	0	316
28.741	25.929	5670	14743	0	316
21.060	23.729	5560	15201	0	316
13.054	19.762	5395	15640	0	316
5.878	13.920	5395	16136	0	316
4.003	5.986	5341	16555	0	316
4.652	0.793	5341	16861	0	316
3.570	-2.669	5121	17013	0	316
-0.180	-2.705	5011	16994	0	316
-5.193	1.695	4791	16803	0	316
-8.078	6.708	4516	16555	0	316
-7.321	10.494	4297	16517	0	316
-2.056	11.937	4242	16670	0	316
5.842	9.917	3912	16651	0	316
9.737	8.006	3692	16403	0	316
10.710	7.321	3472	16384	0	316
8.042	10.819	3637	16784	0	316
5.337	16.625	3857	17509	0	316
2.741	21.745	3967	18311	0	316
1.154	24.739	4297	19055	0	316
0.072	22.178	4516	19685	0	316
0.180	17.166	4846	20162	0	316
-2.019	10.242	4956	20334	0	316
-2.056	4.868	5231	20315	0	316
-3.462	2.128	5286	20334	0	316
-3.498	3.750	5560	20429	0	316
-3.498	6.671	5780	20544	0	316
-3.931	9.629	5945	20677	0	316
-6.275	11.071	6330	20792	0	316
-5.950	12.369	6494	20773	0	316
-6.455	14.208	6604	20563	0	316
-7.248	13.848	6769	20258	0	316
-8.619	14.172	6879	19876	1	840
-12.802	12.946	6934	19494	0	840
-15.867	14.533	6989	19170	0	840
-10.855	18.175	7209	18960	0	840
-1.226	24.883	7319	18922	0	840
9.088	28.345	7538	18922	0	840
10.746	27.804	7758	18826	0	840
2.596	22.142	7868	18674	0	840
-9.845	15.651	8033	18464	0	840
-19.329	10.566	8143	18273	0	840
-22.286	8.583	8253	18006	0	840
-21.493	7.753	8253	17567	0	840
-21.565	8.763	8253	17109	0	840
-21.565	8.799	8308	16899	0	840
-21.277	11.396	8417	16861	0	840
-15.615	14.749	8582	16746	0	840
-6.996	18.860	8582	16460	0	840
-1.010	20.087	8582	16194	0	840
-0.397	19.257	8582	15946	0	840
-3.895	14.100	8527	15678	0	840
-9.773	5.878	8417	15373	0	840
-14.389	1.154	8308	15030	0	840
-16.264	0.721	8088	14629	0	840
-11.612	8.078	7868	14228	0	840
-7.934	19.077	7758	13942	0	840
-4.327	29.427	7593	13808	0	840
-4.652	29.931	7538	13751	0	840
-8.907	22.539	7319	13655	0	840
-16.589	13.343	7209	13579	0	840
-20.159	8.330	6989	13522	0	840
-17.021	8.475	6879	13484	0	840
-11.287	13.956	6769	13541	0	840
-1.623	18.067	6714	13713	0	840
5.806	20.267	6659	13961	0	840
8.475	20.231	6659	14266	0	840
9.737	20.087	6659	14572	0	840
6.924	19.690	6659	14839	0	840
5.049	17.923	6604	15106	0	840
0.649	14.785	6604	15316	0	840
-3.426	12.982	6604	15449	0	840
-4.760	13.631	6494	15526	0	840
-5.517	14.317	6439	15621	0	840
0.649	17.851	6384	15755	0	840
7.970	20.808	6384	15888	0	840
15.507	22.719	6330	15946	0	840
16.985	22.683	6165	15831	0	840
14.425	18.572	6055	15640	0	840
7.068	12.874	5945	15640	0	840
2.777	9.701	5945	15888	0	840
0.325	10.422	5945	16098	0	840
3.750	17.346	5835	16117	0	840
10.855	24.811	5780	16022	0	840
16.300	27.624	5670	15965	0	840
19.762	23.152	5615	16022	0	840
16.264	15.398	5670	16213	0	840
11.576	9.484	5615	16384	0	840
7.429	10.133	5505	16384	0	840
11.684	17.418	5505	16327	0	840
22.647	24.919	5395	16308	0	840
29.210	29.968	5395	16403	0	840
28.561	26.974	5560	16593	0	840
18.031	22.467	5395	16803	0	840
8.366	18.464	5560	16975	0	840
5.806	17.021	5615	17166	0	840
12.694	15.471	5670	17319	0	840
23.008	14.245	5780	17433	0	840
27.912	13.812	5835	17548	0	840
28.309	13.451	5945	17738	0	840
23.332	17.093	6165	17929	0	840
18.500	21.854	6165	18082	0	840
15.110	26.217	6384	18196	0	840
9.701	24.919	6494	18273	0	840
2.885	19.149	6604	18254	0	840
-4.075	10.494	6604	18139	0	840
-4.400	4.508	6659	18006	0	840
1.983	6.599	6714	17853	0	840
16.156	18.752	6714	17662	0	840
30.977	33.538	6714	17433	0	840
37.216	44.068	6714	17204	0	840
34.620	43.996	6659	16899	0	840
23.008	33.898	6604	16555	0	840
12.405	20.736	6604	16498	0	840
5.013	10.855	6714	16727	0	840
2.452	8.871	6769	16842	0	840
7.140	14.064	6714	16574	0	840
13.740	22.395	6494	16155	0	840
19.762	24.919	6494	15869	0	840
23.188	24.775	6604	15907	0	840
22.683	20.555	6604	16041	0	840
16.913	18.933	6494	16098	0	840
13.199	21.673	6604	16060	0	840
10.674	25.748	6604	15984	0	840
11.720	28.453	6604	15984	0	840
10.638	22.467	6494	16022	0	840
5.265	13.415	6604	16060	0	840
-0.216	3.787	6659	16041	0	840
-3.570	0.829	6494	15965	0	840
0.793	6.744	6439	15831	0	840
9.340	18.031	6439	15755	0	840
19.257	28.814	6384	15736	0	840
23.945	34.475	6384	15774	0	840
24.450	34.439	6439	15926	0	840
25.424	30.004	6494	16175	0	840
23.981	22.178	6604	16365	0	840
22.431	16.012	6604	16422	0	840
14.461	10.133	6659	16479	0	840
7.753	9.340	6714	16593	0	840
3.210	13.271	6714	16651	0	840
5.013	19.618	6604	16479	0	840
13.559	23.440	6439	16117	0	840
20.808	23.224	6384	15755	0	840
24.883	18.211	6220	15564	0	840
22.395	11.900	6110	15449	0	840
17.166	10.783	5945	15259	0	840
12.946	13.992	5780	15030	0	840
12.441	22.034	5670	14934	0	840
16.156	32.095	5615	15030	0	840
20.483	35.954	5615	15297	0	840
20.123	33.177	5780	15602	0	840
17.382	24.378	5670	15831	0	840
11.179	12.514	5670	16003	0	840
4.544	3.678	5780	16155	0	840
2.993	-0.505	5780	16308	0	840
1.262	-0.216	5780	16384	0	840
-0.144	3.678	5780	16384	0	840
1.082	7.357	5670	16346	0	840
1.046	11.973	5615	16251	0	840
1.154	14.894	5615	16194	0	840
0.325	13.740	5505	16232	0	840
0.252	10.819	5615	16365	0	840
0.721	7.212	5560	16441	0	840
3.570	5.662	5505	16403	0	840
8.655	8.979	5560	16403	0	840
13.559	14.425	5505	16536	0	840
15.507	20.483	5615	16651	0	840
14.641	22.791	5615	16727	0	840
11.900	23.549	5670	16842	0	840
10.891	20.916	5780	16956	0	840
9.701	18.860	5670	16975	0	840
7.032	16.300	5780	16975	0	840
2.308	14.353	5835	17051	0	840
-2.633	15.579	5780	17051	0	840
-4.580	19.654	5835	16880	0	840
3.823	26.073	5670	16689	0	840
15.362	31.194	5670	16632	0	840
25.965	32.384	5835	16784	0	840
25.279	27.010	5890	16975	0	840
17.706	17.887	5945	17051	0	840
8.258	10.314	5945	16937	0	840
2.741	8.583	5945	16861	0	840
4.219	12.081	6110	17032	0	840
7.212	21.565	6384	17433	0	840
10.855	28.597	6604	17853	0	840
11.720	32.564	6769	18196	0	840
10.025	29.246	7154	18540	0	840
7.573	24.053	7319	18826	0	840
2.092	17.959	7593	18960	0	840
-2.596	15.543	7813	18922	0	840
-2.488	17.202	7978	18922	0	840
5.301	20.267	8253	18998	0	840
14.497	22.214	8527	19170	0	840
19.221	21.277	8912	19437	0	840
14.821	14.641	9352	19761	0	840
5.265	8.402	9681	20009	0	840
-6.167	1.659	9956	20086	0	840
-9.665	0.974	10341	20048	0	840
-5.265	4.508	10725	20067	0	840
2.488	11.251	11110	20143	0	840
9.340	19.185	11439	20238	0	840
13.487	23.945	11934	20315	0	840
12.730	24.919	12264	20372	0	840
10.314	21.637	12703	20353	0	840
8.294	15.146	12978	20200	0	840
6.996	10.061	13363	19952	1	692
7.429	7.573	13582	19628	0	692
6.888	8.907	13747	19246	0	692
4.183	11.648	14022	18826	0	692
1.226	13.379	14132	18387	0	692
2.524	10.674	14297	17967	0	692
8.619	10.386	14461	17605	0	692
16.372	13.451	14571	17166	0	692
21.745	18.320	14461	16517	0	692
19.329	25.207	14352	15755	0	692
11.756	27.010	14297	15087	0	692
6.708	25.712	14297	14648	0	692
7.176	21.926	14132	14247	0	692
12.117	19.257	14022	13770	0	692
15.038	17.526	13802	13255	0	692
14.317	15.975	13582	12816	0	692
14.641	16.192	13472	12549	0	692
19.149	20.087	13308	12415	0	692
26.974	26.614	13198	12434	0	692
31.987	30.833	13253	12663	0	692
28.092	31.049	13253	13026	0	692
14.136	23.008	13253	13350	0	692
-1.442	12.550	13198	13407	0	692
-15.146	4.652	12978	13312	0	692
-17.706	0.902	13033	13407	0	692
-14.641	3.462	12978	13751	0	692
-7.032	10.494	13198	14171	0	692
5.481	16.949	13198	14648	0	692
15.867	21.890	13308	15163	0	692
20.050	24.017	13582	15717	0	692
18.572	20.231	13637	16194	0	692
12.874	16.228	13747	16403	0	692
10.133	15.254	13747	16327	0	692
12.225	18.788	13747	16213	0	692
19.473	25.279	13747	16232	0	692
21.313	28.417	13802	16365	0	692
16.697	27.155	13747	16422	0	692
5.229	19.257	13637	16270	0	692
-1.659	11.684	13527	15946	0	692
1.406	8.114	13363	15717	0	692
12.225	13.091	13363	15602	0	692
20.664	19.437	13198	15488	0	692
24.558	26.938	13088	15411	0	692
17.959	29.643	13033	15411	0	692
11.035	29.823	12978	15488	0	692
8.871	30.256	13088	15659	0	692
11.107	27.083	13088	16003	0	692
13.812	22.647	13308	16384	0	692
12.045	14.821	13363	16689	0	692
9.737	7.970	13472	16956	0	692
7.789	6.671	13637	17223	0	692
7.717	13.091	13802	17529	0	692
11.107	20.952	14077	17872	0	692
12.297	25.604	14352	18196	0	692
10.963	23.368	14461	18445	0	692
7.212	18.680	14681	18635	0	692
6.167	15.579	14956	18845	0	692
8.547	17.598	15176	18998	0	692
14.497	22.178	15286	19036	0	692
22.142	27.768	15560	18960	0	692
24.162	28.705	15670	18807	0	692
21.096	27.299	15725	18635	0	692
16.769	26.109	15835	18502	0	692
17.526	28.850	16000	18387	0	692
23.585	34.367	16000	18139	0	692
31.951	39.380	15945	17681	0	692
35.557	40.281	15945	17090	0	692
30.545	36.026	15835	16632	0	692
20.195	28.020	15835	16403	0	692
11.215	20.519	15835	16308	0	692
8.871	16.192	15780	16155	0	692
13.415	15.038	15725	15888	0	692
20.880	17.490	15725	15621	0	692
28.669	20.664	15670	15392	0	692
27.660	24.414	15505	15125	0	692
21.493	24.342	15286	14801	0	692
13.415	20.880	15121	14514	0	692
8.547	18.464	15011	14266	0	692
8.475	17.202	14846	14133	0	692
14.821	20.664	14846	14190	0	692
17.995	24.558	14846	14381	0	692
18.680	26.253	14736	14572	0	692
14.136	24.198	14736	14724	0	692
8.727	18.608	14681	14858	0	692
4.904	12.153	14736	14972	0	692
2.200	7.681	14626	15087	0	692
1.442	4.255	14571	15182	0	692
2.416	5.337	14571	15259	0	692
6.239	12.009	14571	15354	0	692
17.057	20.880	14626	15602	0	692
27.948	32.420	14626	15926	0	692
35.377	37.757	14736	16213	0	692
32.312	36.387	14846	16384	0	692
19.618	29.895	14846	16460	0	692
5.878	20.916	14736	16498	0	692
-3.390	14.894	14681	16460	0	692
-3.426	13.271	14681	16384	0	692
0.180	11.107	14626	16270	0	692
6.239	12.369	14406	15984	0	692
11.107	14.749	14077	15488	0	692
14.605	23.404	13747	14877	0	692
17.634	33.790	13527	14343	0	692
17.310	38.803	13088	13999	0	692
15.290	34.115	12978	13904	0	692
12.514	23.152	12703	13961	0	692
11.323	12.297	12703	14133	0	692
7.862	9.016	12538	14438	0	692
4.977	13.487	12648	14877	0	692
1.118	18.067	12648	15335	0	692
2.380	20.159	12703	15659	0	692
8.150	22.286	12538	15831	0	692
18.969	25.820	12538	15850	0	692
26.470	32.131	12264	15793	0	692
26.650	35.774	12209	15640	0	692
22.070	34.187	11934	15507	0	692
14.461	29.715	11879	15430	0	692
10.566	23.765	11604	15392	0	692
11.323	24.234	11549	15392	0	692
16.444	25.856	11439	15449	0	692
21.313	29.030	11330	15640	0	692
23.296	28.092	11330	15869	0	692
23.512	24.558	11384	16117	0	692
19.690	18.824	11275	16346	0	692
16.012	14.281	11275	16479	0	692
12.261	13.271	11165	16574	0	692
9.484	16.336	11110	16613	0	692
8.150	21.385	11110	16613	0	692
7.068	26.650	11055	16593	0	692
9.881	30.112	10890	16613	0	692
14.533	31.446	10890	16632	0	692
19.834	29.968	10890	16708	0	692
23.549	29.535	10835	16842	0	692
23.476	27.083	10890	16956	0	692
19.546	25.496	10835	16956	0	692
14.208	23.296	10615	16708	0	692
12.802	22.395	10341	16327	0	692
16.300	21.890	10231	15984	0	692
20.159	22.070	10066	15831	0	692
20.014	20.988	10011	15774	0	692
15.723	19.005	9901	15793	0	692
10.386	17.274	9736	15793	0	692
5.590	16.625	9626	15736	0	692
7.212	17.238	9516	15774	0	692
7.789	19.185	9626	15965	0	692
8.835	22.214	9626	16213	0	692
7.898	24.270	9626	16346	0	692
9.881	27.047	9461	16384	0	692
16.264	29.066	9461	16403	0	692
20.303	26.253	9461	16460	0	692
19.113	21.601	9352	16460	0	692
15.615	15.759	9187	16384	0	692
14.281	14.317	9132	16308	0	692
20.014	20.988	9132	16327	0	692
31.013	32.095	9187	16517	0	692
39.199	42.373	9242	16842	0	692
35.629	43.419	9406	17204	0	692
25.748	36.098	9461	17357	0	692
17.021	25.063	9187	17051	0	692
15.975	17.995	9077	16517	0	692
21.457	20.411	8967	16346	0	692
26.001	27.155	9132	16613	0	692
22.106	33.105	9242	17071	0	692
13.668	34.151	9406	17509	0	692
5.878	31.085	9681	17929	0	692
1.587	24.306	9956	18387	0	692
3.029	21.926	10286	18903	0	692
9.520	20.267	10615	19342	0	692
15.362	22.358	10890	19704	0	692
20.123	23.945	11275	19990	0	692
22.070	25.496	11714	20315	0	692
21.421	24.522	12154	20773	0	692
18.536	24.450	12703	21250	0	692
15.435	24.955	13033	21517	0	692
14.930	25.856	13472	21498	0	692
12.730	26.145	13747	21250	0	692
8.835	22.358	14022	21021	0	692
2.633	18.247	14352	20887	0	692
-2.056	15.759	14736	20773	1	708
-4.796	16.913	14956	20601	0	708
1.695	22.575	15231	20258	0	708
12.225	29.210	15395	19838	0	708
22.899	32.672	15670	19418	0	708
28.633	29.174	15780	19036	0	708
22.142	21.709	15945	18635	0	708
10.999	12.874	16055	18177	0	708
1.046	9.809	16110	17662	0	708
0.397	13.127	16110	17128	0	708
5.590	21.637	16275	16727	0	708
10.783	25.099	16330	16498	0	708
11.576	23.909	16438	16327	0	708
5.121	18.536	16438	16003	0	708
-1.587	12.766	16384	15526	0	708
-2.705	10.494	16330	15030	0	708
1.839	11.143	16330	14648	0	708
10.386	14.641	16330	14552	0	708
17.129	19.005	16384	14610	0	708
20.700	23.404	16384	14629	0	708
18.175	25.424	16384	14514	0	708
12.766	27.371	16384	14381	0	708
7.032	26.361	16330	14247	0	708
4.796	27.335	16275	14094	0	708
6.239	26.614	16110	13884	0	708
9.701	27.047	16055	13541	0	708
14.641	27.047	15780	13178	0	708
20.555	30.004	15560	12988	0	708
23.981	33.321	15450	13007	0	708
23.368	34.331	15286	13045	0	708
22.683	32.348	15011	12988	0	708
18.644	25.820	14846	12816	0	708
19.401	23.549	14681	12739	0	708
21.024	24.342	14571	12911	0	708
23.080	28.309	14461	13217	0	708
21.745	29.535	14352	13484	0	708
15.074	28.525	14297	13655	0	708
10.025	22.719	14132	13770	0	708
8.042	18.356	13912	13942	0	708
12.297	17.418	14022	14190	0	708
17.634	18.933	13857	14495	0	708
21.745	21.529	13747	14724	0	708
21.168	22.972	13637	14801	0	708
14.930	21.349	13527	14820	0	708
11.396	20.880	13363	15030	0	708
9.124	22.755	13527	15449	0	708
12.874	28.201	13472	15850	0	708
16.913	33.790	13472	16117	0	708
19.401	35.305	13472	16270	0	708
17.815	29.715	13308	16308	0	708
15.543	22.719	13253	16155	0	708
13.018	18.933	12978	15926	0	708
13.054	21.565	12758	15717	0	708
15.362	28.092	12648	15507	0	708
20.231	34.295	12374	15354	0	708
27.732	39.199	12264	15392	0	708
35.990	41.219	12209	15526	0	708
39.308	39.235	12099	15717	0	708
35.954	34.079	12099	15946	0	708
23.585	26.866	11989	16232	0	708
9.665	18.103	12154	16517	0	708
1.298	13.559	12099	16784	0	708
2.777	16.552	12209	17013	0	708
14.245	23.044	12154	17223	0	708
28.886	32.744	12264	17376	0	708
41.219	40.101	12209	17490	0	708
41.724	41.327	12374	17624	0	708
32.528	35.521	12428	17777	0	708
19.005	26.470	12483	17815	0	708
7.898	17.598	12483	17738	0	708
2.705	14.713	12428	17624	0	708
5.481	16.805	12483	17548	0	708
11.215	20.411	12428	17548	0	708
18.572	24.558	12538	17586	0	708
24.306	24.991	12483	17586	0	708
25.207	21.132	12538	17548	0	708
21.060	16.120	12538	17471	0	708
14.677	7.609	12538	17452	0	708
8.439	4.580	12703	17490	0	708
11.035	7.140	12703	17567	0	708
16.264	14.461	12758	17529	0	708
22.503	23.152	12703	17357	0	708
26.938	29.643	12758	17185	0	708
24.558	29.499	12703	17071	0	708
22.431	27.407	12758	16975	0	708
17.779	25.063	12703	16842	0	708
15.759	22.070	12703	16670	0	708
16.913	22.178	12648	16536	0	708
21.060	23.693	12703	16460	0	708
25.676	27.948	12648	16479	0	708
30.328	31.338	12923	16746	0	708
32.095	36.278	13033	17128	0	708
33.213	41.255	13033	17223	0	708
34.331	46.989	13033	16899	0	708
34.583	51.821	12758	16384	0	708
32.961	52.470	12703	15965	0	708
30.400	46.917	12483	15697	0	708
27.047	35.846	12428	15545	0	708
23.837	23.909	12209	15297	0	708
17.923	14.281	12099	14991	0	708
9.160	8.763	11989	14839	0	708
0.613	6.671	11879	14877	0	708
-5.806	9.484	11934	15030	0	708
-4.111	13.271	11824	15182	0	708
3.642	19.113	11824	15316	0	708
10.963	20.123	11659	15373	0	708
13.668	15.362	11714	15411	0	708
10.783	7.465	11714	15468	0	708
4.940	-0.685	11604	15564	0	708
1.839	-0.433	11659	15717	0	708
7.068	8.366	11604	15869	0	708
15.903	23.729	11659	16060	0	708
26.073	37.360	11714	16270	0	708
30.112	42.229	11714	16460	0	708
26.253	37.577	11824	16613	0	708
18.572	26.902	11714	16689	0	708
12.189	18.067	11879	16727	0	708
10.422	14.858	11824	16689	0	708
16.192	18.933	11714	16613	0	708
24.270	28.092	11714	16555	0	708
33.033	34.583	11549	16422	0	708
35.449	35.737	11439	16155	0	708
29.174	30.581	11165	15659	0	708
18.933	20.627	10835	15125	0	708
5.517	11.720	10725	14762	0	708
-2.885	8.511	10341	14533	0	708
-6.924	11.612	10176	14285	0	708
-4.472	16.877	9791	14018	0	708
-0.216	20.772	9516	13808	0	708
7.789	23.549	9242	13732	0	708
17.959	26.145	9132	13827	0	708
23.729	28.958	8967	14056	0	708
24.342	28.705	8912	14362	0	708
18.175	26.037	8912	14686	0	708
11.756	21.421	8857	15010	0	708
9.737	19.077	8857	15335	0	708
17.310	23.404	8857	15697	0	708
27.515	31.338	8912	16175	0	708
35.305	38.370	8967	16574	0	708
33.970	38.082	9077	16861	0	708
27.227	32.853	9132	17090	0	708
21.132	25.604	9187	17376	0	708
20.014	20.700	9242	17624	0	708
22.611	18.752	9352	17758	0	708
24.162	19.762	9352	17815	0	708
18.356	21.168	9406	17891	0	708
9.629	21.926	9516	18044	0	708
4.003	21.962	9626	18235	0	708
6.635	21.926	9736	18368	0	708
12.369	18.067	9901	18445	0	708
16.372	11.828	9901	18387	0	708
13.812	4.832	9901	18158	0	708
4.652	0.685	9791	17872	0	708
0.252	4.724	9901	17758	0	708
1.875	13.235	9901	17738	0	708
8.258	22.827	9901	17529	0	708
14.677	28.056	9681	17051	0	708
16.408	26.470	9516	16536	0	708
12.550	20.808	9461	16270	0	708
8.835	15.435	9242	16098	0	708
7.825	15.326	9132	15774	0	708
13.631	19.401	8802	15182	0	708
19.690	26.217	8417	14591	0	708
24.666	32.816	8253	14247	0	708
27.083	37.108	8088	14171	0	708
27.912	36.495	7978	14228	0	708
24.125	32.528	7813	14304	0	708
19.798	25.207	7703	14323	0	708
10.999	14.389	7538	14438	0	708
1.731	6.708	7483	14648	0	708
-0.829	6.094	7483	14896	0	708
3.282	13.884	7428	15087	0	708
11.396	27.010	7428	15239	0	708
15.795	36.639	7319	15449	0	708
12.009	36.314	7428	15774	0	708
3.642	27.876	7538	16270	0	708
-2.813	18.608	7813	16994	0	708
0.108	15.723	8143	17815	0	708
10.242	18.464	8527	18521	0	708
21.024	24.991	8857	19093	0	708
26.686	24.450	9187	19628	0	708
23.440	18.247	9681	20181	0	708
16.012	11.720	10011	20677	0	708
11.179	11.143	10450	21078	0	708
10.674	18.211	10835	21326	0	708
12.550	27.984	11275	21460	0	708
13.631	33.357	11549	21574	0	708
14.894	30.328	12099	21708	0	708
15.939	24.125	12483	21727	0	708
18.752	19.510	12703	21555	0	708
23.008	19.221	12978	21269	0	708
21.313	22.935	13363	21040	0	708
14.677	25.279	13637	20945	0	708
7.537	27.155	14132	20925	1	772
3.462	29.859	14461	20830	0	772
6.167	32.312	14736	20620	0	772
10.025	30.545	15011	20315	0	772
12.405	27.191	15395	20067	0	772
8.979	21.168	15725	19895	0	772
6.239	16.300	16055	19704	0	772
4.868	14.894	16275	19361	0	772
5.734	15.471	16438	18884	0	772
9.304	18.103	16658	18445	0	772
10.783	21.962	16823	18082	0	772
11.612	29.643	16988	17700	0	772
12.514	33.826	17098	17319	0	772
9.556	31.915	17263	16937	0	772
6.203	22.106	17318	16441	0	772
1.875	9.088	17263	15907	0	772
-0.433	3.678	17263	15373	0	772
2.380	8.366	17208	14839	0	772
6.491	18.464	17043	14362	0	772
11.973	28.273	17043	14018	0	772
12.153	27.984	16988	13770	0	772
8.006	22.322	16933	13560	0	772
1.154	12.658	16823	13426	0	772
-7.285	7.032	16768	13274	0	772
-13.956	5.229	16658	13064	0	772
-15.543	7.681	16438	12797	0	772
-13.415	11.937	16330	12549	0	772
-5.049	16.120	16110	12358	0	772
1.695	22.395	15945	12262	0	772
8.763	27.263	15780	12243	0	772
5.373	26.001	15560	12262	0	772
-4.616	18.103	15395	12243	0	772
-13.559	7.429	15176	12243	0	772
-14.028	-0.649	15121	12415	0	772
-5.445	1.767	15011	12854	0	772
7.212	12.081	15011	13331	0	772
14.136	23.368	14901	13598	0	772
10.674	27.443	14846	13675	0	772
3.787	26.650	14626	13770	0	772
2.272	21.673	14571	13980	0	772
4.291	17.598	14571	14304	0	772
9.953	14.281	14571	14667	0	772
8.006	11.864	14406	14953	0	772
4.255	10.674	14352	15144	0	772
-1.010	12.622	14352	15373	0	772
-0.252	18.247	14406	15697	0	772
5.265	23.332	14406	16060	0	772
8.366	24.558	14406	16384	0	772
7.285	19.762	14461	16632	0	772
1.875	11.612	14626	16899	0	772
1.839	8.402	14626	17109	0	772
7.573	11.215	14626	17280	0	772
16.264	20.555	14681	17376	0	772
21.096	28.633	14681	17414	0	772
14.677	29.463	14736	17471	0	772
4.039	22.178	14736	17567	0	772
-4.219	13.595	14846	17662	0	772
-7.104	5.590	14846	17662	0	772
-3.678	4.075	14846	17548	0	772
-1.839	4.364	14736	17357	0	772
-1.190	7.898	14626	17071	0	772
2.200	13.920	14461	16746	0	772
7.357	19.654	14352	16403	0	772
13.379	26.830	14187	16136	0	772
16.012	27.010	14022	15869	0	772
14.425	22.719	13802	15507	0	772
11.035	16.228	13527	15087	0	772
10.422	16.012	13253	14724	0	772
14.136	21.096	13088	14495	0	772
19.942	29.499	12813	14419	0	772
22.863	35.197	12703	14476	0	772
22.467	33.141	12648	14552	0	772
17.129	28.201	12428	14667	0	772
11.468	22.467	12428	14896	0	772
7.681	19.870	12428	15220	0	772
8.511	18.608	12483	15545	0	772
9.196	17.598	12428	15755	0	772
11.684	15.471	12483	15984	0	772
11.323	16.552	12483	16289	0	772
10.963	20.375	12538	16613	0	772
12.117	24.991	12648	16975	0	772
11.864	28.309	12813	17300	0	772
10.710	25.820	12813	17567	0	772
8.078	16.877	12978	17758	0	772
2.957	7.862	12978	17872	0	772
2.200	3.967	13198	17987	0	772
4.147	7.357	13198	18101	0	772
9.016	14.894	13308	18216	0	772
11.684	21.709	13527	18273	0	772
12.441	23.621	13472	18273	0	772
10.674	22.719	13637	18235	0	772
9.448	23.116	13637	18158	0	772
12.441	23.152	13582	17987	0	772
13.776	22.575	13637	17681	0	772
14.389	19.834	13472	17223	0	772
10.746	15.759	13308	16708	0	772
7.753	15.939	13198	16289	0	772
11.396	20.555	12978	15965	0	772
21.529	30.184	12923	15755	0	772
30.292	37.829	12703	15545	0	772
32.600	38.262	12648	15259	0	772
25.965	31.302	12428	15030	0	772
14.497	20.375	12209	14839	0	772
7.862	12.153	11824	14343	0	772
7.212	11.468	11384	13560	0	772
12.838	18.969	11000	12911	0	772
17.418	28.417	10560	12682	0	772
19.041	32.780	10341	12739	0	772
19.257	31.843	10231	12930	0	772
16.156	23.008	10066	13159	0	772
10.206	13.848	9901	13369	0	772
4.183	5.193	9516	13426	0	772
1.370	4.472	9406	13407	0	772
4.652	9.773	9187	13579	0	772
12.766	18.500	9132	14018	0	772
19.510	26.794	9132	14591	0	772
21.204	28.850	9187	15144	0	772
18.103	28.561	9242	15697	0	772
14.677	26.001	9406	16289	0	772
12.658	25.027	9461	16842	0	772
14.641	22.503	9461	17223	0	772
13.776	20.916	9406	17223	0	772
10.999	17.274	9242	16975	0	772
7.176	15.759	9187	16956	0	772
7.032	17.670	9242	17204	0	772
9.520	22.142	9406	17548	0	772
14.894	25.279	9461	17891	0	772
18.716	24.775	9681	18177	0	772
17.166	22.719	9791	18464	0	772
12.261	17.670	9956	18769	0	772
7.789	15.975	10066	19036	0	772
9.881	17.418	10450	19246	0	772
14.713	20.483	10505	19303	0	772
18.860	22.575	10505	19113	0	772
17.454	21.096	10505	18731	0	772
12.730	17.274	10505	18464	0	772
8.979	13.776	10560	18368	0	772
9.448	13.343	10725	18330	0	772
15.507	17.093	10615	18196	0	772
19.798	21.854	10725	17929	0	772
20.627	24.270	10725	17700	0	772
18.680	23.621	10615	17490	0	772
15.074	20.014	10615	17242	0	772
14.425	17.887	10615	16994	0	772
15.831	18.716	10615	16784	0	772
18.175	23.044	10615	16689	0	772
19.293	27.443	10615	16689	0	772
17.815	29.968	10835	16842	0	772
15.110	28.020	11000	16994	0	772
11.612	21.457	10890	16975	0	772
7.068	13.559	11055	16803	0	772
5.734	7.717	11055	16689	0	772
3.462	5.157	11055	16708	0	772
3.750	8.078	11110	16784	0	772
4.796	12.838	11275	16861	0	772
8.114	18.752	11330	16918	0	772
9.376	21.854	11384	16937	0	772
10.963	21.241	11549	16880	0	772
10.097	20.159	11439	16765	0	772
10.061	15.687	11439	16593	0	772
7.717	14.858	11439	16365	0	772
6.708	13.956	11275	16079	0	772
6.347	15.975	11110	15640	0	772
8.006	17.670	10890	15068	0	772
9.196	18.247	10560	14591	0	772
11.035	16.625	10560	14400	0	772
10.278	13.343	10341	14362	0	772
6.167	10.097	10231	14247	0	772
2.344	8.330	10011	14056	0	772
1.623	11.900	9901	14094	0	772
7.357	18.356	9901	14381	0	772
17.490	25.748	9956	14743	0	772
25.929	29.751	10011	15087	0	772
26.650	29.715	10011	15392	0	772
21.565	24.991	10011	15640	0	772
11.612	16.192	9956	15812	0	772
4.111	8.763	9901	15697	0	772
-0.793	3.065	9681	15411	0	772
-0.902	1.623	9626	15220	0	772
0.505	7.393	9461	15220	0	772
5.337	17.093	9406	15354	0	772
10.674	24.955	9461	15678	0	772
16.264	28.273	9626	16155	0	772
18.067	25.532	9681	16632	0	772
17.202	19.257	9901	17013	0	772
15.867	16.516	10066	17395	0	772
14.930	15.759	10341	17853	0	772
13.379	18.680	10615	18368	0	772
12.658	21.349	10835	18864	0	772
10.855	24.198	11275	19284	0	772
9.809	23.729	11549	19666	0	772
8.042	21.349	11879	20009	0	772
4.977	16.985	12264	20277	0	772
0.469	7.934	12538	20487	0	772
-3.282	2.993	12978	20658	0	772
-4.327	3.173	13253	20773	0	772
0.541	7.357	13582	20716	0	772
7.140	13.704	13857	20563	0	772
11.287	16.913	14077	20429	0	772
9.917	15.146	14406	20372	0	772
7.104	12.369	14681	20296	1	800
3.426	10.494	15011	20162	0	800
0.325	10.314	15286	19971	0	800
-0.938	10.783	15505	19800	0	800
-3.462	13.920	15725	19571	0	800
-1.767	21.241	15945	19170	0	800
7.465	31.915	16110	18788	0	800
21.601	43.527	16330	18502	0	800
30.184	44.897	16493	18292	0	800
28.453	34.475	16768	18158	0	800
13.631	17.959	17043	18120	0	800
-2.128	3.678	17208	17987	0	800
-6.744	3.282	17318	17700	0	800
-1.190	11.973	17537	17376	0	800
10.061	24.666	17647	17223	0	800
17.995	29.859	17867	17166	0	800
16.769	28.237	18087	17090	0	800
11.215	19.221	18197	16918	0	800
6.527	9.881	18362	16765	0	800
3.390	4.796	18581	16632	0	800
4.183	3.787	18746	16517	0	800
4.904	6.275	18856	16403	0	800
7.825	11.864	18966	16289	0	800
10.206	18.969	19131	16136	0	800
12.081	23.440	19131	15907	0	800
12.477	23.512	19021	15488	0	800
10.783	19.690	19021	15010	0	800
7.609	12.333	18966	14839	0	800
3.787	6.491	19241	14972	0	800
2.560	5.481	19186	14991	0	800
3.642	13.271	19131	14781	0	800
6.888	22.683	19021	14514	0	800
8.114	32.095	19021	14266	0	800
9.953	33.718	18856	14056	0	800
9.160	28.453	18746	13904	0	800
12.586	19.473	18746	13846	0	800
15.867	13.559	18636	13808	0	800
19.437	13.595	18471	13694	0	800
19.473	16.192	18362	13579	0	800
14.172	16.480	18197	13484	0	800
6.239	12.081	18032	13388	0	800
2.885	5.517	17757	13217	0	800
1.911	2.344	17592	13102	0	800
2.705	5.626	17482	13140	0	800
3.570	8.366	17373	13293	0	800
1.190	10.855	17263	13579	0	800
-2.344	8.655	17208	13846	0	800
-3.750	7.212	17098	14037	0	800
-0.505	9.412	16988	14133	0	800
6.239	16.192	16768	14209	0	800
12.369	23.116	16713	14285	0	800
14.785	26.433	16548	14400	0	800
11.720	23.729	16438	14552	0	800
4.652	17.598	16384	14743	0	800
-0.180	9.665	16330	14953	0	800
-2.344	4.472	16275	15163	0	800
-0.541	3.462	16220	15354	0	800
5.878	8.907	16000	15392	0	800
10.999	14.930	15945	15220	0	800
14.425	21.060	15505	14934	0	800
13.956	22.972	15231	14610	0	800
13.163	22.683	14956	14419	0	800
11.360	17.887	14736	14381	0	800
9.304	13.668	14461	14381	0	800
9.196	7.789	14187	14323	0	800
5.914	3.859	13912	14304	0	800
2.092	3.859	13802	14362	0	800
0.793	9.268	13637	14514	0	800
2.272	18.969	13527	14839	0	800
7.537	24.666	13527	15297	0	800
11.035	23.729	13637	15831	0	800
11.504	15.146	13637	16403	0	800
10.133	5.878	13857	16956	0	800
6.780	0.649	13857	17395	0	800
5.626	1.442	13912	17719	0	800
5.517	7.609	14022	17967	0	800
5.373	12.153	14132	18177	0	800
4.075	15.254	14187	18406	0	800
1.731	16.048	14406	18712	0	800
1.118	17.274	14626	19036	0	800
4.544	19.618	14626	19055	0	800
9.232	22.611	14297	18406	0	800
16.697	24.414	13857	17242	0	800
20.916	28.309	13472	16136	0	800
21.745	31.410	12978	15335	0	800
20.303	34.944	12703	14877	0	800
18.211	37.252	12374	14629	0	800
16.192	34.079	12154	14438	0	800
13.776	27.299	11879	14323	0	800
12.802	21.565	11714	14381	0	800
11.035	20.483	11604	14533	0	800
13.992	25.676	11439	14667	0	800
17.562	31.482	11330	14762	0	800
22.395	31.662	11000	14686	0	800
24.017	24.017	10890	14533	0	800
20.339	13.595	10615	14495	0	800
11.937	6.383	10505	14610	0	800
4.219	4.977	10286	14781	0	800
1.010	10.422	10176	14896	0	800
1.695	16.913	10011	14972	0	800
7.321	22.539	9956	15163	0	800
11.504	25.424	9791	15468	0	800
9.737	24.450	9736	15717	0	800
6.924	22.070	9516	15774	0	800
4.580	16.444	9516	15774	0	800
5.265	13.127	9406	15946	0	800
11.251	11.504	9461	16270	0	800
14.785	14.641	9516	16670	0	800
17.202	18.716	9626	17071	0	800
16.300	20.123	9626	17433	0	800
15.471	17.959	9736	17738	0	800
14.028	12.694	9791	18025	0	800
15.615	10.566	9956	18196	0	800
16.661	13.920	9956	18196	0	800
18.428	24.450	9956	18177	0	800
19.654	35.918	10011	18216	0	800
20.411	43.094	10066	18273	0	800
19.690	40.858	10066	18292	0	800
17.202	32.564	10176	18273	0	800
13.776	18.897	10231	18254	0	800
10.133	8.366	10231	18082	0	800
7.140	4.436	9956	17624	0	800
7.609	6.131	9681	16937	0	800
9.556	12.730	9461	16384	0	800
12.622	20.988	9352	15984	0	800
16.841	25.856	9187	15755	0	800
18.644	28.958	9077	15621	0	800
18.608	28.056	8857	15449	0	800
18.356	23.512	8802	15297	0	800
15.038	18.392	8802	15411	0	800
10.855	15.074	8857	15850	0	800
8.727	15.903	8967	16308	0	800
8.475	19.077	8967	16555	0	800
9.412	22.142	9077	16670	0	800
12.658	23.585	9132	16784	0	800
13.054	20.916	9242	17051	0	800
14.208	18.824	9461	17452	0	800
14.353	16.733	9626	17891	0	800
14.533	16.300	9791	18196	0	800
13.091	15.759	10011	18368	0	800
9.592	16.012	10176	18368	0	800
6.671	17.851	10176	18273	0	800
3.606	19.618	10286	18158	0	800
4.544	23.224	10341	18101	0	800
7.140	24.450	10505	18082	0	800
12.333	24.991	10615	18082	0	800
17.887	20.339	10725	18063	0	800
19.690	15.615	10780	18025	0	800
19.978	11.396	10890	17929	0	800
15.867	12.946	11000	17815	0	800
12.189	17.202	11055	17719	0	800
10.422	24.991	11165	17662	0	800
12.405	31.013	11330	17586	0	800
12.225	31.085	11275	17395	0	800
11.540	25.135	11330	17128	0	800
8.330	18.356	11275	16822	0	800
11.504	14.930	11165	16536	0	800
16.300	16.264	11165	16289	0	800
23.909	22.972	11110	16060	0	800
26.866	29.643	11055	15888	0	800
21.421	33.069	11055	15717	0	800
12.045	31.843	10890	15373	0	800
4.291	26.506	10560	14858	0	800
-0.180	19.185	10341	14400	0	800
-2.128	9.773	10176	14037	0	800
-1.767	1.046	9736	13446	0	800
-1.406	-0.505	9077	12491	0	800
1.082	4.796	8527	11594	0	800
4.688	14.569	8033	11098	0	800
9.448	23.332	7703	11003	0	800
10.494	27.624	7483	11213	0	800
11.107	25.099	7319	11690	0	800
10.819	20.591	7209	12281	0	800
12.261	15.867	7044	12644	0	800
11.973	13.523	6769	12797	0	800
13.523	14.858	6659	13083	0	800
14.208	16.877	6659	13655	0	800
18.824	22.755	6714	14400	0	800
25.063	30.617	6879	15278	0	800
31.194	35.341	7044	16251	0	800
30.112	33.574	7483	17280	0	800
21.313	25.784	7868	18330	0	800
7.970	15.759	8253	19246	0	800
-1.406	10.963	8692	20048	0	800
-1.911	13.559	9132	20792	0	800
4.400	20.339	9626	21460	0	800
12.333	24.342	10176	22013	0	800
18.067	24.306	10615	22490	0	800
18.969	19.942	11110	22929	0	800
17.743	17.310	11659	23216	0	800
17.129	17.346	12099	23273	0	800
17.057	19.221	12428	23120	0	800
15.507	21.637	12758	22853	0	800
13.631	23.729	13088	22548	0	800
10.350	25.532	13308	22185	0	800
6.311	24.630	13582	21746	1	780
7.501	26.830	13802	21212	0	780
11.973	28.741	14022	20639	0	780
20.303	31.049	14132	20105	0	780
24.811	30.400	14297	19628	0	780
21.890	23.729	14406	19132	0	780
15.038	18.356	14461	18578	0	780
6.960	15.254	14626	18044	0	780
8.835	20.555	14736	17681	0	780
13.307	29.571	14956	17529	0	780
17.634	33.105	15231	17471	0	780
17.454	28.741	15395	17357	0	780
11.576	18.572	15450	17032	0	780
5.085	10.061	15505	16517	0	780
1.190	5.481	15505	16022	0	780
2.236	7.934	15560	15717	0	780
3.029	10.783	15505	15411	0	780
3.318	13.127	15505	15087	0	780
3.354	13.559	15670	14953	0	780
5.554	15.795	15780	15068	0	780
7.789	17.851	15945	15297	0	780
12.081	19.293	16110	15545	0	780
13.631	17.490	16275	15697	0	780
10.891	13.704	16384	15697	0	780
5.445	10.963	16438	15659	0	780
4.219	13.307	16548	15736	0	780
7.176	21.313	16768	15850	0	780
14.785	31.951	16933	15946	0	780
19.329	35.016	16988	15984	0	780
18.824	27.624	16988	15812	0	780
9.953	12.550	16933	15488	0	780
1.875	-0.685	17043	15430	0	780
-3.498	-2.596	17208	15697	0	780
-1.551	7.573	17263	15869	0	780
4.111	23.188	17263	15755	0	780
7.321	31.374	17263	15526	0	780
10.025	28.381	17263	15392	0	780
8.258	17.418	17263	15316	0	780
7.212	6.888	17263	15239	0	780
8.835	2.885	17098	15030	0	780
10.530	6.635	16988	14743	0	780
12.910	15.831	16933	14552	0	780
17.093	24.991	16823	14552	0	780
20.267	32.853	16933	14724	0	780
24.162	35.954	16933	14934	0	780
23.621	34.547	16933	15144	0	780
22.539	29.535	17043	15392	0	780
17.490	25.027	17098	15640	0	780
12.730	20.050	17208	15831	0	780
10.819	16.841	17208	15907	0	780
10.710	16.444	17208	15926	0	780
13.379	18.536	17263	15926	0	780
15.903	23.512	17208	16003	0	780
15.651	27.010	17318	16175	0	780
10.710	27.299	17482	16479	0	780
5.085	21.204	17592	16803	0	780
0.902	13.595	17757	17032	0	780
2.056	8.727	17812	17071	0	780
5.481	10.386	17812	16937	0	780
8.330	13.740	17812	16784	0	780
7.140	20.087	17812	16746	0	780
6.058	23.224	17922	16899	0	780
7.176	26.614	18087	17071	0	780
9.737	25.388	18032	16899	0	780
13.018	22.214	17867	16498	0	780
12.441	14.930	17867	16365	0	780
8.763	9.232	17922	16479	0	780
9.016	8.583	17922	16498	0	780
11.251	14.208	17867	16213	0	780
16.408	22.539	17592	15697	0	780
19.546	28.237	17373	15220	0	780
20.123	30.508	17208	14877	0	780
21.709	32.780	17043	14686	0	780
24.378	34.331	16933	14648	0	780
28.128	34.295	16823	14667	0	780
26.722	28.741	16768	14743	0	780
17.634	17.779	16768	14896	0	780
3.931	5.301	16768	15106	0	780
-5.734	0.757	16713	15239	0	780
-8.330	4.219	16548	15239	0	780
-6.131	11.792	16438	15163	0	780
0.288	19.473	16384	15144	0	780
5.229	21.745	16330	15278	0	780
9.052	20.844	16330	15449	0	780
11.900	18.680	16330	15583	0	780
13.271	14.389	16330	15697	0	780
10.927	10.602	16275	15793	0	780
6.167	7.753	16110	15774	0	780
2.813	8.222	16055	15678	0	780
3.426	14.821	16000	15717	0	780
9.953	26.650	16000	15907	0	780
20.267	37.324	15945	16079	0	780
26.650	42.120	15835	16136	0	780
28.597	40.858	15780	16136	0	780
24.342	32.203	15725	16155	0	780
17.995	23.188	15780	16155	0	780
12.946	16.336	15560	16117	0	780
10.891	13.668	15450	15984	0	780
10.061	14.930	15286	15850	0	780
7.645	16.805	15176	15736	0	780
5.373	19.437	15121	15659	0	780
1.587	21.601	14901	15602	0	780
0.180	18.788	14736	15488	0	780
0.793	14.028	14571	15297	0	780
2.236	7.321	14352	15144	0	780
8.150	3.570	14187	15010	0	780
12.946	5.914	14022	14896	0	780
16.228	12.225	13747	14762	0	780
15.579	20.159	13527	14610	0	780
12.982	22.899	13363	14457	0	780
7.898	23.837	13033	14476	0	780
6.563	22.719	12978	14610	0	780
7.104	21.962	12758	14705	0	780
9.088	22.863	12538	14629	0	780
10.746	21.962	12099	14266	0	780
13.704	23.260	11714	13789	0	780
21.673	26.650	11330	13522	0	780
29.715	34.908	11110	13560	0	780
37.036	43.310	10890	13732	0	780
38.190	48.972	10725	13961	0	780
31.374	46.881	10505	14247	0	780
20.267	36.819	10341	14495	0	780
10.638	23.152	10286	14781	0	780
4.940	12.261	10231	15220	0	780
3.714	8.222	10231	15793	0	780
7.176	9.773	10341	16346	0	780
10.963	15.579	10341	16803	0	780
13.992	19.582	10505	17223	0	780
15.398	20.519	10505	17605	0	780
11.937	16.372	10560	17910	0	780
8.547	11.396	10615	18120	0	780
5.950	7.357	10725	18273	0	780
8.114	10.025	10780	18406	0	780
13.668	18.933	10835	18635	0	780
21.024	28.814	11055	18960	0	780
25.171	36.675	11165	19227	0	780
24.666	35.521	11330	19342	0	780
18.464	28.669	11384	19284	0	780
12.441	20.555	11384	19055	0	780
9.232	15.795	11165	18559	0	780
9.737	15.867	11055	17834	0	780
14.389	19.149	10780	17147	0	780
18.572	23.080	10505	16574	0	780
18.428	24.847	10286	16175	0	780
15.651	25.099	10231	15946	0	780
10.350	24.342	10066	15926	0	780
5.806	22.647	10066	16022	0	780
4.508	19.798	10066	16194	0	780
4.183	15.687	10176	16365	0	780
5.626	12.297	10231	16536	0	780
7.357	10.566	10341	16822	0	780
11.215	12.802	10505	17204	0	780
15.254	16.913	10725	17529	0	780
17.526	20.375	10835	17738	0	780
17.418	19.618	10890	17853	0	780
12.550	15.398	11000	17872	0	780
10.061	8.583	11110	17891	0	780
9.232	3.137	11275	17853	0	780
10.386	2.272	11110	17586	0	780
13.631	6.888	11000	17109	0	780
16.336	14.245	10835	16555	0	780
19.762	21.962	10505	16041	0	780
26.506	26.289	10450	15640	0	780
32.528	28.850	10231	15354	0	780
34.908	26.289	10176	15201	0	780
30.508	23.080	10066	15182	0	780
23.512	20.050	9956	15259	0	780
14.677	19.654	10176	15468	0	780
10.530	21.565	10231	15850	0	780
9.232	25.748	10286	16194	0	780
11.648	25.171	10286	16365	0	780
14.533	22.503	10341	16460	0	780
13.415	16.985	10505	16670	0	780
11.107	12.225	10725	16994	0	780
4.147	7.212	10890	17433	0	780
-4.075	5.337	11165	17948	0	780
-10.097	2.921	11549	18445	0	780
-10.422	5.950	11824	18884	0	780
-3.534	14.245	12264	19284	0	780
6.816	22.431	12538	19666	0	780
14.425	26.794	12978	20009	0	780
14.569	21.962	13253	20258	0	780
7.104	11.684	13637	20334	0	780
0.938	4.508	13857	20315	0	780
1.154	4.832	14132	20219	0	780
9.052	13.920	14461	20105	0	780
19.870	26.073	14681	19952	0	780
24.125	35.233	14901	19761	1	748
24.630	40.209	15121	19494	0	748
21.998	40.606	15231	19170	0	748
20.880	38.586	15395	18826	0	748
19.329	30.617	15505	18368	0	748
15.002	20.087	15450	17796	0	748
9.881	11.828	15395	17147	0	748
5.337	9.845	15176	16384	0	748
5.626	14.713	14901	15545	0	748
8.258	20.736	14736	14801	0	748
9.304	21.313	14681	14343	0	748
7.212	13.920	14571	14094	0	748
-0.829	5.517	14352	13827	0	748
-6.816	-0.938	14187	13560	0	748
-9.665	0.361	14132	13388	0	748
-7.176	6.311	14077	13407	0	748
-0.902	13.199	14022	13617	0	748
8.655	21.385	14077	13884	0	748
15.651	25.965	14022	14018	0	748
20.375	30.148	13912	14094	0	748
23.404	31.338	13912	14171	0	748
21.565	30.905	14022	14266	0	748
19.041	27.227	13802	14343	0	748
14.533	23.224	13747	14381	0	748
10.855	19.329	13747	14438	0	748
9.412	20.411	13582	14552	0	748
12.369	25.388	13747	14820	0	748
13.848	31.518	13747	15220	0	748
15.398	35.160	13802	15583	0	748
10.169	32.095	13857	15812	0	748
3.246	22.395	13857	15926	0	748
-5.373	9.376	13802	15965	0	748
-10.530	-1.587	13802	15965	0	748
-10.566	-7.032	13802	16022	0	748
-7.068	-6.960	13802	16213	0	748
-1.154	-1.226	13912	16403	0	748
0.974	4.219	13912	16536	0	748
1.911	5.770	13912	16632	0	748
2.380	5.049	13912	16689	0	748
3.931	1.551	14022	16765	0	748
7.898	-1.515	14022	16822	0	748
9.917	-2.092	14022	16746	0	748
10.350	-1.479	13912	16613	0	748
6.996	0.902	13857	16517	0	748
6.491	3.426	13912	16574	0	748
7.212	5.157	14022	16670	0	748
9.520	6.888	13912	16670	0	748
10.206	7.176	13857	16517	0	748
8.691	4.580	13912	16441	0	748
5.229	3.426	13857	16479	0	748
3.750	4.616	13857	16574	0	748
4.616	12.009	14022	16613	0	748
9.917	18.860	13912	16574	0	748
13.235	26.253	13912	16593	0	748
15.110	25.279	14077	16746	0	748
11.612	20.231	14132	16937	0	748
6.888	13.884	14187	17109	0	748
2.236	8.366	14297	17185	0	748
0.938	7.898	14406	17204	0	748
0.325	7.357	14461	17223	0	748
0.397	10.097	14461	17261	0	748
0.793	14.785	14571	17261	0	748
3.498	22.575	14681	17261	0	748
8.511	31.049	14681	17223	0	748
12.586	35.557	14681	17128	0	748
12.766	34.800	14736	17032	0	748
9.592	27.479	14736	16975	0	748
4.508	18.680	14846	16956	0	748
0.180	10.819	14846	16880	0	748
-2.200	6.491	14846	16765	0	748
-5.950	5.157	14846	16613	0	748
-11.468	4.327	14736	16403	0	748
-17.670	5.698	14901	16441	0	748
-19.365	9.088	15121	16822	0	748
-15.398	14.389	15176	17128	0	748
-8.907	17.526	15176	17032	0	748
-3.101	17.021	15176	16708	0	748
-3.354	12.550	15121	16479	0	748
-7.789	5.950	15176	16403	0	748
-12.694	-1.334	15231	16460	0	748
-16.661	-5.554	15231	16517	0	748
-18.608	-8.799	15286	16536	0	748
-20.627	-8.402	15395	16517	0	748
-19.293	-5.301	15286	16422	0	748
-15.218	3.137	15286	16327	0	748
-7.501	10.746	15286	16194	0	748
0.577	15.326	15286	16079	0	748
4.760	15.218	15231	15984	0	748
2.272	13.054	15121	15793	0	748
-2.092	10.963	15011	15583	0	748
-3.967	15.615	14901	15373	0	748
-3.606	22.395	14736	15106	0	748
1.046	28.128	14571	14801	0	748
4.868	29.066	14352	14552	0	748
6.203	24.270	14297	14495	0	748
4.075	14.317	14187	14552	0	748
-1.262	7.753	14077	14686	0	748
-3.678	4.219	14077	14820	0	748
-5.986	5.626	14022	14934	0	748
-3.967	11.504	13857	14972	0	748
0.577	17.490	13747	15010	0	748
8.943	23.693	13747	14991	0	748
17.959	28.381	13527	14934	0	748
23.909	28.020	13308	14839	0	748
27.660	24.017	13198	14724	0	748
24.739	16.589	13033	14705	0	748
20.123	10.855	13033	14934	0	748
15.615	10.783	12978	15297	0	748
14.785	15.579	12978	15430	0	748
17.382	23.080	12703	15278	0	748
22.863	30.725	12483	15030	0	748
28.814	32.853	12374	14858	0	748
30.004	30.545	12154	14781	0	748
28.597	26.830	11824	14705	0	748
23.945	24.414	11604	14572	0	748
20.772	25.171	11275	14323	0	748
22.719	29.643	11000	14133	0	748
28.309	33.754	10780	14094	0	748
30.112	32.420	10560	14209	0	748
27.515	26.722	10341	14400	0	748
19.077	20.195	10231	14552	0	748
10.422	15.146	10066	14648	0	748
5.806	13.776	9901	14743	0	748
6.239	14.821	9791	14934	0	748
12.369	18.716	9681	15239	0	748
17.995	24.739	9681	15583	0	748
22.611	29.354	9626	15907	0	748
22.791	32.203	9626	16232	0	748
19.185	29.210	9681	16536	0	748
14.677	23.404	9681	16784	0	748
12.622	17.995	9626	16994	0	748
14.064	18.320	9681	17242	0	748
17.887	21.926	9736	17605	0	748
19.077	25.712	9901	18025	0	748
18.572	24.558	10066	18425	0	748
11.900	17.202	10286	18750	0	748
9.196	10.602	10341	18979	0	748
8.763	7.537	10450	19074	0	748
10.999	10.855	10505	18960	0	748
12.874	17.454	10505	18731	0	748
15.435	23.224	10505	18483	0	748
14.605	25.135	10450	18254	0	748
16.120	25.027	10341	17929	0	748
17.129	24.125	10176	17433	0	748
16.192	19.293	10011	16899	0	748
12.766	14.281	9956	16632	0	748
8.042	11.251	9791	16613	0	748
6.744	13.379	9956	16632	0	748
13.631	23.440	9791	16555	0	748
21.745	37.649	9736	16384	0	748
30.436	46.195	9681	16232	0	748
31.518	44.573	9681	16194	0	748
23.729	33.502	9681	16327	0	748
13.668	19.834	9681	16460	0	748
7.609	12.009	9681	16479	0	748
7.862	13.235	9681	16403	0	748
14.317	21.529	9736	16422	0	748
21.709	30.653	9791	16632	0	748
22.935	34.043	9901	16918	0	748
20.411	29.859	10066	17204	0	748
15.543	23.116	10231	17471	0	748
8.294	15.074	10450	17700	0	748
5.878	10.314	10615	17967	0	748
3.606	9.484	10835	18235	0	748
3.173	11.323	11055	18483	0	748
8.078	15.254	11275	18616	0	748
14.172	20.375	11384	18654	0	748
20.123	24.017	11604	18731	0	748
22.935	24.053	11934	18903	0	748
23.332	21.637	12209	19170	0	748
19.906	15.290	12538	19456	0	748
18.031	13.379	12813	19685	0	748
19.365	15.110	13308	19838	0	748
23.476	21.637	13582	19990	0	748
24.053	29.354	13912	20162	0	748
24.919	31.446	14406	20315	0	748
21.204	30.689	14736	20410	0	748
17.959	26.289	15011	20296	0	748
17.418	20.736	15231	20009	0	748
17.706	16.949	15560	19723	0	748
18.211	14.533	15780	19494	0	748
19.077	14.136	16055	19303	1	724
19.077	13.740	16275	19132	0	724
20.844	15.507	16493	18903	0	724
21.421	17.346	16713	18654	0	724
21.781	18.067	16988	18445	0	724
19.473	16.769	17208	18254	0	724
17.166	14.425	17373	17987	0	724
13.884	9.088	17482	17643	0	724
12.586	6.239	17537	17204	0	724
14.281	8.258	17537	16765	0	724
16.985	16.769	17757	16460	0	724
24.558	27.587	17867	16327	0	724
27.227	34.223	18032	16194	0	724
26.109	31.518	18032	15984	0	724
20.050	22.683	18032	15697	0	724
13.379	12.622	18142	15468	0	724
12.874	9.052	18197	15316	0	724
15.759	12.405	18307	15220	0	724
21.132	19.798	18307	15106	0	724
25.316	23.116	18197	14934	0	724
22.178	23.621	18307	14762	0	724
16.841	19.834	18362	14667	0	724
12.117	16.877	18416	14820	0	724
11.251	16.913	18581	15144	0	724
12.874	19.906	18691	15316	0	724
17.887	21.890	18636	15144	0	724
20.375	21.421	18416	14686	0	724
19.005	20.159	18197	14171	0	724
17.815	17.959	18087	13789	0	724
19.978	18.139	17812	13465	0	724
24.919	21.096	17537	13121	0	724
29.391	26.397	17208	12682	0	724
32.203	32.636	16933	12301	0	724
31.194	39.199	16548	12110	0	724
26.578	43.202	16384	12110	0	724
22.322	40.858	16220	12224	0	724
17.382	31.987	16055	12377	0	724
10.133	19.510	16000	12625	0	724
6.131	9.737	15780	12892	0	724
4.075	8.258	15505	12949	0	724
6.275	11.937	15176	12797	0	724
8.330	17.995	14901	12759	0	724
9.881	22.106	14846	13007	0	724
9.448	22.322	14681	13426	0	724
6.347	20.375	14846	14018	0	724
2.813	17.743	14736	14705	0	724
-0.829	15.254	14846	15373	0	724
-3.354	13.163	14956	15965	0	724
-1.046	14.785	15011	16479	0	724
5.481	19.437	15231	16975	0	724
15.579	25.676	15286	17452	0	724
23.404	30.436	15450	17834	0	724
25.424	31.699	15560	18158	0	724
20.736	27.443	15725	18406	0	724
12.514	22.142	15780	18540	0	724
4.327	15.795	15835	18635	0	724
0.974	12.550	15945	18674	0	724
2.164	13.848	16000	18597	0	724
8.907	19.870	15945	18368	0	724
15.867	29.643	15780	17967	0	724
22.503	35.918	15725	17471	0	724
23.729	37.685	15560	17090	0	724
19.834	33.538	15395	16803	0	724
11.251	22.503	15011	16270	0	724
1.587	12.153	14681	15468	0	724
-2.885	6.960	14406	14915	0	724
-3.246	6.527	14297	14762	0	724
-0.180	10.458	14132	14877	0	724
3.137	16.372	14132	15144	0	724
5.085	18.247	14187	15507	0	724
4.255	19.077	14187	15831	0	724
5.265	17.166	14187	16041	0	724
6.239	15.110	14187	16194	0	724
8.475	13.127	14297	16384	0	724
11.792	14.028	14352	16613	0	724
15.543	16.156	14406	16861	0	724
17.129	19.834	14571	17128	0	724
18.536	22.503	14681	17433	0	724
17.598	21.132	14846	17700	0	724
16.048	16.841	14956	17967	0	724
15.110	12.766	15176	18216	0	724
16.625	11.251	15231	18330	0	724
18.788	13.523	15286	18177	0	724
20.195	16.480	15286	17891	0	724
22.142	21.781	15231	17624	0	724
21.673	23.260	15176	17395	0	724
21.818	23.080	15121	17166	0	724
18.247	18.752	15121	16918	0	724
12.369	12.982	14956	16574	0	724
5.662	6.671	14956	16251	0	724
-2.056	1.298	14846	16136	0	724
-4.940	0.216	14901	16308	0	724
-2.669	2.849	14846	16308	0	724
4.111	11.287	14571	15869	0	724
10.927	18.247	14352	15144	0	724
15.723	24.847	14022	14591	0	724
15.038	24.666	13857	14381	0	724
12.261	18.211	13747	14438	0	724
8.727	11.504	13582	14514	0	724
7.068	7.898	13472	14495	0	724
11.396	9.881	13363	14476	0	724
15.398	16.661	13198	14533	0	724
21.277	24.739	13198	14629	0	724
25.496	29.968	13033	14762	0	724
27.263	32.276	13033	14953	0	724
27.299	29.643	12978	15163	0	724
22.719	24.666	12923	15354	0	724
16.480	18.247	12923	15564	0	724
8.943	13.776	12813	15793	0	724
7.609	14.100	12758	15812	0	724
9.124	15.110	12374	15392	0	724
13.487	16.552	12099	14781	0	724
15.723	15.615	11824	14514	0	724
11.432	12.153	11824	14629	0	724
7.898	9.665	11659	14839	0	724
5.662	8.583	11439	15030	0	724
8.907	9.376	11549	15297	0	724
12.514	7.789	11439	15564	0	724
16.805	9.160	11439	15850	0	724
17.815	9.160	11549	16155	0	724
17.634	13.054	11439	16479	0	724
18.897	16.012	11604	16784	0	724
19.978	17.346	11659	17071	0	724
20.591	17.815	11659	17300	0	724
22.322	15.903	11824	17529	0	724
20.411	15.471	11879	17758	0	724
19.762	15.795	11934	17929	0	724
18.175	18.031	11989	17834	0	724
18.500	20.736	11879	17586	0	724
20.483	22.611	11824	17376	0	724
22.719	24.702	11659	17204	0	724
24.883	26.325	11604	16975	0	724
23.873	28.741	11549	16689	0	724
22.395	29.066	11275	16365	0	724
21.565	28.994	11110	16022	0	724
19.149	25.965	11000	15850	0	724
18.283	22.034	10890	15907	0	724
17.093	19.618	11000	16098	0	724
15.651	19.798	11110	16384	0	724
16.444	21.926	11110	16727	0	724
18.356	23.837	11330	17032	0	724
20.772	23.440	11549	17357	0	724
19.510	18.356	11604	17662	0	724
16.084	12.333	11659	17738	0	724
11.612	8.907	11384	17280	0	724
8.402	9.809	11055	16441	0	724
9.845	15.471	10835	15755	0	724
13.018	20.916	10725	15468	0	724
13.704	22.142	10560	15449	0	724
12.189	19.473	10560	15564	0	724
9.737	15.543	10560	15717	0	724
6.167	11.396	10505	15850	0	724
6.816	12.117	10505	15965	0	724
9.376	16.444	10615	16251	0	724
14.713	22.611	10835	16651	0	724
17.274	27.984	10890	16994	0	724
19.618	29.859	11055	17261	0	724
18.031	26.325	11330	17624	0	724
15.398	22.503	11659	18235	0	724
13.848	21.709	11989	18979	0	724
16.985	24.198	12483	19532	0	724
19.546	29.715	12703	19761	0	724
19.510	31.158	12978	19819	0	724
16.985	28.922	13198	19857	0	724
12.081	22.611	13472	19971	0	724
9.196	17.238	13912	20181	0	724
10.025	15.074	14297	20429	0	724
14.461	18.139	14626	20620	0	724
18.356	22.539	15011	20773	0	724
19.293	25.496	15450	20945	0	724
17.706	24.630	15945	21116	0	724
12.225	21.132	16384	21193	0	724
9.809	18.139	16713	21135	0	724
8.042	18.428	16933	20811	0	724
11.576	20.014	17208	20334	0	724
12.874	21.890	17537	20105	0	724
12.117	22.863	18032	20219	1	704
10.350	21.529	18416	20334	0	704
8.258	22.250	18746	20296	0	704
10.206	22.142	19241	20143	0	704
11.684	21.204	19680	20029	0	704
12.045	16.552	20065	19971	0	704
9.232	12.874	20504	19876	0	704
6.419	10.530	20669	19571	0	704
8.078	15.723	20889	19036	0	704
10.927	23.549	21164	18483	0	704
14.353	30.472	21329	18120	0	704
14.569	28.345	21603	17891	0	704
7.862	19.906	21933	17662	0	704
2.813	9.520	22043	17395	0	704
-0.036	4.688	22263	17109	0	704
4.652	9.124	22482	16861	0	704
11.864	19.762	22757	16670	0	704
18.608	27.660	22867	16479	0	704
21.277	31.374	23032	16289	0	704
17.670	28.489	23142	16041	0	704
13.704	21.890	23307	15774	0	704
9.701	15.975	23416	15602	0	704
5.157	12.658	23581	15564	0	704
4.147	11.864	23801	15640	0	704
3.750	15.038	23966	15678	0	704
6.203	18.969	24131	15659	0	704
8.943	22.719	24405	15640	0	704
8.006	23.080	24515	15736	0	704
4.364	19.149	24790	15965	0	704
0.469	14.461	25175	16213	0	704
-0.721	10.242	25340	16365	0	704
0.433	8.907	25559	16365	0	704
3.390	9.412	25779	16365	0	704
6.599	13.307	25889	16403	0	704
7.862	16.336	26164	16517	0	704
11.900	20.952	26438	16593	0	704
15.002	26.686	26603	16632	0	704
15.723	28.886	26823	16670	0	704
13.199	29.931	27098	16765	0	704
10.278	27.047	27263	16918	0	704
5.554	19.978	27482	16975	0	704
4.544	14.641	27702	16842	0	704
6.347	11.576	27702	16574	0	704
9.881	14.533	27757	16213	0	704
14.533	19.041	27647	15793	0	704
17.526	25.460	27647	15392	0	704
18.356	27.912	27482	15049	0	704
15.326	27.876	27427	14648	0	704
13.271	25.640	27153	14152	0	704
10.855	23.693	26933	13655	0	704
12.658	19.906	26878	13388	0	704
13.848	17.382	26713	13312	0	704
16.589	16.012	26548	13255	0	704
16.805	18.103	26384	13102	0	704
18.788	23.837	26274	13007	0	704
21.457	31.194	26054	12949	0	704
23.945	36.639	25889	12892	0	704
24.702	36.603	25779	12930	0	704
21.709	30.112	25614	13026	0	704
16.805	21.890	25340	13045	0	704
12.838	16.372	25175	12911	0	704
13.595	17.779	24790	12778	0	704
16.805	24.414	24625	12778	0	704
21.241	31.915	24460	12911	0	704
24.522	35.449	24241	13102	0	704
22.972	33.285	24076	13197	0	704
19.293	26.902	23636	13026	0	704
14.533	21.998	23252	12587	0	704
11.107	20.411	22867	12339	0	704
14.172	22.647	22592	12510	0	704
20.303	26.686	22263	12778	0	704
25.135	30.689	22043	12930	0	704
28.525	31.446	21878	13083	0	704
25.820	31.085	21603	13369	0	704
21.854	26.614	21438	13732	0	704
19.185	22.539	21329	14094	0	704
17.057	17.887	21109	14381	0	704
17.021	15.182	20944	14629	0	704
16.552	17.202	20834	14934	0	704
18.428	23.440	20669	15278	0	704
23.080	28.922	20669	15678	0	704
28.092	33.610	20504	16003	0	704
29.895	32.853	20394	16175	0	704
29.066	28.164	20285	16270	0	704
23.008	19.942	20285	16498	0	704
15.651	12.441	20230	16842	0	704
10.963	9.160	20120	17051	0	704
8.619	11.179	19955	16994	0	704
9.881	18.211	19790	16765	0	704
12.477	25.279	19680	16593	0	704
15.074	28.958	19460	16593	0	704
16.769	28.092	19405	16689	0	704
16.949	25.965	19241	16784	0	704
17.706	24.919	19131	16803	0	704
20.411	28.741	19131	16765	0	704
24.198	31.374	18911	16784	0	704
26.758	31.410	18856	16822	0	704
26.325	27.876	18746	16822	0	704
24.630	23.404	18581	16784	0	704
21.385	22.142	18581	16784	0	704
21.890	25.965	18581	16899	0	704
23.621	32.780	18471	17109	0	704
25.820	36.206	18471	17300	0	704
22.827	33.682	18471	17376	0	704
17.995	26.974	18471	17357	0	704
10.278	18.860	18362	17261	0	704
6.131	15.471	18197	17128	0	704
5.409	17.454	18197	17071	0	704
10.169	23.188	18197	17109	0	704
15.615	28.309	18142	17071	0	704
19.762	29.931	17922	16918	0	704
21.998	29.391	17757	16555	0	704
20.591	24.270	17537	16079	0	704
16.589	19.257	17263	15659	0	704
11.792	13.127	17043	15316	0	704
6.708	6.816	16713	15030	0	704
2.128	4.580	16330	14572	0	704
1.154	6.347	15835	13961	0	704
1.839	14.569	15450	13446	0	704
4.940	22.683	15176	13274	0	704
7.898	29.391	14956	13388	0	704
11.179	27.443	14736	13598	0	704
9.196	21.024	14461	13751	0	704
7.068	12.045	14352	13923	0	704
4.039	5.950	14187	14209	0	704
2.849	7.573	14132	14533	0	704
6.275	12.189	13912	14801	0	704
10.061	20.447	13857	15010	0	704
15.651	29.571	13802	15278	0	704
18.933	37.468	13747	15659	0	704
25.712	42.878	13802	16232	0	704
29.679	43.455	14022	16842	0	704
31.482	36.062	14077	17395	0	704
28.056	25.027	14132	17815	0	704
20.087	15.759	14352	18120	0	704
12.946	14.677	14406	18425	0	704
10.855	21.818	14461	18693	0	704
13.235	30.977	14626	18807	0	704
15.326	36.206	14571	18769	0	704
14.425	31.662	14681	18616	0	704
9.701	22.683	14571	18483	0	704
5.770	13.920	14571	18349	0	704
7.789	11.504	14461	18139	0	704
14.208	15.939	14406	17853	0	704
21.204	20.123	14297	17471	0	704
22.034	23.693	14022	17013	0	704
18.897	22.431	13857	16479	0	704
12.333	22.250	13637	16079	0	704
9.268	23.837	13472	15869	0	704
9.809	26.830	13472	15793	0	704
7.212	26.037	13198	15640	0	704
6.167	18.428	13033	15354	0	704
2.488	11.179	12923	15201	0	704
5.301	9.160	12813	15297	0	704
13.018	16.625	12813	15583	0	704
20.447	28.273	12813	15926	0	704
25.243	33.898	12978	16232	0	704
19.870	29.282	12978	16441	0	704
9.737	15.687	13088	16651	0	704
0.649	4.364	13088	16880	0	704
-3.859	4.003	13198	17090	0	704
-1.731	12.982	13308	17242	0	704
1.442	26.542	13253	17280	0	704
3.210	36.351	13308	17223	0	704
2.164	39.019	13308	17204	0	704
-1.154	34.656	13363	17319	0	704
-5.445	28.777	13472	17414	0	704
-8.439	24.847	13363	17376	0	704
-13.631	21.998	13527	17338	0	704
-18.428	20.339	13582	17414	0	704
-21.818	17.526	13637	17624	0	704
-26.361	12.910	13857	17815	0	704
-27.768	8.979	13912	17872	0	704
-31.915	6.671	13912	17777	0	704
-34.439	9.232	14077	17700	0	704
-34.583	15.146	14132	17624	0	704
-32.420	19.798	14132	17586	0	704
-27.948	22.755	14297	17605	0	704
-23.549	19.690	14406	17643	0	704
-22.142	14.713	14406	17548	0	704
-21.168	11.828	14406	17319	0	704
-21.709	12.586	14571	17261	0	704
-18.175	18.897	14846	17567	0	704
-11.107	24.775	15121	18025	0	704
-4.255	29.895	15450	18483	0	704
-2.056	29.391	15780	18941	0	704
-4.075	26.325	16330	19456	0	704
-8.078	21.781	16823	20067	0	704
-12.369	16.480	17263	20639	0	704
-13.631	12.333	17812	21059	0	704
-14.858	7.212	18362	21384	0	704
-16.769	3.750	18911	21689	0	704
-20.844	2.344	19570	21975	0	704
-19.690	5.085	20120	22300	0	704
-15.074	10.350	20779	22529	0	704
-6.671	16.805	21219	22567	0	704
-0.938	20.195	21768	22433	0	704
1.803	19.762	22263	22242	0	704
0.865	17.454	22757	22013	0	704
-0.252	15.182	23142	21708	0	704
2.164	14.677	23416	21193	1	800
8.222	16.733	23526	20334	0	800
13.487	19.077	23636	19284	0	800
16.336	20.123	23691	18406	0	800
14.281	19.077	23856	17738	0	800
11.792	18.392	23966	17204	0	800
10.133	19.473	24076	16746	0	800
10.242	20.808	24186	16346	0	800
10.963	23.044	24351	15965	0	800
11.071	21.385	24405	15621	0	800
8.150	17.959	24460	15259	0	800
8.006	15.074	24460	14839	0	800
8.907	16.192	24405	14323	0	800
12.838	21.024	24351	13827	0	800
14.281	25.748	24241	13426	0	800
14.208	28.489	24186	13140	0	800
10.819	25.316	24131	12988	0	800
8.294	20.988	24076	12873	0	800
8.042	17.706	24076	12854	0	800
11.684	17.093	24076	12930	0	800
17.743	21.745	24076	13045	0	800
23.044	27.047	24076	13178	0	800
28.669	33.177	24076	13369	0	800
29.968	34.547	24186	13675	0	800
28.597	34.259	24351	14094	0	800
25.820	31.879	24460	14572	0	800
20.808	29.968	24625	14934	0	800
19.221	29.607	24790	15239	0	800
17.743	28.056	24790	15488	0	800
17.887	26.001	24680	15392	0	800
16.084	21.745	24351	14705	0	800
14.100	19.149	23966	13770	0	800
11.396	18.067	23636	13159	0	800
10.242	18.860	23362	12930	0	800
10.566	20.195	23087	12854	0	800
11.432	21.168	22977	12873	0	800
9.340	19.726	22757	12968	0	800
6.888	15.687	22702	13083	0	800
5.373	13.379	22482	13217	0	800
7.753	14.028	22318	13426	0	800
14.533	19.726	22318	13751	0	800
22.214	27.010	22263	14056	0	800
26.578	32.239	22043	14209	0	800
25.856	29.931	21933	14285	0	800
21.349	24.378	21878	14476	0	800
15.398	17.923	21713	14686	0	800
11.612	15.218	21493	14743	0	800
9.340	16.300	21329	14648	0	800
8.547	21.096	21109	14533	0	800
11.071	26.145	20944	14648	0	800
14.497	32.600	20944	14991	0	800
19.041	36.531	20944	15468	0	800
20.700	36.098	21109	16060	0	800
19.221	31.085	21219	16632	0	800
14.245	24.089	21329	17109	0	800
6.383	17.166	21438	17452	0	800
4.832	16.444	21493	17738	0	800
3.714	18.608	21603	18063	0	800
4.796	22.142	21878	18349	0	800
7.212	25.243	21933	18597	0	800
7.970	24.342	22153	18884	0	800
7.176	23.585	22427	19246	0	800
6.167	21.673	22592	19571	0	800
4.400	16.444	22867	19723	0	800
-0.252	11.107	22977	19647	0	800
-1.046	8.330	23032	19437	0	800
1.010	10.133	23087	19246	0	800
5.806	18.680	23252	19093	0	800
10.891	28.345	23362	18979	0	800
9.809	31.590	23526	18941	0	800
4.544	26.650	23636	18903	0	800
-2.128	15.651	23801	18769	0	800
-6.131	6.167	23911	18597	0	800
-5.085	2.236	24131	18559	0	800
-2.741	5.193	24186	18483	0	800
1.118	12.333	24186	18120	0	800
4.364	19.221	24076	17452	0	800
8.835	23.693	23911	16765	0	800
11.468	25.784	23801	16232	0	800
13.451	22.250	23636	15812	0	800
10.819	18.933	23526	15488	0	800
8.366	13.091	23362	15278	0	800
6.131	10.350	23307	15144	0	800
7.753	10.819	23307	15049	0	800
10.314	14.136	23252	15010	0	800
14.605	20.231	23252	15030	0	800
19.149	26.722	23142	15068	0	800
23.008	32.239	23252	14972	0	800
23.368	33.718	22867	14667	0	800
21.385	30.617	22318	13923	0	800
17.706	25.784	21768	12797	0	800
16.444	21.854	21219	11785	0	800
19.726	23.909	20614	11155	0	800
25.460	30.436	20230	10812	0	800
29.715	35.052	19735	10697	0	800
30.869	36.206	19460	10831	0	800
26.001	31.699	19131	11136	0	800
19.329	25.388	18966	11575	0	800
13.379	20.555	18911	12091	0	800
10.566	18.500	18746	12720	0	800
9.160	17.490	18691	13407	0	800
9.701	15.543	18746	14114	0	800
9.809	12.405	18746	14762	0	800
8.042	7.898	18691	15278	0	800
7.862	7.068	18636	15564	0	800
10.927	9.520	18636	15774	0	800
17.238	17.743	18471	16060	0	800
25.424	27.299	18581	16460	0	800
30.472	33.069	18636	16918	0	800
31.843	34.043	18636	17300	0	800
28.453	29.643	18636	17548	0	800
22.034	23.440	18691	17681	0	800
18.464	19.510	18746	17891	0	800
17.382	19.798	18746	18177	0	800
22.178	24.883	18911	18387	0	800
27.299	31.915	18911	18425	0	800
32.420	36.351	18746	18292	0	800
30.076	34.223	18746	18101	0	800
24.739	27.515	18856	18063	0	800
16.048	16.625	18746	18101	0	800
13.127	9.773	18856	18063	0	800
14.028	7.862	18746	17815	0	800
18.969	11.107	18636	17471	0	800
23.440	15.903	18471	17185	0	800
23.621	19.582	18416	16975	0	800
21.024	21.277	18362	16842	0	800
16.444	18.320	18307	16708	0	800
13.307	13.271	18087	16555	0	800
9.124	6.022	17867	16194	0	800
6.455	1.154	17647	15640	0	800
4.977	-1.298	17482	15335	0	800
4.760	0.036	17318	15354	0	800
8.114	3.173	17263	15392	0	800
8.330	5.806	17098	15392	0	800
9.124	7.609	17098	15526	0	800
8.078	12.550	17098	15793	0	800
9.268	17.923	17208	16117	0	800
13.668	25.243	17263	16384	0	800
20.231	27.624	17318	16574	0	800
23.260	26.253	17318	16746	0	800
23.296	22.106	17373	16899	0	800
22.611	20.844	17482	17032	0	800
21.854	25.893	17482	17185	0	800
23.729	32.131	17537	17300	0	800
24.883	37.180	17537	17242	0	800
24.234	36.567	17482	16994	0	800
21.457	31.158	17318	16746	0	800
19.401	24.630	17263	16593	0	800
16.841	19.437	17263	16555	0	800
16.841	17.093	17098	16536	0	800
15.687	16.769	17208	16460	0	800
16.156	17.887	17098	16479	0	800
15.471	19.582	17263	16708	0	800
13.740	19.329	17482	17109	0	800
11.864	16.841	17647	17471	0	800
10.602	12.189	17647	17662	0	800
8.330	7.970	17647	17529	0	800
9.196	5.662	17537	17109	0	800
8.907	8.006	17537	16842	0	800
7.357	11.540	17592	16899	0	800
6.599	16.336	17812	17128	0	800
6.635	20.303	17922	17490	0	800
7.537	21.421	18197	17967	0	800
7.573	20.195	18636	18540	0	800
7.573	18.500	19131	19208	0	800
6.563	17.779	19460	19819	0	800
8.366	19.293	19845	20143	0	800
11.864	22.683	20120	20162	0	800
16.985	28.056	20559	20124	0	800
22.070	32.131	20669	20200	0	800
23.440	34.259	21109	20219	0	800
22.395	32.492	21329	20162	0	800
19.077	27.768	21658	20105	0	800
12.982	21.204	22043	20048	0	800
6.491	16.949	22263	20009	1	696
5.698	17.382	22592	19952	0	696
6.996	21.673	22867	19819	0	696
11.396	25.929	23087	19590	0	696
13.704	26.578	23307	19132	0	696
11.396	24.270	23307	18483	0	696
6.888	20.303	23307	17891	0	696
3.354	16.877	23362	17414	0	696
3.859	15.182	23362	16956	0	696
4.868	14.208	23307	16384	0	696
9.052	13.451	23142	15717	0	696
10.314	15.038	23087	15182	0	696
11.251	17.418	23087	14839	0	696
10.458	21.673	23032	14648	0	696
8.943	24.053	23032	14572	0	696
5.554	23.657	23032	14572	0	696
7.429	23.044	23087	14552	0	696
11.576	20.736	23142	14591	0	696
16.552	20.591	23252	14743	0	696
19.365	21.241	23362	15010	0	696
17.093	20.880	23526	15163	0	696
12.225	21.457	23252	14877	0	696
9.160	20.195	23032	14266	0	696
9.917	21.241	22812	13846	0	696
13.018	23.080	22812	13827	0	696
15.579	25.243	22757	14018	0	696
16.985	28.886	22702	14056	0	696
18.536	31.807	22482	13827	0	696
18.428	30.761	22263	13617	0	696
18.392	27.912	22208	13636	0	696
15.723	23.332	22153	13808	0	696
11.864	19.293	22043	13999	0	696
10.602	17.887	22043	14266	0	696
9.665	16.805	22043	14533	0	696
7.717	13.595	22043	14781	0	696
2.849	8.150	22153	15144	0	696
-1.623	4.400	22263	15755	0	696
-2.524	5.878	22482	16384	0	696
3.606	14.605	22592	16689	0	696
15.507	23.909	22702	16784	0	696
21.818	27.515	22702	16861	0	696
21.745	25.820	22757	16975	0	696
16.552	18.860	22812	17090	0	696
12.405	15.795	22812	17109	0	696
14.172	18.392	22867	17090	0	696
17.923	24.883	22977	17109	0	696
23.837	31.590	22977	17204	0	696
22.467	32.672	23087	17338	0	696
16.949	29.102	23252	17529	0	696
10.963	20.591	23362	17700	0	696
5.409	10.350	23526	17815	0	696
0.685	2.488	23581	17872	0	696
-0.757	0.577	23691	17872	0	696
-0.469	3.354	23856	17853	0	696
2.308	11.035	23911	17796	0	696
6.022	16.625	23911	17681	0	696
9.592	20.303	23966	17567	0	696
11.071	20.844	24131	17509	0	696
9.556	16.733	24186	17509	0	696
7.537	13.992	24241	17452	0	696
7.573	10.494	24351	17338	0	696
10.783	11.251	24351	17166	0	696
15.975	14.461	24351	16975	0	696
20.700	20.303	24241	16689	0	696
23.188	26.073	24186	16346	0	696
23.945	30.869	24076	15984	0	696
22.503	34.115	23856	15583	0	696
24.342	33.754	23581	15010	0	696
24.378	30.725	23252	14323	0	696
23.260	25.279	22977	13846	0	696
18.969	18.392	22757	13675	0	696
14.281	13.704	22592	13655	0	696
10.819	10.674	22482	13617	0	696
7.609	5.734	22263	13579	0	696
7.176	2.056	22043	13617	0	696
6.022	-0.505	21988	13808	0	696
3.823	-0.613	21988	14037	0	696
-0.180	1.190	21878	14304	0	696
-5.409	2.885	21768	14514	0	696
-10.927	2.705	21878	14743	0	696
-14.317	2.921	21713	14953	0	696
-12.622	4.364	21658	15125	0	696
-5.481	6.131	21603	15278	0	696
2.633	10.602	21658	15468	0	696
8.583	14.281	21493	15659	0	696
10.530	19.870	21438	15831	0	696
9.376	26.073	21493	16003	0	696
9.809	31.554	21384	16155	0	696
10.891	32.312	21438	16251	0	696
12.586	29.138	21329	16289	0	696
12.117	23.765	21219	16346	0	696
9.556	20.844	21329	16422	0	696
8.727	23.404	21219	16498	0	696
10.746	29.679	21164	16517	0	696
17.634	37.324	21109	16498	0	696
22.719	40.029	20944	16441	0	696
23.044	34.475	20889	16327	0	696
17.743	23.945	20669	16136	0	696
10.710	13.523	20614	15907	0	696
6.780	9.701	20340	15678	0	696
6.960	13.668	20120	15373	0	696
10.674	19.762	19735	14972	0	696
11.792	26.686	19515	14572	0	696
9.448	27.515	19131	14304	0	696
5.698	28.453	18966	14247	0	696
6.058	27.227	18856	14343	0	696
9.448	25.676	18581	14476	0	696
15.615	19.473	18471	14591	0	696
18.897	10.422	18416	14801	0	696
18.680	4.760	18362	15125	0	696
16.372	7.645	18307	15488	0	696
14.425	19.077	18362	15831	0	696
15.435	31.843	18471	16270	0	696
19.690	40.065	18581	16765	0	696
25.784	39.380	18636	17242	0	696
30.184	33.141	18856	17662	0	696
31.518	26.506	18966	17929	0	696
30.581	24.847	18746	17834	0	696
25.207	24.486	18471	17223	0	696
22.827	25.243	18142	16384	0	696
21.060	26.542	17867	15831	0	696
20.267	26.001	17592	15621	0	696
18.680	26.506	17537	15621	0	696
15.398	24.955	17482	15736	0	696
12.550	23.224	17373	15926	0	696
10.278	18.969	17482	16136	0	696
9.809	15.254	17373	16346	0	696
10.927	13.704	17318	16460	0	696
12.225	14.677	17318	16498	0	696
11.937	16.264	17263	16517	0	696
14.497	19.113	17208	16498	0	696
16.120	20.519	17043	16403	0	696
19.149	23.332	16933	16289	0	696
21.962	26.181	16768	16136	0	696
23.368	32.059	16658	15946	0	696
26.830	35.485	16438	15697	0	696
27.660	36.387	16275	15449	0	696
30.148	33.213	16110	15373	0	696
25.856	23.909	16000	15411	0	696
19.510	14.389	15945	15507	0	696
11.684	8.439	15835	15659	0	696
7.898	9.304	15780	15850	0	696
10.133	14.785	15725	15984	0	696
12.874	20.231	15725	16117	0	696
12.153	19.257	15725	16308	0	696
4.652	11.287	15725	16460	0	696
-5.626	1.154	15670	16536	0	696
-12.405	-5.337	15560	16536	0	696
-14.353	-4.472	15505	16593	0	696
-9.737	0.938	15670	16765	0	696
-2.921	9.268	15670	16994	0	696
0.361	14.497	15725	17204	0	696
4.544	17.093	15780	17376	0	696
5.157	17.851	15835	17567	0	696
8.006	18.933	16110	17834	0	696
14.858	23.188	16275	18177	0	696
22.070	31.085	16438	18502	0	696
30.545	40.281	16548	18750	0	696
36.459	46.232	16823	18979	0	696
35.629	42.661	16988	19189	0	696
30.220	35.882	17318	19399	0	696
24.414	25.893	17647	19685	0	696
20.087	23.332	17922	19971	0	696
19.510	25.640	18142	20048	0	696
21.096	32.456	18307	19857	0	696
22.683	36.459	18471	19571	0	696
19.185	34.764	18691	19418	0	696
14.245	27.263	18911	19475	0	696
5.481	14.858	19241	19532	1	672
-3.823	2.452	19405	19399	0	672
-10.963	-4.832	19515	19151	0	672
-16.408	-6.816	19845	19074	0	672
-17.887	-3.282	20065	19151	0	672
-15.579	0.757	20504	19303	0	672
-12.153	2.849	20779	19399	0	672
-7.898	3.462	21164	19437	0	672
-3.354	2.885	21438	19475	0	672
-1.370	5.373	21878	19551	0	672
-1.046	6.239	22208	19609	0	672
0.036	8.475	22482	19532	0	672
4.039	12.261	22757	19342	0	672
12.369	17.923	23087	19208	0	672
19.834	24.919	23416	19170	0	672
27.047	29.931	23801	19189	0	672
26.542	31.230	24131	19170	0	672
25.424	28.814	24405	19036	0	672
23.116	24.378	24735	18826	0	672
22.791	23.440	25010	18616	0	672
24.017	24.017	25285	18445	0	672
22.863	24.739	25504	18311	0	672
20.591	26.866	25834	18139	0	672
18.392	25.856	25999	17948	0	672
15.038	24.847	26274	17681	0	672
11.720	20.303	26438	17357	0	672
7.753	12.297	26548	17032	0	672
0.325	2.849	26713	16803	0	672
-7.140	-6.383	26878	16555	0	672
-12.297	-11.756	26823	16213	0	672
-14.172	-9.412	26823	15659	0	672
-11.756	-3.859	26823	15010	0	672
-5.986	3.390	26603	14476	0	672
-3.606	7.573	26603	14114	0	672
-2.092	6.635	26548	13865	0	672
-3.246	2.777	26384	13541	0	672
-2.488	0.361	26109	13083	0	672
3.065	3.282	25889	12606	0	672
10.710	12.081	25724	12262	0	672
20.591	25.676	25504	12072	0	672
27.191	37.793	25285	11976	0	672
32.672	44.248	25010	11862	0	672
33.934	45.366	24900	11823	0	672
35.449	41.363	24735	11919	0	672
34.151	36.062	24515	12033	0	672
31.230	31.446	24351	12091	0	672
26.794	27.804	24131	12129	0	672
21.421	26.109	23966	12320	0	672
18.572	24.666	23911	12644	0	672
15.435	23.404	23856	13026	0	672
11.612	20.087	23801	13484	0	672
8.006	13.307	23801	13942	0	672
0.433	5.373	23636	14266	0	672
-4.472	-2.236	23581	14247	0	672
-6.167	-3.318	23142	13942	0	672
-2.019	2.236	22812	13617	0	672
7.825	11.179	22482	13446	0	672
18.211	21.673	22208	13407	0	672
25.784	27.443	21988	13484	0	672
30.977	29.066	21658	13503	0	672
30.545	27.010	21384	13541	0	672
27.407	22.431	21219	13675	0	672
24.883	17.057	20944	13865	0	672
22.142	15.326	20779	13961	0	672
22.719	15.398	20504	14075	0	672
24.053	18.933	20285	14266	0	672
24.775	22.935	20285	14591	0	672
23.585	23.621	20230	15087	0	672
20.627	22.358	20285	15793	0	672
19.762	19.834	20340	16498	0	672
19.762	19.113	20559	17071	0	672
20.916	19.870	20504	17529	0	672
22.539	19.942	20669	18006	0	672
20.231	21.421	20834	18464	0	672
19.546	22.322	21109	18884	0	672
18.247	22.683	21219	19284	0	672
15.759	24.053	21438	19628	0	672
11.864	20.988	21658	19933	0	672
6.347	14.317	21878	20105	0	672
0.252	6.744	21988	20162	0	672
-0.469	2.885	22043	19971	0	672
3.462	5.301	21768	19303	0	672
12.189	14.677	21329	18063	0	672
20.375	25.352	21054	16842	0	672
25.352	31.374	20669	16194	1	336
25.135	32.456	20559	15946	0	336
22.106	28.777	20285	15678	0	336
18.788	23.008	20120	15278	0	336
15.975	21.132	19845	15049	0	336
15.290	20.123	19790	15068	0	336
14.281	20.411	19680	15125	0	336
14.785	19.762	19570	15125	0	336
14.064	17.274	19296	14991	0	336
12.261	15.723	19241	14820	0	336
12.261	16.264	19021	14705	0	336
12.441	19.654	18911	14839	0	336
14.821	24.270	18966	15278	0	336
18.139	28.886	19131	15812	0	336
19.510	29.138	19021	16155	0	336
20.700	29.354	19021	16270	0	336
17.346	26.794	19021	16251	0	336
13.595	22.250	18911	16232	0	336
9.592	17.238	18856	16213	0	336
10.097	15.435	18856	16251	0	336
13.631	18.175	18691	16308	0	336
22.972	25.099	18746	16384	0	336
