neuroNicle FX2
D3F25R12
Bluetooth SPP
2023년 11월 18일 토요일
오후 7:46
time interval = 4msec
EEG1	EEG2	PPG	sdPPG	pulse	peak_interval(msec)
3.246	-11.360	17060	20980	0	856
6.527	-9.665	17398	20950	0	856
8.619	-7.717	17733	20877	0	856
7.429	-8.763	18056	20762	0	856
3.823	-12.189	18370	20607	0	856
2.633	-16.336	18668	20417	1	808
3.173	-15.903	18957	20195	0	808
6.888	-16.120	19229	19943	0	808
9.376	-13.559	19486	19665	0	808
10.819	-8.439	19725	19367	0	808
10.278	-8.186	19955	19054	0	808
11.179	-6.780	20161	18727	0	808
11.287	-6.960	20356	18391	0	808
11.612	-6.131	20526	18048	0	808
10.891	-3.101	20685	17699	0	808
6.888	-2.669	20825	17351	0	808
3.282	-0.685	20961	17024	0	808
1.911	-1.983	21083	16721	0	808
3.462	-1.515	21186	16425	0	808
6.455	-0.685	21273	16127	0	808
9.304	1.947	21347	15834	0	808
11.071	4.364	21407	15562	0	808
9.196	3.534	21463	15318	0	808
4.291	1.983	21505	15099	0	808
-2.200	0.613	21537	14901	0	808
-2.957	0.541	21563	14720	0	808
3.065	5.229	21570	14549	0	808
9.412	10.133	21567	14381	0	808
15.471	11.035	21550	14227	0	808
11.468	5.986	21536	14106	0	808
3.318	0.541	21515	14021	0	808
-0.108	-2.236	21493	13966	0	808
1.262	-1.731	21474	13939	0	808
6.563	4.255	21448	13935	0	808
10.855	5.193	21420	13944	0	808
9.376	4.075	21382	13952	0	808
6.347	1.370	21331	13950	0	808
5.157	1.010	21274	13949	0	808
5.157	0.902	21221	13968	0	808
6.131	1.262	21163	14011	0	808
4.400	-0.505	21102	14060	0	808
1.767	-2.741	21039	14112	0	808
-0.108	-5.517	20976	14171	0	808
-0.397	-4.003	20906	14238	0	808
0.036	-3.137	20839	14308	0	808
-1.587	-1.190	20767	14380	0	808
-1.839	0.252	20691	14453	0	808
-1.875	0.865	20609	14514	0	808
0.108	2.705	20525	14568	0	808
1.262	3.246	20440	14632	0	808
-0.865	4.003	20362	14710	0	808
-5.517	3.714	20281	14800	0	808
-7.140	4.075	20209	14896	0	808
-5.229	7.068	20130	14989	0	808
-2.164	10.674	20054	15076	0	808
3.606	15.543	19982	15167	0	808
8.402	18.031	19918	15270	0	808
9.088	20.519	19853	15380	0	808
8.799	20.700	19789	15480	0	808
4.688	21.926	19725	15573	0	808
0.072	20.844	19673	15672	0	808
-3.282	21.962	19621	15775	0	808
-1.298	20.700	19566	15871	0	808
0.144	17.021	19517	15957	0	808
0.072	15.146	19465	16032	0	808
-3.714	11.756	19416	16101	0	808
-5.806	10.891	19368	16165	0	808
-4.472	15.110	19318	16221	0	808
0.829	16.733	19266	16264	0	808
4.940	18.897	19214	16292	0	808
7.357	16.877	19162	16316	0	808
4.544	15.326	19112	16346	0	808
-0.108	14.605	19069	16382	0	808
-3.065	14.677	19024	16415	0	808
-1.911	18.175	18981	16441	0	808
-0.036	18.139	18939	16459	0	808
3.137	19.618	18895	16475	0	808
4.977	19.690	18855	16488	0	808
2.849	21.529	18811	16495	0	808
3.426	23.368	18760	16486	0	808
4.724	25.027	18702	16454	0	808
8.186	26.830	18644	16411	0	808
12.297	25.712	18586	16378	0	808
13.956	25.424	18528	16351	0	808
14.966	22.250	18468	16321	0	808
11.828	20.555	18408	16287	0	808
11.215	16.913	18345	16254	0	808
7.537	14.136	18280	16223	0	808
6.888	9.773	18218	16194	0	808
6.419	8.799	18160	16177	0	808
6.888	7.862	18098	16167	0	808
8.258	8.439	18035	16146	0	808
6.996	8.186	17963	16104	0	808
6.022	8.871	17880	16048	0	808
4.940	7.104	17797	15991	0	808
4.616	4.580	17712	15936	0	808
10.133	6.780	17621	15884	0	808
16.084	10.350	17528	15830	0	808
22.070	14.605	17430	15775	0	808
23.152	16.228	17334	15728	0	808
19.257	11.648	17237	15694	0	808
11.540	7.681	17144	15671	0	808
5.265	4.616	17048	15653	0	808
6.527	7.970	16948	15633	0	808
7.862	13.127	16852	15616	0	808
10.963	18.969	16754	15607	0	808
13.235	16.480	16656	15604	0	808
15.903	16.264	16559	15604	0	808
16.084	14.930	16458	15605	0	808
20.123	16.913	16361	15608	0	808
21.096	16.949	16267	15618	0	808
20.339	16.697	16174	15640	0	808
16.733	14.785	16080	15667	0	808
17.202	9.953	15989	15691	0	808
17.562	10.278	15893	15709	0	808
21.096	10.602	15798	15727	0	808
21.998	12.297	15708	15749	0	808
21.673	14.136	15613	15772	0	808
21.998	14.028	15514	15785	0	808
20.050	16.589	15410	15779	0	808
20.808	16.552	15307	15766	0	808
21.349	18.716	15207	15769	0	808
17.923	18.897	15108	15790	0	808
16.516	20.303	15014	15815	0	808
15.867	20.988	14921	15838	0	808
20.627	24.847	14830	15863	0	808
23.945	25.460	14734	15884	0	808
24.775	24.883	14641	15901	0	808
19.870	22.575	14551	15919	0	808
12.514	19.906	14462	15942	0	808
7.753	16.516	14373	15969	0	808
11.504	16.516	14285	15993	0	808
14.749	13.992	14199	16013	0	808
14.569	10.061	14115	16036	0	808
9.845	8.006	14038	16066	0	808
3.859	7.681	13959	16101	0	808
4.616	8.943	13882	16130	0	808
11.432	11.143	13803	16152	0	808
19.077	15.326	13731	16176	0	808
19.654	14.821	13663	16211	0	808
16.444	14.785	13598	16254	0	808
10.891	15.146	13535	16294	0	808
8.979	15.146	13477	16331	0	808
13.776	17.779	13423	16370	0	808
18.031	18.752	13371	16409	0	808
22.611	21.854	13316	16442	0	808
21.781	20.267	13263	16463	0	808
16.805	18.175	13210	16479	0	808
8.619	16.336	13160	16494	0	808
4.075	12.766	13108	16510	0	808
2.669	11.107	13067	16528	0	808
6.671	11.720	13019	16546	0	808
12.658	13.704	12974	16559	0	808
14.930	14.208	12933	16567	0	808
13.848	18.788	12893	16574	0	808
9.412	16.625	12854	16584	0	808
6.131	17.346	12813	16591	0	808
8.979	15.867	12773	16590	0	808
13.018	18.175	12722	16565	0	808
16.084	18.247	12667	16519	0	808
17.598	20.627	12611	16472	0	808
12.550	18.716	12554	16433	0	808
9.340	19.942	12497	16396	0	808
10.674	17.274	12442	16363	0	808
13.812	18.392	12385	16331	0	808
15.002	18.320	12327	16299	0	808
13.127	18.500	12274	16272	0	808
9.412	15.651	12224	16259	0	808
6.527	15.615	12175	16260	0	808
12.730	15.543	12122	16254	0	808
18.572	20.231	12063	16229	0	808
24.306	23.188	12006	16194	0	808
22.575	27.010	11947	16165	0	808
17.706	27.119	11887	16146	0	808
11.792	26.289	11831	16132	0	808
11.973	23.152	11767	16114	0	808
12.153	22.827	11707	16092	0	808
10.314	21.168	11649	16078	0	808
10.422	17.418	11599	16085	0	808
7.573	14.677	11556	16117	0	808
8.186	13.379	11529	16172	0	808
10.278	13.235	11510	16249	0	808
12.946	16.913	11511	16355	0	808
13.451	19.978	11529	16492	0	808
15.362	22.467	11566	16654	0	808
18.860	24.342	11624	16840	0	808
20.519	21.565	11709	17061	0	808
18.283	22.214	11825	17325	0	808
15.326	23.152	11972	17622	0	808
10.891	21.673	12146	17944	0	808
6.852	23.080	12349	18282	0	808
7.068	22.178	12577	18624	0	808
7.934	24.017	12829	18964	0	808
11.648	29.391	13103	19298	0	808
14.821	35.810	13396	19616	0	808
20.159	41.039	13700	19907	0	808
21.998	41.760	14016	20158	0	808
21.313	36.314	14332	20360	0	808
21.024	26.974	14657	20515	0	808
15.543	18.969	14983	20637	0	808
11.900	10.674	15317	20730	0	808
9.917	8.366	15648	20786	0	808
12.153	7.176	15982	20803	0	808
16.228	8.727	16306	20778	0	808
21.673	8.691	16625	20711	0	808
22.142	6.780	16934	20602	0	808
17.526	4.868	17241	20467	0	808
14.100	3.101	17541	20315	1	808
12.153	1.406	17828	20132	0	808
11.540	-1.118	18094	19906	0	808
11.215	-4.688	18352	19648	0	808
8.799	-7.934	18588	19366	0	808
7.898	-8.583	18804	19056	0	808
11.287	-5.445	19005	18724	0	808
18.644	-0.036	19189	18388	0	808
20.375	1.803	19359	18053	0	808
19.618	1.118	19520	17731	0	808
14.605	-2.957	19678	17433	0	808
10.855	-5.554	19823	17153	0	808
12.045	-5.878	19955	16879	0	808
18.608	-4.183	20075	16609	0	808
19.005	-1.803	20183	16350	0	808
17.670	-1.875	20281	16106	0	808
12.514	-2.560	20371	15880	0	808
10.206	-4.580	20449	15666	0	808
13.559	-3.137	20516	15466	0	808
17.093	-2.705	20575	15280	0	808
20.880	0.144	20622	15113	0	808
19.618	3.750	20668	14967	0	808
18.860	6.635	20703	14841	0	808
17.562	11.035	20732	14729	0	808
19.978	12.009	20749	14628	0	808
21.962	10.963	20762	14538	0	808
22.358	6.527	20768	14464	0	808
22.935	3.318	20767	14404	0	808
19.654	-0.613	20758	14353	0	808
19.293	0.469	20741	14307	0	808
14.821	2.272	20719	14269	0	808
15.002	3.570	20686	14242	0	808
16.985	4.327	20654	14226	0	808
22.539	5.337	20615	14221	0	808
25.207	4.760	20565	14217	0	808
24.666	2.200	20505	14204	0	808
20.952	-0.180	20435	14184	0	808
15.218	-1.442	20361	14167	0	808
17.526	0.902	20279	14163	0	808
18.500	4.616	20201	14175	0	808
21.024	10.061	20114	14200	0	808
20.591	11.576	20026	14228	0	808
16.841	8.763	19939	14263	0	808
13.091	5.770	19856	14320	0	808
14.677	3.750	19776	14401	0	808
15.218	3.750	19694	14491	0	808
17.093	7.970	19620	14582	0	808
15.903	12.874	19540	14676	0	808
14.677	15.903	19466	14777	0	808
12.441	20.447	19395	14887	0	808
10.242	19.293	19331	15005	0	808
11.864	20.988	19269	15131	0	808
11.468	22.755	19215	15257	0	808
12.261	22.503	19159	15381	0	808
14.461	23.296	19108	15505	0	808
12.946	24.522	19061	15627	0	808
7.717	22.899	19016	15743	0	808
4.039	23.981	18972	15849	0	808
0.577	28.056	18926	15942	0	808
3.714	29.138	18880	16023	0	808
10.963	30.328	18829	16085	0	808
16.877	30.761	18779	16136	0	808
17.021	26.938	18731	16186	0	808
12.045	24.630	18685	16238	0	808
7.934	21.385	18644	16289	0	808
7.176	20.087	18602	16337	0	808
10.819	21.313	18562	16381	0	808
14.389	21.096	18520	16415	0	808
15.074	23.260	18483	16443	0	808
9.845	21.601	18441	16465	0	808
5.373	21.096	18396	16476	0	808
6.744	23.080	18352	16479	0	808
12.477	24.198	18315	16487	0	808
17.490	26.902	18280	16503	0	808
20.808	27.371	18241	16513	0	808
15.579	22.539	18203	16514	0	808
10.169	18.247	18160	16508	0	808
7.681	16.625	18119	16494	0	808
10.278	15.579	18073	16470	0	808
11.143	15.723	18018	16436	0	808
11.576	18.536	17963	16394	0	808
8.150	17.454	17907	16350	0	808
6.671	18.392	17855	16317	0	808
7.825	18.211	17802	16294	0	808
13.704	19.473	17745	16262	0	808
14.064	20.555	17681	16220	0	808
13.199	19.690	17623	16179	0	808
7.140	20.988	17558	16146	0	808
1.659	17.670	17495	16115	0	808
1.767	19.654	17428	16079	0	808
6.419	19.906	17354	16037	0	808
12.225	23.368	17280	15990	0	808
17.959	26.217	17205	15947	0	808
17.057	24.883	17129	15912	0	808
16.084	23.981	17050	15886	0	808
11.720	25.748	16973	15861	0	808
10.278	26.109	16890	15830	0	808
12.297	30.833	16809	15799	0	808
15.218	31.807	16725	15773	0	808
21.601	30.581	16641	15756	0	808
23.549	28.850	16558	15745	0	808
25.135	28.561	16471	15735	0	808
22.935	30.689	16386	15727	0	808
16.877	30.941	16305	15722	0	808
15.398	31.554	16216	15720	0	808
13.631	29.463	16132	15720	0	808
13.631	26.974	16043	15719	0	808
11.107	25.496	15953	15718	0	808
10.278	23.296	15866	15720	0	808
7.970	24.378	15777	15725	0	808
12.189	24.811	15691	15734	0	808
14.713	27.912	15601	15743	0	808
15.975	26.722	15506	15742	0	808
13.559	22.863	15407	15732	0	808
9.665	17.923	15307	15716	0	808
12.874	14.461	15209	15706	0	808
19.221	17.562	15108	15706	0	808
26.001	21.890	15014	15719	0	808
22.142	23.981	14924	15740	0	808
13.848	18.392	14836	15767	0	808
5.481	13.992	14752	15801	0	808
4.724	10.638	14674	15845	0	808
14.172	15.326	14603	15901	0	808
22.827	18.752	14530	15960	0	808
26.506	21.781	14460	16012	0	808
20.772	16.625	14389	16053	0	808
17.057	12.441	14319	16091	0	808
12.802	9.881	14256	16131	0	808
14.317	10.710	14191	16176	0	808
11.684	12.622	14131	16221	0	808
8.006	10.278	14074	16262	0	808
0.938	7.104	14016	16300	0	808
-0.757	4.688	13964	16339	0	808
1.010	2.777	13914	16382	0	808
5.229	6.383	13864	16419	0	808
10.061	8.763	13817	16450	0	808
12.045	12.153	13771	16473	0	808
13.487	13.451	13722	16494	0	808
11.179	16.949	13679	16515	0	808
8.439	16.048	13636	16532	0	808
8.006	18.572	13589	16539	0	808
12.477	17.238	13544	16538	0	808
17.454	18.356	13495	16535	0	808
21.565	15.398	13451	16531	0	808
19.582	14.713	13409	16526	0	808
15.687	11.900	13360	16517	0	808
11.720	9.340	13313	16503	0	808
11.360	9.304	13263	16482	0	808
11.432	8.150	13211	16455	0	808
9.917	7.248	13164	16431	0	808
6.816	7.104	13119	16417	0	808
8.619	9.556	13070	16409	0	808
7.789	10.530	13017	16384	0	808
5.806	10.927	12954	16335	0	808
2.741	8.583	12888	16275	0	808
0.000	8.222	12825	16225	0	808
1.731	8.511	12760	16189	0	808
6.527	12.550	12701	16164	0	808
12.441	19.437	12642	16143	0	808
11.287	17.779	12580	16122	0	808
5.301	16.048	12520	16107	0	808
-0.757	10.314	12468	16107	0	808
-4.652	5.517	12424	16123	0	808
-2.633	2.633	12384	16157	0	808
2.957	5.878	12354	16208	0	808
7.537	8.727	12336	16279	0	808
7.862	11.396	12335	16377	0	808
6.744	9.773	12353	16504	0	808
3.390	8.006	12391	16666	0	808
2.056	5.950	12451	16858	0	808
3.426	6.852	12533	17075	0	808
5.409	10.386	12639	17315	0	808
8.294	10.963	12773	17579	0	808
9.845	11.504	12927	17860	0	808
12.802	9.953	13103	18145	0	808
11.792	7.573	13300	18429	0	808
8.835	6.888	13514	18708	0	808
8.547	4.652	13745	18974	0	808
7.501	3.029	13989	19219	0	808
8.547	3.534	14243	19441	0	808
9.448	3.750	14506	19638	0	808
11.756	0.577	14779	19809	0	808
9.088	-2.416	15059	19953	0	808
5.554	-6.131	15345	20068	0	808
3.642	-9.124	15633	20154	0	808
2.056	-7.537	15920	20207	0	808
4.075	-7.393	16208	20221	0	808
6.167	-5.517	16488	20197	0	808
6.022	-6.563	16761	20136	0	808
3.823	-6.888	17029	20040	0	808
0.793	-5.229	17290	19916	0	808
3.967	0.685	17540	19763	1	764
8.871	6.275	17773	19577	0	764
15.687	9.196	17999	19364	0	764
16.444	8.619	18223	19149	0	764
13.776	2.741	18434	18931	0	764
12.153	-2.957	18624	18687	0	764
9.881	-6.852	18798	18410	0	764
9.052	-7.753	18953	18114	0	764
8.871	-9.845	19098	17817	0	764
7.537	-10.169	19230	17526	0	764
6.527	-11.756	19352	17243	0	764
7.357	-10.602	19455	16962	0	764
11.035	-7.573	19550	16683	0	764
10.530	-9.304	19633	16418	0	764
10.025	-9.268	19710	16177	0	764
6.527	-10.963	19774	15951	0	764
6.744	-14.136	19829	15738	0	764
6.058	-13.956	19878	15539	0	764
5.950	-12.694	19914	15354	0	764
5.698	-13.776	19945	15190	0	764
5.770	-12.658	19972	15049	0	764
5.662	-10.025	19996	14932	0	764
9.484	-8.943	20003	14822	0	764
8.763	-7.753	20001	14710	0	764
5.409	-7.321	19994	14603	0	764
2.019	-6.311	19983	14525	0	764
1.983	-5.842	19970	14477	0	764
3.101	-1.659	19956	14443	0	764
7.321	0.144	19929	14413	0	764
4.940	1.226	19892	14378	0	764
2.019	1.875	19848	14339	0	764
-1.479	1.046	19801	14315	0	764
0.325	0.649	19746	14307	0	764
-0.108	-1.587	19693	14307	0	764
-1.046	-5.229	19635	14315	0	764
-3.570	-6.671	19571	14333	0	764
-7.068	-5.265	19508	14362	0	764
-6.491	-2.416	19439	14397	0	764
-5.950	1.623	19368	14430	0	764
-5.193	2.705	19291	14465	0	764
-4.580	2.921	19216	14509	0	764
-6.203	2.056	19144	14569	0	764
-5.698	1.803	19072	14643	0	764
-3.498	2.452	19009	14731	0	764
-5.842	3.642	18944	14829	0	764
-4.400	4.147	18880	14928	0	764
-5.698	5.229	18822	15026	0	764
-7.717	6.852	18765	15129	0	764
-7.717	8.078	18712	15241	0	764
-7.357	7.934	18663	15354	0	764
-7.465	7.140	18614	15466	0	764
-6.671	8.222	18571	15574	0	764
-8.402	6.708	18528	15680	0	764
-9.917	5.049	18489	15785	0	764
-14.641	3.318	18449	15877	0	764
-15.579	0.505	18404	15950	0	764
-14.281	-0.397	18359	16013	0	764
-14.749	-0.469	18315	16071	0	764
-12.586	2.200	18270	16125	0	764
-14.100	2.308	18235	16180	0	764
-17.526	0.469	18198	16240	0	764
2.596	16.228	17623	16045	0	772
1.118	17.815	17539	15967	0	772
0.180	14.245	17451	15902	0	772
-1.659	11.179	17370	15854	0	772
-3.967	7.789	17282	15810	0	772
-5.698	5.914	17192	15765	0	772
-5.085	5.301	17099	15720	0	772
-2.993	9.484	17005	15681	0	772
-1.442	9.881	16915	15652	0	772
-0.865	10.061	16823	15631	0	772
-0.829	7.032	16726	15613	0	772
-4.219	5.842	16631	15596	0	772
-5.265	3.787	16533	15581	0	772
-5.878	5.554	16442	15576	0	772
-4.255	7.176	16348	15581	0	772
-1.875	8.907	16256	15590	0	772
0.938	9.629	16159	15597	0	772
1.334	12.297	16065	15603	0	772
1.370	12.838	15968	15614	0	772
1.082	14.028	15878	15632	0	772
1.947	12.658	15784	15655	0	772
4.039	10.819	15695	15680	0	772
4.472	11.756	15603	15707	0	772
5.121	11.035	15517	15734	0	772
2.849	11.360	15428	15765	0	772
2.344	12.910	15343	15796	0	772
1.875	13.595	15255	15825	0	772
4.147	12.477	15165	15849	0	772
5.517	14.064	15078	15865	0	772
6.888	14.821	14983	15875	0	772
6.960	13.631	14895	15890	0	772
6.960	16.084	14815	15920	0	772
8.835	15.975	14737	15959	0	772
8.763	17.166	14654	15994	0	772
7.573	15.326	14576	16019	0	772
5.842	14.569	14498	16044	0	772
3.642	11.937	14425	16079	0	772
1.731	9.448	14358	16125	0	772
4.183	10.242	14287	16162	0	772
5.590	10.963	14211	16179	0	772
5.914	10.422	14133	16181	0	772
5.950	12.045	14057	16182	0	772
5.698	10.422	13982	16190	0	772
5.590	10.169	13908	16202	0	772
6.744	8.402	13836	16212	0	772
4.977	6.708	13761	16215	0	772
2.272	4.039	13690	16218	0	772
-1.334	2.200	13621	16227	0	772
-2.560	2.957	13557	16243	0	772
-1.190	5.229	13490	16262	0	772
3.534	7.645	13431	16279	0	772
7.573	10.061	13366	16294	0	772
11.251	11.323	13309	16311	0	772
10.422	10.602	13255	16332	0	772
11.792	9.809	13200	16355	0	772
10.350	10.278	13151	16376	0	772
7.429	7.825	13099	16393	0	772
4.688	4.652	13050	16412	0	772
-1.082	0.685	13003	16428	0	772
-4.183	-4.039	12954	16440	0	772
-7.140	-4.472	12907	16449	0	772
-3.065	-1.370	12854	16445	0	772
0.865	3.895	12800	16432	0	772
5.878	5.842	12752	16425	0	772
6.275	5.301	12707	16428	0	772
6.888	4.868	12662	16434	0	772
5.517	4.039	12622	16441	0	772
6.780	7.212	12581	16450	0	772
9.665	8.871	12541	16457	0	772
10.927	9.737	12501	16460	0	772
12.982	8.619	12464	16461	0	772
10.999	5.986	12426	16462	0	772
9.520	4.760	12388	16462	0	772
10.025	5.626	12345	16450	0	772
9.052	7.357	12301	16432	0	772
7.681	8.727	12265	16425	0	772
7.429	10.566	12232	16430	0	772
8.402	9.665	12194	16430	0	772
8.475	9.340	12154	16417	0	772
9.737	7.934	12113	16397	0	772
9.809	9.124	12072	16380	0	772
8.979	9.124	12032	16365	0	772
6.960	8.330	11990	16351	0	772
7.393	8.402	11948	16337	0	772
7.789	9.845	11908	16324	0	772
10.458	10.638	11872	16315	0	772
9.268	11.684	11836	16313	0	772
8.475	12.261	11801	16318	0	772
7.357	10.566	11774	16332	0	772
6.780	9.052	11753	16360	0	772
4.616	8.294	11746	16406	0	772
2.272	7.429	11749	16484	0	772
0.902	6.058	11779	16600	0	772
-0.613	6.563	11829	16754	0	772
3.029	9.376	11896	16937	0	772
9.016	12.838	11985	17135	0	772
13.451	16.877	12100	17355	0	772
16.300	17.562	12244	17615	0	772
14.208	17.706	12424	17916	0	772
13.235	16.192	12626	18239	0	772
10.674	16.949	12856	18569	0	772
9.376	17.057	13113	18900	0	772
8.222	18.536	13384	19223	0	772
8.186	17.526	13676	19524	0	772
6.996	17.454	13982	19799	0	772
8.006	14.245	14302	20055	0	772
8.799	15.290	14640	20290	0	772
10.999	14.497	14983	20491	0	772
13.379	16.625	15331	20657	0	772
13.848	17.274	15686	20784	0	772
15.218	18.824	16042	20869	0	772
11.973	15.471	16390	20907	0	772
10.061	12.477	16738	20898	0	772
6.455	8.943	17082	20855	0	772
4.760	5.085	17428	20788	0	772
3.318	4.544	17766	20698	0	772
3.498	3.282	18101	20577	1	804
4.544	5.626	18418	20419	0	804
4.400	5.517	18730	20222	0	804
6.599	6.852	19016	19987	0	804
7.645	5.986	19286	19715	0	804
7.104	5.085	19538	19408	0	804
6.491	4.688	19774	19087	0	804
5.914	2.308	19995	18763	0	804
5.193	4.580	20208	18444	0	804
7.501	4.219	20409	18134	0	804
7.104	4.616	20601	17835	0	804
5.662	3.029	20780	17543	0	804
4.039	1.803	20944	17251	0	804
3.823	1.803	21091	16954	0	804
4.832	4.436	21215	16647	0	804
8.006	7.357	21324	16340	0	804
7.501	7.717	21422	16050	0	804
4.400	8.763	21505	15782	0	804
2.705	7.357	21569	15516	0	804
2.741	8.402	21626	15257	0	804
3.787	9.484	21671	15028	0	804
4.940	11.828	21711	14837	0	804
5.337	11.035	21745	14674	0	804
2.524	8.402	21770	14534	0	804
0.180	7.104	21792	14415	0	804
1.190	5.986	21806	14317	0	804
3.678	6.671	21819	14246	0	804
5.878	11.287	21839	14212	0	804
8.150	12.838	21852	14209	0	804
7.789	13.812	21857	14210	0	804
5.193	11.792	21852	14198	0	804
5.373	9.016	21837	14182	0	804
6.022	9.340	21818	14175	0	804
5.950	8.366	21787	14175	0	804
6.708	7.285	21750	14173	0	804
5.770	6.058	21699	14161	0	804
6.996	8.583	21641	14146	0	804
13.343	12.153	21581	14142	0	804
19.329	16.300	21516	14155	0	804
26.830	20.988	21451	14183	0	804
27.696	20.087	21381	14217	0	804
29.391	20.664	21304	14249	0	804
30.617	21.132	21227	14287	0	804
35.088	25.604	21150	14336	0	804
42.986	30.184	21073	14396	0	804
49.766	34.908	20994	14462	0	804
56.185	38.658	20912	14530	0	804
57.375	39.344	20838	14609	0	804
58.817	39.740	20763	14701	0	804
62.784	40.173	20692	14805	0	804
63.613	41.724	20625	14912	0	804
66.823	42.409	20556	15013	0	804
67.400	45.366	20490	15109	0	804
65.164	43.960	20422	15205	0	804
60.801	41.868	20358	15305	0	804
56.545	38.983	20299	15409	0	804
50.775	34.583	20241	15513	0	804
48.792	28.741	20184	15612	0	804
45.799	24.017	20130	15703	0	804
44.284	23.080	20074	15785	0	804
44.537	22.286	20022	15866	0	804
40.678	21.998	19969	15940	0	804
36.567	20.844	19916	16006	0	804
32.492	15.254	19861	16062	0	804
28.453	10.097	19804	16110	0	804
24.342	5.049	19755	16155	0	804
18.392	1.767	19706	16207	0	804
14.569	-0.505	19662	16260	0	804
9.845	-2.164	19608	16293	0	804
6.419	-2.596	19551	16303	0	804
7.717	-3.426	19492	16301	0	804
7.248	-4.003	19434	16301	0	804
5.481	-5.337	19381	16309	0	804
2.957	-5.986	19324	16316	0	804
-0.793	-8.078	19261	16311	0	804
-3.065	-7.573	19198	16289	0	804
-4.364	-8.042	19131	16263	0	804
-6.635	-7.501	19063	16238	0	804
-7.645	-10.097	18998	16217	0	804
-9.052	-11.287	18930	16199	0	804
-8.439	-12.405	18860	16179	0	804
-6.527	-12.802	18791	16157	0	804
-3.967	-10.133	18718	16132	0	804
-3.282	-7.789	18644	16101	0	804
-4.003	-5.590	18560	16061	0	804
-3.498	-8.222	18476	16015	0	804
-5.085	-8.763	18390	15971	0	804
-4.472	-9.917	18302	15935	0	804
-6.203	-9.629	18221	15911	0	804
-9.484	-11.720	18134	15890	0	804
-11.251	-10.819	18044	15864	0	804
-13.018	-10.386	17947	15828	0	804
-11.864	-9.268	17847	15781	0	804
-9.592	-7.573	17741	15730	0	804
-11.287	-5.229	17635	15687	0	804
-12.730	-6.347	17528	15655	0	804
-15.507	-7.104	17424	15631	0	804
-16.625	-5.409	17322	15619	0	804
-13.812	-4.003	17219	15617	0	804
-12.045	-2.164	17122	15623	0	804
-10.891	-1.082	17032	15644	0	804
-12.982	-3.354	16942	15676	0	804
-17.706	-5.049	16845	15701	0	804
-19.293	-6.419	16745	15703	0	804
-21.024	-6.311	16641	15694	0	804
-18.969	-4.436	16536	15690	0	804
-18.680	-2.524	16432	15694	0	804
-18.067	-2.741	16329	15698	0	804
-21.168	-3.967	16221	15694	0	804
-22.575	-5.842	16107	15683	0	804
-22.467	-5.121	16002	15683	0	804
-21.601	-2.921	15904	15703	0	804
-15.795	1.479	15803	15733	0	804
-13.451	3.931	15706	15763	0	804
-10.530	6.816	15611	15793	0	804
-8.222	7.068	15518	15825	0	804
-9.304	5.085	15421	15856	0	804
-9.917	5.950	15321	15871	0	804
-9.088	4.291	15218	15870	0	804
-10.746	4.616	15117	15871	0	804
-11.323	2.921	15020	15886	0	804
-12.045	1.803	14928	15916	0	804
-10.674	0.000	14844	15960	0	804
-9.376	0.613	14766	16014	0	804
-6.419	0.865	14688	16064	0	804
-5.193	1.551	14610	16107	0	804
-6.167	0.505	14528	16136	0	804
-8.006	-1.983	14447	16153	0	804
-9.448	-2.308	14369	16173	0	804
-7.248	-0.685	14298	16205	0	804
-5.265	0.505	14227	16241	0	804
-4.760	2.452	14146	16259	0	804
-3.101	1.695	14069	16257	0	804
-4.472	2.272	13989	16254	0	804
-3.787	3.642	13913	16259	0	804
-3.787	4.183	13845	16275	0	804
-3.210	5.337	13777	16299	0	804
-3.210	3.137	13712	16320	0	804
-3.642	1.262	13645	16335	0	804
-0.793	1.695	13579	16348	0	804
2.380	3.859	13509	16347	0	804
4.364	6.563	13436	16331	0	804
5.265	8.114	13366	16316	0	804
4.940	8.258	13299	16313	0	804
5.121	9.989	13237	16325	0	804
5.229	8.835	13186	16347	0	804
8.114	9.701	13134	16380	0	804
8.150	9.629	13089	16414	0	804
10.025	9.881	13045	16449	0	804
8.006	10.783	13005	16482	0	804
5.806	8.763	12970	16516	0	804
0.541	7.393	12938	16550	0	804
-5.770	0.974	12902	16577	0	804
-8.150	-2.164	12867	16594	0	804
-6.960	-2.741	12835	16607	0	804
-3.390	0.361	12803	16620	0	804
-0.108	1.803	12772	16631	0	804
0.541	3.714	12738	16635	0	804
0.144	3.714	12707	16628	0	804
0.541	5.193	12671	16618	0	804
3.642	7.032	12642	16612	0	804
7.357	9.989	12613	16612	0	804
9.196	12.730	12586	16610	0	804
10.602	10.710	12555	16603	0	804
8.330	8.871	12527	16589	0	804
5.409	4.436	12497	16571	0	804
2.164	3.678	12464	16552	0	804
-0.757	2.669	12433	16531	0	804
-0.577	5.121	12399	16510	0	804
0.397	6.924	12367	16487	0	804
3.246	8.222	12332	16458	0	804
4.652	6.960	12295	16427	0	804
7.537	8.979	12255	16394	0	804
10.350	9.737	12212	16359	0	804
11.287	10.314	12162	16313	0	804
10.494	8.979	12107	16253	0	804
9.016	8.619	12045	16186	0	804
5.445	6.455	11985	16126	0	804
4.364	6.599	11927	16078	0	804
4.977	6.275	11868	16042	0	804
4.832	6.275	11811	16016	0	804
6.347	4.508	11755	15995	0	804
6.347	5.373	11707	15986	0	804
7.285	6.563	11669	16007	0	804
5.445	5.085	11649	16070	0	804
3.895	3.426	11645	16175	0	804
2.128	0.541	11668	16317	0	804
2.092	-0.469	11711	16496	0	804
2.380	0.433	11784	16718	0	804
5.409	3.173	11885	16981	0	804
5.193	4.616	12019	17282	0	804
5.013	1.767	12179	17609	0	804
3.354	1.767	12367	17951	0	804
2.488	1.659	12580	18297	0	804
3.462	3.462	12812	18637	0	804
5.914	6.563	13064	18961	0	804
10.169	9.376	13331	19269	0	804
11.576	8.222	13615	19557	0	804
10.638	4.364	13908	19811	0	804
7.717	4.219	14211	20028	0	804
8.294	1.839	14525	20223	0	804
6.239	2.777	14853	20399	0	804
6.924	4.544	15183	20541	0	804
8.475	4.940	15517	20644	0	804
7.898	6.635	15852	20710	0	804
10.638	7.212	16190	20741	0	804
12.009	7.068	16523	20736	0	804
13.163	7.789	16848	20690	0	804
13.271	4.977	17165	20597	0	804
11.432	2.452	17470	20462	0	804
10.314	1.442	17767	20296	1	840
12.586	2.164	18054	20104	0	840
13.271	2.813	18328	19886	0	840
12.730	4.291	18590	19646	0	840
13.379	2.993	18836	19387	0	840
9.845	1.046	19072	19109	0	840
6.383	-1.983	19292	18819	0	840
4.940	-3.678	19500	18526	0	840
4.364	-2.596	19694	18230	0	840
5.265	-2.416	19875	17932	0	840
6.671	-3.065	20040	17626	0	840
8.078	-3.101	20188	17317	0	840
8.114	-3.714	20325	17015	0	840
9.052	-2.849	20449	16727	0	840
7.068	-3.354	20561	16453	0	840
5.517	-4.724	20661	16190	0	840
4.003	-5.337	20745	15935	0	840
2.993	-6.563	20820	15691	0	840
3.931	-5.265	20883	15464	0	840
7.573	-1.370	20939	15259	0	840
9.953	-0.252	20986	15078	0	840
10.386	0.000	21026	14917	0	840
9.809	1.190	21059	14776	0	840
10.422	0.938	21086	14659	0	840
9.701	2.056	21113	14571	0	840
9.304	2.272	21135	14504	0	840
10.927	1.551	21145	14445	0	840
9.232	0.433	21154	14395	0	840
8.979	-0.072	21158	14365	0	840
9.232	1.587	21160	14353	0	840
11.360	3.859	21157	14352	0	840
10.169	3.750	21148	14355	0	840
9.773	5.265	21126	14353	0	840
7.753	3.318	21090	14336	0	840
7.934	3.137	21044	14307	0	840
8.186	3.498	20995	14286	0	840
10.025	4.688	20939	14281	0	840
10.025	4.436	20878	14281	0	840
8.835	1.695	20808	14280	0	840
4.832	0.000	20732	14280	0	840
3.642	-4.003	20658	14287	0	840
2.488	-4.904	20578	14309	0	840
2.344	-4.147	20500	14349	0	840
3.173	-2.560	20422	14400	0	840
2.272	-1.046	20343	14459	0	840
1.731	-0.144	20264	14521	0	840
3.354	-0.252	20183	14588	0	840
2.633	0.072	20107	14665	0	840
4.472	1.118	20034	14756	0	840
5.085	2.849	19963	14855	0	840
5.734	4.039	19892	14952	0	840
5.265	5.842	19823	15049	0	840
6.744	6.022	19762	15152	0	840
6.131	4.796	19698	15260	0	840
9.016	7.573	19635	15363	0	840
11.287	9.232	19575	15458	0	840
13.163	11.215	19513	15548	0	840
14.677	11.251	19456	15640	0	840
13.523	12.910	19403	15734	0	840
12.369	15.543	19353	15825	0	840
18.824	22.899	19301	15907	0	840
26.217	32.925	19254	15982	0	840
34.547	38.803	19205	16057	0	840
38.622	40.858	19163	16131	0	840
39.812	40.678	19119	16199	0	840
40.642	43.887	19076	16256	0	840
48.251	49.657	19033	16303	0	840
56.437	57.266	18989	16343	0	840
64.154	63.289	18944	16374	0	840
68.554	64.984	18899	16398	0	840
67.039	65.633	18855	16418	0	840
65.813	67.220	18809	16430	0	840
65.885	67.724	18757	16430	0	840
65.741	69.672	18706	16419	0	840
65.705	69.419	18649	16400	0	840
66.787	67.039	18588	16374	0	840
67.761	65.236	18521	16334	0	840
67.003	63.974	18453	16283	0	840
65.489	63.181	18376	16227	0	840
60.224	63.036	18298	16169	0	840
56.365	62.676	18221	16116	0	840
56.870	61.882	18140	16071	0	840
57.375	61.125	18057	16026	0	840
61.089	61.594	17967	15973	0	840
63.902	63.036	17879	15918	0	840
60.332	65.705	17789	15871	0	840
57.411	65.741	17700	15839	0	840
53.047	63.974	17616	15817	0	840
48.215	61.053	17525	15797	0	840
43.383	57.339	17437	15775	0	840
42.842	55.355	17345	15761	0	840
41.147	57.843	17262	15756	0	840
41.543	59.178	17171	15755	0	840
38.947	60.512	17082	15748	0	840
37.829	61.702	16987	15736	0	840
36.531	58.745	16894	15727	0	840
37.108	59.791	16805	15726	0	840
40.966	61.738	16715	15736	0	840
42.661	62.964	16628	15750	0	840
42.986	66.607	16538	15763	0	840
42.770	67.724	16449	15773	0	840
40.534	67.111	16359	15783	0	840
37.793	65.453	16274	15798	0	840
35.557	62.063	16187	15817	0	840
35.377	62.135	16097	15831	0	840
34.800	61.378	16007	15841	0	840
35.954	63.253	15918	15849	0	840
34.620	63.036	15828	15857	0	840
28.056	61.810	15733	15864	0	840
25.027	58.961	15646	15871	0	840
22.467	59.647	15555	15883	0	840
25.388	60.620	15465	15894	0	840
25.352	62.171	15371	15898	0	840
26.542	59.683	15274	15894	0	840
24.630	57.699	15179	15891	0	840
21.601	55.391	15086	15894	0	840
20.952	52.687	14996	15904	0	840
22.178	54.382	14907	15917	0	840
20.664	54.382	14817	15933	0	840
19.798	54.129	14732	15952	0	840
15.074	50.270	14649	15974	0	840
11.828	47.638	14567	16000	0	840
7.212	43.419	14483	16023	0	840
5.409	41.183	14402	16039	0	840
4.688	41.111	14319	16053	0	840
6.996	42.734	14240	16070	0	840
5.517	41.868	14160	16089	0	840
5.950	41.760	14087	16114	0	840
7.898	42.301	14012	16140	0	840
10.386	44.176	13937	16161	0	840
14.858	48.684	13866	16178	0	840
16.228	49.441	13797	16197	0	840
16.264	48.467	13726	16218	0	840
13.343	46.051	13658	16234	0	840
9.232	42.625	13591	16247	0	840
9.268	41.219	13518	16256	0	840
9.196	40.786	13450	16264	0	840
7.212	39.885	13384	16273	0	840
5.481	36.278	13316	16280	0	840
1.983	33.970	13254	16288	0	840
3.029	32.492	13193	16303	0	840
3.318	33.033	13138	16322	0	840
7.537	31.158	13083	16346	0	840
8.511	31.879	13032	16374	0	840
7.609	30.292	12985	16399	0	840
3.967	29.607	12934	16420	0	840
0.649	28.777	12889	16435	0	840
2.128	31.266	12843	16450	0	840
4.255	32.780	12796	16463	0	840
8.078	35.846	12755	16477	0	840
10.710	36.819	12709	16486	0	840
8.258	35.846	12658	16479	0	840
2.560	30.400	12605	16458	0	840
-4.580	22.250	12558	16441	0	840
-10.494	18.103	12510	16435	0	840
-11.504	16.697	12464	16429	0	840
-9.520	18.464	12411	16412	0	840
-7.862	22.503	12362	16390	0	840
-6.058	21.457	12315	16379	0	840
-6.094	20.736	12270	16380	0	840
-7.501	17.454	12232	16384	0	840
-5.698	17.779	12188	16385	0	840
-1.803	20.952	12146	16384	0	840
3.823	27.587	12104	16380	0	840
6.058	31.266	12065	16377	0	840
8.114	33.682	12024	16374	0	840
5.698	31.266	11984	16367	0	840
0.397	27.624	11940	16354	0	840
-4.760	22.358	11891	16337	0	840
-7.068	20.880	11850	16324	0	840
-4.724	22.539	11810	16318	0	840
-0.252	21.565	11767	16316	0	840
2.200	22.539	11726	16306	0	840
0.433	18.464	11678	16290	0	840
-4.147	16.733	11637	16279	0	840
-9.989	12.586	11595	16274	0	840
-11.900	11.792	11555	16269	0	840
-9.809	11.828	11508	16261	0	840
-5.554	12.333	11468	16252	0	840
-4.039	13.199	11424	16246	0	840
-2.957	13.884	11384	16242	0	840
-5.806	11.468	11343	16242	0	840
-5.698	12.982	11307	16247	0	840
-3.931	11.504	11272	16262	0	840
-0.252	16.192	11249	16290	0	840
5.590	19.257	11236	16343	0	840
8.042	22.972	11244	16429	0	840
7.898	23.837	11270	16555	0	840
10.061	24.125	11316	16718	0	840
8.114	24.522	11392	16913	0	840
5.806	21.421	11482	17131	0	840
1.442	19.293	11605	17373	0	840
-2.885	13.631	11755	17653	0	840
-4.977	12.081	11934	17962	0	840
-4.039	10.999	12135	18278	0	840
-0.541	10.061	12358	18588	0	840
0.829	12.946	12599	18887	0	840
0.433	11.612	12857	19176	0	840
-1.442	9.592	13134	19453	0	840
-4.111	8.655	13426	19711	0	840
-4.868	6.131	13726	19937	0	840
-4.075	5.698	14029	20122	0	840
-1.623	5.481	14343	20270	0	840
-1.118	5.770	14654	20385	0	840
0.216	6.022	14970	20463	0	840
2.741	6.744	15285	20500	0	840
5.517	7.501	15595	20499	0	840
9.665	8.907	15905	20467	0	840
10.891	7.537	16209	20406	0	840
8.186	5.698	16510	20320	0	840
5.337	2.705	16806	20207	1	840
1.154	-0.072	17090	20061	0	840
-0.829	-0.938	17365	19884	0	840
-0.757	-1.875	17630	19681	0	840
-0.397	-2.236	17882	19461	0	840
1.406	-1.623	18124	19224	0	840
2.128	-1.479	18354	18974	0	840
1.046	-0.829	18570	18714	0	840
-2.236	-1.839	18773	18444	0	840
-5.517	-5.193	18963	18165	0	840
-3.462	-4.544	19140	17882	0	840
4.436	-2.416	19301	17597	0	840
12.802	2.885	19448	17310	0	840
17.418	6.455	19578	17018	0	840
16.841	5.013	19691	16722	0	840
11.684	3.642	19787	16428	0	840
7.862	0.433	19875	16153	0	840
10.278	1.154	19955	15901	0	840
13.848	3.462	20019	15666	0	840
14.353	4.183	20071	15440	0	840
13.127	0.685	20112	15224	0	840
7.862	-1.803	20152	15039	0	840
3.606	-3.426	20184	14887	0	840
4.183	-3.750	20209	14754	0	840
3.282	-4.508	20227	14635	0	840
4.940	-6.058	20240	14533	0	840
2.705	-6.563	20246	14453	0	840
1.479	-6.671	20251	14396	0	840
1.010	-5.409	20253	14359	0	840
1.803	-3.210	20249	14335	0	840
2.164	-2.993	20240	14320	0	840
3.642	-3.606	20226	14315	0	840
2.452	-2.885	20209	14321	0	840
1.406	-2.452	20187	14334	0	840
0.325	0.036	20159	14350	0	840
0.974	-0.252	20123	14366	0	840
2.633	0.938	20084	14383	0	840
5.049	1.154	20039	14406	0	840
6.960	2.272	19991	14435	0	840
9.232	5.013	19942	14470	0	840
8.835	6.167	19885	14506	0	840
10.169	8.222	19823	14542	0	840
10.494	8.511	19763	14580	0	840
13.451	7.032	19694	14624	0	840
14.136	9.737	19630	14671	0	840
16.985	10.602	19558	14717	0	840
16.625	12.694	19488	14766	0	840
14.713	11.323	19416	14820	0	840
10.133	10.927	19344	14878	0	840
6.527	8.763	19269	14940	0	840
5.662	8.907	19198	15004	0	840
7.068	11.468	19126	15073	0	840
11.540	11.432	19054	15142	0	840
13.631	9.701	18979	15204	0	840
13.595	10.710	18904	15262	0	840
14.136	9.809	18831	15323	0	840
12.009	12.946	18758	15391	0	840
13.523	14.641	18691	15461	0	840
13.163	17.454	18622	15531	0	840
10.278	14.317	18556	15600	0	840
9.556	12.441	18494	15670	0	840
8.439	8.763	18434	15748	0	840
9.773	6.996	18383	15830	0	840
9.737	10.422	18330	15912	0	840
10.963	11.540	18283	15993	0	840
8.943	11.360	18238	16074	0	840
6.996	8.907	18198	16152	0	840
6.527	5.013	18160	16227	0	840
9.809	5.373	18120	16294	0	840
9.989	10.855	18083	16350	0	840
10.710	13.668	18044	16391	0	840
8.907	13.199	18004	16425	0	840
5.517	7.501	17966	16456	0	840
2.596	2.705	17928	16483	0	840
5.734	2.416	17882	16490	0	840
10.674	6.599	17828	16471	0	840
13.523	12.838	17767	16434	0	840
16.156	14.028	17713	16401	0	840
13.235	12.802	17655	16381	0	840
11.323	10.927	17598	16357	0	840
8.439	10.602	17534	16325	0	840
4.868	10.819	17461	16272	0	840
4.003	11.215	17385	16204	0	840
2.488	7.357	17309	16145	0	840
1.046	3.173	17237	16106	0	840
3.137	1.731	17166	16079	0	840
3.173	3.426	17093	16051	0	840
2.705	3.534	17013	16014	0	840
0.793	5.590	16931	15972	0	840
-1.767	2.633	16849	15932	0	840
-3.462	1.983	16766	15901	0	840
-3.750	1.947	16681	15872	0	840
-3.570	4.436	16598	15844	0	840
-0.361	6.455	16512	15819	0	840
2.416	7.681	16425	15803	0	840
7.898	8.186	16343	15792	0	840
8.006	11.287	16258	15787	0	840
6.419	12.802	16174	15783	0	840
1.623	12.658	16091	15779	0	840
-0.505	12.766	16007	15781	0	840
2.452	10.891	15920	15787	0	840
7.789	9.665	15822	15772	0	840
13.920	12.838	15718	15732	0	840
11.432	14.677	15615	15694	0	840
5.301	12.658	15517	15677	0	840
1.046	9.665	15418	15679	0	840
0.108	6.058	15327	15693	0	840
3.859	4.868	15240	15714	0	840
7.609	6.311	15149	15736	0	840
10.169	11.215	15060	15760	0	840
5.698	12.261	14975	15784	0	840
2.849	10.819	14889	15811	0	840
0.938	10.169	14804	15837	0	840
0.793	8.150	14715	15856	0	840
1.262	6.599	14627	15869	0	840
0.505	7.032	14539	15886	0	840
2.128	7.176	14454	15908	0	840
5.337	9.737	14372	15931	0	840
13.812	12.477	14288	15954	0	840
18.572	15.615	14204	15975	0	840
20.844	19.690	14122	15993	0	840
14.858	18.500	14041	16009	0	840
8.258	17.706	13959	16027	0	840
6.275	14.641	13887	16057	0	840
9.592	13.163	13815	16095	0	840
14.930	13.235	13740	16126	0	840
19.762	16.120	13664	16138	0	840
20.123	18.103	13584	16138	0	840
17.670	17.238	13503	16136	0	840
13.451	15.975	13426	16140	0	840
12.225	12.550	13348	16145	0	840
12.153	12.297	13271	16151	0	840
13.848	12.694	13197	16161	0	840
15.903	12.982	13126	16174	0	840
12.982	13.740	13061	16195	0	840
6.888	11.540	12999	16225	0	840
2.957	11.973	12936	16254	0	840
0.938	10.566	12880	16279	0	840
6.347	11.251	12822	16304	0	840
11.864	16.048	12771	16337	0	840
14.245	18.392	12716	16369	0	840
15.435	21.024	12664	16388	0	840
11.648	18.752	12611	16398	0	840
12.694	15.002	12558	16406	0	840
12.369	12.441	12508	16419	0	840
10.746	10.891	12461	16437	0	840
8.186	12.766	12419	16458	0	840
0.541	12.081	12375	16476	0	840
-4.544	6.960	12332	16486	0	840
-8.186	4.472	12288	16492	0	840
-5.806	1.983	12251	16502	0	840
-0.469	2.596	12211	16515	0	840
4.832	5.373	12174	16522	0	840
7.212	7.032	12136	16524	0	840
7.573	8.042	12097	16525	0	840
6.780	7.825	12064	16528	0	840
7.321	10.025	12027	16529	0	840
8.871	12.081	11993	16524	0	840
10.566	13.487	11958	16515	0	840
12.441	17.021	11917	16503	0	840
13.127	16.048	11877	16484	0	840
13.776	17.526	11836	16460	0	840
17.310	15.290	11801	16447	0	840
17.779	15.254	11766	16442	0	840
17.274	14.821	11722	16426	0	840
15.146	13.812	11678	16394	0	840
12.622	15.146	11632	16359	0	840
11.937	12.910	11586	16327	0	840
12.514	13.018	11541	16301	0	840
16.012	11.576	11497	16281	0	840
15.795	11.468	11450	16262	0	840
14.461	16.300	11404	16242	0	840
13.523	19.221	11360	16226	0	840
16.192	21.818	11315	16215	0	840
17.743	21.060	11272	16208	0	840
19.077	17.382	11230	16202	0	840
14.353	11.864	11186	16195	0	840
7.573	10.386	11142	16190	0	840
4.760	9.268	11105	16194	0	840
4.291	7.465	11072	16211	0	840
5.301	5.445	11047	16244	0	840
5.950	1.803	11031	16294	0	840
3.426	2.056	11031	16368	0	840
2.705	1.551	11045	16475	0	840
3.282	3.390	11085	16623	0	840
4.832	4.868	11147	16807	0	840
7.609	4.508	11232	17019	0	840
5.554	5.373	11343	17253	0	840
5.445	6.563	11477	17511	0	840
7.825	7.032	11638	17796	0	840
7.862	9.160	11825	18100	0	840
10.206	7.825	12033	18406	0	840
9.304	9.268	12263	18706	0	840
9.556	9.268	12509	18997	0	840
9.160	12.081	12773	19273	0	840
9.917	12.045	13050	19529	0	840
10.242	11.179	13344	19767	0	840
9.773	10.386	13647	19980	0	840
10.494	7.934	13952	20151	0	840
9.773	8.294	14248	20265	0	840
9.304	7.104	14550	20330	0	840
7.970	8.006	14850	20361	0	840
8.294	6.924	15144	20363	0	840
9.016	6.094	15441	20328	0	840
12.622	7.825	15724	20256	0	840
15.182	8.439	16007	20155	0	840
16.769	7.357	16284	20031	0	840
14.966	5.013	16547	19884	1	828
14.785	1.803	16804	19706	0	828
13.992	0.433	17044	19499	0	828
16.084	0.613	17271	19265	0	828
14.713	2.524	17486	19010	0	828
12.369	5.373	17687	18744	0	828
12.441	7.032	17875	18469	0	828
11.864	6.094	18048	18184	0	828
11.720	5.013	18205	17888	0	828
14.245	3.642	18350	17592	0	828
12.550	2.344	18485	17305	0	828
10.710	1.334	18608	17033	0	828
9.845	1.370	18720	16769	0	828
10.061	0.108	18820	16508	0	828
9.773	-0.974	18904	16256	0	828
8.727	-2.993	18978	16012	0	828
5.049	-6.094	19036	15775	0	828
3.750	-8.547	19085	15547	0	828
5.193	-9.484	19126	15339	0	828
7.934	-5.986	19157	15151	0	828
12.874	-1.479	19171	14973	0	828
14.064	3.101	19183	14808	0	828
12.730	5.049	19189	14674	0	828
11.864	3.823	19196	14572	0	828
12.586	2.416	19196	14493	0	828
12.117	0.252	19190	14433	0	828
12.838	-1.623	19188	14391	0	828
8.475	-2.092	19179	14368	0	828
4.940	-1.839	19172	14369	0	828
3.823	0.325	19158	14384	0	828
8.042	3.137	19139	14394	0	828
12.766	4.688	19110	14394	0	828
14.930	2.813	19072	14393	0	828
15.759	2.741	19029	14400	0	828
13.199	1.947	18988	14418	0	828
9.556	1.911	18938	14443	0	828
9.412	3.534	18882	14465	0	828
11.900	3.642	18818	14481	0	828
13.812	2.452	18760	14506	0	828
17.995	2.380	18700	14551	0	828
15.903	2.164	18637	14608	0	828
14.136	1.262	18577	14666	0	828
9.629	2.416	18513	14725	0	828
7.681	2.993	18450	14789	0	828
9.773	4.075	18386	14861	0	828
14.100	4.724	18325	14938	0	828
12.730	4.075	18263	15015	0	828
10.927	2.669	18203	15094	0	828
5.121	1.082	18145	15179	0	828
2.236	2.019	18093	15272	0	828
4.039	4.039	18047	15374	0	828
9.881	7.321	18002	15483	0	828
11.756	6.960	17960	15589	0	828
10.025	4.832	17920	15687	0	828
3.931	3.173	17877	15774	0	828
-2.957	-1.406	17837	15853	0	828
-4.796	-2.308	17803	15937	0	828
-4.940	-4.832	17772	16028	0	828
-1.587	-4.183	17745	16119	0	828
1.442	-2.596	17722	16204	0	828
4.904	0.685	17700	16285	0	828
6.744	4.616	17681	16359	0	828
6.455	4.544	17660	16421	0	828
5.265	1.911	17638	16471	0	828
3.390	0.829	17612	16509	0	828
5.986	0.469	17585	16529	0	828
6.275	4.147	17554	16533	0	828
7.609	3.570	17525	16533	0	828
5.626	3.173	17490	16532	0	828
2.633	1.551	17456	16525	0	828
0.938	-0.325	17418	16504	0	828
2.957	0.757	17378	16475	0	828
3.210	3.137	17344	16456	0	828
6.744	5.301	17307	16447	0	828
5.626	4.616	17269	16434	0	828
4.147	4.219	17228	16410	0	828
4.039	3.750	17185	16378	0	828
3.931	2.921	17138	16341	0	828
6.816	6.058	17090	16306	0	828
8.871	7.645	17041	16273	0	828
10.963	7.573	16992	16240	0	828
8.655	5.662	16939	16205	0	828
6.167	3.642	16880	16163	0	828
4.760	2.813	16822	16117	0	828
7.357	5.157	16757	16072	0	828
8.258	6.780	16689	16025	0	828
9.556	7.248	16618	15972	0	828
8.150	7.104	16540	15915	0	828
9.088	6.671	16462	15863	0	828
9.773	8.655	16390	15827	0	828
13.018	10.927	16320	15809	0	828
14.749	11.540	16245	15796	0	828
13.631	10.133	16174	15781	0	828
10.386	9.701	16092	15762	0	828
10.999	9.520	16008	15733	0	828
13.163	9.737	15920	15700	0	828
13.776	12.910	15834	15672	0	828
16.372	11.900	15750	15662	0	828
13.992	10.674	15666	15665	0	828
13.091	12.261	15588	15672	0	828
12.730	12.009	15504	15680	0	828
12.369	12.910	15427	15692	0	828
13.631	13.271	15343	15708	0	828
10.963	10.674	15263	15726	0	828
8.258	7.429	15185	15746	0	828
3.318	5.337	15111	15768	0	828
4.075	7.537	15040	15805	0	828
5.301	8.835	14973	15855	0	828
9.629	12.225	14907	15902	0	828
11.035	12.514	14836	15935	0	828
10.169	14.136	14769	15961	0	828
9.052	11.792	14702	15988	0	828
9.412	13.523	14635	16020	0	828
10.169	14.281	14573	16056	0	828
13.091	13.163	14511	16091	0	828
13.559	13.631	14451	16122	0	828
13.343	12.333	14392	16155	0	828
14.966	12.009	14337	16189	0	828
14.208	13.920	14282	16222	0	828
12.225	12.189	14227	16250	0	828
7.898	10.891	14172	16269	0	828
4.327	10.206	14115	16282	0	828
2.308	9.052	14061	16296	0	828
4.688	9.412	14011	16317	0	828
9.917	13.163	13961	16339	0	828
16.120	16.841	13906	16345	0	828
17.526	16.228	13842	16327	0	828
18.320	16.805	13776	16298	0	828
14.425	14.317	13718	16283	0	828
14.605	14.677	13660	16284	0	828
15.218	14.353	13609	16289	0	828
15.182	16.156	13553	16293	0	828
16.949	14.605	13503	16299	0	828
13.054	12.369	13455	16308	0	828
8.799	8.511	13406	16321	0	828
4.724	8.006	13361	16332	0	828
2.777	8.691	13313	16340	0	828
5.409	12.874	13268	16345	0	828
10.458	16.300	13219	16342	0	828
18.464	17.418	13170	16337	0	828
19.185	17.166	13135	16352	0	828
17.779	13.487	13103	16385	0	828
11.396	11.540	13070	16415	0	828
7.212	9.160	13036	16432	0	828
7.609	8.583	13003	16441	0	828
9.484	7.393	12965	16446	0	828
11.323	6.780	12932	16444	0	828
13.018	7.501	12894	16441	0	828
14.641	10.819	12854	16434	0	828
14.317	13.271	12812	16413	0	828
15.254	15.939	12765	16384	0	828
13.668	13.379	12716	16353	0	828
11.035	12.550	12669	16326	0	828
11.035	11.287	12620	16299	0	828
12.694	11.648	12566	16266	0	828
17.598	15.507	12515	16231	0	828
18.500	16.336	12461	16204	0	828
19.221	17.670	12412	16186	0	828
16.625	15.146	12359	16172	0	828
16.949	17.057	12308	16156	0	828
16.661	16.769	12256	16140	0	828
20.411	19.365	12207	16130	0	828
21.673	18.716	12159	16129	0	828
23.008	18.933	12119	16138	0	828
21.132	17.346	12072	16150	0	828
19.329	17.093	12036	16165	0	828
12.838	15.326	12003	16191	0	828
10.206	14.605	11980	16239	0	828
9.629	12.910	11972	16314	0	828
12.189	13.235	11975	16413	0	828
18.536	16.300	11992	16527	0	828
19.906	18.067	12023	16654	0	828
18.644	20.952	12074	16811	0	828
12.802	17.851	12149	17002	0	828
9.629	14.894	12244	17214	0	828
7.609	12.153	12359	17444	0	828
7.862	9.160	12497	17690	0	828
8.439	10.061	12657	17947	0	828
11.215	13.127	12832	18204	0	828
12.586	14.425	13026	18454	0	828
14.569	18.247	13235	18695	0	828
17.706	19.329	13458	18924	0	828
15.398	19.582	13689	19131	0	828
15.146	19.834	13927	19307	0	828
13.740	17.706	14171	19454	0	828
10.963	17.562	14418	19579	0	828
12.045	16.048	14675	19677	0	828
10.999	16.120	14924	19737	0	828
11.071	18.175	15171	19757	0	828
14.821	18.067	15420	19745	0	828
14.749	18.680	15660	19707	0	828
15.182	17.851	15897	19641	0	828
13.343	14.461	16131	19550	0	828
10.097	12.117	16355	19436	1	772
10.314	13.415	16573	19301	0	772
10.458	13.920	16783	19147	0	772
12.297	16.949	16986	18980	0	772
15.218	16.805	17180	18799	0	772
14.966	14.785	17365	18599	0	772
12.910	10.927	17531	18376	0	772
12.189	7.357	17688	18142	0	772
8.691	5.121	17835	17905	0	772
5.265	4.688	17971	17666	0	772
4.796	5.193	18089	17421	0	772
4.111	7.393	18198	17171	0	772
7.285	10.963	18294	16921	0	772
10.674	11.432	18377	16676	0	772
11.540	12.982	18450	16436	0	772
12.261	11.684	18511	16210	0	772
9.701	10.530	18562	15991	0	772
7.140	10.458	18601	15777	0	772
4.039	9.304	18628	15572	0	772
4.868	7.465	18649	15383	0	772
3.967	3.426	18660	15216	0	772
4.327	1.767	18669	15072	0	772
5.085	0.505	18669	14943	0	772
5.878	4.436	18666	14827	0	772
6.203	8.258	18653	14729	0	772
6.599	9.629	18641	14653	0	772
9.412	9.124	18624	14599	0	772
8.150	5.229	18608	14565	0	772
7.212	4.400	18584	14544	0	772
6.131	5.013	18557	14528	0	772
3.823	7.573	18525	14517	0	772
4.508	9.232	18489	14512	0	772
4.147	8.547	18444	14512	0	772
2.741	8.330	18396	14515	0	772
1.154	8.691	18345	14520	0	772
-0.829	9.737	18285	14530	0	772
-0.902	10.566	18229	14551	0	772
2.344	12.838	18169	14583	0	772
5.373	13.163	18107	14623	0	772
6.239	12.514	18042	14662	0	772
6.203	16.300	17973	14701	0	772
5.481	14.785	17906	14747	0	772
5.373	15.074	17844	14810	0	772
5.878	13.307	17782	14886	0	772
6.131	11.143	17722	14965	0	772
5.770	12.261	17663	15046	0	772
6.455	13.595	17606	15134	0	772
4.724	17.706	17554	15225	0	772
4.400	18.933	17501	15318	0	772
1.767	19.113	17450	15407	0	772
-0.072	15.326	17396	15487	0	772
-1.298	14.136	17338	15554	0	772
-0.974	11.828	17286	15622	0	772
-1.983	9.737	17237	15698	0	772
-4.111	9.448	17187	15775	0	772
-5.409	8.871	17147	15855	0	772
-6.960	10.891	17106	15935	0	772
-5.121	11.360	17067	16013	0	772
-2.128	13.018	17029	16082	0	772
0.505	11.792	16991	16140	0	772
3.390	10.530	16952	16193	0	772
4.544	11.323	16916	16243	0	772
3.534	11.179	16881	16291	0	772
2.741	10.710	16849	16336	0	772
1.479	10.927	16823	16384	0	772
-0.938	8.222	16800	16437	0	772
-2.957	7.068	16781	16495	0	772
-6.094	6.022	16768	16552	0	772
-8.655	4.904	16752	16600	0	772
-11.396	4.616	16738	16635	0	772
-10.674	4.400	16725	16664	0	772
-10.710	3.642	16707	16687	0	772
-8.294	2.885	16690	16699	0	772
-6.275	3.390	16671	16698	0	772
-4.075	3.787	16648	16685	0	772
-4.472	6.311	16618	16657	0	772
-3.931	6.167	16581	16608	0	772
-4.652	7.465	16538	16549	0	772
-4.183	8.439	16497	16494	0	772
-3.678	10.278	16457	16448	0	772
-2.921	11.612	16420	16412	0	772
-4.183	13.487	16382	16381	0	772
-5.734	9.665	16339	16348	0	772
-5.914	5.409	16298	16310	0	772
-4.904	6.058	16249	16265	0	772
-4.760	4.904	16187	16201	0	772
-6.311	6.419	16125	16127	0	772
-9.232	5.481	16062	16065	0	772
-12.153	2.596	16003	16022	0	772
-15.146	-0.793	15942	15984	0	772
-12.189	-1.875	15878	15947	0	772
-10.133	0.397	15809	15910	0	772
-4.364	5.121	15746	15882	0	772
-1.839	7.465	15691	15872	0	772
0.108	10.169	15629	15872	0	772
-0.577	8.583	15564	15862	0	772
-2.921	5.770	15492	15834	0	772
-4.472	3.931	15415	15799	0	772
-4.832	4.724	15340	15768	0	772
-3.823	5.878	15265	15751	0	772
-3.534	10.314	15191	15746	0	772
-7.032	9.665	15113	15740	0	772
-10.061	7.645	15037	15728	0	772
-12.586	5.157	14960	15725	0	772
-8.871	8.294	14889	15737	0	772
-3.354	11.756	14821	15755	0	772
3.065	14.605	14747	15771	0	772
4.472	17.454	14674	15783	0	772
1.046	14.533	14599	15795	0	772
-4.904	9.376	14527	15810	0	772
-7.537	9.448	14453	15824	0	772
-9.376	9.088	14377	15833	0	772
-7.537	9.016	14300	15841	0	772
-5.301	12.261	14227	15854	0	772
-1.659	13.235	14157	15876	0	772
-3.173	12.946	14090	15905	0	772
-4.544	12.405	14022	15939	0	772
-5.445	11.648	13958	15968	0	772
-5.734	9.881	13888	15991	0	772
-3.318	12.369	13821	16010	0	772
0.036	12.622	13750	16022	0	772
1.406	11.035	13676	16026	0	772
1.983	11.900	13609	16031	0	772
1.875	10.855	13535	16040	0	772
1.515	11.143	13469	16055	0	772
0.721	13.956	13405	16078	0	772
-0.938	13.848	13347	16108	0	772
-2.452	10.891	13289	16141	0	772
-3.318	10.061	13235	16174	0	772
-4.147	6.167	13178	16203	0	772
-4.472	5.698	13116	16220	0	772
-3.967	4.508	13062	16228	0	772
-1.911	4.832	13003	16239	0	772
-0.288	7.609	12952	16262	0	772
4.255	9.232	12901	16286	0	772
6.022	12.225	12845	16302	0	772
8.691	13.199	12794	16307	0	772
9.484	15.038	12741	16313	0	772
7.753	12.333	12691	16325	0	772
6.275	11.071	12644	16342	0	772
1.515	8.186	12600	16359	0	772
-2.344	3.173	12554	16373	0	772
-6.780	-1.695	12513	16384	0	772
-9.989	-3.137	12471	16399	0	772
-9.052	-1.839	12433	16417	0	772
-5.049	2.921	12394	16432	0	772
1.154	8.907	12355	16440	0	772
6.383	11.648	12317	16445	0	772
9.052	12.550	12282	16453	0	772
7.357	10.602	12250	16465	0	772
6.491	6.924	12216	16479	0	772
2.777	5.373	12186	16489	0	772
1.406	5.013	12156	16496	0	772
0.036	4.039	12126	16498	0	772
-0.036	4.255	12090	16494	0	772
-1.046	5.049	12058	16484	0	772
-0.902	4.904	12023	16472	0	772
-1.190	4.327	11987	16458	0	772
-0.397	4.400	11947	16435	0	772
0.757	3.859	11907	16411	0	772
2.236	5.734	11871	16392	0	772
3.426	6.996	11831	16375	0	772
4.327	9.592	11791	16353	0	772
5.373	11.756	11749	16333	0	772
6.744	12.946	11709	16313	0	772
7.032	11.432	11664	16290	0	772
7.104	7.717	11623	16266	0	772
5.878	7.825	11580	16246	0	772
3.895	5.373	11534	16229	0	772
2.813	6.131	11492	16214	0	772
1.226	6.058	11457	16210	0	772
0.938	6.599	11426	16228	0	772
1.046	4.652	11405	16267	0	772
2.272	3.210	11391	16315	0	772
4.111	5.554	11386	16374	0	772
5.193	5.517	11392	16452	0	772
6.888	5.914	11418	16564	0	772
4.291	6.022	11470	16716	0	772
1.262	5.734	11542	16907	0	772
-1.875	5.517	11640	17128	0	772
-2.885	6.708	11761	17371	0	772
0.108	6.924	11911	17639	0	772
4.796	7.104	12085	17932	0	772
5.770	5.986	12288	18239	0	772
4.688	5.806	12508	18545	0	772
1.118	4.652	12742	18836	0	772
0.649	6.708	12994	19108	0	772
4.832	9.412	13260	19359	0	772
9.016	11.792	13534	19584	0	772
11.323	12.045	13815	19776	0	772
5.806	11.576	14096	19927	0	772
-2.596	6.455	14377	20030	0	772
-7.862	2.777	14659	20089	0	772
-6.275	2.344	14940	20126	0	772
-0.793	2.885	15229	20146	0	772
5.193	4.147	15512	20132	0	772
8.511	7.789	15789	20083	0	772
8.258	9.809	16061	19999	0	772
7.753	10.169	16320	19882	0	772
6.924	8.907	16573	19736	1	796
8.330	7.753	16818	19568	0	796
7.934	4.616	17049	19378	0	796
8.835	2.380	17273	19168	0	796
7.176	2.669	17486	18945	0	796
8.583	3.246	17688	18712	0	796
8.727	3.931	17879	18472	0	796
9.556	4.544	18057	18224	0	796
11.504	6.094	18223	17967	0	796
13.920	6.635	18373	17699	0	796
13.523	6.455	18511	17427	0	796
10.927	6.167	18642	17168	0	796
10.314	3.462	18762	16926	0	796
9.088	0.757	18872	16691	0	796
8.330	-2.344	18970	16458	0	796
11.215	-2.524	19054	16231	0	796
11.828	-1.370	19130	16009	0	796
10.855	0.721	19194	15802	0	796
8.511	0.938	19250	15613	0	796
9.124	0.541	19301	15443	0	796
8.655	-1.551	19339	15284	0	796
9.196	-2.308	19375	15140	0	796
8.727	-2.921	19402	15014	0	796
10.314	-0.433	19421	14907	0	796
10.458	1.947	19437	14815	0	796
11.251	3.173	19447	14734	0	796
13.343	2.596	19448	14667	0	796
11.864	-0.108	19452	14620	0	796
6.455	-3.642	19450	14593	0	796
4.580	-6.744	19448	14581	0	796
2.380	-6.347	19434	14571	0	796
2.560	-5.229	19411	14551	0	796
6.022	-2.524	19381	14524	0	796
6.996	-2.236	19346	14510	0	796
6.671	-4.039	19312	14514	0	796
6.022	-4.219	19272	14526	0	796
5.121	-5.085	19228	14542	0	796
9.340	-4.039	19179	14564	0	796
13.848	-3.354	19130	14588	0	796
14.966	-2.957	19073	14610	0	796
16.985	-4.472	19007	14629	0	796
12.261	-3.859	18945	14655	0	796
9.773	-1.875	18881	14690	0	796
8.114	-1.334	18811	14728	0	796
8.799	-0.577	18740	14768	0	796
9.953	-1.911	18672	14818	0	796
11.432	-3.498	18609	14883	0	796
11.684	-3.606	18546	14957	0	796
8.763	-3.498	18486	15039	0	796
8.619	-3.354	18430	15128	0	796
6.635	-4.364	18378	15225	0	796
7.573	-4.472	18330	15329	0	796
9.052	-4.832	18289	15438	0	796
8.439	-2.813	18247	15546	0	796
9.448	-2.560	18210	15649	0	796
9.737	-0.938	18171	15746	0	796
9.953	-0.144	18127	15830	0	796
13.740	0.577	18087	15898	0	796
14.605	1.983	18048	15965	0	796
15.831	1.551	18012	16038	0	796
16.300	2.596	17982	16116	0	796
13.487	0.865	17958	16197	0	796
12.261	-0.829	17935	16280	0	796
9.232	0.433	17919	16359	0	796
9.989	0.541	17898	16421	0	796
9.160	0.577	17866	16456	0	796
10.674	2.560	17837	16469	0	796
9.376	2.596	17808	16484	0	796
7.321	1.154	17780	16508	0	796
8.186	0.180	17758	16530	0	796
7.537	-0.757	17731	16546	0	796
7.934	-1.118	17709	16560	0	796
6.563	-1.479	17688	16575	0	796
4.436	-1.190	17668	16587	0	796
1.370	0.072	17647	16592	0	796
1.767	0.793	17619	16588	0	796
5.734	0.865	17589	16566	0	796
9.376	1.442	17548	16526	0	796
9.701	-0.541	17507	16474	0	796
6.491	-1.911	17463	16423	0	796
2.344	-1.623	17418	16379	0	796
0.361	-0.757	17371	16337	0	796
1.983	1.046	17322	16294	0	796
5.481	2.524	17273	16249	0	796
5.590	1.298	17223	16207	0	796
3.282	1.226	17170	16170	0	796
3.029	1.046	17120	16137	0	796
5.301	2.993	17064	16102	0	796
7.429	3.137	17004	16064	0	796
7.176	3.859	16947	16030	0	796
5.914	2.813	16889	16004	0	796
4.832	2.236	16832	15982	0	796
5.373	2.849	16770	15958	0	796
10.169	4.219	16706	15931	0	796
10.061	5.806	16639	15904	0	796
9.773	7.825	16570	15876	0	796
7.717	8.619	16500	15850	0	796
6.780	10.169	16426	15825	0	796
7.321	8.727	16351	15799	0	796
10.025	8.691	16277	15775	0	796
9.520	6.708	16198	15755	0	796
11.540	7.573	16120	15742	0	796
10.061	7.970	16045	15734	0	796
10.638	10.386	15963	15723	0	796
10.602	9.160	15882	15713	0	796
10.061	8.511	15802	15708	0	796
11.215	6.419	15724	15713	0	796
8.763	5.842	15639	15715	0	796
6.022	4.291	15544	15697	0	796
5.662	4.724	15450	15664	0	796
4.508	3.895	15358	15645	0	796
7.717	2.596	15267	15645	0	796
8.583	2.200	15178	15654	0	796
10.278	3.029	15091	15669	0	796
10.674	6.203	15008	15691	0	796
13.343	7.573	14924	15715	0	796
13.018	10.386	14842	15740	0	796
12.261	9.484	14760	15768	0	796
10.674	7.537	14688	15813	0	796
5.265	4.219	14622	15871	0	796
3.354	3.606	14554	15928	0	796
5.049	2.849	14487	15970	0	796
8.258	5.193	14416	16001	0	796
12.009	5.806	14345	16029	0	796
11.937	6.239	14275	16060	0	796
7.573	4.868	14212	16095	0	796
4.652	4.472	14150	16132	0	796
0.541	7.248	14090	16166	0	796
1.479	8.475	14029	16195	0	796
3.462	8.655	13967	16224	0	796
5.842	8.979	13912	16254	0	796
8.294	6.744	13856	16282	0	796
8.547	10.242	13798	16304	0	796
9.881	13.668	13747	16323	0	796
7.898	14.353	13687	16338	0	796
5.914	14.245	13632	16348	0	796
7.176	9.773	13576	16351	0	796
10.350	7.681	13518	16351	0	796
14.389	10.638	13464	16354	0	796
13.415	14.028	13415	16364	0	796
12.766	15.074	13366	16383	0	796
10.350	16.805	13322	16402	0	796
10.494	14.064	13281	16423	0	796
10.242	12.730	13239	16443	0	796
11.396	11.720	13200	16460	0	796
8.727	9.809	13164	16474	0	796
6.744	9.520	13126	16486	0	796
4.616	7.825	13089	16497	0	796
6.058	7.032	13054	16506	0	796
4.652	6.347	13017	16509	0	796
3.642	6.888	12974	16499	0	796
5.590	10.133	12936	16483	0	796
7.104	14.497	12901	16481	0	796
10.638	16.336	12870	16493	0	796
14.569	18.464	12838	16499	0	796
15.146	15.218	12799	16486	0	796
17.310	15.471	12760	16461	0	796
15.867	16.625	12719	16436	0	796
16.336	19.473	12675	16413	0	796
14.461	17.851	12631	16387	0	796
10.278	16.012	12590	16363	0	796
9.592	11.215	12547	16344	0	796
10.386	7.465	12509	16333	0	796
11.684	9.773	12471	16327	0	796
15.254	11.287	12433	16323	0	796
13.559	12.658	12397	16317	0	796
9.160	13.812	12358	16304	0	796
8.294	12.838	12314	16287	0	796
10.061	9.917	12268	16262	0	796
12.514	12.550	12217	16230	0	796
17.418	12.586	12167	16200	0	796
16.877	10.855	12121	16176	0	796
12.514	10.963	12069	16156	0	796
9.881	10.097	12025	16147	0	796
6.960	7.898	11987	16152	0	796
5.770	8.619	11952	16171	0	796
4.977	7.357	11921	16198	0	796
7.753	5.770	11890	16228	0	796
9.124	5.626	11865	16257	0	796
11.107	6.671	11850	16302	0	796
11.360	9.737	11858	16386	0	796
12.009	11.937	11883	16517	0	796
12.586	12.766	11934	16684	0	796
13.920	15.218	12010	16887	0	796
17.598	15.543	12113	17127	0	796
15.867	14.785	12243	17399	0	796
11.468	15.651	12410	17704	0	796
7.717	12.333	12596	18033	0	796
4.724	11.648	12805	18359	0	796
5.265	9.989	13028	18663	0	796
8.330	10.422	13269	18946	0	796
9.989	9.701	13526	19213	0	796
9.917	10.422	13796	19466	0	796
7.862	9.881	14077	19698	0	796
7.862	9.340	14367	19896	0	796
9.088	11.720	14662	20055	0	796
10.963	13.018	14964	20186	0	796
12.297	12.333	15268	20289	0	796
13.054	13.523	15572	20355	0	796
11.035	11.107	15874	20376	0	796
9.448	9.196	16170	20354	0	796
10.927	10.819	16458	20295	0	796
10.061	13.018	16742	20206	0	796
8.042	13.920	17017	20086	0	796
9.701	14.533	17280	19930	1	816
9.052	12.982	17532	19740	0	816
10.746	8.547	17772	19528	0	816
12.261	9.556	18003	19301	0	816
14.100	8.655	18225	19067	0	816
10.133	7.970	18435	18826	0	816
5.049	6.816	18636	18574	0	816
1.010	6.311	18823	18313	0	816
4.219	5.950	18998	18045	0	816
10.530	7.176	19153	17768	0	816
17.238	10.494	19297	17483	0	816
19.293	9.737	19429	17200	0	816
12.009	8.439	19550	16930	0	816
4.472	6.960	19660	16674	0	816
1.262	6.816	19758	16429	0	816
5.301	6.816	19848	16197	0	816
8.691	8.907	19927	15973	0	816
10.133	8.006	19995	15763	0	816
7.898	7.573	20054	15566	0	816
5.698	7.212	20103	15384	0	816
8.006	7.393	20146	15221	0	816
10.494	9.556	20193	15092	0	816
10.133	9.484	20232	14994	0	816
5.770	7.212	20262	14909	0	816
-0.865	4.364	20288	14823	0	816
-4.039	1.875	20306	14746	0	816
-0.649	4.616	20320	14690	0	816
4.472	6.311	20331	14652	0	816
9.232	8.547	20338	14627	0	816
6.888	7.537	20339	14607	0	816
1.695	5.878	20333	14591	0	816
0.216	6.419	20325	14584	0	816
2.452	6.527	20313	14590	0	816
8.258	7.285	20299	14604	0	816
11.900	6.383	20275	14620	0	816
12.153	3.787	20249	14632	0	816
5.698	3.354	20215	14646	0	816
1.370	3.173	20183	14668	0	816
1.803	6.419	20146	14699	0	816
4.688	8.475	20110	14737	0	816
7.429	9.196	20066	14777	0	816
10.494	8.871	20021	14815	0	816
10.566	7.429	19976	14857	0	816
9.340	7.537	19932	14909	0	816
11.215	8.366	19885	14968	0	816
11.071	8.402	19836	15024	0	816
10.783	7.068	19787	15075	0	816
9.052	8.006	19736	15129	0	816
9.196	7.645	19687	15188	0	816
10.206	10.819	19639	15253	0	816
12.982	13.271	19595	15326	0	816
16.336	14.136	19550	15405	0	816
14.569	11.396	19510	15481	0	816
8.439	9.737	19465	15552	0	816
4.760	7.789	19426	15621	0	816
3.859	5.986	19384	15691	0	816
6.131	7.285	19345	15758	0	816
10.819	7.465	19305	15822	0	816
12.477	10.494	19272	15884	0	816
10.314	9.520	19234	15948	0	816
6.131	7.501	19210	16023	0	816
2.633	6.203	19185	16103	0	816
1.623	3.534	19158	16171	0	816
2.056	5.373	19126	16213	0	816
2.705	7.248	19091	16236	0	816
7.285	9.917	19056	16254	0	816
10.710	10.602	19018	16274	0	816
11.504	11.720	18988	16296	0	816
8.366	7.357	18953	16319	0	816
4.075	4.724	18921	16336	0	816
-0.829	0.902	18893	16352	0	816
-1.046	0.577	18859	16367	0	816
4.219	2.128	18828	16379	0	816
8.366	6.311	18792	16382	0	816
10.783	9.268	18756	16374	0	816
8.078	8.402	18715	16361	0	816
6.347	7.357	18678	16348	0	816
7.032	5.950	18641	16337	0	816
9.989	6.563	18597	16324	0	816
12.586	7.465	18550	16295	0	816
12.802	9.124	18489	16244	0	816
8.114	8.583	18425	16177	0	816
8.763	8.402	18363	16120	0	816
10.710	11.576	18299	16080	0	816
19.005	14.461	18236	16045	0	816
20.844	16.300	18172	16011	0	816
18.428	16.552	18109	15980	0	816
9.412	11.396	18042	15953	0	816
3.029	9.088	17976	15929	0	816
2.993	8.583	17911	15912	0	816
11.143	11.143	17844	15899	0	816
17.202	12.586	17772	15882	0	816
19.762	14.821	17696	15850	0	816
13.920	13.776	17615	15813	0	816
8.042	14.136	17535	15781	0	816
5.878	13.920	17451	15759	0	816
9.701	13.668	17370	15737	0	816
16.192	13.812	17281	15712	0	816
18.716	12.982	17192	15686	0	816
14.425	9.052	17102	15666	0	816
7.862	7.753	17013	15657	0	816
2.813	6.455	16928	15658	0	816
3.137	7.140	16841	15661	0	816
8.475	9.088	16751	15660	0	816
12.333	13.631	16662	15663	0	816
10.927	12.297	16578	15676	0	816
4.544	10.133	16493	15691	0	816
-0.541	6.347	16403	15703	0	816
-0.397	2.885	16319	15714	0	816
6.780	1.406	16232	15727	0	816
13.704	4.652	16145	15748	0	816
17.887	8.655	16065	15775	0	816
14.281	10.422	15981	15805	0	816
7.393	13.631	15900	15830	0	816
4.832	12.297	15816	15851	0	816
5.409	12.009	15736	15875	0	816
6.203	11.071	15660	15908	0	816
6.131	7.393	15585	15944	0	816
2.849	4.147	15510	15976	0	816
-0.252	3.678	15437	16004	0	816
0.721	3.823	15365	16032	0	816
2.849	6.094	15294	16064	0	816
6.347	10.025	15224	16095	0	816
5.049	10.458	15152	16117	0	816
3.498	9.701	15072	16119	0	816
3.318	7.501	14995	16112	0	816
4.291	7.970	14919	16114	0	816
5.481	8.366	14842	16123	0	816
6.852	9.953	14769	16132	0	816
8.907	11.828	14698	16143	0	816
10.746	13.704	14631	16160	0	816
12.261	12.297	14563	16178	0	816
12.189	13.920	14496	16193	0	816
12.153	12.045	14431	16210	0	816
9.160	10.963	14372	16233	0	816
7.140	11.251	14311	16258	0	816
8.366	10.855	14251	16274	0	816
7.717	13.595	14189	16281	0	816
10.710	16.877	14131	16291	0	816
15.038	17.887	14077	16310	0	816
19.798	19.546	14025	16334	0	816
16.949	16.949	13971	16351	0	816
12.009	12.982	13918	16361	0	816
2.308	7.970	13874	16379	0	816
-3.390	4.724	13832	16407	0	816
-3.823	4.111	13790	16436	0	816
0.108	4.436	13748	16456	0	816
2.633	5.950	13707	16465	0	816
0.180	4.832	13661	16467	0	816
-2.560	4.688	13618	16467	0	816
-2.128	5.373	13578	16471	0	816
2.416	8.366	13538	16479	0	816
9.016	10.819	13499	16481	0	816
12.081	14.713	13451	16470	0	816
12.586	13.992	13398	16440	0	816
9.340	13.343	13346	16401	0	816
8.763	10.927	13295	16375	0	816
8.114	9.340	13245	16355	0	816
7.645	8.006	13197	16336	0	816
4.291	10.061	13148	16322	0	816
4.544	10.999	13101	16314	0	816
6.635	11.540	13061	16308	0	816
10.278	11.035	13012	16302	0	816
12.009	7.717	12964	16287	0	816
7.825	4.183	12908	16262	0	816
0.829	3.462	12852	16228	0	816
-4.364	4.796	12796	16195	0	816
-2.777	6.239	12740	16172	0	816
3.642	8.402	12689	16159	0	816
9.556	6.599	12631	16149	0	816
11.287	4.075	12578	16134	0	816
11.215	3.246	12528	16126	0	816
8.799	4.868	12487	16140	0	816
7.717	6.419	12452	16179	0	816
9.484	8.402	12424	16230	0	816
10.314	8.366	12406	16288	0	816
10.963	7.898	12398	16362	0	816
10.386	7.825	12406	16463	0	816
12.910	12.045	12439	16606	0	816
12.297	14.966	12495	16788	0	816
11.540	17.923	12572	16999	0	816
14.966	19.978	12671	17230	0	816
16.336	18.933	12798	17481	0	816
20.700	18.428	12945	17751	0	816
22.827	19.077	13116	18036	0	816
23.873	21.313	13307	18325	0	816
22.395	24.811	13521	18608	0	816
15.759	24.306	13750	18883	0	816
12.946	23.008	13999	19152	0	816
10.674	19.473	14266	19410	0	816
8.475	13.415	14543	19647	0	816
11.035	12.874	14828	19851	0	816
13.631	13.091	15118	20020	0	816
13.848	15.326	15420	20157	0	816
15.002	18.211	15718	20263	0	816
13.884	17.779	16023	20336	0	816
11.143	17.779	16332	20376	0	816
9.052	15.074	16630	20382	0	816
6.996	14.028	16926	20350	0	816
4.436	13.018	17216	20276	0	816
5.842	10.819	17496	20165	0	816
5.698	9.592	17767	20023	0	816
9.556	7.176	18029	19853	1	808
11.576	6.996	18276	19653	0	808
12.838	6.708	18507	19422	0	808
12.622	9.737	18726	19168	0	808
8.835	10.891	18936	18906	0	808
6.924	10.819	19134	18639	0	808
5.517	11.143	19318	18364	0	808
7.789	9.160	19484	18078	0	808
6.888	8.799	19639	17781	0	808
6.419	9.196	19777	17489	0	808
4.147	12.441	19912	17214	0	808
3.354	13.091	20040	16958	0	808
2.849	10.927	20155	16713	0	808
2.524	6.780	20259	16475	0	808
3.029	2.416	20355	16247	0	808
3.173	1.082	20440	16035	0	808
2.669	4.832	20518	15837	0	808
4.580	11.684	20584	15649	0	808
5.049	12.297	20642	15473	0	808
4.688	10.746	20692	15318	0	808
4.291	5.409	20741	15186	0	808
4.544	4.183	20788	15080	0	808
3.859	6.744	20828	14992	0	808
5.662	9.592	20861	14916	0	808
5.121	12.045	20890	14850	0	808
5.770	9.196	20913	14796	0	808
5.301	5.445	20932	14757	0	808
4.832	6.311	20952	14733	0	808
4.111	9.665	20962	14719	0	808
4.400	13.956	20968	14713	0	808
6.888	13.884	20973	14712	0	808
7.645	12.117	20971	14714	0	808
8.907	8.114	20964	14722	0	808
10.350	6.094	20952	14731	0	808
8.511	10.783	20930	14732	0	808
7.537	12.261	20894	14721	0	808
3.967	11.215	20852	14701	0	808
2.633	7.429	20802	14681	0	808
1.118	4.111	20750	14671	0	808
1.983	2.524	20696	14673	0	808
1.154	2.813	20638	14683	0	808
-0.288	5.121	20575	14691	0	808
-2.633	4.977	20511	14705	0	808
-4.652	3.282	20449	14739	0	808
-3.173	3.354	20396	14799	0	808
1.118	3.570	20342	14868	0	808
5.950	6.419	20285	14935	0	808
8.943	8.150	20226	14997	0	808
8.691	11.107	20168	15062	0	808
7.609	11.973	20114	15134	0	808
4.760	12.910	20061	15215	0	808
4.436	12.225	20014	15302	0	808
4.472	10.566	19964	15390	0	808
5.734	10.169	19920	15478	0	808
4.724	8.366	19878	15566	0	808
4.868	6.599	19836	15654	0	808
3.570	6.852	19796	15736	0	808
2.488	7.140	19756	15812	0	808
2.416	5.986	19718	15882	0	808
0.252	3.931	19678	15949	0	808
-0.649	3.750	19640	16013	0	808
-0.144	4.075	19607	16077	0	808
1.334	5.049	19571	16135	0	808
3.859	5.950	19538	16186	0	808
7.862	6.383	19504	16231	0	808
7.140	4.724	19471	16273	0	808
2.524	3.318	19435	16308	0	808
0.144	2.596	19403	16335	0	808
-3.678	3.606	19364	16354	0	808
-3.246	3.065	19331	16369	0	808
0.469	4.291	19292	16380	0	808
2.200	6.635	19256	16382	0	808
2.669	7.717	19211	16376	0	808
2.452	11.973	19168	16363	0	808
3.967	13.127	19123	16346	0	808
4.977	13.199	19074	16327	0	808
5.049	12.550	19030	16309	0	808
1.659	8.547	18988	16300	0	808
-1.298	5.013	18943	16296	0	808
-3.137	5.806	18893	16281	0	808
0.613	7.140	18836	16244	0	808
4.904	9.520	18773	16192	0	808
8.402	10.674	18706	16138	0	808
7.537	12.117	18640	16088	0	808
3.101	10.206	18569	16043	0	808
2.633	10.133	18494	15999	0	808
2.633	10.494	18422	15955	0	808
4.832	12.514	18346	15914	0	808
6.960	13.163	18270	15879	0	808
8.439	12.766	18191	15848	0	808
6.924	16.336	18111	15818	0	808
7.789	14.569	18027	15788	0	808
5.914	15.002	17941	15758	0	808
4.436	12.477	17855	15729	0	808
3.823	8.330	17764	15699	0	808
5.662	8.042	17669	15665	0	808
8.835	9.629	17571	15632	0	808
14.497	13.704	17474	15606	0	808
15.435	18.680	17379	15589	0	808
11.648	17.057	17283	15584	0	808
9.052	15.579	17191	15588	0	808
6.563	12.622	17099	15593	0	808
6.203	10.602	17000	15597	0	808
6.167	11.756	16907	15605	0	808
7.573	11.215	16815	15618	0	808
4.580	9.448	16721	15635	0	808
4.436	8.907	16626	15651	0	808
4.616	8.114	16532	15664	0	808
4.724	8.402	16435	15674	0	808
4.652	10.891	16336	15679	0	808
5.517	15.579	16236	15684	0	808
4.544	16.805	16138	15695	0	808
5.950	17.562	16042	15714	0	808
4.688	14.930	15945	15731	0	808
2.741	13.343	15848	15746	0	808
1.695	12.045	15751	15761	0	808
0.072	12.081	15655	15780	0	808
0.721	14.100	15562	15805	0	808
1.839	13.199	15472	15833	0	808
3.390	10.783	15381	15861	0	808
3.642	9.448	15289	15885	0	808
4.508	8.150	15201	15909	0	808
2.380	9.989	15115	15939	0	808
5.662	10.855	15033	15975	0	808
6.094	14.533	14953	16014	0	808
7.717	13.956	14875	16047	0	808
7.573	16.372	14795	16078	0	808
4.580	14.749	14720	16112	0	808
0.721	13.091	14650	16151	0	808
-1.226	13.307	14579	16190	0	808
-1.587	12.405	14511	16224	0	808
1.731	11.179	14444	16252	0	808
3.931	12.874	14382	16284	0	808
7.573	10.855	14325	16323	0	808
8.042	12.586	14266	16365	0	808
8.475	11.937	14209	16396	0	808
7.212	11.756	14146	16408	0	808
5.878	13.307	14083	16405	0	808
7.681	11.432	14025	16408	0	808
6.599	10.314	13967	16423	0	808
4.472	10.674	13914	16441	0	808
1.551	8.511	13864	16456	0	808
-3.931	6.347	13812	16470	0	808
-6.960	3.967	13767	16486	0	808
-7.140	3.462	13721	16503	0	808
-4.075	2.993	13679	16520	0	808
-2.921	6.311	13638	16533	0	808
-1.082	9.592	13596	16541	0	808
1.118	11.215	13551	16538	0	808
1.659	10.999	13502	16524	0	808
5.950	9.917	13456	16512	0	808
7.573	9.016	13411	16505	0	808
9.556	9.629	13367	16494	0	808
9.484	11.215	13320	16475	0	808
7.104	13.812	13267	16446	0	808
9.052	12.802	13217	16420	0	808
9.629	11.035	13173	16404	0	808
10.242	11.720	13128	16397	0	808
10.025	10.819	13083	16389	0	808
9.665	12.261	13037	16373	0	808
8.655	15.975	12987	16352	0	808
8.799	14.930	12941	16334	0	808
11.576	14.389	12894	16319	0	808
11.504	14.172	12844	16301	0	808
11.540	12.514	12794	16280	0	808
12.550	17.418	12741	16254	0	808
11.504	19.473	12678	16216	0	808
10.855	21.096	12618	16171	0	808
8.763	21.854	12558	16138	0	808
7.212	15.831	12502	16119	0	808
4.652	12.261	12444	16108	0	808
3.787	8.583	12397	16109	0	808
1.731	8.078	12355	16129	0	808
0.397	7.645	12322	16169	0	808
-0.216	10.963	12300	16228	0	808
0.613	10.278	12293	16309	0	808
1.046	10.061	12296	16414	0	808
2.560	6.708	12323	16552	0	808
4.183	7.753	12372	16727	0	808
4.003	9.773	12446	16933	0	808
6.816	11.973	12542	17166	0	808
6.058	15.759	12664	17424	0	808
4.147	13.379	12812	17703	0	808
2.777	8.727	12987	18001	0	808
2.957	8.330	13191	18322	0	808
3.787	7.501	13423	18655	0	808
5.698	10.674	13668	18978	0	808
4.327	12.369	13931	19271	0	808
4.003	13.163	14202	19533	0	808
0.902	12.045	14487	19769	0	808
1.046	9.448	14784	19981	0	808
2.272	10.206	15087	20160	0	808
3.173	9.989	15394	20303	0	808
4.255	9.484	15705	20411	0	808
4.652	9.773	16020	20484	0	808
5.842	9.124	16333	20523	0	808
6.527	9.773	16644	20529	0	808
7.609	10.169	16953	20498	0	808
8.150	10.855	17254	20426	0	808
7.465	9.665	17546	20317	0	808
6.131	8.186	17829	20175	0	808
6.563	7.934	18102	20006	1	804
9.304	11.792	18370	19814	0	804
10.927	14.858	18618	19598	0	804
9.268	14.281	18860	19359	0	804
5.445	12.441	19086	19105	0	804
-0.325	6.960	19304	18845	0	804
-0.938	5.986	19508	18579	0	804
0.902	8.547	19698	18301	0	804
7.321	14.172	19872	18012	0	804
9.160	14.641	20034	17716	0	804
8.727	12.910	20181	17424	0	804
5.517	8.619	20313	17138	0	804
2.777	6.599	20436	16858	0	804
1.046	7.537	20544	16588	0	804
0.938	9.016	20645	16331	0	804
2.200	8.547	20730	16086	0	804
2.272	7.537	20812	15860	0	804
2.416	5.806	20886	15658	0	804
2.380	4.472	20948	15475	0	804
2.236	5.734	20999	15295	0	804
2.236	4.760	21034	15115	0	804
2.344	4.832	21059	14945	0	804
3.354	4.544	21081	14798	0	804
4.219	5.409	21091	14673	0	804
4.472	5.626	21091	14554	0	804
5.878	4.111	21078	14435	0	804
5.734	4.039	21057	14328	0	804
7.609	2.056	21034	14248	0	804
9.629	3.931	21007	14196	0	804
10.278	7.248	20983	14168	0	804
10.025	8.907	20950	14154	0	804
8.655	7.789	20913	14148	0	804
6.744	7.717	20868	14148	0	804
4.688	3.426	20823	14157	0	804
5.121	2.416	20771	14173	0	804
3.642	1.551	20713	14195	0	804
4.255	2.272	20655	14221	0	804
4.255	2.777	20593	14258	0	804
5.770	5.157	20530	14309	0	804
4.904	6.816	20473	14375	0	804
5.842	6.239	20413	14453	0	804
6.347	8.078	20351	14531	0	804
7.573	8.294	20291	14612	0	804
11.143	9.881	20230	14698	0	804
11.360	8.943	20170	14791	0	804
9.953	7.032	20116	14890	0	804
9.845	3.714	20059	14989	0	804
6.780	-0.036	20004	15088	0	804
5.842	1.262	19951	15187	0	804
5.121	1.947	19899	15286	0	804
3.823	2.993	19852	15387	0	804
2.308	4.508	19804	15489	0	804
5.085	6.708	19758	15581	0	804
7.068	7.537	19705	15658	0	804
10.999	10.927	19656	15726	0	804
11.756	12.333	19604	15793	0	804
12.982	11.973	19562	15866	0	804
11.432	12.045	19518	15942	0	804
10.494	11.287	19475	16013	0	804
10.638	11.143	19433	16070	0	804
10.314	11.684	19391	16122	0	804
9.232	10.891	19357	16182	0	804
7.537	8.619	19330	16254	0	804
8.330	6.203	19301	16324	0	804
8.366	5.734	19278	16382	0	804
9.737	7.285	19246	16425	0	804
8.871	8.583	19217	16460	0	804
9.052	9.629	19194	16494	0	804
7.573	10.783	19170	16528	0	804
8.258	9.917	19145	16556	0	804
8.366	8.114	19117	16570	0	804
7.104	5.950	19086	16569	0	804
1.262	1.442	19055	16564	0	804
-1.839	-1.118	19023	16557	0	804
-1.947	-0.180	18989	16545	0	804
2.921	2.488	18952	16521	0	804
6.022	6.888	18911	16487	0	804
5.950	6.167	18867	16448	0	804
3.967	4.183	18820	16408	0	804
-0.144	1.659	18770	16365	0	804
0.938	1.911	18715	16315	0	804
3.823	3.570	18660	16262	0	804
7.176	5.409	18602	16212	0	804
4.364	5.445	18544	16167	0	804
2.056	5.157	18483	16124	0	804
-1.983	2.092	18421	16080	0	804
-1.515	1.262	18351	16034	0	804
0.252	1.515	18279	15981	0	804
2.921	2.019	18205	15926	0	804
3.787	2.777	18120	15870	0	804
2.019	4.436	18029	15800	0	804
0.397	5.914	17927	15713	0	804
-1.406	6.708	17822	15628	0	804
0.613	5.662	17713	15554	0	804
3.787	7.140	17603	15489	0	804
5.337	6.816	17499	15442	0	804
6.239	7.681	17392	15414	0	804
6.203	7.934	17287	15398	0	804
6.419	12.261	17183	15382	0	804
10.206	14.894	17075	15370	0	804
13.956	16.769	16973	15375	0	804
15.398	19.077	16875	15397	0	804
15.903	17.851	16774	15423	0	804
11.900	16.120	16676	15446	0	804
11.432	13.992	16577	15469	0	804
10.242	15.218	16478	15498	0	804
11.576	14.713	16384	15534	0	804
15.362	16.733	16288	15568	0	804
17.238	17.129	16189	15595	0	804
18.608	19.654	16091	15621	0	804
18.464	17.454	15996	15656	0	804
12.694	15.759	15907	15699	0	804
10.783	11.504	15821	15750	0	804
9.665	9.665	15737	15805	0	804
9.917	8.547	15653	15855	0	804
11.864	10.746	15570	15900	0	804
8.907	9.701	15488	15942	0	804
4.652	6.419	15405	15979	0	804
1.731	1.370	15323	16011	0	804
0.577	-1.479	15242	16041	0	804
2.560	-0.180	15164	16072	0	804
6.347	3.714	15091	16108	0	804
8.943	7.934	15020	16151	0	804
9.268	8.258	14952	16194	0	804
8.511	8.294	14885	16233	0	804
6.347	6.960	14822	16269	0	804
7.753	6.888	14757	16302	0	804
8.150	8.835	14692	16325	0	804
9.160	8.871	14625	16340	0	804
8.186	8.547	14563	16357	0	804
5.554	5.698	14502	16379	0	804
2.164	3.967	14447	16397	0	804
0.938	2.885	14382	16408	0	804
0.397	2.957	14325	16411	0	804
0.361	3.823	14262	16413	0	804
0.721	4.868	14206	16418	0	804
1.623	5.193	14151	16426	0	804
4.291	6.311	14099	16434	0	804
6.671	8.078	14043	16437	0	804
7.789	10.278	13992	16441	0	804
8.114	10.061	13941	16449	0	804
10.242	8.547	13895	16458	0	804
9.917	8.727	13847	16466	0	804
10.458	7.717	13805	16472	0	804
12.766	8.511	13761	16480	0	804
14.208	10.242	13721	16493	0	804
15.435	13.631	13686	16507	0	804
18.464	14.317	13645	16515	0	804
15.795	13.018	13602	16509	0	804
14.713	11.756	13558	16491	0	804
11.576	8.691	13509	16471	0	804
10.242	6.419	13468	16455	0	804
10.530	5.626	13424	16442	0	804
10.494	8.258	13371	16418	0	804
9.340	8.763	13315	16376	0	804
10.314	9.845	13255	16326	0	804
12.982	8.619	13200	16286	0	804
14.172	9.917	13142	16256	0	804
17.346	8.655	13090	16232	0	804
14.713	7.681	13044	16228	0	804
13.523	6.744	13006	16246	0	804
11.323	6.563	12977	16281	0	804
10.061	4.075	12959	16333	0	804
11.648	4.147	12952	16404	0	804
11.612	4.977	12959	16503	0	804
11.468	5.950	12983	16626	0	804
14.389	7.248	13022	16765	0	804
16.336	7.537	13080	16925	0	804
17.310	9.629	13170	17129	0	804
18.103	9.484	13286	17377	0	804
15.507	8.943	13423	17645	0	804
14.785	9.052	13583	17915	0	804
14.533	10.386	13761	18186	0	804
17.021	11.251	13964	18461	0	804
17.274	10.350	14184	18739	0	804
17.562	10.855	14422	19011	0	804
14.461	8.511	14680	19268	0	804
13.271	6.131	14943	19498	0	804
11.468	4.868	15216	19698	0	804
11.251	2.633	15500	19872	0	804
12.514	3.462	15789	20016	0	804
11.720	2.019	16082	20130	0	804
9.953	1.479	16377	20210	0	804
9.556	0.649	16670	20256	0	804
9.665	0.000	16971	20276	0	804
10.783	-0.541	17269	20272	0	804
10.855	0.902	17565	20237	0	804
12.189	1.370	17844	20155	0	804
9.124	0.433	18109	20019	0	804
7.140	-0.902	18366	19841	1	756
7.357	-2.236	18614	19648	0	756
8.691	-0.433	18854	19447	0	756
11.360	1.442	19079	19227	0	756
14.389	4.111	19292	18986	0	756
17.526	4.904	19486	18720	0	756
15.507	4.075	19665	18430	0	756
14.353	1.587	19830	18133	0	756
11.792	1.082	19985	17844	0	756
8.583	2.741	20132	17569	0	756
9.448	4.003	20267	17300	0	756
8.655	3.967	20384	17029	0	756
9.052	5.193	20496	16760	0	756
9.665	4.075	20594	16505	0	756
12.297	4.075	20685	16269	0	756
12.730	5.914	20763	16047	0	756
11.973	6.960	20834	15841	0	756
11.864	5.698	20903	15655	0	756
8.439	4.003	20958	15486	0	756
6.383	3.931	21010	15334	0	756
3.895	2.092	21057	15200	0	756
5.409	2.092	21091	15078	0	756
3.173	2.488	21118	14963	0	756
4.977	2.488	21142	14864	0	756
8.475	4.111	21157	14780	0	756
12.081	6.022	21154	14689	0	756
14.569	6.888	21137	14585	0	756
13.235	4.724	21119	14495	0	756
8.691	1.298	21097	14431	0	756
5.662	-3.173	21070	14391	0	756
2.669	-4.904	21042	14369	0	756
5.626	-0.902	21006	14355	0	756
9.737	3.173	20967	14342	0	756
10.746	6.383	20922	14333	0	756
11.937	8.655	20866	14332	0	756
10.206	8.366	20815	14344	0	756
10.242	6.671	20761	14368	0	756
12.405	5.878	20698	14394	0	756
12.369	4.255	20623	14409	0	756
11.035	4.760	20545	14413	0	756
9.196	3.823	20466	14429	0	756
9.016	4.436	20389	14468	0	756
8.078	5.229	20307	14515	0	756
8.330	4.832	20230	14569	0	756
7.285	3.210	20152	14632	0	756
5.121	3.498	20075	14704	0	756
5.590	2.669	20004	14785	0	756
7.934	2.488	19930	14874	0	756
10.710	4.003	19865	14970	0	756
12.225	4.075	19800	15070	0	756
9.304	5.013	19732	15171	0	756
8.150	5.085	19673	15273	0	756
7.176	4.364	19615	15373	0	756
7.970	4.255	19557	15473	0	756
8.655	5.698	19505	15576	0	756
9.124	3.859	19453	15674	0	756
8.691	5.878	19397	15759	0	756
10.278	4.147	19345	15837	0	756
9.520	4.652	19294	15912	0	756
10.422	3.967	19241	15976	0	756
7.176	2.705	19183	16027	0	756
6.599	2.200	19127	16071	0	756
3.787	3.895	19079	16117	0	756
4.075	5.157	19029	16168	0	756
7.104	6.058	18984	16220	0	756
7.898	7.321	18939	16266	0	756
8.763	7.537	18894	16305	0	756
9.232	7.501	18849	16335	0	756
7.645	7.429	18797	16350	0	756
5.409	7.645	18744	16354	0	756
5.517	6.635	18695	16363	0	756
4.003	6.311	18649	16377	0	756
5.878	7.032	18602	16387	0	756
5.049	7.393	18556	16394	0	756
4.796	4.977	18512	16401	0	756
4.364	5.662	18467	16407	0	756
6.347	5.229	18421	16406	0	756
6.599	6.708	18363	16385	0	756
5.409	6.167	18301	16347	0	756
4.436	6.239	18241	16306	0	756
3.137	3.570	18177	16273	0	756
4.508	6.347	18115	16239	0	756
8.366	7.140	18048	16202	0	756
10.566	10.206	17978	16164	0	756
11.900	10.746	17907	16123	0	756
9.340	10.566	17837	16084	0	756
8.330	9.160	17767	16058	0	756
6.275	7.321	17701	16044	0	756
5.986	5.481	17625	16022	0	756
6.383	2.813	17545	15977	0	756
7.465	4.003	17456	15922	0	756
7.285	3.750	17370	15874	0	756
6.671	4.977	17282	15834	0	756
1.947	4.364	17192	15801	0	756
2.272	2.524	17099	15766	0	756
3.390	2.777	17002	15731	0	756
6.996	2.993	16910	15705	0	756
9.376	5.842	16823	15695	0	756
9.016	3.859	16732	15691	0	756
4.436	3.895	16637	15683	0	756
2.596	2.236	16540	15670	0	756
-0.216	1.118	16444	15658	0	756
0.072	1.370	16346	15648	0	756
0.180	1.226	16248	15644	0	756
0.938	1.983	16152	15645	0	756
2.741	2.957	16049	15644	0	756
5.121	4.436	15950	15643	0	756
5.914	4.832	15855	15651	0	756
5.373	4.832	15762	15671	0	756
2.885	4.472	15669	15701	0	756
2.164	3.462	15579	15730	0	756
3.750	6.671	15487	15757	0	756
6.167	8.294	15398	15782	0	756
9.124	8.979	15308	15805	0	756
8.511	8.042	15215	15826	0	756
6.491	4.724	15126	15847	0	756
2.993	2.344	15036	15868	0	756
1.370	1.479	14949	15890	0	756
0.829	3.137	14857	15909	0	756
0.938	5.770	14765	15919	0	756
1.406	5.698	14666	15913	0	756
0.397	6.780	14558	15889	0	756
1.010	6.780	14453	15869	0	756
1.587	9.881	14347	15858	0	756
5.049	11.828	14248	15854	0	756
6.635	11.720	14151	15861	0	756
6.347	12.477	14061	15886	0	756
4.364	8.583	13979	15926	0	756
1.551	6.996	13901	15976	0	756
0.829	7.717	13828	16030	0	756
2.705	7.753	13758	16087	0	756
4.219	10.242	13695	16146	0	756
3.065	9.304	13636	16209	0	756
2.128	6.671	13576	16269	0	756
-0.108	4.436	13521	16321	0	756
1.298	5.121	13463	16366	0	756
4.796	7.429	13415	16408	0	756
8.763	11.900	13364	16452	0	756
10.386	13.487	13318	16495	0	756
7.717	13.451	13275	16533	0	756
6.599	11.215	13231	16567	0	756
4.436	10.133	13192	16598	0	756
4.075	11.720	13153	16628	0	756
4.724	11.504	13119	16655	0	756
4.075	9.520	13083	16674	0	756
2.669	9.701	13045	16684	0	756
1.082	8.042	13010	16690	0	756
1.046	9.773	12974	16693	0	756
1.154	10.963	12942	16693	0	756
1.226	13.740	12906	16687	0	756
2.128	12.946	12870	16675	0	756
0.108	8.150	12836	16662	0	756
0.505	5.878	12799	16647	0	756
-0.072	4.183	12767	16632	0	756
-2.344	3.498	12733	16618	0	756
-1.875	6.744	12697	16598	0	756
-0.325	9.340	12656	16566	0	756
-0.793	8.078	12612	16521	0	756
1.154	8.222	12564	16472	0	756
1.623	8.078	12517	16428	0	756
2.164	8.871	12470	16391	0	756
2.705	9.989	12424	16359	0	756
6.239	12.405	12373	16321	0	756
4.940	11.612	12323	16282	0	756
3.642	9.052	12277	16256	0	756
1.659	8.691	12235	16244	0	756
0.325	8.330	12190	16234	0	756
0.649	9.412	12145	16219	0	756
2.669	10.746	12096	16198	0	756
1.623	12.189	12049	16179	0	756
-0.757	10.206	12006	16171	0	756
-2.056	8.150	11965	16175	0	756
-2.452	10.494	11926	16181	0	756
-0.613	11.864	11887	16188	0	756
2.596	14.100	11856	16209	0	756
6.239	17.202	11836	16248	0	756
8.871	16.661	11823	16307	0	756
10.314	15.507	11823	16388	0	756
8.583	13.920	11849	16505	0	756
6.671	10.783	11895	16665	0	756
1.947	9.917	11967	16869	0	756
-0.685	8.186	12070	17111	0	756
-0.397	8.691	12201	17384	0	756
1.298	9.881	12354	17677	0	756
5.013	14.389	12536	17987	0	756
7.825	15.507	12746	18311	0	756
10.242	18.356	12981	18643	0	756
11.179	17.670	13236	18973	0	756
9.484	16.661	13513	19290	0	756
7.970	15.110	13803	19585	0	756
6.239	15.759	14106	19854	0	756
3.246	14.894	14425	20097	0	756
2.488	12.550	14752	20309	0	756
2.633	11.323	15085	20484	0	756
2.200	7.934	15423	20618	0	756
1.118	6.708	15758	20711	0	756
0.469	6.203	16092	20753	0	756
-0.721	7.104	16420	20751	0	756
-1.334	7.393	16754	20726	0	756
-0.505	8.691	17084	20679	0	756
0.865	7.573	17406	20598	0	756
2.272	7.753	17721	20472	1	804
3.318	5.554	18021	20308	0	804
1.370	4.327	18312	20116	0	804
0.721	4.904	18592	19903	0	804
0.036	4.796	18863	19672	0	804
-0.613	5.373	19119	19422	0	804
-0.072	4.508	19363	19151	0	804
1.442	7.032	19591	18867	0	804
1.046	7.573	19809	18579	0	804
1.875	8.727	20010	18286	0	804
4.111	8.511	20197	17984	0	804
5.481	10.638	20369	17679	0	804
7.862	9.665	20529	17376	0	804
8.907	9.160	20673	17083	0	804
7.285	8.078	20812	16804	0	804
6.635	7.501	20935	16539	0	804
3.823	5.049	21044	16280	0	804
2.236	6.419	21139	16024	0	804
3.173	8.186	21226	15782	0	804
5.229	9.268	21305	15563	0	804
6.527	9.953	21369	15366	0	804
7.140	8.222	21431	15186	0	804
6.347	6.888	21479	15021	0	804
2.921	3.210	21523	14876	0	804
1.515	1.118	21556	14747	0	804
-1.046	0.649	21581	14633	0	804
-2.019	0.108	21600	14532	0	804
-3.137	0.577	21609	14445	0	804
-3.498	-0.974	21612	14371	0	804
-2.741	-0.361	21601	14303	0	804
1.334	1.551	21589	14241	0	804
3.714	2.092	21569	14195	0	804
5.878	2.921	21541	14166	0	804
5.373	3.570	21506	14141	0	804
2.885	2.813	21465	14116	0	804
3.101	4.219	21412	14096	0	804
4.688	6.780	21358	14090	0	804
6.491	7.862	21302	14099	0	804
6.599	8.006	21242	14121	0	804
4.508	8.258	21177	14149	0	804
1.370	7.140	21105	14174	0	804
-1.226	6.022	21020	14187	0	804
-1.010	6.816	20936	14198	0	804
-0.144	6.491	20852	14234	0	804
-0.288	7.898	20775	14301	0	804
0.108	7.248	20700	14384	0	804
-0.721	5.373	20628	14478	0	804
-1.010	4.832	20558	14582	0	804
-2.416	3.029	20493	14695	0	804
-2.236	4.364	20432	14814	0	804
-1.262	2.813	20370	14932	0	804
-2.416	4.904	20312	15046	0	804
-2.019	3.895	20254	15160	0	804
-2.164	6.239	20196	15271	0	804
-1.587	8.979	20139	15376	0	804
-0.541	9.376	20084	15477	0	804
2.019	10.458	20032	15578	0	804
4.291	8.186	19983	15677	0	804
3.462	5.481	19930	15771	0	804
4.904	5.157	19884	15857	0	804
3.498	4.940	19834	15934	0	804
4.400	6.022	19789	16004	0	804
5.337	9.232	19740	16068	0	804
6.671	9.556	19691	16122	0	804
7.032	8.330	19642	16169	0	804
7.140	7.140	19591	16210	0	804
7.825	7.862	19545	16244	0	804
6.708	7.645	19495	16271	0	804
6.311	8.222	19443	16291	0	804
5.229	8.475	19391	16305	0	804
4.436	8.042	19339	16314	0	804
6.058	8.691	19284	16318	0	804
8.511	9.016	19230	16319	0	804
9.448	7.717	19175	16311	0	804
7.934	3.714	19112	16293	0	804
4.364	2.560	19055	16279	0	804
3.318	2.164	18996	16270	0	804
4.580	4.832	18938	16261	0	804
7.285	7.285	18878	16246	0	804
8.583	8.511	18811	16226	0	804
7.862	6.744	18747	16199	0	804
4.904	4.832	18680	16172	0	804
5.229	7.032	18611	16147	0	804
6.239	8.258	18541	16120	0	804
7.068	9.665	18468	16088	0	804
6.563	8.979	18392	16058	0	804
3.065	8.150	18317	16028	0	804
0.397	3.606	18240	16000	0	804
-0.216	1.154	18159	15970	0	804
2.524	2.380	18076	15936	0	804
3.931	4.940	17990	15900	0	804
8.006	6.022	17902	15864	0	804
8.078	7.357	17809	15829	0	804
6.203	7.717	17719	15797	0	804
5.265	5.662	17623	15766	0	804
4.508	5.301	17526	15735	0	804
3.101	5.806	17428	15708	0	804
5.626	7.104	17329	15685	0	804
6.635	5.734	17228	15663	0	804
5.878	7.789	17122	15640	0	804
7.176	6.744	17010	15609	0	804
5.734	6.347	16897	15572	0	804
4.760	6.167	16779	15537	0	804
6.780	6.347	16663	15508	0	804
7.393	7.357	16546	15490	0	804
8.871	11.143	16431	15485	0	804
10.530	13.415	16320	15486	0	804
13.379	12.802	16200	15483	0	804
12.153	13.271	16079	15473	0	804
9.340	10.710	15963	15470	0	804
8.439	9.304	15848	15484	0	804
5.301	11.107	15740	15518	0	804
5.662	12.009	15635	15561	0	804
8.907	12.766	15534	15603	0	804
10.746	15.182	15429	15642	0	804
9.556	12.658	15323	15673	0	804
6.347	12.982	15214	15693	0	804
3.246	8.871	15107	15714	0	804
-0.469	5.770	15005	15744	0	804
-2.236	2.741	14907	15788	0	804
0.288	0.865	14815	15845	0	804
5.265	2.885	14734	15911	0	804
8.366	5.157	14653	15982	0	804
11.035	7.717	14577	16049	0	804
8.114	8.222	14502	16112	0	804
4.255	6.455	14434	16175	0	804
1.190	6.094	14367	16242	0	804
-0.108	5.229	14306	16311	0	804
2.056	9.340	14249	16373	0	804
2.993	10.891	14190	16424	0	804
5.373	12.117	14133	16469	0	804
4.724	12.117	14083	16512	0	804
8.042	10.206	14030	16555	0	804
8.402	10.097	13989	16596	0	804
9.953	9.484	13940	16631	0	804
9.845	11.612	13890	16653	0	804
10.783	11.973	13838	16656	0	804
8.835	11.432	13785	16645	0	804
9.088	14.208	13728	16631	0	804
8.547	13.559	13676	16617	0	804
9.376	15.507	13621	16600	0	804
7.753	14.064	13566	16582	0	804
8.150	11.864	13518	16569	0	804
5.409	8.979	13473	16566	0	804
6.131	5.481	13429	16569	0	804
3.065	4.436	13384	16569	0	804
1.623	4.003	13342	16562	0	804
-1.046	4.760	13295	16546	0	804
-3.967	3.101	13248	16523	0	804
-4.183	5.481	13200	16501	0	804
-0.361	7.537	13157	16485	0	804
4.616	9.737	13110	16470	0	804
8.006	11.396	13063	16452	0	804
7.717	11.900	13015	16429	0	804
6.383	13.631	12961	16395	0	804
6.347	13.127	12907	16357	0	804
5.157	14.930	12854	16324	0	804
6.347	14.461	12804	16300	0	804
4.436	10.314	12752	16281	0	804
0.613	9.592	12702	16268	0	804
-1.154	8.402	12658	16264	0	804
-0.541	9.809	12613	16263	0	804
4.544	13.668	12568	16260	0	804
8.042	13.740	12523	16254	0	804
10.494	13.054	12477	16249	0	804
10.206	13.054	12435	16247	0	804
7.537	10.458	12390	16247	0	804
4.688	8.547	12348	16245	0	804
2.560	8.439	12304	16240	0	804
2.633	8.727	12256	16236	0	804
2.128	9.629	12214	16232	0	804
2.056	10.494	12172	16233	0	804
2.452	10.999	12139	16249	0	804
4.400	9.412	12108	16281	0	804
4.111	8.006	12081	16309	0	804
6.708	7.104	12050	16327	0	804
6.960	10.061	12020	16347	0	804
8.042	11.576	12007	16386	0	804
5.950	12.477	12005	16452	0	804
7.176	14.533	12016	16543	0	804
5.662	13.884	12045	16661	0	804
6.671	12.333	12096	16812	0	804
7.753	14.785	12174	17004	0	804
8.042	12.910	12282	17238	0	804
7.393	13.235	12411	17499	0	804
5.229	11.648	12566	17775	0	804
3.714	11.323	12742	18057	0	804
6.058	14.281	12942	18347	0	804
8.943	16.408	13164	18639	0	804
11.287	16.444	13405	18924	0	804
13.451	16.192	13658	19195	0	804
9.917	12.189	13926	19443	0	804
6.383	11.215	14206	19668	0	804
4.868	11.937	14500	19871	0	804
5.229	14.605	14804	20055	0	804
6.275	16.156	15115	20214	0	804
8.078	15.326	15429	20336	0	804
7.465	15.254	15746	20418	0	804
7.140	13.776	16065	20462	0	804
7.501	14.785	16378	20472	0	804
6.671	15.795	16688	20447	0	804
6.563	14.208	16989	20383	0	804
4.291	14.569	17287	20284	0	804
2.344	11.720	17576	20152	0	804
0.902	12.333	17855	19994	1	816
3.173	13.271	18124	19815	0	816
3.210	12.910	18385	19612	0	816
3.678	12.405	18633	19386	0	816
2.741	10.710	18863	19137	0	816
1.406	8.006	19076	18863	0	816
0.974	7.212	19275	18572	0	816
1.911	6.203	19461	18279	0	816
2.236	5.770	19636	17989	0	816
2.633	6.419	19801	17701	0	816
2.380	7.645	19943	17408	0	816
4.003	10.133	20081	17118	0	816
5.085	12.261	20209	16848	0	816
6.960	11.540	20326	16597	0	816
6.311	11.107	20433	16359	0	816
4.075	10.638	20530	16129	0	816
2.524	9.809	20615	15909	0	816
2.957	9.196	20687	15699	0	816
3.967	10.855	20757	15506	0	816
4.760	10.278	20814	15336	0	816
5.193	10.025	20865	15182	0	816
3.642	10.458	20905	15041	0	816
4.183	12.622	20941	14916	0	816
6.167	14.136	20975	14814	0	816
7.789	15.579	20999	14731	0	816
7.537	16.625	21020	14662	0	816
5.517	14.713	21033	14604	0	816
3.642	12.982	21039	14551	0	816
0.036	11.251	21032	14496	0	816
-0.577	10.494	21016	14443	0	816
-1.911	10.783	21003	14410	0	816
-1.551	9.376	20983	14396	0	816
-2.669	8.186	20957	14390	0	816
-0.865	9.160	20926	14387	0	816
-1.046	10.819	20890	14386	0	816
-1.334	10.169	20842	14388	0	816
-1.226	9.232	20794	14390	0	816
-1.983	7.825	20735	14393	0	816
-3.029	6.275	20673	14397	0	816
-3.462	5.157	20602	14403	0	816
-3.787	7.357	20529	14415	0	816
-3.498	7.285	20454	14434	0	816
-0.361	7.609	20375	14463	0	816
0.397	7.573	20298	14502	0	816
1.190	8.366	20214	14541	0	816
-1.154	7.501	20130	14581	0	816
-3.606	5.013	20046	14633	0	816
-6.022	4.616	19968	14701	0	816
-5.445	5.229	19890	14780	0	816
-2.777	8.366	19813	14861	0	816
-1.154	9.016	19737	14942	0	816
-0.938	8.979	19662	15028	0	816
-2.993	7.609	19596	15125	0	816
-4.183	5.481	19531	15231	0	816
-2.885	4.400	19469	15337	0	816
-1.154	7.934	19410	15439	0	816
0.938	9.592	19353	15541	0	816
2.849	11.973	19299	15644	0	816
2.344	12.910	19247	15743	0	816
2.849	14.245	19196	15833	0	816
5.157	14.497	19145	15915	0	816
5.770	13.487	19094	15989	0	816
8.186	15.362	19046	16060	0	816
4.832	14.172	19002	16129	0	816
3.210	13.776	18958	16197	0	816
0.649	14.605	18917	16260	0	816
0.649	12.874	18874	16312	0	816
2.308	13.379	18831	16354	0	816
3.390	11.684	18791	16388	0	816
2.416	8.330	18749	16419	0	816
-0.216	7.609	18704	16437	0	816
-2.633	8.871	18649	16435	0	816
-2.921	11.143	18588	16408	0	816
-1.226	12.297	18521	16365	0	816
-0.902	13.884	18457	16324	0	816
-1.010	11.215	18395	16297	0	816
-2.236	8.006	18334	16281	0	816
-3.210	6.852	18268	16260	0	816
-4.327	7.140	18198	16226	0	816
-4.580	6.960	18125	16179	0	816
-2.885	6.816	18049	16132	0	816
-1.839	8.871	17972	16093	0	816
1.875	13.704	17893	16054	0	816
4.183	15.110	17808	16006	0	816
5.554	16.913	17718	15951	0	816
4.003	14.245	17628	15902	0	816
0.180	8.979	17541	15867	0	816
-2.633	7.681	17454	15841	0	816
-3.065	9.196	17365	15817	0	816
-2.308	11.143	17276	15793	0	816
-0.902	11.287	17183	15773	0	816
-2.164	10.061	17086	15748	0	816
-1.154	8.799	16986	15712	0	816
-2.524	7.537	16884	15681	0	816
-1.370	8.511	16787	15664	0	816
-1.118	7.573	16688	15658	0	816
-4.688	5.914	16594	15660	0	816
-6.924	4.508	16503	15672	0	816
-6.635	5.590	16411	15689	0	816
-3.282	7.537	16316	15698	0	816
-0.397	8.763	16221	15700	0	816
0.433	9.484	16125	15708	0	816
-1.515	7.681	16034	15728	0	816
-4.183	6.203	15946	15757	0	816
-3.931	5.409	15856	15786	0	816
-5.013	5.409	15772	15812	0	816
-2.164	6.960	15684	15837	0	816
-1.406	6.022	15597	15864	0	816
-1.515	5.013	15514	15892	0	816
-0.938	5.626	15430	15922	0	816
-2.777	6.203	15352	15956	0	816
-3.173	8.655	15273	15985	0	816
-4.977	10.350	15185	16005	0	816
-5.626	9.737	15104	16019	0	816
-4.327	8.547	15022	16031	0	816
-3.931	7.898	14934	16043	0	816
-1.983	7.645	14848	16041	0	816
-2.200	7.212	14754	16026	0	816
-1.442	7.501	14659	16012	0	816
-0.361	7.717	14570	16007	0	816
-0.108	8.366	14483	16011	0	816
1.118	8.258	14402	16024	0	816
1.154	8.979	14319	16041	0	816
-0.649	7.068	14235	16055	0	816
-1.803	5.481	14157	16071	0	816
-1.623	7.717	14080	16089	0	816
-0.757	8.799	13999	16102	0	816
0.216	11.215	13918	16104	0	816
0.577	12.477	13832	16101	0	816
1.767	10.855	13758	16107	0	816
3.426	9.989	13682	16125	0	816
3.678	10.097	13611	16151	0	816
6.455	11.504	13544	16181	0	816
8.150	11.468	13482	16212	0	816
8.114	11.684	13423	16247	0	816
6.203	9.809	13367	16285	0	816
4.400	5.590	13315	16330	0	816
0.649	6.816	13269	16376	0	816
3.570	6.780	13224	16417	0	816
5.229	7.898	13178	16453	0	816
6.347	9.016	13138	16487	0	816
5.409	8.222	13101	16522	0	816
5.445	7.465	13062	16553	0	816
6.780	8.943	13026	16581	0	816
7.753	10.386	12994	16606	0	816
9.124	10.314	12959	16623	0	816
4.652	8.583	12920	16628	0	816
-0.325	5.770	12887	16626	0	816
-2.272	2.885	12845	16620	0	816
-1.839	2.669	12807	16609	0	816
0.505	4.724	12767	16592	0	816
3.210	6.924	12725	16572	0	816
4.544	6.527	12687	16554	0	816
4.616	7.898	12654	16547	0	816
4.688	8.150	12620	16547	0	816
2.669	7.176	12585	16538	0	816
5.554	5.193	12546	16513	0	816
5.842	5.878	12504	16482	0	816
9.701	5.085	12462	16452	0	816
10.638	7.465	12420	16426	0	816
10.025	9.160	12373	16393	0	816
8.366	8.619	12322	16352	0	816
6.744	6.491	12270	16306	0	816
7.789	6.708	12219	16269	0	816
8.943	7.068	12174	16244	0	816
11.179	7.934	12128	16228	0	816
9.448	8.871	12078	16213	0	816
8.006	7.285	12032	16196	0	816
6.239	8.475	11985	16178	0	816
8.042	10.422	11936	16166	0	816
11.071	12.586	11891	16159	0	816
11.937	12.405	11843	16153	0	816
11.143	12.910	11800	16146	0	816
4.724	9.953	11752	16138	0	816
0.180	7.609	11707	16137	0	816
-1.442	6.888	11666	16143	0	816
1.659	6.491	11627	16159	0	816
4.760	6.816	11592	16182	0	816
8.583	9.052	11562	16213	0	816
9.448	11.900	11542	16259	0	816
10.674	10.386	11535	16329	0	816
8.114	7.465	11547	16428	0	816
8.258	5.626	11573	16558	0	816
6.131	2.633	11620	16719	0	816
6.960	1.875	11691	16911	0	816
4.508	3.029	11782	17128	0	816
5.013	4.544	11903	17372	0	816
4.760	4.724	12056	17655	0	816
6.239	5.662	12233	17964	0	816
8.258	5.554	12425	18268	0	816
11.251	6.816	12638	18555	0	816
10.963	5.878	12865	18829	0	816
9.881	7.970	13115	19095	0	816
7.140	9.556	13377	19353	0	816
6.780	10.963	13655	19593	0	816
7.681	10.927	13935	19799	0	816
7.934	13.018	14224	19961	0	816
8.402	10.999	14515	20092	0	816
11.179	11.432	14818	20200	0	816
10.674	11.937	15124	20284	0	816
11.720	10.638	15427	20332	0	816
14.172	9.376	15730	20342	0	816
13.379	9.268	16029	20320	0	816
11.612	10.061	16324	20266	0	816
12.297	8.150	16610	20177	0	816
11.540	10.674	16886	20051	0	816
10.963	11.973	17157	19894	1	824
14.425	11.973	17415	19717	0	824
14.821	11.251	17668	19524	0	824
12.514	11.432	17911	19319	0	824
9.484	5.986	18145	19100	0	824
6.131	3.787	18363	18861	0	824
4.039	3.642	18566	18603	0	824
6.347	4.111	18753	18326	0	824
8.835	7.140	18926	18039	0	824
11.251	9.773	19087	17758	0	824
10.530	10.674	19239	17483	0	824
6.924	8.943	19377	17210	0	824
5.554	8.366	19506	16947	0	824
3.967	7.429	19624	16697	0	824
4.760	9.665	19729	16454	0	824
6.924	12.297	19820	16213	0	824
8.475	13.848	19897	15972	0	824
6.058	12.081	19958	15738	0	824
5.914	8.150	20010	15516	0	824
3.606	4.436	20053	15311	0	824
2.705	1.190	20088	15133	0	824
1.442	-0.180	20124	14983	0	824
1.118	1.082	20148	14855	0	824
1.875	1.082	20168	14741	0	824
3.029	2.164	20182	14645	0	824
3.570	3.173	20196	14579	0	824
2.921	1.442	20210	14544	0	824
2.488	0.793	20222	14526	0	824
1.839	-0.902	20227	14511	0	824
3.029	-1.551	20223	14498	0	824
4.580	-0.433	20217	14489	0	824
6.708	1.983	20201	14489	0	824
7.537	3.173	20183	14495	0	824
9.917	6.455	20161	14505	0	824
10.386	7.537	20135	14521	0	824
11.720	9.160	20103	14540	0	824
10.422	7.537	20066	14564	0	824
9.484	3.606	20034	14599	0	824
7.465	-0.144	19991	14642	0	824
7.176	-2.524	19948	14680	0	824
6.527	-2.993	19899	14712	0	824
7.645	-0.325	19843	14744	0	824
8.150	1.118	19789	14778	0	824
9.376	2.200	19725	14814	0	824
9.016	2.128	19669	14855	0	824
10.097	2.380	19608	14904	0	824
8.402	2.452	19553	14966	0	824
8.691	2.272	19497	15036	0	824
7.898	2.200	19442	15109	0	824
6.599	3.282	19390	15184	0	824
7.212	3.318	19332	15255	0	824
6.203	3.606	19275	15317	0	824
6.744	3.606	19214	15372	0	824
6.419	3.390	19158	15433	0	824
7.970	4.291	19104	15502	0	824
9.196	4.472	19054	15574	0	824
8.186	3.895	19001	15646	0	824
7.393	1.911	18951	15709	0	824
4.183	0.288	18899	15764	0	824
2.741	-0.397	18846	15821	0	824
4.832	2.596	18801	15883	0	824
7.681	5.986	18757	15948	0	824
9.232	8.871	18715	16013	0	824
10.458	9.592	18678	16076	0	824
7.429	7.645	18640	16137	0	824
6.419	7.104	18609	16198	0	824
8.366	7.321	18573	16255	0	824
13.920	10.566	18543	16302	0	824
14.605	12.441	18504	16335	0	824
13.018	11.360	18467	16357	0	824
5.878	8.222	18427	16372	0	824
0.938	4.940	18390	16384	0	824
-0.361	2.993	18350	16389	0	824
3.895	3.282	18301	16384	0	824
6.960	5.698	18254	16371	0	824
8.222	5.554	18208	16354	0	824
7.104	6.780	18158	16337	0	824
7.898	9.773	18107	16317	0	824
11.432	10.819	18051	16287	0	824
13.956	11.756	17993	16253	0	824
13.740	11.215	17933	16218	0	824
8.186	8.583	17873	16183	0	824
5.265	6.852	17809	16151	0	824
3.967	6.708	17745	16120	0	824
7.825	9.845	17681	16088	0	824
11.792	11.864	17610	16050	0	824
13.199	11.720	17532	16005	0	824
12.514	11.468	17455	15959	0	824
8.511	9.592	17376	15914	0	824
6.960	7.645	17290	15870	0	824
4.832	7.934	17204	15824	0	824
2.993	8.402	17112	15777	0	824
4.508	7.248	17018	15734	0	824
4.688	6.924	16928	15700	0	824
7.501	5.698	16836	15674	0	824
7.501	5.914	16741	15653	0	824
5.698	3.895	16643	15631	0	824
3.750	5.734	16547	15609	0	824
1.875	6.058	16448	15591	0	824
5.049	9.556	16343	15569	0	824
7.357	10.422	16235	15540	0	824
8.222	11.071	16127	15516	0	824
5.842	8.583	16017	15503	0	824
2.308	4.111	15911	15499	0	824
0.829	2.885	15808	15507	0	824
2.128	2.993	15706	15524	0	824
3.210	3.714	15603	15543	0	824
6.419	3.750	15500	15559	0	824
3.750	3.426	15398	15579	0	824
2.416	2.380	15304	15611	0	824
2.308	3.390	15214	15655	0	824
4.111	6.960	15121	15704	0	824
6.094	10.242	15035	15754	0	824
5.950	8.943	14951	15802	0	824
4.760	5.842	14868	15853	0	824
1.875	3.678	14790	15907	0	824
3.462	3.606	14715	15964	0	824
6.239	6.960	14643	16022	0	824
9.196	9.196	14573	16079	0	824
10.494	9.989	14506	16131	0	824
6.563	8.402	14435	16177	0	824
6.455	6.708	14371	16220	0	824
6.996	4.868	14306	16258	0	824
9.016	4.219	14236	16286	0	824
9.881	3.534	14172	16308	0	824
8.583	1.911	14105	16323	0	824
5.914	1.406	14037	16334	0	824
3.750	1.659	13967	16340	0	824
3.714	1.947	13901	16345	0	824
3.282	0.721	13836	16350	0	824
3.282	0.613	13767	16347	0	824
2.596	-1.370	13694	16336	0	824
2.596	-3.282	13628	16328	0	824
2.128	-2.056	13566	16330	0	824
5.950	0.144	13503	16339	0	824
10.061	4.219	13447	16350	0	824
14.245	7.717	13387	16359	0	824
15.543	8.835	13334	16370	0	824
15.723	8.366	13281	16384	0	824
13.704	7.609	13236	16404	0	824
12.441	6.924	13186	16422	0	824
10.025	4.472	13138	16432	0	824
5.265	3.065	13084	16428	0	824
-0.829	-0.072	13028	16413	0	824
-4.580	-2.056	12978	16405	0	824
-4.508	-2.957	12932	16411	0	824
0.036	-0.613	12889	16424	0	824
5.950	3.859	12848	16439	0	824
8.763	6.203	12812	16455	0	824
9.629	8.078	12777	16475	0	824
8.691	8.511	12746	16497	0	824
8.979	8.078	12713	16511	0	824
9.484	8.655	12669	16504	0	824
12.225	8.979	12625	16478	0	824
12.946	9.665	12584	16455	0	824
10.206	9.448	12540	16444	0	824
9.737	7.934	12497	16432	0	824
7.537	6.167	12457	16418	0	824
6.780	5.337	12419	16406	0	824
6.527	3.570	12377	16394	0	824
4.219	2.128	12339	16384	0	824
5.301	3.354	12306	16387	0	824
4.724	4.364	12278	16403	0	824
5.986	5.409	12244	16413	0	824
5.662	5.770	12206	16400	0	824
4.796	5.085	12165	16374	0	824
3.823	5.806	12117	16341	0	824
6.275	5.193	12068	16302	0	824
8.979	6.635	12012	16256	0	824
8.402	7.176	11958	16215	0	824
6.671	5.229	11907	16185	0	824
4.075	1.983	11858	16166	0	824
2.164	1.334	11813	16156	0	824
1.983	2.416	11773	16162	0	824
6.275	6.671	11740	16184	0	824
8.294	9.917	11716	16225	0	824
10.206	11.107	11709	16293	0	824
9.953	8.943	11716	16392	0	824
9.665	7.032	11742	16523	0	824
8.727	5.445	11791	16683	0	824
8.799	5.806	11858	16873	0	824
7.645	6.022	11949	17091	0	824
7.717	5.770	12070	17339	0	824
5.517	3.642	12216	17614	0	824
4.327	2.849	12381	17904	0	824
3.967	1.406	12571	18197	0	824
2.921	0.938	12785	18490	0	824
1.226	-0.036	13012	18777	0	824
1.839	1.298	13255	19047	0	824
5.842	1.947	13505	19287	0	824
8.294	2.921	13772	19503	0	824
11.576	4.508	14048	19704	0	824
11.035	4.832	14337	19886	0	824
5.806	2.777	14634	20037	0	824
4.183	1.623	14930	20154	0	824
2.777	1.010	15229	20234	0	824
5.698	0.721	15527	20278	0	824
8.691	2.164	15822	20284	0	824
10.710	2.452	16107	20243	0	824
9.737	2.488	16386	20162	0	824
9.268	2.236	16667	20069	0	824
6.924	2.128	16944	19963	0	824
6.275	2.344	17205	19822	1	808
6.022	3.426	17456	19637	0	808
7.357	4.219	17687	19420	0	808
9.376	5.373	17911	19183	0	808
11.396	6.816	18122	18935	0	808
11.143	6.058	18321	18680	0	808
9.845	3.210	18508	18419	0	808
7.934	0.793	18685	18147	0	808
5.806	-2.200	18844	17871	0	808
7.140	-1.623	18997	17599	0	808
6.744	0.433	19134	17330	0	808
9.665	2.993	19255	17058	0	808
11.828	5.554	19364	16783	0	808
12.766	4.796	19459	16515	0	808
13.379	4.039	19545	16264	0	808
12.766	1.659	19621	16030	0	808
10.242	1.118	19691	15814	0	808
10.638	-0.216	19746	15609	0	808
8.547	-0.757	19790	15414	0	808
7.357	-1.731	19829	15232	0	808
4.904	-2.344	19853	15064	0	808
5.626	-1.803	19871	14913	0	808
8.186	-0.433	19880	14776	0	808
12.550	2.200	19881	14655	0	808
15.759	5.157	19878	14551	0	808
19.690	8.150	19869	14468	0	808
16.480	9.052	19856	14404	0	808
13.812	6.203	19839	14355	0	808
9.304	2.813	19807	14311	0	808
5.121	-2.236	19769	14265	0	808
4.219	-4.003	19723	14221	0	808
4.147	-2.524	19667	14187	0	808
6.780	-0.180	19611	14166	0	808
7.898	0.793	19549	14157	0	808
8.943	1.154	19484	14161	0	808
11.107	2.380	19416	14175	0	808
12.297	3.065	19346	14201	0	808
10.855	3.173	19278	14244	0	808
11.143	3.823	19210	14302	0	808
9.160	3.714	19140	14366	0	808
7.825	2.200	19069	14430	0	808
7.321	3.282	18992	14494	0	808
9.268	4.327	18918	14564	0	808
8.547	4.544	18844	14644	0	808
7.212	3.859	18778	14737	0	808
5.914	1.839	18712	14840	0	808
4.868	0.361	18649	14945	0	808
1.659	0.613	18584	15046	0	808
4.364	1.551	18525	15150	0	808
4.688	3.426	18470	15260	0	808
4.796	2.921	18415	15371	0	808
4.652	0.685	18364	15480	0	808
4.508	-1.010	18317	15587	0	808
5.517	-1.515	18267	15690	0	808
5.590	-1.334	18222	15787	0	808
4.039	-0.865	18178	15877	0	808
0.216	-1.911	18141	15967	0	808
-2.669	-4.219	18102	16057	0	808
-5.121	-5.481	18070	16144	0	808
-2.236	-5.878	18040	16228	0	808
1.442	-5.049	18011	16307	0	808
3.462	-4.760	17985	16375	0	808
5.914	-3.318	17954	16430	0	808
3.498	-2.560	17928	16478	0	808
2.777	-2.633	17900	16520	0	808
0.541	-3.101	17873	16554	0	808
-0.938	-3.931	17844	16579	0	808
-0.397	-4.652	17817	16596	0	808
2.488	-3.210	17789	16605	0	808
5.986	0.144	17750	16598	0	808
8.943	2.164	17714	16578	0	808
7.681	1.010	17681	16562	0	808
5.734	-0.288	17644	16553	0	808
1.587	-2.596	17606	16536	0	808
0.865	-2.885	17563	16501	0	808
2.669	-1.226	17514	16456	0	808
4.183	0.072	17464	16409	0	808
5.013	-1.046	17412	16368	0	808
4.039	-0.974	17366	16331	0	808
0.505	-2.200	17313	16295	0	808
-1.767	-3.246	17258	16255	0	808
-2.308	-3.282	17202	16213	0	808
-1.803	-2.633	17145	16172	0	808
-0.433	-3.642	17082	16129	0	808
1.226	-3.029	17018	16082	0	808
1.334	-4.219	16948	16034	0	808
1.118	-5.662	16876	15985	0	808
1.010	-4.940	16804	15939	0	808
0.180	-4.003	16729	15900	0	808
0.288	-1.551	16654	15864	0	808
-0.108	0.793	16573	15826	0	808
-0.252	2.019	16491	15788	0	808
0.072	2.380	16409	15754	0	808
2.092	2.524	16326	15725	0	808
5.734	4.219	16240	15702	0	808
9.124	5.950	16151	15678	0	808
13.559	8.691	16061	15653	0	808
13.307	9.556	15969	15630	0	808
9.340	7.789	15878	15615	0	808
7.573	5.229	15784	15605	0	808
5.193	2.416	15692	15599	0	808
6.275	2.164	15598	15597	0	808
5.193	2.164	15505	15596	0	808
3.678	1.479	15403	15587	0	808
0.505	0.541	15300	15573	0	808
0.288	0.000	15201	15565	0	808
2.380	1.479	15100	15569	0	808
6.527	2.813	14998	15578	0	808
5.301	1.947	14900	15585	0	808
2.560	0.216	14799	15596	0	808
0.397	-0.288	14707	15624	0	808
1.983	-0.361	14622	15668	0	808
5.301	4.868	14534	15715	0	808
9.304	8.006	14449	15758	0	808
9.232	7.501	14364	15798	0	808
7.429	5.373	14283	15841	0	808
6.275	2.705	14206	15890	0	808
7.393	3.029	14132	15942	0	808
9.268	2.885	14060	15992	0	808
11.540	5.698	13986	16038	0	808
11.215	6.852	13918	16082	0	808
9.592	5.806	13848	16127	0	808
6.960	4.075	13787	16172	0	808
6.167	1.983	13719	16214	0	808
4.868	0.144	13656	16248	0	808
5.373	-0.469	13592	16275	0	808
6.383	-1.154	13533	16300	0	808
6.131	-1.551	13474	16331	0	808
3.462	-3.967	13419	16367	0	808
4.544	-5.698	13366	16398	0	808
4.364	-6.131	13316	16427	0	808
6.491	-3.967	13267	16454	0	808
7.717	-3.642	13219	16478	0	808
8.222	-1.118	13172	16496	0	808
11.251	0.577	13125	16510	0	808
13.668	1.659	13077	16518	0	808
15.507	3.462	13031	16525	0	808
17.959	5.734	12986	16530	0	808
16.733	5.409	12941	16532	0	808
13.956	3.823	12897	16531	0	808
10.891	-0.685	12854	16529	0	808
6.094	-4.400	12809	16525	0	808
0.433	-9.232	12761	16510	0	808
-2.200	-9.773	12713	16486	0	808
-2.416	-8.366	12665	16464	0	808
1.298	-6.960	12617	16448	0	808
3.570	-5.878	12568	16430	0	808
5.085	-5.914	12515	16402	0	808
6.419	-5.698	12462	16374	0	808
8.078	-4.724	12416	16351	0	808
10.999	-2.921	12367	16339	0	808
12.982	-0.685	12323	16336	0	808
14.966	1.010	12282	16335	0	808
10.602	0.505	12238	16333	0	808
10.206	-0.577	12199	16333	0	808
9.304	-1.262	12159	16335	0	808
10.386	0.325	12121	16339	0	808
12.009	2.633	12083	16340	0	808
14.281	4.616	12043	16336	0	808
13.271	5.121	12003	16330	0	808
8.763	1.803	11962	16326	0	808
7.537	1.370	11926	16326	0	808
7.537	1.587	11889	16325	0	808
11.107	4.760	11840	16309	0	808
14.136	7.609	11787	16273	0	808
16.805	7.501	11733	16227	0	808
13.848	6.599	11681	16193	0	808
10.927	4.652	11629	16179	0	808
8.943	2.236	11582	16170	0	808
6.996	2.633	11534	16164	0	808
4.616	0.469	11492	16166	0	808
4.075	-1.731	11458	16183	0	808
1.659	-3.173	11427	16217	0	808
2.921	-3.714	11408	16267	0	808
5.626	-2.813	11400	16336	0	808
7.717	-1.370	11404	16426	0	808
8.799	0.036	11421	16535	0	808
8.366	0.974	11458	16670	0	808
8.619	1.875	11520	16844	0	808
6.888	1.262	11604	17052	0	808
5.770	0.721	11711	17285	0	808
6.960	-0.757	11838	17533	0	808
5.734	-1.515	11993	17794	0	808
6.852	-0.541	12171	18074	0	808
6.780	1.947	12375	18369	0	808
6.996	2.308	12600	18672	0	808
8.006	2.633	12844	18967	0	808
6.852	3.318	13106	19244	0	808
10.097	3.967	13383	19505	0	808
10.855	6.383	13676	19747	0	808
10.530	7.970	13973	19961	0	808
11.143	6.419	14283	20139	0	808
7.465	6.311	14595	20280	0	808
6.022	2.416	14907	20383	0	808
5.554	4.364	15223	20453	0	808
7.429	6.022	15540	20490	0	808
11.684	8.583	15853	20490	0	808
13.343	8.547	16156	20443	0	808
13.487	7.898	16449	20351	0	808
13.379	5.878	16734	20220	0	808
12.153	7.140	17006	20059	0	808
11.143	7.465	17271	19875	1	804
11.143	7.789	17527	19668	0	804
9.016	4.796	17767	19437	0	804
5.085	2.560	17996	19189	0	804
3.534	0.505	18214	18929	0	804
5.193	2.921	18421	18664	0	804
7.140	5.445	18614	18394	0	804
9.016	6.780	18796	18115	0	804
8.871	6.058	18956	17824	0	804
5.626	4.183	19100	17520	0	804
4.616	1.695	19229	17210	0	804
3.787	0.072	19344	16905	0	804
5.481	-0.216	19446	16616	0	804
6.203	0.865	19538	16345	0	804
6.058	1.082	19615	16083	0	804
5.481	2.344	19687	15837	0	804
5.517	2.236	19753	15619	0	804
8.835	4.219	19811	15432	0	804
10.746	5.193	19862	15263	0	804
12.405	5.842	19901	15101	0	804
14.136	5.301	19929	14948	0	804
13.920	4.832	19956	14813	0	804
11.684	4.075	19972	14700	0	804
11.900	3.390	19985	14608	0	804
10.494	5.049	19988	14531	0	804
8.366	4.544	19990	14469	0	804
9.340	4.291	19987	14419	0	804
8.835	3.678	19972	14380	0	804
9.088	1.983	19959	14355	0	804
6.635	0.469	19937	14342	0	804
5.554	0.577	19911	14334	0	804
3.282	1.479	19879	14329	0	804
2.885	4.400	19839	14327	0	804
4.472	4.868	19796	14336	0	804
5.806	4.868	19751	14355	0	804
5.698	1.587	19704	14382	0	804
6.744	3.462	19647	14410	0	804
6.744	3.642	19584	14431	0	804
7.970	5.301	19514	14449	0	804
8.042	6.347	19448	14477	0	804
7.212	4.291	19375	14514	0	804
7.212	4.436	19305	14560	0	804
8.619	4.724	19235	14617	0	804
10.494	7.537	19165	14681	0	804
11.576	8.439	19095	14754	0	804
10.458	8.547	19034	14844	0	804
8.763	6.924	18975	14942	0	804
6.419	5.770	18907	15029	0	804
6.527	6.888	18841	15102	0	804
8.222	6.708	18771	15172	0	804
10.133	6.960	18707	15249	0	804
9.917	7.140	18642	15330	0	804
9.592	6.888	18571	15398	0	804
8.835	8.655	18499	15449	0	804
10.927	10.783	18431	15507	0	804
11.287	9.629	18376	15589	0	804
11.900	8.330	18325	15687	0	804
11.900	6.167	18279	15788	0	804
10.422	4.904	18231	15884	0	804
8.258	7.285	18191	15972	0	804
10.242	8.258	18147	16053	0	804
9.917	8.727	18107	16127	0	804
6.671	8.042	18069	16194	0	804
3.065	6.635	18030	16254	0	804
2.272	6.094	17995	16308	0	804
4.472	8.114	17956	16357	0	804
6.960	9.412	17924	16402	0	804
11.576	10.891	17889	16449	0	804
10.963	10.097	17861	16492	0	804
7.717	9.196	17830	16526	0	804
7.068	4.832	17799	16545	0	804
7.285	7.248	17760	16553	0	804
9.592	10.097	17722	16546	0	804
11.540	12.369	17677	16528	0	804
11.973	12.694	17635	16507	0	804
7.753	10.278	17592	16489	0	804
4.580	4.977	17546	16469	0	804
3.462	3.534	17499	16439	0	804
4.472	4.291	17447	16403	0	804
7.176	4.364	17393	16364	0	804
10.602	7.789	17335	16322	0	804
8.835	7.681	17276	16275	0	804
5.481	6.311	17209	16219	0	804
2.777	4.616	17142	16161	0	804
2.019	2.596	17080	16124	0	804
3.787	2.560	17022	16108	0	804
8.258	2.885	16959	16088	0	804
10.025	6.996	16890	16050	0	804
10.963	6.852	16815	16004	0	804
8.835	5.950	16741	15962	0	804
7.104	5.085	16668	15927	0	804
5.554	3.714	16591	15897	0	804
5.770	2.344	16509	15863	0	804
4.940	1.370	16426	15821	0	804
4.868	1.334	16345	15789	0	804
3.426	1.947	16266	15773	0	804
7.321	4.832	16185	15767	0	804
8.186	7.357	16103	15758	0	804
10.494	10.314	16016	15742	0	804
11.071	10.602	15931	15723	0	804
10.386	10.494	15843	15711	0	804
8.871	8.330	15758	15712	0	804
8.402	7.429	15674	15717	0	804
8.583	6.924	15583	15714	0	804
11.756	9.412	15487	15694	0	804
14.353	12.622	15384	15665	0	804
17.093	13.920	15278	15635	0	804
18.500	14.821	15171	15610	0	804
12.802	12.946	15072	15598	0	804
8.835	8.294	14973	15602	0	804
6.744	8.619	14876	15619	0	804
7.357	8.871	14788	15646	0	804
8.907	8.547	14699	15683	0	804
12.550	8.547	14617	15725	0	804
13.379	9.809	14534	15770	0	804
10.819	7.753	14456	15815	0	804
11.360	6.780	14378	15864	0	804
8.222	6.419	14305	15916	0	804
6.780	5.157	14234	15966	0	804
6.960	5.265	14160	16009	0	804
10.855	8.979	14088	16047	0	804
13.595	12.766	14015	16076	0	804
12.946	13.307	13939	16095	0	804
13.271	11.900	13856	16105	0	804
7.825	7.609	13783	16112	0	804
4.472	5.409	13707	16128	0	804
4.255	7.248	13636	16154	0	804
7.537	10.746	13567	16180	0	804
8.655	13.523	13503	16208	0	804
7.537	12.225	13445	16244	0	804
5.013	10.350	13392	16288	0	804
1.767	7.212	13334	16326	0	804
0.325	6.419	13281	16354	0	804
3.462	7.609	13232	16382	0	804
9.412	10.133	13181	16412	0	804
12.189	11.287	13135	16442	0	804
11.143	9.629	13089	16467	0	804
6.491	7.934	13044	16488	0	804
4.219	6.131	13003	16509	0	804
2.200	6.131	12960	16527	0	804
3.642	9.268	12914	16532	0	804
8.222	10.350	12869	16527	0	804
10.242	13.235	12825	16523	0	804
9.917	14.353	12780	16522	0	804
11.468	13.199	12741	16524	0	804
9.737	15.435	12706	16532	0	804
5.842	12.441	12674	16545	0	804
1.262	8.979	12636	16555	0	804
-0.072	6.131	12600	16553	0	804
0.865	7.393	12554	16530	0	804
5.626	9.196	12508	16492	0	804
10.097	13.307	12468	16467	0	804
13.776	17.129	12431	16463	0	804
12.586	17.202	12400	16470	0	804
13.884	17.454	12364	16471	0	804
10.819	14.497	12326	16457	0	804
9.989	13.415	12284	16434	0	804
8.222	11.468	12246	16412	0	804
7.645	11.107	12205	16393	0	804
7.898	13.451	12162	16370	0	804
7.429	14.713	12110	16333	0	804
7.321	15.146	12061	16293	0	804
7.573	16.228	12016	16265	0	804
7.501	12.982	11971	16250	0	804
8.402	12.261	11932	16243	0	804
9.556	11.576	11883	16235	0	804
9.845	10.999	11838	16219	0	804
8.943	12.405	11795	16203	0	804
7.862	12.910	11753	16199	0	804
5.662	11.973	11716	16203	0	804
3.426	11.648	11677	16209	0	804
3.787	10.242	11637	16217	0	804
7.212	11.396	11606	16229	0	804
10.927	14.317	11574	16248	0	804
11.612	15.471	11550	16276	0	804
11.179	17.418	11528	16311	0	804
6.744	15.759	11507	16348	0	804
4.039	12.477	11497	16388	0	804
3.101	12.586	11492	16443	0	804
2.993	10.783	11501	16522	0	804
6.563	12.658	11528	16627	0	804
6.671	13.091	11565	16753	0	804
6.239	11.828	11617	16892	0	804
7.212	12.441	11687	17045	0	804
6.419	13.199	11784	17231	0	804
6.599	13.740	11903	17455	0	804
7.285	15.326	12050	17702	0	804
6.275	13.054	12219	17968	0	804
4.760	11.900	12413	18246	0	804
3.462	10.458	12626	18530	0	804
4.472	12.189	12863	18813	0	804
5.373	14.136	13121	19090	0	804
8.583	17.851	13391	19355	0	804
8.943	17.562	13676	19597	0	804
9.701	17.057	13963	19804	0	804
6.635	12.405	14264	19975	0	804
5.085	11.684	14572	20127	0	804
4.183	10.819	14888	20258	0	804
5.121	12.261	15202	20349	0	804
6.780	15.939	15508	20387	0	804
7.248	15.939	15813	20376	0	804
6.131	16.336	16112	20330	0	804
4.796	14.389	16404	20255	0	804
4.508	13.163	16690	20152	0	804
4.436	12.514	16968	20020	1	816
4.688	11.323	17236	19856	0	816
4.760	12.802	17495	19667	0	816
4.544	14.605	17741	19459	0	816
5.445	12.586	17978	19235	0	816
5.590	14.389	18203	18993	0	816
7.970	14.785	18410	18734	0	816
7.825	15.290	18605	18460	0	816
7.176	17.995	18789	18182	0	816
7.357	17.743	18963	17907	0	816
4.832	17.923	19119	17634	0	816
4.688	15.110	19261	17350	0	816
3.498	14.930	19388	17058	0	816
2.633	12.982	19500	16775	0	816
1.551	14.100	19602	16506	0	816
2.092	15.398	19693	16251	0	816
2.741	16.480	19774	16007	0	816
4.327	17.634	19841	15778	0	816
4.003	17.021	19901	15568	0	816
2.019	14.281	19955	15375	0	816
0.252	11.684	19996	15199	0	816
1.442	13.523	20028	15038	0	816
2.560	14.208	20053	14885	0	816
6.744	16.913	20065	14743	0	816
8.042	18.536	20066	14614	0	816
7.104	16.697	20065	14504	0	816
5.229	15.543	20061	14423	0	816
2.957	11.937	20055	14373	0	816
2.236	11.720	20049	14344	0	816
0.829	11.251	20039	14329	0	816
1.334	10.350	20023	14326	0	816
2.380	10.783	20007	14333	0	816
1.010	10.458	19988	14352	0	816
1.298	9.124	19963	14383	0	816
1.298	9.340	19937	14419	0	816
1.010	10.278	19903	14452	0	816
1.010	9.160	19866	14484	0	816
1.262	9.520	19823	14520	0	816
1.262	9.340	19778	14562	0	816
0.108	9.016	19732	14604	0	816
0.108	8.150	19679	14644	0	816
-1.010	7.501	19624	14687	0	816
-1.046	7.104	19571	14739	0	816
-2.236	6.455	19519	14803	0	816
-2.200	5.770	19465	14874	0	816
-1.406	5.337	19413	14946	0	816
0.469	5.842	19355	15010	0	816
0.902	5.986	19287	15058	0	816
1.659	8.511	19221	15096	0	816
0.469	10.458	19158	15147	0	816
-1.118	9.809	19095	15214	0	816
-0.361	8.475	19040	15287	0	816
1.659	7.862	18984	15363	0	816
3.101	9.629	18931	15446	0	816
4.760	10.025	18886	15535	0	816
2.813	9.052	18842	15631	0	816
-0.252	7.934	18804	15727	0	816
-2.849	6.455	18760	15812	0	816
-2.777	6.996	18715	15876	0	816
-1.118	10.061	18667	15928	0	816
2.741	12.766	18622	15980	0	816
3.714	13.595	18579	16035	0	816
3.101	10.710	18538	16091	0	816
2.416	10.206	18494	16137	0	816
1.659	8.258	18449	16169	0	816
2.092	6.563	18405	16197	0	816
2.777	7.898	18364	16228	0	816
2.560	8.150	18325	16261	0	816
1.046	7.248	18285	16294	0	816
0.144	7.140	18247	16320	0	816
1.226	5.770	18205	16338	0	816
-0.108	5.770	18167	16355	0	816
0.144	4.760	18132	16371	0	816
-1.803	4.832	18088	16381	0	816
-2.993	5.517	18048	16382	0	816
-4.580	6.347	18008	16378	0	816
-4.760	5.878	17966	16377	0	816
-5.626	6.455	17926	16379	0	816
-5.481	4.832	17886	16378	0	816
-4.904	4.291	17838	16365	0	816
-2.164	5.373	17790	16338	0	816
0.325	8.655	17727	16294	0	816
3.390	9.917	17669	16242	0	816
6.635	10.638	17608	16199	0	816
5.481	10.819	17544	16162	0	816
4.255	8.258	17479	16125	0	816
2.200	7.176	17416	16090	0	816
0.036	5.049	17352	16062	0	816
-1.587	3.859	17290	16040	0	816
-1.046	4.291	17228	16023	0	816
-1.803	4.075	17160	16004	0	816
-3.137	4.832	17090	15979	0	816
-3.606	4.111	17015	15945	0	816
-2.741	3.570	16938	15907	0	816
-1.515	2.993	16861	15872	0	816
-1.046	3.318	16778	15843	0	816
-0.793	2.849	16699	15816	0	816
-1.154	1.695	16609	15786	0	816
-1.479	1.010	16525	15755	0	816
-1.226	2.633	16443	15742	0	816
-0.902	4.039	16370	15752	0	816
-2.957	4.977	16293	15765	0	816
-4.183	4.183	16210	15769	0	816
-3.823	2.524	16127	15765	0	816
-2.128	2.885	16045	15761	0	816
0.613	4.940	15962	15761	0	816
2.452	6.708	15873	15759	0	816
2.596	9.340	15784	15751	0	816
3.210	10.025	15691	15741	0	816
3.029	9.088	15608	15744	0	816
2.633	8.727	15521	15761	0	816
3.823	8.439	15441	15783	0	816
3.065	10.530	15359	15805	0	816
4.111	11.540	15280	15827	0	816
6.599	16.048	15198	15850	0	816
8.799	17.454	15118	15870	0	816
9.088	15.326	15037	15888	0	816
9.592	14.389	14957	15905	0	816
8.439	11.864	14876	15923	0	816
6.058	12.441	14802	15947	0	816
5.914	13.199	14728	15976	0	816
5.590	13.812	14657	16010	0	816
7.573	14.353	14590	16046	0	816
5.842	12.946	14520	16078	0	816
4.652	11.540	14453	16104	0	816
1.046	11.540	14382	16125	0	816
-2.200	9.592	14315	16144	0	816
-3.750	8.655	14243	16161	0	816
-1.515	9.052	14177	16173	0	816
2.488	11.504	14109	16184	0	816
5.806	11.179	14042	16194	0	816
8.006	12.622	13966	16194	0	816
5.878	10.061	13896	16188	0	816
3.462	5.986	13834	16197	0	816
0.865	5.698	13774	16224	0	816
2.308	5.517	13712	16245	0	816
6.022	8.655	13649	16255	0	816
8.114	10.783	13587	16259	0	816
7.681	9.629	13527	16267	0	816
4.327	6.383	13468	16277	0	816
0.613	6.167	13413	16291	0	816
-0.144	6.203	13358	16307	0	816
1.406	9.088	13307	16324	0	816
5.842	13.271	13258	16344	0	816
8.691	15.326	13211	16368	0	816
9.665	13.343	13166	16387	0	816
8.763	10.891	13123	16402	0	816
5.121	11.360	13075	16410	0	816
4.688	8.078	13031	16413	0	816
1.262	5.806	12985	16420	0	816
-1.262	3.318	12947	16436	0	816
-4.580	0.938	12912	16458	0	816
-5.914	-1.370	12875	16475	0	816
-6.744	-0.721	12838	16483	0	816
-4.832	1.875	12804	16488	0	816
-3.065	4.364	12768	16492	0	816
-1.442	5.481	12732	16495	0	816
-0.865	6.816	12694	16492	0	816
1.875	6.022	12658	16484	0	816
4.472	6.058	12622	16474	0	816
6.527	5.554	12580	16460	0	816
5.698	4.580	12540	16440	0	816
5.337	5.013	12497	16415	0	816
5.842	4.652	12451	16389	0	816
5.013	5.229	12406	16363	0	816
4.688	4.544	12355	16328	0	816
5.409	5.229	12306	16290	0	816
4.616	4.724	12264	16272	0	816
4.003	2.200	12223	16274	0	816
2.669	4.544	12180	16270	0	816
2.236	4.327	12134	16248	0	816
0.180	4.616	12081	16218	0	816
-1.587	3.895	12030	16191	0	816
-0.180	2.741	11980	16173	0	816
0.108	3.173	11934	16163	0	816
2.056	4.796	11887	16156	0	816
3.787	5.517	11837	16148	0	816
5.373	8.475	11798	16149	0	816
7.140	8.943	11756	16162	0	816
8.006	8.727	11717	16181	0	816
7.753	9.412	11687	16205	0	816
8.114	8.655	11662	16239	0	816
6.383	7.212	11645	16292	0	816
5.157	5.734	11645	16376	0	816
5.373	6.671	11666	16492	0	816
6.094	7.645	11703	16641	0	816
6.924	9.016	11758	16813	0	816
10.458	10.350	11836	17003	0	816
11.792	10.386	11936	17221	0	816
13.199	11.360	12069	17478	0	816
15.254	13.235	12225	17767	0	816
14.353	12.586	12411	18070	0	816
10.025	14.353	12617	18378	0	816
9.737	13.776	12844	18686	0	816
8.619	11.504	13090	18983	0	816
9.665	11.973	13351	19259	0	816
13.487	11.612	13625	19510	0	816
13.884	8.294	13906	19735	0	816
13.199	9.592	14199	19930	0	816
12.874	8.907	14496	20089	0	816
12.297	8.907	14797	20213	0	816
10.566	8.475	15100	20302	0	816
12.081	8.583	15402	20354	0	816
10.278	7.825	15704	20368	0	816
9.160	6.671	15998	20347	0	816
10.458	6.311	16288	20286	0	816
10.242	5.229	16567	20187	0	816
11.251	3.498	16842	20062	0	816
10.494	4.147	17112	19918	1	832
11.792	5.301	17370	19747	0	832
10.314	5.878	17616	19546	0	832
7.465	5.193	17849	19324	0	832
7.609	4.832	18074	19089	0	832
6.563	2.236	18287	18842	0	832
6.347	0.541	18483	18583	0	832
7.140	-0.505	18673	18316	0	832
7.429	-2.272	18846	18045	0	832
8.727	-1.659	19005	17768	0	832
10.350	1.442	19150	17482	0	832
11.432	2.993	19281	17202	0	832
11.468	3.931	19403	16932	0	832
10.819	2.019	19514	16674	0	832
8.655	-1.659	19617	16429	0	832
9.016	-2.380	19710	16204	0	832
11.540	-0.938	19796	15995	0	832
12.297	0.541	19869	15795	0	832
10.602	0.685	19924	15591	0	832
10.169	-0.216	19974	15392	0	832
7.393	-1.406	20017	15223	0	832
5.590	-1.947	20059	15090	0	832
6.563	-0.108	20094	14977	0	832
6.852	0.397	20124	14878	0	832
8.114	0.144	20152	14797	0	832
8.907	-2.200	20170	14732	0	832
9.989	-2.056	20182	14673	0	832
10.422	-1.479	20178	14604	0	832
11.648	-1.587	20159	14524	0	832
9.412	-1.875	20138	14452	0	832
7.645	-3.642	20110	14403	0	832
5.337	-6.455	20079	14369	0	832
5.409	-8.222	20045	14349	0	832
5.914	-7.321	20008	14346	0	832
8.835	-6.094	19969	14353	0	832
9.629	-6.671	19919	14363	0	832
8.619	-5.481	19869	14371	0	832
8.042	-6.094	19816	14390	0	832
8.619	-4.111	19763	14429	0	832
9.953	-1.767	19716	14490	0	832
12.550	-0.108	19666	14561	0	832
13.631	0.325	19616	14634	0	832
11.864	-1.803	19571	14714	0	832
13.091	-4.075	19523	14800	0	832
12.261	-3.642	19471	14878	0	832
11.360	-3.137	19417	14953	0	832
11.107	-1.479	19371	15036	0	832
7.898	0.252	19324	15129	0	832
6.022	-0.865	19279	15226	0	832
6.167	-0.144	19234	15316	0	832
9.340	1.515	19184	15395	0	832
16.084	4.832	19137	15466	0	832
16.877	6.671	19094	15540	0	832
17.346	7.501	19047	15619	0	832
12.009	4.327	19011	15705	0	832
7.645	2.705	18976	15795	0	832
7.212	2.777	18943	15879	0	832
10.061	4.796	18908	15956	0	832
12.477	5.842	18880	16030	0	832
14.641	6.563	18853	16105	0	832
13.956	4.868	18823	16175	0	832
12.297	5.157	18801	16236	0	832
14.641	8.186	18775	16293	0	832
13.884	9.989	18749	16342	0	832
