neuroNicle FX2
D3F25R12
Bluetooth SPP
2023년 11월 3일 금요일
오후 7:26
time interval = 4msec
EEG1	EEG2	PPG	sdPPG	pulse	peak_interval(msec)
45.871	-5.517	16384	17297	0	416
43.779	-5.013	16384	17459	0	416
47.133	1.515	16384	17459	0	416
51.749	7.248	16384	17244	0	416
55.247	12.730	16384	16921	0	416
58.709	11.684	16384	16652	0	416
61.233	9.773	16384	16437	0	416
58.132	4.724	16384	16277	0	416
51.713	3.137	16384	16062	0	416
43.022	0.613	16384	15739	0	416
36.459	1.551	16384	15632	0	416
35.485	4.400	16384	15632	0	416
35.160	3.823	16384	15686	0	416
35.016	3.895	16384	15632	0	416
36.314	6.131	16384	15739	0	416
32.384	7.825	16384	15954	0	416
32.456	13.163	16384	16169	0	416
29.391	14.172	16384	16384	0	416
26.433	11.576	16384	16814	0	416
23.693	6.058	16384	17297	0	416
22.683	1.839	16384	17620	0	416
23.512	0.613	16384	17996	0	416
28.128	5.373	16384	18480	0	416
31.446	11.071	16384	18857	0	416
32.276	11.864	16385	19018	0	416
31.122	10.169	16385	19125	0	416
26.686	2.849	16385	19233	0	416
20.555	-1.118	16386	19179	0	416
17.706	-0.252	16386	19125	0	416
13.091	2.452	16386	19072	0	416
12.189	5.049	16386	19018	0	416
11.432	2.452	16387	18857	1	612
12.009	-4.219	16387	18642	0	612
15.398	-7.465	16387	18373	0	612
23.765	-4.111	16387	17943	0	612
32.997	5.698	16387	17405	0	612
41.868	14.208	16387	16814	0	612
41.688	12.838	16386	16116	0	612
31.122	4.508	16386	15309	0	612
17.670	-6.455	16386	14664	0	612
8.835	-9.232	16386	14288	0	612
12.586	-2.993	16385	13965	0	612
23.512	6.058	16385	13643	0	612
30.220	11.035	16384	13535	0	612
30.112	6.888	16384	13589	0	612
22.503	-1.551	16384	13750	0	612
19.185	-6.635	16384	13965	0	612
18.211	-6.852	16384	14341	0	612
23.621	-2.560	16384	14664	0	612
27.479	1.623	16384	14825	0	612
27.660	4.796	16384	14987	0	612
25.929	2.056	16384	15148	0	612
23.873	-2.236	16384	15363	0	612
25.063	-4.327	16384	15471	0	612
24.342	-5.373	16384	15524	0	612
24.558	-8.727	16384	15632	0	612
25.243	-8.835	16384	15632	0	612
22.142	-10.494	16384	15578	0	612
19.654	-9.629	16384	15471	0	612
19.798	-8.511	16384	15309	0	612
18.572	-5.049	16384	15094	0	612
20.447	-0.938	16384	14825	0	612
20.339	2.344	16384	14610	0	612
21.962	4.472	16384	14449	0	612
23.008	4.364	16384	14449	0	612
21.854	2.019	16384	14449	0	612
23.188	-1.983	16383	14395	0	612
21.024	-4.400	16383	14449	0	612
20.087	-4.508	16383	14610	0	612
20.591	-3.823	16383	14772	0	612
20.231	-1.803	16383	14879	0	612
21.818	0.577	16382	15094	0	612
21.168	3.173	16383	15686	0	612
19.149	2.560	16383	16277	0	612
16.697	1.839	16383	16599	0	612
17.995	1.226	16383	16975	0	612
17.562	4.436	16384	17620	0	612
19.690	7.717	16384	18265	0	612
24.053	13.451	16384	18695	0	612
23.440	13.343	16384	19072	0	612
23.332	11.396	16384	19502	0	612
21.962	11.360	16384	19771	0	612
20.087	11.504	16384	19717	0	612
22.791	13.451	16384	19448	0	612
24.883	16.516	16384	19072	0	612
28.994	15.218	16384	18749	0	612
28.850	15.002	16384	18319	0	612
26.037	15.795	16384	17835	0	612
20.159	15.903	16384	17351	0	612
16.192	17.382	16384	16975	0	612
12.477	14.497	16384	16760	0	612
12.225	11.540	16384	16652	0	612
12.730	9.556	16384	16491	0	612
18.680	11.396	16384	16437	0	612
24.234	17.526	16384	16491	0	612
29.931	23.152	16384	16545	0	612
31.122	25.027	16384	16491	0	612
32.167	25.243	16384	16545	0	612
29.318	21.818	16384	16706	0	612
26.542	21.493	16384	16760	0	612
24.666	20.916	16384	16867	0	612
24.630	22.250	16384	17136	0	612
21.926	21.709	16384	17351	0	612
21.024	18.788	16384	17297	0	612
22.935	18.247	16384	17244	0	612
22.467	17.310	16384	17297	0	612
23.080	18.536	16385	17297	0	612
23.585	17.238	16385	17190	0	612
22.214	18.536	16385	17029	0	612
22.719	16.480	16385	16706	0	612
21.637	17.382	16385	16384	1	316
23.332	17.743	16384	16008	0	316
25.099	19.185	16384	15632	0	316
21.926	19.077	16384	15202	0	316
23.693	18.969	16384	14610	0	316
23.909	17.021	16384	14019	0	316
23.512	17.129	16384	13481	0	316
22.503	13.704	16384	13105	0	316
21.962	13.595	16383	12944	0	316
19.654	14.821	16383	12997	0	316
19.834	20.591	16383	13051	0	316
22.395	25.676	16383	13159	0	316
23.332	27.768	16382	13374	0	316
26.542	26.397	16382	13804	0	316
29.679	20.014	16382	14288	0	316
36.062	16.949	16383	14825	0	316
47.530	22.106	16383	15578	0	316
58.745	30.761	16383	16384	0	316
64.623	42.914	16384	16867	0	316
64.984	49.008	16384	17244	0	316
60.115	49.730	16384	17459	0	316
54.778	45.402	16384	17513	0	316
53.913	41.724	16384	17459	0	316
55.572	42.661	16384	17459	0	316
56.401	43.238	16384	17513	0	316
49.730	41.796	16384	17459	0	316
42.373	37.649	16384	17082	0	316
35.990	30.869	16383	16652	0	316
33.862	25.748	16383	16384	0	316
34.439	23.440	16383	16008	0	316
34.259	24.053	16382	15739	0	316
31.049	19.942	16382	15524	0	316
27.155	18.716	16382	15471	0	316
24.342	15.579	16382	15417	0	316
26.037	18.067	16382	15417	0	316
28.958	21.168	16382	15363	0	316
31.699	24.594	16382	15417	0	316
31.735	25.532	16382	15632	0	316
30.941	23.116	16382	15954	0	316
29.895	22.322	16382	16116	0	316
28.273	18.175	16382	16331	0	316
29.030	16.877	16382	16706	0	316
28.309	13.884	16382	17190	0	316
26.866	14.605	16382	17459	0	316
25.352	13.668	16383	17674	0	316
24.306	17.238	16383	17889	0	316
23.440	17.923	16383	17996	0	316
22.286	19.293	16383	17889	0	316
22.899	17.851	16383	17835	0	316
25.496	17.995	16383	17835	0	316
27.876	16.048	16383	17674	0	316
30.184	15.831	16383	17297	0	316
30.653	14.245	16383	16814	0	316
28.056	15.435	16382	16384	0	316
26.614	13.631	16382	16008	0	316
25.460	10.819	16382	15686	0	316
24.558	8.258	16382	15524	0	316
23.476	2.416	16382	15578	0	316
16.300	-4.616	16383	15954	0	316
11.323	-7.393	16382	16384	0	316
6.455	-7.645	16382	16491	0	316
10.530	0.865	16382	16599	0	316
21.385	11.720	16382	16706	0	316
30.364	19.726	16382	16760	0	316
30.328	15.615	16382	16867	0	316
18.824	5.554	16383	17244	0	316
4.977	-6.527	16383	17835	0	316
-0.505	-8.006	16383	18480	0	316
8.511	-2.957	16384	18803	0	316
19.293	5.229	16384	19072	0	316
23.549	9.124	16384	19340	0	316
17.634	4.544	16384	19502	0	316
9.520	-1.298	16384	19394	0	316
7.068	-5.121	16384	19233	0	316
10.422	-6.058	16384	19018	0	316
15.507	-3.354	16384	18642	0	316
15.579	-4.652	16384	18050	0	316
8.114	-2.488	16384	17459	0	316
4.904	-1.623	16384	16706	0	316
4.940	2.524	16384	15954	0	316
11.937	6.780	16384	15309	0	316
14.966	9.953	16384	14933	0	316
18.211	9.160	16384	14557	0	316
17.238	7.898	16384	14073	0	316
16.697	8.222	16383	13750	0	316
20.087	11.900	16383	13696	0	316
23.404	12.766	16383	13858	0	316
24.234	11.504	16383	14126	0	316
23.116	8.042	16384	14503	0	316
20.447	6.708	16384	14825	0	316
18.031	7.825	16384	15309	0	316
18.969	10.783	16384	15901	0	316
16.877	13.235	16384	16437	0	316
16.264	10.314	16384	16867	0	316
14.713	6.563	16384	17297	0	316
15.975	5.554	16384	17889	0	316
18.031	5.085	16384	18427	0	316
16.300	7.789	16385	18749	0	316
17.923	8.186	16385	18964	0	316
15.110	10.278	16385	19125	0	316
15.795	11.864	16385	18964	0	316
16.805	14.245	16385	18749	0	316
21.277	13.235	16386	18695	0	316
21.493	11.828	16386	18642	0	316
21.421	8.583	16386	18319	0	316
23.332	8.330	16386	17781	0	316
21.277	9.448	16386	17082	0	316
23.765	15.579	16386	16437	0	316
24.306	15.939	16385	15901	0	316
22.647	11.828	16385	15309	0	316
19.473	7.825	16385	14772	0	316
13.740	3.606	16385	14341	0	316
11.937	5.085	16384	14126	0	316
12.802	8.943	16384	14126	0	316
17.887	15.939	16384	14288	0	316
21.277	16.372	16384	14503	0	316
23.837	14.497	16384	14718	0	316
20.627	13.235	16384	14825	0	316
17.815	8.511	16384	14772	0	316
15.002	7.429	16384	14718	0	316
16.877	11.648	16384	14718	0	316
19.726	16.084	16384	14557	0	316
24.342	20.014	16384	14395	0	316
24.450	20.267	16384	14395	0	316
19.473	16.805	16384	14664	0	316
14.641	11.504	16384	14987	0	316
10.963	7.753	16384	15148	0	316
12.009	11.396	16384	15255	0	316
19.437	12.117	16384	15417	0	316
23.801	13.595	16384	15417	0	316
24.739	16.084	16384	15255	0	316
25.712	18.824	16384	15040	0	316
24.811	23.801	16383	14825	0	316
24.991	25.929	16383	14664	0	316
24.847	23.765	16383	14557	0	316
23.909	18.536	16384	14610	0	316
20.988	11.035	16383	14718	0	316
20.483	9.520	16383	15094	0	316
20.555	11.684	16383	15578	0	316
22.935	12.838	16383	15954	0	316
23.873	16.444	16383	16223	0	316
24.125	15.615	16383	16437	0	316
25.460	16.877	16383	16760	0	316
29.138	20.339	16383	17136	0	316
33.934	25.279	16383	17674	0	316
39.199	27.804	16384	18480	0	316
42.914	30.400	16384	19287	0	316
40.426	28.741	16384	19771	0	316
34.043	25.929	16384	20201	0	316
25.929	22.142	16384	20738	0	316
20.447	19.221	16385	21168	0	316
15.146	15.975	16385	21222	0	316
16.048	12.117	16386	21115	0	316
14.858	8.511	16386	21061	0	316
15.218	8.222	16386	20792	0	316
13.199	6.708	16387	20201	0	316
11.035	6.924	16386	19502	1	624
12.369	10.025	16386	18642	0	624
15.615	15.615	16386	17728	0	624
22.395	22.034	16385	16814	0	624
26.181	25.171	16385	15901	0	624
26.686	22.142	16385	15148	0	624
23.152	15.290	16385	14718	0	624
17.743	7.285	16384	14503	0	624
18.067	5.770	16384	14288	0	624
19.762	9.304	16384	14073	0	624
21.565	15.435	16384	13965	0	624
21.601	16.084	16384	13804	0	624
15.579	15.831	16384	13643	0	624
9.701	11.468	16384	13750	0	624
5.842	9.592	16384	14180	0	624
7.753	10.530	16384	14610	0	624
10.314	11.756	16384	14879	0	624
13.163	14.172	16384	15094	0	624
12.586	11.540	16384	15524	0	624
8.619	8.943	16384	15847	0	624
8.835	4.760	16384	15954	0	624
11.396	5.409	16384	16008	0	624
15.146	7.285	16384	16062	0	624
16.552	6.924	16384	16116	0	624
18.031	4.904	16384	16062	0	624
14.966	2.272	16384	16008	0	624
14.785	1.406	16384	15954	0	624
14.028	3.029	16384	15793	0	624
13.271	7.681	16384	15524	0	624
10.891	9.701	16384	15202	0	624
10.386	10.422	16384	14987	0	624
16.733	12.766	16384	14933	0	624
23.693	17.959	16384	14879	0	624
32.095	19.293	16384	14664	0	624
34.511	20.916	16383	14395	0	624
30.869	14.281	16383	14180	0	624
27.119	10.097	16383	14126	0	624
24.378	4.688	16382	14126	0	624
24.955	3.606	16382	14180	0	624
26.073	2.633	16382	14341	0	624
23.909	3.390	16382	14664	0	624
21.132	3.029	16382	15040	0	624
22.431	5.337	16382	15524	0	624
23.224	9.556	16382	16223	0	624
25.388	10.855	16383	16921	0	624
25.099	11.035	16383	17459	0	624
20.700	10.206	16383	18050	0	624
13.992	7.068	16384	18695	0	624
7.285	3.642	16384	19125	0	624
4.075	2.957	16384	19340	0	624
5.590	6.239	16384	19609	0	624
12.441	13.271	16384	19932	0	624
23.116	25.532	16384	20093	0	624
32.276	34.511	16384	19986	0	624
37.757	38.118	16384	19663	0	624
39.308	36.026	16384	19233	0	624
37.396	32.348	16384	18803	0	624
34.367	30.581	16384	18373	0	624
28.922	31.158	16384	17996	0	624
21.277	27.732	16384	17513	0	624
15.290	22.683	16384	17082	0	624
9.701	16.192	16384	16652	0	624
4.977	8.691	16384	16277	0	624
1.154	4.364	16384	15739	0	624
-2.308	1.911	16384	15363	0	624
-0.829	3.823	16384	15202	0	624
6.131	5.265	16384	15148	0	624
15.759	8.907	16384	15309	0	624
23.945	11.107	16384	15739	0	624
25.496	8.691	16384	16223	0	624
19.870	7.032	16384	16437	0	624
17.634	6.599	16384	16599	0	624
15.362	9.629	16384	16814	0	624
18.824	12.874	16384	16867	0	624
19.618	15.759	16384	16814	0	624
18.392	13.631	16384	16760	0	624
12.982	10.746	16384	16760	0	624
7.862	6.311	16384	16706	0	624
5.626	2.308	16384	16706	0	624
4.219	1.442	16384	16599	0	624
4.868	2.272	16384	16384	0	624
7.862	3.823	16384	16169	0	624
12.153	4.219	16384	15954	0	624
16.805	3.282	16384	15739	0	624
22.755	1.118	16384	15686	0	624
22.647	-0.288	16384	15739	0	624
21.529	-0.902	16384	15901	0	624
16.661	1.082	16384	15954	0	624
14.389	0.649	16384	15954	0	624
12.838	0.325	16384	16062	0	624
15.362	0.577	16384	16062	0	624
16.408	4.472	16384	16008	0	624
20.555	9.124	16384	15954	0	624
19.906	12.441	16384	16062	0	624
20.988	12.405	16384	16062	0	624
19.473	11.107	16384	15901	0	624
18.644	7.032	16384	15901	0	624
15.831	5.914	16384	16116	0	624
15.507	6.852	16384	16384	0	624
15.398	6.635	16384	16545	0	624
20.339	9.845	16384	16652	0	624
26.217	11.900	16384	16760	0	624
30.761	12.658	16384	16652	0	624
31.807	13.343	16384	16437	0	624
26.794	11.828	16384	16384	0	624
19.185	8.330	16384	16652	0	624
13.776	10.350	16384	16975	0	624
12.045	9.773	16384	16975	0	624
15.615	9.376	16384	16760	0	624
17.851	8.006	16384	16599	0	624
21.493	8.294	16384	16599	0	624
21.024	8.979	16384	16545	0	624
21.277	11.612	16384	16384	0	624
21.457	16.192	16384	16223	0	624
21.385	15.507	16384	15954	0	624
20.411	12.369	16384	15686	0	624
17.562	8.943	16384	15309	0	624
16.120	7.068	16384	14987	0	624
14.136	6.383	16384	14987	0	624
16.156	7.717	16384	15255	0	624
16.552	9.268	16384	15578	0	624
20.952	8.366	16384	15793	0	624
22.611	7.285	16384	16116	0	624
23.585	5.986	16384	16384	0	624
22.611	3.750	16384	16491	0	624
17.995	4.652	16384	16599	0	624
16.625	5.121	16384	16760	0	624
14.821	6.455	16384	16814	0	624
16.733	6.239	16384	16652	0	624
16.084	4.436	16384	16545	0	624
14.894	3.570	16384	16491	0	624
15.326	2.705	16384	16384	0	624
15.002	4.255	16384	16169	0	624
19.473	8.835	16384	15901	0	624
21.745	11.648	16384	15578	0	624
22.755	14.317	16384	15309	0	624
21.241	16.372	16384	15094	0	624
15.579	13.631	16384	14933	0	624
13.704	11.251	16384	14879	0	624
12.622	11.107	16384	14933	0	624
15.723	11.576	16383	15148	0	624
22.286	12.658	16383	15148	0	624
29.931	14.533	16383	14987	0	624
32.384	13.812	16383	14987	0	624
32.203	14.281	16383	15040	0	624
26.650	13.776	16383	15148	0	624
21.781	9.701	16383	15417	0	624
17.634	7.357	16383	16116	0	624
18.031	4.111	16383	16706	0	624
17.995	5.373	16383	17082	0	624
19.726	8.619	16383	17297	0	624
20.772	11.937	16383	17674	0	624
18.536	12.730	16384	17943	0	624
21.781	10.350	16384	18104	0	624
22.250	7.789	16384	18158	0	624
23.837	10.422	16384	18265	0	624
27.551	12.045	16384	18158	0	624
28.417	16.985	16384	17996	0	624
28.741	21.854	16384	17728	0	624
26.289	20.555	16384	17566	0	624
23.224	15.362	16384	17405	0	624
13.235	4.652	16384	17297	0	624
6.599	-3.570	16384	17190	0	624
4.580	-5.229	16384	17136	0	624
8.727	3.967	16384	17136	0	624
17.851	18.644	16384	17190	0	624
24.089	30.184	16384	17082	0	624
21.204	31.374	16384	17029	0	624
12.153	25.568	16384	17029	0	624
4.075	15.615	16384	17029	0	624
0.144	14.317	16384	16867	0	624
3.714	15.218	16384	16760	0	624
7.609	19.257	16384	16921	0	624
12.153	17.959	16384	16975	0	624
14.245	17.129	16384	16921	0	624
14.966	11.035	16384	16921	0	624
10.710	8.619	16384	17244	0	624
5.590	4.183	16384	17566	0	624
1.587	0.974	16384	17674	0	624
-0.144	-1.875	16385	17728	0	624
0.577	-2.705	16385	17835	0	624
4.039	0.216	16385	17728	0	624
4.616	3.714	16385	17297	0	624
5.013	7.573	16385	16760	0	624
8.366	10.097	16384	16331	0	624
11.035	8.511	16384	15793	0	624
14.713	7.789	16384	15309	0	624
15.831	2.993	16384	14933	0	624
13.271	0.469	16384	14718	0	624
13.523	2.777	16384	14557	0	624
15.182	8.222	16384	14557	0	624
21.637	14.353	16384	14557	0	624
28.237	21.565	16384	14449	0	624
30.905	23.368	16384	14449	0	624
46.051	6.816	16384	15255	0	852
43.563	9.701	16384	15148	0	852
40.317	12.766	16384	15255	0	852
38.226	11.973	16384	15417	0	852
34.728	9.953	16383	15471	0	852
34.115	6.383	16383	15417	0	852
35.341	6.671	16383	15524	0	852
41.543	10.097	16383	15793	0	852
47.638	15.759	16383	15954	0	852
52.254	16.372	16383	16008	0	852
49.153	17.526	16383	16008	0	852
43.202	13.343	16383	16062	0	852
34.620	8.475	16383	16169	0	852
29.679	8.294	16383	16223	0	852
31.410	7.645	16383	16277	0	852
36.747	6.924	16383	16384	0	852
42.589	4.652	16383	16652	0	852
45.005	2.200	16383	16814	0	852
45.799	6.383	16383	16814	0	852
46.917	12.730	16383	16814	0	852
51.100	18.752	16384	16975	0	852
53.300	25.532	16384	17190	0	852
58.384	25.279	16384	17244	0	852
57.880	24.270	16384	17297	0	852
52.434	21.565	16384	17566	0	852
47.097	16.552	16384	17835	0	852
40.065	10.710	16384	17996	0	852
36.675	5.229	16384	18211	0	852
35.557	2.236	16384	18588	0	852
35.124	0.180	16384	18803	0	852
32.167	-0.505	16384	18695	0	852
26.686	-1.983	16385	18588	0	852
21.781	-1.659	16385	18534	0	852
23.404	1.226	16384	18319	0	852
29.499	5.878	16384	17889	0	852
38.118	6.960	16384	17459	0	852
43.960	9.737	16384	17082	0	852
45.114	8.907	16384	16760	0	852
42.012	7.825	16384	16384	0	852
37.144	7.537	16384	16008	0	852
38.226	9.268	16384	15739	0	852
41.507	13.199	16384	15632	0	852
50.379	19.618	16384	15524	0	852
57.916	26.794	16384	15471	0	852
62.748	29.463	16384	15417	0	852
62.676	28.525	16384	15309	0	852
57.375	19.834	16384	15202	0	852
50.451	13.631	16384	15148	0	852
46.268	6.888	16384	15202	0	852
42.193	3.173	16384	15471	0	852
38.262	1.983	16384	15686	0	852
35.305	1.695	16384	15578	0	852
32.203	1.623	16384	15578	0	852
29.246	-2.092	16384	15847	0	852
28.453	-2.019	16384	16223	0	852
33.357	-2.452	16384	16491	0	852
38.658	0.288	16384	16760	0	852
43.130	2.560	16385	17029	0	852
47.494	7.609	16385	17082	0	852
48.395	8.979	16385	16975	0	852
52.001	10.350	16385	16867	0	852
55.103	9.448	16385	16760	0	852
59.538	12.405	16385	16437	0	852
58.673	13.848	16384	16062	0	852
53.768	13.740	16384	15686	0	852
49.405	15.903	16384	15255	0	852
48.576	15.038	16384	14879	0	852
50.451	17.202	16384	14503	0	852
56.076	17.706	16384	14126	0	852
55.968	20.339	16384	13750	0	852
51.244	17.202	16384	13589	0	852
45.474	12.477	16383	13535	0	852
40.750	5.770	16383	13589	0	852
37.721	0.216	16383	13643	0	852
38.082	-2.019	16383	13911	0	852
40.317	-0.288	16383	14288	0	852
41.940	4.075	16383	14557	0	852
42.301	7.862	16383	14933	0	852
44.212	6.131	16383	15632	0	852
43.996	4.616	16383	16384	0	852
43.599	0.721	16383	17082	0	852
44.681	2.416	16384	17728	0	852
47.854	8.042	16384	18265	0	852
52.903	13.812	16384	18534	0	852
55.572	14.966	16384	18642	0	852
56.221	15.038	16384	18803	0	852
57.411	12.225	16384	19072	0	852
54.814	12.946	16384	19179	0	852
56.762	14.785	16384	19125	0	852
57.663	16.336	16384	18964	0	852
57.447	17.238	16384	18749	0	852
56.870	13.271	16384	18427	0	852
53.985	11.576	16384	17943	1	732
52.362	9.340	16384	17405	0	732
47.674	7.573	16384	16867	0	732
44.969	7.285	16384	16491	0	732
43.202	5.554	16384	16169	0	732
42.878	3.750	16384	15739	0	732
43.202	2.056	16384	15309	0	732
40.786	-0.541	16384	15040	0	732
37.685	0.541	16384	14933	0	732
36.206	4.111	16383	14879	0	732
37.108	10.061	16383	14933	0	732
42.120	16.552	16384	15255	0	732
49.441	21.385	16384	15578	0	732
53.732	23.729	16384	15686	0	732
55.536	21.313	16384	15901	0	732
55.716	20.772	16384	16384	0	732
52.542	17.562	16384	17029	0	732
53.191	18.752	16384	17459	0	732
54.201	19.906	16384	17889	0	732
56.762	22.070	16384	18211	0	732
53.444	22.467	16384	18265	0	732
47.962	17.129	16384	17996	0	732
40.353	12.946	16384	17620	0	732
38.947	8.691	16384	17082	0	732
42.048	7.537	16384	16545	0	732
49.910	11.396	16384	16169	0	732
52.867	11.287	16384	15793	0	732
46.772	7.862	16384	15471	0	732
38.118	-0.577	16384	15255	0	732
30.328	-7.140	16384	14987	0	732
28.958	-9.520	16384	14664	0	732
33.249	-5.229	16384	14288	0	732
38.478	2.488	16383	14180	0	732
39.704	7.537	16384	14288	0	732
39.885	8.186	16383	14449	0	732
39.776	7.573	16383	14879	0	732
41.543	5.121	16384	15632	0	732
42.806	5.481	16384	16331	0	732
43.599	8.114	16384	16814	0	732
41.688	11.684	16384	17459	0	732
43.022	13.848	16384	18158	0	732
43.347	15.435	16384	18695	0	732
41.471	9.160	16384	18910	0	732
39.488	2.236	16384	19018	0	732
34.908	-3.210	16385	19179	0	732
33.213	-3.642	16385	19125	0	732
34.223	-0.072	16385	18964	0	732
38.334	5.265	16385	18910	0	732
41.688	8.006	16386	18964	0	732
43.815	9.232	16385	18749	0	732
44.428	7.104	16385	18158	0	732
41.940	5.265	16385	17351	0	732
38.695	3.029	16385	16814	0	732
32.672	-0.541	16385	16545	0	732
28.020	-4.039	16385	16331	0	732
25.171	-4.580	16385	15901	0	732
27.299	-4.075	16385	15632	0	732
29.318	-3.642	16385	15578	0	732
33.790	-0.144	16384	15471	0	732
38.298	5.301	16384	15148	0	732
39.993	10.602	16384	14825	0	732
40.858	12.910	16384	14718	0	732
40.822	13.415	16384	14772	0	732
41.075	9.809	16384	14933	0	732
41.904	6.347	16384	15255	0	732
43.671	5.842	16384	15739	0	732
46.195	6.311	16385	16223	0	732
45.005	7.645	16385	16491	0	732
42.301	10.242	16385	16760	0	732
41.183	11.251	16385	17136	0	732
41.003	15.326	16385	17405	0	732
43.599	16.552	16385	17513	0	732
47.638	16.733	16386	17674	0	732
48.900	14.064	16386	17835	0	732
52.074	12.946	16386	17835	0	732
51.100	9.737	16386	17620	0	732
51.749	10.458	16386	17297	0	732
46.736	8.907	16386	16867	0	732
39.668	8.511	16385	16384	0	732
32.384	5.626	16386	15954	0	732
28.128	4.832	16386	15524	0	732
29.030	3.895	16385	15255	0	732
35.954	3.498	16385	15040	0	732
40.353	2.200	16385	14879	0	732
42.517	4.436	16384	14610	0	732
42.481	4.219	16384	14341	0	732
38.045	5.662	16384	14180	0	732
38.983	6.888	16384	14126	0	732
40.894	8.799	16384	14019	0	732
44.032	8.799	16384	14019	0	732
44.933	10.458	16384	14234	0	732
43.996	12.514	16384	14557	0	732
42.265	11.287	16384	14825	0	732
42.589	12.802	16384	14987	0	732
45.691	12.658	16384	15309	0	732
48.612	12.622	16384	15578	0	732
49.549	14.677	16384	15739	0	732
47.494	13.704	16384	15847	0	732
44.825	12.333	16384	16008	0	732
46.232	13.091	16384	16169	0	732
47.926	10.963	16384	16277	0	732
50.811	12.297	16384	16277	0	732
51.785	12.874	16384	16116	0	732
46.123	12.045	16384	15847	0	732
39.632	11.684	16384	15578	0	732
33.610	8.294	16384	15417	0	732
30.977	4.652	16383	15417	0	732
27.407	0.252	16383	15578	0	732
24.630	-6.996	16383	15847	0	732
20.339	-12.766	16383	16062	0	732
15.146	-13.704	16383	16062	0	732
17.021	-12.838	16384	16116	0	732
21.529	-5.409	16384	16331	0	732
27.083	1.875	16384	16384	0	732
32.889	5.662	16384	16652	0	732
34.043	4.724	16384	17136	0	732
33.033	1.226	16384	17620	0	732
32.203	-1.262	16384	17889	0	732
32.744	-0.072	16384	18158	0	732
35.160	7.429	16384	18480	0	732
38.767	14.461	16384	18803	0	732
42.084	22.142	16384	18910	0	732
45.402	23.260	16384	18910	0	732
47.926	22.899	16384	18964	0	732
51.497	22.070	16384	18803	0	732
52.723	17.310	16384	18427	0	732
50.379	17.923	16384	17996	0	732
48.612	18.283	16384	17513	0	732
43.310	18.716	16384	16975	1	512
38.586	16.589	16384	16384	0	512
35.521	12.658	16384	15954	0	512
29.030	5.409	16384	15578	0	512
26.289	1.046	16384	15255	0	512
23.837	1.911	16384	14933	0	512
24.630	4.868	16384	14718	0	512
22.503	10.350	16384	14610	0	512
21.204	10.422	16384	14772	0	512
23.585	9.556	16384	15148	0	512
25.063	6.527	16384	15417	0	512
31.194	7.068	16384	15578	0	512
36.387	8.042	16384	15739	0	512
39.127	13.487	16384	15954	0	512
41.183	20.627	16384	16116	0	512
44.032	28.561	16384	16384	0	512
46.592	32.492	16384	16652	0	512
46.772	33.069	16384	16975	0	512
46.015	30.508	16384	17136	0	512
42.806	25.099	16384	17297	0	512
42.301	18.933	16384	17405	0	512
38.767	15.867	16384	17459	0	512
33.357	9.448	16384	17351	0	512
27.119	3.787	16384	17297	0	512
22.899	-1.551	16384	17297	0	512
21.132	-4.580	16384	17190	0	512
24.955	-3.931	16384	17082	0	512
28.237	-0.865	16384	16867	0	512
28.705	2.633	16384	16760	0	512
28.453	6.455	16384	16599	0	512
31.879	11.828	16384	16384	0	512
37.541	12.982	16384	16169	0	512
43.058	13.307	16384	15901	0	512
43.491	11.756	16384	15686	0	512
39.993	7.537	16384	15524	0	512
36.459	4.508	16384	15471	0	512
37.432	7.357	16384	15363	0	512
44.681	11.323	16384	15471	0	512
49.189	17.202	16384	15739	0	512
48.395	18.500	16384	16008	0	512
42.445	19.510	16384	16384	0	512
35.990	15.651	16384	16867	0	512
33.970	15.759	16384	17297	0	512
35.413	13.451	16384	17513	0	512
38.839	12.550	16384	17728	0	512
37.108	8.475	16384	18050	0	512
34.872	4.183	16385	18211	0	512
30.112	0.000	16385	18211	0	512
28.489	-1.046	16385	18158	0	512
26.902	-1.983	16385	18104	0	512
23.296	-1.190	16385	17943	0	512
19.726	0.361	16385	17674	0	512
18.103	3.606	16385	17405	0	512
17.346	6.455	16385	17082	0	512
25.279	8.258	16385	16760	0	512
30.797	6.419	16385	16384	0	512
35.197	2.236	16384	16062	0	512
35.413	1.479	16384	15739	0	512
33.393	3.173	16384	15524	0	512
30.220	7.501	16384	15471	0	512
27.660	10.422	16384	15417	0	512
25.929	12.550	16384	15309	0	512
25.820	13.379	16384	15309	0	512
25.965	13.631	16384	15417	0	512
26.974	18.897	16384	15417	0	512
31.771	17.887	16384	15524	0	512
34.908	17.382	16384	15793	0	512
39.416	14.172	16384	15954	0	512
42.229	12.333	16384	16008	0	512
40.173	10.566	16384	16116	0	512
35.449	8.114	16385	16331	0	512
29.066	7.537	16385	16545	0	512
24.342	6.094	16385	16706	0	512
20.808	6.275	16385	16814	0	512
18.283	8.402	16385	17029	0	512
19.870	6.527	16385	17082	0	512
20.483	5.085	16385	16975	0	512
25.063	1.370	16385	16867	0	512
29.607	0.325	16385	17029	0	512
30.545	0.974	16385	17082	0	512
27.551	1.695	16385	16975	0	512
21.060	2.236	16385	16706	0	512
16.192	1.803	16385	16384	0	512
13.668	2.416	16385	16223	0	512
17.887	3.606	16385	16116	0	512
21.565	6.022	16385	16062	0	512
25.640	8.186	16385	15901	0	512
24.306	10.530	16385	15793	0	512
22.503	10.963	16385	15739	0	512
27.047	12.189	16385	15632	0	512
32.816	16.733	16385	15524	0	512
38.550	16.841	16384	15417	0	512
41.003	19.690	16384	15309	0	512
38.154	18.716	16384	15094	0	512
34.151	21.493	16384	15094	0	512
33.898	22.972	16384	15094	0	512
34.800	25.027	16384	15040	0	512
33.321	23.296	16384	14825	0	512
27.912	16.192	16384	14664	0	512
22.972	11.396	16384	14664	0	512
24.486	10.133	16384	14610	0	512
30.581	15.146	16384	14557	0	512
36.423	23.008	16384	14610	0	512
36.603	23.729	16384	14772	0	512
30.941	22.503	16384	14772	0	512
19.906	17.021	16383	14610	0	512
13.704	12.694	16383	14395	0	512
14.317	10.566	16383	14234	0	512
20.519	12.694	16383	14019	0	512
26.037	12.225	16382	13911	0	512
27.804	12.658	16382	13965	0	512
24.234	10.169	16382	14126	0	512
18.139	6.996	16381	14395	0	512
12.550	3.823	16381	14825	0	512
10.710	1.947	16381	15363	0	512
14.569	1.154	16381	15847	0	512
17.851	4.472	16382	16223	0	512
24.955	5.013	16382	16599	0	512
31.446	6.635	16382	17029	0	512
36.278	8.258	16382	17566	0	512
37.865	8.114	16383	18319	0	512
37.577	7.934	16383	18857	0	512
36.351	10.025	16383	19018	0	512
36.351	12.009	16383	19125	0	512
37.216	13.451	16383	19287	0	512
39.344	16.120	16383	19340	0	512
38.731	15.182	16384	19287	0	512
36.242	15.254	16384	19394	0	512
32.853	11.973	16384	19609	0	512
30.689	10.025	16384	19556	0	512
30.905	10.350	16384	19340	0	512
33.213	10.530	16384	18964	0	512
34.151	11.251	16384	18588	1	528
32.889	13.271	16384	18050	0	528
26.433	12.802	16384	17513	0	528
21.313	9.376	16384	16921	0	528
20.664	9.737	16384	16384	0	528
20.195	8.150	16384	15847	0	528
20.844	6.888	16383	15255	0	528
17.490	5.157	16383	14664	0	528
13.127	4.111	16383	14180	0	528
9.376	1.298	16382	13965	0	528
11.215	2.957	16382	13965	0	528
15.723	1.947	16382	13965	0	528
16.552	2.849	16382	14180	0	528
17.634	2.633	16382	14718	0	528
17.021	3.859	16382	15363	0	528
21.781	5.842	16382	15901	0	528
27.876	8.943	16382	16437	0	528
34.583	12.550	16383	17190	0	528
39.488	19.113	16384	17835	0	528
39.632	22.322	16384	18265	0	528
39.957	26.722	16384	18642	0	528
41.796	27.696	16384	19018	0	528
41.688	21.745	16384	19179	0	528
41.435	16.156	16384	19072	0	528
38.586	12.369	16384	18749	0	528
35.810	9.232	16384	18265	0	528
31.915	8.907	16384	17728	0	528
30.905	8.294	16384	17351	0	528
30.581	8.547	16384	17190	0	528
29.282	6.960	16384	16921	0	528
25.820	4.796	16384	16545	0	528
20.988	2.128	16384	16116	0	528
17.382	-0.252	16384	15632	0	528
18.464	-2.488	16384	15309	0	528
23.765	-0.938	16384	15148	0	528
31.951	2.560	16384	15148	0	528
36.278	5.445	16384	15148	0	528
37.577	6.094	16384	15309	0	528
36.531	6.094	16384	15632	0	528
35.521	3.642	16384	16008	0	528
35.160	1.659	16384	16169	0	528
32.997	0.433	16384	16384	0	528
30.472	3.714	16384	16706	0	528
30.977	9.232	16384	17029	0	528
33.357	14.749	16384	17190	0	528
37.793	19.978	16384	17190	0	528
43.274	19.293	16384	17297	0	528
42.409	18.536	16384	17244	0	528
37.613	15.903	16384	16921	0	528
33.249	16.372	16384	16599	0	528
32.492	14.425	16384	16384	0	528
34.403	13.199	16384	16062	0	528
36.891	10.602	16384	15686	0	528
36.819	8.402	16384	15309	0	528
32.348	8.258	16384	14987	0	528
26.470	8.799	16384	14610	0	528
23.476	6.960	16384	14288	0	528
23.440	5.698	16383	13911	0	528
27.551	4.075	16383	13696	0	528
29.643	4.796	16383	13643	0	528
31.735	11.576	16383	13804	0	528
31.266	15.939	16382	14019	0	528
31.735	18.356	16382	14288	0	528
33.970	18.572	16382	14718	0	528
37.432	13.812	16382	15094	0	528
40.786	13.379	16382	15417	0	528
38.622	11.792	16382	15793	0	528
34.583	13.235	16382	16331	0	528
30.112	13.415	16383	16867	0	528
29.607	13.235	16383	17190	0	528
32.528	14.100	16383	17513	0	528
35.088	12.369	16384	17835	0	528
34.331	8.006	16384	18104	0	528
33.502	7.212	16384	18319	0	528
33.718	6.058	16384	18642	0	528
33.213	7.465	16384	18910	0	528
34.331	7.573	16384	18964	0	528
31.951	4.868	16384	18857	0	528
28.092	0.793	16384	18642	0	528
26.614	-1.479	16384	18265	0	528
26.361	-1.695	16384	17728	0	528
27.443	0.974	16384	17190	0	528
30.581	4.111	16384	16706	0	528
32.636	5.121	16384	16277	0	528
35.341	7.862	16384	15901	0	528
37.973	9.160	16384	15632	0	528
38.082	8.258	16384	15417	0	528
38.190	10.278	16384	15417	0	528
39.019	11.792	16384	15524	0	528
41.832	14.208	16383	15578	0	528
45.114	17.202	16383	15632	0	528
46.195	15.651	16384	15739	0	528
44.068	14.605	16384	15954	0	528
36.639	11.684	16384	16169	0	528
29.282	10.350	16384	16384	0	528
25.424	11.396	16384	16814	0	528
24.414	12.333	16384	17513	0	528
30.977	12.586	16384	18104	0	528
37.613	13.956	16384	18373	0	528
41.940	12.766	16384	18534	0	528
39.524	10.891	16384	18803	0	528
35.737	10.746	16385	18910	0	528
28.525	9.052	16385	18857	0	528
25.929	9.088	16385	18695	0	528
25.965	10.314	16385	18480	0	528
30.761	13.199	16385	18104	0	528
33.718	13.271	16385	17620	0	528
37.252	14.317	16385	17029	0	528
39.127	13.379	16384	16599	0	528
40.606	11.612	16385	16277	0	528
42.229	14.100	16385	16008	0	528
43.130	16.192	16385	15686	0	528
42.986	17.490	16384	15417	0	528
44.428	18.247	16384	15202	0	528
44.428	14.425	16384	15040	0	528
44.356	11.828	16384	14772	0	528
43.455	8.547	16384	14449	0	528
40.714	6.491	16384	14288	0	528
35.485	3.931	16384	14288	0	528
31.446	0.433	16384	14341	0	528
30.076	-3.642	16384	14503	0	528
28.922	-6.094	16384	14879	0	528
30.869	-8.222	16384	15255	0	528
32.708	-6.599	16384	15471	0	528
35.197	-2.272	16384	15524	0	528
38.803	2.452	16384	15632	0	528
41.976	6.419	16384	15632	0	528
43.419	8.150	16384	15632	0	528
43.274	6.383	16384	15632	0	528
40.353	5.193	16384	15471	0	528
36.531	3.390	16384	15309	0	528
36.495	3.210	16384	14987	0	528
37.072	3.498	16383	14610	0	528
39.019	5.590	16383	14288	0	528
42.697	8.258	16383	14180	0	528
47.169	12.586	16383	14288	0	528
54.201	17.634	16383	14395	0	528
57.916	19.582	16383	14610	0	528
55.391	19.149	16383	14933	0	528
49.297	13.992	16383	15363	0	528
40.065	10.350	16383	15686	0	528
32.131	6.924	16383	15954	0	528
33.574	6.383	16383	16277	0	528
33.357	4.940	16383	16545	0	528
31.518	4.508	16383	16706	0	528
29.823	-0.361	16383	16975	0	528
29.968	-3.065	16383	17405	0	528
33.790	-1.767	16383	17781	0	528
38.550	0.938	16383	17781	0	528
42.048	3.029	16383	17674	0	528
40.966	4.327	16384	17674	0	528
37.468	3.931	16384	17781	0	528
37.000	2.813	16384	17835	0	528
41.219	3.967	16384	18050	0	528
42.553	6.780	16384	18319	0	528
42.914	7.068	16384	18427	0	528
39.199	7.104	16384	18319	0	528
34.836	4.940	16384	18050	0	528
34.259	4.868	16384	17620	0	528
36.242	7.248	16384	17082	0	528
40.642	9.160	16384	16599	1	640
43.238	12.477	16384	16169	0	640
42.193	13.271	16383	15847	0	640
40.498	10.025	16383	15578	0	640
37.324	7.537	16383	15417	0	640
33.466	2.885	16383	15202	0	640
31.771	2.596	16383	15148	0	640
31.518	4.760	16383	15255	0	640
32.636	7.789	16383	15632	0	640
34.692	10.314	16383	16008	0	640
35.954	10.386	16383	16437	0	640
35.629	8.655	16383	16975	0	640
34.800	6.491	16384	17459	0	640
34.872	7.573	16384	17728	0	640
35.341	10.999	16384	18104	0	640
37.360	16.120	16384	18749	0	640
39.055	19.618	16384	19394	0	640
42.445	23.008	16384	19771	0	640
45.041	26.506	16385	20039	0	640
49.621	25.027	16385	20147	0	640
49.910	24.666	16385	20039	0	640
52.651	24.775	16385	19609	0	640
50.379	21.962	16386	19072	0	640
47.530	18.969	16386	18480	0	640
42.481	16.192	16385	17781	0	640
34.728	11.432	16385	17082	0	640
31.194	6.419	16385	16384	0	640
27.551	0.902	16385	15739	0	640
26.181	-1.406	16385	15202	0	640
25.027	-2.560	16384	14879	0	640
23.008	-2.092	16384	14664	0	640
24.558	1.659	16384	14503	0	640
26.794	5.337	16384	14395	0	640
29.787	3.750	16384	14503	0	640
28.453	0.397	16384	14610	0	640
26.470	-5.301	16384	14718	0	640
24.270	-10.927	16384	15040	0	640
25.424	-9.160	16384	15309	0	640
29.895	-3.462	16384	15471	0	640
33.105	4.111	16384	15686	0	640
35.016	11.143	16384	16008	0	640
36.711	13.884	16384	16331	0	640
39.127	15.759	16385	16437	0	640
41.796	14.749	16385	16491	0	640
42.229	15.435	16385	16652	0	640
40.606	14.281	16385	16652	0	640
35.413	11.828	16385	16491	0	640
28.597	10.674	16385	16223	0	640
25.316	9.376	16385	15901	0	640
25.099	8.222	16384	15632	0	640
26.217	4.327	16384	15309	0	640
25.496	0.361	16384	14933	0	640
24.017	-3.859	16384	14395	0	640
21.637	-5.229	16384	13804	0	640
18.464	-2.416	16384	13320	0	640
19.978	3.426	16384	13051	0	640
18.464	6.491	16383	12944	0	640
17.598	7.465	16383	13105	0	640
15.687	5.445	16383	13481	0	640
19.834	2.741	16383	13911	0	640
26.830	2.019	16383	14288	0	640
31.951	2.885	16383	14664	0	640
31.482	4.400	16383	15094	0	640
27.119	5.842	16383	15578	0	640
23.224	5.770	16383	16331	0	640
22.935	11.504	16384	17351	0	640
30.508	17.238	16384	18373	0	640
37.685	22.070	16384	19072	0	640
41.363	26.289	16384	19556	0	640
40.462	26.938	16384	19932	0	640
37.973	25.748	16384	20201	0	640
36.495	23.260	16384	20147	0	640
35.088	20.375	16385	20093	0	640
32.312	14.425	16385	20039	0	640
24.847	3.642	16385	19824	0	640
13.199	-5.914	16385	19340	0	640
4.472	-12.153	16385	18857	0	640
1.406	-14.533	16385	18480	0	640
5.301	-9.448	16385	18158	0	640
14.425	-1.010	16385	17728	1	316
18.716	6.419	16385	17136	0	316
21.349	9.592	16385	16599	0	316
21.349	10.386	16385	16223	0	316
25.171	10.963	16385	16008	0	316
30.797	13.127	16384	15739	0	316
36.026	10.891	16385	15524	0	316
37.396	8.727	16385	15417	0	316
34.980	5.445	16385	15524	0	316
31.807	5.554	16384	15578	0	316
34.151	11.432	16384	15578	0	316
38.190	20.303	16384	15686	0	316
42.697	27.263	16384	15739	0	316
40.173	26.145	16384	15686	0	316
32.276	19.473	16384	15632	0	316
23.224	9.556	16384	15578	0	316
15.795	1.334	16384	15524	0	316
14.028	-2.777	16384	15471	0	316
12.333	-4.075	16384	15578	0	316
14.713	-3.029	16384	15686	0	316
13.018	-4.832	16384	15632	0	316
13.235	-6.563	16384	15363	0	316
16.264	-7.429	16384	14987	0	316
18.969	-7.321	16384	14664	0	316
23.801	-2.777	16384	14341	0	316
28.850	-0.829	16384	14126	0	316
30.328	0.902	16384	13965	0	316
31.807	2.560	16384	13911	0	316
33.754	4.219	16383	13965	0	316
37.468	4.977	16383	14180	0	316
40.822	8.727	16383	14288	0	316
44.284	9.232	16383	14341	0	316
43.202	8.655	16383	14557	0	316
38.911	7.393	16383	14933	0	316
33.646	2.885	16383	15309	0	316
28.705	0.793	16383	15793	0	316
26.542	-1.983	16384	16384	0	316
24.125	-0.613	16383	16814	0	316
24.558	1.262	16384	17082	0	316
26.181	9.052	16384	17459	0	316
26.866	13.595	16384	17889	0	316
27.840	15.182	16384	18211	0	316
29.318	13.307	16384	18373	0	316
32.348	7.357	16384	18534	0	316
34.187	5.445	16384	18695	0	316
36.206	10.242	16384	18695	0	316
36.062	21.168	16384	18534	0	316
35.521	29.751	16384	18265	0	316
34.475	34.295	16384	17943	0	316
35.882	31.482	16384	17620	0	316
38.622	27.227	16384	17244	0	316
38.586	23.044	16384	16814	0	316
36.747	22.070	16384	16384	0	316
33.033	21.168	16384	15954	0	316
27.515	20.916	16384	15578	0	316
24.991	21.457	16383	15202	0	316
24.739	24.414	16383	14933	0	316
30.364	28.922	16383	14825	0	316
36.423	32.816	16383	14933	0	316
40.389	29.859	16383	15094	0	316
39.308	24.450	16383	15363	0	316
32.889	17.670	16383	15847	0	316
23.873	11.360	16383	16331	0	316
19.257	11.035	16384	16599	0	316
16.444	10.602	16384	16867	0	316
19.690	9.052	16384	17297	0	316
20.880	8.439	16384	17728	0	316
20.664	6.419	16384	17996	0	316
19.798	6.708	16384	18265	0	316
17.923	7.248	16384	18534	0	316
19.473	8.114	16384	18642	0	316
20.736	9.629	16384	18588	0	316
24.486	9.917	16384	18588	0	316
27.551	10.891	16384	18642	0	316
28.922	11.792	16384	18588	0	316
30.761	15.867	16384	18319	0	316
33.646	18.933	16384	18050	0	316
37.108	23.981	16384	17728	0	316
38.118	26.073	16384	17297	0	316
35.990	20.700	16384	16760	0	316
27.660	16.336	16384	16223	0	316
21.204	11.107	16384	15524	0	316
15.939	10.999	16384	14933	0	316
19.221	11.684	16384	14610	0	316
23.909	11.900	16384	14341	0	316
26.686	12.586	16384	14126	0	316
28.525	10.350	16384	14019	0	316
27.515	10.746	16384	14126	0	316
27.047	12.261	16384	14449	0	316
25.784	15.002	16384	14933	0	316
23.404	13.018	16384	15686	0	316
22.322	11.251	16384	16331	0	316
19.870	6.780	16384	16706	0	316
20.519	3.967	16384	16975	0	316
19.437	3.029	16384	17244	0	316
20.123	6.888	16384	17351	0	316
24.594	11.396	16384	17136	0	316
32.528	20.483	16384	16975	0	316
44.104	27.083	16384	16975	0	316
52.578	33.574	16384	16975	0	316
52.723	35.990	16384	16975	0	316
49.838	33.574	16384	17029	0	316
44.645	28.994	16384	16975	0	316
40.606	22.755	16384	16814	0	316
39.344	17.093	16384	16652	0	316
36.423	13.559	16384	16491	0	316
32.420	9.665	16384	16384	0	316
27.624	10.133	16384	16223	0	316
24.450	10.783	16384	16116	0	316
24.739	10.494	16384	15901	0	316
24.919	11.179	16384	15632	0	316
25.784	10.422	16384	15471	0	316
28.705	10.746	16384	15363	0	316
29.931	14.100	16384	15309	0	316
30.761	15.903	16384	15363	0	316
30.112	15.723	16384	15524	0	316
29.679	15.543	16384	15739	0	316
27.010	10.638	16384	15793	0	316
27.155	11.648	16384	15954	0	316
27.155	11.107	16384	16384	0	316
25.243	12.369	16384	16760	0	316
23.332	13.812	16384	16975	0	316
23.512	11.973	16384	17190	0	316
22.719	9.088	16384	17459	0	316
23.729	9.412	16384	17620	0	316
25.424	10.206	16384	17459	0	316
24.594	12.802	16384	17082	0	316
27.191	17.310	16384	16760	0	316
30.725	18.572	16384	16384	0	316
34.800	20.303	16384	16062	0	316
36.351	20.267	16384	15686	0	316
37.468	23.008	16384	15363	0	316
36.423	23.080	16384	15202	0	316
36.531	22.214	16384	15094	0	316
34.295	19.293	16384	14879	0	316
31.410	14.028	16384	14610	0	316
28.201	10.169	16384	14557	0	316
26.145	8.835	16384	14772	0	316
26.181	8.439	16384	14987	0	316
28.597	8.439	16384	15202	0	316
29.751	7.934	16384	15417	0	316
28.201	5.013	16384	15471	0	316
26.361	5.229	16384	15471	0	316
25.352	9.016	16384	15578	0	316
26.578	13.704	16383	15847	0	316
29.246	19.077	16383	16062	0	316
31.338	18.969	16383	16223	0	316
32.492	17.238	16384	16437	0	316
32.059	11.396	16384	16706	0	316
29.354	10.530	16384	16921	0	316
27.660	7.681	16384	17029	0	316
25.604	7.321	16384	17029	0	316
26.686	8.439	16384	16867	0	316
27.119	8.583	16383	16545	0	316
31.230	13.559	16384	16169	0	316
37.757	17.310	16383	15793	0	316
42.625	23.729	16383	15632	0	316
47.999	26.109	16383	15739	0	316
48.720	26.578	16383	15901	0	316
43.166	24.017	16383	16062	0	316
36.819	20.772	16383	16331	0	316
32.708	14.677	16383	16706	0	316
32.889	12.045	16383	17029	0	316
35.665	9.340	16383	17136	0	316
37.757	9.160	16383	17297	0	316
34.151	8.150	16384	17566	0	316
28.814	8.366	16384	17889	0	316
25.207	7.104	16384	18211	0	316
26.686	5.914	16384	18588	0	316
30.148	6.780	16384	19072	0	316
33.249	8.547	16384	19502	0	316
32.997	11.828	16384	19717	0	316
29.859	13.559	16385	19932	0	316
26.037	13.343	16385	20254	0	316
27.119	16.120	16386	20470	0	316
28.705	15.074	16386	20470	0	316
30.905	17.021	16387	20416	0	316
30.040	15.038	16387	20254	0	316
27.660	14.785	16387	19824	0	316
28.092	12.081	16387	19179	0	316
28.453	11.107	16387	18373	1	720
30.184	14.028	16387	17513	0	720
29.318	13.812	16386	16599	0	720
23.368	9.881	16386	15793	0	720
17.923	7.248	16386	14879	0	720
13.054	3.967	16385	14073	0	720
14.821	3.606	16385	13481	0	720
18.175	6.816	16384	13105	0	720
23.765	9.160	16384	12890	0	720
25.424	10.999	16384	12621	0	720
24.739	9.340	16384	12514	0	720
24.594	9.953	16384	12567	0	720
21.890	9.088	16384	12621	0	720
23.801	10.638	16384	12836	0	720
24.847	11.287	16384	13320	0	720
24.630	12.117	16384	13804	0	720
23.873	14.605	16384	14288	0	720
24.883	15.939	16384	14879	0	720
27.263	17.202	16384	15739	0	720
29.571	16.372	16384	16545	0	720
29.066	11.648	16384	17136	0	720
25.640	8.366	16385	17620	0	720
22.034	4.652	16385	18050	0	720
19.329	5.770	16385	18373	0	720
20.736	7.357	16385	18373	0	720
25.532	8.691	16385	18158	0	720
28.525	9.701	16385	17728	0	720
30.184	7.717	16385	17190	0	720
31.158	5.950	16385	16652	0	720
27.948	3.498	16385	16223	0	720
25.352	1.839	16385	15847	0	720
20.808	2.452	16384	15632	0	720
20.591	4.400	16384	15363	0	720
19.654	6.960	16384	14933	0	720
18.824	9.737	16384	14395	0	720
21.637	9.917	16384	14126	0	720
21.204	11.756	16384	14019	0	720
24.883	14.497	16384	14073	0	720
27.119	16.192	16384	14288	0	720
31.590	18.356	16384	14772	0	720
31.122	17.202	16384	15309	0	720
29.968	16.589	16384	15578	0	720
30.220	14.461	16384	15901	0	720
29.968	14.894	16384	16437	0	720
30.761	15.326	16384	17029	0	720
29.102	13.054	16384	17459	0	720
24.775	10.025	16384	17781	0	720
21.024	4.868	16384	17943	0	720
17.021	1.911	16384	17889	0	720
20.411	4.219	16384	17620	0	720
27.010	7.176	16384	17244	0	720
31.554	12.658	16384	16814	0	720
33.141	12.766	16384	16384	0	720
30.220	10.891	16384	15901	0	720
24.125	9.773	16384	15471	0	720
21.024	8.042	16384	15094	0	720
20.267	7.862	16384	14718	0	720
24.378	8.150	16383	14503	0	720
27.840	10.169	16383	14395	0	720
29.931	8.907	16383	14341	0	720
29.643	10.530	16383	14449	0	720
29.210	10.530	16382	14557	0	720
29.246	11.215	16382	14610	0	720
29.427	12.153	16382	14610	0	720
31.446	12.694	16382	14718	0	720
32.420	14.136	16382	14933	0	720
30.040	9.845	16382	15202	0	720
25.460	4.003	16383	15632	0	720
22.358	1.190	16382	16277	0	720
19.510	-2.813	16382	16867	0	720
20.483	0.902	16383	17405	0	720
25.352	5.626	16383	17889	0	720
29.643	10.999	16383	18427	0	720
31.338	11.792	16383	18910	0	720
31.374	10.133	16384	19287	0	720
31.085	10.458	16384	19717	0	720
31.879	12.333	16384	20147	0	720
34.980	15.939	16384	20201	0	720
38.406	19.762	16384	20039	0	720
38.298	17.490	16384	19771	0	720
36.062	15.831	16384	19448	0	720
33.213	13.271	16384	19072	0	720
29.715	15.218	16384	18695	1	328
28.669	16.084	16384	18104	0	328
30.148	18.824	16384	17513	0	328
31.843	19.221	16384	17029	0	328
35.665	21.060	16384	16652	0	328
36.459	20.772	16384	16384	0	328
31.085	18.716	16384	16116	0	328
23.044	10.350	16384	15847	0	328
12.982	3.931	16384	15686	0	328
6.419	-2.272	16384	15578	0	328
5.409	-1.983	16384	15686	0	328
11.973	1.406	16384	16008	0	328
17.598	5.229	16384	16331	0	328
23.801	6.888	16384	16491	0	328
25.929	5.229	16384	16867	0	328
27.624	4.111	16385	17459	0	328
28.020	5.157	16385	18050	0	328
33.393	8.655	16385	18319	0	328
37.937	14.749	16386	18427	0	328
44.176	19.329	16386	18588	0	328
45.186	21.168	16386	18588	0	328
42.806	19.005	16386	18373	0	328
40.101	17.634	16386	17996	0	328
36.783	14.172	16386	17566	0	328
33.790	13.199	16386	17136	0	328
32.203	12.694	16386	16599	0	328
33.249	11.360	16386	16008	0	328
36.134	13.595	16386	15417	0	328
40.281	15.507	16385	14879	0	328
41.363	18.824	16385	14234	0	328
42.625	18.572	16385	13643	0	328
38.875	18.356	16384	13212	0	328
36.891	14.641	16384	12944	0	328
34.583	9.809	16384	12782	0	328
33.105	2.669	16384	12621	0	328
26.938	-4.616	16384	12621	0	328
21.204	-9.484	16384	12836	0	328
17.598	-13.487	16384	13105	0	328
19.329	-11.179	16384	13374	0	328
22.647	-6.383	16384	13696	0	328
26.542	-4.039	16384	14126	0	328
28.453	0.541	16384	14503	0	328
27.660	4.724	16384	14664	0	328
28.994	11.143	16384	14879	0	328
32.384	16.084	16384	15094	0	328
38.406	18.680	16384	15255	0	328
41.039	19.365	16383	15417	0	328
40.894	13.559	16383	15417	0	328
38.118	12.982	16383	15363	0	328
35.269	12.982	16383	15094	0	328
35.088	19.113	16382	14825	0	328
40.786	24.017	16382	14503	0	328
45.763	29.679	16381	14288	0	328
49.838	31.302	16381	14126	0	328
50.595	29.354	16381	14073	0	328
47.710	22.395	16381	14073	0	328
42.157	17.021	16381	14180	0	328
37.360	9.052	16381	14610	0	328
33.466	6.744	16381	15202	0	328
28.886	6.311	16381	15739	0	328
27.551	8.871	16381	16223	0	328
28.741	11.251	16381	16652	0	328
30.653	13.379	16381	17190	0	328
31.807	12.730	16381	17674	0	328
31.554	8.402	16381	18211	0	328
30.797	7.032	16381	18857	0	328
30.869	5.914	16382	19448	0	328
32.239	9.484	16382	19717	0	328
36.098	15.182	16382	19986	0	328
37.216	22.683	16383	20254	0	328
36.639	20.808	16383	20362	0	328
32.997	18.680	16384	20308	0	328
29.391	12.189	16384	20201	0	328
30.797	11.504	16384	20147	0	328
33.141	13.740	16384	19932	0	328
37.072	21.962	16384	19609	0	328
38.658	26.506	16384	19179	0	328
36.062	27.948	16384	18749	0	328
31.987	25.856	16384	18265	0	328
30.689	21.673	16384	17781	1	316
30.436	19.149	16384	17244	0	316
31.410	16.300	16384	16814	0	316
30.797	14.208	16384	16545	0	316
29.174	10.242	16384	16437	0	316
27.515	11.576	16384	16384	0	316
28.525	11.360	16384	16331	0	316
28.705	8.583	16384	16331	0	316
31.049	8.943	16384	16331	0	316
29.968	6.816	16384	16331	0	316
28.345	7.285	16384	16331	0	316
26.217	9.773	16384	16545	0	316
26.289	16.408	16384	16921	0	316
28.597	18.536	16384	17190	0	316
32.384	20.808	16384	17405	0	316
34.836	18.536	16384	17620	0	316
36.314	16.084	16384	17728	0	316
36.531	12.622	16384	17674	0	316
37.252	11.179	16384	17674	0	316
38.082	14.605	16385	17674	0	316
40.642	16.589	16385	17459	0	316
40.101	19.149	16384	16921	0	316
36.351	16.913	16384	16384	0	316
31.951	14.245	16384	15847	0	316
29.679	9.917	16384	15363	0	316
31.446	5.770	16384	14933	0	316
34.764	5.770	16384	14503	0	316
38.658	6.671	16384	14126	0	316
38.695	7.645	16384	14073	0	316
34.980	8.078	16384	14234	0	316
31.807	6.527	16384	14395	0	316
30.328	2.344	16384	14449	0	316
29.715	0.433	16384	14557	0	316
28.886	-1.659	16384	14664	0	316
29.246	-0.397	16384	14772	0	316
32.564	0.108	16384	15040	0	316
37.144	2.272	16384	15686	0	316
42.770	5.734	16384	16331	0	316
45.618	8.042	16384	16814	0	316
47.602	12.550	16384	17297	0	316
49.441	14.966	16384	17889	0	316
47.999	15.759	16385	18265	0	316
49.766	13.091	16385	18480	0	316
49.838	12.622	16385	18749	0	316
46.556	11.468	16386	18964	0	316
47.530	9.737	16386	18964	0	316
44.933	10.602	16386	18749	0	316
43.274	7.032	16386	18427	0	316
37.360	2.596	16386	17943	0	316
32.744	-0.829	16386	17459	0	316
28.922	-0.902	16386	17082	0	316
27.010	2.308	16386	16706	0	316
27.696	6.311	16385	16384	0	316
32.059	7.285	16385	15901	0	316
35.449	8.511	16385	15471	0	316
39.163	7.645	16385	14933	0	316
43.743	9.556	16385	14449	0	316
44.212	14.100	16384	14180	0	316
44.032	19.654	16384	13965	0	316
44.609	22.395	16384	13696	0	316
46.556	24.486	16384	13589	0	316
48.035	26.542	16384	13750	0	316
52.723	25.027	16384	14073	0	316
51.749	21.673	16384	14288	0	316
49.513	18.031	16384	14664	0	316
44.428	13.451	16384	15309	0	316
36.206	10.891	16384	15954	0	316
30.905	12.982	16384	16277	0	316
27.624	14.785	16384	16384	0	316
27.263	16.444	16384	16545	0	316
31.518	14.281	16384	16652	0	316
33.790	8.294	16384	16706	0	316
33.862	4.904	16384	16867	0	316
33.393	3.029	16384	17082	0	316
34.223	6.131	16384	17136	0	316
36.242	11.360	16384	16975	0	316
39.596	11.396	16384	16706	0	316
38.442	10.999	16384	16331	0	316
36.387	5.013	16384	15954	0	316
34.043	3.101	16384	15632	0	316
34.151	4.183	16384	15363	0	316
37.721	7.501	16384	15202	0	316
42.770	11.720	16384	15202	0	316
42.337	12.405	16384	15309	0	316
40.786	11.504	16384	15309	0	316
42.048	11.071	16384	15363	0	316
44.861	11.504	16384	15578	0	316
52.614	15.579	16384	15793	0	316
57.627	23.080	16384	15901	0	316
58.420	24.306	16384	16008	0	316
49.405	23.296	16384	16277	0	316
39.055	20.591	16384	16384	0	316
31.302	14.172	16384	16491	0	316
27.407	10.097	16384	16760	0	316
28.922	5.914	16384	17136	0	316
28.922	2.921	16384	17297	0	316
28.922	1.731	16384	17244	0	316
29.787	2.633	16384	17190	0	316
30.617	5.517	16384	17136	0	316
33.970	8.943	16384	17082	0	316
37.396	9.881	16384	16867	0	316
38.009	10.386	16384	16384	0	316
37.613	10.746	16384	15954	0	316
35.305	10.422	16384	15524	0	316
31.699	9.160	16383	15148	0	316
29.318	5.517	16383	14825	0	316
28.777	2.560	16383	14610	0	316
28.417	0.144	16382	14557	0	316
29.859	-0.902	16382	14718	0	316
32.095	2.669	16382	14933	0	316
33.934	6.383	16382	15309	0	316
35.269	11.756	16382	15901	0	316
37.072	15.074	16383	16384	0	316
38.154	15.290	16383	16814	0	316
40.678	16.048	16383	17244	0	316
45.655	13.884	16384	17674	0	316
52.687	16.156	16384	18050	0	316
56.221	19.510	16384	18427	0	316
57.411	25.784	16384	18964	0	316
51.172	29.427	16384	19609	0	316
45.402	27.191	16384	20093	0	316
37.901	19.978	16385	20308	0	316
29.138	9.845	16385	20523	0	316
25.640	0.938	16385	20738	0	316
22.827	-2.092	16385	20738	0	316
24.991	2.019	16386	20416	0	316
33.718	8.042	16386	20039	0	316
40.101	11.251	16386	19663	0	316
42.120	10.242	16386	19233	0	316
38.983	6.167	16386	18749	1	516
30.725	-0.144	16386	18050	0	516
23.873	-3.318	16386	17244	0	516
24.486	-2.921	16386	16437	0	516
26.181	-1.695	16386	15793	0	516
32.672	-1.911	16385	15202	0	516
34.656	-1.623	16385	14557	0	516
34.115	-3.498	16385	14180	0	516
34.692	-0.902	16385	14126	0	516
35.846	2.200	16385	14288	0	516
41.183	5.373	16385	14503	0	516
49.225	11.215	16385	14933	0	516
57.303	14.821	16385	15363	0	516
62.532	17.454	16385	15632	0	516
60.981	19.041	16385	15847	0	516
55.644	18.356	16386	16223	0	516
46.953	14.317	16386	16437	0	516
41.580	9.773	16386	16491	0	516
36.639	7.681	16386	16545	0	516
33.682	4.940	16386	16706	0	516
31.482	0.577	16386	16706	0	516
26.578	-2.308	16386	16545	0	516
25.965	-6.167	16386	16437	0	516
26.361	-6.311	16386	16437	0	516
28.850	-2.777	16386	16331	0	516
30.581	0.288	16386	15901	0	516
30.797	3.895	16386	15309	0	516
32.528	5.770	16386	14772	0	516
33.321	5.085	16385	14288	0	516
36.026	2.849	16385	13750	0	516
33.538	-1.406	16384	13320	0	516
29.931	-5.662	16384	12944	0	516
22.972	-6.852	16384	12782	0	516
22.286	-2.236	16384	12729	0	516
25.712	7.321	16384	12621	0	516
33.934	16.985	16384	12460	0	516
42.661	22.286	16384	12567	0	516
43.130	24.486	16383	12890	0	516
45.835	25.676	16383	13320	0	516
46.195	23.008	16383	13804	0	516
49.080	22.286	16383	14449	0	516
51.965	22.250	16383	15040	0	516
49.225	20.700	16383	15524	0	516
43.383	20.627	16383	15847	0	516
37.360	18.897	16383	16169	0	516
32.456	18.067	16383	16437	0	516
31.626	13.379	16383	16760	0	516
32.131	10.963	16383	17136	0	516
32.780	9.304	16384	17513	0	516
30.545	8.006	16384	17781	0	516
27.227	10.133	16384	17889	0	516
23.909	9.052	16384	17781	0	516
24.089	10.566	16383	17566	0	516
26.217	11.323	16383	17297	0	516
30.004	15.038	16383	17029	0	516
31.699	13.523	16383	16760	0	516
28.273	11.215	16383	16545	0	516
23.188	5.662	16383	16491	0	516
19.546	-0.793	16383	16545	0	516
20.880	-3.101	16383	16545	0	516
24.306	0.325	16383	16599	0	516
28.417	5.914	16383	16706	0	516
32.059	11.396	16383	16814	0	516
34.043	15.398	16383	16975	0	516
34.367	19.437	16383	17244	0	516
35.016	18.644	16383	17781	0	516
33.934	17.887	16383	18158	0	516
32.456	16.516	16384	18480	0	516
30.220	13.018	16384	19018	0	516
30.220	11.035	16384	19824	0	516
28.886	11.540	16384	20470	0	516
26.974	11.828	16384	20792	0	516
25.027	12.405	16385	20900	0	516
24.342	14.281	16385	20846	0	516
23.585	12.946	16386	20523	0	516
27.010	8.763	16386	19986	0	516
31.446	6.780	16386	19340	0	516
35.882	6.635	16386	18588	0	516
38.731	7.789	16385	17674	0	516
39.704	11.864	16385	16652	1	316
34.908	14.172	16385	15686	0	316
28.417	11.468	16384	14772	0	316
24.811	6.960	16384	14019	0	316
21.241	2.921	16384	13428	0	316
18.824	0.036	16384	12944	0	316
18.644	-2.092	16384	12514	0	316
15.435	-1.947	16384	12245	0	316
14.425	-2.380	16384	12245	0	316
19.401	0.288	16383	12406	0	316
25.893	3.426	16383	12782	0	316
31.302	10.386	16383	13481	0	316
34.908	12.225	16383	14288	0	316
35.124	10.530	16383	14933	0	316
34.439	7.429	16384	15632	0	316
38.009	7.393	16384	16384	0	316
41.399	9.160	16384	17190	0	316
42.012	13.163	16384	17728	0	316
37.036	15.254	16384	18104	0	316
29.859	11.684	16384	18534	0	316
24.234	8.114	16384	18803	0	316
23.008	6.455	16384	18803	0	316
26.902	9.845	16385	18695	0	316
28.958	10.097	16385	18480	0	316
27.443	9.917	16385	18211	0	316
24.125	9.809	16385	17835	0	316
21.060	6.780	16384	17405	0	316
17.382	6.780	16385	17082	0	316
18.608	8.979	16384	16760	0	316
18.247	9.953	16384	16384	0	316
19.293	12.261	16384	16116	0	316
18.572	11.648	16384	15954	0	316
17.959	9.196	16384	15901	0	316
15.579	7.753	16384	15793	0	316
14.930	6.311	16384	15632	0	316
12.586	9.052	16384	15524	0	316
14.028	13.054	16384	15471	0	316
14.749	19.113	16384	15255	0	316
18.500	19.293	16384	15094	0	316
19.942	19.077	16384	15202	0	316
25.207	17.021	16384	15686	0	316
28.201	18.067	16384	16277	0	316
33.213	17.346	16384	16545	0	316
35.052	19.654	16384	16706	0	316
33.718	18.392	16384	16921	0	316
25.893	17.779	16384	17082	0	316
18.031	13.631	16384	16975	0	316
10.422	14.028	16384	16814	0	316
9.737	11.071	16384	16599	0	316
16.949	11.828	16384	16277	0	316
22.322	9.917	16384	15793	0	316
25.352	8.366	16384	15471	0	316
26.758	6.888	16384	15417	0	316
21.673	6.960	16384	15471	0	316
16.661	3.967	16384	15471	0	316
15.290	4.940	16384	15309	0	316
14.785	6.094	16384	15148	0	316
12.730	8.222	16384	15094	0	316
11.360	10.314	16384	15202	0	316
6.996	13.812	16384	15148	0	316
3.931	13.451	16384	15094	0	316
4.796	11.071	16384	15148	0	316
11.648	13.199	16384	15363	0	316
20.808	14.641	16384	15524	0	316
25.027	20.880	16384	15847	0	316
22.972	22.070	16384	16437	0	316
17.274	22.863	16384	17136	0	316
8.655	18.139	16384	17566	0	316
2.596	17.382	16384	17835	0	316
2.741	18.500	16384	18104	0	316
4.039	22.935	16384	18427	0	316
6.780	27.155	16384	18427	0	316
8.835	27.191	16384	18373	0	316
9.989	22.395	16384	18211	0	316
8.655	18.500	16384	17996	0	316
4.868	12.874	16384	17620	0	316
-0.036	9.556	16384	17244	0	316
-6.167	7.717	16384	16867	0	316
-9.629	5.157	16384	16491	0	316
-10.458	3.498	16384	16169	0	316
-6.275	4.183	16384	15793	0	316
1.154	6.239	16384	15524	0	316
8.150	11.612	16384	15309	0	316
10.927	14.172	16384	15202	0	316
12.045	12.514	16384	14933	0	316
9.160	10.963	16384	14664	0	316
5.373	7.068	16384	14449	0	316
7.321	6.924	16383	14503	0	316
8.763	8.619	16383	14610	0	316
12.333	12.730	16383	14772	0	316
12.550	13.595	16384	15040	0	316
9.304	11.756	16384	15309	0	316
7.068	11.215	16384	15471	0	316
8.078	9.484	16384	15793	0	316
12.369	9.737	16384	16384	0	316
19.654	13.848	16384	16867	0	316
26.578	15.615	16384	17297	0	316
28.381	16.805	16384	17620	0	316
26.578	14.713	16384	17996	0	316
23.549	11.937	16384	18265	0	316
20.772	12.225	16384	18319	0	316
20.627	13.054	16384	18211	0	316
19.582	15.831	16384	17835	0	316
20.952	14.497	16384	17297	0	316
15.002	10.746	16384	16760	0	316
12.009	7.681	16384	16331	0	316
11.035	8.042	16384	15793	0	316
15.831	11.973	16384	15363	0	316
22.395	14.785	16384	15094	0	316
26.109	16.300	16383	14933	0	316
24.775	12.441	16383	14825	0	316
22.250	14.100	16383	14933	0	316
23.837	16.480	16383	15094	0	316
27.155	23.152	16383	15202	0	316
32.095	24.739	16383	15363	0	316
32.203	23.296	16383	15686	0	316
28.922	20.195	16383	16169	0	316
24.630	15.038	16383	16652	0	316
24.666	15.218	16384	17190	0	316
26.722	13.992	16384	17889	0	316
27.876	11.035	16384	18480	0	316
26.542	9.953	16384	18857	0	316
24.702	7.970	16384	19072	0	316
24.558	8.619	16384	19340	0	316
25.748	8.114	16384	19394	0	316
26.866	8.763	16385	19233	0	316
25.207	7.140	16385	19072	0	316
22.611	7.537	16385	18803	0	316
22.647	9.592	16385	18373	0	316
24.162	14.172	16385	17728	0	316
27.047	14.785	16384	17082	0	316
29.282	12.766	16384	16491	0	316
28.345	13.415	16384	15901	0	316
26.614	12.550	16384	15202	0	316
26.145	13.848	16384	14557	0	316
28.381	16.661	16384	14073	0	316
28.814	12.117	16384	13858	0	316
28.237	7.285	16384	13858	0	316
28.922	2.416	16384	13804	0	316
26.361	0.649	16384	13696	0	316
23.981	2.092	16383	13804	0	316
19.978	3.462	16383	14019	0	316
16.697	2.560	16383	14126	0	316
15.435	1.587	16383	14234	0	316
19.546	3.101	16383	14503	0	316
25.207	5.590	16383	14879	0	316
30.256	6.527	16383	15255	0	316
30.545	8.943	16383	15793	0	316
26.217	6.347	16384	16384	0	316
24.883	5.517	16384	16599	0	316
24.594	6.239	16384	16599	0	316
28.381	7.789	16384	16760	0	316
31.807	11.251	16384	17082	0	316
32.276	12.153	16384	17297	0	316
30.761	9.809	16384	17297	0	316
29.354	8.366	16384	17136	0	316
27.515	5.013	16384	16975	0	316
27.587	3.895	16384	16814	0	316
28.777	4.219	16384	16706	0	316
31.518	6.094	16384	16652	0	316
32.708	4.940	16384	16599	0	316
32.023	6.563	16384	16599	0	316
32.239	5.337	16384	16652	0	316
29.535	3.246	16384	16652	0	316
28.345	0.397	16383	16437	0	316
24.594	-4.039	16383	16331	0	316
22.611	-6.131	16383	16169	0	316
20.087	-5.157	16383	15954	0	316
22.178	-2.705	16383	15901	0	316
27.876	1.587	16383	16169	0	316
32.420	2.849	16383	16545	0	316
34.439	5.734	16383	16921	0	316
34.295	3.895	16384	17351	0	316
32.853	2.957	16384	17943	0	316
29.968	0.361	16384	18373	0	316
28.092	-2.019	16384	18534	0	316
25.243	-2.236	16384	18695	0	316
23.549	0.325	16384	18803	0	316
24.450	5.301	16384	18695	0	316
29.391	10.350	16384	18480	0	316
34.620	11.937	16384	18480	0	316
37.216	13.523	16385	18588	0	316
36.783	11.360	16385	18588	1	728
34.980	9.160	16385	18265	0	728
31.158	8.727	16385	17674	0	728
28.453	8.330	16385	17082	0	728
27.335	8.583	16384	16652	0	728
27.227	9.773	16384	16491	0	728
27.804	13.487	16384	16331	0	728
29.859	13.668	16384	16062	0	728
27.696	11.251	16384	15954	0	728
24.522	7.393	16385	15954	0	728
19.113	1.154	16385	15954	0	728
15.218	-3.210	16385	15847	0	728
14.028	-2.849	16384	15632	0	728
14.821	0.144	16384	15309	0	728
18.572	4.760	16384	15040	0	728
19.870	7.645	16384	15094	0	728
23.188	10.422	16384	15417	0	728
29.210	10.422	16384	15632	0	728
32.600	12.297	16385	15793	0	728
35.269	12.225	16385	16008	0	728
36.134	12.946	16384	16169	0	728
34.367	14.064	16384	16223	0	728
31.626	12.514	16384	16116	0	728
33.682	13.631	16384	16169	0	728
35.557	13.740	16385	16277	0	728
39.163	14.966	16385	16331	0	728
37.000	16.841	16385	16277	0	728
35.557	16.913	16385	16277	0	728
34.043	20.555	16385	16277	0	728
32.889	20.483	16385	16223	0	728
34.908	20.952	16385	16169	0	728
37.757	18.139	16385	16062	0	728
39.308	15.903	16385	15954	0	728
38.298	11.900	16384	15847	0	728
36.351	10.458	16384	15739	0	728
32.203	7.393	16384	15632	0	728
28.633	5.517	16384	15471	0	728
24.558	4.724	16384	15471	0	728
24.089	6.816	16384	15578	0	728
26.866	12.117	16384	15793	0	728
30.977	16.589	16384	16116	0	728
33.970	20.952	16385	16545	0	728
37.216	18.933	16385	17029	0	728
36.170	16.877	16385	17297	0	728
32.889	12.369	16385	17459	0	728
30.689	13.704	16385	17728	0	728
28.994	14.713	16385	17889	0	728
29.463	17.706	16386	17943	0	728
30.617	20.087	16386	17996	0	728
29.391	19.113	16386	18050	0	728
27.804	19.329	16386	17996	0	728
21.818	18.897	16386	17781	0	728
17.959	20.700	16386	17459	0	728
13.199	21.096	16386	16975	0	728
10.999	17.057	16386	16384	0	728
6.563	12.946	16385	15686	0	728
1.298	7.862	16385	14933	0	728
-1.479	6.563	16384	14395	0	728
-0.036	9.989	16384	14126	0	728
6.527	16.697	16384	14019	0	728
13.415	17.418	16384	13911	0	728
17.995	16.012	16384	13750	0	728
13.487	7.862	16384	13804	0	728
9.304	1.767	16384	14073	0	728
6.239	0.288	16384	14288	0	728
8.871	2.416	16384	14557	0	728
13.018	6.527	16384	14987	0	728
18.283	9.160	16384	15524	0	728
18.428	8.258	16384	15847	0	728
18.644	7.357	16384	16223	0	728
18.464	6.996	16384	16706	0	728
21.204	11.432	16384	17297	0	728
25.171	14.497	16384	17620	0	728
27.191	16.408	16385	17835	0	728
26.614	16.552	16385	18104	0	728
25.316	10.350	16385	18265	0	728
19.762	6.239	16385	18104	0	728
19.510	3.534	16385	17781	0	728
23.296	3.390	16385	17351	0	728
26.289	4.364	16385	16867	0	728
29.715	4.544	16384	16384	0	728
27.876	2.921	16384	15793	0	728
22.647	3.750	16384	15202	0	728
17.923	5.698	16384	14718	0	728
20.303	10.855	16384	14341	0	728
25.316	14.461	16384	14073	0	728
31.626	14.064	16384	13858	0	728
35.341	10.783	16383	13804	0	728
34.006	6.996	16383	13965	0	728
30.292	6.094	16383	14234	0	728
29.174	7.645	16383	14610	0	728
30.689	11.360	16383	15094	0	728
36.278	13.307	16383	15686	0	728
41.075	11.684	16383	16169	0	728
43.202	12.333	16384	16760	0	728
39.199	10.494	16384	17459	0	728
35.810	10.927	16384	17996	0	728
33.357	14.172	16384	18265	0	728
36.387	15.759	16384	18427	0	728
39.199	15.579	16384	18588	0	728
39.452	15.615	16384	18588	0	728
35.701	11.756	16384	18534	0	728
31.374	11.612	16384	18588	0	728
30.797	10.314	16384	18642	0	728
33.754	11.468	16384	18588	0	728
38.154	12.405	16384	18480	0	728
39.163	11.576	16384	18211	0	728
37.180	9.989	16384	17728	1	428
33.610	5.770	16384	17190	0	428
30.941	4.940	16384	16545	0	428
30.328	5.662	16384	16062	0	428
32.131	9.016	16384	15524	0	428
33.682	12.586	16384	15202	0	428
30.581	13.451	16384	14987	0	428
26.686	10.025	16384	14718	0	428
22.899	7.357	16384	14503	0	428
24.378	6.635	16384	14288	0	428
30.653	9.412	16383	14180	0	428
36.567	9.953	16383	14073	0	428
36.531	9.232	16383	14073	0	428
31.771	6.022	16383	14341	0	428
27.696	5.373	16383	14610	0	428
27.479	7.321	16383	14825	0	428
34.079	12.622	16383	15094	0	428
41.363	18.320	16383	15578	0	428
44.897	21.601	16383	16008	0	428
45.691	24.414	16383	16384	0	428
45.041	24.017	16384	16760	0	428
45.438	26.073	16384	17190	0	428
46.917	25.424	16384	17459	0	428
46.664	20.087	16384	17513	0	428
43.743	16.769	16384	17351	0	428
39.163	10.674	16384	17029	0	428
36.278	7.898	16383	16652	0	428
34.295	6.167	16383	16331	0	428
35.233	5.229	16383	16062	0	428
35.810	2.705	16383	15901	0	428
36.314	1.406	16383	15901	0	428
32.889	0.974	16383	16008	0	428
32.456	2.741	16382	16062	0	428
29.968	4.183	16382	16116	0	428
28.381	4.111	16382	16169	0	428
27.191	4.977	16382	16331	0	428
29.102	4.832	16383	16437	0	428
29.859	6.203	16384	16706	0	428
31.590	7.465	16383	17029	0	428
34.115	7.501	16383	17190	0	428
36.675	9.412	16383	17459	0	428
38.658	11.251	16384	17996	0	428
40.966	12.009	16384	18857	0	428
40.786	10.927	16384	19717	0	428
40.101	12.297	16384	20362	0	428
39.091	11.828	16385	20846	0	428
37.613	11.828	16385	21115	0	428
35.557	12.477	16385	21168	0	428
32.744	6.671	16386	20953	0	428
27.191	0.288	16386	20523	0	428
24.234	-5.481	16386	20093	0	428
19.329	-8.979	16386	19717	0	428
19.437	-9.953	16386	19179	0	428
19.726	-9.484	16387	18642	0	428
23.440	-5.842	16387	18104	0	428
29.210	-4.219	16387	17674	0	428
31.590	-2.813	16387	17190	0	428
33.574	-2.849	16387	16652	0	428
33.862	-1.875	16386	16223	0	428
36.278	-1.046	16386	15793	0	428
40.822	4.039	16386	15524	0	428
46.953	9.340	16386	15148	0	428
49.802	14.749	16386	14772	0	428
49.693	19.906	16386	14449	0	428
46.772	20.014	16386	14234	0	428
43.743	23.368	16386	14019	0	428
42.734	23.260	16385	13804	0	428
44.789	23.837	16385	13750	0	428
48.467	25.820	16385	13911	0	428
49.946	27.407	16385	14019	0	428
49.513	25.099	16385	14180	0	428
45.727	23.188	16385	14341	0	428
39.163	18.933	16385	14503	0	428
34.800	14.208	16385	14449	0	428
31.410	12.261	16385	14234	0	428
30.508	9.701	16384	13911	0	428
31.951	8.150	16384	13589	0	428
33.502	5.986	16384	13320	0	428
32.492	5.121	16384	13105	0	428
31.626	2.705	16384	12997	1	316
27.515	3.318	16384	12997	0	316
26.001	4.940	16384	12997	0	316
26.686	6.347	16383	12890	0	316
29.643	9.232	16383	12836	0	316
33.249	9.340	16383	12997	0	316
35.160	12.189	16382	13374	0	316
37.541	13.920	16382	13696	0	316
39.993	18.716	16383	13858	0	316
41.327	20.591	16382	14073	0	316
43.635	23.260	16382	14341	0	316
43.707	20.988	16382	14610	0	316
42.048	20.014	16382	15040	0	316
41.075	18.680	16382	15739	0	316
39.308	19.329	16382	16384	0	316
40.894	21.168	16382	16814	0	316
40.065	19.762	16382	17190	0	316
39.091	20.591	16382	17566	0	316
34.980	15.759	16382	17781	0	316
28.814	13.163	16382	17889	0	316
21.745	10.566	16383	18211	0	316
20.050	8.439	16383	18642	0	316
18.031	9.304	16383	18964	0	316
18.283	5.914	16383	19018	0	316
17.851	2.452	16383	18803	0	316
14.785	-0.036	16383	18480	0	316
14.064	-2.669	16383	18211	0	316
17.995	-1.118	16383	17943	0	316
21.204	2.705	16382	17620	0	316
26.470	7.537	16382	17405	0	316
31.302	10.783	16382	17351	0	316
34.403	17.202	16383	17405	0	316
37.685	19.762	16383	17459	0	316
39.560	23.188	16383	17351	0	316
40.462	22.575	16383	17351	0	316
38.190	22.142	16383	17459	0	316
37.396	22.431	16383	17620	0	316
38.839	20.664	16383	17835	0	316
40.389	20.664	16384	18158	0	316
37.649	12.333	16384	18534	0	316
31.879	4.580	16384	18695	0	316
24.017	-0.577	16384	18857	0	316
19.942	-0.505	16384	19072	0	316
19.293	4.940	16384	19233	0	316
22.142	9.016	16384	19287	0	316
26.686	8.547	16384	19394	0	316
24.811	2.849	16385	19502	0	316
21.709	-3.823	16385	19448	0	316
19.113	-6.888	16385	19233	0	316
14.281	-6.311	16385	18857	0	316
14.064	-5.121	16385	18104	0	316
15.471	-0.541	16385	17297	0	316
19.437	0.577	16384	16599	0	316
23.332	1.334	16385	16062	0	316
27.515	0.649	16384	15524	0	316
30.761	-0.829	16384	15202	0	316
32.708	-1.442	16384	15040	0	316
33.357	-2.452	16384	14772	0	316
34.043	-1.947	16384	14449	0	316
33.610	1.695	16384	14288	0	316
33.069	5.085	16384	14180	0	316
34.295	11.287	16384	14073	0	316
36.603	17.851	16384	14180	0	316
41.580	23.404	16384	14503	0	316
45.835	26.650	16384	14825	0	316
50.234	26.758	16384	14879	0	316
48.431	25.640	16384	14933	0	316
45.546	22.647	16384	15148	0	316
41.832	18.428	16384	15363	0	316
36.747	15.579	16384	15524	0	316
32.528	10.783	16384	15686	0	316
27.479	5.986	16384	15901	0	316
23.549	0.469	16384	15901	0	316
18.969	-2.200	16384	15739	0	316
19.654	-1.406	16384	15471	0	316
19.077	2.344	16384	15202	0	316
21.601	6.708	16384	15040	0	316
23.837	10.097	16384	14825	0	316
30.725	11.071	16384	14557	0	316
35.052	11.648	16384	14341	0	316
37.360	7.970	16384	14073	0	316
35.557	4.724	16383	13750	0	316
28.994	0.541	16382	13428	0	316
25.243	-2.236	16382	13159	0	316
26.686	0.433	16381	13051	0	316
32.059	6.131	16381	13212	0	316
37.901	13.199	16381	13428	0	316
39.416	17.274	16381	13643	0	316
38.514	16.408	16381	14126	0	316
36.314	17.454	16381	14825	0	316
35.629	14.966	16381	15471	0	316
39.091	16.156	16381	16008	0	316
40.786	15.074	16381	16599	0	316
37.541	14.281	16381	17244	0	316
33.502	10.133	16381	17728	0	316
27.840	5.806	16382	18104	0	316
21.709	1.875	16382	18373	0	316
18.860	-0.108	16383	18427	0	316
19.149	0.541	16382	18319	0	316
20.952	3.823	16382	18319	0	316
23.657	7.357	16382	18534	0	316
28.453	12.946	16382	18749	0	316
29.571	13.415	16383	18749	0	316
27.227	13.523	16383	18642	0	316
23.621	11.396	16383	18588	0	316
23.260	10.242	16383	18534	0	316
22.575	8.619	16383	18427	0	316
24.666	11.360	16383	18319	0	316
28.345	12.550	16383	18265	0	316
29.895	11.720	16384	18319	0	316
32.095	12.874	16384	18373	0	316
35.810	13.343	16384	18265	0	316
39.199	13.415	16384	18050	0	316
37.793	15.182	16384	17943	0	316
35.593	13.307	16384	17943	0	316
30.617	11.071	16384	17943	0	316
25.135	8.402	16384	18050	0	316
21.781	7.934	16384	18427	0	316
21.709	7.789	16384	18803	0	316
20.988	9.124	16384	18964	0	316
20.988	7.321	16385	19072	0	316
21.673	6.455	16385	19125	0	316
20.700	6.708	16385	19125	0	316
23.981	7.104	16385	18964	0	316
26.433	8.907	16385	18857	0	316
28.201	7.825	16386	18857	0	316
26.830	3.823	16386	18695	0	316
23.693	-0.361	16386	18373	0	316
19.510	-1.731	16386	17889	0	316
21.493	1.947	16386	17297	0	316
25.388	6.816	16386	16599	0	316
29.895	11.323	16386	15901	0	316
33.213	13.956	16385	15202	0	316
35.016	12.730	16385	14557	0	316
34.620	13.776	16385	14126	0	316
32.420	10.710	16384	13750	0	316
28.886	5.265	16384	13481	0	316
22.647	-2.236	16384	13159	0	316
16.264	-7.393	16384	12997	0	316
16.516	-9.376	16384	12836	0	316
17.779	-4.003	16384	12729	0	316
23.476	2.416	16384	12836	0	316
26.794	7.645	16384	13320	0	316
26.866	8.186	16384	13965	0	316
24.558	7.501	16384	14503	0	316
26.289	6.094	16384	14987	0	316
29.643	9.340	16384	15578	0	316
36.242	12.189	16384	15954	0	316
38.983	13.956	16384	16062	0	316
36.675	13.271	16384	16116	0	316
29.030	7.212	16384	16277	0	316
21.673	2.633	16384	16384	0	316
20.808	2.705	16384	16384	0	316
22.755	5.734	16384	16331	0	316
28.381	11.612	16384	16116	0	316
35.052	15.543	16384	15847	0	316
38.911	16.444	16384	15524	0	316
39.091	16.661	16384	15094	0	316
38.622	14.028	16384	14664	0	316
32.744	15.795	16384	14288	0	316
28.092	16.589	16383	13965	0	316
25.099	17.310	16383	13696	0	316
26.253	14.966	16383	13481	0	316
26.470	8.763	16382	13535	0	316
26.830	4.508	16382	13696	0	316
26.722	-1.226	16382	13804	0	316
24.342	-1.298	16383	14126	0	316
23.440	1.767	16382	14772	0	316
23.224	5.698	16382	15471	0	316
27.696	9.412	16382	16062	0	316
29.571	12.622	16383	16652	0	316
34.403	15.038	16383	17351	0	316
36.278	14.713	16383	17943	0	316
33.970	10.169	16383	18211	0	316
28.705	8.583	16383	18427	0	316
23.476	4.760	16384	18642	0	316
22.178	4.652	16384	18910	0	316
19.762	6.311	16384	18964	0	316
21.637	6.527	16384	19072	0	316
24.414	9.412	16384	19125	0	316
27.948	10.061	16384	19018	0	316
30.797	10.891	16384	18642	0	316
33.321	11.648	16384	18211	0	316
33.466	12.153	16384	17781	0	316
31.735	11.432	16384	17351	1	736
31.518	11.937	16384	16921	0	736
34.475	16.444	16384	16491	0	736
36.603	14.208	16384	16116	0	736
35.774	13.163	16384	15901	0	736
32.564	9.845	16383	15793	0	736
30.076	7.501	16383	15739	0	736
28.056	5.806	16383	15632	0	736
29.751	7.465	16383	15686	0	736
31.410	6.708	16383	15901	0	736
31.266	5.626	16383	16116	0	736
27.155	2.308	16383	16384	0	736
27.227	1.082	16384	16814	0	736
28.994	3.173	16384	17190	0	736
31.699	6.816	16384	17405	0	736
36.459	12.333	16384	17620	0	736
39.596	15.831	16384	17889	0	736
41.219	15.975	16384	18158	0	736
38.983	16.408	16384	18265	0	736
36.026	13.379	16384	18427	0	736
31.807	11.179	16384	18588	0	736
26.902	8.439	16384	18695	0	736
27.660	7.862	16385	18588	0	736
31.915	8.655	16385	18265	0	736
36.278	12.009	16385	17781	0	736
40.426	14.497	16385	17190	0	736
39.488	16.156	16384	16545	0	736
38.514	16.372	16384	15954	0	736
37.108	14.245	16384	15309	0	736
34.800	14.136	16384	14825	0	736
32.023	9.737	16384	14557	0	736
25.929	7.862	16384	14288	0	736
21.926	5.049	16384	14126	0	736
19.077	4.291	16384	14126	0	736
20.736	4.255	16384	14395	0	736
24.739	3.859	16384	14610	0	736
24.702	2.019	16384	14987	0	736
22.106	-0.577	16384	15632	0	736
23.080	-1.406	16384	16331	0	736
24.558	0.288	16384	16814	0	736
29.571	4.688	16384	17351	0	736
36.639	8.511	16385	18050	0	736
36.314	12.405	16385	18642	0	736
34.439	11.756	16386	19018	0	736
32.564	9.052	16386	19340	0	736
32.672	8.583	16386	19609	0	736
36.819	7.357	16386	19717	0	736
38.839	5.662	16387	19502	0	736
34.259	2.813	16387	19125	0	736
26.253	-1.695	16387	18588	0	736
19.510	-3.823	16387	17996	0	736
16.769	-1.046	16386	17351	0	736
25.099	5.193	16386	16706	0	736
33.934	12.333	16386	16169	0	736
40.209	17.995	16386	15739	0	736
42.193	15.939	16386	15309	0	736
39.704	14.966	16385	14772	0	736
37.180	12.514	16385	14180	0	736
35.918	9.160	16385	13696	0	736
37.721	10.819	16384	13428	0	736
37.577	12.081	16384	13320	0	736
39.272	12.946	16384	13320	0	736
39.416	14.172	16384	13696	0	736
37.288	10.710	16384	14126	0	736
32.420	7.862	16384	14557	0	736
26.145	5.337	16384	14987	0	736
22.575	9.124	16385	15471	0	736
25.676	13.595	16385	15847	0	736
31.807	20.808	16385	16008	0	736
38.658	24.811	16385	16277	0	736
40.678	22.899	16385	16545	0	736
38.009	17.238	16385	16652	0	736
31.518	11.648	16385	16491	0	736
26.397	6.635	16384	16277	0	736
24.089	4.580	16384	16062	0	736
24.666	6.058	16384	15847	0	736
25.135	9.412	16384	15739	0	736
24.847	10.350	16384	15632	0	736
25.712	10.169	16384	15632	0	736
26.794	6.708	16384	15632	1	316
29.823	5.734	16384	15793	0	316
32.961	4.940	16384	15901	0	316
32.239	7.573	16384	16116	0	316
29.282	12.189	16384	16384	0	316
28.561	16.228	16384	16652	0	316
33.033	22.683	16384	16706	0	316
39.380	27.624	16384	16706	0	316
44.537	27.263	16384	16814	0	316
41.435	23.224	16384	16867	0	316
35.846	16.625	16384	16760	0	316
31.843	10.278	16384	16706	0	316
29.679	8.799	16384	16867	0	316
32.528	12.297	16385	17082	0	316
34.115	13.415	16385	17190	0	316
35.088	13.956	16385	17351	0	316
34.006	15.218	16385	17674	0	316
32.420	15.687	16385	17889	0	316
32.167	16.697	16385	17781	0	316
31.230	14.569	16386	17620	0	316
31.374	14.028	16385	17513	0	316
31.158	11.468	16385	17244	0	316
32.997	10.674	16385	16814	0	316
33.033	12.441	16385	16331	0	316
30.833	12.189	16384	15847	0	316
28.092	8.114	16384	15309	0	316
24.739	4.436	16384	14879	0	316
24.414	1.226	16384	14557	0	316
27.479	3.570	16384	14288	0	316
35.629	11.540	16384	14180	0	316
42.409	19.690	16384	14234	0	316
45.618	26.109	16384	14288	0	316
45.943	29.499	16384	14395	0	316
42.806	26.001	16384	14664	0	316
39.596	24.594	16384	15040	0	316
38.695	23.008	16384	15363	0	316
37.901	19.041	16384	15686	0	316
37.649	18.356	16384	16062	0	316
35.413	14.281	16384	16331	0	316
29.751	10.746	16384	16277	0	316
25.388	9.629	16384	16223	0	316
22.395	8.186	16384	16437	0	316
23.332	10.855	16384	16867	0	316
25.352	13.740	16384	17190	0	316
28.705	14.821	16384	17459	0	316
31.302	15.975	16384	17728	0	316
29.968	10.458	16384	17835	0	316
30.148	6.708	16384	17728	0	316
26.181	3.534	16384	17459	0	316
23.188	4.977	16384	16975	0	316
23.909	9.088	16384	16491	0	316
25.748	11.143	16384	16062	0	316
30.076	14.317	16384	15686	0	316
34.872	12.874	16384	15417	0	316
37.865	11.576	16384	15309	0	316
37.396	13.523	16384	15524	0	316
38.226	15.326	16384	15793	0	316
38.586	17.851	16384	16008	0	316
40.894	22.539	16384	16223	0	316
44.428	26.650	16384	16384	0	316
47.710	27.263	16384	16599	0	316
45.474	25.568	16384	16921	0	316
38.586	21.421	16384	17513	0	316
33.285	11.792	16384	18050	0	316
24.955	5.770	16384	18373	0	316
21.709	0.649	16384	18588	0	316
22.827	0.793	16384	18910	0	316
24.017	2.344	16385	19179	0	316
26.974	6.167	16385	19233	0	316
32.023	8.150	16385	19287	0	316
33.105	8.511	16385	19287	0	316
32.672	9.088	16385	18964	0	316
33.790	8.727	16386	18480	0	316
35.774	10.242	16385	17943	0	316
38.875	12.477	16385	17297	0	316
41.688	15.326	16385	16652	0	316
39.668	14.749	16385	16062	0	316
33.826	15.831	16385	15471	0	316
28.309	12.369	16384	14879	0	316
25.424	12.514	16384	14288	0	316
26.145	12.838	16384	13750	0	316
29.066	14.641	16384	13266	0	316
32.636	18.428	16384	12997	0	316
32.708	19.185	16384	12997	0	316
33.177	21.421	16384	13212	0	316
32.023	18.933	16384	13428	0	316
33.574	17.526	16384	13481	0	316
34.403	13.379	16383	13696	0	316
36.314	10.350	16383	14126	0	316
34.800	6.311	16383	14503	0	316
30.617	1.695	16383	14987	0	316
24.955	-3.210	16384	15739	0	316
18.969	-5.013	16384	16545	0	316
17.815	-4.796	16384	17190	0	316
18.860	1.262	16384	17728	0	316
23.621	5.193	16384	18211	0	316
28.886	8.979	16384	18534	0	316
32.420	7.285	16384	18642	0	316
33.682	5.590	16384	18642	0	316
33.285	3.787	16384	18534	0	316
32.456	3.895	16384	18265	0	316
30.653	6.058	16384	17889	0	316
31.194	7.970	16384	17513	0	316
28.561	8.511	16384	17029	0	316
28.345	9.196	16384	16545	0	316
27.155	8.763	16384	16116	0	316
28.092	9.160	16384	15686	0	316
27.984	8.583	16384	15309	0	316
28.489	7.429	16384	15040	0	316
26.686	3.931	16384	14879	0	316
23.296	0.793	16384	14664	0	316
22.539	1.154	16383	14503	0	316
24.847	3.210	16383	14449	0	316
26.253	7.789	16383	14557	0	316
28.633	9.484	16383	14772	0	316
29.787	6.527	16383	15202	0	316
27.155	1.551	16383	15847	0	316
21.457	-4.400	16384	16384	0	316
18.464	-5.121	16384	16599	0	316
17.382	-2.019	16384	16760	0	316
17.274	4.327	16384	17029	0	316
24.883	12.009	16384	17297	0	316
30.869	15.471	16384	17513	0	316
35.413	15.218	16384	17674	0	316
37.288	12.982	16384	17835	0	316
37.108	8.150	16384	17889	0	316
33.790	4.616	16384	17835	0	316
29.066	3.101	16384	17728	0	316
23.657	4.616	16384	17620	0	316
21.998	5.590	16384	17459	0	316
20.591	6.455	16384	17244	0	316
20.736	5.013	16384	16921	0	316
21.962	0.649	16384	16652	0	316
18.067	-3.318	16384	16491	0	316
16.120	-6.383	16384	16223	0	316
13.812	-4.688	16384	15954	0	316
13.163	-3.462	16384	15739	0	316
14.894	-1.623	16384	15632	0	316
17.202	1.442	16384	15471	0	316
23.693	4.904	16384	15202	0	316
26.938	8.619	16384	14933	0	316
31.482	10.278	16383	14825	0	316
33.249	7.898	16383	14772	0	316
31.915	4.796	16383	14718	0	316
29.679	-0.541	16383	14718	0	316
30.689	-1.442	16383	15040	0	316
31.194	2.236	16383	15524	0	316
32.276	7.609	16383	16008	0	316
34.043	12.910	16383	16491	0	316
35.377	17.202	16384	17082	0	316
36.026	20.447	16384	17513	0	316
39.812	20.303	16384	17781	0	316
43.238	19.978	16384	18050	0	316
41.796	18.283	16384	18480	0	316
35.846	11.720	16384	18803	0	316
26.145	4.183	16384	18803	0	316
19.185	-4.039	16384	18642	0	316
12.982	-9.701	16384	18319	0	316
11.071	-12.910	16384	17889	0	316
10.674	-11.937	16384	17405	0	316
8.006	-12.586	16384	16921	1	640
9.124	-10.278	16384	16599	0	640
14.821	-4.039	16384	16384	0	640
21.745	0.938	16384	16223	0	640
28.597	6.527	16384	16008	0	640
30.905	8.330	16384	15739	0	640
29.282	6.491	16384	15632	0	640
24.702	4.039	16384	15524	0	640
23.621	6.094	16384	15417	0	640
27.587	8.763	16384	15363	0	640
36.062	15.254	16384	15524	0	640
44.176	17.346	16384	15739	0	640
50.198	21.637	16384	15847	0	640
48.684	21.204	16384	15901	0	640
44.609	21.204	16384	15954	0	640
39.668	22.503	16384	15847	0	640
36.423	24.234	16384	15578	0	640
37.793	26.253	16384	15524	0	640
38.190	26.217	16384	15793	0	640
37.360	19.185	16384	16116	0	640
31.374	10.494	16384	16331	0	640
22.250	0.577	16384	16384	0	640
13.668	-7.321	16384	16384	0	640
7.104	-10.206	16384	16384	0	640
6.022	-8.655	16384	16277	0	640
6.671	-9.665	16384	16116	0	640
9.484	-6.708	16384	15793	0	640
13.956	-5.013	16384	15578	0	640
16.733	-3.246	16383	15363	0	640
22.431	-0.541	16383	15202	0	640
23.585	2.200	16383	14987	0	640
23.657	4.291	16383	14933	0	640
26.722	6.275	16383	15094	0	640
32.167	10.638	16383	15255	0	640
35.846	12.153	16382	15363	0	640
42.229	16.048	16382	15578	0	640
41.832	16.084	16382	15901	0	640
40.173	17.238	16382	16169	0	640
38.334	16.192	16383	16384	0	640
38.586	19.293	16383	16652	0	640
38.911	19.005	16383	16867	0	640
37.757	19.834	16384	16975	0	640
35.593	17.238	16383	17029	0	640
32.600	16.625	16383	17136	0	640
30.112	12.441	16383	17136	0	640
28.164	11.900	16383	16975	0	640
26.938	9.016	16383	16814	0	640
25.460	4.580	16383	16652	0	640
19.582	-0.252	16383	16491	0	640
15.723	-5.049	16383	16384	0	640
9.917	-6.671	16382	16277	0	640
8.583	-5.409	16382	16062	0	640
10.602	-1.406	16382	15901	0	640
14.389	3.642	16382	15954	0	640
20.808	5.842	16382	16008	0	640
23.188	4.436	16382	16116	0	640
24.739	2.957	16382	16331	0	640
24.125	1.803	16383	16599	0	640
21.926	2.669	16383	16921	0	640
20.411	4.508	16383	17351	0	640
18.103	5.085	16383	17996	0	640
20.087	6.744	16384	18642	0	640
23.440	9.088	16384	19018	0	640
28.777	12.694	16384	19448	0	640
33.538	16.120	16384	19878	0	640
33.970	18.680	16384	20147	0	640
31.662	17.238	16384	20039	0	640
27.335	16.336	16385	19824	0	640
24.955	15.398	16385	19502	0	640
24.991	17.959	16385	19125	0	640
26.578	15.615	16385	18642	0	640
28.489	14.966	16385	18050	0	640
29.463	9.917	16385	17459	0	640
27.263	4.436	16384	16760	0	640
23.693	1.911	16384	16062	0	640
21.204	0.685	16384	15363	0	640
18.680	1.515	16384	14879	0	640
20.375	3.498	16384	14503	0	640
19.257	2.849	16384	14234	0	640
18.175	3.426	16384	14019	1	316
14.172	3.895	16384	13911	0	316
9.989	3.498	16384	13911	0	316
7.753	3.173	16384	14073	0	316
10.530	5.373	16384	14288	0	316
16.841	6.491	16384	14718	0	316
20.844	7.934	16384	15255	0	316
22.611	6.347	16384	15793	0	316
20.050	3.498	16384	16062	0	316
15.759	0.577	16384	16384	0	316
14.353	1.370	16384	16867	0	316
18.175	3.282	16384	17459	0	316
19.221	5.806	16385	17781	0	316
19.762	4.724	16385	17996	0	316
21.096	5.878	16385	18104	0	316
22.322	5.409	16385	17996	0	316
25.135	8.402	16385	17674	0	316
28.453	10.891	16385	17351	0	316
26.794	10.927	16385	17244	0	316
25.388	12.045	16385	17029	0	316
26.253	13.812	16385	16706	0	316
30.905	15.903	16384	16223	0	316
34.403	18.788	16384	15632	0	316
34.439	16.480	16384	15040	0	316
31.158	12.514	16384	14503	0	316
26.037	8.258	16384	14126	0	316
24.234	4.039	16384	13858	0	316
25.784	5.950	16384	13911	0	316
27.083	9.701	16384	14019	0	316
28.056	14.245	16384	14019	0	316
29.174	21.601	16384	13965	0	316
31.302	24.306	16384	14073	0	316
35.305	27.984	16383	14341	0	316
38.731	28.092	16383	14557	0	316
35.233	20.844	16383	14933	0	316
28.273	12.225	16384	15632	0	316
17.923	1.515	16384	16331	0	316
14.569	-4.616	16384	16760	0	316
11.684	-4.255	16384	17297	0	316
13.199	-0.902	16384	17781	0	316
13.631	1.947	16384	17996	0	316
11.504	1.731	16384	17943	0	316
12.910	0.685	16384	17889	0	316
15.254	0.721	16384	17889	0	316
21.241	2.308	16384	17835	0	316
22.647	4.291	16384	17566	0	316
21.529	4.327	16384	17136	0	316
18.680	1.118	16384	16652	0	316
18.356	-0.938	16384	16277	0	316
18.139	-2.777	16384	16008	0	316
19.365	-1.442	16384	15793	0	316
20.736	-1.046	16384	15524	0	316
16.048	0.108	16384	15363	0	316
15.038	0.757	16384	15255	0	316
14.208	2.741	16384	15255	0	316
17.706	3.246	16384	15471	0	316
23.224	7.862	16384	15739	0	316
29.643	7.501	16384	15954	0	316
31.699	6.275	16384	16116	0	316
30.364	4.688	16384	16384	0	316
26.181	3.570	16384	16652	0	316
22.106	3.498	16384	16814	0	316
21.781	3.282	16384	16814	0	316
21.565	6.419	16384	17029	0	316
23.008	7.537	16384	17351	0	316
23.332	9.124	16384	17620	0	316
23.116	10.350	16384	17835	0	316
23.729	11.323	16384	18104	0	316
23.044	8.583	16384	18373	0	316
18.969	5.914	16384	18480	0	316
14.569	4.832	16384	18373	0	316
12.225	4.652	16384	18104	0	316
12.117	7.285	16384	17835	0	316
15.795	7.465	16384	17513	0	316
16.084	6.780	16384	17190	0	316
15.543	4.760	16384	16760	0	316
10.458	1.226	16384	16277	0	316
6.888	1.515	16384	15686	0	316
6.455	2.957	16384	15094	0	316
8.727	4.760	16384	14557	0	316
15.759	9.665	16384	14180	0	316
24.053	11.251	16384	14073	0	316
28.092	11.792	16384	14234	0	316
30.364	12.874	16384	14449	0	316
31.446	11.432	16384	14664	0	316
32.600	10.530	16384	15094	0	316
35.665	15.398	16384	15524	0	316
37.937	16.985	16384	15847	0	316
36.026	16.697	16384	16223	0	316
33.502	16.769	16384	16814	0	316
29.787	12.946	16384	17459	0	316
28.417	8.871	16384	17943	0	316
26.217	4.796	16384	18427	0	316
22.467	0.865	16385	18857	0	316
22.034	-0.361	16385	18964	0	316
21.385	1.154	16385	18749	0	316
22.575	3.931	16385	18480	0	316
25.243	6.058	16385	18265	0	316
24.594	4.291	16385	17943	0	316
22.611	4.688	16385	17566	0	316
24.883	3.714	16385	17082	0	316
25.243	3.462	16384	16652	0	316
27.696	4.400	16384	16223	0	316
30.436	4.580	16384	15739	0	316
31.554	4.652	16384	15309	0	316
31.554	7.393	16384	14933	0	316
31.951	7.537	16384	14825	0	316
29.066	8.691	16384	14879	0	316
26.722	7.537	16384	14825	0	316
25.748	8.475	16384	14772	0	316
27.299	10.314	16384	14772	0	316
30.869	14.605	16384	14825	0	316
32.744	16.228	16384	14879	0	316
35.305	19.113	16384	15148	0	316
35.990	20.988	16384	15632	0	316
36.062	22.899	16384	16116	0	316
36.531	21.601	16384	16384	0	316
34.620	19.365	16384	16545	0	316
29.571	15.507	16384	16760	0	316
22.142	8.222	16384	16921	0	316
17.706	2.056	16384	16921	0	316
12.874	-0.757	16384	16921	0	316
13.018	-1.551	16384	16814	0	316
13.559	0.361	16384	16491	0	316
15.362	1.983	16384	16169	0	316
17.887	4.724	16384	15847	0	316
19.546	6.419	16384	15524	0	316
23.765	9.304	16384	15040	0	316
27.443	11.071	16384	14557	0	316
29.318	10.278	16383	14073	0	316
29.859	7.212	16383	13804	0	316
28.705	6.635	16382	13750	0	316
28.237	7.501	16382	13804	0	316
28.777	10.783	16382	13911	0	316
31.049	13.415	16382	14019	0	316
31.879	15.146	16382	14288	0	316
31.374	13.163	16382	14664	0	316
30.689	15.795	16382	15148	0	316
30.869	17.166	16382	15739	0	316
33.321	18.356	16382	16437	0	316
36.206	18.464	16383	17082	0	316
38.406	19.546	16383	17620	0	316
39.344	18.392	16383	18158	0	316
41.760	20.591	16384	18803	0	316
41.111	18.536	16384	19287	0	316
35.593	16.156	16384	19556	0	316
27.515	7.862	16384	19771	0	316
16.733	0.757	16384	19932	0	316
9.340	-4.400	16384	19932	0	316
8.655	-7.501	16384	19717	0	316
11.792	-5.878	16384	19340	0	316
16.372	-5.554	16384	19072	0	316
17.346	-5.590	16384	18803	0	316
13.199	-6.816	16384	18534	1	612
11.576	-4.940	16384	18050	0	612
10.350	-1.298	16384	17459	0	612
13.271	5.157	16384	16921	0	612
20.916	8.619	16384	16491	0	612
25.820	11.179	16384	16062	0	612
26.614	7.862	16384	15686	0	612
24.378	4.075	16384	15363	0	612
20.808	3.354	16384	15148	0	612
19.149	5.806	16384	15040	0	612
23.476	10.133	16384	15094	0	612
27.587	17.346	16384	15417	0	612
30.581	19.365	16384	15847	0	612
30.833	19.365	16384	16277	0	612
27.804	15.074	16384	16652	0	612
27.515	15.939	16384	17244	0	612
29.427	16.697	16385	17835	0	612
36.351	22.863	16385	18158	0	612
38.082	25.496	16385	18373	0	612
36.567	25.388	16386	18480	0	612
31.626	21.637	16386	18373	0	612
22.683	12.802	16386	18158	0	612
17.129	6.635	16386	17781	0	612
11.648	-1.875	16386	17297	0	612
7.789	-7.429	16386	16760	0	612
3.714	-8.511	16385	16277	0	612
2.380	-7.753	16385	15686	0	612
4.111	-4.003	16384	15040	0	612
8.943	-1.479	16384	14395	0	612
15.543	-0.108	16384	13750	0	612
18.139	1.010	16384	13212	0	612
21.565	1.947	16384	12997	0	612
19.798	3.137	16384	12997	0	612
20.231	3.570	16384	13105	0	612
19.437	3.714	16384	13266	0	612
23.044	3.390	16384	13643	0	612
24.558	8.078	16384	14126	0	612
27.912	11.143	16384	14449	0	612
26.938	13.848	16384	14610	0	612
26.686	17.815	16384	14879	0	612
23.440	18.752	16384	15309	0	612
27.335	22.647	16384	15739	0	612
31.338	23.044	16384	16116	0	612
33.610	22.539	16384	16437	0	612
31.302	19.473	16384	16975	0	612
28.886	15.651	16384	17566	0	612
26.109	16.625	16384	17943	0	612
28.417	19.257	16384	18211	0	612
32.528	22.611	16384	18588	0	612
33.249	21.890	16385	18910	0	612
29.499	20.591	16384	19018	0	612
22.972	14.281	16385	19072	0	612
15.759	10.278	16385	19072	0	612
13.487	7.717	16385	18964	0	612
12.477	9.340	16385	18695	0	612
13.884	11.071	16385	18265	0	612
19.582	15.939	16385	17781	0	612
20.664	14.858	16385	17405	0	612
19.762	14.461	16385	17082	0	612
20.014	11.287	16385	16814	0	612
17.562	6.635	16385	16652	0	612
20.195	7.825	16385	16545	0	612
21.926	8.943	16385	16384	0	612
24.053	11.937	16384	16116	0	612
23.008	13.343	16385	15901	0	612
19.618	13.415	16385	16008	0	612
18.356	10.386	16385	16223	0	612
15.651	5.373	16385	16384	0	612
17.490	3.606	16385	16599	0	612
16.480	0.252	16385	16975	0	612
21.096	2.308	16386	17351	0	612
24.558	9.340	16386	17566	0	612
28.128	14.677	16386	17674	0	612
31.843	19.870	16387	17781	0	612
29.535	16.480	16387	17781	0	612
25.965	11.937	16387	17513	0	612
22.575	7.176	16387	17136	0	612
23.909	5.229	16386	16599	0	612
27.119	6.635	16386	15901	0	612
30.148	6.203	16386	15202	0	612
30.148	6.239	16385	14557	0	612
25.279	4.472	16385	14019	0	612
21.277	4.400	16385	13804	0	612
20.447	5.662	16384	13696	0	612
24.017	8.619	16384	13428	0	612
29.607	9.665	16384	13051	0	612
33.213	12.550	16384	12836	0	612
32.348	11.937	16384	12782	0	612
31.807	9.953	16384	12782	0	612
28.417	10.350	16384	12997	0	612
26.794	10.566	16384	13643	0	612
27.227	10.278	16384	14234	0	612
26.325	9.376	16384	14664	0	612
23.152	4.832	16384	15148	0	612
20.050	1.406	16384	15847	0	612
18.283	2.380	16384	16491	0	612
16.228	4.616	16384	16921	0	612
17.454	6.094	16384	17297	0	612
18.103	5.806	16384	17620	0	612
19.257	2.813	16384	17781	0	612
23.476	4.688	16384	17620	0	612
29.318	7.537	16384	17297	0	612
35.305	13.199	16384	17029	0	612
38.406	15.398	16384	16814	0	612
37.288	15.435	16384	16491	0	612
34.043	11.864	16384	16169	0	612
31.771	12.730	16384	15632	0	612
31.085	13.199	16384	15094	0	612
31.662	14.533	16383	14557	0	612
30.220	17.238	16383	14073	0	612
28.922	16.336	16382	13750	0	612
27.047	17.382	16382	13804	0	612
29.715	16.985	16382	14126	0	612
32.780	19.149	16381	14395	0	612
36.855	18.464	16382	14610	0	612
37.000	19.005	16382	14987	0	612
33.321	14.677	16382	15578	0	612
29.174	11.360	16382	16277	0	612
25.676	8.439	16382	16975	0	612
23.657	6.708	16383	17889	0	612
24.270	6.780	16383	18695	0	612
22.683	7.104	16384	19233	0	612
19.329	7.068	16384	19717	0	612
20.519	8.727	16384	20254	0	612
21.709	10.638	16384	20631	0	612
27.515	15.326	16384	20577	0	612
32.600	17.959	16384	20362	0	612
35.701	16.805	16384	20201	0	612
33.321	15.110	16384	19878	0	612
30.148	9.016	16384	19394	1	516
25.712	5.193	16384	18857	0	516
23.044	2.524	16384	18319	0	516
25.171	1.226	16384	17674	0	516
23.981	1.190	16384	16975	0	516
27.371	0.108	16384	16277	0	516
29.282	1.154	16384	15578	0	516
29.859	2.777	16384	15202	0	516
28.597	5.914	16384	15040	0	516
29.174	8.727	16384	14987	0	516
28.056	8.655	16384	14879	0	516
25.640	5.842	16384	14825	0	516
24.630	-0.902	16384	14825	0	516
21.421	-6.852	16384	14825	0	516
19.113	-9.124	16384	14933	0	516
20.267	-7.176	16384	15309	0	516
23.729	-0.793	16384	15793	0	516
29.715	5.770	16384	16116	0	516
32.312	8.402	16384	16384	0	516
34.223	10.819	16384	16652	0	516
36.314	10.819	16384	16760	0	516
41.543	11.900	16384	16760	0	516
48.720	16.841	16384	16921	0	516
50.234	18.103	16384	17190	0	516
48.684	15.759	16384	17405	0	516
39.885	12.117	16384	17459	0	516
31.771	7.789	16384	17351	0	516
27.912	6.131	16384	17190	0	516
30.581	9.989	16384	16867	0	516
32.312	13.163	16384	16545	0	516
33.502	12.694	16384	16169	0	516
32.420	12.622	16384	15739	0	516
29.679	10.783	16384	15471	0	516
31.230	12.514	16384	15309	0	516
34.872	17.706	16384	15094	0	516
39.668	18.680	16384	14825	0	516
41.363	19.149	16384	14610	0	516
38.262	13.631	16383	14557	0	516
32.131	6.383	16383	14503	0	516
23.404	-1.442	16383	14664	0	516
19.798	-7.212	16384	15255	0	516
16.985	-12.694	16384	15847	0	516
13.559	-12.694	16384	16223	0	516
12.694	-10.855	16384	16545	0	516
12.189	-8.907	16384	17082	0	516
10.674	-6.167	16384	17620	0	516
12.910	-2.633	16384	18050	0	516
19.870	1.226	16384	18427	0	516
25.027	6.527	16384	18642	0	516
30.040	8.835	16384	18534	0	516
30.653	10.278	16384	18211	0	516
29.246	8.691	16384	18050	0	516
29.607	9.448	16384	18050	0	516
32.203	12.333	16385	18211	0	516
37.793	19.618	16385	18211	0	516
41.219	20.700	16385	18158	0	516
39.488	18.860	16385	18050	0	516
34.187	13.379	16385	17943	0	516
30.328	9.520	16385	17835	0	516
28.994	9.052	16385	17566	0	516
30.653	11.720	16385	17190	0	516
33.538	18.103	16385	16921	0	516
36.351	18.283	16385	16760	0	516
37.324	17.779	16385	16545	0	516
35.449	13.848	16386	16384	0	516
34.800	12.225	16386	16331	0	516
33.069	8.943	16386	16223	0	516
29.571	6.131	16385	16116	0	516
25.099	2.741	16385	16116	0	516
19.798	-1.118	16385	16169	0	516
14.930	-4.796	16385	16062	0	516
15.435	-4.219	16385	15739	0	516
16.805	-0.757	16385	15471	0	516
21.493	4.760	16385	15363	0	516
24.522	8.258	16385	15309	0	516
27.047	9.448	16385	15202	0	516
28.886	9.088	16385	15255	0	516
28.164	6.239	16385	15309	0	516
29.895	4.472	16384	15255	0	516
31.230	4.436	16385	14987	0	516
33.790	7.573	16385	14718	0	516
36.891	13.379	16384	14449	0	516
38.226	16.048	16384	14234	0	516
37.036	19.113	16384	14019	0	516
35.088	17.418	16384	13965	0	516
33.934	13.235	16384	13965	0	516
35.233	15.254	16384	14126	0	516
37.901	16.012	16384	14503	0	516
39.921	20.555	16384	14987	0	516
39.235	19.293	16384	15417	0	516
35.088	18.211	16384	15901	0	516
28.705	13.127	16384	16277	0	516
23.585	11.756	16384	16437	0	516
21.060	10.386	16384	16652	0	516
23.585	8.475	16384	16975	0	516
27.263	9.520	16384	17297	0	516
30.400	8.727	16384	17513	0	516
32.925	9.881	16384	17728	0	516
32.780	10.530	16384	17889	0	516
30.004	13.740	16384	17781	0	516
27.155	12.189	16384	17566	0	516
23.260	10.025	16384	17351	0	516
21.313	11.215	16384	17136	0	516
24.811	12.550	16384	16814	0	516
29.859	13.451	16384	16491	0	516
34.367	17.598	16384	16223	0	516
33.249	14.317	16384	15847	0	516
27.407	10.530	16384	15471	0	516
22.070	6.780	16384	15148	0	516
22.755	7.176	16384	14933	0	516
28.273	10.710	16384	14718	0	516
34.836	15.435	16384	14664	0	516
38.190	14.172	16383	14772	0	516
35.629	11.973	16383	14987	0	516
30.328	7.934	16383	15255	0	516
27.155	4.364	16383	15417	0	516
26.794	3.210	16383	15578	0	516
26.902	3.823	16384	15793	0	516
27.335	4.616	16384	16223	0	516
27.407	8.006	16384	16867	0	516
28.958	13.199	16384	17459	0	516
30.617	16.805	16384	17781	0	516
32.528	19.257	16384	17996	0	516
34.620	16.877	16384	18319	0	516
33.285	15.074	16384	18642	0	516
31.662	12.694	16384	18803	0	516
30.581	10.025	16384	18857	0	516
27.948	9.845	16385	18857	0	516
25.856	7.753	16384	18749	0	516
23.657	4.868	16384	18373	0	516
20.123	3.462	16384	17889	0	516
18.824	1.587	16384	17297	0	516
14.533	0.505	16384	16599	0	516
13.379	2.705	16384	15901	0	516
12.297	7.321	16384	15094	0	516
16.949	10.710	16384	14503	0	516
19.690	12.514	16383	14073	0	516
21.457	10.350	16383	13696	0	516
18.752	7.140	16383	13481	0	516
16.589	2.633	16383	13374	0	516
15.326	2.777	16383	13428	0	516
20.447	5.842	16382	13643	0	516
25.243	8.655	16382	13858	0	516
27.840	11.576	16382	14180	0	516
28.705	11.684	16382	14664	0	516
27.660	11.576	16382	15148	0	516
28.741	12.369	16382	15524	0	516
30.508	16.264	16382	15954	0	516
30.040	17.670	16383	16437	0	516
27.948	21.024	16383	16975	0	516
25.135	17.202	16383	17459	0	516
23.512	13.920	16384	17889	0	516
24.522	10.638	16384	18319	0	516
27.660	10.783	16384	18427	0	516
30.761	12.009	16384	18373	0	516
32.492	13.018	16384	18427	0	516
33.466	16.192	16384	18588	0	516
33.321	16.336	16384	18534	0	516
33.429	18.897	16384	18211	0	516
33.429	17.959	16384	17781	0	516
31.590	18.320	16384	17513	0	516
27.876	15.038	16384	17082	0	516
24.198	10.746	16384	16545	0	516
19.690	8.222	16384	16062	0	516
15.398	1.479	16383	15686	0	516
10.999	-4.544	16383	15578	0	516
8.078	-7.789	16383	15632	0	516
9.809	-6.780	16383	15686	0	516
11.612	-2.705	16383	15632	0	516
18.500	2.596	16383	15578	0	516
19.437	3.931	16383	15632	0	516
21.457	2.308	16383	15739	0	516
21.601	1.262	16383	15901	0	516
26.001	2.164	16383	16116	0	516
29.859	6.708	16383	16331	0	516
28.886	10.133	16383	16437	0	516
26.433	9.124	16384	16652	0	516
19.329	9.809	16384	17029	0	516
15.939	9.268	16384	17351	0	516
17.670	12.477	16384	17513	0	516
18.969	15.903	16384	17674	0	516
22.935	17.815	16384	17889	0	516
25.135	16.480	16384	17943	0	516
25.063	16.985	16384	17835	0	516
29.318	18.680	16384	17674	0	516
34.259	21.277	16384	17405	0	516
37.252	24.198	16384	17136	0	516
38.803	20.555	16384	16867	0	516
36.819	17.634	16384	16599	0	516
34.764	14.172	16384	16437	0	516
33.105	15.002	16384	16384	0	516
31.518	14.425	16384	16384	0	516
29.823	12.153	16384	16384	0	516
26.217	5.013	16384	16331	0	516
18.572	-3.246	16384	16384	0	516
16.120	-8.402	16384	16384	0	516
14.353	-9.701	16384	16384	0	516
15.002	-10.855	16384	16491	0	516
13.523	-11.684	16384	16760	0	516
15.182	-11.864	16384	17029	0	516
15.002	-12.586	16384	17190	0	516
17.526	-9.520	16384	17351	0	516
18.824	-6.888	16385	17674	0	516
18.320	-8.907	16384	17996	0	516
13.559	-11.648	16385	18158	0	516
9.809	-12.333	16385	18265	0	516
10.025	-13.559	16385	18480	0	516
14.497	-8.258	16386	18480	0	516
19.221	-2.452	16386	18265	0	516
22.178	1.695	16386	17996	0	516
24.919	4.652	16386	17728	0	516
23.729	5.770	16386	17459	0	516
25.640	6.563	16386	17082	1	848
29.354	7.645	16386	16706	0	848
30.977	10.999	16386	16384	0	848
33.429	12.225	16385	16008	0	848
33.321	11.973	16385	15578	0	848
32.528	12.153	16385	15094	0	848
30.653	14.136	16385	14664	0	848
29.282	16.733	16385	14395	0	848
27.660	23.260	16385	14341	0	848
25.604	26.470	16384	14234	0	848
21.926	22.142	16384	13911	0	848
16.589	16.156	16384	13750	0	848
15.254	7.393	16384	13804	0	848
15.687	4.400	16384	13858	0	848
17.454	4.364	16384	14019	0	848
21.349	8.475	16384	14288	0	848
23.224	9.737	16384	14718	0	848
20.411	7.032	16384	15040	0	848
19.077	6.094	16384	15202	0	848
18.139	6.744	16384	15309	0	848
20.952	13.054	16384	15363	0	848
23.368	19.546	16384	15417	0	848
28.309	23.224	16384	15578	0	848
30.725	24.739	16384	15847	0	848
30.328	20.159	16384	16008	0	848
29.571	18.067	16384	16008	0	848
26.830	15.362	16384	15954	0	848
29.318	17.706	16384	15847	0	848
32.095	21.385	16384	15632	0	848
37.108	27.587	16384	15471	0	848
42.084	30.076	16384	15417	0	848
42.734	31.843	16384	15363	0	848
39.416	28.164	16384	15417	0	848
37.937	25.856	16384	15578	0	848
37.036	23.476	16384	15739	0	848
37.000	24.053	16384	15847	0	848
35.954	22.791	16384	16062	0	848
32.276	20.483	16384	16169	0	848
27.010	17.598	16384	16223	0	848
23.476	12.297	16384	16384	0	848
23.188	9.304	16384	16760	0	848
25.676	10.963	16384	17136	0	848
25.893	10.025	16384	17297	0	848
24.270	8.078	16384	17513	0	848
22.286	4.111	16384	17728	0	848
17.490	-0.541	16384	17835	0	848
17.706	-1.010	16384	17728	0	848
19.005	2.019	16384	17674	0	848
20.808	9.340	16384	17620	0	848
24.955	11.287	16384	17513	0	848
23.693	10.314	16384	17297	0	848
22.791	6.094	16384	16975	0	848
24.702	5.626	16384	16760	0	848
26.073	8.222	16384	16545	0	848
30.545	14.317	16384	16384	0	848
33.646	18.644	16384	16116	0	848
31.771	20.555	16383	15901	0	848
29.679	17.526	16384	15847	0	848
28.777	16.985	16384	15901	0	848
30.004	16.084	16384	15793	0	848
34.583	18.464	16383	15632	0	848
34.944	18.175	16383	15578	0	848
32.889	18.500	16383	15686	0	848
28.669	18.680	16383	15847	0	848
25.099	16.480	16383	16116	0	848
24.017	12.550	16384	16706	0	848
22.611	9.304	16384	17405	0	848
20.555	1.190	16384	17996	0	848
17.706	-5.373	16384	18480	0	848
13.199	-10.458	16384	19018	0	848
11.143	-9.953	16384	19340	0	848
13.235	-10.566	16385	19502	0	848
14.605	-5.950	16385	19609	0	848
19.077	-2.416	16385	19824	0	848
21.132	-0.757	16386	19771	0	848
25.820	0.649	16386	19502	0	848
29.210	2.452	16386	19018	0	848
29.895	2.524	16385	18319	0	848
27.768	1.262	16385	17513	0	848
24.522	-0.685	16385	16760	1	316
19.870	-1.803	16385	16008	0	316
19.005	-0.577	16384	15363	0	316
26.073	4.977	16384	14879	0	316
31.518	12.838	16384	14557	0	316
35.557	15.975	16384	14126	0	316
33.105	16.697	16384	13696	0	316
25.568	10.746	16384	13589	0	316
20.267	8.078	16384	13696	0	316
21.132	6.996	16384	13804	0	316
25.568	11.720	16384	14019	0	316
32.095	14.605	16384	14395	0	316
33.285	17.382	16384	14772	0	316
28.814	14.425	16384	15094	0	316
22.972	14.389	16384	15524	0	316
19.113	11.468	16384	16062	0	316
20.123	13.451	16384	16491	0	316
20.772	12.550	16384	16814	0	316
24.089	13.163	16384	17082	0	316
28.597	14.785	16384	17405	0	316
32.023	15.218	16384	17566	0	316
34.728	17.995	16384	17513	0	316
35.485	18.752	16384	17351	0	316
34.728	20.772	16384	17082	0	316
34.079	20.195	16384	16814	0	316
36.278	23.621	16384	16491	0	316
39.668	24.017	16384	16169	0	316
43.238	25.640	16384	15793	0	316
44.897	25.424	16384	15471	0	316
45.258	27.191	16384	15148	0	316
46.953	28.164	16384	14718	0	316
49.657	31.843	16384	14395	0	316
49.513	33.213	16384	14288	0	316
44.861	31.735	16384	14449	0	316
40.209	26.001	16384	14503	0	316
32.564	22.142	16383	14395	0	316
27.804	15.218	16383	14288	0	316
27.155	15.831	16383	14234	0	316
25.640	14.749	16383	14234	0	316
22.286	12.477	16382	14395	0	316
16.661	10.494	16383	14933	0	316
10.133	7.104	16383	15524	0	316
7.970	4.364	16383	15901	0	316
11.287	5.734	16383	16223	0	316
19.546	10.566	16383	16545	0	316
28.092	15.398	16383	16814	0	316
33.357	16.985	16383	17029	0	316
32.492	18.788	16383	17351	0	316
29.859	16.769	16384	17781	0	316
27.335	18.175	16384	18104	0	316
29.931	18.428	16384	18319	0	316
31.662	21.529	16384	18373	0	316
33.970	18.680	16384	18480	0	316
32.961	16.516	16384	18642	0	316
31.266	12.477	16384	18588	0	316
28.886	13.812	16384	18373	0	316
27.155	11.792	16384	18050	0	316
26.974	12.982	16384	17889	0	316
27.119	11.468	16384	17889	0	316
27.119	10.494	16384	17835	0	316
26.109	13.451	16384	17674	0	316
25.316	14.100	16384	17513	0	316
23.044	13.199	16384	17405	0	316
19.510	11.900	16384	17244	0	316
19.185	6.599	16384	16975	0	316
16.805	3.462	16384	16706	0	316
17.995	4.147	16384	16437	0	316
15.615	4.364	16384	16116	0	316
14.894	3.931	16384	15847	0	316
13.740	4.904	16384	15686	0	316
14.136	5.121	16384	15524	0	316
19.546	7.212	16384	15417	0	316
27.948	11.937	16384	15471	0	316
35.088	13.523	16384	15632	0	316
38.370	17.202	16384	15793	0	316
34.547	14.136	16384	15686	0	316
29.318	11.612	16384	15363	0	316
23.008	9.881	16383	14933	0	316
23.585	9.484	16383	14557	0	316
30.689	14.425	16383	14180	0	316
38.947	18.608	16382	13858	0	316
45.005	22.214	16382	13643	0	316
44.609	20.519	16382	13750	0	316
38.550	17.995	16382	14126	0	316
33.682	14.100	16383	14503	0	316
31.699	13.812	16382	14825	0	316
32.131	13.595	16382	15202	0	316
30.905	10.999	16382	15686	0	316
26.830	6.383	16382	16169	0	316
20.772	0.397	16383	16652	0	316
17.526	-3.426	16383	17351	0	316
18.680	-3.354	16383	18050	0	316
18.031	0.216	16384	18642	0	316
18.392	3.210	16384	19233	0	316
16.012	3.823	16384	19878	0	316
16.552	1.839	16384	20470	0	316
17.995	-1.551	16384	20685	0	316
23.512	-2.272	16385	20792	0	316
26.578	-0.036	16385	20738	0	316
28.741	4.291	16385	20308	0	316
29.463	7.753	16385	19663	0	316
27.912	8.835	16385	18964	0	316
26.542	7.465	16385	18211	1	408
25.712	6.599	16385	17459	0	408
26.506	7.429	16384	16652	0	408
27.912	8.006	16384	16008	0	408
30.400	7.609	16384	15524	0	408
31.554	9.232	16384	15040	0	408
31.735	10.278	16384	14557	0	408
30.833	12.910	16384	14019	0	408
30.725	13.379	16384	13589	0	408
29.499	14.713	16384	13320	0	408
28.597	10.386	16383	13266	0	408
27.407	10.278	16383	13266	0	408
27.010	9.340	16383	13266	0	408
26.938	9.484	16383	13428	0	408
28.164	6.347	16383	13643	0	408
27.191	5.265	16383	13911	0	408
27.371	3.426	16383	14341	0	408
28.128	4.039	16383	15040	0	408
30.797	7.321	16383	15793	0	408
35.016	11.792	16383	16331	0	408
37.144	13.415	16383	16760	0	408
35.521	16.264	16384	17190	0	408
32.203	14.245	16384	17513	0	408
26.253	14.208	16384	17728	0	408
24.450	13.559	16384	17996	0	408
22.791	12.514	16384	18211	0	408
25.099	15.975	16384	18158	0	408
27.119	14.749	16384	17889	0	408
30.292	15.326	16384	17620	0	408
32.925	14.245	16384	17405	0	408
35.774	16.733	16384	17190	0	408
37.757	18.283	16384	16814	0	408
39.560	22.467	16384	16437	0	408
38.298	21.565	16384	16062	0	408
36.314	20.772	16384	15739	0	408
30.328	13.523	16384	15471	0	408
23.729	10.097	16384	15202	0	408
18.103	5.301	16383	14933	0	408
13.956	3.750	16383	14825	0	408
13.848	3.137	16383	14879	0	408
13.595	3.210	16383	15040	0	408
16.661	1.731	16383	15309	0	408
15.110	0.793	16383	15686	0	408
13.091	-1.118	16383	16008	0	408
13.018	-0.613	16383	16277	0	408
13.199	1.623	16383	16652	0	408
18.139	8.078	16384	17136	0	408
19.185	10.494	16384	17513	0	408
22.683	12.009	16384	17835	0	408
22.827	11.504	16384	18211	0	408
26.145	13.199	16384	18534	0	408
29.968	14.245	16384	18642	0	408
30.725	18.031	16384	18534	0	408
33.069	18.572	16384	18211	0	408
30.545	19.906	16384	17728	0	408
33.682	21.241	16384	17136	0	408
37.252	26.938	16384	16491	0	408
40.966	32.961	16384	15954	0	408
44.573	34.187	16384	15578	0	408
45.005	32.131	16384	15363	0	408
42.409	25.352	16383	15309	0	408
39.199	17.887	16383	15309	0	408
32.312	11.828	16384	15255	0	408
24.847	7.212	16384	15417	0	408
19.726	4.472	16384	15739	0	408
19.762	5.662	16384	16062	0	408
22.178	8.475	16384	16437	0	408
27.227	12.550	16384	17029	0	408
27.696	14.605	16384	17566	0	408
27.191	14.858	16384	17943	0	408
24.811	15.398	16384	18211	0	408
26.974	15.038	16385	18642	0	408
31.446	18.500	16385	19125	0	408
35.846	20.736	16386	19502	0	408
36.891	22.395	16386	19717	0	408
35.990	19.906	16386	19878	0	408
30.256	18.752	16386	19878	0	408
27.804	14.533	16387	19556	0	408
24.919	12.405	16387	19018	0	408
25.640	10.494	16387	18373	0	408
27.624	11.864	16387	17728	0	408
28.994	12.117	16386	17082	0	408
29.679	14.172	16386	16437	0	408
27.948	15.110	16386	15847	0	408
25.496	12.694	16385	15202	0	408
22.611	7.212	16385	14718	0	408
20.375	4.075	16385	14341	0	408
20.519	-1.010	16385	14073	0	408
19.113	-1.010	16385	13965	0	408
20.880	1.515	16385	13965	0	408
20.844	4.508	16384	14019	0	408
22.683	6.780	16384	14073	0	408
28.525	10.602	16384	14180	0	408
32.853	12.802	16384	14234	0	408
39.560	15.975	16384	14288	0	408
38.875	12.730	16384	14503	0	408
33.574	10.710	16384	14772	0	408
29.030	5.986	16384	14879	0	408
25.424	4.147	16384	14879	0	408
25.496	4.472	16384	14987	0	408
26.397	4.977	16384	15202	0	408
25.532	3.859	16384	15417	0	408
22.791	0.541	16384	15524	0	408
21.277	-2.633	16384	15471	0	408
23.260	-2.308	16384	15363	0	408
25.243	-0.216	16384	15202	0	408
28.741	4.327	16384	15094	0	408
30.292	7.862	16384	15094	0	408
29.030	9.809	16384	15202	0	408
26.109	8.366	16384	15417	0	408
23.945	4.039	16384	15632	0	408
23.801	1.118	16384	15847	0	408
23.296	-3.714	16384	16062	0	408
19.762	-6.563	16384	16384	0	408
18.356	-6.239	16384	16599	0	408
15.615	-3.426	16384	16545	0	408
17.274	2.164	16384	16491	0	408
21.204	7.140	16384	16599	0	408
28.092	11.251	16384	16975	0	408
31.194	11.720	16384	17297	0	408
33.177	15.651	16384	17566	0	408
36.062	19.077	16384	17996	0	408
34.692	25.099	16384	18427	0	408
34.656	28.741	16384	18695	0	408
34.547	27.696	16384	18910	0	408
35.485	24.270	16385	19233	0	408
35.593	21.926	16385	19340	0	408
35.088	18.247	16385	19287	0	408
32.131	17.959	16386	19233	0	408
27.551	15.795	16386	19179	0	408
21.781	13.054	16386	18910	0	408
17.166	6.708	16386	18427	0	408
11.360	0.865	16386	17996	0	408
6.744	-4.436	16386	17674	0	408
6.780	-8.402	16386	17405	0	408
9.809	-10.710	16386	17136	0	408
11.648	-9.845	16386	16814	0	408
13.740	-13.018	16386	16437	0	408
13.668	-15.507	16386	16169	0	408
9.088	-18.247	16385	15954	0	408
7.104	-17.670	16385	15524	0	408
9.304	-15.867	16385	14987	0	408
13.487	-11.287	16385	14557	0	408
15.831	-7.573	16385	14395	0	408
19.005	-6.816	16385	14288	0	408
14.677	-8.330	16384	14341	0	408
10.494	-10.746	16384	14503	0	408
7.429	-10.783	16384	14610	0	408
10.097	-9.340	16384	14610	0	408
17.021	-4.472	16384	14610	0	408
23.116	3.426	16384	14825	0	408
30.220	7.898	16384	15040	0	408
32.853	11.251	16384	15148	0	408
34.728	15.110	16384	15202	0	408
36.819	14.641	16384	15309	0	408
40.353	17.815	16384	15255	0	408
43.707	19.113	16384	15094	0	408
45.222	24.702	16384	14933	0	408
43.130	26.686	16384	14772	0	408
37.324	27.804	16384	14503	0	408
30.833	23.729	16384	14180	0	408
23.945	16.192	16384	13911	0	408
18.680	7.212	16384	13804	0	408
15.723	-0.433	16383	13750	0	408
11.504	-3.065	16383	13804	0	408
6.671	-4.652	16382	13858	0	408
3.859	-5.734	16382	13965	0	408
3.246	-5.517	16382	14288	0	408
6.888	-4.796	16382	14772	0	408
14.028	-2.164	16382	15363	0	408
19.510	-1.695	16382	15954	0	408
23.621	0.577	16382	16491	0	408
24.739	1.298	16382	16975	0	408
23.621	0.505	16383	17459	0	408
24.811	3.859	16383	17996	0	408
24.702	7.357	16384	18695	0	408
24.883	10.927	16384	19287	0	408
25.820	11.504	16384	19556	0	408
29.535	15.939	16384	19717	0	408
32.744	20.231	16384	19824	0	408
39.055	28.705	16384	19771	0	408
44.609	35.593	16384	19556	0	408
47.097	37.829	16384	19340	0	408
45.366	35.269	16384	19179	0	408
39.019	24.847	16384	18803	1	736
31.374	15.795	16384	18158	0	736
22.827	12.153	16384	17459	0	736
22.106	12.261	16384	16921	0	736
26.001	15.687	16384	16491	0	736
27.443	20.736	16384	16169	0	736
27.984	16.661	16384	15901	0	736
22.358	12.333	16384	15686	0	736
16.985	6.203	16384	15578	0	736
13.704	4.039	16384	15578	0	736
12.405	4.291	16384	15524	0	736
12.982	4.039	16383	15309	0	736
8.222	4.039	16383	15255	0	736
3.895	1.154	16383	15471	0	736
4.977	2.019	16383	15686	0	736
10.638	5.878	16383	15901	0	736
17.670	9.196	16384	16223	0	736
26.794	11.540	16384	16437	0	736
26.974	10.386	16384	16545	0	736
23.621	7.789	16384	16706	0	736
20.555	6.455	16384	16921	0	736
20.700	8.150	16384	17082	0	736
27.443	11.973	16384	17082	0	736
33.177	16.769	16384	17082	0	736
36.675	18.103	16384	17082	0	736
37.865	21.637	16384	17029	0	736
39.127	26.470	16384	16921	0	736
44.681	33.574	16384	16760	0	736
53.552	41.003	16384	16652	0	736
59.827	42.229	16384	16437	0	736
57.916	37.396	16384	16169	0	736
47.854	27.804	16384	15686	0	736
38.334	18.175	16384	15309	0	736
32.276	16.769	16384	15255	0	736
33.718	17.418	16384	15309	0	736
34.980	18.572	16384	15255	0	736
32.456	14.533	16383	15094	0	736
24.125	9.953	16383	14987	0	736
15.903	3.714	16383	14987	0	736
10.494	1.695	16383	14933	0	736
11.107	1.226	16383	15040	0	736
12.225	0.865	16383	15363	0	736
10.097	-1.695	16383	15686	0	736
7.357	-2.524	16383	15793	0	736
12.441	1.983	16383	15954	0	736
18.824	9.268	16383	16331	0	736
29.102	15.975	16383	16760	0	736
33.934	19.077	16383	17029	0	736
32.925	18.500	16383	17190	0	736
30.364	17.166	16383	17405	0	736
32.672	20.195	16384	17513	0	736
41.075	27.840	16384	17459	0	736
48.395	35.593	16384	17297	0	736
54.634	38.406	16384	17244	0	736
53.624	37.144	16384	17244	0	736
51.172	32.239	16384	17136	0	736
44.933	27.047	16384	17082	0	736
38.911	24.522	16384	17082	0	736
31.590	20.339	16384	17082	0	736
22.034	16.372	16384	16975	0	736
16.264	7.573	16384	16814	0	736
10.133	3.462	16384	16760	0	736
12.117	0.541	16384	16760	0	736
15.254	2.236	16384	16867	0	736
22.611	6.311	16384	16921	0	736
27.443	7.285	16384	16867	0	736
29.391	5.554	16384	16975	0	736
29.030	1.947	16384	17244	0	736
26.578	-0.902	16384	17459	0	736
23.801	0.505	16384	17728	0	736
26.542	5.301	16384	17996	0	736
31.230	10.206	16384	18104	0	736
36.964	16.805	16384	17996	0	736
42.697	19.329	16384	17835	0	736
44.897	22.539	16385	17728	0	736
44.825	26.578	16385	17513	0	736
45.041	28.201	16384	17136	0	736
43.058	28.489	16384	16599	0	736
42.157	26.578	16384	16116	0	736
41.652	24.342	16384	15524	0	736
39.091	20.591	16384	14987	0	736
38.370	18.283	16384	14449	0	736
33.610	12.297	16384	14019	0	736
25.532	6.131	16384	13750	0	736
17.057	-0.613	16384	13589	0	736
13.487	-6.275	16383	13535	0	736
13.271	-6.419	16383	13374	0	736
12.045	-7.429	16383	13374	0	736
12.550	-7.321	16383	13535	0	736
7.501	-6.563	16382	13750	0	736
6.852	-5.662	16382	13858	0	736
14.100	-3.318	16382	14126	0	736
22.214	0.829	16382	14557	0	736
31.085	3.173	16382	15094	0	736
31.662	1.479	16382	15739	0	736
28.669	-1.911	16383	16491	0	736
24.162	-3.859	16383	17190	0	736
24.883	-1.839	16383	17674	0	736
30.797	6.203	16384	18265	0	736
38.226	13.776	16384	18749	0	736
43.166	16.300	16384	18964	0	736
43.960	16.084	16384	18910	0	736
41.543	12.297	16384	18749	0	736
38.009	9.340	16384	18588	0	736
36.675	11.937	16384	18373	0	736
37.072	13.920	16384	18104	0	736
35.052	16.084	16384	17835	0	736
34.980	16.805	16384	17513	0	736
29.607	10.530	16384	17190	0	736
21.781	4.219	16384	16814	0	736
16.733	-5.157	16384	16491	0	736
10.386	-12.622	16384	16223	0	736
8.871	-15.002	16384	16008	0	736
10.278	-11.937	16384	15954	0	736
12.297	-8.439	16384	15847	0	736
13.379	-3.534	16384	15578	0	736
15.038	-3.750	16384	15309	0	736
15.146	-7.104	16384	15309	0	736
16.805	-11.937	16384	15417	0	736
14.894	-16.552	16384	15739	0	736
12.982	-17.129	16384	16223	0	736
13.271	-16.949	16384	16599	0	736
14.245	-12.694	16384	16921	0	736
19.798	-6.022	16384	17190	0	736
23.296	-2.128	16384	17513	0	736
24.558	1.262	16384	17781	0	736
25.965	1.623	16384	17889	0	736
26.758	3.065	16384	17996	0	736
31.626	4.580	16384	18211	0	736
36.098	9.448	16385	18373	0	736
37.721	12.441	16384	18427	0	736
35.665	11.143	16385	18211	0	736
28.777	9.160	16385	17728	0	736
21.457	3.137	16384	16975	0	736
17.274	0.541	16384	16277	0	736
15.218	-0.252	16384	15632	0	736
20.014	3.390	16384	15148	0	736
23.512	5.878	16384	14987	0	736
25.243	6.455	16384	15040	0	736
25.820	5.914	16384	15148	0	736
23.585	3.462	16384	15148	0	736
25.027	4.544	16384	15202	0	736
27.479	9.088	16384	15255	0	736
26.506	10.422	16384	15202	0	736
22.178	8.547	16384	15148	0	736
17.166	5.770	16384	15255	0	736
12.045	3.823	16384	15471	0	736
13.235	4.508	16384	15686	0	736
19.690	8.907	16384	16116	0	736
24.919	9.665	16384	16599	0	736
27.479	11.540	16384	16975	0	736
27.804	10.819	16384	17190	0	736
31.735	13.343	16384	17351	0	736
37.108	21.673	16384	17513	0	736
45.114	27.660	16384	17459	0	736
47.566	32.672	16384	17244	0	736
46.232	33.754	16384	16921	0	736
40.606	31.338	16384	16599	0	736
35.377	26.542	16384	16331	0	736
34.223	24.125	16384	16062	0	736
33.069	20.664	16384	15793	0	736
30.112	16.625	16384	15524	0	736
27.083	10.314	16384	15255	0	736
22.142	7.104	16384	14825	0	736
19.329	5.445	16384	14395	0	736
15.939	6.635	16384	14073	0	736
18.897	10.855	16384	13965	0	736
20.988	13.920	16383	14126	0	736
24.775	16.805	16383	14288	0	736
27.515	15.759	16383	14395	0	736
26.037	12.982	16383	14610	0	736
21.132	6.888	16383	14987	0	736
21.060	1.839	16383	15363	0	736
18.464	1.010	16384	15793	0	736
20.519	3.426	16384	16384	0	736
25.279	5.049	16384	16867	0	736
25.712	7.465	16384	17244	0	736
27.371	7.357	16384	17620	0	736
30.184	5.554	16384	17943	0	736
32.708	6.563	16384	18158	0	736
37.432	8.799	16384	18265	0	736
42.625	13.884	16384	18427	0	736
43.527	18.139	16384	18695	0	736
42.950	22.539	16384	18695	0	736
41.183	23.657	16384	18373	0	736
40.462	20.664	16384	18050	0	736
38.803	17.923	16384	17781	0	736
37.541	15.002	16384	17513	0	736
33.790	12.910	16384	17136	1	752
29.679	13.054	16384	16760	0	752
24.486	9.665	16384	16437	0	752
17.706	4.760	16384	16277	0	752
14.461	-0.613	16384	16062	0	752
12.081	-4.183	16384	15847	0	752
17.057	-2.669	16384	15686	0	752
22.647	1.659	16384	15578	0	752
29.138	5.626	16384	15524	0	752
30.328	7.789	16384	15524	0	752
27.804	3.137	16384	15632	0	752
23.116	-1.370	16384	15739	0	752
21.818	-5.986	16384	15901	0	752
19.978	-8.835	16384	15954	0	752
20.916	-12.441	16384	16116	0	752
25.243	-11.396	16384	16384	0	752
26.470	-9.016	16384	16545	0	752
27.371	-6.960	16384	16599	0	752
28.633	-3.570	16384	16652	0	752
28.994	-0.902	16384	16760	0	752
29.895	1.515	16384	16652	0	752
34.439	3.390	16384	16437	0	752
39.704	7.609	16384	16223	0	752
39.596	7.465	16384	15954	0	752
40.065	6.599	16384	15686	0	752
35.269	2.741	16384	15363	0	752
30.869	0.325	16384	15094	0	752
28.345	0.974	16384	14987	0	752
26.470	1.659	16383	15040	0	752
24.342	2.200	16383	15148	0	752
23.729	-0.036	16383	15309	0	752
19.329	-5.229	16383	15632	0	752
16.877	-10.530	16384	16062	0	752
15.002	-13.956	16384	16331	0	752
16.552	-14.317	16384	16384	0	752
18.716	-9.016	16384	16599	0	752
25.532	-3.931	16384	17136	0	752
30.905	1.262	16384	17728	0	752
34.944	1.803	16384	18050	0	752
34.295	2.272	16384	18373	0	752
32.672	-1.154	16384	18749	0	752
29.138	-1.623	16384	19125	0	752
27.119	-2.164	16384	19179	0	752
27.551	0.144	16385	19125	0	752
30.977	2.452	16385	19018	0	752
33.610	8.511	16385	18749	0	752
35.124	12.766	16385	18373	0	752
36.314	14.605	16385	17996	0	752
35.341	14.821	16385	17566	0	752
33.502	11.504	16384	17082	0	752
33.141	9.232	16385	16545	0	752
33.393	9.556	16385	16169	0	752
32.672	11.143	16384	15739	0	752
33.574	10.927	16384	15309	0	752
31.122	10.855	16384	14718	0	752
28.561	8.186	16384	14234	0	752
23.476	2.380	16384	13911	0	752
19.437	-3.570	16384	13858	0	752
13.091	-8.366	16384	14019	0	752
9.989	-10.278	16384	14234	0	752
10.422	-10.963	16384	14449	0	752
12.441	-7.609	16384	14879	0	752
17.959	-4.183	16384	15363	0	752
18.680	-4.544	16384	15793	0	752
19.005	-3.859	16384	16331	0	752
16.552	-5.517	16384	16921	0	752
17.995	-2.272	16384	17513	0	752
25.316	2.596	16385	17996	0	752
33.105	7.176	16385	18534	0	752
37.144	10.999	16385	19018	0	752
37.901	10.855	16385	19233	0	752
35.016	8.078	16386	19179	0	752
34.187	10.927	16386	19018	0	752
36.098	13.776	16386	18857	0	752
37.793	15.759	16386	18588	0	752
34.728	16.985	16386	18158	0	752
31.699	13.704	16386	17674	0	752
27.768	14.641	16386	17082	0	752
29.607	16.661	16386	16491	0	752
34.223	19.906	16385	15954	1	316
36.062	22.683	16385	15309	0	316
35.124	19.618	16385	14664	0	316
30.004	14.749	16384	14180	0	316
25.532	11.864	16384	13858	0	316
24.991	10.206	16384	13535	0	316
26.109	10.242	16384	13159	0	316
25.676	11.504	16384	12944	0	316
23.116	9.556	16384	12890	0	316
19.510	6.744	16384	12836	0	316
12.333	4.219	16384	13051	0	316
9.953	3.137	16384	13481	0	316
10.025	1.875	16384	14019	0	316
11.504	6.563	16384	14503	0	316
18.247	9.340	16384	15040	0	316
25.099	12.910	16384	15524	0	316
30.256	13.091	16384	15847	0	316
30.545	12.694	16384	16116	0	316
27.155	8.619	16384	16331	0	316
22.034	6.816	16384	16545	0	316
21.241	10.530	16384	16760	0	316
24.486	13.595	16384	16814	0	316
28.958	13.127	16384	16814	0	316
29.968	10.422	16384	16706	0	316
28.128	4.940	16384	16491	0	316
22.395	1.515	16384	16277	0	316
17.598	5.049	16384	16062	0	316
20.519	13.307	16384	15954	0	316
23.765	20.808	16383	15954	0	316
27.587	20.195	16383	16062	0	316
28.525	16.192	16383	16169	0	316
24.125	7.825	16383	16169	0	316
18.572	4.436	16383	16277	0	316
17.454	5.049	16383	16491	0	316
19.041	11.287	16383	16760	0	316
23.801	15.975	16384	17190	0	316
28.850	19.654	16384	17781	0	316
28.525	18.320	16384	18211	0	316
26.974	17.670	16384	18534	0	316
22.322	14.677	16384	18910	0	316
20.483	10.314	16384	19394	0	316
17.743	9.484	16384	19932	0	316
19.834	9.376	16385	20308	0	316
20.808	10.783	16385	20523	0	316
23.368	15.903	16386	20631	0	316
22.755	18.933	16386	20362	0	316
24.847	22.142	16386	19824	0	316
27.083	21.998	16386	19072	0	316
28.561	22.827	16386	18211	0	316
31.085	23.909	16386	17513	0	316
32.059	24.125	16385	16975	0	316
33.141	27.263	16385	16437	0	316
33.393	29.174	16385	15847	0	316
34.692	30.004	16384	15148	0	316
34.583	26.722	16384	14557	0	316
32.636	24.234	16384	13965	0	316
29.823	21.601	16384	13481	0	316
28.273	17.382	16384	13105	0	316
26.253	16.300	16384	12836	0	316
24.342	14.389	16384	12675	0	316
23.837	14.100	16383	12675	0	316
24.198	13.415	16383	12997	0	316
24.414	11.720	16383	13320	0	316
25.135	12.297	16383	13535	0	316
25.135	9.484	16384	13965	0	316
24.666	9.016	16384	14718	0	316
23.621	13.848	16384	15578	0	316
26.758	16.012	16384	16277	0	316
30.364	21.529	16384	16760	0	316
34.115	21.204	16384	17244	0	316
34.692	20.411	16384	17566	0	316
33.177	13.776	16384	17728	0	316
26.902	10.350	16384	17835	0	316
22.070	7.068	16384	17943	0	316
21.421	7.393	16384	17889	0	316
23.549	9.629	16384	17620	0	316
27.876	15.290	16384	17351	0	316
33.466	16.661	16384	17136	0	316
32.564	17.779	16384	17029	0	316
28.777	14.064	16384	16921	1	316
23.549	8.366	16384	16814	0	316
17.274	6.924	16384	16706	0	316
17.815	9.592	16384	16760	0	316
18.103	15.398	16384	16814	0	316
23.621	19.618	16384	16814	0	316
23.621	18.860	16384	16706	0	316
23.837	16.012	16384	16760	0	316
25.712	11.360	16384	16867	0	316
23.368	13.163	16384	17029	0	316
26.073	16.336	16384	17244	0	316
27.876	18.175	16385	17620	0	316
27.840	20.050	16385	17943	0	316
28.453	16.841	16385	18104	0	316
26.650	14.461	16385	18211	0	316
23.440	11.792	16386	18427	0	316
20.736	11.468	16386	18427	0	316
16.913	10.350	16386	18104	0	316
17.779	8.691	16386	17781	0	316
16.625	8.547	16386	17566	0	316
20.916	7.681	16386	17136	0	316
23.512	9.592	16386	16599	0	316
28.309	14.064	16385	16062	0	316
33.502	19.582	16385	15524	0	316
34.187	20.483	16385	15040	0	316
33.502	20.772	16384	14610	0	316
30.148	15.326	16384	14288	0	316
26.686	11.107	16384	13965	0	316
21.168	6.924	16384	13804	0	316
19.654	5.914	16384	13643	0	316
17.526	5.914	16384	13481	0	316
18.536	9.520	16384	13320	0	316
20.988	13.307	16384	13320	0	316
24.162	15.723	16384	13481	0	316
28.345	15.326	16384	13696	0	316
29.138	10.891	16384	14126	0	316
27.335	4.219	16384	14933	0	316
25.893	3.173	16384	15686	0	316
26.938	2.741	16384	16223	0	316
28.669	6.455	16384	16652	0	316
30.040	9.845	16384	17244	0	316
30.184	10.206	16384	17943	0	316
24.378	6.924	16384	18373	0	316
18.247	2.885	16385	18642	0	316
12.405	-1.731	16385	18803	0	316
12.730	-4.003	16385	18803	0	316
12.766	-3.859	16385	18642	0	316
14.461	-3.137	16385	18373	0	316
18.500	-0.216	16385	17996	0	316
21.204	4.039	16385	17513	0	316
27.083	9.665	16385	16921	0	316
31.013	15.579	16384	16277	0	316
34.908	14.930	16384	15632	0	316
36.278	11.035	16384	15094	0	316
32.564	5.517	16384	14825	0	316
29.643	2.019	16384	14557	0	316
27.335	2.777	16384	14288	0	316
24.378	7.285	16384	14180	0	316
24.017	8.799	16384	14288	0	316
22.214	9.629	16384	14503	0	316
19.546	7.681	16384	14987	0	316
19.834	6.094	16384	15739	0	316
20.519	6.383	16384	16491	0	316
24.125	9.304	16384	16921	0	316
26.722	12.045	16384	17297	0	316
28.309	14.064	16384	17943	0	316
29.427	17.166	16385	18480	0	316
32.023	17.562	16385	18803	0	316
34.115	20.195	16385	18964	0	316
34.511	19.113	16386	19233	0	316
32.276	16.480	16385	19394	0	316
28.020	10.422	16386	19287	0	316
21.601	4.291	16386	19072	0	316
20.664	4.436	16386	18749	0	316
21.168	4.652	16386	18265	0	316
21.673	8.511	16386	17728	0	316
25.316	10.458	16386	17136	0	316
28.958	12.730	16386	16599	0	316
29.318	14.172	16385	16277	0	316
28.777	13.559	16385	15954	0	316
26.722	13.704	16385	15686	0	316
24.125	8.366	16385	15471	0	316
20.555	1.442	16385	15255	0	316
19.401	-3.714	16384	15094	0	316
20.916	-4.940	16384	14772	0	316
21.673	0.361	16384	14288	0	316
25.460	7.970	16384	13804	0	316
30.797	16.192	16384	13535	0	316
34.043	20.916	16384	13481	0	316
31.482	17.274	16384	13804	0	316
28.525	14.064	16384	14449	0	316
24.270	10.602	16384	15040	0	316
25.929	8.691	16384	15471	0	316
29.679	13.018	16384	15954	0	316
32.744	15.362	16384	16384	0	316
30.545	15.435	16384	16545	0	316
22.611	10.097	16384	16491	0	316
15.110	3.282	16384	16491	0	316
11.612	-0.072	16384	16652	0	316
11.828	-0.613	16384	16760	0	316
19.149	2.705	16384	16706	0	316
21.926	7.285	16384	16545	0	316
25.784	8.979	16384	16384	0	316
29.859	12.477	16384	16116	0	316
30.905	14.136	16384	15793	0	316
31.915	17.670	16384	15417	0	316
32.384	15.723	16384	14987	0	316
26.938	14.281	16384	14718	0	316
20.772	10.638	16384	14664	0	316
16.589	7.645	16383	14557	0	316
14.785	6.347	16383	14503	0	316
20.555	8.402	16383	14557	0	316
26.650	11.071	16383	14718	0	316
31.554	12.586	16383	14933	0	316
33.429	16.841	16383	15255	0	316
33.033	16.769	16383	15793	0	316
33.466	18.536	16384	16331	0	316
37.432	22.431	16383	16599	0	316
