neuroNicle FX2
D3F25R12
Bluetooth SPP
2023년 11월 14일 화요일
오후 4:51
time interval = 4msec
EEG1	EEG2	PPG	sdPPG	pulse	peak_interval(msec)
45.907	23.585	16406	18596	0	736
45.907	24.486	16413	19182	0	736
46.232	25.676	16419	19518	0	736
48.215	24.991	16423	19735	0	736
49.044	22.286	16426	19865	0	736
45.763	20.014	16427	19854	0	736
41.399	14.966	16424	19637	0	736
41.652	15.362	16423	19290	0	736
42.445	17.743	16420	19073	0	736
46.989	23.368	16419	19008	0	736
53.552	28.633	16420	18954	0	736
55.427	31.662	16423	18867	0	736
53.841	30.040	16424	18737	0	736
48.684	26.145	16423	18574	0	736
44.897	24.270	16423	18444	0	736
43.455	22.791	16426	18390	0	736
43.924	24.017	16430	18379	0	736
43.058	24.306	16431	18347	0	736
42.048	20.700	16431	18238	0	736
40.714	20.411	16436	18173	0	736
40.101	18.716	16443	18238	0	736
41.868	20.808	16444	18314	0	736
43.527	23.188	16447	18238	0	736
44.428	22.791	16451	18043	0	736
39.308	22.070	16451	17880	0	736
38.586	19.365	16457	17859	0	736
37.216	17.021	16465	18021	0	736
36.711	14.028	16473	18216	0	736
36.747	14.605	16479	18260	0	736
35.197	11.648	16484	18119	0	736
35.160	13.343	16483	17848	0	736
35.124	13.487	16483	17436	0	736
36.098	13.199	16473	16926	0	736
38.154	15.975	16467	16384	0	736
39.488	15.218	16459	15777	0	736
39.019	17.310	16444	15072	0	736
39.091	16.841	16431	14378	0	736
38.442	17.238	16418	13803	0	736
37.432	16.625	16401	13304	0	736
38.767	19.329	16385	12816	0	736
38.478	18.716	16367	12274	0	736
40.498	19.762	16349	11807	0	736
40.786	17.418	16337	11645	0	736
42.265	18.644	16324	11721	0	736
43.924	18.139	16311	11797	0	736
46.809	23.008	16296	11786	0	736
49.621	25.424	16283	11699	0	736
49.657	29.066	16268	11699	0	736
51.641	28.381	16252	11851	0	736
49.585	26.758	16243	12122	0	736
46.304	23.368	16231	12350	0	736
42.986	16.769	16217	12480	0	736
38.370	13.271	16205	12632	0	736
34.620	8.871	16193	12903	0	736
33.934	8.222	16184	13185	0	736
34.583	10.422	16169	13337	0	736
36.026	13.776	16156	13380	0	736
38.478	14.208	16144	13467	0	736
38.514	15.867	16132	13684	0	736
39.849	16.625	16120	13998	0	736
41.724	19.221	16112	14313	0	736
44.501	23.404	16099	14508	0	736
47.133	28.561	16085	14443	0	736
47.422	30.725	16066	14194	0	736
44.753	27.299	16052	14107	0	736
41.507	23.837	16040	14313	0	736
40.209	21.168	16030	14595	0	736
44.356	23.332	16021	14888	0	736
51.064	29.968	16015	15235	0	736
59.899	39.272	16007	15528	0	736
64.154	43.635	15999	15690	0	736
62.243	44.248	15992	15896	0	736
56.581	39.416	15988	16309	0	736
49.874	33.934	15986	16731	0	736
48.539	31.266	15980	16937	0	736
50.126	30.076	15972	16969	0	736
53.228	29.102	15966	17013	0	736
51.424	27.155	15962	17132	0	736
46.376	21.024	15959	17338	0	736
35.882	14.533	15959	17566	0	736
27.660	6.094	15954	17761	0	736
17.310	-4.039	15954	17924	0	736
7.321	-12.766	15958	18184	0	736
-2.993	-25.316	15960	18542	0	736
-14.605	-34.944	15959	18705	0	736
-22.178	-41.940	15951	18390	0	736
-28.056	-47.133	15946	17880	0	736
-30.653	-51.100	15939	17663	0	736
-32.312	-54.165	15939	17739	0	736
-34.295	-57.266	15938	17848	0	736
-36.206	-59.178	15939	17978	0	736
-33.970	-57.158	15949	18314	0	736
-31.735	-54.850	15960	18921	0	736
-27.335	-50.307	15975	19637	0	736
-23.909	-47.962	15997	20407	0	736
-23.044	-47.205	16020	21188	0	736
-21.493	-46.809	16046	21980	0	736
-18.247	-45.438	16073	22728	0	736
-15.543	-40.966	16103	23466	0	736
-11.900	-36.170	16134	24160	0	736
-7.753	-32.276	16165	24702	0	736
-8.330	-30.472	16196	25028	0	736
-7.321	-31.230	16222	25180	0	736
-5.950	-31.662	16250	25223	0	736
-4.796	-31.230	16277	25158	0	736
-2.777	-29.823	16297	24865	0	736
0.361	-27.191	16317	24269	0	736
1.875	-25.316	16332	23553	0	736
2.633	-23.260	16349	22934	1	620
3.606	-20.555	16367	22436	0	620
6.924	-16.120	16384	21969	0	620
9.989	-12.297	16401	21579	0	620
14.569	-8.547	16420	21232	0	620
20.411	-2.200	16438	20830	0	620
26.001	3.895	16452	20353	0	620
34.475	11.035	16469	19843	0	620
42.301	20.483	16483	19399	0	620
49.297	27.479	16498	18997	0	620
53.841	32.744	16509	18488	0	620
52.831	32.780	16518	17924	0	620
51.641	33.033	16533	17566	0	620
51.352	33.033	16549	17468	0	620
53.985	34.656	16566	17403	0	620
56.978	38.478	16575	17154	0	620
60.188	42.265	16586	16763	0	620
63.217	45.655	16595	16384	0	620
66.751	51.821	16604	16103	0	620
77.966	68.590	16612	15842	0	620
97.692	90.263	16619	15560	0	620
116.336	111.035	16629	15376	0	620
126.650	123.188	16645	15506	0	620
127.984	120.050	16661	15886	0	620
118.860	114.353	16681	16200	0	620
115.507	112.009	16690	16319	0	620
119.437	116.589	16702	16233	0	620
128.489	126.253	16708	15962	0	620
137.865	133.141	16715	15690	0	620
139.776	132.456	16722	15473	0	620
134.331	127.732	16723	15213	0	620
127.047	122.358	16724	14834	0	620
119.942	115.723	16723	14421	0	620
115.110	111.540	16720	14020	0	620
109.340	104.508	16715	13619	0	620
101.118	95.853	16708	13185	0	620
90.588	81.284	16703	12740	0	620
74.829	65.813	16691	12317	0	620
57.663	47.530	16683	12003	0	620
42.229	31.807	16674	11775	0	620
26.650	15.146	16664	11547	0	620
9.953	-0.325	16654	11319	0	620
-6.419	-17.995	16641	11113	0	620
-24.053	-35.557	16623	10864	0	620
-39.272	-51.713	16604	10495	0	620
-53.624	-66.066	16586	10094	0	620
-62.568	-76.415	16568	9899	0	620
-70.177	-85.034	16550	9866	0	620
-73.819	-90.552	16530	9758	0	620
-76.524	-97.367	16510	9552	0	620
-78.796	-101.262	16484	9367	0	620
-77.750	-102.452	16464	9324	0	620
-76.307	-98.990	16444	9454	0	620
-68.518	-89.578	16427	9779	0	620
-55.968	-79.228	16413	10213	0	620
-40.750	-66.030	16399	10636	0	620
-25.893	-53.624	16387	11157	0	620
-13.884	-41.471	16384	11905	0	620
0.216	-25.676	16381	12773	0	620
14.245	-10.566	16375	13565	0	620
31.699	6.816	16370	14194	0	620
50.343	24.594	16367	14768	0	620
68.590	40.858	16365	15441	0	620
84.097	57.988	16369	16265	0	620
98.846	74.107	16375	17088	0	620
114.389	91.381	16378	17718	0	620
129.463	106.491	16378	18130	0	620
141.255	118.247	16381	18477	0	620
149.621	126.578	16383	18824	0	620
154.309	130.112	16385	19117	0	620
154.201	133.898	16386	19301	0	620
152.903	135.377	16386	19366	0	620
153.083	133.970	16386	19323	0	620
149.080	129.174	16385	19203	0	620
144.068	124.198	16384	19052	0	620
135.233	114.641	16381	18846	0	620
126.109	107.501	16375	18531	0	620
117.454	100.577	16365	18086	0	620
111.828	94.555	16351	17479	0	620
108.042	89.434	16341	16850	0	620
106.239	88.821	16334	16514	0	620
104.003	86.585	16328	16384	0	620
101.226	84.025	16316	16168	0	620
96.935	81.680	16304	15734	0	620
92.175	75.730	16288	15213	0	620
85.431	70.573	16275	14736	0	620
77.858	64.876	16262	14465	0	620
74.648	60.476	16252	14421	0	620
71.042	58.565	16244	14508	0	620
69.419	55.824	16235	14552	0	620
68.049	55.211	16225	14530	0	620
66.210	51.208	16219	14617	0	620
60.368	49.693	16217	14888	0	620
55.896	44.681	16211	15170	0	620
53.047	42.806	16209	15365	0	620
50.018	41.291	16205	15582	0	620
50.018	39.596	16204	15864	0	620
49.441	36.891	16200	16059	0	620
46.556	35.269	16196	16168	0	620
42.012	31.158	16192	16244	0	620
38.118	29.246	16189	16341	0	620
37.324	31.122	16185	16416	0	620
43.743	36.278	16182	16514	0	620
52.831	44.609	16180	16687	0	620
62.135	50.811	16178	16872	0	620
68.987	58.997	16176	16947	0	620
76.307	67.364	16176	16893	0	620
87.667	80.887	16172	16893	0	620
104.652	100.216	16169	16969	0	620
129.174	122.214	16164	16958	0	620
148.035	142.337	16160	16806	0	620
165.380	157.483	16156	16698	0	620
178.615	174.721	16153	16665	0	620
195.709	194.230	16147	16622	0	620
220.555	220.195	16143	16503	0	620
251.424	251.569	16137	16341	0	620
284.025	281.572	16130	16146	0	620
313.776	306.924	16120	15929	0	620
338.406	329.354	16112	15701	0	620
359.683	346.881	16100	15473	0	620
379.481	365.344	16093	15224	0	620
401.875	385.395	16079	14909	0	620
423.440	408.727	16063	14497	0	620
445.041	431.879	16046	14042	0	620
463.253	453.877	16032	13684	0	620
479.661	470.285	16021	13673	0	620
491.670	483.592	16021	14150	0	620
503.714	495.564	16021	14855	0	620
519.582	512.369	16021	15343	0	620
537.360	534.151	16020	15625	0	620
557.735	556.798	16019	15886	0	620
572.088	576.199	16015	16070	0	620
586.441	590.011	16012	16168	0	620
590.804	590.804	16007	16189	0	620
590.804	590.804	16000	16178	0	620
590.804	590.804	15995	16189	0	620
590.804	590.804	15993	16298	0	620
590.804	590.804	15991	16459	0	620
590.804	590.804	15986	16492	0	620
590.804	590.804	15980	16427	0	620
590.804	590.804	15978	16438	0	620
590.804	590.804	15978	16633	0	620
590.804	590.804	15980	16926	0	620
590.804	590.804	15979	17132	0	620
590.804	590.804	15975	17154	0	620
590.804	590.804	15968	16926	0	620
590.804	590.804	15960	16557	0	620
590.804	590.804	15958	16352	0	620
590.804	590.804	15951	16384	0	620
590.804	583.195	15954	16600	0	620
590.804	578.651	15958	16958	0	620
590.804	580.418	15960	17327	0	620
590.804	583.628	15971	17750	0	620
590.804	590.047	15987	18466	0	620
590.804	590.804	16004	19312	0	620
590.804	590.804	16017	19843	0	620
590.804	590.804	16027	19974	0	620
590.804	590.804	16037	20017	0	620
590.804	590.804	16048	20147	0	620
590.804	590.804	16058	20321	0	620
590.804	588.929	16074	20505	0	620
590.804	585.972	16091	20765	0	620
590.804	579.336	16106	21015	0	620
582.871	569.203	16120	21047	0	620
564.407	548.756	16131	20895	0	620
540.389	521.493	16147	20852	0	620
510.999	493.437	16165	21015	0	620
481.644	463.505	16182	21177	0	620
453.228	433.249	16204	21286	0	620
422.791	400.325	16225	21416	0	620
393.617	368.482	16246	21579	0	620
366.823	337.432	16266	21655	0	620
343.887	309.629	16283	21557	0	620
327.119	290.011	16304	21384	0	620
311.720	271.006	16324	21318	0	620
297.115	256.293	16349	21416	0	620
278.687	238.442	16370	21514	1	704
252.723	210.783	16387	21405	0	704
217.851	173.603	16407	21156	0	704
173.639	128.525	16427	20895	0	704
129.463	83.772	16446	20679	0	704
95.060	50.992	16463	20440	0	704
79.913	37.360	16483	20147	0	704
78.002	36.314	16496	19789	0	704
80.130	38.262	16509	19355	0	704
79.156	37.649	16522	18867	0	704
73.819	33.502	16530	18357	0	704
68.193	30.545	16538	17826	0	704
67.797	32.095	16543	17186	0	704
72.737	38.226	16545	16470	0	704
75.081	42.265	16546	15810	0	704
75.658	41.075	16546	15235	0	704
72.196	38.262	16550	14725	0	704
72.737	37.072	16546	14215	0	704
71.908	36.855	16542	13684	0	704
70.537	34.764	16535	13098	0	704
64.695	31.302	16529	12512	0	704
58.096	25.063	16524	12068	0	704
49.080	22.322	16516	11818	0	704
51.280	23.332	16506	11591	0	704
56.437	28.201	16500	11341	0	704
65.885	34.583	16489	11059	0	704
75.153	40.101	16479	10864	0	704
81.212	44.248	16473	10864	0	704
86.513	50.198	16465	10983	0	704
93.148	61.053	16454	11027	0	704
101.118	71.439	16443	10940	0	704
108.042	83.375	16431	10875	0	704
120.195	92.968	16420	10962	0	704
127.227	102.488	16411	11124	0	704
139.344	112.261	16401	11287	0	704
152.831	123.945	16393	11504	0	704
167.688	138.695	16386	11829	0	704
182.979	152.326	16382	12198	0	704
195.384	163.686	16377	12621	0	704
206.275	175.586	16374	13131	0	704
216.048	188.136	16371	13662	0	704
225.099	197.512	16369	14118	0	704
230.256	205.698	16363	14378	0	704
232.961	208.078	16357	14508	0	704
230.328	207.248	16351	14725	0	704
231.266	207.537	16348	15040	0	704
239.704	215.723	16348	15398	0	704
255.319	227.876	16348	15810	0	704
271.908	245.546	16351	16298	0	704
284.998	258.997	16354	16774	0	704
293.437	265.705	16354	17110	0	704
299.784	272.016	16355	17284	0	704
305.229	275.766	16354	17360	0	704
312.658	280.058	16350	17381	0	704
316.120	283.736	16350	17338	0	704
315.002	284.818	16344	17219	0	704
314.353	285.936	16337	17078	0	704
315.867	288.821	16334	16937	0	704
323.080	295.925	16325	16698	0	704
333.790	305.770	16316	16384	0	704
348.215	316.336	16312	16233	0	704
359.394	326.073	16314	16405	0	704
369.131	333.610	16312	16709	0	704
377.209	341.688	16311	16817	0	704
389.722	353.768	16304	16655	0	704
408.114	374.071	16303	16503	0	704
438.334	400.721	16301	16524	0	704
470.609	433.754	16296	16546	0	704
503.570	463.325	16292	16492	0	704
528.345	487.378	16288	16427	0	704
544.825	505.193	16284	16384	0	704
557.086	516.084	16284	16374	0	704
562.135	521.313	16279	16405	0	704
562.423	521.529	16279	16459	0	704
559.214	519.005	16275	16438	0	704
554.201	518.860	16271	16374	0	704
553.119	523.260	16268	16352	0	704
556.257	532.780	16270	16416	0	704
562.964	543.527	16268	16492	0	704
566.030	550.090	16262	16438	0	704
567.400	556.473	16258	16287	0	704
571.872	561.342	16255	16200	0	704
576.451	568.338	16251	16233	0	704
581.284	576.956	16250	16244	0	704
585.395	581.176	16246	16211	0	704
580.130	577.209	16244	16265	0	704
575.225	573.314	16242	16352	0	704
569.960	568.157	16239	16330	0	704
565.489	561.918	16237	16233	0	704
555.608	552.939	16233	16135	0	704
537.577	533.213	16226	16037	0	704
510.566	506.599	16219	15875	0	704
481.933	477.173	16211	15680	0	704
455.283	451.136	16206	15560	0	704
433.862	430.292	16202	15506	0	704
417.310	414.353	16197	15484	0	704
401.983	396.718	16189	15398	0	704
386.982	380.346	16178	15159	0	704
371.150	363.109	16172	14899	0	704
350.523	338.478	16164	14834	0	704
320.808	306.924	16159	14985	0	704
279.697	264.695	16153	15116	0	704
232.961	219.005	16145	15072	0	704
184.097	172.773	16136	14866	0	704
141.003	131.085	16123	14638	0	704
106.203	98.594	16114	14486	0	704
73.494	63.830	16104	14465	0	704
37.360	27.912	16098	14530	0	704
-5.013	-13.018	16086	14530	0	704
-51.208	-56.437	16078	14454	0	704
-90.696	-94.951	16071	14497	0	704
-120.736	-123.945	16063	14703	0	704
-143.347	-144.248	16058	14920	0	704
-165.128	-167.833	16052	15007	0	704
-191.093	-193.401	16044	15083	0	704
-219.978	-222.899	16038	15235	0	704
-246.232	-249.513	16030	15343	0	704
-260.765	-268.518	16021	15332	0	704
-273.999	-280.418	16015	15322	0	704
-288.063	-299.207	16008	15376	0	704
-306.708	-317.887	16004	15549	0	704
-328.201	-339.055	16001	15842	0	704
-345.114	-357.952	16001	16244	0	704
-360.801	-371.763	16007	16676	0	704
-378.002	-389.578	16008	17099	0	704
-401.695	-411.792	16008	17338	0	704
-434.656	-441.399	16005	17370	0	704
-469.347	-473.170	16004	17262	0	704
-508.114	-510.242	15997	17154	0	704
-544.428	-550.415	15993	17099	0	704
-582.943	-590.840	15988	17067	0	704
-590.840	-590.840	15984	16958	0	704
-590.840	-590.840	15978	16796	0	704
-590.840	-590.840	15974	16665	0	704
-590.840	-590.840	15971	16644	0	704
-590.840	-590.840	15972	16796	0	704
-590.840	-590.840	15971	17002	0	704
-590.840	-590.840	15968	17088	0	704
-590.840	-590.840	15972	17175	0	704
-590.840	-590.840	15978	17490	0	704
-590.840	-590.840	15991	18021	0	704
-590.840	-590.840	15999	18520	0	704
-584.998	-590.840	16008	18921	0	704
-549.044	-572.016	16027	19453	0	704
-510.819	-532.816	16046	20212	0	704
-480.635	-499.784	16071	21047	0	704
-458.637	-477.533	16098	21817	0	704
-444.284	-460.404	16123	22490	0	704
-431.662	-445.041	16151	23086	0	704
-411.648	-424.919	16182	23661	0	704
-387.198	-402.128	16215	24269	0	704
-364.731	-382.726	16248	24843	0	704
-343.347	-364.263	16279	25169	0	704
-326.650	-348.467	16301	25028	0	704
-306.455	-327.155	16322	24561	0	704
-283.087	-304.111	16345	24138	0	704
-260.007	-279.841	16370	23900	0	704
-242.625	-263.253	16390	23618	1	628
-228.922	-249.369	16407	23184	0	628
-219.618	-238.514	16426	22652	0	628
-208.006	-229.066	16446	22099	0	628
-197.908	-217.995	16460	21590	0	628
-188.965	-210.458	16479	21026	0	628
-186.909	-210.097	16487	20299	0	628
-184.457	-205.734	16496	19410	0	628
-180.346	-198.594	16498	18477	0	628
-170.465	-189.037	16502	17511	0	628
-157.591	-176.091	16502	16590	0	628
-146.772	-167.833	16504	15896	0	628
-134.115	-159.358	16510	15408	0	628
-120.231	-148.684	16512	14996	0	628
-106.744	-136.098	16517	14703	0	628
26.217	19.293	16149	13879	0	636
28.922	22.286	16136	13749	0	636
34.403	26.650	16124	13738	0	636
37.505	27.479	16112	13760	0	636
37.793	27.479	16099	13727	0	636
36.711	26.974	16086	13706	0	636
34.439	26.866	16081	13847	0	636
32.095	25.171	16073	14096	0	636
31.807	22.467	16063	14291	0	636
29.607	19.906	16052	14356	0	636
28.814	15.795	16041	14400	0	636
27.299	16.336	16033	14530	0	636
29.751	18.175	16027	14714	0	636
31.771	22.791	16017	14866	0	636
33.069	23.549	16008	14996	0	636
33.718	24.306	16001	15181	0	636
31.879	24.739	15997	15452	0	636
29.427	23.188	15997	15842	0	636
29.679	22.899	15997	16319	0	636
29.318	24.991	15999	16817	0	636
32.095	23.152	16001	17316	0	636
32.420	21.781	16008	17848	0	636
30.581	21.241	16019	18488	0	636
28.489	20.087	16032	19193	0	636
25.748	21.277	16045	19822	0	636
24.162	19.257	16057	20321	0	636
24.089	18.680	16070	20765	0	636
26.217	16.156	16086	21210	0	636
28.164	14.317	16103	21633	0	636
28.633	14.064	16123	22045	0	636
29.354	17.454	16140	22425	0	636
29.102	16.625	16159	22685	0	636
28.489	19.149	16176	22739	0	636
27.624	18.716	16193	22718	0	636
29.102	19.978	16217	22934	0	636
28.741	20.267	16244	23390	0	636
27.696	20.339	16271	23748	0	636
27.984	22.070	16291	23748	0	636
27.696	22.034	16312	23498	0	636
29.391	23.765	16330	23238	0	636
33.429	26.686	16351	23086	0	636
37.144	28.345	16374	22902	0	636
39.308	29.354	16390	22587	0	636
35.954	29.318	16410	22251	0	636
32.600	26.650	16427	21980	0	636
26.938	23.657	16447	21731	0	636
23.224	20.627	16467	21438	0	636
25.207	21.745	16484	21069	0	636
29.679	22.683	16502	20700	0	636
33.141	24.811	16518	20364	0	636
37.036	29.210	16538	20060	0	636
37.757	30.689	16557	19843	0	636
35.990	29.571	16576	19702	0	636
32.492	27.660	16590	19388	0	636
29.787	21.709	16596	18639	0	636
25.460	16.156	16601	17663	0	636
22.431	10.386	16605	16937	0	636
18.536	9.232	16612	16546	0	636
18.644	10.278	16621	16189	0	636
20.303	13.018	16628	15766	0	636
20.195	14.317	16634	15441	0	636
23.080	16.444	16638	15224	0	636
24.162	16.480	16645	14964	0	636
25.929	18.824	16649	14714	0	636
29.066	21.637	16657	14584	0	636
28.886	23.008	16658	14443	0	636
22.070	16.444	16658	14118	0	636
13.631	8.907	16657	13651	0	636
5.445	0.577	16656	13272	0	636
0.144	-1.515	16654	13033	0	636
5.698	3.101	16648	12816	0	636
13.343	11.576	16642	12545	0	636
18.356	15.435	16634	12252	0	636
23.080	20.411	16631	12035	0	636
22.575	20.555	16624	11938	0	636
21.168	20.952	16617	11916	0	636
24.342	24.847	16609	11883	0	636
27.119	27.407	16603	11818	0	636
33.754	31.482	16595	11797	0	636
38.803	36.603	16590	11873	0	636
43.996	41.652	16583	12024	0	636
47.277	46.809	16576	12165	0	636
48.612	50.162	16566	12220	0	636
45.510	47.746	16557	12230	0	636
39.849	44.681	16550	12350	0	636
35.052	41.327	16543	12588	0	636
38.622	43.022	16537	12849	0	636
47.494	49.116	16531	13001	0	636
57.807	57.916	16518	13044	0	636
66.751	62.712	16509	13033	0	636
67.652	62.568	16498	13098	0	636
65.236	61.197	16491	13283	0	636
62.532	60.260	16483	13478	0	636
65.092	62.928	16473	13673	0	636
70.754	68.374	16469	13944	0	636
75.766	74.432	16464	14324	0	636
78.940	76.704	16465	14801	0	636
81.536	76.560	16465	15376	0	636
83.051	77.822	16469	15972	0	636
84.890	80.563	16471	16481	0	636
91.742	84.529	16476	16904	0	636
95.492	91.634	16476	17273	0	636
95.709	94.807	16480	17566	0	636
98.017	98.630	16483	17804	0	636
100.649	103.210	16484	17945	0	636
107.645	108.330	16480	17945	0	636
115.579	113.956	16484	17913	0	636
124.594	119.257	16485	18065	0	636
127.984	122.250	16493	18357	0	636
132.528	128.309	16493	18477	0	636
133.970	132.961	16491	18260	0	636
138.550	138.478	16487	17848	0	636
141.507	142.301	16476	17360	0	636
147.169	144.428	16467	16850	0	636
150.956	145.618	16457	16330	0	636
152.867	145.005	16439	15712	0	636
152.398	146.232	16424	15040	0	636
150.198	143.815	16410	14486	0	636
147.494	141.003	16397	14183	0	636
143.924	138.731	16386	14063	0	636
142.986	135.737	16377	13988	0	636
140.678	134.403	16365	13901	0	636
138.334	131.626	16354	13771	0	636
137.901	128.669	16337	13499	0	636
137.505	126.686	16322	13174	0	636
134.043	119.906	16308	13033	0	636
129.607	115.543	16296	13076	0	636
122.214	108.547	16284	13207	0	636
118.283	102.669	16277	13434	0	636
115.435	97.692	16270	13771	0	636
115.290	95.889	16264	14150	0	636
111.540	93.473	16262	14519	0	636
105.950	88.929	16255	14899	0	636
93.906	79.084	16252	15289	0	636
80.238	66.787	16251	15636	0	636
69.023	57.807	16246	15983	0	636
60.692	51.244	16248	16287	0	636
57.519	47.638	16243	16481	0	636
57.447	45.691	16239	16590	0	636
54.922	40.534	16231	16546	0	636
51.244	31.951	16225	16481	0	636
44.176	25.676	16225	16676	0	636
37.829	22.827	16229	17154	0	636
34.836	21.204	16230	17555	0	636
34.259	24.089	16229	17609	0	636
34.403	26.217	16222	17403	0	636
36.783	27.299	16215	17186	0	636
38.658	29.787	16210	17099	0	636
43.743	34.692	16210	17132	0	636
47.277	38.622	16204	17088	1	1064
48.792	44.212	16197	16882	0	1064
52.398	47.638	16190	16655	0	1064
54.093	52.398	16186	16600	0	1064
60.115	56.581	16186	16676	0	1064
68.698	65.994	16184	16774	0	1064
76.415	74.035	16180	16774	0	1064
82.330	81.212	16176	16720	0	1064
85.755	83.448	16172	16665	0	1064
85.539	88.316	16169	16579	0	1064
88.136	88.713	16160	16384	0	1064
88.208	91.129	16152	16092	0	1064
89.290	90.876	16143	15810	0	1064
88.316	90.299	16134	15636	0	1064
87.703	85.647	16131	15604	0	1064
86.369	86.008	16126	15669	0	1064
90.480	86.982	16118	15690	0	1064
95.168	94.446	16110	15473	0	1064
102.200	99.748	16090	14931	0	1064
105.085	102.633	16073	14291	0	1064
106.094	103.967	16060	13922	0	1064
105.986	103.750	16046	13803	0	1064
107.068	105.590	16033	13781	0	1064
111.071	109.665	16027	13847	0	1064
114.245	111.432	16019	14031	0	1064
113.523	110.674	16015	14389	0	1064
115.398	111.432	16019	15029	0	1064
116.697	113.668	16024	15810	0	1064
120.014	120.736	16025	16363	0	1064
125.063	124.198	16024	16514	0	1064
124.053	125.568	16019	16492	0	1064
119.798	117.526	16017	16524	0	1064
110.638	109.592	16013	16720	0	1064
104.580	103.173	16017	17034	0	1064
102.019	101.659	16019	17349	0	1064
102.272	102.272	16020	17555	0	1064
102.164	103.426	16021	17707	0	1064
98.233	97.259	16025	17902	0	1064
83.916	84.025	16028	18151	0	1064
69.239	67.977	16037	18433	0	1064
54.526	51.533	16044	18737	0	1064
44.645	42.661	16053	19062	0	1064
40.173	38.262	16065	19366	0	1064
34.620	33.934	16073	19637	0	1064
27.227	27.551	16085	19898	0	1064
17.238	18.824	16097	20180	0	1064
9.484	9.268	16114	20462	0	1064
4.616	4.508	16130	20798	0	1064
1.226	0.433	16152	21286	0	1064
-1.226	-2.092	16178	21882	0	1064
-3.750	-6.094	16200	22381	0	1064
-6.924	-10.206	16223	22707	0	1064
-9.052	-10.350	16250	22934	0	1064
-12.766	-12.550	16272	23086	0	1064
-14.208	-12.441	16295	23173	0	1064
-18.464	-11.756	16318	23184	0	1064
-16.516	-13.776	16342	23141	0	1064
-20.519	-18.211	16365	23141	0	1064
-21.745	-24.450	16391	23184	0	1064
-30.436	-35.918	16417	23195	0	1064
-41.219	-47.205	16439	23086	0	1064
-51.929	-56.076	16464	22859	0	1064
-57.447	-61.197	16484	22511	0	1064
-63.794	-64.803	16500	21904	0	1064
-70.465	-72.701	16510	21091	0	1064
-79.445	-80.707	16522	20342	0	1064
-87.667	-91.021	16537	19767	0	1064
-94.519	-96.538	16546	19225	0	1064
-93.761	-99.207	16553	18564	0	1064
-92.824	-98.197	16563	17880	0	1064
-96.105	-100.180	16572	17436	0	1064
-101.479	-103.750	16582	17067	0	1064
-108.006	-110.169	16583	16405	0	1064
-115.254	-113.559	16582	15528	0	1064
-116.697	-118.067	16579	14736	0	1064
-116.552	-122.611	16579	14172	0	1064
-117.490	-125.099	16579	13781	0	1064
-118.428	-128.814	16579	13532	0	1064
-117.779	-132.167	16583	13380	0	1064
-119.221	-133.538	16583	13228	1	316
-122.575	-135.954	16584	13131	0	316
-127.155	-141.724	16588	13142	0	316
-136.459	-148.792	16595	13304	0	316
-145.186	-155.608	16599	13554	0	316
-151.605	-162.532	16603	13716	0	316
-152.470	-165.669	16605	13792	0	316
-157.771	-170.609	16609	13912	0	316
-163.722	-178.146	16616	14139	0	316
-173.530	-186.224	16621	14345	0	316
-179.409	-190.912	16621	14400	0	316
-179.913	-190.588	16619	14335	0	316
-175.947	-185.611	16616	14139	0	316
-173.314	-183.520	16611	13825	0	316
-175.658	-187.486	16603	13521	0	316
-179.481	-191.814	16596	13293	0	316
-181.212	-194.519	16586	13131	0	316
-175.838	-189.903	16579	12946	0	316
-168.734	-179.084	16568	12729	0	316
-157.591	-168.374	16563	12675	0	316
-143.094	-156.401	16564	12990	0	316
-125.748	-139.596	16564	13554	0	316
-103.606	-117.815	16563	13955	0	316
-78.327	-92.391	16562	14139	0	316
-57.447	-68.229	16558	14291	0	316
-42.625	-50.415	16557	14465	0	316
-29.499	-36.675	16553	14638	0	316
-22.214	-26.650	16549	14758	0	316
-10.999	-16.805	16543	14747	0	316
1.370	-4.255	16533	14573	0	316
14.136	8.511	16522	14302	0	316
29.210	21.313	16509	13998	0	316
39.921	34.908	16498	13814	0	316
46.051	43.671	16487	13727	0	316
46.700	45.258	16473	13619	0	316
44.645	44.320	16464	13532	0	316
43.924	46.917	16452	13586	0	316
50.739	55.716	16450	13814	0	316
65.669	71.331	16444	14194	0	316
80.671	89.073	16439	14606	0	316
90.299	97.223	16440	14996	0	316
86.116	94.879	16439	15387	0	316
76.668	84.457	16439	15821	0	316
62.784	70.429	16439	16211	0	316
55.319	61.810	16440	16514	0	316
54.886	60.368	16443	16796	0	316
61.955	64.190	16440	17023	0	316
66.282	69.383	16443	17197	0	316
66.607	69.023	16444	17349	0	316
58.961	60.692	16440	17457	0	316
47.061	49.189	16436	17327	0	316
35.521	36.314	16427	16937	0	316
28.886	28.525	16418	16546	0	316
26.037	24.558	16411	16352	0	316
26.794	24.991	16405	16233	0	316
24.017	23.945	16399	16103	0	316
24.522	22.863	16390	15962	0	316
23.404	23.549	16384	15831	0	316
22.935	21.132	16378	15723	0	316
21.926	23.621	16370	15636	0	316
21.385	25.460	16367	15560	0	316
20.014	25.640	16357	15452	0	316
22.142	27.263	16344	15213	0	316
27.948	31.013	16329	14834	0	316
36.242	36.639	16314	14378	0	316
46.845	47.602	16289	13760	0	316
59.611	57.339	16264	12925	0	316
66.967	67.472	16235	12057	0	316
73.999	74.612	16205	11395	0	316
80.707	82.149	16186	11092	0	316
88.172	89.722	16167	11200	0	316
99.928	99.098	16152	11547	0	316
108.655	107.717	16143	11959	0	316
119.365	115.939	16132	12415	0	316
125.965	122.575	16124	12968	0	316
135.774	132.420	16119	13586	0	316
146.809	142.445	16116	14248	0	316
159.719	155.139	16114	14975	0	316
167.797	164.840	16118	15690	0	316
174.540	174.721	16118	16341	0	316
179.661	180.779	16120	16947	0	316
186.657	186.585	16126	17566	0	316
196.646	194.014	16131	18238	0	316
208.330	205.481	16139	18824	0	316
221.024	216.877	16137	19062	0	316
230.653	229.535	16134	18943	0	316
236.603	238.406	16137	18878	0	316
239.740	242.445	16137	18976	0	316
241.471	243.238	16136	19030	0	316
244.104	243.310	16137	18965	0	316
249.621	246.520	16136	18856	0	316
255.572	251.172	16131	18694	0	316
262.568	255.896	16132	18531	0	316
266.390	259.719	16136	18574	0	316
269.383	263.289	16140	18824	0	316
267.688	261.486	16144	18965	0	316
263.758	259.106	16143	18726	0	316
259.178	254.778	16132	18162	0	316
255.896	248.467	16126	17555	0	316
255.896	246.340	16120	17110	0	316
257.158	246.700	16111	16785	0	316
261.305	248.251	16103	16384	0	316
265.308	252.074	16091	15940	0	316
267.147	254.778	16085	15625	0	316
270.285	258.853	16081	15528	0	316
275.009	263.866	16077	15571	0	316
276.632	267.977	16073	15614	0	316
283.988	273.278	16070	15604	0	316
289.686	278.146	16063	15571	0	316
297.367	283.267	16060	15549	0	316
302.308	290.696	16057	15517	0	316
310.602	298.846	16052	15495	0	316
317.779	308.186	16045	15473	0	316
325.712	316.300	16041	15473	0	316
332.672	324.630	16040	15571	0	316
338.911	329.787	16044	15853	0	316
344.717	336.603	16045	16244	0	316
351.028	338.875	16046	16524	0	316
355.932	342.157	16048	16698	0	316
360.476	344.573	16052	16904	0	316
361.955	346.953	16057	17186	0	316
363.613	350.054	16060	17446	0	316
367.436	353.444	16063	17598	0	316
369.203	357.303	16067	17739	0	316
373.422	356.798	16074	17913	0	316
372.304	356.076	16078	18075	0	316
372.376	355.572	16087	18303	0	316
370.177	355.067	16100	18759	0	316
370.970	356.185	16116	19312	0	316
370.501	355.572	16126	19626	0	316
372.016	356.004	16137	19637	0	316
374.324	355.499	16144	19518	0	316
379.950	358.817	16152	19475	0	316
388.929	366.715	16164	19583	0	316
400.649	381.067	16177	19767	0	316
413.127	396.177	16189	19887	0	316
426.506	410.674	16204	19963	0	316
434.403	419.870	16223	20245	0	316
437.072	423.729	16246	20733	0	316
435.846	419.510	16271	21232	0	316
431.951	417.743	16292	21600	0	316
430.508	418.320	16317	21893	0	316
433.970	424.198	16345	22197	0	316
438.045	428.850	16371	22511	0	316
435.918	429.138	16393	22642	0	316
429.427	419.257	16411	22468	0	316
416.264	402.488	16430	22067	0	316
397.259	384.854	16446	21622	0	316
379.120	364.118	16464	21340	0	316
355.211	342.193	16489	21275	1	596
333.574	321.529	16506	21210	0	596
311.937	298.594	16525	20982	0	596
291.670	276.596	16545	20624	0	596
269.636	252.506	16559	20245	0	596
242.878	225.027	16575	19854	0	596
212.441	193.040	16588	19431	0	596
181.031	163.109	16596	18824	0	596
152.038	134.151	16598	17934	0	596
124.883	109.881	16592	16785	0	596
102.128	87.162	16591	15734	0	596
78.940	63.000	16588	14953	0	596
59.394	42.517	16588	14411	0	596
41.183	24.883	16586	14009	0	596
26.433	7.753	16584	13619	0	596
13.704	-2.344	16579	13142	0	596
3.282	-13.018	16578	12719	0	596
-6.527	-21.818	16579	12675	0	596
-18.680	-32.853	16583	12881	0	596
-33.177	-46.989	16582	12935	0	596
-49.153	-62.748	16579	12773	0	596
-66.679	-81.464	16575	12578	0	596
-83.952	-98.017	16570	12415	0	596
-100.938	-116.156	16563	12274	0	596
-120.195	-135.846	16559	12133	0	596
-140.750	-156.473	16550	11992	0	596
-161.558	-176.163	16542	11905	0	596
-182.438	-195.168	16535	11894	0	596
-202.236	-212.730	16531	12057	0	596
-222.070	-229.787	16526	12339	0	596
-240.570	-249.838	16524	12578	0	596
-261.882	-269.239	16517	12697	0	596
-282.185	-286.621	16513	12860	0	596
-305.590	-307.501	16512	13152	0	596
-327.696	-328.525	16509	13543	0	596
-350.487	-351.929	16506	13901	0	596
-370.357	-374.576	16505	14161	0	596
-389.867	-393.833	16504	14400	0	596
-406.455	-409.556	16504	14693	0	596
-421.204	-422.431	16504	15050	0	596
-434.151	-435.810	16504	15398	0	596
-445.510	-445.546	16500	15560	0	596
-453.228	-455.103	16489	15311	0	596
-461.918	-463.902	16472	14747	0	596
-470.141	-473.603	16463	14324	0	596
-480.671	-483.087	16454	14237	0	596
-489.650	-492.283	16443	14280	0	596
-498.125	-499.531	16436	14324	0	596
-504.652	-505.662	16427	14367	0	596
-513.343	-515.110	16419	14443	0	596
-523.296	-527.479	16413	14573	0	596
-538.658	-542.445	16406	14714	0	596
-559.106	-562.099	16401	14866	0	596
-576.740	-582.871	16398	15061	0	596
-590.840	-590.840	16394	15311	0	596
-590.840	-590.840	16391	15539	0	596
-590.840	-590.840	16387	15755	0	596
-590.840	-590.840	16387	16059	0	596
-590.840	-590.840	16387	16438	0	596
-590.840	-590.840	16390	16785	0	596
-590.840	-590.840	16391	17023	0	596
-590.840	-590.840	16397	17338	0	596
-590.840	-590.840	16403	17815	0	596
-590.840	-590.840	16410	18292	0	596
-590.840	-590.840	16417	18574	0	596
-590.840	-590.840	16419	18672	0	596
-590.840	-590.840	16424	18726	0	596
-590.840	-590.840	16427	18824	0	596
-590.840	-590.840	16431	18867	0	596
-590.840	-590.840	16432	18770	0	596
-590.840	-590.840	16434	18574	0	596
-590.840	-590.840	16434	18347	0	596
-590.840	-590.840	16432	18141	0	596
-590.840	-590.840	16434	17989	0	596
-590.840	-590.840	16436	17869	0	596
-590.840	-590.840	16434	17652	0	596
-590.840	-590.840	16430	17295	0	596
-590.840	-590.840	16423	16850	0	596
-590.840	-590.840	16418	16405	0	596
-590.840	-590.840	16407	15983	0	596
-590.840	-590.840	16398	15528	0	596
-590.840	-590.840	16387	15094	0	596
-590.840	-590.840	16382	14768	0	596
-590.840	-590.840	16374	14595	0	596
-590.840	-590.840	16365	14465	0	596
-590.840	-590.840	16355	14291	0	596
-590.840	-590.840	16348	14118	0	596
-590.840	-590.840	16337	13998	0	596
-590.840	-590.840	16330	13912	0	596
-590.840	-590.840	16317	13825	0	596
-590.840	-590.840	16309	13749	0	596
-590.840	-590.840	16303	13749	0	596
-590.840	-590.840	16292	13814	0	596
-590.840	-590.840	16281	13803	0	596
-590.840	-590.840	16271	13684	0	596
-590.840	-590.840	16252	13478	0	596
-590.840	-590.840	16233	13066	0	596
-590.840	-590.840	16210	12480	0	596
-590.840	-590.840	16189	12014	0	596
-590.840	-590.840	16169	11786	0	596
-590.840	-590.840	16151	11786	0	596
-590.840	-590.840	16137	11959	0	596
-590.840	-590.840	16124	12274	0	596
-590.840	-590.840	16116	12697	0	596
-590.840	-590.840	16106	13185	0	596
-590.840	-590.840	16103	13673	0	596
-590.840	-590.840	16097	14215	0	596
-590.840	-590.840	16098	14877	0	596
-590.840	-590.840	16097	15614	0	596
-590.840	-590.840	16098	16211	0	596
-590.840	-590.840	16093	16590	0	596
-590.840	-590.840	16093	16861	0	596
-586.837	-586.549	16087	17099	0	596
-568.446	-569.708	16087	17284	0	596
-554.562	-556.762	16083	17392	0	596
-545.618	-545.763	16073	17295	0	596
-537.865	-537.432	16065	17045	0	596
-524.847	-522.863	16058	16915	0	596
-507.862	-504.255	16052	16958	0	596
-490.408	-486.873	16046	17013	0	596
-474.576	-471.259	16044	17067	0	596
-464.118	-463.577	16037	17013	0	596
-458.457	-458.709	16027	16774	0	596
-452.001	-453.336	16013	16459	0	596
-444.356	-443.347	16004	16200	0	596
-429.535	-427.768	15997	16037	0	596
-412.514	-408.258	15986	15896	0	596
-391.417	-389.542	15971	15614	0	596
-369.852	-369.816	15959	15278	0	596
-348.395	-348.756	15947	15105	0	596
-325.352	-326.470	15935	15061	0	596
-302.128	-302.849	15925	14953	0	596
-277.966	-277.137	15909	14768	0	596
-252.038	-250.631	15900	14649	0	596
-224.991	-223.693	15892	14714	0	596
-199.026	-194.122	15886	14996	0	596
-169.744	-167.688	15886	15452	0	596
-143.743	-141.291	15886	16005	0	596
-115.326	-113.776	15893	16600	0	596
-84.602	-85.323	15900	17229	0	596
-50.631	-52.651	15906	17869	0	596
-18.175	-20.519	15920	18564	0	596
11.215	8.655	15933	19355	0	596
38.731	37.360	15951	20136	0	596
64.190	64.948	15972	20885	0	596
91.778	93.725	15995	21698	0	596
121.926	123.404	16021	22587	0	596
148.864	150.523	16050	23433	0	596
175.081	176.055	16078	24030	0	596
198.449	201.154	16098	24203	0	596
223.044	224.270	16114	24062	0	596
248.756	253.768	16137	23965	0	596
277.714	282.726	16160	24052	0	596
305.842	312.009	16186	24225	0	596
332.636	338.947	16213	24377	0	596
359.106	364.731	16242	24529	0	596
380.707	384.205	16272	24713	0	596
399.567	401.515	16303	24887	0	596
414.966	416.408	16338	25017	0	596
429.174	430.797	16371	25125	0	596
442.878	445.763	16398	25049	0	596
458.384	462.099	16420	24616	1	644
473.314	476.199	16444	23943	0	644
486.080	488.532	16467	23314	0	644
496.394	496.466	16487	22783	0	644
502.308	501.515	16510	22327	0	644
504.904	505.734	16533	21882	0	644
504.760	504.291	16553	21405	0	644
502.019	502.524	16572	20874	0	644
500.180	500.541	16595	20397	0	644
500.938	500.469	16612	19995	0	644
504.003	501.767	16631	19561	0	644
505.481	502.092	16648	18965	0	644
503.714	499.459	16657	18282	0	644
499.892	496.177	16670	17663	0	644
494.050	491.958	16678	17056	0	644
491.598	491.309	16683	16330	0	644
490.804	486.549	16685	15463	0	644
485.864	484.169	16685	14638	0	644
480.707	478.579	16689	14020	0	644
472.340	469.455	16690	13575	0	644
464.984	463.758	16691	13207	0	644
460.007	457.303	16691	12816	0	644
457.339	453.155	16687	12371	0	644
454.850	452.723	16683	11894	0	644
454.742	452.795	16682	11525	0	644
455.463	453.155	16674	11309	0	644
455.536	452.074	16670	11124	0	644
453.191	449.838	16662	10907	0	644
451.280	445.871	16656	10701	0	644
446.989	440.606	16648	10582	0	644
441.399	435.485	16642	10582	0	644
430.869	427.299	16637	10669	0	644
421.313	415.435	16624	10680	0	644
406.996	405.698	16611	10473	0	644
397.728	395.096	16596	10137	0	644
390.011	387.847	16578	9834	0	644
385.755	383.556	16562	9671	0	644
379.445	377.137	16546	9693	0	644
375.514	370.393	16531	9812	0	644
369.095	361.955	16518	10007	0	644
365.020	357.699	16506	10267	0	644
360.692	354.814	16498	10734	0	644
355.644	352.867	16497	11439	0	644
348.936	346.195	16492	12209	0	644
338.911	336.964	16489	12784	0	644
328.994	325.099	16480	13163	0	644
319.149	313.704	16477	13543	0	644
314.064	307.032	16472	14009	0	644
312.081	304.111	16467	14400	0	644
309.845	301.983	16456	14573	0	644
304.544	302.164	16450	14649	0	644
299.315	297.728	16443	14812	0	644
292.138	293.761	16436	15105	0	644
285.864	288.136	16432	15473	0	644
282.113	283.015	16431	15864	0	644
280.563	277.966	16430	16211	0	644
278.219	274.721	16427	16546	0	644
273.494	266.607	16430	16915	0	644
265.633	259.250	16432	17316	0	644
256.293	252.074	16434	17696	0	644
246.845	247.133	16434	17956	0	644
243.310	244.284	16436	18086	0	644
241.003	242.012	16438	18195	0	644
239.740	237.252	16438	18336	0	644
233.718	232.889	16444	18520	0	644
225.820	223.440	16444	18618	0	644
220.123	216.841	16438	18412	0	644
218.500	212.622	16432	17945	0	644
221.349	211.035	16424	17479	0	644
221.601	211.864	16417	17099	0	644
219.978	212.297	16406	16709	0	644
213.091	209.016	16398	16374	0	644
205.229	202.813	16390	16113	0	644
198.125	194.194	16383	15896	0	644
195.781	188.713	16375	15690	0	644
189.975	181.067	16371	15669	0	644
185.828	176.055	16370	15853	0	644
179.156	172.485	16365	15983	0	644
175.081	170.970	16358	15842	0	644
173.711	173.422	16349	15517	0	644
176.415	175.442	16338	15278	0	644
178.399	174.829	16336	15257	0	644
175.802	169.744	16330	15398	0	644
169.780	160.512	16329	15604	0	644
159.791	149.297	16325	15755	0	644
150.090	141.832	16321	15821	0	644
145.186	137.721	16317	15853	0	644
142.120	136.026	16314	15907	0	644
139.668	136.062	16309	15951	0	644
138.947	133.429	16304	15875	0	644
136.747	130.508	16295	15712	0	644
134.259	126.433	16289	15571	0	644
131.915	123.512	16283	15604	0	644
130.689	120.447	16279	15712	0	644
128.381	120.555	16272	15745	0	644
128.237	120.627	16268	15690	0	644
130.797	124.378	16262	15669	0	644
129.859	124.378	16251	15560	0	644
126.289	122.972	16239	15246	0	644
120.375	117.310	16226	14834	0	644
112.009	111.287	16211	14530	0	644
107.032	107.176	16196	14194	0	644
106.816	106.419	16177	13738	0	644
110.314	106.419	16163	13391	0	644
112.514	106.996	16145	13261	0	644
110.206	105.049	16134	13261	0	644
106.888	102.705	16119	13315	0	644
102.560	98.269	16106	13272	0	644
96.827	93.076	16091	13228	0	644
95.961	90.191	16087	13565	0	644
92.175	83.015	16085	14280	0	644
86.044	78.291	16083	14909	0	644
81.861	73.603	16078	15246	0	644
79.084	71.727	16071	15452	0	644
79.805	73.783	16070	15755	0	644
82.762	76.163	16070	16168	0	644
83.448	78.868	16066	16524	0	644
83.484	77.281	16060	16655	0	644
81.897	76.271	16048	16416	0	644
81.753	75.334	16041	16200	0	644
83.808	75.081	16040	16416	0	644
85.936	74.829	16040	16904	0	644
83.592	73.062	16041	17284	0	644
80.346	71.295	16040	17468	0	644
77.065	68.590	16038	17522	0	644
73.206	67.833	16041	17685	0	644
72.485	66.715	16045	18032	0	644
71.403	64.371	16048	18412	0	644
69.095	61.342	16053	18672	0	644
66.859	59.070	16058	18824	0	644
67.328	58.997	16061	18911	0	644
68.770	62.387	16063	18943	0	644
70.501	65.453	16065	18878	0	644
69.672	64.335	16066	18694	0	644
65.597	58.529	16063	18455	0	644
60.296	52.398	16065	18249	0	644
53.300	44.428	16063	18086	0	644
50.126	40.786	16061	17913	0	644
46.087	40.534	16058	17707	0	644
41.471	37.180	16058	17501	0	644
40.462	35.449	16054	17251	0	644
39.668	34.872	16048	16937	0	644
41.111	35.918	16046	16720	0	644
42.734	36.242	16053	16872	0	644
42.950	35.701	16061	17305	0	644
39.957	34.692	16067	17663	0	644
40.606	34.872	16074	17859	0	644
44.356	38.190	16083	18043	0	644
47.782	41.976	16087	18184	0	644
49.441	44.933	16099	18314	0	644
47.313	39.596	16110	18542	0	644
39.199	32.636	16120	18813	0	644
31.771	23.512	16130	18987	0	644
24.739	18.428	16144	19214	0	644
22.034	14.930	16164	19626	0	644
17.959	16.444	16180	20071	0	644
19.798	15.903	16197	20375	0	644
21.709	18.860	16211	20516	0	644
24.270	19.293	16230	20624	0	644
29.787	23.008	16248	20787	0	644
32.889	25.568	16270	21015	0	644
33.069	26.974	16284	21145	0	644
32.131	26.397	16303	21058	0	644
28.994	24.450	16316	20852	0	644
26.542	20.808	16334	20700	0	644
25.748	19.149	16354	20657	0	644
28.489	20.772	16369	20613	0	644
28.020	21.818	16384	20516	0	644
30.076	25.532	16399	20364	0	644
31.374	28.777	16417	20234	0	644
33.826	30.184	16436	20147	0	644
36.747	31.879	16454	20115	0	644
39.993	32.780	16472	20115	0	644
41.976	33.502	16492	20049	0	644
39.776	34.908	16509	19876	0	644
38.442	33.466	16526	19670	0	644
35.990	31.590	16542	19507	0	644
34.836	30.581	16558	19236	0	644
33.646	28.886	16568	18802	0	644
33.538	28.561	16578	18357	0	644
30.472	25.965	16586	17924	0	644
29.571	22.358	16596	17490	0	644
27.732	22.142	16601	17023	0	644
31.194	21.457	16609	16611	0	644
33.357	24.486	16615	16222	0	644
34.980	28.128	16612	15690	0	644
32.744	27.083	16615	15094	0	644
28.777	24.558	16617	14747	0	644
26.181	24.270	16625	14714	0	644
26.758	25.856	16629	14747	0	644
31.446	29.859	16634	14649	0	644
37.036	34.728	16636	14389	0	644
38.767	37.937	16634	14118	0	644
37.937	36.603	16636	13933	0	644
34.872	31.482	16636	13771	0	644
30.472	25.640	16629	13532	0	644
29.535	23.188	16625	13239	0	644
31.518	22.106	16623	13011	0	644
32.167	22.827	16616	12805	0	644
33.898	25.748	16609	12621	0	644
35.449	27.227	16604	12545	0	644
36.026	27.984	16598	12512	0	644
37.829	28.922	16591	12437	0	644
40.498	30.508	16586	12393	0	644
43.166	33.718	16579	12502	0	644
46.087	37.288	16575	12675	0	644
48.107	40.930	16570	12794	0	644
48.215	41.652	16563	12838	0	644
45.005	39.308	16557	12914	0	644
41.003	35.737	16550	13066	0	644
40.065	34.187	16545	13207	0	644
41.688	35.629	16537	13283	0	644
44.356	38.767	16529	13283	0	644
45.402	37.829	16518	13250	0	644
40.786	35.774	16505	13185	0	644
38.082	31.590	16496	13087	0	644
34.223	28.994	16480	12990	0	644
34.980	29.751	16472	12990	0	644
39.668	34.403	16459	13098	0	644
43.058	38.839	16450	13185	0	644
44.753	39.704	16436	13207	0	644
43.563	38.731	16423	13207	0	644
38.550	33.213	16413	13304	0	644
35.413	28.922	16405	13521	0	644
33.754	26.830	16394	13760	0	644
34.836	27.732	16385	13944	0	644
39.019	30.112	16375	14031	0	644
43.238	34.403	16351	13738	0	644
47.097	37.721	16322	12870	0	644
48.107	40.606	16288	11862	0	644
49.513	42.193	16262	11233	0	644
47.890	42.229	16237	11092	0	644
45.799	43.130	16218	11352	0	644
48.792	43.960	16209	11883	0	644
52.110	47.133	16198	12556	0	644
56.906	51.461	16186	13131	0	644
59.647	56.185	16173	13445	0	644
61.269	57.158	16160	13597	0	644
60.296	58.817	16151	13955	0	644
58.168	57.158	16145	14595	0	644
58.853	56.942	16143	15289	0	644
62.207	60.945	16140	15972	0	644
64.479	61.918	16143	16698	0	644
65.272	61.305	16149	17501	0	644
62.063	57.086	16156	18303	0	644
58.601	49.657	16163	18997	0	644
53.624	46.376	16165	19453	0	644
53.949	47.349	16169	19670	0	644
52.687	48.756	16170	19833	0	644
49.730	47.458	16173	20017	0	644
43.815	39.812	16178	20136	0	644
38.875	33.790	16180	20180	0	644
37.937	29.968	16182	20147	0	644
42.193	32.961	16182	20017	0	644
49.657	41.507	16186	19974	0	644
54.598	47.313	16197	20190	0	644
55.608	51.388	16206	20527	0	644
53.300	49.441	16213	20657	0	644
49.513	46.628	16218	20483	0	644
46.953	44.861	16218	20169	1	1036
49.585	44.753	16222	19811	0	1036
50.415	45.979	16219	19431	0	1036
53.552	48.143	16218	18965	0	1036
53.949	50.198	16213	18379	0	1036
56.653	47.674	16206	17728	0	1036
56.365	49.297	16200	17164	0	1036
58.420	49.080	16196	16763	0	1036
58.637	49.730	16192	16524	0	1036
58.168	52.831	16189	16341	0	1036
58.060	51.533	16184	16092	0	1036
53.516	49.513	16180	15864	0	1036
49.766	43.599	16177	15766	0	1036
43.166	38.045	16176	15755	0	1036
35.954	32.348	16176	15690	0	1036
34.583	31.266	16167	15517	0	1036
31.626	30.256	16163	15300	0	1036
34.511	30.977	16157	15181	0	1036
36.675	31.807	16156	15181	0	1036
39.524	34.259	16153	15213	0	1036
43.851	35.485	16149	15202	0	1036
45.763	35.737	16139	15018	0	1036
42.950	34.151	16130	14627	0	1036
39.885	30.184	16123	14356	0	1036
37.793	28.164	16112	14345	0	1036
35.629	27.732	16107	14400	0	1036
39.055	30.148	16098	14356	0	1036
37.901	29.679	16091	14248	0	1036
34.728	24.270	16083	14139	0	1036
30.545	20.700	16074	14139	0	1036
26.650	16.372	16077	14465	0	1036
28.525	17.706	16077	15061	0	1036
30.256	19.798	16079	15560	0	1036
32.961	24.847	16078	15755	0	1036
32.780	24.414	16071	15766	0	1036
30.040	23.873	16067	15766	0	1036
28.201	22.286	16066	15810	0	1036
24.125	17.706	16061	15886	0	1036
22.431	15.867	16053	15831	0	1036
23.332	14.136	16044	15571	0	1036
25.388	16.264	16037	15365	0	1036
28.597	19.329	16033	15419	0	1036
30.220	21.854	16028	15604	0	1036
30.148	20.916	16024	15669	0	1036
28.056	18.283	16017	15604	0	1036
27.912	17.815	16012	15571	0	1036
29.246	18.356	16007	15658	0	1036
30.400	21.673	16004	15766	0	1036
30.653	23.476	15999	15842	0	1036
28.886	25.171	15995	15896	0	1036
28.561	26.650	15992	16016	0	1036
27.732	26.361	15992	16254	0	1036
28.056	27.479	15999	16665	0	1036
27.768	28.777	16007	17251	0	1036
30.364	27.768	16013	17804	0	1036
31.374	29.751	16015	17989	0	1036
33.538	29.607	16008	17663	0	1036
31.158	27.407	16005	17251	0	1036
26.866	24.594	16005	17208	0	1036
19.582	21.060	16011	17490	0	1036
17.490	18.103	16017	17891	0	1036
17.562	18.644	16028	18368	0	1036
22.863	18.716	16041	18878	0	1036
27.768	21.168	16057	19410	0	1036
30.040	23.116	16073	19974	0	1036
30.725	24.450	16093	20538	0	1036
29.138	25.099	16111	21058	0	1036
26.578	22.178	16131	21394	0	1036
23.765	18.860	16145	21524	0	1036
21.709	17.959	16164	21644	0	1036
23.621	16.192	16186	21904	0	1036
23.837	18.644	16211	22295	0	1036
25.496	19.005	16238	22707	0	1036
27.587	19.437	16259	22978	0	1036
26.397	16.264	16288	23086	0	1036
22.863	14.894	16311	23141	0	1036
20.844	13.091	16334	23119	0	1036
16.516	9.232	16357	23032	0	1036
13.018	6.744	16378	22880	0	1036
10.025	3.462	16399	22707	0	1036
11.432	4.003	16423	22522	1	320
14.425	7.140	16444	22284	0	320
14.461	11.756	16465	22002	0	320
15.507	14.605	16484	21687	0	320
12.622	11.540	16505	21329	0	320
5.950	6.708	16524	20961	0	320
4.039	1.010	16543	20635	0	320
3.642	-2.705	16563	20342	0	320
4.796	-1.803	16578	19908	0	320
6.203	-0.216	16590	19301	0	320
6.563	1.262	16601	18705	0	320
3.642	-0.721	16611	18184	0	320
0.361	-4.616	16624	17718	0	320
-0.577	-7.248	16631	17197	0	320
1.659	-4.724	16636	16568	0	320
6.094	-0.180	16634	15799	0	320
12.333	6.960	16632	14888	0	320
15.290	8.006	16625	14031	0	320
13.127	4.291	16621	13326	0	320
10.206	-2.344	16617	12805	0	320
5.590	-7.825	16615	12393	0	320
4.508	-8.294	16604	11894	0	320
4.832	-6.455	16596	11374	0	320
2.813	-5.049	16595	11254	0	320
0.721	-6.167	16595	11504	0	320
-2.849	-9.052	16592	11666	0	320
-6.383	-11.323	16583	11460	0	320
-3.931	-9.484	16572	11113	0	320
-2.524	-4.147	16566	10994	0	320
-1.298	-2.344	16559	11081	0	320
-2.993	-4.724	16546	11005	0	320
-6.671	-9.701	16530	10690	0	320
-9.556	-14.208	16518	10408	0	320
-12.153	-17.959	16502	10354	0	320
-12.045	-17.598	16493	10484	0	320
-12.009	-20.591	16480	10723	0	320
-14.028	-21.818	16472	10940	0	320
-14.172	-23.909	16457	11103	0	320
-9.917	-20.267	16450	11309	0	320
-7.970	-17.743	16439	11666	0	320
-4.868	-14.245	16439	12230	0	320
-6.022	-15.002	16436	12925	0	320
-7.212	-14.533	16434	13510	0	320
-8.583	-16.949	16430	13966	0	320
-8.799	-15.326	16430	14476	0	320
-6.780	-15.615	16431	15050	0	320
-7.501	-14.821	16431	15604	0	320
-7.970	-16.480	16432	16124	0	320
-8.511	-16.949	16439	16676	0	320
-9.160	-17.887	16444	17208	0	320
-10.674	-19.618	16446	17598	0	320
-9.196	-18.860	16450	17859	0	320
-9.304	-18.608	16452	18021	0	320
-6.455	-19.221	16450	18054	0	320
-4.327	-16.480	16446	17859	0	320
-3.282	-15.074	16439	17468	0	320
-3.787	-13.992	16430	17110	0	320
-3.606	-11.973	16424	16861	0	320
-4.219	-12.766	16417	16633	0	320
-3.354	-12.225	16406	16330	0	320
-2.921	-10.674	16393	15853	0	320
-0.649	-9.196	16382	15376	0	320
0.000	-7.357	16375	15246	0	320
1.442	-4.364	16374	15452	0	320
2.957	-3.714	16370	15669	0	320
1.875	-1.875	16365	15745	0	320
5.734	-0.397	16358	15701	0	320
7.393	2.236	16354	15636	0	320
9.629	6.058	16348	15647	0	320
13.415	11.035	16344	15745	0	320
16.733	14.245	16338	15842	0	320
18.897	17.779	16330	15766	0	320
22.539	16.625	16325	15571	0	320
23.080	17.995	16314	15441	0	320
23.512	15.795	16309	15419	0	320
22.142	16.805	16301	15376	0	320
18.897	15.507	16292	15267	0	320
18.933	12.838	16283	15170	0	320
19.113	14.677	16277	15191	0	320
24.775	17.310	16272	15354	0	320
31.410	25.676	16270	15539	0	320
37.432	30.761	16264	15690	0	320
40.858	36.964	16264	15864	0	320
38.695	36.459	16263	16124	0	320
36.242	32.131	16262	16394	0	320
34.728	31.482	16264	16665	0	320
34.367	30.400	16264	16872	0	320
36.423	31.735	16262	17013	0	320
39.596	35.521	16262	17088	0	320
43.058	40.498	16262	17110	0	320
45.763	43.635	16259	17164	0	320
47.349	44.176	16264	17392	0	320
45.546	44.176	16268	17707	0	320
42.553	40.858	16266	17783	0	320
39.849	35.810	16262	17511	0	320
36.928	34.223	16255	17078	0	320
38.731	32.853	16244	16655	0	320
39.776	31.951	16237	16298	0	320
39.560	33.862	16226	15940	0	320
38.009	33.502	16217	15560	0	320
34.295	32.276	16202	15181	0	320
32.276	30.653	16190	14801	0	320
30.833	29.427	16180	14530	0	320
31.302	29.427	16170	14443	0	320
33.357	31.266	16160	14421	0	320
33.970	32.384	16152	14324	0	320
35.413	35.016	16143	14291	0	320
37.036	35.124	16134	14389	0	320
36.062	36.278	16130	14497	0	320
34.980	35.341	16119	14541	0	320
33.682	35.521	16111	14541	0	320
34.331	35.052	16104	14530	0	320
33.213	34.872	16094	14562	0	320
34.836	33.393	16086	14649	0	320
35.629	31.662	16079	14779	0	320
35.377	30.617	16071	14888	0	320
34.872	29.679	16065	15007	0	320
33.213	30.508	16060	15137	0	320
31.626	29.354	16053	15289	0	320
28.741	27.804	16050	15539	0	320
26.866	25.604	16046	15788	0	320
26.037	25.604	16037	15799	0	320
26.325	22.322	16027	15549	0	320
25.820	23.404	16019	15387	0	320
26.650	23.621	16011	15441	0	320
28.056	21.745	16000	15484	0	320
27.479	22.719	15992	15430	0	320
27.443	24.125	15984	15419	0	320
26.902	22.286	15978	15506	0	320
27.912	23.260	15974	15680	0	320
30.148	25.604	15978	16124	0	320
31.338	26.830	15984	16828	0	320
36.711	30.004	15987	17468	0	320
36.891	32.131	15991	17761	0	320
39.055	33.934	15991	17826	0	320
38.911	35.413	15992	17902	0	320
40.317	36.026	15995	18097	0	320
40.389	35.954	16000	18379	0	320
40.426	36.639	16004	18618	0	320
40.426	34.728	16011	18737	0	320
36.495	30.328	16017	18900	0	320
29.787	24.919	16025	19214	0	320
21.890	18.247	16038	19648	0	320
16.625	12.153	16053	20082	0	320
13.018	9.773	16067	20451	0	320
15.615	11.937	16083	20798	0	320
18.247	15.543	16100	21123	0	320
22.431	18.031	16118	21405	0	320
23.440	20.555	16137	21752	0	320
23.512	19.798	16163	22110	0	320
20.988	16.048	16180	22370	0	320
17.093	11.828	16202	22522	0	320
13.848	11.468	16225	22674	0	320
17.310	11.179	16248	22869	0	320
19.437	13.307	16272	22956	0	320
24.053	20.555	16295	22913	0	320
27.696	23.008	16317	22848	0	320
29.282	27.660	16341	22826	0	320
29.499	29.931	16365	22793	0	320
29.535	31.662	16386	22696	1	636
28.561	29.174	16410	22511	0	636
26.506	27.010	16431	22295	0	636
26.037	23.801	16451	22045	0	636
27.407	22.286	16471	21698	0	636
28.814	22.539	16485	21210	0	636
28.922	20.664	16500	20570	0	636
25.063	19.654	16509	19789	0	636
19.221	14.172	16513	18878	0	636
15.038	11.864	16518	17956	0	636
11.107	9.665	16522	17229	0	636
11.864	10.206	16530	16752	0	636
12.730	10.855	16539	16438	0	636
14.281	11.540	16546	16168	0	636
15.651	11.035	16553	15821	0	636
14.461	12.477	16562	15473	0	636
16.480	13.776	16566	15213	0	636
15.398	12.838	16571	14996	0	636
13.054	13.992	16576	14758	0	636
15.759	13.595	16576	14465	0	636
15.218	13.631	16579	14161	0	636
21.132	16.877	16579	13857	0	636
24.558	17.887	16576	13510	0	636
25.460	21.493	16571	13142	0	636
26.109	20.808	16566	12762	0	636
25.388	20.339	16562	12458	0	636
24.811	21.818	16559	12296	0	636
25.352	20.988	16557	12306	0	636
26.830	22.863	16553	12382	0	636
26.397	22.611	16550	12415	0	636
27.263	23.332	16542	12328	0	636
27.624	24.378	16530	12014	0	636
28.020	20.808	16516	11569	0	636
26.830	20.339	16505	11319	0	636
23.621	18.031	16492	11298	0	636
21.565	13.235	16485	11384	0	636
19.798	12.838	16477	11591	0	636
17.202	13.307	16471	11829	0	636
17.526	11.648	16464	12111	0	636
16.444	12.297	16463	12534	0	636
16.192	13.415	16456	12968	0	636
15.903	13.848	16451	13120	0	636
16.084	16.084	16436	12990	0	636
17.310	14.894	16423	12838	0	636
14.281	14.353	16411	12870	0	636
13.523	12.225	16403	13022	0	636
12.658	8.619	16391	13120	0	636
13.956	10.133	16381	13152	0	636
18.392	11.504	16370	13228	0	636
18.608	12.333	16367	13521	0	636
19.654	16.444	16362	14042	0	636
18.536	15.939	16362	14660	0	636
15.579	15.975	16361	15235	0	636
16.408	16.300	16361	15701	0	636
16.589	13.343	16362	16103	0	636
16.985	14.172	16363	16535	0	636
18.716	13.235	16365	17002	0	636
16.480	12.550	16367	17381	0	636
19.365	15.218	16370	17577	0	636
15.975	14.749	16369	17707	0	636
15.867	15.831	16371	17924	0	636
16.264	14.245	16377	18292	0	636
20.195	15.435	16382	18629	0	636
20.844	15.507	16384	18770	0	636
21.204	14.605	16386	18780	0	636
19.978	12.802	16385	18672	0	636
14.749	8.655	16381	18292	0	636
14.461	6.852	16370	17674	0	636
17.923	11.360	16362	17088	0	636
25.856	17.346	16355	16709	0	636
31.338	26.145	16348	16427	0	636
35.882	28.164	16341	16178	0	636
38.009	28.020	16332	15972	0	636
39.560	28.381	16324	15810	0	636
40.894	29.246	16318	15636	0	636
41.940	31.951	16312	15484	0	636
39.235	32.564	16308	15441	0	636
33.682	30.761	16304	15528	0	636
28.597	26.361	16301	15669	0	636
26.433	24.594	16303	15853	0	636
26.938	24.630	16299	16005	0	636
29.463	25.820	16296	16027	0	636
30.184	26.866	16288	15875	0	636
29.499	27.119	16283	15690	0	636
27.047	25.424	16275	15549	0	636
24.522	22.250	16271	15517	0	636
21.313	21.529	16263	15484	0	636
19.185	16.841	16255	15376	0	636
16.552	18.320	16250	15267	0	636
17.923	17.562	16244	15311	0	636
18.680	19.437	16242	15484	0	636
23.585	22.972	16239	15625	0	636
26.109	21.709	16233	15625	0	636
26.686	23.188	16229	15582	0	636
25.965	20.195	16222	15593	0	636
25.532	20.087	16215	15539	0	636
26.830	22.106	16205	15343	0	636
30.977	25.929	16196	15094	0	636
34.043	29.463	16185	14931	0	636
34.259	31.915	16177	14920	0	636
32.312	29.571	16173	15072	0	636
29.102	26.830	16170	15343	0	636
28.345	23.476	16169	15593	0	636
27.551	21.421	16164	15723	0	636
28.237	20.880	16160	15788	0	636
25.965	19.329	16157	15929	0	636
24.450	17.815	16156	16178	0	636
17.202	13.091	16156	16384	0	636
16.372	10.278	16153	16568	0	636
13.523	10.458	16157	16752	0	636
16.769	12.153	16156	16937	0	636
19.690	16.985	16153	17099	0	636
23.512	18.031	16156	17219	0	636
24.594	18.716	16156	17251	0	636
22.863	14.930	16153	17251	0	636
22.034	12.405	16152	17251	0	636
19.329	13.127	16151	17229	0	636
19.978	12.838	16149	17164	0	636
22.719	19.077	16147	17121	0	636
26.938	22.178	16144	17056	0	636
30.977	25.820	16137	16850	0	636
34.187	23.873	16127	16405	0	636
32.420	22.322	16111	15766	0	636
29.138	20.555	16097	15061	0	636
27.371	19.546	16081	14541	0	636
24.739	22.827	16067	14215	0	636
24.017	25.532	16054	13955	0	636
24.847	25.135	16044	13814	0	636
21.421	22.467	16034	13857	0	636
18.067	17.995	16027	14042	0	636
13.740	10.999	16020	14172	0	636
9.953	7.032	16005	14031	0	636
6.960	5.986	15993	13781	0	636
7.717	6.744	15984	13792	0	636
7.934	7.573	15980	14150	0	636
8.294	7.068	15978	14649	0	636
10.061	6.563	15978	15148	0	636
11.792	5.842	15978	15582	0	636
16.444	9.052	15978	15994	0	636
18.103	12.369	15984	16481	0	636
22.719	16.120	15987	17045	0	636
23.621	18.860	15995	17598	0	636
22.431	17.238	16004	18184	0	636
22.791	18.247	16015	18802	0	636
19.618	16.336	16028	19399	0	636
17.418	15.687	16041	19919	0	636
14.858	14.172	16053	20277	0	636
15.326	15.543	16066	20548	0	636
15.903	14.461	16081	20820	0	636
20.447	16.516	16091	20993	0	636
21.241	16.408	16099	20906	0	636
21.132	15.975	16104	20657	0	636
19.582	16.913	16118	20538	0	636
18.500	16.192	16126	20570	0	636
19.546	17.598	16136	20516	1	616
18.428	15.254	16147	20397	0	616
19.762	15.218	16163	20440	0	616
17.526	11.900	16180	20689	0	616
18.464	10.927	16200	21047	0	616
17.129	11.360	16222	21373	0	616
17.526	8.979	16244	21622	0	616
15.579	8.763	16268	21839	0	616
16.192	8.475	16295	22110	0	616
16.480	10.494	16318	22381	0	616
20.916	12.514	16344	22555	0	616
22.719	16.084	16367	22566	0	616
24.594	16.805	16387	22446	0	616
22.467	16.336	16410	22273	0	616
20.195	16.697	16432	22099	0	616
17.670	13.992	16451	21926	0	616
14.317	12.910	16473	21655	0	616
12.225	9.989	16489	21253	0	616
15.507	8.655	16509	20830	0	616
15.759	10.494	16522	20407	0	616
21.313	14.317	16537	19919	0	616
23.296	18.067	16551	19475	0	616
24.414	20.447	16568	19203	0	616
23.945	20.736	16584	18997	0	616
21.168	18.103	16601	18780	0	616
19.618	17.923	16617	18520	0	616
18.644	13.884	16631	18184	0	616
17.598	13.956	16642	17837	0	616
19.185	14.749	16656	17511	0	616
20.014	14.641	16665	17197	0	616
19.978	16.156	16678	16882	0	616
16.516	14.389	16685	16514	0	616
13.595	12.333	16691	16092	0	616
11.071	10.566	16694	15549	0	616
11.035	9.953	16689	14812	0	616
16.589	16.012	16683	13988	0	616
21.421	20.231	16678	13228	0	616
25.532	23.945	16664	12469	0	616
24.414	22.322	16654	11742	0	616
16.805	16.985	16648	11287	0	616
8.727	8.150	16637	11070	0	616
3.065	2.885	16631	10875	0	616
1.587	4.977	16621	10701	0	616
4.508	7.501	16615	10690	0	616
9.556	11.071	16608	10745	0	616
14.425	13.487	16598	10712	0	616
17.743	14.894	16586	10560	0	616
19.293	13.992	16572	10398	0	616
20.014	15.939	16559	10365	0	616
16.985	16.697	16549	10419	0	616
16.480	16.372	16535	10484	0	616
16.480	17.706	16525	10647	0	616
19.654	18.824	16517	10994	0	616
22.647	19.870	16510	11471	0	616
22.575	21.241	16505	11948	0	616
21.601	17.562	16493	12241	0	616
17.706	14.713	16480	12241	0	616
15.290	10.386	16467	12155	0	616
14.064	8.402	16459	12350	0	616
14.785	8.366	16451	12816	0	616
14.641	12.586	16446	13348	0	616
16.120	12.658	16443	13857	0	616
16.228	15.795	16439	14367	0	616
16.192	14.785	16439	14899	0	616
17.093	12.477	16439	15430	0	616
16.120	13.199	16438	15940	0	616
16.480	11.864	16439	16363	0	616
13.307	10.422	16439	16698	0	616
11.179	9.412	16438	16991	0	616
7.465	8.439	16444	17349	0	616
5.914	7.104	16451	17880	0	616
7.429	8.799	16459	18542	0	616
13.307	14.497	16469	19117	0	616
17.093	17.129	16473	19377	0	616
21.060	20.195	16476	19279	0	616
19.582	17.670	16473	19019	0	616
18.788	15.543	16476	18813	0	616
15.687	13.091	16473	18748	0	616
16.192	12.477	16477	18683	0	616
16.480	15.326	16476	18520	1	316
19.077	14.894	16473	18303	0	316
20.736	17.706	16476	18151	0	316
23.765	17.887	16473	18065	0	316
22.791	18.933	16476	17924	0	316
19.870	16.084	16472	17707	0	316
16.625	13.451	16473	17544	0	316
11.612	8.439	16472	17468	0	316
10.855	6.239	16473	17381	0	316
11.504	6.816	16471	17208	0	316
11.973	8.294	16469	16937	0	316
11.540	9.845	16463	16622	0	316
12.261	9.881	16459	16330	0	316
13.487	9.917	16454	16059	0	316
12.874	9.809	16450	15875	0	316
16.012	9.629	16444	15680	0	316
15.543	10.746	16434	15365	0	316
17.274	11.937	16423	14964	0	316
14.641	11.179	16414	14660	0	316
15.435	9.304	16406	14476	0	316
14.317	7.970	16394	14194	0	316
12.730	9.196	16377	13630	0	316
17.382	11.900	16355	12903	0	316
22.214	16.841	16332	12252	0	316
29.679	22.935	16316	11807	0	316
32.420	25.496	16297	11732	0	316
31.446	22.322	16288	11948	0	316
25.712	18.680	16272	12144	0	316
19.329	13.054	16262	12187	0	316
18.247	11.468	16246	12198	0	316
17.706	13.235	16233	12317	0	316
21.493	18.211	16222	12632	0	316
21.926	20.087	16217	13109	0	316
22.286	20.772	16210	13630	0	316
22.935	17.490	16206	14118	0	316
20.664	13.956	16205	14649	0	316
17.382	9.412	16205	15289	0	316
12.261	5.121	16205	15907	0	316
8.619	2.380	16205	16374	0	316
7.970	2.236	16204	16676	0	316
9.412	3.029	16202	16882	0	316
12.009	6.239	16198	17045	0	316
14.100	7.753	16196	17164	0	316
12.225	9.340	16190	17219	0	316
14.569	9.196	16184	17154	0	316
15.831	10.133	16176	16980	0	316
16.228	10.314	16167	16817	0	316
18.428	10.530	16167	16806	0	316
18.067	11.323	16160	16937	0	316
20.339	14.172	16156	16969	0	316
19.654	14.605	16151	16872	0	316
23.080	17.526	16144	16752	0	316
24.486	19.149	16137	16665	0	316
24.919	21.962	16131	16590	0	316
26.001	21.890	16130	16611	0	316
24.883	22.935	16124	16709	0	316
24.053	19.113	16119	16676	0	316
22.755	17.382	16112	16524	0	316
24.306	15.146	16106	16427	0	316
26.217	16.192	16103	16405	0	316
26.145	17.706	16098	16416	0	316
25.820	19.978	16093	16405	0	316
25.929	17.129	16085	16211	0	316
22.142	17.562	16073	15875	0	316
23.080	13.523	16070	15799	0	316
23.693	14.100	16067	16027	0	316
21.998	13.091	16063	16211	0	316
22.719	14.677	16060	16211	0	316
22.935	16.300	16054	16157	0	316
20.339	15.110	16050	16113	0	316
20.231	17.093	16044	16124	0	316
19.185	14.064	16040	16146	0	316
19.221	15.507	16037	16157	0	316
18.860	14.569	16034	16244	0	316
16.949	16.516	16044	16676	0	316
17.382	15.398	16053	17457	0	316
14.713	17.923	16065	18216	0	316
17.129	17.562	16078	18824	0	316
19.906	21.601	16090	19312	0	316
25.135	21.998	16106	19746	0	316
26.289	24.198	16119	20136	0	316
25.676	20.952	16134	20527	0	316
25.856	21.349	16151	20917	0	316
23.188	22.539	16170	21308	0	316
24.017	23.188	16190	21676	0	316
24.955	25.388	16211	22056	0	316
26.289	26.974	16238	22511	0	316
26.614	27.335	16262	22956	0	316
27.696	29.066	16289	23282	0	316
31.338	31.771	16314	23488	0	316
32.456	32.564	16341	23629	0	316
31.951	31.771	16365	23705	0	316
30.508	27.407	16387	23737	0	316
23.981	22.106	16414	23715	0	316
17.995	16.300	16438	23596	0	316
17.562	13.018	16459	23260	0	316
16.697	14.966	16471	22587	0	316
22.863	17.166	16487	21839	1	388
25.460	21.781	16506	21459	0	388
26.181	22.358	16530	21394	0	388
25.532	20.231	16549	21167	0	388
19.113	17.815	16563	20635	0	388
15.579	13.343	16578	20017	0	388
11.215	11.107	16590	19464	0	388
11.648	9.340	16603	18987	0	388
12.658	9.845	16616	18574	0	388
16.192	10.999	16629	18173	0	388
20.483	14.569	16637	17696	0	388
21.962	15.795	16648	17197	0	388
21.998	18.283	16654	16752	0	388
21.962	15.471	16665	16384	0	388
17.995	11.864	16669	15994	0	388
15.146	8.006	16674	15484	0	388
12.081	4.508	16674	14953	0	388
10.025	5.085	16677	14530	0	388
12.009	4.580	16681	14237	0	388
11.504	6.311	16683	14009	0	388
9.340	6.708	16683	13749	0	388
9.845	7.285	16683	13456	0	388
8.114	7.970	16682	13185	0	388
11.468	8.619	16675	12849	0	388
17.670	11.143	16669	12404	0	388
20.375	12.477	16662	12057	0	388
21.096	11.684	16658	11948	0	388
17.274	10.061	16652	11894	0	388
13.848	6.816	16648	11786	0	388
10.530	1.839	16642	11721	0	388
8.907	2.957	16632	11721	0	388
11.179	4.436	16625	11666	0	388
12.297	5.734	16616	11525	0	388
12.730	6.780	16604	11406	0	388
14.028	7.753	16595	11439	0	388
13.668	8.871	16588	11612	0	388
13.631	10.169	16582	11862	0	388
14.930	10.530	16575	12100	0	388
11.143	8.727	16564	12241	0	388
10.350	6.455	16558	12361	0	388
11.828	6.599	16555	12729	0	388
14.028	10.025	16555	13337	0	388
19.906	14.749	16557	13912	0	388
20.664	14.497	16551	14291	0	388
16.805	11.540	16546	14508	0	388
10.350	6.852	16542	14649	0	388
6.924	2.705	16539	14855	0	388
7.321	1.839	16538	15202	0	388
11.612	4.868	16537	15528	0	388
15.362	8.511	16535	15712	0	388
20.303	11.179	16531	15875	0	388
19.654	13.559	16529	16081	0	388
17.274	12.838	16525	16178	0	388
13.956	12.297	16522	16157	0	388
13.487	11.648	16517	16178	0	388
14.533	12.766	16513	16276	0	388
20.664	17.166	16513	16427	0	388
25.027	19.473	16512	16611	0	388
28.741	23.296	16512	16785	0	388
26.686	22.647	16509	16828	0	388
21.241	20.014	16500	16557	0	388
16.913	17.743	16485	16070	0	388
11.756	12.622	16479	15745	0	388
9.665	10.133	16471	15701	0	388
10.278	9.737	16467	15745	0	388
12.838	10.530	16460	15788	0	388
16.264	10.819	16459	15842	0	388
16.408	13.199	16456	15896	0	388
17.093	13.956	16451	16005	0	388
12.261	9.448	16454	16287	0	388
5.950	5.265	16457	16698	0	388
4.255	2.452	16457	17013	0	388
4.436	1.010	16456	17002	0	388
8.511	3.859	16447	16752	0	388
11.576	8.042	16443	16503	0	388
11.828	8.222	16439	16384	0	388
13.559	7.212	16431	16265	0	388
11.215	5.049	16418	15896	0	388
13.018	4.724	16405	15311	0	388
12.838	4.291	16391	14877	0	388
11.540	4.544	16383	14703	0	388
12.550	3.859	16375	14649	0	388
15.326	5.662	16363	14562	0	388
17.526	6.996	16355	14486	0	388
20.627	10.638	16350	14584	0	388
20.195	12.694	16345	14844	0	388
17.057	10.314	16341	15105	0	388
14.461	9.953	16336	15257	0	388
10.674	6.563	16330	15332	0	388
8.547	4.724	16325	15419	0	388
8.222	6.167	16322	15571	0	388
9.629	7.465	16322	15864	0	388
10.819	8.330	16322	16265	0	388
12.838	11.360	16324	16600	0	388
14.064	13.740	16324	16817	0	388
15.507	14.533	16324	17002	0	388
14.605	18.788	16328	17208	0	388
16.625	18.175	16328	17403	0	388
13.379	17.310	16325	17446	0	388
12.009	14.930	16324	17360	0	388
9.340	11.540	16322	17295	0	388
8.258	9.124	16317	17229	0	388
9.124	7.573	16312	17045	0	388
9.845	9.340	16304	16687	0	388
11.251	11.287	16291	16189	0	388
11.756	10.999	16276	15582	0	388
11.756	13.704	16256	14877	0	388
10.422	13.992	16237	14172	0	388
10.422	10.963	16219	13640	0	388
10.350	10.855	16202	13315	0	388
10.314	10.061	16182	12957	0	388
10.386	8.078	16159	12447	0	388
11.432	6.708	16143	12079	0	388
11.323	7.140	16130	12187	0	388
10.602	8.979	16126	12762	0	388
10.746	10.530	16120	13467	0	388
13.163	14.208	16116	14063	0	388
13.884	17.166	16116	14552	0	388
17.166	16.589	16112	15018	0	388
16.841	17.454	16114	15506	0	388
19.473	16.841	16111	15972	0	388
18.536	19.113	16112	16363	0	388
20.555	18.536	16110	16655	0	388
19.437	19.041	16111	16915	0	388
19.113	17.526	16110	17154	0	388
16.841	18.067	16110	17414	0	388
19.834	17.057	16112	17674	0	388
22.322	18.716	16110	17837	0	388
24.306	17.562	16110	17902	0	388
24.739	16.408	16110	17967	0	388
19.437	13.271	16112	18097	0	388
16.192	11.143	16111	18184	0	388
10.999	9.376	16111	18151	0	388
11.215	7.898	16110	18086	0	388
9.881	7.140	16111	18032	0	388
9.773	5.301	16106	17902	0	388
11.756	4.868	16104	17674	0	388
12.730	5.085	16099	17501	0	388
12.225	6.275	16099	17425	0	388
13.704	7.176	16098	17425	0	388
13.127	7.465	16099	17425	0	388
11.937	6.852	16099	17425	0	388
14.245	6.527	16110	17696	0	388
15.074	5.950	16123	18357	0	388
15.543	8.186	16137	19084	0	388
13.127	7.609	16153	19605	0	388
8.871	7.032	16172	20082	0	388
6.635	5.554	16196	20754	0	388
6.455	4.003	16222	21557	0	388
10.819	6.852	16246	22229	0	388
13.884	9.701	16271	22652	0	388
18.897	12.694	16292	22837	0	388
16.877	12.982	16314	22859	0	388
16.336	9.989	16332	22826	0	388
13.740	6.708	16354	22815	0	388
14.028	4.688	16371	22739	0	388
12.910	5.085	16386	22446	0	388
10.855	4.580	16403	22056	1	628
10.710	6.275	16423	21806	0	628
10.999	6.527	16444	21720	0	628
10.963	8.294	16460	21633	0	628
15.759	10.133	16483	21438	0	628
18.752	10.855	16500	21221	0	628
22.178	12.477	16520	21004	0	628
22.106	13.920	16537	20657	0	628
22.863	12.838	16549	20125	0	628
19.978	13.884	16559	19594	0	628
18.356	12.622	16572	19171	0	628
16.372	10.855	16586	18835	0	628
17.562	9.845	16601	18574	0	628
16.985	10.097	16616	18412	0	628
19.041	9.701	16632	18292	0	628
16.552	10.494	16648	18075	0	628
18.139	11.864	16656	17739	0	628
15.939	12.297	16669	17370	0	628
15.687	11.323	16678	17110	0	628
11.432	10.097	16690	16904	0	628
10.783	7.898	16702	16709	0	628
9.701	7.717	16708	16481	0	628
10.855	8.078	16715	16146	0	628
17.490	11.143	16722	15755	0	628
19.762	11.973	16730	15549	0	628
22.178	10.963	16736	15463	0	628
18.680	11.360	16738	15159	0	628
18.860	11.828	16735	14627	0	628
16.300	13.451	16730	14009	0	628
19.077	18.139	16728	13478	0	628
21.854	19.041	16724	13174	0	628
25.748	21.601	16724	13055	0	628
29.715	20.988	16723	13011	0	628
30.977	21.204	16720	12935	0	628
28.345	22.647	16720	12892	0	628
27.551	21.385	16720	12990	0	628
23.368	21.421	16723	13185	0	628
24.739	21.421	16722	13326	0	628
24.739	20.339	16720	13369	0	628
24.883	20.267	16718	13380	0	628
24.017	17.166	16716	13434	0	628
18.969	14.461	16715	13532	0	628
15.651	8.799	16714	13630	0	628
13.271	6.599	16710	13727	0	628
12.550	6.455	16708	13836	0	628
13.163	9.917	16707	13955	0	628
14.677	13.054	16705	14129	0	628
20.159	15.579	16707	14378	0	628
19.041	17.346	16707	14638	0	628
21.204	14.641	16708	14823	0	628
22.106	15.435	16702	14866	0	628
20.447	12.369	16701	14877	0	628
19.798	10.783	16697	14899	0	628
16.228	9.052	16687	14736	0	628
15.723	6.275	16671	14215	0	628
14.136	6.419	16650	13467	0	628
17.202	8.222	16631	12751	0	628
21.313	13.884	16609	12230	0	628
26.145	15.687	16596	12100	0	628
28.201	18.788	16588	12306	0	628
26.830	16.661	16572	12480	0	628
24.558	15.326	16558	12426	0	628
22.575	15.759	16546	12339	0	628
20.050	16.625	16531	12382	0	628
21.349	20.303	16522	12675	0	628
25.099	20.700	16516	13120	0	628
26.181	21.132	16506	13499	0	628
25.640	20.880	16497	13706	0	628
24.053	18.608	16489	13912	0	628
20.447	17.779	16485	14259	0	628
16.552	16.444	16479	14693	0	628
17.093	16.949	16476	15061	0	628
17.743	16.877	16469	15343	0	628
20.267	19.473	16465	15636	0	628
20.880	18.572	16460	15907	0	628
22.178	21.709	16454	16124	0	628
18.824	19.329	16451	16309	0	628
16.949	19.185	16444	16394	0	628
11.468	16.012	16432	16287	0	628
11.792	16.084	16423	16048	0	628
13.415	17.093	16418	16037	0	628
15.975	20.880	16413	16298	0	628
18.969	18.428	16407	16514	0	628
17.454	18.067	16405	16600	0	628
17.310	14.749	16398	16676	0	628
18.031	15.579	16398	16828	0	628
22.863	18.788	16397	17088	0	628
26.470	23.368	16398	17403	0	628
27.299	24.234	16399	17685	0	628
23.873	21.024	16401	17859	0	628
22.178	18.428	16399	17891	0	628
19.473	14.785	16397	17815	0	628
19.762	13.595	16391	17663	0	628
18.824	13.127	16385	17457	0	628
17.634	12.982	16381	17186	0	628
17.202	15.326	16371	16882	0	628
18.933	14.425	16363	16579	0	628
18.283	16.697	16357	16352	0	628
19.221	15.398	16351	16276	0	628
19.654	16.805	16354	16459	0	628
19.798	17.670	16351	16720	0	628
24.342	22.395	16350	16817	0	628
27.227	25.676	16351	16893	0	628
27.155	27.479	16354	17056	0	628
25.279	25.424	16351	17143	0	628
21.385	21.204	16350	17078	0	628
17.670	15.615	16345	16904	0	628
19.293	15.543	16341	16741	0	628
19.870	17.382	16337	16600	0	628
22.683	18.356	16332	16438	0	628
18.572	17.310	16324	16244	0	628
12.910	10.061	16316	15983	0	628
4.977	1.046	16308	15669	0	628
1.767	-3.967	16297	15419	0	628
4.075	-1.046	16295	15332	0	628
10.206	6.239	16285	15332	0	628
12.766	10.386	16281	15267	0	628
8.835	7.753	16271	15137	0	628
3.246	1.082	16264	15029	0	628
-1.190	-3.354	16259	14996	0	628
2.308	-1.118	16251	15050	0	628
13.054	7.753	16244	15083	0	628
22.575	17.238	16235	14975	0	628
29.102	20.123	16218	14595	0	628
28.561	19.546	16200	13998	0	628
24.919	15.507	16182	13521	0	628
21.277	12.838	16167	13293	0	628
20.772	12.622	16152	13196	0	628
18.428	10.602	16137	13066	0	628
18.860	9.881	16116	12816	0	628
16.625	8.402	16099	12545	0	628
18.175	6.780	16081	12437	0	628
20.555	9.701	16065	12447	0	628
27.227	14.677	16045	12350	0	628
31.554	20.447	16024	12122	0	628
31.987	22.034	16004	11959	0	628
27.263	19.257	15984	12003	0	628
21.060	15.326	15968	12241	0	628
18.247	11.107	15959	12675	0	628
18.356	9.701	15953	13261	0	628
23.296	12.694	15946	13912	0	628
27.299	14.785	15945	14649	0	628
27.876	15.615	15947	15506	0	628
26.145	17.093	15951	16374	0	628
23.765	14.569	15955	17186	0	628
19.041	14.605	15960	17902	0	628
17.779	11.468	15968	18542	0	628
19.005	12.297	15979	19203	0	628
17.815	14.425	15991	19952	0	628
21.962	15.795	16001	20613	0	628
22.863	18.356	16008	20895	0	628
23.837	16.516	16011	20711	0	628
21.313	14.713	16012	20429	0	628
17.851	11.071	16019	20472	0	628
16.661	10.350	16028	20809	0	628
15.831	13.704	16045	21243	0	628
20.411	15.110	16061	21731	0	628
24.089	18.788	16081	22208	0	628
26.001	16.084	16099	22533	0	628
22.575	12.622	16118	22642	0	628
17.310	9.448	16132	22728	0	628
15.687	7.753	16156	22945	0	628
15.254	10.927	16182	23249	0	628
18.211	16.012	16202	23455	0	628
19.690	15.795	16225	23574	0	628
20.736	17.346	16250	23672	0	628
18.716	14.605	16277	23791	0	628
18.788	12.405	16301	23878	0	628
19.149	14.172	16328	23889	0	628
20.159	13.740	16357	23911	0	628
18.067	15.615	16387	24117	0	628
17.418	15.002	16424	24485	0	628
15.759	16.516	16460	24800	0	628
17.129	16.841	16492	24887	0	628
15.398	15.903	16525	24681	1	696
15.615	14.894	16553	24334	0	696
13.848	10.602	16578	23911	0	696
14.497	11.107	16599	23303	0	696
17.598	14.894	16617	22436	0	696
19.185	18.464	16631	21481	0	696
19.185	20.952	16645	20603	0	696
16.192	19.654	16658	19854	0	696
10.278	13.992	16671	19171	0	696
9.304	10.855	16685	18466	0	696
9.376	10.746	16694	17793	0	696
15.795	12.802	16705	17121	0	696
18.752	14.930	16707	16298	0	696
21.349	18.536	16708	15387	0	696
19.473	16.084	16711	14682	0	696
14.677	16.480	16716	14215	0	696
10.963	12.369	16718	13792	0	696
12.261	13.054	16720	13424	0	696
15.651	14.785	16724	13142	0	696
20.591	18.067	16727	12925	0	696
23.332	18.031	16727	12664	0	696
21.096	16.084	16728	12350	0	696
14.389	10.278	16723	12089	0	696
10.927	6.455	16720	11894	0	696
11.360	8.294	16718	11732	0	696
16.480	14.821	16711	11547	0	696
23.188	18.536	16708	11341	0	696
23.837	20.123	16701	11189	0	696
17.490	13.812	16691	11081	0	696
12.153	8.799	16683	10918	0	696
8.330	6.022	16670	10712	0	696
8.835	8.258	16657	10484	0	696
12.622	11.215	16642	10278	0	696
18.356	14.894	16629	10126	0	696
17.598	14.858	16615	10018	0	696
18.500	12.117	16601	10061	0	696
17.202	13.127	16592	10365	0	696
14.641	13.091	16584	10799	0	696
12.550	12.369	16576	11168	0	696
14.208	15.362	16566	11417	0	696
16.552	15.759	16558	11699	0	696
22.250	19.546	16550	12089	0	696
26.578	22.250	16542	12480	0	696
31.446	28.381	16531	12773	0	696
33.321	32.312	16524	12979	0	696
30.076	33.033	16516	13207	0	696
24.089	29.643	16506	13543	0	696
17.562	22.395	16504	13966	0	696
15.507	16.697	16500	14421	0	696
15.831	14.605	16496	14855	0	696
21.277	18.464	16493	15235	0	696
24.234	21.024	16489	15571	0	696
24.414	23.404	16487	15929	0	696
23.296	23.657	16487	16319	0	696
18.283	18.969	16484	16600	0	696
17.202	16.877	16483	16785	0	696
14.749	15.254	16477	16915	0	696
16.264	16.516	16476	17023	0	696
17.959	16.589	16472	17099	0	696
19.978	18.824	16471	17186	0	696
16.048	14.100	16463	17175	0	696
14.641	11.576	16457	16947	0	696
14.245	11.684	16443	16492	0	696
16.913	15.074	16426	15983	0	696
21.204	21.926	16417	15614	0	696
23.512	23.801	16406	15473	0	696
20.664	21.241	16394	15354	0	696
20.916	20.808	16383	15105	0	696
21.673	21.204	16370	14866	0	696
26.253	26.253	16363	14899	0	696
28.886	29.210	16361	15213	0	696
28.886	27.010	16361	15604	0	696
22.250	20.123	16355	15907	0	696
19.221	16.516	16351	16113	0	696
18.680	14.172	16350	16287	0	696
20.591	19.582	16348	16427	0	696
25.063	22.322	16345	16524	0	696
22.034	23.621	16341	16600	0	696
18.103	18.933	16336	16633	0	696
14.208	13.163	16330	16611	0	696
13.631	10.386	16328	16611	0	696
15.290	12.153	16324	16720	0	696
18.860	16.913	16322	16872	0	696
19.798	21.781	16318	16893	0	696
21.096	25.532	16314	16796	0	696
23.260	26.974	16311	16763	0	696
23.368	26.145	16309	16828	0	696
21.168	24.342	16303	16817	0	696
15.362	19.221	16297	16644	0	696
10.855	14.605	16289	16416	0	696
8.763	10.061	16284	16265	0	696
10.855	10.242	16276	16135	0	696
17.238	16.336	16270	15994	0	696
20.700	22.034	16263	15821	0	696
24.162	26.614	16252	15669	0	696
19.978	24.919	16244	15517	0	696
15.795	18.103	16233	15224	0	696
8.835	10.386	16217	14790	0	696
3.678	5.950	16204	14432	0	696
1.623	5.229	16192	14259	0	696
2.308	8.475	16177	14118	0	696
3.714	10.133	16163	13890	0	696
4.183	10.746	16147	13630	0	696
4.291	9.556	16134	13478	0	696
2.128	9.196	16119	13434	0	696
-0.938	6.167	16110	13489	0	696
-1.479	9.268	16094	13575	0	696
-0.469	11.143	16083	13619	0	696
0.938	11.973	16067	13640	0	696
2.308	12.982	16058	13706	0	696
2.380	9.556	16048	13857	0	696
2.308	8.583	16037	14042	0	696
3.173	10.746	16024	14118	0	696
1.298	13.415	16013	14194	0	696
-0.108	11.215	16005	14421	0	696
-5.590	5.698	15997	14758	0	696
-10.566	1.262	15988	15050	0	696
-10.783	-1.226	15982	15257	0	696
-7.537	1.731	15978	15473	0	696
-4.472	5.626	15966	15647	0	696
-5.445	5.806	15953	15452	0	696
-8.258	2.164	15933	15007	0	696
-11.684	0.938	15922	14844	0	696
-10.169	3.246	15913	15105	0	696
-5.950	7.862	15912	15506	0	696
-0.793	12.297	15906	15951	0	696
0.433	14.208	15908	16438	0	696
-3.210	9.268	15908	16937	0	696
-7.068	4.039	15912	17403	0	696
-9.448	-1.442	15909	17761	0	696
-9.773	-2.849	15912	17956	0	696
-8.222	-1.154	15912	18151	0	696
-4.111	3.787	15914	18412	0	696
2.669	10.458	15918	18683	0	696
10.494	18.716	15920	18856	0	696
15.543	21.926	15918	18846	0	696
18.175	22.286	15921	18770	0	696
12.009	17.418	15925	18921	0	696
4.364	9.232	15935	19301	0	696
-4.291	6.491	15942	19648	0	696
-6.094	6.058	15949	19789	0	696
-1.190	13.848	15955	19767	0	696
2.056	20.050	15962	19767	0	696
7.681	25.496	15975	19984	0	696
7.537	26.253	15991	20386	0	696
5.517	23.585	16005	20809	0	696
5.554	22.972	16024	21167	0	696
6.816	22.575	16046	21622	0	696
10.674	25.856	16073	22229	0	696
9.917	27.335	16099	22815	0	696
5.554	26.217	16127	23260	0	696
1.262	22.250	16152	23542	0	696
-1.911	19.978	16178	23748	0	696
-2.164	19.654	16209	24008	0	696
-0.757	17.346	16239	24312	0	696
-3.173	16.769	16271	24572	0	696
-7.032	13.523	16299	24583	0	696
-10.458	8.907	16316	24117	0	696
-11.937	6.275	16332	23314	0	696
-13.307	3.606	16350	22642	0	696
-14.028	0.577	16374	22262	0	696
-18.933	-1.479	16390	21926	1	644
-19.582	-3.318	16405	21427	0	644
-20.231	-1.983	16419	20809	0	644
-16.841	-0.757	16434	20223	0	644
-20.159	-2.560	16450	19692	0	644
-25.171	-6.094	16454	19008	0	644
-32.600	-13.595	16456	17989	0	644
-39.163	-18.175	16451	16763	0	644
-40.101	-20.014	16450	15636	0	644
-37.541	-18.824	16444	14714	0	644
-34.764	-17.382	16446	14183	0	644
-32.564	-14.245	16454	14096	0	644
-32.528	-15.326	16459	14096	0	644
-32.131	-15.543	16460	13922	0	644
-33.141	-15.651	16464	13651	0	644
-36.278	-19.437	16465	13499	0	644
-40.353	-22.322	16472	13532	0	644
-42.157	-24.558	16477	13695	0	644
-43.455	-26.542	16485	13857	0	644
-39.380	-23.152	16491	13955	0	644
-37.396	-20.880	16498	14096	0	644
-39.019	-21.132	16504	14291	0	644
-43.166	-22.395	16510	14476	0	644
-48.035	-27.155	16516	14552	0	644
-52.254	-30.436	16516	14519	0	644
-52.759	-31.158	16518	14465	0	644
-54.598	-32.672	16518	14454	0	644
-54.201	-31.049	16525	14497	0	644
-57.916	-33.069	16525	14595	0	644
-57.194	-32.312	16526	14649	0	644
-56.581	-30.833	16525	14562	0	644
-55.211	-26.506	16525	14432	0	644
-49.802	-23.729	16522	14389	0	644
-47.818	-16.949	16522	14411	0	644
-43.635	-13.884	16517	14345	0	644
-41.075	-9.737	16516	14172	0	644
-38.226	-10.855	16509	14074	0	644
-37.072	-10.783	16506	14129	0	644
-36.928	-11.937	16509	14248	0	644
-38.586	-15.975	16498	14226	0	644
-43.671	-16.120	16491	13933	0	644
-43.563	-15.326	16477	13499	0	644
-43.094	-15.362	16465	13131	0	644
-39.344	-12.874	16452	12925	0	644
-36.675	-13.704	16444	12892	0	644
-35.197	-15.362	16438	12990	0	644
-36.964	-17.779	16424	13033	0	644
-39.993	-20.591	16417	12935	0	644
-40.822	-21.890	16406	12957	0	644
-40.750	-22.827	16406	13380	0	644
-41.147	-24.883	16413	14215	0	644
-42.012	-27.119	16423	15257	0	644
-41.724	-28.597	16432	16222	0	644
-42.301	-28.128	16439	16828	0	644
-41.543	-29.138	16446	17164	0	644
-38.118	-25.496	16444	17327	0	644
-35.701	-25.712	16446	17316	0	644
-32.312	-22.431	16443	17175	0	644
-31.013	-24.198	16436	16926	0	644
-32.167	-26.397	16427	16600	0	644
-31.085	-24.089	16420	16352	0	644
-25.712	-21.962	16419	16276	0	644
-18.969	-15.903	16414	16330	0	644
-11.684	-10.314	16413	16341	0	644
-7.140	-7.357	16407	16298	0	644
-9.232	-8.330	16407	16309	0	644
-8.763	-10.566	16407	16449	0	644
-9.412	-8.907	16410	16687	0	644
-5.698	-6.419	16411	16839	0	644
-4.183	-4.688	16410	16861	0	644
-3.859	-3.354	16410	16850	0	644
-4.904	-5.409	16407	16904	0	644
-6.022	-9.232	16413	17023	0	644
-9.232	-10.855	16411	17110	0	644
-8.511	-11.323	16407	16991	0	644
-9.304	-12.117	16403	16655	0	644
-7.825	-12.550	16397	16384	0	644
-12.009	-13.920	16393	16276	0	644
-13.884	-15.759	16390	16189	0	644
-15.038	-13.920	16386	16103	0	644
-15.038	-13.523	16384	16037	0	644
-11.251	-10.819	16381	15972	0	644
-6.167	-8.222	16378	15918	0	644
-5.842	-6.311	16378	16037	0	644
-8.366	-5.049	16378	16233	0	644
-12.369	-7.176	16374	16200	0	644
-13.631	-10.963	16367	15918	0	644
-15.975	-13.523	16357	15528	0	644
-13.199	-15.002	16345	15137	0	644
-11.396	-13.199	16334	14779	0	644
-9.340	-10.169	16318	14378	0	644
-7.753	-8.475	16303	13901	0	644
-6.311	-6.635	16288	13456	0	644
-6.383	-7.753	16275	13207	0	644
-5.265	-7.068	16262	13196	0	644
-6.275	-7.357	16255	13380	0	644
-4.255	-5.950	16248	13630	0	644
-1.623	-4.724	16239	13847	0	644
0.000	-4.616	16235	14063	0	644
0.252	-6.383	16230	14335	0	644
-0.865	-6.491	16229	14736	0	644
-0.180	-8.330	16225	15137	0	644
0.469	-7.285	16222	15408	0	644
1.046	-6.924	16218	15604	0	644
-0.216	-6.635	16213	15831	0	644
-1.551	-5.950	16211	16048	0	644
-1.875	-5.229	16209	16222	0	644
-0.108	-2.777	16205	16341	0	644
1.190	-3.246	16202	16449	0	644
1.190	-4.832	16197	16492	0	644
-2.596	-8.330	16192	16427	0	644
-6.599	-10.278	16185	16374	0	644
-8.006	-12.874	16180	16363	0	644
-9.160	-11.504	16177	16374	0	644
-9.124	-9.665	16169	16309	0	644
-7.285	-8.691	16159	16103	0	644
-5.481	-6.022	16151	15886	0	644
-4.832	-3.787	16151	15994	0	644
-3.967	-2.705	16151	16363	0	644
-6.275	-3.210	16145	16557	0	644
-8.871	-4.832	16139	16459	0	644
-8.402	-4.544	16134	16265	0	644
-3.823	-2.669	16124	16070	0	644
0.685	1.947	16119	15972	0	644
3.570	3.750	16116	16027	0	644
5.590	2.777	16111	16189	0	644
4.436	0.577	16111	16352	0	644
5.770	-0.036	16111	16568	0	644
9.448	3.246	16116	16893	0	644
10.602	5.734	16116	17186	0	644
10.206	4.760	16114	17262	0	644
7.465	1.190	16112	17132	0	644
4.688	-0.325	16107	16969	0	644
5.481	-1.082	16103	16872	0	644
4.472	1.010	16094	16655	0	644
5.049	1.839	16086	16276	0	644
2.885	0.433	16077	15896	0	644
1.406	-0.325	16067	15680	0	644
2.777	1.479	16063	15647	0	644
7.609	4.940	16063	15799	0	644
10.602	6.780	16063	16113	0	644
13.343	6.455	16066	16503	0	644
14.317	5.193	16073	16915	0	644
12.261	4.327	16079	17370	0	644
16.336	7.032	16091	17902	0	644
17.743	9.556	16104	18488	0	644
21.818	11.720	16116	19062	0	644
21.998	13.992	16131	19529	0	644
24.017	15.290	16145	19908	0	644
22.827	18.500	16159	20266	0	644
24.342	19.582	16176	20635	0	644
25.243	20.483	16196	21004	0	644
24.162	16.877	16213	21297	0	644
21.637	14.208	16229	21514	0	644
20.483	11.720	16243	21568	0	644
18.211	11.576	16262	21492	0	644
20.844	14.317	16277	21503	0	644
23.368	15.326	16291	21503	0	644
22.647	16.444	16305	21318	0	644
21.168	13.920	16318	21112	0	644
15.795	13.163	16336	21004	0	644
13.668	11.792	16354	21004	0	644
12.369	10.278	16371	21058	1	648
14.858	11.396	16390	21036	0	648
15.867	10.566	16405	20830	0	648
17.057	8.691	16418	20516	0	648
19.257	7.321	16432	20169	0	648
18.392	7.681	16444	19833	0	648
17.995	7.645	16454	19485	0	648
15.759	5.373	16465	19084	0	648
12.045	5.517	16472	18639	0	648
8.619	4.183	16484	18238	0	648
7.321	2.957	16492	17934	0	648
8.655	2.885	16505	17772	0	648
8.475	3.823	16520	17718	0	648
10.566	2.921	16529	17587	0	648
9.845	2.272	16537	17305	0	648
11.287	2.849	16545	16980	0	648
11.648	3.246	16551	16720	0	648
11.612	1.947	16558	16481	0	648
12.550	1.767	16564	16189	0	648
11.612	1.623	16566	15777	0	648
9.845	2.560	16568	15408	0	648
11.396	3.642	16570	15094	0	648
12.658	4.183	16568	14758	0	648
12.586	2.488	16566	14367	0	648
11.828	-1.839	16563	13988	0	648
8.979	-3.642	16559	13673	0	648
6.527	-5.554	16555	13402	0	648
7.429	-3.426	16550	13163	0	648
11.864	1.731	16545	12968	0	648
15.146	7.032	16542	12849	0	648
21.060	9.520	16533	12675	0	648
20.880	9.953	16524	12361	0	648
20.627	7.248	16510	11970	0	648
16.841	3.859	16496	11612	0	648
16.048	3.714	16477	11146	0	648
14.713	5.085	16456	10604	0	648
17.057	8.078	16439	10235	0	648
18.969	12.009	16420	10116	0	648
21.385	13.920	16407	10181	0	648
20.195	13.235	16397	10441	0	648
20.447	15.867	16387	10896	0	648
20.123	14.172	16384	11493	0	648
20.880	14.317	16381	12068	0	648
20.267	11.828	16375	12556	0	648
15.975	6.924	16371	13055	0	648
12.514	2.669	16371	13695	0	648
10.422	1.947	16374	14411	0	648
8.727	2.849	16371	14964	0	648
10.314	5.445	16370	15332	0	648
11.612	5.914	16371	15755	0	648
9.484	5.121	16375	16330	0	648
8.583	5.662	16378	16915	0	648
11.035	7.104	16384	17446	0	648
15.362	11.576	16387	17902	0	648
20.411	15.507	16394	18271	0	648
24.486	18.356	16398	18520	0	648
27.047	17.634	16401	18650	0	648
24.162	17.670	16405	18715	0	648
22.286	15.146	16406	18726	0	648
24.270	16.012	16406	18650	0	648
23.512	20.627	16405	18433	0	648
27.047	22.899	16401	18141	0	648
27.696	24.775	16397	17869	0	648
24.306	22.467	16397	17696	0	648
18.175	16.300	16393	17544	0	648
14.605	11.864	16386	17251	0	648
10.783	10.133	16382	16839	0	648
14.064	11.179	16374	16427	0	648
17.779	13.451	16367	16113	0	648
18.608	13.776	16363	15875	0	648
19.113	14.208	16354	15701	0	648
18.428	13.920	16344	15452	0	648
16.913	14.497	16337	15181	0	648
20.375	18.608	16330	15029	0	648
22.431	18.211	16325	15072	0	648
23.945	18.464	16318	15137	0	648
19.690	11.071	16314	15061	0	648
15.903	5.049	16305	14942	0	648
9.989	2.128	16301	14953	0	648
5.517	1.154	16301	15126	0	648
3.714	3.210	16295	15343	0	648
3.029	3.210	16295	15506	0	648
1.406	1.875	16291	15658	0	648
1.803	1.695	16289	15777	0	648
5.734	4.327	16279	15701	0	648
11.215	10.350	16275	15452	0	648
17.382	17.418	16268	15322	0	648
19.618	19.221	16262	15419	0	648
21.313	20.267	16259	15582	0	648
18.680	16.156	16259	15755	0	648
19.365	13.415	16255	15940	0	648
17.310	8.402	16255	16103	0	648
15.939	5.373	16252	16222	0	648
11.612	2.092	16248	16265	0	648
7.609	-0.721	16246	16265	0	648
3.678	-3.390	16244	16319	0	648
-0.397	-5.337	16248	16579	0	648
-2.488	-7.393	16250	16991	0	648
-3.606	-7.032	16252	17240	0	648
-3.282	-6.671	16255	17338	0	648
-0.577	-4.039	16252	17370	0	648
1.262	-2.236	16251	17240	0	648
2.416	-2.993	16246	17002	0	648
0.180	-4.183	16244	16828	0	648
-1.587	-6.671	16235	16665	0	648
-3.967	-7.862	16229	16309	0	648
-3.787	-9.088	16218	15864	0	648
-4.183	-10.133	16209	15539	0	648
-2.308	-12.189	16200	15343	0	648
-1.947	-12.477	16189	15083	0	648
-2.308	-13.127	16177	14725	0	648
-2.524	-11.937	16167	14486	0	648
-2.344	-9.484	16163	14465	0	648
-4.111	-13.199	16152	14530	0	648
-7.068	-16.697	16144	14573	0	648
-11.612	-21.890	16137	14584	0	648
-17.454	-27.479	16132	14627	0	648
-20.231	-30.797	16126	14768	0	648
-20.231	-28.850	16126	15040	0	648
-14.497	-26.614	16123	15365	0	648
-10.602	-23.152	16116	15517	0	648
-8.511	-21.601	16106	15332	0	648
-9.016	-20.916	16091	14920	0	648
-15.398	-22.034	16081	14627	0	648
-18.139	-22.683	16071	14606	0	648
-16.769	-19.041	16063	14682	0	648
-12.117	-14.677	16053	14736	0	648
-3.282	-8.439	16048	14834	0	648
2.416	-3.606	16045	15083	0	648
5.265	-1.947	16041	15408	0	648
3.390	-2.236	16032	15495	0	648
0.397	-4.364	16013	15029	0	648
-1.406	-4.364	15991	14237	0	648
1.551	-2.019	15967	13543	0	648
4.688	2.885	15946	13087	0	648
10.566	7.212	15927	12827	0	648
12.369	9.701	15913	12816	0	648
15.218	9.737	15902	13055	0	648
10.025	7.068	15892	13424	0	648
6.239	1.226	15888	13933	0	648
3.967	-1.839	15893	14736	0	648
3.354	-1.875	15901	15864	0	648
6.744	0.036	15916	17088	0	648
10.314	4.111	15927	18151	0	648
11.107	5.914	15942	18976	0	648
9.629	5.121	15955	19681	0	648
6.022	1.839	15968	20364	0	648
5.986	1.370	15986	20982	0	648
7.501	1.587	16001	21503	0	648
8.439	5.770	16020	21969	0	648
12.333	8.547	16038	22414	0	648
12.730	9.701	16061	22880	0	648
13.920	9.845	16085	23423	0	648
18.500	11.864	16114	24062	0	648
21.421	13.451	16143	24637	0	648
25.135	16.985	16170	24984	0	648
28.237	21.998	16196	25104	0	648
28.597	23.404	16225	25180	0	648
28.237	23.765	16255	25364	0	648
28.020	24.811	16283	25527	0	648
27.371	20.736	16316	25559	0	648
25.604	18.139	16345	25527	0	648
24.053	16.949	16377	25538	0	648
22.286	16.552	16411	25603	0	648
21.457	18.428	16444	25679	0	648
15.903	15.975	16484	25689	0	648
10.746	9.016	16512	25494	0	648
2.849	0.974	16539	24995	0	648
-3.462	-6.203	16563	24258	1	672
-5.914	-8.619	16586	23466	0	672
-4.580	-7.573	16608	22772	0	672
-2.885	-5.770	16628	22067	0	672
0.252	-3.498	16638	21167	0	672
1.082	-2.849	16654	20136	0	672
0.829	-2.488	16670	19366	0	672
0.252	-2.849	16690	18997	0	672
-0.541	-2.128	16714	18900	0	672
-2.092	-1.010	16736	18802	0	672
-1.587	1.334	16755	18455	0	672
0.397	4.544	16769	17902	0	672
3.859	6.924	16781	17273	0	672
7.465	8.583	16793	16633	0	672
9.052	8.835	16801	16048	0	672
9.556	8.727	16806	15473	0	672
5.517	9.592	16813	14888	0	672
5.157	9.556	16819	14400	0	672
4.940	10.855	16823	14042	0	672
6.022	10.963	16830	13695	0	672
10.169	13.091	16830	13261	0	672
12.441	11.937	16826	12708	0	672
14.425	13.343	16819	12035	0	672
11.937	13.235	16813	11384	0	672
10.674	9.412	16802	10896	0	672
7.465	6.671	16794	10473	0	672
4.291	5.229	16782	10072	0	672
4.544	4.003	16773	9801	0	672
4.832	6.022	16764	9682	0	672
4.652	5.121	16755	9617	0	672
5.481	5.698	16743	9519	0	672
5.554	3.246	16730	9443	0	672
5.950	0.902	16718	9421	0	672
3.967	-0.180	16705	9421	0	672
4.724	0.397	16690	9486	0	672
5.049	-0.036	16681	9617	0	672
5.373	5.409	16668	9834	0	672
8.186	8.763	16656	10029	0	672
10.927	10.891	16636	10061	0	672
12.802	10.602	16617	9975	0	672
15.795	11.107	16603	10007	0	672
15.579	11.179	16586	10235	0	672
13.631	9.809	16572	10560	0	672
9.881	9.881	16557	10842	0	672
6.239	10.891	16542	11092	0	672
5.806	9.665	16530	11374	0	672
8.258	12.802	16518	11797	0	672
12.441	16.661	16512	12382	0	672
16.661	16.516	16498	12881	0	672
15.867	15.903	16483	12968	0	672
15.975	13.127	16463	12838	0	672
10.602	11.468	16451	12968	0	672
8.475	9.376	16439	13391	0	672
5.373	6.744	16430	13890	0	672
2.019	4.400	16423	14367	0	672
1.262	2.236	16419	14888	0	672
0.505	-0.216	16419	15560	0	672
0.974	0.325	16423	16384	0	672
1.587	0.216	16426	17262	0	672
2.344	1.731	16432	18021	0	672
2.813	1.731	16440	18650	0	672
4.111	3.642	16444	19182	0	672
6.780	6.635	16452	19626	0	672
8.835	8.186	16457	19941	0	672
10.927	9.989	16460	20125	0	672
12.405	9.052	16465	20212	0	672
14.858	8.835	16463	20115	0	672
14.821	8.402	16463	19822	0	672
15.182	8.366	16460	19496	0	672
15.182	11.684	16457	19258	0	672
13.884	14.713	16456	19030	0	672
17.743	16.264	16450	18715	0	672
19.546	20.050	16443	18249	0	672
24.739	20.916	16436	17707	0	672
25.532	21.313	16427	17262	0	672
25.929	18.824	16420	16947	0	672
22.503	16.589	16413	16644	0	672
17.310	11.432	16403	16254	0	672
11.900	9.088	16391	15755	0	672
9.556	9.665	16382	15332	0	672
11.143	12.081	16374	15105	0	672
14.605	16.552	16365	15007	0	672
16.625	17.057	16357	14942	0	672
20.339	18.067	16350	14855	0	672
19.798	17.562	16344	14866	0	672
20.916	18.536	16338	15007	0	672
22.358	19.942	16336	15181	0	672
18.860	19.510	16330	15246	0	672
16.985	15.723	16324	15235	0	672
14.317	14.858	16317	15257	0	672
19.221	16.264	16316	15398	0	672
23.008	19.726	16314	15625	0	672
26.722	21.926	16312	15842	0	672
25.352	22.683	16308	15940	0	672
18.860	16.192	16295	15723	0	672
13.776	11.756	16284	15267	0	672
10.350	8.402	16271	14953	0	672
10.855	8.366	16266	14920	0	672
14.208	11.576	16258	14964	0	672
16.769	14.569	16246	14888	0	672
20.411	16.444	16230	14584	0	672
20.627	18.320	16213	14139	0	672
21.096	15.939	16198	13825	0	672
16.048	14.641	16185	13727	0	672
13.848	12.514	16176	13771	0	672
9.484	9.484	16165	13912	0	672
5.049	7.898	16153	14031	0	672
5.193	8.006	16145	14150	0	672
2.380	6.203	16145	14595	0	672
0.325	5.301	16149	15332	0	672
-1.551	1.695	16147	15896	0	672
-4.075	-1.695	16143	16113	0	672
-3.859	-1.190	16143	16319	0	672
-0.252	0.072	16145	16687	0	672
4.436	2.633	16145	17110	0	672
8.907	6.780	16147	17468	0	672
11.648	9.881	16147	17674	0	672
13.415	11.828	16143	17598	0	672
15.326	14.605	16132	17251	0	672
14.064	15.290	16124	16828	0	672
11.973	12.441	16112	16524	0	672
10.025	12.009	16106	16330	0	672
7.285	12.838	16097	16168	0	672
8.475	12.982	16091	16103	0	672
12.405	16.444	16085	16146	0	672
15.579	16.516	16085	16298	0	672
16.805	16.985	16083	16524	0	672
19.510	14.894	16085	16752	0	672
17.634	16.552	16085	16915	0	672
18.752	17.995	16083	17088	0	672
17.129	16.805	16087	17327	0	672
16.300	18.824	16090	17598	0	672
14.533	17.706	16093	17772	0	672
15.110	18.175	16094	17826	0	672
16.264	17.959	16094	17848	0	672
18.716	17.706	16098	17902	0	672
18.969	16.949	16098	17989	0	672
20.375	15.146	16103	18065	0	672
18.175	14.605	16106	18151	0	672
19.978	16.805	16111	18238	0	672
18.572	15.218	16114	18314	0	672
18.428	14.821	16118	18347	0	672
17.598	12.117	16124	18347	0	672
15.543	10.278	16126	18347	0	672
15.074	10.061	16130	18271	0	672
14.641	10.386	16131	18086	0	672
11.179	10.674	16134	17967	0	672
8.583	11.432	16140	18021	0	672
5.950	9.196	16147	18184	0	672
3.750	7.717	16157	18444	0	672
3.678	4.508	16169	18694	0	672
3.318	3.534	16180	18911	0	672
4.255	3.606	16193	19193	0	672
5.409	8.078	16213	19659	0	672
8.691	12.009	16237	20245	0	672
8.943	13.018	16258	20776	0	672
8.727	12.369	16277	21167	0	672
7.609	10.602	16303	21503	0	672
10.494	11.828	16325	21861	0	672
16.913	17.815	16351	22186	0	672
22.719	20.916	16378	22490	0	672
24.486	22.899	16403	22750	0	672
21.745	16.084	16430	22913	0	672
13.559	12.730	16452	22869	0	672
9.340	5.409	16476	22728	0	672
8.042	3.714	16502	22685	0	672
6.131	4.075	16526	22652	0	672
7.248	4.291	16550	22501	1	668
4.616	4.904	16575	22349	0	668
6.635	6.744	16603	22295	0	668
9.340	6.383	16625	22229	0	668
10.891	8.114	16650	22013	0	668
12.189	7.285	16671	21676	0	668
11.179	7.970	16695	21286	0	668
8.150	8.619	16711	20841	0	668
7.825	9.160	16730	20364	0	668
10.891	9.629	16748	19898	0	668
12.045	11.179	16763	19420	0	668
10.999	8.943	16775	18813	0	668
8.475	6.094	16784	18086	0	668
5.265	0.829	16794	17468	0	668
1.875	-2.236	16810	17229	0	668
3.029	-2.669	16829	17240	0	668
5.481	2.344	16846	17143	0	668
8.619	7.537	16852	16687	0	668
9.845	11.973	16859	16016	0	668
9.665	11.468	16859	15332	0	668
8.907	8.511	16860	14736	0	668
8.979	4.904	16862	14172	0	668
9.340	3.787	16855	13554	0	668
11.251	5.193	16852	12881	0	668
12.117	8.042	16843	12306	0	668
11.828	8.186	16841	11883	0	668
10.206	7.248	16837	11580	0	668
7.429	5.157	16829	11341	0	668
3.750	2.777	16822	11081	0	668
0.865	1.334	16813	10799	0	668
-0.649	1.046	16804	10647	0	668
1.190	1.983	16800	10680	0	668
5.157	4.039	16793	10777	0	668
5.986	5.409	16784	10821	0	668
7.321	6.996	16776	10853	0	668
6.671	5.157	16764	10842	0	668
6.527	4.977	16749	10647	0	668
9.917	6.131	16731	10322	0	668
13.956	9.088	16711	10050	0	668
17.490	11.287	16689	9693	0	668
17.670	12.333	16664	9194	0	668
17.346	11.864	16642	8933	0	668
13.307	9.989	16621	9042	0	668
11.468	8.366	16605	9367	0	668
10.242	9.701	16592	9790	0	668
13.451	9.809	16578	10224	0	668
18.139	10.783	16563	10604	0	668
19.870	13.668	16553	11037	0	668
20.736	15.002	16549	11807	0	668
19.654	13.018	16543	12740	0	668
15.975	13.199	16537	13369	0	668
13.668	11.540	16525	13651	0	668
15.290	8.402	16512	13814	0	668
12.009	7.681	16502	14031	0	668
10.963	6.022	16496	14345	0	668
10.314	5.409	16485	14801	0	668
8.943	5.517	16479	15213	0	668
11.287	6.960	16469	15463	0	668
11.360	4.075	16465	15734	0	668
7.898	1.226	16464	16211	0	668
4.111	-2.669	16463	16752	0	668
0.505	-5.770	16463	17219	0	668
1.839	-1.226	16457	17511	0	668
5.229	4.724	16456	17685	0	668
12.297	10.386	16454	17859	0	668
12.081	12.441	16451	18021	0	668
10.242	10.674	16450	18130	0	668
8.366	7.140	16446	18195	0	668
7.465	6.167	16447	18271	0	668
6.744	7.573	16450	18466	0	668
6.599	8.366	16451	18802	0	668
3.354	7.609	16457	19138	0	668
1.370	3.137	16463	19323	0	668
1.442	0.649	16463	19366	0	668
3.714	-1.262	16465	19301	0	668
7.717	-0.541	16464	19138	0	668
8.222	-1.118	16464	18954	0	668
7.429	-1.479	16460	18759	0	668
5.121	-3.065	16460	18488	0	668
4.616	-3.895	16457	18173	0	668
6.131	-0.938	16451	17848	0	668
8.366	1.587	16451	17620	0	668
10.350	5.445	16452	17598	0	668
10.891	6.744	16452	17663	0	668
10.494	6.058	16451	17511	0	668
6.167	3.246	16443	17121	0	668
2.596	-1.154	16434	16590	0	668
-1.190	-3.137	16426	16113	0	668
-3.750	-2.236	16419	15799	0	668
-1.298	1.947	16413	15680	0	668
3.354	5.301	16407	15560	0	668
8.583	8.511	16399	15365	0	668
9.448	6.275	16397	15246	0	668
7.934	1.082	16391	15300	0	668
2.416	-5.157	16390	15408	0	668
-2.488	-11.360	16385	15419	0	668
-4.616	-13.018	16382	15343	0	668
-4.255	-13.812	16375	15246	0	668
0.108	-9.701	16365	15094	0	668
3.787	-4.183	16350	14595	0	668
7.717	-2.128	16328	13803	0	668
6.275	-0.974	16309	13131	0	668
4.616	-3.246	16289	12719	0	668
1.623	-6.960	16270	12426	0	668
-2.236	-10.386	16258	12306	0	668
-4.039	-12.802	16244	12426	0	668
-5.193	-11.396	16233	12664	0	668
-3.101	-9.773	16226	12957	0	668
1.406	-6.852	16223	13478	0	668
4.868	-3.065	16226	14291	0	668
7.898	-0.180	16229	15072	0	668
6.635	1.154	16229	15582	0	668
4.364	1.118	16226	15886	0	668
4.111	0.252	16223	16168	0	668
3.714	-1.731	16223	16514	0	668
4.039	-3.101	16226	16893	0	668
1.442	-3.714	16225	17197	0	668
1.154	-2.777	16225	17381	0	668
0.865	-1.406	16225	17490	0	668
-0.865	-1.010	16218	17436	0	668
-1.479	-2.849	16211	17186	0	668
-5.085	-5.013	16204	16861	0	668
-7.753	-7.717	16193	16590	0	668
-11.179	-13.163	16184	16319	0	668
-16.048	-16.012	16169	15918	0	668
-19.401	-20.050	16156	15430	0	668
-23.945	-25.027	16143	15072	0	668
-27.660	-24.234	16134	14920	0	668
-26.433	-25.712	16120	14877	0	668
-25.784	-26.181	16111	14779	0	668
-26.650	-26.001	16097	14606	0	668
-27.010	-28.705	16085	14432	0	668
-28.309	-30.833	16071	14313	0	668
-31.085	-30.869	16063	14291	0	668
-33.105	-30.436	16054	14421	0	668
-35.052	-31.446	16048	14660	0	668
-37.577	-31.626	16041	14920	0	668
-39.199	-32.816	16037	15213	0	668
-42.337	-36.639	16038	15669	0	668
-44.068	-39.740	16041	16222	0	668
-44.825	-39.019	16045	16731	0	668
-41.868	-35.124	16046	17186	0	668
-34.656	-31.843	16052	17642	0	668
-31.735	-29.427	16063	18184	0	668
-32.420	-32.312	16071	18770	0	668
-39.091	-39.849	16079	19279	0	668
-47.638	-45.907	16094	19692	0	668
-51.172	-47.746	16107	20125	0	668
-54.129	-47.494	16120	20613	0	668
-52.434	-45.114	16136	21058	0	668
-54.165	-45.186	16152	21394	0	668
-52.578	-45.871	16169	21655	0	668
-51.497	-44.861	16180	21752	0	668
-47.710	-44.501	16193	21687	0	668
-47.313	-43.202	16206	21655	0	668
-47.890	-43.347	16225	21741	0	668
-47.241	-44.176	16242	21882	0	668
-48.972	-46.123	16258	21958	0	668
-47.422	-48.503	16275	21850	0	668
-46.087	-47.169	16289	21709	1	636
-47.205	-47.494	16312	21839	0	636
-48.143	-48.431	16338	22175	0	636
-50.270	-48.107	16357	22284	0	636
-55.427	-51.316	16371	22002	0	636
-59.755	-53.552	16385	21524	0	636
-64.082	-57.194	16393	20895	0	636
-64.190	-56.653	16399	20158	0	636
-62.279	-57.158	16410	19605	0	636
-59.178	-55.608	16420	19334	0	636
-59.358	-58.024	16438	19203	0	636
-63.325	-61.882	16456	19225	0	636
-68.085	-66.066	16476	19388	0	636
-72.304	-68.554	16500	19616	0	636
-73.062	-68.698	16520	19811	0	636
-71.150	-65.885	16542	19865	0	636
-66.679	-64.695	16562	19789	0	636
-63.109	-64.695	16582	19735	0	636
-58.384	-63.577	16604	19757	0	636
-52.074	-62.676	16625	19865	0	636
-48.612	-59.574	16649	19984	0	636
-45.041	-57.266	16674	20039	0	636
-44.356	-56.401	16691	19963	0	636
-46.845	-54.995	16711	19757	0	636
-50.270	-56.617	16724	19399	0	636
-51.533	-55.680	16741	18932	0	636
-54.057	-56.545	16749	18412	0	636
-53.228	-55.175	16757	17848	0	636
-51.461	-52.687	16764	17273	0	636
-48.215	-51.749	16773	16796	0	636
-46.484	-49.513	16789	16633	0	636
-47.566	-48.071	16801	16644	0	636
-48.684	-50.631	16809	16438	0	636
-50.992	-49.693	16810	15875	0	636
-49.477	-49.946	16808	15116	0	636
-43.022	-48.684	16806	14389	0	636
-37.216	-42.625	16802	13781	0	636
-32.744	-40.642	16800	13304	0	636
-32.672	-36.928	16794	12957	0	636
-31.879	-35.233	16790	12643	0	636
-31.158	-34.944	16786	12328	0	636
-29.895	-33.285	16782	12068	0	636
-28.237	-33.502	16777	11905	0	636
-26.974	-32.528	16771	11797	0	636
-26.325	-32.384	16763	11623	0	636
-23.512	-29.318	16755	11428	0	636
-22.899	-27.587	16747	11319	0	636
-25.532	-29.463	16736	11298	0	636
-31.626	-32.276	16727	11211	0	636
-35.918	-37.937	16714	11016	0	636
-36.928	-39.344	16702	10886	0	636
-33.970	-37.468	16691	10972	0	636
-30.112	-33.393	16683	11200	0	636
-29.102	-33.502	16675	11450	0	636
-28.922	-32.456	16665	11721	0	636
-28.705	-32.492	16661	12024	0	636
-27.876	-31.374	16650	12274	0	636
-23.116	-27.335	16645	12491	0	636
-18.933	-21.313	16638	12784	0	636
-15.362	-18.356	16629	13120	0	636
-14.172	-14.569	16624	13402	0	636
-13.595	-15.435	16616	13608	0	636
-13.631	-14.208	16608	13792	0	636
-10.314	-15.759	16603	14107	0	636
-7.321	-13.740	16605	14671	0	636
-7.429	-16.372	16608	15387	0	636
-12.225	-18.572	16608	15907	0	636
-15.146	-21.745	16601	16048	0	636
-16.084	-18.572	16592	15896	0	636
-9.412	-12.622	16583	15690	0	636
0.072	-4.003	16572	15517	0	636
9.340	2.921	16563	15419	0	636
14.641	4.796	16557	15473	0	636
14.100	4.904	16558	15831	0	636
15.398	4.508	16563	16481	0	636
8.835	2.452	16570	17186	0	636
5.085	-2.056	16572	17674	0	636
1.839	-3.498	16572	17848	0	636
3.210	-2.524	16570	17707	0	636
10.097	3.029	16564	17468	1	316
17.021	9.268	16558	17273	0	316
22.358	14.569	16551	17056	0	316
20.736	15.290	16542	16698	0	316
17.923	11.468	16529	16244	0	316
12.009	11.864	16517	15788	0	316
9.052	8.619	16502	15376	0	316
5.445	6.491	16491	15050	0	316
2.596	4.904	16483	14888	0	316
1.082	3.318	16469	14790	0	316
1.046	3.318	16463	14725	0	316
2.128	4.508	16451	14627	0	316
3.173	4.580	16438	14530	0	316
3.426	3.787	16430	14486	0	316
3.642	1.731	16418	14454	0	316
1.551	-1.623	16407	14400	0	316
-1.479	-5.013	16397	14345	0	316
-6.780	-9.520	16386	14411	0	316
-8.655	-10.206	16382	14584	0	316
-9.124	-10.133	16374	14736	0	316
-4.977	-6.780	16361	14714	0	316
-2.596	-4.724	16348	14476	0	316
-2.272	-4.977	16328	14085	0	316
-6.744	-7.321	16309	13619	0	316
-5.193	-7.248	16285	13261	0	316
-1.479	-4.868	16271	13142	0	316
7.068	-0.072	16256	13163	0	316
11.720	2.308	16235	13109	0	316
11.035	1.226	16218	12946	0	316
2.056	-4.255	16205	13033	0	316
-6.491	-12.405	16198	13543	0	316
-10.242	-14.605	16193	14194	0	316
-7.465	-14.028	16186	14660	0	316
-1.010	-8.727	16178	14975	0	316
6.960	0.757	16177	15322	0	316
13.415	6.888	16169	15701	0	316
13.776	8.294	16163	15994	0	316
12.333	8.150	16156	16124	0	316
10.133	2.272	16147	16178	0	316
6.131	0.252	16140	16287	0	316
5.626	-1.659	16134	16481	0	316
5.481	0.685	16132	16806	0	316
4.904	4.039	16134	17219	0	316
6.996	6.311	16132	17598	0	316
6.347	8.907	16134	17891	0	316
5.878	8.366	16134	18130	0	316
4.508	6.635	16136	18379	0	316
0.938	1.190	16139	18629	0	316
-3.065	1.370	16139	18737	0	316
-2.633	1.947	16136	18672	0	316
-0.974	3.678	16136	18596	0	316
2.633	6.491	16136	18564	0	316
7.465	7.393	16132	18444	0	316
9.917	8.186	16127	18162	0	316
13.379	11.287	16123	17848	0	316
13.595	16.625	16112	17490	0	316
12.261	17.598	16104	17034	0	316
12.225	16.985	16091	16524	0	316
8.150	12.405	16083	16146	0	316
6.167	10.710	16074	15907	0	316
5.157	9.845	16065	15734	0	316
6.491	11.973	16053	15452	0	316
8.006	13.668	16045	15159	0	316
10.061	14.208	16040	15181	0	316
11.107	10.133	16040	15528	0	316
10.746	8.835	16037	15831	0	316
6.996	6.671	16033	15929	0	316
4.327	5.481	16028	15875	0	316
2.092	4.147	16024	15853	0	316
-0.072	3.173	16021	15940	0	316
0.433	2.056	16020	16113	0	316
0.938	1.587	16017	16244	0	316
1.659	1.406	16015	16287	0	316
2.344	2.885	16013	16363	0	316
0.829	1.046	16011	16470	0	316
3.246	1.875	16008	16568	0	316
2.308	1.154	16007	16655	0	316
1.659	0.649	16007	16763	0	316
1.442	2.200	16008	16904	0	316
3.714	3.390	16013	17143	0	316
6.563	5.157	16020	17577	0	316
11.900	6.455	16030	18119	0	316
15.038	7.321	16044	18639	0	316
19.185	6.311	16057	19182	0	316
17.851	7.537	16074	19778	0	316
17.923	9.196	16097	20440	0	316
16.120	10.386	16114	21036	0	316
15.975	11.251	16136	21535	0	316
14.136	12.333	16157	21991	0	316
16.156	12.622	16184	22392	0	316
16.625	12.910	16205	22718	0	316
17.202	13.776	16226	22967	0	316
12.946	11.576	16251	23151	0	316
10.674	9.052	16276	23303	0	316
6.780	5.770	16297	23390	0	316
2.380	3.570	16317	23227	0	316
1.154	2.777	16338	22869	0	316
2.236	3.282	16355	22555	0	316
2.993	5.842	16375	22338	0	316
4.255	5.554	16393	22088	1	396
2.885	2.849	16410	21752	0	396
-0.829	0.216	16426	21351	0	396
-5.770	-3.859	16440	20928	0	396
-9.160	-5.085	16459	20538	0	396
-9.773	-6.203	16473	20245	0	396
-9.376	-6.239	16491	19963	0	396
-8.871	-5.409	16504	19561	0	396
-8.078	-5.481	16518	19171	0	396
-5.590	-2.236	16535	18889	0	396
-6.239	-0.180	16550	18639	0	396
-8.763	-5.193	16562	18314	0	396
-15.831	-12.189	16571	17902	0	396
-21.962	-20.483	16582	17457	0	396
-26.253	-27.768	16592	17088	0	396
-24.162	-28.020	16603	16861	0	396
-21.060	-26.794	16615	16687	0	396
-23.152	-27.407	16624	16438	0	396
-31.915	-32.997	16632	16178	0	396
-37.324	-36.459	16642	16027	0	396
-41.471	-38.695	16654	15972	0	396
-38.983	-34.620	16661	15875	0	396
-32.023	-29.138	16670	15690	0	396
-27.624	-24.847	16675	15473	0	396
-23.693	-21.637	16682	15235	0	396
-20.988	-19.906	16682	14899	0	396
-18.860	-17.454	16681	14454	0	396
-15.723	-15.579	16681	14063	0	396
-16.156	-14.136	16678	13803	0	396
-15.471	-16.444	16675	13510	0	396
-14.245	-13.704	16665	12990	0	396
-13.776	-12.261	16656	12350	0	396
-10.638	-11.071	16638	11721	0	396
-10.999	-9.881	16621	11048	0	396
-12.153	-14.641	16604	10408	0	396
-13.740	-18.500	16588	10018	0	396
-17.851	-22.034	16571	9855	0	396
-18.788	-22.358	16557	9758	0	396
-19.906	-20.988	16545	9790	0	396
-16.372	-15.939	16537	10040	0	396
-14.605	-11.937	16526	10430	0	396
-10.206	-7.537	16520	10766	0	396
-7.501	-5.373	16509	11081	0	396
-8.547	-6.491	16502	11460	0	396
-11.251	-7.898	16498	11927	0	396
-12.477	-9.088	16491	12404	0	396
-12.838	-5.409	16487	12849	0	396
-11.143	-1.803	16483	13304	0	396
-8.727	1.659	16483	13825	0	396
-9.701	1.479	16480	14411	0	396
-12.369	-2.849	16483	14975	0	396
-12.838	-4.904	16477	15387	0	396
-13.054	-6.996	16472	15528	0	396
-12.658	-5.445	16463	15441	0	396
-10.386	-3.895	16457	15441	0	396
-11.720	-4.039	16451	15658	0	396
-12.369	-2.236	16451	15929	0	396
-11.396	-2.128	16450	16222	0	396
-9.052	-0.397	16452	16698	0	396
-5.950	2.452	16463	17425	0	396
-1.659	4.075	16471	18108	0	396
-0.757	3.173	16479	18531	0	396
-1.623	0.325	16480	18705	0	396
-4.219	-3.931	16484	18705	0	396
-6.708	-7.068	16480	18574	0	396
-8.835	-7.212	16484	18509	0	396
-13.848	-8.835	16491	18705	0	396
-17.129	-8.511	16500	19084	0	396
-19.654	-9.412	16504	19258	0	396
-15.723	-6.960	16504	19019	0	396
-9.232	-1.551	16498	18488	0	396
-3.895	2.741	16492	17934	0	396
-3.137	1.226	16487	17490	0	396
-8.691	-3.534	16479	17088	0	396
-13.307	-9.448	16471	16568	0	396
-17.490	-12.333	16456	15940	0	396
-15.326	-9.304	16446	15387	0	396
-9.484	-3.354	16436	15018	0	396
-4.255	1.479	16424	14736	0	396
0.613	4.291	16414	14486	0	396
3.029	4.904	16405	14259	0	396
3.606	3.931	16397	14107	0	396
1.767	2.488	16386	14009	0	396
1.370	2.164	16381	13955	0	396
0.757	2.164	16371	13988	0	396
-0.902	3.354	16363	14031	0	396
-0.541	6.239	16354	14053	0	396
1.515	10.242	16348	14074	0	396
5.121	15.074	16342	14226	0	396
5.734	14.389	16336	14486	0	396
4.436	12.261	16330	14682	0	396
1.118	8.835	16324	14758	0	396
-1.082	5.121	16317	14844	0	396
-2.885	4.472	16314	15040	0	396
-3.210	5.229	16314	15332	0	396
-2.741	5.770	16308	15582	0	396
-1.659	7.104	16304	15723	0	396
0.757	9.520	16297	15755	0	396
4.868	10.638	16292	15723	0	396
8.294	11.107	16279	15571	0	396
7.501	9.376	16262	15083	0	396
6.094	6.996	16238	14259	0	396
4.580	7.140	16213	13445	0	396
7.393	10.710	16186	12751	0	396
11.287	15.398	16160	12165	0	396
12.369	16.877	16139	11840	0	396
9.953	15.867	16123	11818	0	396
7.393	11.071	16103	11916	0	396
3.859	6.671	16090	12057	0	396
5.373	9.701	16074	12339	0	396
9.845	13.559	16065	12740	0	396
13.884	15.687	16057	13217	0	396
14.713	15.326	16050	13760	0	396
10.999	9.917	16044	14345	0	396
10.458	6.924	16033	14736	0	396
9.953	8.547	16017	14703	0	396
9.160	12.622	15997	14335	0	396
13.523	15.507	15980	14096	0	396
15.182	17.706	15966	14150	0	396
13.127	15.723	15953	14335	0	396
13.992	16.084	15945	14671	0	396
14.353	14.461	15941	15181	0	396
13.631	16.156	15939	15864	0	396
16.408	14.389	15942	16644	0	396
16.012	16.192	15947	17403	0	396
18.897	18.283	15953	18097	0	396
20.050	17.923	15962	18770	0	396
20.087	18.644	15972	19475	0	396
13.668	15.146	15986	20136	0	396
8.943	10.674	15992	20624	0	396
2.344	8.042	16001	20939	0	396
2.344	8.150	16011	21188	0	396
5.950	9.016	16019	21329	0	396
7.140	8.042	16028	21394	0	396
5.878	1.767	16038	21514	0	396
1.118	-4.291	16050	21698	0	396
-1.118	-6.996	16058	21644	0	396
1.947	-4.219	16060	21167	0	396
7.321	4.400	16054	20483	0	396
11.215	10.602	16057	19876	0	396
11.720	9.953	16054	19388	1	560
10.025	3.787	16050	18835	0	560
6.527	-0.902	16044	18151	0	560
5.626	-3.787	16037	17522	0	560
6.203	-2.524	16037	17197	0	560
4.940	-0.288	16038	17121	0	560
4.544	0.829	16040	17056	0	560
5.337	2.128	16041	16980	0	560
6.491	3.246	16041	16872	0	560
6.996	2.416	16041	16752	0	560
7.321	4.688	16046	16741	0	560
5.986	3.210	16053	16926	0	560
5.626	4.472	16063	17229	0	560
9.412	7.501	16070	17533	0	560
13.487	10.530	16083	17826	0	560
15.867	11.360	16098	18216	0	560
15.218	12.297	16114	18737	0	560
9.773	7.898	16131	19258	0	560
5.229	4.327	16149	19648	0	560
1.947	2.380	16164	19876	0	560
2.092	0.793	16172	19800	0	560
4.436	4.075	16182	19464	0	560
4.400	6.239	16192	19225	0	560
4.796	5.986	16204	19236	0	560
4.796	3.642	16218	19366	0	560
4.436	0.902	16233	19518	0	560
4.472	-0.577	16251	19746	0	560
7.681	0.180	16272	20071	0	560
8.547	3.210	16296	20451	0	560
10.242	5.734	16321	20787	0	560
11.684	7.573	16342	21036	0	560
14.425	10.638	16365	21188	0	560
13.307	13.199	16386	21329	0	560
14.425	12.153	16411	21470	0	560
13.379	13.487	16436	21579	0	560
8.655	10.242	16457	21579	0	560
6.455	8.186	16477	21373	0	560
6.708	7.537	16493	21047	0	560
9.016	9.016	16517	20809	0	560
12.766	10.314	16535	20679	0	560
17.202	14.136	16555	20483	0	560
15.687	15.290	16572	20234	0	560
8.799	12.802	16592	20028	0	560
4.075	6.311	16611	19865	0	560
-1.154	2.056	16632	19681	0	560
-1.082	-2.488	16648	19377	0	560
1.587	-2.596	16656	18835	0	560
4.652	-1.226	16662	18054	0	560
3.895	-0.108	16668	17316	0	560
2.741	0.829	16677	16806	0	560
3.137	2.921	16682	16374	0	560
4.760	5.229	16685	15831	0	560
7.465	7.717	16687	15170	0	560
10.386	8.114	16682	14486	0	560
13.415	9.340	16681	13879	0	560
15.182	11.900	16677	13402	0	560
19.870	13.920	16675	13011	0	560
19.726	13.199	16670	12643	0	560
20.555	13.018	16668	12339	0	560
17.706	10.530	16662	12144	0	560
18.933	10.386	16661	12035	0	560
19.762	14.966	16656	11981	0	560
21.962	17.093	16654	11970	0	560
25.460	19.978	16648	11959	0	560
23.873	18.572	16644	11894	0	560
22.431	18.392	16636	11807	0	560
23.585	17.346	16628	11753	0	560
21.529	18.464	16621	11699	0	560
20.736	17.310	16612	11645	0	560
21.277	16.552	16601	11612	0	560
16.949	12.477	16586	11460	0	560
14.641	10.097	16570	11146	0	560
12.730	8.943	16555	10853	0	560
11.287	9.484	16538	10788	0	560
11.612	9.340	16525	10929	0	560
9.809	10.097	16513	11092	0	560
8.691	8.330	16498	11178	0	560
5.013	6.671	16487	11330	0	560
5.698	6.888	16479	11688	0	560
9.088	8.979	16471	12198	0	560
13.415	12.730	16465	12719	0	560
17.093	15.182	16459	13207	0	560
18.175	14.677	16459	13771	0	560
13.740	16.012	16459	14465	0	560
11.937	13.307	16459	15094	0	560
10.927	16.120	16459	15571	0	560
14.966	17.995	16456	15940	0	560
18.608	21.998	16456	16265	0	560
19.906	21.745	16457	16622	0	560
21.457	20.952	16457	17056	0	560
21.385	21.132	16463	17501	0	560
20.123	18.644	16459	17739	0	560
22.286	18.536	16452	17566	0	560
20.339	15.507	16444	17121	0	560
17.887	13.631	16436	16839	0	560
14.281	10.783	16431	16817	0	560
12.045	9.052	16424	16785	0	560
9.665	11.035	16418	16665	0	560
10.206	13.163	16414	16622	0	560
10.819	12.802	16406	16579	0	560
11.396	13.451	16397	16341	0	560
9.160	10.819	16385	15929	0	560
7.934	8.294	16377	15658	0	560
5.409	7.140	16367	15517	0	560
5.121	6.924	16355	15246	0	560
9.809	9.665	16338	14855	0	560
11.973	10.746	16328	14627	0	560
14.713	9.917	16318	14627	0	560
12.297	10.314	16312	14714	0	560
10.494	6.888	16301	14779	0	560
8.114	6.455	16295	14855	0	560
7.285	7.825	16288	14996	0	560
8.907	11.071	16285	15267	0	560
11.540	14.028	16281	15571	0	560
12.369	15.759	16276	15766	0	560
11.540	16.697	16272	15853	0	560
12.045	12.658	16270	16037	0	560
9.592	10.061	16268	16287	0	560
7.285	7.898	16263	16470	0	560
4.183	6.599	16263	16579	0	560
3.823	7.140	16258	16600	0	560
4.832	10.097	16251	16546	0	560
8.835	12.550	16246	16535	0	560
12.153	13.379	16246	16687	0	560
13.523	15.759	16244	16872	0	560
14.172	14.281	16239	16904	0	560
11.107	13.523	16233	16785	0	560
11.612	14.461	16230	16709	0	560
10.891	13.018	16229	16752	0	560
8.619	12.514	16225	16796	0	560
6.239	11.648	16218	16687	0	560
6.744	8.907	16211	16503	0	560
10.169	11.360	16206	16384	0	560
15.579	15.218	16200	16254	0	560
20.195	17.382	16190	16027	0	560
21.565	18.824	16180	15755	0	560
17.490	13.559	16169	15441	0	560
9.665	7.753	16152	15018	0	560
5.590	3.390	16136	14519	0	560
4.003	4.183	16120	14042	0	560
7.573	7.140	16104	13760	0	560
10.710	9.737	16093	13716	0	560
11.468	9.881	16081	13727	0	560
12.369	8.042	16067	13706	0	560
11.576	7.717	16058	13706	0	560
11.720	8.943	16050	13879	0	560
16.336	12.153	16045	14215	0	560
16.372	14.317	16040	14682	0	560
13.199	14.064	16040	15170	0	560
14.172	14.569	16038	15582	0	560
13.235	12.766	16034	15875	0	560
17.310	15.254	16033	16092	0	560
18.103	15.471	16030	16341	0	560
19.401	13.848	16030	16633	0	560
15.975	14.894	16027	16861	0	560
14.930	12.910	16024	16958	0	560
14.208	14.894	16024	17078	0	560
13.054	17.274	16024	17295	0	560
12.730	14.208	16024	17501	0	560
8.691	13.704	16019	17501	0	560
7.789	9.773	16005	17056	0	560
10.458	11.756	15984	16146	0	560
13.920	16.444	15966	15224	0	560
15.182	18.175	15949	14736	0	560
15.939	19.041	15934	14562	0	560
11.143	13.956	15926	14530	0	560
8.511	10.350	15916	14606	0	560
9.773	9.809	15912	14801	0	560
12.477	13.163	15906	15083	0	560
15.579	17.382	15906	15441	0	560
16.805	18.247	15902	15831	0	560
11.864	16.516	15908	16233	0	560
7.104	10.061	15909	16655	0	560
1.623	5.193	15916	17197	0	560
-2.056	2.741	15927	17956	0	560
-3.137	2.200	15942	18748	0	560
-3.426	3.931	15947	19214	0	560
-2.741	5.301	15954	19377	0	560
-0.613	5.085	15962	19431	0	560
-0.144	5.193	15964	19431	0	560
2.416	5.301	15967	19323	0	560
5.950	6.094	15972	19269	0	560
8.907	8.907	15982	19464	0	560
11.396	10.386	15999	19887	0	560
13.487	10.494	16017	20483	0	560
14.677	11.432	16040	21243	0	560
14.028	12.189	16067	22045	0	560
19.005	12.477	16098	22728	0	560
22.431	16.913	16123	23238	0	560
25.856	17.743	16151	23639	0	560
25.532	18.536	16180	23997	0	560
22.286	15.146	16209	24290	0	560
17.634	9.845	16235	24410	0	560
9.088	4.327	16263	24420	0	560
5.445	-0.974	16289	24399	0	560
3.462	-2.128	16321	24410	0	560
3.859	-1.334	16350	24453	0	560
7.212	2.380	16378	24431	1	788
9.989	5.698	16405	24258	0	788
11.648	8.042	16430	23954	0	788
11.684	6.924	16454	23531	0	788
7.609	2.488	16477	23021	0	788
5.734	-2.669	16497	22457	0	788
3.570	-4.688	16516	21861	0	788
2.741	-1.298	16533	21243	0	788
9.052	5.878	16558	20830	0	788
14.533	11.468	16582	20624	0	788
17.057	15.543	16599	20277	0	788
19.401	13.740	16604	19355	0	788
17.634	12.766	16605	18010	0	788
15.831	11.900	16605	16709	0	788
11.215	9.592	16599	15571	0	788
8.763	7.501	16595	14486	0	788
6.058	7.212	16592	13608	0	788
6.491	9.268	16590	12990	0	788
10.169	14.172	16588	12578	0	788
16.877	20.772	16586	12220	0	788
17.418	19.690	16584	11894	0	788
15.831	16.192	16586	11732	0	788
12.550	9.953	16586	11764	0	788
7.609	7.248	16586	11797	0	788
5.914	8.583	16584	11753	0	788
8.330	12.405	16583	11677	0	788
12.333	15.471	16582	11688	0	788
16.516	19.726	16578	11742	0	788
21.709	19.582	16568	11525	0	788
21.854	20.555	16553	10994	0	788
20.231	17.779	16538	10517	0	788
18.175	18.067	16525	10343	0	788
14.353	15.038	16516	10365	0	788
12.802	14.785	16510	10560	0	788
12.514	12.081	16504	10972	0	788
11.612	12.297	16500	11428	0	788
14.749	13.054	16497	11807	0	788
19.185	15.687	16492	12198	0	788
20.880	21.096	16493	12708	0	788
21.926	21.385	16492	13293	0	788
19.005	17.815	16492	13771	0	788
11.360	11.828	16492	14129	0	788
6.419	6.311	16489	14486	0	788
2.849	2.452	16492	14877	0	788
3.282	1.406	16492	15289	0	788
3.787	2.236	16497	15745	0	788
5.517	2.921	16500	16233	0	788
6.239	2.308	16500	16590	0	788
5.013	0.938	16502	16698	0	788
3.534	-0.469	16497	16590	0	788
3.390	-0.649	16492	16470	0	788
7.248	1.118	16492	16449	0	788
11.107	5.157	16485	16449	0	788
14.389	9.917	16479	16298	0	788
19.762	14.028	16471	16027	0	788
17.454	15.543	16471	15983	0	788
16.625	16.661	16467	16157	0	788
13.379	15.687	16465	16233	0	788
12.946	15.867	16460	16146	0	788
13.127	14.461	16452	15994	0	788
12.405	13.415	16450	15896	0	788
14.389	11.576	16444	15853	0	788
14.930	8.439	16438	15810	0	788
15.362	7.573	16431	15712	0	788
15.939	6.744	16424	15539	0	788
13.848	9.340	16417	15376	0	788
12.586	9.016	16407	15311	0	788
7.104	9.232	16406	15387	0	788
4.940	4.580	16401	15528	0	788
4.832	4.472	16398	15647	0	788
4.327	2.633	16394	15723	0	788
10.242	5.517	16393	15831	0	788
14.389	9.737	16393	16059	0	788
18.175	13.704	16397	16416	0	788
21.385	17.670	16399	16774	0	788
21.709	17.815	16399	17023	0	788
21.313	20.988	16403	17186	0	788
22.972	20.844	16405	17338	0	788
23.296	20.591	16405	17468	0	788
22.250	21.709	16406	17446	0	788
23.008	20.916	16401	17284	0	788
21.673	23.008	16398	17067	0	788
22.070	23.549	16391	16763	0	788
24.089	26.037	16384	16394	0	788
22.827	26.686	16375	16027	0	788
21.457	25.965	16365	15658	0	788
16.552	23.585	16350	15170	0	788
15.543	23.080	16332	14432	0	788
14.821	23.657	16309	13630	0	788
19.257	24.883	16295	13152	0	788
23.765	27.515	16277	13001	0	788
26.722	27.768	16263	12870	0	788
25.676	24.991	16244	12632	0	788
19.726	18.067	16225	12361	0	788
13.668	11.251	16210	12176	0	788
8.907	7.140	16192	12144	0	788
8.979	6.671	16177	12241	0	788
14.028	10.422	16167	12393	0	788
17.995	16.769	16151	12545	0	788
22.575	20.159	16136	12719	0	788
23.837	23.549	16127	12946	0	788
24.342	25.099	16118	13293	0	788
29.246	26.614	16110	13695	0	788
31.843	28.525	16098	13988	0	788
32.528	29.391	16087	14150	0	788
31.879	30.004	16077	14324	0	788
28.381	30.436	16067	14595	0	788
28.633	30.040	16061	14899	0	788
27.119	28.741	16046	15061	0	788
26.109	26.145	16032	14899	0	788
21.493	20.267	16007	14378	0	788
15.326	14.353	15980	13716	0	788
13.415	11.432	15954	13109	0	788
12.622	11.360	15929	12762	0	788
14.028	12.369	15914	12816	0	788
16.733	14.641	15898	13131	0	788
17.670	16.012	15888	13521	0	788
21.493	17.129	15880	13988	0	788
26.614	18.031	15872	14562	0	788
31.915	23.260	15869	15202	0	788
34.331	23.657	15867	15799	0	788
34.656	25.856	15865	16330	0	788
31.013	25.604	15861	16839	0	788
25.929	21.241	15865	17381	0	788
20.664	18.644	15867	17924	0	788
17.238	13.740	15869	18423	0	788
18.752	14.317	15869	18802	0	788
19.113	15.687	15869	18987	0	788
21.168	20.267	15867	18997	0	788
20.159	20.411	15859	18715	0	788
19.582	22.178	15847	18238	0	788
19.149	20.050	15842	17978	0	788
18.572	18.824	15840	18054	0	788
20.014	16.444	15843	18303	0	788
16.552	14.389	15846	18618	0	788
16.444	12.081	15852	18932	0	788
15.831	12.441	15855	19106	0	788
18.752	14.966	15856	19117	0	788
20.231	16.661	15859	19106	0	788
23.152	17.995	15861	19128	0	788
20.231	16.913	15867	19182	0	788
19.221	13.992	15872	19236	0	788
15.362	11.720	15875	19269	0	788
15.939	12.730	15880	19301	0	788
16.589	15.182	15888	19355	0	788
21.060	19.329	15894	19464	0	788
23.621	22.611	15908	19637	0	788
26.433	25.712	15918	19843	0	788
27.624	24.414	15922	19865	0	788
28.561	24.198	15929	19637	0	788
28.705	24.125	15939	19475	0	788
27.155	23.224	15947	19540	0	788
26.145	21.421	15960	19713	0	788
24.198	22.106	15975	19919	0	788
23.837	21.277	15992	20180	0	788
24.198	20.736	16011	20472	0	788
27.443	22.395	16030	20787	0	788
27.155	19.906	16053	21188	0	788
25.965	19.690	16081	21720	0	788
23.368	17.454	16106	22154	0	788
22.178	17.562	16130	22273	0	788
20.772	19.113	16145	22121	0	788
25.460	22.863	16167	21926	0	788
27.515	26.650	16186	21828	0	788
24.450	24.198	16206	21752	0	788
19.365	20.952	16226	21579	1	660
11.612	10.927	16246	21362	0	660
8.979	6.058	16266	21243	0	660
7.357	3.967	16292	21232	0	660
10.278	5.373	16314	21232	0	660
14.461	9.917	16336	21134	0	660
17.202	14.821	16355	20939	0	660
22.034	19.293	16377	20754	0	660
23.224	21.854	16398	20668	0	660
23.945	21.926	16423	20679	0	660
22.142	19.293	16447	20668	0	660
17.598	13.199	16469	20472	0	660
15.939	11.035	16485	20136	0	660
13.271	9.376	16505	19811	0	660
10.458	7.934	16529	19572	0	660
10.314	7.212	16546	19410	0	660
10.278	8.186	16566	19258	0	660
12.297	9.556	16584	19008	0	660
16.228	11.756	16599	18618	0	660
18.716	17.743	16612	18184	0	660
22.899	19.149	16625	17739	0	660
22.214	20.916	16634	17175	0	660
20.411	18.103	16637	16514	0	660
17.959	15.975	16644	15853	0	660
17.129	12.910	16642	15137	0	660
17.670	15.182	16636	14280	0	660
23.152	20.123	16629	13369	0	660
28.669	27.371	16621	12491	0	660
32.672	31.915	16608	11666	0	660
33.898	34.872	16592	10907	0	660
35.124	33.682	16583	10300	0	660
32.239	30.617	16572	10050	0	660
29.391	28.525	16570	10148	0	660
26.614	27.660	16564	10343	0	660
24.666	27.984	16559	10463	0	660
22.539	26.686	16557	10517	0	660
19.978	23.729	16549	10636	0	660
19.654	19.870	16542	10831	0	660
18.464	16.805	16533	10983	0	660
21.421	20.195	16525	11027	0	660
23.116	23.260	16518	11103	0	660
27.155	26.073	16509	11276	0	660
26.145	26.109	16500	11525	0	660
23.332	24.053	16497	11851	0	660
21.024	22.827	16492	12241	0	660
21.854	23.296	16487	12632	0	660
22.431	25.243	16485	12957	0	660
22.899	22.972	16479	13250	0	660
22.683	21.673	16473	13499	0	660
18.428	16.444	16467	13695	0	660
18.500	16.300	16457	13803	0	660
18.356	16.805	16451	13912	0	660
23.152	22.611	16443	14096	0	660
28.201	28.237	16439	14378	0	660
