neuroNicle FX2
D3F25R12
Bluetooth SPP
2023년 10월 31일 화요일
오후 7:27
time interval = 4msec
EEG1	EEG2	PPG	sdPPG	pulse	peak_interval(msec)
59.034	13.379	16430	15307	0	620
64.623	17.526	16427	15099	0	620
67.905	22.791	16423	14958	0	620
70.537	26.938	16419	14701	0	620
69.816	27.263	16414	14378	0	620
68.878	27.299	16411	14179	0	620
68.806	25.568	16407	14162	0	620
69.419	25.496	16405	14245	0	620
70.501	24.775	16402	14353	0	620
70.646	25.316	16400	14494	0	620
69.852	24.847	16399	14776	0	620
69.744	25.929	16399	15240	0	620
70.249	26.253	16399	15754	0	620
70.321	27.443	16399	16144	0	620
70.032	26.289	16398	16360	0	620
68.085	25.027	16397	16500	0	620
66.318	22.431	16397	16624	0	620
63.722	21.709	16395	16723	0	620
63.397	21.493	16394	16782	0	620
64.226	23.440	16393	16765	0	620
64.443	23.224	16392	16665	0	620
63.938	21.457	16389	16583	0	620
64.371	19.690	16389	16591	0	620
63.145	17.382	16387	16607	0	620
64.226	17.057	16384	16475	0	620
63.686	17.706	16383	16227	0	620
63.974	19.437	16382	16061	0	620
64.840	22.358	16380	16078	0	620
65.453	25.496	16378	16144	0	620
68.770	29.354	16375	16045	0	620
71.331	32.167	16371	15688	0	620
71.078	31.013	16366	15190	0	620
69.852	29.138	16362	14826	0	620
67.580	25.027	16359	14693	0	620
66.390	23.296	16356	14660	0	620
65.921	22.142	16353	14685	0	620
65.344	22.358	16351	14776	0	620
65.272	23.260	16348	14875	0	620
65.128	23.116	16347	15008	0	620
64.587	23.440	16346	15323	0	620
66.643	23.981	16346	15738	0	620
68.518	24.775	16345	15970	0	620
71.006	26.361	16343	15945	0	620
72.124	28.705	16341	15862	0	620
71.944	28.561	16338	15887	0	620
70.285	28.525	16337	15995	0	620
66.967	26.758	16336	16111	0	620
66.534	24.739	16334	16202	0	620
68.698	27.732	16332	16219	0	620
75.261	32.456	16330	16169	0	620
83.087	39.668	16328	16127	0	620
89.362	43.887	16327	16185	0	620
93.365	46.845	16326	16268	0	620
96.394	50.198	16323	16227	0	620
99.820	52.362	16321	16061	0	620
105.409	58.312	16318	15895	0	620
111.360	62.315	16315	15754	0	620
117.418	67.039	16313	15597	0	620
123.080	74.432	16309	15414	0	620
133.357	88.460	16306	15331	0	620
150.126	108.042	16305	15431	0	620
170.249	128.164	16304	15696	0	620
188.677	145.258	16304	16028	0	620
202.452	154.995	16304	16302	0	620
210.783	162.640	16304	16558	0	620
219.582	170.790	16304	16856	0	620
231.626	182.907	16305	17180	0	620
246.484	196.358	16307	17495	0	620
261.269	209.592	16308	17768	0	620
271.186	218.464	16309	17959	0	620
273.783	220.627	16310	18092	0	620
272.376	219.546	16311	18233	0	620
268.121	214.136	16313	18398	0	620
263.577	209.845	16314	18548	0	620
262.027	207.609	16315	18531	0	620
261.774	209.052	16313	18233	0	620
262.351	210.169	16312	17785	0	620
262.099	210.710	16309	17320	0	620
259.827	206.635	16308	17005	0	620
252.723	200.469	16309	16989	0	620
246.592	193.040	16310	17196	0	620
239.163	187.378	16310	17320	0	620
235.918	185.575	16311	17320	0	620
234.151	183.628	16313	17453	0	620
232.131	182.077	16315	17752	0	620
228.164	177.714	16318	18092	0	620
220.303	171.403	16321	18390	0	620
212.766	164.623	16325	18614	0	620
205.409	157.266	16328	18805	0	620
199.351	151.244	16331	18979	0	620
195.673	145.582	16333	19004	0	620
191.093	140.389	16335	18805	0	620
183.448	135.088	16336	18581	0	620
175.550	128.020	16339	18539	0	620
167.147	120.519	16343	18680	0	620
160.188	113.595	16347	18929	0	620
155.644	107.934	16351	19219	0	620
151.316	103.462	16357	19526	0	620
145.799	99.639	16362	19850	0	620
141.940	97.872	16369	20140	0	620
140.137	96.935	16374	20306	0	620
142.697	99.531	16379	20372	0	620
145.005	100.757	16384	20405	0	620
145.402	102.524	16389	20422	0	620
143.924	102.669	16394	20455	0	620
142.048	102.777	16401	20546	0	620
140.462	100.252	16407	20654	0	620
137.468	95.997	16412	20629	0	620
131.482	88.604	16418	20488	0	620
120.483	76.343	16424	20372	0	620
105.554	64.335	16429	20281	0	620
90.155	49.441	16434	20090	1	688
74.144	34.367	16438	19775	0	688
57.952	17.310	16443	19493	0	688
41.219	1.334	16448	19261	0	688
24.594	-15.651	16451	18929	0	688
8.330	-32.384	16454	18531	0	688
-7.537	-47.494	16458	18316	0	688
-20.231	-59.935	16463	18291	0	688
-31.302	-69.672	16468	18199	0	688
-41.111	-76.632	16471	17926	0	688
-49.982	-83.988	16474	17536	0	688
-56.834	-89.362	16477	17188	0	688
-62.063	-95.132	16480	16964	0	688
-64.263	-98.810	16483	16798	0	688
-65.489	-100.649	16485	16624	0	688
-66.282	-101.983	16488	16425	0	688
-68.806	-102.200	16491	16227	0	688
-71.259	-103.246	16493	16020	0	688
-73.927	-103.029	16494	15779	0	688
-76.127	-104.724	16496	15522	0	688
-78.146	-106.816	16496	15215	0	688
-79.120	-107.609	16496	14826	0	688
-76.812	-106.744	16496	14411	0	688
-72.340	-102.885	16495	14113	0	688
-66.138	-97.620	16494	13914	0	688
-60.837	-91.453	16494	13681	0	688
-54.778	-87.198	16492	13416	0	688
-51.677	-83.159	16491	13217	0	688
-46.159	-80.274	16491	13151	0	688
-43.887	-76.740	16489	13167	0	688
-42.229	-76.271	16488	13151	0	688
-44.645	-74.721	16487	13059	0	688
-47.782	-73.603	16485	12968	0	688
-51.064	-68.518	16483	12902	0	688
-51.424	-62.568	16481	12811	0	688
-50.667	-54.309	16478	12686	0	688
-49.874	-52.326	16475	12570	0	688
-50.811	-53.480	16471	12446	0	688
-51.749	-56.834	16466	12197	0	688
-53.191	-58.673	16463	11973	0	688
-50.703	-57.050	16460	12056	0	688
-47.349	-52.290	16458	12413	0	688
-44.573	-48.431	16456	12695	0	688
-41.363	-45.294	16452	12728	0	688
-40.894	-44.068	16448	12661	0	688
-39.776	-42.878	16445	12719	0	688
-37.180	-41.760	16442	12927	0	688
-35.954	-41.616	16438	13051	0	688
-34.800	-41.832	16434	12985	0	688
-32.708	-41.435	16428	12836	0	688
-29.715	-40.894	16424	12819	0	688
-25.856	-37.793	16420	12902	0	688
-21.024	-33.790	16416	13001	0	688
-17.743	-31.013	16412	13134	0	688
-17.166	-29.787	16407	13217	0	688
-17.923	-30.653	16402	13159	0	688
-17.382	-29.643	16396	13059	0	688
-14.064	-27.732	16392	13101	0	688
-6.311	-20.231	16387	13292	0	688
3.606	-13.235	16384	13449	0	688
10.097	-6.563	16379	13524	0	688
14.749	-3.967	16375	13665	0	688
13.668	-4.111	16372	13996	0	688
13.271	-5.481	16370	14436	0	688
13.884	-5.013	16369	14909	0	688
16.084	-4.616	16367	15431	0	688
17.202	-2.452	16366	15887	0	688
17.274	-1.190	16363	16144	0	688
16.012	-1.695	16361	16293	0	688
15.867	-2.092	16359	16417	0	688
17.129	-1.262	16356	16500	0	688
20.159	-0.108	16352	16417	0	688
24.198	1.767	16348	16219	0	688
26.037	2.993	16346	16161	0	688
26.217	2.272	16344	16326	0	688
26.001	-0.505	16342	16566	0	688
22.899	-2.488	16341	16773	0	688
22.539	-3.570	16338	16864	0	688
20.736	-3.714	16338	16981	0	688
20.519	-3.895	16338	17345	0	688
20.339	-5.157	16340	17909	0	688
20.447	-6.960	16341	18365	0	688
22.467	-7.176	16341	18589	0	688
23.368	-6.996	16342	18664	0	688
23.512	-5.373	16342	18738	0	688
22.503	-4.400	16343	18863	0	688
20.411	-5.517	16345	18995	0	688
20.014	-6.671	16345	18995	0	688
22.395	-5.481	16343	18763	0	688
26.037	-3.318	16343	18473	0	688
30.797	1.190	16343	18299	0	688
34.656	4.652	16343	18291	0	688
35.810	7.501	16345	18440	0	688
34.656	7.068	16347	18655	0	688
32.925	5.590	16348	18796	0	688
30.220	3.462	16350	18846	0	688
29.391	1.515	16351	18888	0	688
30.761	1.010	16354	18913	0	688
34.223	3.714	16355	18854	0	688
38.154	6.960	16356	18714	0	688
40.678	10.025	16356	18515	0	688
41.039	9.412	16357	18316	0	688
36.928	6.455	16358	18141	0	688
33.754	2.416	16359	17942	0	688
34.439	1.839	16358	17685	0	688
39.308	6.419	16358	17387	0	688
47.133	13.127	16356	17055	0	688
50.379	16.480	16356	16699	0	688
46.809	14.605	16354	16368	0	688
41.183	8.006	16353	16069	0	688
37.432	3.714	16351	15746	0	688
38.514	3.967	16348	15315	0	688
42.193	7.357	16345	14834	0	688
42.806	10.891	16341	14394	0	688
40.426	10.783	16338	14063	0	688
39.272	10.169	16335	13806	0	688
40.606	9.484	16331	13574	0	688
43.347	10.891	16327	13325	0	688
45.222	11.035	16323	13134	0	688
42.481	9.737	16320	13068	0	688
40.101	8.042	16317	13101	0	688
38.839	6.852	16314	13101	0	688
38.514	6.599	16310	13101	0	688
40.029	7.970	16308	13209	0	688
38.839	7.645	16304	13308	0	688
39.163	9.556	16301	13275	0	688
38.947	10.278	16297	13275	0	688
40.209	10.963	16294	13383	0	688
39.488	9.556	16291	13582	0	688
39.596	9.088	16289	13864	0	688
37.613	6.563	16288	14229	0	688
37.000	6.852	16287	14635	0	688
36.928	6.671	16286	15050	0	688
37.829	8.402	16286	15489	0	688
38.334	8.979	16287	15970	0	688
37.288	10.278	16288	16533	0	688
37.036	9.448	16290	17138	0	688
34.800	8.583	16292	17660	0	688
32.925	5.229	16294	18075	0	688
30.112	2.416	16297	18481	0	688
28.092	-0.649	16300	18962	0	688
26.073	-2.633	16304	19493	0	688
25.388	-3.967	16308	19990	0	688
29.643	-2.128	16313	20430	0	688
33.538	0.685	16318	20795	0	688
38.442	4.291	16322	21068	0	688
39.812	5.373	16326	21243	0	688
39.885	5.950	16330	21317	0	688
37.937	3.714	16335	21367	0	688
35.846	2.705	16339	21442	0	688
35.701	2.236	16344	21458	0	688
36.170	2.488	16348	21392	0	688
36.747	4.327	16353	21317	0	688
38.406	4.580	16358	21325	0	688
39.488	6.708	16363	21334	0	688
41.724	9.016	16367	21193	1	620
41.940	9.484	16371	20911	0	620
41.471	10.855	16376	20670	0	620
40.389	10.061	16381	20571	0	620
38.226	9.124	16385	20563	0	620
36.459	7.212	16389	20463	0	620
35.557	4.977	16394	20189	0	620
34.367	3.354	16398	19874	0	620
34.475	3.390	16402	19650	0	620
35.233	3.462	16407	19485	0	620
37.541	6.852	16411	19319	0	620
39.055	8.294	16415	19103	0	620
41.868	9.881	16419	18854	0	620
42.770	9.448	16422	18589	0	620
43.707	9.773	16425	18199	0	620
45.582	9.052	16426	17644	0	620
45.402	9.773	16427	17072	0	620
45.114	9.340	16428	16624	0	620
45.258	10.350	16430	16343	0	620
45.402	11.576	16433	16210	0	620
47.674	13.704	16435	16119	0	620
48.539	16.805	16438	16036	0	620
50.487	18.320	16441	16069	0	620
49.008	17.238	16445	16202	0	620
47.133	16.228	16448	16326	0	620
44.717	14.461	16452	16417	0	620
44.032	12.622	16455	16500	0	620
42.229	11.504	16458	16541	0	620
41.796	9.412	16461	16549	0	620
40.137	5.806	16464	16500	0	620
38.478	3.282	16465	16384	0	620
41.507	3.787	16468	16177	0	620
47.349	7.825	16467	15854	0	620
55.427	15.182	16466	15414	0	620
59.394	17.887	16465	14875	0	620
53.264	15.579	16463	14303	0	620
41.003	5.229	16460	13831	0	620
28.922	-6.058	16458	13524	0	620
24.630	-10.530	16457	13325	0	620
27.804	-8.907	16454	13126	0	620
34.944	-1.839	16452	12894	0	620
39.921	4.219	16450	12744	0	620
40.426	7.248	16448	12728	0	620
41.688	9.304	16447	12811	0	620
41.688	9.556	16445	12927	0	620
40.966	9.196	16444	13010	0	620
40.642	7.212	16442	13084	0	620
38.118	5.481	16440	13167	0	620
37.216	4.688	16438	13159	0	620
36.026	4.868	16434	13043	0	620
34.403	5.049	16431	12910	0	620
31.843	2.633	16428	12918	0	620
29.427	-0.433	16427	13093	0	620
30.076	-1.370	16425	13391	0	620
31.266	0.144	16424	13739	0	620
32.853	3.246	16422	14063	0	620
32.636	4.291	16422	14378	0	620
31.013	3.750	16421	14710	0	620
30.653	2.019	16421	15050	0	620
30.689	1.262	16421	15365	0	620
32.420	3.354	16420	15597	0	620
32.420	3.462	16420	15771	0	620
30.869	2.164	16418	15904	0	620
29.427	-0.252	16418	16053	0	620
28.417	-1.010	16418	16268	0	620
31.230	1.406	16419	16607	0	620
35.305	6.816	16419	16914	0	620
38.370	12.117	16419	16964	0	620
38.154	11.973	16417	16790	0	620
36.098	10.350	16415	16558	0	620
34.656	8.402	16413	16343	0	620
35.882	7.393	16410	16152	0	620
39.272	9.665	16408	15970	0	620
41.976	12.405	16404	15713	0	620
44.176	13.848	16401	15348	0	620
42.301	13.415	16397	15025	0	620
41.688	12.910	16394	14892	0	620
41.976	12.694	16392	14917	0	620
41.868	13.451	16389	14917	0	620
42.193	11.684	16386	14842	0	620
40.894	10.819	16384	14859	0	620
38.731	9.592	16384	15041	0	620
38.082	7.573	16383	15265	0	620
38.514	9.845	16381	15389	0	620
39.921	11.287	16379	15431	0	620
41.688	12.225	16378	15506	0	620
40.786	12.261	16376	15680	0	620
36.675	8.222	16377	15970	0	620
31.482	4.327	16376	16302	0	620
29.391	1.262	16376	16558	0	620
32.708	5.157	16376	16732	0	620
43.166	16.228	16376	16873	0	620
56.040	29.102	16376	17014	0	620
63.289	37.505	16377	17171	0	620
62.135	35.449	16376	17271	0	620
54.778	27.299	16375	17262	0	620
47.962	20.519	16375	17221	0	620
45.366	17.418	16375	17238	0	620
45.186	18.283	16376	17320	0	620
45.294	17.815	16374	17337	0	620
41.724	14.930	16372	17138	0	620
39.091	12.622	16370	16782	0	620
39.344	11.937	16369	16458	0	620
42.012	15.507	16365	16219	0	620
45.438	17.093	16363	15962	0	620
45.258	16.697	16360	15763	0	620
42.445	14.172	16358	15605	0	620
38.550	11.468	16354	15381	0	620
36.026	8.258	16352	15108	0	620
35.774	8.655	16350	15008	0	620
37.000	8.907	16348	15091	0	620
38.622	11.973	16346	15207	0	620
42.193	14.749	16345	15240	0	620
43.527	18.500	16343	15224	0	620
45.979	20.050	16341	15207	0	620
46.051	20.916	16339	15215	0	620
46.772	19.365	16336	15149	0	620
45.763	17.815	16333	15016	0	620
45.258	17.382	16330	14925	0	620
45.005	17.382	16328	14942	0	620
43.851	19.113	16326	15000	0	620
44.032	19.690	16323	15050	0	620
43.383	20.519	16321	15083	0	620
43.238	20.555	16319	15099	0	620
43.202	20.411	16316	15099	0	620
42.301	20.411	16315	15157	0	620
42.373	20.087	16313	15373	0	620
42.012	19.113	16313	15688	0	620
43.851	18.283	16312	15928	0	620
46.484	20.880	16311	16053	0	620
50.090	24.306	16310	16169	0	620
53.228	28.381	16309	16318	0	620
53.696	31.013	16308	16408	0	620
53.083	31.735	16306	16400	0	620
52.723	31.338	16305	16408	0	620
52.542	29.751	16305	16541	0	620
50.847	27.119	16304	16715	0	620
45.799	22.503	16304	16840	0	620
35.485	13.199	16303	16889	0	620
24.306	5.626	16303	16898	0	620
18.428	4.508	16300	16823	0	620
22.827	11.792	16298	16566	0	620
35.016	25.604	16295	16219	0	620
45.835	37.468	16292	15978	0	620
49.657	40.101	16290	15887	0	620
43.491	33.682	16288	15829	0	620
36.314	26.794	16286	15705	0	620
31.807	22.899	16283	15588	0	620
31.626	25.496	16282	15655	0	620
31.158	26.506	16282	15862	0	620
25.820	24.162	16281	16036	0	620
15.435	17.166	16280	16152	0	620
9.088	13.091	16280	16235	0	620
10.025	13.235	16278	16310	0	620
14.317	18.031	16278	16425	0	620
19.798	21.096	16280	16674	0	620
21.060	20.411	16280	17039	0	620
18.716	18.788	16282	17420	0	620
15.723	16.625	16285	17810	0	620
15.290	17.634	16288	18241	0	620
16.877	21.060	16291	18738	0	620
16.733	23.404	16295	19228	0	620
15.723	24.017	16299	19551	0	620
12.946	23.440	16300	19493	0	620
10.638	21.493	16299	19070	0	620
8.078	19.401	16300	18639	0	620
5.806	16.877	16301	18481	0	620
2.813	14.461	16303	18589	0	620
0.505	12.766	16306	18838	0	620
-0.036	13.848	16311	19161	0	620
2.885	15.435	16316	19501	0	620
6.708	18.175	16321	19841	0	620
10.674	19.618	16326	20181	0	620
10.566	18.247	16332	20447	0	620
9.340	16.733	16337	20629	0	620
7.393	14.749	16342	20728	0	620
6.203	14.281	16349	20878	0	620
7.970	15.110	16356	21193	0	620
10.746	17.382	16364	21566	0	620
25.135	7.068	16440	17072	0	332
27.155	7.717	16438	16790	0	332
29.823	9.268	16437	16491	0	332
32.889	13.091	16434	16227	0	332
32.131	13.487	16432	15962	0	332
28.164	12.550	16429	15622	0	332
21.457	8.511	16424	15141	0	332
16.733	3.642	16419	14560	0	332
17.238	3.246	16414	14054	0	332
21.781	7.970	16411	13822	0	332
29.823	12.694	16408	13797	0	332
34.728	15.975	16404	13797	0	332
35.629	16.264	16402	13839	0	332
33.249	14.461	16401	14030	0	332
27.191	9.232	16399	14370	0	332
22.972	6.671	16399	14734	0	332
19.798	3.931	16399	15066	0	332
20.123	4.111	16399	15439	0	332
21.781	7.321	16399	15870	0	332
26.001	10.674	16400	16285	0	332
27.371	13.018	16401	16632	0	332
28.417	14.245	16402	16914	0	332
28.453	12.982	16402	17171	0	332
28.633	13.992	16404	17461	0	332
27.624	14.389	16406	17752	0	332
27.083	14.749	16407	18009	0	332
25.893	13.523	16408	18141	0	332
24.198	12.297	16407	18092	0	332
23.044	11.612	16407	17926	0	332
22.791	10.494	16407	17735	0	332
19.257	7.645	16407	17594	0	332
15.110	5.085	16405	17428	0	332
11.720	1.154	16404	17213	0	332
10.963	-0.144	16403	16997	0	332
15.110	2.019	16402	16773	0	332
20.483	5.806	16400	16566	0	332
23.693	7.321	16401	16533	0	332
23.621	7.825	16400	16591	0	332
21.385	6.311	16398	16475	0	332
22.178	6.780	16396	16161	0	332
24.991	8.150	16394	15779	0	332
28.453	9.881	16391	15481	0	332
26.325	7.681	16389	15290	0	332
21.673	2.705	16387	15232	0	332
18.067	0.649	16386	15273	0	332
19.870	2.777	16385	15340	0	332
26.145	8.475	16385	15489	0	332
31.518	14.100	16385	15738	0	332
32.420	15.326	16385	15978	0	332
25.856	10.025	16385	16152	0	332
20.195	5.157	16385	16252	0	332
18.175	3.787	16385	16335	0	332
21.890	5.950	16385	16458	0	332
27.696	9.881	16386	16649	0	332
29.751	11.504	16387	16806	0	332
28.958	9.016	16386	16823	0	332
24.594	3.967	16385	16707	0	332
23.368	1.587	16384	16541	0	332
25.207	1.479	16384	16458	0	332
27.624	3.606	16384	16500	0	332
27.587	2.452	16384	16549	0	332
22.178	-2.741	16384	16533	0	332
17.202	-8.258	16384	16466	0	332
15.362	-11.792	16382	16368	0	332
16.661	-10.169	16381	16227	0	332
20.952	-3.318	16379	16053	0	332
24.125	1.551	16376	15804	0	332
20.772	-0.505	16374	15448	0	332
13.343	-7.032	16370	15099	0	332
7.357	-15.435	16367	14851	0	332
6.816	-17.634	16364	14651	0	332
15.398	-11.756	16361	14486	0	332
28.417	1.947	16358	14336	0	332
36.098	11.828	16353	14088	0	332
35.918	13.018	16350	13797	0	332
24.847	6.491	16346	13665	0	332
14.930	-3.282	16343	13698	0	332
7.104	-10.386	16340	13756	0	332
7.501	-9.701	16336	13789	0	332
11.504	-6.671	16333	13822	0	332
17.598	-1.659	16331	13947	0	332
24.125	2.669	16328	14195	0	332
27.768	4.977	16328	14544	0	332
27.804	5.445	16326	14933	0	332
23.476	2.560	16326	15298	0	332
17.093	-3.029	16327	15763	0	332
14.533	-5.085	16328	16360	0	332
15.795	-3.967	16331	17030	0	332
19.437	-0.216	16334	17718	0	332
19.834	0.793	16337	18349	0	332
15.182	-3.895	16341	18913	0	332
9.556	-10.927	16346	19493	0	332
7.970	-12.946	16351	20189	0	332
15.867	-7.032	16358	20911	0	332
26.722	3.606	16363	21450	0	332
32.889	11.143	16368	21632	0	332
31.230	10.530	16371	21599	0	332
25.027	5.878	16376	21641	0	332
19.906	1.082	16382	21815	0	332
20.411	2.019	16387	22072	0	332
22.142	5.337	16394	22337	0	332
24.558	7.898	16400	22528	0	332
22.467	7.248	16407	22619	0	332
20.627	4.940	16413	22611	0	332
19.978	4.183	16420	22536	0	332
21.313	4.255	16425	22362	0	332
19.870	3.931	16430	22022	1	652
17.093	1.118	16433	21508	0	652
12.766	-3.534	16437	20944	0	652
7.753	-7.537	16440	20413	0	652
5.301	-8.366	16442	19841	0	652
3.859	-9.052	16444	19178	0	652
1.695	-9.809	16444	18440	0	652
0.829	-13.091	16444	17660	0	652
0.829	-15.543	16444	16914	0	652
7.032	-13.956	16443	16252	0	652
15.182	-7.176	16442	15696	0	652
22.250	-1.370	16442	15240	0	652
21.926	0.649	16442	14801	0	652
18.247	-3.534	16440	14378	0	652
11.828	-8.511	16440	14030	0	652
11.071	-8.943	16439	13773	0	652
13.487	-6.203	16438	13557	0	652
16.192	-3.678	16436	13258	0	652
14.281	-4.688	16432	12769	0	652
12.910	-8.907	16428	12239	0	652
13.487	-8.547	16425	11965	0	652
19.041	-3.967	16423	11965	0	652
24.594	3.173	16421	12031	0	652
25.965	4.796	16420	12139	0	652
21.457	2.056	16418	12355	0	652
12.586	-4.977	16418	12645	0	652
6.203	-11.215	16417	12943	0	652
3.354	-12.766	16417	13267	0	652
3.426	-11.864	16417	13615	0	652
4.003	-10.746	16416	13889	0	652
3.065	-9.376	16415	14096	0	652
3.606	-9.124	16415	14336	0	652
2.705	-8.150	16414	14602	0	652
3.787	-8.330	16414	14784	0	652
4.472	-7.068	16411	14776	0	652
7.140	-5.950	16409	14635	0	652
9.484	-4.436	16407	14610	0	652
12.514	-3.246	16408	14892	0	652
12.982	-3.282	16408	15373	0	652
11.973	-4.977	16409	15771	0	652
12.117	-4.003	16407	15920	0	652
13.992	-0.108	16407	15904	0	652
19.185	5.878	16405	15879	0	652
20.519	7.285	16404	15920	0	652
15.831	3.642	16403	16011	0	652
7.717	-5.049	16402	16028	0	652
3.318	-10.242	16399	15895	0	652
6.455	-6.671	16398	15763	0	652
15.218	3.173	16397	15721	0	652
24.666	10.819	16395	15763	0	652
29.679	15.146	16394	15812	0	652
28.525	13.271	16392	15812	0	652
27.335	12.441	16391	15812	0	652
27.083	11.648	16389	15763	0	652
25.496	13.812	16387	15647	0	652
24.306	12.514	16385	15580	0	652
23.008	12.009	16384	15588	0	652
23.657	12.766	16383	15622	0	652
24.919	13.018	16382	15688	0	652
27.515	15.038	16381	15804	0	652
27.263	13.559	16379	15854	0	652
23.585	11.720	16376	15630	0	652
21.241	10.169	16372	15207	0	652
22.647	12.766	16368	14925	0	652
27.479	17.166	16366	14884	0	652
33.862	19.870	16364	14991	0	652
37.144	20.952	16362	15157	0	652
39.235	20.591	16361	15365	0	652
39.272	20.123	16361	15638	0	652
38.622	21.241	16361	15986	0	652
39.668	23.621	16362	16384	0	652
37.829	23.945	16365	16889	0	652
38.082	23.765	16367	17478	0	652
39.596	27.804	16369	17876	0	652
42.734	32.131	16369	17976	0	652
45.294	35.737	16369	17876	0	652
43.851	35.557	16368	17718	0	652
41.616	31.735	16368	17578	0	652
42.806	29.174	16366	17362	0	652
49.910	34.836	16363	16939	0	652
58.817	44.717	16359	16433	0	652
65.957	53.264	16357	16086	0	652
65.957	56.185	16355	15937	0	652
63.000	54.309	16354	15904	0	652
61.269	50.487	16353	15895	0	652
61.125	50.090	16351	15904	0	652
64.371	50.379	16351	16003	0	652
62.748	49.910	16351	16136	0	652
59.178	45.402	16350	16202	0	652
53.408	41.219	16350	16185	0	652
49.333	37.901	16348	16152	0	652
48.828	36.314	16348	16177	0	652
50.198	36.711	16348	16302	0	652
52.074	37.324	16348	16516	0	652
52.182	37.541	16350	16806	0	652
51.424	36.170	16351	17072	0	652
48.431	33.213	16351	17262	0	652
45.979	30.256	16352	17387	0	652
45.114	28.309	16354	17495	0	652
44.753	28.741	16354	17569	0	652
45.835	31.049	16355	17569	0	652
44.212	30.869	16355	17528	0	652
43.094	29.427	16355	17495	0	652
41.219	26.145	16356	17437	0	652
41.363	26.001	16356	17362	0	652
45.005	26.650	16357	17403	0	652
47.422	29.715	16359	17594	0	652
47.999	29.463	16359	17652	0	652
46.448	28.886	16360	17453	0	652
44.464	28.453	16359	17196	0	652
44.897	28.669	16360	17072	0	652
48.612	30.977	16359	17022	0	652
49.874	32.420	16359	16922	0	652
49.477	30.869	16359	16723	0	652
44.825	26.001	16358	16483	0	652
37.216	20.303	16358	16384	0	652
32.528	14.858	16358	16392	0	652
31.771	13.235	16358	16376	0	652
34.403	15.362	16357	16260	0	652
38.370	20.411	16356	16061	0	652
39.199	22.503	16355	15837	0	652
38.082	22.178	16352	15539	0	652
35.485	19.257	16348	15008	0	652
36.495	19.329	16342	14245	0	652
42.517	22.575	16337	13557	0	652
47.710	26.902	16331	13093	0	652
50.198	28.345	16327	12852	0	652
47.818	26.578	16325	12885	0	652
43.094	23.044	16322	13118	0	652
43.960	24.414	16320	13366	0	652
50.811	32.492	16319	13615	0	652
61.450	42.770	16318	13955	0	652
70.646	49.693	16318	14444	0	652
73.819	52.146	16319	14991	0	652
71.944	49.333	16319	15472	0	652
68.157	45.474	16321	15945	0	652
64.443	42.481	16323	16483	0	652
62.171	40.786	16325	17039	0	652
57.988	36.603	16328	17544	0	652
51.352	30.040	16331	18000	0	652
44.537	23.224	16333	18448	0	652
39.235	17.382	16336	18821	0	652
38.334	16.516	16339	19078	0	652
40.966	20.916	16343	19360	0	652
43.671	25.460	16348	19833	0	652
41.075	27.047	16354	20471	0	652
35.016	22.719	16361	21060	0	652
27.948	15.759	16367	21483	0	652
25.965	11.215	16374	21790	0	652
29.643	12.766	16380	22014	0	652
37.360	19.726	16384	22022	0	652
42.409	26.614	16387	21773	0	652
42.229	26.974	16391	21475	0	652
36.351	23.909	16395	21209	0	652
30.977	18.139	16398	20927	0	652
30.905	16.552	16402	20629	1	620
35.810	21.818	16406	20364	0	620
45.655	30.220	16409	20082	0	620
54.634	38.478	16412	19717	0	620
57.807	41.147	16415	19319	0	620
57.086	39.524	16418	19012	0	620
51.028	34.223	16421	18813	0	620
45.078	29.823	16425	18631	0	620
38.947	24.594	16427	18382	0	620
33.754	21.385	16430	18117	0	620
30.220	17.274	16433	17884	0	620
30.328	15.038	16436	17710	0	620
30.689	15.254	16440	17594	0	620
33.069	17.743	16443	17503	0	620
35.413	20.123	16446	17420	0	620
35.269	21.493	16449	17304	0	620
36.026	22.250	16452	17146	0	620
36.567	21.709	16454	16956	0	620
37.036	21.673	16457	16864	0	620
37.721	21.168	16460	16864	0	620
40.281	21.168	16462	16782	0	620
41.616	22.395	16464	16549	0	620
42.806	23.296	16465	16277	0	620
43.058	24.053	16466	15995	0	620
40.822	22.575	16467	15713	0	620
39.524	20.087	16467	15365	0	620
40.462	19.978	16465	14900	0	620
40.894	19.654	16463	14378	0	620
40.389	19.798	16461	13980	0	620
37.757	17.310	16461	13773	0	620
34.620	13.812	16460	13698	0	620
32.889	11.973	16459	13648	0	620
33.069	12.730	16457	13449	0	620
35.774	17.418	16453	13035	0	620
37.144	20.916	16450	12587	0	620
36.783	19.762	16447	12305	0	620
33.502	14.100	16443	12139	0	620
27.948	8.078	16439	11957	0	620
23.801	1.983	16436	11882	0	620
20.627	-0.361	16434	12031	0	620
19.546	1.947	16432	12363	0	620
19.906	4.111	16431	12728	0	620
21.673	5.481	16430	13026	0	620
23.224	7.429	16429	13317	0	620
26.866	9.881	16427	13623	0	620
30.220	11.828	16426	13880	0	620
32.203	13.595	16425	14104	0	620
29.427	13.848	16424	14386	0	620
25.712	9.773	16424	14768	0	620
21.277	7.140	16424	15132	0	620
20.231	5.914	16424	15439	0	620
24.594	9.989	16424	15721	0	620
28.669	13.235	16423	15970	0	620
30.833	15.543	16422	16136	0	620
28.273	11.612	16422	16227	0	620
19.942	5.121	16421	16293	0	620
14.208	-0.613	16421	16400	0	620
12.477	-1.262	16422	16649	0	620
17.743	3.606	16422	16972	0	620
26.217	10.891	16422	17155	0	620
34.403	18.860	16422	17105	0	620
38.082	21.277	16421	16956	0	620
35.016	19.365	16420	16831	0	620
28.128	13.379	16419	16806	0	620
24.198	8.727	16419	16848	0	620
23.332	7.212	16418	16831	0	620
26.902	10.314	16417	16699	0	620
29.174	11.973	16416	16616	0	620
29.895	11.576	16416	16707	0	620
28.309	9.520	16417	16906	0	620
25.676	6.167	16417	17063	0	620
25.207	4.508	16418	17146	0	620
25.207	5.013	16418	17229	0	620
25.568	5.698	16420	17387	0	620
28.381	7.717	16421	17569	0	620
31.915	12.477	16422	17702	0	620
34.403	14.064	16423	17752	0	620
32.276	12.982	16424	17785	0	620
26.325	7.717	16426	17934	0	620
18.392	0.974	16430	18208	0	620
15.398	-2.488	16432	18398	0	620
18.716	-0.397	16432	18274	0	620
25.640	4.940	16431	17893	0	620
32.780	11.396	16430	17495	0	620
35.521	13.668	16430	17213	0	620
34.620	13.740	16429	16989	0	620
33.610	13.631	16428	16723	0	620
38.370	16.769	16427	16384	0	620
47.097	24.847	16425	16036	0	620
56.581	33.466	16422	15663	0	620
59.755	38.009	16420	15298	0	620
54.021	34.295	16419	15182	0	620
41.616	25.352	16419	15323	0	620
33.574	17.418	16418	15414	0	620
31.482	15.975	16416	15249	0	620
36.891	20.303	16413	14909	0	620
43.887	24.811	16411	14593	0	620
43.924	24.162	16407	14411	0	620
36.891	18.392	16406	14378	0	620
29.535	11.396	16404	14394	0	620
26.145	10.061	16402	14386	0	620
28.958	12.730	16401	14461	0	620
32.420	16.805	16400	14693	0	620
31.446	14.858	16399	14950	0	620
24.883	9.737	16399	15083	0	620
18.464	4.003	16396	15091	0	620
16.733	4.291	16394	15025	0	620
20.555	8.150	16391	14867	0	620
25.424	12.514	16388	14651	0	620
29.787	16.444	16384	14486	0	620
32.708	17.310	16383	14394	0	620
34.439	18.824	16380	14345	0	620
37.829	21.601	16377	14345	0	620
40.642	23.549	16375	14469	0	620
40.245	23.693	16374	14743	0	620
39.308	21.890	16374	15058	0	620
36.675	20.267	16373	15356	0	620
34.872	20.411	16372	15647	0	620
36.062	23.909	16373	15970	0	620
39.632	27.696	16373	16285	0	620
44.681	31.699	16372	16491	0	620
45.294	32.167	16372	16624	0	620
41.580	26.578	16371	16715	0	620
32.456	17.093	16370	16782	0	620
22.214	6.816	16369	16765	0	620
16.625	0.902	16367	16641	0	620
16.156	0.902	16364	16360	0	620
20.447	6.383	16361	15937	0	620
24.306	10.494	16356	15481	0	620
24.017	10.386	16351	15074	0	620
20.050	5.734	16348	14834	0	620
15.759	-0.216	16345	14776	0	620
14.821	-3.029	16343	14834	0	620
15.687	-2.957	16341	14983	0	620
17.021	-2.849	16341	15249	0	620
17.634	-1.767	16341	15663	0	620
17.598	0.541	16342	16185	0	620
23.729	6.888	16343	16657	0	620
31.338	15.831	16345	17072	0	620
38.082	23.368	16346	17453	0	620
39.560	24.378	16348	17810	0	620
35.990	20.808	16350	18141	0	620
33.682	17.923	16353	18490	0	620
35.846	19.041	16355	18838	0	620
40.317	22.899	16358	19145	0	620
43.058	23.945	16362	19476	0	620
38.298	19.185	16367	19883	0	620
30.112	10.638	16373	20405	0	620
22.972	4.832	16379	20919	0	620
19.510	4.111	16384	21267	0	620
20.988	6.671	16387	21367	0	620
23.512	9.845	16390	21176	0	620
25.099	11.107	16393	20836	0	620
25.279	12.225	16396	20554	0	620
24.594	13.668	16398	20355	0	620
23.512	13.920	16402	20198	1	620
21.132	10.206	16406	20115	0	620
18.031	7.212	16410	20057	0	620
18.572	5.662	16414	20007	0	620
22.467	7.862	16420	20098	0	620
28.814	14.858	16425	20289	0	620
32.708	19.401	16430	20297	0	620
31.049	19.185	16433	19974	0	620
27.010	15.110	16435	19485	0	620
22.503	11.756	16438	19087	0	620
24.053	11.900	16441	18763	0	620
28.597	15.038	16443	18390	0	620
34.980	20.880	16443	17884	0	620
40.281	24.739	16443	17262	0	620
43.599	28.561	16443	16649	0	620
46.268	29.210	16443	16127	0	620
43.094	28.525	16443	15738	0	620
39.019	25.316	16444	15497	0	620
32.925	20.014	16444	15315	0	620
31.049	16.733	16445	15174	0	620
31.158	16.733	16446	15124	0	620
33.069	17.526	16447	15132	0	620
30.869	16.300	16448	15108	0	620
25.243	11.612	16448	15000	0	620
22.178	7.465	16450	14942	0	620
23.332	7.429	16450	15016	0	620
30.653	13.018	16453	15215	0	620
38.803	20.988	16454	15423	0	620
41.327	25.676	16456	15580	0	620
38.370	24.234	16457	15655	0	620
31.266	19.077	16457	15530	0	620
27.191	16.048	16455	15215	0	620
28.417	15.435	16455	14958	0	620
31.662	18.428	16455	14933	0	620
34.980	20.988	16456	15041	0	620
33.970	20.123	16456	15141	0	620
30.653	17.418	16456	15190	0	620
27.768	13.956	16457	15232	0	620
26.037	13.235	16456	15257	0	620
28.597	14.641	16456	15199	0	620
31.230	16.661	16455	15033	0	620
33.790	18.175	16453	14859	0	620
33.069	15.867	16452	14768	0	620
29.066	11.035	16452	14768	0	620
23.260	4.364	16451	14801	0	620
22.358	1.226	16450	14842	0	620
25.063	2.633	16448	14801	0	620
31.085	7.140	16447	14718	0	620
31.518	7.898	16447	14768	0	620
27.227	4.183	16446	14950	0	620
20.014	-2.633	16446	15116	0	620
17.202	-6.816	16445	15174	0	620
22.395	-2.452	16444	15141	0	620
30.220	5.770	16442	15074	0	620
35.737	10.891	16440	15041	0	620
35.016	9.016	16440	15058	0	620
32.636	4.544	16437	15066	0	620
34.259	3.967	16436	15066	0	620
41.904	9.556	16435	15157	0	620
51.100	19.762	16435	15365	0	620
54.995	25.604	16435	15613	0	620
50.018	22.322	16435	15812	0	620
40.498	15.398	16435	15937	0	620
33.321	9.052	16434	16011	0	620
32.708	9.592	16434	16078	0	620
37.649	14.425	16433	16152	0	620
41.688	17.670	16433	16285	0	620
40.029	15.651	16433	16417	0	620
36.387	10.061	16433	16541	0	620
33.898	7.321	16433	16591	0	620
35.593	10.278	16433	16616	0	620
43.563	19.870	16432	16657	0	620
48.467	26.361	16432	16674	0	620
48.143	27.479	16431	16616	0	620
42.986	20.736	16430	16533	0	620
36.206	13.451	16430	16458	0	620
34.079	11.900	16429	16392	0	620
37.613	15.723	16427	16285	0	620
43.058	22.250	16425	16086	0	620
45.727	25.784	16423	15854	0	620
42.193	22.467	16420	15555	0	620
35.557	14.677	16417	15190	0	620
30.472	10.963	16413	14834	0	620
32.312	13.054	16409	14610	0	620
38.550	20.267	16407	14552	0	620
44.789	26.866	16405	14618	0	620
46.232	26.722	16405	14834	0	620
38.226	18.500	16405	15215	0	620
29.354	8.186	16405	15580	0	620
22.899	2.272	16403	15705	0	620
24.306	6.203	16402	15647	0	620
32.600	15.110	16400	15564	0	620
39.091	22.827	16398	15564	0	620
40.570	23.909	16397	15647	0	620
34.872	18.320	16397	15796	0	620
29.823	11.576	16395	15962	0	620
29.391	9.160	16395	16028	0	620
34.547	13.091	16393	16020	0	620
41.904	20.267	16392	16028	0	620
44.573	23.657	16392	16136	0	620
43.996	25.207	16391	16335	0	620
41.471	25.207	16391	16483	0	620
40.678	26.361	16390	16491	0	620
42.481	26.361	16389	16417	0	620
41.183	24.847	16388	16384	0	620
38.118	19.618	16387	16400	0	620
34.656	15.182	16385	16376	0	620
32.672	15.074	16384	16161	0	620
35.882	20.916	16380	15771	0	620
40.137	26.433	16377	15381	0	620
44.933	30.472	16372	15033	0	620
44.104	26.902	16369	14751	0	620
42.337	22.575	16365	14593	0	620
40.317	19.978	16363	14552	0	620
38.442	19.329	16359	14535	0	620
37.937	19.762	16358	14577	0	620
34.043	16.084	16356	14809	0	620
29.607	10.097	16356	15224	0	620
27.768	6.563	16356	15613	0	620
31.013	7.898	16355	15862	0	620
38.009	15.074	16354	15986	0	620
44.284	21.709	16353	16069	0	620
44.176	22.431	16352	16161	0	620
39.019	17.057	16351	16244	0	620
30.653	9.124	16350	16293	0	620
25.712	3.354	16348	16318	0	620
26.001	4.255	16348	16351	0	620
30.833	9.629	16346	16392	0	620
34.079	14.425	16346	16450	0	620
33.898	14.425	16345	16516	0	620
28.994	9.412	16343	16500	0	620
23.152	2.993	16340	16285	0	620
23.296	2.669	16336	15887	0	620
30.869	9.196	16334	15622	0	620
40.101	18.283	16332	15613	0	620
43.599	23.440	16330	15696	0	620
37.685	19.473	16329	15779	0	620
27.912	12.009	16328	15970	0	620
24.198	7.104	16329	16285	0	620
27.984	9.917	16330	16649	0	620
36.964	16.625	16331	16997	0	620
39.776	20.375	16332	17271	0	620
34.980	16.192	16333	17478	0	620
27.587	10.278	16335	17752	0	620
27.335	8.294	16338	18133	0	620
36.928	16.228	16341	18556	0	620
46.484	27.876	16345	18995	0	620
49.838	32.239	16349	19476	0	620
41.219	27.696	16353	19932	0	620
29.931	17.779	16359	20355	0	620
23.116	10.097	16366	20878	0	620
26.181	12.189	16373	21466	0	620
33.429	18.572	16380	21898	0	620
38.009	24.702	16384	22097	0	620
38.622	24.883	16390	22180	0	620
34.908	23.116	16397	22246	0	620
31.843	17.526	16403	22287	0	620
29.499	14.785	16409	22296	0	620
30.184	13.704	16416	22279	0	620
30.364	14.100	16422	22221	0	620
32.239	14.858	16428	22113	0	620
33.610	17.093	16433	21898	0	620
35.269	17.562	16437	21392	1	648
34.403	17.454	16438	20621	0	648
32.780	17.202	16440	19825	0	648
30.436	15.795	16443	19186	0	648
30.040	14.966	16445	18689	0	648
30.581	15.867	16448	18340	0	648
32.816	16.408	16452	18100	0	648
32.528	16.336	16454	17818	0	648
28.705	12.694	16457	17503	0	648
22.683	6.022	16460	17271	0	648
17.851	2.128	16463	17138	0	648
19.293	2.056	16467	17055	0	648
24.847	6.960	16470	16914	0	648
30.833	13.018	16472	16740	0	648
31.771	14.821	16475	16591	0	648
26.397	10.350	16478	16458	0	648
20.267	3.173	16480	16293	0	648
17.779	2.128	16481	16028	0	648
23.224	6.744	16481	15630	0	648
32.744	15.182	16480	15099	0	648
39.416	23.044	16478	14511	0	648
39.993	23.909	16477	13972	0	648
34.583	20.014	16475	13590	0	648
28.669	14.821	16473	13333	0	648
27.191	13.884	16472	13126	0	648
27.696	13.992	16470	12894	0	648
30.905	14.785	16468	12678	0	648
32.239	13.884	16467	12645	0	648
31.915	13.776	16467	12827	0	648
35.160	17.093	16467	13093	0	648
39.199	21.926	16466	13300	0	648
41.003	24.666	16465	13375	0	648
35.124	21.241	16463	13341	0	648
26.289	13.127	16462	13333	0	648
17.418	5.986	16460	13399	0	648
15.723	4.832	16459	13499	0	648
22.647	12.045	16457	13607	0	648
31.266	20.267	16457	13748	0	648
35.160	23.909	16455	13963	0	648
32.853	20.952	16456	14295	0	648
26.722	13.559	16456	14676	0	648
21.709	7.573	16456	14991	0	648
21.385	4.616	16457	15249	0	648
21.421	5.806	16456	15506	0	648
22.322	8.006	16457	15688	0	648
19.978	7.717	16455	15771	0	648
17.851	8.691	16455	15787	0	648
18.320	9.268	16454	15787	0	648
22.106	11.937	16453	15787	0	648
26.181	15.939	16452	15812	0	648
27.696	16.625	16452	15870	0	648
25.532	15.435	16450	15904	0	648
21.024	13.091	16449	15829	0	648
19.906	11.287	16446	15605	0	648
24.270	14.208	16443	15315	0	648
28.886	19.762	16440	15116	0	648
31.518	24.234	16438	15033	0	648
28.164	22.575	16436	15008	0	648
19.546	15.326	16434	15025	0	648
13.812	8.619	16431	14975	0	648
16.012	6.383	16429	14875	0	648
26.073	14.064	16427	14900	0	648
36.855	25.856	16425	15091	0	648
43.960	34.547	16425	15298	0	648
43.166	36.567	16424	15472	0	648
41.111	33.069	16422	15580	0	648
40.786	30.400	16422	15688	0	648
42.986	30.112	16421	15870	0	648
45.402	31.987	16421	16119	0	648
42.265	31.951	16420	16277	0	648
36.278	26.902	16418	16244	0	648
31.374	23.476	16417	16177	0	648
29.859	20.375	16417	16244	0	648
32.312	21.168	16417	16425	0	648
33.502	24.378	16417	16616	0	648
34.403	26.397	16416	16740	0	648
34.475	27.587	16415	16815	0	648
33.718	28.597	16415	16856	0	648
33.718	28.741	16415	16906	0	648
29.535	25.171	16415	17005	0	648
24.739	21.349	16416	17130	0	648
19.726	16.913	16415	17180	0	648
19.401	15.903	16414	17163	0	648
25.135	19.762	16415	17130	0	648
31.230	26.361	16414	17121	0	648
35.774	28.741	16413	17047	0	648
34.259	27.371	16412	16864	0	648
29.210	20.916	16410	16624	0	648
23.729	16.841	16408	16368	0	648
23.152	15.146	16406	16069	0	648
25.352	18.356	16403	15771	0	648
28.741	23.585	16400	15547	0	648
29.391	25.388	16398	15356	0	648
30.545	24.811	16394	15099	0	648
31.374	24.522	16391	14776	0	648
32.853	23.296	16387	14511	0	648
35.341	21.998	16384	14370	0	648
37.432	23.945	16383	14295	0	648
39.055	25.784	16379	14171	0	648
44.212	30.112	16375	13980	0	648
46.953	36.134	16371	13880	0	648
46.123	36.747	16369	13955	0	648
38.731	31.915	16366	14096	0	648
28.020	21.890	16363	14237	0	648
21.060	13.271	16361	14386	0	648
20.844	10.061	16359	14535	0	648
24.198	12.946	16357	14693	0	648
26.542	16.805	16357	15041	0	648
22.575	15.615	16357	15597	0	648
16.589	10.169	16358	16119	0	648
11.323	5.986	16358	16458	0	648
14.641	7.429	16359	16723	0	648
23.440	14.930	16358	16989	0	648
31.554	22.899	16359	17163	0	648
32.744	25.929	16356	17097	0	648
27.479	20.664	16353	16699	0	648
21.565	14.064	16350	16235	0	648
22.250	12.946	16347	16020	0	648
29.931	19.618	16346	16045	0	648
40.930	28.201	16343	16111	0	648
44.789	33.285	16343	16177	0	648
42.806	31.158	16342	16318	0	648
37.613	24.162	16342	16491	0	648
35.233	20.880	16342	16707	0	648
37.180	23.008	16344	17105	0	648
40.353	27.227	16346	17660	0	648
41.255	30.004	16349	18108	0	648
37.721	26.830	16349	18224	0	648
33.141	22.395	16349	18108	0	648
30.040	18.067	16350	17992	0	648
30.148	15.615	16350	17942	0	648
29.895	15.795	16350	17901	0	648
32.853	17.526	16350	17868	0	648
34.475	19.726	16351	17893	0	648
35.233	21.421	16351	17959	0	648
32.312	20.087	16354	18058	0	648
28.128	15.218	16356	18199	0	648
23.260	11.215	16358	18398	0	648
23.837	12.766	16361	18573	0	648
32.312	19.618	16362	18647	0	648
41.724	29.391	16365	18697	0	648
44.573	32.889	16369	18863	0	648
41.399	27.876	16372	19136	0	648
34.944	22.070	16376	19402	0	648
33.213	19.221	16381	19617	0	648
39.272	23.332	16384	19841	0	648
45.546	31.771	16390	20148	0	648
46.700	33.213	16397	20546	0	648
40.714	29.210	16404	20936	0	648
32.889	20.844	16410	21243	0	648
28.309	14.930	16417	21466	0	648
31.158	16.516	16424	21641	0	648
36.351	21.132	16431	21707	0	648
39.921	25.099	16437	21624	0	648
39.416	24.125	16442	21442	0	648
37.468	20.916	16447	21184	0	648
33.321	14.641	16451	20803	0	648
27.768	10.891	16454	20322	1	628
23.909	6.022	16458	19866	0	628
19.473	3.750	16462	19493	0	628
19.041	4.147	16465	19128	0	628
22.431	7.429	16468	18747	0	628
28.561	12.514	16471	18398	0	628
31.302	15.362	16475	18133	0	628
26.866	12.081	16478	17909	0	628
20.231	6.275	16481	17685	0	628
14.281	1.010	16484	17379	0	628
15.471	2.308	16485	16972	0	628
21.926	7.753	16487	16583	0	628
31.554	14.785	16488	16268	0	628
36.639	19.077	16490	15986	0	628
36.423	19.726	16492	15705	0	628
34.367	18.608	16492	15414	0	628
32.925	18.536	16493	15182	0	628
32.744	20.195	16495	15033	0	628
32.780	21.313	16496	15000	0	628
32.095	19.762	16498	15016	0	628
28.741	15.687	16499	14983	0	628
26.181	12.802	16501	14942	0	628
25.424	12.477	16502	14958	0	628
29.535	16.264	16505	15074	0	628
34.439	22.899	16506	15190	0	628
39.993	28.237	16508	15207	0	628
43.527	31.085	16509	15199	0	628
41.724	28.417	16511	15240	0	628
37.901	24.558	16512	15298	0	628
33.285	19.077	16513	15265	0	628
29.427	15.254	16513	15157	0	628
30.508	15.507	16513	15066	0	628
32.203	16.625	16513	14967	0	628
33.502	17.057	16512	14817	0	628
32.023	14.533	16511	14618	0	628
29.210	11.828	16509	14419	0	628
28.128	9.448	16507	14171	0	628
29.427	10.674	16504	13814	0	628
29.715	11.864	16500	13416	0	628
26.650	10.278	16498	13184	0	628
20.339	6.671	16497	13242	0	628
14.930	3.246	16494	13350	0	628
15.507	3.534	16491	13184	0	628
21.493	8.691	16485	12736	0	628
30.040	14.930	16481	12346	0	628
34.980	20.808	16477	12214	0	628
36.964	23.873	16473	12272	0	628
36.855	26.109	16470	12338	0	628
36.351	26.397	16465	12313	0	628
36.459	27.335	16461	12263	0	628
36.387	25.243	16458	12355	0	628
36.783	24.594	16455	12653	0	628
38.190	24.486	16453	13068	0	628
40.353	25.820	16451	13424	0	628
43.310	28.850	16449	13681	0	628
44.825	29.463	16447	13930	0	628
42.806	27.515	16444	14195	0	628
41.832	25.640	16442	14403	0	628
39.740	24.414	16440	14585	0	628
40.281	25.027	16438	14875	0	628
41.219	27.443	16437	15273	0	628
39.524	26.650	16437	15746	0	628
35.160	21.241	16437	16268	0	628
28.056	14.028	16439	16782	0	628
22.611	7.862	16440	17246	0	628
19.041	4.364	16441	17611	0	628
18.428	3.678	16442	17901	0	628
20.014	5.734	16442	18158	0	628
20.916	6.275	16444	18407	0	628
20.772	6.744	16445	18614	0	628
19.257	7.862	16446	18722	0	628
17.490	7.501	16446	18680	0	628
15.975	7.285	16446	18498	0	628
15.615	6.094	16445	18324	0	628
18.139	5.229	16448	18473	0	628
19.437	7.429	16451	18888	0	628
19.726	8.943	16452	19136	0	628
18.860	10.422	16453	18987	0	628
17.634	9.556	16452	18614	0	628
18.175	9.520	16452	18216	0	628
21.349	9.412	16450	17876	0	628
26.794	13.235	16450	17602	0	628
31.446	17.779	16448	17279	0	628
33.213	18.211	16446	16856	0	628
29.679	14.749	16445	16475	0	628
26.073	10.097	16443	16260	0	628
23.404	7.393	16441	16069	0	628
24.702	9.376	16439	15821	0	628
28.525	14.641	16437	15572	0	628
30.292	17.887	16435	15356	0	628
24.919	15.471	16432	15157	0	628
19.401	9.917	16430	14892	0	628
14.605	4.580	16426	14577	0	628
13.668	2.272	16423	14312	0	628
15.074	3.498	16420	14129	0	628
14.533	2.308	16417	14021	0	628
7.934	-1.695	16415	14005	0	628
2.416	-6.239	16412	14088	0	628
1.731	-7.176	16411	14195	0	628
10.097	-2.380	16408	14262	0	628
22.719	7.537	16406	14312	0	628
32.889	15.182	16404	14394	0	628
37.216	19.293	16402	14511	0	628
35.124	20.880	16399	14569	0	628
30.472	18.860	16397	14585	0	628
24.017	14.858	16394	14627	0	628
20.050	10.566	16391	14602	0	628
16.697	5.554	16387	14444	0	628
17.743	5.770	16384	14245	0	628
24.739	11.937	16380	14104	0	628
31.843	19.582	16375	13922	0	628
34.151	22.503	16369	13598	0	628
29.138	17.598	16363	13209	0	628
21.204	8.763	16356	12952	0	628
15.975	1.551	16352	12877	0	628
18.175	2.921	16348	12977	0	628
24.702	8.294	16344	13142	0	628
28.381	13.487	16339	13300	0	628
27.624	13.018	16336	13532	0	628
21.637	7.573	16333	13905	0	628
18.536	3.823	16331	14303	0	628
19.473	5.770	16328	14618	0	628
24.486	10.169	16326	14892	0	628
26.001	14.461	16324	15190	0	628
23.332	11.792	16323	15564	0	628
17.021	3.570	16322	15995	0	628
13.704	-0.180	16323	16450	0	628
17.670	3.029	16321	16790	0	628
27.624	13.235	16318	16782	0	628
36.855	23.512	16315	16541	0	628
37.216	24.775	16313	16450	0	628
30.148	17.923	16310	16616	0	628
20.988	6.635	16309	16790	0	628
15.687	2.669	16308	16914	0	628
17.815	4.796	16307	17097	0	628
24.017	10.963	16308	17387	0	628
29.138	16.192	16307	17669	0	628
27.948	16.084	16308	17859	0	628
23.044	11.468	16308	18034	0	628
16.985	6.527	16308	18249	0	628
14.785	6.203	16310	18432	0	628
18.283	9.448	16310	18581	0	628
24.125	15.002	16312	18747	0	628
28.777	18.283	16313	18863	0	628
28.453	18.139	16314	18937	0	628
25.279	14.461	16316	19045	0	628
24.775	13.343	16317	19178	0	628
27.155	15.146	16319	19252	0	628
30.472	18.824	16321	19236	0	628
32.095	20.303	16321	19161	0	628
27.551	16.516	16324	19145	0	628
23.404	11.071	16328	19352	0	628
22.358	9.556	16332	19750	0	628
25.496	12.045	16338	20198	0	628
31.699	18.500	16344	20679	0	628
34.583	23.332	16351	21176	0	628
31.951	21.565	16358	21657	0	628
27.083	17.815	16365	22005	0	628
20.988	11.071	16371	22080	0	628
18.788	9.088	16377	22005	0	628
19.510	10.242	16383	22030	0	628
20.591	11.143	16389	22130	0	628
22.178	12.009	16395	22188	0	628
20.988	10.963	16404	22296	0	628
18.356	8.330	16412	22495	0	628
15.795	6.527	16420	22660	0	628
14.172	4.977	16428	22652	0	628
13.920	4.291	16435	22420	0	628
13.992	2.921	16440	22055	1	672
16.228	5.265	16447	21757	0	672
17.634	8.583	16454	21558	0	672
17.562	12.802	16461	21334	0	672
17.093	14.064	16467	21077	0	672
15.290	11.864	16474	20828	0	672
14.569	9.016	16480	20505	0	672
16.661	7.862	16485	20090	0	672
22.395	13.487	16491	19767	0	672
28.777	20.123	16497	19609	0	672
33.754	27.191	16503	19377	0	672
35.846	28.201	16506	18838	0	672
35.305	26.758	16509	18100	0	672
35.233	23.512	16511	17412	0	672
35.557	23.404	16513	16840	0	672
35.629	22.214	16516	16368	0	672
34.511	21.421	16518	15970	0	672
32.095	17.995	16520	15630	0	672
29.859	15.543	16522	15323	0	672
29.499	15.759	16524	15041	0	672
31.446	18.320	16526	14826	0	672
35.124	21.204	16528	14643	0	672
37.252	23.080	16529	14378	0	672
38.695	23.512	16529	14030	0	672
40.173	24.017	16529	13698	0	672
40.534	27.515	16529	13457	0	672
41.940	28.705	16529	13242	0	672
39.849	28.381	16527	12968	0	672
35.593	23.296	16526	12670	0	672
29.282	17.634	16525	12479	0	672
23.296	11.251	16524	12404	0	672
21.637	8.763	16522	12363	0	672
22.286	10.169	16521	12288	0	672
28.345	13.307	16519	12222	0	672
31.807	17.743	16518	12205	0	672
34.547	21.024	16516	12189	0	672
33.790	21.962	16513	12214	0	672
30.905	20.195	16511	12263	0	672
28.417	19.041	16510	12321	0	672
26.361	17.779	16506	12338	0	672
27.155	17.490	16504	12305	0	672
26.181	18.428	16500	12263	0	672
28.092	19.618	16496	12205	0	672
29.643	20.916	16491	12015	0	672
34.583	24.414	16485	11666	0	672
38.911	27.407	16479	11310	0	672
38.082	27.984	16473	11127	0	672
34.403	24.198	16468	11161	0	672
24.234	15.146	16465	11426	0	672
17.346	7.934	16462	11923	0	672
16.300	5.085	16461	12595	0	672
21.313	9.268	16461	13358	0	672
28.958	17.166	16462	14187	0	672
33.105	21.385	16464	15091	0	672
29.066	19.149	16467	15970	0	672
22.863	13.379	16468	16674	0	672
18.067	8.799	16469	17163	0	672
17.598	8.114	16471	17544	0	672
21.421	11.756	16472	17901	0	672
23.440	14.858	16473	18191	0	672
23.945	14.461	16473	18357	0	672
22.431	12.838	16474	18415	0	672
21.385	11.035	16474	18398	0	672
23.909	12.009	16475	18374	0	672
25.171	12.766	16474	18340	0	672
25.496	13.704	16474	18274	0	672
25.135	13.271	16473	18141	0	672
24.847	12.045	16473	17992	0	672
25.496	11.756	16472	17843	0	672
26.181	13.091	16473	17793	0	672
28.237	14.785	16473	17868	0	672
28.273	15.795	16474	17876	0	672
27.335	15.146	16473	17735	0	672
24.919	14.028	16473	17553	0	672
22.214	10.602	16473	17412	0	672
17.959	7.934	16473	17345	0	672
14.425	6.347	16474	17370	0	672
13.451	5.698	16474	17420	0	672
13.379	7.753	16473	17262	0	672
14.028	7.248	16470	16831	0	672
15.146	7.862	16468	16293	0	672
16.228	8.222	16465	15804	0	672
17.310	9.160	16462	15448	0	672
19.437	12.225	16459	15182	0	672
20.159	15.038	16455	14851	0	672
19.365	15.002	16451	14386	0	672
15.975	11.251	16447	13972	0	672
12.586	7.393	16443	13739	0	672
11.828	2.993	16440	13665	0	672
12.153	3.065	16436	13590	0	672
15.651	5.626	16432	13433	0	672
17.923	7.068	16428	13300	0	672
19.437	9.340	16425	13275	0	672
19.365	8.835	16421	13292	0	672
18.356	9.629	16418	13300	0	672
17.887	10.422	16414	13308	0	672
18.969	13.271	16411	13399	0	672
20.700	14.245	16408	13598	0	672
24.883	15.254	16406	13880	0	672
25.712	14.136	16404	14253	0	672
25.820	10.999	16403	14635	0	672
22.863	8.366	16402	14975	0	672
19.329	4.652	16401	15290	0	672
16.444	2.524	16400	15663	0	672
14.894	1.154	16400	16061	0	672
13.018	0.685	16400	16384	0	672
11.720	-1.262	16399	16583	0	672
5.770	-3.787	16398	16682	0	672
1.803	-7.321	16397	16740	0	672
-1.983	-8.583	16396	16790	0	672
-1.875	-7.248	16394	16815	0	672
1.190	-2.560	16392	16773	0	672
8.006	2.921	16390	16690	0	672
13.704	7.609	16387	16491	0	672
19.762	11.648	16384	16244	0	672
24.630	15.687	16384	16210	0	672
28.273	20.087	16384	16384	0	672
27.876	22.755	16382	16466	0	672
24.017	21.349	16379	16285	0	672
17.598	15.290	16375	15945	0	672
10.386	6.960	16373	15688	0	672
6.852	2.164	16369	15580	0	672
6.816	0.865	16366	15522	0	672
8.799	2.200	16364	15431	0	672
11.864	5.734	16361	15340	0	672
13.920	7.789	16359	15373	0	672
16.625	10.602	16357	15514	0	672
17.634	11.576	16356	15655	0	672
15.903	10.746	16354	15763	0	672
10.999	7.357	16352	15829	0	672
4.364	1.046	16351	15920	0	672
-0.721	-3.101	16351	16094	0	672
-1.695	-4.219	16351	16392	0	672
0.325	-2.849	16351	16740	0	672
2.560	-0.541	16350	16914	0	672
2.777	0.036	16348	16798	0	672
0.793	-0.036	16346	16558	0	672
-2.308	-2.885	16346	16566	0	672
-4.940	-5.301	16346	16840	0	672
-3.823	-6.275	16347	17146	0	672
-2.092	-3.750	16349	17461	0	672
2.019	-1.226	16351	17876	0	672
6.744	2.993	16354	18398	0	672
8.835	6.275	16358	18921	0	672
10.963	6.744	16363	19476	0	672
9.592	5.914	16369	20107	0	672
7.609	5.626	16375	20695	0	672
4.688	3.750	16379	21035	0	672
1.587	1.983	16384	21126	0	672
-0.793	-0.144	16387	21201	0	672
-1.587	-2.308	16392	21334	0	672
-2.885	-3.787	16397	21425	0	672
-3.282	-4.760	16401	21359	0	672
-2.849	-2.813	16405	21201	0	672
-1.190	-1.190	16410	21102	0	672
0.902	0.902	16415	21135	0	672
2.705	2.308	16421	21251	1	624
2.380	0.397	16428	21350	0	624
0.685	-1.046	16433	21359	0	624
-0.144	-1.695	16440	21350	0	624
1.839	-1.334	16446	21342	0	624
5.301	1.046	16452	21334	0	624
6.022	1.406	16459	21301	0	624
4.832	0.361	16464	21193	0	624
0.938	-2.777	16470	20994	0	624
-2.380	-6.563	16476	20795	0	624
-3.714	-7.862	16483	20712	0	624
-2.813	-10.133	16489	20670	0	624
-4.688	-11.612	16494	20413	0	624
-5.770	-12.910	16497	19808	0	624
-6.491	-12.477	16500	19037	0	624
-4.436	-8.799	16502	18423	0	624
-0.108	-5.229	16505	17984	0	624
3.967	-0.757	16508	17553	0	624
6.455	-0.685	16510	17171	0	624
5.157	-2.741	16513	16864	0	624
2.957	-5.301	16516	16524	0	624
-0.108	-8.330	16516	16111	0	624
-1.551	-9.016	16518	15705	0	624
-2.416	-9.376	16519	15406	0	624
-3.354	-9.412	16520	15157	0	624
-5.121	-11.071	16520	14834	0	624
-5.914	-11.937	16520	14428	0	624
-8.186	-15.218	16520	14079	0	624
-8.186	-18.067	16519	13806	0	624
-8.511	-19.221	16518	13457	0	624
-8.475	-19.726	16516	12993	0	624
-10.206	-18.500	16513	12562	0	624
-8.763	-16.192	16512	12363	0	624
-8.619	-13.595	16511	12438	0	624
-6.239	-12.694	16511	12628	0	624
-4.291	-11.540	16510	12778	0	624
-2.524	-10.746	16509	12836	0	624
-0.938	-9.629	16508	12836	0	624
-0.252	-8.258	16506	12827	0	624
0.649	-9.412	16506	12902	0	624
0.685	-8.366	16504	13093	0	624
0.541	-9.592	16503	13267	0	624
1.911	-7.501	16502	13366	0	624
2.957	-6.131	16501	13507	0	624
6.888	-3.606	16501	13739	0	624
9.124	-2.092	16499	13947	0	624
9.845	-1.442	16498	14021	0	624
9.412	-1.010	16496	14046	0	624
7.465	-1.370	16494	14146	0	624
4.724	-1.226	16494	14361	0	624
5.049	-1.515	16493	14610	0	624
5.950	-0.649	16492	14801	0	624
8.114	0.541	16491	14950	0	624
9.520	0.938	16491	15132	0	624
10.999	0.613	16490	15340	0	624
10.025	-0.144	16490	15522	0	624
9.520	-0.397	16489	15647	0	624
11.107	0.541	16488	15696	0	624
13.812	5.013	16485	15647	0	624
17.995	9.701	16483	15481	0	624
21.637	14.028	16480	15282	0	624
21.313	15.831	16478	15141	0	624
20.303	13.848	16475	15008	0	624
17.057	11.143	16471	14851	0	624
14.713	7.032	16468	14710	0	624
12.153	4.039	16466	14668	0	624
9.917	2.488	16464	14792	0	624
8.727	1.551	16463	15025	0	624
6.275	2.128	16462	15249	0	624
5.193	1.334	16460	15348	0	624
3.065	0.541	16457	15282	0	624
1.370	-0.829	16454	15157	0	624
2.200	-0.902	16452	15132	0	624
5.698	1.442	16450	15232	0	624
10.025	7.285	16448	15340	0	624
15.038	12.514	16445	15331	0	624
17.490	15.903	16443	15273	0	624
17.418	14.894	16441	15257	0	624
16.264	11.179	16438	15298	0	624
15.831	8.330	16436	15331	0	624
18.464	8.222	16433	15331	0	624
21.529	13.018	16431	15323	0	624
25.207	17.093	16429	15373	0	624
26.217	18.860	16427	15506	0	624
24.702	17.670	16425	15655	0	624
23.368	16.805	16423	15729	0	624
26.686	19.365	16421	15746	0	624
29.030	23.729	16419	15754	0	624
29.354	24.162	16417	15796	0	624
25.135	21.024	16416	15904	0	624
18.067	12.946	16414	15995	0	624
15.326	7.970	16411	15912	0	624
18.428	11.215	16407	15696	0	624
25.135	17.995	16405	15539	0	624
30.653	24.306	16401	15472	0	624
28.273	23.909	16399	15423	0	624
21.601	17.743	16397	15481	0	624
13.812	10.025	16395	15663	0	624
11.323	4.760	16393	15729	0	624
13.127	6.094	16390	15655	0	624
19.762	11.143	16389	15705	0	624
27.876	20.483	16388	15912	0	624
34.043	26.758	16387	16086	0	624
36.819	31.230	16384	16136	0	624
35.665	30.508	16384	16103	0	624
31.843	27.371	16382	16086	0	624
27.191	22.863	16380	16111	0	624
22.827	20.555	16377	16045	0	624
19.762	17.851	16374	15804	0	624
17.959	15.615	16370	15522	0	624
17.093	13.559	16366	15356	0	624
16.769	13.091	16364	15323	0	624
20.303	15.398	16361	15373	0	624
23.476	19.113	16360	15456	0	624
26.397	22.935	16357	15530	0	624
29.643	26.325	16355	15588	0	624
31.518	28.092	16353	15638	0	624
33.177	28.633	16352	15787	0	624
35.269	30.364	16351	16028	0	624
38.514	33.826	16350	16235	0	624
40.930	37.432	16349	16335	0	624
42.157	38.983	16348	16400	0	624
40.137	36.747	16348	16533	0	624
36.891	31.879	16347	16690	0	624
34.295	27.407	16346	16782	0	624
34.367	26.073	16344	16798	0	624
36.134	29.138	16343	16815	0	624
37.685	31.662	16342	16806	0	624
34.223	30.256	16340	16649	0	624
29.318	26.650	16337	16384	0	624
24.775	21.673	16335	16194	0	624
23.044	20.555	16332	16094	0	624
25.135	21.926	16329	15904	0	624
28.886	24.666	16326	15605	0	624
31.410	24.919	16322	15356	0	624
30.833	23.621	16319	15257	0	624
30.581	21.421	16317	15249	0	624
29.463	20.195	16314	15224	0	624
29.535	22.647	16312	15174	0	624
27.407	22.611	16310	15232	0	624
25.099	20.087	16309	15456	0	624
20.736	15.362	16309	15754	0	624
17.815	11.143	16308	15995	0	624
18.716	10.242	16308	16185	0	624
22.611	13.054	16308	16433	0	624
28.886	18.139	16308	16798	0	624
32.600	22.214	16310	17171	0	624
34.223	22.647	16311	17519	0	624
31.266	20.844	16313	17868	0	624
26.289	16.697	16315	18224	0	624
20.447	12.045	16318	18606	0	624
17.454	6.599	16322	19087	0	624
16.516	3.426	16326	19584	0	624
16.156	1.767	16329	19775	0	624
15.471	1.479	16328	19510	0	624
13.848	3.101	16329	19153	0	624
12.261	4.327	16332	19128	0	624
12.297	3.714	16336	19418	0	624
11.468	2.488	16340	19758	0	624
10.602	-0.541	16344	20015	0	624
7.862	-2.164	16348	20090	0	624
7.825	-1.659	16351	20049	0	624
10.963	2.813	16355	20115	0	624
19.185	12.153	16361	20339	0	624
27.335	19.762	16366	20621	0	624
32.131	27.155	16373	20911	0	624
32.528	28.489	16378	21027	0	624
30.184	25.820	16384	20994	0	624
27.804	22.395	16388	21002	0	624
30.725	24.017	16394	21085	0	624
37.613	30.112	16399	21035	0	624
46.304	40.642	16402	20728	1	684
52.939	48.323	16407	20372	0	684
53.516	50.631	16412	20165	0	684
50.523	48.395	16417	20057	0	684
45.618	42.770	16421	19891	0	684
44.501	40.642	16425	19667	0	684
43.455	39.596	16430	19493	0	684
43.383	37.757	16435	19427	0	684
40.426	35.269	16442	19427	0	684
37.973	30.653	16447	19476	0	684
35.918	28.777	16454	19551	0	684
36.062	29.427	16460	19592	0	684
36.675	29.282	16466	19584	0	684
36.639	29.030	16473	19576	0	684
35.701	28.201	16480	19617	0	684
34.656	26.253	16486	19634	0	684
33.898	26.253	16491	19493	0	684
31.735	26.253	16496	19236	0	684
30.328	26.325	16501	18946	0	684
29.282	24.342	16506	18647	0	684
32.600	26.650	16509	18266	0	684
40.534	32.276	16511	17777	0	684
50.379	41.291	16514	17296	0	684
57.194	49.657	16516	16864	0	684
59.502	53.011	16518	16433	0	684
55.463	48.936	16520	15970	0	684
50.775	43.707	16520	15497	0	684
49.874	39.344	16520	15058	0	684
52.470	41.724	16520	14610	0	684
54.706	43.815	16519	14146	0	684
52.254	43.491	16519	13806	0	684
46.448	37.432	16520	13715	0	684
40.642	31.662	16521	13756	0	684
38.478	30.112	16521	13665	0	684
41.435	32.889	16520	13358	0	684
43.094	35.665	16518	12943	0	684
40.317	33.610	16516	12579	0	684
36.891	26.974	16513	12321	0	684
34.151	23.224	16511	12181	0	684
34.728	22.575	16509	12147	0	684
37.180	25.604	16508	12164	0	684
36.134	27.371	16505	12181	0	684
32.672	25.027	16504	12230	0	684
30.725	22.683	16502	12355	0	684
31.302	22.575	16501	12504	0	684
35.557	23.621	16498	12620	0	684
36.928	24.414	16497	12728	0	684
33.754	22.467	16495	12935	0	684
30.328	19.365	16495	13292	0	684
29.282	19.005	16496	13789	0	684
30.977	22.503	16496	14295	0	684
33.826	24.775	16496	14643	0	684
34.367	25.027	16496	14875	0	684
31.446	23.116	16495	15074	0	684
28.958	18.860	16495	15265	0	684
29.895	16.661	16494	15448	0	684
30.581	16.661	16494	15597	0	684
30.112	17.743	16493	15622	0	684
28.309	17.743	16490	15539	0	684
23.260	17.995	16488	15464	0	684
21.421	18.031	16487	15398	0	684
22.358	17.815	16484	15273	0	684
25.063	17.743	16481	15091	0	684
29.354	17.959	16478	14884	0	684
30.508	18.464	16475	14701	0	684
29.571	18.320	16472	14602	0	684
28.273	18.933	16468	14502	0	684
24.486	18.572	16463	14220	0	684
23.368	17.706	16457	13723	0	684
22.611	16.480	16450	13176	0	684
24.739	17.057	16443	12711	0	684
28.164	20.664	16437	12388	0	684
33.970	25.099	16430	12197	0	684
37.072	28.561	16424	12031	0	684
36.603	27.191	16417	11816	0	684
33.141	22.972	16410	11617	0	684
29.499	19.365	16403	11567	0	684
29.210	20.050	16398	11683	0	684
30.617	24.378	16392	11857	0	684
33.393	28.489	16386	11990	0	684
33.141	29.174	16383	12181	0	684
31.230	25.460	16378	12512	0	684
31.266	22.863	16374	12943	0	684
33.826	22.286	16370	13350	0	684
35.305	23.044	16367	13665	0	684
36.242	23.657	16363	14005	0	684
33.393	23.765	16360	14436	0	684
28.705	20.808	16357	14925	0	684
27.587	20.123	16356	15439	0	684
29.318	20.231	16355	15912	0	684
32.492	22.647	16353	16335	0	684
35.810	24.486	16351	16707	0	684
37.108	23.837	16351	17072	0	684
34.403	21.277	16350	17428	0	684
29.174	15.975	16349	17702	0	684
26.145	12.189	16348	17893	0	684
24.162	12.694	16347	18009	0	684
26.109	16.697	16345	18067	0	684
28.092	20.375	16343	18058	0	684
30.328	21.745	16341	18009	0	684
30.905	22.178	16340	17926	0	684
34.079	24.450	16338	17818	0	684
36.026	25.929	16335	17627	0	684
34.511	26.001	16332	17354	0	684
29.102	20.952	16330	17213	0	684
22.827	14.569	16328	17271	0	684
21.745	13.776	16327	17345	0	684
28.633	19.690	16325	17271	0	684
37.252	28.128	16323	17063	0	684
39.812	30.905	16320	16881	0	684
33.321	24.053	16319	16831	0	684
25.604	14.677	16318	16898	0	684
20.267	10.602	16317	17063	0	684
24.775	14.245	16318	17246	0	684
30.581	21.096	16317	17412	0	684
34.223	25.388	16318	17569	0	684
33.790	23.801	16318	17660	0	684
32.997	23.549	16318	17669	0	684
34.944	24.775	16317	17619	0	684
38.442	29.282	16316	17495	0	684
38.839	29.751	16313	17146	0	684
35.197	25.965	16310	16682	0	684
29.030	17.815	16308	16376	0	684
26.866	14.245	16305	16235	0	684
28.958	17.166	16303	16119	0	684
35.305	24.919	16302	16045	0	684
40.389	31.915	16301	16103	0	684
41.075	32.708	16301	16268	0	684
37.180	26.614	16301	16408	0	684
33.718	20.591	16300	16483	0	684
29.895	15.723	16300	16524	0	684
28.777	15.290	16299	16574	0	684
28.597	16.841	16299	16599	0	684
26.542	17.346	16300	16732	0	684
27.119	17.238	16301	17088	0	684
28.417	18.680	16303	17453	0	684
32.276	21.096	16303	17544	0	684
36.387	23.621	16303	17445	0	684
38.731	25.027	16304	17420	0	684
38.370	25.712	16305	17544	0	684
37.216	26.542	16306	17677	0	684
35.449	27.515	16307	17685	0	684
33.826	26.578	16307	17627	0	684
32.167	25.568	16309	17727	0	684
31.771	23.188	16311	18034	0	684
31.410	21.781	16315	18357	0	684
31.626	21.962	16316	18515	0	684
30.545	19.654	16319	18548	0	684
28.489	17.166	16321	18639	0	684
27.263	14.821	16325	18854	0	684
26.578	15.831	16329	19095	0	684
28.850	18.824	16333	19311	0	684
32.780	23.585	16337	19501	0	684
36.098	26.542	16342	19675	0	684
39.740	28.669	16347	19908	0	684
42.842	28.958	16353	20289	0	684
42.806	28.489	16360	20728	0	684
41.724	27.876	16367	21085	0	684
38.370	24.811	16374	21334	0	684
33.718	20.808	16381	21566	0	684
28.669	17.057	16388	21815	0	684
25.063	12.514	16396	22022	0	684
24.594	10.674	16403	22097	0	684
27.876	13.199	16410	22063	0	684
34.944	19.185	16417	22005	0	684
39.632	26.217	16423	21889	0	684
39.416	28.705	16430	21707	0	684
36.891	27.551	16436	21475	1	668
33.357	24.306	16443	21267	0	668
35.269	25.243	16449	20994	0	668
41.507	27.768	16453	20538	0	668
45.294	30.761	16458	19999	0	668
44.717	29.859	16463	19700	0	668
37.829	23.440	16469	19609	0	668
29.318	16.084	16474	19410	0	668
23.152	11.107	16478	18946	0	668
20.123	10.278	16481	18357	0	668
21.493	11.251	16484	17818	0	668
24.053	14.749	16487	17379	0	668
27.984	17.562	16490	17014	0	668
31.590	19.582	16493	16665	0	668
36.242	22.539	16495	16285	0	668
41.507	26.397	16495	15746	0	668
47.494	32.059	16493	14933	0	668
49.297	36.278	16491	14013	0	668
48.323	36.495	16489	13308	0	668
42.842	32.276	16487	12794	0	668
36.495	26.722	16484	12272	0	668
33.249	22.106	16482	11832	0	668
33.646	22.358	16481	11700	0	668
36.459	25.063	16480	11766	0	668
39.163	28.886	16478	11716	0	668
41.147	31.951	16475	11451	0	668
43.671	33.718	16471	11177	0	668
43.743	34.511	16470	11177	0	668
45.474	35.737	16468	11426	0	668
46.845	37.108	16468	11741	0	668
48.539	37.685	16467	12089	0	668
49.044	37.288	16467	12504	0	668
46.556	33.610	16467	12935	0	668
40.966	27.587	16468	13366	0	668
33.898	21.313	16470	13914	0	668
29.751	17.995	16472	14544	0	668
29.102	19.762	16473	15033	0	668
30.977	22.467	16472	15232	0	668
33.538	25.352	16472	15273	0	668
34.800	26.578	16472	15340	0	668
36.351	27.443	16471	15439	0	668
39.740	30.292	16470	15506	0	668
45.438	34.475	16468	15448	0	668
50.487	38.550	16466	15265	0	668
53.985	42.120	16464	15091	0	668
54.490	42.193	16463	15091	0	668
51.569	39.668	16462	15265	0	668
45.402	35.882	16461	15464	0	668
39.668	29.895	16460	15514	0	668
35.052	24.558	16459	15489	0	668
35.377	24.125	16458	15489	0	668
39.416	28.633	16457	15555	0	668
44.645	34.800	16455	15605	0	668
47.422	38.695	16454	15580	0	668
44.933	37.613	16452	15539	0	668
40.606	32.095	16451	15564	0	668
35.846	25.893	16450	15680	0	668
34.331	22.647	16450	15829	0	668
37.505	25.820	16449	15945	0	668
44.392	32.420	16449	16036	0	668
52.434	41.471	16448	16127	0	668
59.971	47.782	16447	16227	0	668
63.830	50.920	16447	16326	0	668
63.109	50.090	16447	16384	0	668
59.502	47.386	16446	16458	0	668
54.093	43.455	16447	16641	0	668
51.605	43.347	16447	16873	0	668
50.811	43.563	16447	17039	0	668
50.595	43.635	16448	17105	0	668
47.890	40.714	16447	17022	0	668
41.904	34.980	16444	16699	0	668
34.944	28.669	16441	16210	0	668
31.049	23.621	16437	15696	0	668
31.735	22.935	16433	15265	0	668
34.944	25.027	16430	14958	0	668
38.550	27.047	16426	14710	0	668
40.353	28.128	16422	14419	0	668
41.183	30.581	16418	14137	0	668
43.743	33.646	16414	13963	0	668
45.582	36.783	16411	13955	0	668
46.845	38.226	16409	14096	0	668
47.638	38.154	16407	14253	0	668
45.727	36.603	16404	14336	0	668
45.618	34.583	16402	14444	0	668
43.022	34.187	16401	14685	0	668
41.724	33.213	16399	14942	0	668
39.127	32.059	16397	15132	0	668
37.505	31.699	16396	15249	0	668
40.678	33.862	16394	15365	0	668
44.645	36.964	16393	15530	0	668
51.244	41.868	16392	15754	0	668
54.021	44.681	16391	15937	0	668
55.463	46.232	16389	16036	0	668
53.552	44.320	16388	16086	0	668
50.992	43.238	16386	16119	0	668
49.333	41.111	16384	16194	0	668
47.710	39.849	16384	16302	0	668
47.386	37.937	16384	16368	0	668
48.467	37.901	16381	16318	0	668
49.585	37.180	16380	16219	0	668
50.884	37.144	16378	16144	0	668
49.730	36.242	16375	16086	0	668
46.953	34.439	16373	15978	0	668
44.248	32.131	16370	15829	0	668
42.157	29.354	16367	15705	0	668
39.632	28.020	16365	15638	0	668
39.235	25.604	16363	15680	0	668
38.045	24.162	16364	15970	0	668
38.695	23.296	16364	16408	0	668
40.930	25.640	16364	16732	0	668
44.897	30.581	16364	16823	0	668
46.340	33.898	16363	16831	0	668
45.150	34.079	16364	16956	0	668
40.389	30.004	16363	17196	0	668
34.872	23.008	16364	17403	0	668
27.768	16.408	16364	17470	0	668
24.666	12.838	16363	17362	0	668
22.250	11.504	16362	17213	0	668
23.873	13.018	16361	17113	0	668
26.001	14.894	16360	17030	0	668
30.689	19.221	16359	16873	0	668
35.629	22.791	16356	16632	0	668
35.882	26.181	16354	16408	0	668
34.079	24.811	16353	16244	0	668
30.076	22.575	16351	16111	0	668
27.227	19.077	16349	16028	0	668
26.866	17.995	16348	15945	0	668
30.292	20.303	16346	15829	0	668
33.574	23.549	16344	15713	0	668
34.223	24.558	16343	15688	0	668
33.970	24.847	16341	15738	0	668
32.997	23.116	16340	15746	0	668
34.043	23.729	16338	15688	0	668
35.629	25.388	16336	15663	0	668
34.511	25.027	16336	15705	0	668
30.725	23.080	16335	15804	0	668
23.260	17.057	16334	15879	0	668
17.418	11.973	16332	15887	0	668
16.480	11.107	16330	15771	0	668
20.375	13.920	16326	15522	0	668
26.470	19.906	16323	15249	0	668
32.239	25.929	16321	15058	0	668
34.944	29.210	16318	14991	0	668
35.810	28.020	16316	14942	0	668
34.908	26.253	16312	14776	0	668
32.889	21.241	16309	14577	0	668
29.607	17.526	16307	14627	0	668
25.171	14.605	16305	14933	0	668
22.539	12.730	16305	15224	0	668
21.096	13.271	16303	15373	0	668
20.916	12.658	16302	15489	0	668
20.050	11.828	16301	15655	0	668
16.408	7.465	16300	15870	0	668
10.746	3.210	16301	16161	0	668
4.868	-1.659	16302	16583	0	668
0.829	-5.193	16303	17105	0	668
0.433	-5.265	16306	17627	0	668
2.236	-2.849	16310	18133	0	668
4.508	0.108	16313	18655	0	668
3.823	0.938	16317	19178	0	668
1.911	-0.433	16321	19642	0	668
-1.983	-5.770	16325	20040	0	668
-5.698	-12.225	16331	20471	0	668
-6.491	-15.543	16337	20994	0	668
-6.852	-17.526	16343	21516	0	668
-9.629	-18.103	16350	21956	0	668
-12.658	-18.572	16358	22304	0	668
-14.208	-17.670	16364	22619	0	668
-13.848	-15.110	16372	22917	0	668
-8.979	-11.396	16380	23133	0	668
-3.246	-7.645	16386	23216	0	668
2.308	-4.724	16393	23216	0	668
7.104	-0.577	16400	23117	0	668
11.937	4.508	16405	22835	0	668
14.028	8.511	16410	22395	0	668
13.812	10.638	16415	21939	0	668
10.566	7.068	16420	21549	1	704
5.698	2.560	16424	21118	0	704
5.301	0.433	16427	20554	0	704
5.157	0.505	16431	19990	0	704
5.085	1.587	16437	19675	0	704
5.373	2.669	16442	19576	0	704
3.390	2.885	16447	19402	0	704
4.472	4.436	16450	19029	0	704
6.275	7.140	16453	18548	0	704
8.583	10.061	16456	18083	0	704
7.934	9.773	16460	17710	0	704
7.357	9.304	16463	17420	0	704
5.734	6.960	16466	17163	0	704
3.642	5.229	16468	16831	0	704
2.416	2.056	16470	16392	0	704
-0.938	-1.515	16471	15953	0	704
-3.101	-4.219	16473	15613	0	704
-3.787	-4.436	16474	15373	0	704
-2.380	-2.669	16475	15099	0	704
-1.334	-1.875	16476	14826	0	704
-2.669	-3.823	16478	14660	0	704
-4.760	-7.285	16480	14651	0	704
-6.888	-10.530	16481	14693	0	704
-6.599	-9.773	16483	14676	0	704
-4.652	-8.439	16484	14643	0	704
-0.865	-4.977	16485	14593	0	704
1.298	-2.452	16485	14486	0	704
4.940	-0.072	16485	14336	0	704
7.321	1.659	16485	14179	0	704
7.789	1.587	16485	14054	0	704
7.285	0.938	16484	13938	0	704
5.986	0.865	16483	13806	0	704
5.626	2.633	16483	13706	0	704
9.845	6.563	16483	13822	0	704
13.523	10.314	16484	14121	0	704
15.651	12.081	16484	14262	0	704
16.661	12.946	16482	14079	0	704
16.084	13.163	16479	13715	0	704
15.218	12.982	16476	13433	0	704
13.271	10.927	16474	13258	0	704
9.665	6.816	16470	13118	0	704
3.750	0.938	16467	12877	0	704
0.216	-2.200	16463	12545	0	704
2.596	1.082	16458	12280	0	704
9.268	7.501	16454	12164	0	704
16.516	13.704	16451	12214	0	704
18.536	15.975	16448	12338	0	704
14.785	11.828	16444	12421	0	704
7.465	6.203	16441	12504	0	704
1.551	0.613	16437	12603	0	704
-0.433	-0.433	16433	12661	0	704
2.669	1.442	16430	12769	0	704
5.554	4.544	16428	13093	0	704
6.924	6.239	16427	13615	0	704
5.554	6.239	16427	14179	0	704
1.695	1.262	16426	14676	0	704
-0.361	-2.236	16425	15058	0	704
0.649	-2.885	16422	15166	0	704
5.373	-0.144	16418	14925	0	704
7.717	2.813	16413	14560	0	704
7.176	4.580	16409	14419	0	704
4.724	4.111	16406	14535	0	704
2.416	2.705	16404	14751	0	704
5.734	5.337	16401	14983	0	704
14.605	9.665	16399	15215	0	704
23.152	15.218	16397	15423	0	704
29.427	19.654	16396	15655	0	704
32.889	22.178	16397	16069	0	704
30.472	22.539	16398	16607	0	704
26.650	21.313	16397	17030	0	704
20.123	16.733	16397	17171	0	704
13.451	11.287	16396	17180	0	704
7.104	5.626	16395	17304	0	704
5.770	1.479	16396	17569	0	704
6.167	0.397	16396	17801	0	704
7.609	1.334	16396	17917	0	704
8.943	2.128	16396	17984	0	704
7.032	1.551	16397	18125	0	704
6.094	0.577	16399	18415	0	704
4.400	0.433	16402	18714	0	704
4.003	-0.974	16402	18863	0	704
2.344	-2.236	16402	18772	0	704
-0.685	-5.986	16402	18523	0	704
-2.488	-7.573	16401	18257	0	704
-2.056	-7.681	16401	18017	0	704
2.452	-4.291	16398	17702	0	704
6.131	-1.154	16396	17246	0	704
7.645	0.180	16394	16782	0	704
7.717	0.938	16391	16408	0	704
9.340	4.147	16389	16177	0	704
12.441	8.366	16387	16020	0	704
16.264	10.746	16386	15862	0	704
15.507	7.212	16384	15696	0	704
11.540	2.705	16384	15547	0	704
6.996	-0.613	16382	15456	0	704
8.402	1.695	16381	15431	0	704
10.025	5.517	16379	15423	0	704
11.792	6.744	16377	15373	0	704
8.979	4.291	16375	15315	0	704
3.282	-0.144	16374	15323	0	704
0.577	-2.092	16372	15340	0	704
0.469	-1.479	16370	15249	0	704
1.911	-1.479	16367	15058	0	704
2.164	-2.777	16364	14851	0	704
0.757	-6.671	16360	14593	0	704
-2.416	-10.206	16356	14262	0	704
-4.904	-12.946	16351	13996	0	704
-6.599	-13.451	16348	13880	0	704
-5.878	-12.117	16345	13864	0	704
-3.823	-9.340	16341	13789	0	704
-0.974	-5.373	16336	13681	0	704
2.128	-3.859	16334	13781	0	704
2.705	-3.065	16333	14154	0	704
1.551	-4.075	16332	14593	0	704
2.056	-3.714	16331	14958	0	704
5.157	-1.226	16330	15232	0	704
8.619	2.885	16328	15506	0	704
10.097	5.193	16328	15812	0	704
7.934	3.065	16328	16119	0	704
2.092	-1.370	16328	16392	0	704
-2.957	-5.914	16327	16624	0	704
-3.498	-5.517	16327	16806	0	704
-1.551	-2.993	16326	16964	0	704
1.370	-0.649	16327	17171	0	704
0.685	-2.633	16328	17445	0	704
-3.173	-9.016	16328	17644	0	704
-8.583	-16.084	16327	17677	0	704
-13.379	-19.654	16327	17636	0	704
-13.668	-18.356	16327	17660	0	704
-11.864	-14.894	16327	17718	0	704
-11.143	-13.199	16326	17652	0	704
-11.215	-13.920	16325	17428	0	704
-14.064	-19.473	16323	17155	0	704
-16.120	-22.467	16321	16914	0	704
-15.290	-24.198	16319	16707	0	704
-12.946	-21.241	16318	16500	0	704
-10.458	-18.536	16316	16351	0	704
-10.963	-16.012	16315	16235	0	704
-12.622	-15.398	16312	16069	0	704
-12.405	-14.281	16310	15812	0	704
-11.900	-12.874	16307	15597	0	704
-9.592	-11.179	16305	15489	0	704
-7.825	-11.035	16303	15423	0	704
-8.402	-13.127	16300	15257	0	704
-9.232	-13.271	16297	15033	0	704
-8.835	-12.982	16295	14942	0	704
-7.357	-10.963	16293	15041	0	704
-6.131	-8.583	16292	15232	0	704
-3.714	-9.412	16291	15373	0	704
-3.570	-12.514	16290	15489	0	704
-5.229	-15.362	16290	15738	0	704
-9.592	-19.618	16290	16086	0	704
-11.864	-20.591	16291	16417	0	704
-11.973	-19.654	16293	16773	0	704
-6.744	-14.713	16294	17163	0	704
2.128	-8.078	16296	17569	0	704
5.590	-5.554	16299	18000	0	704
3.678	-8.330	16303	18515	0	704
-3.462	-15.254	16307	19087	0	704
-11.143	-22.358	16313	19584	0	704
-11.432	-23.332	16317	20007	0	704
-8.727	-19.546	16323	20480	0	704
-5.409	-15.254	16329	21044	0	704
-4.508	-14.136	16337	21591	0	704
-7.717	-16.084	16344	22039	0	704
-9.088	-17.057	16351	22379	0	704
-6.563	-15.435	16359	22702	0	704
-0.793	-11.792	16367	23017	0	704
3.967	-7.429	16376	23249	0	704
5.049	-7.393	16383	23357	0	704
2.344	-8.439	16389	23374	0	704
0.541	-10.422	16396	23299	0	704
0.721	-8.366	16402	23058	0	704
5.265	-4.724	16408	22636	0	704
9.124	0.216	16414	22180	0	704
10.602	1.370	16419	21790	1	700
8.547	0.108	16425	21483	0	700
8.366	-0.325	16431	21209	0	700
11.432	2.633	16437	20911	0	700
16.336	7.717	16442	20538	0	700
16.480	8.439	16445	20015	0	700
11.540	3.859	16448	19344	0	700
2.200	-3.967	16450	18556	0	700
-3.570	-9.052	16451	17743	0	700
-3.823	-8.330	16452	17022	0	700
-1.190	-7.609	16453	16466	0	700
-1.659	-7.717	16455	16094	0	700
-4.219	-12.514	16457	15804	0	700
-7.537	-13.199	16459	15522	0	700
-4.183	-10.206	16461	15249	0	700
2.416	-4.868	16463	15099	0	700
6.167	-2.633	16466	15116	0	700
4.977	-6.527	16469	15166	0	700
1.947	-10.602	16471	15141	0	700
0.865	-11.251	16473	15074	0	700
6.491	-4.796	16475	14991	0	700
14.208	3.101	16475	14817	0	700
18.536	7.753	16477	14627	0	700
16.841	6.924	16477	14469	0	700
13.235	4.580	16476	14229	0	700
13.163	5.842	16475	13855	0	700
15.471	9.232	16475	13574	0	700
17.634	11.432	16474	13457	0	700
15.362	9.484	16473	13399	0	700
9.592	2.200	16472	13317	0	700
3.173	-4.436	16469	13076	0	700
0.072	-7.032	16467	12728	0	700
0.541	-6.419	16464	12496	0	700
-1.046	-5.914	16461	12404	0	700
-5.049	-10.458	16458	12338	0	700
-9.268	-14.208	16455	12255	0	700
-8.294	-14.245	16452	12156	0	700
-1.839	-8.655	16449	12081	0	700
9.232	0.685	16446	12114	0	700
14.894	6.455	16445	12297	0	700
13.451	4.255	16442	12587	0	700
8.150	-1.659	16440	12860	0	700
2.452	-7.717	16438	13068	0	700
2.921	-6.852	16437	13325	0	700
7.825	-1.298	16436	13715	0	700
15.398	6.960	16436	14179	0	700
19.437	12.081	16436	14643	0	700
18.211	10.963	16436	15041	0	700
12.730	3.678	16436	15365	0	700
6.708	-3.859	16436	15647	0	700
4.327	-5.986	16436	15945	0	700
6.744	-3.570	16436	16219	0	700
9.953	0.397	16435	16408	0	700
6.275	-0.288	16435	16566	0	700
-2.957	-8.583	16436	16740	0	700
-9.845	-15.615	16436	16947	0	700
-10.927	-17.202	16437	17188	0	700
-4.508	-13.127	16437	17395	0	700
1.983	-9.232	16437	17370	0	700
2.452	-9.160	16435	17080	0	700
-0.974	-13.271	16433	16806	0	700
-3.678	-15.182	16432	16690	0	700
-1.623	-14.533	16430	16607	0	700
1.370	-11.107	16429	16508	0	700
0.793	-10.783	16428	16425	0	700
-0.144	-10.674	16427	16384	0	700
3.282	-6.311	16427	16442	0	700
9.340	1.623	16429	16748	0	700
16.913	7.501	16431	17221	0	700
16.733	6.924	16432	17519	0	700
10.819	1.731	16432	17461	0	700
5.193	-3.173	16431	17204	0	700
6.311	-1.118	16429	16906	0	700
13.992	6.094	16427	16641	0	700
17.995	10.530	16426	16458	0	700
14.641	5.950	16425	16376	0	700
6.131	-0.505	16424	16277	0	700
1.695	-4.147	16423	16202	0	700
2.669	-2.993	16423	16210	0	700
7.717	2.596	16422	16219	0	700
11.900	2.705	16420	16111	0	700
8.691	0.000	16418	15870	0	700
4.183	-4.652	16416	15547	0	700
3.678	-5.013	16411	15058	0	700
9.953	0.974	16406	14444	0	700
18.103	8.114	16400	13930	0	700
22.863	11.973	16396	13632	0	700
20.952	8.294	16392	13466	0	700
14.353	2.813	16389	13416	0	700
9.052	-3.173	16386	13499	0	700
8.402	-2.669	16384	13698	0	700
13.451	2.813	16382	13847	0	700
17.959	9.016	16378	13797	0	700
18.608	11.323	16374	13632	0	700
16.120	10.097	16371	13615	0	700
13.091	5.950	16368	13831	0	700
9.268	3.750	16366	14146	0	700
8.475	0.216	16364	14452	0	700
5.842	-1.587	16363	14734	0	700
5.950	-2.019	16361	14958	0	700
7.573	0.505	16359	15166	0	700
12.730	6.022	16358	15389	0	700
16.084	9.737	16356	15630	0	700
15.254	8.727	16356	15895	0	700
9.268	1.983	16354	16152	0	700
2.380	-6.744	16354	16384	0	700
-0.649	-9.737	16354	16699	0	700
1.983	-7.825	16355	17171	0	700
7.537	-2.308	16356	17594	0	700
11.323	3.462	16357	17777	0	700
12.009	5.085	16356	17727	0	700
12.297	4.039	16355	17636	0	700
10.710	2.416	16354	17578	0	700
11.432	1.118	16352	17412	0	700
13.091	1.659	16349	17072	0	700
13.054	4.003	16346	16665	0	700
12.910	6.094	16344	16392	0	700
12.477	7.032	16342	16260	0	700
9.665	6.599	16339	16185	0	700
7.537	5.914	16338	16111	0	700
4.111	3.210	16336	16045	0	700
2.164	1.803	16334	16028	0	700
0.072	-0.685	16333	16061	0	700
-1.010	-3.642	16332	16119	0	700
-1.010	-5.842	16331	16185	0	700
-1.262	-5.770	16330	16252	0	700
-0.793	-4.832	16329	16293	0	700
-3.029	-4.868	16328	16302	0	700
-6.635	-7.321	16327	16376	0	700
-10.891	-12.009	16327	16491	0	700
-13.920	-18.211	16326	16574	0	700
-14.064	-21.998	16325	16583	0	700
-11.504	-22.178	16325	16541	0	700
-10.783	-22.467	16323	16475	0	700
-11.468	-21.241	16321	16368	0	700
-12.910	-21.998	16319	16194	0	700
-15.507	-22.431	16317	16036	0	700
-17.923	-25.279	16315	15887	0	700
-20.411	-27.804	16310	15555	0	700
-22.142	-30.220	16304	14834	0	700
-23.512	-30.112	16295	13822	0	700
-20.447	-26.650	16287	12902	0	700
-16.120	-21.313	16280	12363	0	700
-9.881	-15.290	16274	12081	0	700
-3.570	-10.133	16268	11957	0	700
1.370	-6.094	16264	12056	0	700
4.904	-3.282	16260	12429	0	700
5.445	-1.623	16259	12960	0	700
4.544	-2.524	16257	13507	0	700
2.164	-2.741	16256	14046	0	700
2.705	-3.173	16257	14710	0	700
3.750	-2.092	16258	15522	0	700
5.373	-0.757	16260	16384	0	700
5.734	-1.442	16263	17246	0	700
4.724	-3.282	16267	18067	0	700
0.000	-8.150	16271	18830	0	700
-4.147	-12.261	16276	19609	0	700
-7.212	-15.795	16283	20463	0	700
-10.314	-17.454	16289	21284	0	700
-11.179	-17.959	16295	21906	0	700
-9.520	-17.202	16301	22387	0	700
-8.907	-16.841	16309	22901	0	700
-6.635	-16.913	16317	23498	0	700
-4.580	-15.218	16326	24045	0	700
0.108	-12.297	16334	24377	0	700
2.560	-11.071	16340	24369	0	700
5.265	-10.999	16346	24128	0	700
3.750	-11.720	16353	23913	0	700
1.406	-13.812	16359	23796	0	700
0.361	-12.982	16366	23689	1	676
2.777	-7.717	16373	23564	0	676
6.852	-3.390	16380	23390	0	676
11.684	-0.541	16384	23092	0	676
11.937	-0.902	16391	22677	0	676
10.133	-4.364	16397	22304	0	676
7.934	-6.203	16404	22005	0	676
6.131	-7.321	16409	21690	0	676
5.157	-6.058	16414	21292	0	676
6.022	-5.662	16420	20828	0	676
4.760	-5.517	16425	20388	0	676
4.147	-5.842	16430	20007	0	676
4.039	-5.013	16435	19717	0	676
4.436	-5.770	16441	19485	0	676
4.508	-6.708	16447	19236	0	676
4.291	-7.609	16452	18987	0	676
2.344	-9.989	16458	18796	0	676
1.479	-9.917	16463	18639	0	676
-1.118	-9.701	16468	18448	0	676
-1.515	-10.674	16473	18183	0	676
-0.685	-9.340	16478	17876	0	676
0.000	-9.268	16483	17669	0	676
2.344	-6.311	16488	17627	0	676
5.337	-4.868	16494	17644	0	676
7.140	-1.947	16497	17461	0	676
8.042	-1.010	16499	16906	0	676
9.268	-0.144	16500	16202	0	676
9.556	0.721	16502	15680	0	676
9.665	0.144	16504	15356	0	676
9.016	-0.938	16506	15041	0	676
6.599	-2.993	16506	14693	0	676
3.642	-4.219	16507	14378	0	676
1.803	-4.291	16508	14063	0	676
2.741	-3.498	16506	13656	0	676
4.940	-1.010	16505	13159	0	676
6.816	0.469	16503	12753	0	676
6.455	0.721	16501	12413	0	676
4.688	-0.252	16498	12006	0	676
1.442	-2.849	16495	11550	0	676
-1.298	-5.626	16491	11210	0	676
-3.895	-8.222	16488	11011	0	676
-4.436	-10.242	16485	10862	0	676
-5.157	-10.422	16481	10688	0	676
-1.442	-7.645	16476	10514	0	676
3.426	-2.236	16473	10423	0	676
7.717	2.669	16469	10489	0	676
10.819	7.862	16466	10738	0	676
12.333	8.042	16464	11086	0	676
11.107	6.419	16461	11360	0	676
11.468	4.255	16458	11559	0	676
14.208	3.823	16455	11700	0	676
15.831	4.760	16451	11766	0	676
17.923	7.537	16447	11890	0	676
17.959	7.934	16444	12114	0	676
15.038	7.537	16441	12404	0	676
11.107	3.931	16438	12802	0	676
8.691	-0.721	16437	13317	0	676
6.455	-5.049	16436	13864	0	676
7.104	-5.878	16436	14394	0	676
9.124	-5.409	16435	14892	0	676
12.081	-1.947	16435	15373	0	676
13.199	0.288	16435	15837	0	676
11.756	0.433	16436	16293	0	676
10.061	-0.108	16436	16699	0	676
8.511	-0.793	16437	17055	0	676
9.953	0.938	16437	17345	0	676
12.982	2.849	16437	17586	0	676
15.074	3.246	16438	17777	0	676
14.569	1.118	16438	17876	0	676
12.153	-1.118	16437	17851	0	676
8.511	-4.183	16435	17710	0	676
8.150	-3.246	16433	17428	0	676
8.691	-1.587	16430	17022	0	676
10.855	0.721	16427	16599	0	676
12.009	1.587	16423	16268	0	676
13.523	1.947	16420	15978	0	676
14.172	1.875	16416	15655	0	676
15.471	1.551	16412	15224	0	676
16.985	0.649	16406	14701	0	676
17.129	0.433	16401	14253	0	676
15.687	-1.875	16397	14088	0	676
11.684	-4.147	16394	14171	0	676
8.727	-7.429	16391	14287	0	676
5.590	-10.242	16389	14378	0	676
5.626	-11.937	16387	14593	0	676
6.780	-11.540	16386	14942	0	676
10.169	-7.501	16385	15290	0	676
14.713	-3.895	16384	15539	0	676
16.805	-1.190	16384	15746	0	676
18.175	-0.144	16384	15995	0	676
17.779	-1.046	16384	16302	0	676
17.706	-1.875	16384	16616	0	676
18.356	-1.767	16383	16864	0	676
19.870	-0.685	16383	17055	0	676
20.050	-0.252	16384	17238	0	676
18.572	-0.505	16384	17403	0	676
15.975	-0.793	16384	17586	0	676
15.939	-1.587	16384	17760	0	676
16.661	-1.442	16384	17876	0	676
19.149	0.072	16384	17893	0	676
21.673	2.380	16384	17835	0	676
20.952	3.823	16384	17752	0	676
21.673	3.787	16383	17602	0	676
18.716	2.344	16382	17379	0	676
15.795	-0.577	16380	17130	0	676
13.054	-4.508	16376	16740	0	676
8.186	-7.357	16372	16094	0	676
7.573	-9.989	16366	15298	0	676
7.898	-8.619	16360	14585	0	676
12.153	-7.393	16354	13980	0	676
15.903	-2.921	16347	13399	0	676
19.870	1.695	16341	12852	0	676
23.188	5.409	16334	12438	0	676
24.270	6.599	16329	12280	0	676
24.450	8.547	16324	12355	0	676
25.748	7.717	16321	12579	0	676
25.063	8.258	16317	12844	0	676
26.542	9.701	16315	13192	0	676
27.010	13.704	16313	13648	0	676
28.994	15.182	16312	14088	0	676
27.696	15.939	16310	14428	0	676
27.299	15.002	16308	14726	0	676
25.784	12.441	16307	15050	0	676
26.001	12.045	16305	15406	0	676
25.063	11.828	16305	15804	0	676
26.866	13.127	16305	16268	0	676
26.578	14.281	16305	16723	0	676
27.768	14.821	16306	17105	0	676
27.479	15.038	16307	17437	0	676
28.128	14.208	16307	17810	0	676
28.814	13.559	16310	18208	0	676
26.433	11.179	16310	18506	0	676
24.125	9.196	16311	18689	0	676
19.942	5.517	16313	18863	0	676
17.021	1.551	16315	19078	0	676
16.408	-1.334	16317	19311	0	676
18.356	-1.623	16319	19518	0	676
21.277	0.288	16321	19675	0	676
23.873	3.931	16323	19700	0	676
26.758	8.078	16323	19526	0	676
27.371	9.953	16323	19211	0	676
28.814	11.504	16323	18879	0	676
26.974	11.215	16323	18597	0	676
25.063	10.602	16323	18299	0	676
21.457	8.402	16321	17859	0	676
17.382	7.825	16319	17362	0	676
15.471	7.357	16319	17088	0	676
15.759	9.629	16320	17097	0	676
16.516	11.396	16319	17088	0	676
18.320	15.759	16319	16898	0	676
19.401	17.959	16317	16607	0	676
19.113	18.356	16316	16326	0	676
17.346	17.418	16315	16028	0	676
17.057	15.254	16312	15597	0	676
17.779	14.317	16307	15016	0	676
20.808	17.634	16303	14494	0	676
28.020	23.512	16300	14179	0	676
34.692	29.138	16298	14096	0	676
38.658	32.131	16297	14229	0	676
37.721	32.239	16296	14502	0	676
37.432	31.049	16296	14842	0	676
41.111	35.160	16297	15215	0	676
50.234	43.166	16299	15671	0	676
60.512	50.559	16303	16285	0	676
64.443	52.687	16306	17014	0	676
58.673	48.900	16311	17818	0	676
50.992	40.065	16317	18589	0	676
49.153	38.406	16323	19294	0	676
55.968	45.041	16329	19966	0	676
66.534	55.391	16336	20604	0	676
74.035	62.964	16343	21160	0	676
70.032	60.224	16350	21616	0	676
61.017	52.146	16357	22014	0	676
54.670	42.914	16365	22320	0	676
55.067	42.301	16371	22503	0	676
62.279	47.566	16378	22561	0	676
70.573	54.490	16384	22561	0	676
73.242	56.942	16389	22486	0	676
69.095	52.903	16394	22204	0	676
63.289	45.366	16399	21823	0	676
59.106	41.111	16406	21657	0	676
58.529	40.642	16413	21707	1	724
60.440	44.501	16419	21699	0	724
58.601	45.078	16425	21524	0	724
53.624	42.734	16432	21243	0	724
50.487	40.317	16437	20919	0	724
53.985	43.455	16442	20587	0	724
62.604	51.677	16448	20281	0	724
71.150	58.493	16452	19982	0	724
69.275	57.303	16457	19626	0	724
57.880	47.061	16461	19244	0	724
45.258	37.324	16465	18871	0	724
42.697	35.521	16469	18523	0	724
50.992	44.825	16473	18125	0	724
63.217	57.952	16475	17636	0	724
68.806	62.279	16478	17105	0	724
64.154	57.086	16480	16641	0	724
53.408	45.835	16483	16384	0	724
47.422	38.190	16487	16384	0	724
50.054	40.606	16491	16466	0	724
57.519	48.215	16495	16483	0	724
62.387	54.309	16500	16442	0	724
62.063	53.841	16502	16326	0	724
56.798	49.657	16504	16028	0	724
52.723	45.691	16505	15597	0	724
52.254	44.969	16506	15215	0	724
54.634	46.881	16506	14900	0	724
55.211	45.618	16506	14569	0	724
53.624	43.383	16507	14229	0	724
50.234	38.298	16506	13922	0	724
45.402	33.466	16506	13656	0	724
41.471	28.741	16504	13383	0	724
38.947	27.191	16503	13109	0	724
40.534	28.777	16501	12877	0	724
45.510	33.646	16500	12719	0	724
50.343	38.983	16499	12653	0	724
51.569	40.750	16498	12653	0	724
48.467	37.685	16495	12645	0	724
44.068	34.944	16494	12595	0	724
41.543	31.951	16493	12628	0	724
43.491	34.223	16491	12744	0	724
46.809	38.262	16489	12769	0	724
49.477	40.714	16486	12603	0	724
49.189	40.966	16481	12313	0	724
44.464	35.954	16477	12064	0	724
39.885	28.489	16473	11957	0	724
33.321	22.647	16469	11965	0	724
32.420	21.204	16465	11998	0	724
36.711	26.001	16462	12023	0	724
44.104	34.764	16458	12122	0	724
49.621	39.993	16455	12363	0	724
49.261	38.154	16453	12670	0	724
44.609	31.338	16450	12968	0	724
39.776	26.506	16449	13217	0	724
42.625	27.335	16446	13424	0	724
48.684	35.377	16443	13632	0	724
55.211	41.399	16440	13889	0	724
54.418	40.245	16439	14229	0	724
45.727	31.915	16438	14602	0	724
34.944	20.772	16435	14867	0	724
28.381	14.930	16432	14942	0	724
30.184	18.031	16430	15000	0	724
36.639	25.460	16428	15157	0	724
43.383	32.744	16425	15323	0	724
47.458	35.197	16423	15431	0	724
48.215	35.665	16421	15514	0	724
51.100	37.180	16419	15622	0	724
56.726	42.878	16418	15812	0	724
62.027	48.612	16417	16127	0	724
63.289	51.424	16417	16541	0	724
58.024	46.340	16417	16889	0	724
52.687	39.921	16416	17005	0	724
50.054	37.180	16414	16881	0	724
54.382	39.849	16411	16674	0	724
60.296	44.320	16408	16508	0	724
62.532	45.763	16406	16384	0	724
57.699	40.894	16402	16169	0	724
52.651	35.882	16398	15821	0	724
49.333	32.636	16394	15539	0	724
51.641	35.954	16391	15439	0	724
56.942	41.111	16388	15448	0	724
59.899	43.419	16386	15472	0	724
54.995	38.190	16384	15489	0	724
46.304	27.515	16383	15555	0	724
39.812	19.762	16381	15655	0	724
39.993	19.257	16379	15804	0	724
45.618	26.289	16378	15986	0	724
53.119	36.603	16376	16144	0	724
55.536	41.507	16376	16260	0	724
55.788	43.310	16374	16384	0	724
58.601	46.917	16374	16541	0	724
67.797	53.588	16374	16748	0	724
78.146	63.325	16374	16989	0	724
84.421	70.826	16374	17196	0	724
85.864	73.062	16374	17329	0	724
85.719	73.134	16373	17395	0	724
89.217	77.209	16372	17412	0	724
97.007	82.871	16371	17312	0	724
103.606	89.903	16370	17121	0	724
106.780	92.102	16367	16931	0	724
104.724	89.867	16365	16641	0	724
101.406	84.890	16360	16169	0	724
99.820	81.825	16355	15514	0	724
102.993	84.602	16348	14817	0	724
107.429	90.011	16343	14262	0	724
115.975	99.423	16337	13864	0	724
122.250	106.022	16332	13516	0	724
124.775	108.402	16328	13292	0	724
121.132	107.429	16321	13176	0	724
115.543	101.911	16315	12894	0	724
109.592	97.115	16308	12471	0	724
110.242	96.863	16303	12255	0	724
113.740	99.964	16298	12396	0	724
120.736	105.554	16295	12778	0	724
122.935	108.979	16293	13308	0	724
122.106	108.727	16293	13930	0	724
119.618	105.842	16292	14593	0	724
117.562	103.462	16292	15282	0	724
119.149	102.380	16293	15953	0	724
118.680	102.633	16294	16591	0	724
117.779	102.488	16295	17196	0	724
115.795	100.902	16296	17660	0	724
113.740	101.442	16297	17959	0	724
114.461	100.000	16298	18208	0	724
113.054	97.259	16299	18515	0	724
108.439	89.722	16300	18846	0	724
99.820	80.490	16302	19062	0	724
91.598	72.304	16303	19112	0	724
87.486	70.069	16303	19070	0	724
88.713	72.701	16303	18987	0	724
90.660	77.317	16303	18879	0	724
90.516	77.173	16303	18738	0	724
86.369	72.665	16303	18581	0	724
78.651	65.453	16302	18415	0	724
73.639	60.115	16301	18125	0	724
72.881	58.060	16299	17685	0	724
76.163	62.640	16297	17262	0	724
81.644	66.066	16295	16989	0	724
83.015	68.446	16294	16840	0	724
80.923	66.246	16293	16699	0	724
76.488	63.145	16291	16500	0	724
75.261	61.522	16290	16360	0	724
76.199	64.010	16290	16343	0	724
79.084	67.075	16290	16408	0	724
81.572	70.429	16289	16450	0	724
79.625	70.393	16288	16400	0	724
76.415	68.013	16288	16360	0	724
71.908	64.587	16288	16360	0	724
66.787	61.810	16287	16335	0	724
63.072	57.880	16286	16235	0	724
60.188	54.418	16285	16119	0	724
58.817	51.785	16283	16036	0	724
57.916	48.720	16284	16045	0	724
54.562	46.195	16284	16210	0	724
51.352	43.960	16285	16458	0	724
50.162	42.265	16285	16616	0	724
52.146	43.707	16285	16641	0	724
55.824	46.736	16285	16674	0	724
57.627	50.162	16287	16864	0	724
56.329	50.234	16288	17130	0	724
52.110	47.025	16290	17379	0	724
51.785	45.474	16292	17544	0	724
57.375	47.349	16293	17586	0	724
65.849	53.119	16293	17528	0	724
73.422	60.260	16295	17553	0	724
75.153	62.928	16297	17702	0	724
69.095	58.168	16300	17959	0	724
60.548	51.893	16303	18249	0	724
51.929	44.789	16305	18456	0	724
48.323	43.094	16308	18589	0	724
48.359	43.527	16312	18788	0	724
49.441	45.763	16316	19095	0	724
50.559	47.025	16321	19393	0	724
49.369	46.051	16325	19609	0	724
49.982	46.087	16330	19791	0	724
52.110	46.664	16336	20040	0	724
55.572	49.513	16341	20322	0	724
55.211	49.657	16347	20587	0	724
50.667	45.474	16354	20845	0	724
42.193	37.252	16359	20969	0	724
33.934	29.318	16364	20853	0	724
32.672	26.866	16369	20695	0	724
37.216	29.138	16377	20803	0	724
42.517	35.846	16383	21027	0	724
46.051	38.442	16388	21093	0	724
43.094	35.016	16394	21052	0	724
38.658	29.787	16402	21077	1	740
36.062	25.135	16409	21201	0	740
38.406	25.568	16417	21350	0	740
43.166	29.715	16423	21301	0	740
47.566	35.377	16427	20861	0	740
47.854	38.514	16431	20189	0	740
45.835	38.118	16435	19659	0	740
42.120	34.043	16440	19344	0	740
38.586	30.400	16444	19045	0	740
36.747	25.784	16448	18705	0	740
35.774	24.306	16451	18282	0	740
34.583	23.585	16454	17793	0	740
31.915	21.241	16456	17395	0	740
26.506	16.048	16461	17204	0	740
19.654	10.422	16465	17163	0	740
14.461	4.616	16469	17055	0	740
13.631	2.921	16471	16715	0	740
16.120	5.409	16473	16244	0	740
21.204	9.052	16474	15812	0	740
24.991	12.333	16475	15414	0	740
26.866	14.749	16475	14950	0	740
25.207	13.920	16474	14436	0	740
22.034	11.828	16473	13938	0	740
15.435	5.157	16471	13524	0	740
12.225	1.298	16470	13234	0	740
12.622	-0.180	16470	13093	0	740
19.005	4.616	16470	13010	0	740
28.056	13.451	16469	12902	0	740
35.088	21.096	16469	12852	0	740
36.387	24.017	16468	12935	0	740
33.538	21.277	16468	13059	0	740
30.076	19.618	16468	13134	0	740
31.843	20.339	16466	13101	0	740
35.521	25.676	16464	12952	0	740
42.193	31.122	16460	12678	0	740
43.347	33.538	16458	12446	0	740
39.416	30.472	16455	12388	0	740
34.259	26.794	16453	12421	0	740
32.239	24.739	16450	12471	0	740
35.052	27.587	16449	12579	0	740
37.973	28.128	16446	12769	0	740
36.928	25.027	16445	13043	0	740
30.292	18.067	16445	13424	0	740
23.008	10.710	16445	13839	0	740
18.464	8.799	16444	14171	0	740
18.969	9.376	16443	14411	0	740
20.844	12.405	16442	14635	0	740
24.053	13.199	16441	14859	0	740
25.099	13.415	16440	15025	0	740
26.686	12.730	16439	15124	0	740
25.604	12.622	16438	15215	0	740
21.277	9.881	16437	15356	0	740
17.166	7.537	16437	15680	0	740
14.064	4.400	16438	16111	0	740
11.864	5.409	16438	16384	0	740
12.225	5.193	16437	16368	0	740
12.405	6.094	16435	16194	0	740
12.550	7.717	16432	16003	0	740
17.093	9.845	16430	15854	0	740
22.827	14.461	16427	15705	0	740
25.676	17.057	16425	15564	0	740
26.866	17.454	16422	15431	0	740
23.440	15.723	16419	15282	0	740
22.431	14.785	16416	14983	0	740
24.125	16.805	16410	14544	0	740
29.174	22.286	16406	14179	0	740
34.944	28.273	16401	13972	0	740
36.459	29.463	16397	13905	0	740
34.043	27.010	16395	13988	0	740
28.705	21.385	16392	14195	0	740
24.414	15.110	16391	14486	0	740
23.008	13.920	16389	14842	0	740
23.909	14.713	16388	15149	0	740
26.974	16.625	16385	15166	0	740
27.948	17.743	16383	14950	0	740
28.741	19.798	16380	14875	0	740
31.374	24.198	16378	15050	0	740
35.088	30.436	16376	15323	0	740
37.252	34.403	16375	15588	0	740
34.944	31.915	16374	15879	1	316
27.768	24.414	16374	16227	0	316
20.014	16.697	16375	16574	0	316
14.425	11.792	16374	16848	0	316
13.307	11.684	16374	17039	0	316
12.405	11.360	16374	17180	0	316
13.848	12.550	16373	17279	0	316
15.867	15.074	16372	17213	0	316
19.978	19.365	16369	16939	0	316
23.945	23.044	16365	16583	0	316
25.316	23.368	16362	16219	0	316
21.313	19.041	16358	15829	0	316
18.320	16.192	16354	15506	0	316
18.788	18.283	16351	15389	0	316
22.611	23.549	16349	15431	0	316
27.407	28.237	16346	15389	0	316
27.010	29.354	16342	15166	0	316
24.739	26.073	16338	14967	0	316
21.854	24.594	16336	14983	0	316
22.214	25.243	16335	15157	0	316
23.296	25.856	16333	15307	0	316
25.207	27.047	16330	15365	0	316
25.460	26.145	16328	15439	0	316
26.938	27.587	16327	15580	0	316
27.624	28.597	16325	15738	0	316
27.263	28.705	16324	15870	0	316
23.080	25.316	16323	15995	0	316
17.021	18.933	16322	16152	0	316
13.848	15.723	16321	16368	0	316
16.805	17.418	16321	16657	0	316
21.349	21.962	16322	17022	0	316
25.388	24.017	16323	17287	0	316
23.080	21.709	16322	17362	0	316
17.887	15.471	16321	17345	0	316
13.884	13.776	16321	17370	0	316
16.156	17.238	16321	17453	0	316
22.286	25.712	16321	17478	0	316
26.289	29.030	16321	17445	0	316
24.847	26.001	16319	17387	0	316
17.346	17.454	16318	17271	0	316
10.350	10.927	16316	16989	0	316
8.366	12.081	16313	16483	0	316
12.045	18.392	16308	15887	0	316
16.444	23.693	16304	15389	0	316
16.192	23.621	16299	14967	0	316
11.900	16.697	16294	14552	0	316
5.121	9.737	16290	14328	0	316
2.416	7.862	16288	14370	0	316
5.950	11.504	16286	14527	0	316
10.278	17.274	16284	14643	0	316
15.398	21.385	16282	14685	0	316
16.913	22.863	16280	14809	0	316
17.706	23.332	16280	15083	0	316
17.021	21.673	16279	15448	0	316
14.100	19.546	16279	15812	0	316
9.881	15.002	16280	16144	0	316
6.527	12.009	16280	16475	0	316
5.734	10.494	16280	16806	0	316
7.393	11.468	16282	17121	0	316
10.097	12.261	16282	17387	0	316
9.701	10.314	16283	17553	0	316
10.710	11.612	16283	17602	0	316
15.543	16.048	16283	17669	0	316
22.431	23.296	16284	17818	0	316
26.217	26.902	16285	18000	0	316
21.998	22.358	16286	18100	0	316
13.163	14.100	16287	18141	0	316
7.357	9.016	16288	18199	0	316
8.042	10.819	16290	18282	0	316
14.028	15.326	16291	18357	0	316
17.418	17.995	16293	18415	0	316
15.543	15.651	16295	18531	0	316
12.586	12.586	16297	18622	0	316
12.009	13.812	16298	18589	0	316
16.841	18.283	16299	18465	0	316
20.339	19.726	16301	18398	0	316
20.231	16.480	16302	18398	0	316
17.418	12.514	16305	18440	0	316
15.795	9.989	16308	18498	0	316
17.959	13.920	16310	18606	0	316
20.555	19.257	16314	18763	0	316
23.765	21.673	16317	18987	0	316
23.549	21.529	16322	19269	0	316
24.558	21.204	16326	19493	0	316
29.354	25.424	16331	19634	0	316
34.511	29.968	16336	19825	0	316
37.288	31.194	16343	20123	0	316
34.006	26.974	16348	20397	0	316
24.342	15.471	16353	20554	0	316
16.228	6.419	16359	20587	0	316
9.989	2.344	16364	20587	0	316
11.035	5.013	16371	20612	0	316
15.326	10.855	16376	20695	0	316
19.113	13.595	16383	20770	0	316
19.257	11.720	16387	20704	0	316
14.858	7.465	16391	20463	0	316
9.809	2.236	16396	20189	0	316
8.727	3.498	16401	20015	0	316
14.353	10.350	16407	19916	0	316
21.890	19.690	16413	19883	0	316
29.499	25.929	16419	19924	0	316
30.941	25.640	16425	19941	0	316
25.748	19.546	16430	19833	0	316
19.293	11.287	16435	19551	0	316
15.435	7.429	16440	19178	0	316
14.821	8.583	16443	18830	0	316
18.897	15.110	16445	18357	0	316
24.775	21.241	16447	17669	0	316
26.433	24.198	16449	17055	0	316
26.938	23.080	16452	16782	0	316
25.784	21.024	16455	16682	0	316
26.217	22.070	16456	16392	0	316
30.725	25.676	16456	15870	0	316
35.846	31.374	16457	15315	0	316
37.324	32.131	16456	14867	0	316
35.016	28.417	16457	14552	0	316
29.571	20.519	16457	14312	0	316
23.188	14.569	16457	14030	0	316
18.572	9.160	16455	13648	0	316
14.749	7.970	16454	13267	0	316
10.674	5.878	16452	12960	0	316
9.845	7.645	16452	12769	0	316
11.504	8.511	16450	12661	0	316
13.487	10.710	16447	12512	0	316
14.497	9.340	16445	12330	0	316
12.874	8.366	16443	12263	0	316
13.018	9.196	16442	12363	0	316
17.202	14.894	16441	12496	0	316
25.712	23.549	16439	12537	0	316
31.879	27.660	16437	12579	0	316
29.354	24.089	16436	12719	0	316
19.978	14.064	16435	13001	0	316
10.278	5.517	16435	13333	0	316
7.970	2.705	16434	13615	0	316
12.441	6.527	16432	13781	0	316
20.555	12.153	16430	13715	0	316
23.729	11.720	16426	13466	0	316
20.736	8.943	16422	13300	0	316
15.074	4.255	16420	13317	0	316
13.920	5.409	16417	13416	0	316
17.093	10.927	16414	13557	0	316
26.181	19.401	16413	13764	0	316
31.013	23.188	16413	14096	0	316
28.489	18.608	16413	14635	0	316
18.572	7.393	16414	15290	0	316
6.563	-3.750	16415	15796	0	316
1.262	-8.619	16415	16136	0	316
3.823	-3.678	16416	16425	0	316
12.369	4.580	16417	16782	0	316
20.231	13.199	16418	17171	0	316
22.358	15.579	16420	17495	0	316
19.906	12.550	16420	17636	0	316
16.372	7.429	16419	17561	0	316
15.002	5.517	16418	17403	0	316
15.903	5.013	16418	17279	0	316
18.320	7.248	16417	17088	0	316
20.231	10.169	16413	16707	0	316
20.087	9.196	16410	16235	0	316
17.815	7.753	16407	15862	0	316
15.471	4.940	16404	15680	0	316
14.028	2.885	16403	15613	0	316
13.163	3.823	16401	15580	0	316
15.110	6.708	16399	15564	0	316
17.670	9.448	16398	15588	0	316
21.168	12.874	16398	15705	0	316
22.863	13.018	16397	15904	0	316
23.008	12.658	16397	16086	0	316
22.395	12.982	16396	16177	0	316
24.089	16.480	16395	16202	0	316
26.758	22.467	16394	16235	0	316
31.446	26.037	16394	16318	0	316
32.780	28.020	16394	16392	0	316
31.626	24.702	16392	16326	0	316
30.148	20.736	16388	15937	0	316
28.273	18.500	16384	15389	0	316
25.893	15.398	16381	15000	0	316
21.132	10.242	16378	14817	0	316
13.631	5.229	16374	14676	0	316
8.439	1.767	16371	14535	0	316
7.934	2.488	16369	14494	0	316
13.848	7.285	16366	14535	0	316
19.726	12.838	16364	14577	0	316
26.109	16.516	16362	14734	0	316
27.443	16.552	16362	15116	0	316
28.345	16.408	16362	15522	0	316
26.433	15.903	16361	15729	0	316
25.856	13.054	16360	15787	0	316
23.260	10.566	16359	15870	0	316
20.195	8.619	16358	16045	0	316
19.582	6.347	16357	16260	0	316
17.743	5.193	16356	16360	0	316
16.192	4.904	16354	16318	0	316
15.579	4.255	16353	16285	0	316
15.687	4.868	16351	16326	0	316
19.834	10.566	16350	16335	0	316
29.354	18.320	16349	16277	0	316
37.180	25.640	16347	16202	0	316
42.157	29.354	16345	16169	0	316
38.586	26.470	16343	16136	0	316
30.761	20.483	16341	16053	0	316
26.109	15.903	16339	15970	0	316
25.316	15.939	16338	15928	0	316
28.994	18.067	16336	15920	0	316
30.328	19.690	16334	15937	0	316
28.994	18.428	16333	16036	0	316
26.037	15.362	16333	16210	0	316
23.332	12.658	16332	16343	0	316
22.395	13.163	16331	16376	0	316
23.909	14.100	16330	16376	0	316
22.647	16.300	16329	16417	0	316
22.503	17.129	16328	16500	0	316
22.863	17.526	16328	16566	0	316
22.467	17.418	16327	16616	0	316
20.808	13.848	16326	16632	0	316
16.841	9.160	16325	16541	0	316
12.586	4.760	16323	16392	0	316
11.792	3.823	16323	16442	0	316
14.966	7.176	16323	16732	0	316
18.428	10.855	16324	16964	0	316
22.358	12.189	16323	16939	0	316
19.690	9.809	16321	16773	0	316
14.028	4.400	16321	16657	0	316
8.943	0.072	16320	16641	0	316
4.904	-2.596	16320	16732	0	316
2.993	-3.967	16320	16831	0	316
3.426	-3.101	16320	16856	0	316
8.114	0.685	16320	16856	0	316
14.930	7.321	16319	16856	0	316
22.899	14.425	16318	16823	0	316
29.643	19.798	16318	16732	0	316
29.246	18.969	16316	16599	0	316
24.198	13.920	16316	16417	0	316
18.031	8.042	16314	16285	0	316
13.523	3.029	16314	16285	0	316
13.271	5.013	16313	16368	0	316
17.310	8.439	16312	16302	0	316
21.457	12.009	16308	15895	0	316
23.621	13.307	16304	15307	0	316
22.899	11.396	16301	14875	0	316
20.447	7.501	16297	14627	0	316
17.887	6.275	16293	14394	0	316
16.048	5.950	16290	14229	0	316
15.435	6.347	16288	14237	0	316
13.379	5.229	16286	14403	0	316
13.812	5.013	16285	14618	0	316
16.480	5.626	16283	14809	0	316
22.395	10.494	16282	14983	0	316
27.948	17.346	16281	15116	0	316
30.941	21.962	16278	15108	0	316
29.679	22.791	16276	15041	0	316
25.568	21.168	16276	15240	0	316
24.847	19.401	16277	15721	0	316
25.135	17.923	16277	16161	0	316
26.614	18.247	16276	16351	0	316
26.109	17.490	16276	16425	0	316
25.207	16.264	16276	16583	0	316
24.919	18.103	16276	16823	0	316
27.263	20.772	16277	17146	0	316
31.374	23.981	16280	17511	0	316
31.446	22.358	16281	17859	0	316
25.965	16.877	16283	18175	0	316
16.697	9.665	16286	18515	0	316
9.989	4.436	16290	18921	0	316
6.311	2.921	16294	19377	0	316
8.006	3.137	16298	19816	0	316
8.763	3.859	16304	20214	0	316
10.710	3.282	16309	20621	0	316
11.973	6.599	16316	21102	0	316
15.362	9.737	16322	21583	0	316
19.870	14.785	16328	21848	0	316
22.106	15.326	16332	21782	0	316
20.591	13.451	16337	21541	0	316
17.598	9.556	16342	21442	0	316
14.569	8.186	16347	21500	0	316
14.100	7.862	16353	21524	1	1096
14.245	8.006	16358	21500	0	1096
15.651	8.330	16364	21458	0	1096
17.490	7.645	16369	21309	0	1096
18.392	9.232	16374	21085	0	1096
19.582	9.268	16380	20952	0	1096
21.493	12.225	16385	20911	0	1096
24.017	16.012	16390	20762	0	1096
26.974	21.096	16394	20422	0	1096
30.112	25.316	16399	19990	0	1096
30.220	26.037	16402	19592	0	1096
28.633	22.827	16406	19236	0	1096
25.568	17.779	16409	18854	0	1096
24.522	15.362	16412	18465	0	1096
24.666	15.867	16415	18117	0	1096
24.522	16.192	16418	17785	0	1096
24.522	15.975	16421	17495	0	1096
22.647	13.307	16425	17296	0	1096
21.096	12.405	16428	17130	0	1096
22.395	11.720	16431	16922	0	1096
23.404	14.281	16434	16773	0	1096
24.450	14.785	16438	16773	0	1096
22.935	14.100	16442	16823	0	1096
17.454	9.953	16446	16782	0	1096
13.163	6.491	16447	16583	0	1096
10.350	5.301	16450	16293	0	1096
12.622	5.554	16452	16061	0	1096
14.136	6.022	16455	15978	0	1096
13.343	1.731	16458	16069	0	1096
8.114	-4.327	16462	16161	0	1096
4.580	-6.960	16463	16111	0	1096
7.357	-2.236	16465	15937	0	1096
16.336	9.124	16466	15680	0	1096
27.263	20.303	16467	15381	0	1096
31.230	23.152	16466	15041	0	1096
28.886	18.139	16466	14701	0	1096
22.647	11.612	16465	14353	0	1096
21.926	9.773	16463	14021	0	1096
24.955	13.054	16462	13731	0	1096
29.499	17.959	16460	13507	0	1096
30.256	17.526	16459	13317	0	1096
26.289	13.812	16456	13043	0	1096
23.116	9.953	16452	12612	0	1096
22.575	10.242	16447	12122	0	1096
26.217	14.317	16444	11774	0	1096
27.804	17.274	16440	11584	0	1096
27.443	15.687	16436	11492	0	1096
22.431	12.225	16432	11459	0	1096
20.591	9.701	16429	11467	0	1096
20.952	12.297	16425	11517	0	1096
24.089	18.860	16422	11625	0	1096
27.876	23.549	16419	11849	0	1096
27.804	22.719	16417	12114	0	1096
24.811	18.680	16413	12288	0	1096
20.447	12.261	16410	12446	0	1096
17.995	8.439	16408	12686	0	1096
16.985	9.448	16405	12977	0	1096
16.769	9.701	16402	13200	0	1096
14.208	9.160	16399	13333	0	1096
10.566	5.662	16395	13457	0	1096
6.383	3.065	16392	13656	0	1096
8.186	3.823	16390	13905	0	1096
14.317	7.898	16388	14187	0	1096
22.827	14.208	16385	14411	0	1096
29.571	19.401	16382	14403	0	1096
30.256	19.582	16377	14229	0	1096
27.119	17.959	16374	14187	0	1096
22.611	15.831	16371	14386	0	1096
20.736	13.379	16368	14668	0	1096
20.339	12.477	16367	14983	0	1096
19.293	10.314	16365	15331	0	1096
18.283	8.042	16364	15696	0	1096
16.516	8.979	16364	16111	0	1096
17.057	11.828	16364	16541	0	1096
20.087	16.516	16364	16947	0	1096
22.755	18.644	16363	17188	0	1096
19.906	14.208	16361	17213	0	1096
15.326	6.491	16359	17121	0	1096
8.871	0.577	16357	17047	0	1096
8.799	0.649	16355	17022	0	1096
12.081	5.049	16354	17047	0	1096
16.192	10.169	16353	17072	0	1096
16.192	9.412	16351	17047	0	1096
11.071	4.508	16351	17055	0	1096
5.085	-0.036	16351	17254	0	1096
5.409	1.082	16351	17553	0	1096
10.278	6.527	16350	17685	0	1096
19.365	14.172	16348	17453	0	1096
25.063	18.464	16346	16997	0	1096
24.883	16.733	16342	16574	0	1096
21.493	11.360	16336	16094	0	1096
16.084	7.104	16331	15497	0	1096
15.326	5.734	16327	15058	0	1096
17.021	8.511	16324	14909	0	1096
20.988	13.920	16322	14958	0	1096
23.332	17.021	16320	15149	0	1096
23.621	17.310	16320	15431	0	1096
20.123	13.776	16319	15721	0	1096
17.454	9.124	16318	15995	0	1096
15.831	5.662	16319	16268	0	1096
16.084	4.832	16319	16591	0	1096
18.716	7.176	16321	16964	0	1096
19.618	8.727	16321	17262	0	1096
19.798	9.701	16322	17470	0	1096
17.743	7.285	16323	17677	0	1096
16.589	4.147	16324	17917	0	1096
16.516	3.246	16325	18100	0	1096
16.264	1.875	16325	18125	0	1096
13.992	0.685	16326	18042	0	1096
9.917	-3.065	16325	17967	0	1096
5.662	-6.635	16325	17884	0	1096
2.849	-9.629	16325	17710	0	1096
4.652	-8.294	16323	17453	0	1096
7.645	-7.104	16322	17213	0	1096
11.900	-5.914	16321	17022	0	1096
15.723	-2.813	16319	16723	0	1096
20.916	0.036	16315	16268	0	1096
25.568	7.068	16312	15729	0	1096
28.453	12.081	16308	15182	0	1096
28.850	13.776	16304	14792	0	1096
23.909	8.979	16301	14593	0	1096
17.743	2.416	16298	14502	0	1096
11.900	-4.616	16296	14486	0	1096
5.337	-8.547	16295	14602	0	1096
4.472	-8.114	16294	14851	0	1096
7.357	-3.498	16294	15174	0	1096
12.730	2.019	16294	15489	0	1096
19.149	5.770	16294	15812	0	1096
20.555	5.554	16295	16194	0	1096
18.247	2.128	16298	16616	0	1096
14.281	-1.767	16299	17022	0	1096
12.225	-2.056	16301	17379	0	1096
12.874	0.036	16304	17785	0	1096
14.858	2.813	16307	18216	0	1096
15.543	2.560	16310	18548	0	1096
14.245	3.101	16311	18714	0	1096
15.146	3.534	16313	18747	0	1096
16.372	5.481	16314	18689	0	1096
18.211	7.285	16315	18548	0	1096
18.500	8.078	16315	18307	0	1096
17.346	5.806	16314	17942	0	1096
15.543	4.652	16313	17561	0	1096
14.281	4.255	16313	17254	0	1096
14.100	3.137	16311	17005	0	1096
13.127	3.462	16310	16657	0	1096
13.235	3.678	16308	16252	0	1096
13.776	5.301	16304	15812	0	1096
15.110	5.193	16300	15249	0	1096
15.362	3.750	16295	14569	0	1096
13.127	0.974	16291	14063	0	1096
11.973	-1.082	16288	13839	0	1096
12.297	0.649	16285	13797	0	1096
16.372	3.967	16283	13872	0	1096
21.096	9.737	16283	14030	0	1096
22.431	9.520	16281	14187	0	1096
20.267	7.104	16280	14336	0	1096
15.398	0.974	16280	14593	0	1096
11.864	-3.354	16280	14958	0	1096
11.684	-5.626	16280	15331	0	1096
12.153	-3.246	16280	15663	0	1096
14.821	-1.587	16281	15962	0	1096
16.480	0.829	16281	16235	0	1096
17.562	0.685	16283	16566	0	1096
18.356	-0.541	16285	17047	0	1096
18.139	-1.442	16288	17636	0	1096
17.129	-1.551	16292	18191	0	1096
15.326	-2.885	16296	18655	0	1096
14.028	-3.318	16300	19120	0	1096
12.802	-3.823	16306	19667	0	1096
13.235	-2.128	16312	20223	0	1096
13.054	-1.839	16316	20637	0	1096
13.776	-0.036	16322	20936	0	1096
13.415	0.361	16328	21176	0	1096
11.504	-0.902	16333	21417	0	1096
10.819	-1.695	16340	21641	0	1096
10.097	-0.865	16347	21881	0	1096
11.937	-0.361	16353	22088	0	1096
14.858	0.072	16360	22188	0	1096
15.615	-1.118	16365	22113	0	1096
14.749	-4.327	16371	21906	0	1096
10.350	-7.429	16376	21665	0	1096
6.996	-11.143	16381	21425	0	1096
4.039	-11.937	16384	21143	1	728
1.947	-13.271	16388	20786	0	728
1.659	-14.208	16392	20413	0	728
1.118	-15.182	16397	20082	0	728
1.262	-14.569	16401	19775	0	728
3.534	-13.018	16404	19451	0	728
4.940	-12.009	16408	19070	0	728
5.373	-10.963	16411	18647	0	728
6.419	-10.133	16414	18282	0	728
6.996	-10.963	16417	17967	0	728
8.150	-9.196	16419	17602	0	728
10.242	-8.547	16421	17155	0	728
10.025	-7.753	16422	16674	0	728
9.088	-9.160	16424	16227	0	728
7.285	-8.799	16425	15904	0	728
5.445	-10.314	16426	15671	0	728
4.219	-10.999	16426	15331	0	728
2.596	-12.297	16425	14851	0	728
2.452	-11.900	16425	14469	0	728
2.056	-9.701	16426	14295	0	728
2.633	-7.068	16427	14278	0	728
3.931	-4.508	16428	14312	0	728
5.013	-5.698	16429	14336	0	728
4.616	-8.439	16430	14370	0	728
4.868	-10.638	16431	14428	0	728
3.210	-13.235	16432	14469	0	728
1.551	-13.631	16432	14411	0	728
0.252	-15.182	16432	14320	0	728
0.361	-14.966	16432	14312	0	728
1.190	-14.425	16432	14303	0	728
2.128	-13.668	16431	14204	0	728
2.128	-11.468	16430	14113	0	728
2.524	-10.999	16429	14071	0	728
3.354	-10.133	16428	14005	0	728
4.472	-9.484	16426	13889	0	728
5.445	-10.061	16425	13781	0	728
3.859	-12.369	16423	13723	0	728
-0.685	-16.300	16421	13706	0	728
-4.039	-19.185	16420	13723	0	728
-6.888	-20.483	16419	13831	0	728
-5.626	-17.634	16417	13889	0	728
-2.164	-14.281	16413	13690	0	728
2.308	-10.783	16409	13358	0	728
5.337	-8.150	16406	13167	0	728
7.248	-7.645	16402	13109	0	728
7.609	-7.068	16399	13043	0	728
7.681	-4.977	16395	12985	0	728
8.330	-3.967	16392	13043	0	728
9.773	-2.452	16390	13250	0	728
8.907	-3.570	16388	13574	0	728
6.996	-6.491	16387	13947	0	728
3.714	-12.045	16386	14295	0	728
-0.397	-15.435	16385	14635	0	728
-3.029	-18.067	16385	15000	0	728
-4.147	-17.274	16385	15398	0	728
-4.291	-16.372	16385	15787	0	728
-3.534	-15.831	16385	16119	0	728
-2.885	-16.408	16385	16417	0	728
-2.921	-17.310	16386	16690	0	728
-1.875	-17.959	16387	16947	0	728
-1.442	-18.283	16387	17238	0	728
-1.154	-17.815	16388	17495	0	728
0.072	-16.661	16388	17652	0	728
1.767	-13.163	16389	17727	0	728
4.724	-9.124	16389	17810	0	728
7.898	-4.652	16389	17884	0	728
11.360	-1.479	16390	17884	0	728
13.127	-1.154	16390	17818	0	728
11.720	-0.902	16389	17718	0	728
11.973	-1.623	16388	17511	0	728
12.405	0.577	16387	17279	0	728
14.064	3.931	16388	17271	0	728
17.670	10.169	16389	17486	0	728
19.546	12.802	16390	17660	0	728
19.077	13.559	16390	17644	0	728
16.877	10.891	16390	17486	0	728
13.235	4.868	16390	17304	0	728
9.809	0.793	16389	17204	0	728
7.934	-2.380	16390	17163	0	728
5.914	-5.914	16389	17039	0	728
4.291	-7.104	16388	16740	0	728
4.255	-6.635	16385	16392	0	728
2.380	-6.924	16384	16136	0	728
0.505	-6.671	16384	15937	0	728
-1.551	-6.816	16382	15746	0	728
-3.210	-9.953	16380	15588	0	728
-1.947	-9.953	16380	15489	0	728
2.993	-8.366	16376	15323	0	728
8.943	-3.065	16372	14900	0	728
13.018	0.757	16367	14312	0	728
13.956	4.075	16363	13855	0	728
10.710	4.003	16359	13615	0	728
7.537	2.128	16356	13524	0	728
6.708	1.154	16354	13590	0	728
6.852	0.902	16351	13797	0	728
7.970	2.056	16350	14030	0	728
7.537	1.803	16348	14245	0	728
4.868	1.551	16347	14461	0	728
4.111	2.200	16346	14726	0	728
5.806	4.183	16345	14991	0	728
11.071	9.016	16343	15199	0	728
18.752	15.507	16342	15348	0	728
23.008	17.634	16341	15448	0	728
24.234	17.238	16338	15406	0	728
20.411	10.999	16336	15290	0	728
17.057	6.780	16334	15356	0	728
16.589	5.986	16333	15613	0	728
19.185	10.602	16332	15829	0	728
22.034	14.172	16330	15837	0	728
20.555	15.254	16327	15729	0	728
16.300	11.035	16325	15688	0	728
14.208	9.088	16324	15779	0	728
17.202	10.169	16323	15895	0	728
22.467	14.353	16320	15895	0	728
25.676	15.939	16318	15821	0	728
22.935	12.874	16316	15804	0	728
19.618	11.179	16315	15870	0	728
19.113	13.307	16313	15928	0	728
21.673	19.149	16312	15953	0	728
24.306	22.935	16310	15995	0	728
20.483	20.339	16308	16045	0	728
14.749	12.874	16306	16103	0	728
11.684	8.402	16305	16119	0	728
13.379	9.304	16303	16127	0	728
17.562	13.920	16302	16185	0	728
20.591	17.995	16301	16302	0	728
20.267	17.887	16301	16475	0	728
18.031	15.975	16302	16732	0	728
16.661	13.956	16302	17014	0	728
17.274	12.333	16302	17204	0	728
19.185	13.776	16301	17246	0	728
22.611	15.326	16300	17088	0	728
26.109	20.555	16298	16831	0	728
31.626	24.883	16298	16732	0	728
33.646	27.732	16298	16964	0	728
34.331	27.840	16300	17354	0	728
33.466	25.856	16302	17677	0	728
30.508	23.188	16303	17843	0	728
28.633	21.637	16303	17909	0	728
27.227	22.503	16304	17934	0	728
27.984	24.017	16305	17926	0	728
30.364	24.847	16305	17876	0	728
29.859	25.856	16304	17702	0	728
27.912	23.440	16303	17478	0	728
24.017	19.365	16304	17354	0	728
19.798	16.552	16304	17362	0	728
18.392	15.831	16304	17354	0	728
19.834	15.759	16305	17262	0	728
21.421	16.372	16304	17105	0	728
21.962	17.021	16303	16947	0	728
23.296	17.959	16303	16823	0	728
22.827	18.860	16303	16740	0	728
20.988	19.257	16303	16707	0	728
16.625	17.851	16303	16715	0	728
13.018	14.677	16304	16773	0	728
11.864	12.550	16305	16864	0	728
16.552	14.605	16307	17030	0	728
22.755	18.464	16309	17287	0	728
26.145	21.565	16311	17503	0	728
25.027	20.555	16313	17652	0	728
20.231	18.031	16316	17835	0	728
18.320	15.615	16318	18100	0	728
21.890	18.103	16322	18374	0	728
28.994	24.053	16326	18631	0	728
36.423	29.787	16330	18904	0	728
39.560	32.744	16334	19170	0	728
37.505	30.833	16338	19369	0	728
32.348	26.289	16343	19518	0	728
26.397	19.257	16347	19626	0	728
22.034	13.163	16351	19733	0	728
19.329	9.701	16356	19791	0	728
21.313	10.278	16359	19667	0	728
24.522	15.471	16361	19427	0	728
28.525	20.014	16365	19261	0	728
27.479	20.159	16368	19211	0	728
24.017	14.821	16372	19161	1	700
18.320	8.763	16374	18921	0	700
16.012	5.301	16376	18490	0	700
19.257	8.763	16377	18083	0	700
23.837	13.668	16379	17851	0	700
26.722	17.346	16382	17777	0	700
25.207	16.589	16384	17743	0	700
20.736	12.081	16387	17660	0	700
18.716	8.619	16389	17553	0	700
16.769	5.734	16392	17486	0	700
15.759	4.255	16395	17495	0	700
14.858	5.301	16399	17486	0	700
13.595	6.311	16401	17370	0	700
14.533	10.350	16403	17180	0	700
19.654	15.975	16406	17063	0	700
25.856	21.493	16409	17072	0	700
30.761	24.594	16412	17072	0	700
31.518	25.243	16413	16922	0	700
30.581	23.621	16414	16690	0	700
28.056	21.132	16417	16533	0	700
25.171	20.736	16419	16516	0	700
23.585	19.510	16421	16566	0	700
21.204	17.887	16424	16583	0	700
18.860	15.903	16424	16384	0	700
18.031	13.091	16424	16003	0	700
16.697	9.016	16424	15655	0	700
14.894	6.599	16425	15472	0	700
13.451	4.580	16425	15331	0	700
12.694	3.210	16425	15224	0	700
14.497	6.022	16425	15149	0	700
16.913	8.366	16426	15074	0	700
19.221	10.927	16425	14933	0	700
20.627	11.396	16424	14710	0	700
19.437	12.045	16422	14477	0	700
18.897	11.107	16422	14278	0	700
20.195	13.523	16419	14071	0	700
21.060	15.218	16417	13831	0	700
21.637	17.454	16415	13640	0	700
19.654	17.310	16414	13565	0	700
18.356	16.300	16412	13557	0	700
17.166	15.903	16409	13516	0	700
19.834	16.985	16407	13391	0	700
25.965	22.467	16404	13292	0	700
29.102	26.109	16402	13325	0	700
29.066	26.001	16401	13474	0	700
25.063	21.818	16399	13640	0	700
19.582	15.002	16397	13781	0	700
15.759	10.242	16395	13889	0	700
14.677	8.475	16392	13814	0	700
14.966	9.953	16387	13482	0	700
17.634	12.694	16384	13118	0	700
22.214	17.418	16379	12977	0	700
26.650	21.745	16376	13059	0	700
28.561	24.017	16374	13317	0	700
25.748	19.870	16373	13723	0	700
18.608	13.054	16372	14220	0	700
12.117	4.940	16373	14784	0	700
9.484	3.029	16374	15414	0	700
13.848	5.590	16375	15986	0	700
19.510	11.864	16376	16442	0	700
26.433	17.057	16377	16815	0	700
28.056	19.149	16377	17113	0	700
25.820	17.598	16378	17320	0	700
23.188	14.245	16379	17495	0	700
22.611	12.766	16379	17669	0	700
28.128	15.362	16381	17876	0	700
33.862	21.132	16383	18175	0	700
40.029	25.820	16384	18523	0	700
40.678	27.515	16385	18780	0	700
38.406	25.820	16386	18805	0	700
34.403	22.034	16387	18631	0	700
31.518	18.680	16385	18307	0	700
28.922	15.543	16384	17810	0	700
26.109	12.117	16381	17130	0	700
25.460	10.314	16377	16408	0	700
24.342	10.494	16373	15837	0	700
25.243	11.251	16370	15514	0	700
23.693	11.323	16369	15472	0	700
21.709	8.547	16368	15555	0	700
19.329	6.419	16366	15613	0	700
19.077	5.698	16366	15647	0	700
21.601	8.078	16365	15680	0	700
25.243	10.169	16364	15671	0	700
28.994	12.045	16363	15638	0	700
28.922	11.071	16362	15680	0	700
26.902	9.737	16361	15771	0	700
23.080	8.943	16361	15854	0	700
21.962	8.871	16361	15937	0	700
23.909	12.730	16361	16086	0	700
27.984	18.067	16361	16318	0	700
32.203	21.313	16361	16500	0	700
31.085	22.755	16360	16524	0	700
26.325	17.743	16358	16285	0	700
19.654	13.235	16355	15920	0	700
16.913	9.160	16353	15671	0	700
18.428	11.648	16350	15481	0	700
22.250	16.408	16346	15108	0	700
24.775	20.123	16341	14602	0	700
25.279	19.041	16336	14146	0	700
20.123	13.235	16333	13880	0	700
14.353	5.662	16331	13938	0	700
10.061	-0.361	16330	14336	0	700
7.104	-1.154	16329	14792	0	700
7.104	0.072	16328	15108	0	700
6.744	1.731	16328	15340	0	700
6.383	0.036	16328	15597	0	700
4.219	-3.029	16328	15928	0	700
3.931	-4.364	16328	16310	0	700
4.291	-5.842	16329	16624	0	700
7.393	-4.904	16330	16856	0	700
8.691	-4.219	16331	17105	0	700
10.097	-4.364	16332	17420	0	700
10.133	-4.400	16333	17694	0	700
11.504	-2.452	16334	17851	0	700
14.317	0.974	16335	17909	0	700
15.903	4.544	16336	17934	0	700
18.933	8.078	16336	17959	0	700
19.762	12.477	16337	17984	0	700
23.404	15.795	16338	18050	0	700
25.712	18.644	16339	18125	0	700
27.227	20.339	16340	18141	0	700
26.758	18.933	16341	18100	0	700
21.349	15.326	16342	18058	0	700
16.264	10.422	16343	18034	0	700
8.763	4.652	16343	17909	0	700
5.409	0.649	16342	17644	0	700
3.642	-0.793	16341	17329	0	700
4.400	0.397	16341	17080	0	700
8.114	2.380	16341	16914	0	700
10.133	3.678	16341	16840	0	700
11.504	4.291	16341	16806	0	700
9.160	0.938	16341	16740	0	700
5.842	-2.416	16341	16599	0	700
2.560	-4.436	16339	16400	0	700
1.803	-4.724	16338	16177	0	700
6.311	1.370	16337	15986	0	700
14.569	9.268	16336	15779	0	700
19.870	14.533	16333	15439	0	700
18.897	12.369	16330	15033	0	700
13.559	4.580	16328	14859	0	700
7.176	-3.426	16329	15016	0	700
8.475	-4.832	16330	15389	0	700
17.454	3.859	16331	15771	0	700
31.338	17.526	16331	15995	0	700
40.065	28.417	16331	16020	0	700
39.596	29.535	16330	15945	0	700
31.302	23.765	16329	15829	0	700
20.772	13.127	16327	15696	0	700
13.018	4.580	16326	15564	0	700
9.809	1.983	16324	15456	0	700
11.360	1.551	16323	15406	0	700
12.225	2.056	16322	15472	0	700
10.746	1.947	16322	15613	0	700
11.143	2.019	16321	15705	0	700
10.566	4.400	16320	15713	0	700
11.720	5.301	16320	15738	0	700
13.163	6.275	16320	15854	0	700
14.858	6.239	16320	16053	0	700
14.317	4.436	16321	16293	0	700
14.605	4.400	16322	16549	0	700
13.559	4.724	16323	16840	0	700
12.405	6.744	16325	17180	0	700
11.143	5.986	16328	17561	0	700
10.458	5.590	16331	17901	0	700
12.730	7.140	16333	18191	0	700
17.021	9.737	16336	18473	0	700
25.135	17.238	16339	18689	0	700
32.420	23.765	16342	18863	0	700
34.331	26.145	16347	19211	0	700
30.112	22.467	16352	19700	0	700
22.070	14.461	16356	19990	0	700
17.346	11.360	16359	19924	0	700
18.103	13.091	16362	19700	0	700
23.260	17.202	16364	19510	0	700
25.532	18.824	16367	19352	0	700
23.296	14.353	16369	19203	1	700
17.274	7.753	16371	19045	0	700
14.569	4.652	16374	18830	0	700
16.084	7.032	16376	18631	0	700
20.952	13.127	16378	18515	0	700
24.486	17.093	16381	18506	0	700
23.224	16.444	16384	18523	0	700
19.365	12.297	16387	18506	0	700
14.821	7.789	16389	18448	0	700
12.946	7.032	16393	18407	0	700
14.966	10.025	16397	18440	0	700
19.185	15.903	16401	18515	0	700
22.755	20.339	16404	18498	0	700
21.962	20.375	16408	18390	0	700
20.555	18.824	16411	18282	0	700
19.978	18.175	16414	18241	0	700
22.647	21.421	16417	18166	0	700
26.938	24.739	16420	18025	0	700
29.715	26.217	16423	17876	0	700
26.037	21.277	16425	17735	0	700
21.709	12.477	16427	17536	0	700
19.582	7.825	16430	17304	0	700
22.755	9.160	16432	17072	0	700
29.102	15.687	16433	16848	0	700
34.043	21.818	16434	16566	0	700
33.285	22.070	16434	16210	0	700
29.391	17.454	16434	15846	0	700
25.856	12.225	16434	15522	0	700
24.955	10.746	16432	15141	0	700
25.893	13.235	16430	14651	0	700
27.624	14.425	16427	14088	0	700
27.551	14.930	16425	13565	0	700
25.388	12.153	16422	13200	0	700
22.972	11.143	16420	13010	0	700
23.440	11.432	16418	12927	0	700
24.486	15.615	16415	12802	0	700
27.083	18.392	16412	12595	0	700
27.010	18.969	16409	12413	0	700
24.883	16.661	16407	12396	0	700
20.050	11.468	16405	12545	0	700
17.959	8.619	16404	12778	0	700
19.185	7.573	16402	12977	0	700
23.476	12.333	16400	13151	0	700
28.597	17.021	16399	13408	0	700
30.148	18.824	16399	13781	0	700
29.174	17.743	16399	14187	0	700
26.614	14.930	16398	14486	0	700
23.260	10.638	16397	14734	0	700
20.627	9.160	16397	14967	0	700
19.077	7.357	16395	15066	0	700
17.490	6.888	16393	15008	0	700
17.490	7.068	16391	14991	0	700
19.041	8.330	16390	15124	0	700
22.935	10.710	16389	15290	0	700
25.784	13.740	16388	15423	0	700
28.056	16.444	16386	15506	0	700
30.508	20.159	16384	15506	0	700
31.338	24.702	16383	15389	0	700
32.023	26.037	16379	15166	0	700
30.581	24.955	16376	14933	0	700
28.741	22.214	16374	14851	0	700
27.732	19.437	16371	14909	0	700
28.309	18.211	16369	15016	0	700
31.879	21.529	16366	14991	0	700
36.459	24.883	16362	14792	0	700
39.452	28.525	16359	14610	0	700
39.704	30.184	16356	14610	0	700
37.721	29.102	16354	14776	0	700
35.124	27.551	16353	15074	0	700
32.528	24.378	16352	15423	0	700
32.239	23.440	16351	15696	0	700
33.033	23.080	16351	15945	0	700
34.259	23.729	16351	16302	0	700
33.826	24.594	16352	16715	0	700
32.492	22.719	16353	17080	0	700
31.771	19.690	16353	17304	0	700
28.741	16.120	16354	17495	0	700
26.902	12.802	16355	17718	0	700
24.630	10.819	16355	17951	0	700
24.811	12.081	16357	18133	0	700
25.243	12.910	16358	18282	0	700
27.660	15.038	16359	18340	0	700
27.515	14.533	16358	18175	0	700
27.840	15.038	16356	17843	0	700
26.830	15.290	16356	17611	0	700
27.047	16.336	16355	17511	0	700
28.273	18.175	16355	17428	0	700
28.164	19.473	16355	17379	0	700
29.246	20.159	16355	17403	0	700
28.309	19.221	16356	17495	0	700
29.066	17.346	16357	17569	0	700
30.220	17.057	16357	17528	0	700
30.112	16.769	16356	17345	0	700
31.771	18.320	16355	17080	0	700
32.384	21.024	16354	16823	0	700
32.672	22.467	16354	16641	0	700
33.249	23.080	16352	16516	0	700
33.033	23.512	16351	16408	0	700
32.672	22.539	16351	16285	0	700
32.348	22.322	16349	16078	0	700
31.085	19.618	16348	15870	0	700
29.391	17.815	16347	15787	0	700
25.424	13.776	16347	15846	0	700
22.286	11.143	16346	15912	0	700
21.457	10.999	16346	15928	0	700
24.414	14.136	16346	16036	0	700
30.292	18.969	16347	16260	0	700
34.259	22.791	16348	16475	0	700
32.925	22.178	16348	16607	0	700
29.282	17.238	16349	16657	0	700
26.109	13.595	16348	16665	0	700
26.361	14.713	16349	16690	0	700
30.004	18.572	16350	16740	0	700
32.961	22.899	16350	16765	0	700
30.653	22.972	16349	16674	0	700
27.696	20.988	16347	16433	0	700
26.650	18.283	16346	16103	0	700
27.948	18.031	16343	15796	0	700
31.158	19.041	16341	15564	0	700
32.961	19.762	16339	15365	0	700
29.427	17.166	16337	15224	0	700
23.260	12.766	16336	15157	0	700
19.257	8.294	16334	15199	0	700
20.880	8.763	16334	15323	0	700
30.220	14.966	16334	15481	0	700
42.229	26.181	16333	15638	0	700
50.198	35.305	16333	15763	0	700
48.251	35.810	16332	15779	0	700
37.613	27.335	16329	15597	0	700
26.037	17.562	16326	15282	0	700
21.673	13.199	16324	15058	0	700
27.876	18.139	16321	14917	0	700
39.704	28.525	16318	14710	0	700
49.405	37.613	16314	14411	0	700
53.732	40.462	16310	14171	0	700
50.523	37.216	16306	13938	0	700
45.005	32.239	16301	13715	0	700
40.750	28.453	16298	13607	0	700
40.534	28.345	16295	13640	0	700
40.498	28.994	16292	13814	0	700
40.786	29.679	16291	14146	0	700
41.904	30.797	16290	14552	0	700
42.084	31.662	16289	14917	0	700
44.573	35.160	16288	15240	0	700
48.828	38.478	16289	15622	0	700
50.198	39.163	16289	16078	0	700
49.802	38.983	16290	16524	0	700
46.953	36.928	16291	16947	0	700
47.530	37.829	16293	17362	0	700
49.802	41.616	16296	17851	0	700
54.273	43.527	16299	18398	0	700
54.886	43.058	16303	18904	0	700
51.569	38.947	16305	19319	0	700
