neuroNicle FX2
D3F25R12
Bluetooth SPP
2023년 6월 16일 금요일
오전 10:26
time interval = 4msec
EEG1	EEG2	PPG	sdPPG	pulse	peak_interval(msec)
-27.551	-23.440	16495	14989	0	316
-22.647	-27.912	16495	14524	0	316
-14.461	-28.741	16495	14175	0	316
-5.193	-23.116	16495	13943	0	316
-1.695	-14.641	16415	13710	0	316
-5.770	-6.455	16415	13478	0	316
-12.081	-7.212	16415	13245	0	316
-18.500	-10.927	16415	12896	0	316
-16.372	-18.283	16415	12780	0	316
-15.759	-20.736	16384	13012	0	316
-17.815	-23.549	16384	13361	0	316
-27.696	-25.748	16384	13594	0	316
-40.029	-27.479	16384	13710	0	316
-42.373	-28.958	16384	13710	0	316
-34.367	-27.948	16384	13826	0	316
-17.274	-21.241	16384	13943	0	316
0.974	-12.153	16384	14175	0	316
7.212	-8.835	16353	14408	0	316
0.829	-11.828	16353	14408	0	316
-14.172	-18.788	16353	14291	0	316
-24.702	-27.732	16353	14408	0	316
-28.561	-30.148	16353	14757	0	316
-24.450	-24.125	16353	15222	0	316
-18.464	-15.543	16384	15571	0	316
-14.136	-8.799	16353	15687	0	316
-10.566	0.072	16353	15454	0	316
-7.068	5.013	16353	15222	0	316
-1.731	2.777	16353	15222	0	316
1.082	1.695	16305	14989	0	316
-0.505	-2.524	16305	14757	0	316
-2.596	-5.193	16305	14640	0	316
-2.669	-1.515	16273	14757	0	316
1.587	2.452	16273	15105	0	316
1.767	3.137	16273	15454	0	316
-0.902	1.442	16273	15687	0	316
-10.566	-3.101	16273	15687	0	316
-17.634	-4.977	16226	15222	1	316
-17.274	-3.787	16226	14873	0	316
-4.039	0.397	16194	14989	0	316
14.208	6.311	16194	15454	0	316
23.152	8.439	16194	16152	0	316
19.077	7.537	16226	16732	0	316
2.416	1.334	16226	17197	0	316
-14.749	-3.137	16226	17663	0	316
-21.457	-4.003	16273	18128	0	316
-15.759	1.839	16305	18477	0	316
0.685	12.261	16273	18825	0	316
15.507	18.103	16273	19174	0	316
18.103	21.890	16305	19639	0	316
13.235	16.084	16305	20221	0	316
-0.180	11.468	16353	20686	0	316
-7.104	6.455	16353	21035	0	316
-3.282	9.412	16353	21384	0	316
10.061	14.785	16384	21616	0	316
20.555	21.637	16384	21500	0	316
26.542	26.866	16384	21267	0	316
25.207	24.198	16415	20802	0	316
20.700	19.726	16415	20221	0	316
21.421	15.687	16415	19407	0	316
20.736	16.480	16384	18709	0	316
16.552	20.014	16384	18011	0	316
14.245	24.594	16384	17314	0	316
14.894	27.335	16384	16849	0	316
19.978	27.083	16384	16732	0	316
27.443	27.840	16384	16732	0	316
33.141	31.843	16384	16500	0	316
33.033	36.278	16384	16384	0	316
32.780	37.541	16384	16152	0	316
32.636	36.531	16384	15803	0	316
33.826	32.780	16384	15571	0	316
29.318	32.348	16384	15105	0	316
26.686	35.701	16384	14757	0	316
21.745	39.812	16384	14757	0	316
22.322	40.714	16384	14757	0	316
23.801	35.305	16384	14989	0	316
26.578	24.955	16384	15338	0	316
23.693	19.582	16384	15687	0	316
16.949	17.598	16384	15687	0	316
12.117	22.286	16384	15454	0	316
9.737	29.715	16384	15454	0	316
11.828	33.357	16384	15454	0	316
18.392	31.230	16384	15454	0	316
19.113	28.922	16384	15571	0	316
18.788	24.450	16384	15571	0	316
12.405	25.712	16384	15454	0	316
9.484	27.696	16384	15338	0	316
10.783	27.083	16384	15454	0	316
16.625	25.135	16384	15687	0	316
23.585	23.440	16384	15919	0	316
21.745	24.306	16384	15919	0	316
17.274	27.335	16384	15919	0	316
10.710	29.174	16384	15803	0	316
12.261	27.299	16384	15687	0	316
18.356	20.952	16353	15454	0	316
24.414	15.218	16353	15222	0	316
20.916	9.016	16353	15222	0	316
12.081	7.176	16353	15338	0	316
4.219	7.357	16353	15454	0	316
1.947	8.402	16353	15454	0	316
3.570	11.432	16353	15571	0	316
4.724	12.910	16353	15687	0	316
0.793	11.684	16353	15803	0	316
-4.183	12.441	16353	15803	0	316
-4.580	13.307	16353	15919	0	316
-3.137	11.937	16353	16152	0	316
3.101	11.432	16353	16500	0	316
8.907	11.287	16353	16849	0	316
15.290	11.468	16353	17081	0	316
15.290	11.648	16353	17081	0	316
9.268	9.773	16353	16849	0	316
-2.272	2.921	16353	16616	0	316
-12.946	-4.616	16353	16384	0	316
-18.103	-7.825	16353	16384	0	316
-11.937	-5.842	16353	16384	0	316
-4.436	0.180	16353	16849	0	316
3.318	5.878	16353	17197	1	316
4.219	4.940	16353	17546	0	316
-2.056	-3.678	16353	17663	0	316
-13.379	-14.785	16384	18011	0	316
-27.551	-26.578	16384	18244	0	316
-35.449	-30.833	16384	18477	0	316
-34.872	-26.794	16415	18825	0	316
-25.856	-17.166	16415	19290	0	316
-15.326	-11.973	16463	19756	0	316
-14.100	-13.199	16463	20104	0	316
-20.014	-20.447	16463	19988	0	316
-28.922	-28.741	16463	19523	0	316
-29.354	-31.049	16463	18942	0	316
-21.565	-28.273	16463	18128	0	316
-10.350	-22.503	16463	17430	0	316
-7.393	-22.322	16463	16849	0	316
-17.670	-27.191	16463	16384	0	316
-33.249	-34.079	16463	15919	0	316
-48.035	-38.622	16463	15338	0	316
-55.319	-41.039	16415	14640	0	316
-49.189	-37.000	16415	13943	0	316
-38.226	-32.276	16384	13245	0	316
-25.784	-29.030	16384	12664	0	316
-16.589	-30.292	16353	12198	0	316
-21.024	-31.518	16353	11850	0	316
-29.931	-34.620	16353	11501	0	316
-40.606	-35.810	16305	11384	0	316
-42.914	-33.754	16305	11268	0	316
-38.911	-30.040	16273	11384	0	316
-31.122	-27.515	16273	11733	0	316
-29.391	-28.886	16273	12315	0	316
-27.912	-30.508	16273	13012	0	316
-26.686	-33.610	16273	13594	0	316
-23.116	-36.603	16273	14059	0	316
-18.680	-37.288	16226	14524	0	316
-21.709	-39.019	16226	15105	0	316
-28.705	-39.560	16226	15571	0	316
-36.603	-40.426	16226	16036	0	316
-41.688	-39.091	16305	16500	0	316
-44.969	-37.432	16305	17314	0	316
-46.268	-37.396	16305	18011	0	316
-45.041	-36.567	16305	18360	0	316
-42.337	-37.541	16305	18360	0	316
-36.387	-39.127	16305	18244	0	316
-30.364	-38.406	16305	18360	0	316
-29.463	-36.459	16305	18593	0	316
-33.429	-34.115	16305	18709	0	316
-35.016	-28.561	16353	18709	0	316
-35.557	-25.243	16353	18825	0	316
-30.833	-24.162	16353	18825	0	316
-23.440	-24.414	16353	18825	0	316
-19.582	-23.224	16353	18825	0	316
-16.841	-20.339	16353	18942	0	316
-19.618	-14.461	16353	19174	0	316
-24.378	-12.369	16384	19174	0	316
-31.049	-15.110	16384	19174	0	316
-37.577	-23.260	16384	19290	0	316
-38.154	-30.364	16384	19407	0	316
-31.987	-33.862	16415	19523	0	316
-19.870	-30.040	16415	19523	0	316
-12.225	-20.736	16415	19407	0	316
-11.432	-11.648	16415	19058	0	316
-17.454	-3.354	16463	18709	0	316
-29.823	1.262	16463	18244	0	316
-37.649	1.479	16463	17779	0	316
-40.029	-1.695	16463	17430	0	316
-40.534	-4.832	16463	16965	0	316
-39.668	-4.688	16463	16500	0	316
-40.137	-3.678	16415	16152	0	316
-39.849	-0.793	16415	15687	0	316
-38.767	0.649	16415	15454	0	316
-36.026	-1.262	16415	15454	0	316
-33.682	-3.282	16415	15571	0	316
-35.485	-5.013	16463	15571	0	316
-39.993	-9.484	16463	15454	0	316
-44.573	-14.894	16463	15338	0	316
-41.688	-17.598	16415	15338	0	316
-32.059	-20.087	16415	15454	0	316
-21.493	-16.444	16415	15803	0	316
-18.788	-15.507	16415	16268	0	316
-26.397	-16.697	16415	16616	0	316
-42.914	-23.116	16463	16732	0	316
-52.903	-28.417	16463	16732	0	316
-57.627	-31.951	16463	16732	0	316
-53.516	-32.167	16463	16849	0	316
-48.936	-30.617	16463	16965	0	316
-42.950	-28.525	16463	16849	0	316
-36.675	-24.811	16463	16616	0	316
-28.201	-21.385	16495	16500	0	316
-18.680	-17.995	16495	16616	0	316
-17.490	-19.293	16495	16849	0	316
-20.014	-19.618	16495	17197	0	316
-28.597	-22.719	16542	17546	0	316
-34.800	-21.637	16542	17663	0	316
-38.875	-20.519	16542	17663	0	316
-39.560	-20.195	16542	17546	0	316
-37.577	-19.834	16495	17197	0	316
-33.177	-22.070	16574	16732	0	316
-27.876	-19.546	16574	16500	0	316
-20.267	-17.129	16542	16384	0	316
-13.054	-12.946	16542	16152	0	316
-13.235	-12.477	16542	16036	0	316
-15.110	-13.307	16542	15919	0	316
-18.969	-12.802	16542	15919	0	316
-22.827	-13.379	16542	16036	0	316
-23.080	-10.783	16542	16036	0	316
-19.401	-8.258	16542	16152	0	316
-18.283	-11.035	16542	16152	0	316
-15.903	-15.615	16574	16268	0	316
-16.552	-16.625	16574	16384	0	316
-19.149	-18.572	16574	16616	0	316
-26.470	-15.110	16574	16500	0	316
-28.597	-13.559	16542	16384	0	316
-20.880	-9.917	16542	16036	0	316
-0.505	-2.380	16542	15687	0	316
29.066	5.445	16542	15338	0	316
51.641	13.992	16542	14989	0	316
58.457	14.028	16495	14408	0	316
48.179	8.439	16495	13710	0	316
38.154	2.236	16495	13129	0	316
37.505	2.596	16463	12664	0	316
49.874	12.586	16463	12198	0	316
66.282	26.181	16415	11850	0	316
77.858	38.045	16415	11501	0	316
81.356	44.392	16384	11268	0	316
76.091	45.041	16384	11268	0	316
67.833	39.812	16353	11501	0	316
61.810	35.449	16353	11733	0	316
58.565	32.961	16353	11966	0	316
59.430	34.764	16305	12198	0	316
63.649	40.426	16305	12664	0	316
67.256	47.133	16305	13361	0	316
65.525	49.189	16305	13710	0	316
61.991	48.539	16273	13826	0	316
55.283	42.337	16273	13826	0	316
47.999	34.006	16273	13826	0	316
40.065	27.479	16226	13710	0	316
35.269	25.207	16226	13710	0	316
35.557	29.535	16194	13826	0	316
39.668	36.928	16194	13943	0	316
40.678	41.940	16194	13826	0	316
40.245	39.127	16194	13826	0	316
36.603	30.977	16146	13943	0	316
35.485	22.034	16146	14175	0	316
37.793	16.516	16115	14408	0	316
37.865	19.582	16115	14873	0	316
33.790	22.539	16115	15338	0	316
26.902	26.506	16115	15919	0	316
21.529	25.568	16115	16500	0	316
19.185	21.781	16146	16965	0	316
23.080	18.536	16146	17197	0	316
21.926	15.218	16115	17314	0	316
21.241	16.408	16115	17663	0	316
18.103	13.776	16115	18011	0	316
14.605	12.153	16115	18709	0	316
13.848	10.206	16115	19174	0	316
14.245	10.097	16115	19523	0	316
11.828	12.153	16115	19872	0	316
10.746	14.353	16146	20104	0	316
11.468	13.271	16194	20686	0	316
12.874	11.792	16194	21267	0	316
19.077	9.304	16226	22081	0	316
21.277	11.107	16226	22779	0	316
20.231	13.956	16273	23360	0	316
12.009	13.848	16305	23593	0	316
5.698	12.946	16305	23477	0	316
1.370	11.937	16305	23128	0	316
1.731	9.520	16305	22779	0	316
6.744	10.278	16353	22430	0	316
11.396	10.999	16353	22081	1	676
12.838	10.422	16384	21849	0	676
11.792	9.953	16384	21500	0	676
9.881	11.396	16384	21035	0	676
9.412	11.612	16384	20337	0	676
11.468	12.514	16384	19407	0	676
13.848	11.540	16384	18593	0	676
10.783	9.052	16384	18011	0	676
7.357	7.717	16384	17430	0	676
0.469	5.337	16384	16849	0	676
-3.282	5.337	16384	16268	0	676
-4.291	4.183	16384	15803	0	676
-6.455	1.298	16384	15571	0	676
-6.708	-1.875	16384	15571	0	676
-8.258	-2.849	16415	15571	0	676
-8.150	-2.705	16415	15803	0	676
-9.881	-0.108	16415	15919	0	676
-16.625	-1.118	16415	16152	0	676
-25.063	-5.590	16463	16268	0	676
-34.187	-16.408	16463	16384	0	676
-36.423	-25.135	16463	16500	0	676
-34.259	-33.574	16463	16732	0	676
-29.715	-38.406	16495	16965	0	676
-27.010	-41.147	16495	16965	0	676
-30.941	-42.589	16495	16849	0	676
-35.774	-41.904	16495	16616	0	676
-39.091	-36.206	16542	16500	0	676
-40.822	-30.797	16542	16384	0	676
-40.389	-27.624	16542	16036	0	676
-42.914	-29.210	16495	15338	0	676
-47.962	-35.341	16495	14524	0	676
-57.014	-40.209	16463	14175	0	676
-56.581	-41.976	16463	13943	0	676
-52.651	-40.678	16463	13826	0	676
-40.462	-35.521	16463	13478	0	676
-26.361	-31.482	16415	13129	0	676
-17.887	-26.217	16415	12547	0	676
-13.776	-22.214	16415	12431	0	676
-18.680	-20.988	16415	12664	0	676
-26.361	-19.690	16415	13361	0	676
-33.682	-23.404	16415	13943	0	676
-37.360	-29.174	16415	14640	0	676
-33.646	-30.545	16415	15338	0	676
-23.368	-32.600	16463	15803	0	676
-15.038	-30.797	16463	16036	0	676
-10.061	-25.352	16463	16036	0	676
-12.730	-19.798	16463	16268	0	676
-21.096	-14.821	16463	16384	0	676
-27.155	-14.605	16463	16732	0	676
-30.328	-17.815	16463	16849	0	676
-30.220	-26.650	16463	17081	0	676
-30.869	-35.341	16495	17081	0	676
-31.626	-39.199	16495	17197	0	676
-35.052	-38.262	16495	17081	0	676
-37.685	-34.583	16495	16965	0	676
-36.423	-34.043	16495	16849	0	676
-36.495	-34.403	16463	16732	0	676
-38.118	-37.793	16495	16849	0	676
-47.674	-39.704	16495	17197	0	676
-58.204	-41.291	16542	17546	0	676
-69.311	-44.681	16495	18011	0	676
-72.088	-46.376	16495	18244	0	676
-62.784	-49.116	16542	18244	0	676
-48.359	-49.116	16542	18128	0	676
-33.069	-45.186	16542	17779	0	676
-25.929	-41.219	16542	17430	0	676
-26.506	-37.144	16542	16965	0	676
-29.679	-33.069	16542	16500	0	676
-31.590	-32.889	16495	16036	0	676
-31.410	-34.583	16495	15687	0	676
-33.754	-39.524	16495	15454	0	676
-36.567	-42.409	16495	15338	0	676
-39.957	-42.084	16495	15338	0	676
-38.370	-37.288	16495	15454	0	676
-30.292	-29.643	16495	15571	0	676
-21.529	-25.063	16495	15338	0	676
-19.005	-24.270	16495	15105	0	676
-20.880	-26.361	16463	14873	0	676
-28.525	-29.968	16463	14757	0	676
-34.331	-32.600	16463	14640	0	676
-34.115	-30.112	16463	14757	0	676
-27.299	-26.361	16463	14873	0	676
-16.733	-20.339	16463	14989	0	676
-10.602	-18.933	16415	14989	0	676
-9.701	-19.942	16415	14989	0	676
-14.677	-24.666	16415	15105	0	676
-18.500	-27.155	16415	15105	0	676
-15.543	-24.198	16415	15222	0	676
-13.018	-18.680	16415	15338	0	676
-12.622	-18.392	16415	15571	0	676
-20.664	-20.844	16415	15919	0	676
-30.869	-26.001	16415	16152	0	676
-33.718	-28.705	16415	16152	0	676
-26.073	-24.342	16415	16152	0	676
-12.333	-17.418	16415	16152	0	676
-2.560	-12.441	16415	16036	0	676
-2.885	-11.287	16415	16036	0	676
-9.484	-9.845	16415	15919	0	676
-14.389	-11.756	16415	15687	0	676
-16.156	-11.756	16384	15454	0	676
-12.838	-12.333	16384	15338	0	676
-13.163	-15.218	16384	15571	0	676
-16.120	-16.805	16384	15803	0	676
-19.005	-14.858	16384	15803	0	676
-18.428	-14.930	16384	16036	0	676
-19.401	-16.084	16384	16384	0	676
-20.231	-22.539	16384	16732	0	676
-25.171	-26.614	16384	16965	0	676
-23.116	-25.568	16384	16849	0	676
-17.346	-21.204	16384	16616	0	676
-6.924	-9.917	16384	16384	0	676
-2.452	-2.813	16384	16036	0	676
-3.534	-0.865	16353	15571	0	676
-9.845	-0.974	16353	15105	0	676
-11.360	-5.193	16353	14640	0	676
-14.821	-8.907	16305	14524	0	676
-12.550	-10.963	16305	14757	0	676
-12.117	-11.576	16305	15105	0	676
-11.973	-10.169	16305	15338	0	676
-9.268	-7.573	16305	15687	0	676
-4.400	-7.501	16305	16036	0	676
-2.452	-10.386	16305	16384	0	676
0.036	-11.360	16305	16616	0	676
-1.154	-9.412	16305	16849	0	676
-4.724	-7.970	16305	17081	0	676
-9.773	-6.347	16305	17197	0	676
-13.307	-8.943	16305	17081	0	676
-10.927	-13.812	16305	16616	0	676
-7.609	-18.103	16273	16036	0	676
-2.344	-15.146	16305	15687	0	676
-0.505	-11.251	16305	15454	0	676
-4.003	-7.104	16273	15222	0	676
-12.081	-8.511	16273	15222	0	676
-15.615	-9.556	16273	15105	0	676
-16.192	-10.819	16226	14873	0	676
-8.150	-8.258	16226	14757	0	676
3.029	-4.255	16226	14757	0	676
8.439	-4.003	16226	14757	0	676
1.190	-5.734	16194	14989	0	676
-12.910	-7.862	16194	15222	0	676
-26.722	-9.701	16194	15571	0	676
-25.604	-8.366	16194	15803	0	676
-15.615	-4.147	16194	16036	0	676
-1.334	-3.065	16194	16268	0	676
4.291	-3.859	16226	16268	0	676
-0.433	-7.429	16226	16268	0	676
-9.556	-13.812	16194	16384	0	676
-18.320	-18.247	16194	16849	0	676
-21.709	-21.673	16194	17197	0	676
-26.253	-16.769	16226	17663	0	676
-23.044	-12.622	16194	17779	0	676
-15.326	-6.203	16194	17546	0	676
-1.154	-3.859	16194	16965	0	676
13.199	-3.318	16194	16616	0	676
19.437	-2.200	16194	16616	0	676
19.582	0.108	16194	17081	0	676
15.146	4.291	16226	17663	0	676
14.677	6.816	16226	18128	0	676
17.490	8.835	16226	18593	0	676
17.057	9.881	16273	19058	0	676
19.437	16.156	16273	19407	0	676
20.555	28.056	16273	19639	0	676
33.898	45.041	16273	19756	0	676
58.132	63.145	16305	19872	0	676
83.231	80.887	16305	19756	0	676
99.351	94.879	16305	19523	0	676
111.720	109.881	16305	19290	0	676
124.522	130.184	16305	19174	0	676
153.155	157.591	16305	19058	0	676
194.663	191.309	16305	18825	0	676
237.721	218.500	16305	18360	0	676
262.640	240.534	16305	17779	0	676
267.761	249.333	16305	16965	0	676
255.463	254.490	16305	16268	0	676
244.573	258.889	16273	15687	0	676
236.891	263.000	16273	15105	0	676
236.567	266.967	16273	14757	0	676
235.413	262.423	16305	14524	0	676
226.145	257.843	16273	14524	0	676
211.432	247.169	16305	14408	0	676
194.374	235.629	16273	14408	0	676
182.834	222.683	16273	14408	0	676
176.740	208.294	16273	14524	0	676
167.184	192.715	16273	14524	0	676
145.691	177.173	16273	14640	0	676
112.045	163.649	16273	14873	0	676
77.894	147.097	16273	15454	0	676
60.007	134.980	16273	16036	0	676
63.181	118.969	16273	16616	0	676
77.678	104.003	16305	17197	0	676
82.330	85.972	16305	17546	0	676
67.292	69.960	16305	17779	0	676
40.786	51.965	16305	18011	0	676
13.415	36.603	16305	18011	0	676
-4.003	23.837	16305	17895	0	676
-8.619	12.946	16305	17895	0	676
-11.973	1.082	16353	18011	0	676
-16.300	-9.809	16353	18011	0	676
-19.798	-19.005	16353	18128	0	676
-23.909	-30.112	16353	18128	0	676
-26.506	-37.613	16353	18128	0	676
-30.256	-44.573	16384	18244	0	676
-37.973	-50.956	16384	18477	0	676
-43.274	-59.755	16384	18593	0	676
-48.035	-68.049	16384	18477	0	676
-51.280	-75.730	358	1087	0	42303
-33.357	-33.574	16415	12547	0	952
-37.324	-35.233	16415	13012	0	952
-37.541	-35.413	16415	13245	0	952
-34.836	-34.295	16415	13245	0	952
-32.708	-33.105	16415	13129	0	952
-30.545	-31.843	16384	13012	0	952
-28.056	-31.735	16353	12780	0	952
-24.847	-29.787	16384	12547	0	952
-19.834	-25.965	16353	12431	0	952
-16.120	-23.404	16353	12664	0	952
-11.576	-18.175	16353	13245	0	952
-10.314	-15.074	16353	13826	0	952
-7.681	-9.953	16353	14175	0	952
-6.599	-9.124	16353	14408	0	952
-6.347	-10.566	16353	14640	0	952
-7.032	-11.071	16353	15222	0	952
-8.294	-15.146	16353	15803	0	952
-9.809	-16.841	16353	16036	0	952
-8.907	-16.805	16353	16152	0	952
-9.809	-17.598	16353	16268	0	952
-12.369	-16.733	16305	16268	0	952
-16.516	-18.139	16305	16384	0	952
-22.467	-17.634	16305	16384	0	952
-25.604	-17.634	16305	16384	0	952
-23.657	-13.307	16305	16616	0	952
-16.769	-10.494	16305	17081	0	952
-12.117	-8.402	16353	17663	0	952
-9.737	-8.114	16353	18128	0	952
-15.687	-13.523	16353	18709	0	952
-20.375	-14.930	16384	19407	0	952
-22.395	-12.261	16384	20104	0	952
-14.605	-7.501	16384	20570	0	952
-6.383	-2.416	16415	20570	0	952
-1.659	-1.551	16415	20221	0	952
-4.904	-3.967	16415	19988	0	952
-13.018	-4.652	16415	19756	0	952
-16.120	-2.344	16415	19639	0	952
-11.937	4.832	16463	19407	0	952
-1.046	11.251	16463	19174	0	952
3.318	9.556	16463	18825	0	952
0.144	3.390	16463	18825	0	952
-9.556	-5.337	16463	18825	0	952
-15.615	-12.153	16495	18709	0	952
-14.281	-11.143	16495	18360	0	952
-2.452	-3.570	16495	17895	0	952
9.592	3.534	16495	17546	0	952
11.576	8.258	16495	17197	0	952
6.527	4.652	16463	16616	0	952
-1.695	-0.433	16463	16152	0	952
-10.422	-7.032	16415	15571	0	952
-12.694	-8.691	16415	14757	0	952
-9.484	-5.085	16415	13943	0	952
-7.862	-0.902	16384	13129	1	316
-2.308	2.524	16384	12547	0	316
0.433	6.455	16353	11966	0	316
0.577	6.022	16353	11501	0	316
-2.993	3.426	16305	11501	0	316
-7.934	-0.974	16305	11733	0	316
-9.629	-2.272	16305	12198	0	316
-6.527	-1.515	16305	12431	0	316
4.364	5.157	16305	12664	0	316
16.949	13.595	16305	13245	0	316
22.286	17.923	16305	13826	0	316
22.683	19.005	16353	14524	0	316
17.202	17.021	16353	15454	0	316
11.792	15.218	16353	16268	0	316
10.350	14.533	16353	17081	0	316
17.887	18.608	16384	17779	0	316
25.748	21.998	16384	18477	0	316
33.393	25.135	16384	18942	0	316
37.901	27.840	16415	19058	0	316
37.541	28.525	16415	18942	0	316
39.235	29.463	16415	18477	0	316
39.344	30.977	16384	17895	0	316
36.278	29.463	16384	17081	0	316
28.705	25.604	16384	16500	0	316
20.267	22.755	16353	16036	0	316
16.300	23.224	16353	15687	0	316
23.512	27.876	16353	15338	0	316
37.829	33.502	16353	15338	0	316
46.015	36.423	16353	15687	0	316
42.697	35.665	16353	15919	0	316
30.436	31.554	16353	16384	0	316
18.572	29.968	16353	16732	0	316
18.572	26.902	16384	17430	0	316
24.630	29.066	16384	18011	0	316
32.853	28.237	16384	18244	0	316
35.016	26.686	16384	18128	0	316
29.354	24.486	16384	18128	0	316
22.755	18.824	16384	18244	0	316
18.716	14.425	16415	18360	0	316
21.241	11.360	16415	18244	0	316
25.893	15.254	16415	17895	0	316
32.925	22.142	16415	17663	0	316
36.711	27.299	16415	17546	0	316
34.043	27.732	16415	17430	0	316
26.686	22.503	16415	17197	0	316
23.512	16.228	16415	16849	0	316
20.375	11.648	16415	16384	0	316
23.440	14.858	16415	16268	0	316
23.044	16.192	16415	16268	0	316
16.336	15.254	16415	16384	0	316
10.783	12.514	16415	16384	0	316
7.176	9.989	16415	16384	0	316
10.674	10.638	16415	16384	0	316
17.202	14.389	16415	16384	0	316
18.067	15.110	16384	16384	0	316
14.821	15.615	16384	16500	0	316
11.179	14.028	16384	16849	0	316
12.982	15.435	16415	17081	0	316
20.123	19.401	16415	17197	0	316
24.017	18.536	16415	17430	0	316
18.716	16.120	16415	17430	0	316
9.448	7.032	16415	17314	0	316
0.902	1.695	16415	17197	0	316
1.767	-0.180	16463	17314	0	316
7.645	1.479	16463	17081	0	316
9.556	2.056	16463	16616	0	316
5.950	0.216	16463	16384	0	316
-0.433	-3.210	16415	16152	0	316
-4.291	-4.147	16415	15919	0	316
-2.957	-3.859	16415	15687	0	316
-0.974	-3.967	16415	15571	0	316
-0.721	-5.914	16415	15222	0	316
-2.164	-9.809	16415	14640	0	316
-5.409	-10.602	16384	14059	0	316
-9.232	-12.910	16384	13594	0	316
-15.543	-16.012	16384	13245	0	316
-22.683	-20.050	16353	13129	0	316
-28.237	-25.856	16353	13012	0	316
-27.443	-28.201	16353	12896	0	316
-22.719	-27.191	16305	12780	0	316
-21.168	-25.424	16305	12780	0	316
-22.142	-28.922	16305	12896	0	316
-27.912	-30.977	16305	13361	0	316
-30.472	-32.672	16305	13826	0	316
-29.787	-30.545	16305	14291	0	316
-25.099	-24.522	16305	14873	0	316
-23.260	-19.942	16305	15338	0	316
-27.227	-20.952	16305	15687	0	316
-31.482	-24.991	16305	15919	0	316
-35.882	-31.230	16305	16152	0	316
-37.937	-37.360	16305	16152	0	316
-36.675	-37.973	16305	16152	0	316
-38.082	-38.658	16305	16036	0	316
-40.930	-39.199	16305	15919	0	316
-44.825	-40.498	16273	15919	0	316
-44.825	-43.022	16273	16036	0	316
-43.310	-43.238	16273	16268	0	316
-37.613	-40.714	16273	16500	0	316
-30.725	-34.728	16273	16965	0	316
-25.712	-31.446	16273	17197	0	316
-22.611	-28.561	16273	17663	0	316
-21.241	-27.912	16305	18128	0	316
-21.457	-26.181	16305	18477	0	316
-20.411	-20.880	16305	18709	0	316
-22.214	-18.139	16305	18942	0	316
-21.024	-14.785	16305	18942	0	316
-18.860	-15.615	16305	18825	0	316
-12.946	-14.136	16305	18709	0	316
-8.619	-13.740	16305	18593	0	316
-7.609	-12.766	16353	18593	0	316
-9.376	-11.864	16353	18593	0	316
-14.028	-15.435	16353	18709	0	316
-17.021	-18.103	16353	18709	0	316
-13.920	-21.529	16353	18825	0	316
-13.740	-21.673	16384	18942	0	316
-14.641	-24.162	16384	18709	0	316
-22.395	-24.991	16384	18360	0	316
-27.696	-26.145	16353	17663	0	316
-31.446	-28.561	16353	17081	0	316
-29.895	-26.830	16353	16616	0	316
-24.270	-23.296	16384	16152	0	316
-17.454	-17.779	16384	15687	0	316
-17.418	-16.192	16353	15105	0	316
-18.067	-13.884	16353	14757	0	316
-19.942	-15.975	16353	14757	0	316
-17.851	-12.946	16353	15338	0	316
-10.999	-4.904	16384	16036	0	316
0.252	3.714	16384	16732	0	316
7.537	10.206	16415	17546	0	316
9.809	11.360	16415	18244	0	316
7.717	8.763	16463	18825	0	316
2.092	7.753	16463	19058	0	316
1.479	10.314	16415	19058	0	316
4.291	14.966	16463	19058	0	316
9.448	21.096	16463	19058	0	316
14.461	23.801	16463	19058	0	316
21.818	28.345	16463	18942	0	316
25.135	30.328	16495	18593	0	316
27.732	33.033	16495	18244	0	316
29.499	32.744	16495	17895	0	316
27.804	30.977	16495	17430	0	316
26.578	29.174	16495	16965	0	316
25.604	28.309	16495	16384	0	316
26.397	29.463	16495	16036	0	316
26.217	27.263	16495	15571	0	316
22.899	25.712	16495	15338	0	316
22.034	20.375	16495	15222	0	316
19.257	18.320	16495	14989	0	316
17.815	16.048	16463	14291	0	316
20.880	20.447	16463	13361	0	316
19.906	21.998	16415	12547	0	316
21.601	23.837	16415	11850	0	316
21.385	27.768	16384	11501	0	316
25.099	28.381	16384	11384	0	316
28.994	32.456	16384	11617	0	316
34.151	34.944	16353	12082	0	316
33.610	35.160	16353	12664	0	316
30.400	32.600	16353	13245	0	316
22.972	28.597	16353	13826	0	316
20.880	26.253	16384	14524	0	316
20.880	24.991	16384	15105	0	316
20.555	23.765	16384	15687	0	316
20.014	22.899	16384	16152	0	316
17.238	25.604	16384	16732	0	316
21.096	28.777	16415	17546	0	316
28.561	37.577	16415	18244	0	316
37.865	43.455	16415	18825	0	316
40.930	45.438	16463	19058	0	316
35.701	41.399	16463	19174	0	316
26.650	35.124	16463	19058	0	316
22.214	35.810	16463	19058	0	316
26.181	38.875	16463	18942	0	316
33.934	44.176	16415	18825	0	316
40.281	49.261	16463	18593	1	692
41.219	47.818	16463	18593	0	692
35.954	43.274	16463	18593	0	692
32.059	41.111	16463	18593	0	692
31.518	41.183	16463	18360	0	692
33.249	43.671	16463	18011	0	692
33.898	43.779	16463	17314	0	692
27.047	44.104	16463	16500	0	692
23.657	44.897	16463	15919	0	692
24.162	48.359	16415	15454	0	692
32.889	52.651	16415	14989	0	692
44.320	57.266	16415	14757	0	692
49.513	54.526	16415	14757	0	692
44.068	49.477	16415	14757	0	692
36.531	43.491	16415	14524	0	692
36.747	42.806	16384	14291	0	692
43.347	46.736	16384	14059	0	692
51.244	50.234	16384	13943	0	692
48.539	51.749	16384	13943	0	692
40.498	51.424	16384	14291	0	692
30.112	47.205	16384	14524	0	692
30.076	48.251	16384	14757	0	692
39.127	50.198	16384	14873	0	692
51.244	54.382	16384	15105	0	692
56.942	55.067	16384	15571	0	692
58.420	57.122	16384	16152	0	692
54.454	55.680	16384	16384	0	692
51.461	57.122	16384	16268	0	692
46.304	57.050	16384	16268	0	692
41.580	55.175	16384	16384	0	692
37.396	54.418	16384	16384	0	692
31.843	49.802	16384	16384	0	692
28.814	49.189	16384	16268	0	692
30.617	50.379	16353	15803	0	692
34.547	49.838	16353	15338	0	692
39.163	52.110	16353	15105	0	692
42.517	49.549	16305	15105	0	692
40.462	45.979	16305	15105	0	692
34.259	40.065	16305	15105	0	692
26.866	34.764	16305	15222	0	692
23.188	30.869	16305	15454	0	692
18.392	30.472	16305	16036	0	692
17.129	32.167	16305	16500	0	692
13.776	33.574	16305	17081	0	692
11.684	33.466	16353	17779	0	692
15.759	32.456	16353	18477	0	692
19.906	29.571	16384	19174	0	692
25.027	28.345	16384	19523	0	692
25.496	27.407	16384	19523	0	692
18.175	27.191	16384	19639	0	692
11.864	25.893	16415	19756	0	692
11.720	25.207	16415	19523	0	692
16.733	25.135	16415	19290	0	692
22.791	25.424	16415	19058	0	692
24.702	23.512	16415	18593	0	692
16.913	21.637	16415	18128	0	692
8.655	19.113	16415	17430	0	692
1.947	14.317	16415	16849	0	692
-1.334	13.992	16415	16384	0	692
-0.397	14.497	16415	16268	0	692
2.957	14.749	16415	16384	0	692
6.960	18.247	16415	16384	0	692
11.360	17.021	16415	16268	0	692
12.766	14.785	16415	15919	0	692
5.229	6.167	16384	15687	0	692
-7.357	-4.039	16384	15338	0	692
-17.995	-12.946	16384	15105	0	692
-22.431	-12.982	16384	14524	0	692
-15.326	-11.828	16353	13826	0	692
-7.285	-8.691	16353	13012	0	692
-5.013	-10.169	16305	12547	0	692
-12.982	-19.041	16305	12431	0	692
-30.040	-30.725	16305	12664	0	692
-46.304	-40.317	16273	12896	0	692
-53.552	-45.186	16273	13129	0	692
-51.352	-46.520	16273	13361	0	692
-47.241	-46.917	16273	13594	0	692
-44.392	-47.710	16305	13826	0	692
-47.999	-52.290	16273	14059	0	692
-55.932	-57.699	16273	14524	1	316
-58.529	-59.466	16273	15105	0	316
-58.168	-56.834	16273	15687	0	316
-55.427	-54.778	16273	16152	0	316
-48.648	-49.585	16273	16384	0	316
-45.582	-48.864	16273	16616	0	316
-43.527	-47.602	16273	16849	0	316
-45.546	-49.225	16273	17197	0	316
-51.641	-52.975	16305	17546	0	316
-58.024	-53.588	16305	17895	0	316
-58.024	-56.004	16305	18128	0	316
-54.057	-58.745	16305	18244	0	316
-53.877	-58.889	16305	18477	0	316
-60.728	-63.613	16305	18825	0	316
-72.232	-67.436	16353	19290	0	316
-80.851	-69.275	16353	19756	0	316
-76.668	-67.797	16384	20337	0	316
-67.724	-67.400	16384	20918	0	316
-59.178	-66.174	16384	21035	0	316
-59.070	-66.462	16415	20802	0	316
-67.147	-66.607	16415	20453	0	316
-73.314	-65.453	16415	20221	0	316
-74.612	-63.217	16415	19756	0	316
-69.528	-60.115	16415	19058	0	316
-60.043	-55.968	16415	18360	0	316
-53.696	-52.326	16415	17663	0	316
-51.028	-45.258	16415	17081	0	316
-49.369	-39.957	16415	16500	0	316
-48.720	-34.259	16415	16268	0	316
-39.524	-29.102	16415	16268	0	316
-32.023	-26.037	16415	16268	0	316
-29.138	-22.719	16415	16384	0	316
-32.059	-22.034	16415	16500	0	316
-34.295	-21.457	16463	16732	0	316
-31.843	-20.808	16463	16849	0	316
-27.479	-26.037	16463	16849	0	316
-27.696	-29.391	16463	16616	0	316
-31.194	-33.646	16463	16384	0	316
-35.233	-33.429	16463	16384	0	316
-26.722	-23.837	16463	16384	0	316
-5.878	-10.530	16495	16500	0	316
17.815	5.301	16495	16384	0	316
30.508	15.074	16495	16152	0	316
30.256	19.041	16463	15687	0	316
21.385	17.129	16463	15105	0	316
16.156	18.031	16463	14757	0	316
18.969	22.070	16463	14524	0	316
31.302	32.167	16415	14408	0	316
48.972	44.032	16415	14291	0	316
57.194	53.696	16415	14175	0	316
59.106	61.305	16384	14175	0	316
59.538	63.505	16384	14175	0	316
61.558	68.915	16384	14059	0	316
70.429	73.999	16384	14059	0	316
77.065	77.065	16384	13826	0	316
74.721	75.875	16353	13594	0	316
60.801	69.167	16353	13361	0	316
48.251	61.955	16305	12896	0	316
42.481	55.499	16305	12431	0	316
47.097	57.447	16353	12431	0	316
50.559	57.194	16353	12780	0	316
50.739	59.863	16305	13361	0	316
47.313	58.096	16305	14059	0	316
41.976	53.300	16305	14757	0	316
39.380	49.766	16353	15222	0	316
39.380	43.310	16353	15803	0	316
35.305	37.829	16353	16268	0	316
33.357	32.564	16353	16849	0	316
29.282	29.535	16353	17197	0	316
27.696	27.263	16353	17546	0	316
25.640	26.361	16353	18011	0	316
24.775	25.063	16384	18709	0	316
27.119	23.837	16384	19290	0	316
27.660	20.808	16415	19872	0	316
23.224	17.706	16415	20337	0	316
15.435	11.071	16415	20453	0	316
3.895	6.491	16415	20104	0	316
-0.902	5.121	16415	19407	0	316
1.731	6.924	16415	18593	0	316
8.979	9.845	16415	17779	1	316
14.425	10.927	16415	17197	0	316
13.631	9.124	16384	16849	0	316
6.888	4.255	16384	16616	0	316
1.370	0.397	16384	16500	0	316
-0.902	-0.036	16384	16500	0	316
-0.108	1.695	16415	16849	0	316
2.452	2.813	16415	17314	0	316
4.003	5.554	16415	17546	0	316
3.282	5.914	16415	17430	0	316
3.173	3.173	16415	17081	0	316
1.587	-1.983	16415	16849	0	316
-2.200	-6.996	16415	16616	0	316
-7.717	-11.287	16415	16616	0	316
-13.812	-10.819	16415	16732	0	316
-16.156	-6.058	16415	16732	0	316
-12.261	-0.613	16384	16500	0	316
-7.645	2.200	16384	16152	0	316
-4.183	-2.200	16384	15687	0	316
-7.104	-8.943	16384	15454	0	316
-17.346	-19.834	16384	15222	0	316
-30.941	-30.905	16384	14989	0	316
-41.399	-37.829	16353	14757	0	316
-44.032	-44.861	16353	14524	0	316
-38.226	-46.195	16384	14175	0	316
-32.456	-43.419	16384	14175	0	316
-31.951	-41.399	16384	14291	0	316
-38.370	-42.048	16384	14524	0	316
-44.933	-46.268	16353	14757	0	316
-47.999	-49.838	16353	14757	0	316
-42.589	-52.074	16353	14640	0	316
-38.082	-49.657	16353	14408	0	316
-37.649	-42.193	16353	14408	0	316
-41.760	-38.045	16305	14524	0	316
-42.265	-33.357	16305	14640	0	316
-34.800	-26.361	16305	14989	0	316
-21.998	-18.103	16305	15338	0	316
-7.573	-9.484	16305	15687	0	316
1.551	-1.262	16305	15919	0	316
0.685	2.813	16305	16152	0	316
-4.616	3.967	16305	16268	0	316
-8.222	3.823	16305	16384	0	316
-8.763	4.003	16305	16384	0	316
0.505	8.114	16305	16500	0	316
9.701	12.766	16305	16500	0	316
17.057	16.625	16305	16616	0	316
18.824	20.411	16305	16616	0	316
17.743	20.916	16273	16500	0	316
16.336	21.132	16273	16384	0	316
20.627	22.503	16273	16152	0	316
26.433	25.171	16273	15919	0	316
30.581	29.318	16226	15571	0	316
29.823	29.535	16226	15454	0	316
25.965	28.597	16226	15338	0	316
20.411	25.532	16273	15454	0	316
18.103	23.260	16273	15571	0	316
20.952	23.332	16273	15687	0	316
22.467	23.801	16226	15919	0	316
24.450	22.827	16226	16152	0	316
22.683	22.755	16226	16384	0	316
21.349	19.510	16226	16384	0	316
23.296	21.241	16226	16384	0	316
24.919	24.342	16226	16616	0	316
28.705	27.155	16226	17081	0	316
32.744	30.148	16226	17663	0	316
34.836	32.997	16273	18477	0	316
40.534	36.531	16273	19523	0	316
45.979	42.337	16305	20337	0	316
49.153	45.979	16305	20802	0	316
47.494	46.015	16353	21035	0	316
39.416	43.527	16353	21151	0	316
33.718	38.514	16353	20918	0	316
31.338	35.341	16353	20337	0	316
34.980	36.783	16353	19523	0	316
42.373	37.829	16353	18477	0	316
43.094	36.964	16384	17430	0	316
33.682	28.814	16353	16384	0	316
15.831	18.860	16353	15571	0	316
1.479	8.583	16353	14873	0	316
-2.488	7.176	16305	14873	1	316
4.183	12.225	16353	15105	0	316
15.038	16.336	16353	15338	0	316
15.831	17.129	16305	15454	0	316
8.691	9.556	16305	15454	0	316
-2.669	1.082	16305	15454	0	316
-8.006	-1.731	16305	15571	0	316
-5.445	-0.108	16305	15687	0	316
1.262	3.859	16305	15687	0	316
3.859	4.075	16305	15687	0	316
0.469	0.613	16305	15803	0	316
-7.285	-5.554	16305	15919	0	316
-15.903	-11.251	16353	16268	0	316
-20.339	-13.776	16353	16384	0	316
-24.125	-13.631	16353	16616	0	316
-20.159	-11.973	16353	16849	0	316
-15.795	-8.330	16353	16849	0	316
-7.789	-4.508	16353	16965	0	316
-5.662	-2.957	16353	16965	0	316
-8.006	-6.455	16353	16849	0	316
-15.254	-13.379	16353	16616	0	316
-25.532	-18.788	16353	16384	0	316
-29.463	-24.919	16353	16268	0	316
-28.381	-24.198	16353	16268	0	316
-26.758	-20.050	16353	16152	0	316
-26.253	-19.510	16353	16036	0	316
-28.994	-20.159	16353	15919	0	316
-35.305	-25.207	16305	15687	0	316
-39.524	-31.807	16305	15571	0	316
-42.084	-36.314	16305	15571	0	316
-42.950	-37.613	16305	15919	0	316
-43.058	-37.396	16305	16268	0	316
-42.553	-36.459	16305	16384	0	316
-41.616	-37.613	16305	16152	0	316
-40.858	-39.127	16305	15803	0	316
-39.452	-41.219	16305	15687	0	316
-39.091	-40.317	16353	15919	0	316
-38.190	-39.019	16353	16268	0	316
-36.459	-35.665	16353	16616	0	316
-34.079	-33.466	16384	16965	0	316
-28.561	-29.968	16384	17081	0	316
-25.424	-27.732	16353	16849	0	316
-21.277	-26.253	16353	16384	0	316
-18.392	-22.719	16353	15687	0	316
-13.595	-17.959	16384	15338	0	316
-11.937	-16.733	16305	15222	0	316
-13.054	-16.877	16305	15338	0	316
-20.591	-22.214	16305	15338	0	316
-25.676	-27.010	16305	15571	0	316
-28.922	-29.679	16305	15919	0	316
-25.712	-27.587	16305	16152	0	316
-19.185	-23.476	16353	16384	0	316
-19.077	-21.709	16353	16965	0	316
-21.601	-24.630	16353	17430	0	316
-26.794	-28.850	16353	17895	0	316
-32.889	-33.646	16384	18128	0	316
-36.026	-39.416	16384	18128	0	316
-37.685	-42.084	16384	17895	0	316
-36.747	-43.130	16384	17663	0	316
-34.656	-40.389	16384	17779	0	316
-34.079	-38.550	16384	17895	0	316
-38.262	-40.317	16384	17895	0	316
-44.501	-41.435	16384	17779	0	316
-44.753	-42.337	16384	17546	0	316
-37.901	-35.052	16384	17314	0	316
-25.243	-24.847	16384	16732	0	316
-12.117	-14.064	16384	16152	0	316
-8.691	-10.927	16353	15571	0	316
-7.825	-11.360	16353	14989	0	316
-7.573	-12.838	16353	14291	0	316
-7.645	-11.937	16305	13826	0	316
-4.652	-9.845	16305	13594	0	316
-3.246	-6.275	16305	13594	0	316
-1.551	-3.823	16273	13594	0	316
2.957	1.190	16273	13594	0	316
10.458	6.275	16273	13710	0	316
19.365	12.802	16273	14059	0	316
23.116	16.264	16273	14408	0	316
25.712	20.411	16273	14757	0	316
28.850	23.729	16273	14989	0	316
30.905	27.768	16273	15338	0	316
36.567	33.393	16305	15919	0	316
43.924	40.209	16305	16384	0	316
51.605	48.864	16305	16616	0	316
57.303	54.959	16305	16616	0	316
60.079	59.070	16305	16732	0	316
62.063	58.853	16305	17197	0	316
58.997	54.886	16305	17895	0	316
59.502	54.922	16353	18593	0	316
60.692	55.680	16353	19058	0	316
62.243	60.440	16384	19523	0	316
62.423	64.840	16384	19988	0	316
62.459	65.561	16415	20570	0	316
63.289	65.633	16415	21267	0	316
63.109	64.082	16463	21732	0	316
60.584	63.794	16463	21732	0	316
56.149	60.981	16495	21616	0	316
51.136	56.617	16495	21500	0	316
47.999	52.795	16542	21267	0	316
50.198	48.684	16542	20570	0	316
52.506	47.169	16463	19407	1	400
50.415	46.376	16463	18244	0	400
44.104	41.832	16463	17197	0	400
37.541	39.380	16463	16384	0	400
36.675	38.298	16463	15687	0	400
42.012	42.697	16415	14989	0	400
51.461	47.530	16415	14408	0	400
56.762	51.533	16415	13710	0	400
53.480	48.287	16384	13012	0	400
41.291	38.767	16384	12315	0	400
29.859	31.374	16353	11733	0	400
23.116	24.991	16353	11268	0	400
23.801	23.909	16305	11036	0	400
24.775	24.450	16305	10919	0	400
23.837	22.647	16305	11036	0	400
16.480	17.598	16273	11152	0	400
7.068	7.934	16273	11152	0	400
0.288	2.488	16226	11036	0	400
-2.957	-0.649	16273	11152	0	400
-5.085	-2.777	16273	11501	0	400
-4.832	-5.373	16226	12198	0	400
-5.337	-8.655	16226	13012	0	400
-4.472	-12.766	16273	14059	0	400
-6.996	-17.454	16273	14873	0	400
-13.343	-23.368	16226	15338	0	400
-22.214	-28.705	16226	15687	0	400
-31.518	-33.466	16226	16036	0	400
-36.387	-33.934	16226	16384	0	400
-36.026	-31.807	16226	16616	0	400
-33.610	-31.266	16226	17081	0	400
-33.574	-34.295	16226	17663	0	400
-36.062	-40.534	16273	18244	0	400
-39.091	-43.635	16273	18825	0	400
-41.543	-41.580	16273	19290	0	400
-38.514	-36.459	16305	19523	0	400
-34.836	-31.771	16305	19523	0	400
-32.961	-31.266	16305	19174	0	400
-35.341	-34.511	16353	18942	0	400
-40.389	-40.714	16305	18942	0	400
-42.770	-40.462	16353	19058	0	400
-39.668	-37.468	16353	19174	0	400
-34.295	-30.977	16353	18942	0	400
-27.335	-25.929	16353	18360	0	400
-25.820	-26.145	16305	17663	0	400
-30.653	-31.518	16305	16965	0	400
-34.728	-38.442	16305	16500	0	400
-38.370	-43.599	16305	16616	0	400
-40.462	-44.681	16305	17081	0	400
-39.849	-46.015	16305	17663	0	400
-38.406	-45.294	16353	18011	0	400
-36.928	-45.258	16353	17895	0	400
-34.006	-43.815	16353	17779	0	400
-31.122	-41.003	16353	17546	0	400
-32.131	-37.216	16353	17314	0	400
-34.944	-34.187	16353	16965	0	400
-36.170	-32.744	16305	16616	0	400
-32.564	-31.915	16305	16268	0	400
-27.155	-30.148	16305	15803	0	400
-25.460	-30.761	16305	15454	0	400
-29.535	-32.708	16305	15105	0	400
-32.636	-31.194	16273	14873	0	400
-34.475	-30.220	16273	14873	0	400
-28.814	-24.666	16273	14757	0	400
-24.125	-23.080	16273	14757	0	400
-26.470	-22.611	16273	14989	0	400
-31.699	-27.660	16305	15687	0	400
-35.485	-31.266	16353	16384	0	400
-31.230	-30.797	16353	17197	0	400
-26.470	-29.210	16384	18128	0	400
-27.047	-29.427	16384	18942	0	400
-33.970	-29.499	16415	19639	0	400
-40.534	-31.338	16415	20221	0	400
-41.111	-31.374	16463	20570	0	400
-35.918	-31.122	16463	20802	0	400
-30.364	-31.013	16463	20802	0	400
-35.305	-34.980	16463	20686	0	400
-45.691	-38.839	16463	20686	0	400
-53.408	-41.147	16495	20453	0	400
-50.847	-37.793	16495	20104	0	400
-38.947	-33.357	16495	19407	0	400
-26.578	-30.508	16495	18825	0	400
-21.565	-29.354	16495	18128	0	400
-24.162	-30.472	16495	17663	0	400
-27.876	-30.617	16542	17430	0	400
-28.381	-26.938	16542	17430	0	400
-24.883	-22.791	16542	17314	0	400
-20.483	-21.385	16542	17081	0	400
-16.913	-18.356	16542	16500	0	400
-18.933	-17.454	16495	16152	0	400
-18.464	-13.776	16542	15803	0	400
-19.113	-12.369	16542	15454	0	400
-19.510	-11.900	16495	15222	0	400
-20.916	-13.740	16542	15105	0	400
-19.546	-16.084	16542	14989	0	400
-18.788	-13.054	16542	15105	0	400
-14.028	-11.540	16542	15454	0	400
-12.514	-10.530	16542	15803	0	400
-11.612	-10.314	16574	16036	0	400
-15.507	-14.028	16574	16036	0	400
-17.310	-17.310	16574	15919	0	400
-19.690	-16.697	16574	15571	0	400
-17.418	-16.336	16574	15338	0	400
-14.713	-12.910	16574	14873	0	400
-10.494	-9.304	16574	14408	0	400
-5.590	-6.780	16495	13826	0	400
-4.508	-5.193	16495	13245	0	400
-6.671	-6.888	16495	12780	0	400
-16.048	-10.963	16463	12198	0	400
-23.440	-14.641	16463	11733	0	400
-28.020	-12.910	16415	11501	0	400
-24.162	-9.629	16415	11617	0	400
-15.146	-3.065	16384	11617	0	400
-7.862	1.767	16384	11384	0	400
-5.013	2.344	16384	11384	0	400
-6.022	0.902	16353	11501	0	400
-9.124	1.262	16353	11850	0	400
-10.566	3.101	16353	12664	0	400
-6.527	5.878	16353	13826	0	400
1.226	10.566	16384	14989	0	400
6.239	14.389	16384	16152	0	400
7.970	15.002	16384	16849	0	400
4.832	18.428	16384	17430	0	400
5.409	18.031	16415	17779	0	400
9.953	22.286	16415	17895	0	400
18.139	24.378	16415	18128	0	400
27.227	28.453	16415	18477	0	400
27.840	30.112	16415	18825	0	400
24.378	31.122	16415	19058	0	400
21.745	30.797	16463	19058	0	400
21.024	32.131	16463	18942	0	400
20.087	31.482	16463	18825	0	400
22.647	31.518	16463	18825	0	400
21.241	31.843	16463	19058	0	400
20.375	28.922	16495	19523	0	400
18.572	26.938	16495	19872	0	400
15.362	22.178	16495	20104	0	400
11.612	19.437	16542	19988	0	400
8.871	19.690	16542	19872	0	400
7.573	19.618	16542	19290	0	400
10.422	22.539	16495	18709	0	400
14.100	24.486	16542	18011	0	400
20.880	25.316	16542	17430	0	400
23.368	25.027	16495	17081	0	400
19.942	25.568	16495	16732	0	400
14.461	21.781	16495	16616	0	400
6.852	20.375	16495	16732	0	400
5.481	21.024	16495	16732	0	400
10.566	22.863	16495	16616	0	400
20.303	27.263	16542	16384	0	400
25.712	30.004	16542	16384	0	400
27.119	31.013	16542	16152	0	400
24.522	27.227	16495	15803	0	400
21.349	23.585	16495	15338	0	400
18.969	21.204	16495	14757	0	400
22.214	18.752	16495	14408	0	400
22.034	20.411	16495	14175	0	400
18.897	19.257	16463	13943	0	400
14.245	19.113	16463	13826	0	400
10.494	17.995	16463	13594	0	400
10.530	17.021	16463	13361	0	400
14.930	20.664	16415	13245	0	400
20.808	22.250	16384	13012	0	400
19.041	23.765	16384	12547	0	400
14.317	25.748	16353	12082	0	400
11.468	26.506	16384	11733	0	400
17.093	29.823	16353	11733	0	400
27.479	33.249	16353	11850	0	400
37.685	33.105	16305	12082	0	400
38.983	29.968	16305	12547	0	400
32.059	27.047	16305	13129	0	400
21.998	25.063	16305	13710	0	400
18.680	26.001	16305	14291	0	400
16.805	28.489	16305	14640	0	400
19.257	28.922	16305	14989	0	400
18.716	23.368	16273	15454	0	400
19.906	18.283	16273	15919	0	400
17.274	16.156	16273	16268	0	400
15.579	16.408	16273	16616	0	400
9.701	16.841	16273	17081	0	400
6.960	17.093	16305	17663	0	400
7.825	14.064	16305	18128	0	400
12.405	11.648	16305	18360	0	400
15.867	10.530	16305	18477	0	400
15.110	11.360	16305	18709	0	400
8.943	12.405	16305	19058	0	400
3.354	9.809	16305	19174	0	400
0.433	9.917	16305	19174	0	400
5.265	10.674	16305	19058	0	400
8.366	13.595	16305	19058	0	400
10.999	15.038	16305	18942	0	400
11.900	17.923	16353	18942	0	400
10.025	16.949	16353	19290	0	400
7.429	14.064	16353	19756	0	400
5.806	8.979	16384	19872	0	400
4.652	4.075	16384	19756	1	776
3.750	1.551	16384	19523	0	776
1.659	1.911	16384	19407	0	776
3.354	6.599	16384	19174	0	776
7.537	13.163	16384	19058	0	776
14.930	14.858	16415	18942	0	776
18.969	15.435	16415	18825	0	776
22.070	10.494	16415	18593	0	776
16.516	6.058	16415	18477	0	776
12.189	2.452	16415	18244	0	776
6.058	1.551	16415	18011	0	776
4.219	1.262	16463	17546	0	776
-0.180	-1.983	16415	17081	0	776
-4.724	-4.652	16415	16500	0	776
-9.556	-10.278	16415	16268	0	776
-10.458	-13.343	16415	16036	0	776
-8.186	-11.504	16463	16152	0	776
-6.599	-11.468	16463	16152	0	776
-6.960	-10.638	16463	16268	0	776
-9.809	-12.369	16463	16268	0	776
-12.622	-16.841	16463	16036	0	776
-17.743	-19.762	16463	15687	0	776
-16.697	-21.637	16463	15222	0	776
-18.897	-19.546	16415	14757	0	776
-19.654	-22.106	16415	14408	0	776
-24.955	-22.503	16415	14175	0	776
-30.184	-26.578	16415	14059	0	776
-35.233	-30.256	16415	13943	0	776
-37.685	-30.436	16415	14059	0	776
-37.360	-29.931	16415	14408	0	776
-34.583	-31.735	16415	14757	0	776
-35.557	-34.728	16415	15105	0	776
-38.298	-40.209	16415	15571	0	776
-44.573	-46.195	16415	15919	0	776
-47.674	-47.458	16415	15919	0	776
-45.402	-42.409	16415	15803	0	776
-37.577	-34.764	16415	15687	0	776
-25.604	-26.542	16415	15687	0	776
-17.166	-21.854	16415	15803	0	776
-18.175	-25.316	16415	15919	0	776
-27.551	-30.400	16415	16036	0	776
-39.704	-32.203	16415	16152	0	776
-42.553	-30.112	16415	16152	0	776
-39.452	-24.955	16415	16036	0	776
-31.482	-22.034	16415	15803	0	776
-24.342	-20.519	16415	15687	0	776
-22.899	-22.827	16415	15571	0	776
-25.099	-23.080	16415	15687	0	776
-24.234	-19.401	16415	15803	0	776
-20.772	-17.238	16415	16036	0	776
-18.536	-12.045	16415	16268	0	776
-13.992	-9.701	16415	16500	0	776
-10.602	-8.258	16415	16849	0	776
-8.907	-5.842	16415	17314	0	776
-6.383	-6.022	16384	17546	0	776
-3.606	-4.904	16415	17546	0	776
-4.364	-6.527	16415	17546	0	776
-6.203	-8.114	16415	17663	0	776
-7.573	-11.973	16415	17663	0	776
-12.297	-13.018	16415	17546	0	776
-14.317	-15.254	16415	17197	0	776
-17.779	-14.317	16415	16732	0	776
-18.356	-16.697	16415	16500	0	776
-20.916	-18.392	16415	16732	0	776
-21.493	-19.690	16415	17314	0	776
-22.575	-19.473	16463	17779	0	776
-20.267	-19.618	16463	17895	0	776
-17.743	-14.930	16463	17779	0	776
-11.576	-11.937	16463	17430	0	776
-10.242	-10.206	16463	17314	0	776
-10.350	-9.196	16463	17314	0	776
-11.287	-12.333	16463	17430	0	776
-14.389	-14.100	16463	17197	0	776
-11.864	-12.982	16463	16500	0	776
-7.681	-11.864	16463	16036	0	776
-7.465	-10.602	16463	15687	0	776
-9.232	-10.206	16463	15338	0	776
-12.189	-15.939	16415	15105	0	776
-19.870	-18.211	16415	15222	0	776
-22.791	-20.267	16463	15571	0	776
-24.378	-16.877	16463	16036	0	776
-19.510	-12.514	16463	16036	0	776
-12.694	-8.907	16463	15919	0	776
-4.327	-5.914	16463	15687	0	776
-0.974	-6.455	16415	15222	0	776
-2.596	-8.583	16415	14757	0	776
-5.878	-5.265	16415	14524	0	776
-8.979	-2.056	16384	14408	0	776
-8.871	-0.469	16384	14175	0	776
-6.563	-0.397	16384	13710	0	776
-5.517	-2.308	16384	13478	0	776
-3.246	-2.669	16384	13478	0	776
-0.252	0.252	16353	13594	0	776
4.003	3.570	16353	13943	0	776
5.049	2.957	16353	14291	0	776
1.370	-1.118	16353	14524	0	776
-5.157	-3.931	16353	14524	0	776
-5.770	0.469	16305	14175	0	776
0.252	9.124	16305	13710	0	776
15.110	19.978	16273	13012	0	776
29.751	26.938	16226	12315	0	776
37.468	27.299	16194	11966	0	776
31.590	25.460	16194	12082	0	776
26.289	21.241	16194	12547	0	776
18.211	20.483	16194	13361	0	776
17.634	18.392	16194	14291	0	776
21.385	19.005	16194	15105	0	776
22.935	18.572	16194	15803	0	776
24.378	20.050	16194	16268	0	776
24.198	20.231	16194	16500	0	776
23.080	21.204	16194	16965	0	776
23.296	24.125	16226	17546	0	776
23.152	23.368	16226	18360	0	776
21.962	22.322	16226	19174	0	776
23.008	23.945	16273	20104	0	776
22.827	23.585	16273	20918	0	776
24.089	25.279	16305	21732	0	776
25.243	28.525	16305	22546	0	776
25.279	30.364	16353	23128	0	776
24.522	31.049	16384	23477	0	776
25.532	33.646	16384	23477	0	776
24.991	37.937	16384	23128	0	776
28.128	41.940	16384	22197	0	776
35.269	47.890	16384	21151	0	776
43.743	49.116	16384	20221	0	776
49.621	47.999	16384	19523	1	500
48.972	45.222	16384	19174	0	500
44.176	41.075	16415	18825	0	500
36.639	40.930	16415	18593	0	500
30.833	40.750	16415	18477	0	500
28.201	38.045	16415	18593	0	500
26.578	38.370	16463	18477	0	500
28.417	37.216	16463	18477	0	500
33.141	40.570	16463	18360	0	500
38.550	43.310	16463	18128	0	500
39.524	43.310	16495	18128	0	500
33.357	40.678	16495	17895	0	500
26.794	37.505	16495	17663	0	500
22.683	35.088	16495	17197	0	500
29.715	37.324	16495	16616	0	500
36.675	37.288	16495	16268	0	500
37.216	32.889	16495	15919	0	500
27.948	28.092	16495	15454	0	500
17.670	20.303	16495	14873	0	500
7.898	16.733	16495	14408	0	500
8.907	14.208	16463	14059	0	500
13.812	17.562	16463	13710	0	500
15.290	17.382	16463	13594	0	500
18.897	20.087	16415	13594	0	500
18.716	19.329	16415	13478	0	500
21.890	20.231	16415	13245	0	500
21.132	20.700	16415	13012	0	500
20.159	23.981	16415	13245	0	500
15.903	26.650	16415	13594	0	500
17.238	28.273	16415	13943	0	500
20.880	26.506	16415	14175	0	500
26.830	24.558	16415	14175	0	500
29.607	22.755	16415	14059	0	500
23.765	21.926	16415	14175	0	500
13.054	23.188	16384	14291	0	500
6.203	21.962	16384	14175	0	500
4.472	17.382	16384	14175	0	500
7.032	13.307	16384	14175	0	500
8.511	7.501	16384	14175	0	500
7.140	7.321	16384	14291	0	500
4.183	8.402	16384	14757	0	500
1.767	11.432	16384	15338	0	500
2.705	11.720	16384	15919	0	500
2.705	8.835	16384	16384	0	500
1.334	4.832	16384	16616	0	500
-0.757	3.714	16384	16965	0	500
-0.144	5.157	16384	17430	0	500
3.246	10.855	16415	17779	0	500
6.924	13.992	16415	17779	0	500
7.645	16.084	16415	17663	0	500
6.058	12.874	16415	17430	0	500
4.544	12.297	16415	17546	0	500
3.606	10.602	16415	17663	0	500
5.590	10.999	16415	17663	0	500
10.999	13.127	16415	17430	0	500
14.533	16.697	16415	17081	0	500
15.831	19.113	16415	16732	0	500
12.658	23.585	16384	16384	0	500
6.852	26.794	16384	15919	0	500
7.825	27.551	16384	15687	0	500
10.530	27.371	16384	15803	0	500
14.785	25.965	16384	15803	0	500
18.247	23.116	16384	15919	0	500
15.471	20.087	16384	15919	0	500
13.812	20.123	16384	16036	0	500
15.435	19.257	16384	16268	0	500
18.464	20.195	16384	16384	0	500
20.591	19.870	16384	16849	0	500
16.769	16.372	16384	17197	0	500
11.396	15.687	16384	17314	0	500
8.907	15.975	16384	17314	0	500
12.333	17.202	16384	17197	0	500
16.012	21.060	16415	17314	0	500
16.877	18.500	16415	17663	0	500
14.677	17.851	16415	18128	0	500
8.078	15.507	16463	18477	0	500
3.462	17.706	16463	18825	0	500
5.950	18.428	16463	19174	0	500
9.124	18.139	16495	19523	0	500
10.458	17.743	16495	19872	0	500
8.547	13.776	16542	20221	0	500
6.671	13.018	16542	20570	0	500
5.734	13.920	16574	20918	0	500
6.816	12.477	16574	20802	0	500
5.734	9.953	16574	20570	0	500
3.426	8.078	16574	20221	0	500
0.144	5.842	16622	19988	0	500
-0.613	4.111	16622	19523	0	500
2.488	5.662	16622	18825	0	500
5.265	5.914	16622	18011	0	500
5.337	6.816	16622	17081	0	500
3.318	8.583	16622	16384	0	500
2.092	9.881	16622	15919	0	500
4.400	10.602	16574	14989	0	500
8.222	12.730	16542	14059	0	500
12.514	12.189	16542	13012	0	500
15.759	10.710	16495	11850	0	500
14.821	12.153	16463	11036	0	500
11.756	13.992	16463	10454	0	500
11.360	15.795	16463	10105	0	500
10.278	20.519	16415	10222	0	500
13.379	21.349	16415	10454	0	500
17.274	20.087	16384	10454	0	500
17.166	18.500	16384	10105	0	500
15.507	14.461	16353	9989	0	500
10.674	8.799	16353	9989	0	500
6.960	6.780	16305	10222	0	500
5.301	6.563	16305	10338	0	500
5.806	7.717	16273	10338	0	500
5.986	8.114	16273	10571	0	500
5.842	7.645	16226	10919	0	500
3.859	4.327	16226	11501	0	500
1.839	4.327	16226	12082	0	500
2.128	5.554	16226	12780	0	500
9.304	8.727	16226	13478	0	500
15.867	9.917	16226	14175	0	500
19.762	11.540	16226	14873	0	500
21.457	11.576	16226	15454	0	500
13.054	10.602	16226	16036	0	500
7.825	8.799	16226	16616	0	500
3.570	6.419	16226	17197	0	500
4.075	4.544	16226	17663	0	500
4.291	6.203	16226	17663	0	500
0.325	6.599	16226	17895	0	500
-4.652	8.402	16226	18360	0	500
-6.996	10.061	16226	18709	0	500
-3.931	9.737	16226	18825	0	500
4.472	9.701	16226	18825	0	500
8.475	8.979	16273	19058	0	500
4.039	5.013	16305	19174	0	500
-6.239	-2.200	16273	19174	0	500
-14.245	-6.131	16273	19058	0	500
-11.684	-7.248	16273	19174	0	500
-3.498	-6.852	16273	19407	0	500
2.993	-1.046	16273	19523	0	500
1.010	-0.974	16273	19407	0	500
-6.383	-4.832	16273	19290	0	500
-16.300	-11.792	16273	19058	0	500
-19.257	-17.093	16273	18942	0	500
-21.024	-23.080	16273	19058	0	500
-16.841	-21.349	16273	19407	0	500
-12.910	-17.382	16305	19639	0	500
-8.222	-11.900	16305	19872	0	500
-7.681	-11.468	16353	20104	0	500
-14.389	-13.848	16353	20221	0	500
-22.539	-22.935	16353	20104	0	500
-30.076	-27.515	16353	19872	0	500
-28.705	-25.424	16353	19523	0	500
-20.519	-20.375	16384	19407	0	500
-14.461	-10.855	16384	19407	0	500
-11.107	-8.330	16384	19174	0	500
-16.084	-10.891	16384	18709	0	500
-20.375	-14.497	16384	18128	0	500
-23.008	-18.716	16384	17779	0	500
-19.401	-17.490	16415	17663	0	500
-17.526	-17.526	16415	17663	0	500
-16.697	-16.156	16415	17546	0	500
-19.726	-19.834	16415	17081	0	500
-20.627	-22.863	16415	16616	0	500
-19.870	-26.361	16415	16384	0	500
-22.034	-27.227	16415	16268	0	500
-24.955	-28.561	16415	16268	0	500
-33.141	-28.922	16415	16152	0	500
-35.521	-28.092	16415	15803	0	500
-29.318	-23.152	16415	15222	0	500
-18.860	-16.913	16415	14408	0	500
-11.973	-16.264	16384	13710	0	500
-16.769	-19.221	16384	13012	0	500
-21.457	-27.371	16353	12315	0	500
-26.470	-30.581	16353	11850	0	500
-19.834	-27.335	16305	11501	0	500
-11.432	-18.356	16305	11152	0	500
-7.681	-12.405	16305	11268	0	500
-10.133	-9.484	16273	11733	0	500
-14.894	-10.746	16273	12198	0	500
-10.855	-12.081	16273	12547	0	500
-1.082	-11.251	16273	12664	0	500
7.176	-7.248	16273	12780	0	500
6.960	-7.825	16273	13129	0	500
-2.380	-5.698	16273	13710	0	500
-9.448	-5.301	16273	14291	0	500
-5.626	-2.921	16273	14989	0	500
3.859	1.587	16273	15687	0	500
13.415	3.859	16273	16268	0	500
11.468	4.832	16305	16849	0	500
3.029	3.390	16305	17314	0	500
-2.957	3.534	16305	17663	0	500
1.298	7.176	16305	17895	0	500
11.215	13.848	16305	18128	0	500
20.483	16.444	16305	18244	0	500
18.969	18.969	16305	18360	0	500
13.631	19.005	16305	18477	0	500
9.448	21.818	16305	18593	0	500
15.579	27.587	16305	18593	0	500
30.941	35.521	16305	18593	0	500
45.402	43.383	16353	18477	0	500
50.956	46.592	16353	18477	0	500
47.277	50.054	16353	18360	0	500
41.291	49.874	16353	18360	0	500
41.255	53.264	16353	18360	0	500
46.989	56.113	16353	18477	0	500
57.122	60.584	16353	18593	0	500
59.430	63.686	16384	18593	0	500
60.332	63.686	16384	18477	0	500
60.404	62.423	16384	18128	0	500
57.591	60.368	16353	17546	0	500
53.011	56.401	16353	17081	0	500
41.688	51.136	16353	16616	0	500
27.263	46.123	16353	16268	0	500
16.120	41.724	16353	15803	0	500
18.897	38.226	16353	15571	0	500
25.424	37.505	16353	15338	0	500
32.564	35.160	16353	15105	0	500
29.607	32.672	16353	14873	0	500
24.919	32.276	16353	14989	0	500
19.654	35.846	16353	15338	0	500
25.207	37.072	16353	15571	0	500
35.629	38.695	16353	15803	0	500
38.190	35.088	16353	16036	0	500
30.653	29.102	16384	16152	0	500
20.123	26.542	16353	16152	0	500
12.910	27.515	16353	16152	0	500
19.582	30.184	16353	16036	0	500
30.545	34.620	16353	16152	0	500
39.163	35.846	16353	16384	0	500
40.786	33.718	16384	16732	0	500
37.577	29.931	16384	17314	0	500
32.239	26.578	16384	17779	0	500
29.607	24.234	16415	18360	0	500
21.818	20.591	16415	18825	0	500
13.018	19.365	16463	19058	0	500
6.563	20.952	16415	19058	0	500
8.330	21.601	16463	18825	0	500
17.382	23.404	16463	18593	0	500
24.162	26.073	16463	18244	0	500
25.352	23.945	16463	17546	0	500
19.005	22.070	16415	16965	1	944
10.025	19.546	16415	16500	0	944
7.140	15.975	16415	16268	0	944
9.340	14.858	16415	16036	0	944
13.487	13.379	16415	16152	0	944
12.225	11.107	16415	16384	0	944
9.448	12.225	16415	16732	0	944
9.196	14.749	16463	16849	0	944
13.668	15.795	16463	16849	0	944
17.670	20.916	16463	16965	0	944
18.933	21.277	16463	17081	0	944
13.668	16.949	16495	17314	0	944
5.806	13.848	16495	17546	0	944
5.049	13.668	16495	17663	0	944
11.107	15.435	16495	17663	0	944
21.529	22.503	16542	17779	0	944
25.568	22.611	16542	18011	0	944
23.512	17.959	16542	18244	0	944
12.946	8.114	16574	18477	0	944
3.462	1.370	16574	18593	0	944
-1.154	-1.839	16622	18593	0	944
-0.685	-1.154	16622	18244	0	944
3.462	2.200	16574	17779	0	944
9.232	2.813	16574	17197	0	944
11.323	2.452	16574	16616	0	944
6.419	-0.938	16542	15803	0	944
-1.659	-6.455	16542	14524	0	944
-11.864	-13.776	16542	13710	0	944
-20.231	-20.736	16495	13012	0	944
-14.533	-19.834	16495	12431	0	944
-6.131	-16.264	16463	11617	0	944
-0.974	-12.910	16415	10571	0	944
-6.960	-15.795	16384	9408	0	944
-18.969	-21.781	16353	8245	0	944
-31.085	-28.922	16305	7431	0	944
-29.391	-29.174	16305	7315	0	944
-19.185	-24.270	16273	7431	0	944
-8.186	-17.959	16226	7780	0	944
-4.977	-18.211	16226	8245	0	944
-12.477	-20.555	16194	8710	0	944
-23.549	-25.316	16146	9059	0	944
-27.407	-26.794	16146	9640	0	944
-26.001	-24.594	16146	10571	0	944
-21.493	-21.673	16115	11733	0	944
-20.050	-21.998	16146	12780	0	944
-18.860	-21.890	16146	13943	0	944
-24.053	-22.755	16146	15105	0	944
-21.385	-23.152	16146	16036	0	944
-17.779	-19.546	16146	16849	0	944
-12.586	-20.050	16194	17779	0	944
-13.884	-20.483	16194	18709	0	944
-14.569	-23.152	16194	19523	0	944
-18.644	-24.919	16194	20453	0	944
-19.257	-25.965	16226	21267	0	944
-21.277	-25.676	16273	21616	0	944
-21.781	-25.027	16305	21616	0	944
-23.260	-21.385	16273	21267	0	944
-22.070	-17.959	16273	20802	0	944
-14.353	-14.533	16273	20570	0	944
-5.626	-12.874	16273	20570	0	944
1.911	-11.360	16273	20686	0	944
0.252	-13.559	16273	20918	0	944
-8.619	-14.569	16305	21151	0	944
-16.444	-14.930	16305	21384	0	944
-14.821	-15.362	16353	21500	0	944
-9.737	-12.225	16353	21616	0	944
-1.695	-9.989	16353	21500	0	944
-0.721	-7.140	16353	21151	0	944
-3.318	-5.698	16353	20802	0	944
-6.383	-5.770	16384	20221	0	944
-5.806	-5.842	16384	19756	0	944
-5.409	-8.655	16384	19523	0	944
-13.235	-13.379	16384	19058	0	944
-23.080	-17.274	16384	18709	0	944
-29.715	-19.077	16384	18244	0	944
-26.433	-16.625	16384	17895	0	944
-17.166	-15.254	16384	17430	0	944
-13.054	-14.713	16384	17081	0	944
-14.894	-20.375	16384	16732	0	944
-22.647	-22.863	16384	16384	1	316
-23.044	-24.125	16384	16036	0	316
-16.228	-19.582	16384	15571	0	316
-7.898	-16.625	16384	15338	0	316
-6.058	-18.500	16384	15105	0	316
-15.398	-16.552	16384	14757	0	316
-22.827	-16.589	16384	14291	0	316
-22.827	-11.360	16353	13943	0	316
-12.189	-2.380	16353	13710	0	316
-0.252	2.019	16353	13710	0	316
5.662	-0.144	16353	13710	0	316
1.659	-5.049	16353	13710	0	316
-5.517	-9.484	16353	13826	0	316
-10.963	-12.225	16305	13826	0	316
-11.071	-11.215	16305	13710	0	316
-6.239	-8.186	16305	13826	0	316
-1.190	-2.019	16305	14059	0	316
7.104	5.481	16305	14408	0	316
15.254	16.661	16305	14757	0	316
19.329	21.421	16305	15105	0	316
17.995	22.899	16305	15571	0	316
10.494	15.867	16353	16152	0	316
3.426	10.674	16384	16500	0	316
2.344	11.251	16384	16732	0	316
13.740	19.546	16384	17081	0	316
24.234	29.030	16384	17546	0	316
31.446	35.305	16384	17895	0	316
29.607	34.836	16415	18244	0	316
24.522	29.535	16415	18709	0	316
21.385	25.784	16384	18825	0	316
25.568	24.342	16415	18942	0	316
30.869	25.893	16415	18942	0	316
33.213	28.994	16415	18942	0	316
29.715	29.030	16415	18709	0	316
25.965	23.981	16415	18360	0	316
26.217	21.132	16415	17895	0	316
28.633	20.519	16415	17430	0	316
32.492	20.267	16415	17081	0	316
28.164	23.729	16415	16732	0	316
19.942	23.224	16415	16384	0	316
11.107	19.942	16415	15803	0	316
9.484	21.096	16384	15454	0	316
20.988	24.919	16384	15222	0	316
34.800	34.800	16384	15222	0	316
43.960	42.193	16384	15105	0	316
42.806	44.428	16384	15222	0	316
36.459	44.284	16384	15338	0	316
31.879	42.481	16384	15222	0	316
35.846	42.445	16384	14757	0	316
42.012	44.717	16353	14291	0	316
46.520	45.835	16353	13943	0	316
41.580	44.284	16353	14059	0	316
33.574	39.668	16353	14408	0	316
26.974	36.891	16353	14873	0	316
26.325	35.016	16353	15222	0	316
26.001	32.889	16353	15571	0	316
22.899	29.499	16353	15919	0	316
19.510	23.476	16384	16384	0	316
14.569	17.923	16384	16732	0	316
15.471	13.920	16384	17081	0	316
15.038	11.792	16384	17314	0	316
13.884	12.910	16384	17663	0	316
7.573	10.566	16415	17895	0	316
2.236	8.655	16415	18128	0	316
0.361	6.311	16415	18128	0	316
0.216	1.875	16415	18011	0	316
0.829	-3.173	16415	18011	0	316
-0.902	-6.058	16463	18244	0	316
-3.498	-3.859	16463	18360	0	316
-2.416	-0.072	16463	18360	0	316
2.272	9.376	16463	18593	0	316
8.330	14.713	16495	18825	0	316
11.973	12.117	16495	18825	0	316
13.848	7.681	16495	18593	0	316
6.599	0.721	16495	18128	0	316
-1.442	-3.354	16495	17779	0	316
-8.294	-1.767	16495	17546	0	316
-8.943	5.950	16542	17546	0	316
1.406	13.776	16542	17546	0	316
14.461	17.346	16542	17430	0	316
22.286	19.870	16495	17081	0	316
19.690	16.444	16542	16849	0	316
5.770	13.668	16542	16616	0	316
-5.409	12.045	16495	16384	0	316
-9.160	11.937	16495	16268	0	316
0.144	15.939	16495	16152	0	316
11.756	13.199	16542	16152	0	316
19.473	12.586	16542	16268	0	316
13.740	8.655	16542	16384	0	316
4.580	7.825	16542	16500	0	316
-5.409	7.465	16542	16732	0	316
-8.222	10.133	16574	16616	0	316
-3.462	11.504	16574	16384	0	316
4.472	10.602	16574	16036	0	316
8.222	10.566	16542	15687	0	316
6.888	12.117	16542	15222	0	316
2.416	12.153	16542	14757	0	316
-1.767	14.064	16495	14291	0	316
0.108	15.074	16495	13826	0	316
9.665	17.526	16463	13710	0	316
19.077	23.585	16463	13594	0	316
25.496	27.696	16463	13594	0	316
19.401	29.571	16463	13478	0	316
11.251	27.948	16463	13361	0	316
6.239	24.630	16415	13361	0	316
11.215	24.522	16415	13361	0	316
23.332	23.765	16415	13361	0	316
29.210	23.080	16415	13594	0	316
22.539	20.916	16415	13826	0	316
7.898	12.514	16415	14059	0	316
-6.563	6.094	16415	14291	0	316
-7.825	4.075	16384	14408	0	316
-1.911	4.436	16384	14291	0	316
10.025	5.770	16384	14291	0	316
10.278	4.796	16384	14291	0	316
1.334	-0.721	16353	14291	0	316
-8.547	-8.871	16353	14408	0	316
-16.516	-14.100	16353	14989	0	316
-20.808	-14.569	16353	15687	0	316
-17.057	-12.874	16384	16384	0	316
-13.812	-6.563	16384	16849	0	316
-7.789	-1.911	16384	17314	0	316
-0.505	0.505	16384	17430	0	316
2.236	0.397	16384	17081	0	316
-2.236	-2.993	16353	16500	0	316
-12.622	-8.907	16353	16036	0	316
-20.664	-8.727	16305	15571	0	316
-16.156	-4.868	16305	15338	0	316
-3.101	1.839	16305	15222	0	316
8.871	5.301	16305	15222	0	316
11.323	6.744	16273	15222	0	316
3.282	2.380	16273	15222	0	316
-8.511	-2.669	16273	15454	0	316
-15.110	-6.491	16273	15803	0	316
-16.805	-8.871	16305	16036	0	316
-12.117	-8.222	16305	16384	0	316
-7.032	-4.760	16305	16732	0	316
0.361	-0.361	16305	16965	0	316
5.662	6.167	16305	17197	0	316
5.662	4.183	16305	17430	0	316
-0.613	-3.967	16305	17663	0	316
-13.271	-14.136	16305	17895	0	316
-23.765	-24.378	16305	17895	0	316
-28.020	-27.551	16305	17663	0	316
-25.856	-21.565	16305	17197	0	316
-15.110	-12.477	16273	16616	0	316
-7.717	-2.777	16273	16036	0	316
-2.236	0.829	16226	15571	0	316
-3.210	-0.829	16226	15571	0	316
-7.032	-7.140	16226	15687	0	316
-11.396	-13.884	16226	15919	0	316
-18.608	-19.473	16226	16268	0	316
-22.250	-22.719	16226	16384	0	316
-25.063	-18.788	16226	16384	0	316
-21.890	-16.625	16273	16500	0	316
-15.290	-11.576	16273	16849	0	316
-6.563	-8.979	16305	17430	0	316
-6.852	-10.386	16273	18011	0	316
-14.533	-16.012	16305	18709	0	316
-25.099	-19.978	16305	19290	0	316
-32.853	-22.142	16353	19988	0	316
-29.859	-21.529	16353	20570	0	316
-18.788	-13.163	16353	20802	0	316
-8.006	-9.665	16384	20686	0	316
-4.472	-9.412	16384	20221	0	316
-12.477	-13.451	16384	19523	0	316
-21.781	-21.457	16353	18709	0	316
-28.453	-24.847	16384	18244	1	668
-28.309	-25.424	16384	18128	0	668
-20.664	-22.034	16384	18128	0	668
-15.543	-17.526	16384	18011	0	668
-10.999	-15.975	16384	17779	0	668
-11.684	-13.307	16384	17546	0	668
-13.848	-9.520	16384	17430	0	668
-13.271	-7.465	16384	17314	0	668
-14.858	-5.121	16415	17430	0	668
-13.415	-3.570	16415	17546	0	668
-9.340	-4.291	16415	17663	0	668
-10.242	-5.301	16415	17663	0	668
-11.973	-4.796	16415	17430	0	668
-11.287	-5.121	16415	17081	0	668
-12.333	-4.580	16415	16616	0	668
-9.989	-3.282	16415	16268	0	668
-6.131	-2.669	16415	16036	0	668
-5.698	-3.570	16415	15919	0	668
-11.251	-5.878	16415	15687	0	668
-17.274	-10.061	16415	15338	0	668
-22.286	-15.290	16415	15105	0	668
-25.279	-16.444	16384	14989	0	668
-23.873	-16.913	16415	14757	0	668
-18.716	-13.199	16415	14408	0	668
-13.776	-6.924	16415	14408	0	668
-8.619	-5.590	16415	14408	0	668
-6.167	-5.878	16415	14757	0	668
-6.599	-10.530	16415	15222	0	668
-12.045	-16.228	16415	15571	0	668
-17.670	-21.998	16415	16152	0	668
-20.952	-20.123	16415	16616	0	668
-17.310	-16.228	16415	17081	0	668
-12.117	-7.789	16415	17314	0	668
-4.760	-3.534	16463	17546	0	668
-3.246	-1.334	16463	17663	0	668
-3.354	-3.173	16463	17779	0	668
-4.508	-4.868	16463	17663	0	668
-2.669	-3.823	16463	17430	0	668
1.911	0.252	16463	17314	0	668
5.626	3.570	16495	17081	0	668
6.599	4.796	16495	17081	0	668
4.111	3.498	16495	16965	0	668
0.397	1.587	16495	16849	0	668
-0.938	1.442	16495	16616	0	668
1.551	3.678	16495	16384	0	668
8.258	10.530	16495	16152	0	668
16.264	18.680	16463	15571	0	668
26.325	26.722	16463	14989	0	668
31.626	31.013	16463	14524	0	668
32.636	32.420	16463	14291	0	668
30.076	30.400	16463	14059	0	668
27.371	26.397	16463	14059	0	668
26.902	24.919	16463	14291	0	668
27.696	23.693	16463	14757	0	668
29.174	23.657	16463	15105	0	668
26.902	26.506	16463	15571	0	668
23.909	27.515	16463	16036	0	668
24.270	28.525	16415	16500	0	668
26.145	27.876	16463	16616	0	668
29.895	27.191	16463	16500	0	668
31.807	26.614	16415	16384	0	668
32.167	26.037	16463	16384	0	668
30.689	26.470	16463	16384	0	668
27.515	25.929	16415	16268	0	668
19.978	21.781	16415	15919	0	668
14.497	18.320	16415	15571	0	668
12.514	19.149	16415	15338	0	668
20.700	22.214	16415	15338	0	668
30.797	28.381	16415	15454	0	668
38.334	32.456	16415	15454	0	668
35.774	31.374	16415	15338	0	668
24.739	26.614	16384	15222	0	668
15.471	19.365	16384	15105	0	668
12.982	20.591	16384	14989	0	668
21.096	24.450	16384	14989	0	668
29.679	31.302	16384	15222	0	668
35.160	34.764	16384	15454	0	668
30.653	34.259	16384	15687	0	668
21.060	27.984	16384	15687	0	668
15.038	23.224	16384	15571	0	668
11.468	17.634	16353	15454	0	668
12.766	15.182	16353	15571	0	668
14.641	9.448	16353	15919	0	668
11.864	6.239	16353	16268	0	668
10.422	5.121	16353	16384	0	668
9.268	7.176	16353	16384	0	668
9.340	10.963	16353	16268	0	668
10.206	14.605	16353	16268	0	668
12.117	15.903	16353	16152	0	668
15.254	14.317	16353	15803	0	668
16.877	14.461	16305	15222	0	668
17.815	14.533	16305	14524	0	668
12.982	16.264	16273	14175	0	668
9.340	18.175	16273	14059	0	668
8.547	19.041	16305	14408	0	668
13.704	16.877	16305	14873	0	668
21.096	11.396	16305	15338	0	668
20.808	6.996	16305	16036	0	668
17.093	5.770	16305	16616	0	668
7.501	8.619	16305	17430	0	668
-0.108	14.281	16353	18128	0	668
1.406	21.277	16353	18709	0	668
7.609	23.368	16353	19174	0	668
17.346	24.450	16384	19639	0	668
21.998	23.909	16384	20221	0	668
21.349	19.185	16415	20570	0	668
15.435	17.743	16415	20686	0	668
6.960	14.172	16415	20453	0	668
1.010	13.992	16415	19988	0	668
3.787	14.425	16415	19290	0	668
7.789	16.625	16415	18709	0	668
10.891	13.559	16415	18360	1	444
7.537	8.222	16415	18244	0	444
-4.111	-1.334	16415	18244	0	444
-12.622	-7.501	16463	18128	0	444
-15.867	-8.907	16463	17895	0	444
-5.554	-1.983	16463	17430	0	444
9.448	6.744	16463	17081	0	444
13.559	10.133	16384	16616	0	444
8.763	6.527	16384	16152	0	444
-5.734	-3.570	16384	15919	0	444
-19.582	-12.189	16384	15687	0	444
-22.719	-16.300	16384	15687	0	444
-19.077	-12.297	16384	15687	0	444
-9.881	-6.455	16384	15687	0	444
-2.488	1.515	16384	15687	0	444
-0.036	5.337	16384	15338	0	444
-1.082	5.878	16384	14757	0	444
-7.537	0.505	16384	14408	0	444
-13.704	-6.744	16353	14291	0	444
-18.211	-14.894	16353	14524	0	444
-21.926	-17.851	16384	14757	0	444
-19.654	-15.218	16384	14873	0	444
-15.146	-11.323	16384	14989	0	444
-8.114	-5.229	16384	15105	0	444
-2.452	-2.849	16384	15454	0	444
0.793	-4.039	16415	16036	0	444
-2.849	-6.708	16384	16732	0	444
-11.973	-12.730	16384	17430	0	444
-18.356	-15.759	16415	17779	0	444
-18.211	-17.526	16415	18128	0	444
-13.054	-13.668	16415	18244	0	444
-5.265	-8.655	16415	18244	0	444
-2.633	-7.212	16463	18011	0	444
-6.708	-11.251	16463	18011	0	444
-12.514	-15.146	16463	17779	0	444
-13.956	-20.591	16463	17663	0	444
-13.199	-18.175	16463	17663	0	444
-8.078	-17.129	16463	17779	0	444
-7.321	-16.552	16463	17663	0	444
-11.756	-24.955	16463	17430	0	444
-21.096	-33.177	16463	17081	0	444
-24.919	-40.209	16463	16732	0	444
-26.506	-42.553	16463	16384	0	444
-26.037	-40.750	16463	16152	0	444
-24.666	-38.009	16463	16036	0	444
-23.729	-37.144	16463	16036	0	444
-27.732	-37.036	16463	15803	0	444
-28.561	-36.819	16463	15454	0	444
-28.741	-34.079	16463	15105	0	444
-25.171	-30.292	16463	14757	0	444
-24.125	-27.227	16463	14408	0	444
-24.594	-26.830	16463	14524	0	444
-26.109	-27.912	16463	14640	0	444
-30.617	-31.122	16415	14640	0	444
-34.583	-33.357	16415	14408	0	444
-36.495	-35.124	16415	14408	0	444
-36.675	-35.521	16384	14640	0	444
-36.242	-37.180	16415	15222	0	444
-36.098	-38.803	16463	15803	0	444
-33.538	-38.658	16463	16384	0	444
-30.797	-38.658	16463	16965	0	444
-29.607	-36.783	16463	17081	0	444
-28.381	-34.728	16415	16732	0	444
-27.263	-31.158	16415	16268	0	444
-24.450	-26.866	16415	15803	0	444
-21.385	-22.539	16384	15454	0	444
-17.274	-20.447	16384	15105	0	444
-15.362	-19.401	16384	14640	0	444
-15.326	-20.916	16353	14408	0	444
-16.733	-20.808	16353	14291	0	444
-16.661	-19.762	16353	14291	0	444
-18.644	-17.851	16353	14059	0	444
-17.743	-16.589	16305	13710	0	444
-19.365	-19.834	16353	13361	0	444
-22.791	-19.618	16305	13129	0	444
-23.512	-24.306	16305	13129	0	444
-25.207	-23.585	16353	13245	0	444
-23.008	-21.349	16273	13594	0	444
-15.939	-17.021	16273	14059	0	444
-7.645	-10.746	16273	14640	0	444
-1.803	-6.852	16273	15338	0	444
0.433	-5.229	16273	15803	0	444
-2.416	-8.727	16273	16268	0	444
-7.862	-13.740	16273	16616	0	444
-10.963	-16.336	16273	17081	0	444
-10.422	-17.995	16273	17197	0	444
-6.311	-14.245	16273	16965	0	444
-0.685	-10.097	16273	16732	0	444
4.364	-4.868	16273	16732	0	444
6.275	-1.875	16273	16849	0	444
3.895	-3.426	16273	16849	0	444
0.793	-6.239	16226	17081	0	444
-1.587	-7.248	16226	17081	0	444
-3.678	-5.698	16273	16849	0	444
-0.072	-3.137	16273	16616	0	444
0.577	-0.902	16273	16616	0	444
1.154	-1.442	16273	16616	0	444
1.587	-2.272	16226	16500	0	444
4.904	-0.252	16226	16500	0	444
8.439	4.255	16226	16500	0	444
10.242	7.068	16226	16500	0	444
9.016	6.022	16226	16384	0	444
6.744	4.977	16226	16384	0	444
8.294	7.465	16194	16384	0	444
14.497	15.759	16194	16384	0	444
24.198	24.775	16194	16616	0	444
31.879	33.898	16194	16849	0	444
37.036	39.632	16194	17314	0	444
38.514	41.039	16273	17663	0	444
39.740	39.921	16305	18128	0	444
38.767	39.993	16273	18709	0	444
37.072	37.865	16305	19290	0	444
35.774	36.747	16305	19639	0	444
35.774	37.216	16305	19872	0	444
37.541	37.937	16305	19988	0	444
36.747	35.810	16353	19988	0	444
31.879	31.554	16353	19988	0	444
24.702	25.243	16353	19639	0	444
18.067	19.257	16353	19058	0	444
15.002	14.713	16353	18709	0	444
14.677	12.045	16353	18593	0	444
15.975	14.208	16353	18593	1	484
17.202	13.992	16384	18593	0	484
15.290	17.418	16384	18709	0	484
16.408	18.680	16384	18825	0	484
18.680	21.168	16415	18825	0	484
24.558	24.089	16415	18593	0	484
30.761	28.128	16415	18011	0	484
33.718	30.148	16384	17314	0	484
36.531	30.436	16384	16732	0	484
32.456	26.181	16384	16384	0	484
25.532	20.087	16384	16268	0	484
17.779	17.129	16384	15803	0	484
10.891	16.264	16384	15338	0	484
12.009	23.044	16384	14989	0	484
19.293	29.463	16384	14873	0	484
30.256	32.816	16384	14989	0	484
34.547	31.662	16384	15222	0	484
29.391	24.450	16384	15338	0	484
17.598	19.185	16384	15338	0	484
10.999	14.208	16384	15338	0	484
9.917	15.903	16384	15222	0	484
15.435	15.507	16384	15338	0	484
18.500	16.336	16384	15687	0	484
15.002	13.776	16415	16268	0	484
10.963	9.340	16415	17081	0	484
7.176	10.061	16463	17779	0	484
6.780	11.900	16463	18128	0	484
8.619	11.323	16495	18477	0	484
5.265	10.494	16495	18825	0	484
0.180	4.291	16542	19058	0	484
-2.596	-1.298	16495	18942	0	484
-0.361	-1.262	16542	18709	0	484
5.373	4.472	16542	18244	0	484
9.953	11.432	16495	17663	0	484
9.196	11.612	16495	17197	0	484
5.121	8.979	16495	17197	0	484
-0.433	2.957	16542	17197	0	484
-0.757	-1.334	16542	16849	0	484
2.993	-0.288	16542	16616	0	484
8.150	1.731	16542	16384	0	484
9.629	5.085	16542	16384	0	484
9.232	2.813	16542	16152	0	484
4.255	-0.433	16542	15919	0	484
-2.380	-6.671	16542	15571	0	484
-10.638	-13.235	16542	15338	0	484
-16.697	-19.690	16542	14989	0	484
-17.021	-19.149	16542	14757	0	484
-16.120	-17.851	16542	14757	0	484
-10.927	-13.343	16495	14757	0	484
-10.206	-12.982	16495	14640	0	484
-14.569	-16.805	16495	14524	0	484
-20.050	-21.024	16495	14524	0	484
-25.099	-26.506	16495	14640	0	484
-27.227	-26.614	16495	14524	0	484
-25.604	-26.614	16495	14175	0	484
-26.073	-22.575	16463	13826	0	484
-28.164	-23.657	16463	13478	0	484
-28.705	-24.378	16463	13361	0	484
-31.230	-26.397	16463	13361	0	484
-31.951	-30.833	16415	13361	0	484
-34.079	-37.360	16415	13478	0	484
-38.262	-42.012	16415	13826	0	484
-40.642	-43.347	16415	14175	0	484
-40.966	-42.337	16415	14291	0	484
-35.665	-36.711	16415	14291	0	484
-30.472	-31.374	16415	14524	0	484
-26.974	-31.085	16415	14640	0	484
-29.427	-33.682	16384	14640	0	484
-32.925	-36.964	16384	14408	0	484
-33.393	-37.360	16384	14291	0	484
-30.148	-32.239	16353	14291	0	484
-25.893	-26.073	16353	14757	0	484
-24.991	-24.594	16353	15222	0	484
-26.722	-27.587	16353	15571	0	484
-30.364	-30.508	16353	15687	0	484
-28.489	-32.672	16353	15803	0	484
-20.411	-24.234	16353	16036	0	484
-9.953	-14.894	16353	16384	0	484
-2.524	-4.796	16353	16732	0	484
0.252	-1.190	16353	17197	0	484
-1.947	-0.433	16384	17895	0	484
-2.128	-2.128	16384	18709	0	484
-2.705	-1.695	16384	19523	0	484
-1.515	-2.416	16415	20221	0	484
-0.036	-2.705	16415	20570	0	484
0.108	-3.173	16463	20918	0	484
-1.010	-4.003	16463	21267	0	484
-2.019	-3.678	16495	21616	0	484
-4.075	-4.075	16495	21616	0	484
-9.232	-6.239	16542	21267	0	484
-10.746	-7.789	16542	21151	0	484
-12.189	-10.278	16495	20918	0	484
-9.340	-11.251	16542	20453	0	484
-7.285	-9.592	16542	19523	1	372
-9.088	-11.756	16495	18709	0	372
-13.235	-13.704	16495	18128	0	372
-16.012	-14.172	16495	17546	0	372
-16.408	-14.100	16495	16965	0	372
-14.605	-10.927	16495	16616	0	372
-8.186	-6.888	16495	16384	0	372
-7.429	-4.075	16495	15919	0	372
-6.022	-3.065	16495	15338	0	372
-5.590	-3.065	16495	14757	0	372
-3.678	-2.741	16495	14408	0	372
-3.029	-3.642	16495	14059	0	372
-1.370	-4.940	16463	13943	0	372
-0.793	-5.301	16463	14059	0	372
-0.036	-6.347	16495	14291	0	372
1.479	-5.121	16463	14408	0	372
2.885	-3.498	16463	14291	0	372
3.859	-1.442	16463	14291	0	372
1.983	-0.505	16463	14291	0	372
-1.587	-2.777	16463	14524	0	372
-3.246	-5.373	16463	14873	0	372
-6.780	-5.878	16495	15454	0	372
-6.563	-4.291	16463	15919	0	372
-7.970	-1.947	16463	15803	0	372
-9.088	-1.839	16463	15454	0	372
-12.009	-5.229	16415	14989	0	372
-17.057	-15.074	16415	14757	0	372
-21.818	-20.627	16415	14524	0	372
-27.155	-26.686	16415	14408	0	372
-28.886	-25.893	16415	14408	0	372
-27.227	-21.745	16415	14757	0	372
-21.204	-16.408	16415	14989	0	372
-12.622	-6.563	16384	15105	0	372
-4.039	2.380	16384	14873	0	372
1.839	9.268	16384	14873	0	372
4.832	14.028	16384	14873	0	372
5.662	17.166	16384	14757	0	372
8.330	17.598	16353	14873	0	372
10.530	19.257	16353	14989	0	372
13.668	20.014	16353	14757	0	372
17.166	24.811	16305	14291	0	372
22.719	29.931	16305	13826	0	372
28.850	37.180	16305	13826	0	372
34.800	41.688	16273	14059	0	372
37.721	42.842	16273	14408	0	372
36.711	39.740	16305	14757	0	372
33.538	36.747	16305	15105	0	372
33.069	37.757	16305	15454	0	372
37.144	40.786	16305	15919	0	372
42.373	44.104	16305	16152	0	372
43.563	41.183	16305	16268	0	372
37.324	34.223	16305	16384	0	372
25.027	27.479	16273	16384	0	372
14.569	22.178	16273	16616	0	372
11.756	25.568	16273	16965	0	372
21.493	33.141	16273	17197	0	372
38.154	40.750	16273	17546	0	372
49.369	46.412	16305	18011	0	372
52.975	47.999	16305	18593	0	372
47.313	49.910	16305	18942	0	372
39.704	50.703	16305	19174	0	372
36.495	49.405	16305	19058	0	372
37.685	49.946	16305	18709	0	372
40.966	46.917	16305	18360	0	372
41.363	42.625	16305	17779	0	372
38.262	37.937	16305	17314	0	372
32.095	34.079	16305	16965	0	372
25.352	30.364	16273	16849	0	372
21.781	30.040	16273	16965	0	372
21.457	31.626	16305	17081	0	372
25.748	34.800	16353	17430	0	372
30.833	36.639	16353	17779	0	372
32.925	37.468	16353	18011	0	372
28.741	37.216	16353	18244	0	372
19.582	34.656	16353	18360	0	372
11.576	31.879	16384	18477	0	372
7.789	26.902	16384	18360	0	372
11.215	23.008	16384	18244	0	372
18.752	21.421	16384	18011	0	372
21.457	20.050	16384	18011	0	372
20.447	22.178	16384	18011	0	372
12.874	23.260	16384	18011	0	372
8.475	22.755	16384	17895	0	372
9.412	21.998	16415	17663	0	372
12.261	18.464	16415	17430	0	372
16.841	16.156	16415	17430	0	372
17.166	12.694	16415	17779	0	372
13.884	14.136	16415	18011	0	372
17.310	16.408	16463	17895	0	372
19.365	22.286	16415	17779	0	372
23.044	25.712	16415	17663	0	372
22.972	28.525	16415	17430	0	372
17.526	26.217	16415	17081	0	372
15.435	25.279	16415	16732	0	372
14.064	23.873	16415	16500	0	372
18.428	25.352	16415	16268	0	372
19.510	29.210	16415	15919	0	372
22.503	29.282	16415	15571	0	372
19.762	26.830	16415	15105	0	372
17.634	21.998	16384	14757	0	372
10.855	18.572	16384	14408	0	372
6.563	14.894	16384	13943	0	372
3.282	13.487	16384	13478	0	372
4.003	9.412	16353	13361	0	372
5.301	3.570	16353	13361	0	372
5.157	1.334	16353	13245	0	372
0.541	5.121	16353	13129	0	372
-3.426	11.432	16305	13129	0	372
-4.436	17.779	16305	13129	0	372
0.144	15.759	16305	13478	0	372
6.780	12.477	16305	14059	0	372
9.629	7.753	16353	14757	0	372
9.124	6.708	16353	15338	0	372
3.354	10.999	16353	15687	0	372
-2.236	13.884	16353	15919	0	372
-2.380	12.045	16353	16152	0	372
4.111	10.097	16353	16384	0	372
10.061	8.294	16384	16732	0	372
10.891	7.501	16384	17081	0	372
4.327	11.684	16384	17314	0	372
-0.325	16.192	16384	17663	0	372
-0.361	18.211	16384	18128	0	372
9.340	19.113	16384	18477	0	372
19.473	15.867	16415	18477	0	372
23.080	13.235	16415	18360	0	372
15.326	9.520	16415	18128	0	372
5.842	8.366	16415	18244	0	372
-1.767	9.016	16415	18593	0	372
-2.344	12.694	16415	18709	0	372
0.036	13.163	16463	18477	0	372
6.419	12.730	16415	18128	0	372
11.648	10.674	16415	17779	0	372
14.028	6.924	16384	17314	0	372
11.540	5.193	16384	16965	0	372
6.275	2.957	16384	16849	0	372
-1.839	3.318	16384	16732	0	372
-1.479	4.832	16384	16500	0	372
5.662	7.248	16384	16268	0	372
14.245	12.045	16384	16036	0	372
22.467	16.480	16384	15803	0	372
21.745	20.050	16384	15687	0	372
19.798	18.824	16384	15454	0	372
17.093	18.392	16384	14989	0	372
16.444	12.514	16353	14640	0	372
11.720	5.085	16353	14640	0	372
3.606	-2.633	16353	14873	0	372
-6.780	-7.429	16353	14757	0	372
-14.172	-7.104	16384	14408	0	372
-14.064	-3.823	16353	14175	0	372
-8.114	0.865	16353	14175	0	372
-6.058	1.695	16353	14291	0	372
-7.789	-1.370	16353	14408	0	372
-12.946	-8.727	16353	14640	0	372
-17.959	-12.622	16353	15222	0	372
-16.733	-13.668	16353	15687	0	372
-7.429	-12.045	16384	15919	0	372
-4.183	-10.097	16353	15803	0	372
-6.347	-11.973	16353	15571	0	372
-15.146	-19.149	16353	15571	0	372
-26.542	-25.712	16305	15571	0	372
-33.538	-32.564	16305	15571	0	372
-33.646	-34.980	16305	15454	0	372
-27.768	-33.249	16305	15571	0	372
-23.693	-29.643	16305	15803	0	372
-24.630	-25.929	16305	16036	0	372
-27.263	-25.316	16305	16152	0	372
-31.590	-22.935	16305	16268	0	372
-31.049	-24.486	16305	16384	0	372
-24.378	-22.322	16305	16616	0	372
-15.903	-20.195	16305	16732	0	372
-13.379	-20.664	16305	16849	0	372
-15.975	-22.972	16305	17197	0	372
-23.549	-25.568	16305	17663	0	372
-24.125	-25.135	16305	18011	0	372
-19.293	-21.637	16305	18360	0	372
-13.992	-18.933	16353	18709	0	372
-10.891	-16.156	16353	18942	0	372
-11.360	-17.923	16353	19174	0	372
-15.831	-19.041	16384	19290	0	372
-14.858	-17.057	16384	19523	0	372
-9.737	-16.264	16384	19639	0	372
-5.373	-14.497	16384	19523	0	372
-3.029	-11.107	16384	19290	0	372
-2.092	-10.602	16415	19058	0	372
-1.803	-7.140	16415	18942	0	372
0.433	-3.354	16415	18709	1	740
0.180	-2.813	16415	18360	0	740
-2.200	-5.445	16415	17663	0	740
-7.645	-11.540	16415	16732	0	740
-12.910	-15.507	16384	16152	0	740
-15.326	-16.444	16384	15571	0	740
-8.979	-15.002	16384	15105	0	740
-3.354	-7.393	16353	14524	0	740
0.361	-3.282	16353	14059	0	740
-0.325	-2.596	16353	13710	0	740
-7.825	-5.445	16353	13594	0	740
-12.369	-8.835	16305	13478	0	740
-14.172	-13.740	16305	13245	0	740
-13.127	-15.362	16305	13245	0	740
-10.819	-16.913	16305	13478	0	740
-13.271	-15.795	16305	13826	0	740
-20.519	-15.615	16305	14175	0	740
-22.827	-11.540	16305	14524	0	740
-20.231	-8.871	16353	14989	0	740
-9.232	-2.921	16353	15454	0	740
-1.947	-0.685	16353	15919	0	740
-2.056	-2.705	16353	16036	0	740
-9.737	-5.157	16353	16036	0	740
-16.913	-5.914	16353	16152	0	740
-15.182	-3.498	16353	16500	0	740
-4.472	2.849	16353	16965	0	740
6.347	9.196	16353	17314	0	740
9.160	12.730	16353	17663	0	740
5.806	12.297	16353	17779	0	740
0.721	13.704	16384	17779	0	740
1.659	12.910	16384	17779	0	740
8.835	16.769	16384	17663	0	740
15.182	18.356	16384	17546	0	740
19.401	22.539	16384	17663	0	740
20.988	24.378	16384	17779	0	740
22.611	25.352	16384	17663	0	740
23.260	27.119	16384	17546	0	740
23.404	23.512	16384	17546	0	740
23.260	23.296	16384	17663	0	740
20.014	24.739	16384	17663	0	740
21.745	23.729	16384	17663	0	740
24.017	25.820	16415	17546	0	740
25.027	25.676	16415	17779	0	740
21.709	25.135	16415	18128	0	740
16.084	25.099	16415	18360	0	740
18.139	26.470	16463	18360	0	740
24.630	31.410	16463	18244	0	740
33.862	32.348	16463	18360	0	740
37.649	32.925	16463	18477	0	740
31.771	31.518	16463	18477	0	740
22.322	30.040	16463	18477	0	740
19.942	31.735	16463	18011	0	740
23.945	35.557	16463	17430	0	740
32.600	37.505	16463	16732	0	740
36.351	37.108	16463	16384	0	740
30.653	35.737	16463	16384	0	740
24.919	34.728	16463	16384	0	740
23.512	36.567	16463	16384	0	740
27.299	38.406	16463	16152	0	740
32.384	35.413	16463	15454	0	740
31.085	30.256	16415	14757	0	740
25.820	24.450	16415	13943	0	740
17.743	21.962	16415	13361	0	740
14.281	22.935	16384	13012	0	740
13.848	24.702	16384	12780	0	740
16.372	22.286	16384	12547	0	740
12.946	19.293	16353	12315	0	740
7.501	12.081	16353	12082	0	740
3.931	8.078	16353	12315	0	740
3.426	7.176	16353	12896	0	740
6.708	6.058	16353	13710	0	740
10.242	4.832	16353	14291	0	740
10.242	3.714	16353	14873	0	740
5.842	2.524	16353	15454	0	740
1.767	1.262	16353	16036	0	740
-0.216	3.101	16353	16384	0	740
2.560	4.003	16353	16500	0	740
7.825	8.511	16353	16500	0	740
12.730	12.694	16353	16500	0	740
18.933	15.471	16353	16732	0	740
18.572	19.582	16384	17081	0	740
13.451	15.759	16384	17430	0	740
5.085	11.973	16384	17430	0	740
-3.246	7.789	16384	17197	0	740
-2.669	5.337	16384	16965	0	740
0.829	7.140	16353	16732	0	740
5.517	5.950	16353	16384	0	740
5.554	6.924	16353	16036	0	740
1.442	4.832	16353	15571	0	740
-0.865	1.046	16305	15222	0	740
1.587	-0.433	16305	14989	0	740
6.167	-1.659	16305	14873	0	740
8.763	-2.596	16305	14989	0	740
4.832	-4.760	16353	15571	0	740
-0.938	-5.013	16353	16268	0	740
-4.327	-5.445	16353	16849	0	740
-5.409	-6.347	16384	17546	0	740
-3.967	-6.996	16384	18128	0	740
-5.950	-9.196	16384	18477	0	740
-7.789	-9.701	16384	18942	0	740
-7.573	-10.278	16415	19058	0	740
-4.652	-8.114	16415	19174	0	740
-1.839	-6.599	16415	19058	0	740
-3.462	-9.881	16415	18709	0	740
-11.937	-18.536	16384	18360	0	740
-24.594	-25.099	16384	18128	0	740
-32.708	-31.158	16384	18011	0	740
-32.997	-31.699	16384	18011	0	740
-28.489	-29.318	16415	18244	0	740
-21.313	-25.893	16415	18244	0	740
-23.152	-26.542	16415	18011	0	740
-30.689	-31.771	16415	17430	0	740
-42.084	-34.115	16415	16732	0	740
-46.087	-36.531	16384	16152	0	740
-41.688	-34.295	16384	15454	0	740
-34.043	-30.617	16384	14873	0	740
-28.669	-27.948	16353	14524	0	740
-30.653	-29.354	16353	14175	0	740
-31.699	-27.479	16353	14059	0	740
-27.948	-22.935	16353	14175	0	740
-17.670	-18.428	16353	14175	0	740
-10.133	-11.432	16305	14291	0	740
-7.970	-12.441	16353	14175	0	740
-10.206	-14.425	16353	13943	0	740
-14.028	-12.910	16353	13826	0	740
-10.783	-9.773	16305	13826	0	740
-5.193	-4.003	16305	14059	0	740
-2.344	1.839	16305	14408	0	740
-2.092	2.849	16305	14757	0	740
-3.065	1.767	16305	15105	0	740
-2.560	0.072	16305	15338	0	740
0.902	-1.262	16305	15803	0	740
4.580	-1.082	16353	16500	0	740
4.400	-0.144	16353	17314	0	740
3.859	0.757	16353	18011	0	740
2.813	0.108	16384	18709	0	740
2.056	-2.380	16384	19290	0	740
2.921	-3.859	16415	19756	0	740
1.659	-1.334	16415	20104	0	740
-0.938	4.327	16415	20104	0	740
-0.216	11.360	16415	19756	0	740
3.390	15.579	16415	19290	0	740
10.638	19.690	16415	18709	0	740
18.933	19.473	16415	18128	0	740
22.863	18.428	16415	17663	1	576
23.152	20.772	16415	17314	0	576
20.519	18.608	16415	17197	0	576
21.096	19.798	16415	17197	0	576
22.647	19.257	16415	16849	0	576
25.243	23.332	16415	16384	0	576
26.433	22.791	16415	16036	0	576
21.854	21.962	16415	15687	0	576
15.074	21.421	16415	15454	0	576
15.182	18.969	16384	15222	0	576
18.572	21.204	16384	14989	0	576
26.217	22.863	16384	14757	0	576
30.004	24.342	16384	14524	0	576
26.145	24.306	16384	14408	0	576
18.752	19.437	16384	14640	0	576
10.350	17.454	16384	14757	0	576
9.232	16.769	16353	14640	0	576
14.028	14.136	16353	14291	0	576
17.887	13.848	16353	13826	0	576
22.575	12.838	16305	13594	0	576
23.801	11.828	16305	13710	0	576
21.457	11.468	16305	14059	0	576
17.815	15.218	16305	14640	0	576
10.783	16.480	16305	15338	0	576
7.321	20.627	16305	15803	0	576
7.032	23.621	16305	15919	0	576
11.179	24.739	16305	15803	0	576
15.507	25.748	16305	15687	0	576
18.752	23.945	16305	15687	0	576
15.795	22.178	16305	15919	0	576
14.425	23.404	16305	16268	0	576
12.477	22.683	16305	16616	0	576
13.343	20.916	16305	16965	0	576
12.838	19.582	16305	17430	0	576
9.412	13.956	16305	17895	0	576
5.013	11.864	16353	18011	0	576
0.433	12.730	16353	18128	0	576
1.298	14.028	16353	17895	0	576
8.150	18.428	16305	17663	0	576
14.425	18.644	16305	17546	0	576
15.867	17.634	16353	17546	0	576
11.937	11.648	16353	17663	0	576
2.092	8.439	16353	17779	0	576
-2.380	7.537	16353	17779	0	576
1.154	9.520	16353	17430	0	576
6.131	12.153	16305	16965	0	576
8.943	13.054	16305	16616	0	576
7.862	10.386	16305	16384	0	576
2.849	6.671	16353	16268	0	576
1.262	7.357	16353	16036	0	576
6.491	10.783	16353	15919	0	576
13.523	16.228	16353	15919	0	576
19.834	19.834	16353	15803	0	576
20.988	22.034	16353	15803	0	576
20.591	25.352	16384	15919	0	576
16.805	25.640	16305	15919	0	576
19.870	28.237	16305	15919	0	576
23.296	31.122	16353	16268	0	576
29.931	29.282	16353	16732	0	576
29.823	25.424	16353	17314	0	576
24.558	19.978	16353	17779	0	576
13.956	14.785	16384	17895	0	576
5.590	8.619	16384	17895	0	576
3.787	7.285	16384	17779	0	576
8.475	9.629	16384	17895	0	576
11.828	12.369	16384	18128	0	576
8.979	9.881	16415	18477	0	576
3.029	6.419	16415	18593	0	576
-5.986	1.334	16415	18709	0	576
-8.114	-0.649	16415	18825	0	576
-5.950	2.560	16463	18825	0	576
-1.370	5.157	16463	18942	0	576
0.288	4.364	16415	19174	0	576
-0.865	-0.288	16495	19174	0	576
-2.092	-5.950	16495	18942	0	576
-5.301	-8.727	16495	18593	0	576
-5.373	-9.592	16463	18128	0	576
-8.006	-10.458	16463	17663	0	576
-9.917	-10.927	16463	16849	0	576
-13.920	-10.422	16463	15919	0	576
-15.543	-12.009	16415	14989	0	576
-19.618	-16.048	16415	14291	0	576
-21.457	-20.700	16415	13826	0	576
-27.335	-28.814	16384	13594	0	576
-31.843	-35.449	16384	13478	0	576
-33.718	-36.639	16384	13361	0	576
-33.826	-35.124	16384	13129	0	576
-31.554	-31.554	16353	12896	0	576
-30.256	-27.551	16353	12780	0	576
-32.636	-25.893	16353	12780	0	576
-32.672	-24.739	16353	13012	0	576
-30.328	-25.135	16353	13594	0	576
-26.506	-23.981	16353	14059	0	576
-21.060	-20.664	16353	14291	0	576
-18.644	-20.483	16353	14175	0	576
-19.546	-19.870	16305	14175	0	576
-17.382	-18.031	16305	14408	0	576
-15.867	-18.464	16305	14640	0	576
-11.504	-15.867	16353	14757	0	576
-11.468	-15.579	16353	14873	0	576
-14.317	-14.389	16353	14757	0	576
-16.228	-10.710	16305	14640	0	576
-18.464	-10.674	16305	14757	0	576
-16.372	-8.294	16353	15105	0	576
-13.704	-6.203	16305	15571	0	576
-11.035	-5.013	16305	16268	0	576
-9.016	-6.527	16353	17081	0	576
-10.025	-5.265	16353	17779	0	576
-13.271	-9.016	16353	18360	0	576
-18.139	-12.838	16353	18593	0	576
-23.765	-16.156	16353	18477	0	576
-23.729	-16.552	16353	18128	0	576
-19.077	-11.432	16353	18011	0	576
-15.038	-9.268	16353	18244	0	576
-11.035	-5.770	16384	18477	0	576
-12.802	-3.173	16384	18593	0	576
-10.963	-3.823	16384	18360	0	576
-10.855	-5.698	16384	18011	0	576
-13.920	-7.970	16384	17663	0	576
-22.322	-14.353	16353	17197	0	576
-32.853	-18.716	16353	16849	0	576
-38.226	-20.447	16353	16732	0	576
-30.508	-12.730	16353	16849	0	576
-11.396	-3.787	16384	17081	0	576
2.128	3.787	16384	17546	0	576
5.265	2.849	16384	17663	0	576
-2.633	1.695	16384	17779	0	576
-14.930	-1.947	16384	17779	0	576
-16.048	-0.505	16384	17663	0	576
-5.950	3.101	16384	17197	0	576
3.823	7.248	16384	16965	0	576
11.143	7.717	16384	16965	0	576
6.635	6.708	16384	17081	0	576
-4.472	5.409	16384	17081	0	576
-9.376	3.282	16415	17081	0	576
-9.809	1.226	16415	16965	0	576
-2.705	1.623	16415	16965	0	576
6.527	4.868	16415	16732	0	576
15.471	9.448	16415	16384	0	576
18.933	13.163	16384	15803	0	576
19.618	15.975	16384	14989	0	576
14.389	17.274	16384	14524	0	576
9.124	16.228	16353	14291	0	576
7.717	20.231	16353	14291	0	576
11.937	23.801	16353	14524	0	576
19.582	27.804	16353	14989	0	576
26.794	30.400	16353	15571	0	576
28.669	29.751	16384	15803	0	576
25.640	28.886	16384	16036	0	576
21.204	28.164	16384	16384	0	576
19.293	29.643	16384	16500	0	576
19.473	32.203	16384	16732	0	576
22.683	34.187	16384	16732	0	576
25.424	33.393	16384	16732	0	576
23.368	29.138	16384	16965	0	576
18.824	25.929	16384	17197	0	576
13.451	22.863	16415	17197	0	576
15.146	23.873	16415	17081	0	576
20.447	28.850	16415	16965	0	576
28.273	32.203	16415	17197	0	576
30.004	33.862	16415	17314	0	576
24.811	30.617	16415	17314	0	576
17.526	28.417	16415	17197	0	576
16.877	27.551	16415	16965	0	576
22.647	30.941	16415	16616	0	576
32.853	34.439	16415	16384	0	576
39.885	35.233	16415	16268	0	576
39.019	32.023	16415	16152	0	576
31.410	26.614	16415	16036	0	576
22.106	20.844	16415	15919	0	576
16.336	20.519	16415	15919	0	576
19.582	24.450	16415	16036	0	576
28.345	28.561	16415	15803	0	576
36.928	32.816	16384	15454	0	576
39.019	33.069	16384	14989	0	576
33.466	28.237	16384	14757	0	576
23.224	24.162	16384	14640	0	576
16.949	21.493	16353	14524	0	576
20.664	21.204	16353	14757	0	576
24.919	24.053	16384	15105	0	576
27.660	22.467	16384	15687	0	576
23.260	20.627	16384	16268	0	576
13.487	15.867	16384	16500	0	576
10.242	16.913	16384	16500	0	576
14.677	19.041	16384	16500	0	576
20.772	25.171	16384	16849	0	576
24.089	28.814	16384	16965	0	576
19.293	24.739	16384	17081	0	576
6.203	14.569	16384	17081	0	576
-3.426	5.698	16384	17081	0	576
-8.330	-1.298	16384	17081	0	576
-7.609	-3.246	16384	16732	0	576
-5.121	-1.226	16384	16384	0	576
-2.524	0.361	16384	15687	0	576
-2.236	-0.036	16353	14989	0	576
-2.164	-4.147	16353	14175	0	576
-5.265	-7.681	16305	13478	0	576
-11.071	-13.559	16273	12896	0	576
-15.615	-19.005	16273	12780	0	576
-24.450	-23.801	16273	13012	0	576
-25.388	-25.929	16273	13478	0	576
-21.349	-24.594	16273	13943	0	576
-18.860	-24.162	16226	14291	0	576
-17.418	-25.965	16226	14640	0	576
-23.657	-27.948	16226	15105	0	576
-27.624	-29.715	16226	15571	0	576
-27.732	-26.758	16226	16036	0	576
-22.431	-21.781	16226	16268	0	576
-15.218	-14.785	16226	16384	0	576
-14.497	-15.939	16273	16500	0	576
-15.471	-15.867	16273	16616	0	576
-17.346	-18.283	16273	16849	0	576
-14.028	-14.641	16273	17197	0	576
-12.550	-13.848	16273	17663	0	576
-12.514	-14.136	16273	18128	0	576
-14.461	-14.605	16305	18360	0	576
-18.716	-17.598	16305	18244	0	576
-17.526	-17.418	16273	18011	0	576
-18.356	-19.041	16273	17895	0	576
-19.978	-20.952	16273	17895	0	576
-25.171	-27.660	16273	17779	1	880
-30.004	-32.312	16273	17895	0	880
-32.384	-31.662	16305	18011	0	880
-33.033	-26.722	16305	18128	0	880
-29.427	-18.464	16305	18360	0	880
-26.974	-12.874	16305	18593	0	880
-24.594	-10.458	16353	18942	0	880
-21.349	-12.333	16353	19058	0	880
-16.228	-14.245	16353	19058	0	880
-13.704	-12.117	16353	18825	0	880
-9.304	-11.756	16353	18477	0	880
-7.032	-10.097	16353	18244	0	880
-10.097	-11.251	16353	18011	0	880
-10.674	-12.514	16353	17779	0	880
-11.540	-11.828	16353	17314	0	880
-9.340	-8.078	16353	16965	0	880
-5.878	-4.616	16353	17081	0	880
-2.380	-1.298	16353	17314	0	880
-1.695	-0.649	16384	17314	0	880
-4.075	-3.859	16384	17314	0	880
-6.563	-7.212	16384	17197	0	880
-8.871	-10.927	16384	17081	0	880
-11.107	-11.648	16384	17081	0	880
-10.422	-12.081	16384	16965	0	880
-10.891	-13.415	16384	16732	0	880
-13.307	-14.894	16384	16616	0	880
-15.759	-20.844	16384	16616	0	880
-15.074	-20.916	16415	16616	0	880
-14.677	-19.906	16415	16616	0	880
-9.340	-13.127	16415	16732	0	880
-5.517	-6.888	16415	16965	0	880
-1.226	-1.659	16463	17430	0	880
-0.072	2.849	16463	18011	0	880
0.757	5.013	16495	18477	0	880
1.046	3.823	16495	18825	0	880
-3.282	3.498	16495	18825	0	880
-8.330	2.344	16542	18593	0	880
-10.350	2.344	16542	18244	0	880
-4.255	10.819	16542	17895	0	880
4.724	18.608	16542	17895	0	880
15.326	27.515	16574	18128	0	880
20.303	32.131	16574	18244	0	880
19.005	32.853	16622	18128	0	880
18.283	31.554	16622	17895	0	880
19.834	30.941	16622	17314	0	880
26.073	33.718	16574	16732	0	880
32.059	34.115	16574	16268	0	880
31.879	34.295	16574	15571	0	880
26.902	30.292	16542	14757	0	880
20.195	26.217	16542	14059	0	880
16.552	20.050	16542	13594	0	880
17.057	19.870	16542	13245	0	880
24.378	23.116	16495	12896	0	880
31.951	26.037	16495	12780	0	880
32.925	27.876	16495	12780	0	880
28.994	27.083	16495	12664	0	880
23.476	23.873	16463	12315	0	880
18.969	21.241	16415	11966	0	880
21.493	25.279	16463	11617	0	880
26.614	26.109	16415	11501	0	880
30.040	27.479	16415	11617	0	880
28.669	23.188	16415	11733	0	880
22.395	19.221	16384	11733	0	880
17.418	13.199	16384	11966	0	880
12.802	13.956	16384	12198	0	880
16.120	18.067	16353	12547	0	880
19.221	21.349	16353	12896	0	880
23.837	23.549	16353	13245	0	880
21.962	23.512	16353	13594	0	880
18.933	19.041	16353	14291	0	880
14.245	15.939	16353	15222	0	880
15.038	15.074	16384	16152	0	880
18.175	18.139	16384	16965	0	880
24.594	21.673	16384	17895	0	880
29.427	26.361	16384	18825	0	880
29.859	30.869	16384	19407	0	880
29.463	31.554	16415	19988	0	880
26.325	32.420	16463	20453	0	880
22.647	28.994	16463	20802	0	880
17.995	24.522	16463	20918	0	880
18.500	22.034	16463	20918	0	880
18.644	18.175	16463	20570	0	880
21.204	19.762	16463	20221	0	880
20.339	21.493	16463	19988	0	880
14.858	20.483	16463	19756	0	880
7.717	19.473	16463	19523	1	340
2.488	15.254	16463	19290	0	340
-0.613	13.848	16495	19058	0	340
-0.865	12.766	16495	18825	0	340
1.479	16.697	16495	18709	0	340
5.445	18.428	16495	18593	0	340
8.511	21.565	16542	18709	0	340
9.809	17.598	16542	18942	0	340
6.131	12.658	16542	19058	0	340
-1.515	7.573	16574	19174	0	340
-8.042	2.849	16574	19058	0	340
-6.996	5.265	16574	18709	0	340
0.288	7.645	16574	17895	0	340
9.448	11.937	16542	17197	0	340
14.425	13.271	16542	16500	0	340
13.235	11.287	16542	16036	0	340
7.898	9.520	16542	15571	0	340
4.616	7.898	16542	14989	0	340
6.022	6.960	16542	14408	0	340
12.117	10.025	16495	13594	0	340
14.281	11.720	16495	12780	0	340
14.353	12.622	16463	11966	0	340
8.979	9.556	16463	11384	0	340
2.813	8.943	16415	11036	0	340
3.426	8.006	16415	10919	0	340
7.609	11.215	16384	11152	0	340
13.018	15.759	16384	11268	0	340
18.139	17.598	16384	11617	0	340
12.694	12.730	16384	12198	0	340
6.419	6.744	16384	12780	0	340
1.190	2.056	16384	13129	0	340
3.065	2.849	16384	13478	0	340
13.271	7.032	16353	13478	0	340
23.945	13.595	16353	13361	0	340
29.030	17.670	16353	13361	0	340
23.837	16.985	16305	13594	0	340
17.382	18.031	16305	13826	0	340
10.891	16.625	16305	13943	0	340
12.153	18.752	16273	13826	0	340
19.473	19.618	16273	13826	0	340
21.709	21.132	16226	13826	0	340
19.005	16.805	16226	14059	0	340
12.802	15.903	16226	14640	0	340
10.350	12.766	16226	15454	0	340
11.179	17.021	16226	16036	0	340
17.851	19.257	16226	16616	0	340
18.788	21.529	16273	17546	0	340
15.398	18.175	16305	18360	0	340
7.717	12.622	16305	19058	0	340
1.010	6.960	16305	19639	0	340
0.433	3.967	16353	20104	0	340
1.190	3.931	16353	20453	0	340
2.524	3.029	16353	20802	0	340
3.101	4.075	16384	21035	0	340
1.298	3.823	16384	21151	0	340
-2.019	2.092	16384	21035	0	340
-4.796	1.262	16384	20686	0	340
-5.481	1.479	16384	20453	0	340
-0.721	1.983	16384	20221	0	340
4.544	3.787	16415	20221	0	340
6.203	3.498	16415	20337	0	340
3.967	0.433	16463	20570	0	340
-3.859	-6.094	16463	20570	0	340
-12.333	-9.881	16463	20104	0	340
-13.127	-9.556	16463	19290	0	340
-11.323	-8.114	16463	18709	0	340
-6.635	-5.157	16463	18360	0	340
-8.583	-5.878	16463	18128	0	340
-10.783	-9.881	16415	17779	0	340
-15.435	-14.461	16415	17430	0	340
-17.057	-17.598	16463	17314	0	340
-15.795	-18.283	16463	17081	0	340
-15.579	-19.077	16463	16849	0	340
-16.336	-21.529	16463	16616	0	340
-22.250	-20.880	16463	16384	0	340
-29.499	-22.178	16463	15919	0	340
-33.285	-18.860	16463	15338	0	340
-30.545	-16.048	16415	14873	0	340
-23.296	-12.369	16415	14640	0	340
-17.202	-14.136	16463	14757	1	316
-15.867	-18.572	16463	14873	0	316
-24.739	-27.083	16415	14873	0	316
-37.432	-34.836	16415	14524	0	316
-46.232	-41.724	16415	14524	0	316
-48.467	-46.195	16415	14640	0	316
-44.464	-45.402	16415	14873	0	316
-42.770	-43.347	16463	15105	0	316
-42.229	-38.082	16463	15222	0	316
-44.356	-35.485	16415	14989	0	316
-44.068	-32.167	16415	14873	0	316
-38.983	-30.040	16415	15105	0	316
-34.187	-27.624	16463	15571	0	316
-28.597	-24.270	16463	16268	0	316
-28.886	-19.005	16463	16732	0	316
-29.968	-16.408	16463	16965	0	316
-29.823	-15.182	16463	16849	0	316
-25.243	-13.992	16495	16616	0	316
-20.555	-12.946	16463	16616	0	316
-16.841	-11.864	16495	16732	0	316
-12.045	-8.691	16495	16849	0	316
-7.825	-3.606	16495	16965	0	316
-0.685	1.947	16463	16849	0	316
4.147	4.364	16463	16500	0	316
5.445	2.705	16463	16268	0	316
-1.406	-0.757	16463	16384	0	316
-9.268	-2.777	16463	16616	0	316
-10.855	-2.669	16495	16849	0	316
-5.806	2.669	16495	16965	0	316
4.219	8.655	16495	17081	0	316
10.891	11.828	16495	17197	0	316
9.052	12.586	16495	17314	0	316
3.534	11.432	16495	17197	0	316
-2.200	8.042	16495	16849	0	316
-1.587	7.789	16495	16384	0	316
4.111	7.970	16495	16152	0	316
8.655	10.061	16495	15803	0	316
10.999	12.081	16495	15454	0	316
8.006	12.658	16495	14989	0	316
4.219	13.127	16463	14408	0	316
6.022	13.595	16463	13943	0	316
11.432	15.290	16463	13594	0	316
17.129	17.959	16415	13245	0	316
17.562	17.706	16415	13129	0	316
14.821	17.851	16415	13012	0	316
10.494	15.182	16353	12780	0	316
11.107	16.048	16384	12664	0	316
19.654	17.670	16384	12896	0	316
27.119	24.739	16353	13012	0	316
30.400	29.607	16353	12896	0	316
26.578	30.833	16305	12780	0	316
21.241	27.660	16305	12896	0	316
15.651	21.818	16305	13245	0	316
16.300	19.906	16305	13594	0	316
16.480	18.897	16273	13943	0	316
20.014	23.224	16273	14291	0	316
20.736	25.929	16273	14873	0	316
26.001	28.814	16273	15338	0	316
29.463	29.895	16273	15919	0	316
32.780	29.859	16273	16384	0	316
31.446	27.227	16273	16965	0	316
25.352	21.457	16273	17430	0	316
19.510	17.454	16273	17663	0	316
14.749	17.310	16305	17895	0	316
16.552	18.860	16305	18128	0	316
18.788	23.945	16305	18477	0	316
20.772	24.162	16305	18942	0	316
20.447	22.719	16305	19174	0	316
16.048	19.510	16305	19174	0	316
14.100	18.356	16305	18942	0	316
14.208	19.582	16305	18593	0	316
12.658	20.483	16305	18360	0	316
13.668	20.664	16305	18360	0	316
11.792	17.166	16353	18477	0	316
8.114	13.163	16353	18593	0	316
5.626	6.816	16353	18477	0	316
1.334	2.669	16353	18244	0	316
-0.974	-1.803	16353	18128	0	316
-2.921	-3.823	16353	18011	0	316
-1.334	-2.669	16353	17779	0	316
1.947	1.515	16384	17546	0	316
6.599	6.491	16353	17546	0	316
9.304	9.629	16353	17430	0	316
9.232	10.350	16353	17314	0	316
5.517	7.212	16353	17081	0	316
-0.397	-1.226	16353	16732	0	316
-4.760	-7.753	16353	16268	0	316
-11.432	-11.684	16353	15919	0	316
-14.172	-14.281	16353	15919	0	316
-13.559	-8.799	16353	16268	0	316
-9.052	-0.108	16353	16500	0	316
-1.695	4.039	16353	16732	0	316
6.167	5.085	16384	16965	0	316
7.176	1.406	16384	17081	0	316
2.813	-4.364	16384	17081	0	316
-3.750	-9.773	16384	16965	0	316
-7.717	-7.825	16384	16732	0	316
-8.330	-6.094	16384	16500	0	316
-4.652	-0.613	16384	16268	0	316
-1.154	2.236	16384	16268	0	316
-0.577	2.452	16384	16384	0	316
-2.957	-0.433	16384	16384	0	316
-7.285	-5.481	16353	16152	0	316
-15.435	-14.208	16353	16036	0	316
-19.185	-17.562	16353	16036	0	316
-22.467	-19.510	16384	16268	0	316
-19.185	-13.559	16384	16384	0	316
-14.966	-7.285	16384	16268	0	316
-11.179	-3.354	16384	16268	0	316
-13.812	-4.436	16384	16384	0	316
-20.267	-11.071	16384	16500	0	316
-26.397	-16.372	16384	16849	0	316
-28.994	-20.736	16384	17314	0	316
-26.866	-19.041	16415	17779	0	316
-24.017	-18.933	16415	17895	0	316
-22.358	-18.067	16415	18011	0	316
-23.224	-19.978	16415	18244	0	316
-25.460	-20.627	16463	18360	0	316
-25.965	-17.490	16463	18360	0	316
-23.476	-14.317	16463	18360	0	316
-22.142	-10.458	16463	18128	0	316
-20.844	-7.501	16463	17779	0	316
-18.788	-9.232	16415	17546	0	316
-17.851	-12.369	16495	17314	0	316
-14.461	-12.153	16495	17197	0	316
-13.091	-11.035	16495	17081	0	316
-14.317	-9.340	16463	17081	0	316
-15.182	-6.094	16463	16965	0	316
-16.444	-1.334	16463	16616	0	316
-11.215	2.200	16463	16036	0	316
-5.517	5.662	16463	15338	0	316
-1.118	5.373	16415	14524	0	316
-2.777	2.200	16415	13943	0	316
-10.602	-2.488	16384	13361	0	316
-14.497	-5.481	16384	12780	0	316
-15.326	-2.416	16353	12198	0	316
-9.845	3.570	16353	11617	0	316
-1.298	7.429	16305	11268	0	316
1.983	10.314	16305	10919	0	316
-0.865	8.655	16273	10454	0	316
-6.924	4.652	16226	10222	0	316
-12.910	-0.036	16226	10338	0	316
-13.884	-3.137	16273	11036	0	316
-9.917	-3.931	16305	11850	0	316
-7.176	-3.823	16226	12664	0	316
-2.777	-2.236	16226	13361	0	316
-2.705	-1.190	16226	13943	0	316
-1.118	0.577	16226	14408	0	316
0.757	0.757	16226	14640	0	316
-0.180	1.515	16194	14640	0	316
-2.236	-0.397	16194	14640	0	316
-7.501	-1.911	16194	14640	0	316
-9.196	-2.669	16146	14873	0	316
-9.629	-2.741	16146	15222	0	316
-7.393	-0.180	16146	15803	0	316
-4.075	2.885	16194	16384	0	316
-0.793	1.082	16194	16965	0	316
0.757	1.983	16194	17314	0	316
-0.397	0.325	16194	17779	0	316
-5.157	-2.380	16194	18128	0	316
-11.179	-2.164	16194	18593	0	316
-14.966	0.613	16194	18942	0	316
-7.212	9.052	16194	19058	0	316
11.684	21.601	16226	19290	0	316
28.741	29.571	16226	19639	0	316
39.704	34.079	16226	20221	0	316
38.370	28.814	16226	20686	0	316
28.777	22.539	16305	20918	0	316
23.224	22.899	16305	21151	0	316
26.470	26.001	16353	21616	0	316
37.180	33.754	16384	22081	0	316
46.015	39.668	16384	22081	0	316
48.648	42.120	16384	21732	0	316
44.609	40.930	16384	21151	0	316
42.697	40.245	16384	20570	0	316
42.193	42.012	16384	20104	0	316
46.304	44.212	16384	19523	1	704
49.766	45.907	16384	19058	0	704
51.136	48.612	16384	18477	0	704
45.835	48.431	16384	18011	0	704
41.832	45.438	16384	17546	0	704
38.550	43.599	16384	17314	0	704
35.413	39.019	16384	17081	0	704
31.951	32.528	16384	16849	0	704
28.345	26.830	16415	16616	0	704
23.837	21.421	16415	16500	0	704
19.401	16.589	16415	16384	0	704
18.644	15.543	16415	16268	0	704
19.690	14.858	16415	16036	0	704
23.044	13.523	16415	15919	0	704
24.342	14.172	16415	15803	0	704
22.250	11.323	16415	15687	0	704
20.519	8.835	16384	15571	0	704
16.841	9.665	16384	15687	0	704
17.815	11.287	16384	15803	0	704
19.437	11.792	16384	15803	0	704
23.801	14.749	16384	15803	0	704
25.604	15.290	16415	15919	0	704
25.460	13.127	16415	15919	0	704
23.368	13.884	16415	15803	0	704
22.611	9.629	16415	15687	0	704
18.969	10.927	16415	15571	0	704
21.349	12.694	16415	15454	0	704
22.863	14.677	16415	15338	0	704
25.243	19.582	16415	15338	0	704
29.102	20.195	16415	15338	0	704
30.292	22.539	16415	15338	0	704
32.492	23.008	16415	15338	0	704
30.833	23.476	16415	15571	0	704
26.506	23.260	16415	15803	0	704
21.781	17.995	16415	16036	0	704
19.726	14.281	16415	16268	0	704
16.012	10.097	16415	16384	0	704
15.651	4.796	16415	16384	0	704
11.576	4.724	16415	16384	0	704
7.825	4.436	16415	16268	0	704
8.511	4.436	16415	16152	0	704
9.953	4.796	16415	16036	0	704
10.602	4.832	16415	15919	0	704
6.094	2.560	16415	15803	0	704
1.839	1.515	16415	15571	0	704
0.613	4.075	16415	15338	0	704
7.970	7.609	16415	14989	0	704
18.644	14.497	16384	14640	0	704
25.712	18.067	16384	14408	0	704
25.532	21.313	16384	13943	0	704
21.529	18.933	16353	13478	0	704
16.480	17.526	16353	13012	0	704
15.254	15.182	16305	12664	0	704
16.841	16.156	16305	12547	0	704
20.627	15.831	16305	12780	0	704
21.421	18.103	16305	13245	0	704
20.916	17.310	16305	13943	0	704
19.582	20.664	16305	14757	0	704
15.867	20.195	16305	15571	0	704
16.625	21.781	16305	16268	0	704
18.139	22.178	16353	16965	0	704
23.549	23.008	16353	17895	0	704
25.496	24.630	16353	18709	0	704
22.827	21.168	16384	19174	0	704
16.841	18.320	16384	19523	0	704
7.970	14.894	16384	19756	0	704
5.950	13.595	16415	19988	0	704
9.737	15.759	16415	20104	0	704
19.834	20.736	16415	19988	0	704
21.529	19.473	16415	19639	0	704
14.136	14.245	16415	19174	0	704
1.442	4.400	16415	18593	0	704
-9.629	-1.875	16415	18244	0	704
-8.294	-3.173	16415	17779	0	704
3.101	2.885	16415	17430	0	704
13.235	8.727	16415	16965	0	704
13.740	11.756	16415	16384	0	704
4.147	6.058	16384	15222	0	704
-9.052	-1.911	16353	13943	0	704
-16.589	-8.078	16353	12896	0	704
-13.704	-8.655	16305	12431	0	704
-6.527	-7.321	16305	12431	0	704
-1.334	-5.698	16305	12547	0	704
-5.914	-7.465	16273	13012	0	704
-15.182	-11.540	16305	13710	0	704
-23.044	-17.238	16305	14757	0	704
-23.945	-20.267	16305	15687	0	704
-19.654	-22.250	16353	16384	0	704
-15.759	-23.152	16384	17197	0	704
-23.116	-24.630	16384	17895	0	704
-29.535	-25.856	16384	18360	0	704
-34.728	-23.909	16415	18709	0	704
-29.931	-21.385	16415	18709	0	704
-20.411	-17.851	16384	18477	0	704
-11.504	-14.425	16384	18128	0	704
-14.821	-13.848	16384	18011	0	704
-22.863	-20.231	16384	18011	0	704
-32.456	-24.450	16384	18128	0	704
-35.016	-28.814	16415	18360	0	704
-32.528	-31.951	16415	18825	0	704
-28.741	-30.040	16415	19174	0	704
-27.155	-28.777	16463	19290	0	704
-29.571	-28.922	16463	19058	0	704
-31.879	-26.830	16463	18593	0	704
-30.508	-24.991	16463	18360	0	704
-27.010	-25.604	16463	18244	0	704
-24.739	-24.558	16463	18011	0	704
-22.142	-25.965	16495	17895	0	704
-21.926	-28.886	16495	17663	0	704
-21.926	-27.155	16495	17430	0	704
-21.890	-26.938	16495	17081	0	704
-22.755	-26.037	16495	16849	0	704
-22.899	-25.207	16495	16732	0	704
-18.644	-25.063	16495	16616	0	704
-16.625	-20.772	16495	16268	0	704
-15.362	-19.798	16495	15803	0	704
-17.490	-17.779	16495	15338	0	704
-18.572	-15.543	16495	14873	0	704
-16.444	-12.261	16463	14291	0	704
-10.891	-7.970	16463	13943	0	704
-5.265	-4.255	16463	13826	0	704
-4.977	-4.111	16463	13594	0	704
-10.746	-7.645	16415	13245	0	704
-17.815	-15.543	16384	12896	0	704
-22.755	-19.942	16384	12664	0	704
-25.856	-24.414	16353	12547	0	704
-27.335	-25.388	16384	12315	0	704
-25.965	-25.135	16384	12198	0	704
-23.080	-22.431	16353	12431	0	704
-21.277	-19.762	16353	12896	0	704
-18.320	-19.726	16353	13129	0	704
-15.435	-17.490	16353	13361	0	704
-15.579	-17.490	16353	13594	0	704
-12.838	-13.379	16353	14059	0	704
-9.881	-11.576	16305	14524	0	704
-10.638	-9.304	16305	14873	0	704
-15.362	-10.278	16305	15338	0	704
-18.680	-11.973	16305	15687	0	704
-21.673	-8.691	16305	16152	0	704
-14.785	0.072	16353	16616	0	704
-3.931	9.592	16353	17081	0	704
6.131	14.605	16353	17197	0	704
9.665	16.084	16305	16849	0	704
7.789	10.602	16305	16152	0	704
4.291	7.465	16273	15338	0	704
5.265	7.212	16226	14640	0	704
10.350	14.172	16226	14291	0	704
19.546	21.060	16226	14175	0	704
24.089	29.102	16194	14408	0	704
27.660	31.410	16194	14873	0	704
25.424	30.869	16194	15338	0	704
22.863	26.217	16194	15803	0	704
21.529	20.664	16226	16152	0	704
19.329	19.978	16273	16384	0	704
18.247	16.877	16226	17081	0	704
14.966	18.320	16226	17779	0	704
14.821	19.546	16273	18244	0	704
15.002	23.368	16273	18477	0	704
19.762	27.371	16226	18360	0	704
23.585	28.633	16226	18244	0	704
25.424	29.030	16226	18244	0	704
26.866	30.112	16226	18244	0	704
26.325	29.571	16226	18128	0	704
29.030	32.636	16226	17895	0	704
32.420	35.160	16226	17663	0	704
34.656	35.124	16226	17663	0	704
33.321	34.331	16226	17546	0	704
30.761	33.249	16273	17546	0	704
24.883	28.958	16273	17779	0	704
19.870	26.938	16273	18128	0	704
19.942	24.017	16305	18709	0	704
25.027	26.109	16305	19407	0	704
32.636	29.968	16353	19872	0	704
39.199	32.600	16353	19872	0	704
39.235	33.177	16353	19523	0	704
32.780	29.391	16353	19290	0	704
24.775	25.893	16353	19174	0	704
16.408	25.460	16353	19174	0	704
10.242	23.044	16384	19174	1	712
7.285	22.503	16384	18942	0	712
6.491	21.277	16384	18709	0	712
8.439	17.598	16384	18360	0	712
10.999	17.454	16384	18128	0	712
13.740	15.218	16384	18128	0	712
12.009	12.405	16415	18128	0	712
7.212	10.061	16384	17663	0	712
3.570	8.042	16384	17081	0	712
-1.010	11.468	16384	16732	0	712
-2.560	15.723	16415	16500	0	712
-0.361	19.257	16415	16384	0	712
6.491	23.368	16415	16384	0	712
14.641	24.847	16415	16384	0	712
19.726	23.765	16415	16384	0	712
23.188	22.863	16415	16152	0	712
18.860	22.719	16415	15687	0	712
15.326	20.339	16415	15105	0	712
11.287	18.392	16384	14524	0	712
8.835	15.290	16384	14059	0	712
7.862	12.802	16384	13826	0	712
5.698	9.953	16384	13943	0	712
5.265	9.556	16384	14291	0	712
4.760	11.576	16384	14408	0	712
7.068	13.848	16384	14640	0	712
8.402	14.461	16384	15105	0	712
7.753	15.795	16384	15571	0	712
5.986	13.451	16384	15803	0	712
3.570	11.612	16384	16152	0	712
1.731	10.314	16415	16384	0	712
7.104	9.484	16415	16849	0	712
12.153	8.402	16415	17081	0	712
13.559	8.150	16415	17081	0	712
11.468	4.111	16415	16965	0	712
5.626	-0.649	16415	16616	0	712
1.767	-1.803	16415	16268	0	712
2.669	0.325	16415	15803	0	712
8.366	4.904	16415	15454	0	712
8.907	7.465	16384	15222	0	712
6.131	6.599	16384	14989	0	712
0.938	1.983	16384	14989	0	712
-3.210	-2.524	16384	15222	0	712
-2.813	-4.472	16384	15803	0	712
0.036	-3.246	16415	16384	0	712
2.885	-1.767	16415	16500	0	712
2.092	-2.596	16415	16500	0	712
-0.865	-2.669	16415	16384	0	712
-4.327	-4.075	16384	16384	0	712
-6.275	-5.914	16384	16268	0	712
-9.701	-7.825	16384	16152	0	712
-11.215	-8.583	16384	16268	0	712
-11.792	-8.330	16384	16384	0	712
-16.697	-10.710	16384	16384	0	712
-19.077	-14.569	16384	16384	0	712
-26.289	-21.601	16384	16384	0	712
-30.617	-25.929	16384	16268	0	712
-33.646	-28.164	16384	16384	0	712
-33.646	-27.155	16384	16500	0	712
-29.535	-23.476	16384	16616	0	712
-27.515	-20.231	16384	16500	0	712
-25.496	-21.890	16384	16384	0	712
-27.732	-25.893	16384	16384	0	712
-27.155	-26.578	16384	16616	0	712
-27.696	-28.020	16384	16849	0	712
-28.237	-26.866	16384	16732	0	712
-26.722	-24.630	16384	16616	0	712
-27.191	-24.162	16384	16965	0	712
-27.407	-27.732	16415	17663	0	712
-28.128	-29.210	16415	18477	0	712
-25.965	-30.689	16463	19290	0	712
-26.397	-28.597	16495	19872	0	712
-24.017	-27.587	16495	20221	0	712
-22.827	-25.207	16542	20453	0	712
-23.440	-25.856	16542	20686	0	712
-21.204	-24.414	16574	20918	0	712
-21.818	-23.080	16574	21035	0	712
-18.680	-23.296	16622	20918	0	712
-18.211	-21.168	16622	20337	0	712
-18.211	-22.791	16622	19872	0	712
-20.411	-27.155	16574	19174	0	712
-23.476	-29.066	16653	18477	1	320
-22.106	-29.174	16622	17895	0	320
-21.962	-26.902	16622	17314	0	320
-17.923	-23.801	16622	16849	0	320
-19.906	-20.411	16622	16384	0	320
-19.726	-16.733	16622	16036	0	320
-20.339	-15.290	16622	15687	0	320
-20.627	-14.749	16622	15454	0	320
-16.300	-13.668	16622	15222	0	320
-17.995	-17.057	16622	14640	0	320
-21.709	-18.860	16622	13826	0	320
-28.201	-20.375	16542	12896	0	320
-29.823	-19.185	16542	12198	0	320
-26.722	-19.221	16542	11850	0	320
-17.851	-16.084	16542	12082	0	320
-12.802	-14.028	16542	12431	0	320
-9.845	-10.386	16495	12664	0	320
-10.494	-7.970	16495	12664	0	320
-10.891	-7.501	16495	12664	0	320
-9.484	-7.032	16495	12780	0	320
-8.042	-9.340	16495	12780	0	320
-7.970	-10.783	16463	12664	0	320
-10.025	-11.143	16463	12431	0	320
-11.107	-11.071	16463	12198	0	320
-8.727	-10.819	16415	12082	0	320
-9.016	-9.953	16415	12198	0	320
-7.645	-9.160	16415	12431	0	320
-8.294	-7.789	16384	12664	0	320
-8.294	-9.232	16384	13245	0	320
-9.953	-10.169	16384	13826	0	320
-10.855	-10.169	16384	14408	0	320
-12.514	-10.638	16384	14873	0	320
-13.884	-10.602	16384	15222	0	320
-15.831	-11.107	16384	15687	0	320
-12.946	-12.081	16384	16152	0	320
-12.550	-15.723	16384	16152	0	320
-11.504	-15.074	16384	16152	0	320
-10.783	-16.480	16384	16268	0	320
-12.550	-16.913	16384	16268	0	320
-13.992	-13.956	16353	16384	0	320
-11.792	-12.802	16353	16384	0	320
-10.963	-9.052	16353	16616	0	320
-8.619	-7.717	16353	17081	0	320
-5.085	-9.232	16353	17430	0	320
-4.724	-9.160	16353	17663	0	320
-2.380	-5.481	16353	17779	0	320
2.164	-0.829	16384	17895	0	320
6.347	3.678	16384	18011	0	320
7.285	3.750	16384	18011	0	320
5.590	0.649	16353	17895	0	320
1.983	-2.596	16353	17546	0	320
-2.885	-4.508	16353	17197	0	320
-3.426	-4.075	16353	16965	0	320
-0.036	-0.721	16353	16500	0	320
5.121	3.642	16305	16152	0	320
12.514	9.989	16305	15919	0	320
19.762	14.966	16305	15687	0	320
21.601	15.723	16305	15803	0	320
19.690	12.333	16305	16268	0	320
11.720	3.931	16305	16849	0	320
4.183	-0.613	16305	17546	0	320
2.596	-1.767	16305	18011	0	320
6.527	3.065	16353	18244	0	320
14.425	11.612	16353	18593	0	320
21.818	20.195	16353	18942	0	320
25.316	23.296	16353	19058	0	320
26.974	24.306	16384	18942	0	320
27.335	24.919	16384	18825	0	320
27.191	24.053	16384	18593	0	320
29.030	26.650	16384	18477	0	320
31.915	31.230	16384	18477	0	320
34.367	34.151	16384	18360	0	320
37.360	36.855	16384	18477	0	320
38.839	37.973	16415	18709	0	320
36.747	35.233	16415	18825	0	320
35.593	32.384	16415	18942	0	320
31.194	29.282	16415	18825	0	320
26.289	31.230	16463	18593	0	320
20.664	35.233	16463	18360	0	320
16.985	40.678	16463	18244	0	320
19.654	49.657	16463	18244	0	320
25.027	51.857	16495	18244	0	320
34.079	53.624	16495	18011	0	320
39.272	49.261	16495	17779	0	320
38.983	46.015	16495	17430	0	320
34.583	42.048	16495	17081	0	320
27.948	38.406	16495	16616	0	320
23.008	34.439	16463	16384	0	320
20.555	32.167	16495	16152	0	320
20.123	29.823	16495	15919	0	320
24.847	32.239	16495	15571	0	320
28.922	36.783	16463	15105	0	320
32.384	41.075	16463	14524	0	320
33.754	43.887	16415	13943	0	320
29.643	44.825	16415	13710	0	320
26.650	46.736	16415	13478	0	320
27.191	48.936	16415	13361	0	320
30.977	47.674	16384	13245	0	320
33.790	44.428	16384	13012	0	320
31.590	43.419	16384	12896	0	320
24.847	41.399	16384	12664	0	320
20.231	39.055	16353	12664	0	320
16.769	36.891	16353	12780	0	320
19.041	30.004	16353	13012	0	320
17.743	20.555	16353	13245	0	320
12.441	15.326	16353	13478	0	320
4.580	14.930	16353	13826	0	320
-2.633	15.615	16353	14524	0	320
-6.203	16.048	16353	15105	0	320
-5.193	11.792	16353	15571	0	320
-1.695	8.655	16353	15803	0	320
2.560	7.465	16384	15919	0	320
4.111	9.340	16384	16268	0	320
6.094	13.199	16384	16616	0	320
5.049	14.136	16384	17314	0	320
2.633	8.727	16384	17895	0	320
-0.469	4.111	16415	18244	0	320
-0.793	1.695	16384	18593	0	320
-0.757	4.688	16384	19058	0	320
1.334	10.314	16415	19523	0	320
3.426	13.343	16415	19639	0	320
4.075	10.638	16415	19523	0	320
-1.262	4.724	16415	19058	0	320
-7.501	-4.219	16415	18360	0	320
-15.507	-7.176	16415	17895	0	320
-18.175	-7.970	16415	17546	0	320
-19.762	-4.977	16415	17430	0	320
-14.028	-3.282	16415	17430	0	320
-9.881	-1.370	16415	17663	0	320
-9.737	-4.544	16415	17663	0	320
-13.415	-8.727	16415	17430	0	320
-22.286	-15.218	16415	16849	0	320
-25.712	-18.211	16384	16152	0	320
-26.722	-20.844	16384	15222	0	320
-23.512	-18.824	16384	14524	0	320
-17.743	-20.700	16353	14175	0	320
-16.841	-23.801	16353	13826	0	320
-19.762	-30.364	16353	13361	0	320
-27.191	-35.269	16305	12780	0	320
-32.023	-34.764	16273	12198	0	320
-32.961	-31.446	16273	11733	0	320
-29.895	-25.893	16226	11617	0	320
-22.358	-21.241	16273	11501	0	320
-17.418	-21.060	16273	11617	0	320
-14.641	-22.250	16226	11966	0	320
-20.014	-24.378	16226	12431	0	320
-26.758	-27.587	16226	13245	0	320
-31.843	-27.083	16226	14059	0	320
-31.374	-26.794	16226	14873	0	320
-28.164	-22.358	16226	15338	0	320
-24.378	-22.611	16226	15803	0	320
-26.109	-22.539	16226	16384	0	320
-31.518	-26.073	16226	17081	0	320
-31.699	-29.210	16226	17779	0	320
-26.542	-28.020	16226	18477	0	320
-20.483	-26.866	16273	19058	0	320
-18.500	-22.611	16273	19639	0	320
-23.332	-21.313	16353	20337	0	320
-27.047	-20.519	16353	20918	0	320
-22.358	-16.589	16353	21267	0	320
-16.012	-15.218	16384	21500	0	320
-8.943	-15.795	16384	21616	0	320
-12.874	-14.677	16415	21732	0	320
-20.736	-17.382	16415	21732	0	320
-27.155	-15.398	16415	21732	0	320
-24.017	-12.514	16463	21732	0	320
-16.769	-7.970	16415	21500	0	320
-7.970	-5.049	16415	21035	0	320
-5.806	-4.255	16463	20453	0	320
-8.799	-5.193	16463	19872	0	320
-12.369	-6.708	16463	19407	1	680
-14.497	-10.061	16463	19058	0	680
-14.100	-10.025	16463	18825	0	680
-8.547	-9.701	16495	18825	0	680
-4.003	-6.852	16495	18593	0	680
-2.019	-3.137	16495	18244	0	680
-3.029	-2.128	16495	17663	0	680
-7.104	-3.570	16495	16965	0	680
-12.369	-7.104	16495	16384	0	680
-12.802	-12.081	16495	16268	0	680
-12.189	-15.615	16542	16384	0	680
-9.773	-13.199	16542	16384	0	680
-8.006	-10.855	16542	16036	0	680
-8.835	-7.609	16495	15803	0	680
-11.143	-8.006	16542	15919	0	680
-11.432	-8.186	16574	16036	0	680
-12.730	-12.009	16542	16268	0	680
-12.658	-11.035	16542	16268	0	680
-8.907	-9.376	16542	16036	0	680
-6.022	-8.006	16542	15571	0	680
-6.491	-9.088	16542	14873	0	680
-7.321	-10.927	16542	14059	0	680
-10.963	-11.251	16495	13710	0	680
-11.612	-13.018	16495	13478	0	680
-10.133	-9.881	16495	13361	0	680
-5.734	-5.698	16495	13361	0	680
-0.829	-1.118	16495	13129	0	680
3.895	3.823	16495	12896	0	680
8.294	10.494	16463	12664	0	680
9.989	13.884	16463	12315	0	680
12.874	17.093	16415	12082	0	680
11.684	13.920	16415	11850	0	680
12.514	10.855	16415	11850	0	680
16.264	9.989	16384	11966	0	680
18.536	11.756	16384	12198	0	680
22.827	16.192	16384	12315	0	680
23.368	20.195	16384	12547	0	680
23.332	19.293	16353	12780	0	680
24.847	18.356	16353	13245	0	680
25.676	17.779	16353	13594	0	680
32.456	19.329	16353	14059	0	680
35.810	23.801	16353	14524	0	680
37.108	23.729	16353	14989	0	680
34.006	23.621	16353	15571	0	680
29.210	22.719	16353	16036	0	680
26.289	23.657	16353	16384	0	680
27.407	27.047	16353	16849	0	680
31.374	32.239	16353	17779	0	680
34.692	35.882	16384	18709	0	680
36.026	37.360	16384	19407	0	680
36.603	35.810	16415	19988	0	680
33.610	32.780	16415	20221	0	680
33.285	30.905	16415	20221	0	680
30.545	29.066	16415	20221	0	680
26.830	28.381	16415	20104	0	680
21.890	27.696	16463	19988	0	680
20.591	27.263	16463	19872	0	680
17.995	26.758	16463	19872	0	680
20.772	25.063	16463	19872	0	680
21.637	25.424	16495	19872	0	680
22.791	24.630	16495	19872	0	680
23.224	20.519	16463	19639	0	680
20.375	17.310	16463	18942	0	680
18.103	12.297	16463	17779	0	680
11.468	7.537	16415	16732	0	680
8.186	6.094	16415	15803	0	680
9.592	9.340	16384	14989	0	680
14.389	12.189	16384	14291	0	680
24.306	19.726	16384	13826	0	680
28.164	22.755	16353	13245	0	680
30.328	26.433	16353	12664	0	680
31.338	28.237	16305	12198	0	680
28.633	27.551	16305	11966	0	680
25.207	28.309	16273	11850	0	680
17.706	26.902	16273	11850	0	680
11.179	27.299	16273	11733	0	680
7.104	29.102	16273	11501	0	680
12.405	31.735	16273	11617	0	680
22.142	33.502	16226	12082	0	680
27.443	32.853	16226	12664	0	680
25.856	27.732	16226	13361	0	680
17.598	22.358	16226	14059	0	680
6.852	19.906	16226	14524	0	680
2.452	19.546	16226	14989	0	680
4.616	22.178	16226	15222	0	680
11.612	24.522	16194	15338	0	680
17.274	24.811	16194	15687	0	680
18.500	25.063	16194	15919	0	680
18.428	25.712	16194	16152	0	680
17.418	23.585	16226	16500	0	680
17.418	21.385	16273	16965	0	680
14.389	19.041	16226	17314	0	680
12.550	15.398	16226	17314	0	680
10.602	16.913	16194	17081	0	680
10.638	17.562	16194	16965	0	680
17.815	19.582	16194	17081	0	680
19.834	16.228	16194	17546	0	680
20.014	15.831	16194	18011	0	680
12.982	15.146	16194	18244	0	680
10.783	18.175	16226	18477	0	680
11.251	23.476	16226	18942	0	680
19.365	30.220	16226	19523	0	680
29.066	34.475	16273	19988	0	680
36.459	36.711	16305	20104	0	680
34.728	34.800	16305	20221	0	680
26.758	29.427	16305	20221	0	680
14.461	19.149	16305	20337	0	680
3.282	10.206	16353	20570	0	680
-1.298	4.364	16353	20686	0	680
3.137	5.373	16384	21035	0	680
11.215	8.402	16384	21384	0	680
14.425	10.927	16415	22081	0	680
16.012	9.088	16463	22779	0	680
10.746	7.248	16495	22895	0	680
8.366	5.301	16495	22546	0	680
8.078	8.439	16495	21732	0	680
8.835	13.776	16495	20686	0	680
9.088	14.641	16495	19407	0	680
7.609	15.975	16463	18011	1	472
5.445	11.504	16415	16732	0	472
4.544	7.609	16415	15687	0	472
5.914	5.734	16415	14873	0	472
11.323	4.436	16415	14408	0	472
18.103	6.671	16415	14059	0	472
19.437	10.530	16415	13943	0	472
18.969	15.759	16415	13943	0	472
13.235	21.854	16415	14059	0	472
11.287	26.109	16415	13943	0	472
15.903	26.938	16415	13826	0	472
22.070	24.089	16384	13826	0	472
26.073	21.565	16384	13710	0	472
24.125	17.490	16384	13710	0	472
14.533	17.238	16384	13826	0	472
6.888	16.228	16384	13826	0	472
1.623	16.444	16384	13710	0	472
0.974	12.261	16384	13361	0	472
4.616	11.179	16353	13129	0	472
7.032	9.124	16353	12896	0	472
5.626	6.852	16353	12664	0	472
2.236	8.330	16305	12664	0	472
-0.757	6.996	16305	13012	0	472
-2.669	9.809	16305	13361	0	472
0.252	8.763	16305	13826	0	472
-1.118	6.924	16305	14175	0	472
-2.813	4.904	16305	14640	0	472
-4.868	1.154	16353	15338	0	472
-2.200	2.344	16353	16036	0	472
3.931	1.947	16384	16500	0	472
7.285	2.344	16384	16849	0	472
5.481	2.741	16384	17197	0	472
0.216	3.246	16384	17546	0	472
-3.823	5.662	16384	17895	0	472
-2.416	6.455	16415	18477	0	472
4.364	7.032	16415	18825	0	472
10.422	5.445	16415	18942	0	472
12.622	6.708	16384	18942	0	472
8.583	10.602	16415	19058	0	472
4.255	12.838	16415	18942	0	472
-0.902	13.343	16415	18709	0	472
-5.013	9.845	16415	18360	0	472
-6.275	5.445	16415	18128	0	472
-3.318	5.806	16415	18128	0	472
2.272	6.816	16415	18244	0	472
6.852	10.494	16463	18477	0	472
9.124	10.891	16463	18593	0	472
4.436	8.511	16463	18477	0	472
-2.921	5.337	16463	18360	0	472
-6.996	2.885	16495	18477	0	472
-4.255	3.931	16495	18593	0	472
1.587	7.609	16495	18477	0	472
4.003	10.891	16495	18011	0	472
1.190	12.333	16495	17314	0	472
-1.587	13.018	16495	16500	0	472
-1.983	10.999	16495	15919	0	472
5.626	10.530	16463	15454	0	472
14.749	11.900	16463	15222	0	472
18.536	14.064	16463	15105	0	472
19.365	15.110	16463	14989	0	472
13.812	19.618	16463	14757	0	472
13.920	21.745	16463	14524	0	472
15.543	23.404	16415	13943	0	472
20.375	24.991	16415	13361	0	472
20.555	22.034	16415	12896	0	472
18.392	15.146	16415	12896	0	472
10.386	8.366	16415	13129	0	472
2.957	3.246	16415	13478	0	472
-3.173	0.938	16384	13710	0	472
-7.862	1.515	16384	13943	0	472
-7.609	5.157	16384	14059	0	472
-0.649	6.708	16384	14059	0	472
7.825	9.088	16384	14175	0	472
12.009	9.052	16384	14175	0	472
10.566	7.429	16353	13943	0	472
1.983	4.580	16353	13710	0	472
-7.104	1.767	16305	13710	0	472
-5.517	2.633	16353	13710	0	472
1.515	6.383	16305	13826	0	472
12.261	8.727	16305	14175	0	472
15.651	10.314	16305	14640	0	472
9.484	7.862	16305	15222	0	472
0.361	0.793	16305	15919	0	472
-12.297	-5.337	16305	16384	0	472
-15.002	-8.294	16305	16616	0	472
-11.287	-9.088	16305	16849	0	472
-3.642	-7.140	16305	17081	0	472
3.750	-2.596	16305	17430	0	472
