neuroNicle FX2
D3F25R12
Bluetooth SPP
2023년 6월 16일 금요일
오후 5:30
time interval = 4msec
EEG1	EEG2	PPG	sdPPG	pulse	peak_interval(msec)
9.376	-0.252	15219	0	0	376
13.415	2.164	15243	0	0	376
17.706	3.137	15259	0	0	376
20.050	2.669	15339	0	0	376
21.132	0.865	15380	4763	0	376
21.277	3.750	15524	17465	0	376
17.490	6.960	15621	30573	0	376
15.651	10.097	15766	32767	0	376
11.576	7.176	15902	32767	0	376
10.674	2.957	16047	32767	0	376
12.189	0.865	16184	32767	0	376
14.858	4.544	16328	32767	0	376
17.057	10.855	16464	32767	0	376
16.264	20.123	16601	32767	0	376
16.480	23.729	16745	32767	0	376
18.824	22.358	16866	32767	0	376
20.700	12.261	16986	32767	0	376
19.329	1.515	17123	32767	0	376
17.166	-8.330	17203	32767	0	376
14.966	-12.946	17348	32767	0	376
13.343	-12.009	17429	32767	0	376
17.815	-6.744	17485	32767	0	376
18.103	-1.551	17445	32767	0	376
20.880	2.596	17348	32767	0	376
22.611	5.950	17284	21654	0	376
24.486	8.979	17203	9763	0	376
27.227	11.468	17187	1384	0	376
27.047	14.136	17187	0	0	376
21.349	15.471	17147	0	0	376
16.661	9.917	17163	0	1	316
14.569	4.255	17187	0	0	316
20.339	-1.839	17163	0	0	316
29.499	-3.137	17203	0	0	316
41.363	-0.938	17244	0	0	316
45.114	1.154	17268	0	0	316
43.887	0.829	17324	0	0	316
38.298	1.262	17364	1655	0	316
36.062	5.121	17364	2330	0	316
37.721	13.379	17268	0	0	316
41.183	18.716	17187	0	0	316
43.166	20.267	17107	0	0	316
41.075	11.900	17027	0	0	316
33.862	2.885	16922	0	0	316
24.450	-4.327	16761	0	0	316
14.749	-8.006	16601	0	0	316
13.415	-5.878	16480	0	0	316
14.930	0.577	16384	0	0	316
26.361	8.655	16328	0	0	316
35.197	14.966	16288	0	0	316
38.514	16.589	16264	0	0	316
31.807	8.655	16264	0	0	316
23.549	-2.272	16288	0	0	316
18.933	-9.809	16328	0	0	316
20.375	-14.281	16368	0	0	316
22.791	-11.973	16424	10033	0	316
25.135	-6.744	16480	20978	0	316
22.539	2.272	16560	31113	0	316
20.664	10.206	16641	32767	0	316
21.349	16.805	16721	32767	0	316
19.834	14.677	16785	32767	0	316
18.608	5.481	16866	32767	0	316
13.812	-1.082	16962	32767	0	316
12.514	-5.950	17027	32767	0	316
11.720	-3.534	17083	32767	0	316
12.730	-0.793	17123	32767	0	316
12.514	-0.252	17203	32767	0	316
8.943	0.649	17284	32767	0	316
6.058	3.859	17308	32767	0	316
2.596	5.157	17364	32767	0	316
1.659	3.354	17388	32767	0	316
1.154	-5.013	17445	32767	0	316
2.705	-15.651	17469	32767	0	316
6.888	-18.103	17525	32767	0	316
14.533	-16.913	17485	32767	0	316
18.500	-12.117	17388	32059	0	316
19.329	-7.681	17268	11114	0	316
11.973	-9.016	17147	0	0	316
4.580	-13.199	17067	0	0	316
-1.442	-13.235	16986	0	0	316
0.433	-12.405	16882	0	0	316
7.501	-7.645	16705	0	0	316
10.350	-2.344	16520	0	0	316
6.816	-3.462	16384	0	0	316
-0.865	-10.674	16288	0	0	316
-10.386	-22.503	16184	0	0	316
-12.261	-26.686	16127	0	0	316
-4.904	-20.087	16103	0	0	316
7.104	-5.734	16103	0	0	316
15.867	6.780	16103	0	0	316
17.743	10.206	16127	0	0	316
14.821	0.793	16167	0	0	316
6.455	-10.638	16224	2871	0	316
0.433	-16.228	16288	13682	0	316
-1.587	-11.540	16344	23681	0	316
0.649	-0.938	16400	32735	0	316
3.859	6.780	16480	32767	0	316
12.982	6.780	16544	32767	0	316
20.591	2.633	16625	32767	0	316
28.994	0.325	16681	32767	0	316
32.636	4.544	16761	32767	0	316
34.692	13.884	16826	32767	0	316
33.177	20.267	16906	32767	0	316
28.814	15.218	16986	32767	0	316
24.053	6.960	17067	32767	0	316
24.053	-0.685	17083	32767	0	316
24.162	-3.173	17163	32767	0	316
28.056	-0.757	17228	32767	0	316
31.122	1.262	17244	32767	0	316
33.429	1.659	17284	32767	1	316
33.141	1.118	17268	32767	0	316
32.456	2.633	17187	32767	0	316
30.797	4.003	17043	18951	0	316
29.391	7.934	16946	1790	0	316
23.657	8.943	16842	0	0	316
17.851	9.124	16785	0	0	316
11.179	7.537	16721	0	0	316
9.232	4.544	16705	0	0	316
11.540	5.590	16665	0	0	316
21.529	12.225	16641	0	0	316
33.682	24.919	16601	0	0	316
45.510	38.045	16440	0	0	316
55.716	50.126	16167	0	0	316
67.905	57.735	15846	0	0	316
86.982	70.609	15484	0	0	316
117.310	94.158	15179	0	0	316
154.634	127.876	14921	0	0	316
196.250	167.292	14761	0	0	316
233.249	204.868	14640	0	0	316
263.325	240.317	14560	0	0	316
293.329	273.711	14520	0	0	316
321.962	305.590	14520	0	0	316
349.910	330.508	14576	0	0	316
368.626	346.123	14656	0	0	316
369.492	345.835	14737	2466	0	316
358.817	334.043	14857	24356	0	316
338.442	319.510	15002	32767	0	316
317.129	305.049	15122	32767	0	316
300.000	288.640	15323	32767	0	316
282.654	270.501	15444	32767	0	316
265.200	247.962	15621	32767	0	316
245.943	222.431	15766	32767	0	316
225.856	199.712	15942	32767	0	316
207.032	182.943	16087	32767	0	316
188.568	176.992	16248	32767	0	316
170.249	171.980	16384	32767	0	316
151.929	162.640	16520	32767	0	316
127.696	150.018	16601	32767	0	316
95.636	126.289	16601	32767	0	316
64.659	99.712	16504	32767	0	316
33.826	73.134	16344	32767	0	316
10.999	50.415	16184	32767	0	316
-5.842	31.590	16063	18275	0	316
-23.080	15.903	15926	3547	0	316
-41.435	0.721	15766	0	0	316
-64.587	-15.543	15540	0	0	316
-86.188	-35.233	15444	0	0	316
-103.534	-53.372	15339	0	0	316
-114.172	-70.177	15299	0	0	316
-123.657	-85.972	15323	0	0	316
-127.876	-98.630	15323	0	0	316
-139.740	-112.117	15404	0	0	316
-152.326	-123.008	15444	0	0	316
-162.640	-128.417	15565	5979	0	316
-167.977	-131.735	15661	18411	0	316
-163.181	-128.994	15766	30708	0	316
-152.687	-125.712	15902	32767	0	316
-142.084	-119.798	16047	32767	0	316
-134.403	-113.271	16184	32767	0	316
-131.013	-108.583	16304	32767	0	316
-130.581	-105.157	16440	32767	0	316
-131.915	-108.258	16520	32767	0	316
-134.043	-114.389	16520	32767	0	316
-139.957	-123.981	16424	32767	0	316
-144.392	-131.590	16328	32767	0	316
-141.399	-133.934	16167	10709	0	316
-132.816	-129.823	16047	0	0	316
-122.322	-122.431	15983	0	0	316
-111.287	-113.415	15966	0	0	316
-109.376	-107.609	15942	0	0	316
-112.117	-105.914	15966	0	0	316
-113.668	-109.917	15966	0	0	316
-111.071	-115.903	15862	0	0	316
-106.167	-119.041	15782	0	0	316
-102.813	-121.024	15741	0	0	316
-102.056	-115.110	15701	0	0	316
-101.515	-104.940	15565	0	0	316
-98.449	-94.338	15460	0	0	316
-91.165	-87.559	15380	0	1	316
-83.411	-83.015	15299	0	0	316
-79.373	-87.595	15203	0	0	316
-81.680	-92.679	15082	0	0	316
-87.378	-96.430	15002	0	0	316
-87.919	-90.335	15002	0	0	316
-85.251	-79.336	14938	0	0	316
-77.209	-62.928	14881	0	0	316
-70.970	-53.516	14817	0	0	316
-68.410	-47.926	14777	0	0	316
-64.912	-44.861	14761	0	0	316
-53.480	-34.511	14680	0	0	316
-29.138	-12.586	14600	0	0	316
8.691	17.274	14576	0	0	316
45.727	51.064	14616	0	0	316
81.536	80.418	14680	12871	0	316
107.862	106.996	14777	27870	0	316
127.912	128.669	14881	32767	0	316
146.772	149.225	15042	32767	0	316
163.145	167.436	15203	32767	0	316
180.382	184.565	15380	32767	0	316
196.358	194.519	15540	32767	0	316
205.950	201.334	15766	32767	0	316
209.845	197.512	15966	32767	0	316
204.472	189.037	16167	32767	0	316
192.968	178.074	16344	32767	0	316
186.693	167.075	16504	32767	0	316
178.723	159.791	16560	32767	0	316
172.413	149.008	16584	32767	0	316
161.774	135.846	16560	32767	0	316
148.684	117.093	16480	32767	0	316
134.259	101.551	16400	32767	0	316
119.654	88.749	16368	32767	0	316
106.455	83.844	16328	26248	0	316
90.444	78.219	16288	18140	0	316
68.265	69.131	16167	4898	0	316
47.097	52.723	16007	0	0	316
25.352	31.771	15806	0	0	316
8.655	10.819	15645	0	0	316
-3.859	-2.344	15524	0	0	316
-9.989	-9.665	15420	0	0	316
-17.851	-17.093	15380	0	0	316
-25.063	-29.066	15243	0	0	316
-39.019	-47.025	15163	0	0	316
-52.687	-61.522	15042	0	0	316
-63.649	-66.390	14881	0	0	316
-71.006	-61.522	14640	0	0	316
-72.268	-57.771	14359	0	0	316
-73.026	-61.450	14037	0	0	316
-69.095	-72.665	13692	0	0	316
-68.626	-78.363	13394	0	0	316
-67.436	-76.163	13209	0	0	316
-67.652	-70.321	13153	0	0	316
-69.419	-67.292	13113	0	0	316
-74.180	-73.711	13193	0	0	316
-75.875	-82.871	13290	0	0	316
-77.569	-85.864	13475	0	0	316
-78.399	-83.736	13692	27329	0	316
-81.031	-81.320	13917	32767	0	316
-85.142	-84.241	14134	32767	0	316
-91.165	-94.591	14278	32767	0	316
-94.338	-102.633	14399	32767	0	316
-93.292	-105.590	14576	32767	0	316
-88.244	-99.171	14777	32767	0	316
-82.041	-85.467	15002	32767	0	316
-77.569	-74.216	15243	32767	0	316
-74.973	-66.859	15500	32767	0	316
-72.232	-66.462	15725	32767	0	316
-69.311	-67.688	15846	32767	0	316
-65.344	-67.364	15902	32767	0	316
-61.414	-63.830	15846	32767	0	316
-59.214	-59.935	15701	32767	0	316
-58.060	-58.168	15500	32767	0	316
-57.627	-55.031	15339	32767	0	316
-53.588	-52.723	15139	11249	0	316
-53.011	-45.222	15058	0	0	316
-48.900	-43.599	14962	0	0	316
-47.241	-46.520	14857	0	0	316
-48.143	-50.523	14777	0	0	316
-47.313	-54.742	14721	0	1	316
-46.772	-51.280	14777	0	0	316
-45.474	-46.304	14857	0	0	316
-42.842	-43.563	14978	709	0	316
-40.786	-43.887	15139	17329	0	316
-40.642	-45.871	15259	31924	0	316
-40.101	-44.897	15339	32767	0	316
-39.199	-39.740	15339	32767	0	316
-38.695	-32.600	15339	26519	0	316
-37.360	-28.201	15299	18681	0	316
-38.586	-28.092	15364	16924	0	316
-40.389	-31.987	15404	22870	0	316
-41.543	-34.151	15500	29356	0	316
-38.586	-33.646	15444	26384	0	316
-34.006	-28.417	15323	10574	0	316
-27.155	-22.755	15219	0	0	316
-23.260	-20.303	15179	0	0	316
-23.080	-19.221	15203	0	0	316
-22.863	-21.060	15098	0	0	316
-23.080	-19.978	14897	0	0	316
-24.270	-19.654	14777	0	0	316
-21.096	-18.392	14721	0	0	316
-16.480	-16.625	14737	0	0	316
-12.982	-17.598	14817	0	0	316
-8.186	-15.831	14962	0	0	316
-8.439	-15.146	15082	18140	0	316
-11.684	-15.435	15259	32767	0	316
-15.543	-13.956	15323	32767	0	316
-14.425	-13.740	15444	32767	0	316
-10.963	-12.802	15540	32767	0	316
-6.780	-11.973	15661	32767	0	316
-4.075	-12.622	15725	32767	0	316
-1.010	-10.242	15766	32767	0	316
0.757	-6.960	15806	32767	0	316
5.337	-3.859	15741	32767	0	316
8.186	-3.029	15621	32329	0	316
7.212	-6.816	15484	11520	0	316
3.390	-13.199	15460	2601	0	316
-1.983	-17.670	15460	4898	0	316
-2.416	-16.480	15524	12466	0	316
-2.669	-10.530	15661	23140	0	316
-2.272	-7.248	15806	32767	0	316
-2.885	-5.265	15966	32767	0	316
-4.183	-5.554	16127	32767	0	316
-4.868	-5.229	16167	32767	0	316
-6.924	-6.094	16047	32767	0	316
-6.311	-5.121	15862	17600	0	316
-6.852	-5.409	15701	0	0	316
-5.481	-5.265	15621	0	0	316
-0.325	-4.255	15621	0	0	316
6.563	-2.272	15605	0	0	316
11.864	-3.787	15540	0	0	316
13.091	-6.058	15524	0	0	316
6.708	-8.078	15524	0	0	316
-1.875	-8.619	15605	0	0	316
-9.304	-9.124	15725	9493	0	316
-11.576	-9.556	15862	24897	0	316
-7.573	-9.196	16047	32767	0	316
-2.921	-9.124	16248	32767	0	316
0.433	-5.517	16440	32767	0	316
1.190	-0.613	16641	32767	0	316
1.623	2.813	16761	32767	0	316
3.931	4.327	16826	32767	0	316
10.458	7.825	16922	32767	0	316
12.802	8.655	17083	32767	0	316
11.396	10.133	17244	32767	0	316
9.016	8.727	17388	32767	0	316
6.888	5.842	17565	32767	0	316
7.176	1.875	17686	32767	0	316
10.602	-0.144	17750	32767	0	316
15.579	2.488	17750	32767	0	316
15.254	10.602	17750	32767	0	316
17.562	22.358	17670	32767	0	316
18.608	32.420	17589	21519	0	316
22.863	35.341	17565	7601	0	316
23.260	28.814	17549	2195	0	316
21.421	16.120	17605	1520	0	316
16.336	6.635	17646	3141	0	316
11.648	3.246	17750	6655	0	316
8.186	4.832	17806	11114	1	316
8.439	8.475	17927	16384	0	316
10.819	8.583	17991	19356	0	316
11.684	7.898	17967	14493	0	316
12.081	7.645	17911	3141	0	316
10.566	9.052	17927	0	0	316
8.258	8.402	17927	0	0	316
6.383	5.626	17951	0	0	316
5.986	3.137	18007	0	0	316
8.222	1.911	18112	3276	0	316
11.323	3.498	18112	5979	0	316
13.740	5.409	18072	709	0	316
15.651	3.570	17991	0	0	316
18.860	0.397	17951	0	0	316
19.293	0.541	17911	0	0	316
20.050	6.239	17911	0	0	316
19.041	16.733	17967	0	0	316
11.756	26.758	17967	0	0	316
5.554	28.633	18031	0	0	316
5.517	20.952	18112	4357	0	316
11.432	14.713	18168	11384	0	316
20.159	8.871	18192	15303	0	316
31.951	12.874	18128	10439	0	316
37.865	16.985	18072	0	0	316
38.514	20.411	17991	0	0	316
34.439	16.841	17951	0	0	316
29.210	15.362	17951	0	0	316
23.152	15.507	17991	0	0	316
15.939	17.382	17967	0	0	316
12.297	20.519	18007	3006	0	316
9.520	15.615	18072	8817	0	316
9.953	16.300	18072	12060	0	316
13.776	16.336	17967	7060	0	316
18.320	23.440	17911	0	0	316
18.752	28.597	17766	0	0	316
18.788	25.063	17549	0	0	316
17.454	17.815	17244	0	0	316
15.182	10.206	16962	0	0	316
15.146	9.845	16745	0	0	316
15.975	13.992	16584	0	0	316
12.081	18.464	16440	0	0	316
12.405	18.897	16400	0	0	316
11.071	13.848	16384	0	0	316
10.855	8.475	16400	0	0	316
10.999	6.960	16440	0	0	316
13.018	11.540	16504	0	0	316
15.651	20.267	16584	6384	0	316
20.050	28.814	16681	23816	0	316
17.562	33.790	16802	32767	0	316
11.900	32.131	16882	32767	0	316
2.849	26.722	16882	32767	0	316
-0.469	25.604	16842	32767	0	316
2.524	25.135	16866	32767	0	316
7.825	30.905	16882	32767	0	316
12.946	33.429	16922	32767	0	316
13.343	34.367	16986	32767	0	316
8.691	35.449	17027	32767	0	316
7.393	33.754	17002	32767	0	316
7.609	31.158	16922	32767	0	316
9.376	28.597	16882	32767	0	316
10.278	27.299	16866	32767	0	316
12.153	29.751	16761	28275	0	316
16.336	35.521	16641	14357	0	316
17.743	37.937	16560	5844	0	316
20.772	33.321	16544	5844	0	316
16.300	21.096	16504	7330	0	316
9.448	12.441	16368	0	0	316
0.649	11.540	16127	0	0	316
-1.803	21.962	15902	0	0	316
0.252	36.387	15782	0	0	316
2.092	41.471	15701	0	0	316
2.885	35.990	15661	0	0	316
1.659	27.515	15621	0	0	316
-0.072	19.942	15565	0	0	316
-0.288	21.493	15460	0	0	316
1.947	24.053	15444	0	0	316
6.996	26.325	15460	0	0	316
10.206	25.532	15500	1384	0	316
14.569	23.693	15581	14763	0	316
11.612	21.241	15500	18140	1	316
5.878	19.870	15299	4763	0	316
-2.849	17.706	15058	0	0	316
-7.032	19.365	14841	0	0	316
-5.157	24.522	14680	0	0	316
-0.325	32.239	14640	0	0	316
4.508	36.783	14576	0	0	316
5.265	35.485	14495	0	0	316
4.832	32.384	14375	0	0	316
4.111	29.174	14254	0	0	316
4.364	28.237	14158	0	0	316
4.003	30.472	14134	0	0	316
1.983	32.167	14174	0	0	316
1.226	34.583	14214	12195	0	316
1.442	34.367	14214	23546	0	316
3.859	30.797	14254	30167	0	316
6.744	25.243	14335	32767	0	316
9.124	21.854	14479	32767	0	316
13.848	21.457	14656	32767	0	316
15.002	30.364	14857	32767	0	316
16.733	40.426	15098	32767	0	316
15.218	45.330	15364	32767	0	316
12.982	41.760	15605	32767	0	316
12.802	35.449	15822	32767	0	316
15.182	30.689	15983	32767	0	316
19.365	33.646	16087	32767	0	316
18.860	35.088	16264	32767	0	316
5.445	22.972	15565	32767	0	316
5.770	19.041	15645	32767	0	316
7.789	21.024	15782	32767	0	316
7.825	25.784	15942	32767	0	316
5.554	27.407	16087	32767	0	316
-0.433	28.128	16264	32767	0	316
-4.796	28.020	16464	32767	0	316
-8.402	26.433	16665	32767	0	316
-8.402	22.575	16842	32767	0	316
-4.111	20.880	17043	32767	0	316
4.544	22.539	17244	32767	0	316
12.369	26.253	17429	32767	0	316
16.444	31.915	17629	32767	0	316
19.978	37.468	17766	32767	0	316
15.038	36.747	17951	32767	0	316
15.471	34.764	18112	32767	0	316
14.966	35.052	18248	32767	0	316
19.473	39.163	18329	32767	0	316
23.621	44.861	18273	32767	0	316
26.470	48.035	18088	32767	0	316
25.820	49.153	17887	0	0	316
21.998	45.005	17726	0	0	316
20.267	45.114	17646	0	0	316
23.585	45.835	17549	0	0	316
26.686	46.700	17509	0	0	316
27.660	47.422	17404	0	0	316
25.820	44.068	17284	0	0	316
23.008	39.560	17123	0	0	316
21.926	39.740	17027	0	0	316
26.794	44.645	16986	0	0	316
31.626	53.228	16922	0	0	316
35.197	59.755	16906	0	0	316
38.658	62.856	16922	0	0	316
42.914	62.387	16962	0	0	316
48.251	61.017	17002	0	0	316
54.165	62.135	17043	0	0	316
56.401	68.878	17123	0	0	316
57.339	73.026	17163	0	0	316
52.867	73.458	17043	0	0	316
51.208	72.737	16842	0	0	316
51.244	72.268	16601	0	0	316
57.050	76.307	16344	0	0	316
62.892	83.339	16087	0	0	316
65.921	90.624	15886	0	0	316
65.128	90.912	15782	0	0	316
62.027	90.804	15685	0	0	316
60.296	89.398	15661	0	0	316
65.200	92.175	15645	0	0	316
71.295	99.026	15540	0	0	316
73.963	103.065	15460	0	0	316
71.006	103.390	15404	0	0	316
65.308	98.810	15259	0	0	316
59.322	93.689	15179	0	0	316
59.070	91.706	15122	0	1	316
58.348	91.129	15139	0	0	316
57.771	94.555	15179	2195	0	316
56.545	98.089	15243	17329	0	316
50.884	97.620	15163	22600	0	316
47.710	97.115	14978	13412	0	316
42.986	96.538	14881	1655	0	316
36.495	96.827	14761	0	0	316
28.092	95.168	14600	0	0	316
22.683	94.122	14479	0	0	316
21.457	93.401	14439	0	0	316
23.116	88.208	14455	4628	0	316
26.037	85.719	14520	20573	0	316
27.047	80.599	14560	32767	0	316
25.063	77.461	14616	32767	0	316
22.358	70.249	14616	32767	0	316
23.585	64.659	14696	32767	0	316
24.414	58.889	14801	32767	0	316
24.594	54.886	14978	32767	0	316
22.358	55.788	15139	32767	0	316
12.550	54.634	15323	32767	0	316
2.380	56.113	15524	32767	0	316
-3.678	51.244	15782	32767	0	316
-8.655	48.215	15966	32767	0	316
-7.393	43.635	16208	32767	0	316
-8.619	41.724	16440	32767	0	316
-9.376	40.101	16681	32767	0	316
-15.398	34.728	16906	32767	0	316
-16.913	30.040	17123	32767	0	316
-16.769	25.856	17364	32767	0	316
-18.716	23.044	17549	32767	0	316
-20.519	23.981	17790	32767	0	316
-24.847	20.195	17911	32767	0	316
-28.633	17.779	17967	32767	0	316
-28.850	12.550	17967	32767	0	316
-25.316	10.097	17991	32767	0	316
-23.044	6.816	18031	32767	0	316
-25.243	2.849	18031	32767	0	316
-30.617	-5.373	17927	32767	0	316
-32.203	-13.451	17806	8547	0	316
-30.833	-13.920	17750	0	0	316
-26.866	-10.638	17629	0	0	316
-27.443	-3.390	17445	0	0	316
-31.735	1.587	17123	0	0	316
-41.219	1.623	16866	0	0	316
-47.386	2.849	16665	0	0	316
-44.933	6.455	16504	0	0	316
-36.819	11.432	16384	0	0	316
-26.794	17.959	16328	0	0	316
-18.572	20.519	16264	0	0	316
-14.533	22.755	16167	0	0	316
-11.432	25.748	16047	0	0	316
-6.635	31.915	15983	0	0	316
-0.216	38.622	15966	0	0	316
5.373	41.291	15983	0	0	316
4.255	39.849	16023	0	0	316
-3.282	34.223	16103	0	0	316
-11.468	29.174	16224	0	0	316
-15.398	28.886	16328	5033	0	316
-10.025	34.151	16464	23275	0	316
-2.380	39.380	16601	32767	0	316
4.868	40.858	16721	32767	0	316
6.708	35.557	16721	32767	0	316
4.652	31.554	16721	32767	0	316
-0.649	29.030	16745	32767	0	316
-1.262	33.466	16802	32767	0	316
-0.613	41.147	16826	32767	0	316
1.695	46.159	16785	32767	0	316
4.291	45.907	16665	32767	0	316
3.787	42.481	16504	16249	0	316
3.967	36.675	16344	0	0	316
4.219	34.079	16248	0	0	316
5.878	34.115	16208	0	0	316
14.497	36.819	16127	0	0	316
20.123	39.740	16007	0	0	316
24.991	40.930	15926	0	0	316
26.253	39.019	15862	0	0	316
22.935	37.216	15846	0	0	316
21.926	37.360	15862	0	0	316
22.070	38.514	15926	2060	1	316
24.666	37.541	16007	15439	0	316
27.696	35.088	16063	26789	0	316
27.948	28.958	16047	27600	0	316
26.794	26.506	15862	13412	0	316
27.515	26.614	15661	0	0	316
30.148	30.292	15484	0	0	316
30.617	33.321	15283	0	0	316
29.030	31.879	15139	0	0	316
23.080	28.850	14921	0	0	316
18.175	27.804	14801	0	0	316
16.120	28.705	14721	0	0	316
18.356	33.249	14680	0	0	316
25.784	37.649	14737	0	0	316
32.131	40.498	14817	0	0	316
38.658	41.399	14897	13952	0	316
44.068	44.176	15042	32600	0	316
47.422	46.376	15082	32767	0	316
45.763	47.458	15098	32767	0	316
41.580	46.159	15203	32767	0	316
34.908	44.464	15323	32767	0	316
30.833	40.281	15484	32767	0	316
27.515	40.389	15605	32767	0	316
25.460	40.426	15621	32767	0	316
24.955	39.452	15540	32767	0	316
18.608	36.531	15460	32767	0	316
17.021	34.331	15444	32767	0	316
16.372	33.285	15500	32767	0	316
22.106	33.718	15540	32767	0	316
29.391	37.396	15661	32767	0	316
34.403	40.101	15806	32767	0	316
31.662	40.534	15902	32767	0	316
25.388	41.652	15942	32767	0	316
18.283	42.265	15966	32767	0	316
15.471	42.373	16007	32767	0	316
17.346	41.075	15966	32767	0	316
17.526	39.199	15862	32767	0	316
18.428	35.160	15741	19762	0	316
15.326	35.305	15645	3412	0	316
16.444	37.937	15581	0	0	316
18.464	42.734	15524	0	0	316
22.647	45.979	15420	0	0	316
26.289	47.674	15203	0	0	316
26.361	49.261	15002	0	0	316
25.784	49.874	14761	0	0	316
26.722	50.739	14520	0	0	316
28.922	53.444	14294	0	0	316
32.095	50.847	14118	0	0	316
36.531	49.946	14037	0	0	316
37.396	46.881	13957	0	0	316
33.429	44.573	13876	0	0	316
25.135	41.796	13876	0	0	316
14.245	36.531	13836	0	0	316
3.318	31.771	13772	0	0	316
-4.940	27.587	13772	0	0	316
-5.337	25.820	13852	0	0	316
2.164	28.525	13973	7736	0	316
12.045	34.656	14158	32767	0	316
21.745	40.678	14335	32767	0	316
24.053	41.435	14415	32767	0	316
22.395	40.353	14335	32767	0	316
14.785	36.928	14214	32767	0	316
16.625	34.547	14134	32767	0	316
20.700	36.783	14134	32767	0	316
27.227	42.265	14174	32767	0	316
31.590	46.664	14174	32767	0	316
26.397	46.989	14198	32767	0	316
15.651	45.078	14294	32767	0	316
10.278	43.743	14415	32767	0	316
9.412	45.727	14576	32767	0	316
14.858	49.477	14656	32767	0	316
20.664	54.237	14560	32767	0	316
17.382	51.857	14439	32767	0	316
11.540	48.648	14335	31924	0	316
4.688	44.248	14294	24356	0	316
6.347	44.320	14174	17465	0	316
11.035	47.277	13957	0	0	316
17.959	47.386	13732	0	0	316
13.091	41.724	13555	0	0	316
5.590	32.095	13434	0	1	316
-5.770	19.257	13330	0	0	316
-12.694	16.769	13314	0	0	316
-11.900	19.473	13314	0	0	316
-4.219	29.931	13434	0	0	316
5.049	41.039	13611	11790	0	316
11.612	45.691	13692	29897	0	316
14.172	46.953	13836	32767	0	316
16.552	46.628	14037	32767	0	316
16.516	44.609	14238	32767	0	316
21.565	45.763	14399	32767	0	316
25.496	48.179	14520	32767	0	316
28.056	46.448	14536	32767	0	316
26.470	43.924	14520	32767	0	316
22.755	39.344	14479	32767	0	316
19.798	39.921	14439	32767	0	316
21.241	42.770	14399	32767	0	316
23.224	45.294	14479	32767	0	316
24.306	45.727	14600	32767	0	316
23.188	40.317	14801	32767	0	316
17.562	34.908	15018	32767	0	316
14.317	33.393	15139	32767	0	316
13.127	37.072	15299	32767	0	316
17.238	41.219	15444	32767	0	316
19.113	40.858	15565	32767	0	316
19.401	35.197	15661	32767	0	316
15.362	29.571	15806	32767	0	316
13.054	25.460	16023	32767	0	316
11.684	24.270	16208	32767	0	316
13.199	24.270	16328	32767	0	316
13.415	24.342	16440	32767	0	316
11.576	18.536	16560	32767	0	316
8.439	17.418	16584	32767	0	316
9.448	18.283	16544	32767	0	316
15.362	25.712	16504	32767	0	316
21.493	34.908	16520	24086	0	316
26.470	42.661	16601	23140	0	316
29.246	47.205	16665	24356	0	316
29.571	49.657	16681	20167	0	316
30.436	52.218	16705	12330	0	316
31.230	52.398	16745	7060	0	316
30.797	53.732	16721	1790	0	316
29.282	49.838	16721	0	0	316
29.427	48.828	16785	0	0	316
27.443	47.422	16826	0	0	316
26.542	48.035	16826	0	0	316
20.303	53.083	16842	0	0	316
14.100	51.713	16906	0	0	316
7.501	51.208	17002	0	0	316
4.796	47.349	17123	9357	0	316
4.472	44.717	17244	19492	0	316
7.357	42.373	17324	22329	0	316
7.573	42.157	17348	19086	0	316
5.698	44.825	17445	19356	0	316
2.777	43.058	17549	25978	0	316
2.957	47.097	17670	32600	0	316
9.484	51.136	17629	28816	0	316
23.729	61.738	17549	11249	0	316
35.052	71.691	17388	0	0	316
44.212	76.343	17163	0	0	316
47.313	79.589	16882	0	0	316
47.494	78.146	16625	0	0	316
51.028	77.533	16504	0	0	316
53.913	79.517	16400	0	0	316
52.651	81.140	16264	0	0	316
50.811	80.779	16167	0	0	316
46.628	76.668	16127	0	0	316
47.674	76.920	16103	0	0	316
52.398	75.766	16007	0	0	316
61.486	78.399	15862	0	0	316
65.164	78.327	15741	0	0	316
64.010	73.783	15701	0	0	316
57.807	65.308	15725	0	0	316
50.631	56.617	15822	0	0	316
45.835	47.530	15942	0	0	316
44.825	46.628	15926	10168	0	316
46.340	45.150	15846	8141	0	316
47.133	44.861	15806	3276	0	316
45.078	46.881	15766	5844	0	316
45.510	47.962	15741	9628	1	316
43.960	48.467	15685	10844	0	316
40.750	47.926	15685	14898	0	316
38.045	44.753	15661	18951	0	316
36.351	42.084	15645	20573	0	316
37.000	38.298	15701	27465	0	316
40.966	42.048	15846	32767	0	316
43.599	45.582	15983	32767	0	316
45.005	46.881	16167	32767	0	316
39.344	46.700	16400	32767	0	316
34.403	43.960	16641	32767	0	316
32.348	40.930	16906	32767	0	316
33.610	39.668	17203	32767	0	316
34.079	40.894	17485	32767	0	316
33.466	39.993	17726	32767	0	316
27.515	38.190	17887	32767	0	316
20.014	36.783	18031	32767	0	316
15.146	35.990	18112	32767	0	316
13.343	34.079	18128	32767	0	316
16.733	32.816	18152	32767	0	316
17.093	30.220	18168	32767	0	316
16.805	28.994	18047	32767	0	316
12.766	26.866	17847	32767	0	316
9.953	26.830	17646	1655	0	316
7.717	27.335	17388	0	0	316
8.583	27.227	17163	0	0	316
10.206	30.761	16882	0	0	316
12.622	31.879	16625	0	0	316
11.504	31.482	16344	0	0	316
9.881	29.823	16127	0	0	316
9.701	27.119	15983	0	0	316
10.674	24.234	15926	0	0	316
9.701	27.083	15966	0	0	316
6.383	27.047	16023	0	0	316
1.442	27.119	16143	0	0	316
-8.078	23.440	16304	0	0	316
-14.677	15.651	16480	0	0	316
-15.975	11.251	16681	25302	0	316
-18.211	9.556	16882	32767	0	316
-17.274	9.520	16962	32767	0	316
-17.634	11.900	16866	32767	0	316
-15.435	14.064	16721	27870	0	316
-12.333	12.261	16584	9222	0	316
-9.917	14.605	16544	2871	0	316
-8.006	16.841	16480	4222	0	316
-8.655	16.228	16400	2466	0	316
-11.937	16.769	16304	0	0	316
-15.435	15.218	16167	0	0	316
-15.110	13.740	16063	0	0	316
-17.706	11.900	15886	0	0	316
-16.913	10.097	15701	0	0	316
-19.834	6.527	15500	0	0	316
-23.296	3.787	15243	0	0	316
-26.217	1.298	15058	0	0	316
-27.876	2.236	14938	0	0	316
-23.981	5.842	14938	0	0	316
-17.995	9.016	14938	0	0	316
-11.900	14.425	14962	0	0	316
-7.104	16.228	15002	0	0	316
-5.337	15.507	15018	1114	0	316
-10.566	12.333	15042	13682	0	316
-21.421	5.013	15058	22600	0	316
-33.285	-4.400	15203	32767	0	316
-42.553	-13.956	15339	32767	0	316
-48.431	-19.329	15581	32767	0	316
-47.962	-22.755	15741	32767	0	316
-48.467	-24.847	15902	32767	0	316
-54.418	-26.073	16023	32767	0	316
-59.899	-31.410	16248	32767	0	316
-62.892	-35.593	16384	32767	0	316
-61.378	-39.812	16424	32767	0	316
-61.125	-45.582	16344	32767	0	316
-66.607	-56.113	16143	32767	0	316
-77.209	-66.679	15846	32767	0	316
-90.263	-73.350	15500	0	0	316
-92.211	-73.278	15219	0	0	316
-89.326	-66.823	14897	0	0	316
-82.943	-62.640	14696	0	0	316
-83.411	-63.794	14616	0	0	316
-92.427	-73.386	14616	0	1	316
-103.931	-83.448	14656	0	0	316
-113.704	-88.821	14841	0	0	316
-117.634	-91.850	15018	7601	0	316
-117.670	-90.948	15203	32767	0	316
-119.654	-92.535	15364	32767	0	316
-121.493	-97.944	15500	32767	0	316
-125.027	-104.688	15645	32767	0	316
-132.600	-113.668	15766	32767	0	316
-138.803	-122.683	15806	32767	0	316
-144.284	-130.076	15806	32767	0	316
-149.008	-137.649	15701	32767	0	316
-149.261	-142.337	15645	32767	0	316
-149.802	-147.818	15645	32767	0	316
-151.424	-153.264	15685	32767	0	316
-155.860	-159.178	15685	32767	0	316
-158.745	-167.220	15540	22735	0	316
-161.666	-171.908	15444	5979	0	316
-158.745	-174.252	15299	0	0	316
-156.726	-172.124	15203	0	0	316
-153.805	-167.652	15058	0	0	316
-154.093	-165.092	15018	0	0	316
-157.014	-166.931	15018	0	0	316
-158.781	-172.485	15139	0	0	316
-161.810	-178.182	15283	12871	0	316
-162.568	-181.464	15460	32767	0	316
-160.404	-179.517	15581	32767	0	316
-161.846	-179.120	15725	32767	0	316
-162.315	-182.185	15886	32767	0	316
-165.128	-189.109	15966	32767	0	316
-167.761	-200.685	16023	32767	0	316
-169.816	-211.648	16063	32767	0	316
-172.917	-220.303	16103	32767	0	316
-179.156	-231.302	16167	32767	0	316
-187.523	-239.812	16143	32767	0	316
-198.882	-248.792	16087	32767	0	316
-205.049	-254.814	15942	19762	0	316
-206.203	-256.581	15782	1790	0	316
-205.878	-257.266	15581	0	0	316
-203.859	-259.755	15380	0	0	316
-204.904	-261.089	15203	0	0	316
-203.534	-264.407	15042	0	0	316
-198.161	-263.649	14881	0	0	316
-193.365	-264.263	14777	0	0	316
-188.965	-264.587	14737	0	0	316
-191.958	-270.898	14696	0	0	316
-200.829	-277.497	14680	0	0	316
-206.744	-284.962	14801	0	0	316
-209.665	-287.342	14938	0	0	316
-204.796	-288.172	15139	21519	0	316
-199.748	-284.529	15420	32767	0	316
-202.849	-286.765	15685	32767	0	316
-211.756	-294.879	15846	32767	0	316
-225.207	-306.744	15862	32767	0	316
-235.124	-320.844	15806	32767	0	316
-238.911	-328.633	15725	32767	0	316
-236.819	-331.771	15661	32767	0	316
-235.882	-332.095	15581	32767	0	316
-237.180	-332.636	15484	22329	0	316
-237.973	-340.137	15460	14763	0	316
-240.137	-347.530	15500	16519	0	316
-240.534	-357.050	15581	25843	0	316
-248.539	-369.528	15621	32194	0	316
-256.906	-379.481	15685	32767	0	316
-267.075	-386.513	15782	32767	0	316
-269.455	-389.686	15782	32767	0	316
-267.580	-388.857	15741	32767	0	316
-258.997	-384.529	15701	23140	0	316
-253.228	-383.952	15725	22329	0	316
-253.155	-386.873	15741	23546	0	316
-257.014	-392.138	15701	20167	0	316
-261.017	-398.918	15685	14763	0	316
-265.417	-403.173	15701	11925	0	316
-261.774	-404.472	15725	14628	0	316
-259.755	-404.544	15725	17735	0	316
-257.230	-404.472	15782	19356	0	316
-257.447	-409.124	15902	26789	0	316
-264.046	-414.930	16063	32767	0	316
-271.727	-420.664	16288	32767	0	316
-281.789	-423.693	16504	32767	1	316
-290.191	-427.551	16665	32767	0	316
-296.033	-432.023	16761	32767	0	316
-300.108	-439.957	16802	32767	0	316
-297.043	-444.825	16745	32767	0	316
-291.381	-447.458	16721	32767	0	316
-284.782	-443.202	16761	32767	0	316
-278.796	-440.245	16802	32767	0	316
-277.245	-439.091	16761	32767	0	316
-275.514	-442.012	16705	21248	0	316
-275.838	-442.914	16560	2060	0	316
-273.242	-444.032	16464	0	0	316
-268.049	-441.507	16384	0	0	316
-263.938	-439.596	16328	0	0	316
-260.728	-436.387	16224	0	0	316
-255.752	-433.934	16063	0	0	316
-251.172	-427.479	15966	0	0	316
-246.845	-419.437	15942	0	0	316
-242.157	-415.038	15983	0	0	316
-237.288	-415.435	16087	0	0	316
-234.728	-418.320	16127	0	0	316
-233.141	-420.195	16184	0	0	316
-229.030	-416.661	16264	7060	0	316
-226.325	-408.619	16264	13006	0	316
-222.431	-398.161	16167	4493	0	316
-217.346	-397.584	15942	0	0	316
-216.048	-402.633	15645	0	0	316
-216.589	-408.871	15339	0	0	316
-220.375	-410.674	15082	0	0	316
-223.873	-408.691	14817	0	0	316
-225.316	-400.469	14600	0	0	316
-226.938	-397.548	14399	0	0	316
-226.830	-397.223	14294	0	0	316
-228.489	-399.387	14238	0	0	316
-229.535	-398.846	14214	0	0	316
-228.597	-394.519	14238	0	0	316
-222.142	-389.939	14319	0	0	316
-213.091	-386.008	14399	0	0	316
-202.777	-383.231	14479	13547	0	316
-192.391	-382.113	14680	32767	0	316
-183.880	-379.192	14921	32767	0	316
-180.310	-378.038	15203	32767	0	316
-184.962	-377.028	15420	32767	0	316
-191.093	-372.917	15605	32767	0	316
-198.810	-368.951	15741	32767	0	316
-204.760	-363.145	15902	32767	0	316
-203.354	-356.906	16063	32767	0	316
-201.010	-351.965	16208	32767	0	316
-190.335	-348.576	16304	32767	0	316
-181.500	-344.320	16384	32767	0	316
-168.410	-335.918	16424	32767	0	316
-159.466	-331.049	16424	32767	0	316
-158.529	-325.027	16424	32767	0	316
-159.827	-322.467	16400	32767	0	316
-162.640	-319.834	16400	32767	0	316
-161.918	-316.805	16480	32767	0	316
-162.856	-313.776	16641	32767	0	316
-164.118	-309.016	16785	32767	0	316
-167.292	-304.255	16882	32767	0	316
-171.439	-300.757	16986	32767	0	316
-173.278	-295.240	17123	32767	0	316
-175.261	-290.840	17203	32767	0	316
-178.723	-285.864	17268	32767	0	316
-182.149	-280.130	17364	32767	0	316
-182.871	-274.793	17348	32767	0	316
-182.654	-269.023	17284	32767	0	316
-180.166	-265.813	17203	10574	0	316
-180.995	-263.830	17002	0	0	316
-187.450	-262.135	16802	0	0	316
-192.788	-254.922	16601	0	0	316
-192.535	-245.618	16400	0	0	316
-186.260	-233.970	16224	0	0	316
-175.694	-227.371	15983	0	0	316
-166.030	-223.476	15741	0	0	316
-161.378	-223.332	15540	0	0	316
-157.375	-219.437	15484	0	0	316
-154.959	-211.828	15460	0	0	316
-147.097	-202.741	15380	0	0	316
-139.921	-195.168	15283	0	0	316
-134.547	-187.739	15203	0	1	316
-130.581	-180.346	15203	0	0	316
-125.568	-171.006	15179	0	0	316
-117.815	-157.627	15179	0	0	316
-108.691	-147.422	15139	0	0	316
-100.216	-138.911	15203	0	0	316
-95.492	-137.000	15243	0	0	316
-96.430	-136.062	15323	11249	0	316
-99.784	-135.593	15380	24221	0	316
-101.154	-127.660	15524	32767	0	316
-99.928	-115.471	15605	32767	0	316
-97.115	-100.469	15661	32767	0	316
-91.093	-86.260	15685	32767	0	316
-79.373	-75.911	15565	32767	0	316
-71.006	-71.078	15380	31519	0	316
-66.282	-70.429	15179	8547	0	316
-66.715	-69.816	15018	0	0	316
-70.862	-68.410	15042	0	0	316
-72.016	-63.181	15058	7601	0	316
-63.758	-52.542	15058	17600	0	316
-50.270	-41.507	15139	25573	0	316
-37.108	-30.148	15219	32767	0	316
-34.331	-22.034	15323	32767	0	316
-31.626	-16.264	15380	32767	0	316
-31.879	-9.232	15460	32767	0	316
-28.201	-5.445	15500	32767	0	316
-24.017	-3.354	15484	32767	0	316
-21.385	-0.974	15420	32767	0	316
-23.188	2.308	15404	32767	0	316
-23.224	10.133	15444	32767	0	316
-19.329	26.289	15460	32767	0	316
-8.727	42.373	15484	32767	0	316
-0.577	54.850	15460	32767	0	316
2.200	54.886	15299	25032	0	316
0.793	50.451	15179	6249	0	316
-0.361	44.320	15058	0	0	316
6.888	50.631	15139	0	0	316
17.202	65.200	15243	12601	0	316
29.174	81.572	15380	31924	0	316
30.364	87.847	15524	32767	0	316
27.083	85.719	15621	32767	0	316
22.070	79.156	15661	32767	0	316
23.945	77.101	15621	32767	0	316
26.397	80.563	15540	31789	0	316
27.407	90.011	15484	20438	0	316
24.053	97.476	15565	23140	0	316
14.533	104.508	15685	32767	0	316
10.710	113.018	15725	32767	0	316
10.242	118.933	15806	32767	0	316
15.723	124.811	15862	32767	0	316
23.981	126.650	15966	32767	0	316
32.925	129.427	16063	32767	0	316
38.947	131.987	16167	32767	0	316
43.563	132.925	16248	32767	0	316
47.349	132.276	16304	32767	0	316
49.910	131.807	16328	32767	0	316
54.959	134.006	16344	32767	0	316
57.122	138.839	16400	32767	0	316
59.647	149.982	16504	32767	0	316
63.109	162.459	16504	32767	0	316
68.842	166.643	16424	31519	0	316
79.877	165.056	16288	8817	0	316
89.722	161.342	16143	0	0	316
92.283	154.382	15983	0	0	316
89.686	150.847	15766	0	0	316
84.782	150.811	15484	0	0	316
79.373	149.441	15283	0	0	316
79.805	145.691	15042	0	0	316
81.753	143.743	14777	0	0	316
84.385	144.140	14495	0	0	316
85.828	149.189	14294	0	0	316
89.939	152.867	14238	0	0	316
91.922	150.775	14094	0	0	316
95.889	141.724	13973	0	0	316
100.288	128.453	13997	0	0	316
105.337	117.779	14013	0	0	316
108.222	115.939	14013	0	0	316
109.773	121.241	13957	0	0	316
107.789	125.496	13876	0	0	316
102.777	127.047	13812	0	0	316
99.279	119.546	13756	0	0	316
94.915	114.497	13651	0	0	316
91.381	113.379	13475	0	0	316
88.604	117.454	13330	0	0	316
80.418	124.378	13193	0	0	316
73.675	124.955	13113	0	0	316
67.544	121.277	12952	0	0	316
65.994	116.697	12831	0	0	316
68.193	116.048	12791	0	0	316
68.482	117.238	12912	1790	0	316
64.407	121.781	13113	32767	0	316
60.332	120.050	13475	32767	0	316
55.968	120.844	13812	32767	0	316
61.414	119.041	14158	32767	0	316
72.196	117.454	14495	32767	0	316
81.248	117.779	14962	32767	0	316
82.907	115.975	15420	32767	0	316
78.940	113.812	15926	32767	0	316
71.836	116.012	16424	32767	0	316
67.328	119.257	16802	32767	0	316
70.069	123.512	17027	32767	0	316
75.225	128.309	17123	32767	0	316
78.399	127.515	17147	32767	0	316
74.107	126.145	17163	32767	0	316
68.121	126.542	17163	32767	1	416
62.135	128.273	17163	32767	0	416
62.027	130.977	17147	32767	0	416
65.994	132.925	17187	32767	0	416
71.150	130.148	17284	32767	0	416
72.593	124.919	17445	32767	0	416
70.105	121.890	17525	32767	0	416
66.030	119.510	17670	32767	0	416
62.748	119.582	17806	32767	0	416
60.728	119.365	18072	32767	0	416
58.132	113.631	18289	32767	0	416
53.768	106.131	18474	32767	0	416
51.641	98.305	18634	32767	0	416
53.552	95.384	18795	32767	0	416
60.584	99.567	18916	32767	0	416
70.934	107.429	19036	32767	0	416
81.897	115.471	19197	32767	0	416
84.746	120.952	19358	32767	0	416
85.142	123.224	19454	32767	0	416
83.051	125.207	19519	30843	0	416
82.546	122.647	19615	22870	0	416
87.811	124.342	19615	13952	0	416
90.119	124.089	19655	1925	0	416
92.571	123.693	19736	0	0	416
90.119	125.929	19776	0	0	416
88.388	123.440	19816	0	0	416
85.936	120.952	19760	0	0	416
89.037	121.601	19695	0	0	416
89.794	123.981	19559	0	0	416
91.706	131.338	19374	0	0	416
89.290	138.622	19117	0	0	416
89.867	141.507	18892	0	0	416
91.381	138.514	18731	0	0	416
92.860	134.692	18530	0	0	416
94.915	129.751	18369	0	0	416
96.935	131.194	18248	0	0	416
99.243	137.360	18128	0	0	416
102.560	141.363	17967	0	0	416
108.871	140.389	17806	0	0	416
113.523	137.901	17469	0	0	416
115.038	138.154	17163	0	0	416
114.821	142.301	16922	0	0	416
113.776	148.071	16785	0	0	416
110.963	149.730	16721	0	0	416
110.638	145.005	16785	0	0	416
109.665	144.464	16826	0	0	416
106.996	148.107	16826	0	0	416
104.868	157.266	16681	0	0	416
103.714	161.125	16520	0	0	416
101.118	159.142	16424	0	0	416
100.974	148.539	16368	0	0	416
99.026	140.858	16304	0	0	416
97.151	138.226	16288	0	0	416
93.545	141.507	16344	5574	0	416
88.027	146.268	16440	28005	0	416
82.907	149.044	16440	32767	0	416
77.894	146.953	16400	32767	0	416
78.219	143.130	16400	32767	0	416
84.385	140.462	16424	32767	0	416
95.889	140.894	16384	32767	0	416
106.383	144.717	16224	32767	0	416
115.218	147.530	16007	26654	0	416
115.867	149.874	15766	4087	0	416
111.864	148.864	15565	0	0	416
100.793	147.205	15299	0	0	416
88.857	144.068	15042	0	0	416
81.680	141.363	14721	0	0	416
75.983	139.488	14479	0	0	416
69.311	143.166	14254	0	0	416
63.902	149.225	13973	0	0	416
57.771	156.509	13692	0	0	416
53.264	159.394	13531	0	0	416
57.303	158.457	13450	0	0	416
65.417	153.516	13370	0	0	416
72.485	152.001	13249	0	0	416
78.687	154.201	13048	0	0	416
80.671	157.194	12912	0	0	416
76.488	157.880	12767	0	0	416
65.561	151.244	12687	0	0	416
51.064	141.075	12526	0	1	316
36.928	135.629	12389	0	0	316
28.056	135.413	12204	0	0	316
27.876	140.065	12124	0	0	316
34.980	144.464	12028	0	0	316
43.924	141.580	11963	2330	0	316
51.821	132.744	11963	13682	0	316
59.430	126.758	11963	28005	0	316
63.722	126.614	11963	32767	0	316
69.095	137.324	12068	32767	0	316
76.812	151.064	12325	32767	0	316
80.887	157.699	12606	32767	0	316
84.529	154.634	12831	32767	0	316
83.808	142.445	13089	32767	0	316
85.106	135.341	13314	32767	0	316
87.270	141.075	13651	32767	0	316
89.290	153.480	13933	32767	0	316
91.021	169.564	14134	32767	0	316
90.732	170.465	14319	32767	0	316
86.441	160.584	14479	32767	0	316
88.424	148.035	14560	32767	0	316
91.345	139.704	14600	32767	0	316
97.764	139.308	14656	32767	0	316
101.659	145.186	14680	32767	0	316
100.361	149.585	14696	32767	0	316
94.951	147.638	14777	32767	0	316
89.939	143.743	14938	32767	0	316
86.477	139.163	15219	32767	0	316
90.732	136.711	15565	32767	0	316
93.256	137.829	15966	32767	0	316
95.492	140.606	16384	32767	0	316
94.843	141.904	16705	32767	0	316
94.014	143.887	16866	32767	0	316
94.338	145.799	16986	32767	0	316
95.961	150.198	17067	32767	0	316
96.863	151.857	17083	32767	0	316
94.735	153.877	17067	32767	0	316
93.112	149.874	17107	32767	0	316
94.555	143.599	17147	32767	0	316
96.502	135.665	17228	32735	0	316
103.282	127.263	17268	21924	0	316
108.835	124.847	17244	8141	0	316
112.081	125.532	17203	0	0	316
111.287	131.013	17163	0	0	316
108.114	136.567	17244	0	0	316
106.599	134.980	17268	0	0	316
105.698	130.364	17268	0	0	316
106.708	123.585	17268	0	0	316
110.386	115.759	17147	0	0	316
108.727	112.586	16962	0	0	316
104.327	109.340	16842	0	0	316
100.721	106.671	16745	0	0	316
95.781	108.835	16641	0	0	316
98.053	114.353	16480	0	0	316
100.397	125.460	16344	0	0	316
104.868	134.439	16248	0	0	316
104.436	138.803	16288	0	0	316
104.291	136.711	16368	0	0	316
104.400	131.662	16464	0	0	316
107.248	126.073	16560	0	0	316
110.169	122.611	16705	0	0	316
112.333	120.736	16785	0	0	316
111.323	120.231	16785	2195	0	316
111.684	120.447	16705	0	0	316
113.199	119.762	16641	0	0	316
115.867	117.851	16560	0	0	316
114.028	108.763	16440	0	0	316
106.599	100.397	16384	0	0	316
99.135	97.620	16384	0	0	316
94.158	100.938	16368	0	0	316
95.060	106.744	16288	0	0	316
97.620	109.881	16264	0	0	316
99.351	105.265	16304	0	0	316
97.728	98.053	16304	4628	0	316
97.223	93.978	16264	5574	0	316
97.151	99.712	16248	3952	0	316
99.567	110.314	16184	3817	0	316
100.829	120.159	16047	0	0	316
99.135	126.758	15886	0	0	316
100.072	125.027	15605	0	1	316
101.154	124.378	15364	0	0	316
103.462	123.332	15203	0	0	316
100.902	128.417	15002	0	0	316
94.627	133.105	14737	0	0	316
86.693	131.879	14479	0	0	316
78.110	124.089	14238	0	0	316
75.622	113.199	14094	0	0	316
78.543	104.544	14077	0	0	316
85.106	102.993	14077	0	0	316
89.037	107.032	14094	0	0	316
93.473	114.064	14158	0	0	316
93.761	119.185	14294	10574	0	316
92.535	118.320	14560	32767	0	316
92.283	115.939	14857	32767	0	316
89.254	110.674	15219	32767	0	316
86.621	106.239	15500	32767	0	316
79.950	103.931	15725	32767	0	316
73.963	101.226	15926	32767	0	316
67.761	97.151	16063	32767	0	316
63.072	91.237	16127	32767	0	316
60.512	88.063	16063	32767	0	316
60.765	88.063	15942	32767	0	316
65.344	95.961	15846	32767	0	316
73.855	106.671	15766	32767	0	316
85.323	119.762	15846	32767	0	316
93.220	128.164	15966	32767	0	316
98.233	131.049	16047	32767	0	316
93.906	128.309	16063	32767	0	316
88.496	122.358	16143	32767	0	316
85.467	120.123	16328	32767	0	316
86.873	120.195	16584	32767	0	316
89.939	120.736	16842	32767	0	316
92.211	121.926	17083	32767	0	316
87.486	113.884	17348	32767	0	316
78.074	108.222	17589	32767	0	316
69.455	104.796	17766	32767	0	316
66.967	108.330	17847	32767	0	316
69.780	117.418	17927	32767	0	316
75.406	125.027	17991	32767	0	316
80.527	126.902	18047	32767	0	316
85.575	121.781	18168	32767	0	316
87.775	115.471	18208	32767	0	316
90.948	111.900	18152	32767	0	316
91.525	109.340	17967	13952	0	316
91.489	107.068	17750	0	0	316
86.224	100.325	17629	0	0	316
87.054	95.060	17589	0	0	316
89.470	90.624	17670	0	0	316
95.673	91.129	17750	0	0	316
97.187	93.329	17830	0	0	316
98.089	91.309	17887	0	0	316
96.935	88.929	17911	0	0	316
96.935	83.339	17967	0	0	316
100.613	82.834	18072	0	0	316
103.750	84.710	18072	0	0	316
105.265	89.001	18007	0	0	316
103.065	92.643	18007	0	0	316
100.974	96.574	18031	0	0	316
98.594	98.918	18031	0	0	316
98.053	102.019	18072	0	0	316
96.718	104.327	18152	0	0	316
94.194	105.121	18128	0	0	316
90.408	101.695	18047	0	0	316
87.270	97.331	18031	0	0	316
85.792	92.788	18047	0	0	316
88.749	87.811	18031	0	0	316
90.840	88.027	17991	0	0	316
94.843	85.683	17911	0	0	316
94.410	86.549	17790	0	0	316
94.483	87.126	17670	0	0	316
95.709	90.335	17710	0	0	316
96.610	93.833	17726	0	0	316
98.738	99.495	17766	0	0	316
102.019	101.983	17750	0	0	316
103.426	102.019	17710	0	0	316
105.121	101.370	17549	0	0	316
106.203	99.351	17324	0	0	316
104.977	99.639	17187	0	0	316
103.246	102.921	17027	0	1	316
103.137	106.635	16866	0	0	316
105.193	105.517	16681	0	0	316
107.104	102.200	16464	0	0	316
109.665	99.062	16224	0	0	316
106.635	99.026	15983	0	0	316
100.144	101.947	15806	0	0	316
93.365	105.157	15661	0	0	316
88.821	100.577	15524	0	0	316
92.355	87.847	15283	0	0	316
96.430	74.288	15082	0	0	316
100.036	64.226	14881	0	0	316
103.318	60.620	14761	0	0	316
101.695	63.686	14680	0	0	316
102.236	70.213	14576	0	0	316
104.291	76.848	14399	0	0	316
104.940	82.113	14238	0	0	316
105.590	83.520	13973	0	0	316
103.210	85.864	13756	0	0	316
97.908	83.808	13491	0	0	316
91.778	84.962	13370	0	0	316
88.604	86.441	13410	0	0	316
84.818	91.489	13611	0	0	316
87.883	95.276	13852	32767	0	316
91.525	98.630	14214	32767	0	316
98.197	99.135	14616	32767	0	316
100.613	93.076	14921	32767	0	316
102.921	85.936	15139	32767	0	316
101.370	77.281	15203	32767	0	316
96.827	70.393	15283	32767	0	316
94.915	67.580	15323	32767	0	316
91.129	66.462	15380	32767	0	316
92.427	69.311	15299	32767	0	316
93.076	72.953	15259	32767	0	316
93.184	74.973	15203	32767	0	316
93.797	76.524	15163	32767	0	316
95.673	77.065	15002	32767	0	316
96.069	78.759	14881	32767	0	316
98.666	79.300	14857	32194	0	316
100.469	80.274	14921	32767	0	316
98.738	80.995	15122	32767	0	316
97.512	81.103	15380	32767	0	316
94.771	81.464	15725	32767	0	316
95.528	84.421	15983	32767	0	316
97.367	83.303	16248	32767	0	316
96.863	81.284	16424	32767	0	316
92.896	79.120	16520	32767	0	316
86.585	76.524	16681	32767	0	316
73.603	73.134	16906	32767	0	316
60.332	70.141	17203	32767	0	316
50.811	66.643	17549	32767	0	316
42.265	64.695	17887	32767	0	316
40.822	65.056	18152	32767	0	316
43.743	67.400	18433	32767	0	316
46.772	70.141	18691	32767	0	316
44.032	68.626	18892	32767	0	316
36.351	67.761	19117	32767	0	316
26.542	63.902	19293	32767	0	316
20.736	58.565	19374	32767	0	316
23.260	53.516	19414	32767	0	316
31.122	45.582	19374	32767	0	316
40.353	38.298	19318	32767	0	316
45.871	36.819	19318	18816	0	316
47.349	38.658	19318	3006	0	316
48.359	44.501	19253	0	0	316
51.100	50.307	19277	0	0	316
57.158	53.300	19334	0	0	316
64.984	53.155	19438	0	0	316
72.593	53.913	19535	0	0	316
77.065	54.886	19559	0	0	316
77.786	58.312	19414	0	0	316
76.632	61.522	19253	0	0	316
75.081	63.109	19036	0	0	316
71.908	63.866	18851	0	0	316
66.282	61.882	18650	0	0	316
57.916	56.473	18409	0	0	316
52.001	53.949	18128	0	0	316
47.674	50.739	17871	0	0	316
51.569	52.326	17565	0	0	316
53.732	53.624	17284	0	1	316
58.132	57.483	17027	0	0	316
56.690	58.601	16906	0	0	316
57.411	55.932	16705	0	0	316
57.303	54.309	16480	0	0	316
58.817	47.349	16288	0	0	316
60.909	44.501	16127	0	0	316
60.837	42.373	15966	0	0	316
61.305	41.327	15862	0	0	316
62.387	43.887	15741	0	0	316
62.964	46.556	15621	0	0	316
63.217	50.523	15444	0	0	316
63.830	51.641	15163	0	0	316
65.633	54.959	14881	0	0	316
67.977	53.228	14520	0	0	316
72.557	55.680	14214	0	0	316
76.848	56.762	14013	0	0	316
80.599	59.034	13957	0	0	316
82.510	61.378	13997	0	0	316
81.861	59.755	14037	0	0	316
76.776	55.211	14118	8276	0	316
69.564	50.595	14158	30573	0	316
60.368	41.075	14174	32767	0	316
54.382	32.492	14254	32767	0	316
49.874	26.325	14455	32767	0	316
50.198	27.191	14680	32767	0	316
50.451	30.292	14857	32767	0	316
54.021	37.541	15002	32767	0	316
56.690	44.428	15098	32767	0	316
61.125	48.251	15243	32767	0	316
66.210	47.386	15404	32767	0	316
70.862	50.631	15605	32767	0	316
75.081	54.021	15741	32767	0	316
78.832	52.651	15822	32767	0	316
76.091	52.578	15902	32767	0	316
69.708	46.917	15942	32767	0	316
65.705	41.868	15942	32767	0	316
62.964	39.632	15926	32767	0	316
67.472	42.084	15926	32767	0	316
72.376	46.700	15942	32767	0	316
79.264	50.884	15966	32767	0	316
79.841	50.667	15983	32767	0	316
77.065	50.811	16047	32767	0	316
74.757	48.071	16103	32767	0	316
70.718	43.960	16224	32767	0	316
64.443	40.966	16328	32767	0	316
56.653	38.009	16440	32767	0	316
47.530	33.213	16480	32767	0	316
40.029	32.348	16480	32767	0	316
38.226	33.538	16544	32767	0	316
43.238	33.105	16681	32767	0	316
48.503	33.429	16826	32767	0	316
54.057	30.076	16986	32767	0	316
55.391	27.732	17107	32767	0	316
56.329	30.761	17147	32767	0	316
60.151	37.036	17147	32767	0	316
63.361	41.003	17187	32767	0	316
66.679	41.976	17284	32767	0	316
69.492	38.370	17429	32767	0	316
72.016	34.439	17469	32767	0	316
72.809	33.754	17485	32767	0	316
72.196	36.567	17525	23411	0	316
68.951	38.154	17589	21113	0	316
63.541	36.314	17565	18546	0	316
62.568	35.197	17525	6114	0	316
64.118	34.439	17445	0	0	316
66.823	35.052	17348	0	0	316
68.049	36.639	17163	0	0	316
63.361	34.403	16882	0	0	316
56.545	31.482	16601	0	0	316
50.920	24.198	16368	0	0	316
45.799	19.293	16167	0	0	316
42.878	13.559	16087	0	0	316
42.481	13.018	16023	0	0	316
42.517	12.045	15926	0	0	316
40.858	15.254	15782	0	0	316
35.197	16.012	15581	0	0	316
27.732	14.894	15339	0	0	316
20.736	12.550	15179	0	0	316
13.920	9.268	14978	0	1	316
16.733	9.773	14777	0	0	316
21.457	11.973	14495	0	0	316
29.174	14.641	14254	0	0	316
35.774	15.218	14077	0	0	316
40.353	20.195	13957	0	0	316
43.671	26.325	13876	0	0	316
41.399	33.502	13836	0	0	316
39.163	38.370	13876	0	0	316
33.033	37.685	14077	0	0	316
25.820	33.285	14294	27465	0	316
19.221	28.561	14479	32767	0	316
15.290	26.614	14576	32767	0	316
18.788	27.083	14761	32767	0	316
20.447	24.630	15018	32767	0	316
21.132	18.500	15163	32767	0	316
20.303	12.477	15259	32767	0	316
11.973	4.940	15219	32767	0	316
3.642	1.118	15163	32767	0	316
2.488	1.334	15042	32767	0	316
3.137	3.967	14881	32767	0	316
6.780	3.931	14857	32767	0	316
10.494	3.282	14897	32767	0	316
13.054	4.255	14962	32767	0	316
15.182	8.258	15098	32767	0	316
15.218	14.281	15259	32767	0	316
16.805	21.529	15404	32767	0	316
13.127	21.565	15484	32767	0	316
9.088	21.457	15621	32767	0	316
9.448	18.283	15886	32767	0	316
13.884	20.123	16143	32767	0	316
18.536	21.421	16368	32767	0	316
22.719	21.277	16625	32767	0	316
20.664	22.431	16882	32767	0	316
20.519	20.411	17147	32767	0	316
26.433	22.431	17404	32767	0	316
33.213	21.962	17686	32767	0	316
40.173	21.673	17991	32767	0	316
41.760	18.175	18192	32767	0	316
36.928	10.494	18289	32767	0	316
31.699	5.157	18369	32767	0	316
30.040	3.534	18409	32767	0	316
34.547	4.977	18433	32767	0	316
37.577	9.953	18449	32767	0	316
42.409	12.153	18449	32767	0	316
40.570	11.937	18433	31384	0	316
36.314	7.393	18393	13412	0	316
31.626	5.373	18353	0	0	316
30.400	5.481	18289	0	0	316
31.590	4.039	18232	0	0	316
34.511	0.288	18192	0	0	316
36.783	-3.534	18273	0	0	316
39.560	-4.147	18353	0	0	316
42.770	-1.803	18369	0	0	316
45.691	3.606	18232	0	0	316
47.566	6.203	18031	0	0	316
47.602	5.517	17790	0	0	316
45.222	3.606	17629	0	0	316
43.238	4.832	17509	0	0	316
41.940	8.042	17388	0	0	316
43.310	13.127	17228	0	0	316
43.130	15.903	17043	0	0	316
41.291	17.310	16866	0	0	316
36.783	16.372	16665	0	0	316
30.256	17.310	16480	0	0	316
24.378	17.887	16304	0	0	316
23.837	20.159	16184	0	0	316
24.955	17.887	16023	0	0	316
28.345	17.490	15806	0	0	316
31.554	15.074	15621	0	0	316
34.006	17.995	15404	0	0	316
33.754	22.467	15243	0	0	316
31.266	28.417	14978	0	0	316
28.597	31.410	14721	0	0	316
24.306	30.292	14415	0	0	316
25.965	28.128	14053	0	0	316
29.859	27.876	13796	0	0	316
33.610	27.299	13555	0	0	316
35.052	27.551	13370	0	0	316
32.600	25.135	13153	0	1	316
28.633	18.247	12992	0	0	316
22.395	10.206	12888	0	0	316
19.293	4.111	13008	0	0	316
18.716	3.534	13153	0	0	316
19.726	9.520	13354	32767	0	316
24.919	18.716	13571	32767	0	316
30.148	23.585	13756	32767	0	316
32.528	23.404	13836	32767	0	316
30.076	20.123	13917	32767	0	316
24.594	12.225	14053	32767	0	316
20.303	7.537	14319	32767	0	316
14.136	9.124	14696	32767	0	316
16.120	14.100	15122	32767	0	316
19.401	21.637	15605	32767	0	316
26.650	32.023	16103	32767	0	316
31.302	38.731	16504	32767	0	316
37.252	39.452	16906	32767	0	316
36.098	37.793	17324	32767	0	316
33.898	37.252	17646	32767	0	316
33.646	38.154	17967	32767	0	316
31.158	40.389	18152	32767	0	316
29.427	45.799	18208	32767	0	316
27.407	47.277	18208	32767	0	316
25.604	44.537	18232	32767	0	316
24.883	43.563	18369	32767	0	316
26.109	42.409	18449	32767	0	316
28.669	42.914	18490	32767	0	316
30.761	41.832	18409	32767	0	316
27.984	36.928	18289	32767	0	316
24.739	29.030	18232	10033	0	316
17.959	19.546	18192	0	0	316
14.208	16.913	18112	0	0	316
10.855	16.516	17911	0	0	316
11.504	20.375	17710	0	0	316
13.956	20.844	17549	0	0	316
15.471	22.106	17485	0	0	316
18.572	21.709	17565	0	0	316
25.279	21.709	17629	0	0	316
32.816	24.991	17670	0	0	316
38.009	25.929	17629	0	0	316
41.796	26.614	17605	0	0	316
38.334	26.037	17549	0	0	316
31.843	23.657	17509	0	0	316
23.440	20.123	17445	0	0	316
19.041	17.851	17445	0	0	316
17.851	12.477	17469	0	0	316
21.745	10.206	17469	0	0	316
25.568	9.917	17324	0	0	316
26.037	10.350	17187	0	0	316
26.470	11.540	17107	0	0	316
23.080	15.362	17083	0	0	316
24.522	13.523	17203	0	0	316
26.830	13.740	17348	0	0	316
28.850	12.153	17364	0	0	316
27.443	11.035	17348	0	0	316
28.020	11.143	17163	0	0	316
29.751	14.713	17027	0	0	316
36.891	21.349	16842	0	0	316
44.573	29.643	16665	0	0	316
49.657	35.918	16400	0	0	316
48.467	39.127	16143	0	0	316
39.163	36.819	15983	0	0	316
30.184	31.662	15886	0	0	316
22.827	26.433	15822	0	0	316
17.057	24.919	15822	0	0	316
15.362	23.512	15862	0	0	316
13.631	24.666	15886	0	0	316
10.927	25.784	15862	0	0	316
8.150	24.017	15846	0	0	316
7.068	19.293	15782	2871	0	316
6.058	14.821	15661	709	0	316
8.763	9.304	15500	0	0	316
8.439	6.347	15380	0	0	316
6.671	8.979	15283	0	0	316
5.121	13.920	15058	0	0	316
2.344	17.129	14897	0	0	316
0.252	19.762	14801	0	0	316
5.085	19.510	14841	0	0	316
10.422	19.437	14962	9087	1	316
12.946	17.670	15042	32735	0	316
13.379	17.851	15203	32767	0	316
8.907	16.156	15299	32767	0	316
1.695	18.788	15500	32767	0	316
-2.236	21.781	15661	32767	0	316
-2.308	24.919	15822	32767	0	316
-1.587	27.010	15862	32767	0	316
-3.210	24.883	15806	32767	0	316
-6.455	20.411	15725	32767	0	316
-6.455	21.854	15685	32767	0	316
-2.705	23.765	15645	32767	0	316
4.039	25.676	15460	32767	0	316
10.638	27.551	15323	24086	0	316
11.143	26.361	15243	12330	0	316
5.554	22.972	15283	14898	0	316
2.128	22.683	15283	22870	0	316
-0.974	22.106	15404	32329	0	316
-2.560	19.510	15605	32767	0	316
-6.094	17.093	15862	32767	0	316
-9.737	13.920	16184	32767	0	316
-15.182	16.336	16400	32767	0	316
-18.680	19.401	16520	32767	0	316
-15.002	26.614	16520	32767	0	316
-11.684	31.482	16480	32767	0	316
-9.232	33.321	16520	32767	0	316
-10.278	32.961	16601	32767	0	316
-17.706	29.787	16641	32767	0	316
-21.998	25.171	16761	32767	0	316
-24.017	23.404	16946	32767	0	316
-19.293	23.476	17228	32767	0	316
-11.937	28.489	17509	32767	0	316
-4.291	36.278	17670	32767	0	316
-1.479	40.678	17766	32767	0	316
-0.865	43.310	17830	32767	0	316
-1.803	40.389	17830	32767	0	316
-1.334	38.478	17726	32767	0	316
-1.803	39.344	17549	21789	0	316
-1.082	44.356	17284	0	0	316
-1.587	50.667	16922	0	0	316
-5.950	53.300	16560	0	0	316
-14.353	53.047	16143	0	0	316
-21.998	50.198	15782	0	0	316
-28.020	47.205	15460	0	0	316
-25.965	46.232	15179	0	0	316
-21.998	47.386	14841	0	0	316
-14.425	46.123	14536	0	0	316
-12.946	41.471	14359	0	0	316
-17.093	34.728	14294	0	0	316
-20.159	28.164	14238	0	0	316
-22.431	21.854	14294	0	0	316
-20.447	21.349	14479	0	0	316
-16.805	19.906	14737	0	0	316
-15.110	19.510	15122	22600	0	316
-15.615	14.713	15484	32767	0	316
-20.664	12.946	15782	32767	0	316
-26.109	11.215	15983	32767	0	316
-34.331	14.317	16063	32767	0	316
-37.505	20.411	16184	32767	0	316
-35.954	27.047	16288	32767	0	316
-28.128	34.547	16400	32767	0	316
-17.418	40.786	16504	32767	0	316
-7.970	41.543	16641	32767	0	316
-4.436	43.202	16826	32767	0	316
-2.128	43.563	16986	32767	0	316
-2.777	44.176	17187	32767	0	316
-1.551	46.881	17429	32767	0	316
-0.072	50.487	17750	32767	0	316
-0.865	49.585	18072	32767	0	316
-2.777	49.080	18409	32767	0	316
-5.157	47.782	18674	32767	0	316
-5.914	44.140	18932	32767	0	316
-1.479	46.015	19173	32767	0	316
2.885	48.395	19334	32767	0	316
5.806	48.035	19519	32767	0	316
6.022	49.585	19695	32767	0	316
2.056	47.999	19736	32767	0	316
-2.164	44.753	19679	32767	0	316
-2.452	46.736	19494	32767	0	316
0.397	49.910	19237	9628	1	316
5.445	50.559	19052	0	0	316
10.350	52.434	18972	0	0	316
12.838	48.143	18956	0	0	316
12.477	45.799	18996	0	0	316
11.720	44.753	19117	0	0	316
15.651	47.241	19213	0	0	316
18.933	52.795	19237	0	0	316
26.109	58.961	19133	0	0	316
29.931	62.063	18956	0	0	316
31.807	62.820	18771	0	0	316
31.987	60.692	18594	0	0	316
30.689	58.132	18409	0	0	316
28.705	58.529	18232	0	0	316
25.748	56.329	18112	0	0	316
26.001	57.194	18072	0	0	316
24.017	51.965	18128	0	0	316
23.008	49.405	18208	0	0	316
21.637	44.140	18313	0	0	316
18.320	41.940	18393	0	0	316
19.077	39.776	18449	0	0	316
19.401	37.432	18530	0	0	316
19.041	34.043	18570	3547	0	316
17.995	29.859	18570	6925	0	316
11.360	26.325	18530	5709	0	316
7.140	21.385	18570	5033	0	316
3.895	20.844	18610	10844	0	316
7.609	25.135	18674	21654	0	316
17.454	35.016	18691	27735	0	316
28.453	45.691	18731	28681	0	316
35.665	54.778	18755	31654	0	316
37.252	56.473	18731	30843	0	316
35.160	57.050	18530	15439	0	316
33.682	55.572	18289	0	0	316
35.918	59.863	17951	0	0	316
39.055	63.902	17670	0	0	316
37.757	65.020	17348	0	0	316
30.869	60.476	16962	0	0	316
23.909	54.850	16504	0	0	316
16.769	49.008	16063	0	0	316
10.710	44.897	15725	0	0	316
9.917	43.166	15540	0	0	316
10.169	43.202	15500	0	0	316
7.681	43.310	15500	0	0	316
4.724	44.176	15605	0	0	316
-0.144	43.202	15661	0	0	316
-6.022	40.894	15701	0	0	316
-9.773	37.649	15725	0	0	316
-7.717	36.062	15701	7601	0	316
-0.252	41.075	15645	12871	0	316
6.094	48.936	15565	17329	0	316
11.792	54.418	15484	16924	0	316
14.425	58.024	15339	14898	0	316
13.487	54.345	15283	16924	0	316
10.566	48.900	15219	21519	0	316
10.169	43.527	15203	26519	0	316
15.038	44.212	15139	32059	0	316
18.103	46.772	15139	32767	0	316
22.683	49.297	15179	32767	0	316
22.791	50.775	15339	32767	0	316
20.627	48.143	15460	32767	0	316
21.349	45.005	15605	32767	0	316
20.664	45.655	15581	32767	0	316
23.188	47.782	15500	32767	0	316
21.962	49.369	15380	32767	0	316
16.372	54.850	15323	32767	0	316
12.261	55.572	15404	32767	0	316
10.097	56.653	15524	32767	0	316
6.996	51.533	15701	32767	0	316
3.859	42.229	15822	32767	0	316
-2.560	30.112	15806	32767	0	316
-8.330	24.522	15741	32767	0	316
-10.061	22.791	15766	32767	0	316
-8.186	26.686	15886	32767	0	316
-4.868	33.033	16047	32767	0	316
-3.029	38.154	16248	32767	0	316
-2.380	41.471	16400	32767	0	316
-1.875	45.763	16544	32767	0	316
-1.406	47.494	16665	32767	0	316
1.334	47.494	16761	32767	0	316
4.868	46.268	16761	32767	0	316
12.550	51.064	16665	32767	1	324
22.611	54.634	16504	32767	0	324
32.095	60.151	16248	9493	0	324
35.233	60.909	15983	0	0	324
31.843	57.266	15822	0	0	324
25.712	51.785	15685	0	0	324
19.005	46.268	15605	0	0	324
17.238	44.140	15581	0	0	324
17.021	45.114	15661	0	0	324
20.231	45.546	15782	0	0	324
20.375	46.845	15886	0	0	324
22.106	48.539	16063	11520	0	324
20.159	52.506	16208	27465	0	324
17.995	51.244	16288	32767	0	324
12.514	49.657	16328	32767	0	324
9.124	42.950	16384	32767	0	324
5.049	36.170	16544	32767	0	324
3.426	32.708	16761	32767	0	324
4.255	36.170	16962	32767	0	324
7.285	42.481	17163	32767	0	324
9.629	51.028	17388	32767	0	324
15.398	54.598	17605	32767	0	324
16.733	58.457	17887	32767	0	324
19.618	59.863	18208	32767	0	324
19.726	62.964	18530	32767	0	324
20.627	65.885	18674	32767	0	324
16.625	65.741	18691	32767	0	324
14.172	62.928	18610	32767	0	324
9.160	55.319	18570	32767	0	324
4.868	51.316	18594	32767	0	324
6.275	48.467	18674	32767	0	324
7.212	50.162	18811	32767	0	324
7.321	48.467	18916	32767	0	324
4.977	42.734	19012	32767	0	324
1.983	35.160	19076	32767	0	324
0.397	26.145	19173	32767	0	324
4.219	24.342	19318	32767	0	324
13.127	25.676	19478	32767	0	324
20.339	28.922	19679	32767	0	324
27.010	29.102	19856	32767	0	324
26.037	28.958	20041	32767	0	324
19.618	21.998	20057	32767	0	324
13.523	18.175	19977	32465	0	324
8.907	13.127	19760	0	0	324
8.907	15.615	19599	0	0	324
16.012	18.031	19414	0	0	324
19.113	25.135	19253	0	0	324
20.267	27.551	19093	0	0	324
17.274	28.633	18956	0	0	324
18.247	30.797	18755	0	0	324
20.014	35.629	18449	0	0	324
26.145	42.770	18088	0	0	324
27.191	48.467	17766	0	0	324
20.339	48.756	17469	0	0	324
11.900	49.693	17163	0	0	324
2.633	48.179	16802	0	0	324
1.262	52.218	16464	0	0	324
1.839	51.569	16143	0	0	324
1.118	50.054	15846	0	0	324
-6.780	43.671	15581	0	0	324
-15.038	35.701	15323	0	0	324
-25.460	29.354	14978	0	0	324
-25.856	26.145	14656	0	0	324
-23.621	23.585	14375	0	0	324
-17.454	22.791	14134	0	0	324
-12.946	20.772	13997	0	0	324
-12.225	20.483	13973	0	0	324
-14.317	17.923	14053	0	0	324
-12.946	20.844	14198	0	0	324
-12.694	23.549	14335	13952	0	324
-10.710	27.479	14520	32767	0	324
-7.753	27.732	14737	32767	0	324
-9.088	26.037	15058	32767	0	324
-10.206	26.722	15404	32767	0	324
-10.314	29.607	15782	32767	0	324
-7.645	36.855	16023	32767	0	324
-4.724	40.894	16167	32767	0	324
-2.596	41.075	16328	32767	0	324
-2.488	37.432	16544	32767	0	324
-3.931	34.115	16761	32767	0	324
-6.094	35.377	16866	32767	0	324
-7.140	39.596	16866	32767	0	324
-8.475	39.921	16761	32767	1	328
-13.487	36.351	16601	32767	0	328
-16.408	30.292	16504	32767	0	328
-16.084	25.604	16424	32767	0	328
-13.379	24.702	16344	32767	0	328
-8.619	27.984	16328	32767	0	328
-6.239	31.699	16368	32767	0	328
-9.412	32.384	16328	32767	0	328
-13.127	33.754	16224	27194	0	328
-15.002	34.187	16167	13006	0	328
-19.329	34.187	16224	12195	0	328
-20.772	34.908	16344	23005	0	328
-21.601	34.980	16520	32767	0	328
-18.969	36.351	16761	32767	0	328
-10.819	39.127	17043	32767	0	328
-1.803	42.084	17324	32767	0	328
3.606	43.202	17670	32767	0	328
4.436	41.327	18007	32767	0	328
2.524	37.613	18369	32767	0	328
0.793	35.882	18674	32767	0	328
3.967	34.403	18892	32767	0	328
6.203	34.656	19093	32767	0	328
7.970	33.862	19293	32767	0	328
7.537	32.744	19519	32767	0	328
7.248	32.203	19760	32767	0	328
5.481	30.941	19977	32767	0	328
6.635	33.357	20218	32767	0	328
5.986	35.197	20483	32767	0	328
4.291	36.387	20620	32767	0	328
2.813	37.144	20700	32767	0	328
4.796	36.423	20765	32767	0	328
9.520	32.997	20765	32767	0	328
13.992	29.535	20700	32767	0	328
20.772	28.922	20564	6249	0	328
18.752	27.299	20379	0	0	328
14.100	25.820	20178	0	0	328
6.780	25.171	20057	0	0	328
0.180	22.250	19977	0	0	328
-3.750	21.565	19920	0	0	328
-3.210	26.470	19937	0	0	328
0.505	31.699	19920	0	0	328
5.049	35.269	19977	0	0	328
8.402	39.668	20017	0	0	328
10.169	40.137	20081	0	0	328
9.881	39.812	20162	0	0	328
7.681	41.471	20242	0	0	328
4.940	42.734	20338	0	0	328
2.524	43.527	20419	0	0	328
2.416	43.635	20483	0	0	328
0.180	43.130	20419	0	0	328
0.325	41.147	20322	0	0	328
-0.072	39.560	20138	0	0	328
0.685	39.849	19896	0	0	328
0.938	38.911	19639	0	0	328
2.452	34.944	19358	0	0	328
2.344	30.977	19117	0	0	328
0.288	26.758	18795	0	0	328
0.361	26.217	18393	0	0	328
-0.216	31.915	17991	0	0	328
-0.288	37.324	17565	0	0	328
-2.741	39.488	17083	0	0	328
-5.481	38.803	16665	0	0	328
-11.612	36.206	16384	0	0	328
-16.625	37.468	16184	0	0	328
-15.435	41.111	16087	0	0	328
-13.127	45.186	16047	0	0	328
-5.193	49.693	16063	0	0	328
1.154	50.811	16184	0	0	328
4.616	49.585	16264	0	0	328
5.193	50.775	16304	0	0	328
0.829	47.674	16368	18140	0	328
-2.488	44.969	16440	32767	0	328
-6.383	40.389	16584	32767	0	328
-9.016	32.492	16761	32767	0	328
-11.215	28.777	16946	32767	0	328
-10.314	26.289	17147	32767	0	328
-8.907	23.873	17348	32767	0	328
-8.583	21.890	17429	32767	0	328
-10.386	18.860	17565	32767	0	328
-13.343	13.271	17646	32767	1	316
-14.208	13.235	17790	32767	0	316
-15.435	16.949	17927	32767	0	316
-9.917	19.906	18047	32767	0	316
-5.950	24.414	18112	32767	0	316
-4.796	26.361	18112	32767	0	316
-4.580	27.984	18152	32767	0	316
-2.524	29.463	18232	32767	0	316
1.082	33.321	18273	32767	0	316
6.419	37.180	18232	32767	0	316
10.891	42.229	18047	32767	0	316
13.235	43.455	17871	32767	0	316
10.169	42.157	17790	19492	0	316
6.599	36.639	17670	8547	0	316
1.839	28.633	17509	0	0	316
-0.649	25.388	17228	0	0	316
-4.219	25.893	16946	0	0	316
-2.488	30.076	16665	0	0	316
-2.993	34.728	16368	0	0	316
-4.183	35.846	16063	0	0	316
-10.422	32.744	15846	0	0	316
-16.300	30.076	15645	0	0	316
-24.847	28.128	15420	0	0	316
-25.965	27.804	15259	0	0	316
-24.991	29.282	15163	0	0	316
-25.063	26.794	15018	0	0	316
-29.318	23.909	14921	0	0	316
-34.079	20.591	14921	0	0	316
-40.173	20.411	14962	0	0	316
-40.101	23.693	15042	0	0	316
-35.846	26.794	15082	0	0	316
-29.030	29.499	15098	7060	0	316
-25.063	30.328	15219	24492	0	316
-20.916	32.312	15323	32767	0	316
-19.690	33.610	15404	32767	0	316
-15.831	36.134	15460	32767	0	316
-14.785	38.262	15540	32767	0	316
-10.602	37.541	15581	32767	0	316
-10.206	35.124	15581	32767	0	316
-7.285	33.646	15524	32767	0	316
-2.813	34.223	15323	32767	0	316
5.734	36.098	15058	25167	0	316
15.326	38.695	14680	0	0	316
24.270	39.524	14319	0	0	316
27.551	39.740	14037	0	0	316
28.273	38.082	13876	0	0	316
27.876	36.891	13812	0	0	316
27.227	35.197	13836	0	0	316
26.542	32.203	13796	0	0	316
24.198	26.542	13812	0	0	316
18.933	21.745	13917	4087	0	316
13.668	16.841	14037	28005	0	316
9.340	18.103	14158	32767	0	316
8.979	18.428	14238	32767	0	316
10.999	21.529	14238	32767	0	316
16.120	26.325	14198	32767	0	316
19.618	28.056	14158	32767	0	316
23.945	30.508	14094	32767	0	316
23.585	32.348	14094	32767	0	316
21.637	31.662	14198	32767	0	316
20.880	29.463	14359	32767	0	316
17.202	26.974	14560	32767	0	316
17.743	26.470	14777	32767	0	316
16.480	30.004	14978	32767	0	316
17.995	35.160	15139	32767	0	316
17.815	38.658	15380	32767	0	316
20.664	39.272	15645	32767	0	316
20.880	36.928	15966	32767	0	316
21.854	36.314	16288	32767	0	316
24.594	40.570	16560	32767	0	316
28.633	50.667	16745	32767	0	316
33.538	59.574	16761	32767	0	316
37.757	64.551	16681	32767	0	316
40.317	65.417	16625	32767	0	316
39.308	63.830	16641	32767	0	316
38.514	63.000	16745	32767	0	316
37.252	63.109	16842	32767	0	316
34.908	64.767	16986	32767	0	316
32.853	62.820	17027	32767	0	316
31.554	63.613	17043	32767	1	316
33.826	66.751	17027	32767	0	316
39.452	73.819	17027	18005	0	316
45.655	82.402	17043	10709	0	316
54.634	90.408	17123	9763	0	316
55.355	94.374	17123	5303	0	316
55.103	95.673	17107	0	0	316
53.624	97.728	17147	0	0	316
54.526	95.817	17067	0	0	316
56.365	94.483	16866	0	0	316
53.985	92.030	16625	0	0	316
49.225	86.982	16384	0	0	316
42.084	85.647	16127	0	0	316
38.082	86.188	15926	0	0	316
40.786	89.001	15782	0	0	316
41.796	90.588	15645	0	0	316
41.363	91.742	15524	0	0	316
31.049	86.837	15339	0	0	316
17.562	86.044	15259	0	0	316
4.111	80.454	15179	0	0	316
-7.140	80.959	15139	0	0	316
-12.586	80.995	15098	0	0	316
-17.634	81.644	15179	0	0	316
-18.644	84.493	15283	0	0	316
-23.801	84.998	15444	0	0	316
-29.859	80.238	15484	13141	0	316
-38.983	74.324	15444	13952	0	316
-47.566	67.761	15299	3276	0	316
-55.896	66.498	15243	0	0	316
-60.765	68.915	15179	0	0	316
-63.902	72.953	15163	4222	0	316
-70.249	70.682	15082	5303	0	316
-78.543	64.082	15018	4763	0	316
-89.614	56.690	14978	6790	0	316
-100.721	53.228	15082	16924	0	316
-106.022	50.451	15179	32767	0	316
-107.212	49.116	15219	32767	0	316
-108.258	45.366	15323	32767	0	316
-112.117	41.327	15460	32767	0	316
-116.192	35.954	15621	32767	0	316
-121.493	31.951	15685	32767	0	316
-125.676	29.895	15661	32767	0	316
-125.820	23.837	15685	32767	0	316
-127.804	18.428	15782	32767	0	316
-130.581	9.088	15966	32767	0	316
-131.158	2.128	16103	32767	0	316
-130.328	-1.370	16167	32767	0	316
-128.092	-4.652	16127	32767	0	316
-123.729	-4.977	16167	32767	0	316
-123.152	-8.258	16184	32767	0	316
-119.329	-10.025	16143	32767	0	316
-114.064	-7.176	16023	32767	0	316
-106.203	-1.334	15942	20438	0	316
-97.981	7.681	15741	1790	0	316
-96.250	11.792	15524	0	0	316
-96.863	14.353	15339	0	0	316
-98.269	17.129	15139	0	0	316
-98.197	23.981	15002	0	0	316
-97.187	27.010	14841	0	0	316
-95.925	26.542	14696	0	0	316
-97.548	20.772	14576	0	0	316
-95.745	17.923	14520	0	0	316
-85.142	18.536	14536	0	0	316
-69.996	26.217	14656	0	0	316
-53.732	34.872	14881	0	0	316
-43.310	37.649	15082	25843	0	316
-40.678	34.692	15219	32767	0	316
-41.075	29.787	15420	32767	0	316
-37.360	25.820	15605	32767	0	316
-28.597	26.145	15741	32767	0	316
-18.464	26.866	15886	32767	0	316
-7.573	28.741	16127	32767	0	316
-4.652	29.318	16368	32767	0	316
-6.311	27.047	16641	32767	0	316
-8.366	24.630	16946	32767	0	316
-8.330	24.270	17244	32767	0	316
-6.094	25.820	17429	32767	0	316
0.685	28.922	17629	32767	0	316
7.032	34.728	17830	32767	0	316
11.215	39.488	18088	32767	0	316
14.713	42.337	18369	32767	0	316
16.661	41.111	18610	32767	1	324
19.005	40.173	18875	32767	0	324
24.486	38.009	19117	32767	0	324
32.564	40.426	19358	32767	0	324
39.452	43.779	19478	32767	0	324
45.727	49.044	19535	32767	0	324
47.061	54.634	19615	32767	0	324
47.602	56.798	19599	32767	0	324
49.405	60.765	19494	32767	0	324
50.775	61.233	19374	16249	0	324
55.536	59.574	19253	0	0	324
54.778	55.427	19117	0	0	324
52.506	51.677	18956	0	0	324
47.133	46.592	18795	0	0	324
41.832	43.310	18691	0	0	324
34.836	40.101	18650	0	0	324
27.804	39.416	18634	0	0	324
19.005	34.692	18674	0	0	324
14.064	29.427	18731	0	0	324
11.179	21.204	18795	0	0	324
12.550	17.923	18892	0	0	324
17.490	22.106	19012	0	0	324
25.388	30.869	19133	0	0	324
27.804	41.075	19213	0	0	324
26.470	43.383	19173	0	0	324
24.089	37.432	18972	0	0	324
17.021	32.600	18715	0	0	324
18.320	30.508	18449	0	0	324
19.185	34.764	18248	0	0	324
24.306	38.334	18128	0	0	324
26.866	40.462	18047	0	0	324
24.270	38.045	18007	0	0	324
23.440	33.646	17967	0	0	324
23.260	30.400	17911	0	0	324
21.781	29.391	17766	0	0	324
23.909	31.554	17629	0	0	324
28.814	34.187	17469	0	0	324
35.918	37.721	17404	0	0	324
43.238	38.875	17324	0	0	324
50.270	39.344	17228	0	0	324
57.086	40.462	17147	0	0	324
61.774	43.960	17107	0	0	324
70.573	47.999	17147	0	0	324
78.110	51.461	17203	0	0	324
81.031	56.653	17308	12871	0	324
81.897	58.096	17445	32767	0	324
79.769	60.296	17525	32767	0	324
78.904	63.253	17565	32767	0	324
80.346	64.659	17565	32767	0	324
80.130	62.676	17646	32767	0	324
77.353	60.837	17710	32767	0	324
71.655	59.250	17806	32767	0	324
67.616	57.411	17951	32767	0	324
65.525	53.624	18031	32767	0	324
64.407	50.307	18072	32767	0	324
64.984	43.202	18047	32767	0	324
62.928	41.363	18112	32767	0	324
61.522	43.058	18152	32767	0	324
59.935	50.126	18232	32767	0	324
59.899	54.093	18313	32767	0	324
60.043	55.319	18409	32767	0	324
62.027	51.641	18530	32767	0	324
64.803	49.621	18674	32767	0	324
67.256	45.186	18755	32767	0	324
69.383	41.868	18691	32767	0	324
70.682	40.209	18514	32767	0	324
72.088	41.291	18369	20032	0	324
76.884	46.015	18232	979	0	324
84.565	54.129	18152	0	0	324
88.208	60.909	18072	0	0	324
90.047	60.332	17951	0	0	324
83.772	58.601	17750	0	0	324
80.418	58.853	17565	0	0	324
79.517	57.880	17284	0	0	324
82.654	62.604	17043	0	0	324
89.326	67.328	16745	0	0	324
92.211	66.967	16400	0	0	324
94.483	64.840	16007	0	0	324
92.391	59.358	15621	0	0	324
89.903	50.018	15299	0	1	316
86.549	43.960	14978	0	0	316
81.392	37.649	14801	0	0	316
76.812	34.944	14696	0	0	316
74.540	33.502	14656	0	0	316
71.799	32.420	14656	0	0	316
68.518	32.456	14640	0	0	316
65.633	30.292	14640	0	0	316
59.142	24.522	14680	0	0	316
54.309	16.408	14841	3817	0	316
49.910	6.744	14962	32767	0	316
53.119	5.229	15018	32767	0	316
56.942	8.619	15082	32767	0	316
61.666	15.471	15098	32767	0	316
63.217	22.358	15042	32767	0	316
62.027	21.781	15018	32767	0	316
59.791	18.897	14962	32767	0	316
61.378	15.218	15018	32767	0	316
63.902	17.093	15098	32767	0	316
66.859	17.670	15243	32767	0	316
66.210	22.286	15243	32767	0	316
64.190	26.794	15139	32767	0	316
65.489	31.302	14962	32767	0	316
70.573	37.937	14761	32767	0	316
77.353	43.671	14600	23816	0	316
80.923	46.953	14479	13006	0	316
78.579	46.051	14455	12466	0	316
71.295	39.993	14520	23275	0	316
62.892	33.790	14616	32767	0	316
57.952	27.083	14817	32767	0	316
54.057	24.342	15002	32767	0	316
53.696	23.152	15098	32767	0	316
50.523	22.214	15243	32767	0	316
49.693	23.080	15364	32767	0	316
49.946	20.736	15460	32767	0	316
48.576	22.070	15540	32767	0	316
49.405	24.666	15685	32767	0	316
48.395	26.578	15822	32767	0	316
45.871	26.830	15886	32767	0	316
44.717	26.650	15966	32767	0	316
42.517	24.522	16087	32767	0	316
43.202	22.503	16248	32767	0	316
46.592	23.945	16384	32767	0	316
53.913	28.273	16424	32767	0	316
60.332	33.069	16368	32767	0	316
68.049	35.016	16328	32767	0	316
72.485	36.783	16344	32767	0	316
73.999	39.380	16400	32767	0	316
74.865	40.786	16464	32767	0	316
75.694	46.700	16480	32767	0	316
76.019	51.749	16464	27194	0	316
74.540	51.749	16400	13412	0	316
66.715	45.474	16304	0	0	316
55.247	37.685	16184	0	0	316
43.022	31.158	16103	0	0	316
34.006	26.506	16087	0	0	316
29.571	25.171	16143	0	0	316
26.181	24.630	16184	0	0	316
22.683	18.824	16184	0	0	316
13.379	14.389	16208	0	0	316
7.862	8.547	16264	0	0	316
5.301	4.652	16384	4628	0	316
5.085	2.849	16560	20843	0	316
7.970	-0.216	16705	32767	0	316
8.294	-3.823	16785	32767	0	316
10.169	-6.599	16882	32767	0	316
10.783	-11.035	16946	32767	0	316
11.396	-15.903	16906	32767	0	316
15.038	-22.431	16761	18681	0	316
17.490	-24.017	16641	0	0	316
22.611	-21.781	16641	0	0	316
25.820	-10.242	16584	0	0	316
28.345	1.046	16520	0	0	316
30.112	9.052	16464	0	0	316
32.095	13.235	16424	0	0	316
35.557	11.432	16304	0	0	316
39.199	8.366	16063	0	0	316
41.904	8.727	15806	0	0	316
41.327	11.792	15565	0	0	316
40.317	14.245	15444	0	1	316
41.652	19.978	15404	0	0	316
41.363	20.483	15420	0	0	316
43.419	19.582	15484	0	0	316
43.635	14.317	15484	0	0	316
39.308	12.802	15524	0	0	316
34.475	12.441	15605	0	0	316
26.722	15.435	15741	15033	0	316
24.017	19.618	15926	32767	0	316
24.234	24.378	16127	32767	0	316
27.083	25.424	16368	32767	0	316
31.085	27.155	16625	32767	0	316
33.105	28.381	16922	32767	0	316
35.088	33.790	17203	32767	0	316
38.478	44.428	17469	32767	0	316
42.012	55.355	17790	32767	0	316
45.618	59.070	18047	32767	0	316
48.071	61.666	18313	32767	0	316
51.388	58.925	18610	32767	0	316
50.631	58.673	18811	32767	0	316
52.398	61.522	18916	32767	0	316
49.044	64.840	18996	32767	0	316
47.746	64.948	19052	32767	0	316
46.087	62.604	19173	32767	0	316
44.032	58.601	19197	32767	0	316
41.399	54.418	19173	32767	0	316
38.983	51.316	19093	32767	0	316
35.810	47.277	19052	31384	0	316
35.413	43.563	19076	17735	0	316
35.701	42.553	19076	8952	0	316
38.947	39.199	19093	2871	0	316
40.642	36.891	19133	0	0	316
41.327	35.413	19157	0	0	316
41.291	34.079	19052	0	0	316
38.911	34.043	18972	0	0	316
36.891	36.819	18916	0	0	316
37.432	43.635	18875	0	0	316
36.855	47.566	18875	0	0	316
38.550	51.821	18851	0	0	316
37.072	50.198	18875	0	0	316
33.898	47.313	18916	0	0	316
32.023	45.366	18956	0	0	316
28.309	43.310	19036	0	0	316
28.597	44.681	19036	0	0	316
30.076	42.301	18972	0	0	316
33.754	40.498	18892	0	0	316
37.685	34.295	18835	0	0	316
40.101	29.643	18771	0	0	316
40.389	28.994	18755	0	0	316
38.695	29.138	18755	0	0	316
37.541	31.518	18755	0	0	316
36.675	34.511	18771	0	0	316
36.459	34.872	18795	0	0	316
37.072	34.728	18835	0	0	316
33.429	34.439	18851	0	0	316
25.316	33.538	18916	4898	0	316
19.149	32.816	18956	11520	0	316
16.661	34.403	18996	17329	0	316
15.687	34.764	19052	22465	0	316
19.546	36.603	19093	26924	0	316
18.608	37.505	19157	30843	0	316
17.959	36.278	19133	31113	0	316
14.425	35.593	19052	22329	0	316
15.723	35.377	18932	6790	0	316
16.300	37.757	18795	0	0	316
14.605	40.858	18594	0	0	316
14.245	43.130	18369	0	0	316
13.271	47.854	18168	0	0	316
17.238	50.162	18047	0	0	316
18.969	47.890	17927	0	0	316
20.375	44.609	17830	0	0	316
16.408	39.380	17766	0	0	316
16.264	35.485	17589	0	0	316
20.627	38.911	17445	0	0	316
30.256	47.386	17268	0	0	316
39.199	54.850	17067	0	0	316
42.697	58.024	16866	0	0	316
36.747	57.014	16705	0	0	316
29.318	48.936	16601	0	0	316
21.493	41.724	16520	0	1	316
12.838	33.574	16520	0	0	316
6.780	27.840	16520	0	0	316
-1.803	25.604	16520	0	0	316
-8.511	25.532	16440	0	0	316
-8.655	28.958	16368	0	0	316
-3.173	34.944	16328	0	0	316
4.688	39.452	16328	8006	0	316
13.812	41.219	16368	20978	0	316
18.283	41.147	16424	32767	0	316
16.913	38.983	16504	32767	0	316
15.831	35.990	16601	32767	0	316
11.792	34.511	16745	32767	0	316
9.484	36.531	16882	32767	0	316
4.580	37.505	17002	32767	0	316
-2.452	37.180	17147	32767	0	316
-7.789	37.649	17308	32767	0	316
-12.009	35.882	17429	32767	0	316
-10.494	35.377	17549	32767	0	316
-6.527	35.629	17485	32767	0	316
-2.488	37.036	17308	32767	0	316
-4.147	36.891	17027	32767	0	316
-5.914	35.882	16705	6790	0	316
-6.816	33.105	16368	0	0	316
-6.780	31.879	16047	0	0	316
-3.246	26.902	15766	0	0	316
0.757	23.837	15444	0	0	316
4.183	22.431	15002	0	0	316
5.301	22.467	14495	0	0	316
4.940	23.368	13957	0	0	316
4.255	26.361	13515	0	0	316
1.515	26.830	13233	0	0	316
0.938	23.801	13032	0	0	316
1.803	19.654	12952	0	0	316
6.058	18.752	12952	0	0	316
12.261	16.516	13008	0	0	316
17.129	20.988	13169	0	0	316
23.693	24.594	13314	0	0	316
29.138	28.381	13555	28816	0	316
34.223	31.807	13852	32767	0	316
36.351	34.006	14118	32767	0	316
33.105	33.646	14415	32767	0	316
21.204	32.239	14737	32767	0	316
5.914	26.686	15098	32767	0	316
-6.671	24.666	15404	32767	0	316
-7.248	27.263	15741	32767	0	316
-1.767	34.295	16103	32767	0	316
11.468	43.347	16424	32767	0	316
20.700	48.539	16721	32767	0	316
28.273	49.333	16986	32767	0	316
33.502	48.576	17107	32767	0	316
39.812	47.782	17043	32767	0	316
45.943	47.313	16986	32767	0	316
49.549	48.035	16842	32767	0	316
47.458	45.510	16721	32767	0	316
45.005	42.950	16625	32767	0	316
44.284	43.671	16601	32767	0	316
44.753	46.268	16560	32767	0	316
43.455	45.835	16464	17329	0	316
37.721	47.169	16384	0	0	316
27.010	47.530	16344	0	0	316
17.021	47.277	16368	0	0	316
12.369	49.910	16400	0	0	316
12.405	50.270	16480	0	0	316
15.795	47.674	16560	0	0	316
20.700	43.491	16721	7060	0	316
28.922	41.183	16842	16924	0	316
40.029	40.029	17002	26789	0	316
50.992	39.776	17107	32767	0	316
54.345	38.803	17147	30978	0	316
50.054	34.115	17107	18951	0	316
38.045	27.912	17002	2060	0	316
26.145	21.457	16882	0	0	316
20.447	17.887	16802	0	0	316
15.867	14.353	16601	0	0	316
12.225	15.831	16328	0	0	316
4.039	15.398	16063	0	0	316
-6.203	17.418	15886	0	0	316
-10.602	17.634	15766	0	0	316
-8.763	18.139	15524	0	1	316
-0.865	19.041	15243	0	0	316
8.835	17.779	14938	0	0	316
17.202	16.192	14656	0	0	316
18.320	14.100	14439	0	0	316
16.552	16.084	14254	0	0	316
11.035	13.595	14053	0	0	316
7.248	15.254	13917	0	0	316
8.763	17.057	13876	0	0	316
15.110	21.493	13876	0	0	316
19.113	26.974	13772	0	0	316
22.935	33.826	13611	0	0	316
20.231	36.134	13555	0	0	316
15.398	34.367	13515	0	0	316
16.228	31.735	13595	0	0	316
17.526	30.869	13716	9087	0	316
21.818	34.511	13893	32767	0	316
23.945	39.921	14094	32767	0	316
24.991	43.383	14174	32767	0	316
25.496	45.727	14158	32767	0	316
25.604	44.356	14198	32767	0	316
29.066	42.553	14278	32767	0	316
32.961	41.507	14439	32767	0	316
34.547	41.796	14640	32767	0	316
32.961	40.642	14817	32767	0	316
30.941	36.567	14962	32767	0	316
28.958	32.564	15098	32767	0	316
26.289	27.551	15203	32767	0	316
24.883	22.395	15283	32767	0	316
24.883	22.899	15339	32767	0	316
23.765	23.440	15484	32767	0	316
27.515	26.974	15621	32767	0	316
31.194	28.633	15822	32767	0	316
31.735	25.388	16023	32767	0	316
27.479	17.562	16208	32767	0	316
21.313	12.009	16344	32767	0	316
18.103	12.117	16400	32767	0	316
21.060	22.395	16400	32767	0	316
24.270	33.069	16400	32767	0	316
24.558	41.147	16424	32767	0	316
21.709	41.976	16520	32767	0	316
15.398	39.091	16641	32767	0	316
16.048	40.065	16745	32767	0	316
17.346	42.950	16785	32767	0	316
22.034	44.501	16745	32767	0	316
18.464	42.806	16681	22194	0	316
13.343	40.678	16560	1790	0	316
4.977	38.586	16424	0	0	316
-1.406	39.019	16304	0	0	316
-4.436	38.767	16248	0	0	316
-3.967	36.675	16248	0	0	316
-1.911	32.816	16304	0	0	316
2.633	34.079	16344	0	0	316
6.131	36.639	16288	0	0	316
7.934	39.740	16143	0	0	316
6.599	39.199	16023	0	0	316
3.426	35.269	15983	0	0	316
0.397	29.643	15942	0	0	316
-1.442	27.299	15886	0	0	316
1.551	28.128	15822	0	0	316
5.734	30.761	15822	0	0	316
12.441	34.223	15886	0	0	316
15.507	34.367	15966	0	0	316
20.736	33.970	15966	0	0	316
20.555	33.862	15966	0	0	316
22.719	34.043	16023	0	0	316
20.952	36.964	16167	13141	0	316
21.457	40.750	16304	29762	0	316
20.700	43.671	16464	32767	0	316
18.283	43.130	16665	32767	0	316
16.949	41.183	16882	32767	0	316
12.874	37.649	17083	32767	0	316
12.766	36.891	17348	32767	0	316
13.379	38.262	17565	32767	0	316
15.362	39.776	17790	32767	0	316
19.077	38.045	18031	32767	0	316
18.788	31.374	18232	32767	0	316
20.988	23.765	18449	32767	0	316
22.972	19.329	18674	32767	0	316
26.325	17.490	18875	32767	0	316
27.119	21.601	18996	32767	0	316
26.866	26.902	19036	32767	1	324
26.181	29.895	18996	32767	0	324
26.217	35.016	18875	32767	0	324
28.633	38.803	18715	30438	0	324
27.768	41.147	18610	6384	0	324
23.296	42.481	18554	0	0	324
19.077	42.878	18490	0	0	324
18.067	41.904	18490	0	0	324
17.743	42.553	18490	0	0	324
23.440	42.229	18474	0	0	324
24.883	43.743	18313	0	0	324
23.008	43.996	18031	0	0	324
20.988	41.976	17670	0	0	324
15.326	40.930	17308	0	0	324
12.838	37.396	16882	0	0	324
7.104	35.160	16560	0	0	324
4.868	32.708	16264	0	0	324
4.796	31.338	15983	0	0	324
5.193	29.138	15645	0	0	324
8.366	25.243	15339	0	0	324
9.196	22.899	15042	0	0	324
8.907	20.627	14737	0	0	324
9.232	24.053	14495	0	0	324
10.386	28.453	14335	0	0	324
8.258	32.059	14294	0	0	324
6.635	29.318	14294	0	0	324
4.183	21.168	14375	0	0	324
1.226	15.110	14520	0	0	324
-0.036	11.540	14721	574	0	324
1.118	14.569	14841	32767	0	324
3.895	21.132	14921	32767	0	324
4.940	26.073	14897	32767	0	324
6.058	25.460	14817	32767	0	324
6.491	25.027	14761	32767	0	324
5.626	24.450	14696	32767	0	324
5.157	20.700	14680	32767	0	324
3.859	18.283	14560	32767	0	324
2.416	12.261	14415	32767	0	324
-0.541	9.953	14294	32767	0	324
-2.669	6.058	14278	32767	0	324
-0.721	8.547	14335	32767	0	324
0.721	12.333	14439	32767	0	324
7.285	21.313	14600	32767	0	324
15.002	30.220	14761	32767	0	324
22.972	40.606	14881	32767	0	324
31.446	49.333	14962	32767	0	324
37.865	51.100	14962	32767	0	324
37.901	49.982	14978	32767	0	324
37.360	51.569	14857	32767	0	324
36.314	52.110	14761	32767	0	324
35.629	55.896	14640	32767	0	324
35.341	56.726	14640	32767	0	324
35.882	56.185	14656	32767	0	324
35.160	52.614	14817	32767	0	324
33.754	48.035	14978	32767	0	324
34.259	44.681	15163	32767	0	324
34.187	46.845	15380	32767	0	324
35.810	47.926	15524	32767	0	324
36.855	50.379	15605	32767	0	324
35.774	52.867	15685	32767	0	324
35.088	50.270	15645	32767	0	324
34.836	50.343	15565	32767	0	324
36.170	50.956	15404	32767	0	324
40.173	55.788	15139	7195	0	324
45.150	58.384	14978	0	0	324
48.323	60.079	14881	0	0	324
47.926	60.224	14841	0	0	324
45.799	59.971	14921	0	0	324
45.005	60.765	15042	0	0	324
46.268	63.902	15203	16249	0	324
49.657	66.246	15420	32767	0	324
55.752	68.987	15661	32767	0	324
58.384	70.321	15926	32767	0	324
61.017	71.403	16167	32767	0	324
61.161	72.376	16328	32767	0	324
58.384	72.593	16464	32767	0	324
54.490	71.944	16641	32767	0	324
50.559	69.960	16842	32767	0	324
46.232	67.472	17043	32767	0	324
42.084	60.981	17284	32767	0	324
40.317	57.880	17525	32767	0	324
35.413	53.552	17766	32767	0	324
31.699	50.703	18007	32767	0	324
27.263	51.713	18273	32767	0	324
21.096	50.775	18514	32767	0	324
16.444	52.074	18731	32767	0	324
11.828	49.874	18956	32767	1	344
10.963	48.972	19197	32767	0	344
13.127	47.530	19374	32767	0	344
15.723	45.186	19559	32767	0	344
16.336	44.284	19736	32767	0	344
12.694	41.075	19920	32767	0	344
8.402	37.757	20041	32767	0	344
3.967	37.036	20138	32767	0	344
3.859	37.216	20282	32767	0	344
6.816	42.553	20379	32767	0	344
10.855	46.340	20459	32767	0	344
13.812	50.595	20539	32767	0	344
15.975	51.028	20580	25438	0	344
15.831	52.903	20644	14222	0	344
19.149	53.444	20620	439	0	344
18.247	55.031	20499	0	0	344
19.005	52.903	20338	0	0	344
15.831	50.018	20162	0	0	344
15.218	45.546	19880	0	0	344
14.317	43.419	19414	0	0	344
17.634	41.580	18892	0	0	344
19.329	42.265	18409	0	0	344
23.945	38.731	17951	0	0	344
24.666	34.331	17485	0	0	344
26.325	29.931	17067	0	0	344
26.902	26.073	16560	0	0	344
23.873	20.303	16023	0	0	344
18.608	17.202	15581	0	0	344
17.779	14.317	15219	0	0	344
17.238	15.326	15002	0	0	344
23.512	18.175	14801	0	0	344
29.859	23.440	14560	0	0	344
34.475	27.443	14278	0	0	344
36.098	29.715	14037	0	0	344
36.747	29.823	13893	0	0	344
37.432	31.194	13836	0	0	344
39.885	34.006	13876	0	0	344
42.409	34.908	13997	0	0	344
43.707	35.052	14094	0	0	344
42.950	31.699	14134	23411	0	344
40.137	26.722	14158	32767	0	344
36.783	22.034	14118	32767	0	344
33.790	22.395	13957	32767	0	344
33.069	27.515	13716	32767	0	344
33.141	33.105	13555	32767	0	344
31.771	33.646	13491	32767	0	344
28.020	32.059	13531	32767	0	344
23.116	24.847	13611	32767	0	344
15.831	19.870	13635	32767	0	344
12.297	13.920	13635	32767	0	344
9.556	14.569	13635	32767	0	344
7.104	11.900	13651	32767	0	344
6.131	12.369	13732	32767	0	344
2.957	12.225	13732	32767	0	344
0.721	15.795	13796	32767	0	344
0.902	20.736	13917	32767	0	344
3.282	23.116	14118	32767	0	344
6.022	24.739	14359	32767	0	344
8.475	25.207	14616	32767	0	344
7.717	20.988	14857	32767	0	344
5.986	18.680	15082	32767	0	344
4.400	19.654	15243	32767	0	344
0.685	18.247	15500	32767	0	344
-1.911	18.572	15685	32767	0	344
-5.193	16.769	15846	32767	0	344
-7.501	18.464	15983	32767	0	344
-8.294	17.562	16103	32767	0	344
-5.590	20.267	16167	32767	0	344
-4.039	22.034	16224	32767	0	344
-1.082	25.063	16344	32767	0	344
1.695	26.650	16440	32767	0	344
2.669	27.479	16480	32767	0	344
2.813	25.604	16480	32767	0	344
1.190	23.188	16424	32767	0	344
0.000	19.437	16400	32767	0	344
0.108	17.995	16424	25978	0	344
-0.036	20.591	16480	22735	0	344
0.938	23.621	16601	24762	0	344
2.921	26.686	16681	27194	0	344
4.111	30.472	16721	23681	1	316
7.645	35.160	16761	15168	0	316
11.756	38.370	16802	8412	0	316
14.172	42.950	16761	844	0	316
15.290	45.691	16705	0	0	316
16.661	44.501	16560	0	0	316
13.884	39.849	16344	0	0	316
12.910	31.951	16127	0	0	316
10.927	24.378	15886	0	0	316
8.655	16.949	15685	0	0	316
6.167	9.484	15565	0	0	316
2.885	5.049	15339	0	0	316
-0.288	2.308	15098	0	0	316
-1.010	6.058	14881	0	0	316
2.019	14.569	14801	0	0	316
6.311	27.696	14777	0	0	316
9.232	36.675	14841	0	0	316
7.537	39.524	14962	0	0	316
2.705	39.308	15122	0	0	316
-3.137	36.242	15380	2195	0	316
-3.931	33.285	15540	31248	0	316
-1.947	33.466	15661	32767	0	316
3.570	36.495	15661	32767	0	316
7.176	39.199	15605	32767	0	316
13.127	41.039	15540	31519	0	316
12.550	37.468	15364	16249	0	316
8.583	32.492	15243	1384	0	316
6.275	26.974	15139	0	0	316
3.859	25.171	15058	0	0	316
4.111	27.948	14978	0	0	316
10.783	31.338	15042	0	0	316
13.776	33.466	15098	14763	0	316
16.084	33.033	15299	32767	0	316
13.018	33.429	15444	32767	0	316
11.396	32.744	15540	32767	0	316
8.619	31.590	15645	32767	0	316
5.806	30.148	15806	32767	0	316
2.849	29.895	16007	32767	0	316
0.938	28.850	16264	32767	0	316
-2.885	27.155	16440	32767	0	316
-3.570	27.010	16601	32767	0	316
-2.921	26.145	16721	32767	0	316
-0.577	25.099	16906	32767	0	316
2.921	24.847	17107	32767	0	316
4.291	23.765	17284	32767	0	316
3.931	20.988	17525	32767	0	316
2.019	18.680	17710	32767	0	316
4.111	21.529	17830	32767	0	316
9.088	25.929	17911	32767	0	316
17.310	32.708	17991	32767	0	316
23.873	37.613	18088	32767	0	316
26.253	38.009	18128	32767	0	316
22.755	34.728	18112	32767	0	316
18.103	29.499	18088	32767	0	316
14.533	28.669	18007	29356	0	316
14.749	28.237	17967	9493	0	316
18.103	30.833	17911	0	0	316
19.906	30.328	17927	0	0	316
18.824	28.597	17951	0	0	316
14.821	24.053	17871	0	0	316
9.629	24.125	17806	0	0	316
7.212	25.207	17806	0	0	316
10.710	29.968	17790	0	0	316
14.389	34.223	17871	0	0	316
15.074	36.891	17927	0	0	316
13.704	37.865	18007	0	0	316
12.189	37.937	18128	0	0	316
9.953	39.163	18248	4493	0	316
12.874	40.101	18168	1655	0	316
15.507	37.360	18007	0	0	316
13.595	33.970	17887	0	0	316
9.989	27.119	17830	0	0	316
4.472	23.404	17750	0	0	316
0.865	24.991	17766	0	0	316
2.596	29.391	17790	0	0	316
5.049	31.410	17847	0	0	316
6.022	29.715	17887	0	0	316
5.481	25.460	17830	0	0	316
2.813	24.306	17766	0	0	316
2.993	26.938	17726	0	1	316
4.688	32.708	17589	0	0	316
7.609	36.098	17429	0	0	316
7.573	34.223	17228	0	0	316
4.688	28.886	17002	0	0	316
-1.190	24.234	16705	0	0	316
-5.121	24.883	16368	0	0	316
-6.058	25.965	16063	0	0	316
-0.577	31.410	15862	0	0	316
6.816	34.728	15766	0	0	316
11.937	34.944	15685	0	0	316
13.054	31.735	15701	0	0	316
6.744	28.669	15782	0	0	316
1.911	24.955	15886	0	0	316
0.072	22.106	15966	439	0	316
3.246	19.834	16023	17059	0	316
6.635	21.818	16063	26654	0	316
10.530	21.313	16143	32767	0	316
12.081	23.837	16288	32767	0	316
11.179	25.279	16440	32767	0	316
13.091	26.506	16625	32767	0	316
10.891	27.371	16826	32767	0	316
7.645	30.364	17043	32767	0	316
4.291	30.761	17244	32767	0	316
-0.361	31.771	17509	32767	0	316
-2.957	29.607	17670	32767	0	316
-4.616	26.902	17790	32767	0	316
-6.744	23.440	17766	32767	0	316
-8.511	24.342	17750	32767	0	316
-8.943	22.755	17670	32767	0	316
-8.799	25.063	17646	32767	0	316
-8.547	28.128	17629	32767	0	316
-7.573	30.400	17469	32767	0	316
-5.734	30.292	17268	18005	0	316
-4.580	28.922	17002	0	0	316
-0.072	27.984	16721	0	0	316
5.013	29.643	16480	0	0	316
5.878	30.148	16328	0	0	316
4.508	33.213	16224	0	0	316
-0.902	30.148	16184	0	0	316
-4.977	28.922	16208	0	0	316
-7.285	27.840	16264	0	0	316
-7.429	29.571	16384	0	0	316
-4.724	30.508	16464	0	0	316
-2.669	31.410	16424	303	0	316
0.252	28.741	16248	0	0	316
0.793	28.020	16023	0	0	316
1.839	25.027	15822	0	0	316
1.515	24.630	15661	0	0	316
2.560	20.808	15420	0	0	316
3.678	21.024	15122	0	0	316
5.986	22.647	14737	0	0	316
4.436	23.404	14479	0	0	316
1.875	25.352	14294	0	0	316
-1.046	27.840	14174	0	0	316
-0.397	25.388	14053	0	0	316
1.551	25.676	13973	0	0	316
4.111	25.424	13973	0	0	316
3.859	25.171	14013	0	0	316
2.200	24.342	14013	0	0	316
-1.623	24.594	14013	0	0	316
-6.383	26.145	13973	3412	0	316
-7.645	24.883	13997	13547	0	316
-8.294	25.820	14094	29627	0	316
-7.537	24.847	14238	32767	0	316
-6.022	24.162	14439	32767	0	316
-3.570	22.791	14680	32767	0	316
-1.695	22.322	14962	32767	0	316
-2.488	23.296	15203	32767	0	316
-3.642	20.700	15380	32767	0	316
-7.862	19.077	15404	32767	0	316
-10.097	17.021	15420	32767	0	316
-10.314	18.031	15380	32767	0	316
-5.950	20.231	15364	32767	0	316
-0.829	23.476	15404	32767	0	316
2.164	28.020	15364	32767	0	316
3.606	27.768	15380	32767	0	316
3.426	28.453	15380	32767	0	316
7.176	31.518	15380	32767	0	316
12.045	35.774	15323	32767	1	316
17.310	35.701	15259	32767	0	316
17.129	34.980	15259	29492	0	316
12.766	29.318	15283	27465	0	316
5.049	26.614	15364	32329	0	316
-0.974	24.414	15339	32767	0	316
-0.721	28.273	15404	31248	0	316
3.390	32.853	15484	32767	0	316
9.124	35.088	15645	32767	0	316
14.208	36.783	15822	32767	0	316
17.166	38.262	15886	32767	0	316
15.615	37.036	15926	32767	0	316
13.631	35.088	15926	32767	0	316
10.783	31.122	15902	32767	0	316
9.088	26.650	15782	21113	0	316
9.052	25.388	15540	0	0	316
8.330	25.352	15259	0	0	316
9.448	28.164	14897	0	0	316
8.907	33.213	14616	0	0	316
11.937	38.082	14294	0	0	316
13.235	39.416	13917	0	0	316
12.261	39.127	13531	0	0	316
11.540	35.485	13209	0	0	316
7.248	31.662	12912	0	0	316
6.563	29.066	12751	0	0	316
5.626	28.669	12687	0	0	316
8.150	28.741	12751	0	0	316
6.888	27.155	12928	0	0	316
4.183	24.125	13129	0	0	316
3.173	22.214	13434	13682	0	316
2.957	23.296	13772	32767	0	316
4.436	22.647	14198	32767	0	316
4.688	24.883	14536	32767	0	316
5.842	28.237	14817	32767	0	316
3.714	31.482	14978	32767	0	316
0.793	34.980	15139	32767	0	316
0.325	36.819	15339	32767	0	316
-1.479	35.485	15404	32767	0	316
-5.013	30.328	15420	32767	0	316
-8.619	23.440	15460	32767	0	316
-14.966	18.211	15540	32767	0	316
-19.329	12.117	15725	32767	0	316
-22.791	11.756	15966	32767	0	316
-17.057	12.982	16143	32767	0	316
-7.104	18.031	16288	32767	0	316
4.544	24.053	16424	32767	0	316
11.756	28.453	16560	32767	0	316
14.785	29.318	16665	32767	0	316
13.523	32.167	16681	32767	0	316
15.939	34.295	16705	32767	0	316
20.627	37.072	16705	32767	0	316
26.938	39.704	16721	32767	0	316
28.777	39.921	16721	32767	0	316
27.407	39.993	16665	24627	0	316
22.214	40.570	16584	7195	0	316
18.247	39.596	16504	0	0	316
13.956	36.531	16344	0	0	316
13.704	32.456	16063	0	0	316
17.562	29.427	15766	0	0	316
22.539	29.968	15500	0	0	316
27.732	33.141	15243	0	0	316
31.338	34.980	15042	0	0	316
28.814	33.862	14978	0	0	316
24.378	27.660	15002	0	0	316
16.336	21.601	15058	0	0	316
12.514	16.156	15179	0	0	316
9.124	11.396	15243	0	0	316
7.789	8.294	15364	0	0	316
6.383	8.691	15460	0	0	316
4.508	7.934	15565	6384	0	316
2.488	5.698	15605	15033	0	316
1.659	5.337	15605	18951	0	316
4.977	3.931	15685	23275	0	316
8.511	6.924	15782	32767	0	316
12.117	10.710	15966	32767	0	316
14.605	14.605	16208	32767	0	316
15.074	20.014	16424	32767	0	316
16.264	22.106	16520	32767	0	316
17.851	24.125	16504	32767	0	316
16.949	23.729	16368	32767	1	316
18.933	23.512	16143	32600	0	316
19.546	22.719	16007	8952	0	316
20.014	23.585	15886	0	0	316
23.476	28.020	15766	0	0	316
23.224	32.456	15540	0	0	316
22.899	32.420	15420	0	0	316
21.168	30.400	15364	0	0	316
18.320	27.479	15364	0	0	316
19.437	23.873	15339	0	0	316
19.473	20.014	15339	0	0	316
20.700	19.654	15420	0	0	316
17.851	16.444	15420	33	0	316
16.084	15.687	15524	8141	0	316
9.232	11.107	15621	21384	0	316
4.580	7.825	15766	32767	0	316
1.479	7.032	15886	32767	0	316
2.560	9.052	15966	32767	0	316
5.554	14.353	15983	32767	0	316
8.835	20.952	16047	32767	0	316
9.917	26.253	16103	32767	0	316
6.780	27.515	16167	32767	0	316
3.967	27.732	16224	32767	0	316
0.180	25.929	16304	32767	0	316
-0.829	23.873	16344	32767	0	316
-2.056	24.089	16400	32767	0	316
-1.370	23.368	16464	32767	0	316
0.361	28.128	16504	32767	0	316
2.777	31.590	16520	32767	0	316
3.642	35.160	16504	32767	0	316
2.128	35.774	16504	32767	0	316
-1.370	34.367	16560	32767	0	316
-5.301	32.023	16625	32767	0	316
-6.888	28.020	16601	32767	0	316
-10.025	24.702	16480	20438	0	316
-12.694	22.647	16304	0	0	316
-14.389	21.962	16167	0	0	316
-18.572	21.349	16063	0	0	316
-18.428	20.880	15966	0	0	316
-20.339	19.473	15862	0	0	316
-21.349	14.028	15725	0	0	316
-25.856	11.035	15524	0	0	316
-28.092	9.773	15339	0	0	316
-30.905	10.710	15203	0	0	316
-31.374	16.516	15098	0	0	316
-30.436	17.923	15018	0	0	316
-28.128	19.870	15002	0	0	316
-23.945	17.959	14962	0	0	316
-16.805	21.385	15058	0	0	316
-9.052	25.388	15219	0	0	316
0.721	30.797	15420	20167	0	316
8.150	37.108	15460	32767	0	316
13.163	38.370	15460	32767	0	316
16.841	38.803	15364	27465	0	316
19.221	42.661	15339	20032	0	316
21.493	48.107	15323	22600	0	316
21.818	55.211	15299	24627	0	316
22.286	55.572	15163	16654	0	316
20.123	50.956	15139	9087	0	316
15.867	39.127	15163	14357	0	316
10.602	26.506	15299	30978	0	316
4.796	17.851	15484	32767	0	316
-1.406	17.598	15685	32767	0	316
-4.291	18.644	15846	32767	0	316
-4.977	22.863	15983	32767	0	316
-4.940	20.447	16208	32767	0	316
-4.364	18.572	16440	32767	0	316
-2.380	13.307	16705	32767	0	316
-0.938	13.415	16826	32767	0	316
0.541	14.064	16882	32767	0	316
-1.226	15.038	16922	32767	0	316
-4.039	14.785	17043	32767	0	316
-5.842	11.215	17187	32767	0	316
-1.370	12.225	17348	32767	0	316
10.386	17.382	17404	32767	0	316
22.070	23.404	17348	32767	0	316
30.905	30.833	17203	32767	0	316
31.879	33.754	17067	23140	0	316
31.482	35.377	17002	7736	0	316
28.669	37.072	16922	0	1	316
29.823	40.750	16866	0	0	316
30.941	42.625	16826	0	0	316
30.148	43.166	16745	0	0	316
29.427	41.904	16560	0	0	316
26.073	41.363	16464	0	0	316
20.736	40.245	16440	0	0	316
13.379	41.652	16464	0	0	316
6.383	40.570	16440	0	0	316
0.541	39.560	16464	0	0	316
-2.560	38.334	16480	0	0	316
-3.390	36.098	16504	0	0	316
-3.101	34.043	16520	0	0	316
-3.498	30.761	16625	0	0	316
-2.777	31.122	16721	6925	0	316
-1.551	32.276	16785	16789	0	316
2.813	36.855	16842	21113	0	316
7.789	41.039	16962	29762	0	316
10.602	43.851	17107	32767	0	316
14.172	42.950	17107	32767	0	316
11.360	40.029	17002	32767	0	316
6.924	37.757	16802	6925	0	316
5.914	37.685	16544	0	0	316
7.717	40.065	16328	0	0	316
12.189	44.032	16184	0	0	316
17.021	51.280	16063	0	0	316
20.988	52.470	15966	0	0	316
19.582	51.461	15966	0	0	316
16.733	45.943	16023	0	0	316
12.946	36.928	16167	0	0	316
10.025	31.771	16304	11520	0	316
7.645	32.816	16400	27329	0	316
8.547	39.127	16504	32767	0	316
10.242	44.428	16625	32767	0	316
11.648	45.366	16681	32767	0	316
10.566	39.957	16761	32767	0	316
7.645	33.213	16906	32767	0	316
4.508	29.859	17043	32767	0	316
2.560	29.535	17107	32767	0	316
2.669	31.013	17187	32767	0	316
3.967	31.374	17123	32767	0	316
3.029	32.276	16962	32767	0	316
1.298	32.889	16721	15844	0	316
-2.921	36.134	16520	0	0	316
-4.832	38.695	16288	0	0	316
-2.019	38.514	16007	0	0	316
1.154	36.819	15741	0	0	316
5.229	32.059	15500	0	0	316
9.052	32.167	15299	0	0	316
9.088	32.312	15098	0	0	316
8.366	33.249	14938	0	0	316
3.570	31.446	14801	0	0	316
-3.570	25.135	14640	0	0	316
-10.061	18.464	14536	0	0	316
-14.172	13.812	14455	0	0	316
-11.864	16.300	14375	0	0	316
-1.226	22.431	14335	0	0	316
9.845	32.456	14415	0	0	316
17.274	39.993	14576	0	0	316
19.726	43.924	14777	28546	0	316
12.838	41.868	14938	32767	0	316
3.246	37.216	15098	32767	0	316
-2.957	34.583	15364	32767	0	316
-2.452	36.495	15645	32767	0	316
3.642	42.157	15983	32767	0	316
11.251	48.828	16288	32767	0	316
15.110	50.018	16544	32767	0	316
12.946	45.546	16785	32767	0	316
12.189	40.786	17067	32767	0	316
12.405	38.767	17348	32767	0	316
12.766	38.875	17686	32767	0	316
15.831	42.301	17967	32767	0	316
13.848	44.428	18192	32767	0	316
10.674	42.120	18353	32767	0	316
11.828	41.580	18554	32767	0	316
12.910	40.101	18634	32767	0	316
15.146	37.577	18715	32767	0	316
12.730	35.846	18755	32767	0	316
7.357	30.797	18795	32767	0	316
2.056	27.010	18731	32767	1	316
-1.298	23.585	18594	32767	0	316
1.334	23.260	18353	7195	0	316
6.563	24.666	17991	0	0	316
12.586	27.696	17565	0	0	316
13.956	29.715	17268	0	0	316
15.867	29.679	17067	0	0	316
13.884	29.391	16866	0	0	316
14.353	30.220	16665	0	0	316
19.510	35.052	16400	0	0	316
24.991	43.238	16167	0	0	316
29.391	48.864	15942	0	0	316
29.715	50.307	15725	0	0	316
26.758	46.520	15500	0	0	316
19.618	39.560	15404	0	0	316
16.697	34.259	15339	0	0	316
16.625	32.131	15380	0	0	316
16.589	31.843	15339	0	0	316
16.805	33.321	15380	0	0	316
18.933	34.583	15524	0	0	316
16.697	35.521	15645	0	0	316
17.995	34.656	15886	18275	0	316
18.680	33.069	16103	32767	0	316
19.798	32.708	16224	32767	0	316
24.125	32.708	16264	32767	0	316
30.004	33.862	16304	32767	0	316
35.774	32.997	16384	32767	0	316
36.928	29.499	16424	32767	0	316
33.213	19.437	16480	32767	0	316
27.443	14.930	16601	32767	0	316
25.712	14.713	16745	32767	0	316
28.525	21.421	16962	32767	0	316
29.859	28.561	17228	32767	0	316
31.266	33.177	17429	32767	0	316
27.407	30.364	17589	32767	0	316
26.181	27.010	17670	32767	0	316
27.660	26.722	17726	32767	0	316
27.624	29.895	17750	32767	0	316
27.876	34.115	17790	32767	0	316
23.116	34.079	17790	32767	0	316
20.772	33.213	17710	32767	0	316
20.952	32.095	17605	32767	0	316
27.371	32.492	17388	17735	0	316
31.230	36.206	17203	0	0	316
32.853	38.045	16986	0	0	316
29.427	34.656	16785	0	0	316
23.404	28.633	16520	0	0	316
19.690	23.080	16248	0	0	316
15.903	21.096	16047	0	0	316
17.562	20.880	15926	0	0	316
14.425	23.404	15846	0	0	316
12.369	23.765	15725	0	0	316
9.629	20.988	15540	0	0	316
8.006	20.664	15404	0	0	316
7.898	17.634	15420	0	0	316
6.203	16.985	15420	0	0	316
5.409	16.192	15380	0	0	316
6.491	20.375	15283	0	0	316
9.701	25.604	15179	0	0	316
14.785	29.643	15098	0	0	316
15.759	29.354	15082	0	0	316
13.523	25.748	15122	0	0	316
6.924	22.719	15219	1114	0	316
2.380	23.909	15219	16519	0	316
4.796	30.833	15179	19086	0	316
8.835	38.009	15122	16924	0	316
15.110	40.209	15082	17194	0	316
17.382	37.360	15058	20978	0	316
17.057	31.049	15122	29897	0	316
11.540	24.125	15082	32767	0	316
4.003	18.536	15042	32767	0	316
-1.947	14.497	15018	29221	0	316
-7.609	11.648	15018	32767	0	316
-10.458	8.619	15058	32767	0	316
-9.448	6.599	15042	32767	0	316
-11.323	7.609	15018	32767	0	316
-11.900	9.953	14962	32767	0	316
-11.612	14.172	14857	27465	0	316
-11.396	16.480	14761	19627	0	316
-6.780	21.421	14576	6249	1	316
2.849	23.657	14359	0	0	316
11.251	28.994	14238	0	0	316
20.267	31.374	14238	0	0	316
22.539	33.646	14319	2330	0	316
23.332	34.006	14536	28140	0	316
20.664	34.331	14777	32767	0	316
20.808	34.006	15058	32767	0	316
24.558	34.800	15219	32767	0	316
26.542	35.088	15299	32767	0	316
25.099	34.511	15219	32767	0	316
23.837	30.400	15098	32767	0	316
20.700	24.125	14921	32767	0	316
19.510	14.425	14777	21384	0	316
20.772	3.065	14640	6249	0	316
18.788	-4.075	14399	0	0	316
16.012	-5.193	14158	0	0	316
11.540	-0.397	14013	0	0	316
9.448	8.186	14013	0	0	316
11.432	16.697	14094	0	0	316
12.766	25.532	14294	4898	0	316
11.648	28.453	14495	32767	0	316
7.104	27.335	14656	32767	0	316
-1.875	21.601	14737	32767	0	316
-6.852	18.428	14857	32767	0	316
-3.823	16.192	15018	32767	0	316
2.380	23.008	15139	32767	0	316
11.215	31.446	15098	32767	0	316
14.064	37.721	15082	32767	0	316
12.009	39.921	15058	32767	0	316
9.016	38.514	15203	32767	0	316
8.222	38.767	15339	32767	0	316
11.071	42.481	15460	32767	0	316
16.589	48.143	15605	32767	0	316
18.716	52.542	15846	32767	0	316
18.933	54.670	16143	32767	0	316
19.329	51.677	16400	32767	0	316
20.952	51.100	16601	32767	0	316
22.575	48.143	16641	32767	0	316
23.621	49.513	16625	32767	0	316
17.815	48.684	16641	32767	0	316
12.261	47.818	16705	32767	0	316
3.390	43.527	16721	32767	0	316
-1.659	38.334	16785	32767	0	316
-4.291	33.466	16842	32767	0	316
-6.671	30.112	16866	32767	0	316
-7.753	27.515	16826	27735	0	316
-9.989	26.974	16802	11655	0	316
-8.294	24.955	16802	5439	0	316
-3.967	25.316	16745	0	0	316
3.498	27.515	16665	0	0	316
11.323	30.112	16584	0	0	316
18.103	35.557	16625	0	0	316
20.591	38.731	16681	0	0	316
22.647	39.812	16721	0	0	316
23.765	41.543	16721	0	0	316
26.253	40.822	16721	0	0	316
29.391	43.527	16745	0	0	316
33.502	47.782	16842	0	0	316
39.091	55.536	17027	8141	0	316
45.005	60.476	17244	28411	0	316
46.159	62.243	17485	32767	0	316
43.274	59.971	17790	32767	0	316
35.774	53.732	18112	32767	0	316
24.955	49.297	18369	32767	0	316
14.389	44.861	18570	32767	0	316
8.186	41.147	18755	32767	0	316
5.626	34.511	18956	32767	0	316
5.842	30.220	19133	32767	0	316
8.655	26.902	19253	32767	0	316
10.602	25.820	19334	32767	0	316
10.710	27.155	19478	32767	0	316
9.304	28.020	19535	32767	0	316
7.248	28.128	19535	32767	0	316
4.327	25.568	19398	32767	0	316
3.823	26.470	19277	9763	0	316
3.787	29.066	19093	0	0	316
7.898	32.239	18932	0	0	316
11.864	35.449	18811	0	0	316
15.975	37.360	18594	0	1	316
20.159	38.045	18313	0	0	316
23.044	39.452	18112	0	0	316
25.965	42.842	17927	0	0	316
27.984	44.897	17670	0	0	316
28.020	43.707	17404	0	0	316
26.614	42.337	17147	0	0	316
24.558	40.065	17027	0	0	316
25.496	38.911	16922	0	0	316
27.840	40.570	16761	0	0	316
30.040	42.409	16544	0	0	316
33.429	42.157	16344	0	0	316
35.882	43.851	16103	0	0	316
36.423	46.953	15822	0	0	316
36.675	47.638	15621	0	0	316
35.377	49.477	15500	0	0	316
31.374	48.179	15323	0	0	316
25.460	42.084	15098	0	0	316
22.322	35.233	14777	0	0	316
17.490	29.571	14415	0	0	316
14.785	25.352	14037	0	0	316
11.432	24.342	13651	0	0	316
11.323	27.335	13410	0	0	316
12.441	27.047	13274	0	0	316
15.362	29.895	13290	0	0	316
18.716	29.174	13450	0	0	316
18.788	29.138	13635	1249	0	316
20.303	29.607	13933	32767	0	316
21.024	31.482	14294	32767	0	316
21.926	35.016	14656	32767	0	316
23.621	38.658	14897	32767	0	316
23.008	41.183	15042	32767	0	316
23.657	43.563	15082	32767	0	316
27.840	43.743	15018	32767	0	316
28.417	43.058	15018	32767	0	316
30.617	40.137	14978	32767	0	316
28.381	39.632	14978	32767	0	316
26.686	38.550	14978	32767	0	316
26.181	38.803	15002	32767	0	316
26.361	39.704	15098	32767	0	316
26.830	36.747	15163	32767	0	316
24.811	32.239	15243	32767	0	316
20.555	28.345	15283	32767	0	316
13.271	26.470	15404	32767	0	316
9.376	27.119	15565	32767	0	316
6.419	28.489	15766	32767	0	316
5.986	30.040	15902	32767	0	316
6.239	31.085	15942	32767	0	316
5.770	29.968	15966	32767	0	316
2.669	29.282	15983	32767	0	316
-0.108	27.191	16007	32767	0	316
1.010	30.472	15942	32767	0	316
6.780	34.620	15846	32767	0	316
12.730	41.111	15581	11520	0	316
17.634	44.392	15364	0	0	316
21.601	44.068	15219	0	0	316
18.247	37.865	15139	0	0	316
14.461	31.122	15042	0	0	316
9.917	26.578	15058	0	0	316
6.599	23.368	15139	0	0	316
6.780	24.486	15339	0	0	316
8.006	29.535	15565	18546	0	316
10.819	34.583	15886	32767	0	316
12.045	39.055	16167	32767	0	316
12.153	40.606	16424	32767	0	316
9.304	39.488	16665	32767	0	316
7.248	39.272	16962	32767	0	316
7.248	38.009	17308	32767	0	316
7.609	37.252	17605	32767	0	316
9.556	37.252	17830	32767	0	316
11.323	37.685	18007	32767	0	316
14.894	37.541	18128	32767	0	316
16.480	40.281	18208	32767	0	316
17.923	44.320	18208	32767	0	316
18.933	49.116	18273	32767	0	316
20.844	52.146	18353	32767	0	316
18.103	55.860	18449	32767	0	316
16.841	52.939	18474	32767	0	316
14.028	49.405	18530	32767	0	316
9.953	43.527	18610	32767	1	316
8.799	38.082	18691	32767	0	316
9.592	38.262	18731	29492	0	316
9.484	36.026	18755	18005	0	316
9.088	35.918	18835	12466	0	316
5.301	34.764	18916	12330	0	316
0.613	32.889	18932	7871	0	316
-0.721	32.528	18932	0	0	316
-0.505	34.692	18996	0	0	316
2.308	34.980	19093	0	0	316
4.183	36.639	19237	5303	0	316
3.390	31.590	19334	11384	0	316
1.190	28.417	19374	10168	0	316
-0.325	26.974	19414	3276	0	316
1.911	27.083	19454	303	0	316
7.789	29.030	19519	1655	0	316
13.199	32.997	19519	0	0	316
15.182	36.495	19454	0	0	316
13.523	39.560	19478	0	0	316
13.992	42.048	19398	0	0	316
14.894	43.924	19318	0	0	316
20.303	44.176	19237	0	0	316
23.801	42.842	19076	0	0	316
26.109	43.635	18795	0	0	316
24.666	45.474	18449	0	0	316
21.998	45.871	18152	0	0	316
22.935	46.628	17887	0	0	316
23.765	46.484	17629	0	0	316
23.116	45.835	17388	0	0	316
23.693	46.809	17043	0	0	316
21.204	49.225	16665	0	0	316
20.700	49.585	16224	0	0	316
23.296	49.982	15782	0	0	316
25.532	48.756	15404	0	0	316
30.689	44.501	15163	0	0	316
32.131	44.428	14841	0	0	316
32.492	43.383	14560	0	0	316
28.633	41.399	14294	0	0	316
24.522	40.317	14077	0	0	316
18.392	35.954	13876	0	0	316
15.254	31.771	13675	0	0	316
12.586	27.840	13475	0	0	316
14.749	28.705	13290	0	0	316
17.562	32.348	13113	0	0	316
19.942	37.541	12952	0	0	316
20.087	42.914	12831	0	0	316
17.634	45.330	12888	0	0	316
10.710	43.635	13032	14628	0	316
6.455	40.065	13233	32767	0	316
7.140	37.216	13330	32767	0	316
10.855	35.665	13434	32767	0	316
15.362	36.603	13571	32767	0	316
19.906	38.731	13796	32767	0	316
19.798	41.039	14077	32767	0	316
22.322	41.543	14439	32767	0	316
24.198	42.914	14841	32767	0	316
27.407	43.491	15259	32767	0	316
30.184	43.491	15524	32767	0	316
29.931	44.104	15685	32767	0	316
29.895	42.193	15782	32767	0	316
30.977	41.796	15846	32767	0	316
31.013	42.048	15983	32767	0	316
29.354	43.202	16023	32767	0	316
25.568	43.094	15966	32767	0	316
19.870	41.507	15806	32767	0	316
12.658	40.606	15605	32767	0	316
7.789	37.613	15500	32767	0	316
7.825	40.101	15420	32767	0	316
8.114	41.291	15339	31924	0	316
8.150	39.632	15299	20167	0	316
7.248	34.151	15243	9628	0	316
4.364	30.400	15219	1520	0	316
0.829	25.171	15179	0	0	316
-0.216	24.666	15179	0	0	316
0.361	27.407	15139	0	0	316
-0.793	28.814	15203	0	0	316
-2.128	28.886	15259	0	0	316
-3.354	29.895	15339	3952	0	316
-3.426	30.761	15444	10979	0	316
-3.606	33.862	15621	23546	1	316
-1.515	36.206	15806	32767	0	316
0.505	39.019	15966	32767	0	316
0.974	38.478	16127	32767	0	316
1.659	38.478	16368	32767	0	316
0.397	37.793	16625	32767	0	316
-1.082	37.757	16906	32767	0	316
-2.272	38.262	17043	32767	0	316
-3.173	36.423	17123	32767	0	316
-0.397	36.098	17163	32767	0	316
4.977	37.216	17203	32767	0	316
13.631	43.166	17163	32767	0	316
23.621	48.179	17107	32767	0	316
29.607	53.083	16986	15709	0	316
29.751	51.785	16802	0	0	316
25.676	48.395	16665	0	0	316
21.529	45.258	16384	0	0	316
14.425	42.553	16087	0	0	316
14.425	40.894	15685	0	0	316
10.566	39.993	15299	0	0	316
8.583	36.206	15002	0	0	316
4.472	33.862	14721	0	0	316
-0.902	31.590	14479	0	0	316
-4.940	32.203	14278	0	0	316
-7.212	33.718	14037	0	0	316
-7.465	35.197	13876	0	0	316
-1.947	37.216	13692	0	0	316
3.101	38.190	13450	0	0	316
8.042	40.606	13233	0	0	316
13.451	43.707	13129	0	0	316
15.939	45.005	13129	0	0	316
14.136	45.078	13274	0	0	316
12.550	42.265	13370	0	0	316
5.986	37.216	13475	0	0	316
1.190	33.249	13571	22194	0	316
-1.190	31.879	13651	32767	0	316
-0.974	29.715	13756	32767	0	316
1.659	31.554	13973	32767	0	316
4.544	34.980	14278	32767	0	316
7.681	37.613	14616	32767	0	316
11.432	39.272	15082	32767	0	316
13.091	36.603	15524	32767	0	316
14.569	33.538	16007	32767	0	316
17.418	30.364	16344	32767	0	316
14.317	28.417	16665	32767	0	316
14.281	27.768	16906	32767	0	316
11.684	29.174	16986	32767	0	316
10.710	28.633	17002	32767	0	316
10.386	27.587	16986	32767	0	316
11.937	29.030	16962	32767	0	316
14.245	28.741	16842	32767	0	316
16.192	30.581	16802	32767	0	316
14.569	30.797	16826	32767	0	316
14.208	31.590	16922	32767	0	316
13.379	29.535	17123	32767	0	316
10.674	26.073	17324	32767	0	316
12.225	25.460	17388	32767	0	316
11.143	26.758	17429	32767	0	316
8.150	30.004	17445	32767	0	316
9.052	31.194	17589	32767	0	316
9.953	35.016	17750	32767	0	316
13.920	37.000	17911	32767	0	316
24.089	41.904	18047	32767	0	316
30.292	48.395	18152	32767	0	316
31.230	51.028	18329	32767	0	316
30.076	53.588	18474	32767	0	316
27.371	50.667	18530	32767	0	316
25.929	47.818	18474	28816	0	316
24.847	46.015	18329	0	0	316
23.188	44.068	18232	0	0	316
22.106	41.363	18192	0	0	316
16.192	40.750	18232	0	0	316
16.841	39.740	18329	0	0	316
16.084	38.190	18409	0	0	316
19.582	37.937	18474	0	0	316
21.024	39.921	18554	0	0	316
24.450	42.950	18634	0	0	316
30.292	47.386	18771	1790	0	316
34.692	54.165	18972	16249	0	316
38.514	55.031	19117	28411	1	316
39.488	55.355	19213	32329	0	316
37.000	49.044	19277	29492	0	316
31.410	41.976	19374	29762	0	316
27.227	36.459	19535	32767	0	316
25.099	35.269	19655	32767	0	316
26.902	39.921	19679	32767	0	316
29.354	44.681	19695	29221	0	316
30.184	46.592	19599	13682	0	316
28.669	45.474	19559	0	0	316
25.171	42.157	19519	0	0	316
24.125	39.740	19559	0	0	316
25.388	42.914	19615	0	0	316
28.056	44.609	19679	0	0	316
29.318	46.484	19800	7871	0	316
27.624	42.517	19856	14087	0	316
23.765	37.360	19840	9763	0	316
20.916	31.230	19615	0	0	316
17.670	26.866	19318	0	0	316
16.769	25.171	18956	0	0	316
14.208	24.342	18570	0	0	316
15.723	22.647	18208	0	0	316
17.382	23.260	17927	0	0	316
19.257	21.385	17726	0	0	316
20.267	23.873	17549	0	0	316
19.077	27.119	17388	0	0	316
14.353	28.309	17228	0	0	316
12.225	28.164	17203	0	0	316
11.540	27.443	17163	0	0	316
10.999	27.407	17043	0	0	316
14.425	30.581	16826	0	0	316
17.706	36.423	16560	0	0	316
17.310	43.166	16368	0	0	316
16.192	44.176	16264	0	0	316
15.543	44.501	16248	0	0	316
16.985	42.734	16304	0	0	316
21.132	43.347	16400	0	0	316
26.145	44.501	16520	17329	0	316
30.436	45.186	16601	32767	0	316
28.886	44.501	16641	32767	0	316
22.972	42.084	16665	32767	0	316
16.336	38.550	16681	32767	0	316
9.737	33.429	16705	32767	0	316
4.291	29.138	16665	32767	0	316
2.885	25.784	16560	32767	0	316
2.813	21.745	16464	32767	0	316
2.957	20.195	16480	32767	0	316
2.993	21.132	16544	32767	0	316
6.635	21.132	16681	32767	0	316
10.386	25.243	16826	32767	0	316
12.874	26.253	16866	32767	0	316
9.629	26.542	16761	32767	0	316
5.085	24.017	16625	32767	0	316
0.252	25.568	16464	32767	0	316
0.144	27.047	16304	23005	0	316
4.472	32.816	16184	11925	0	316
11.504	37.000	16167	10033	0	316
17.346	38.911	16208	18681	0	316
20.303	38.839	16264	30573	0	316
24.125	40.389	16288	32767	0	316
27.948	43.347	16288	32767	0	316
30.040	46.159	16224	31384	0	316
29.463	48.071	16047	15574	0	316
27.263	48.179	15806	0	0	316
26.650	48.828	15605	0	0	316
27.804	47.638	15404	0	0	316
34.872	49.116	15219	0	0	316
43.058	49.044	15002	0	0	316
44.320	46.195	14721	0	0	316
38.875	42.409	14439	0	0	316
29.282	37.468	14174	0	0	316
18.211	31.230	13917	0	0	316
8.078	25.929	13675	0	0	316
1.118	21.493	13491	0	0	316
2.236	22.034	13410	0	0	316
3.859	28.741	13354	0	0	316
6.924	34.187	13370	0	0	316
8.186	37.757	13450	0	0	316
5.301	35.341	13515	0	0	316
1.334	30.761	13571	16384	1	316
1.046	27.191	13675	32767	0	316
4.688	28.273	13732	32767	0	316
8.006	28.994	13852	32767	0	316
6.671	26.470	13957	32767	0	316
1.551	24.053	14118	32767	0	316
-5.373	21.709	14278	32767	0	316
-8.871	25.135	14455	32767	0	316
-8.186	31.590	14721	32767	0	316
-2.885	36.170	15042	32767	0	316
4.508	40.714	15339	32767	0	316
6.852	40.498	15605	32767	0	316
4.868	37.288	15685	32767	0	316
-0.541	32.600	15701	32767	0	316
-5.193	29.030	15766	32767	0	316
-5.662	27.227	15886	32767	0	316
-0.613	27.551	15942	32767	0	316
4.724	29.823	16047	32767	0	316
9.232	29.823	16248	32767	0	316
10.530	28.345	16464	32767	0	316
10.242	28.201	16721	32767	0	316
8.330	29.030	17002	32767	0	316
5.698	31.122	17324	32767	0	316
0.252	28.814	17710	32767	0	316
-4.760	24.630	18047	32767	0	316
-4.111	20.231	18353	32767	0	316
0.072	19.906	18530	32767	0	316
12.225	26.650	18554	32767	0	316
20.231	33.790	18433	32767	0	316
23.873	39.127	18192	32767	0	316
21.493	40.281	17847	0	0	316
21.709	40.426	17429	0	0	316
23.873	43.238	17002	0	0	316
29.463	47.890	16641	0	0	316
33.285	51.965	16224	0	0	316
29.751	50.054	15846	0	0	316
20.267	43.455	15500	0	0	316
10.819	36.855	15122	0	0	316
7.429	33.285	14777	0	0	316
7.934	33.826	14479	0	0	316
12.189	38.334	14214	0	0	316
16.913	42.914	14053	0	0	316
18.969	46.628	14037	0	0	316
15.759	49.333	14053	0	0	316
12.405	52.651	14053	0	0	316
6.780	51.785	13957	0	0	316
4.111	52.434	13852	0	0	316
3.029	49.189	13796	0	0	316
2.921	44.825	13732	0	0	316
7.609	45.114	13756	0	0	316
11.540	42.120	13876	0	0	316
11.215	42.878	14077	16384	0	316
13.631	42.193	14238	32767	0	316
14.858	44.573	14415	32767	0	316
17.706	48.720	14721	32767	0	316
27.443	55.716	15018	32767	0	316
39.199	64.731	15259	32767	0	316
48.215	70.790	15524	32767	0	316
51.064	73.386	15886	32767	0	316
49.874	73.134	16184	32767	0	316
42.986	71.331	16400	32767	0	316
37.829	67.616	16480	32767	0	316
32.708	64.912	16440	32767	0	316
30.436	60.620	16328	32767	0	316
27.191	55.716	16103	32767	0	316
25.856	53.841	15862	32767	0	316
26.109	52.218	15701	32767	0	316
30.761	57.230	15685	20978	0	316
40.245	65.164	15725	23411	0	316
51.641	69.600	15862	32767	0	316
60.837	71.259	16007	32767	0	316
65.885	69.275	16143	32767	0	316
66.462	64.046	16328	32767	0	316
62.892	61.342	16504	32767	0	316
59.502	63.000	16802	32767	0	316
58.997	66.787	17043	32767	0	316
59.286	73.350	17268	32767	0	316
57.699	79.589	17445	32767	0	316
56.726	84.890	17710	32767	0	316
51.100	87.523	17911	32767	1	316
46.736	88.713	18031	32767	0	316
40.786	90.732	18031	32767	0	316
36.026	90.840	17911	32767	0	316
31.482	95.348	17629	24897	0	316
26.902	98.161	17324	0	0	316
24.991	103.750	16906	0	0	316
23.260	107.681	16520	0	0	316
17.923	106.924	16167	0	0	316
9.592	103.426	15806	0	0	316
-4.219	95.168	15420	0	0	316
-16.192	89.614	15139	0	0	316
-28.273	82.474	14881	0	0	316
-36.567	78.615	14696	0	0	316
-43.779	75.838	14656	0	0	316
-49.766	71.547	14696	0	0	316
-55.572	66.607	14696	0	0	316
-64.082	61.955	14761	0	0	316
-72.593	53.696	14721	0	0	316
-79.409	50.956	14640	0	0	316
-81.680	50.523	14520	0	0	316
-82.041	52.326	14455	0	0	316
-80.238	49.080	14536	0	0	316
-80.671	42.337	14656	0	0	316
-86.837	34.728	14721	19492	0	316
-87.667	28.164	14680	27059	0	316
-88.460	28.381	14640	24492	0	316
-87.883	27.335	14600	23681	0	316
-86.116	21.637	14600	27870	0	316
-86.477	16.552	14576	32767	0	316
-81.067	13.307	14576	32767	0	316
-75.189	18.428	14616	32767	0	316
-69.095	23.621	14656	32767	0	316
-69.816	27.335	14737	32767	0	316
-74.757	23.080	14921	32767	0	316
-81.320	14.605	15163	32767	0	316
-81.284	9.484	15283	32767	0	316
-75.911	9.196	15339	32767	0	316
-71.836	12.694	15323	32767	0	316
-69.275	15.074	15404	32767	0	316
-73.062	17.706	15540	32767	0	316
-76.956	13.127	15725	32767	0	316
-81.284	7.357	15862	32767	0	316
-83.375	0.902	16023	32767	0	316
-85.215	-5.914	16087	32767	0	316
-85.864	-8.475	16047	32767	0	316
-79.805	-6.816	15902	32767	0	316
-71.727	0.757	15766	32767	0	316
-61.233	7.465	15701	26519	0	316
-49.080	15.002	15685	20032	0	316
-44.537	19.293	15645	16384	0	316
-40.137	21.854	15500	2736	0	316
-38.406	22.791	15339	0	0	316
-34.800	25.856	15243	0	0	316
-27.371	30.004	15122	0	0	316
-19.149	35.629	15122	0	0	316
-13.379	40.642	15139	0	0	316
-11.973	43.707	15139	0	0	316
-13.956	41.327	15042	0	0	316
-16.048	37.324	14921	0	0	316
-19.726	30.112	14761	0	0	316
-18.211	25.027	14680	0	0	316
-19.510	24.017	14721	0	0	316
-16.733	23.549	14841	0	0	316
-17.815	23.332	14978	1925	0	316
-16.733	22.899	15122	19897	0	316
-22.647	16.228	15339	32767	0	316
-26.289	11.612	15460	32767	0	316
-28.237	7.357	15500	32767	0	316
-23.152	8.439	15444	32767	0	316
-15.975	12.261	15299	32767	0	316
-6.563	14.533	15139	11249	0	316
-4.436	12.189	14921	0	0	316
-5.986	6.924	14857	0	0	316
-8.511	2.488	14881	0	0	316
-7.645	2.777	14938	709	0	316
-3.137	8.655	15002	14493	0	316
4.075	16.480	15042	17735	0	316
10.891	23.332	15042	18816	0	316
14.821	26.686	15122	24086	1	316
17.887	28.741	15203	32767	0	316
19.005	30.400	15420	32767	0	316
19.798	31.879	15685	32767	0	316
16.228	30.689	16007	32767	0	316
11.900	29.715	16208	32767	0	316
4.544	24.811	16344	32767	0	316
0.577	23.512	16520	32767	0	316
0.649	24.702	16721	32767	0	316
4.291	31.230	16906	32767	0	316
12.045	40.245	17067	32767	0	316
19.329	44.753	17324	32767	0	316
23.837	43.635	17589	32767	0	316
23.837	38.622	17766	32767	0	316
21.818	31.446	17991	32767	0	316
16.805	26.001	18232	32767	0	316
15.146	25.063	18514	32767	0	316
15.615	26.830	18610	32767	0	316
17.706	29.354	18674	32767	0	316
17.490	30.220	18715	32767	0	316
17.166	28.633	18771	32767	0	316
13.415	27.083	18771	32767	0	316
14.461	26.974	18650	32767	0	316
16.877	28.850	18474	0	0	316
21.962	31.987	18313	0	0	316
23.440	34.800	18273	0	0	316
26.001	36.495	18289	0	0	316
26.758	39.272	18369	0	0	316
28.669	43.924	18393	0	0	316
29.210	45.041	18369	0	0	316
24.342	45.907	18353	0	0	316
16.336	40.281	18353	0	0	316
4.868	35.701	18369	0	0	316
-0.613	31.699	18353	0	0	316
0.361	30.869	18353	0	0	316
6.022	33.574	18248	0	0	316
14.172	37.072	18047	0	0	316
23.044	41.147	17806	0	0	316
27.263	43.671	17549	0	0	316
28.056	43.815	17364	0	0	316
27.191	43.996	17228	0	0	316
28.453	42.914	17147	0	0	316
30.761	40.822	17187	0	0	316
35.737	39.668	17308	0	0	316
40.209	38.154	17445	0	0	316
41.760	36.928	17646	0	0	316
39.596	34.151	17750	13547	0	316
35.629	32.167	17871	27329	0	316
35.160	30.148	18031	32767	0	316
34.836	29.391	18047	32767	0	316
37.937	31.735	17967	32767	0	316
42.157	37.144	17790	19627	0	316
42.157	37.541	17525	0	0	316
40.317	37.829	17228	0	0	316
35.413	34.764	16906	0	0	316
33.610	30.508	16665	0	0	316
33.934	30.545	16440	0	0	316
37.108	32.384	16248	0	0	316
37.973	33.429	16103	0	0	316
35.990	32.384	16087	0	0	316
30.581	29.823	16143	0	0	316
23.080	26.433	16288	0	0	316
22.755	26.109	16440	8141	0	316
26.722	31.338	16520	28816	0	316
33.682	37.396	16544	32767	0	316
40.966	43.563	16520	32767	0	316
42.265	45.402	16480	32767	0	316
39.235	43.310	16384	27735	0	316
34.331	42.012	16328	21384	0	316
33.357	40.245	16368	27059	0	316
36.567	41.003	16440	32767	0	316
37.252	43.419	16440	32767	0	316
38.262	43.022	16328	32767	0	316
35.052	43.202	16224	26384	0	316
30.256	44.320	16127	15979	0	316
30.292	46.123	16167	19897	0	316
32.564	46.448	16264	32767	0	316
36.531	48.215	16440	32767	0	316
38.045	45.943	16641	32767	0	316
36.351	43.743	16721	32767	1	316
32.384	38.658	16785	32767	0	316
26.686	34.367	16842	32767	0	316
23.549	30.869	16986	32767	0	316
20.555	32.672	17163	32767	0	316
23.621	35.052	17404	32767	0	316
23.729	37.901	17646	32767	0	316
24.666	39.344	17750	32767	0	316
23.765	39.199	17726	32767	0	316
20.123	38.118	17629	32767	0	316
17.743	37.324	17388	32767	0	316
19.221	37.144	17123	13682	0	316
21.745	39.560	16946	0	0	316
28.489	39.524	16802	0	0	316
32.672	40.930	16601	0	0	316
33.069	38.298	16424	0	0	316
28.453	34.367	16248	0	0	316
23.260	32.059	16007	0	0	316
22.250	35.557	15766	0	0	316
23.585	41.003	15621	0	0	316
29.282	48.467	15581	0	0	316
32.564	51.713	15581	0	0	316
31.626	50.559	15565	0	0	316
28.345	48.359	15444	0	0	316
26.974	45.114	15243	0	0	316
26.217	43.599	15002	0	0	316
27.119	45.799	14696	0	0	316
29.643	46.881	14399	0	0	316
30.040	47.386	14158	0	0	316
30.256	46.736	13957	0	0	316
30.004	46.376	13716	0	0	316
31.735	47.638	13555	0	0	316
34.728	51.677	13450	0	0	316
36.495	52.831	13370	0	0	316
35.593	53.228	13290	0	0	316
31.626	48.612	13129	0	0	316
27.263	43.347	12992	0	0	316
25.856	39.596	12767	0	0	316
26.794	36.351	12550	0	0	316
29.859	34.151	12309	0	0	316
32.276	32.492	12028	0	0	316
34.006	32.961	11803	0	0	316
35.197	35.918	11706	0	0	316
35.016	37.577	11722	0	0	316
29.499	36.747	11803	0	0	316
21.024	30.905	11923	27059	0	316
9.160	24.630	12044	32767	0	316
3.101	17.670	12108	32767	0	316
4.183	18.933	12084	32767	0	316
13.054	21.745	12124	32767	0	316
24.089	24.811	12229	32767	0	316
30.977	26.037	12486	32767	0	316
32.384	21.096	12767	32767	0	316
27.660	18.283	13073	32767	0	316
28.381	14.641	13209	32767	0	316
34.259	18.392	13354	32767	0	316
44.320	22.827	13434	32767	0	316
53.228	28.201	13555	32767	0	316
54.526	32.095	13651	32767	0	316
52.362	34.223	13732	32767	0	316
46.340	36.314	13893	32767	0	316
45.618	35.846	14158	32767	0	316
44.933	32.600	14439	32767	0	316
43.671	29.138	14737	32767	0	316
41.327	26.325	14881	32767	0	316
41.075	31.302	14978	32767	0	316
44.356	39.957	15139	32767	0	316
46.484	45.474	15219	32767	0	316
46.520	47.782	15259	32767	0	316
41.435	42.120	15243	32767	0	316
32.492	33.502	15339	32767	0	316
24.053	26.506	15460	32767	0	316
17.562	20.772	15540	32767	0	316
13.704	15.903	15540	32767	0	316
12.261	16.877	15484	32767	0	316
13.776	19.041	15380	12060	0	316
18.644	25.135	15179	0	0	316
19.690	28.741	15042	0	0	316
17.562	26.758	14962	0	0	316
13.018	21.421	14962	0	1	316
11.323	17.743	15002	0	0	316
12.189	15.254	14938	0	0	316
15.362	18.752	14817	0	0	316
19.942	20.627	14696	0	0	316
18.788	25.135	14520	0	0	316
19.401	28.597	14335	0	0	316
22.034	32.203	14238	0	0	316
24.450	35.810	14158	0	0	316
28.633	39.308	14053	0	0	316
31.951	39.668	14077	0	0	316
32.889	42.012	14238	0	0	316
32.564	42.806	14495	0	0	316
31.049	41.291	14817	20978	0	316
25.460	38.875	15139	32767	0	316
18.716	34.006	15420	32767	0	316
13.740	28.777	15661	32767	0	316
9.484	24.378	15846	32767	0	316
8.006	24.053	16023	32767	0	316
9.989	24.955	16143	32767	0	316
15.831	29.968	16184	32767	0	316
19.221	34.403	16208	32767	0	316
24.125	35.954	16224	32767	0	316
23.981	35.882	16224	32767	0	316
21.565	34.692	16208	32767	0	316
21.493	34.656	16248	32767	0	316
21.024	33.538	16400	32767	0	316
23.080	32.708	16665	32767	0	316
23.621	31.554	16946	32767	0	316
23.188	31.049	17163	32767	0	316
24.630	32.708	17268	32767	0	316
26.758	32.167	17404	32767	0	316
26.830	32.131	17485	32767	0	316
25.604	28.669	17670	32767	0	316
25.568	26.614	17830	32767	0	316
27.010	29.823	17927	32767	0	316
30.797	33.105	17927	32767	0	316
32.059	35.882	17871	32767	0	316
29.787	32.961	17847	27194	0	316
23.008	28.201	17766	10979	0	316
21.313	23.152	17605	0	0	316
21.854	24.198	17388	0	0	316
26.073	29.571	17147	0	0	316
28.886	36.783	16946	0	0	316
28.922	42.012	16745	0	0	316
27.876	42.950	16504	0	0	316
25.856	38.442	16208	0	0	316
26.614	34.944	15862	0	0	316
25.063	32.997	15524	0	0	316
28.381	37.072	15179	0	0	316
31.338	44.176	14962	0	0	316
36.819	52.326	14777	0	0	316
41.688	55.463	14656	0	0	316
44.825	54.778	14600	0	0	316
42.517	50.595	14600	0	0	316
38.514	44.212	14576	0	0	316
31.302	40.281	14560	0	0	316
27.119	36.783	14616	0	0	316
27.047	37.396	14841	0	0	316
33.682	40.750	15098	24492	0	316
44.428	45.258	15339	32767	0	316
50.667	45.979	15645	32767	0	316
52.434	42.084	15966	32767	0	316
44.464	31.987	16248	32767	0	316
38.226	21.962	16368	32767	0	316
37.432	15.975	16464	32767	0	316
44.284	17.670	16584	32767	0	316
