neuroNicle FX2
D3F25R12
Bluetooth SPP
2023년 11월 13일 월요일
오후 4:35
time interval = 4msec
EEG1	EEG2	PPG	sdPPG	pulse	peak_interval(msec)
-23.945	-52.218	16284	20581	0	316
-21.060	-52.542	16555	20452	0	316
-14.425	-48.467	16884	20376	0	316
-7.645	-40.930	17269	20492	0	316
-3.246	-37.865	17741	20675	0	316
-5.229	-36.495	18169	20831	0	316
-11.612	-39.885	18741	21027	0	316
-18.175	-45.366	19312	21357	0	316
-21.818	-48.107	19812	21562	0	316
-23.693	-50.234	20098	21272	0	316
-20.591	-46.772	20241	20546	1	576
-19.762	-44.392	20198	19597	0	576
-19.942	-41.003	20126	18531	0	576
-20.880	-42.481	19841	17386	0	576
-21.241	-43.635	19526	16220	0	576
-17.382	-44.681	19098	15061	0	576
-14.389	-42.337	18698	13960	0	576
-12.441	-39.668	18169	12940	0	576
-17.526	-36.531	17669	11995	0	576
-21.277	-36.711	17169	11157	0	576
-21.637	-38.154	16598	10466	0	576
-18.031	-37.252	16070	9941	0	576
-12.586	-34.223	15527	9540	0	576
-9.701	-29.895	15027	9254	0	576
-10.566	-22.791	14570	9125	0	576
-11.937	-16.192	14099	9156	0	576
-10.963	-13.631	13784	9379	0	576
-10.746	-14.894	13670	9932	0	576
-11.756	-22.431	13527	10761	0	576
-14.461	-30.076	13427	11523	0	576
-15.362	-35.810	13313	12057	0	576
-13.054	-34.944	13099	12481	0	576
-9.016	-30.545	12927	12851	0	576
-7.645	-22.431	12742	13180	0	576
-9.268	-15.182	12599	13559	0	576
-11.540	-11.792	12642	14188	0	576
-15.471	-10.278	12713	15007	0	576
-16.589	-13.199	12742	15680	0	576
-17.202	-18.716	12813	16180	0	576
-16.733	-23.440	12999	16816	0	576
-16.336	-27.912	13213	17591	0	576
-13.920	-27.768	13356	18166	0	576
-11.323	-27.768	13456	18438	0	576
-11.323	-26.722	13527	18549	0	576
-12.405	-25.965	13570	18652	0	576
-14.028	-24.883	13856	18964	0	576
-8.727	-19.870	14099	19432	0	576
0.036	-14.317	14242	19703	0	576
10.169	-11.143	14384	19677	0	576
14.713	-11.287	14427	19512	0	576
12.802	-13.091	14456	19285	0	576
11.035	-10.458	14384	18977	0	576
12.946	0.361	14384	18603	0	576
19.726	7.357	14356	18313	0	576
28.850	8.691	14527	18304	0	576
34.764	-0.072	14642	18482	0	576
31.049	-8.979	14813	18598	0	576
25.532	-11.396	15099	18745	0	576
17.743	-3.246	15427	19084	0	576
9.232	6.996	15813	19516	0	576
8.258	11.251	16213	19859	0	576
10.061	8.330	16455	19913	0	576
15.939	0.757	16598	19641	0	576
19.257	-2.921	16741	19276	0	576
18.500	-2.633	16912	19075	0	576
16.300	0.902	17126	19004	0	576
15.471	4.688	17169	18763	0	576
17.670	9.556	17198	18269	0	576
20.375	14.713	17126	17667	0	576
19.257	17.670	17026	17021	0	576
11.648	16.697	16812	16353	0	576
4.940	8.619	16669	15765	0	576
1.118	-0.397	16626	15475	0	576
2.200	-5.878	16698	15516	0	576
3.967	-4.003	16841	15752	0	576
0.541	2.200	17055	16095	0	576
-4.364	3.318	17455	16584	0	576
-9.484	-1.551	17955	17293	0	576
-12.766	-12.117	18412	18037	0	576
-11.215	-18.897	18912	18643	0	576
-11.179	-21.637	19484	19151	0	576
-11.143	-16.913	19955	19570	0	576
-8.871	-11.973	20341	19815	0	576
-7.176	-7.862	20598	19703	0	576
-5.229	-12.117	20698	19204	0	576
-7.970	-17.202	20669	18456	0	576
-16.012	-24.053	20598	17662	0	576
-22.575	-24.847	20555	17065	0	576
-23.729	-21.781	20526	16629	0	576
-19.870	-19.618	20341	16055	0	576
-16.012	-23.657	20026	15248	0	576
-18.716	-34.692	19669	14370	0	576
-30.400	-48.684	19269	13510	0	576
-43.238	-56.545	18812	12695	0	576
-48.792	-53.480	18341	12035	0	576
-44.789	-43.347	18098	11728	0	576
-34.583	-34.583	17769	11710	0	576
-25.243	-28.958	17555	11737	0	576
-20.736	-32.816	17555	11991	0	576
-25.279	-41.183	17626	12730	0	576
-33.285	-47.025	17812	13590	0	576
-40.822	-48.287	17812	14067	0	576
-43.310	-42.409	17698	14188	0	576
-37.036	-35.701	17669	14259	0	576
-26.722	-30.256	17669	14526	0	576
-18.969	-30.761	17669	14918	0	576
-18.247	-33.466	17669	15217	0	576
-24.955	-36.278	17812	15551	0	576
-31.662	-36.567	17841	15979	0	576
-34.656	-34.583	17884	16193	0	576
-31.482	-32.780	17741	16086	0	576
-24.991	-29.715	17484	15814	0	576
-20.303	-30.617	17384	15556	0	576
-16.408	-31.158	17269	15516	0	576
-14.172	-31.879	17312	15747	0	576
-13.487	-30.148	17341	16117	0	576
-12.694	-29.427	17384	16446	0	576
-15.543	-30.941	17455	16642	0	576
-18.356	-34.908	17669	16909	0	576
-21.313	-42.661	17912	17506	0	576
-21.565	-44.717	18269	18193	0	576
-19.185	-42.157	18555	18723	0	576
-16.408	-35.233	18884	19066	0	576
-16.841	-30.328	19026	19182	0	576
-19.221	-32.528	19312	19231	0	576
-27.768	-35.918	19484	19298	0	576
-35.305	-42.337	19526	19097	0	576
-41.111	-44.464	19412	18554	0	576
-42.048	-43.058	19241	17841	0	576
-35.882	-38.262	18955	17065	0	576
-28.345	-34.764	18598	16233	0	576
-23.008	-32.997	18312	15475	0	576
-25.965	-35.269	18055	15039	0	576
-33.538	-38.514	17912	14874	0	576
-42.373	-41.976	17669	14615	0	576
-47.602	-41.255	17269	14147	0	576
-47.494	-39.380	16884	13635	0	576
-42.445	-37.432	16455	13145	0	576
-39.524	-36.170	16027	12686	0	576
-38.406	-37.432	15642	12356	0	576
-41.724	-38.839	15384	12360	0	576
-46.953	-43.383	15170	12637	0	576
-50.667	-46.232	14927	12842	0	576
-51.569	-51.352	14670	12882	0	576
-49.982	-54.850	14384	12953	0	576
-49.297	-55.283	14313	13301	0	576
-49.766	-56.834	14313	13942	0	576
-49.730	-55.427	14456	14736	0	576
-49.080	-52.398	14570	15507	0	576
-45.330	-48.684	14670	16068	0	576
-42.301	-44.464	14642	16344	0	576
-42.734	-42.409	14670	16526	0	576
-42.770	-43.202	14742	16869	0	576
-46.556	-44.753	14884	17355	0	576
-48.576	-47.782	14956	17671	0	576
-52.182	-50.559	14884	17689	0	576
-56.004	-50.739	14927	17649	0	576
-55.608	-48.503	15070	17823	0	576
-52.290	-41.868	15242	18237	0	576
-43.887	-34.583	15527	18723	0	576
-37.613	-30.545	15856	19213	0	576
-35.341	-34.295	16242	19735	0	576
-37.180	-41.976	16555	20171	0	576
-39.921	-48.900	16769	20278	0	576
-36.891	-48.720	16884	20011	0	576
-29.318	-41.183	16955	19610	0	576
-23.080	-31.590	17098	19360	0	576
-19.221	-21.890	17169	19231	0	576
-23.224	-15.651	17169	18919	1	632
-30.328	-14.064	17098	18353	0	632
-37.072	-17.454	16984	17761	0	632
-40.137	-26.145	17026	17408	0	632
-38.442	-34.872	17026	17244	0	632
-32.889	-42.301	16884	16945	0	632
-31.626	-43.527	16741	16433	0	632
-33.754	-42.301	16484	15845	0	632
-42.120	-43.022	16213	15253	0	632
-50.992	-47.494	15927	14673	0	632
-53.949	-49.657	15570	14143	0	632
-49.116	-49.910	15213	13675	0	632
-40.678	-44.068	14884	13256	0	632
-34.836	-39.704	14570	12966	0	632
-34.079	-38.154	14456	13038	0	632
-38.190	-37.793	14356	13403	0	632
-43.238	-37.144	14284	13688	0	632
-46.772	-35.485	14099	13782	0	632
-47.205	-33.862	13956	13827	0	632
-45.835	-33.898	13713	13862	0	632
-40.714	-35.052	13527	13867	0	632
-36.783	-36.134	13313	13844	0	632
-32.853	-33.466	13027	13822	0	632
-32.528	-31.699	12784	13813	0	632
-32.816	-30.545	12527	13822	0	632
-31.699	-30.184	12313	13844	0	632
-28.237	-29.607	12099	13893	0	632
-24.594	-27.551	11813	13960	0	632
-22.899	-27.948	11570	14054	0	632
-24.270	-27.660	11356	14170	0	632
-28.922	-29.318	11242	14393	0	632
-31.013	-30.689	11284	14901	0	632
-33.285	-32.059	11384	15636	0	632
-34.223	-31.446	11427	16260	0	632
-35.485	-33.357	11499	16655	0	632
-36.783	-36.747	11527	16972	0	632
-37.937	-38.370	11642	17252	0	632
-37.108	-38.045	11599	17449	0	632
-32.420	-33.177	11599	17573	0	632
-26.253	-27.155	11670	17694	0	632
-22.178	-24.017	11713	17832	0	632
-21.277	-28.273	11784	18037	0	632
-24.883	-34.692	12099	18451	0	632
-30.941	-38.911	12384	19039	0	632
-32.636	-36.928	12670	19485	0	632
-32.961	-31.554	12927	19730	0	632
-30.256	-24.234	13313	20078	0	632
-31.266	-22.899	13742	20519	0	632
-31.626	-23.693	13999	20737	0	632
-32.528	-23.729	14242	20644	0	632
-29.066	-25.604	14356	20376	0	632
-23.116	-25.496	14499	20020	0	632
-19.510	-27.119	14499	19588	0	632
-19.005	-24.378	14527	19097	0	632
-21.421	-24.342	14456	18572	0	632
-21.493	-22.719	14527	18126	0	632
-20.555	-24.486	14642	17957	0	632
-18.969	-29.968	14884	18095	0	632
-16.877	-32.744	15242	18398	0	632
-17.959	-30.653	15570	18701	0	632
-17.670	-23.116	15813	18803	0	632
-17.959	-14.749	15999	18647	0	632
-17.021	-8.871	16099	18331	0	632
-16.733	-9.088	16142	17916	0	632
-15.110	-12.694	16099	17453	0	632
-13.018	-18.067	16027	16972	0	632
-10.602	-19.510	15956	16455	0	632
-9.917	-17.851	15813	15925	0	632
-9.160	-15.002	15642	15440	0	632
-8.835	-13.595	15456	15012	0	632
-4.075	-13.848	15284	14611	0	632
2.056	-17.238	15099	14241	0	632
8.547	-18.716	14884	13916	0	632
10.746	-17.562	14670	13635	0	632
9.881	-13.559	14499	13403	0	632
5.517	-10.350	14170	13221	0	632
2.993	-6.708	14027	13091	0	632
2.380	-3.137	13884	13100	0	632
4.580	-2.308	13884	13434	0	632
7.645	0.252	13999	14023	1	316
10.530	0.685	13999	14508	0	316
7.393	-2.128	14070	14771	0	316
3.606	-8.655	14142	15025	0	316
-1.406	-17.238	14284	15502	0	316
-1.515	-23.080	14527	16144	0	316
5.409	-19.546	14742	16704	0	316
14.713	-9.088	15170	17364	0	316
21.132	0.433	15713	18367	0	316
21.457	7.032	16242	19360	0	316
18.824	2.596	16698	19913	0	316
17.706	-2.741	16984	20051	0	316
23.765	-1.983	17169	19935	0	316
29.499	6.383	17312	19637	0	316
35.774	16.120	17341	19236	0	316
39.199	22.863	17312	18763	0	316
39.704	22.322	17269	18220	0	316
39.272	17.202	17169	17627	0	316
38.478	12.441	17026	17039	0	316
41.183	12.333	16812	16468	0	316
44.464	17.021	16626	15917	0	316
51.785	24.486	16455	15453	0	316
59.863	31.554	16455	15297	0	316
66.138	36.675	16455	15404	0	316
69.383	39.704	16412	15431	0	316
70.465	39.632	16313	15266	0	316
72.088	39.921	16213	15034	0	316
73.206	39.416	16027	14803	0	316
75.009	41.616	15927	14664	0	316
74.829	41.507	15956	14803	0	316
74.144	42.012	16027	15159	0	316
67.905	39.704	16070	15391	0	316
58.709	34.980	16099	15484	0	316
47.061	28.814	16242	15743	0	316
40.101	22.322	16484	16269	0	316
38.009	17.202	16812	16927	0	316
45.005	13.812	17169	17551	0	316
50.559	13.415	17341	17890	0	316
52.470	14.785	17455	17890	0	316
46.448	16.985	17526	17725	0	316
38.658	18.031	17598	17569	0	316
31.807	16.661	17741	17600	0	316
32.167	14.533	17955	17765	0	316
34.439	10.025	18026	17774	0	316
37.216	7.537	17984	17542	0	316
36.783	5.734	17955	17163	0	316
34.475	7.429	17769	16695	0	316
31.735	10.530	17598	16184	0	316
26.902	10.819	17384	15645	0	316
26.902	10.891	17098	15119	0	316
26.325	9.304	16769	14620	0	316
29.571	11.900	16484	14156	0	316
33.357	14.677	16170	13746	0	316
34.656	18.464	15884	13483	0	316
29.895	16.480	15784	13541	0	316
24.198	10.999	15784	13867	0	316
18.933	2.849	15670	14125	0	316
19.113	-3.282	15570	14205	0	316
23.224	-5.373	15456	14312	0	316
26.758	-6.527	15527	14687	0	316
25.099	-7.104	15742	15368	0	316
19.834	-7.212	16070	16193	0	316
14.533	-9.629	16356	16949	0	316
14.028	-12.441	16526	17435	0	316
14.100	-14.785	16669	17627	0	316
12.225	-17.310	16741	17649	0	316
7.681	-20.014	16741	17547	0	316
0.180	-19.618	16669	17333	0	316
-3.426	-18.933	16555	17074	0	316
-1.406	-14.461	16455	16807	0	316
2.164	-13.848	16284	16499	0	316
4.003	-16.120	16099	16157	0	316
1.659	-21.313	15956	15890	0	316
-1.695	-26.361	15999	15903	0	316
-3.137	-27.443	16027	16153	0	316
-2.849	-23.909	15999	16300	0	316
-0.829	-22.070	15927	16237	0	316
1.010	-21.890	15927	16171	0	316
0.577	-25.099	16099	16424	0	316
-0.649	-26.758	16455	17128	0	316
-3.246	-26.686	16841	17988	0	316
-7.789	-28.489	17341	18736	0	316
-13.740	-34.079	17841	19405	0	316
-19.834	-41.363	18412	20113	0	316
-21.709	-47.999	19126	20938	0	316
-20.627	-48.323	19698	21615	0	316
-16.480	-42.373	20198	21878	0	316
-13.091	-37.000	20741	21927	0	316
-11.864	-35.413	21198	22003	0	316
-13.776	-36.675	21769	22146	0	316
-15.218	-37.000	22412	22391	0	316
-17.346	-37.288	22884	22471	0	316
-18.716	-37.901	23198	22039	0	316
-19.185	-41.327	23269	21179	0	316
-19.293	-46.268	23241	20113	0	316
-20.483	-49.982	23126	18915	0	316
-22.683	-49.225	22812	17618	1	384
-26.145	-43.238	22455	16309	0	384
-28.633	-37.829	22026	15021	0	384
-28.417	-33.538	21598	13867	0	384
-23.837	-30.364	21241	13056	0	384
-19.041	-31.446	20984	12632	0	384
-19.582	-35.521	20955	12548	0	384
-23.152	-42.409	20984	12824	0	384
-29.138	-46.953	20984	13171	0	384
-29.895	-47.926	20984	13283	0	384
-28.020	-41.147	20955	13359	0	384
-23.476	-33.538	21026	13613	0	384
-21.493	-27.155	21055	13942	0	384
-19.221	-24.919	21198	14277	0	384
-18.428	-24.594	21312	14615	0	384
-14.317	-27.732	21341	14865	0	384
-10.278	-28.777	21312	14932	0	384
-6.599	-27.083	21341	14981	0	384
-7.501	-24.702	21341	15097	0	384
-9.088	-19.149	21198	15016	0	384
-12.261	-15.182	21026	14709	0	384
-14.100	-12.946	20884	14517	0	384
-14.497	-15.254	20698	14477	0	384
-10.458	-17.418	20484	14317	0	384
-5.770	-19.690	20126	13934	0	384
-2.560	-22.070	19698	13452	0	384
-4.183	-22.935	19384	13060	0	384
-7.285	-23.837	19169	12980	0	384
-13.127	-24.666	18884	13140	0	384
-18.356	-27.840	18555	13163	0	384
-21.168	-31.085	18198	12962	0	384
-21.457	-33.393	17769	12677	0	384
-20.627	-32.816	17384	12476	0	384
-14.605	-26.902	17198	12637	0	384
-6.924	-19.942	17198	13296	0	384
-1.298	-16.589	17169	14063	0	384
0.938	-16.300	17055	14499	0	384
-0.793	-21.457	16841	14615	0	384
-1.479	-25.712	16698	14682	0	384
-1.587	-27.227	16598	14950	0	384
-0.180	-26.325	16526	15346	0	384
0.216	-23.224	16356	15560	0	384
-1.118	-20.808	16142	15507	0	384
-4.003	-20.519	15927	15453	0	384
-5.698	-23.621	16027	15743	0	384
-8.439	-27.119	16170	16473	0	384
-12.441	-28.958	16313	17252	0	384
-14.497	-28.741	16384	17680	0	384
-13.523	-24.630	16384	17783	0	384
-7.393	-21.673	16313	17716	0	384
-1.082	-21.854	16170	17511	0	384
1.334	-21.457	15956	17217	0	384
-1.911	-23.008	15713	16874	0	384
-6.058	-23.837	15427	16473	0	384
-8.511	-24.991	15099	16041	0	384
-5.301	-26.289	14742	15609	0	384
-0.216	-28.597	14313	15204	0	384
1.695	-26.866	14027	14825	0	384
2.308	-23.296	13642	14495	0	384
1.875	-19.113	13170	14219	0	384
3.137	-16.120	12856	14000	0	384
7.717	-16.985	12570	13934	0	384
13.379	-19.942	12427	14201	0	384
15.218	-19.401	12384	14722	0	384
13.812	-14.749	12313	15163	0	384
9.160	-9.917	12213	15413	0	384
3.750	-5.445	12070	15573	0	384
-0.938	-9.340	11927	15698	0	384
-2.164	-16.336	11856	15810	0	384
-2.380	-20.808	11670	15917	0	384
-0.974	-19.257	11527	15997	0	384
0.685	-12.297	11427	16068	0	384
2.128	-6.311	11284	16153	0	384
4.327	-7.934	11170	16255	0	384
3.895	-13.812	11027	16340	0	384
4.868	-20.123	10927	16406	0	384
4.688	-21.818	10856	16504	0	384
7.248	-14.785	10784	16629	0	384
10.278	-4.291	10742	16740	0	384
15.867	4.760	10642	16834	0	384
18.247	7.501	10570	16941	0	384
19.329	5.734	10599	17056	0	384
16.769	1.334	10527	17150	0	384
14.569	0.902	10527	17217	0	384
13.776	4.724	10570	17359	0	384
14.641	6.455	10784	17765	0	384
17.706	7.609	11070	18362	0	384
19.149	3.210	11242	18812	0	384
21.024	-2.164	11499	19102	0	384
18.969	-4.291	11956	19619	0	384
17.706	-3.570	12599	20546	0	384
16.264	-2.452	13213	21468	0	384
15.074	-1.334	13713	21949	0	384
16.012	0.252	14070	22003	0	384
15.867	2.236	14384	21829	0	384
15.362	5.590	14570	21495	0	384
12.586	4.868	14784	21040	0	384
10.422	2.200	14856	20528	0	384
7.357	-1.226	14956	19980	1	392
5.986	-3.534	15070	19467	0	392
9.556	-1.262	15242	19187	0	392
13.235	3.246	15570	19209	0	392
19.005	4.760	15956	19396	0	392
19.185	0.865	16313	19552	0	392
14.533	-4.904	16598	19449	0	392
5.157	-9.737	16741	19075	0	392
-3.606	-13.379	16912	18665	0	392
-6.599	-10.061	17198	18442	0	392
-3.570	-6.419	17412	18349	0	392
0.433	-5.265	17526	18095	0	392
4.364	-5.734	17555	17582	0	392
4.724	-11.323	17526	16949	0	392
2.993	-16.336	17341	16278	0	392
1.623	-19.473	17241	15582	0	392
1.731	-19.149	16984	14901	0	392
3.173	-16.985	16741	14245	0	392
4.688	-16.012	16455	13630	0	392
5.121	-15.903	16170	13082	0	392
4.580	-17.202	15856	12601	0	392
3.787	-16.949	15499	12204	0	392
5.662	-13.595	15284	11977	0	392
7.501	-6.455	15170	12111	0	392
9.124	3.787	15213	12557	0	392
6.635	8.583	15170	12958	0	392
-1.551	7.321	15142	13252	0	392
-8.186	-3.354	15284	13737	0	392
-10.278	-18.716	15570	14531	0	392
-10.350	-29.354	15927	15484	0	392
-6.635	-33.213	16313	16376	0	392
-9.160	-28.777	16555	16958	0	392
-14.641	-25.929	16812	17297	0	392
-19.942	-24.919	17126	17729	0	392
30.725	23.621	16984	23545	0	612
26.578	21.601	17312	23157	0	612
24.486	20.988	17555	22520	0	612
26.361	22.503	17626	21718	0	612
30.797	22.719	17698	20791	0	612
34.403	24.089	17626	19793	1	660
36.242	23.188	17484	18763	0	660
34.367	23.729	17269	17738	0	660
26.433	22.178	17055	16736	0	660
18.500	18.933	16812	15801	0	660
11.107	14.497	16626	15048	0	660
7.537	11.720	16555	14669	0	660
12.622	10.458	16555	14566	0	660
16.516	12.405	16455	14410	0	660
20.014	16.048	16356	14130	0	660
17.562	20.014	16213	13871	0	660
13.307	23.044	16099	13626	0	660
10.350	22.935	15884	13359	0	660
12.514	23.224	15784	13198	0	660
17.923	25.027	15784	13354	0	660
23.512	28.128	15956	13818	0	660
24.847	30.472	16142	14428	0	660
23.440	28.561	16313	15021	0	660
22.863	22.142	16455	15391	0	660
21.277	17.490	16484	15475	0	660
19.293	18.247	16455	15409	0	660
17.634	24.630	16356	15257	0	660
16.985	33.898	16284	15137	0	660
16.913	39.560	16412	15342	0	660
17.346	38.767	16769	16090	0	660
15.723	33.429	17341	17168	0	660
10.746	25.063	17769	18077	0	660
6.347	17.959	18055	18496	0	660
4.616	10.566	18241	18491	0	660
7.573	7.645	18341	18269	0	660
11.360	6.275	18412	18019	0	660
12.405	10.133	18598	17948	0	660
15.182	16.444	18769	18072	0	660
16.697	22.647	19055	18269	0	660
18.608	26.181	19312	18420	0	660
17.779	23.549	19412	18331	0	660
15.687	20.195	19384	17930	0	660
14.172	17.490	19312	17351	0	660
16.264	18.969	19169	16722	0	660
22.106	23.260	18884	16068	0	660
27.227	27.335	18598	15377	0	660
33.610	29.931	18312	14669	0	660
33.898	30.436	17912	13978	0	660
33.790	32.889	17526	13430	0	660
30.364	33.502	17341	13221	0	660
24.198	28.597	17198	13296	0	660
13.848	19.690	16984	13310	0	660
5.373	5.986	16741	13154	0	660
0.721	-0.865	16455	12953	0	660
1.947	-1.515	16213	12846	0	660
10.386	7.465	16099	13020	0	660
21.241	13.523	16027	13417	0	660
29.282	15.543	15956	13804	0	660
31.843	13.451	16070	14254	0	660
30.256	10.314	16213	14914	0	660
24.955	11.900	16412	15685	0	660
23.945	17.490	16626	16384	0	660
25.568	23.404	16769	16816	0	660
29.138	26.001	16769	16932	0	660
29.138	25.388	16741	16887	0	660
27.407	20.700	16626	16758	0	660
22.575	16.733	16484	16531	0	660
19.582	14.497	16384	16318	0	660
20.303	14.136	16384	16371	0	660
21.457	14.749	16526	16727	0	660
19.257	16.156	16741	17221	0	660
13.776	17.166	16912	17676	0	660
8.835	17.526	17098	17988	0	660
4.039	16.372	17384	18291	0	660
6.419	11.973	17626	18616	0	660
9.773	9.917	17698	18687	0	660
14.533	9.701	17698	18424	0	660
16.156	14.208	17741	18081	0	660
16.408	20.880	17741	17916	0	660
17.706	24.919	17841	17894	0	660
18.320	29.138	17812	17711	0	660
19.834	29.535	17669	17293	0	660
17.166	30.472	17598	16856	0	660
13.415	28.994	17698	16749	0	660
11.684	23.585	17884	17097	0	660
15.290	19.113	18098	17506	0	660
23.657	15.831	18126	17556	0	660
27.840	16.372	18169	17257	0	660
25.027	16.805	18026	16820	0	660
16.877	15.579	17812	16349	0	660
9.124	11.468	17626	15854	0	660
9.016	10.314	17455	15413	0	660
12.874	11.432	17312	15221	0	660
14.713	16.985	17312	15266	0	660
12.369	21.241	17169	15230	0	660
6.708	23.044	17098	15074	0	660
5.085	17.779	17055	15106	0	660
6.311	12.081	17126	15355	0	660
7.537	5.337	17055	15493	0	660
7.573	4.291	17026	15480	0	660
6.275	5.409	17098	15600	0	660
5.878	8.547	17126	15859	0	660
11.432	9.917	17055	15939	0	660
17.202	7.429	16955	15761	0	660
16.589	5.517	16741	15453	0	660
8.547	5.013	16526	15110	0	660
-3.714	7.140	16284	14834	0	660
-10.206	9.592	16242	14843	0	660
-8.547	8.402	16242	15074	0	660
1.118	5.770	16170	15288	0	660
9.592	2.056	16356	15649	0	660
10.710	-0.685	16626	16384	0	660
5.517	-1.911	16884	17163	0	660
-0.902	-2.885	17055	17542	0	660
-3.029	-3.065	17198	17654	0	660
-1.587	-2.957	17455	17876	0	660
2.019	0.541	17598	18170	0	660
4.075	3.931	17698	18224	0	660
4.940	5.914	17698	17983	0	660
4.977	2.272	17598	17609	0	660
2.957	-3.750	17412	17150	0	660
-0.361	-6.744	17198	16615	0	660
-3.859	-5.950	16984	16095	0	660
-2.236	1.767	16698	15618	0	660
1.875	8.799	16484	15244	0	660
11.973	12.153	16412	15119	0	660
17.129	10.278	16356	15217	0	660
15.831	6.311	16313	15342	0	660
6.671	2.633	16384	15569	0	660
-0.865	2.488	16555	16001	0	660
-2.813	3.029	16769	16517	0	660
1.587	5.013	16955	16963	0	660
12.369	7.573	17098	17230	0	660
16.516	11.179	17312	17462	0	660
15.615	13.271	17598	17818	0	660
10.350	17.093	17841	18224	0	660
5.373	19.077	18198	18612	0	660
4.940	19.942	18526	18982	0	660
10.206	18.139	18912	19316	0	660
14.461	16.084	19241	19605	0	660
17.382	14.785	19526	19752	0	660
15.146	14.172	19669	19565	0	660
9.665	12.658	19741	19120	0	660
4.255	9.881	19841	18768	0	660
0.613	5.085	19912	18545	0	660
-0.072	2.488	19912	18108	0	660
1.442	4.580	19812	17475	0	660
4.327	8.727	19812	17030	0	660
7.681	10.422	19841	16780	0	660
9.665	9.845	19626	16376	0	660
10.350	5.229	19384	15721	0	660
6.599	2.452	19098	14999	0	660
1.803	1.118	18741	14281	0	660
-3.426	1.695	18269	13559	0	660
-4.219	2.741	17912	12944	0	660
-0.829	2.741	17669	12655	0	660
4.580	1.947	17384	12623	0	660
7.862	-0.361	17098	12530	0	660
6.816	-4.111	16812	12360	0	660
2.092	-7.429	16626	12432	0	660
-4.616	-8.475	16484	12721	0	660
-6.816	-6.744	16356	12998	0	660
-4.724	-1.587	16313	13327	0	660
1.479	2.164	16284	13778	0	660
7.898	1.587	16242	14165	0	660
8.799	-2.705	16356	14664	0	660
3.714	-7.645	16626	15520	0	660
-4.760	-12.730	16884	16401	0	660
-12.766	-15.398	16984	16896	0	660
-15.903	-15.615	17026	17025	0	660
-10.855	-16.589	16955	16949	0	660
-5.806	-16.985	16769	16731	0	660
-1.911	-16.444	16598	16424	0	660
-1.659	-14.713	16356	16077	0	660
-5.698	-13.956	16027	15667	0	660
-10.927	-13.631	15784	15230	0	660
-12.261	-12.297	15384	14829	0	660
-11.179	-8.763	14999	14486	0	660
-7.212	-5.301	14670	14165	0	660
-0.613	-1.767	14242	13858	0	660
6.744	-1.587	13884	13577	0	660
8.547	-4.039	13427	13345	0	660
5.337	-7.104	13170	13261	0	660
-4.868	-9.881	12999	13510	0	660
-12.694	-8.799	12927	14032	0	660
-14.966	-7.934	12813	14477	0	660
-9.773	-6.671	12642	14718	0	660
-4.436	-7.104	12499	14878	0	660
-4.688	-7.501	12313	15007	0	660
-7.825	-9.232	12213	15195	0	660
-9.917	-8.078	12356	15725	0	660
-9.520	-7.321	12670	16709	0	660
-5.049	-6.131	13027	17867	0	660
-6.022	-7.573	13599	18941	0	660
-9.881	-11.251	14142	19953	0	660
-14.677	-11.720	14784	20982	0	660
-15.723	-8.943	15570	22092	0	660
-11.179	-1.046	16313	23144	0	660
-5.445	4.472	17126	23973	0	660
-1.983	4.364	17812	24498	0	660
-2.380	-0.649	18269	24552	0	660
-4.364	-5.265	18741	24218	0	660
-2.849	-0.902	19126	23870	0	660
1.803	10.855	19484	23518	0	660
6.167	22.719	19741	22948	0	660
8.583	26.361	20169	22395	1	800
2.380	19.437	20526	22137	0	800
-6.563	8.078	20912	21963	0	800
-13.668	2.200	21312	21642	0	800
-15.651	3.318	21555	21156	0	800
-11.396	9.809	21669	20363	0	800
-5.481	18.139	21526	19236	0	800
0.577	22.611	21341	17948	0	800
2.849	23.116	21026	16606	0	800
4.003	21.024	20598	15270	0	800
4.868	19.762	20169	14054	0	800
5.554	18.211	19912	13265	0	800
6.852	19.401	19841	13051	0	800
8.799	21.890	19741	13047	0	800
7.898	22.683	19669	12913	0	800
7.681	20.159	19555	12811	0	800
4.904	16.697	19555	12917	0	800
2.524	13.884	19698	13265	0	800
3.895	15.615	20026	13956	0	800
9.809	20.916	20455	14892	0	800
16.552	28.056	20741	15609	0	800
20.411	32.312	20884	15832	0	800
21.962	31.013	20841	15649	0	800
18.824	28.201	20769	15311	0	800
17.021	25.496	20812	15168	0	800
17.995	26.650	20955	15417	0	800
18.392	29.463	20984	15707	0	800
16.012	30.400	20912	15587	0	800
13.415	26.758	20741	15177	0	800
9.412	22.142	20741	14967	0	800
10.061	18.536	20769	15150	0	800
11.900	18.644	20769	15364	0	800
15.002	21.709	20626	15199	0	800
16.192	24.162	20341	14700	0	800
16.949	25.027	20026	14165	0	800
17.129	23.368	19841	13929	0	800
16.625	22.791	19884	14130	0	800
17.454	21.890	19741	14401	0	800
19.690	21.709	19598	14415	0	800
21.962	21.457	19526	14388	0	800
25.856	21.637	19384	14455	0	800
29.715	20.303	19169	14344	0	800
27.984	19.654	18769	13987	0	800
24.522	17.706	18455	13630	0	800
18.500	14.353	18169	13506	0	800
12.441	10.350	17955	13555	0	800
10.530	4.760	17741	13604	0	800
10.278	2.633	17555	13737	0	800
10.278	2.524	17412	13978	0	800
8.655	4.364	17241	14143	0	800
6.167	6.960	17169	14361	0	800
6.167	7.753	17026	14709	0	800
10.674	6.094	16841	14878	0	800
15.038	4.940	16598	14758	0	800
17.490	5.481	16242	14495	0	800
13.307	4.724	15927	14268	0	800
7.753	3.606	15713	14268	0	800
3.534	1.334	15499	14468	0	800
7.032	0.938	15213	14540	0	800
11.864	1.767	14956	14486	0	800
14.172	3.101	14856	14629	0	800
14.100	2.344	14642	14963	0	800
9.917	0.541	14499	15155	0	800
9.124	0.757	14170	15110	0	800
12.910	5.662	13999	15057	0	800
17.923	13.343	13856	15253	0	800
20.339	20.447	13884	15707	0	800
21.890	21.168	13956	16286	0	800
17.743	18.283	13999	16829	0	800
16.192	12.405	13999	17141	0	800
13.595	6.491	13856	17168	0	800
12.189	3.642	13784	17047	0	800
12.550	6.635	13570	16878	0	800
13.018	11.864	13427	16762	0	800
15.182	19.113	13384	16878	0	800
14.353	23.044	13456	17199	0	800
13.523	20.700	13570	17520	0	800
11.720	14.136	13670	17881	0	800
10.638	7.357	13927	18375	0	800
10.278	1.406	14242	18919	0	800
11.143	0.685	14456	19360	0	800
8.655	3.318	14670	19588	0	800
7.068	8.619	14956	19752	0	800
7.645	14.605	15142	19931	0	800
11.468	17.418	15356	19962	0	800
15.038	16.444	15599	19944	0	800
17.057	13.559	15784	19962	0	800
16.156	10.602	15856	19766	0	800
10.746	8.547	15813	19267	0	800
6.924	8.258	15713	18612	0	800
5.770	7.862	15499	17890	0	800
7.285	9.917	15242	17137	0	800
10.927	11.432	15027	16495	0	800
15.831	12.081	14999	16184	0	800
17.851	9.376	14927	16095	0	800
18.428	4.652	14856	16001	0	800
17.454	0.397	14927	16010	0	800
14.100	0.000	14999	16175	0	800
12.874	2.488	14956	16184	0	800
12.730	6.311	14856	15939	0	800
16.300	7.573	14742	15614	0	800
20.267	9.304	14570	15368	0	800
22.863	11.828	14599	15360	0	800
20.375	14.461	14599	15520	0	800
13.776	15.687	14527	15547	0	800
7.032	15.002	14384	15355	0	800
4.580	11.287	14213	15065	0	800
9.052	10.674	13927	14758	0	800
19.437	12.009	13670	14433	0	800
28.092	18.211	13427	14116	0	800
31.987	22.827	13142	13920	0	800
29.246	25.099	13099	14023	0	800
20.664	20.050	13027	14357	0	800
11.107	11.684	12956	14602	0	800
4.760	4.400	12813	14647	0	800
-0.361	1.659	12642	14624	0	800
-3.246	5.878	12427	14584	0	800
-2.705	12.658	12242	14526	0	800
0.144	16.877	11999	14468	0	800
4.580	13.054	11784	14415	0	800
7.176	5.770	11570	14379	0	800
7.717	-1.082	11356	14393	0	800
5.445	-3.210	11170	14459	0	800
2.993	0.036	11070	14624	0	800
2.019	5.517	11142	15070	0	800
2.308	8.727	11284	15765	0	800
2.524	8.475	11356	16362	0	800
4.255	6.816	11427	16704	0	800
7.429	5.914	11570	17012	0	800
9.592	9.304	11813	17547	0	800
11.468	14.172	12099	18242	0	800
12.514	19.329	12313	18736	0	800
14.028	20.087	12570	18999	0	800
13.631	18.572	12884	19351	0	800
13.235	13.018	13242	19806	0	800
8.871	7.212	13499	20038	0	800
2.308	5.734	13599	19957	0	800
-3.173	5.193	13813	19802	0	800
-2.705	7.068	14099	19828	0	800
0.974	10.963	14427	20078	0	800
9.953	13.235	14856	20408	0	800
17.202	16.841	15313	20737	0	800
21.421	18.067	15784	21058	0	800
19.510	18.103	16213	21263	0	800
11.864	15.038	16526	21156	0	800
4.796	11.143	16698	20720	0	800
1.983	9.124	16884	20207	0	800
8.511	12.550	17098	19877	0	800
23.008	18.788	17384	19659	0	800
35.233	23.945	17455	19244	0	800
39.812	24.702	17484	18594	0	800
33.285	23.188	17341	17854	0	800
21.781	23.945	17269	17056	0	800
16.048	26.650	17026	16229	0	800
21.024	31.987	16769	15422	0	800
30.328	31.410	16526	14678	0	800
35.197	25.604	16284	14063	0	800
29.859	15.759	16242	13853	0	800
19.654	9.160	16384	14183	0	800
9.665	5.481	16526	14655	0	800
8.511	5.265	16555	14820	0	800
13.018	3.678	16484	14691	0	800
16.516	2.380	16384	14446	0	800
15.074	2.777	16170	14147	0	800
9.340	6.419	15956	13795	0	800
7.248	11.576	15670	13430	0	800
7.970	10.746	15356	13082	0	800
11.720	6.455	15099	12766	0	800
15.903	-1.262	14784	12588	0	800
15.038	-5.445	14784	12815	0	800
9.701	-1.875	15027	13666	0	800
5.301	4.364	15499	14945	0	800
-0.397	7.573	15856	16113	0	800
-6.527	4.183	16142	16798	0	800
-13.668	-5.301	16284	17074	0	800
-21.637	-14.930	16356	17137	0	800
-27.624	-19.870	16384	17074	0	800
-25.207	-17.238	16313	16874	0	800
-20.231	-13.307	16170	16575	0	800
-15.002	-11.071	16070	16246	0	800
-12.225	-15.435	15856	15903	0	800
-18.103	-22.683	15599	15542	0	800
-24.955	-27.732	15384	15248	0	800
-31.807	-26.542	15384	15239	0	800
-34.583	-20.772	15384	15458	0	800
-33.754	-17.815	15284	15573	0	800
-31.302	-18.933	15142	15480	0	800
-27.443	-24.414	15027	15306	0	800
-27.191	-28.417	14784	15119	0	800
-26.830	-25.352	14642	15003	0	800
-26.938	-17.743	14670	15155	0	800
-27.371	-9.989	14670	15507	0	800
-26.361	-4.796	14670	15743	0	800
-24.053	-6.599	14570	15756	0	800
-22.719	-10.097	14456	15680	0	800
-20.952	-13.379	14284	15582	0	800
-20.447	-16.084	14242	15565	0	800
-18.680	-14.281	14284	15823	0	800
-19.510	-12.802	14427	16269	0	800
-20.231	-12.550	14427	16571	0	800
-22.070	-14.028	14456	16664	0	800
-24.053	-17.562	14427	16673	0	800
-26.181	-21.421	14427	16709	0	800
-27.263	-21.024	14599	16958	0	800
-24.883	-17.166	14784	17400	0	800
-21.313	-10.638	14884	17703	0	800
-16.625	-4.327	14927	17720	0	800
-13.559	-4.688	14927	17596	0	800
-16.661	-7.970	14884	17426	0	800
-22.539	-12.225	14884	17310	0	800
-26.866	-13.595	15027	17408	0	800
-27.515	-9.845	15213	17658	0	800
-21.313	-3.498	15242	17752	0	800
-13.451	-0.577	15242	17596	0	800
-8.222	-1.298	15213	17333	0	800
-6.167	-2.777	15099	17016	0	800
-7.862	-1.118	14956	16660	0	800
-7.934	4.472	14813	16291	0	800
-5.878	11.215	14599	15917	0	800
-0.541	15.543	14427	15565	0	800
3.931	12.514	14170	15239	0	800
7.212	8.475	13999	14950	0	800
5.734	5.481	13713	14709	0	800
2.056	7.140	13527	14522	0	800
-0.974	13.559	13356	14375	0	800
-1.515	19.293	13099	14263	0	800
-1.406	23.296	12927	14183	0	800
1.010	23.909	12784	14237	0	800
1.046	22.106	12856	14629	0	800
1.262	19.582	12999	15284	0	800
0.252	17.418	13142	15850	0	800
2.993	15.759	13213	16175	0	800
7.970	14.858	13213	16376	0	800
13.776	14.930	13356	16615	0	800
17.815	15.975	13670	17186	0	800
17.995	17.959	14142	18162	0	800
16.228	19.221	14670	19151	0	800
13.920	19.798	14999	19708	0	800
14.461	22.322	15284	19851	0	800
15.651	26.217	15499	19770	0	800
17.851	31.699	15570	19543	0	800
17.526	35.449	15599	19204	0	800
15.939	34.295	15599	18777	0	800
13.343	27.083	15527	18286	1	972
10.097	19.510	15427	17761	0	972
6.455	14.930	15242	17235	0	972
5.662	15.975	15099	16727	0	972
6.635	20.195	14956	16242	0	972
8.186	23.152	14713	15783	0	972
11.504	21.854	14642	15466	0	972
12.369	18.320	14670	15516	0	972
10.638	14.245	14784	15841	0	972
7.212	12.694	14856	16064	0	972
1.154	14.461	14856	16064	0	972
-3.931	14.533	14884	16010	0	972
-4.760	13.487	14856	15979	0	972
-2.380	11.648	14884	16024	0	972
4.039	11.684	15142	16300	0	972
9.809	14.136	15313	16758	0	972
15.254	19.005	15499	17083	0	972
16.192	20.519	15599	17146	0	972
13.956	16.913	15642	17065	0	972
9.016	9.953	15642	16914	0	972
3.678	5.445	15599	16700	0	972
-2.777	4.652	15599	16526	0	972
-4.039	7.248	15742	16602	0	972
-6.924	11.323	15884	16874	0	972
-7.429	12.117	16027	17088	0	972
-6.383	9.881	16284	17337	0	972
-3.750	7.862	16626	17783	0	972
1.731	5.337	17026	18326	0	972
4.436	2.308	17412	18781	0	972
0.938	-1.623	17741	19031	0	972
-8.475	-6.744	18098	19227	0	972
-16.444	-6.635	18555	19534	0	972
-20.159	-1.046	19026	19904	0	972
-15.398	8.042	19455	20167	0	972
-6.347	14.281	19769	20185	0	972
0.361	14.281	20126	20113	0	972
0.649	6.599	20484	20060	0	972
-2.452	-2.885	20669	19784	0	972
-5.193	-8.979	20669	19155	0	972
-4.760	-10.314	20626	18349	0	972
-2.524	-7.140	20555	17573	0	972
0.288	-3.282	20669	17137	0	972
-0.036	0.974	20912	17150	0	972
-2.957	0.433	21098	17239	0	972
-6.311	-5.842	21126	16998	0	972
-10.674	-15.110	21055	16455	0	972
-12.153	-23.080	20884	15774	0	972
-13.559	-23.368	20669	15012	0	972
-13.163	-17.202	20269	14223	0	972
-14.605	-9.592	20055	13528	0	972
-16.625	-6.022	19812	13136	0	972
-21.385	-9.052	19598	12989	0	972
-22.142	-16.084	19412	12855	0	972
-17.706	-17.743	19312	12828	0	972
-9.953	-14.064	19341	13056	0	972
-2.993	-7.537	19341	13457	0	972
-2.200	-1.551	19384	13840	0	972
-9.304	-1.010	19412	14098	0	972
-17.743	-4.544	19455	14379	0	972
-21.818	-8.439	19484	14731	0	972
-24.089	-12.009	19555	14985	0	972
-20.736	-14.281	19626	15239	0	972
-18.428	-15.074	19741	15573	0	972
-18.752	-13.992	19669	15689	0	972
-18.428	-12.153	19526	15493	0	972
-17.382	-9.556	19312	15172	0	972
-15.651	-9.160	19055	14811	0	972
-14.353	-11.684	18698	14384	0	972
-15.435	-15.471	18341	13925	0	972
-19.221	-17.851	17984	13573	0	972
-25.279	-17.274	17912	13635	0	972
-29.030	-18.428	17912	14196	0	972
-31.843	-22.503	18098	14945	0	972
-29.859	-27.010	18312	15636	0	972
-26.433	-28.814	18526	16304	0	972
-20.916	-26.001	18812	16967	0	972
-16.913	-18.464	19026	17511	0	972
-15.831	-11.396	19098	17738	0	972
-18.428	-12.009	19055	17609	0	972
-24.414	-16.192	19026	17355	1	316
-28.092	-19.798	19098	17346	0	316
-25.784	-17.815	19341	17729	0	316
-18.103	-12.117	19526	18130	0	316
-9.773	-5.914	19526	18113	0	316
-6.383	-6.960	19412	17729	0	316
-9.484	-12.586	19241	17195	0	316
-16.300	-19.437	18984	16606	0	316
-22.683	-23.188	18669	15997	0	316
-22.467	-20.916	18312	15351	0	316
-19.149	-19.185	17884	14709	0	316
-14.425	-19.654	17484	14130	0	316
-11.648	-21.673	17098	13644	0	316
-10.350	-21.962	16626	13221	0	316
-10.891	-16.444	16170	12837	0	316
-9.520	-8.150	15713	12512	0	316
-11.107	-1.010	15284	12262	0	316
-11.828	0.505	14956	12155	0	316
-15.038	-3.318	14713	12369	0	316
-14.317	-5.157	14570	12846	0	316
-8.943	-3.354	14384	13238	0	316
0.288	0.325	14242	13528	0	316
6.058	2.380	14170	14018	0	316
4.436	-0.902	14313	14785	0	316
-0.361	-7.285	14570	15765	0	316
-9.232	-10.133	14999	16963	0	316
-10.602	-5.950	15427	18104	0	316
-6.563	3.210	15670	18785	0	316
-1.226	9.737	15784	19022	0	316
3.570	12.117	15856	19004	0	316
4.436	6.852	15813	18817	0	316
4.472	0.180	15713	18505	0	316
4.183	-2.885	15599	18135	0	316
6.563	0.577	15384	17738	0	316
7.321	6.167	15170	17306	0	316
9.196	13.199	14956	16869	0	316
9.629	16.769	14742	16464	0	316
11.612	16.805	14427	16113	0	316
16.661	14.894	14213	15778	0	316
22.070	14.353	13927	15475	0	316
25.496	16.444	13742	15230	0	316
23.440	20.591	13499	15043	0	316
19.762	23.188	13213	14874	0	316
14.677	24.017	12927	14709	0	316
13.018	19.329	12742	14593	0	316
15.038	15.687	12499	14548	0	316
16.805	15.326	12356	14655	0	316
14.136	17.274	12499	15132	0	316
7.681	16.156	12884	16166	0	316
-1.226	10.783	13456	17551	0	316
-7.176	0.505	13927	18781	0	316
-7.609	-7.717	14499	19605	0	316
-4.111	-8.871	14999	20269	0	316
0.721	-1.947	15499	20889	0	316
6.780	7.789	15813	21201	0	316
8.799	15.507	16142	21205	0	316
9.412	16.733	16484	21236	0	316
6.203	12.910	16841	21326	0	316
-1.839	6.203	17026	21165	0	316
-8.402	0.000	17126	20684	0	316
-10.999	-1.406	17169	20042	0	316
-10.638	1.695	17126	19347	0	316
-6.708	7.032	17026	18621	0	316
-4.688	10.025	16841	17841	0	316
-6.888	7.104	16626	17047	0	316
-10.386	-2.705	16412	16300	0	316
-16.156	-12.441	16170	15622	0	316
-20.014	-18.608	15884	14981	0	316
-22.935	-17.057	15570	14384	0	316
-23.873	-11.396	15242	13880	0	316
-22.358	-6.383	14999	13475	0	316
-22.034	-7.032	14670	13127	0	316
-23.476	-12.333	14356	12828	0	316
-24.198	-16.480	14070	12583	0	316
-25.784	-18.969	13856	12490	0	316
-27.227	-17.598	13742	12739	0	316
-26.974	-15.687	13742	13256	0	316
-27.010	-17.490	13742	13688	0	316
-26.325	-21.709	13599	13916	0	316
-21.457	-25.352	13527	14063	1	316
-17.526	-23.116	13427	14201	0	316
-9.160	-15.507	13242	14330	0	316
-4.580	-7.825	13142	14433	0	316
-3.895	-2.885	12999	14517	0	316
-5.842	-7.825	12856	14593	0	316
-12.658	-17.598	12713	14678	0	316
-16.877	-27.624	12642	14883	0	316
-21.132	-32.348	12742	15386	0	316
-22.034	-31.338	12927	16086	0	316
-22.431	-25.171	13027	16633	0	316
-25.243	-20.483	13142	16967	0	316
-28.381	-18.211	13213	17203	0	316
-26.433	-18.320	13356	17440	0	316
-19.618	-19.005	13570	17863	0	316
-8.583	-17.274	13927	18451	0	316
2.056	-12.477	14142	18879	0	316
6.094	-8.655	14284	19004	0	316
0.036	-6.852	14427	18950	0	316
-8.763	-9.484	14427	18799	0	316
-12.225	-10.819	14456	18558	0	316
-9.953	-11.071	14384	18251	0	316
-0.216	-4.904	14384	17912	0	316
9.629	2.993	14313	17645	0	316
14.353	10.025	14499	17649	0	316
16.444	11.720	14642	17863	0	316
16.516	9.484	14813	18050	0	316
18.788	6.708	15099	18273	0	316
19.654	6.924	15456	18692	0	316
19.257	9.737	15884	19213	0	316
13.054	13.704	16356	19654	0	316
6.960	13.884	16669	19833	0	316
3.173	10.674	16884	19717	0	316
2.272	9.016	17026	19445	0	316
6.455	7.681	17055	19048	0	316
8.691	9.232	17126	18549	0	316
8.763	11.215	17098	18010	0	316
7.753	9.773	17026	17471	0	316
5.698	8.006	16912	16905	0	316
6.311	6.960	16741	16322	0	316
7.681	8.439	16669	15859	0	316
12.117	12.045	16698	15721	0	316
16.084	15.579	16769	15810	0	316
21.349	18.572	16841	15868	0	316
25.424	17.562	17098	16086	0	316
28.633	16.444	17555	16713	0	316
27.876	15.759	17912	17404	0	316
23.801	13.992	18241	17783	0	316
15.146	15.398	18669	18041	0	316
6.671	16.589	18955	18309	0	316
0.829	15.218	19098	18313	0	316
0.577	13.091	19198	17970	0	316
5.986	10.133	19126	17449	0	316
10.133	7.501	18984	16843	0	316
14.461	6.563	18841	16180	0	316
15.615	6.996	18555	15484	0	316
16.805	7.212	18384	14874	0	316
18.356	9.268	18269	14593	0	316
20.050	10.494	18241	14593	0	316
19.654	13.523	18098	14513	0	316
17.021	14.245	17912	14237	0	316
14.281	12.225	17698	13925	0	316
12.622	5.950	17526	13729	0	316
13.992	2.957	17526	13795	0	316
17.490	3.137	17526	14067	0	316
23.368	8.799	17412	14254	0	316
27.299	19.437	17384	14335	0	316
30.256	27.479	17555	14678	0	316
31.482	29.138	17912	15538	0	316
29.823	26.145	18455	16736	0	316
31.410	18.608	18912	17765	0	316
31.049	13.235	19312	18358	0	316
30.508	10.963	19698	18759	0	316
25.496	10.710	20098	19191	0	316
19.185	8.511	20526	19597	0	316
10.891	5.986	20841	19819	0	316
7.212	0.649	20984	19677	0	316
8.871	-2.705	21026	19164	0	316
12.333	-3.029	20955	18531	0	316
15.795	-1.623	20984	18064	0	316
17.021	0.144	20984	17725	0	316
15.543	1.623	20841	17221	0	316
12.153	1.370	20626	16473	0	316
6.924	-1.551	20312	15631	0	316
6.419	-3.210	19884	14776	0	316
8.294	-2.849	19526	14018	0	316
14.208	1.479	19384	13697	0	316
20.411	8.511	19384	13938	0	316
22.575	11.143	19341	14312	0	316
18.933	10.999	19269	14370	0	316
14.785	8.150	19126	14161	0	316
14.605	8.907	18812	13871	0	316
16.372	12.586	18526	13524	0	316
20.555	17.598	18198	13221	0	316
21.457	16.841	18055	13216	0	316
18.139	11.143	17955	13537	0	316
14.605	5.193	18026	14014	0	316
11.432	5.337	18055	14464	0	316
10.278	7.753	18026	14789	0	316
12.982	10.819	18098	15123	0	316
19.113	8.619	18098	15524	0	316
24.991	4.580	18098	15721	0	316
29.102	1.334	17912	15618	0	316
29.210	1.911	17669	15373	0	316
24.558	4.796	17412	15048	0	316
20.447	5.626	17098	14678	0	316
19.942	6.563	16769	14379	0	316
24.125	5.301	16598	14375	0	316
28.994	5.121	16455	14598	0	316
30.256	7.609	16284	14718	0	316
29.463	10.566	16027	14638	0	316
29.391	15.507	15784	14517	0	316
29.210	18.897	15456	14406	0	316
34.620	18.680	15170	14263	0	316
38.298	15.074	14856	14107	0	316
38.550	12.081	14499	13969	0	316
35.197	9.917	14213	13884	0	316
28.237	10.530	13856	13849	0	316
22.142	8.835	13570	13840	0	316
18.031	4.183	13284	13880	0	316
16.769	-1.551	13099	14094	0	316
18.680	-3.895	13099	14615	0	316
21.529	-1.082	13142	15328	0	316
24.558	3.426	13170	15908	0	316
26.073	6.563	13170	16273	0	316
27.010	5.662	13099	16526	0	316
27.912	4.904	13070	16704	0	316
29.066	6.239	12927	16793	0	316
32.780	12.838	12856	16834	0	316
37.396	21.781	12813	16936	0	316
41.219	24.811	12999	17368	0	316
42.481	21.818	13427	18260	0	316
39.452	12.045	13742	19204	0	316
31.410	3.678	14070	19766	0	316
24.234	0.361	14213	19944	0	316
18.824	3.462	14427	19931	0	316
17.202	7.321	14527	19900	0	316
20.014	8.006	14856	20056	0	316
22.755	5.986	15099	20323	0	316
26.181	2.849	15313	20376	0	316
27.155	1.515	15456	20167	0	316
26.794	1.334	15527	19833	0	316
23.837	1.983	15499	19405	0	316
20.195	2.092	15499	18901	0	316
21.529	4.327	15456	18469	1	576
26.217	7.645	15670	18309	0	576
32.131	10.169	15856	18429	0	576
35.124	9.989	16142	18674	0	576
29.859	6.780	16384	18879	0	576
20.483	1.442	16555	18857	0	576
14.136	-2.164	16741	18643	0	576
15.831	-0.541	16984	18558	0	576
24.883	5.121	17241	18683	0	576
36.026	13.199	17598	18884	0	576
41.399	18.392	17912	19013	0	576
41.796	17.995	18126	18968	0	576
35.557	12.982	18455	18888	0	576
29.246	8.114	18741	18933	0	576
25.207	6.058	19198	19129	0	576
24.666	7.934	19812	19592	0	576
24.450	11.360	20555	20336	0	576
24.847	12.045	21269	21103	0	576
22.719	5.986	21912	21513	0	576
19.113	-2.056	22341	21334	0	576
16.589	-11.648	22484	20675	0	576
17.887	-13.343	22626	19859	0	576
21.962	-7.032	22812	19160	0	576
25.604	6.347	22769	18523	0	576
24.486	15.903	22698	17671	0	576
22.106	18.247	22455	16597	0	576
23.116	11.396	22169	15458	0	576
26.325	1.911	21812	14384	0	576
33.934	-3.498	21526	13573	0	576
38.442	-2.633	21269	13038	0	576
36.351	3.570	20955	12476	0	576
31.266	9.556	20484	11754	0	576
28.092	11.323	19955	11006	0	576
25.063	10.097	19412	10302	0	576
24.450	6.924	18841	9651	0	576
21.385	3.318	18169	9081	0	576
16.444	-0.829	17555	8599	0	576
11.143	-3.678	16912	8229	0	576
7.176	-6.708	16356	8065	0	576
5.950	-8.691	15927	8283	0	576
7.645	-7.609	15599	8818	0	576
12.297	-4.868	15356	9406	0	576
14.100	-2.200	15213	10114	0	576
14.533	-2.452	15070	10979	0	576
12.009	-5.085	14927	11714	0	576
9.052	-11.287	14784	12298	0	576
3.823	-14.497	14784	13065	0	576
-0.325	-15.723	14927	14089	0	576
-3.390	-11.143	15170	15186	0	576
-4.652	-3.462	15384	16269	0	576
-2.849	3.101	15742	17342	0	576
-0.865	5.337	16099	18335	0	576
-3.210	-2.308	16313	18982	0	576
-10.746	-15.831	16384	19209	0	576
-15.182	-29.246	16412	19187	0	576
-16.733	-34.043	16356	19017	0	576
-12.297	-29.102	16313	18799	0	576
-7.537	-19.365	16356	18741	0	576
-8.871	-13.559	16384	18830	0	576
-16.408	-15.002	16356	18754	0	576
-23.837	-22.467	16313	18505	0	576
-26.253	-27.624	16455	18491	0	576
-22.935	-26.650	16741	18906	0	576
-14.894	-23.621	16955	19351	0	576
-10.999	-19.185	17055	19396	0	576
-10.891	-15.759	17098	19080	0	576
-12.189	-13.559	17055	18683	0	576
-11.648	-12.658	17098	18465	0	576
-6.491	-12.081	17126	18384	0	576
-1.839	-11.612	17169	18228	0	576
1.190	-11.612	17384	18188	0	576
-2.452	-12.117	17669	18545	0	576
-8.439	-10.566	17984	18964	0	576
-13.307	-10.097	18126	18959	0	576
-14.208	-9.737	18098	18572	0	576
-12.009	-12.081	18026	18032	0	576
-5.986	-14.641	17841	17417	0	576
-3.426	-16.372	17669	16718	0	576
-2.092	-14.821	17341	15983	0	576
-3.390	-11.432	16984	15262	1	316
-3.967	-7.501	16598	14589	0	316
-5.517	-7.032	16213	13942	0	316
-5.517	-10.602	15856	13421	0	316
-7.321	-11.179	15713	13327	0	316
-7.862	-10.025	15813	13786	0	316
-6.239	-4.219	15927	14477	0	316
-4.940	-2.344	16213	15221	0	316
-3.534	-4.147	16598	16139	0	316
-3.787	-9.845	16955	16998	0	316
-6.239	-15.110	17241	17502	0	316
-6.671	-14.281	17555	17859	0	316
-6.527	-8.366	17741	18202	0	316
-3.787	-4.544	17955	18353	0	316
1.515	-2.885	18241	18527	0	316
4.472	-7.212	18698	18986	0	316
5.734	-13.884	18955	19400	0	316
0.072	-16.084	19169	19351	0	316
-9.412	-15.038	19126	18879	0	316
-16.877	-12.441	18984	18211	0	316
-15.687	-9.556	18841	17435	0	316
-7.934	-7.934	18526	16624	0	316
3.173	-5.698	18312	15903	0	316
8.547	-1.983	18169	15529	0	316
6.455	1.406	18312	15649	0	316
2.128	0.938	18312	15908	0	316
-0.144	-3.714	18312	15868	0	316
2.200	-8.222	18098	15516	0	316
6.744	-11.107	17884	15025	0	316
9.701	-6.780	17598	14513	0	316
10.097	0.505	17198	13991	0	316
9.016	6.996	16841	13452	0	316
11.035	10.999	16356	12909	0	316
14.533	9.953	15927	12396	0	316
14.677	8.078	15427	11950	0	316
15.038	6.780	14884	11572	0	316
13.487	9.484	14427	11264	0	316
12.910	12.225	13884	11032	0	316
14.785	14.821	13499	10970	0	316
15.002	13.631	13242	11273	0	316
9.592	9.520	13070	11866	0	316
2.669	4.400	12927	12490	0	316
-1.226	1.154	12956	13203	0	316
1.731	2.669	13027	14063	0	316
10.710	9.737	13027	14762	0	316
21.529	18.356	13027	15262	0	316
27.227	24.775	13170	15885	0	316
27.263	26.470	13356	16624	0	316
22.899	20.339	13427	17168	0	316
15.471	11.756	13456	17408	0	316
10.602	5.517	13356	17489	0	316
7.321	3.859	13313	17502	0	316
5.770	3.859	13242	17462	0	316
7.104	5.662	13142	17368	0	316
9.629	4.760	12999	17248	0	316
12.514	3.462	12813	17110	0	316
17.166	4.003	12670	16932	0	316
18.644	8.222	12456	16731	0	316
16.552	10.710	12284	16539	0	316
9.809	11.864	12070	16367	0	316
1.983	9.917	11927	16193	0	316
-3.787	4.183	11713	16037	0	316
-6.419	0.000	11499	15908	0	316
-4.832	-2.019	11284	15814	0	316
-3.390	-2.019	11142	15747	0	316
-1.983	-2.056	11027	15712	0	316
-2.524	-1.983	10813	15698	0	316
-3.967	-1.983	10713	15716	0	316
-4.039	-3.029	10642	15845	0	316
-5.049	-5.914	10742	16269	0	316
-3.606	-9.016	11027	17012	0	316
-5.337	-15.795	11456	17957	0	316
-9.052	-21.457	11884	18888	0	316
-14.100	-24.198	12242	19543	0	316
-19.041	-20.952	12570	19855	0	316
-18.716	-14.821	12884	20078	0	316
-15.867	-9.592	13313	20470	0	316
-9.629	-8.583	13713	20947	0	316
-6.599	-12.550	14099	21179	0	316
-5.013	-16.841	14313	21107	0	316
-8.979	-18.752	14570	20875	0	316
-11.973	-17.310	14670	20515	0	316
-15.687	-14.389	14784	20038	0	316
-16.228	-14.317	14784	19485	0	316
-15.146	-15.326	14742	18879	0	316
-11.251	-19.293	14670	18246	0	316
-8.583	-21.565	14527	17618	0	316
-8.366	-22.791	14427	17016	0	316
-7.645	-21.781	14242	16446	0	316
-8.763	-19.005	14099	15912	0	316
-6.960	-14.785	13856	15409	0	316
-3.895	-9.881	13713	14954	0	316
-1.659	-8.402	13599	14651	0	316
-4.940	-9.665	13642	14780	0	316
-9.232	-14.930	14027	15440	0	316
-12.081	-19.005	14356	16237	0	316
-9.556	-19.077	14670	16820	0	316
-4.688	-15.002	15099	17386	0	316
-2.633	-8.943	15527	18001	0	316
-5.157	-8.547	15884	18371	0	316
-8.186	-13.487	16070	18429	0	316
-9.340	-19.654	16242	18322	0	316
-4.436	-22.899	16313	18077	0	316
-0.469	-16.516	16412	17796	0	316
0.793	-6.563	16626	17734	0	316
-2.380	1.479	16841	17850	0	316
-5.337	0.902	16912	17801	0	316
-7.212	-7.825	16984	17493	0	316
-4.688	-16.408	17055	17195	0	316
-0.974	-20.591	17241	17137	0	316
4.111	-14.461	17384	17221	0	316
9.376	-5.121	17412	17123	0	316
8.871	1.154	17412	16767	0	316
5.445	-2.019	17341	16304	0	316
-1.442	-9.160	17269	15876	0	316
-4.183	-16.444	17269	15698	0	316
-4.147	-16.372	17455	15810	0	316
2.092	-9.088	17626	16081	0	316
8.150	2.236	17812	16349	0	316
9.376	10.638	17841	16397	0	316
5.301	13.235	17884	16188	0	316
-1.370	7.501	17741	15836	0	316
-6.455	1.406	17626	15426	0	316
-5.049	-3.137	17412	14972	0	316
4.544	-2.669	17169	14513	0	316
17.670	2.308	16984	14188	0	316
26.506	8.583	17026	14272	0	316
24.702	8.294	17241	14852	0	316
14.461	5.049	17455	15520	0	316
1.370	-1.659	17598	15868	0	316
-6.635	-6.383	17598	15908	0	316
-2.777	-9.160	17626	15872	0	316
4.652	-5.481	17769	16006	0	316
13.451	0.252	17955	16380	0	316
16.480	8.907	18241	16874	0	316
13.920	12.946	18455	17306	0	316
9.268	13.523	18598	17449	0	316
6.960	9.881	18598	17275	0	316
5.193	5.373	18526	16918	0	316
5.878	4.796	18341	16455	0	316
8.619	10.674	18126	15930	0	316
11.900	15.471	17812	15368	0	316
15.831	17.490	17555	14807	0	316
17.129	13.559	17198	14268	0	316
14.641	7.753	16841	13764	0	316
11.323	4.255	16412	13310	0	316
6.455	6.996	15999	12909	0	316
6.708	10.963	15713	12663	0	316
7.140	13.776	15527	12753	0	316
8.078	12.658	15456	13131	0	316
7.321	6.708	15284	13479	0	316
6.671	1.587	15142	13671	0	316
8.547	-0.180	14956	13782	0	316
13.740	-0.216	14813	13867	0	316
21.673	5.770	14570	13969	0	316
26.974	13.127	14427	14116	0	316
28.561	20.303	14284	14361	0	316
24.089	25.099	14384	14847	0	316
16.120	23.152	14456	15542	0	316
8.366	17.562	14570	16113	0	316
4.003	11.071	14527	16406	0	316
2.885	6.419	14570	16548	0	316
3.462	5.301	14456	16611	0	316
3.859	7.140	14499	16700	0	316
3.065	5.698	14642	17105	0	316
2.308	4.508	15027	17948	0	316
3.642	1.479	15427	18821	0	316
4.616	-1.226	15670	19285	0	316
7.212	-3.931	15813	19365	0	316
4.255	-9.232	15884	19253	0	316
-1.839	-13.235	15999	19120	0	316
-5.662	-16.084	16213	19155	0	316
-9.016	-16.408	16384	19320	0	316
-10.927	-14.353	16484	19293	1	692
-12.261	-13.992	16526	18999	0	692
-19.005	-15.362	16484	18603	0	692
-25.893	-19.942	16412	18179	0	692
-32.203	-23.440	16313	17716	0	692
-34.006	-27.155	16170	17221	0	692
-34.475	-31.158	16027	16744	0	692
-34.980	-37.216	15927	16392	0	692
-38.478	-43.599	16027	16406	0	692
-40.137	-47.349	16313	16905	0	692
-41.796	-47.638	16626	17524	0	692
-41.147	-43.671	16812	17818	0	692
-42.337	-41.760	16912	17769	0	692
-44.573	-43.743	17055	17640	0	692
-46.736	-49.874	17269	17707	0	692
-46.340	-54.093	17455	17921	0	692
-42.084	-56.401	17598	17934	0	692
-35.016	-53.552	17598	17649	0	692
-33.393	-50.847	17598	17310	0	692
-36.062	-50.270	17698	17177	0	692
-38.586	-47.710	17812	17203	0	692
-38.586	-45.835	17812	17083	0	692
-35.233	-42.842	17741	16713	0	692
-29.174	-40.570	17598	16246	0	692
-28.633	-39.524	17526	15827	0	692
-31.266	-38.767	17555	15756	0	692
-34.800	-34.836	17812	16162	0	692
-37.108	-32.492	18055	16642	0	692
-38.478	-33.429	18098	16771	0	692
-42.481	-38.622	18126	16571	0	692
-46.845	-47.349	17984	16237	0	692
-51.100	-52.867	17884	15854	0	692
-50.703	-52.831	17741	15431	0	692
-44.392	-49.513	17412	14963	0	692
-35.918	-42.625	17169	14477	0	692
-30.941	-38.082	16955	14125	0	692
-31.590	-34.006	16884	14098	0	692
-39.668	-33.141	16769	14299	0	692
-49.513	-35.882	16669	14393	0	692
-55.067	-41.327	16526	14317	0	692
-52.939	-45.799	16356	14192	0	692
-44.284	-49.008	16213	14139	0	692
-37.252	-46.087	16170	14321	0	692
-34.151	-42.950	16170	14700	0	692
-35.485	-39.921	16213	15034	0	692
-37.757	-41.363	16313	15413	0	692
-37.072	-42.481	16455	15894	0	692
-32.672	-41.291	16455	16197	0	692
-29.607	-38.262	16412	16220	0	692
-27.083	-31.626	16313	16104	0	692
-27.227	-27.660	16170	15921	0	692
-27.191	-25.388	16027	15680	0	692
-27.155	-27.696	15784	15409	0	692
-26.109	-30.148	15499	15123	0	692
-25.099	-31.951	15242	14838	0	692
-23.008	-31.915	15027	14669	0	692
-21.818	-27.912	14999	14834	0	692
-21.673	-25.893	15027	15270	0	692
-22.827	-25.460	14999	15596	0	692
-25.424	-28.705	14999	15787	0	692
-29.138	-32.564	15170	16184	0	692
-30.256	-31.518	15356	16771	0	692
-33.934	-28.922	15570	17279	0	692
-36.567	-26.614	15813	17769	0	692
-37.973	-27.191	16213	18424	0	692
-38.731	-33.069	16626	19151	0	692
-37.252	-40.065	17026	19739	0	692
-34.259	-43.022	17384	20069	0	692
-30.400	-43.743	17769	20301	0	692
-29.102	-41.183	18098	20515	0	692
-29.174	-37.577	18312	20470	0	692
-32.853	-35.449	18341	20078	0	692
-35.774	-31.662	18384	19494	0	692
-38.334	-29.282	18312	18892	0	692
-36.423	-28.850	18484	18576	0	692
-31.699	-27.912	18741	18701	0	692
-28.561	-28.777	18984	18888	0	692
-28.309	-29.102	19126	18705	0	692
-28.381	-27.948	19126	18282	0	692
-27.227	-27.660	19269	17988	1	316
-26.433	-27.948	19384	17841	0	316
-22.286	-27.263	19384	17538	0	316
-18.752	-27.551	19269	16998	0	316
-17.238	-27.515	19126	16340	0	316
-17.815	-29.174	18841	15631	0	316
-17.815	-30.689	18598	15012	0	316
-20.303	-31.085	18526	14696	0	316
-21.277	-27.732	18384	14598	0	316
-20.195	-20.700	18241	14401	0	316
-17.670	-16.661	17984	14049	0	316
-16.372	-14.858	17769	13671	0	316
-17.887	-18.428	17455	13278	0	316
-19.690	-21.745	17055	12873	0	316
-20.844	-22.539	16669	12481	0	316
-19.798	-19.365	16284	12120	0	316
-17.887	-16.228	15856	11812	0	316
-15.507	-14.785	15384	11563	0	316
-13.920	-16.444	15070	11469	0	316
-14.749	-19.005	14956	11803	0	316
-14.785	-20.844	15027	12695	0	316
-16.949	-21.024	15284	13818	0	316
-18.933	-18.824	15570	14896	0	316
-19.582	-15.867	15856	15854	0	316
-18.283	-13.884	15999	16508	0	316
-15.795	-13.343	16070	16816	0	316
-15.615	-16.084	16027	16909	0	316
-17.274	-17.526	15999	16865	0	316
-20.339	-19.185	15856	16713	0	316
-22.178	-17.274	15670	16477	0	316
-22.106	-15.074	15456	16211	0	316
-19.942	-12.946	15213	15952	0	316
-17.021	-12.477	14956	15712	0	316
-17.418	-11.973	14742	15471	0	316
-19.798	-9.448	14456	15230	0	316
-23.909	-8.439	14313	15123	0	316
-22.935	-6.708	14284	15342	0	316
-16.949	-9.665	14313	15774	0	316
-8.439	-14.641	14356	16180	0	316
-2.019	-19.546	14570	16655	0	316
-4.580	-23.116	14742	17266	0	316
-11.828	-20.808	14884	17680	0	316
-21.529	-16.372	14927	17778	0	316
-22.214	-12.586	14884	17720	0	316
-15.759	-10.602	14856	17578	0	316
-2.128	-9.701	14884	17453	0	316
9.665	-8.763	14927	17551	0	316
14.713	-6.131	15099	17827	0	316
11.756	-3.354	15242	18055	0	316
1.442	-4.472	15456	18313	0	316
-6.960	-7.176	15713	18656	0	316
-7.465	-9.484	15856	18803	0	316
-4.364	-8.907	15884	18652	0	316
2.488	-2.524	15956	18353	0	316
5.554	3.570	15856	17979	0	316
5.337	4.255	15713	17547	0	316
2.560	0.721	15570	17105	0	316
3.065	-4.616	15427	16669	0	316
5.409	-5.445	15242	16233	0	316
8.511	-2.019	14999	15792	0	316
7.537	3.498	14784	15404	0	316
4.580	7.825	14670	15163	0	316
2.741	7.104	14642	15226	0	316
3.029	6.383	14713	15520	0	316
7.068	6.671	14713	15747	0	316
11.468	7.645	14670	15787	0	316
12.802	9.088	14642	15725	0	316
10.783	9.448	14570	15689	0	316
6.816	10.746	14784	15992	0	316
4.255	13.343	15142	16758	0	316
3.570	16.877	15499	17596	0	316
5.265	20.050	15742	18046	0	316
11.035	20.087	15884	18130	0	316
16.661	18.428	16099	18126	0	316
22.539	17.418	16313	18273	0	316
26.614	17.490	16555	18527	0	316
26.433	22.395	16669	18580	0	316
24.630	26.253	16741	18344	0	316
21.385	26.037	16698	17952	0	316
23.008	23.152	16598	17493	0	316
27.443	17.851	16555	17079	0	316
34.980	17.526	16626	16949	0	316
38.550	23.404	16741	17043	0	316
36.639	31.987	16769	17007	0	316
31.266	36.495	16741	16731	0	316
27.371	34.295	16669	16450	0	316
28.345	23.476	16812	16437	0	316
29.679	12.730	16912	16615	0	316
29.823	6.239	17026	16744	0	316
26.145	3.137	17341	17021	0	316
20.952	5.301	17841	17716	0	316
17.959	8.583	18198	18438	0	316
17.634	13.379	18526	18696	0	316
16.841	19.221	18626	18536	0	316
16.192	23.729	18812	18282	0	316
16.697	21.493	18984	18202	0	316
19.906	15.759	19198	18220	0	316
22.899	9.773	19241	18010	0	316
24.270	6.455	19169	17498	0	316
20.050	9.016	19026	16843	0	316
12.333	11.107	18812	16139	0	316
3.823	10.566	18598	15502	0	316
1.154	7.140	18526	15146	0	316
4.436	4.904	18484	15114	0	316
13.054	4.688	18598	15257	0	316
23.512	6.275	18698	15520	0	316
29.463	10.386	18955	15885	0	316
30.292	11.720	19126	16237	0	316
24.378	13.307	19169	16309	0	316
16.841	12.946	19126	16064	0	316
10.999	9.953	18984	15685	0	316
9.701	8.691	18769	15257	0	316
12.261	10.133	18526	14758	0	316
18.536	16.661	18169	14210	0	316
24.558	24.414	17841	13688	0	316
28.597	29.391	17412	13212	0	316
30.436	28.273	17126	12860	0	316
29.643	23.404	16912	12824	0	316
24.883	18.103	16769	13065	0	316
21.565	14.894	16598	13261	0	316
20.411	15.182	16384	13256	0	316
21.060	15.074	16213	13270	0	316
22.286	14.930	16142	13546	0	316
22.575	15.435	16099	14023	0	316
17.526	16.444	15999	14370	0	316
13.379	20.483	15856	14482	0	316
12.189	23.693	15713	14482	0	316
14.353	22.431	15427	14433	0	316
18.716	18.031	15142	14348	0	316
22.358	12.117	14927	14254	0	316
23.729	8.042	14670	14245	0	316
22.575	6.022	14599	14513	0	316
17.310	6.527	14599	14994	0	316
7.645	4.291	14499	15355	0	316
-4.255	0.541	14384	15498	0	316
-11.504	-3.426	14242	15582	0	316
-12.009	-5.337	14142	15658	0	316
-5.157	-6.455	13927	15694	0	316
0.829	-7.465	13884	15774	0	316
3.282	-8.186	13956	16126	0	316
-1.262	-10.458	14027	16695	0	316
-9.881	-11.396	14213	17203	0	316
-14.641	-13.704	14384	17725	0	316
-18.103	-15.507	14784	18438	0	316
-15.435	-16.372	15213	19249	0	316
-10.602	-15.687	15599	19931	0	316
-5.085	-13.668	15884	20274	0	316
-6.275	-11.179	16027	20252	0	316
-9.881	-12.009	16142	20020	0	316
-12.982	-15.507	16170	19659	0	316
-9.953	-20.303	16142	19191	0	316
-4.219	-23.404	15999	18661	1	604
2.308	-23.693	15856	18095	0	604
3.246	-20.555	15742	17609	0	604
-0.252	-16.841	15784	17400	0	604
-2.272	-11.684	15813	17404	0	604
-0.144	-8.943	15784	17293	0	604
2.380	-9.484	15713	16967	0	604
0.288	-13.127	15570	16571	0	604
-4.219	-20.014	15384	16184	0	604
-14.208	-26.001	15242	15819	0	604
-21.962	-26.325	15070	15493	0	604
-24.775	-19.870	14856	15181	0	604
-21.060	-10.458	14642	14887	0	604
-10.602	-2.056	14456	14651	0	604
2.885	2.452	14242	14499	0	604
12.586	2.128	14170	14486	0	604
12.009	0.361	14213	14758	0	604
3.029	-2.019	14456	15364	0	604
-10.855	-3.678	14742	16157	0	604
-17.202	-2.452	15070	16918	0	604
-14.785	1.479	15242	17413	0	604
-1.839	8.691	15427	17587	0	604
12.730	17.743	15456	17573	0	604
23.188	20.880	15599	17538	0	604
21.781	17.815	15742	17680	0	604
12.766	9.845	15927	17952	0	604
2.380	3.390	16027	18046	0	604
-3.498	1.334	16070	17876	0	604
-1.983	4.724	16027	17578	0	604
5.049	10.133	15956	17212	0	604
10.566	13.307	15884	16887	0	604
12.261	12.153	16027	16896	0	604
10.458	9.520	16455	17471	0	604
10.602	6.780	17026	18407	0	604
10.674	5.049	17484	19222	0	604
10.133	4.039	17955	19663	0	604
11.287	5.842	18341	19935	0	604
9.701	7.429	18769	20167	0	604
9.196	10.458	19026	20127	0	604
11.215	15.723	19126	19757	0	604
13.127	18.608	19198	19178	0	604
17.129	19.906	19126	18474	0	604
20.123	19.437	18984	17711	0	604
23.188	18.500	18812	16918	0	604
24.666	18.752	18526	16108	0	604
25.099	19.798	18241	15279	0	604
24.955	21.132	17841	14482	0	604
28.417	23.404	17455	13729	0	604
30.364	24.414	17055	13047	0	604
30.617	25.712	16698	12548	0	604
28.561	25.099	16526	12414	0	604
21.962	20.447	16455	12663	0	604
20.267	13.668	16484	13140	0	604
21.204	9.448	16555	13662	0	604
23.837	7.465	16526	14005	0	604
25.856	8.366	16455	14107	0	604
26.650	8.078	16284	14089	0	604
24.125	5.698	16099	14018	0	604
23.512	2.849	15884	13898	0	604
25.748	0.325	15599	13764	0	604
30.004	0.829	15356	13626	0	604
35.197	2.236	15099	13506	0	604
37.721	3.823	14784	13408	0	604
34.403	7.140	14499	13359	0	604
28.958	11.360	14284	13359	0	604
24.630	16.444	13999	13381	0	604
24.594	19.005	13713	13430	0	604
29.463	17.995	13499	13541	0	604
30.797	12.441	13356	13791	0	604
28.237	6.311	13356	14317	0	604
22.431	1.226	13527	15132	0	604
15.146	-0.577	13856	16122	0	604
14.172	-0.974	14170	17186	0	604
13.812	-1.515	14713	18255	0	604
16.012	-0.649	15099	19178	0	604
14.858	0.469	15456	19761	0	604
10.566	2.705	15642	19966	0	604
7.032	4.003	15856	19940	0	604
6.852	1.767	15884	19766	0	604
8.979	-3.498	15884	19467	0	604
13.127	-6.996	15813	19088	0	604
13.956	-4.111	15784	18652	0	604
10.746	3.498	15642	18166	0	604
8.042	13.271	15499	17649	0	604
6.094	16.625	15284	17132	0	604
6.022	10.710	15027	16633	0	604
5.157	2.164	14856	16184	0	604
1.839	-3.426	14599	15765	0	604
-1.515	0.505	14384	15400	0	604
-4.255	8.691	14170	15083	0	604
-4.868	17.129	13927	14816	0	604
-6.347	16.264	13742	14700	0	604
-8.258	6.599	13813	14932	0	604
-12.081	-2.200	13884	15435	0	604
-15.218	-8.006	14070	15917	0	604
-17.021	-6.131	14356	16441	0	604
-15.903	-1.082	14599	17105	0	604
-16.120	2.236	14813	17609	0	604
-17.743	0.505	15070	17903	0	604
-23.296	-3.246	15456	18367	0	604
-30.436	-8.114	16027	19191	0	604
-36.026	-9.556	16598	20091	0	604
-34.728	-9.556	17241	20818	0	604
-30.545	-8.979	17698	21330	0	604
-24.017	-11.396	18169	21486	0	604
-23.657	-13.199	18384	21245	0	604
-26.974	-15.471	18598	20760	0	604
-31.266	-14.858	18598	20122	0	604
-30.292	-11.937	18555	19365	0	604
-28.020	-6.960	18484	18621	1	436
-24.522	-5.409	18555	18117	0	436
-23.801	-4.832	18669	17899	0	436
-25.316	-4.940	18884	17836	0	436
-27.551	-6.960	19055	17792	0	436
-27.479	-7.825	19126	17564	0	436
-26.794	-10.206	19169	17168	0	436
-25.820	-13.487	19269	16909	0	436
-24.486	-16.336	19384	16834	0	436
-21.781	-17.562	19412	16629	0	436
-18.247	-16.589	19341	16175	0	436
-15.218	-15.723	19169	15596	0	436
-13.740	-14.389	18955	14994	0	436
-13.848	-12.514	18669	14393	0	436
-14.785	-10.097	18312	13791	0	436
-17.670	-7.573	17984	13198	0	436
-20.952	-4.760	17626	12646	0	436
-24.811	-3.498	17169	12147	0	436
-24.991	-5.409	16769	11710	0	436
-23.945	-5.337	16313	11349	0	436
-20.519	-7.501	15884	11077	0	436
-18.608	-11.900	15527	10881	0	436
-18.824	-15.110	15027	10765	0	436
-18.680	-17.526	14713	10814	0	436
-17.851	-15.615	14599	11224	0	436
-12.225	-12.550	14456	11901	0	436
-8.727	-11.179	14456	12597	0	436
-8.475	-11.540	14527	13372	0	436
-9.340	-14.100	14713	14268	0	436
-11.684	-13.199	14813	15088	0	436
-9.340	-10.025	15070	15885	0	436
-7.681	-4.616	15356	16718	0	436
-7.140	-1.803	15499	17328	0	436
-10.061	-2.128	15570	17636	0	436
-12.477	-4.508	15742	17876	0	436
-11.215	-7.176	16027	18349	0	436
-5.842	-7.609	16484	19187	0	436
3.606	-6.419	16955	20038	0	436
9.845	-1.731	17269	20461	0	436
9.340	1.947	17555	20546	0	436
7.140	5.121	17884	20666	0	436
3.931	5.049	18241	20875	0	436
3.714	5.770	18384	20849	0	436
9.196	6.275	18526	20470	0	436
18.211	9.088	18484	19882	0	436
23.296	13.559	18412	19191	0	436
24.594	17.021	18198	18433	0	436
21.745	18.969	18026	17631	0	436
19.221	19.077	17769	16820	0	436
19.942	19.113	17412	16032	0	436
22.070	20.375	17055	15279	0	436
25.207	22.791	16698	14589	0	436
23.512	25.388	16356	13969	0	436
17.887	25.243	15956	13439	0	436
13.127	22.575	15570	12989	0	436
12.946	19.293	15170	12623	0	436
14.100	15.687	14856	12423	0	436
14.858	14.894	14742	12588	0	436
9.989	13.956	14742	13060	0	436
5.734	15.110	14570	13497	0	436
3.318	17.202	14499	13742	0	436
7.789	21.601	14356	13907	0	436
16.336	26.902	14356	14174	0	436
20.050	28.958	14427	14713	0	436
16.444	26.073	14599	15422	0	436
10.386	19.365	14742	16055	0	436
5.193	15.254	15027	16722	0	436
4.291	16.156	15384	17480	0	436
5.554	21.349	15570	18010	0	436
9.304	25.352	15670	18184	0	436
13.163	26.433	15742	18162	0	436
19.690	24.162	15813	18121	0	436
23.873	22.214	15999	18269	0	436
26.001	24.594	16242	18549	0	436
22.791	25.965	16284	18643	0	436
14.894	25.532	16313	18451	0	436
11.143	22.322	16284	18126	0	436
11.035	19.077	16170	17734	0	436
17.851	19.041	16027	17297	0	436
24.775	21.241	15856	16834	0	436
30.545	25.316	15642	16376	0	436
27.047	25.424	15427	15930	0	436
18.320	21.673	15213	15516	0	436
6.996	16.264	15027	15262	0	436
-0.433	9.556	15027	15346	0	436
2.705	7.789	15213	15761	0	436
11.071	9.773	15427	16340	0	436
18.788	14.353	15670	16932	0	436
21.818	16.625	15927	17351	0	436
16.733	15.218	16027	17498	0	436
10.530	12.658	16070	17462	0	436
8.294	7.501	16099	17328	0	436
9.016	6.275	16027	17123	0	436
11.756	5.085	15999	16851	0	436
11.504	3.534	15856	16517	0	436
10.530	1.911	15670	16153	0	436
10.530	-0.974	15456	15774	0	436
10.602	-2.236	15284	15422	0	436
11.756	-0.288	15070	15106	0	436
10.350	4.760	14813	14820	0	436
10.963	9.701	14670	14660	0	436
15.110	11.360	14813	14909	0	436
20.411	8.763	15142	15765	0	436
23.621	1.695	15670	17003	0	436
22.286	-2.633	16170	18099	0	436
16.228	-2.344	16526	18719	0	436
10.999	2.092	16884	19013	0	436
8.619	5.914	17312	19351	0	436
7.898	8.835	17698	19757	0	436
8.763	7.753	17912	19922	0	436
7.321	7.140	18198	19819	0	436
7.573	7.789	18484	19784	0	436
8.979	9.592	18812	19855	0	436
9.845	11.143	18955	19712	0	436
11.864	10.061	19098	19329	0	436
11.251	5.662	19269	19044	0	436
6.491	0.505	19455	18906	0	436
0.252	-4.832	19598	18687	0	436
-5.193	-7.212	19884	18554	0	436
-5.157	-4.544	20269	18763	0	436
-0.252	0.397	20598	19008	0	436
7.645	8.294	20769	18875	0	436
12.946	12.838	20841	18384	0	436
9.629	10.566	20884	17805	0	436
3.029	0.829	20955	17368	0	436
-5.481	-12.730	20955	17065	0	436
-11.828	-22.863	20884	16588	0	436
-10.927	-22.214	20669	15876	0	436
-5.770	-13.054	20412	15070	0	436
-1.010	-1.659	20055	14254	0	436
0.144	3.750	19626	13443	0	436
-3.787	0.613	19126	12668	0	436
-10.097	-10.963	18769	12035	0	436
-14.533	-17.851	18455	11754	0	436
-11.323	-18.031	18341	11852	0	436
-1.442	-9.088	18241	12187	0	436
9.448	-0.108	18198	12579	0	436
17.923	5.842	18026	12837	0	436
21.926	0.974	17884	12886	0	436
19.113	-6.599	17669	12824	0	436
12.369	-12.802	17312	12708	0	436
5.409	-11.828	16984	12588	0	436
4.147	-7.573	16669	12485	0	436
7.285	-1.154	16313	12378	0	436
12.874	0.938	16027	12374	0	436
17.779	2.344	15999	12779	0	436
15.759	2.236	16142	13711	0	436
9.088	1.731	16313	14722	0	436
0.505	1.911	16356	15355	0	436
-3.426	0.829	16313	15640	0	436
-4.436	0.613	16284	15756	0	436
-3.534	3.246	16070	15761	0	436
-0.829	7.681	15956	15774	0	436
1.442	12.730	15956	15992	0	436
1.442	14.208	15956	16371	0	436
1.046	10.927	15884	16597	0	436
-2.741	7.032	15927	16687	0	436
-5.013	1.767	16070	17016	0	436
-6.960	-2.056	16384	17765	0	436
-4.977	-3.173	16669	18536	0	436
-4.003	-3.390	16841	18892	0	436
-5.770	-3.246	16912	18866	0	436
-11.179	-2.633	16912	18674	0	436
-20.159	-3.606	16841	18384	0	436
-26.289	-8.222	16741	17988	0	436
-28.597	-12.441	16555	17515	0	436
-26.974	-17.238	16356	17043	0	436
-21.385	-15.471	16142	16615	0	436
-16.516	-8.799	15884	16197	0	436
-13.523	-0.793	15599	15761	0	436
-12.946	4.508	15284	15355	0	436
-16.408	2.236	15070	15003	0	436
-20.123	-6.094	14713	14673	0	436
-21.781	-13.451	14456	14464	0	436
-20.447	-16.949	14527	14669	0	436
-19.798	-13.992	14713	15404	0	436
-19.906	-8.475	14956	16255	0	436
-19.726	-4.868	15070	16758	0	436
-17.526	-2.849	15170	16936	0	436
-11.684	-4.472	15170	16963	0	436
-3.750	-4.868	15099	16892	0	436
-0.577	-4.652	14999	16736	0	436
-1.515	-4.977	14884	16513	0	436
-4.364	-4.652	14784	16344	0	436
-5.914	-4.364	14813	16428	0	436
-4.400	-3.534	14884	16722	0	436
-6.635	-2.416	14956	16990	0	436
-9.448	-2.524	15213	17328	0	436
-13.776	-3.642	15456	17792	0	436
-14.028	-6.347	15642	18148	0	436
-10.746	-9.124	15956	18478	0	436
-5.626	-9.881	16242	18879	0	436
-0.829	-6.996	16412	19075	0	436
-0.829	-4.940	16526	18937	0	436
-4.219	-4.400	16626	18714	0	436
-8.583	-5.265	16841	18687	0	436
-14.064	-10.025	17055	18812	0	436
-17.454	-12.369	17126	18732	1	788
-17.670	-13.559	17126	18367	0	788
-16.408	-13.559	17098	17872	0	788
-14.677	-11.648	16955	17310	0	788
-14.894	-13.487	16741	16700	0	788
-16.552	-14.245	16598	16175	0	788
-16.048	-13.595	16555	15934	0	788
-12.153	-9.412	16555	15930	0	788
-5.265	-4.472	16484	15836	0	788
-0.036	0.649	16356	15542	0	788
2.777	2.236	16170	15177	0	788
-1.695	2.092	16027	14883	0	788
-7.537	1.370	15999	14856	0	788
-11.900	1.442	15999	15052	0	788
-14.930	0.541	15956	15150	0	788
-16.264	-0.469	15813	15034	0	788
-16.913	-0.793	15642	14834	0	788
-16.985	2.669	15456	14615	0	788
-12.838	7.645	15242	14393	0	788
-6.635	12.153	14999	14196	0	788
0.397	12.910	14813	14049	0	788
2.741	8.475	14599	14009	0	788
1.947	5.373	14599	14254	0	788
0.144	4.724	14713	14753	0	788
0.974	8.691	14642	15163	0	788
7.465	16.084	14642	15342	0	788
13.776	23.224	14527	15404	0	788
15.795	26.902	14499	15449	0	788
14.172	27.912	14456	15560	0	788
11.287	25.027	14599	15903	0	788
9.629	23.765	14670	16392	0	788
12.910	24.089	14742	16731	0	788
18.536	27.227	14784	16816	0	788
21.349	29.138	14713	16780	0	788
21.457	28.237	14742	16771	0	788
20.447	24.017	14927	17061	0	788
20.267	21.998	15313	17796	0	788
20.411	21.277	15670	18589	0	788
20.123	23.188	16070	19080	0	788
14.353	22.431	16412	19472	0	788
4.940	20.267	16769	19873	0	788
-1.370	15.326	17026	20006	0	788
-3.101	13.776	17169	19788	0	788
3.390	13.199	17198	19387	0	788
14.966	16.733	17169	18901	0	788
21.024	20.555	17098	18362	0	788
23.044	23.008	16984	17761	0	788
22.755	23.873	16769	17128	0	788
20.123	19.401	16598	16522	0	788
18.320	13.487	16384	15979	0	788
15.471	10.133	16170	15466	0	788
11.937	9.052	15884	14976	0	788
7.393	10.819	15670	14553	0	788
5.337	11.360	15384	14205	0	788
8.439	10.783	15099	13889	0	788
12.730	11.251	14927	13693	0	788
16.949	13.776	14927	13818	0	788
19.510	20.267	14856	14192	0	788
17.743	23.621	14856	14482	0	788
12.081	22.791	14813	14660	0	788
6.924	17.598	14956	15039	0	788
2.885	11.215	15142	15609	0	788
2.921	8.330	15284	16113	0	788
5.157	10.133	15527	16624	0	788
8.619	15.002	15813	17199	0	788
10.097	19.690	15956	17560	0	788
13.595	23.837	16027	17605	0	788
15.362	25.496	16099	17475	0	788
18.752	28.850	16027	17275	0	788
20.591	30.076	16070	17137	0	788
18.897	29.859	16284	17342	0	788
16.192	28.237	16669	17970	0	788
14.785	23.440	16984	18629	0	788
14.064	19.978	17341	18995	0	788
15.543	19.870	17741	19293	0	788
17.634	23.152	18098	19623	0	788
19.510	26.109	18312	19690	0	788
19.942	27.371	18484	19432	0	788
18.752	23.621	18526	19022	0	788
14.713	16.516	18484	18505	1	316
8.727	11.107	18484	17970	0	316
4.039	8.907	18555	17667	0	316
3.137	7.717	18698	17649	0	316
5.806	10.963	18912	17756	0	316
11.828	12.297	19126	17805	0	316
17.851	15.687	19241	17703	0	316
21.060	18.644	19384	17609	0	316
21.421	19.906	19555	17587	0	316
21.709	18.067	19669	17466	0	316
18.860	13.704	19884	17337	0	316
17.166	9.484	19955	17266	0	316
17.238	7.573	19912	16990	0	316
20.303	10.458	19769	16428	0	316
25.424	14.569	19555	15752	0	316
31.590	19.437	19312	15034	0	316
32.239	22.142	18912	14312	0	316
26.830	20.916	18484	13617	0	316
17.129	17.526	18126	12975	0	316
9.340	14.353	17741	12418	0	316
9.881	14.172	17241	11955	0	316
17.526	15.831	16769	11554	0	316
27.010	22.250	16356	11215	0	316
33.249	30.328	15884	10975	0	316
34.764	35.665	15527	10836	0	316
31.879	36.711	15027	10770	0	316
27.227	32.276	14642	10765	0	316
23.837	24.198	14313	10854	0	316
23.188	20.159	14027	11117	0	316
25.388	19.654	13856	11701	0	316
28.633	24.378	13856	12516	0	316
29.174	27.335	13813	13310	0	316
24.414	27.696	13956	14156	0	316
16.841	24.739	14142	15106	0	316
11.504	21.421	14213	15859	0	316
16.264	21.385	14284	16309	0	316
24.702	22.611	14213	16588	0	316
31.085	27.587	14213	16776	0	316
30.617	31.626	14070	16878	0	316
27.227	34.547	14099	17003	0	316
22.214	33.357	14170	17346	0	316
23.368	27.587	14313	17841	0	316
28.417	19.690	14356	18166	0	316
31.662	13.235	14427	18246	0	316
31.662	11.143	14384	18228	0	316
27.551	12.117	14384	18170	0	316
20.303	11.792	14284	18028	0	316
14.785	8.439	14313	17903	0	316
9.845	1.875	14427	18037	0	316
10.133	-4.255	14642	18384	0	316
12.586	-6.275	14713	18589	0	316
15.831	-2.633	14784	18540	0	316
14.713	2.200	14784	18389	0	316
12.658	6.167	14856	18291	0	316
9.989	6.888	15070	18402	0	316
9.701	6.131	15242	18656	0	316
12.838	4.039	15356	18736	0	316
17.526	2.524	15384	18563	0	316
19.473	2.128	15456	18273	0	316
18.283	2.669	15356	17925	0	316
15.903	2.380	15284	17533	0	316
15.146	2.524	15170	17123	0	316
17.166	4.724	14999	16700	0	316
20.627	7.465	14884	16380	0	316
22.250	10.242	14956	16344	0	316
17.634	10.422	15027	16539	0	316
11.792	9.232	15070	16642	0	316
6.491	5.193	15070	16526	0	316
7.212	2.344	14999	16340	0	316
10.746	0.216	14927	16162	0	316
14.966	0.325	14856	15992	0	316
15.254	1.370	14813	15894	0	316
10.855	3.570	14956	16055	0	316
5.626	6.203	15142	16446	0	316
3.246	8.763	15242	16758	0	316
4.327	9.520	15313	16843	0	316
9.268	10.566	15427	16878	0	316
13.379	9.412	15813	17226	0	316
13.668	8.294	16313	18104	0	316
10.097	6.816	17026	19262	0	316
4.436	6.491	17669	20278	0	316
1.695	9.701	18484	21112	0	316
1.082	13.776	19269	21963	0	316
0.757	15.290	19984	22609	0	316
-0.577	14.172	20455	22685	0	316
-1.370	11.071	20769	22239	0	316
-1.695	9.629	20912	21504	0	316
-0.180	9.737	20912	20568	0	316
2.200	12.838	20812	19494	0	316
4.111	14.749	20598	18344	1	356
5.265	16.913	20312	17181	0	356
3.462	16.589	20055	16130	0	356
-1.983	12.838	19884	15382	0	356
-11.251	4.436	19741	14909	0	356
-18.428	-5.662	19526	14428	0	356
-23.116	-13.704	19269	13827	0	356
-20.267	-16.228	18912	13189	0	356
-16.372	-13.199	18555	12570	0	356
-13.271	-7.032	18241	12093	0	356
-12.514	-2.164	18098	11968	0	356
-12.297	-0.469	17884	12111	0	356
-14.317	-3.714	17698	12187	0	356
-16.805	-11.179	17455	12120	0	356
-21.168	-16.733	17169	12026	0	356
-25.856	-19.654	16841	11915	0	356
-30.256	-18.933	16526	11794	0	356
-31.915	-16.336	16313	11812	0	356
-31.302	-14.605	16213	12155	0	356
-26.361	-13.956	16142	12721	0	356
-18.139	-10.963	15999	13154	0	356
-13.235	-6.708	15999	13457	0	356
-12.658	-2.777	15999	13934	0	356
-18.716	-3.498	16027	14575	0	356
-24.162	-8.042	15999	15057	0	356
-23.873	-16.444	15927	15275	0	356
-16.480	-24.125	15813	15351	0	356
-5.734	-27.624	15742	15435	0	356
-2.200	-29.282	15742	15743	0	356
-7.862	-25.965	15856	16215	0	356
-18.500	-22.827	15884	16615	0	356
-28.994	-20.123	16070	17025	0	356
-28.417	-16.372	16213	17515	0	356
-20.483	-13.523	16284	17818	0	356
-9.088	-10.783	16313	17845	0	356
0.036	-8.222	16356	17823	0	356
2.633	-7.068	16484	17970	0	356
4.003	-4.111	16598	18228	0	356
6.311	-1.623	16769	18416	0	356
10.674	0.793	17055	18723	0	356
11.251	2.705	17555	19365	0	356
9.448	5.878	17912	19993	0	356
4.183	8.186	18126	20203	0	356
0.288	11.828	18341	20029	0	356
-1.587	12.009	18341	19637	0	356
-0.288	8.691	18312	19093	0	356
3.029	3.101	18198	18433	0	356
6.924	-0.649	18098	17801	0	356
10.927	1.623	18055	17408	0	356
15.182	7.537	17984	17217	0	356
16.913	13.307	17912	16914	0	356
14.497	14.353	17741	16419	0	356
9.917	10.169	17526	15863	0	356
5.734	3.570	17241	15293	0	356
3.390	0.721	16955	14718	0	356
5.121	4.003	16669	14259	0	356
12.514	13.776	16526	14121	0	356
21.601	21.962	16526	14326	0	356
26.361	28.561	16598	14731	0	356
24.811	31.266	16741	15181	0	356
16.372	28.633	16741	15462	0	356
5.626	25.352	16741	15569	0	356
-3.498	20.880	16912	15801	0	356
-6.996	14.713	17026	16197	0	356
-4.075	10.999	17169	16517	0	356
2.705	9.340	17384	16820	0	356
6.996	8.907	17526	17177	0	356
8.907	10.025	17669	17359	0	356
3.787	8.511	17669	17252	0	356
-0.974	5.445	17555	16958	0	356
-1.731	2.560	17384	16548	0	356
1.190	2.019	17169	16081	0	356
7.321	5.301	16912	15578	0	356
12.982	12.081	16598	15070	0	356
15.543	15.795	16313	14664	0	356
18.716	17.598	16213	14566	0	356
18.428	17.057	16142	14709	0	356
14.605	15.687	16070	14856	0	356
6.708	14.966	16099	15083	0	356
-1.623	14.497	16142	15458	0	356
-5.770	12.658	16099	15689	0	356
-4.003	11.540	16099	15756	0	356
-1.983	9.773	16170	15970	0	356
1.803	10.927	16356	16424	0	356
0.469	8.835	16669	17007	0	356
-2.164	6.744	16841	17547	0	356
-5.554	3.823	16984	17801	0	356
-10.133	3.534	17026	17720	0	356
-9.845	8.330	16984	17484	0	356
-6.816	13.415	16884	17172	0	356
-0.757	16.228	16698	16780	0	356
4.580	14.389	16484	16340	0	356
5.517	9.989	16284	15899	0	356
1.947	6.671	15999	15480	0	356
-2.633	9.520	15784	15146	0	356
-4.327	17.057	15784	15172	0	356
-2.308	21.493	15999	15707	0	356
-1.046	19.149	16142	16353	0	356
0.721	11.540	16213	16651	0	356
1.839	4.147	16213	16629	0	356
4.219	2.957	16142	16468	0	356
6.816	6.888	16070	16322	0	356
10.746	14.425	16099	16384	0	356
11.071	18.356	16213	16602	0	356
10.710	17.923	16213	16673	0	356
10.350	16.084	16070	16499	0	356
8.186	13.992	15927	16224	0	356
8.547	8.078	15713	15894	0	356
5.626	3.173	15456	15542	0	356
4.291	-1.118	15313	15270	0	356
6.780	-2.308	15284	15293	0	356
7.645	0.613	15284	15542	0	356
9.881	3.931	15242	15703	0	356
7.501	6.888	15170	15680	0	356
4.111	5.193	15099	15689	0	356
-1.659	2.236	15170	15925	0	356
-3.354	-1.046	15284	16322	0	356
-0.974	-1.154	15356	16588	0	356
5.986	1.983	15313	16629	0	356
15.579	5.986	15242	16526	0	356
23.008	10.314	15170	16344	0	356
25.893	12.009	14999	16139	0	356
24.342	13.379	14813	15939	0	356
17.959	11.684	14670	15703	0	356
11.071	11.287	14427	15435	0	356
3.246	8.583	14213	15168	0	356
-2.164	5.409	13927	14927	0	356
-6.563	3.354	13784	14803	0	356
-5.950	1.118	13784	14972	0	356
-1.551	0.108	13784	15386	0	356
1.983	-5.121	13813	15712	0	356
3.137	-8.186	13713	15827	0	356
3.750	-9.088	13670	15854	0	356
5.121	-7.285	13570	15836	0	356
9.773	-1.839	13527	15881	0	356
16.697	4.039	13599	16184	0	356
21.060	8.186	13784	16682	0	356
18.897	8.439	13856	17056	0	356
10.097	7.032	13927	17212	0	356
2.344	3.570	13999	17275	0	356
-1.623	1.154	13927	17270	0	356
0.974	1.334	13927	17195	0	356
7.573	6.708	13927	17101	0	356
15.362	11.540	13856	17016	0	356
19.762	14.461	13813	16918	0	356
22.106	14.245	13784	16869	0	356
22.395	10.566	13999	17083	0	356
19.401	9.629	14170	17506	0	356
15.002	8.727	14284	17787	0	356
9.701	8.979	14384	17810	0	356
7.140	7.681	14384	17716	0	356
7.753	5.590	14499	17654	0	356
10.566	6.419	14670	17810	0	356
11.756	12.081	14927	18130	0	356
12.766	19.618	15070	18286	0	356
11.396	27.551	15099	18175	0	356
14.064	27.587	15213	18019	0	356
18.320	23.332	15427	18081	0	356
22.286	15.795	15784	18393	0	356
25.856	13.054	16099	18830	0	356
23.801	16.589	16555	19298	0	356
18.933	24.342	17055	19784	0	356
15.867	31.807	17555	20252	0	356
17.021	35.882	18169	20706	0	356
20.952	34.295	18598	21031	0	356
24.702	30.040	18984	21000	0	356
23.765	23.765	19169	20586	0	356
17.923	19.293	19269	19980	0	356
13.523	14.785	19312	19271	0	356
9.917	10.133	19341	18545	1	676
11.432	4.544	19384	18019	0	676
14.100	-0.541	19484	17694	0	676
13.631	-0.252	19412	17257	0	676
14.245	3.029	19341	16588	0	676
15.903	10.097	19098	15827	0	676
16.372	13.018	18841	15048	0	676
14.425	11.360	18555	14277	0	676
12.838	7.393	18169	13546	0	676
9.665	6.744	17912	12953	0	676
10.927	6.780	17698	12695	0	676
14.064	6.996	17555	12717	0	676
16.805	1.515	17341	12695	0	676
17.274	-4.940	17198	12606	0	676
15.831	-7.429	17169	12757	0	676
16.300	-5.301	17098	13122	0	676
17.202	0.000	17098	13457	0	676
17.995	3.318	17169	13853	0	676
14.605	2.669	17384	14455	0	676
8.799	2.596	17626	15163	0	676
1.262	5.265	17769	15792	0	676
-2.200	5.842	17955	16144	0	676
-3.931	1.911	17912	16180	0	676
-5.409	-6.527	17812	16055	0	676
-5.481	-13.271	17698	15859	0	676
-5.950	-14.317	17626	15671	0	676
-4.616	-7.898	17598	15694	0	676
-3.859	-2.019	17626	15899	0	676
-4.039	-2.560	17598	15983	0	676
-8.799	-6.996	17455	15859	0	676
-12.622	-11.792	17341	15707	0	676
-14.966	-13.487	17384	15778	0	676
-15.867	-9.629	17455	16037	0	676
-14.064	-7.789	17384	16166	0	676
-11.900	-6.924	17269	16037	0	676
-10.819	-9.160	17098	15783	0	676
-10.422	-11.287	16912	15480	0	676
-9.052	-12.694	16626	15137	0	676
-10.242	-12.730	16356	14780	0	676
-9.376	-10.350	16027	14428	0	676
-9.629	-10.783	15670	14094	0	676
-9.160	-12.766	15313	13795	0	676
-12.225	-17.706	14999	13546	0	676
-16.913	-21.277	14599	13350	0	676
-23.621	-23.981	14284	13203	0	676
-25.856	-20.627	13884	13100	0	676
-24.775	-14.317	13670	13145	0	676
-18.969	-9.304	13642	13528	0	676
-12.333	-7.140	13670	14286	0	676
-7.898	-9.953	13927	15253	0	676
-4.508	-12.874	14170	16197	0	676
-3.318	-16.048	14313	16883	0	676
-3.318	-18.103	14499	17293	0	676
-6.455	-19.654	14527	17547	0	676
-9.160	-21.457	14570	17685	0	676
-12.982	-20.555	14599	17720	0	676
-10.458	-17.129	14499	17698	0	676
-5.013	-7.609	14499	17640	0	676
-1.190	-0.505	14456	17605	0	676
-0.216	2.921	14599	17774	0	676
-4.255	2.019	14713	18108	0	676
-9.520	-2.344	14856	18291	0	676
-10.783	-6.744	14856	18224	0	676
-10.133	-7.176	14784	18037	0	676
-6.311	-5.698	14742	17783	0	676
-2.813	-3.498	14642	17484	0	676
2.849	1.947	14527	17154	0	676
9.160	5.301	14356	16820	0	676
15.903	8.330	14213	16495	0	676
19.005	7.104	13999	16202	0	676
18.464	5.157	13856	15925	0	676
13.487	2.560	13642	15676	0	676
10.242	2.669	13456	15462	0	676
8.078	7.717	13313	15311	0	676
10.314	15.038	13242	15315	0	676
11.937	19.978	13313	15618	0	676
13.884	22.395	13456	16144	0	676
15.146	20.014	13670	16682	0	676
17.634	17.346	13999	17310	0	676
23.585	17.382	14427	18032	0	676
30.076	20.988	14670	18536	0	676
36.747	25.316	14884	18736	0	676
37.793	28.922	15027	18777	0	676
33.429	27.119	15142	18701	0	676
25.929	24.125	15213	18505	0	676
20.411	20.772	15170	18220	0	676
19.437	18.356	15242	17970	0	676
23.693	15.903	15427	17957	0	676
26.001	12.838	15599	18126	0	676
25.748	8.619	15713	18170	0	676
20.844	4.327	15742	17983	0	676
14.533	3.787	15784	17694	0	676
10.963	4.760	15713	17346	0	676
12.730	8.475	15670	16954	0	676
15.651	13.199	15527	16548	0	676
20.375	16.084	15384	16148	0	676
23.404	17.310	15213	15752	0	676
23.549	15.831	15070	15391	0	676
20.988	12.045	14884	15092	0	676
17.021	7.212	14742	14856	0	676
13.920	3.498	14570	14655	0	676
9.701	1.334	14356	14482	0	676
7.429	3.318	14242	14366	0	676
3.606	10.097	14070	14303	0	676
2.777	16.516	13956	14263	0	676
3.282	20.772	13813	14241	0	676
7.104	20.952	13670	14272	0	676
12.694	16.156	13570	14352	0	676
16.552	12.946	13570	14526	0	676
15.723	14.064	13642	14976	0	676
13.595	18.103	13884	15671	0	676
10.674	21.385	14142	16358	0	676
9.124	20.375	14570	17137	0	676
9.124	17.706	15242	18344	0	676
8.330	13.740	16070	19810	0	676
6.491	14.425	16769	21027	0	676
5.085	15.723	17384	21669	0	676
3.750	16.408	17812	21811	0	676
5.121	13.235	18169	21727	0	676
5.662	9.304	18698	21789	0	676
6.275	7.465	19312	22154	0	676
6.852	8.511	19955	22556	0	676
8.222	11.251	20526	22769	0	676
7.357	11.684	21055	22761	0	676
3.750	7.068	21455	22484	0	676
-0.397	4.364	21841	22088	1	500
-4.003	3.318	22169	21673	0	500
-3.390	6.888	22312	21040	0	500
-0.361	12.153	22484	20198	0	500
1.406	10.999	22669	19547	0	500
-1.479	6.131	23055	19289	0	500
-5.662	-2.452	23269	19088	0	500
-6.275	-6.708	23484	18621	0	500
-2.200	-4.868	23698	18153	0	500
5.950	0.938	24098	18006	0	500
12.586	4.724	24312	17894	0	500
15.074	4.400	24341	17404	0	500
12.045	-0.541	24241	16544	0	500
7.285	-5.337	24026	15524	0	500
0.974	-8.042	23626	14424	0	500
-4.940	-5.265	23198	13296	0	500
-6.383	1.983	22769	12271	0	500
-3.101	9.809	22384	11558	0	500
2.524	17.021	22055	11130	0	500
8.294	18.175	21598	10671	0	500
7.321	12.946	21055	10097	0	500
2.488	3.426	20555	9522	0	500
-2.056	-5.842	19984	9009	0	500
-1.983	-9.340	19312	8555	0	500
2.128	-7.429	18669	8189	0	500
5.265	-1.082	18055	7926	0	500
5.013	4.544	17484	7868	0	500
1.406	5.662	17126	8221	0	500
-4.327	3.895	16841	8893	0	500
-8.222	-0.793	16526	9495	0	500
-10.674	-3.137	16242	9999	0	500
-8.078	-2.524	16142	10747	0	500
-3.570	0.072	16070	11737	0	500
2.957	5.121	16027	12579	0	500
6.816	6.780	15813	13136	0	500
4.940	5.770	15599	13555	0	500
-4.868	1.839	15356	13902	0	500
-16.192	-3.318	15142	14152	0	500
-25.784	-8.042	14856	14326	0	500
-28.525	-9.520	14499	14446	0	500
-25.929	-11.107	14242	14544	0	500
-21.890	-12.874	13884	14651	0	500
-21.962	-17.021	13713	14847	0	500
-27.047	-20.736	13642	15315	0	500
-35.810	-21.457	13599	15983	0	500
-42.157	-21.421	13570	16522	0	500
-45.582	-19.401	13499	16820	0	500
-43.274	-20.700	13384	17003	0	500
-37.937	-25.929	13213	17123	0	500
-32.672	-32.816	13099	17195	0	500
-27.443	-38.082	12956	17239	0	500
-27.155	-39.380	12813	17257	0	500
-29.679	-38.298	12642	17261	0	500
-36.134	-34.836	12499	17252	0	500
-41.291	-32.059	12356	17230	0	500
-45.330	-30.076	12213	17208	0	500
-45.799	-31.049	12099	17221	0	500
-43.887	-31.338	11999	17266	0	500
-40.570	-33.574	11927	17302	0	500
-39.019	-33.934	11813	17319	0	500
-36.891	-32.528	11742	17355	0	500
-33.502	-31.302	11670	17413	0	500
-29.715	-29.210	11670	17457	0	500
-22.899	-32.420	11642	17578	0	500
-22.503	-36.278	11813	17970	0	500
-25.893	-39.921	12070	18563	0	500
-37.108	-39.885	12313	19017	0	500
-43.347	-37.505	12456	19209	0	500
-42.481	-32.600	12670	19338	0	500
-35.557	-29.679	13070	19748	0	500
-24.991	-29.571	13599	20559	0	500
-22.034	-31.590	14213	21379	0	500
-23.909	-34.187	14599	21767	0	500
-27.119	-34.728	15070	21838	0	500
-29.931	-32.564	15527	21967	0	500
-28.669	-25.460	15956	22163	0	500
-24.234	-18.247	16313	22097	0	500
-21.313	-13.199	16626	21785	0	500
-17.959	-9.629	17026	21557	0	500
-17.382	-8.330	17341	21437	0	500
-17.706	-4.724	17555	21125	0	500
-19.221	-3.714	17741	20555	0	500
-17.129	-4.868	17841	19868	0	500
-14.172	-12.153	17769	19102	0	500
-15.038	-21.241	17741	18269	0	500
-17.815	-27.263	17698	17533	0	500
-25.893	-29.895	17769	17101	0	500
-30.508	-31.482	17884	16883	0	500
-30.581	-31.410	17812	16553	0	500
-28.525	-33.790	17812	16050	0	500
-25.712	-34.944	17698	15502	0	500
-27.840	-33.285	17484	14941	0	500
-30.797	-29.138	17269	14366	0	500
-31.122	-23.512	17026	13818	0	500
-28.273	-19.978	16769	13310	0	500
-22.575	-17.815	16484	12860	0	500
-19.437	-18.211	16170	12467	0	500
-18.933	-19.870	15956	12218	0	500
-19.654	-21.132	15856	12307	0	500
-21.060	-20.447	15784	12659	0	500
-21.565	-20.014	15784	12944	0	500
-19.618	-19.582	15599	13047	0	500
-15.471	-18.860	15427	13091	0	500
-12.982	-17.706	15284	13122	0	500
-10.314	-17.238	15070	13131	0	500
-11.360	-18.031	14856	13149	0	500
-15.651	-21.168	14670	13207	0	500
-18.428	-25.424	14527	13305	0	500
-18.536	-29.174	14284	13412	0	500
-16.697	-30.364	14142	13519	0	500
-15.579	-29.751	13956	13666	0	500
-14.677	-29.282	13856	13965	0	500
-13.559	-30.040	13999	14557	0	500
-10.025	-28.994	14170	15417	0	500
-5.049	-26.253	14570	16415	0	500
-3.859	-19.257	14927	17391	0	500
-8.366	-12.261	15213	18095	0	500
-19.834	-8.619	15499	18451	0	500
-29.607	-7.970	15570	18594	0	500
-33.754	-12.910	15642	18598	0	500
-30.617	-17.274	15784	18563	0	500
-24.270	-21.781	15956	18701	0	500
-21.277	-24.198	16170	18977	0	500
-24.450	-22.106	16384	19164	0	500
-32.276	-18.067	16669	19351	0	500
-38.586	-13.668	16955	19601	0	500
-40.317	-12.405	17169	19650	0	500
-38.009	-15.182	17269	19392	0	500
-32.780	-17.995	17341	19057	0	500
-29.282	-18.356	17526	18919	0	500
-27.551	-16.192	17698	18937	0	500
-25.135	-13.271	17812	18808	0	500
-22.503	-15.398	17812	18442	0	500
-19.798	-17.851	17769	17943	0	500
-17.129	-18.680	17741	17466	0	500
-15.579	-16.769	17812	17239	0	500
-15.002	-15.002	17955	17217	0	500
-10.746	-16.913	17884	17061	0	500
-8.799	-22.467	17841	16682	0	500
-9.665	-25.352	17769	16246	0	500
-13.163	-23.765	17555	15805	0	500
-19.870	-16.444	17384	15328	0	500
-24.558	-9.556	17169	14825	0	500
-26.470	-7.609	16884	14335	0	500
-24.630	-12.153	16555	13876	0	500
-20.267	-17.887	16242	13461	0	500
-15.795	-20.844	15927	13105	0	500
-8.150	-17.706	15599	12815	0	500
-4.832	-11.792	15356	12677	0	500
-3.498	-5.373	15284	12882	0	500
-8.583	-4.327	15242	13341	0	500
-14.461	-7.321	15242	13813	0	500
-19.437	-12.514	15384	14379	0	500
-21.313	-17.779	15670	15168	0	500
-20.772	-19.149	15956	16068	0	500
-21.385	-18.067	16284	16896	0	500
-22.142	-16.733	16526	17444	0	500
-26.109	-15.290	16626	17640	0	500
-27.551	-16.552	16698	17631	0	500
-27.876	-19.077	16698	17506	0	500
-25.027	-21.277	16598	17310	0	500
-23.765	-21.529	16555	17065	0	500
-23.116	-22.358	16412	16762	0	500
-24.883	-19.762	16242	16428	0	500
-25.965	-15.903	16142	16117	0	500
-20.555	-9.520	15884	15836	0	500
-9.737	-3.787	15670	15547	0	500
-1.262	-1.154	15427	15257	0	500
-0.469	-2.092	15313	15101	0	500
-10.674	-5.409	15356	15275	0	500
-27.840	-6.383	15384	15680	0	500
-38.370	-5.662	15384	15966	0	500
-39.272	-7.393	15384	16032	0	500
-30.617	-10.566	15356	16010	0	500
-20.375	-17.057	15313	16024	0	500
-16.733	-20.447	15384	16269	0	500
-16.877	-20.664	15570	16687	0	500
-19.546	-17.346	15599	16967	0	500
-22.070	-15.939	15713	17003	0	500
-26.506	-17.526	15599	16923	0	500
-29.427	-20.555	15527	16785	0	500
-34.692	-21.132	15456	16593	0	500
-36.314	-17.238	15356	16376	0	500
-30.905	-12.405	15170	16135	0	500
-23.512	-10.061	15070	15988	0	500
-20.231	-10.278	15170	16148	0	500
-21.529	-12.910	15356	16562	0	500
-27.083	-13.920	15384	16851	0	500
-30.436	-14.172	15427	16909	0	500
-26.974	-12.874	15427	16878	0	500
-18.860	-14.028	15456	16825	0	500
-10.746	-13.920	15456	16798	0	500
-8.763	-10.422	15599	16998	0	500
-10.855	-4.832	15813	17422	0	500
-17.706	1.154	15999	17752	0	500
-23.621	0.072	16099	17827	0	500
-27.227	-6.275	16213	17827	0	500
-27.660	-15.326	16484	17992	0	500
-24.306	-20.087	16769	18380	0	500
-20.087	-17.995	17169	18848	0	500
-16.913	-10.819	17526	19244	0	500
-18.175	-3.787	17741	19365	0	500
-20.339	-3.137	17955	19262	0	500
-20.591	-4.472	18269	19258	0	500
-18.356	-6.022	18484	19356	0	500
-13.307	-4.436	18698	19240	0	500
-10.746	-1.479	18698	18821	1	824
-10.638	1.118	18769	18344	0	824
-10.999	0.252	18912	18064	0	824
-11.287	-3.065	18984	17939	0	824
-9.160	-5.554	19055	17694	0	824
-7.789	-4.291	19055	17252	0	824
-5.301	-0.685	18955	16789	0	824
-2.452	2.849	19055	16544	0	824
2.452	4.364	19126	16504	0	824
9.340	4.039	19098	16349	0	824
12.910	1.983	19026	15943	0	824
11.287	0.577	18912	15524	0	824
5.013	0.505	18912	15386	0	824
-2.200	1.046	18984	15462	0	824
-5.914	3.570	18984	15489	0	824
-3.137	6.022	19098	15538	0	824
2.777	7.176	19198	15689	0	824
6.455	7.140	19241	15774	0	824
7.068	4.544	19384	15868	0	824
3.101	2.921	19484	16037	0	824
-1.911	2.560	19526	16024	0	824
-5.121	4.652	19384	15734	0	824
-4.075	5.085	19169	15311	0	824
-0.469	5.698	18955	14829	0	824
5.517	6.239	18598	14312	0	824
11.396	9.088	18312	13791	0	824
11.396	9.701	17884	13296	0	824
4.652	8.979	17484	12842	0	824
-3.606	3.318	17098	12445	0	824
-7.068	-2.633	16669	12138	0	824
-4.291	-3.823	16242	11919	0	824
2.056	0.072	15856	11759	0	824
7.357	6.744	15427	11661	0	824
7.212	10.674	15070	11647	0	824
4.327	7.789	14742	11710	0	824
3.714	2.705	14427	11897	0	824
3.173	-1.442	14356	12392	0	824
1.406	-1.154	14313	13163	0	824
-2.885	2.200	14384	13960	0	824
-7.176	5.193	14527	14794	0	824
-8.871	4.977	14742	15703	0	824
-7.465	2.380	14956	16526	0	824
-4.183	-1.911	15284	17337	0	824
-2.596	-3.101	15599	18170	0	824
-1.479	-3.101	15784	18732	0	824
-1.154	-1.911	15927	18937	0	824
-1.911	-2.272	15956	18933	0	824
-2.993	-4.868	15927	18808	0	824
-4.472	-9.917	15884	18572	0	824
-5.265	-13.631	15784	18251	0	824
-6.744	-14.713	15599	17872	0	824
-7.068	-12.189	15499	17471	0	824
-8.907	-8.943	15213	17074	0	824
-10.710	-6.708	15027	16687	0	824
-13.379	-7.393	14884	16401	0	824
-14.028	-10.855	14927	16508	0	824
-14.677	-15.723	15313	17217	0	824
-14.749	-20.700	15813	18309	0	824
-15.254	-24.739	16313	19293	0	824
-15.110	-28.633	16812	19917	0	824
-15.759	-31.158	17341	20479	0	824
-15.939	-32.889	18055	21272	0	824
-19.365	-30.256	18698	22074	0	824
-21.998	-25.316	19412	22654	0	824
-23.585	-18.824	19955	22943	0	824
-21.096	-14.245	20384	22805	0	824
-15.290	-11.756	20598	22266	0	824
-9.016	-12.514	20698	21495	0	824
-8.294	-11.432	20669	20559	0	824
-9.124	-6.599	20526	19481	0	824
-10.819	-3.498	20384	18420	0	824
-6.635	-0.793	20312	17609	0	824
-2.524	0.180	20198	17016	0	824
1.154	-1.298	20055	16335	0	824
-2.849	-3.101	19741	15471	0	824
-10.710	-3.498	19384	14562	0	824
-18.824	-2.669	18984	13688	0	824
-19.041	-1.515	18555	12873	0	824
-13.235	-0.216	18055	12142	0	824
-3.318	3.462	17598	11491	1	316
4.219	4.075	17098	10930	0	316
3.498	1.587	16555	10466	0	316
-2.560	-2.633	16170	10221	0	316
-10.494	-6.780	16027	10475	0	316
-16.300	-8.475	16142	11331	0	316
-14.389	-4.832	16213	12325	0	316
-8.979	1.190	16213	12993	0	316
-2.452	4.724	16242	13475	0	316
0.397	4.255	16412	14152	0	316
-1.947	1.370	16669	15048	0	316
-7.321	-1.947	17055	16064	0	316
-11.756	-3.029	17669	17333	0	316
-14.100	-3.101	18384	18790	0	316
-11.540	-2.705	18955	19944	0	316
-10.819	-2.200	19412	20461	0	316
-10.530	-3.570	19598	20452	0	316
-12.405	-8.691	19812	20229	0	316
-12.225	-12.874	19984	20064	0	316
-8.655	-17.274	20126	19944	0	316
-1.118	-16.697	20126	19570	0	316
6.275	-12.802	20026	18884	0	316
11.540	-8.042	19955	18144	0	316
9.520	-8.511	19912	17716	0	316
4.940	-10.819	20055	17729	0	316
-2.019	-13.595	20169	17805	0	316
-3.895	-12.189	20098	17520	0	316
-2.705	-9.809	19984	16914	0	316
0.036	-8.186	19812	16295	0	316
4.291	-7.717	19741	15934	0	316
5.950	-8.402	19669	15778	0	316
5.337	-5.517	19455	15480	0	316
2.741	-0.793	19269	15043	0	316
-3.534	2.705	19198	14825	0	316
-10.891	1.226	19126	14820	0	316
-17.418	-2.524	18984	14767	0	316
-17.057	-4.688	18984	14745	0	316
-13.199	-3.895	18984	14865	0	316
-6.924	-1.875	18769	14860	0	316
-5.409	-1.551	18626	14598	0	316
-6.203	-4.255	18312	14223	0	316
-9.340	-10.061	17984	13835	0	316
-13.812	-13.704	17626	13452	0	316
-17.887	-16.444	17198	13060	0	316
-21.493	-18.283	16841	12757	0	316
-23.693	-19.834	16626	12762	0	316
-25.784	-20.123	16455	13011	0	316
-26.614	-18.572	16213	13171	0	316
-25.965	-16.877	15999	13238	0	316
-26.470	-14.064	15884	13515	0	316
-25.135	-11.287	15884	14067	0	316
-22.827	-10.314	16027	14749	0	316
-20.195	-9.232	16070	15391	0	316
-18.356	-11.792	16070	15792	0	316
-16.336	-14.028	15956	15917	0	316
-11.828	-15.218	15884	15979	0	316
-6.888	-12.405	15927	16220	0	316
-1.190	-6.816	15956	16580	0	316
-0.108	-1.370	15999	16856	0	316
-0.974	0.902	16070	17132	0	316
-5.554	-2.236	16170	17489	0	316
-10.458	-7.753	16170	17654	0	316
-15.182	-13.992	16213	17560	0	316
-18.139	-18.067	16027	17346	0	316
-20.700	-18.175	15856	17047	0	316
-21.601	-15.939	15642	16687	0	316
-18.031	-12.514	15384	16331	0	316
-11.648	-9.484	15142	15988	0	316
-6.780	-8.835	14884	15631	0	316
-3.101	-9.917	14499	15262	0	316
-3.390	-11.468	14213	14905	0	316
-8.475	-11.684	13856	14593	0	316
-11.287	-9.701	13570	14321	0	316
-16.048	-7.609	13284	14183	0	316
-19.473	-4.616	13284	14455	0	316
-21.998	-2.524	13427	15257	0	316
-19.798	-1.190	13642	16175	0	316
-13.343	-1.190	13884	16843	0	316
-7.609	-1.623	14142	17462	0	316
-4.400	-5.914	14456	18126	0	316
-8.042	-11.360	14713	18638	0	316
-15.182	-16.228	15027	19084	0	316
-22.214	-17.129	15427	19552	0	316
-22.322	-14.425	15670	19886	0	316
-18.031	-8.330	16027	20171	0	316
-11.143	-5.662	16384	20452	0	316
-4.724	-6.275	16669	20564	0	316
-2.019	-12.477	17026	20644	0	316
-3.895	-17.418	17341	20786	0	316
-6.239	-18.716	17526	20693	0	316
-6.599	-15.579	17626	20234	0	316
-3.246	-8.799	17741	19703	0	316
-1.479	-6.816	17841	19374	0	316
-0.072	-9.232	18026	19178	0	316
-1.659	-15.002	17984	18781	0	316
-1.911	-17.057	17955	18121	0	316
0.902	-14.821	17769	17346	0	316
5.481	-8.511	17484	16539	0	316
9.160	-6.347	17312	15823	0	316
8.078	-6.527	17198	15395	0	316
6.491	-10.061	17126	15212	0	316
6.599	-10.206	17026	15043	0	316
8.511	-7.465	17055	14967	0	316
13.343	-3.823	17098	15123	0	316
17.526	-3.498	17269	15440	0	316
20.087	-2.056	17484	15823	0	316
21.096	-0.108	17812	16344	0	316
22.214	5.481	18312	17074	0	316
20.555	10.169	18669	17765	0	316
18.860	10.530	18955	18028	0	316
16.156	6.491	18984	17850	0	316
14.281	1.154	19098	17520	0	316
15.074	-1.659	19198	17346	0	316
16.372	-0.938	19341	17382	0	316
20.736	2.056	19526	17489	0	316
23.296	5.481	19669	17511	0	316
25.604	9.737	19741	17297	0	316
25.893	11.287	19598	16816	0	316
23.404	13.307	19384	16175	0	316
16.913	12.802	19098	15440	0	316
11.828	10.819	18741	14651	0	316
7.862	8.763	18241	13853	0	316
9.232	7.176	17812	13087	0	316
9.953	5.662	17312	12378	0	316
10.242	3.318	16741	11741	0	316
3.678	-0.433	16213	11193	0	316
-4.796	-4.580	15642	10738	0	316
-10.746	-5.517	15099	10382	0	316
-12.514	-2.885	14570	10128	0	316
-10.350	3.498	14070	10065	0	316
-10.855	9.701	13813	10373	0	316
-13.091	13.776	13642	10975	0	316
-14.317	11.973	13356	11532	0	316
-10.206	10.097	13142	11919	0	316
0.144	7.357	12884	12245	0	316
9.701	7.609	12642	12552	0	316
7.429	5.590	12384	12846	0	316
-1.623	3.137	12142	13163	0	316
-16.336	-1.190	11884	13492	0	316
-19.510	-2.560	11642	13800	0	316
-12.333	-0.865	11427	14098	0	316
0.721	3.931	11313	14513	0	316
9.520	7.898	11456	15324	0	316
8.258	8.222	11856	16597	0	316
0.649	6.419	12213	17916	0	316
-5.662	4.075	12642	18937	0	316
-10.350	3.787	13213	19940	0	316
-9.845	3.029	13856	21183	0	316
-9.412	2.813	14599	22395	0	316
-7.862	0.865	15284	23331	0	316
-8.186	0.505	15927	23968	0	316
-8.222	1.298	16356	24178	0	316
-10.783	3.931	16669	23937	0	316
-14.713	6.311	16884	23407	0	316
-18.356	6.563	16955	22685	0	316
-16.228	2.633	16955	21820	0	316
-14.858	-2.380	16812	20871	1	624
-13.271	-7.609	16669	19873	0	624
-14.894	-12.081	16455	18870	0	624
-18.860	-11.864	16170	17885	0	624
-18.031	-8.799	15856	16932	0	624
-15.146	-4.219	15527	16055	0	624
-12.189	-0.397	15242	15279	0	624
-15.110	-1.839	14999	14709	0	624
-24.702	-7.176	14956	14575	0	624
-32.744	-13.127	15142	14990	0	624
-33.466	-15.146	15356	15578	0	624
-26.686	-12.225	15456	15885	0	624
-19.077	-9.665	15456	15881	0	624
-14.064	-9.448	15527	15827	0	624
-14.389	-13.523	15713	16006	0	624
-14.641	-15.831	15884	16349	0	624
-12.189	-11.396	15956	16504	0	624
-9.052	-4.111	15927	16388	0	624
-7.176	1.370	15856	16135	0	624
-10.133	-0.757	15713	15819	0	624
-11.468	-8.727	15570	15453	0	624
-11.107	-14.930	15313	15065	0	624
-8.439	-14.785	15213	14762	0	624
-3.642	-5.265	15213	14838	0	624
0.072	3.642	15456	15422	0	624
3.534	10.061	15670	16113	0	624
6.635	8.943	15856	16455	0	624
6.744	2.524	15813	16473	0	624
2.488	-5.013	15784	16349	0	624
-6.203	-11.900	15670	16130	0	624
-12.261	-10.746	15642	15939	0	624
-7.753	-4.796	15713	16006	0	624
5.373	4.580	15884	16371	0	624
21.421	12.009	16142	16856	0	624
27.119	13.631	16384	17297	0	624
23.837	11.973	16526	17515	0	624
15.435	10.566	16555	17457	0	624
9.268	12.009	16526	17226	0	624
5.590	11.107	16455	16896	0	624
1.442	4.147	16356	16531	0	624
-7.248	-3.787	16213	16157	0	624
-15.795	-9.592	15956	15747	0	624
-14.749	-6.635	15813	15404	0	624
-4.868	-0.685	15784	15346	0	624
4.904	2.669	15784	15551	0	624
9.484	0.469	15784	15676	0	624
2.524	-5.986	15742	15663	0	624
-7.212	-8.799	15856	15810	0	624
-13.054	-6.383	15956	16122	0	624
-14.317	-2.344	15956	16273	0	624
-10.169	4.436	15884	16171	0	624
-4.760	10.278	15856	16041	0	624
-2.777	11.900	15956	16139	0	624
-2.056	8.691	16027	16401	0	624
-2.813	-0.433	16027	16513	0	624
-6.744	-10.061	15956	16384	0	624
-10.674	-16.913	15856	16148	0	624
-9.016	-13.848	15670	15863	0	624
-1.659	-6.167	15570	15627	0	624
12.586	3.534	15642	15756	0	624
25.135	10.025	15956	16397	0	624
30.905	10.350	16242	17154	0	624
27.515	4.580	16412	17533	0	624
18.572	-5.337	16598	17631	0	624
14.136	-13.271	16912	17934	0	624
19.942	-15.975	17412	18629	0	624
32.167	-10.674	17769	19289	0	624
46.412	-1.947	18055	19490	0	624
55.391	4.796	18241	19311	0	624
54.995	5.409	18241	18941	0	624
49.838	0.902	18241	18424	0	624
43.635	-6.924	18055	17783	0	624
39.163	-13.307	17884	17083	0	624
37.036	-15.290	17598	16362	0	624
36.855	-10.963	17269	15640	0	624
35.954	-3.859	17026	15030	0	624
35.521	4.400	16912	14736	0	624
36.567	9.484	16812	14709	0	624
40.714	7.429	16669	14606	0	624
42.914	2.524	16412	14335	0	624
40.714	-2.128	16170	14014	0	624
36.026	-4.832	15856	13702	0	624
29.679	-2.128	15570	13394	0	624
25.748	0.325	15284	13118	0	624
26.073	2.921	14927	12886	0	624
25.063	3.210	14570	12735	0	624
21.241	3.895	14384	12753	0	624
13.235	2.669	14356	13163	0	624
4.940	-1.190	14599	14076	0	624
1.515	-6.058	14813	15119	0	624
1.767	-10.206	14999	15836	0	624
3.714	-7.645	15099	16206	0	624
6.563	-0.721	15070	16388	0	624
5.806	7.393	15070	16486	0	624
6.275	10.422	15070	16513	0	624
6.708	4.616	14884	16450	0	624
11.143	-1.515	14813	16318	0	624
11.828	-2.849	14599	16135	0	624
10.963	0.649	14499	16019	0	624
4.832	10.025	14570	16162	0	624
0.397	16.156	14570	16508	0	624
-1.082	16.589	14599	16740	0	624
1.370	12.946	14642	16838	0	624
6.491	8.727	14813	17114	0	624
8.402	5.698	14956	17547	0	624
9.232	4.544	15170	17899	0	624
6.888	4.327	15427	18251	0	624
5.373	1.406	15742	18670	0	624
3.570	-2.308	15884	18888	0	624
4.075	-3.859	16027	18901	0	624
4.724	-0.577	16313	19057	0	624
6.852	3.859	16598	19347	0	624
6.058	5.734	16841	19503	0	624
4.183	2.488	17198	19614	0	624
1.767	-4.580	17484	19815	0	624
1.442	-9.448	17741	19846	0	624
3.498	-9.773	17841	19565	0	624
2.344	-4.003	17884	19088	0	624
0.685	-0.685	17955	18607	0	624
-4.291	-0.505	18098	18420	0	624
-6.816	-3.678	18484	18656	0	624
-6.996	-7.393	18812	19008	0	624
-7.140	-7.825	19241	19240	0	624
-8.655	-8.691	19526	19320	0	624
-9.484	-8.186	19669	19102	0	624
-8.799	-9.953	19698	18554	0	624
-5.950	-14.281	19626	17832	0	624
-6.167	-18.428	19455	17034	0	624
-11.576	-20.808	19198	16197	0	624
-18.752	-20.483	18884	15342	0	624
-20.375	-17.057	18526	14499	0	624
-14.389	-14.317	18098	13697	0	624
-5.842	-11.071	17698	12953	0	624
-1.659	-11.937	17241	12285	0	624
-5.770	-12.802	16769	11710	0	624
-13.668	-16.661	16313	11264	0	624
-17.057	-20.339	15856	10939	0	624
-13.343	-21.998	15384	10694	0	624
-6.599	-22.611	14999	10533	0	624
-1.046	-18.716	14670	10573	0	624
-2.993	-13.812	14570	11068	0	624
-8.222	-10.422	14856	12191	0	624
-13.920	-12.730	15213	13706	0	624
-17.851	-18.428	15713	15199	0	624
-17.815	-26.109	16213	16517	0	624
-16.012	-32.059	16669	17622	0	624
-13.595	-31.338	16984	18335	0	624
-10.494	-26.001	17269	18732	0	624
-9.196	-19.113	17598	19151	0	624
-7.321	-13.740	17912	19579	0	624
-8.222	-12.441	18098	19703	0	624
-7.645	-13.812	18126	19458	0	624
-7.068	-12.910	18098	19004	0	624
-2.128	-12.045	17984	18514	0	624
2.777	-10.133	18055	18215	0	624
5.265	-11.576	18098	18077	0	624
2.164	-13.343	17984	17792	0	624
-4.219	-17.310	17912	17351	0	624
-12.514	-17.166	17884	17088	0	624
-15.290	-14.028	17984	17101	0	624
-12.622	-9.304	18169	17252	0	624
-4.796	-5.049	18241	17382	0	624
0.829	-6.635	18269	17284	0	624
1.406	-10.891	18126	16927	0	624
-2.272	-16.192	18026	16473	0	624
-7.068	-17.959	17769	15988	0	624
-11.648	-15.903	17555	15453	0	624
-12.405	-11.179	17241	14892	0	624
-11.540	-9.448	16984	14455	0	624
-12.333	-12.081	16841	14344	0	624
-14.821	-15.254	16769	14468	0	624
-12.946	-18.464	16626	14495	0	624
-10.927	-20.772	16412	14357	0	624
-10.242	-21.385	16213	14174	0	624
-9.809	-18.752	15956	13974	0	624
-14.605	-15.110	15713	13840	0	624
-17.562	-10.710	15642	13974	0	624
-17.382	-6.167	15599	14326	0	624
-13.956	-4.183	15456	14553	0	624
-8.583	-6.347	15356	14566	0	624
-8.871	-10.242	15099	14491	0	624
-10.494	-14.533	14856	14393	0	624
-15.651	-20.591	14599	14281	0	624
-17.129	-24.053	14313	14156	0	624
-16.697	-25.352	14142	14121	0	624
-15.651	-25.460	14027	14375	0	624
-13.776	-21.060	14070	14852	0	624
-13.956	-16.625	13999	15212	0	624
-11.035	-12.910	13856	15364	0	624
-8.150	-10.963	13742	15431	0	624
-2.741	-11.396	13570	15466	0	624
1.767	-12.766	13456	15569	0	624
3.859	-12.730	13570	15925	0	624
4.616	-12.333	13670	16473	0	624
5.626	-12.153	13784	17007	0	624
5.626	-11.828	14099	17596	0	624
5.373	-10.133	14427	18344	0	624
9.232	-2.380	14884	19164	0	624
15.146	6.635	15313	19882	0	624
25.532	12.297	15599	20274	0	624
32.744	13.271	15784	20278	0	624
36.603	9.845	15884	20051	0	624
31.374	5.481	15956	19686	0	624
24.306	7.176	15884	19218	0	624
20.772	10.169	15856	18768	0	624
21.421	13.523	15927	18545	1	820
28.273	13.091	16070	18505	0	820
33.898	12.261	16070	18335	0	820
36.639	10.025	15999	17943	0	820
34.259	8.042	15884	17466	0	820
30.436	7.717	15784	16972	0	820
27.624	7.681	15670	16544	0	820
25.748	10.674	15670	16392	0	820
26.650	13.018	15784	16562	0	820
24.198	15.975	16070	16923	0	820
21.781	14.569	16284	17297	0	820
18.103	12.081	16384	17435	0	820
16.084	9.953	16455	17288	0	820
16.625	10.999	16526	17110	0	820
18.103	14.930	16698	17154	0	820
17.851	18.211	16841	17337	0	820
18.752	19.005	16912	17351	0	820
18.824	15.867	16912	17123	0	820
21.096	11.432	16841	16793	0	820
21.601	9.088	16769	16384	0	820
21.601	12.874	16555	15903	0	820
19.798	18.716	16313	15386	0	820
17.310	25.568	16142	14967	0	820
19.437	25.279	16070	14856	0	820
22.034	20.231	16142	14990	0	820
24.955	13.487	15999	15034	0	820
25.856	8.871	15856	14869	0	820
21.529	9.016	15670	14629	0	820
14.533	9.845	15456	14384	0	820
7.212	9.448	15213	14143	0	820
3.137	6.058	14999	13911	0	820
2.236	4.760	14670	13702	0	820
5.481	4.472	14427	13528	0	820
7.609	5.770	14142	13390	0	820
5.590	6.239	13856	13278	0	820
2.849	3.534	13570	13203	0	820
-1.298	2.164	13284	13167	0	820
-2.128	2.777	13027	13189	0	820
0.685	3.678	12813	13283	0	820
3.354	5.914	12599	13439	0	820
2.560	4.977	12427	13613	0	820
0.757	3.787	12242	13809	0	820
-0.721	2.344	12099	14058	0	820
0.325	0.793	11956	14352	0	820
4.219	-1.010	11927	14727	0	820
6.996	-1.911	12142	15453	0	820
5.986	-1.370	12599	16673	0	820
-3.101	0.180	13070	17983	0	820
-11.107	-0.974	13456	18879	0	820
-16.841	-3.787	13670	19351	0	820
-15.110	-8.402	13956	19592	0	820
-10.674	-12.081	14099	19672	0	820
-7.140	-10.458	14170	19614	0	820
-8.907	-7.862	14284	19458	0	820
-12.405	-4.544	14356	19311	0	820
-18.752	-4.291	14599	19378	0	820
-19.798	-6.527	14813	19605	0	820
-20.195	-12.982	14999	19681	0	820
-20.988	-19.221	15099	19498	0	820
-22.142	-22.214	15242	19276	0	820
-23.981	-19.618	15499	19258	0	820
-27.083	-13.776	15713	19400	0	820
-30.689	-10.927	15956	19476	0	820
-32.492	-14.064	16313	19597	0	820
-31.518	-22.719	16698	19819	0	820
-27.948	-29.174	16912	19828	0	820
-23.765	-30.436	17055	19516	0	820
-21.168	-23.621	17241	19155	0	820
-19.546	-15.254	17484	19004	0	820
-19.473	-4.688	17669	18977	0	820
-19.293	-0.288	17841	18759	0	820
-18.788	1.298	17884	18309	0	820
-15.903	-0.541	17955	17854	0	820
-10.494	-3.173	18126	17618	0	820
-2.993	-3.137	18198	17533	0	820
6.996	-1.983	18269	17288	0	820
15.687	-2.236	18198	16802	0	820
15.795	-4.688	18126	16224	0	820
12.333	-9.448	17912	15618	0	820
8.330	-10.025	17698	14999	0	820
3.642	-6.924	17526	14482	0	820
4.327	-1.551	17484	14272	0	820
8.078	1.911	17384	14299	0	820
10.602	0.721	17384	14330	0	820
12.514	-3.606	17555	14540	0	820
11.792	-6.744	17955	15253	0	820
9.953	-6.852	18455	16313	0	820
8.475	-2.416	18884	17199	0	820
5.806	4.039	19312	17716	0	820
5.878	9.412	19698	18104	0	820
4.255	11.468	20098	18536	0	820
3.714	11.684	20526	18937	0	820
1.983	10.133	20912	19200	0	820
1.875	12.838	21098	19129	0	820
7.321	16.264	21126	18674	0	820
12.982	19.293	21126	18001	0	820
18.644	18.608	20955	17244	0	820
19.546	12.838	20698	16441	0	820
16.733	5.445	20412	15596	0	820
10.999	0.902	20026	14722	0	820
8.330	1.370	19598	13862	0	820
4.580	5.013	19126	13051	0	820
0.252	5.878	18598	12303	0	820
-2.993	3.606	18198	11723	0	820
-3.210	0.072	17912	11598	0	820
-0.180	-2.019	17912	12053	0	820
4.977	0.180	18026	12775	0	820
6.563	4.147	18126	13492	0	820
3.606	6.744	18269	14134	0	820
-1.442	4.147	18241	14522	0	820
-6.347	2.344	18169	14598	0	820
-6.419	1.479	17955	14508	0	820
-2.633	3.065	17812	14419	0	820
3.246	5.698	17769	14544	0	820
8.547	6.275	17698	14834	0	820
11.973	5.950	17555	14976	0	820
14.172	7.357	17412	14883	0	820
16.084	6.924	17126	14709	0	820
17.418	7.609	16884	14517	0	820
18.175	9.520	16526	14286	0	820
16.408	11.792	16284	14040	0	820
12.946	15.579	15884	13827	0	820
9.701	17.598	15527	13639	0	820
7.609	13.884	15142	13466	0	820
6.924	4.364	14813	13319	0	820
6.924	-4.508	14427	13243	0	820
5.445	-7.104	14142	13238	0	820
6.960	-2.633	13742	13270	0	820
5.445	4.147	13456	13332	0	820
3.967	6.780	13170	13421	0	820
-0.685	2.344	12856	13537	0	820
-6.419	-4.364	12570	13680	0	820
-10.674	-8.439	12313	13858	0	820
-11.323	-7.537	12142	14147	0	820
-5.085	-1.298	12170	14731	0	820
3.678	3.173	12242	15542	0	820
9.232	2.019	12284	16229	0	820
8.835	-3.390	12284	16655	0	820
2.813	-9.484	12284	16958	0	820
-6.780	-11.396	12242	17195	0	820
-15.110	-8.835	12213	17377	0	820
-17.851	-3.101	12242	17605	0	820
-15.543	-0.216	12456	18095	0	820
-8.330	-1.551	12813	18870	0	820
-0.252	-5.013	13213	19752	0	820
2.741	-11.071	13784	20639	0	820
0.000	-16.516	14427	21522	0	820
-8.727	-20.988	14956	22279	0	820
-14.461	-22.683	15384	22671	0	820
-14.281	-17.418	15856	22743	0	820
-7.501	-9.124	16313	22854	0	820
0.469	-0.902	16884	23117	0	820
5.301	1.154	17455	23375	0	820
4.183	-2.885	17912	23469	0	820
0.829	-8.402	18341	23309	0	820
-8.114	-12.730	18812	23055	0	820
-12.045	-10.963	19198	22792	0	820
-12.982	-8.366	19412	22279	0	820
-4.796	-6.599	19555	21446	1	632
4.147	-5.878	19526	20443	0	632
12.550	-5.662	19455	19365	0	632
14.028	-6.239	19241	18237	0	632
11.540	-6.852	19026	17110	0	632
8.330	-8.330	18698	16019	0	632
5.626	-11.756	18312	14972	0	632
2.128	-13.704	17955	13996	0	632
-1.731	-11.973	17626	13207	0	632
-6.275	-9.268	17455	12824	0	632
-7.176	-6.491	17312	12779	0	632
-3.642	-8.078	17241	12784	0	632
-2.019	-12.333	17241	12917	0	632
-2.777	-18.175	17269	13261	0	632
-8.042	-19.365	17312	13528	0	632
-13.451	-15.939	17198	13568	0	632
-17.454	-10.710	17169	13573	0	632
-16.300	-7.537	17198	13813	0	632
-11.468	-8.006	17241	14237	0	632
-5.878	-9.737	17241	14495	0	632
-0.469	-11.540	17169	14486	0	632
2.056	-11.468	17055	14361	0	632
0.433	-8.655	16884	14263	0	632
-4.075	-8.619	16984	14491	0	632
-7.970	-7.645	17198	15168	0	632
-9.520	-8.186	17412	15908	0	632
-7.393	-5.517	17555	16278	0	632
-3.246	-0.361	17526	16295	0	632
-0.721	4.111	17455	16144	0	632
1.262	5.590	17384	15988	0	632
2.416	4.255	17455	16028	0	632
1.551	0.252	17412	16215	0	632
-1.551	-0.577	17384	16233	0	632
-3.354	1.046	17341	16108	0	632
-6.744	2.236	17412	16180	0	632
-8.006	3.354	17526	16517	0	632
-9.484	2.019	17769	16963	0	632
-13.379	1.479	18055	17435	0	632
-18.644	0.938	18341	17957	0	632
-21.926	-0.469	18669	18411	0	632
-20.447	-1.442	18769	18540	0	632
-13.487	1.226	18812	18309	0	632
-5.193	7.465	18812	17908	0	632
0.036	16.408	18626	17413	0	632
-1.046	20.736	18455	16825	0	632
-7.032	19.726	18126	16180	0	632
-13.271	13.776	17841	15529	0	632
-15.218	5.986	17526	14909	0	632
-11.576	4.616	17198	14397	0	632
-6.347	6.924	16984	14192	0	632
-3.246	10.242	16884	14245	0	632
-2.741	12.766	16669	14228	0	632
-7.321	10.242	16412	14023	0	632
-11.720	5.085	16142	13764	0	632
-15.903	2.705	15813	13506	0	632
-18.211	4.544	15570	13354	0	632
-16.336	8.114	15456	13510	0	632
-11.540	11.973	15356	13898	0	632
-4.111	10.674	15313	14277	0	632
3.967	6.563	15427	14731	0	632
7.789	2.452	15499	15315	0	632
9.556	0.793	15499	15734	0	632
13.668	4.003	15456	15890	0	632
18.536	8.547	15356	15930	0	632
26.397	15.146	15284	15921	0	632
35.846	18.464	15070	15850	0	632
44.609	17.923	14999	15814	0	632
49.297	13.307	15170	16139	0	632
50.667	8.799	15456	16954	0	632
50.054	5.878	15784	17823	0	632
47.566	5.445	15956	18295	0	632
42.445	6.094	16099	18416	0	632
37.432	4.183	16213	18469	0	632
32.853	0.865	16412	18652	0	632
30.292	-1.370	16626	18910	0	632
27.840	-2.200	16741	18950	0	632
31.122	-3.029	16741	18692	0	632
32.492	-2.777	16669	18269	0	632
30.761	0.180	16598	17850	0	632
25.496	5.554	16626	17654	0	632
20.880	10.278	16669	17645	0	632
17.057	11.864	16626	17506	0	632
16.625	6.996	16598	17235	0	632
18.283	-1.082	16698	17141	0	632
21.673	-2.993	16769	17217	0	632
24.486	2.308	16698	17132	0	632
27.371	10.963	16669	16802	0	632
30.292	16.444	16484	16388	0	632
30.364	14.208	16313	15983	0	632
26.109	8.042	16099	15578	0	632
21.204	2.957	15884	15155	0	632
17.598	4.904	15570	14736	0	632
18.320	9.809	15284	14379	0	632
19.870	15.543	15070	14116	0	632
19.618	17.310	14784	13907	0	632
17.743	14.317	14570	13800	0	632
12.910	8.619	14599	14014	0	632
9.665	4.364	14670	14575	0	632
9.556	1.406	14884	15297	0	632
11.323	1.298	15142	15988	0	632
12.333	3.750	15284	16535	0	632
9.809	5.878	15599	17083	0	632
7.285	9.160	15884	17671	0	632
5.554	9.629	16027	18023	0	632
5.986	11.684	16242	18130	0	632
12.009	15.723	16484	18322	0	632
16.264	18.139	16698	18612	0	632
18.139	21.781	16769	18670	0	632
16.264	20.700	16812	18429	0	632
11.468	16.841	16769	18028	0	632
6.852	12.225	16669	17560	0	632
3.354	8.366	16484	17043	0	632
2.092	8.475	16284	16513	0	632
2.019	9.196	16070	16019	0	632
3.390	11.215	15813	15551	0	632
4.472	13.668	15527	15092	0	632
4.039	14.136	15284	14655	0	632
5.734	14.894	14956	14294	0	632
9.304	13.271	14670	14023	0	632
12.910	12.766	14427	13786	0	632
16.444	12.730	14170	13595	0	632
14.677	16.336	13884	13492	0	632
8.907	18.897	13670	13497	0	632
5.626	18.067	13456	13559	0	632
8.258	14.028	13242	13626	0	632
12.297	7.681	13070	13706	0	632
16.156	2.488	12884	13831	0	632
15.254	0.469	12742	13996	0	632
11.071	0.649	12527	14161	0	632
7.934	2.092	12384	14312	0	632
9.665	2.452	12242	14473	0	632
12.946	2.993	12170	14731	0	632
14.353	4.652	12284	15275	0	632
10.746	6.167	12456	16024	0	632
6.383	7.898	12570	16620	0	632
0.974	7.501	12642	16972	0	632
0.397	4.940	12713	17199	0	632
4.977	3.714	12742	17355	0	632
12.622	2.849	12713	17449	0	632
18.392	5.554	12713	17489	0	632
20.664	6.780	12713	17493	0	632
16.841	4.580	12670	17475	0	632
10.314	-1.010	12784	17556	0	632
4.544	-6.924	12999	17912	0	632
2.092	-8.619	13242	18451	0	632
3.534	-5.734	13456	18843	0	632
7.681	-0.613	13670	19004	0	632
12.081	2.957	13856	19048	0	632
14.208	4.940	13927	18999	0	632
15.651	4.832	14027	18866	0	632
11.756	3.354	14142	18785	0	632
5.445	3.498	14456	18964	0	632
-2.488	1.659	14713	19293	0	632
-4.147	-0.865	14999	19432	0	632
-3.426	-3.065	15142	19298	0	632
4.436	-3.318	15242	19031	0	632
10.061	-2.344	15284	18701	0	632
8.871	1.190	15427	18411	0	632
4.147	3.029	15570	18358	0	632
-1.587	3.137	15813	18487	0	632
-3.029	-0.938	15956	18469	0	632
-0.144	-4.436	16070	18211	0	632
1.046	-7.645	16070	17845	0	632
0.288	-5.878	16027	17431	0	632
-2.921	-1.226	15999	16981	0	632
-7.032	1.983	15884	16513	0	632
-9.268	0.000	15784	16055	0	632
-12.189	-6.888	15642	15636	0	632
-15.362	-14.785	15499	15279	0	632
-15.903	-18.716	15313	14950	0	632
-13.956	-15.507	15313	14731	0	632
-10.278	-6.924	15427	14954	0	632
-5.013	-0.613	15856	15752	0	632
-4.472	1.515	16242	16664	0	632
-5.734	-2.741	16526	17208	0	632
-8.078	-9.160	16769	17391	0	632
-12.586	-17.021	17026	17493	0	632
-13.812	-20.988	17312	17738	0	632
-14.245	-20.050	17555	18055	0	632
-10.674	-17.454	17769	18157	0	632
-4.039	-14.569	17884	17957	0	632
-0.505	-14.641	17841	17600	0	632
-1.442	-16.552	17841	17172	0	632
-8.114	-20.555	17698	16682	0	632
-16.769	-21.349	17555	16166	0	632
-23.621	-17.129	17341	15627	0	632
-23.693	-12.261	17126	15088	0	632
-18.608	-7.321	16841	14580	0	632
-11.179	-5.590	16669	14210	0	632
-5.265	-5.950	16626	14174	0	632
-2.416	-4.868	16698	14486	0	632
-2.092	-5.337	16884	15003	0	632
-5.121	-5.986	17098	15569	0	632
-6.780	-9.232	17241	15943	0	632
-9.124	-15.110	17312	16037	0	632
-8.042	-19.005	17341	16055	0	632
-5.554	-17.129	17526	16286	0	632
-0.938	-11.035	17741	16673	0	632
2.813	-2.957	17841	16874	0	632
1.695	2.669	17812	16789	0	632
-4.616	3.570	17812	16584	0	632
-13.054	-0.649	17769	16424	0	632
-18.644	-4.652	17884	16464	0	632
-17.562	-8.330	17984	16646	0	632
-12.874	-6.744	17955	16669	0	632
-6.996	-3.210	18026	16539	0	632
-4.111	0.252	18169	16580	0	632
-3.318	2.777	18312	16869	0	632
-3.101	3.246	18669	17355	0	632
1.659	1.010	19169	18055	0	632
8.366	-4.039	19598	18790	0	632
12.874	-9.737	20169	19445	0	632
13.776	-13.740	20884	20243	0	632
11.360	-11.071	21669	21161	0	632
6.780	-2.128	22241	21762	0	632
5.265	8.799	22669	21753	0	632
9.701	14.136	22812	21236	0	632
14.641	13.271	22884	20430	0	632
18.175	7.176	22812	19436	0	632
18.392	3.570	22598	18389	1	876
15.867	3.534	22555	17564	0	876
13.595	7.537	22455	16967	0	876
13.343	8.330	22269	16291	0	876
12.550	5.806	22026	15475	0	876
12.297	3.210	21955	14954	0	876
11.396	0.288	22055	14958	0	876
7.609	0.036	22126	15186	0	876
4.436	2.741	22384	15431	0	876
-0.216	4.868	22669	15841	0	876
-0.108	6.311	22984	16318	0	876
2.380	6.852	23269	16646	0	876
8.583	5.517	23455	16771	0	876
11.973	1.262	23484	16629	0	876
11.864	-1.298	23626	16406	0	876
7.573	-0.505	23555	16202	0	876
6.455	4.075	23412	15752	0	876
8.186	12.802	23098	14990	0	876
10.927	19.005	22626	14094	0	876
10.061	20.519	22169	13167	0	876
9.340	16.408	21526	12240	0	876
5.806	11.937	20955	11438	0	876
6.022	8.150	20526	10970	0	876
5.157	10.061	20055	10787	0	876
2.885	12.766	19555	10573	0	876
-0.361	16.012	19026	10230	0	876
-2.993	13.740	18384	9901	0	876
-2.885	8.150	17841	9660	0	876
-5.770	1.911	17269	9499	0	876
-11.828	-3.606	16626	9393	0	876
-20.519	-6.311	16070	9344	0	876
-25.496	-5.445	15456	9393	0	876
-25.207	-2.560	14927	9535	0	876
-20.231	1.262	14384	9731	0	876
-14.785	4.616	13856	9972	0	876
-14.172	5.481	13427	10297	0	876
-16.985	1.875	12956	10703	0	876
-21.313	-4.003	12527	11144	0	876
-25.748	-8.006	12142	11589	0	876
-30.148	-9.592	11784	12053	0	876
-31.987	-6.419	11384	12534	0	876
-31.410	-2.705	11099	13011	0	876
-29.715	2.019	10742	13492	0	876
-27.624	2.813	10527	13983	0	876
-25.316	2.488	10242	14473	0	876
-27.660	-2.741	10070	14967	0	876
-30.220	-12.658	9813	15453	0	876
-32.023	-20.772	9670	15925	0	876
-29.499	-22.539	9527	16384	0	876
-22.106	-15.867	9384	16834	0	876
-16.480	-4.904	9356	17261	0	876
-14.389	1.659	9284	17667	0	876
-19.437	-1.046	9313	18130	0	876
-26.866	-7.970	9499	18830	0	876
-27.660	-12.910	9884	19788	0	876
-22.863	-9.088	10313	20853	0	876
-15.867	-3.678	10884	21847	0	876
-13.848	-1.947	11284	22569	0	876
-17.382	-6.708	11713	22961	0	876
-25.748	-12.982	12027	23117	0	876
-29.968	-15.074	12384	23202	0	876
-28.309	-9.016	12856	23433	0	876
-21.024	-0.613	13427	23826	0	876
-13.812	2.380	13999	24240	0	876
-10.819	-1.226	14599	24556	0	876
-12.189	-6.203	15070	24574	0	876
-15.687	-8.475	15456	24231	0	876
-21.818	-4.400	15784	23732	0	876
-25.316	1.154	16242	23362	0	876
-26.830	1.695	16555	23090	0	876
-28.381	-3.787	16912	22694	0	876
-27.371	-13.054	17269	22284	0	876
-27.299	-17.887	17669	21941	0	876
-25.929	-18.103	17812	21406	0	876
-24.017	-13.704	17984	20586	0	876
-20.736	-8.511	17984	19632	0	876
-17.743	-5.626	17884	18643	0	876
-16.877	-3.354	17884	17738	0	876
-16.805	-1.479	17955	17132	0	876
-17.526	1.767	17984	16753	1	316
-15.903	3.859	17984	16286	0	316
-15.398	1.262	17841	15667	0	316
-16.192	-5.301	17741	15025	0	316
-19.329	-11.756	17555	14388	0	316
-19.041	-13.487	17312	13755	0	316
-13.343	-9.376	17055	13185	0	316
-3.354	-0.793	16841	12775	0	316
6.167	3.606	16812	12672	0	316
8.330	2.308	16769	12811	0	316
0.469	-3.210	16769	12993	0	316
-11.684	-6.924	16884	13296	0	316
-21.998	-7.681	16955	13729	0	316
-24.306	-6.094	16984	14005	0	316
-17.490	-3.462	16912	14032	0	316
-7.032	-1.082	16812	13947	0	316
-1.082	1.839	16669	13800	0	316
0.793	5.013	16455	13604	0	316
-1.010	7.465	16213	13381	0	316
-1.659	8.835	15927	13158	0	316
-0.469	7.645	15742	13042	0	316
0.180	7.068	15670	13225	0	316
-1.479	8.330	15642	13648	0	316
-3.895	8.258	15527	13969	0	316
-3.931	9.412	15427	14081	0	316
-0.433	8.511	15284	14107	0	316
3.534	7.645	15099	14112	0	316
6.167	6.311	14927	14116	0	316
6.022	9.340	14713	14125	0	316
5.554	13.992	14456	14130	0	316
5.049	20.123	14313	14134	0	316
4.868	22.467	14070	14183	0	316
4.868	21.024	13927	14277	0	316
7.429	16.480	13713	14375	0	316
10.097	14.713	13527	14473	0	316
15.615	15.651	13384	14611	0	316
21.277	17.959	13284	14789	0	316
26.830	18.103	13142	14958	0	316
30.112	15.110	12956	15101	0	316
30.184	10.963	12856	15239	0	316
27.660	8.042	12813	15471	0	316
21.890	7.032	12927	15975	0	316
15.651	8.114	13099	16673	0	316
14.497	7.285	13213	17230	0	316
14.389	7.104	13284	17524	0	316
16.769	6.275	13427	17769	0	316
16.516	7.285	13713	18211	0	316
17.743	11.612	13927	18785	0	316
20.700	16.192	14170	19169	0	316
26.073	20.736	14284	19271	0	316
32.853	22.611	14427	19222	0	316
35.665	20.916	14527	19187	0	316
32.167	19.041	14856	19374	0	316
25.929	18.716	15142	19735	0	316
19.401	18.031	15384	19908	0	316
15.146	15.867	15527	19793	0	316
13.776	11.612	15713	19556	0	316
12.514	6.816	15742	19298	0	316
7.212	2.272	15856	19071	0	316
4.183	0.541	16213	19138	0	316
1.334	-0.180	16698	19646	0	316
1.839	-1.262	17126	20211	0	316
4.832	-2.200	17455	20359	0	316
7.970	-0.649	17698	20091	0	316
8.402	5.193	17812	19623	0	316
7.248	11.396	17769	19044	0	316
5.049	15.903	17769	18380	0	316
2.344	15.723	17741	17761	0	316
-1.515	10.710	17841	17484	0	316
-3.498	2.452	18198	17685	0	316
-2.813	-3.859	18484	17974	0	316
-0.685	-6.563	18669	17916	0	316
3.714	-3.859	18669	17524	0	316
6.347	-0.613	18669	17003	0	316
6.383	2.633	18484	16415	0	316
4.039	3.570	18455	15876	0	316
3.390	-0.216	18412	15591	0	316
3.462	-3.895	18484	15547	0	316
3.462	-4.724	18412	15417	0	316
4.977	-5.157	18312	15079	0	316
7.357	-3.678	18198	14740	0	316
6.671	-2.813	18269	14691	0	316
2.308	-2.777	18269	14865	0	316
-3.750	-5.770	18269	14896	0	316
-8.691	-7.285	18126	14696	0	316
-6.491	-7.248	18026	14428	0	316
2.019	-6.816	17812	14152	0	316
12.982	-5.770	17526	13844	0	316
15.867	-6.419	17269	13524	0	316
9.016	-10.025	17026	13243	0	316
-0.793	-12.081	16741	13011	0	316
-7.176	-11.215	16412	12797	0	316
-7.573	-6.996	16099	12592	0	316
-2.705	-3.173	15742	12423	0	316
3.210	-0.469	15456	12383	0	316
5.878	-1.046	15384	12663	0	316
7.104	-2.560	15313	13194	0	316
6.635	-4.688	15213	13648	0	316
6.311	-3.642	15142	13898	0	316
4.760	-2.128	14956	14063	0	316
3.534	0.938	14856	14272	0	316
3.029	2.813	14927	14727	0	316
3.318	4.255	14999	15373	0	316
5.193	2.596	15027	15881	0	316
6.491	2.488	15027	16135	0	316
4.724	2.019	15070	16367	0	316
4.400	2.092	15313	16914	0	316
2.669	1.623	15784	17908	0	316
2.272	1.154	16170	18910	0	316
4.904	3.173	16484	19481	0	316
6.635	7.248	16741	19672	0	316
10.746	12.261	16884	19663	0	316
16.336	14.605	16955	19485	0	316
22.611	10.278	16984	19173	0	316
26.145	5.265	16912	18794	0	316
27.443	1.767	16841	18380	0	316
26.109	2.524	16812	17997	0	316
23.008	6.816	16841	17841	0	316
19.401	10.855	16912	17876	0	316
13.487	9.124	17026	17881	0	316
5.950	5.950	17241	17939	0	316
0.108	3.534	17384	18099	0	316
1.479	3.462	17455	18090	0	316
7.753	7.573	17555	17903	0	316
12.946	7.357	17741	17859	0	316
13.956	4.291	17841	17961	0	316
6.094	-0.938	17912	17881	0	316
-1.154	-3.462	17912	17542	0	316
-5.734	-1.082	17769	17083	0	316
-0.938	5.554	17626	16566	0	316
8.006	10.422	17455	16019	0	316
17.454	9.989	17312	15582	0	316
20.844	6.744	17341	15551	0	316
18.500	2.488	17598	16006	0	316
10.783	-0.361	17912	16638	0	316
2.452	-1.334	18341	17333	0	316
-3.570	-2.128	18955	18233	0	316
-4.652	-2.885	19484	19057	0	316
-4.472	-3.426	19884	19476	0	316
-1.767	-3.931	20341	19717	0	316
-0.829	-3.462	20698	19913	0	316
-1.118	-5.481	20884	19779	0	316
-4.183	-6.816	20955	19236	0	316
-7.429	-7.465	20841	18478	0	316
-10.278	-9.520	20698	17613	0	316
-11.973	-10.891	20484	16767	0	316
-15.831	-14.281	20455	16264	0	316
-18.464	-17.779	20555	16251	0	316
-22.611	-19.437	20741	16424	0	316
-23.873	-16.625	20912	16548	0	316
-22.575	-11.648	21026	16571	0	316
-20.231	-7.681	21026	16358	0	316
-18.536	-8.907	20912	15939	0	316
-16.661	-15.326	20912	15636	0	316
-16.012	-22.322	20841	15466	0	316
