neuroNicle FX2
D3F25R12
Bluetooth SPP
2023년 11월 17일 금요일
오후 4:40
time interval = 4msec
EEG1	EEG2	PPG	sdPPG	pulse	peak_interval(msec)
-21.565	-38.190	16393	17474	0	316
-20.014	-37.000	16432	17666	0	316
-21.781	-38.767	16480	17719	0	316
-27.047	-41.688	16529	17839	0	316
-28.056	-43.527	16577	18021	0	316
-24.378	-41.543	16602	18065	0	316
-17.815	-35.449	16635	17978	0	316
-15.471	-30.076	16674	17969	0	316
-14.930	-28.273	16723	18026	0	316
-18.283	-31.590	16747	17959	0	316
-23.693	-36.675	16747	17719	0	316
-24.522	-39.668	16723	17392	0	316
-22.899	-39.416	16698	17032	0	316
-22.178	-38.082	16674	16643	0	316
-23.981	-38.839	16611	16250	0	316
-25.460	-42.697	16563	15856	0	316
-28.381	-43.455	16505	15491	0	316
-28.453	-43.887	16456	15165	0	316
-29.138	-44.140	16393	14876	0	316
-28.994	-44.573	16326	14622	0	316
-29.607	-46.484	16278	14401	0	316
-29.859	-47.422	16191	14218	0	316
-29.318	-44.140	16133	14074	0	316
-27.083	-42.409	16070	14026	0	316
-26.614	-41.652	16070	14199	0	316
-25.279	-44.753	16070	14526	0	316
-25.460	-48.143	16045	14799	0	316
-23.404	-46.159	16036	14996	0	316
-20.555	-42.157	16084	15376	0	316
-19.185	-35.737	16157	16039	0	316
-18.933	-34.223	16254	16729	0	316
-24.450	-38.334	16312	17234	0	316
-30.545	-45.330	16384	17661	0	316
-31.987	-47.746	16466	18084	0	316
-31.915	-48.035	16514	18343	0	316
-27.804	-45.222	16563	18377	0	316
-26.578	-43.743	16577	18276	0	316
-28.453	-46.664	16587	18089	0	316
-29.427	-50.667	16587	17834	0	316
-28.237	-50.667	16563	17546	0	316
-25.676	-50.956	16539	17219	1	624
-23.476	-49.008	16505	16869	0	624
-25.063	-48.684	16442	16513	0	624
-28.453	-49.910	16408	16173	0	624
-29.427	-48.287	16360	15851	0	624
-30.292	-49.585	16326	15568	0	624
-32.456	-50.595	16254	15313	0	624
-33.466	-55.211	16191	15088	0	624
-36.855	-56.545	16157	14958	0	624
-37.505	-57.663	16157	15040	0	624
-35.305	-51.064	16157	15285	0	624
-34.620	-48.071	16142	15477	0	624
-36.819	-47.386	16142	15534	0	624
-40.245	-51.388	16133	15602	0	624
-42.914	-55.031	16142	15827	0	624
-41.652	-53.444	16181	16164	0	624
-36.819	-50.956	16215	16446	0	624
-32.744	-45.078	16278	16806	0	624
-31.158	-42.806	16375	17387	0	624
-29.968	-42.950	16466	17959	0	624
-32.023	-45.438	16553	18310	0	624
-34.872	-48.287	16635	18579	0	624
-36.351	-51.533	16732	18843	0	624
-37.360	-51.569	16771	18924	0	624
-38.334	-51.316	16820	18771	0	624
-40.534	-51.244	16820	18478	0	624
-44.573	-56.149	16805	18108	0	624
-50.811	-62.820	16781	17671	0	624
-51.100	-66.390	16757	17210	0	624
-47.169	-64.190	16723	16744	0	624
-36.387	-54.165	16650	16288	0	624
-29.030	-44.717	16611	15847	0	624
-26.325	-41.399	16539	15429	0	624
-30.328	-42.842	16466	15044	0	624
-33.429	-46.412	16432	14799	0	624
-36.783	-46.700	16442	14891	0	624
-37.468	-44.248	16466	15241	0	624
-38.875	-42.842	16490	15549	0	624
-38.406	-44.392	16529	15813	0	624
-40.570	-46.376	16563	16125	0	624
-40.858	-52.254	16587	16327	0	624
-40.137	-52.795	16602	16384	0	624
-39.055	-53.660	16635	16518	0	624
-37.793	-51.461	16674	16720	0	624
-35.557	-45.041	16698	16782	0	624
-30.436	-37.829	16698	16725	0	624
-26.253	-30.472	16747	16854	0	624
-25.965	-28.453	16853	17354	0	624
-28.525	-31.374	16965	17940	0	624
-34.331	-37.613	17013	18204	0	624
-37.721	-40.678	17062	18132	0	624
-37.108	-39.632	17062	17896	0	624
-30.905	-35.593	17062	17565	0	624
-26.073	-33.105	17023	17157	0	624
-30.076	-37.577	16989	16710	0	624
-40.137	-46.989	16926	16250	0	624
-45.330	-53.841	16868	15784	0	624
-41.832	-55.499	16795	15323	0	624
-27.984	-45.222	16708	14881	0	624
-8.763	-33.321	16626	14473	0	624
-1.118	-28.345	16539	14117	0	624
-5.986	-34.006	16456	13805	0	624
-18.067	-43.166	16384	13599	0	624
-23.188	-50.631	16351	13623	0	624
-18.392	-51.677	16312	13839	0	624
-6.094	-44.356	16278	14021	0	624
0.036	-41.291	16239	14156	0	624
0.793	-44.212	16239	14434	0	624
-7.465	-49.297	16254	14838	0	624
-11.323	-51.352	16254	15155	0	624
-9.773	-52.001	16254	15366	0	624
-5.085	-47.638	16263	15664	0	624
-2.993	-47.025	16288	16053	0	624
-5.986	-49.838	16288	16322	0	624
-12.297	-51.208	16302	16412	0	624
-16.264	-53.480	16288	16427	0	624
-21.890	-51.713	16263	16393	0	624
-24.847	-53.805	16229	16317	0	624
-30.508	-55.680	16191	16207	0	624
-36.314	-61.161	16157	16082	1	316
-39.452	-63.109	16108	15952	0	316
-39.488	-61.378	16045	15813	0	316
-37.252	-57.014	16011	15688	0	316
-34.187	-53.228	15963	15578	0	316
-32.780	-49.441	15900	15491	0	316
-34.908	-51.028	15866	15429	0	316
-35.737	-52.542	15818	15381	0	316
-35.341	-55.319	15769	15409	0	316
-32.095	-53.552	15793	15626	0	316
-28.489	-51.821	15793	15991	0	316
-27.551	-48.936	15803	16293	0	316
-30.725	-52.723	15827	16499	0	316
-35.413	-55.644	15876	16878	0	316
-38.370	-61.125	15987	17522	0	316
-37.216	-59.358	16070	18180	0	316
-32.131	-54.562	16157	18631	0	316
-29.968	-49.838	16263	19006	0	316
-25.604	-47.133	16351	19371	0	316
-28.056	-45.474	16417	19549	0	316
-30.977	-47.422	16466	19477	0	316
-35.088	-48.576	16490	19246	0	316
-38.082	-47.205	16490	18920	0	316
-37.396	-46.484	16490	18526	0	316
-33.393	-43.599	16466	18093	0	316
-28.922	-40.137	16442	17647	0	316
-27.660	-38.154	16408	17200	0	316
-27.660	-37.613	16375	16763	0	316
-27.624	-35.088	16326	16356	0	316
-28.777	-31.699	16278	15976	0	316
-27.840	-31.518	16215	15640	0	316
-29.751	-35.485	16166	15333	0	316
-30.364	-39.272	16118	15054	0	316
-28.273	-39.849	16070	14867	0	316
-23.260	-33.898	16070	14891	0	316
-19.690	-26.578	16060	15083	0	316
-17.887	-23.224	16045	15237	0	316
-22.178	-25.027	16060	15337	0	316
-23.693	-31.626	16094	15573	0	316
-22.972	-29.787	16118	15928	0	316
-21.890	-27.227	16133	16192	0	316
-20.087	-25.279	16166	16341	0	316
-22.719	-26.758	16215	16571	0	316
-27.047	-33.033	16263	16897	0	316
-29.210	-38.045	16288	17099	0	316
-30.148	-41.652	16312	17133	0	316
-31.554	-42.048	16351	17157	0	316
-33.754	-41.507	16384	17195	0	316
-36.603	-39.272	16375	17157	0	316
-37.108	-38.731	16375	17022	0	316
-37.288	-36.278	16360	16821	0	316
-33.033	-36.603	16336	16585	0	316
-29.895	-35.377	16302	16341	0	316
-23.044	-33.285	16263	16101	0	316
-14.677	-28.417	16229	15871	0	316
-10.710	-25.893	16181	15654	0	316
-11.179	-27.083	16142	15458	0	316
-15.507	-32.492	16094	15275	0	316
-22.286	-35.737	16045	15112	0	316
-22.755	-35.341	15997	14968	0	316
-19.113	-34.187	15939	14857	0	316
-17.490	-31.158	15915	14785	0	316
-17.706	-32.672	15876	14804	0	316
-21.890	-35.918	15890	15020	0	316
-21.998	-38.009	15900	15400	0	316
-22.142	-38.658	15900	15712	0	316
-19.942	-37.108	15924	15943	0	316
-18.716	-39.596	15973	16284	0	316
-23.224	-42.589	16021	16720	0	316
-25.027	-45.655	16060	17051	0	316
-25.856	-43.743	16108	17248	0	316
-24.811	-39.993	16166	17522	0	316
-19.401	-38.334	16254	17858	0	316
-17.057	-36.531	16278	18055	0	316
-14.785	-39.524	16302	18055	0	316
-12.514	-42.157	16326	17944	0	316
-11.360	-40.281	16326	17776	0	316
-13.884	-37.360	16326	17570	0	316
-16.300	-38.370	16302	17335	0	316
-18.464	-39.344	16288	17080	1	316
-19.185	-39.849	16278	16816	0	316
-16.841	-41.291	16239	16556	0	316
-13.127	-38.839	16205	16312	0	316
-9.665	-37.721	16166	16067	0	316
-11.432	-36.603	16157	15842	0	316
-10.963	-35.521	16094	15645	0	316
-8.655	-34.259	16060	15482	0	316
-10.025	-32.997	16036	15400	0	316
-7.681	-31.951	16060	15510	0	316
-8.691	-31.915	16070	15779	0	316
-9.268	-33.502	16070	15986	0	316
-13.415	-35.377	16094	16111	0	316
-14.966	-38.262	16133	16341	0	316
-16.120	-41.940	16205	16672	0	316
-19.978	-46.700	16215	16912	0	316
-21.926	-48.900	16254	17037	0	316
-23.080	-49.693	16312	17238	0	316
-22.034	-46.448	16360	17517	0	316
-15.579	-38.118	16408	17671	0	316
-8.439	-32.420	16432	17652	0	316
-3.859	-30.184	16442	17522	0	316
-6.635	-33.934	16442	17335	0	316
-12.658	-39.380	16432	17104	0	316
-21.601	-44.789	16417	16845	0	316
-24.450	-48.035	16384	16576	0	316
-23.332	-46.232	16360	16308	0	316
-17.526	-42.012	16326	16039	0	316
-10.386	-37.505	16278	15784	0	316
-2.560	-30.617	16239	15539	0	316
0.325	-24.883	16191	15333	0	316
0.865	-23.693	16157	15169	0	316
-1.983	-24.630	16108	15054	0	316
-4.364	-25.460	16094	15020	0	316
-4.580	-26.001	16108	15189	0	316
-4.003	-25.496	16118	15510	0	316
0.180	-23.044	16133	15770	0	316
1.839	-23.296	16157	15947	0	316
-0.108	-26.938	16205	16231	0	316
-6.960	-33.502	16254	16604	0	316
-17.129	-38.731	16278	16854	0	316
-21.277	-35.485	16312	16969	0	316
-19.726	-25.496	16360	17166	0	316
-11.287	-11.215	16417	17455	0	316
-3.137	-1.947	16456	17623	0	316
-3.534	0.361	16480	17599	0	316
-10.025	-6.131	16490	17488	0	316
-18.897	-8.078	16480	17330	0	316
-21.529	-8.691	16490	17133	0	316
-22.250	-6.275	16456	16902	0	316
-20.303	-6.563	16442	16667	0	316
-23.549	-12.982	16417	16427	0	316
-26.794	-20.555	16384	16192	0	316
-29.499	-26.073	16351	15952	0	316
-31.374	-27.912	16312	15726	0	316
-33.393	-28.020	16263	15530	0	316
-34.728	-31.338	16239	15357	0	316
-38.226	-35.918	16191	15213	0	316
-38.514	-38.695	16157	15102	0	316
-35.341	-36.964	16108	15035	0	316
-30.184	-32.167	16084	15006	0	316
-26.289	-28.128	16045	14996	0	316
-24.883	-28.201	16045	15049	0	316
-24.739	-33.069	16045	15289	0	316
-26.722	-35.160	16084	15664	0	316
-27.732	-35.774	16094	15971	0	316
-29.282	-34.331	16118	16192	0	316
-26.758	-31.879	16166	16513	0	316
-24.847	-32.853	16215	16931	0	316
-25.460	-35.413	16254	17229	0	316
-29.391	-39.596	16312	17392	0	316
-33.826	-42.770	16375	17632	0	316
-37.324	-44.933	16432	17935	0	316
-42.229	-46.592	16480	18108	0	316
-41.435	-45.979	16514	18089	0	316
-42.842	-46.809	16529	17973	0	316
-41.724	-47.313	16539	17805	0	316
-41.832	-45.727	16539	17584	0	316
-38.478	-45.402	16514	17330	0	316
-37.288	-45.510	16490	17042	0	316
-35.918	-42.770	16466	16744	0	316
-32.925	-41.796	16442	16446	0	316
-27.984	-37.865	16408	16173	0	316
-23.116	-35.593	16375	15914	0	316
-22.647	-34.295	16336	15678	0	316
-25.856	-34.800	16288	15462	0	316
-27.010	-36.747	16239	15265	0	316
-28.020	-35.485	16239	15165	0	316
-26.542	-34.259	16229	15280	0	316
-21.745	-29.246	16239	15549	0	316
-17.670	-28.056	16239	15746	0	316
-17.129	-26.578	16254	15866	0	316
-16.156	-27.335	16336	16197	0	316
-17.454	-30.400	16442	16917	0	316
-17.959	-30.833	16577	17748	0	316
-22.972	-30.761	16674	18319	0	316
-22.719	-28.561	16781	18713	0	316
-22.286	-29.535	16892	19049	0	316
-23.440	-32.780	16975	19174	0	316
-24.450	-36.891	17013	19049	0	316
-26.542	-39.776	17047	18771	0	316
-27.047	-38.190	17038	18396	0	316
-24.811	-34.187	17038	17949	0	316
-21.421	-31.158	16989	17450	0	316
-21.781	-30.869	16965	16936	0	316
-23.044	-32.997	16892	16422	0	316
-25.820	-36.242	16844	15933	0	316
-29.066	-35.737	16795	15453	0	316
-28.056	-32.636	16708	15006	0	316
-27.732	-30.148	16635	14603	0	316
-27.443	-29.174	16563	14252	0	316
-28.633	-29.679	16490	13969	0	316
-25.893	-32.384	16432	13800	0	316
-27.119	-34.223	16408	13858	0	316
-25.099	-34.331	16417	14185	0	316
-26.109	-31.951	16480	14761	0	316
-26.506	-31.879	16563	15501	0	316
-25.893	-31.626	16660	16288	0	316
-29.571	-36.459	16781	17094	0	316
-34.656	-44.212	16902	17800	0	316
-38.767	-49.657	17013	18242	0	316
-40.462	-49.585	17096	18550	0	316
-36.062	-43.274	17183	18809	0	316
-29.931	-33.393	17241	18862	0	316
-25.748	-31.410	17256	18665	0	316
-28.741	-35.990	17280	18314	0	316
-32.744	-44.284	17241	17877	0	316
-36.783	-50.270	17207	17378	0	316
-36.062	-53.516	17168	16835	1	512
-35.124	-52.146	17086	16284	0	512
-34.547	-50.775	17023	15741	0	512
-35.160	-46.953	16941	15232	0	512
-34.656	-40.281	16868	14761	0	512
-33.393	-35.124	16781	14338	0	512
-33.718	-36.459	16674	13969	0	512
-37.288	-41.616	16602	13656	0	512
-42.734	-51.569	16505	13411	0	512
-44.392	-52.362	16432	13277	0	512
-40.101	-47.782	16384	13373	0	512
-31.266	-37.360	16360	13652	0	512
-21.204	-30.400	16326	13901	0	512
-15.326	-27.660	16302	14093	0	512
-14.497	-27.660	16302	14410	0	512
-13.812	-26.830	16312	14848	0	512
-13.415	-23.008	16302	15189	0	512
-9.989	-19.654	16326	15438	0	512
-11.287	-16.300	16360	15837	0	512
-13.487	-20.447	16432	16484	0	512
-17.310	-26.542	16490	17138	0	512
-24.702	-30.545	16553	17522	0	512
-26.145	-32.528	16587	17700	0	512
-26.037	-33.790	16635	17906	0	512
-26.902	-34.043	16698	18146	0	512
-26.758	-36.855	16708	18233	0	512
-29.066	-38.875	16708	18117	0	512
-27.443	-38.190	16708	17887	0	512
-26.001	-34.800	16698	17594	0	512
-24.017	-32.095	16650	17258	0	512
-21.890	-31.410	16602	16897	0	512
-21.385	-33.393	16563	16523	0	512
-23.981	-33.898	16490	16159	0	512
-23.224	-34.511	16432	15823	0	512
-22.358	-33.177	16375	15515	0	512
-23.080	-30.869	16312	15251	0	512
-19.762	-29.823	16239	15011	0	512
-18.211	-29.354	16181	14804	0	512
-14.641	-25.171	16133	14694	0	512
-13.812	-24.739	16108	14795	0	512
-13.343	-24.666	16094	15064	0	512
-17.634	-27.551	16084	15275	0	512
-18.897	-31.446	16084	15419	0	512
-22.972	-35.629	16094	15693	0	512
-24.198	-37.973	16118	16087	0	512
-26.037	-38.767	16142	16380	0	512
-27.984	-40.894	16166	16561	0	512
-30.761	-42.445	16205	16835	0	512
-30.545	-43.094	16263	17176	0	512
-29.607	-42.950	16278	17378	0	512
-29.607	-42.337	16288	17392	0	512
-32.095	-43.419	16288	17320	0	512
-34.079	-46.845	16263	17195	0	512
-37.360	-51.857	16254	17022	0	512
-39.921	-54.273	16229	16830	0	512
-41.471	-55.932	16205	16633	0	512
-43.563	-55.427	16157	16427	0	512
-44.537	-51.208	16133	16231	0	512
-44.104	-50.415	16084	16043	0	512
-40.534	-49.441	16036	15875	0	512
-35.016	-48.143	15997	15722	0	512
-33.574	-49.802	15963	15582	0	512
-35.160	-50.523	15915	15453	0	512
-36.026	-52.254	15890	15409	0	512
-35.269	-50.054	15900	15573	0	512
-33.033	-49.008	15915	15890	0	512
-26.542	-44.537	15948	16240	0	512
-20.952	-40.173	16045	16792	0	512
-15.795	-35.665	16205	17733	0	512
-15.939	-31.951	16375	18804	0	512
-18.247	-32.925	16529	19621	0	512
-25.604	-39.019	16660	20087	0	512
-32.961	-45.186	16795	20399	0	512
-32.276	-48.287	16926	20620	0	512
-23.657	-44.356	16999	20610	0	512
-15.146	-36.206	17062	20332	0	512
-7.898	-29.823	17071	19885	0	512
-11.612	-30.436	17096	19337	0	512
-15.831	-32.853	17071	18713	0	512
-18.356	-38.370	17047	18065	1	316
-20.483	-41.688	16989	17402	0	316
-19.510	-42.770	16950	16749	0	316
-19.870	-43.419	16878	16120	0	316
-18.716	-39.776	16805	15520	0	316
-14.749	-36.459	16732	14968	0	316
-8.799	-32.167	16660	14473	0	316
-7.393	-31.374	16577	14045	0	316
-11.179	-35.124	16490	13685	0	316
-18.933	-40.534	16432	13445	0	316
-28.273	-45.943	16393	13440	0	316
-30.941	-48.215	16375	13618	0	316
-27.515	-44.501	16336	13762	0	316
-18.897	-41.976	16312	13853	0	316
-11.468	-37.613	16312	14084	0	316
-9.340	-37.252	16326	14458	0	316
-11.215	-38.298	16312	14751	0	316
-17.670	-39.560	16312	14958	0	316
-19.654	-39.957	16351	15265	0	316
-21.204	-41.039	16393	15755	0	316
-20.591	-45.438	16480	16403	0	316
-25.135	-50.415	16577	17094	0	316
-28.489	-52.434	16635	17555	0	316
-32.420	-54.201	16684	17709	0	316
-33.177	-50.811	16708	17685	0	316
-33.249	-50.307	16708	17560	0	316
-32.600	-51.533	16698	17349	0	316
-33.610	-52.038	16660	17070	0	316
-34.115	-53.300	16626	16744	0	316
-31.446	-50.018	16577	16393	0	316
-26.325	-48.071	16529	16048	0	316
-24.306	-46.412	16456	15707	0	316
-20.808	-44.825	16393	15400	0	316
-21.060	-43.094	16326	15126	0	316
-19.762	-39.380	16263	14886	0	316
-15.903	-34.728	16205	14689	0	316
-10.963	-31.410	16133	14521	0	316
-5.590	-27.660	16060	14391	0	316
-4.003	-26.073	16036	14353	0	316
-4.832	-24.811	15997	14526	0	316
-10.783	-27.804	15997	14862	0	316
-18.824	-34.331	15987	15136	0	316
-24.486	-39.019	15973	15333	0	316
-26.145	-38.803	15997	15654	0	316
-21.529	-34.006	16036	16087	0	316
-15.362	-28.128	16070	16417	0	316
-13.271	-24.089	16070	16643	0	316
-14.461	-28.056	358	3262	0	25663
-28.597	-27.515	16892	17426	0	316
-23.440	-25.640	16853	17075	0	316
-18.428	-21.168	16820	16686	0	316
-14.172	-17.598	16781	16293	0	316
-11.648	-12.694	16708	15899	0	316
-13.487	-15.975	16674	15525	0	316
-16.192	-16.408	16602	15169	0	316
-16.048	-14.353	16529	14848	0	316
-11.504	-9.520	16466	14564	0	316
-4.796	-2.056	16393	14324	0	316
-2.813	0.829	16326	14137	0	316
-4.183	1.695	16263	13993	0	316
-8.475	-0.505	16191	13892	0	316
-10.855	0.649	16118	13829	0	316
-7.104	2.164	16070	13815	0	316
-1.515	6.383	15997	13829	0	316
2.957	7.285	15963	13935	0	316
2.200	4.400	15963	14262	0	316
-0.865	2.957	15973	14761	0	316
-3.426	0.974	15987	15261	0	316
-3.426	1.695	16060	15856	0	316
-0.721	4.977	16181	16696	0	316
1.334	8.547	16278	17531	0	316
4.472	10.314	16351	18060	0	316
6.852	12.658	16417	18367	0	316
8.511	17.129	16514	18699	0	316
8.907	17.454	16587	19059	0	316
5.049	17.598	16650	19222	0	316
4.760	13.595	16684	19145	0	316
4.183	12.297	16723	18944	0	316
8.114	13.776	16698	18660	0	316
12.622	18.572	16708	18300	0	316
16.949	22.683	16674	17887	1	316
16.661	24.414	16650	17450	0	316
13.668	21.493	16602	17013	0	316
13.018	18.320	16553	16585	0	316
10.133	14.497	16490	16183	0	316
9.448	14.677	16442	15794	0	316
14.353	15.218	16375	15433	0	316
15.795	19.906	16326	15112	0	316
20.303	24.522	16278	14843	0	316
20.375	26.253	16191	14627	0	316
20.159	25.135	16133	14454	0	316
15.290	20.087	16060	14324	0	316
13.487	16.913	16011	14247	0	316
11.900	13.379	15987	14271	0	316
10.025	13.559	15973	14516	0	316
10.314	11.215	15997	14939	0	316
4.940	7.393	16011	15294	0	316
-1.046	2.200	16011	15568	0	316
-7.176	-4.075	16060	15962	0	316
-10.061	-5.481	16108	16451	0	316
-8.871	-3.173	16142	16821	0	316
-4.904	0.685	16181	16993	0	316
-3.678	3.065	16181	17066	0	316
-5.265	0.685	16181	17075	0	316
-8.943	-5.698	16181	17022	0	316
-11.937	-10.061	16181	16931	0	316
-12.514	-10.891	16157	16806	0	316
-9.484	-6.094	16133	16657	0	316
-3.137	0.541	16108	16494	0	316
2.524	6.203	16070	16332	0	316
6.924	7.501	16045	16188	0	316
5.193	5.517	15997	16058	0	316
0.469	3.750	15987	15938	0	316
-4.327	1.118	15948	15895	0	316
-5.373	2.200	15973	16053	0	316
-1.298	4.904	15997	16365	0	316
4.544	7.176	16021	16600	0	316
7.825	9.412	16060	16763	0	316
7.717	7.789	16133	17123	0	316
4.400	4.291	16239	17767	0	316
0.613	0.577	16351	18420	0	316
-6.780	-3.823	16456	18823	0	316
-9.088	-6.239	16577	19184	0	316
-12.946	-6.239	16723	19726	0	316
-12.405	-7.465	16868	20216	0	316
-13.487	-9.232	16950	20346	0	316
-13.740	-12.225	17023	20159	0	316
-16.949	-14.064	17047	19794	0	316
-19.762	-18.969	17071	19318	0	316
-22.395	-18.500	17062	18766	0	316
-21.457	-21.926	17047	18170	0	316
-21.709	-20.411	16999	17546	0	316
-18.464	-19.149	16965	16912	0	316
-18.139	-15.290	16916	16298	0	316
-16.444	-13.091	16844	15717	0	316
-15.759	-10.855	16781	15179	0	316
-12.189	-8.547	16708	14689	0	316
-8.763	-5.301	16626	14266	0	316
-4.327	-0.072	16539	13897	0	316
0.216	5.554	16480	13589	0	316
3.895	9.737	16384	13335	0	316
9.520	16.625	16312	13138	0	316
13.812	20.483	16239	12998	0	316
18.752	24.522	16166	12912	0	316
18.788	24.955	16094	12883	0	316
16.444	20.339	16021	12917	0	316
12.586	16.120	15973	13061	0	316
9.196	11.360	16011	13498	0	316
5.878	10.206	16045	14300	0	316
6.311	10.638	16118	15174	0	316
6.671	10.530	16166	15803	0	316
8.258	11.251	16191	16173	0	316
8.006	11.215	16229	16412	0	316
6.094	11.684	16229	16566	0	316
6.347	13.704	16215	16638	0	316
7.429	17.274	16205	16652	0	316
10.927	17.743	16205	16633	0	316
14.281	17.382	16181	16585	0	316
11.215	11.396	16142	16508	0	316
7.068	4.832	16133	16417	1	316
4.003	0.938	16094	16327	0	316
5.554	3.246	16060	16231	0	316
11.576	9.773	16036	16149	0	316
17.598	17.129	16011	16077	0	316
21.349	23.549	15973	16019	0	316
21.060	23.368	15924	15971	0	316
16.552	21.890	15915	15938	0	316
14.894	21.998	15876	15914	0	316
11.035	20.880	15842	15899	0	316
10.061	21.745	15827	15895	0	316
10.855	19.798	15793	15909	0	316
13.559	20.267	15803	15991	0	316
14.894	20.447	15842	16332	0	316
19.798	20.880	15939	16993	0	316
19.906	23.909	16036	17719	0	316
21.529	21.854	16133	18247	0	316
17.634	16.841	16229	18713	0	316
14.461	13.307	16336	19174	0	316
9.340	9.773	16417	19443	0	316
4.688	5.409	16480	19457	0	316
-0.505	2.164	16514	19313	0	316
-6.094	-4.544	16553	19078	0	316
-11.287	-9.232	16553	18780	0	316
-11.396	-9.629	16563	18425	0	316
-7.032	-4.616	16553	18026	0	316
-1.262	0.541	16529	17603	0	316
0.902	5.121	16505	17186	0	316
-2.669	1.839	16480	16777	0	316
-11.900	-6.167	16442	16393	0	316
-16.661	-13.740	16384	16043	0	316
-13.631	-15.326	16351	15717	0	316
-7.465	-8.439	16302	15424	0	316
1.515	0.397	16263	15160	0	316
4.364	8.655	16215	14934	0	316
1.046	8.799	16157	14747	0	316
-4.796	1.226	16118	14607	0	316
-11.287	-6.816	16094	14579	0	316
-16.156	-12.550	16118	14848	0	316
-19.582	-16.877	16205	15472	0	316
-17.202	-14.749	16278	16159	0	316
-15.831	-12.766	16351	16652	0	316
-13.559	-10.458	16432	17104	0	316
-15.326	-10.710	16529	17589	0	316
-20.664	-16.913	16602	17911	0	316
-28.201	-26.361	16635	17988	0	316
-34.439	-32.059	16660	17925	0	316
-35.269	-34.728	16698	17776	0	316
-33.970	-30.869	16684	17546	0	316
-32.276	-26.794	16674	17248	0	316
-31.049	-24.414	16635	16907	0	316
-32.239	-26.289	16602	16556	0	316
-34.151	-27.984	16577	16221	0	316
-33.357	-30.581	16529	15899	0	316
-31.085	-30.400	16480	15606	0	316
-26.830	-27.768	16432	15337	0	316
-22.539	-24.053	16384	15088	0	316
-18.536	-17.995	16326	14862	0	316
-15.615	-11.684	16263	14665	0	316
-13.559	-9.088	16215	14511	0	316
-13.631	-11.360	16166	14391	0	316
-16.877	-15.867	16108	14310	0	316
-18.680	-24.089	16070	14319	0	316
-23.440	-27.119	16094	14617	0	316
-24.270	-26.542	16157	15280	0	316
-23.873	-24.414	16215	16019	0	316
-26.109	-22.539	16312	16576	0	316
-28.273	-26.830	16408	17147	0	316
-32.564	-32.997	16529	17930	0	316
-37.036	-37.973	16660	18670	0	316
-36.062	-39.704	16757	19078	0	316
-35.052	-36.423	16829	19174	0	316
-33.754	-35.160	16868	19088	0	316
-35.160	-35.233	16902	18871	0	316
-33.069	-35.918	16902	18554	0	316
-31.482	-33.285	16892	18165	0	316
-21.493	-25.388	16878	17728	0	316
-12.658	-15.435	16829	17267	0	316
-6.563	-8.763	16805	16806	0	316
-5.626	-7.537	16747	16365	0	316
-9.016	-12.297	16684	15943	0	316
-10.746	-13.343	16626	15544	0	316
-9.448	-10.206	16577	15179	0	316
-6.383	-5.662	16505	14848	0	316
-2.380	-1.839	16432	14559	0	316
-1.442	-1.731	16375	14319	0	316
-4.003	-6.275	16302	14132	0	316
-7.573	-11.360	16239	13997	0	316
-8.943	-11.360	16205	13969	0	316
-6.671	-11.864	16191	14170	0	316
-4.724	-10.746	16191	14559	0	316
-5.986	-9.232	16205	14948	0	316
-7.176	-11.107	16278	15443	0	316
-10.458	-11.251	16375	16207	0	316
-10.855	-10.855	16466	16989	0	316
-12.369	-12.694	16539	17479	0	316
-15.723	-16.805	16602	17752	0	316
-20.447	-20.339	16674	18060	0	316
-25.243	-24.414	16757	18396	0	316
-23.152	-23.116	16805	18540	0	316
-15.038	-14.641	16829	18449	0	316
-8.619	-7.789	16829	18228	0	316
-6.167	-4.508	16829	17930	0	316
-7.357	-6.888	16820	17575	0	316
-8.258	-8.294	16771	17181	0	316
-5.914	-6.275	16732	16773	0	316
-1.515	-2.560	16698	16360	0	316
2.128	1.442	16626	15947	0	316
0.397	0.252	16563	15568	0	316
-4.183	-2.777	16490	15222	0	316
-6.203	-2.380	16442	14920	0	316
-1.262	3.534	16360	14660	0	316
7.898	10.314	16312	14454	0	316
15.326	18.031	16254	14290	0	316
20.952	21.132	16181	14170	0	316
20.844	23.621	16108	14084	0	316
20.736	24.522	16060	14031	0	316
21.601	23.765	16011	14079	0	316
24.486	23.044	16021	14348	0	316
27.010	23.549	16011	14799	0	316
27.083	22.106	16021	15184	0	316
25.352	22.791	16045	15486	0	316
25.171	22.791	16084	15914	0	316
27.227	24.162	16133	16451	0	316
30.256	28.056	16157	16873	0	316
33.826	32.925	16191	17090	0	316
37.649	38.045	16205	17190	0	316
39.993	43.527	16205	17219	0	316
44.140	46.845	16229	17186	0	316
49.333	49.910	16205	17109	0	316
52.362	51.533	16181	17008	0	316
54.742	49.477	16166	16888	0	316
51.749	47.494	16157	16763	0	316
53.011	44.933	16118	16638	0	316
51.929	45.150	16108	16513	0	316
52.001	44.897	16070	16384	0	316
48.143	43.022	16036	16250	0	316
42.481	36.603	16011	16120	0	316
36.170	29.102	15973	16005	0	316
30.040	24.486	15939	15899	0	316
25.676	18.752	15915	15818	0	316
16.552	12.441	15876	15760	0	316
6.058	4.039	15866	15784	0	316
-7.321	-9.232	15890	16015	0	316
-18.788	-20.267	15924	16398	0	316
-28.056	-28.741	15963	16768	0	316
-33.754	-33.790	16060	17229	0	316
-38.190	-38.622	16181	17944	0	316
-41.183	-44.897	16326	18679	0	316
-42.878	-51.208	16393	19116	0	316
-47.530	-56.653	16490	19265	0	316
-54.129	-63.145	16539	19241	0	316
-57.771	-65.272	16577	19097	0	316
-60.260	-64.695	16602	18852	0	316
-59.791	-65.236	16611	18535	0	316
-56.978	-62.676	16602	18170	1	620
-57.158	-61.233	16587	17776	0	620
-56.149	-60.151	16563	17373	0	620
-51.316	-57.230	16539	16969	0	620
-48.323	-54.165	16505	16566	0	620
-43.671	-53.191	16466	16178	0	620
-42.517	-50.343	16417	15808	0	620
-42.842	-49.080	16393	15544	0	620
-43.887	-46.340	16393	15506	0	620
-37.937	-40.389	16408	15645	0	620
-32.276	-35.413	16408	15722	0	620
-27.551	-31.626	16408	15722	0	620
-21.529	-29.138	16442	15871	0	620
-19.978	-27.876	16480	16154	0	620
-20.267	-25.784	16490	16332	0	620
-19.257	-24.702	16529	16384	0	620
-19.149	-23.152	16577	16547	0	620
-17.057	-23.837	16611	16816	0	620
-15.182	-24.919	16650	16965	0	620
-12.586	-24.522	16674	16912	0	620
-11.864	-22.899	16674	16763	0	620
-12.766	-19.257	16660	16571	0	620
-12.297	-15.471	16626	16346	0	620
-11.684	-15.939	16602	16096	0	620
-12.045	-15.543	16563	15842	0	620
-11.432	-16.228	16529	15602	0	620
-11.143	-18.644	16490	15366	0	620
-10.674	-16.120	16442	15141	0	620
-6.058	-13.487	16375	14924	0	620
-1.587	-9.484	16312	14732	0	620
1.154	-10.278	16278	14564	0	620
1.226	-8.871	16215	14434	0	620
-1.551	-9.340	16166	14410	0	620
-1.803	-6.744	16166	14617	0	620
2.777	-0.685	16205	15006	0	620
10.674	7.465	16191	15333	0	620
17.454	14.172	16205	15578	0	620
24.919	17.274	16254	15943	0	620
27.948	23.332	16302	16403	0	620
30.472	26.974	16336	16734	0	620
34.295	32.564	16375	16941	0	620
40.389	37.901	16432	17234	0	620
45.402	42.806	16490	17603	0	620
51.929	48.828	16539	17820	0	620
54.490	52.290	16563	17887	0	620
56.004	53.119	16635	18036	0	620
54.165	54.742	16684	18271	0	620
55.860	54.057	16732	18358	0	620
61.882	54.706	16757	18228	0	620
69.419	61.089	16757	17978	0	620
76.163	63.541	16747	17666	0	620
78.002	64.154	16723	17315	0	620
74.468	62.676	16698	16945	0	620
70.213	62.171	16650	16566	0	620
66.571	60.909	16602	16197	0	620
66.462	61.269	16563	15842	0	620
66.138	61.450	16505	15510	0	620
67.328	61.233	16442	15217	0	620
67.508	59.899	16384	14958	0	620
68.518	61.918	16326	14727	0	620
68.410	63.974	16263	14545	0	620
65.957	63.649	16205	14406	0	620
62.207	59.358	16166	14310	0	620
57.916	56.653	16094	14242	0	620
54.490	53.660	16045	14218	0	620
58.420	52.470	16021	14305	0	620
62.676	56.473	16036	14603	0	620
67.724	59.250	16036	15059	0	620
70.862	61.414	16045	15429	0	620
71.439	61.594	16070	15712	0	620
71.114	62.027	16118	16111	0	620
69.564	61.774	16166	16614	0	620
68.878	58.529	16205	17003	0	620
65.236	56.040	16229	17200	0	620
59.935	48.576	16254	17286	0	620
54.526	44.284	16263	17306	0	620
50.270	41.435	16263	17262	0	620
46.232	41.435	16254	17166	0	620
46.304	42.589	16239	17027	0	620
44.140	40.714	16215	16859	0	620
42.084	38.009	16205	16681	0	620
41.796	34.403	16157	16504	0	620
41.219	35.197	16118	16332	0	620
42.193	34.620	16094	16159	0	620
44.537	39.957	16045	16000	0	620
47.926	43.347	16036	15866	0	620
53.155	48.431	15997	15813	0	620
59.394	53.841	16021	15976	0	620
68.374	62.027	16045	16298	0	620
76.920	68.013	16084	16542	0	620
82.546	75.153	16084	16696	0	620
91.273	83.700	16166	17022	0	620
101.731	93.256	16278	17642	0	620
116.012	108.655	16375	18276	0	620
132.384	124.486	16466	18689	0	620
144.176	141.291	16602	19073	0	620
154.418	153.913	16757	19635	0	620
160.873	159.971	16878	20149	0	620
163.505	163.072	16989	20322	0	620
164.046	160.837	17047	20178	0	620
162.351	159.611	17096	19851	0	620
157.014	155.247	17110	19395	0	620
152.290	153.191	17120	18847	0	620
146.232	148.467	17086	18242	1	412
139.812	140.137	17062	17603	0	412
127.479	125.063	16999	16945	0	412
110.602	106.635	16950	16308	0	412
89.037	82.834	16892	15702	0	412
65.489	61.233	16795	15141	0	412
44.104	39.524	16732	14636	0	412
24.162	20.375	16650	14194	0	412
3.895	1.298	16563	13810	0	412
-12.441	-14.858	16480	13498	0	412
-26.902	-29.138	16408	13243	0	412
-35.449	-38.514	16326	13051	0	412
-41.111	-46.159	16263	12994	0	412
-47.602	-53.336	16239	13186	0	412
-57.122	-65.525	16229	13570	0	412
-71.186	-75.983	16229	13906	0	412
-83.339	-88.136	16215	14170	0	412
-90.335	-93.906	16239	14569	0	412
-91.850	-95.456	16263	15092	0	412
-92.896	-96.213	16288	15506	0	412
-91.634	-98.738	16312	15736	0	412
-97.548	-104.003	16302	15871	0	412
-104.255	-110.242	16288	15947	0	412
-111.937	-112.622	16263	15971	0	412
-115.326	-114.172	16239	15962	0	412
-114.064	-114.389	16205	15919	0	412
-110.746	-113.271	16181	15861	0	412
-108.547	-113.199	16142	15794	0	412
-105.806	-112.045	16108	15731	0	412
-104.508	-110.097	16070	15678	0	412
-100.721	-106.022	16021	15635	0	412
-94.807	-100.685	15987	15616	0	412
-88.532	-94.735	15963	15602	0	412
-83.772	-85.647	15915	15602	0	412
-78.363	-80.959	15890	15611	0	412
-71.980	-74.504	15852	15635	0	412
-62.171	-67.075	15818	15669	0	412
-50.992	-58.024	15803	15712	0	412
-37.252	-45.655	15769	15770	0	412
-21.565	-30.400	15745	15847	0	412
-8.655	-15.507	15745	15938	0	412
4.003	-4.544	15697	16019	0	412
13.812	5.842	15706	16144	0	412
21.601	12.946	15730	16451	0	412
27.443	22.178	15793	16902	0	412
35.701	31.771	15827	17320	0	412
42.409	43.960	15924	17757	0	412
52.290	55.031	15997	18242	0	412
61.269	64.226	16060	18593	0	412
71.042	73.098	16118	18732	0	412
78.579	79.409	16157	18742	0	412
79.769	83.159	16191	18675	0	412
75.694	78.976	16205	18530	0	412
64.263	70.718	16215	18334	0	412
52.398	58.925	16215	18108	0	412
40.606	46.881	16215	17872	0	412
31.085	36.423	16215	17627	0	412
26.614	27.263	16205	17378	0	412
20.519	20.844	16181	17138	0	412
14.858	11.468	16191	16897	0	412
3.570	1.334	16157	16652	0	412
-8.943	-9.556	16118	16417	0	412
-21.673	-22.142	16108	16221	0	412
-34.764	-32.384	16084	16048	0	412
-42.625	-40.353	16060	15904	0	412
-51.028	-49.766	16036	15765	0	412
-58.204	-57.735	16021	15702	0	412
-66.102	-68.842	16070	15904	0	412
-70.032	-76.163	16166	16465	0	412
-72.485	-80.310	16254	17104	0	412
-72.665	-81.140	16336	17555	0	412
-73.819	-82.149	16466	18017	0	412
-73.639	-79.517	16602	18670	0	412
-70.032	-75.983	16757	19285	0	412
-62.568	-71.150	16853	19554	0	412
-53.408	-63.794	16916	19505	0	412
-45.618	-58.204	16989	19285	0	412
-40.966	-55.391	17013	18953	0	412
-41.507	-52.434	17013	18540	0	412
-39.055	-49.621	17023	18065	0	412
-33.934	-43.924	16989	17555	0	412
-24.991	-35.160	16965	17027	0	412
-14.821	-25.460	16916	16499	0	412
-3.354	-15.867	16868	15995	0	412
6.203	-4.940	16820	15510	0	412
13.920	5.013	16747	15044	0	412
23.945	14.930	16698	14622	0	412
30.256	23.729	16611	14252	0	412
34.079	28.705	16553	13945	0	412
34.872	29.607	16480	13695	0	412
35.197	29.066	16393	13488	0	412
39.199	33.141	16326	13330	0	412
48.395	42.950	16263	13229	0	412
59.394	52.795	16205	13181	0	412
62.243	58.132	16142	13186	0	412
58.961	55.680	16094	13291	0	412
54.886	51.929	16133	13680	0	412
53.660	50.126	16166	14434	0	412
60.151	53.444	16229	15261	0	412
68.085	60.837	16288	15851	0	412
70.790	61.774	16326	16202	0	412
68.374	55.788	16336	16427	0	412
61.522	52.182	16351	16576	0	412
59.142	49.189	16351	16643	0	412
59.791	54.345	16336	16643	0	412
61.378	55.536	16326	16600	0	412
58.276	55.319	16302	16523	0	412
54.562	50.847	16278	16422	0	412
48.720	44.825	16239	16312	0	412
50.847	46.556	16239	16197	0	412
58.565	54.526	16191	16096	0	412
68.013	61.305	16157	16010	0	412
72.845	64.876	16118	15943	0	412
69.419	63.289	16094	15890	0	412
62.171	57.807	16070	15847	0	412
54.598	50.956	16036	15813	0	412
46.809	46.015	15997	15789	0	412
40.353	40.966	15973	15770	0	412
36.098	33.646	15963	15775	0	412
27.804	27.443	15924	15799	0	412
18.067	18.897	15924	15895	0	412
10.314	10.386	15973	16240	0	412
1.298	2.669	16060	16907	0	412
-4.255	-4.183	16157	17637	0	412
-7.825	-11.504	16254	18180	0	412
-12.622	-17.526	16375	18655	0	412
-22.647	-26.073	16480	19140	0	412
-31.915	-33.610	16563	19433	0	412
-40.822	-40.389	16626	19462	0	412
-48.323	-49.946	16660	19333	0	412
-55.680	-59.755	16684	19092	0	412
-67.724	-74.432	16698	18771	0	412
-83.015	-91.958	16708	18396	0	412
-95.456	-104.472	16684	17983	1	532
-104.760	-112.225	16660	17560	0	532
-106.924	-114.461	16650	17152	0	532
-109.088	-113.740	16611	16758	0	532
-114.281	-117.851	16577	16380	0	532
-122.467	-127.948	16539	16015	0	532
-136.387	-140.678	16480	15674	0	532
-153.119	-157.158	16432	15361	0	532
-166.931	-170.934	16384	15092	0	532
-180.959	-184.025	16336	14867	0	532
-188.172	-190.191	16288	14684	0	532
-191.129	-195.853	16239	14545	0	532
-191.994	-194.591	16215	14516	0	532
-189.037	-194.555	16239	14771	0	532
-191.309	-195.312	16312	15381	0	532
-195.096	-201.010	16384	16063	0	532
-204.039	-210.133	16456	16571	0	532
-213.271	-218.031	16563	17104	0	532
-221.962	-225.604	16708	17844	0	532
-225.424	-228.994	16820	18545	0	532
-225.243	-231.446	16941	18915	0	532
-227.732	-232.961	16999	18963	0	532
-230.653	-237.180	17023	18823	0	532
-239.488	-242.878	17062	18559	0	532
-251.064	-252.506	17047	18204	0	532
-261.666	-261.233	17047	17791	0	532
-268.554	-269.419	17013	17335	0	532
-273.026	-277.209	16975	16849	0	532
-275.947	-281.140	16916	16365	0	532
-278.543	-284.457	16878	15895	0	532
-281.500	-285.828	16820	15453	0	532
-282.762	-283.664	16732	15035	0	532
-280.779	-279.769	16660	14655	0	532
-275.983	-275.261	16587	14329	0	532
-270.573	-272.088	16529	14060	0	532
-263.145	-267.436	16456	13844	0	532
-258.997	-266.751	16384	13685	0	532
-254.273	-263.000	16336	13632	0	532
-252.254	-261.522	16312	13810	0	532
-248.792	-256.437	16312	14199	0	532
-243.419	-250.739	16312	14564	0	532
-239.019	-244.428	16312	14852	0	532
-233.826	-240.389	16351	15251	0	532
-231.879	-238.839	16384	15750	0	532
-226.758	-236.819	16417	16135	0	532
-218.536	-228.345	16432	16327	0	532
-203.787	-215.362	16432	16408	0	532
-186.008	-197.800	16417	16427	0	532
-168.698	-179.264	16408	16398	0	532
-154.454	-162.964	16384	16332	0	532
-143.022	-150.451	16360	16236	0	532
-131.482	-136.351	16326	16130	0	532
-116.084	-122.611	16288	16019	0	532
-101.695	-107.032	16254	15914	0	532
-85.900	-92.138	16205	15799	0	532
-72.232	-78.399	16181	15688	0	532
-60.728	-66.138	16133	15592	0	532
-50.739	-55.211	16084	15506	0	532
-37.252	-43.274	16045	15448	0	532
-25.676	-34.259	16011	15409	0	532
-17.346	-22.827	15963	15400	0	532
-8.547	-17.310	15924	15419	0	532
-3.606	-8.691	15924	15510	0	532
-0.072	-3.787	15939	15799	0	532
3.390	1.082	15948	16226	0	532
5.013	2.705	15973	16561	0	532
4.580	4.219	16036	16801	0	532
7.248	6.816	16070	17162	0	532
9.376	11.504	16142	17627	0	532
16.300	15.651	16191	17964	0	532
21.745	24.270	16239	18151	0	532
29.607	30.040	16312	18391	0	532
36.567	37.649	16393	18684	0	532
45.727	45.510	16442	18828	0	532
53.624	53.011	16466	18771	0	532
61.991	56.329	16490	18603	0	532
63.433	59.935	16505	18382	0	532
62.712	59.719	16514	18108	0	532
59.791	59.178	16505	17796	0	532
61.991	62.135	16490	17459	0	532
66.607	67.147	16456	17109	0	532
75.875	74.865	16417	16768	0	532
83.736	79.409	16384	16446	0	532
85.251	79.228	16351	16149	0	532
80.851	75.153	16312	15875	0	532
76.920	71.223	16278	15635	0	532
73.927	69.924	16239	15429	0	532
74.432	71.619	16229	15323	0	532
75.550	72.593	16229	15438	0	532
76.451	70.646	16254	15712	0	532
73.855	67.111	16263	15909	0	532
71.150	63.469	16302	16024	0	532
69.852	62.784	16336	16264	0	532
69.780	64.299	16384	16619	0	532
68.878	63.938	16417	16854	0	532
65.092	61.089	16456	16969	0	532
62.748	58.457	16514	17186	0	532
64.226	60.151	16577	17493	0	532
67.616	62.676	16626	17661	0	532
74.432	71.403	16660	17623	0	532
79.156	73.819	16660	17483	0	532
76.524	71.872	16660	17286	0	532
72.413	68.265	16660	17051	0	532
67.292	65.489	16635	16777	0	532
65.921	65.813	16611	16489	0	532
66.462	67.761	16587	16202	0	532
67.580	67.797	16539	15909	0	532
64.515	62.676	16490	15630	0	532
58.889	54.886	16442	15366	0	532
51.172	45.655	16393	15126	0	532
47.169	39.235	16351	14910	0	532
44.573	35.737	16288	14727	0	532
42.445	34.259	16254	14651	0	532
38.550	32.853	16254	14790	0	532
32.384	29.138	16254	15102	0	532
29.102	25.279	16263	15347	0	532
28.164	21.854	16278	15510	0	532
29.391	20.483	16326	15866	0	532
29.391	19.942	16417	16523	0	532
25.856	24.883	16514	17214	0	532
21.818	28.994	16602	17695	0	532
21.962	34.259	16698	18089	0	532
26.578	38.478	16781	18482	0	532
32.456	38.947	16853	18684	0	532
37.288	37.937	16902	18627	0	532
39.127	36.459	16902	18420	0	532
37.685	38.082	16916	18122	0	532
36.423	39.163	16878	17752	0	532
37.396	41.976	16878	17339	0	532
40.065	44.140	16844	16907	0	532
43.238	43.166	16781	16480	0	532
43.563	39.885	16732	16072	0	532
44.501	37.721	16674	15678	0	532
44.104	37.757	16626	15313	0	532
49.008	40.894	16553	14982	0	532
51.208	46.881	16490	14694	0	532
53.047	47.926	16417	14454	0	532
46.953	43.996	16384	14319	0	532
36.819	35.413	16360	14420	0	532
28.164	28.273	16360	14699	0	532
23.296	23.296	16351	14924	0	532
24.270	21.349	16351	15078	0	532
25.712	21.890	16384	15371	0	532
25.207	18.464	16408	15779	0	532
22.467	16.228	16432	16072	0	532
20.808	13.668	16456	16240	0	532
19.473	15.939	16505	16513	0	532
25.388	19.546	16539	16893	0	532
31.266	26.902	16577	17133	0	532
37.072	32.348	16587	17162	0	532
41.832	34.115	16587	17080	0	532
42.697	35.269	16577	16931	0	532
42.373	34.079	16553	16739	0	532
39.885	34.187	16529	16528	0	532
36.206	32.997	16490	16303	0	532
31.987	31.049	16432	16072	0	532
27.732	27.155	16408	15847	0	532
25.748	24.558	16360	15626	0	532
25.676	23.116	16312	15424	0	532
24.053	21.890	16254	15251	0	532
21.349	22.142	16191	15107	0	532
17.779	18.247	16142	14992	0	532
12.658	14.100	16094	14905	0	532
10.025	12.730	16045	14857	0	532
11.612	13.523	15997	14838	0	532
11.576	13.523	15948	14852	0	532
7.681	9.340	15939	14958	0	532
2.056	4.616	15963	15270	0	532
-3.173	-3.354	15973	15736	0	532
-5.445	-6.239	15997	16116	0	532
-2.957	-3.714	16021	16388	0	532
1.659	1.190	16094	16777	0	532
3.101	3.498	16142	17262	0	532
0.974	1.298	16181	17608	0	532
-2.957	-2.128	16239	17810	0	532
-6.491	-10.530	16312	18079	0	532
-7.753	-12.189	16375	18425	0	532
-4.400	-10.422	16432	18622	0	532
0.288	-3.570	16466	18598	0	532
5.806	0.180	16480	18458	0	532
7.645	2.596	16490	18242	0	532
7.898	-0.793	16490	17973	0	532
4.580	-9.412	16466	17676	1	728
3.318	-12.081	16442	17363	0	728
4.544	-11.179	16417	17042	0	728
7.357	-4.652	16393	16725	0	728
12.369	3.534	16360	16408	0	728
19.185	13.884	16312	16111	0	728
20.627	15.146	16278	15837	0	728
18.139	8.222	16229	15592	0	728
9.556	1.695	16191	15385	0	728
1.442	-6.491	16166	15275	0	728
-1.839	-11.179	16166	15385	0	728
-0.397	-8.439	16205	15669	0	728
6.924	-2.092	16205	15890	0	728
10.999	1.803	16205	15971	0	728
12.874	3.318	16215	16058	0	728
10.061	2.849	16263	16298	0	728
6.816	-1.082	16312	16638	0	728
4.832	-4.832	16360	16936	0	728
2.092	-5.229	16442	17306	0	728
2.452	-3.606	16563	17920	0	728
6.347	0.613	16684	18526	0	728
11.792	7.285	16747	18814	0	728
16.877	12.081	16829	18819	0	728
19.185	13.451	16853	18675	0	728
15.939	13.379	16868	18425	0	728
14.317	10.422	16878	18089	0	728
13.235	11.107	16868	17695	0	728
19.041	16.913	16829	17282	0	728
22.899	21.385	16805	16849	0	728
26.037	25.496	16771	16422	0	728
24.378	25.424	16723	16015	0	728
21.060	22.431	16660	15630	0	728
22.106	21.457	16611	15265	0	728
20.483	19.618	16553	14934	0	728
22.791	17.418	16514	14699	0	728
24.883	15.795	16505	14708	0	728
24.198	13.379	16490	14915	0	728
23.801	12.477	16490	15068	0	728
24.414	16.048	16490	15165	0	728
23.512	18.536	16539	15453	0	728
23.981	22.972	16611	16029	0	728
29.535	24.306	16684	16600	0	728
34.043	25.171	16757	16969	0	728
37.973	25.171	16829	17286	0	728
38.947	24.522	16902	17623	0	728
36.423	22.647	16965	17796	0	728
29.859	20.267	16965	17728	0	728
23.693	14.713	16989	17522	0	728
19.365	11.432	16950	17238	0	728
18.716	8.366	16950	16893	0	728
18.716	8.619	16902	16504	0	728
19.185	11.684	16844	16111	0	728
20.303	14.425	16781	15712	0	728
18.031	14.389	16732	15342	0	728
19.149	14.605	16660	15001	0	728
16.733	10.674	16577	14684	0	728
16.048	6.491	16514	14406	0	728
11.035	3.426	16432	14170	0	728
6.635	0.433	16360	13988	0	728
1.190	-2.344	16302	13901	0	728
0.216	-3.246	16278	14031	0	728
0.072	-3.282	16288	14338	0	728
1.767	-3.642	16254	14607	0	728
2.849	-5.517	16239	14814	0	728
0.793	-9.052	16263	15160	0	728
-2.813	-10.674	16288	15630	0	728
-5.265	-13.307	16312	15986	0	728
-5.950	-11.287	16336	16207	0	728
-4.400	-10.386	16384	16561	0	728
-3.750	-11.612	16480	17176	0	728
-5.554	-15.074	16563	17800	0	728
-8.907	-16.264	16626	18189	0	728
-10.855	-18.969	16708	18502	0	728
-12.550	-18.103	16795	18819	0	728
-12.009	-19.978	16853	18948	0	728
-11.720	-19.546	16868	18828	0	728
-14.136	-21.349	16878	18574	0	728
-14.353	-21.709	16878	18237	0	728
-14.605	-18.392	16844	17829	0	728
-13.523	-18.211	16820	17378	1	316
-9.520	-17.598	16771	16907	0	316
-11.251	-19.546	16708	16441	0	316
-13.740	-21.854	16635	16000	0	316
-17.274	-25.460	16577	15578	0	316
-20.772	-25.965	16505	15189	0	316
-20.555	-24.450	16432	14843	0	316
-15.074	-22.142	16360	14555	0	316
-10.242	-18.247	16288	14310	0	316
-10.097	-15.002	16229	14175	0	316
-12.297	-15.723	16205	14286	0	316
-15.254	-18.716	16215	14593	0	316
-21.673	-24.955	16191	14848	0	316
-21.745	-28.922	16191	15035	0	316
-20.267	-29.787	16215	15347	0	316
-18.247	-27.083	16254	15775	0	316
-13.307	-20.483	16263	16092	0	316
-9.881	-11.612	16288	16293	0	316
-5.554	-8.511	16326	16585	0	316
-5.878	-7.537	16375	16979	0	316
-7.645	-12.261	16408	17243	0	316
-10.386	-16.012	16417	17310	0	316
-12.369	-19.041	16432	17262	0	316
-13.487	-16.589	16417	17152	0	316
-12.874	-16.084	16393	16979	0	316
-16.841	-16.589	16375	16763	0	316
-19.257	-21.890	16336	16528	0	316
-23.476	-22.755	16288	16293	0	316
-25.748	-24.955	16239	16063	0	316
-28.597	-26.217	16191	15842	0	316
-31.879	-29.427	16166	15650	0	316
-33.862	-30.545	16108	15482	0	316
-32.672	-29.571	16045	15342	0	316
-28.525	-25.965	16011	15237	0	316
-24.414	-22.575	15987	15213	0	316
-20.267	-19.978	15987	15400	0	316
-21.998	-21.349	16011	15755	0	316
-20.050	-21.349	16011	16039	0	316
-17.166	-17.562	16045	16245	0	316
-12.766	-15.651	16094	16619	0	316
-12.550	-15.146	16205	17296	0	316
-14.245	-16.300	16312	17993	0	316
-19.401	-19.654	16393	18454	0	316
-20.555	-21.024	16505	18814	0	316
-20.050	-19.690	16602	19150	0	316
-14.172	-17.743	16650	19289	0	316
-12.441	-12.766	16684	19184	0	316
-14.569	-14.172	16732	18944	0	316
-16.589	-16.444	16732	18617	0	316
-20.087	-19.221	16732	18223	0	316
-19.834	-21.781	16698	17786	0	316
-14.677	-20.159	16674	17320	0	316
-9.917	-16.372	16626	16840	0	316
-10.314	-16.228	16577	16365	0	316
-12.297	-17.706	16529	15914	0	316
-17.057	-22.791	16456	15496	0	316
-19.942	-24.883	16384	15112	0	316
-21.529	-27.263	16326	14771	0	316
-19.329	-25.748	16254	14482	0	316
-21.132	-24.125	16205	14310	0	316
-21.781	-22.322	16191	14377	0	316
-21.529	-24.306	16191	14636	0	316
-20.123	-23.404	16166	14843	0	316
-15.471	-22.214	16191	14982	0	316
-12.586	-22.142	16205	15265	0	316
-10.783	-17.959	16239	15678	0	316
-11.612	-17.743	16254	15981	0	316
-13.884	-17.706	16288	16159	0	316
-16.408	-19.978	16326	16427	0	316
-13.920	-18.067	16375	16797	0	316
-11.215	-16.480	16408	17037	0	316
-6.094	-12.946	16417	17080	0	316
-2.056	-11.107	16432	17022	0	316
-0.649	-10.530	16417	16907	0	316
0.541	-8.799	16408	16749	0	316
2.416	-8.366	16384	16556	0	316
5.337	-4.796	16351	16351	0	316
6.022	-3.065	16312	16130	0	316
5.265	-4.364	16263	15909	0	316
1.010	-8.366	16215	15698	1	316
-2.596	-11.504	16166	15515	0	316
-4.724	-14.785	16133	15361	0	316
-4.147	-12.658	16084	15237	0	316
-1.587	-11.287	16036	15136	0	316
0.865	-6.924	15987	15059	0	316
1.010	-6.888	15948	15006	0	316
-0.505	-7.825	15900	14977	0	316
-5.301	-10.674	15866	14972	0	316
-9.268	-14.966	15827	14996	0	316
-10.133	-14.172	15793	15040	0	316
-6.527	-11.323	15769	15097	0	316
0.974	-4.075	15721	15169	0	316
7.357	1.839	15706	15251	0	316
8.114	3.823	15682	15405	0	316
6.852	-0.072	15730	15750	0	316
0.505	-8.186	15755	16240	0	316
-4.652	-13.451	15793	16633	0	316
-7.248	-15.975	15827	16936	0	316
-4.724	-13.415	15900	17344	0	316
-0.974	-6.671	15987	17853	0	316
3.173	-0.541	16036	18233	0	316
6.527	1.623	16084	18396	0	316
4.724	-0.505	16118	18430	0	316
-0.433	-4.724	16142	18377	0	316
-6.960	-10.242	16181	18262	0	316
-9.412	-13.451	16181	18113	0	316
-8.114	-11.648	16181	17940	0	316
-3.534	-9.340	16166	17748	0	316
3.570	-5.626	16166	17527	0	316
6.383	-4.327	16157	17296	0	316
4.472	-3.895	16157	17070	0	316
-0.325	-7.609	16133	16845	0	316
-4.832	-10.783	16108	16633	0	316
-4.724	-12.261	16094	16441	0	316
-0.865	-9.340	16070	16264	0	316
5.914	-5.445	16045	16096	0	316
8.439	-4.255	16021	15947	0	316
6.924	-6.671	15987	15808	0	316
-0.721	-14.353	15987	15755	0	316
-7.573	-21.637	16021	15909	0	316
-11.215	-26.217	16045	16226	0	316
-8.583	-24.198	16094	16537	0	316
0.613	-16.300	16191	16955	0	316
8.547	-8.979	16312	17642	0	316
11.323	-3.426	16432	18338	0	316
10.097	-1.334	16529	18723	0	316
3.210	-5.229	16611	18828	0	316
-1.190	-7.862	16674	18790	0	316
-1.406	-8.186	16708	18660	0	316
3.606	-2.488	16723	18420	0	316
7.681	2.524	16732	18093	0	316
12.081	7.465	16732	17719	0	316
14.245	11.035	16708	17330	0	316
18.031	11.540	16684	16926	0	316
15.471	9.917	16660	16513	0	316
15.867	7.645	16626	16116	0	316
12.874	8.835	16577	15731	0	316
14.389	9.304	16529	15381	0	316
14.317	9.340	16490	15141	0	316
19.185	13.091	16505	15121	0	316
20.447	14.100	16505	15275	0	316
22.935	13.343	16490	15366	0	316
21.962	17.526	16514	15395	0	316
23.080	17.057	16539	15573	0	316
22.935	19.113	16577	15875	0	316
22.178	15.651	16602	16077	0	316
23.152	14.245	16635	16168	0	316
24.558	11.648	16674	16356	0	316
23.945	8.619	16708	16628	0	316
24.162	9.556	16747	16782	0	316
22.611	10.602	16757	16739	0	316
20.303	10.855	16747	16585	0	316
20.411	7.321	16732	16388	0	316
17.274	5.481	16708	16164	0	316
15.290	0.938	16674	15914	0	316
13.451	0.902	16626	15659	0	316
15.615	4.977	16563	15405	0	316
18.788	9.989	16529	15160	0	316
24.270	15.110	16466	14929	0	316
25.099	18.428	16408	14718	0	316
24.342	17.815	16351	14535	0	316
21.818	16.661	16288	14386	0	316
17.346	12.261	16229	14276	0	316
18.067	9.989	16191	14271	0	316
16.228	8.006	16181	14492	0	316
17.743	7.681	16181	14881	0	316
16.156	7.248	16191	15213	0	316
15.110	3.570	16205	15467	0	316
10.386	0.938	16239	15851	0	316
6.239	-1.442	16288	16332	0	316
4.616	-4.580	16312	16672	0	316
4.327	-4.832	16360	16883	0	316
3.462	-6.563	16408	17186	0	316
2.019	-11.251	16466	17575	0	316
-2.128	-12.874	16505	17829	0	316
-3.318	-15.615	16553	17935	0	316
-1.731	-13.704	16611	18113	0	316
1.082	-15.651	16684	18362	0	316
0.361	-15.759	16708	18454	0	316
-3.318	-18.247	16732	18334	0	316
-8.871	-22.322	16747	18108	0	316
-13.451	-22.611	16747	17824	0	316
-13.451	-20.700	16723	17507	0	316
-10.242	-19.546	16684	17166	0	316
-8.366	-16.985	16650	16801	0	316
-7.609	-18.680	16611	16432	0	316
-8.691	-21.277	16577	16092	0	316
-13.054	-25.965	16514	15770	0	316
-16.372	-28.237	16466	15477	0	316
-16.444	-28.092	16408	15208	0	316
-15.182	-25.496	16351	14963	0	316
-13.054	-23.549	16288	14751	0	316
-12.838	-24.270	16254	14646	0	316
-16.228	-26.542	16239	14775	0	316
-18.320	-29.968	16263	15078	0	316
-21.926	-32.384	16254	15333	0	316
-20.591	-32.059	16263	15501	0	316
-20.087	-30.400	16302	15784	0	316
-20.916	-27.696	16336	16188	0	316
-22.070	-27.768	16360	16475	0	316
-24.486	-24.739	16384	16648	0	316
-26.794	-26.722	16442	16917	0	316
-26.073	-29.715	16490	17277	0	316
-24.450	-31.122	16539	17498	0	316
-21.060	-30.184	16553	17498	0	316
-13.523	-23.729	16563	17378	0	316
-9.088	-16.589	16539	17190	0	316
-5.265	-8.006	16514	16960	0	316
-5.193	-7.825	16490	16696	0	316
-8.907	-11.828	16442	16417	0	316
-12.009	-16.913	16417	16154	0	316
-12.441	-21.060	16375	15904	0	316
-9.376	-19.654	16336	15688	0	316
-5.229	-15.903	16278	15491	0	316
-2.416	-10.999	16229	15318	0	316
-0.180	-8.475	16181	15179	0	316
-2.092	-10.746	16133	15064	0	316
-4.724	-13.487	16108	15044	0	316
-7.321	-18.897	16118	15241	0	316
-9.376	-18.031	16157	15611	0	316
-9.556	-19.221	16157	15914	0	316
-10.169	-15.903	16166	16120	0	316
-10.025	-15.975	16229	16489	0	316
-9.484	-15.290	16351	17147	0	316
-9.629	-13.307	16442	17815	0	316
-12.982	-13.956	16529	18257	0	316
-15.687	-14.245	16626	18622	0	316
-23.008	-19.401	16708	18987	0	316
-25.135	-22.106	16795	19155	0	316
-24.306	-23.729	16844	19064	0	316
-19.113	-18.247	16853	18823	0	316
-13.559	-13.091	16853	18492	0	316
-14.894	-9.737	16853	18074	0	316
-15.687	-11.179	16820	17618	1	616
-16.084	-13.668	16781	17138	0	616
-16.769	-14.821	16747	16657	0	616
-12.369	-15.074	16698	16197	0	616
-9.737	-11.251	16626	15760	0	616
-6.131	-7.212	16553	15352	0	616
-2.272	-5.085	16505	14977	0	616
-0.721	-4.724	16417	14651	0	616
-1.154	-6.996	16360	14377	0	616
-4.111	-8.294	16312	14223	0	616
-7.032	-7.068	16288	14300	0	616
-6.094	-6.239	16302	14550	0	616
-5.013	-2.885	16278	14742	0	616
-5.481	-5.229	16263	14876	0	616
-10.025	-12.514	16288	15160	0	616
-15.543	-17.706	16326	15573	0	616
-20.339	-22.503	16336	15875	0	616
-19.618	-23.981	16360	16063	0	616
-20.267	-21.673	16393	16336	0	616
-18.644	-20.591	16442	16701	0	616
-19.005	-18.139	16466	16945	0	616
-20.267	-18.897	16490	17008	0	616
-19.185	-17.743	16505	17008	0	616
-18.283	-19.185	16490	16984	0	616
-14.064	-16.985	16505	16888	0	616
-11.792	-16.048	16466	16725	0	616
-7.934	-9.881	16442	16523	0	616
-5.554	-5.698	16408	16308	0	616
-2.272	-1.046	16375	16082	0	616
-2.019	1.154	16326	15866	0	616
0.541	2.705	16278	15654	0	616
3.282	4.940	16239	15458	0	616
7.321	6.780	16181	15280	0	616
10.314	12.189	16133	15126	0	616
12.514	13.848	16070	15006	0	616
14.425	13.956	16021	14915	0	616
12.838	17.815	15987	14857	0	616
17.310	19.582	15924	14838	0	616
21.204	23.585	15890	14857	0	616
27.840	29.318	15852	14886	0	616
29.246	33.466	15803	14934	0	616
30.725	32.492	15779	14996	0	616
27.732	33.610	15730	15073	0	616
24.594	31.266	15730	15232	0	616
20.844	27.515	15745	15597	0	616
15.362	23.404	15793	16106	0	616
10.169	18.247	15827	16523	0	616
5.013	12.189	15852	16849	0	616
0.685	8.835	15939	17286	0	616
2.380	10.061	16011	17815	0	616
5.265	13.235	16060	18204	0	616
7.898	14.389	16118	18372	0	616
7.104	16.336	16142	18420	0	616
5.590	11.756	16191	18391	0	616
3.065	10.278	16191	18295	0	616
2.741	10.278	16191	18141	0	616
6.383	11.215	16191	17954	0	616
11.720	15.326	16191	17738	0	616
14.172	19.582	16181	17503	0	616
17.238	19.546	16166	17272	0	616
15.507	20.591	16166	17051	0	616
15.507	20.808	16133	16840	0	616
11.864	18.969	16108	16638	0	616
11.720	20.627	16094	16436	0	616
13.091	20.916	16070	16255	0	616
14.208	20.952	16045	16087	0	616
16.408	17.923	16011	15928	0	616
12.766	14.894	16011	15856	0	616
10.242	11.973	16045	16058	0	616
6.852	11.143	16157	16604	0	616
4.616	10.278	16229	17229	0	616
6.924	9.881	16312	17671	0	616
7.429	9.484	16432	18117	0	616
6.924	4.904	16577	18771	0	616
2.885	-1.479	16708	19385	0	616
-3.534	-5.121	16820	19659	0	616
-9.701	-9.773	16902	19626	0	616
-16.120	-12.261	16941	19409	0	616
-16.697	-13.668	16989	19068	0	616
-17.202	-13.776	16975	18641	0	616
-13.956	-15.002	16989	18165	1	320
-12.622	-13.127	16975	17652	0	320
-13.668	-11.143	16926	17118	0	320
-16.408	-12.297	16902	16590	0	320
-21.637	-14.605	16844	16082	0	320
-23.837	-20.700	16805	15587	0	320
-26.073	-23.044	16732	15126	0	320
-25.496	-25.712	16660	14713	0	320
-26.830	-26.145	16602	14348	0	320
-25.316	-23.260	16529	14031	0	320
-25.424	-21.024	16456	13772	0	320
-21.601	-16.192	16393	13575	0	320
-16.661	-11.900	16326	13435	0	320
-15.435	-7.393	16263	13344	0	320
-14.713	-10.242	16215	13301	0	320
-20.303	-13.163	16142	13301	0	320
-24.775	-18.067	16108	13407	0	320
-28.922	-23.188	16133	13800	0	320
-29.859	-25.640	16191	14559	0	320
-30.761	-26.830	16254	15385	0	320
-31.951	-30.977	16302	15967	0	320
-37.144	-35.052	16351	16308	0	320
-41.255	-38.045	16375	16518	0	320
-44.537	-39.199	16384	16652	0	320
-42.842	-36.278	16384	16701	0	320
-38.731	-31.662	16384	16681	0	320
-35.918	-28.669	16360	16619	0	320
-34.583	-28.705	16336	16528	0	320
-35.485	-30.689	16312	16412	0	320
-34.692	-31.879	16278	16288	0	320
-32.312	-30.689	16239	16159	0	320
-28.850	-28.850	16205	16034	0	320
-27.299	-26.542	16166	15928	0	320
-29.643	-26.794	16142	15837	0	320
-29.859	-24.630	16094	15760	0	320
-27.479	-19.690	16084	15693	0	320
-19.654	-13.451	16036	15640	0	320
-13.451	-6.022	15997	15597	0	320
-9.773	-2.380	15973	15568	0	320
-10.927	-4.508	15939	15549	0	320
-16.444	-7.898	15890	15554	0	320
-19.762	-13.343	15900	15645	0	320
-21.890	-17.021	15939	16000	0	320
-22.503	-23.008	16021	16691	0	320
-25.784	-25.171	16118	17440	0	320
-29.174	-28.886	16205	17988	0	320
-31.843	-30.508	16336	18468	0	320
-34.547	-30.869	16408	18948	0	320
-34.656	-31.554	16505	19237	0	320
-32.708	-30.292	16553	19275	0	320
-30.725	-28.994	16602	19164	0	320
-28.237	-27.047	16626	18963	0	320
-25.640	-22.899	16635	18684	0	320
-22.431	-21.277	16635	18358	0	320
-19.401	-17.382	16626	17993	0	320
-21.637	-20.519	16602	17608	0	320
-21.565	-21.998	16587	17219	0	320
-23.909	-25.568	16553	16835	0	320
-25.171	-26.830	16529	16460	0	320
-21.709	-21.673	16480	16120	0	320
-16.877	-14.930	16432	15808	0	320
-12.369	-8.475	16393	15525	0	320
-7.862	-5.157	16351	15270	0	320
-6.094	-5.770	16302	15059	0	320
-3.354	-4.255	16254	14881	0	320
-2.633	-2.921	16215	14742	0	320
-1.587	-1.046	16191	14699	0	320
-2.056	-0.902	16215	14929	0	320
-1.803	-0.144	16278	15520	0	320
0.433	0.613	16351	16173	0	320
3.029	1.875	16417	16648	0	320
3.534	2.416	16529	17138	0	320
0.072	-0.144	16660	17844	0	320
-5.013	-6.275	16795	18516	0	320
-7.789	-8.619	16868	18857	0	320
-7.573	-7.609	16950	18900	0	320
-1.695	-1.190	16999	18780	0	320
3.282	3.210	16999	18545	0	320
6.131	6.816	17023	18218	0	320
5.554	5.734	16999	17810	0	320
2.669	-0.757	16975	17359	0	320
-1.731	-6.671	16926	16878	0	320
-5.626	-11.937	16892	16403	0	320
-9.592	-16.913	16844	15952	0	320
-9.845	-12.441	16771	15520	0	320
-5.157	-8.042	16708	15126	0	320
-0.216	0.649	16650	14771	0	320
4.327	4.544	16587	14454	0	320
3.210	2.596	16505	14185	0	320
-4.544	-3.787	16442	13964	0	320
-12.586	-12.225	16375	13786	0	320
-14.569	-15.939	16302	13661	0	320
-9.340	-11.432	16239	13580	0	320
-1.046	-4.003	16166	13555	0	320
5.554	4.832	16118	13580	0	320
6.816	7.789	16070	13704	0	320
2.128	6.599	16094	14045	0	320
-4.580	0.613	16094	14550	0	320
-9.088	-5.409	16084	14982	0	320
-11.468	-8.150	16108	15294	0	320
-10.530	-10.061	16133	15669	0	320
-7.862	-8.186	16181	16106	0	320
-6.311	-6.744	16181	16441	0	320
-7.104	-6.960	16191	16633	0	320
-7.321	-9.881	16191	16744	0	320
-4.977	-12.658	16205	16801	0	320
-1.947	-10.746	16191	16821	0	320
0.505	-10.963	16181	16806	0	320
-2.416	-11.179	16181	16763	0	320
-8.835	-12.658	16142	16705	0	320
-15.687	-20.303	16118	16628	0	320
-20.267	-24.414	16108	16552	0	320
-17.670	-25.135	16070	16475	0	320
-15.471	-23.332	16070	16403	0	320
-11.215	-18.788	16021	16346	0	320
-9.701	-15.110	16011	16288	0	320
-5.950	-9.556	15973	16240	0	320
-3.246	-5.301	15987	16236	0	320
-1.839	-7.068	15973	16360	0	320
-1.479	-7.753	15997	16571	0	320
-3.426	-10.566	16036	16797	0	320
-6.816	-9.484	16094	17171	0	320
-8.402	-9.556	16205	17824	0	320
-10.819	-6.996	16326	18492	0	320
-12.622	-10.710	16408	18867	0	320
-14.966	-17.454	16490	19025	0	320
-20.555	-24.739	16577	19227	0	320
-22.683	-29.787	16674	19467	0	320
-23.765	-30.725	16723	19525	0	320
-24.558	-28.417	16781	19347	0	320
-20.808	-25.820	16805	19049	0	320
-21.024	-25.135	16805	18684	0	320
-22.503	-26.794	16805	18257	0	320
-23.440	-28.417	16795	17791	1	532
-23.621	-26.614	16757	17301	0	532
-22.034	-23.512	16708	16801	0	532
-16.877	-20.627	16674	16312	0	532
-16.012	-17.779	16626	15847	0	532
-14.713	-20.880	16553	15424	0	532
-14.245	-19.942	16505	15054	0	532
-14.208	-19.690	16442	14742	0	532
-10.746	-16.552	16384	14478	0	532
-7.898	-12.910	16326	14262	0	532
-2.416	-7.212	16263	14093	0	532
3.498	-1.839	16215	13973	0	532
7.429	1.983	16157	13892	0	532
9.232	3.210	16133	13921	0	532
7.717	1.659	16118	14175	0	532
1.695	-0.072	16157	14607	0	532
-2.272	-2.128	16166	15030	0	532
-1.298	-0.144	16229	15530	0	532
2.236	2.308	16326	16269	0	532
5.662	4.039	16432	17027	0	532
6.491	1.479	16490	17512	0	532
2.200	-3.606	16553	17724	0	532
-6.311	-8.691	16587	17767	0	532
-13.091	-11.179	16587	17709	0	532
-13.163	-11.684	16602	17570	0	532
-11.720	-8.042	16602	17378	0	532
-4.904	-2.741	16577	17138	0	532
2.164	-0.361	16553	16873	0	532
5.445	-0.036	16514	16600	0	532
3.498	-2.488	16480	16341	0	532
-1.659	-6.671	16442	16082	0	532
-8.042	-12.838	16393	15818	0	532
-10.494	-15.867	16351	15578	0	532
-9.304	-12.622	16302	15371	0	532
-2.849	-8.835	16254	15208	0	532
3.390	-3.210	16215	15078	0	532
7.898	2.236	16166	14987	0	532
8.475	4.291	16133	14924	0	532
5.301	1.406	16094	14944	0	532
2.056	-1.911	16133	15169	0	532
-1.587	-4.688	16133	15558	0	532
-3.426	-6.491	16166	15938	0	532
-1.983	-5.734	16254	16403	0	532
1.262	-4.400	16360	17123	0	532
1.370	-1.803	16456	17853	0	532
0.252	-3.714	16539	18281	0	532
-2.777	-3.606	16611	18487	0	532
-6.960	-7.176	16698	18727	0	532
-9.809	-9.124	16781	18992	0	532
-11.756	-9.592	16844	19078	0	532
-11.756	-12.333	16878	18939	0	532
-10.494	-11.937	16892	18665	0	532
-12.405	-12.838	16902	18319	0	532
-16.012	-16.048	16868	17916	0	532
-17.526	-16.480	16868	17488	0	532
-22.142	-17.274	16829	17046	0	532
-24.162	-17.923	16771	16604	0	532
-22.719	-18.247	16747	16183	0	532
-23.224	-21.673	16684	15775	0	532
-23.368	-22.467	16626	15390	0	532
-19.149	-20.231	16553	15030	0	532
-15.218	-15.975	16490	14703	0	532
-11.287	-10.602	16417	14420	0	532
-9.881	-8.402	16375	14247	0	532
-12.514	-11.937	16360	14324	0	532
-13.523	-12.550	16360	14588	0	532
-13.920	-14.317	16360	14852	0	532
-9.412	-9.160	16408	15227	0	532
-5.157	-3.859	16490	15880	0	532
-4.147	-4.364	16563	16547	0	532
-7.934	-6.852	16626	16945	0	532
-17.346	-15.290	16674	17138	0	532
-25.532	-21.493	16747	17392	0	532
-31.879	-27.515	16795	17695	0	532
-33.285	-27.191	16844	17829	0	532
-31.807	-26.938	16853	17733	0	532
-29.715	-27.119	16844	17527	0	532
-24.811	-25.207	16844	17248	0	532
-18.644	-19.401	16805	16912	0	532
-12.405	-13.199	16771	16537	0	532
-7.645	-7.321	16708	16173	0	532
-5.806	-5.301	16660	15808	0	532
-7.248	-8.258	16602	15467	0	532
-8.727	-12.838	16539	15155	0	532
-7.789	-11.071	16466	14876	0	532
-5.662	-7.934	16393	14636	0	532
-2.452	-2.236	16336	14425	0	532
0.865	2.596	16263	14252	0	532
1.623	3.498	16191	14127	0	532
0.541	3.137	16133	14045	0	532
-0.938	2.560	16070	14007	0	532
-2.380	-0.180	16036	14017	0	532
0.433	2.092	15973	14132	0	532
5.409	4.868	15987	14458	0	532
12.333	11.035	15997	14963	0	532
18.608	16.048	15997	15385	0	532
19.690	19.726	16011	15712	0	532
17.598	15.435	16070	16149	0	532
10.169	11.973	16133	16676	0	532
2.633	7.032	16157	17085	0	532
-1.298	3.318	16181	17301	0	532
-3.967	1.911	16191	17402	0	532
-4.940	-0.252	16215	17435	0	532
-4.940	-1.226	16205	17397	0	532
-2.524	-1.839	16191	17306	0	532
0.216	-1.226	16191	17176	0	532
4.580	0.288	16166	17027	0	532
4.868	0.902	16133	16869	0	532
0.000	-0.180	16108	16710	0	532
-6.131	-3.534	16084	16561	0	532
-9.701	-5.590	16060	16422	0	532
-11.504	-7.285	16021	16303	0	532
-6.167	-4.111	15987	16192	0	532
-0.036	0.865	15963	16101	0	532
4.147	7.573	15939	16024	0	532
5.986	9.232	15915	15967	0	532
3.173	5.698	15890	15923	0	532
-2.019	-1.226	15900	15962	0	532
-7.032	-7.681	15900	16197	0	532
-7.429	-8.979	15948	16590	0	532
-4.111	-3.787	16021	16960	0	532
0.036	2.993	16094	17411	0	532
2.813	6.527	16229	18108	0	532
0.216	4.111	16351	18804	0	532
-3.642	-1.262	16442	19188	0	532
-8.871	-7.681	16514	19285	0	532
-12.189	-9.989	16563	19227	0	532
-10.494	-8.439	16602	19059	0	532
-5.337	-3.931	16611	18795	0	532
0.144	1.767	16635	18473	0	532
4.544	3.606	16626	18108	1	520
1.082	-1.010	16611	17719	0	520
-6.599	-11.756	16602	17315	0	520
-16.120	-22.395	16553	16902	0	520
-23.837	-30.977	16529	16499	0	520
-26.109	-30.689	16480	16125	0	520
-21.637	-26.578	16442	15775	0	520
-21.132	-20.844	16393	15453	0	520
-18.247	-19.690	16351	15165	0	520
-19.401	-21.565	16312	14915	0	520
-18.500	-22.322	16254	14703	0	520
-18.897	-24.162	16191	14531	0	520
-15.687	-22.827	16157	14454	0	520
-15.254	-20.447	16157	14598	0	520
-13.415	-20.231	16181	14929	0	520
-14.785	-17.995	16205	15270	0	520
-13.271	-19.293	16263	15717	0	520
-13.235	-15.939	16384	16417	0	520
-11.251	-13.992	16480	17142	0	520
-10.350	-10.494	16539	17584	0	520
-6.960	-7.032	16626	17820	0	520
-4.688	-4.544	16708	18084	0	520
-0.072	-1.947	16781	18372	0	520
2.272	-0.721	16829	18482	0	520
3.895	-0.649	16868	18358	0	520
3.318	-1.442	16878	18103	0	520
-0.613	-4.291	16868	17772	0	520
-3.101	-6.671	16853	17392	0	520
-8.366	-9.737	16829	16984	0	520
-11.576	-13.018	16781	16561	0	520
-11.720	-10.783	16732	16140	0	520
-12.514	-10.566	16684	15726	0	520
-11.540	-9.304	16626	15342	0	520
-9.953	-9.232	16553	15001	0	520
-11.468	-11.900	16505	14718	0	520
-13.487	-12.045	16432	14487	0	520
-12.550	-12.441	16375	14295	0	520
-10.422	-8.475	16312	14141	0	520
-5.229	-4.075	16254	14041	0	520
0.325	-3.823	16215	13983	0	520
3.642	-2.993	16157	14002	0	520
2.741	-4.183	16157	14242	0	520
-1.406	-6.708	16205	14795	0	520
-6.527	-9.665	16254	15443	0	520
-10.638	-11.864	16288	15899	0	520
-13.163	-14.821	16312	16202	0	520
-14.208	-15.254	16375	16576	0	520
-11.323	-11.251	16432	17027	0	520
-8.763	-8.150	16466	17325	0	520
-7.970	-5.049	16490	17402	0	520
-7.573	-4.940	16505	17354	0	520
-6.960	-6.996	16505	17243	0	520
-6.491	-7.285	16490	17094	0	520
-5.229	-6.167	16456	16912	0	520
-0.505	-4.868	16432	16715	0	520
-0.180	-5.301	16393	16499	0	520
-0.505	-7.140	16360	16284	0	520
-0.865	-10.061	16326	16067	0	520
-4.616	-12.766	16278	15861	0	520
-9.953	-16.336	16229	15683	0	520
-15.038	-18.283	16205	15534	0	520
-18.464	-19.978	16157	15409	0	520
-16.264	-18.860	16118	15304	0	520
-13.848	-16.516	16070	15217	0	520
-12.045	-14.172	16021	15150	0	520
-11.648	-15.867	15987	15112	0	520
-14.136	-14.641	15963	15160	0	520
-13.559	-16.372	15973	15429	0	520
-10.783	-13.307	15997	15861	0	520
-7.248	-9.268	16036	16269	0	520
-3.390	-3.750	16142	16763	0	520
1.010	1.406	16239	17517	0	520
4.255	3.678	16360	18281	0	520
8.114	5.013	16442	18747	0	520
10.674	6.203	16514	18920	0	520
14.821	10.025	16553	18929	0	520
15.975	13.163	16602	18819	0	520
19.077	16.516	16611	18603	0	520
20.195	20.231	16611	18310	0	520
23.801	22.611	16611	17969	0	520
23.981	23.981	16577	17599	0	520
24.594	25.424	16553	17219	0	520
21.673	21.637	16514	16849	0	520
14.389	15.759	16490	16489	0	520
10.494	11.504	16432	16154	0	520
8.583	10.530	16393	15842	0	520
9.124	10.386	16351	15554	0	520
8.619	9.268	16302	15299	0	520
3.678	2.885	16263	15083	0	520
-3.642	-4.111	16205	14915	0	520
-8.294	-9.773	16157	14785	0	520
-5.590	-9.160	16133	14742	0	520
1.370	-3.282	16142	14910	0	520
11.504	4.291	16157	15246	0	520
16.697	6.167	16181	15592	0	520
11.756	4.039	16263	16053	0	520
4.400	-2.019	16360	16768	0	520
-3.931	-8.475	16466	17493	0	520
-5.085	-7.501	16529	17911	0	520
-1.623	-2.308	16602	18113	0	520
7.104	4.904	16698	18358	0	520
14.821	10.458	16781	18646	0	520
15.687	11.468	16820	18751	0	520
15.254	11.396	16868	18617	0	520
11.684	9.556	16892	18362	0	520
8.078	6.780	16878	18041	0	520
2.741	5.265	16868	17661	0	520
3.246	3.173	16853	17243	0	520
5.770	4.977	16795	16806	0	520
12.081	10.278	16757	16370	0	520
19.257	15.939	16708	15933	0	520
23.909	18.320	16650	15525	0	520
19.077	15.507	16587	15150	0	520
13.054	7.140	16514	14819	0	520
4.616	-0.721	16456	14535	0	520
-1.262	-5.914	16384	14290	0	520
-4.255	-7.501	16336	14161	0	520
-4.977	-5.842	16326	14262	0	520
-3.859	-2.596	16326	14559	0	520
-1.515	0.108	16351	14872	0	520
-1.370	-2.128	16393	15299	0	520
-2.741	-6.744	16490	15995	0	520
-7.537	-12.802	16563	16705	0	520
-11.648	-19.618	16635	17138	0	520
-15.398	-21.565	16698	17363	0	520
-13.559	-20.772	16757	17627	0	520
-13.740	-18.283	16820	17930	0	520
-11.071	-14.894	16868	18069	0	520
-6.167	-9.917	16892	17978	0	520
-2.344	-6.527	16892	17762	0	520
2.236	-1.947	16892	17474	0	520
6.635	0.721	16844	17133	0	520
9.232	1.334	16829	16758	0	520
8.943	1.406	16781	16380	0	520
8.294	2.993	16723	16005	0	520
5.770	2.019	16650	15630	0	520
2.164	1.839	16587	15270	0	520
0.793	2.524	16514	14929	0	520
0.325	1.623	16442	14617	0	520
1.442	2.200	16375	14348	0	520
-1.118	0.865	16302	14141	0	520
-3.823	-1.479	16229	13988	0	520
-5.986	-3.426	16157	13882	0	520
-6.203	-5.770	16108	13820	0	520
-4.760	-6.455	16021	13810	0	520
-2.633	-6.780	15987	13901	0	520
-4.436	-9.160	15987	14218	0	520
-7.717	-11.756	15987	14694	0	520
-10.458	-16.985	15973	15107	0	520
-13.307	-19.185	15997	15433	0	520
-15.290	-23.440	16045	15880	0	520
-15.074	-24.775	16094	16441	0	520
-19.582	-25.712	16133	16883	0	520
-19.798	-26.830	16157	17123	0	520
-19.726	-26.181	16166	17248	0	520
-16.697	-22.467	16191	17306	0	520
-13.776	-19.113	16181	17296	0	520
-10.927	-18.716	16166	17229	0	520
-12.874	-18.824	16142	17114	0	520
-13.776	-20.988	16133	16965	0	520
-8.691	-18.320	16094	16806	0	520
-2.596	-12.261	16070	16648	0	520
4.688	-4.219	16036	16489	0	520
7.825	-0.216	15997	16346	0	520
3.065	-2.633	15963	16207	0	520
-6.131	-8.439	15948	16087	0	520
-11.900	-13.776	15890	15991	0	520
-13.451	-16.661	15876	15919	0	520
-9.520	-13.018	15827	15861	0	520
-2.596	-6.311	15793	15818	0	520
4.436	-0.036	15793	15851	0	520
8.619	3.426	15818	16096	0	520
6.852	1.334	15866	16494	0	520
0.180	-5.986	15900	16883	0	520
-8.402	-13.487	15987	17363	0	520
-12.766	-17.310	16133	18098	0	520
-13.884	-19.041	16254	18828	0	520
-8.042	-11.648	16351	19246	0	520
0.649	-3.750	16432	19419	0	520
5.481	1.983	16553	19611	0	520
6.491	3.750	16635	19818	0	520
7.176	2.885	16708	19837	0	520
4.327	-1.587	16757	19626	0	520
3.714	-2.164	16771	19285	0	520
5.770	-1.875	16781	18871	0	520
8.114	0.577	16795	18406	0	520
11.540	3.173	16771	17911	1	744
15.759	9.160	16732	17397	0	744
21.241	14.208	16698	16883	0	744
25.135	16.120	16660	16384	0	744
24.342	14.785	16602	15914	0	744
21.890	10.530	16553	15472	0	744
17.562	7.321	16480	15068	0	744
13.127	9.160	16432	14723	0	744
13.054	13.271	16375	14425	0	744
17.166	16.985	16336	14238	0	744
17.274	21.132	16336	14286	0	744
18.464	18.608	16326	14535	0	744
14.533	15.723	16336	14809	0	744
8.871	8.763	16393	15198	0	744
1.803	1.983	16490	15866	0	744
-2.128	-3.065	16563	16561	0	744
-1.370	-3.426	16635	16974	0	744
2.200	-2.957	16698	17186	0	744
6.671	-0.577	16781	17440	0	744
7.393	-0.757	16829	17743	0	744
7.285	-1.479	16892	17868	0	744
1.767	-3.426	16926	17772	0	744
-0.144	-6.780	16916	17546	0	744
-2.164	-8.222	16916	17248	0	744
-1.875	-8.943	16868	16893	0	744
-0.541	-9.124	16844	16489	0	744
0.288	-7.573	16795	16072	0	744
-0.541	-7.248	16723	15650	0	744
-1.046	-7.357	16650	15256	0	744
-1.587	-10.638	16587	14891	0	744
-1.334	-13.451	16514	14569	0	744
0.072	-13.992	16442	14300	0	744
1.947	-15.146	16375	14089	0	744
2.849	-12.009	16312	13925	0	744
2.524	-9.160	16239	13805	0	744
0.036	-9.196	16166	13733	0	744
-1.587	-12.946	16108	13704	0	744
-4.868	-13.992	16045	13714	0	744
-7.753	-16.552	15997	13824	0	744
-9.268	-15.831	15997	14161	0	744
-9.196	-15.795	16036	14665	0	744
-8.294	-14.317	16011	15102	0	744
-8.439	-15.507	16036	15453	0	744
-11.720	-18.464	16084	15919	0	744
-15.290	-20.303	16142	16465	0	744
-20.087	-23.152	16166	16878	0	744
-18.933	-25.099	16181	17085	0	744
-16.661	-24.162	16191	17186	0	744
-13.235	-23.621	16205	17214	0	744
-15.615	-24.162	16191	17181	0	744
-17.021	-26.542	16181	17099	0	744
-18.572	-25.316	16181	16979	0	744
-13.812	-23.765	16133	16845	0	744
-7.862	-19.726	16108	16710	0	744
-1.298	-14.858	16084	16580	0	744
1.587	-12.730	16045	16465	0	744
2.957	-11.179	16036	16365	0	744
2.849	-8.727	15997	16264	0	744
4.688	-6.996	15973	16178	0	744
4.760	-7.681	15939	16096	0	744
3.678	-11.576	15900	16029	0	744
0.793	-14.894	15890	15986	0	744
-3.426	-20.267	15866	15957	0	744
-6.455	-20.159	15842	16005	0	744
-8.366	-20.231	15890	16250	0	744
-11.107	-18.211	15924	16638	0	744
-11.720	-18.175	15963	17018	0	744
-9.953	-16.769	16070	17493	0	744
-8.691	-15.831	16205	18213	0	744
-6.816	-14.713	16326	18929	0	744
-4.616	-16.300	16417	19333	0	744
-6.960	-17.093	16490	19429	0	744
-8.547	-19.942	16553	19366	0	744
-8.799	-18.464	16587	19193	0	744
-5.842	-15.579	16611	18924	0	744
0.000	-8.943	16611	18579	0	744
9.629	-1.118	16602	18185	0	744
16.444	4.147	16587	17767	0	744
21.745	6.744	16563	17344	0	744
18.067	4.111	16529	16921	0	744
12.514	-2.524	16490	16508	0	744
6.239	-7.537	16456	16125	0	744
3.029	-9.953	16408	15765	0	744
7.140	-9.665	16360	15443	0	744
14.172	-4.039	16312	15155	0	744
20.267	0.757	16263	14910	0	744
25.460	5.698	16215	14718	0	744
21.277	7.248	16181	14574	0	744
15.795	3.967	16142	14526	0	744
9.881	1.118	16157	14694	0	744
6.635	-1.659	16166	15035	0	744
7.609	-3.895	16205	15371	0	744
7.934	0.000	16263	15818	0	744
7.573	-0.180	16375	16528	0	744
5.481	-0.829	16480	17258	0	744
2.596	-2.705	16553	17704	0	744
2.885	-4.364	16635	17940	0	744
4.940	-4.039	16723	18204	0	744
5.842	-1.911	16795	18502	0	744
6.383	0.757	16868	18612	0	744
4.760	4.147	16902	18492	0	744
4.364	3.390	16902	18242	0	744
2.596	1.226	16916	17916	0	744
4.760	-0.216	16892	17531	0	744
7.825	0.000	16868	17104	0	744
11.179	2.813	16829	16657	0	744
13.163	3.859	16781	16216	0	744
11.973	1.226	16723	15779	0	744
6.671	-5.301	16660	15361	0	744
2.560	-11.468	16602	14977	0	744
1.226	-13.018	16529	14641	0	744
3.895	-7.898	16456	14358	0	744
9.665	-1.983	16384	14122	0	744
11.864	2.488	16326	13964	0	744
10.133	1.587	16288	13945	0	744
6.744	0.469	16254	14045	0	744
3.714	-2.092	16239	14199	0	744
3.895	-3.426	16263	14550	0	744
5.121	-5.337	16326	15208	0	744
4.291	-8.114	16384	15923	0	744
2.488	-9.917	16432	16384	0	744
-1.010	-11.179	16480	16648	0	744
-5.698	-14.713	16539	16974	0	744
-8.907	-17.382	16602	17363	0	744
-8.655	-20.844	16635	17594	0	744
-5.770	-18.464	16650	17603	0	744
-0.252	-14.353	16674	17493	0	744
3.967	-6.852	16660	17325	0	744
2.416	-7.393	16650	17104	0	744
-4.400	-10.602	16611	16849	0	744
-11.323	-19.149	16577	16566	0	744
-11.684	-21.926	16529	16284	0	744
-8.078	-21.024	16490	16000	0	744
-0.974	-17.310	16432	15722	0	744
2.633	-11.035	16375	15458	0	744
1.911	-7.501	16312	15222	0	744
0.361	-7.862	16254	15020	0	744
-1.370	-8.366	16215	14867	0	744
2.416	-10.206	16142	14747	0	744
6.671	-6.996	16094	14665	0	744
10.061	-5.734	16045	14612	0	744
10.133	-2.056	15997	14593	0	744
9.701	0.108	15963	14679	0	744
6.671	-1.442	15973	14977	0	744
4.075	-4.832	15997	15433	0	744
-0.613	-9.556	16036	15871	0	744
-5.626	-13.163	16094	16388	0	744
-10.242	-18.788	16205	17152	0	744
-14.641	-22.106	16326	17935	0	744
-15.398	-24.955	16393	18420	0	744
-18.211	-31.518	16466	18617	0	744
-21.493	-34.403	16505	18646	0	744
-25.279	-36.711	16529	18569	0	744
-26.109	-37.793	16539	18396	0	744
-22.755	-34.259	16539	18156	0	744
-19.329	-32.492	16514	17858	0	744
-14.497	-30.004	16505	17531	1	624
-14.749	-29.210	16466	17186	0	624
-18.175	-30.004	16432	16845	0	624
-22.935	-33.429	16393	16528	0	624
-24.450	-34.764	16360	16231	0	624
-22.286	-32.528	16312	15943	0	624
-15.615	-27.047	16263	15683	0	624
-7.357	-20.736	16239	15453	0	624
0.000	-15.398	16181	15261	0	624
1.334	-14.713	16133	15107	0	624
0.144	-17.562	16084	14977	0	624
-0.865	-17.202	16060	14934	0	624
-1.190	-16.228	16070	15107	0	624
1.479	-9.701	16070	15433	0	624
5.626	-3.606	16094	15760	0	624
8.655	2.633	16166	16192	0	624
9.773	3.534	16278	16897	0	624
8.763	2.344	16384	17627	0	624
5.085	-2.308	16456	18065	0	624
-2.019	-9.412	16529	18271	0	624
-7.285	-12.946	16626	18521	0	624
-9.304	-13.920	16698	18804	0	624
-8.835	-13.668	16747	18891	0	624
-5.517	-11.071	16795	18742	0	624
-6.527	-10.025	16820	18478	0	624
-8.583	-15.507	16795	18161	0	624
-13.848	-20.159	16805	17791	0	624
-12.766	-22.467	16781	17378	0	624
-10.206	-19.546	16732	16945	0	624
-7.898	-17.887	16698	16513	0	624
-8.330	-13.704	16650	16101	0	624
-11.864	-17.670	16602	15712	0	624
-13.776	-20.664	16553	15357	0	624
-14.425	-23.873	16490	15040	0	624
-11.107	-23.873	16417	14756	0	624
-7.573	-19.690	16375	14521	0	624
-9.881	-21.637	16312	14329	0	624
-14.100	-22.322	16254	14189	0	624
-16.372	-24.811	16205	14084	0	624
-17.670	-25.604	16157	14079	0	624
-12.441	-19.293	16166	14353	0	624
-5.590	-12.838	16254	14982	0	624
-1.118	-7.176	16302	15688	0	624
-2.741	-6.527	16336	16149	0	624
-8.727	-13.379	16360	16380	0	624
-15.507	-21.601	16375	16484	0	624
-20.303	-27.696	16375	16518	0	624
-18.716	-29.066	16375	16494	0	624
-15.507	-23.152	16351	16432	0	624
-10.638	-18.247	16326	16341	0	624
-8.727	-14.172	16302	16226	0	624
-11.035	-17.346	16278	16106	0	624
-13.343	-19.293	16239	15986	0	624
-14.821	-22.286	16215	15861	0	624
-16.228	-22.935	16181	15755	0	624
-14.172	-18.716	16133	15669	0	624
-15.110	-19.293	16118	15597	0	624
-14.569	-18.320	16070	15534	0	624
-15.903	-19.798	16021	15486	0	624
-12.405	-17.526	15997	15443	0	624
-8.691	-15.723	15963	15409	0	624
-7.176	-11.540	15924	15405	0	624
-3.642	-10.602	15890	15424	0	624
-3.678	-8.439	15876	15453	0	624
-4.400	-9.196	15852	15549	0	624
-6.275	-9.953	15900	15914	0	624
-7.537	-9.304	15987	16614	0	624
-8.222	-8.619	16070	17383	0	624
-7.609	-6.275	16181	17959	0	624
-2.344	-4.977	16302	18521	0	624
2.236	-2.560	16456	19275	0	624
4.616	-3.210	16602	19971	0	624
3.462	-8.763	16723	20317	0	624
-2.092	-13.307	16795	20327	0	624
-9.052	-16.372	16853	20144	0	624
-15.939	-20.159	16892	19827	0	624
-20.087	-18.933	16892	19409	0	624
-16.480	-18.283	16916	18915	0	624
-13.740	-15.362	16892	18367	0	624
-8.186	-16.661	16844	17796	1	316
-5.013	-16.552	16805	17234	0	316
-6.960	-20.519	16771	16691	0	316
-9.160	-21.745	16708	16188	0	316
-11.684	-22.070	16650	15707	0	316
-10.242	-20.195	16587	15265	0	316
-8.727	-17.923	16529	14867	0	316
-8.655	-19.185	16466	14516	0	316
-9.376	-18.752	16393	14218	0	316
-11.360	-20.844	16336	13973	0	316
-11.215	-18.320	16278	13834	0	316
-7.140	-16.913	16278	13988	0	316
0.757	-11.828	16326	14521	0	316
6.852	-8.835	16375	15155	0	316
9.232	-6.491	16417	15626	0	316
8.006	-7.501	16505	16130	0	316
1.659	-10.963	16626	16859	0	316
-6.239	-16.120	16747	17575	0	316
-9.845	-17.743	16805	17973	0	316
-9.592	-17.346	16868	18069	0	316
-7.140	-15.254	16902	18002	0	316
-3.101	-11.432	16902	17824	0	316
-4.616	-13.776	16902	17551	0	316
-6.527	-16.372	16878	17214	0	316
-13.343	-22.539	16829	16830	0	316
-16.841	-25.676	16795	16422	0	316
-18.969	-27.407	16732	16015	0	316
-19.726	-26.325	16674	15606	0	316
-15.362	-22.142	16626	15237	0	316
-11.792	-16.048	16539	14915	0	316
-5.986	-12.153	16480	14646	0	316
-3.606	-8.475	16417	14420	0	316
-2.705	-9.016	16351	14238	0	316
-7.104	-14.425	16278	14089	0	316
-10.566	-20.880	16215	13983	0	316
-11.684	-24.162	16142	13930	0	316
-9.592	-24.739	16108	13911	0	316
-5.806	-23.512	16036	13925	0	316
-2.993	-20.952	15973	13978	0	316
-1.659	-16.877	15948	14122	0	316
-4.796	-17.815	15973	14540	0	316
-5.698	-16.661	16036	15304	0	316
-9.268	-18.752	16108	16130	0	316
-14.425	-19.618	16157	16701	0	316
-17.887	-23.188	16215	17032	0	316
-22.250	-25.496	16229	17229	0	316
-20.880	-27.768	16239	17325	0	316
-20.808	-29.138	16239	17349	0	316
-17.851	-29.715	16229	17310	0	316
-18.788	-29.715	16229	17229	0	316
-19.762	-30.112	16215	17114	0	316
-23.008	-31.987	16191	16969	0	316
-24.378	-33.826	16166	16806	0	316
-23.188	-33.610	16133	16643	0	316
-22.286	-32.348	16094	16489	0	316
-22.034	-32.384	16070	16346	0	316
-20.591	-33.177	16036	16202	0	316
-23.765	-34.115	16011	16077	0	316
-23.837	-33.718	15963	15976	0	316
-22.611	-30.220	15939	15904	0	316
-20.700	-26.614	15915	15847	0	316
-17.634	-23.981	15876	15799	0	316
-16.913	-22.503	15842	15760	0	316
-14.100	-22.395	15827	15741	0	316
-15.651	-20.664	15803	15794	0	316
-14.677	-22.611	15842	16053	0	316
-19.329	-22.647	15866	16465	0	316
-21.854	-26.145	15900	16797	0	316
-26.542	-29.246	15948	17042	0	316
-31.771	-30.761	16011	17397	0	316
-31.374	-30.508	16094	17858	0	316
-32.672	-33.357	16157	18180	0	316
-30.148	-30.617	16205	18286	0	316
-27.299	-30.689	16239	18266	0	316
-26.037	-30.653	16254	18165	0	316
-23.981	-29.427	16263	17997	0	316
-21.998	-27.551	16263	17796	0	316
-20.664	-26.686	16254	17555	0	316
-18.031	-24.017	16239	17301	0	316
-18.788	-24.378	16229	17037	0	316
-19.618	-25.171	16205	16787	0	316
-18.247	-23.188	16181	16556	0	316
-17.851	-20.916	16166	16346	0	316
-16.697	-19.221	16133	16140	0	316
-16.733	-17.526	16094	15957	0	316
-17.634	-19.726	16084	15803	0	316
-19.726	-21.132	16045	15693	0	316
-17.166	-21.601	16045	15606	0	316
-17.598	-19.546	15997	15539	0	316
-16.408	-20.159	15987	15491	0	316
-14.172	-19.690	15987	15520	0	316
-17.021	-20.231	16011	15760	0	316
-18.392	-23.440	16060	16159	0	316
-25.063	-26.866	16118	16537	0	316
-31.013	-32.456	16205	17013	0	316
-36.351	-37.000	16351	17728	0	316
-38.190	-41.003	16466	18434	0	316
-38.370	-41.760	16563	18833	0	316
-39.921	-42.950	16635	18934	0	316
-41.688	-43.347	16698	18871	0	316
-40.678	-42.517	16723	18684	0	316
-35.810	-38.406	16732	18410	0	316
-27.876	-33.321	16732	18084	0	316
-21.241	-27.299	16747	17724	0	316
-17.670	-24.739	16723	17349	0	316
-18.283	-23.873	16684	16960	0	316
-21.926	-22.899	16660	16576	0	316
-20.591	-21.745	16635	16202	0	316
-20.050	-17.490	16602	15842	0	316
-16.120	-16.156	16539	15510	0	316
-15.435	-16.084	16514	15275	0	316
-15.110	-19.005	16529	15270	0	316
-19.401	-21.998	16529	15443	0	316
-20.664	-21.962	16539	15563	0	316
-23.729	-23.909	16539	15582	0	316
-22.899	-22.899	16563	15683	0	316
-23.585	-24.378	16611	15957	0	316
-24.089	-26.037	16650	16255	0	316
-26.578	-28.958	16684	16456	0	316
-26.289	-30.797	16781	16758	0	316
-28.489	-33.610	16878	17306	0	316
-30.581	-37.180	16965	17839	0	316
-32.853	-41.075	17038	18060	0	316
-37.324	-47.386	17071	18007	0	316
-40.714	-49.585	17096	17815	0	316
-38.622	-46.376	17086	17522	0	316
-32.600	-39.272	17086	17162	0	316
-24.414	-29.787	17038	16753	0	316
-17.634	-20.664	16999	16327	0	316
-16.120	-18.283	16965	15895	0	316
-16.841	-18.788	16892	15477	0	316
-20.087	-20.519	16829	15083	0	316
-21.673	-24.053	16757	14718	0	316
-21.241	-26.722	16674	14391	0	316
-24.919	-30.148	16611	14113	0	316
-26.181	-30.364	16539	13882	0	316
-26.722	-28.092	16466	13704	0	316
-25.965	-24.053	16393	13575	0	316
-21.637	-16.805	16326	13493	0	316
-16.264	-12.730	16254	13450	0	316
-17.274	-11.792	16181	13435	0	316
-17.887	-15.362	16108	13469	0	316
-23.909	-21.854	16070	13541	0	316
-29.463	-29.282	16011	13695	0	316
-33.285	-31.771	16011	14060	0	316
-34.367	-33.538	16021	14593	0	316
-33.646	-30.833	16021	15054	0	316
-30.941	-27.624	16021	15424	0	316
-28.561	-25.604	16070	15895	0	316
-28.453	-26.722	16108	16456	0	316
-28.922	-25.099	16166	16897	0	316
-28.056	-25.460	16181	17162	0	316
-27.948	-22.863	16191	17310	0	316
-25.676	-19.582	16205	17397	0	316
-22.611	-19.257	16205	17411	0	316
-20.231	-18.536	16191	17363	0	316
-19.546	-19.870	16166	17277	0	316
-19.257	-20.447	16166	17157	0	316
-16.661	-15.579	16133	17027	0	316
-15.975	-14.281	16108	16902	0	316
-15.903	-11.756	16094	16782	0	316
-14.317	-9.556	16060	16672	0	316
-12.369	-11.323	16045	16556	0	316
-7.789	-10.025	16011	16456	0	316
-2.452	-5.950	15987	16380	0	316
0.433	-4.940	15973	16312	0	316
-1.947	-5.554	15939	16255	0	316
-9.665	-10.891	15924	16212	0	316
-18.969	-17.382	15915	16236	0	316
-21.709	-21.818	15963	16499	0	316
-23.188	-22.322	16036	17099	0	316
-22.178	-21.132	16133	17752	0	316
-19.978	-17.706	16215	18213	0	316
-22.683	-18.572	16360	18675	0	316
-23.224	-19.942	16505	19342	0	316
-23.332	-22.142	16635	19962	0	316
-23.044	-21.313	16747	20240	0	316
-19.077	-19.041	16829	20192	0	316
-19.221	-17.670	16868	19971	0	316
-17.959	-13.091	16916	19630	0	316
-17.851	-13.992	16926	19188	0	316
-12.081	-10.530	16916	18675	1	724
-5.554	-5.193	16902	18122	0	724
2.272	0.216	16853	17541	0	724
4.940	4.616	16820	16965	0	724
3.606	3.931	16781	16403	0	724
-2.236	-0.108	16723	15885	0	724
-4.472	-0.721	16650	15400	0	724
-2.488	1.875	16587	14968	0	724
3.823	4.147	16529	14583	0	724
9.376	8.439	16456	14247	0	724
13.018	9.016	16393	13969	0	724
12.261	8.871	16326	13743	0	724
9.701	7.321	16278	13637	0	724
8.114	6.527	16278	13839	0	724
9.773	6.744	16326	14415	0	724
13.740	6.239	16375	15073	0	724
16.589	8.835	16432	15558	0	724
17.887	9.232	16514	16067	0	724
14.100	8.655	16635	16792	0	724
14.100	6.527	16747	17507	0	724
11.612	6.708	16805	17911	0	724
14.461	7.898	16868	18007	0	724
14.389	8.907	16902	17940	0	724
15.471	9.376	16892	17762	0	724
18.356	10.566	16892	17498	0	724
21.241	14.713	16868	17176	0	724
26.181	17.706	16829	16811	0	724
30.256	23.080	16795	16422	0	724
30.833	23.188	16757	16039	0	724
29.823	20.195	16674	15659	0	724
28.489	20.952	16626	15304	0	724
26.289	20.123	16553	14982	0	724
27.191	21.637	16490	14699	0	724
27.587	19.329	16417	14449	0	724
26.001	18.247	16351	14242	0	724
25.027	15.939	16288	14089	0	724
22.250	13.740	16215	13969	0	724
16.805	11.432	16157	13949	0	724
12.910	11.035	16166	14146	0	724
9.016	7.681	16142	14516	0	724
2.957	5.085	16133	14824	0	724
0.577	1.623	16133	15064	0	724
-2.128	-4.400	16181	15506	0	724
-3.354	-8.835	16263	16255	0	724
-5.229	-10.602	16351	17013	0	724
-5.445	-8.691	16408	17498	0	724
-6.239	-8.475	16456	17724	0	724
-7.032	-9.484	16480	17800	0	724
-10.133	-13.343	16490	17772	0	724
-16.372	-19.654	16505	17661	0	724
-19.221	-23.080	16490	17503	0	724
-21.998	-25.496	16480	17315	0	724
-19.077	-26.938	16456	17104	0	724
-17.057	-26.217	16417	16864	0	724
-13.127	-25.424	16384	16614	0	724
-15.543	-22.034	16336	16356	0	724
-16.192	-18.572	16302	16101	0	724
-18.428	-17.887	16263	15880	0	724
-17.166	-18.320	16215	15688	0	724
-19.618	-22.683	16166	15515	0	724
-21.204	-29.138	16118	15366	0	724
-28.092	-33.934	16070	15246	0	724
-32.961	-37.468	16021	15160	0	724
-38.262	-39.163	15987	15107	0	724
-39.812	-41.471	15948	15083	0	724
-39.849	-44.933	15900	15078	0	724
-39.740	-46.340	15876	15097	0	724
-37.937	-47.169	15866	15203	0	724
-36.098	-45.294	15876	15520	0	724
-32.384	-41.543	15915	15986	0	724
-30.617	-38.875	15948	16365	0	724
-32.239	-40.570	15963	16633	0	724
-35.341	-42.373	16036	17022	0	724
-39.019	-44.969	16108	17507	0	724
-40.930	-45.835	16157	17853	0	724
-37.613	-42.337	16191	17993	0	724
-30.545	-35.954	16215	18017	0	724
-24.919	-32.312	16254	17969	0	724
-22.683	-31.554	16254	17863	0	724
-21.565	-33.069	16254	17714	0	724
-21.421	-32.889	16239	17531	0	724
-16.552	-28.164	16229	17335	0	724
-7.898	-20.447	16239	17128	0	724
-2.344	-13.776	16205	16912	0	724
-2.200	-13.091	16181	16696	0	724
-6.816	-15.615	16157	16494	0	724
-10.963	-21.024	16133	16312	0	724
-14.930	-24.306	16118	16202	0	724
-13.127	-26.542	16157	16293	0	724
-13.091	-28.128	16181	16547	0	724
-15.182	-29.391	16205	16729	0	724
-18.103	-33.177	16229	16830	0	724
-25.568	-38.190	16302	17051	0	724
-29.354	-41.363	16360	17378	0	724
-32.023	-41.904	16408	17575	0	724
-30.581	-38.947	16442	17623	0	724
-26.938	-32.744	16514	17752	0	724
-23.837	-29.751	16563	17969	0	724
-21.241	-26.938	16611	18050	0	724
-20.519	-27.119	16635	17940	0	724
-19.582	-27.335	16650	17719	0	724
-16.192	-27.191	16650	17445	0	724
-15.723	-27.876	16650	17138	0	724
-13.091	-26.001	16626	16811	0	724
-11.576	-23.837	16587	16484	0	724
-7.717	-18.392	16563	16159	0	724
0.036	-10.963	16514	15842	0	724
7.140	-3.895	16480	15549	0	724
12.586	-1.262	16432	15280	0	724
11.756	0.757	16384	15035	0	724
11.107	-0.902	16336	14833	0	724
5.662	-1.406	16288	14675	0	724
3.967	-2.380	16263	14617	0	724
4.796	-2.056	16263	14780	0	724
4.075	-2.200	16312	15112	0	724
5.517	-5.265	16302	15400	0	724
4.039	-7.176	16326	15611	0	724
2.019	-7.140	16384	15986	0	724
-0.721	-7.825	16480	16585	0	724
-3.246	-7.717	16539	17162	0	724
-3.426	-8.114	16626	17536	0	724
-2.777	-8.330	16723	17877	0	724
-1.587	-7.212	16805	18237	0	724
-1.875	-7.970	16853	18425	0	724
-5.626	-10.458	16902	18372	0	724
-7.429	-12.802	16926	18189	0	724
-10.783	-19.113	16926	17920	0	724
-9.556	-18.572	16916	17584	0	724
-8.258	-16.192	16878	17195	0	724
-5.193	-12.694	16853	16773	0	724
-5.049	-9.376	16805	16336	0	724
-6.996	-9.701	16747	15899	0	724
-7.104	-9.989	16684	15486	0	724
-6.960	-11.828	16626	15112	0	724
-5.049	-11.720	16553	14780	0	724
-2.993	-11.396	16490	14497	0	724
-2.200	-8.475	16408	14262	0	724
-3.714	-6.816	16360	14137	0	724
-7.285	-6.888	16351	14233	0	724
-10.025	-7.862	16351	14516	0	724
-15.326	-9.701	16336	14771	0	724
-16.444	-11.179	16351	14963	0	724
-14.930	-12.946	16375	15285	0	724
-13.271	-13.740	16393	15717	0	724
-10.133	-13.343	16417	16034	0	724
-12.117	-18.788	16442	16226	0	724
-20.123	-21.962	16490	16499	0	724
-25.568	-26.830	16529	16859	0	724
-28.056	-27.696	16553	17085	0	724
-24.594	-24.594	16587	17176	0	724
-16.120	-17.346	16626	17363	0	724
-10.458	-12.405	16684	17632	0	724
-7.212	-13.127	16723	17752	0	724
-10.133	-15.507	16723	17661	0	724
-13.487	-20.195	16708	17459	0	724
-12.586	-17.815	16698	17210	0	724
-10.350	-15.507	16674	16907	0	724
-8.042	-9.160	16635	16595	0	724
-4.508	-9.737	16587	16288	0	724
-5.085	-8.222	16529	15991	0	724
-4.688	-6.888	16490	15698	0	724
-2.416	-6.167	16432	15424	0	724
-1.767	-3.173	16375	15174	0	724
-1.226	-1.551	16312	14944	0	724
-5.409	-1.623	16263	14751	0	724
-9.701	-4.724	16191	14593	0	724
-11.864	-7.609	16142	14535	0	724
-12.982	-9.340	16133	14708	0	724
-14.281	-11.360	16142	15064	0	724
-13.307	-13.127	16142	15357	0	724
-16.408	-15.507	16157	15568	0	724
-18.175	-18.103	16191	15899	0	724
-21.818	-23.368	16229	16346	0	724
-21.457	-25.568	16254	16672	0	724
-23.008	-24.919	16278	16873	0	724
-20.483	-23.440	16351	17152	0	724
-18.320	-21.890	16393	17507	0	724
-17.021	-18.897	16432	17714	0	724
-16.516	-17.093	16456	17728	0	724
-17.526	-15.362	16442	17642	0	724
-16.913	-16.480	16442	17498	0	724
-17.166	-15.579	16432	17301	0	724
-14.641	-14.930	16417	17070	0	724
-11.648	-12.874	16384	16830	0	724
-11.468	-7.393	16360	16590	0	724
-9.412	-3.787	16326	16356	0	724
-6.599	0.252	16278	16130	0	724
-3.426	3.534	16239	15914	0	724
1.370	6.527	16205	15717	0	724
3.390	7.321	16157	15539	0	724
0.325	5.409	16118	15390	0	724
-5.986	-0.938	16094	15328	0	724
-13.812	-7.501	16094	15486	0	724
-15.398	-8.114	16108	15813	0	724
-9.196	-4.832	16133	16077	0	724
0.469	6.203	16142	16245	0	724
9.917	16.769	16229	16585	0	724
14.497	18.211	16326	17224	0	724
8.222	14.245	16417	17882	0	724
0.108	5.373	16505	18314	0	724
-7.609	-2.019	16602	18655	0	724
-9.052	-3.967	16698	18987	0	724
-5.662	2.164	16781	19131	0	724
0.252	6.491	16820	19035	0	724
5.770	10.169	16829	18790	0	724
10.530	11.251	16853	18454	0	724
10.710	8.691	16829	18041	0	724
7.501	4.977	16805	17589	1	828
4.508	1.839	16781	17118	0	828
-0.252	1.442	16747	16652	0	828
-0.288	3.498	16674	16197	0	828
4.904	9.520	16635	15755	0	828
11.648	16.913	16563	15352	0	828
16.985	19.726	16505	14996	0	828
19.401	22.611	16442	14679	0	828
15.831	18.716	16375	14406	0	828
12.117	16.589	16312	14175	0	828
7.609	11.504	16239	13988	0	828
4.291	9.088	16181	13853	0	828
2.596	7.717	16118	13767	0	828
1.947	6.275	16060	13728	0	828
-0.865	5.373	16011	13796	0	828
-2.272	4.544	16011	14089	0	828
-4.147	3.210	16036	14564	0	828
-4.291	3.570	16045	15030	0	828
-4.111	5.445	16108	15592	0	828
-2.957	5.337	16229	16412	0	828
-1.010	5.157	16326	17262	0	828
-1.839	3.246	16408	17810	0	828
-3.246	-1.659	16480	18137	0	828
-7.429	-6.996	16577	18478	0	828
-9.304	-11.323	16674	18847	0	828
-10.494	-9.809	16708	19025	0	828
-8.439	-6.275	16771	18963	0	828
-5.554	-3.246	16781	18766	0	828
-6.708	-4.147	16795	18482	0	828
-11.468	-10.927	16771	18132	0	828
-16.661	-16.589	16757	17728	0	828
-17.526	-19.077	16732	17306	0	828
-16.084	-14.136	16684	16864	0	828
-12.405	-12.189	16626	16422	0	828
-11.251	-12.550	16577	15995	0	828
-14.641	-12.910	16514	15597	0	828
-15.543	-16.697	16456	15232	0	828
-16.336	-14.569	16384	14915	0	828
-12.910	-13.920	16326	14646	0	828
-12.189	-15.326	16254	14420	0	828
-15.290	-17.490	16191	14247	0	828
-17.670	-23.368	16133	14113	0	828
-21.673	-26.938	16070	14031	0	828
-22.142	-27.876	16021	14069	0	828
-20.195	-26.397	16021	14319	0	828
-20.700	-26.614	16036	14732	0	828
-20.159	-26.542	16036	15088	0	828
-22.791	-31.266	16045	15366	0	828
-25.063	-34.223	16084	15765	0	828
-27.047	-37.865	16142	16269	0	828
-26.614	-36.928	16166	16638	0	828
-24.450	-35.449	16181	16821	0	828
-22.755	-34.079	16191	16888	0	828
-21.998	-31.987	16205	16902	0	828
-23.116	-31.085	16191	16859	0	828
-26.758	-29.715	16166	16782	0	828
-24.125	-26.433	16157	16691	0	828
-24.522	-24.342	16133	16580	0	828
-23.332	-23.657	16108	16465	0	828
-21.998	-20.231	16084	16351	0	828
-23.873	-22.719	16045	16240	0	828
-22.899	-21.096	16021	16135	0	828
-15.759	-19.365	15987	16043	0	828
-7.898	-12.946	15963	15967	0	828
2.777	-6.491	15939	15909	0	828
8.402	-1.875	15900	15856	0	828
9.088	-2.056	15876	15813	0	828
4.219	-6.239	15852	15794	0	828
-2.308	-12.225	15842	15856	0	828
-5.842	-15.290	15866	16116	0	828
-5.301	-14.028	15924	16528	0	828
-3.967	-14.858	15963	16921	0	828
0.613	-11.828	16060	17392	0	828
0.793	-9.268	16191	18093	0	828
1.659	-11.360	16312	18795	0	828
0.469	-10.061	16393	19193	0	828
0.721	-12.550	16480	19357	0	828
0.577	-14.533	16587	19510	0	828
2.488	-14.749	16660	19664	0	828
4.472	-10.458	16732	19654	0	828
6.924	-6.599	16771	19443	0	828
8.547	-2.669	16795	19112	0	828
8.006	-0.216	16805	18699	0	828
6.924	-0.902	16805	18237	1	332
7.104	-2.741	16771	17752	0	332
9.629	-3.354	16747	17262	0	332
11.576	-1.082	16723	16782	0	332
12.982	1.298	16674	16322	0	332
14.569	3.606	16611	15880	0	332
10.494	4.003	16577	15467	0	332
8.511	1.551	16514	15083	0	332
6.599	-0.649	16456	14747	0	332
2.957	-4.003	16393	14454	0	332
1.190	-4.508	16360	14281	0	332
1.839	-4.075	16351	14343	0	332
4.039	-0.793	16351	14588	0	332
4.472	0.757	16360	14848	0	332
3.065	-0.469	16408	15222	0	332
-0.902	-5.121	16505	15861	0	332
-5.806	-11.071	16587	16532	0	332
-9.160	-16.913	16650	16926	0	332
-5.986	-14.064	16708	17123	0	332
-3.606	-12.946	16771	17359	0	332
-2.633	-9.773	16844	17632	0	332
-3.101	-9.376	16892	17743	0	332
-7.862	-12.730	16892	17632	0	332
-9.592	-16.913	16902	17402	0	332
-12.153	-17.418	16878	17114	0	332
-10.927	-18.572	16853	16777	0	332
-10.169	-15.471	16820	16408	0	332
-9.160	-13.668	16771	16039	0	332
-6.635	-12.658	16708	15669	0	332
-5.373	-12.838	16650	15313	0	332
-7.140	-13.740	16602	15011	0	332
-7.898	-12.730	16563	14848	0	332
-10.566	-14.930	16514	14809	0	332
-11.143	-16.372	16480	14756	0	332
-13.271	-21.709	16442	14708	0	332
-14.713	-22.863	16456	14848	0	332
-14.100	-25.135	16456	15150	0	332
-14.317	-21.313	16442	15366	0	332
-11.937	-18.788	16466	15491	0	332
-9.665	-19.473	16480	15726	0	332
-13.018	-21.024	16505	16067	0	332
-16.480	-25.352	16529	16298	0	332
-21.204	-28.345	16539	16398	0	332
-21.926	-28.489	16602	16662	0	332
-23.512	-28.345	16684	17205	0	332
-25.712	-29.968	16757	17748	0	332
-25.568	-30.941	16820	17997	0	332
-25.279	-31.987	16853	17983	0	332
-26.470	-32.492	16853	17839	0	332
-26.325	-33.538	16853	17608	0	332
-24.414	-31.013	16844	17310	0	332
-22.935	-29.571	16781	16955	0	332
-17.670	-25.712	16747	16571	0	332
-11.576	-19.726	16698	16188	0	332
-5.229	-13.379	16650	15818	0	332
-3.714	-11.720	16577	15467	0	332
-3.318	-11.251	16514	15145	0	332
-2.236	-9.376	16432	14867	0	332
-2.488	-10.746	16375	14631	0	332
-1.442	-12.081	16326	14434	0	332
-2.308	-11.071	16239	14276	0	332
-4.760	-14.064	16166	14151	0	332
-8.871	-15.723	16094	14065	0	332
-12.225	-18.500	16060	14084	0	332
-14.533	-20.339	16045	14334	0	332
-14.100	-23.332	16060	14751	0	332
-17.129	-24.955	16045	15116	0	332
-19.293	-27.732	16060	15409	0	332
-22.286	-27.624	16094	15818	0	332
-21.962	-28.705	16142	16327	0	332
-22.755	-26.830	16166	16701	0	332
-21.781	-27.010	16181	16883	0	332
-22.250	-28.237	16181	16960	0	332
-24.053	-28.056	16181	16965	0	332
-20.808	-27.371	16166	16907	0	332
-17.598	-23.729	16157	16816	0	332
-13.054	-20.231	16118	16701	0	332
-12.261	-17.670	16084	16566	0	332
-11.323	-17.129	16060	16427	0	332
-12.874	-13.199	16021	16298	0	332
-11.792	-9.881	15997	16188	0	332
-7.898	-5.662	15948	16092	0	332
-2.741	-3.750	15924	16000	0	332
0.577	-5.662	15890	15923	0	332
2.921	-6.167	15866	15923	0	332
3.534	-6.924	15890	16120	0	332
2.813	-4.580	15924	16460	0	332
2.452	-3.029	15924	16739	0	332
2.957	-0.757	15963	16917	0	332
2.164	-0.865	16060	17272	0	332
4.724	0.541	16157	17911	0	332
8.186	4.508	16254	18559	0	332
13.163	9.160	16360	18982	0	332
16.697	15.218	16490	19366	0	332
15.398	17.129	16635	19928	0	332
14.100	15.110	16771	20437	0	332
10.927	12.766	16878	20605	0	332
9.629	10.927	16965	20452	0	332
12.838	11.468	16989	20125	0	332
12.874	12.946	17023	19683	0	332
11.720	12.694	17023	19160	0	332
13.631	10.638	17023	18574	1	404
12.261	9.773	16975	17959	0	404
14.821	9.196	16950	17330	0	404
16.913	8.835	16916	16705	0	404
17.129	10.242	16844	16101	0	404
17.598	11.432	16781	15539	0	404
16.480	12.369	16723	15030	0	404
19.041	13.559	16635	14574	0	404
21.709	19.762	16553	14170	0	404
24.739	20.700	16480	13820	0	404
26.974	25.279	16408	13527	0	404
26.938	25.820	16326	13291	0	404
23.440	23.657	16263	13171	0	404
19.546	19.329	16254	13287	0	404
19.942	18.788	16229	13589	0	404
20.483	19.726	16205	13853	0	404
26.001	22.935	16191	14074	0	404
26.758	23.440	16215	14449	0	404
26.145	21.457	16254	14944	0	404
23.693	19.149	16263	15328	0	404
19.942	15.362	16278	15587	0	404
14.749	12.982	16326	15933	0	404
9.845	7.068	16360	16360	0	404
1.803	-0.793	16384	16662	0	404
-3.823	-10.530	16393	16773	0	404
-6.311	-14.172	16393	16777	0	404
-2.416	-14.461	16393	16725	0	404
-0.577	-11.828	16375	16638	0	404
0.721	-9.448	16351	16518	0	404
-3.354	-13.163	16326	16375	0	404
-9.088	-19.618	16288	16212	0	404
-15.110	-25.784	16263	16043	0	404
-13.343	-27.407	16215	15875	0	404
-9.448	-24.450	16166	15717	0	404
-3.714	-19.401	16118	15578	0	404
-1.154	-13.343	16084	15467	0	404
-3.967	-14.677	16036	15381	0	404
-8.835	-16.012	16011	15371	0	404
-13.848	-21.998	16011	15568	0	404
-17.310	-23.981	16036	15923	0	404
-16.733	-25.748	16060	16216	0	404
-15.471	-23.549	16070	16412	0	404
-10.133	-17.562	16133	16787	0	404
-5.013	-11.215	16239	17435	0	404
0.144	-4.508	16336	18079	0	404
3.498	1.911	16417	18497	0	404
1.839	1.118	16514	18838	0	404
-1.262	-1.154	16611	19179	0	404
-6.888	-7.285	16684	19342	0	404
-11.756	-14.677	16723	19261	0	404
-12.910	-20.375	16757	19030	0	404
-16.372	-22.106	16771	18703	0	404
-17.310	-23.008	16757	18295	0	404
-21.673	-23.765	16723	17848	0	404
-24.162	-24.089	16698	17383	0	404
-28.994	-29.354	16674	16926	0	404
-32.997	-34.872	16611	16475	0	404
-34.439	-39.091	16563	16043	0	404
-31.987	-36.567	16505	15635	0	404
-26.361	-30.977	16456	15270	0	404
-15.254	-21.818	16384	14953	0	404
-10.061	-14.641	16326	14689	0	404
-6.888	-15.038	16288	14473	0	404
-7.573	-16.084	16215	14295	0	404
-6.996	-18.788	16157	14165	0	404
-4.652	-17.238	16094	14079	0	404
-2.092	-14.533	16045	14041	0	404
0.325	-10.638	16021	14108	0	404
-0.397	-9.412	16021	14391	0	404
-0.144	-9.088	16036	14838	0	404
-0.721	-11.035	16070	15275	0	404
-1.875	-9.412	16133	15803	0	404
-3.282	-11.937	16254	16571	0	404
-5.409	-12.874	16336	17349	0	404
-7.501	-12.117	16417	17829	0	404
-8.078	-14.641	16480	18093	0	404
-9.448	-16.084	16577	18377	0	404
-11.864	-16.012	16650	18689	0	404
-12.874	-19.041	16708	18819	0	404
-11.396	-16.408	16732	18713	0	404
-8.871	-13.415	16732	18478	0	404
-2.957	-8.294	16747	18175	0	404
2.236	-5.301	16732	17824	0	404
5.878	-4.977	16708	17450	0	404
6.239	-5.085	16674	17066	0	404
3.895	-6.311	16650	16681	0	404
2.705	-5.265	16602	16298	0	404
0.180	-4.508	16553	15919	0	404
0.865	-4.219	16490	15558	0	404
2.777	-1.731	16432	15227	0	404
6.275	0.000	16360	14924	0	404
9.701	2.019	16302	14660	0	404
12.081	6.780	16263	14497	0	404
15.759	8.366	16254	14569	0	404
16.156	8.078	16239	14814	0	404
15.471	8.943	16239	15073	0	404
18.067	8.078	16302	15462	0	404
18.464	11.287	16384	16135	0	404
18.752	10.927	16466	16825	0	404
16.661	11.792	16529	17238	0	404
16.408	11.107	16587	17450	0	404
13.776	9.412	16674	17714	0	404
16.841	8.835	16732	18017	0	404
19.690	11.973	16771	18146	0	404
24.414	15.290	16795	18041	0	404
28.273	16.012	16805	17815	0	404
28.994	18.788	16781	17531	0	404
28.417	17.346	16771	17200	0	404
25.027	17.274	16732	16830	0	404
22.358	13.379	16684	16432	0	404
18.752	11.576	16626	16039	0	404
17.743	10.386	16577	15654	0	404
13.487	7.501	16505	15299	0	404
11.251	5.481	16442	14977	0	404
8.258	4.724	16375	14708	0	404
8.727	4.075	16312	14478	0	404
12.694	5.337	16239	14286	0	404
16.264	7.753	16181	14141	0	404
19.473	11.937	16108	14036	0	404
22.972	14.208	16036	13964	0	404
22.647	15.110	15987	13930	0	404
17.310	12.622	15948	13997	0	404
12.910	9.304	15939	14290	0	404
6.780	3.173	15948	14751	0	404
3.642	0.361	15948	15145	0	404
3.859	0.541	15963	15458	0	404
4.255	1.587	15997	15890	0	404
5.265	2.633	16045	16427	0	404
5.878	1.947	16094	16835	0	404
6.924	2.056	16108	17046	0	404
9.484	3.426	16118	17142	0	404
12.838	4.364	16118	17181	0	404
15.867	8.402	16118	17162	0	404
16.372	11.576	16118	17099	0	404
18.320	10.674	16094	17008	0	404
16.156	7.789	16070	16907	0	404
13.812	5.590	16060	16787	0	404
10.314	1.442	16036	16652	0	404
8.006	-2.128	15997	16513	0	404
3.678	-3.859	15963	16384	0	404
0.433	-7.068	15939	16269	0	404
-2.524	-12.874	15939	16231	0	404
-5.265	-17.598	15948	16388	0	404
-8.006	-20.303	15987	16710	0	404
-9.917	-20.014	16011	16960	0	404
-10.061	-21.241	16045	17109	0	404
-14.713	-20.411	16094	17368	0	404
-15.435	-22.250	16166	17733	0	404
-16.949	-26.686	16215	17978	0	404
-17.706	-25.568	16263	18093	0	404
-13.884	-26.686	16351	18295	0	404
-13.235	-25.388	16432	18579	0	404
-12.694	-26.217	16490	18718	0	404
-16.985	-29.102	16514	18641	0	404
-19.473	-30.725	16539	18454	0	404
-23.476	-30.797	16553	18199	0	404
-24.594	-28.561	16563	17892	0	404
-23.729	-26.506	16539	17546	0	404
-18.283	-21.313	16514	17181	0	404
-9.340	-17.021	16490	16801	0	404
-0.325	-8.799	16466	16432	0	404
7.501	-3.895	16432	16092	0	404
7.285	-2.669	16384	15765	0	404
4.760	-2.993	16336	15472	0	404
0.902	-6.780	16302	15217	0	404
-1.370	-8.655	16254	15001	0	404
-0.685	-7.140	16215	14876	0	404
-1.082	-4.940	16215	14972	0	404
0.505	-3.859	16239	15232	0	404
1.731	-5.229	16239	15438	0	404
2.488	-7.898	16254	15578	0	404
3.642	-10.061	16302	15847	0	404
2.236	-11.215	16336	16231	0	404
0.541	-10.638	16375	16480	0	404
0.397	-8.835	16393	16609	0	404
-0.505	-7.321	16466	16878	0	404
-0.325	-7.609	16577	17411	0	404
0.469	-9.484	16674	17954	0	404
-0.721	-9.232	16747	18209	0	404
2.488	-7.212	16771	18189	0	404
4.255	-5.626	16795	18026	0	404
3.173	-3.823	16805	17776	0	404
-1.659	-8.475	16795	17464	0	404
-8.727	-15.579	16771	17109	0	404
-15.398	-18.500	16747	16734	0	404
-12.694	-16.877	16708	16351	0	404
-7.248	-8.078	16650	15971	0	404
-1.190	-2.128	16587	15616	0	404
-0.685	-2.056	16539	15280	0	404
-1.767	-5.049	16480	14968	0	404
-5.301	-9.196	16417	14699	0	404
-4.868	-9.412	16360	14463	0	404
-1.406	-6.563	16288	14266	0	404
1.442	-2.344	16229	14113	0	404
4.940	0.685	16181	14012	0	404
6.744	1.587	16133	14026	0	404
7.212	2.416	16118	14257	0	404
10.061	3.787	16118	14655	0	404
10.674	3.210	16133	14987	0	404
8.583	2.272	16133	15237	0	404
8.294	-1.154	16191	15611	0	404
8.799	-3.390	16215	16106	0	404
8.799	-2.164	16254	16489	0	404
13.235	2.056	16288	16749	0	404
17.238	7.068	16351	17085	0	404
15.326	8.439	16408	17498	0	404
12.766	6.167	16442	17748	0	404
10.025	0.216	16466	17776	0	404
7.609	-3.354	16480	17685	0	404
7.573	-4.147	16480	17522	0	404
8.475	-3.570	16456	17315	0	404
9.484	-2.019	16442	17080	0	404
9.629	1.442	16417	16840	0	404
11.864	2.272	16384	16600	0	404
16.769	4.868	16351	16365	0	404
19.041	6.311	16312	16125	0	404
21.529	4.436	16263	15895	0	404
17.202	2.524	16215	15683	0	404
13.740	0.000	16166	15501	0	404
9.701	-1.695	16133	15352	0	404
9.773	-0.144	16094	15299	0	404
16.408	3.931	16118	15462	0	404
19.473	8.799	16133	15779	0	404
22.935	13.884	16133	16024	0	404
21.818	13.451	16157	16178	0	404
16.372	12.982	16215	16508	0	404
9.484	5.554	16312	17147	0	404
2.596	-0.938	16408	17800	0	404
-3.534	-5.698	16490	18237	0	404
-6.816	-7.285	16602	18588	0	404
-7.393	-7.934	16698	18934	0	404
-6.960	-9.520	16757	19088	0	404
-5.590	-9.953	16795	18977	0	404
-5.013	-12.946	16820	18708	0	404
-6.888	-15.687	16820	18348	0	404
-11.937	-19.257	16795	17925	0	404
-18.356	-22.106	16781	17488	1	944
-20.988	-24.702	16757	17042	0	944
-21.745	-26.866	16698	16590	0	944
-18.897	-26.866	16650	16144	0	944
-15.146	-26.181	16587	15712	0	944
-18.031	-27.299	16529	15318	0	944
-19.654	-28.814	16466	14968	0	944
-21.637	-27.948	16408	14660	0	944
-18.716	-28.814	16336	14396	0	944
-16.444	-24.666	16288	14242	0	944
-12.477	-23.224	16278	14324	0	944
-13.848	-20.087	16278	14593	0	944
-14.641	-19.870	16263	14814	0	944
-15.795	-23.044	16263	14972	0	944
-16.372	-24.306	16302	15337	0	944
-12.550	-22.250	16393	16010	0	944
-10.169	-18.500	16480	16701	0	944
-8.943	-13.054	16553	17186	0	944
-7.609	-12.550	16635	17589	0	944
-9.340	-13.235	16723	17983	0	944
-12.225	-14.605	16771	18194	0	944
-12.045	-16.336	16805	18165	0	944
-10.242	-12.550	16829	18002	0	944
-8.439	-12.189	16829	17757	0	944
-7.537	-10.746	16795	17445	0	944
-7.645	-10.999	16781	17094	0	944
-8.402	-12.153	16747	16729	0	944
-9.484	-13.884	16698	16356	0	944
-9.845	-12.946	16635	15971	0	944
-8.907	-15.759	16577	15602	0	944
-9.773	-15.507	16514	15265	0	944
-11.468	-16.444	16456	14958	0	944
-11.756	-17.490	16393	14703	0	944
-9.556	-18.824	16336	14502	0	944
-7.609	-16.264	16288	14406	0	944
-2.416	-10.638	16278	14535	0	944
2.272	-6.527	16278	14838	0	944
3.714	-3.318	16263	15078	0	944
1.479	-4.977	16239	15184	0	944
-3.390	-9.268	16263	15299	0	944
-6.780	-15.074	16263	15582	0	944
-10.350	-18.933	16302	15971	0	944
-10.999	-17.887	16326	16312	0	944
-8.511	-18.283	16393	16715	0	944
-7.104	-16.084	16505	17368	0	944
-4.868	-15.579	16602	18026	0	944
-4.796	-15.110	16660	18367	0	944
-5.337	-18.536	16732	18478	0	944
-7.357	-17.851	16805	18612	0	944
-8.006	-18.428	16853	18766	0	944
-6.671	-16.012	16902	18751	0	944
-6.275	-16.625	16926	18516	0	944
-7.068	-17.166	16902	18170	0	944
-9.124	-21.493	16892	17772	0	944
-11.612	-24.125	16853	17330	0	944
-11.360	-23.332	16820	16873	0	944
-5.842	-19.690	16771	16412	0	944
-0.144	-11.360	16723	15976	0	944
4.977	-6.924	16650	15544	0	944
5.121	-2.849	16563	15136	0	944
0.685	-3.931	16490	14761	0	944
-4.327	-6.708	16417	14434	0	944
-7.285	-9.845	16336	14161	0	944
-8.907	-12.910	16288	14012	0	944
-10.638	-17.598	16263	14108	0	944
-12.225	-18.320	16263	14386	0	944
-10.133	-18.067	16239	14617	0	944
-7.465	-12.946	16229	14780	0	944
-2.092	-9.268	16239	15083	0	944
-1.551	-7.573	16263	15510	0	944
-4.003	-10.819	16288	15832	0	944
-9.484	-16.012	16302	16039	0	944
-9.160	-19.942	16351	16336	0	944
-10.278	-18.356	16384	16705	0	944
-9.196	-18.464	16408	16941	0	944
-11.179	-20.375	16408	16979	0	944
-14.100	-21.204	16408	16926	0	944
-13.884	-23.981	16393	16821	0	944
-9.917	-21.637	16375	16662	0	944
-3.210	-17.743	16336	16465	0	944
-0.108	-11.504	16288	16245	0	944
1.298	-9.232	16239	16024	0	944
-2.596	-11.468	16191	15808	0	944
-5.590	-11.937	16142	15621	0	944
-7.068	-15.471	16094	15458	0	944
-3.246	-14.389	16036	15318	0	944
1.803	-11.864	15997	15222	0	944
6.131	-6.708	15948	15160	0	944
8.583	-3.570	15915	15184	0	944
6.527	-0.325	15924	15405	0	944
7.789	0.541	15948	15779	0	944
7.176	1.262	15948	16082	0	944
7.176	2.560	15973	16298	0	944
8.727	3.859	16045	16681	0	944
10.674	7.898	16142	17368	0	944
14.353	12.874	16239	18074	0	944
18.752	17.851	16336	18559	0	944
24.162	19.293	16442	18948	0	944
26.145	21.926	16539	19328	0	944
25.388	19.978	16626	19505	0	944
24.919	19.942	16660	19429	0	944
24.378	20.267	16698	19193	0	944
19.870	18.392	16708	18862	0	944
15.579	17.382	16698	18454	0	944
8.943	12.802	16674	18002	1	416
6.780	7.501	16650	17522	0	416
5.301	4.868	16611	17042	0	416
5.950	-0.252	16563	16571	0	416
5.265	-4.291	16505	16130	0	416
3.859	-6.599	16442	15707	0	416
2.164	-8.763	16384	15313	0	416
4.039	-8.186	16326	14963	0	416
8.186	-4.760	16263	14670	0	416
9.845	-0.325	16215	14497	0	416
7.104	1.226	16215	14555	0	416
2.236	1.334	16205	14795	0	416
-0.829	-1.623	16191	14982	0	416
-2.705	-3.787	16205	15112	0	416
0.325	-3.895	16229	15376	0	416
3.787	-1.406	16263	15755	0	416
5.734	2.633	16278	16029	0	416
7.176	5.842	16302	16188	0	416
8.619	6.924	16351	16446	0	416
8.655	5.806	16393	16811	0	416
9.773	4.147	16432	17042	0	416
7.789	2.849	16442	17066	0	416
7.862	1.911	16442	16974	0	416
9.196	4.796	16432	16825	0	416
10.133	7.429	16417	16643	0	416
11.251	10.278	16384	16441	0	416
9.665	10.458	16360	16231	0	416
5.986	7.681	16326	16015	0	416
4.147	5.662	16278	15794	0	416
2.669	2.488	16229	15587	0	416
2.849	1.767	16191	15390	0	416
-0.829	0.216	16133	15208	0	416
-3.678	-4.904	16084	15054	0	416
-8.979	-7.753	16021	14929	0	416
-10.242	-12.297	15973	14828	0	416
-8.655	-10.458	15924	14771	0	416
-5.698	-8.186	15890	14747	0	416
-5.662	-6.419	15827	14751	0	416
-7.645	-7.934	15827	14848	0	416
-10.638	-10.097	15827	15160	0	416
-13.271	-13.956	15866	15635	0	416
-15.110	-16.444	15876	16039	0	416
-13.271	-17.743	15915	16341	0	416
-13.054	-16.012	15973	16753	0	416
-10.422	-16.120	16045	17272	0	416
-5.662	-13.343	16094	17661	0	416
-2.669	-11.323	16142	17896	0	416
-2.957	-11.323	16229	18199	0	416
-5.698	-11.612	16312	18569	0	416
-12.297	-16.408	16375	18780	0	416
-15.543	-18.211	16408	18766	0	416
-19.005	-21.854	16432	18627	0	416
-16.697	-22.647	16442	18420	0	416
-19.942	-24.847	16442	18161	0	416
-21.493	-25.207	16442	17853	0	416
-26.145	-25.748	16417	17522	0	416
-28.128	-26.614	16408	17186	0	416
-28.814	-26.109	16375	16864	0	416
-27.443	-26.397	16351	16556	0	416
-26.974	-24.883	16312	16274	0	416
-25.929	-22.899	16278	15995	0	416
-23.296	-21.926	16229	15736	0	416
-19.293	-17.274	16191	15496	0	416
-17.274	-18.933	16166	15352	0	416
-17.815	-21.241	16181	15429	0	416
-22.863	-25.784	16191	15674	0	416
-26.506	-27.119	16191	15861	0	416
-27.335	-27.191	16229	15981	0	416
-21.060	-21.601	16263	16226	0	416
-12.514	-16.480	16312	16585	0	416
-7.862	-10.350	16351	16835	0	416
-4.868	-10.963	16393	16960	0	416
-6.167	-11.360	16456	17162	0	416
-8.294	-10.927	16514	17445	0	416
-9.376	-9.773	16553	17589	0	416
-6.996	-7.212	16577	17546	0	416
-2.488	-3.065	16577	17402	0	416
2.669	0.072	16577	17186	0	416
5.626	1.154	16553	16921	0	416
4.183	0.000	16539	16628	0	416
0.216	-2.633	16505	16336	0	416
-6.708	-5.770	16466	16043	0	416
-11.828	-8.907	16417	15760	0	416
-12.910	-11.648	16375	15482	0	416
-13.415	-8.511	16326	15222	0	416
-9.773	-4.796	16278	15001	0	416
-5.445	-3.101	16215	14824	0	416
-4.977	-1.479	16181	14689	0	416
-5.842	-5.373	16118	14579	0	416
-9.052	-9.556	16070	14506	0	416
-11.540	-11.973	16036	14468	0	416
-7.573	-9.196	15987	14463	0	416
-4.977	-6.491	15963	14545	0	416
-3.570	-6.311	15963	14848	0	416
-7.934	-8.943	15997	15304	0	416
-12.838	-13.054	16021	15693	0	416
-14.136	-14.353	16036	15986	0	416
-13.956	-15.579	16094	16375	0	416
-11.792	-14.497	16142	16845	0	416
-7.681	-12.550	16181	17186	0	416
-6.491	-10.494	16229	17320	0	416
-1.839	-6.167	16229	17349	0	416
5.265	-1.659	16239	17320	0	416
8.150	2.380	16229	17243	0	416
8.258	2.200	16215	17133	0	416
3.318	1.334	16215	17003	0	416
-3.606	-1.479	16205	16869	0	416
-6.094	-4.760	16181	16725	0	416
-6.383	-4.760	16181	16576	0	416
-1.947	-5.590	16142	16427	0	416
1.334	-4.616	16108	16288	0	416
5.373	-1.010	16084	16149	0	416
6.996	1.226	16045	16019	0	416
8.835	3.498	16060	15967	0	416
7.753	4.003	16060	16120	0	416
5.806	1.659	16094	16432	0	416
-1.154	-1.623	16118	16681	0	416
-5.878	-3.101	16157	16825	0	416
-7.176	-2.019	16229	17075	0	416
-2.993	1.010	16278	17431	0	416
3.823	5.301	16326	17671	0	416
8.835	5.193	16375	17776	0	416
9.124	4.219	16442	17959	0	416
5.878	-0.505	16514	18213	0	416
0.721	-2.777	16553	18329	0	416
0.757	-2.633	16611	18305	0	416
5.013	1.623	16674	18372	0	416
10.891	9.412	16757	18516	0	416
15.110	13.451	16795	18526	0	416
17.057	14.136	16820	18338	0	416
14.966	12.369	16844	18050	0	416
14.497	8.835	16829	17709	0	416
14.028	7.970	16805	17320	0	416
14.389	8.475	16795	16902	0	416
18.536	11.973	16771	16484	0	416
18.175	12.622	16708	16077	0	416
16.516	11.287	16660	15688	0	416
12.153	8.042	16611	15333	0	416
6.383	3.101	16563	15016	0	416
2.236	-1.659	16505	14732	0	416
4.183	-2.200	16456	14492	0	416
8.114	-0.902	16393	14290	0	416
9.737	0.433	16360	14189	0	416
9.160	-0.325	16351	14314	0	416
6.131	-2.056	16351	14617	0	416
1.587	-4.544	16351	14867	0	416
0.613	-4.544	16360	15040	0	416
2.669	-2.885	16393	15347	0	416
6.239	0.144	16432	15765	0	416
8.835	1.082	16456	16072	0	416
10.386	-0.036	16480	16255	0	416
8.619	0.288	16529	16518	0	416
5.554	-0.974	16577	16869	0	416
4.796	0.757	16626	17090	0	416
5.842	0.649	16626	17109	0	416
7.248	3.390	16635	17027	0	416
8.619	2.488	16626	16873	0	416
9.737	2.560	16587	16672	0	416
9.701	4.183	16553	16446	0	416
12.658	4.977	16529	16212	0	416
13.668	4.832	16480	15962	0	416
12.802	3.498	16432	15722	0	416
10.350	-0.216	16384	15486	0	416
2.993	-6.239	16326	15270	0	416
-3.210	-11.540	16278	15083	0	416
-5.914	-13.199	16229	14924	0	416
-5.662	-14.533	16166	14804	0	416
-2.957	-12.477	16133	14790	0	416
-0.108	-12.441	16133	14996	0	416
0.216	-13.704	16157	15361	0	416
-4.544	-15.615	16157	15654	0	416
-9.737	-20.736	16181	15875	0	416
-15.362	-23.368	16229	16274	0	416
-16.733	-26.578	16326	16950	0	416
-17.743	-26.758	16417	17647	0	416
-14.858	-26.614	16505	18127	0	416
-13.163	-21.673	16602	18521	0	416
-10.278	-19.762	16698	18900	0	416
-8.439	-17.166	16771	19092	0	416
-8.511	-17.454	16805	19035	0	416
-8.727	-17.418	16829	18838	0	416
-8.727	-18.247	16844	18559	0	416
-6.708	-13.379	16844	18204	0	416
-3.895	-10.963	16805	17796	1	732
-1.298	-8.402	16781	17354	0	732
-3.029	-7.934	16757	16907	0	732
-7.645	-11.540	16698	16465	0	732
-11.432	-15.867	16635	16048	0	732
-15.326	-18.356	16587	15659	0	732
-18.536	-23.224	16529	15313	0	732
-18.572	-26.217	16480	15006	0	732
-20.303	-28.705	16408	14737	0	732
-21.457	-31.699	16375	14574	0	732
-23.080	-33.934	16360	14622	0	732
-26.001	-33.646	16351	14843	0	732
-27.804	-32.131	16336	15016	0	732
-26.073	-29.643	16336	15126	0	732
-23.044	-28.669	16360	15361	0	732
-19.149	-27.191	16384	15717	0	732
-18.031	-26.830	16393	15981	0	732
-19.798	-27.191	16417	16130	0	732
-20.736	-23.621	16456	16380	0	732
-22.503	-20.267	16505	16720	0	732
-19.798	-18.752	16529	16945	0	732
-16.697	-16.228	16529	16974	0	732
-15.759	-15.435	16529	16897	0	732
-12.838	-13.235	16529	16768	0	732
-9.520	-13.668	16490	16590	0	732
-8.763	-13.199	16466	16384	0	732
-6.239	-13.018	16417	16159	0	732
-6.563	-15.326	16384	15928	0	732
-8.186	-16.264	16336	15712	0	732
-11.973	-17.562	16288	15520	0	732
-12.946	-14.208	16263	15347	0	732
-11.360	-11.576	16191	15184	0	732
-9.701	-7.825	16133	15035	0	732
-7.789	-6.419	16070	14920	0	732
-6.924	-9.052	16036	14843	0	732
-9.196	-14.100	15987	14799	0	732
-11.720	-15.182	15939	14790	0	732
-13.091	-17.562	15890	14790	0	732
-10.530	-14.966	15866	14867	0	732
-7.753	-11.432	15866	15160	0	732
-5.481	-11.251	15900	15630	0	732
-7.140	-12.405	15939	16034	0	732
-11.576	-15.398	15924	16288	0	732
-14.533	-20.664	15963	16523	0	732
-17.526	-20.736	16021	16902	0	732
-14.461	-19.978	16070	17387	0	732
-12.297	-19.834	16118	17752	0	732
-12.441	-21.241	16191	17978	0	732
-13.848	-25.171	16263	18276	0	732
-16.625	-27.227	16336	18627	0	732
-14.858	-22.719	16384	18819	0	732
-12.189	-17.634	16432	18804	0	732
-6.563	-8.907	16456	18670	0	732
-1.334	-4.291	16466	18458	0	732
-0.252	-3.426	16466	18194	0	732
0.974	-4.760	16466	17892	0	732
1.118	-6.419	16456	17570	0	732
1.226	-6.491	16432	17243	0	732
2.200	-7.285	16408	16926	0	732
3.065	-6.275	16384	16624	0	732
2.344	-5.734	16351	16332	0	732
2.777	-3.534	16312	16048	0	732
1.370	-2.885	16263	15784	0	732
-1.839	-3.390	16229	15554	0	732
-5.734	-5.662	16181	15357	0	732
-8.402	-8.258	16157	15193	0	732
-8.763	-8.799	16108	15049	0	732
-5.121	-8.114	16060	14953	0	732
-2.885	-5.734	16045	14958	0	732
0.649	-5.085	16060	15179	0	732
-0.793	-6.671	16108	15549	0	732
-4.291	-10.061	16118	15904	0	732
-10.097	-15.795	16191	16351	0	732
-13.487	-18.283	16326	17051	0	732
-15.471	-21.313	16432	17767	0	732
-14.281	-15.867	16514	18194	0	732
-9.016	-10.927	16587	18391	0	732
-7.753	-3.823	16660	18569	0	732
-4.400	-0.180	16732	18742	0	732
-4.364	1.767	16781	18747	0	732
-1.983	2.056	16820	18554	0	732
-0.974	1.695	16805	18257	0	732
0.433	1.551	16805	17892	0	732
1.731	0.865	16795	17483	0	732
2.560	0.829	16757	17046	0	732
4.544	1.298	16723	16604	0	732
7.970	2.308	16674	16183	0	732
9.556	4.977	16635	15775	0	732
13.956	7.104	16563	15405	0	732
12.838	10.133	16514	15083	0	732
14.821	12.658	16456	14795	0	732
15.615	14.497	16393	14540	0	732
15.975	17.598	16360	14386	0	732
18.356	16.264	16351	14468	0	732
16.336	16.228	16351	14737	0	732
13.884	13.343	16351	14958	0	732
7.429	8.366	16351	15116	0	732
2.128	5.445	16384	15419	0	732
0.721	3.967	16417	15837	0	732
1.370	3.967	16442	16135	0	732
6.167	4.977	16466	16250	0	732
8.691	6.022	16466	16279	0	732
7.537	6.383	16442	16255	0	732
8.907	9.520	16442	16183	0	732
10.350	15.903	16417	16077	0	732
16.841	20.483	16375	15938	0	732
21.890	25.135	16351	15779	0	732
24.666	26.109	16326	15626	0	732
23.260	22.719	16263	15486	0	732
19.041	19.978	16215	15361	0	732
18.933	18.464	16166	15241	0	732
17.057	14.533	16118	15145	0	732
17.274	11.720	16070	15078	0	732
14.605	10.458	16045	15068	0	732
13.379	7.429	16021	15174	0	732
9.448	6.419	16011	15371	0	732
4.580	2.777	15997	15549	0	732
-1.442	0.541	16011	15722	0	732
-8.943	-4.832	16036	16043	0	732
-12.658	-7.176	16070	16475	0	732
-11.468	-9.304	16108	16816	0	732
-9.052	-7.789	16142	17056	0	732
-5.878	-7.393	16229	17383	0	732
-7.248	-8.294	16278	17786	0	732
-9.340	-9.340	16326	18050	0	732
-14.425	-11.720	16375	18180	0	732
-16.120	-14.172	16442	18382	0	732
-15.471	-17.310	16514	18651	0	732
-18.103	-18.320	16563	18780	0	732
-16.552	-20.159	16611	18699	0	732
-15.831	-17.779	16626	18487	0	732
-12.189	-14.605	16626	18213	0	732
-9.665	-9.232	16626	17882	0	732
-9.989	-10.242	16602	17522	1	532
-12.586	-15.867	16563	17142	0	532
-20.267	-20.014	16539	16773	0	532
-22.467	-25.099	16490	16417	0	532
-22.214	-23.440	16456	16087	0	532
-16.913	-17.057	16408	15765	0	532
-12.153	-14.208	16360	15472	0	532
-9.701	-11.504	16312	15217	0	532
-10.891	-13.379	16263	15006	0	532
-12.694	-17.346	16229	14891	0	532
-12.081	-15.254	16254	14987	0	532
-9.016	-12.586	16254	15251	0	532
-6.383	-8.186	16239	15453	0	532
-6.347	-5.914	16254	15587	0	532
-10.025	-8.799	16288	15851	0	532
-16.913	-15.182	16351	16231	0	532
-20.339	-19.149	16375	16484	0	532
-20.591	-22.791	16393	16628	0	532
-17.382	-20.123	16456	16869	0	532
-15.146	-18.500	16505	17190	0	532
-12.261	-15.326	16539	17383	0	532
-9.917	-13.559	16563	17383	0	532
-9.196	-8.042	16563	17282	0	532
-6.924	-8.330	16563	17118	0	532
-2.380	-6.058	16539	16902	0	532
0.829	-6.708	16529	16657	0	532
0.541	-8.511	16490	16393	0	532
-0.469	-8.150	16456	16130	0	532
-3.029	-7.825	16417	15871	0	532
-7.429	-6.996	16375	15626	0	532
-9.737	-9.196	16326	15405	0	532
-10.494	-9.773	16278	15208	0	532
-10.746	-12.153	16229	15040	0	532
-8.366	-10.819	16166	14905	0	532
-6.455	-7.321	16142	14862	0	532
-0.216	-4.436	16142	15030	0	532
1.551	-4.688	16157	15371	0	532
1.226	-5.445	16157	15645	0	532
-0.938	-11.215	16181	15832	0	532
-5.662	-14.821	16239	16197	0	532
-9.052	-15.723	16336	16849	0	532
-8.727	-13.235	16417	17527	0	532
-7.573	-9.737	16514	17993	0	532
-2.921	-7.573	16611	18377	0	532
-2.596	-5.878	16723	18766	0	532
-2.669	-5.373	16781	18968	0	532
-4.904	-6.671	16820	18934	0	532
-6.996	-7.104	16853	18742	0	532
-8.402	-9.953	16868	18449	0	532
-10.674	-14.425	16853	18074	0	532
-13.559	-16.408	16844	17652	0	532
-16.012	-18.500	16795	17190	0	532
-15.146	-15.218	16747	16725	0	532
-14.461	-13.595	16708	16279	0	532
-9.088	-12.838	16660	15851	0	532
-7.609	-12.982	16587	15462	0	532
-7.393	-14.569	16529	15107	0	532
-9.232	-13.523	16466	14799	0	532
-9.412	-15.290	16393	14540	0	532
-13.199	-15.002	16375	14396	0	532
-13.054	-18.644	16351	14492	0	532
-10.350	-16.913	16360	14771	0	532
-8.655	-16.516	16351	14992	0	532
-6.635	-14.821	16351	15136	0	532
-6.599	-12.946	16384	15419	0	532
-8.835	-16.913	16408	15818	0	532
-12.910	-19.221	16432	16096	0	532
-14.461	-23.440	16442	16255	0	532
-13.631	-22.935	16505	16513	0	532
-15.398	-21.926	16539	16859	0	532
-14.858	-22.250	16577	17070	0	532
-14.713	-19.942	16611	17147	0	532
-15.218	-20.736	16660	17310	0	532
-13.307	-22.358	16698	17541	0	532
-14.749	-22.683	16723	17623	0	532
-16.048	-25.460	16732	17503	0	532
-20.014	-29.210	16732	17291	0	532
-22.034	-30.148	16708	17032	0	532
-23.260	-29.607	16674	16744	0	532
-19.978	-25.243	16635	16436	1	316
-19.221	-21.709	16602	16130	0	316
-18.392	-17.634	16553	15818	0	316
-18.716	-18.031	16480	15525	0	316
-18.464	-15.110	16432	15246	0	316
-15.615	-14.100	16375	14992	0	316
-11.828	-10.206	16302	14780	0	316
-10.602	-8.691	16239	14607	0	316
-10.133	-9.412	16191	14482	0	316
-11.179	-8.619	16133	14401	0	316
-10.746	-7.285	16084	14358	0	316
-8.006	-4.904	16021	14338	0	316
-5.229	-4.688	15963	14338	0	316
-5.193	-4.291	15924	14367	0	316
-8.042	-7.465	15890	14487	0	316
-11.864	-11.648	15890	14809	0	316
-11.900	-11.360	15915	15289	0	316
-12.514	-12.477	15948	15717	0	316
-8.619	-11.828	15963	16120	0	316
-7.898	-9.917	16045	16676	0	316
-8.475	-11.251	16133	17306	0	316
-12.946	-12.586	16181	17743	0	316
-14.677	-11.720	16215	17954	0	316
-15.507	-14.821	16254	18036	0	316
-18.175	-14.281	16263	18031	0	316
-18.464	-16.949	16288	17964	0	316
-21.529	-19.365	16288	17848	0	316
-21.421	-21.493	16278	17700	0	316
-20.339	-20.808	16263	17517	0	316
-18.464	-20.339	16254	17301	0	316
-13.307	-16.913	16229	17070	0	316
-14.605	-15.290	16205	16840	0	316
-13.163	-13.668	16166	16619	0	316
-13.235	-13.740	16142	16412	0	316
-14.389	-16.805	16133	16298	0	316
-13.343	-16.769	16142	16380	0	316
-11.504	-17.706	16166	16614	0	316
-9.340	-13.920	16215	16782	0	316
-7.753	-12.261	16229	16864	0	316
-7.176	-9.881	16302	17128	0	316
-6.239	-8.979	16408	17695	0	316
-5.770	-8.799	16505	18295	0	316
-3.678	-6.599	16611	18675	0	316
-1.947	-4.724	16708	18953	0	316
-3.210	-4.183	16820	19222	0	316
-6.239	-5.409	16892	19299	0	316
-7.465	-7.753	16926	19126	0	316
-7.573	-10.855	16965	18814	0	316
-10.566	-14.136	16950	18420	0	316
-13.992	-20.664	16950	17969	0	316
-17.779	-21.313	16941	17483	0	316
-21.637	-23.837	16892	16979	0	316
-20.231	-21.601	16853	16460	0	316
-17.310	-20.627	16795	15957	0	316
-17.129	-18.139	16732	15477	0	316
-16.228	-16.949	16674	15030	0	316
-12.658	-13.992	16602	14622	0	316
-8.583	-8.943	16529	14266	0	316
-2.128	-4.039	16456	13983	0	316
2.128	-2.560	16408	13815	0	316
0.577	-3.967	16384	13872	0	316
-1.370	-5.914	16375	14117	0	316
-3.246	-6.996	16360	14324	0	316
-4.940	-7.753	16351	14473	0	316
-7.537	-8.871	16375	14766	0	316
-10.133	-10.097	16393	15189	0	316
-13.199	-14.208	16408	15501	0	316
-10.638	-15.471	16432	15693	0	316
-4.904	-8.943	16466	15991	0	316
3.137	-1.406	16514	16380	0	316
10.206	5.986	16529	16633	0	316
10.710	8.979	16553	16696	0	316
5.806	4.003	16539	16652	0	316
1.551	-1.118	16529	16561	0	316
0.865	-3.823	16505	16417	0	316
3.534	-0.433	16480	16240	0	316
6.022	5.337	16432	16034	0	316
11.287	9.016	16393	15827	0	316
9.665	11.107	16336	15626	0	316
8.799	8.547	16288	15448	1	316
5.013	7.970	16239	15289	0	316
6.635	5.734	16181	15150	0	316
7.212	7.176	16133	15020	0	316
8.871	7.753	16094	14924	0	316
11.576	7.681	16021	14862	0	316
10.566	7.321	15973	14838	0	316
8.727	5.517	15939	14833	0	316
7.357	6.671	15890	14857	0	316
8.475	6.816	15866	14963	0	316
12.369	10.855	15876	15265	0	316
14.569	12.838	15890	15712	0	316
16.877	13.091	15915	16082	0	316
19.257	14.641	15939	16360	0	316
16.589	12.369	15973	16729	0	316
15.074	11.360	16036	17195	0	316
13.091	13.018	16070	17541	0	316
13.956	12.586	16142	17767	0	316
15.110	14.245	16205	18069	0	316
16.625	14.713	16263	18449	0	316
15.146	11.792	16326	18670	0	316
10.242	5.626	16375	18675	0	316
6.203	2.669	16384	18545	0	316
3.570	2.813	16393	18338	0	316
5.373	4.724	16393	18074	0	316
5.301	4.868	16375	17786	0	316
2.200	-0.036	16360	17488	0	316
-3.426	-8.835	16336	17181	0	316
-9.124	-13.523	16312	16869	0	316
-9.412	-13.704	16278	16561	0	316
-5.734	-6.635	16239	16288	0	316
-2.488	0.541	16191	16034	0	316
-0.721	1.767	16166	15803	0	316
-4.796	-2.056	16118	15606	0	316
-10.133	-8.799	16094	15501	0	316
-13.343	-16.048	16108	15611	0	316
-12.586	-19.329	16133	15890	0	316
-10.386	-18.283	16142	16116	0	316
-4.111	-12.189	16191	16264	0	316
2.092	-5.157	16229	16523	0	316
5.662	-0.433	16288	16883	0	316
6.491	0.793	16326	17123	0	316
4.111	-2.380	16360	17238	0	316
-1.479	-7.285	16432	17450	0	316
-6.708	-12.009	16490	17743	0	316
-9.629	-10.602	16539	17887	0	316
-9.052	-8.439	16577	17829	0	316
-7.212	-6.491	16577	17671	0	316
-4.616	-5.806	16587	17459	0	316
-4.688	-7.970	16577	17205	0	316
-7.321	-11.504	16563	16926	0	316
-12.297	-17.959	16553	16633	0	316
-16.444	-19.293	16505	16332	0	316
-17.851	-20.700	16466	16034	0	316
-18.897	-19.005	16432	15760	0	316
-18.933	-18.067	16393	15515	0	316
-23.008	-17.995	16351	15294	0	316
-24.775	-23.332	16302	15097	0	316
-27.912	-25.424	16254	14920	0	316
-26.938	-26.037	16229	14838	0	316
-24.811	-23.729	16229	14963	0	316
-20.447	-22.972	16254	15261	0	316
