neuroNicle FX2
D3F0R0
UART
2023년 4월 4일 화요일
오후 1:19
time interval = 4msec
EEG1	EEG2	PPG	sdPPG	pulse	peak_interval(msec)
35.016	17.021	16389	18307	0	620
57.447	29.859	16389	18210	0	620
70.321	37.324	16389	18114	0	620
69.095	35.377	16389	18018	0	620
61.378	24.162	16389	17826	0	620
54.850	12.477	16397	17537	0	620
57.519	9.881	16397	17249	0	620
68.806	13.271	16397	17249	0	620
74.360	17.851	16397	17441	0	620
71.980	18.464	16397	17537	0	620
63.289	14.353	16403	17634	0	620
54.706	11.143	16403	17826	0	620
50.667	12.261	16411	18018	0	620
50.847	17.959	16411	18114	0	620
49.946	22.214	16403	17922	0	620
48.864	24.702	16403	17537	0	620
48.395	23.296	16403	16960	0	620
45.186	22.070	16403	16384	0	620
42.770	20.519	16403	15808	0	620
39.272	20.772	16397	15231	0	620
36.819	19.437	16397	14654	0	620
36.134	18.933	16397	14269	0	620
35.954	16.913	16397	13981	0	620
34.692	15.182	16389	13788	0	620
30.977	13.127	16389	13500	0	620
28.741	10.061	16389	13211	0	620
26.289	6.708	16384	13019	0	620
24.053	4.796	16384	12827	0	620
21.060	7.862	16384	12827	0	620
14.785	10.097	16384	12923	0	620
11.828	10.206	16379	13211	0	620
10.206	6.996	16379	13596	0	620
12.189	1.947	16379	13981	0	620
14.353	-1.551	16379	14365	0	620
14.028	-0.577	16379	14750	0	620
13.595	1.983	16384	15423	0	620
9.917	3.354	16384	16096	0	620
8.186	1.623	16384	16576	0	620
7.753	0.685	16384	16960	0	620
13.740	2.741	16384	17057	0	620
21.673	10.494	16384	17249	0	620
33.141	23.549	16389	17537	0	620
42.445	34.403	16389	17922	0	620
46.448	39.957	16389	18114	0	620
44.068	36.639	16389	18403	0	620
36.459	28.850	16397	18691	0	620
28.273	23.512	16397	18884	0	620
21.673	24.739	16397	18884	0	620
20.339	26.397	16403	18787	0	620
23.837	28.777	16403	18403	0	620
28.669	26.902	16397	17922	0	620
28.417	22.250	16397	17249	0	620
24.414	17.021	16397	16768	1	780
14.894	14.858	16397	16480	0	780
8.619	15.038	16389	16384	0	780
8.042	13.091	16397	16096	0	780
12.261	13.523	16389	15808	0	780
17.743	13.451	16389	15519	0	780
19.942	15.002	16389	15327	0	780
21.096	15.471	16389	15231	0	780
18.428	16.949	16389	15134	0	780
19.546	17.202	16389	14942	0	780
17.526	17.562	16379	14654	0	780
17.779	17.274	16384	14365	0	780
13.343	17.093	16384	14173	0	780
13.127	16.444	16379	13884	0	780
13.163	14.605	16379	13692	0	780
19.041	14.930	16371	13500	0	780
23.837	17.093	16371	13596	0	780
27.804	19.834	16379	13884	0	780
27.624	22.358	16371	14269	0	780
23.909	23.909	16371	14461	0	780
21.926	26.506	16371	14654	0	780
25.279	28.273	16365	14846	0	780
29.463	28.994	16365	15038	0	780
33.177	28.886	16365	15423	0	780
33.502	26.902	16365	15711	0	780
29.030	25.856	16365	16096	0	780
23.765	24.270	16365	16384	0	780
20.880	24.089	16365	16864	0	780
18.644	22.827	16365	17153	0	780
18.752	23.332	16371	17537	0	780
16.444	23.621	16371	17730	0	780
16.372	24.775	16371	17826	0	780
15.939	24.702	16371	17922	0	780
21.745	22.972	16371	18018	0	780
26.794	20.519	16371	17922	0	780
31.662	18.283	16371	17634	0	780
32.384	17.995	16365	17345	0	780
26.217	17.598	16365	17249	0	780
17.887	17.779	16371	17249	0	780
11.251	18.103	16371	17057	0	780
9.016	17.021	16371	16960	0	780
11.540	16.769	16371	17057	0	780
16.048	19.401	16371	17057	0	780
20.267	22.863	16371	17153	0	780
23.116	26.433	16371	17153	0	780
24.089	25.748	16371	17345	0	780
19.221	18.139	16371	17345	0	780
13.848	8.907	16371	17057	0	780
8.439	4.616	16371	16864	0	780
5.986	5.662	16371	16672	0	780
7.537	13.487	16371	16576	0	780
10.350	20.880	16371	16384	0	780
8.655	19.690	16365	16192	0	780
4.868	14.713	16365	15808	0	780
1.911	5.662	16365	15423	0	780
2.272	3.462	16357	15134	0	780
12.045	7.032	16357	14846	0	780
21.601	17.202	16357	14654	0	780
31.518	27.119	16357	14654	0	780
33.934	33.538	16351	14846	0	780
32.167	33.213	16357	15134	0	780
25.604	32.600	16365	15423	0	780
22.683	33.105	16357	15904	0	780
26.938	35.269	16365	16384	0	780
32.744	39.019	16365	16768	0	780
36.891	37.685	16365	17153	0	780
35.269	32.816	16365	17345	0	780
29.499	26.361	16365	17441	0	780
22.539	19.834	16365	17249	0	780
19.473	16.877	16365	17057	0	780
18.500	15.543	16365	16960	0	780
18.788	15.651	16365	16864	0	780
20.411	16.589	16365	16960	0	780
21.024	17.454	16365	17057	0	780
23.837	18.752	16365	17057	0	780
22.611	18.211	16365	16960	0	780
18.824	16.408	16365	16864	0	780
16.733	14.858	16365	16864	0	780
15.182	14.497	16371	17153	0	780
17.454	13.054	16371	17441	0	780
19.690	13.920	16371	17730	0	780
20.267	13.523	16371	17730	0	780
15.831	14.749	16379	17730	0	780
10.530	16.841	16379	17634	0	780
5.770	18.031	16379	17441	0	780
4.400	17.743	16379	17249	0	780
3.678	13.595	16379	17153	0	780
6.599	7.357	16379	17345	0	780
7.248	3.354	16379	17441	0	780
6.239	0.252	16379	17441	0	780
4.832	0.541	16379	17345	0	780
4.472	3.606	16379	17249	0	780
4.364	6.347	16379	17057	0	780
6.599	6.780	16379	16768	0	780
5.770	4.580	16379	16768	0	780
5.301	-1.046	16379	16864	0	780
1.010	-8.402	16384	17057	0	780
-2.596	-13.343	16384	17153	0	780
-4.580	-16.156	16384	17153	0	780
-5.121	-11.396	16384	17153	0	780
-5.698	-5.698	16384	17249	0	780
-4.219	0.361	16389	17441	0	780
-3.823	3.101	16389	17345	0	780
-1.082	-0.974	16389	17249	0	780
0.577	-6.311	16389	17249	0	780
0.757	-12.946	16389	17345	0	780
-3.101	-16.156	16397	17345	0	780
-9.088	-18.860	16397	17441	0	780
-16.300	-20.555	16397	17441	0	780
-18.175	-21.096	16397	17249	0	780
-15.254	-18.572	16397	16960	0	780
-9.196	-13.415	16397	16768	0	780
-1.370	-4.003	16397	16768	0	780
2.452	-0.613	16403	16768	0	780
1.118	-1.406	16403	16576	0	780
-3.426	-8.907	16397	16384	0	780
-8.475	-14.894	16397	16192	0	780
-10.386	-18.933	16397	16000	0	780
-11.828	-15.362	16397	15711	0	780
-11.360	-11.432	16397	15423	0	780
-10.278	-9.304	16389	15231	0	780
-10.710	-8.583	16389	15231	0	780
-8.583	-11.107	16397	15231	0	780
-4.400	-10.674	16397	15423	0	780
-0.974	-8.943	16397	15711	0	780
2.019	-3.534	16397	16000	0	780
3.678	0.613	16397	16096	0	780
3.534	4.868	16397	16000	0	780
1.406	2.200	16397	15808	0	780
-4.291	-3.101	16397	15808	0	780
-9.520	-7.717	16397	15904	0	780
-17.346	-13.054	16397	16000	0	780
-20.772	-15.723	16403	16192	0	780
-20.339	-16.769	16403	16480	0	780
-17.057	-19.798	16403	16768	0	780
-14.317	-22.070	16403	16960	0	780
-11.576	-21.457	16403	16960	0	780
-10.530	-19.005	16411	16864	0	780
-13.487	-15.579	16403	16480	0	780
-16.048	-14.245	16403	16000	0	780
-21.709	-16.372	16397	15519	0	780
-23.981	-21.132	16397	15038	0	780
-25.135	-24.702	16389	14654	0	780
-22.683	-23.116	16389	14365	0	780
-19.762	-22.214	16389	14269	0	780
-21.313	-20.591	16389	14269	0	780
-24.234	-26.794	16389	14269	0	780
-30.004	-36.639	16384	14173	0	780
-35.882	-46.159	16384	13981	0	780
-40.678	-50.379	16384	13884	0	780
-43.455	-45.005	16384	14077	0	780
-44.140	-31.518	16384	14558	0	780
-44.212	-18.103	16384	15038	0	780
-47.530	-9.989	16384	15615	0	780
-56.004	-14.858	16384	16000	0	780
-69.167	-23.729	16384	16384	0	780
-81.031	-28.128	16384	16576	0	780
-85.034	-23.188	16384	16672	0	780
-84.890	-12.946	16384	16576	0	780
-80.022	-7.862	16384	16192	0	780
-77.822	-12.838	16379	15615	0	780
-78.219	-25.207	16379	15038	0	780
-78.940	-32.636	16371	14750	0	780
-76.848	-31.302	16371	14461	0	780
-72.449	-25.640	16365	14269	0	780
-67.003	-21.241	16365	14173	0	780
-62.207	-21.529	16371	14461	0	780
-61.017	-25.640	16371	14942	0	780
-60.332	-30.004	16371	15423	0	780
-62.135	-30.148	16379	15904	0	780
-64.659	-30.545	16371	16384	0	780
-66.354	-29.463	16379	16960	0	780
-67.472	-30.545	16379	17537	0	780
-69.275	-35.593	16379	17826	0	780
-67.544	-38.695	16379	17922	0	780
-61.558	-39.812	16379	18018	0	780
-53.119	-37.432	16379	18307	0	780
-47.422	-34.187	16384	18595	0	780
-47.025	-32.564	16384	18787	0	780
-49.730	-35.629	16384	18884	0	780
-57.122	-38.839	16384	18884	0	780
-60.404	-39.885	16384	18980	0	780
-60.188	-38.731	16389	19076	0	780
-57.843	-37.829	16389	19076	0	780
-51.172	-38.009	16389	19076	0	780
-44.212	-38.154	16389	19172	0	780
-37.072	-34.872	16397	19172	0	780
-33.790	-28.056	16397	18980	0	780
-34.620	-21.493	16389	18499	0	780
-36.026	-16.661	16397	18114	0	780
-33.826	-15.254	16397	17826	0	780
-29.066	-14.785	16397	17634	1	764
-21.637	-13.018	16397	17441	0	764
-14.064	-11.828	16389	17153	0	764
-10.458	-9.520	16389	17057	0	764
-8.835	-10.278	16397	17057	0	764
-8.258	-10.025	16397	17345	0	764
-10.350	-10.494	16397	17634	0	764
-10.927	-5.842	16403	17922	0	764
-7.609	-0.685	16403	18114	0	764
-4.327	2.885	16411	18210	0	764
-0.685	5.409	16411	18114	0	764
1.118	1.695	16411	18114	0	764
0.541	-2.560	16417	18018	0	764
-1.695	-2.669	16417	17826	0	764
-2.308	0.974	16417	17441	0	764
2.092	11.756	16417	17153	0	764
8.150	19.149	16417	16768	0	764
12.009	23.657	16417	16384	0	764
9.196	20.664	16417	15904	0	764
3.931	14.172	16411	15327	0	764
6.419	10.710	16411	14942	0	764
22.827	14.353	16403	14365	0	764
52.939	27.227	16403	13884	0	764
78.291	40.822	16403	13500	0	764
89.722	47.025	16397	13115	0	764
85.323	43.527	16397	12731	0	764
78.832	34.872	16397	12442	0	764
81.103	27.515	16389	12346	0	764
87.342	25.784	16389	12538	0	764
91.273	25.712	16389	12731	0	764
82.762	24.378	16389	12827	0	764
69.311	21.060	16384	12731	0	764
57.988	19.185	16384	12731	0	764
58.024	20.772	16384	13019	0	764
62.928	25.604	16379	13115	0	764
65.308	23.296	16379	13115	0	764
60.332	18.680	16379	13115	0	764
51.857	12.441	16371	13308	0	764
43.238	9.953	16371	13500	0	764
40.065	11.612	16371	13884	0	764
39.272	14.894	16371	14365	0	764
37.721	13.595	16371	14942	0	764
34.511	9.052	16371	15615	0	764
29.643	2.993	16371	16000	0	764
27.876	1.442	16371	16384	0	764
25.279	4.003	16371	16864	0	764
24.630	7.645	16379	17537	0	764
25.532	8.042	16379	18018	0	764
23.945	6.635	16379	18403	0	764
23.296	4.760	16379	18595	0	764
24.486	4.544	16379	18884	0	764
23.909	6.311	16379	18980	0	764
25.929	8.078	16384	18980	0	764
28.309	7.898	16384	18980	0	764
27.912	7.140	16384	18980	0	764
28.345	5.734	16384	18980	0	764
24.739	5.301	16384	18980	0	764
22.395	8.691	16384	18884	0	764
20.952	11.828	16389	18980	0	764
17.670	15.759	16389	19172	0	764
17.779	17.238	16389	19172	0	764
17.093	15.651	16389	18980	0	764
19.798	13.091	16397	18787	0	764
20.267	9.629	16397	18884	0	764
22.467	8.943	16397	18980	0	764
20.303	8.475	16397	18884	0	764
17.743	8.475	16403	18691	0	764
15.254	9.701	16403	18499	0	764
15.038	10.638	16403	18307	0	764
11.900	11.828	16403	18114	0	764
9.232	9.340	16411	18018	0	764
6.563	6.635	16411	17826	0	764
4.327	2.921	16411	17345	0	764
6.022	-0.685	16411	16768	0	764
6.671	-2.019	16411	16384	0	764
7.609	-0.505	16403	16096	0	764
5.301	2.236	16403	15711	0	764
4.544	5.554	16403	15134	0	764
5.986	8.186	16397	14365	0	764
9.376	7.032	16389	13692	1	316
12.369	5.193	16389	13019	0	316
13.127	4.400	16384	12634	0	316
9.160	6.960	16384	12538	0	316
6.671	10.927	16384	12634	0	316
5.337	14.172	16379	12731	0	316
8.835	14.064	16379	12827	0	316
12.694	11.360	16379	12827	0	316
17.274	7.934	16371	12827	0	316
17.670	9.665	16371	12827	0	316
16.444	11.864	16379	13019	0	316
16.084	17.093	16379	13404	0	316
14.930	18.175	16379	13884	0	316
18.103	17.634	16371	14269	0	316
19.870	15.867	16379	14461	0	316
24.486	16.012	16371	14461	0	316
27.191	19.113	16371	14558	0	316
27.010	23.945	16371	14750	0	316
25.279	25.352	16365	15134	0	316
22.467	24.594	16365	15615	0	316
21.493	22.178	16365	16000	0	316
20.447	19.149	16365	16384	0	316
23.188	18.283	16365	16672	0	316
24.919	19.906	16365	16960	0	316
26.866	20.014	16365	17057	0	316
30.472	19.473	16371	17345	0	316
29.246	19.437	16371	17537	0	316
26.938	17.779	16371	17634	0	316
19.077	17.743	16365	17634	0	316
15.651	17.959	16365	17537	0	316
13.018	17.057	16365	17345	0	316
16.264	14.966	16365	17057	0	316
17.310	11.251	16365	16672	0	316
16.264	5.373	16357	16384	0	316
8.799	0.180	16365	16192	0	316
1.659	-3.642	16365	16288	0	316
-2.164	-5.085	16365	16576	0	316
-2.308	-1.046	16365	17153	0	316
1.262	1.406	16371	17634	0	316
3.534	2.669	16371	18114	0	316
4.147	0.216	16371	18499	0	316
1.587	-2.669	16371	18691	0	316
0.072	-5.049	16379	18884	0	316
-0.180	-4.183	16379	19172	0	316
-1.082	-1.947	16384	19653	0	316
-2.741	-1.947	16384	20037	0	316
-4.003	-1.010	16389	20326	0	316
-3.967	0.325	16389	20422	0	316
-1.334	2.957	16389	20326	0	316
4.508	5.517	16397	19941	0	316
8.655	5.373	16397	19653	0	316
9.629	4.147	16397	19268	0	316
9.773	2.633	16397	18980	0	316
10.891	5.734	16403	18980	0	316
12.586	9.665	16403	18884	0	316
17.670	14.497	16403	18787	0	316
19.618	14.894	16403	18499	0	316
20.087	15.002	16411	18210	0	316
15.867	13.163	16403	17922	0	316
14.497	14.894	16403	17441	0	316
14.353	20.988	16403	16960	0	316
19.978	27.083	16403	16576	0	316
25.929	33.682	16403	16384	0	316
31.987	34.547	16403	16192	0	316
33.934	28.705	16403	16096	0	316
31.699	23.260	16403	16000	0	316
28.381	18.716	16411	15904	0	316
26.902	18.752	16403	15519	0	316
24.234	24.378	16403	15134	0	316
25.279	28.453	16403	14558	0	316
27.119	32.492	16403	14365	0	316
27.335	33.033	16403	14269	0	316
28.092	34.620	16403	14173	0	316
27.083	33.754	16397	13788	0	316
27.479	29.823	16397	13500	0	316
28.020	25.171	16397	13308	0	316
27.768	20.988	16397	13019	0	316
25.640	19.582	16389	12923	0	316
23.981	21.890	16384	12827	0	316
21.313	28.273	16384	12827	1	316
22.286	30.689	16384	12923	0	316
25.171	31.771	16379	13211	0	316
28.525	29.715	16384	13404	0	316
29.463	29.354	16384	13788	0	316
31.013	30.076	16384	14173	0	316
31.338	33.682	16384	14654	0	316
31.266	35.774	16384	15134	0	316
31.049	36.351	16384	15519	0	316
29.174	33.934	16384	15904	0	316
29.318	30.040	16389	16384	0	316
26.686	27.335	16384	16672	0	316
24.666	26.578	16384	17057	0	316
26.506	29.318	16384	17441	0	316
31.590	34.115	16384	17537	0	316
37.901	41.075	16384	17441	0	316
45.366	45.691	16384	17345	0	316
48.143	44.897	16384	17249	0	316
44.032	41.832	16384	17057	0	316
40.101	35.990	16384	17057	0	316
37.865	33.574	16384	17057	0	316
39.452	33.538	16384	17057	0	316
42.950	37.144	16384	16960	0	316
44.933	41.183	16384	16768	0	316
45.582	41.219	16384	16576	0	316
45.150	40.966	16384	16384	0	316
43.599	39.416	16384	16384	0	316
40.029	37.036	16384	16384	0	316
37.396	35.197	16384	16384	0	316
33.934	34.006	16379	16288	0	316
31.626	32.312	16384	16192	0	316
31.049	30.112	16384	16000	0	316
31.843	27.948	16384	15711	0	316
29.391	25.171	16384	15423	0	316
27.840	23.657	16379	15231	0	316
26.506	23.008	16379	15038	0	316
25.604	23.044	16379	15134	0	316
23.657	23.188	16379	15231	0	316
22.431	22.719	16371	15134	0	316
20.772	23.476	16379	15038	0	316
23.404	25.135	16371	14846	0	316
22.575	26.614	16371	14846	0	316
20.988	25.676	16365	14846	0	316
17.887	21.313	16365	15038	0	316
11.973	16.516	16365	15519	0	316
9.953	12.586	16365	16000	0	316
12.081	11.432	16365	16384	0	316
13.523	10.783	16365	16576	0	316
13.163	13.091	16365	16768	0	316
16.120	14.461	16365	16864	0	316
16.156	14.317	16371	17057	0	316
20.844	14.966	16371	17441	0	316
21.962	15.579	16371	17826	0	316
22.827	17.851	16371	18018	0	316
23.008	22.214	16371	18307	0	316
21.204	26.109	16379	18595	0	316
24.955	28.164	16379	18787	0	316
28.201	28.417	16379	18787	0	316
-20.700	8.114	16379	16384	0	928
-11.612	9.124	16379	16000	0	928
7.862	5.049	16379	15711	0	928
22.611	-1.298	16379	15615	0	928
20.231	-3.678	16371	15615	0	928
5.554	-5.049	16379	15808	0	928
-15.182	-9.520	16379	16288	0	928
-29.968	-15.254	16379	16768	0	928
-28.092	-18.680	16379	17345	0	928
-10.458	-15.110	16384	17730	0	928
3.246	-9.484	16384	18018	0	928
8.583	-0.902	16384	18018	0	928
-0.397	1.875	16384	17826	0	928
-10.386	1.803	16384	17634	0	928
-12.802	0.649	16384	17537	0	928
-7.104	0.613	16384	17634	0	928
-1.046	1.479	16389	17826	0	928
-6.347	1.623	16389	17922	0	928
-16.264	1.442	16389	17826	0	928
-22.791	2.741	16389	17634	0	928
-18.536	4.291	16389	17441	0	928
-4.472	5.914	16389	17345	0	928
7.609	3.931	16389	17345	0	928
7.321	0.000	16389	17153	0	928
-3.570	-7.429	16397	17057	0	928
-14.389	-12.045	16397	16864	0	928
-14.461	-13.956	16397	16672	0	928
-4.508	-11.900	16397	16576	0	928
4.688	-6.635	16397	16480	0	928
4.544	-3.029	16389	16576	0	928
-5.373	-3.137	16389	16576	0	928
-10.746	-2.164	16389	16480	0	928
-2.813	-1.767	16389	16384	0	928
12.369	-0.613	16389	16000	0	928
27.083	2.164	16389	15711	0	928
27.155	6.311	16389	15423	0	928
19.005	10.602	16384	15327	0	928
8.691	16.408	16384	15134	0	928
7.068	17.959	16384	14942	0	928
11.215	15.254	16384	14846	0	928
13.595	7.970	16384	14654	0	928
12.946	-0.144	16384	14558	0	928
9.412	-2.705	16379	14461	0	928
3.750	-2.092	16379	14365	0	928
5.085	-0.180	16379	14365	0	928
6.022	0.577	16379	14365	0	928
7.176	-1.695	16371	14269	0	928
2.849	-5.229	16371	14173	0	928
0.180	-5.193	16371	14077	0	928
2.849	-3.318	16379	14077	0	928
13.956	1.911	16379	14365	0	928
27.696	3.642	16379	14846	0	928
32.348	1.767	16379	15327	0	928
20.664	-6.058	16379	15711	0	928
1.983	-11.251	16379	16288	0	928
-11.143	-9.196	16379	16864	0	928
-10.855	1.803	16379	17441	0	928
3.967	13.235	16384	17730	0	928
20.844	19.834	16384	17730	0	928
34.439	20.555	16384	17634	0	928
39.344	20.087	16379	17345	0	928
37.721	23.512	16384	17249	0	928
29.679	27.732	16384	17441	0	928
19.257	27.804	16384	17922	0	928
10.927	21.818	16384	18403	0	928
16.589	13.307	16389	18595	0	928
28.814	10.602	16389	18691	0	928
41.760	13.848	16389	18691	0	928
45.763	19.762	16389	18499	1	756
37.216	21.745	16389	18210	0	756
23.440	18.320	16389	17922	0	756
12.333	12.982	16389	17441	0	756
7.970	9.773	16389	16672	0	756
9.881	11.792	16384	16000	0	756
8.114	14.497	16384	15423	0	756
6.960	15.759	16384	15038	0	756
3.354	10.746	16379	14750	0	756
5.878	8.871	16379	14558	0	756
11.973	9.016	16379	14365	0	756
17.057	14.389	16379	14365	0	756
20.159	18.969	16371	14365	0	756
14.028	17.670	16371	14365	0	756
6.816	12.189	16371	14173	0	756
9.665	6.419	16365	14077	0	756
19.077	8.835	16365	13981	0	756
27.984	12.766	16365	13981	0	756
27.119	13.884	16365	14173	0	756
12.766	7.717	16365	14558	0	756
-7.321	-4.688	16365	15134	0	756
-20.555	-12.514	16365	15808	0	756
-22.755	-15.110	16365	16576	0	756
-17.418	-14.641	16371	17249	0	756
-16.444	-15.795	16371	17922	0	756
-18.824	-22.611	16371	18499	0	756
-27.407	-27.407	16379	18884	0	756
-29.931	-26.145	16379	19076	0	756
-28.164	-15.290	16379	19172	0	756
-18.680	-5.193	16379	19172	0	756
-10.999	-2.452	16379	19076	0	756
-4.616	-6.635	16379	18787	0	756
-4.904	-14.100	16384	18499	0	756
-7.357	-17.526	16379	18210	0	756
-10.242	-14.028	16379	17730	0	756
-11.540	-8.114	16379	17153	0	756
-12.514	-2.993	16379	16480	0	756
-9.592	-1.118	16371	15904	0	756
-8.006	-1.298	16371	15327	0	756
-5.193	-1.190	16371	14942	0	756
-3.246	-2.019	16371	14750	0	756
-3.137	-3.065	16371	14750	0	756
-0.649	-4.400	16371	15038	0	756
3.967	-2.777	16379	14942	0	756
8.979	-0.036	16371	14654	0	756
11.864	4.688	16365	14269	0	756
9.665	5.878	16365	14365	0	756
-0.072	4.760	16365	14846	0	756
-9.376	1.046	16365	15423	0	756
-15.543	-4.255	16365	16000	0	756
-18.103	-8.547	16371	16384	0	756
-15.795	-10.169	16371	16672	0	756
-15.795	-13.091	16371	16768	0	756
-12.405	-13.992	16371	16672	0	756
-10.566	-9.556	16365	16384	0	756
-7.248	-5.193	16365	16192	0	756
-3.498	-0.865	16365	16096	0	756
-3.642	-0.216	16365	16000	0	756
-3.282	-3.498	16365	16000	0	756
1.479	-7.501	16357	16000	0	756
9.665	-6.022	16357	15808	0	756
15.290	1.875	16357	15711	0	756
13.127	9.196	16365	15711	0	756
2.813	14.353	16365	15808	0	756
-8.691	10.566	16365	16192	0	756
-12.910	5.013	16365	16384	0	756
-6.239	2.921	16365	16672	0	756
6.599	5.445	16365	16960	0	756
13.992	11.360	16365	17153	0	756
15.218	13.848	16365	17345	0	756
10.169	10.494	16365	17537	0	756
6.239	4.868	16365	17537	0	756
4.508	1.046	16371	17634	0	756
11.035	4.219	16371	18018	0	756
15.254	10.206	16371	18499	0	756
14.894	17.923	16379	18884	0	756
12.261	21.313	16379	19268	0	756
8.439	19.978	16384	19557	0	756
11.792	14.749	16384	19653	0	756
21.024	9.773	16384	19557	0	756
29.643	5.914	16389	19460	0	756
29.607	4.364	16389	19364	0	756
21.096	5.121	16389	19172	1	328
10.206	6.708	16389	18691	0	328
4.832	6.708	16389	17922	0	328
4.219	4.652	16384	16960	0	328
6.275	2.344	16384	16192	0	328
6.094	-0.685	16384	15615	0	328
2.705	-0.721	16384	15327	0	328
4.472	2.272	16384	15134	0	328
9.484	5.229	16384	14942	0	328
14.245	5.337	16384	14942	0	328
13.163	2.452	16379	14942	0	328
6.239	1.334	16379	14942	0	328
-1.983	2.524	16379	14846	0	328
-5.445	8.511	16379	14654	0	328
-2.885	11.792	16379	14558	0	328
-0.288	10.927	16379	14461	0	328
0.216	4.904	16379	14558	0	328
0.433	1.334	16379	14654	0	328
5.554	1.731	16371	14654	0	328
14.821	5.590	16371	14750	0	328
21.241	7.104	16371	14750	0	328
21.349	7.176	16371	14558	0	328
13.235	5.481	16371	14461	0	328
5.950	6.058	16365	14558	0	328
3.210	10.602	16371	14846	0	328
4.364	10.458	16379	15327	0	328
5.698	9.520	16379	15711	0	328
5.049	4.724	16379	16288	0	328
3.895	6.022	16379	16768	0	328
6.996	9.124	16379	17153	0	328
9.809	14.677	16384	17345	0	328
12.802	18.211	16384	17634	0	328
15.795	19.293	16384	18018	0	328
20.303	17.670	16389	18499	0	328
25.856	16.372	16389	18884	0	328
27.840	14.208	16389	19076	0	328
25.388	10.783	16397	19172	0	328
18.211	8.294	16397	19172	0	328
10.819	5.193	16397	19364	0	328
9.665	5.950	16397	19557	0	328
10.891	5.698	16397	19557	0	328
8.943	5.157	16397	19460	0	328
2.524	5.842	16403	19076	0	328
-7.753	2.777	16403	18595	0	328
-16.264	0.902	16403	17922	0	328
-15.326	-1.839	16397	17153	0	328
-8.727	-2.596	16397	16384	0	328
-0.469	-2.741	16397	15711	0	328
4.183	-3.606	16389	15134	0	328
0.649	-6.744	16389	14654	0	328
-2.669	-7.104	16389	14269	0	328
-1.551	-7.176	16389	13884	0	328
5.301	-2.705	16384	13596	0	328
12.514	0.938	16384	13308	0	328
13.091	2.019	16384	13308	0	328
6.491	-0.433	16384	13596	0	328
0.072	-2.344	16384	14173	0	328
0.144	-0.829	16384	14846	0	328
9.124	5.301	16384	15519	0	328
20.014	12.550	16389	16096	0	328
23.116	20.159	16389	16384	0	328
18.860	22.070	16389	16576	0	328
9.773	20.411	16389	16672	0	328
7.357	17.634	16389	16768	0	328
16.228	20.014	16389	16960	0	328
31.410	27.912	16397	17057	0	328
47.025	41.796	16397	17153	0	328
57.411	55.175	16397	17249	0	328
59.466	65.813	16397	17345	0	328
63.830	73.639	16397	17441	0	328
71.799	80.743	16397	17441	0	328
88.027	87.955	16403	17345	0	328
102.200	94.879	16397	17153	0	328
110.963	102.164	16397	16768	0	328
113.199	108.511	16397	16480	0	328
114.713	117.526	16397	16288	0	328
119.510	125.856	16397	16096	0	328
129.102	130.472	16389	15808	0	328
134.908	130.292	16389	15711	0	328
136.495	127.660	16389	15808	0	328
137.288	125.135	16389	15904	0	328
140.606	126.253	16389	15904	0	328
144.717	132.348	16389	15808	0	328
145.835	137.973	16389	15711	0	328
138.586	140.786	16389	15519	0	328
131.879	140.462	16384	15231	0	328
128.453	135.124	16384	15231	0	328
131.735	129.931	16389	15519	0	328
138.406	127.660	16389	15904	0	328
143.347	132.961	16389	16288	0	328
145.474	145.510	16389	16384	0	328
145.691	156.004	16389	16480	0	328
146.268	160.043	16389	16672	0	328
148.287	157.663	16389	16672	0	328
156.437	155.103	16389	16672	0	328
168.265	160.404	16389	16672	0	328
181.140	172.629	16389	16768	0	328
190.191	184.565	16389	16672	0	328
192.355	189.903	16389	16480	0	328
191.670	187.523	16389	16384	0	328
192.715	182.510	16389	16192	0	328
192.283	179.156	16389	16192	0	328
185.215	176.415	16389	16096	0	328
172.160	169.095	16389	15904	0	328
153.444	158.889	16389	15519	0	328
139.668	147.349	16384	15038	0	328
130.004	138.658	16384	14750	0	328
122.972	130.797	16384	14654	0	328
116.192	124.198	16384	14750	0	328
106.491	115.723	16384	14942	0	328
96.502	106.708	16379	15231	0	328
89.434	96.250	16379	15423	0	328
82.582	88.208	16379	15519	0	328
71.944	77.065	16379	15519	0	328
54.598	61.378	16379	15519	0	328
33.862	41.868	16379	15711	0	328
11.432	23.729	16379	15904	0	328
-5.842	8.186	16379	16096	0	328
-13.848	-4.724	16379	16288	0	328
-19.473	-11.864	16379	16384	0	328
-20.700	-19.582	16379	16192	0	328
-26.470	-24.522	16379	16096	0	328
-38.154	-30.833	16371	16000	0	328
-49.549	-39.452	16371	16000	0	328
-62.171	-48.143	16371	16096	0	328
-67.400	-54.129	16371	16288	0	328
-64.695	-55.752	16371	16384	0	328
-56.149	-49.766	16371	16384	0	328
-52.975	-45.078	16371	16384	0	328
-52.723	-47.458	16371	16384	0	328
-60.584	-56.690	16379	16192	0	328
-65.813	-66.787	16371	16096	0	328
-63.722	-68.734	16371	16096	0	328
-56.545	-62.279	16371	16192	0	328
-44.104	-46.232	16371	16288	0	328
-36.964	-33.682	16371	16384	0	328
-34.656	-27.371	16371	16384	0	328
-32.925	-26.289	16371	16384	0	328
-29.859	-26.902	16371	16768	0	328
-20.447	-21.998	16371	17345	0	328
-9.881	-11.468	16379	17922	0	328
4.183	4.544	16379	18307	0	328
15.435	19.798	16379	18499	0	328
24.342	30.472	16384	18980	0	328
31.302	36.783	16384	19557	0	328
36.855	39.524	16389	20134	0	328
45.546	45.186	16397	20422	0	328
60.043	55.788	16397	20422	0	328
73.458	66.534	16397	20134	0	328
82.294	72.160	16397	19749	0	328
78.471	67.580	16397	19268	0	328
64.803	56.545	16397	18787	0	328
54.454	45.330	16397	18307	1	608
49.549	40.245	16397	17730	0	608
51.569	41.003	16397	17249	0	608
47.746	42.337	16397	16960	0	608
32.420	35.882	16403	16864	0	608
8.835	19.582	16397	16960	0	608
-15.254	-2.272	16397	17153	0	608
-30.653	-25.820	16403	17441	0	608
-40.353	-44.140	16403	18018	0	608
-48.936	-57.339	16411	18499	0	608
-63.469	-69.528	16417	18787	0	608
-83.772	-84.061	16417	18787	0	608
-103.065	-101.731	16425	18691	0	608
-118.572	-122.034	16425	18691	0	608
-132.816	-140.317	16425	18691	0	608
-142.409	-158.024	16425	18595	0	608
-157.663	-172.124	16430	18307	0	608
-172.449	-181.392	16430	17730	0	608
-182.654	-185.647	16425	17153	0	608
-187.450	-186.693	16425	16576	0	608
-189.217	-190.263	16425	15904	0	608
-193.329	-197.440	16425	14942	0	608
-201.551	-209.160	16417	13884	0	608
-216.336	-221.565	16417	13019	0	608
-229.391	-230.653	16411	12346	0	608
-241.688	-236.134	16411	11865	0	608
-251.208	-241.111	16403	11481	0	608
-260.224	-249.008	16403	11192	0	608
-264.443	-258.096	16397	10904	0	608
-266.174	-270.069	16397	10711	0	608
-265.308	-282.474	16384	10615	0	608
-273.603	-292.427	16384	10711	0	608
-288.316	-298.990	16384	11000	0	608
-305.878	-305.734	16379	11288	0	608
-321.709	-313.307	16384	11384	0	608
-327.624	-321.745	16379	11481	0	608
-329.246	-331.662	16379	11769	0	608
-336.351	-338.622	16379	12058	0	608
-346.664	-343.563	16371	12346	0	608
-361.450	-350.018	16371	12731	0	608
-373.206	-361.414	16371	13211	0	608
-382.510	-375.730	16365	13692	0	608
-391.778	-389.975	16365	14173	0	608
-400.865	-400.541	16365	14846	0	608
-411.143	-407.862	16365	15423	0	608
-421.529	-416.805	16365	15808	0	608
-430.004	-428.020	16365	16096	0	608
-438.370	-442.986	16365	16384	0	608
-448.215	-453.047	16365	16864	0	608
-455.067	-461.378	16365	17249	0	608
-459.106	-464.551	16365	17634	0	608
-458.457	-463.686	16365	17922	0	608
-450.920	-458.781	16365	18018	0	608
-435.810	-445.402	16365	17922	0	608
-415.759	-422.106	16357	17634	0	608
-389.181	-391.021	16357	17153	0	608
-358.168	-355.463	16351	16768	0	608
-323.873	-319.654	16357	16384	0	608
-284.854	-287.883	16365	16384	0	608
-247.133	-256.473	16351	16384	0	608
-210.530	-221.601	16351	16576	0	608
-176.848	-183.123	16351	16768	0	608
-144.573	-137.937	16351	17057	0	608
-108.619	-97.476	16351	17345	0	608
-74.468	-62.568	16351	17634	0	608
-39.560	-34.656	16351	17826	0	608
-9.160	-8.150	16351	17922	0	608
20.267	20.519	16351	17826	0	608
52.614	54.237	16351	17730	0	608
85.792	86.260	16357	17826	0	608
120.303	117.454	16357	17826	0	608
160.873	154.778	16357	17826	0	608
203.967	198.485	16357	17826	0	608
260.404	256.149	16357	18018	0	608
322.358	318.356	16357	18210	0	608
382.149	374.576	16365	18307	0	608
428.633	414.064	16365	18403	0	608
451.280	434.151	16365	18403	0	608
454.814	436.891	16365	18210	0	608
446.989	432.239	16365	18018	0	608
434.223	425.604	16365	18114	0	608
425.676	419.293	16365	18307	0	608
416.156	408.979	16365	18403	0	608
399.964	392.824	16365	18403	0	608
381.356	367.869	16371	18499	0	608
359.142	341.255	16379	18595	0	608
335.701	317.310	16379	18787	0	608
314.136	299.459	16384	18980	0	608
290.480	286.188	16384	18980	0	608
274.937	275.117	16384	18787	0	608
260.656	260.043	16384	18691	0	608
249.874	237.721	16389	18403	0	608
233.898	211.756	16389	18018	0	608
206.671	184.998	16389	17537	0	608
177.714	167.905	16384	17057	0	608
154.057	158.745	16379	16672	0	608
142.229	155.968	16384	16288	0	608
138.983	152.362	16384	15808	0	608
133.970	140.894	16384	15711	0	608
125.929	128.850	16384	15711	0	608
115.615	117.959	16384	15808	0	608
111.864	113.199	16384	15904	0	608
113.848	109.989	16389	16000	0	608
113.776	103.426	16384	16096	0	608
106.131	92.788	16384	16000	0	608
91.814	81.536	16384	15808	0	608
77.209	73.819	16384	15904	0	608
67.111	72.665	16384	16288	0	608
63.469	71.872	16384	16576	0	608
60.981	66.102	16389	16672	0	608
55.860	56.545	16389	16768	0	608
50.703	47.277	16389	16864	0	608
45.294	37.973	16389	16864	0	608
36.206	34.079	16389	16864	0	608
23.693	25.063	16397	16864	0	608
12.550	15.362	16397	16768	0	608
3.173	4.003	16397	16768	0	608
3.606	-1.370	16397	16480	0	608
7.212	-3.606	16397	16288	0	608
9.268	-2.633	16397	16000	0	608
5.121	-5.085	16397	15808	0	608
-2.272	-13.018	16397	15519	0	608
-11.287	-22.142	16389	15038	0	608
-18.897	-30.472	16389	14558	0	608
-21.385	-33.970	16389	14173	0	608
-22.142	-31.771	16384	13981	0	608
-19.618	-28.020	16384	14077	0	608
-23.765	-25.027	16384	14365	0	608
-32.816	-28.705	16384	14558	0	608
-45.474	-35.954	16384	14654	0	608
-50.487	-41.471	16384	14461	0	608
-49.189	-42.734	16379	14077	0	608
-37.829	-37.072	16379	13788	0	608
-27.515	-27.227	16379	13692	0	608
-26.325	-20.772	16371	13788	0	608
-30.472	-18.716	16371	13884	0	608
-38.154	-21.529	16371	14077	0	608
-40.353	-21.493	16371	14461	0	608
-35.377	-18.464	16371	14942	0	608
-23.368	-10.963	16371	15615	0	608
-12.946	-5.481	16371	16192	0	608
-5.157	-5.265	16379	16576	0	608
-4.400	-10.422	16379	16864	0	608
-7.068	-11.937	16379	17153	0	608
-6.816	-7.862	16379	17537	0	608
-1.118	1.515	16379	17826	0	608
9.304	11.684	16379	18114	0	608
21.890	18.067	16384	18210	0	608
31.446	19.293	16384	18499	0	608
36.747	19.762	16384	18691	0	608
37.072	21.818	16384	18787	0	608
38.045	27.660	16384	18499	0	608
42.445	35.846	16384	18114	0	608
49.549	46.520	16384	17537	0	608
55.463	53.732	16384	16960	0	608
57.591	54.814	16379	16384	0	608
55.536	52.867	16379	15904	0	608
54.959	49.116	16384	15711	0	608
54.201	50.703	16384	15615	0	608
58.420	51.641	16384	15615	0	608
59.070	54.634	16384	15711	0	608
57.375	55.247	16384	16000	0	608
56.978	55.572	16384	16384	0	608
55.896	57.266	16384	16768	0	608
58.889	62.351	16389	17249	0	608
62.784	65.741	16384	17730	0	608
63.830	65.380	16389	18114	0	608
65.020	63.541	16389	18307	0	608
66.066	61.666	16389	18114	0	608
65.200	59.394	16389	17634	0	608
62.784	59.863	16384	16960	0	608
57.699	61.918	16384	16384	0	608
54.273	64.371	16384	15904	0	608
57.483	66.787	16384	15519	0	608
61.630	65.849	16379	15134	0	608
65.597	62.892	16379	14942	0	608
65.994	59.538	16379	14942	0	608
60.296	61.233	16379	15134	0	608
55.896	66.354	16379	15327	0	608
55.788	72.629	16384	15423	0	608
61.666	75.261	16384	15423	0	608
68.518	72.953	16384	15327	0	608
74.360	68.157	16379	15327	0	608
80.563	65.705	16379	15327	0	608
79.445	63.541	16379	15327	0	608
72.268	59.971	16379	15231	0	608
63.541	54.850	16379	15134	0	608
55.716	48.576	16371	15038	0	608
49.621	44.032	16379	14846	0	608
49.982	40.426	16371	14654	0	608
48.612	34.511	16371	14654	0	608
40.894	25.604	16371	14942	0	608
32.203	14.064	16365	15231	0	608
20.664	7.212	16371	15711	0	608
12.766	4.652	16371	16288	0	608
9.124	10.386	16371	16768	0	608
7.789	16.156	16371	17153	0	608
7.285	17.670	16371	17441	0	608
7.212	16.336	16379	17730	0	608
10.602	14.353	16379	18018	0	608
14.461	14.966	16379	18210	0	608
21.709	19.978	16379	18210	0	608
28.814	26.001	16379	18018	0	608
35.701	31.158	16379	17922	0	608
36.783	31.951	16379	17826	0	608
37.901	29.715	16379	17730	0	608
36.098	27.696	16379	17634	1	824
33.321	24.919	16379	17345	0	824
29.823	22.395	16379	17153	0	824
23.981	20.808	16379	16768	0	824
18.536	18.644	16379	16384	0	824
14.677	12.081	16371	16096	0	824
11.540	4.508	16371	15808	0	824
5.517	-2.777	16371	15615	0	824
-0.865	-6.167	16365	15231	0	824
-10.350	-2.777	16365	14750	0	824
-16.913	0.144	16365	14269	0	824
-21.277	1.046	16357	14077	0	824
-23.512	-3.210	16365	14269	0	824
-28.092	-10.746	16365	14654	0	824
-30.400	-14.353	16365	15423	0	824
-26.542	-8.907	16371	16288	0	824
-13.668	0.649	16371	16864	0	824
3.101	11.215	16371	17441	0	824
19.005	16.264	16379	17922	0	824
28.309	19.401	16379	18307	0	824
32.889	20.014	16379	18499	0	824
35.016	20.988	16384	18595	0	824
36.675	25.135	16384	18499	0	824
36.387	25.640	16384	18210	0	824
31.482	25.676	16384	18114	0	824
24.847	27.083	16384	18018	0	824
19.293	30.869	16384	17922	0	824
16.877	32.889	16384	17826	0	824
17.743	32.925	16384	17826	0	824
13.704	30.220	16384	17730	0	824
13.307	26.614	16384	17441	0	824
14.028	27.804	16384	17057	0	824
19.690	34.511	16384	16768	0	824
31.807	42.950	16384	16576	0	824
41.832	46.809	16384	16384	0	824
46.484	47.169	16384	16192	0	824
46.448	44.537	16384	16000	0	824
44.068	41.507	16384	16096	0	824
41.976	41.255	16384	16384	0	824
43.671	44.897	16384	16672	0	824
47.025	46.123	16389	16672	0	824
51.605	48.467	16389	16576	0	824
51.352	47.169	16389	16576	0	824
48.467	46.087	16389	16576	0	824
41.940	42.661	16389	16384	0	824
33.898	42.337	16389	16192	0	824
32.348	44.032	16384	15808	0	824
35.882	48.107	16384	15615	0	824
39.885	52.903	16384	15615	0	824
41.543	52.687	16384	15615	0	824
36.134	47.566	16384	15615	0	824
25.352	38.550	16384	15519	0	824
18.175	32.167	16384	15231	0	824
13.487	28.345	16384	15134	0	824
17.346	27.299	16384	15231	0	824
17.887	26.289	16384	15519	0	824
12.694	18.031	16384	16000	0	824
-0.144	5.121	16384	16384	0	824
-16.192	-7.789	16389	16672	0	824
-25.207	-15.723	16389	16864	0	824
-28.128	-19.726	16389	17057	0	824
-25.856	-21.962	16389	17153	0	824
-25.424	-31.013	16389	17345	0	824
-32.528	-41.399	16397	17537	0	824
-43.455	-50.523	16397	17441	0	824
-50.595	-48.864	16397	17057	0	824
-48.359	-39.416	16389	16672	0	824
-38.767	-28.020	16389	16384	0	824
-26.433	-18.933	16389	16288	0	824
-11.287	-13.668	16389	16192	0	824
-2.308	-8.078	16389	16096	0	824
4.688	-0.144	16384	16096	0	824
9.448	8.402	16384	16192	0	824
13.451	16.228	16384	16192	0	824
17.815	22.395	16384	16192	0	824
26.506	30.076	16384	16192	0	824
38.118	38.045	16384	16096	0	824
50.775	46.412	16384	15904	0	824
59.466	54.598	16384	15519	0	824
67.364	60.981	16379	15038	1	316
74.035	62.748	16384	14365	0	316
80.130	63.397	16379	13596	0	316
87.270	62.135	16371	12731	0	316
89.037	65.849	16365	11961	0	316
88.208	69.960	16365	11577	0	316
82.149	75.334	16357	11673	0	316
76.740	78.651	16357	12058	0	316
72.953	77.389	16357	12634	0	316
71.799	77.389	16351	12923	0	316
76.343	78.110	16351	13211	0	316
81.933	80.058	16351	13500	0	316
84.638	78.759	16351	13981	0	316
83.087	73.711	16351	14654	0	316
78.507	68.734	16351	15423	0	316
74.432	66.102	16351	16192	0	316
72.304	65.921	16351	16864	0	316
73.242	63.541	16357	17537	0	316
69.275	55.788	16371	18210	0	316
60.043	44.392	16365	18691	0	316
52.867	35.269	16365	18980	0	316
48.107	33.429	16365	18980	0	316
51.893	38.658	16365	19172	0	316
53.444	43.599	16365	19268	0	316
51.172	43.707	16371	19460	0	316
42.517	38.983	16371	19557	0	316
37.072	36.278	16371	19845	0	316
40.570	39.632	16379	20230	0	316
51.749	47.638	16379	20614	0	316
63.289	53.877	16384	20903	0	316
67.941	55.680	16384	20999	0	316
63.145	52.903	16384	20903	0	316
56.690	51.280	16389	20614	0	316
54.706	54.850	16389	20326	0	316
61.955	60.909	16389	19845	0	316
68.265	64.587	16389	19364	0	316
72.340	64.479	16389	18595	0	316
70.213	60.909	16389	17826	0	316
64.443	56.004	16389	17057	0	316
60.801	54.057	16389	16480	0	316
66.426	57.807	16384	16096	0	316
74.648	63.361	16384	15615	0	316
80.743	71.511	16384	15134	0	316
83.339	77.714	16384	14750	0	316
84.025	83.375	16384	14558	0	316
84.710	84.818	16384	14461	0	316
87.955	85.251	16379	14461	0	316
89.758	83.952	16379	14461	0	316
89.794	81.284	16379	14558	0	316
83.556	76.668	16379	14846	0	316
76.524	74.540	16384	15134	0	316
72.124	72.413	16384	15327	0	316
72.016	71.439	16384	15615	0	316
77.714	71.908	16384	15904	0	316
83.520	72.521	16384	15904	0	316
84.854	73.242	16384	15808	0	316
84.241	70.970	16384	15808	0	316
80.166	69.564	16384	16000	0	316
78.146	67.111	16384	16288	0	316
79.012	64.082	16384	16480	0	316
77.858	62.459	16384	16576	0	316
70.646	56.834	16384	16480	0	316
60.620	48.720	16384	16384	0	316
50.811	44.320	16384	16096	0	316
47.854	47.169	16384	16000	0	316
49.549	61.486	16384	16096	0	316
60.260	79.913	16384	16192	0	316
69.816	95.348	16384	16288	0	316
79.264	100.793	16384	16384	0	316
86.513	98.485	16384	16384	0	316
89.614	94.374	16384	16384	0	316
95.240	94.663	16384	16384	0	316
98.954	97.548	16384	16288	0	316
102.957	102.849	16384	16192	0	316
111.107	110.133	16384	16192	0	316
122.719	119.437	16384	16288	0	316
134.511	128.958	16384	16192	0	316
142.409	133.538	16384	16000	0	316
137.757	130.761	16384	15711	0	316
128.597	124.270	16379	15423	1	316
120.627	123.332	16379	15327	0	316
125.279	134.547	16379	15327	0	316
141.255	155.932	16379	15231	0	316
163.686	175.838	16379	15231	0	316
178.435	187.126	16379	15231	0	316
183.736	186.369	16379	15423	0	316
181.464	177.894	16379	15904	0	316
173.783	167.941	16379	16384	0	316
170.285	162.495	16379	16960	0	316
172.449	164.407	16384	17249	0	316
181.500	173.711	16384	17441	0	316
188.857	183.484	16384	17537	0	316
186.008	184.385	16384	17634	0	316
169.780	171.547	16384	17826	0	316
148.431	148.179	16389	18114	0	316
128.777	128.669	16389	18403	0	316
115.651	118.211	16389	18595	0	316
110.819	118.392	16397	18787	0	316
104.688	122.647	16397	18787	0	316
97.367	119.401	16397	18499	0	316
90.696	111.215	16397	18018	0	316
88.677	100.721	16397	17634	0	316
86.477	90.588	16397	17249	0	316
81.284	80.671	16397	16960	0	316
66.571	71.691	16397	16768	0	316
55.572	66.390	16397	16768	0	316
48.648	68.410	16397	16672	0	316
53.696	74.612	16397	16576	0	316
58.601	77.317	16403	16672	0	316
53.011	66.066	16403	16960	0	316
33.718	41.327	16397	17153	0	316
5.193	9.809	16411	17537	0	316
-18.247	-13.379	16411	17922	0	316
-28.309	-25.207	16411	18210	0	316
-29.679	-26.650	16411	18307	0	316
-34.187	-32.780	16411	18210	0	316
-47.313	-46.051	16417	18210	0	316
-70.213	-66.462	16417	18114	0	316
-94.519	-86.765	16417	17634	0	316
-106.635	-97.079	16417	16960	0	316
-106.022	-99.062	16417	16384	0	316
-101.479	-99.098	16411	15904	0	316
-104.111	-104.400	16411	15134	0	316
-117.346	-119.690	16411	14558	0	316
-133.321	-130.905	16411	14365	0	316
-142.517	-136.098	16411	14365	0	316
-139.704	-132.095	16403	14365	0	316
-131.230	-120.411	16403	14365	0	316
-124.883	-113.091	16403	14461	0	316
-125.676	-109.376	16403	14654	0	316
-126.253	-111.504	16403	14750	0	316
-127.948	-116.480	16403	14750	0	316
-127.587	-122.755	16403	14846	0	316
-131.049	-131.085	16403	15038	0	316
-138.839	-138.045	16403	15231	0	316
-150.126	-139.668	16403	15519	0	316
-155.752	-136.531	16403	15808	0	316
-155.103	-128.741	16403	15808	0	316
-147.422	-120.519	16403	15711	0	316
-136.964	-116.877	16403	15519	0	316
-129.391	-117.454	16403	15327	0	316
-130.617	-127.804	16397	14942	0	316
-138.550	-139.524	16389	14558	0	316
-148.359	-150.451	16397	14461	0	316
-152.074	-155.355	16397	14461	0	316
-150.631	-151.100	16389	14365	0	316
-146.051	-145.763	16389	14269	0	316
-143.563	-142.914	16389	14173	0	316
-146.484	-143.779	16384	14077	0	316
-148.539	-145.510	16379	14173	0	316
-148.828	-145.835	16384	14365	0	316
-147.349	-140.281	16384	14558	0	316
-147.746	-136.783	16384	14654	0	316
-149.657	-136.098	16379	14654	0	316
-153.552	-141.904	16379	14558	0	316
-157.194	-148.251	16379	14654	0	316
-154.382	-154.021	16379	14750	0	316
-150.992	-154.706	16371	14942	0	316
-145.330	-150.487	16379	15134	0	316
-143.635	-146.051	16371	15231	0	316
-148.071	-142.337	16371	15519	0	316
-154.922	-139.885	16371	16000	0	316
-160.079	-135.882	16371	16480	0	316
-152.939	-129.571	16371	17057	0	316
-139.776	-123.404	16371	17537	0	316
-130.689	-124.919	16379	17826	0	316
-132.276	-130.869	16379	18114	0	316
-136.387	-135.413	16379	18595	0	316
-137.901	-130.436	16379	19076	0	316
-128.994	-117.382	16384	19364	0	316
-113.199	-104.400	16384	19557	0	316
-102.092	-96.682	16389	19941	0	316
-98.918	-96.682	16389	20326	0	316
-100.938	-99.459	16397	20614	0	316
-103.534	-99.279	16397	20518	0	316
-108.871	-102.560	16397	20230	0	316
-116.408	-108.655	16397	19749	0	316
-121.493	-113.127	16397	19364	0	316
-120.772	-110.025	16397	18884	1	396
-111.864	-99.639	16397	18403	0	396
-100.361	-85.431	16389	18018	0	396
-99.062	-77.786	16397	17634	0	396
-103.750	-80.022	16397	17345	0	396
-111.756	-86.982	16397	16960	0	396
-113.920	-93.040	16397	16480	0	396
-109.520	-96.105	16389	16000	0	396
-103.895	-97.223	16389	15519	0	396
-100.793	-98.918	16384	15134	0	396
-102.669	-99.135	16384	15038	0	396
-102.993	-95.636	16384	15134	0	396
-100.938	-91.742	16384	15231	0	396
-96.863	-87.739	16389	15423	0	396
-91.309	-86.693	16389	15615	0	396
-91.057	-88.424	16389	15808	0	396
-89.001	-89.362	16389	15904	0	396
-90.263	-86.909	16389	15904	0	396
-90.768	-79.950	16389	16096	0	396
-89.794	-76.632	16389	16192	0	396
-92.355	-75.370	16389	16384	0	396
-93.040	-81.428	16397	16480	0	396
-98.089	-87.198	16397	16576	0	396
-100.505	-90.552	16397	16480	0	396
-101.947	-89.290	16397	16288	0	396
-102.380	-83.087	16397	16000	0	396
-103.282	-80.815	16389	15711	0	396
-106.671	-82.366	16389	15423	0	396
-108.907	-84.385	16389	14942	0	396
-103.967	-84.169	16384	14461	0	396
-94.122	-81.067	16384	14077	0	396
-83.736	-77.605	16379	13692	0	396
-79.156	-79.336	16379	13308	0	396
-85.936	-84.602	16371	12827	0	396
-94.194	-89.975	16371	12346	0	396
-97.836	-88.100	16365	12058	0	396
-91.489	-81.608	16357	11961	0	396
-82.041	-73.530	16357	12058	0	396
-78.219	-67.003	16357	12250	0	396
-78.579	-68.049	16351	12634	0	396
-85.179	-70.573	16357	13211	0	396
-89.145	-72.917	16365	13884	0	396
-93.509	-75.261	16357	14365	0	396
-94.483	-75.550	16357	14942	0	396
-95.276	-75.261	16357	15615	0	396
-93.833	-75.586	16357	16288	0	396
-86.657	-75.370	16357	16960	0	396
-80.815	-77.533	16365	17922	0	396
-75.694	-79.012	16365	18787	0	396
-73.711	-79.517	16371	19364	0	396
-73.494	-79.733	16371	19749	0	396
-74.107	-77.425	16371	20037	0	396
-73.134	-76.127	16379	20518	0	396
-77.425	-78.074	16379	21191	0	396
-83.880	-79.986	16384	21864	0	396
-87.811	-80.743	16389	21960	0	396
-90.480	-77.569	16389	21768	0	396
-86.909	-72.232	16389	21287	0	396
-83.015	-69.419	16389	20903	0	396
-81.356	-68.987	16397	20518	0	396
-84.890	-73.747	16397	20037	0	396
-89.903	-77.101	16397	19460	0	396
-90.588	-76.524	16397	18884	0	396
-91.309	-71.908	16397	18499	0	396
-87.847	-72.124	16397	17922	0	396
-89.001	-74.396	16397	17441	0	396
-93.220	-80.490	16397	16960	0	396
-94.446	-84.241	16397	16480	0	396
-95.817	-85.683	16397	16288	0	396
-94.014	-86.296	16397	16096	0	396
-97.584	-92.679	16397	16000	0	396
-111.143	-104.327	16397	16096	0	396
-128.092	-115.254	16397	16192	0	396
-141.507	-119.762	16397	16192	0	396
-145.041	-117.274	16389	16000	0	396
-138.875	-113.595	16397	15808	0	396
-132.239	-113.992	16397	15808	0	396
-127.299	-114.389	16403	15904	0	396
-125.027	-114.389	16403	16192	0	396
-123.909	-108.222	16397	16288	1	316
-115.831	-99.892	16397	16192	0	316
-107.789	-93.509	16397	16000	0	316
-100.541	-93.148	16397	15711	0	316
-100.072	-97.620	16397	15423	0	316
-107.789	-106.816	16397	15134	0	316
-121.601	-116.264	16397	14942	0	316
-135.882	-124.486	16389	14654	0	316
-142.337	-128.453	16389	14365	0	316
-141.652	-127.010	16389	14269	0	316
-135.197	-120.339	16389	14269	0	316
-128.525	-113.307	16384	14077	0	316
-121.132	-108.547	16384	13884	0	316
-117.166	-105.157	16384	13692	0	316
-111.648	-101.659	16384	13596	0	316
-104.436	-98.666	16379	13404	0	316
-99.459	-93.256	16379	13308	0	316
-94.735	-87.559	16371	13308	0	316
-91.345	-82.546	16371	13211	0	316
-89.650	-78.074	16371	13211	0	316
-87.090	-72.701	16365	13211	0	316
-79.661	-66.679	16365	13115	0	316
-66.102	-57.843	16357	13115	0	316
-52.759	-49.261	16357	13211	0	316
-39.308	-43.491	16365	13500	0	316
-35.521	-38.514	16365	13981	0	316
-35.052	-35.341	16371	14654	0	316
-35.918	-26.758	16365	15327	0	316
-26.758	-13.523	16365	15904	0	316
-14.677	-1.839	16365	16576	0	316
-5.265	5.914	16365	17441	0	316
4.472	6.022	16371	18403	0	316
5.878	5.914	16371	19364	0	316
8.547	8.330	16379	20230	0	316
10.350	17.382	16384	20903	0	316
11.648	27.155	16384	21287	0	316
14.533	32.492	16389	21576	0	316
16.336	34.692	16389	21864	0	316
24.702	37.108	16397	22057	0	316
32.312	40.642	16397	22057	0	316
37.613	49.261	16403	21768	0	316
42.337	55.283	16403	21384	0	316
49.080	60.151	16403	20999	0	316
60.945	63.289	16403	20422	0	316
73.963	68.121	16397	19749	0	316
82.834	73.170	16411	19076	0	316
79.084	77.714	16411	18499	0	316
72.953	79.769	16403	17922	0	316
70.285	82.041	16403	17537	0	316
74.035	85.287	16403	17249	0	316
88.496	91.345	16403	16864	0	316
99.820	97.981	16403	16384	0	316
103.859	100.865	16403	15808	0	316
99.279	101.767	16397	15327	0	316
92.499	102.092	16397	14750	0	316
84.565	102.705	16397	13981	0	316
84.205	103.065	16389	13308	0	316
85.828	105.229	16389	12827	0	316
94.879	107.357	16384	12442	0	316
103.390	110.025	16384	12250	0	316
112.730	114.930	16384	12154	0	316
117.887	117.166	16379	12250	0	316
115.579	114.894	16379	12346	0	316
105.265	107.068	16379	12634	0	316
93.148	97.476	16379	13211	0	316
84.457	90.552	16379	13884	0	316
81.789	91.021	16379	14461	0	316
86.657	97.512	16379	15038	0	316
95.420	106.058	16379	15711	0	316
101.010	109.304	16384	16384	0	316
104.904	105.626	16384	16864	0	316
102.056	97.981	16384	17345	0	316
99.351	92.427	16389	17634	0	316
96.358	93.545	16389	18018	0	316
97.115	104.075	16389	18307	0	316
100.072	115.939	16397	18595	0	316
103.498	127.407	16397	18691	0	316
105.554	131.735	16397	18884	0	316
107.140	130.328	16397	18884	0	316
107.537	125.748	16403	18691	1	316
109.304	122.142	16403	18499	0	316
109.124	120.339	16403	18210	0	316
108.042	121.421	16403	17826	0	316
107.176	125.099	16403	17441	0	316
108.691	126.253	16403	17441	0	316
111.107	125.316	16403	17634	0	316
111.215	118.933	16411	18018	0	316
111.756	111.792	16411	18307	0	316
111.576	111.973	16411	18499	0	316
113.776	119.329	16411	18499	0	316
117.779	134.764	16411	18210	0	316
118.500	147.133	16411	17922	0	316
116.012	149.116	16411	17634	0	316
113.451	140.858	16411	17537	0	316
115.723	131.518	16417	17345	0	316
119.293	124.558	16417	16960	0	316
122.935	121.998	16411	16384	0	316
119.906	122.178	16411	15808	0	316
113.451	117.923	16411	15327	0	316
110.350	112.910	16403	14942	0	316
107.681	106.383	16411	14750	0	316
104.219	101.442	16411	14654	0	316
95.781	96.358	16403	14558	0	316
81.644	91.561	16403	14461	0	316
69.636	87.126	16397	14365	0	316
62.459	86.873	16397	14173	0	316
59.034	88.929	16397	14077	0	316
57.375	91.093	16397	14077	0	316
54.021	89.867	16397	13981	0	316
51.172	86.549	16397	13788	0	316
54.237	83.916	16389	13788	0	316
61.882	85.431	16389	13981	0	316
71.475	90.011	16389	14077	0	316
73.350	94.014	16389	13884	0	316
68.157	90.732	16384	13596	0	316
62.964	84.277	16384	13211	0	316
63.938	78.940	16379	12827	0	316
72.845	80.490	16379	12634	0	316
83.195	86.513	16371	12731	0	316
85.647	92.571	16371	13211	0	316
76.812	95.600	16371	14077	0	316
67.003	93.797	16371	15134	0	316
58.961	90.047	16379	16000	0	316
55.896	86.946	16379	16768	0	316
57.843	84.710	16379	17345	0	316
56.076	81.464	16384	17922	0	316
54.634	78.074	16384	18307	0	316
49.153	72.124	16384	18403	0	316
44.428	66.282	16384	18499	0	316
41.291	61.053	16384	18595	0	316
38.406	56.076	16384	18595	0	316
36.711	53.877	16389	18595	0	316
32.203	51.569	16389	18499	0	316
23.765	47.277	16389	18307	0	316
18.897	45.907	16389	18307	0	316
18.464	46.736	16389	18307	0	316
24.630	49.080	16389	18210	0	316
31.915	49.116	16389	18307	0	316
32.853	41.976	16389	18403	0	316
28.056	31.410	16389	18210	0	316
19.582	25.352	16389	17826	0	316
13.848	25.712	16389	17249	0	316
11.648	34.115	16389	16864	0	316
13.668	40.642	16389	16384	0	316
17.310	42.120	16384	15904	0	316
15.939	38.118	16384	15327	0	316
15.471	36.242	16384	15134	0	316
13.451	36.314	16384	15038	0	316
15.615	38.262	16384	15134	0	316
18.788	39.416	16384	15327	0	316
23.188	39.993	16384	15615	0	316
23.224	38.514	16384	15808	0	316
20.339	39.632	16384	16192	0	316
13.415	40.245	16384	16480	0	316
13.235	40.930	16384	16768	0	316
17.779	42.842	16384	16768	0	316
29.499	47.205	16384	16672	0	316
39.163	55.103	16384	16672	0	316
43.130	57.952	16389	16672	0	316
36.783	56.690	16389	16672	0	316
24.342	47.241	16389	16768	0	316
11.864	35.882	16389	16768	0	316
12.261	31.230	16389	16768	0	316
17.598	33.285	16389	16768	0	316
29.138	41.435	16389	16672	0	316
36.675	45.799	16389	16576	0	316
34.800	45.835	16389	16384	0	316
25.784	39.344	16389	16192	0	316
13.307	30.905	16384	16192	0	316
5.734	25.135	16389	16288	0	316
2.344	21.132	16389	16576	0	316
2.596	18.644	16389	17057	0	316
1.298	16.589	16397	17537	0	316
0.397	16.480	16397	18018	0	316
1.154	17.815	16397	18210	0	316
5.229	21.096	16403	18307	0	316
8.655	25.568	16403	18403	0	316
8.294	25.027	16403	18499	0	316
5.265	22.142	16411	18403	0	316
5.049	20.916	16411	18018	0	316
12.405	23.945	16397	17441	0	316
24.270	31.446	16397	16672	0	316
32.420	40.858	16397	15808	0	316
32.456	45.691	16389	14846	0	316
25.748	44.140	16384	13981	0	316
17.634	36.928	16384	13211	0	316
8.583	26.361	16379	12827	0	316
3.570	13.307	16379	12538	0	316
-0.974	5.842	16379	12442	0	316
0.288	5.734	16371	12538	0	316
4.291	13.559	16371	12731	0	316
12.297	22.034	16371	13019	0	316
14.605	24.919	16371	13404	0	316
10.242	17.995	16371	13692	0	316
2.993	10.025	16371	13788	0	316
-3.967	6.022	16371	13788	0	316
-7.140	11.107	16365	13788	0	316
-7.285	15.038	16365	13884	0	316
-7.717	13.559	16365	13981	0	316
-9.340	6.275	16357	14077	0	316
-11.179	-0.865	16357	14461	0	316
-5.481	-1.767	16357	15038	0	316
5.373	5.986	16357	15711	0	316
13.271	12.261	16357	16384	0	316
14.064	11.215	16365	16864	0	316
4.111	2.236	16365	17345	0	316
-10.169	-8.366	16365	17634	0	316
-17.454	-13.776	16365	17922	0	316
-18.752	-9.737	16365	18210	0	316
-10.783	0.793	16365	18499	0	316
-3.678	8.042	16365	18691	0	316
-3.137	11.396	16371	18884	0	316
-6.022	7.465	16379	18980	0	316
-11.323	2.019	16379	18787	0	316
-16.300	-3.210	16371	18307	0	316
-23.404	-9.196	16371	17634	0	316
-26.686	-13.235	16379	17249	0	316
-31.554	-18.428	16371	17153	0	316
-31.410	-19.221	16371	17153	0	316
-25.279	-13.812	16371	17249	0	316
-14.749	-6.996	16371	17634	0	316
-6.203	-2.741	16379	18114	0	316
-3.354	-5.121	16379	18403	0	316
-7.032	-10.386	16379	18499	0	316
-14.966	-12.982	16379	18403	0	316
-17.634	-9.809	16379	18307	0	316
-15.326	-2.669	16379	18210	0	316
-12.477	1.947	16384	18210	0	316
-8.835	1.190	16384	18210	0	316
-5.842	-0.180	16384	18114	0	316
-5.698	-1.010	16384	18114	0	316
-5.878	-0.108	16384	18114	0	316
-7.645	-0.685	16389	18114	0	316
-11.251	-6.455	16389	18210	0	316
-18.031	-11.973	16389	18307	0	316
-17.706	-14.641	16397	18403	0	316
-16.012	-12.009	16397	18403	0	316
-14.245	-6.203	16397	18403	0	316
-14.172	-1.983	16403	18307	0	316
-17.274	-3.354	16397	18210	0	316
-15.543	-3.823	16403	18114	0	316
-12.766	-4.544	16403	17922	0	316
-8.078	-4.400	16403	17634	0	316
-5.698	-4.219	16403	17345	0	316
-8.727	-9.376	16403	16864	0	316
-16.336	-14.353	16397	16384	0	316
-20.303	-19.365	16397	15615	0	316
-23.909	-17.634	16397	14942	0	316
-23.116	-11.251	16389	14173	0	316
-21.565	-3.101	16389	13596	0	316
-21.168	3.318	16389	13211	0	316
-19.221	5.626	16384	13019	0	316
-17.562	6.635	16384	12923	0	316
-10.278	6.419	16384	13115	0	316
-4.760	4.616	16384	13308	0	316
-1.767	2.416	16384	13596	0	316
-6.131	-1.983	16384	13788	0	316
-14.858	-4.472	16379	13788	0	316
-21.024	-2.200	16379	13596	0	316
-21.313	4.147	16379	13404	0	316
-17.021	10.097	16371	12923	0	316
-9.701	10.999	16371	12538	0	316
-3.787	8.006	16365	12538	0	316
-0.252	5.662	16365	12827	0	316
1.551	3.534	16365	13404	0	316
-0.649	5.698	16371	14077	0	316
-5.626	4.977	16371	14750	0	316
-11.143	3.065	16371	15231	0	316
-11.828	2.921	16371	15519	0	316
-7.176	8.402	16379	15808	0	316
0.144	16.156	16371	16192	0	316
5.842	22.322	16371	16576	0	316
7.789	23.224	16371	17153	0	316
3.967	18.572	16371	17826	0	316
0.649	14.317	16379	18307	0	316
-0.829	13.812	16379	18595	0	316
-1.623	13.343	16379	18787	0	316
-0.469	13.487	16379	18980	0	316
0.252	9.088	16384	19172	0	316
2.272	4.472	16384	19364	0	316
6.419	7.248	16384	19460	0	316
11.864	14.100	16384	19460	0	316
15.074	23.404	16384	19268	0	316
12.514	26.866	16389	18980	0	316
4.508	22.286	16389	18787	0	316
0.325	12.622	16389	18787	0	316
-2.272	5.662	16389	18787	1	828
-0.541	4.147	16389	18595	0	828
6.347	7.032	16389	18210	0	828
10.133	9.845	16389	17730	0	828
9.304	8.979	16389	17249	0	828
7.789	9.845	16389	16864	0	828
3.498	9.268	16389	16576	0	828
0.505	10.638	16389	16384	0	828
-1.515	8.330	16389	16000	0	828
0.541	6.527	16384	15615	0	828
6.816	5.481	16389	15615	0	828
15.002	8.402	16384	15904	0	828
20.447	15.939	16389	16192	0	828
22.935	21.385	16389	16384	0	828
15.543	20.339	16389	16672	0	828
5.049	15.795	16397	16960	0	828
-2.813	8.619	16397	17153	0	828
-3.714	6.058	16397	17537	0	828
2.524	6.960	16397	17826	0	828
10.133	8.871	16397	17922	0	828
15.831	11.864	16397	17826	0	828
17.526	14.425	16397	17730	0	828
14.533	17.959	16403	17634	0	828
11.396	23.044	16403	17441	0	828
8.583	25.171	16403	17153	0	828
5.770	23.801	16403	16864	0	828
4.796	19.870	16403	16672	0	828
3.823	15.795	16403	16480	0	828
1.623	12.586	16403	16384	0	828
1.334	15.867	16403	16192	0	828
0.829	18.464	16403	16192	0	828
-0.974	18.175	16403	16288	0	828
-1.479	15.759	16411	16384	0	828
0.757	12.153	16411	16384	0	828
5.698	11.973	16411	16192	0	828
14.713	16.552	16411	15808	0	828
19.329	23.657	16411	15615	0	828
21.313	28.669	16403	15423	0	828
15.290	25.856	16403	15327	0	828
11.720	23.260	16403	15327	0	828
13.595	20.664	16397	15231	0	828
25.640	22.322	16397	15038	0	828
37.973	26.542	16397	14942	0	828
47.530	27.443	16397	14846	0	828
47.241	29.607	16397	14846	0	828
39.812	30.869	16397	14846	0	828
33.898	35.449	16397	14942	0	828
29.823	38.406	16397	15038	0	828
28.020	39.019	16397	15134	0	828
26.397	33.393	16397	15327	0	828
21.926	26.037	16397	15519	0	828
21.781	26.542	16397	15711	0	828
28.345	30.364	16397	15904	0	828
37.216	35.557	16397	16000	0	828
42.842	33.934	16397	16000	0	828
39.091	26.650	16397	15711	0	828
28.453	17.743	16397	15423	0	828
18.067	13.127	16397	15231	0	828
12.405	14.317	16389	15134	0	828
10.710	17.166	16389	15134	0	828
13.812	16.552	16384	15038	0	828
12.153	11.792	16389	15038	0	828
12.009	7.789	16389	15134	0	828
11.143	6.924	16389	15231	0	828
10.169	7.537	16389	15231	0	828
10.819	8.799	16384	15327	0	828
14.461	7.681	16384	15327	0	828
15.831	6.780	16384	15423	0	828
18.211	6.275	16384	15711	0	828
13.595	9.701	16384	16192	0	828
9.232	13.163	16389	16576	0	828
7.285	16.300	16389	16960	0	828
11.792	20.159	16389	17153	0	828
21.781	23.693	16389	17249	0	828
30.761	25.460	16384	17153	0	828
33.033	24.775	16384	16960	0	828
31.735	22.178	16384	16864	0	828
29.859	19.005	16384	16960	0	828
31.518	18.175	16384	16960	0	828
37.721	23.837	16384	16960	0	828
45.402	31.194	16379	16576	0	828
51.893	41.327	16384	16192	0	828
59.286	50.956	16384	15808	0	828
61.702	56.798	16379	15423	0	828
60.584	57.194	16379	15038	0	828
56.185	54.634	16379	14846	0	828
49.080	51.785	16371	14750	0	828
47.999	52.831	16371	14750	0	828
52.614	57.663	16379	14846	0	828
59.142	61.378	16371	14846	0	828
64.118	63.649	16365	14942	0	828
61.918	61.197	16365	14942	0	828
56.509	57.627	16365	15231	0	828
48.972	53.805	16365	15615	0	828
48.648	49.946	16365	16000	0	828
52.795	49.225	16365	16384	0	828
60.765	48.431	16371	17057	0	828
65.813	49.261	16371	17826	0	828
61.630	48.467	16379	18595	0	828
48.792	42.734	16379	19172	0	828
30.220	31.771	16379	19460	0	828
17.129	21.024	16384	19557	0	828
9.088	14.136	16384	19460	0	828
11.287	12.514	16384	19364	0	828
11.251	12.982	16384	19364	0	828
7.970	10.530	16389	19460	0	828
1.298	4.039	16389	19653	0	828
-3.390	-0.721	16389	19845	0	828
-4.003	-0.036	16397	20134	0	828
-0.902	6.419	16397	20230	0	828
-0.252	8.619	16403	20134	1	440
-8.763	4.724	16403	19845	0	440
-17.815	-5.337	16403	19460	0	440
-26.037	-14.317	16403	18884	0	440
-24.234	-14.713	16403	18210	0	440
-18.536	-9.088	16403	17634	0	440
-16.408	-4.544	16403	17153	0	440
-18.933	-4.652	16397	16672	0	440
-25.460	-8.799	16403	16288	0	440
-30.905	-12.874	16403	15808	0	440
-33.321	-14.569	16397	15519	0	440
-33.249	-16.012	16397	15134	0	440
-30.581	-16.192	16397	14750	0	440
-27.912	-18.608	16397	14461	0	440
-22.034	-19.113	16389	14269	0	440
-16.877	-16.516	16389	13981	0	440
-19.762	-12.297	16389	13788	0	440
-24.125	-12.081	16389	13692	0	440
-31.987	-14.713	16389	13692	0	440
-37.072	-20.591	16389	13692	0	440
-36.603	-26.794	16384	13788	0	440
-33.105	-28.381	16384	13884	0	440
-30.400	-27.083	16384	14077	0	440
-30.725	-25.820	16384	14269	0	440
-31.518	-26.037	16384	14461	0	440
-33.357	-28.850	16384	14558	0	440
-33.934	-29.823	16384	14654	0	440
-32.672	-30.400	16384	14558	0	440
-32.131	-31.662	16379	14461	0	440
-34.908	-33.502	16379	14365	0	440
-38.154	-37.000	16379	14365	0	440
-41.183	-36.387	16379	14461	0	440
-40.065	-33.249	16379	14750	0	440
-36.134	-25.856	16379	15231	0	440
-30.040	-22.431	16379	15808	0	440
-24.811	-19.510	16379	16096	0	440
-20.195	-20.483	16379	16480	0	440
-18.969	-18.788	16379	17057	0	440
-17.274	-17.238	16384	17730	0	440
-19.041	-14.353	16384	18210	0	440
-21.132	-14.353	16384	18499	0	440
-24.811	-17.310	16389	18787	0	440
-28.309	-20.231	16389	19172	0	440
-30.653	-23.116	16397	19364	0	440
-29.246	-22.683	16397	19268	0	440
-28.705	-22.214	16397	19172	0	440
-29.607	-19.978	16397	18980	0	440
-30.725	-18.752	16397	18980	0	440
-30.148	-17.418	16403	18980	0	440
-26.794	-13.487	16403	19076	0	440
-17.634	-12.009	16403	19076	0	440
-11.900	-12.081	16411	18980	0	440
-11.973	-19.221	16411	18691	0	440
-23.476	-25.965	16411	18114	0	440
-34.259	-31.085	16403	17249	0	440
-41.327	-30.617	16403	16576	0	440
-43.022	-24.630	16403	16096	0	440
-36.098	-19.906	16403	15519	0	440
-26.938	-15.579	16397	14750	0	440
-17.166	-13.018	16397	14173	0	440
-9.881	-8.871	16389	13692	0	440
-4.724	-8.691	16389	13019	0	440
-9.520	-10.314	16384	12346	0	440
-18.752	-16.552	16384	11865	0	440
-24.414	-21.962	16379	11673	0	440
-24.414	-22.899	16379	11769	0	440
-13.956	-17.382	16379	12154	0	440
-2.993	-10.710	16371	12731	0	440
1.010	-6.960	16371	13308	0	440
-1.370	-4.616	16371	13788	0	440
-7.285	-3.462	16371	14269	0	440
-10.891	-3.787	16371	14750	0	440
-8.871	-2.957	16371	15231	0	440
-6.239	-3.101	16371	15615	0	440
-4.544	-4.255	16371	16000	0	440
-5.337	-6.708	16371	16288	0	440
-5.626	-9.196	16371	16384	0	440
-6.131	-11.323	16371	16384	0	440
-4.003	-13.631	16371	16384	0	440
-0.685	-11.828	16371	16096	0	440
-0.216	-7.862	16365	16000	0	440
0.541	-1.190	16365	16192	0	440
-0.685	0.505	16365	16576	0	440
-7.140	-1.947	16371	17057	0	440
-13.018	-9.268	16371	17537	0	440
-14.461	-15.507	16371	17730	0	440
-12.694	-16.156	16371	17826	0	440
-5.085	-11.684	16371	17826	0	440
2.705	-6.131	16371	17826	0	440
5.626	-2.993	16371	17826	0	440
2.308	-6.203	16371	17730	0	440
-0.793	-6.167	16371	17634	0	440
0.216	-2.777	16379	17634	0	440
8.006	4.868	16379	17730	0	440
17.093	11.071	16379	17826	0	440
18.860	12.441	16379	17922	0	440
15.939	5.373	16379	17826	0	440
6.924	-0.036	16379	17634	0	440
0.685	-2.308	16379	17634	0	440
0.793	1.623	16384	17826	0	440
2.236	8.150	16384	18018	0	440
3.462	10.638	16384	18018	0	440
3.534	11.215	16384	17826	0	440
5.337	10.314	16384	17345	0	440
9.953	11.071	16384	16768	0	440
11.756	12.730	16379	16384	0	440
9.989	9.088	16379	16096	0	440
6.888	4.255	16379	15808	0	440
4.760	-2.669	16379	15615	0	440
5.626	-4.580	16379	15615	0	440
8.294	-2.308	16379	15808	0	440
8.042	3.029	16379	16096	0	440
6.203	6.491	16379	16288	0	440
2.200	4.327	16379	16384	0	440
0.505	1.551	16379	16480	0	440
-1.442	-1.875	16379	16672	0	440
-2.164	-4.075	16384	16960	0	440
-2.957	-4.688	16384	17153	0	440
-1.587	-5.445	16384	17441	0	440
0.036	-8.330	16384	17730	0	440
0.180	-10.783	16384	17826	0	440
-4.796	-11.396	16389	17826	0	440
-8.727	-10.746	16389	17634	0	440
-15.110	-10.710	16389	17441	0	440
-20.303	-15.326	16389	17345	0	440
-21.745	-19.654	16389	17345	0	440
-18.283	-19.654	16389	17249	0	440
-7.753	-14.136	16389	17249	0	440
1.479	-4.904	16397	17345	0	440
7.248	-0.469	16397	17537	0	440
4.327	-4.940	16389	17537	0	440
-4.544	-12.369	16397	17537	0	440
-9.773	-16.625	16397	17441	0	440
-9.917	-14.317	16403	17249	0	440
-7.212	-9.809	16397	17057	0	440
-5.734	-6.527	16397	16960	0	440
-8.402	-9.520	16397	16960	0	440
-13.487	-12.946	16397	16864	0	440
-19.582	-15.471	16397	16672	0	440
-22.791	-14.569	16397	16384	0	440
-26.361	-14.208	16397	16384	0	440
-28.164	-12.333	16397	16288	0	440
-27.732	-13.127	16397	16096	0	440
-25.496	-12.946	16397	15808	0	440
-25.748	-14.785	16397	15615	0	440
-24.270	-12.477	16397	15231	0	440
-21.241	-11.864	16397	14846	0	440
-19.510	-6.671	16389	14461	0	440
-12.802	-1.154	16389	14077	0	440
-8.042	5.517	16389	13788	0	440
-5.806	8.042	16384	13500	0	440
-6.058	8.943	16384	13308	0	440
-9.520	6.347	16384	13308	0	440
-17.129	2.705	16379	13211	0	440
-21.565	-1.947	16379	13308	0	440
-26.217	-4.327	16379	13308	0	440
-27.191	-6.419	16379	13500	0	440
-21.060	-3.390	16371	13692	0	440
-17.490	0.325	16371	13788	0	440
-10.891	5.085	16371	14077	0	440
-9.340	8.150	16371	14558	0	440
-10.891	8.402	16371	15231	0	440
-11.937	4.688	16371	15904	0	440
-15.867	2.993	16371	16288	0	440
-17.129	4.075	16379	16480	0	440
-15.398	6.563	16379	16672	0	440
-15.543	9.737	16379	16864	0	440
-13.812	12.045	16371	16864	0	440
-12.622	10.999	16371	16768	0	440
-7.104	9.845	16371	16768	0	440
0.649	8.439	16371	16960	0	440
11.396	8.222	16371	17153	0	440
17.021	9.304	16379	17057	0	440
18.752	10.422	16379	16864	0	440
12.946	13.992	16379	16768	0	440
9.592	19.906	16379	16672	0	440
9.412	25.316	16379	16672	0	440
9.737	26.758	16379	16576	0	440
11.107	25.676	16379	16480	0	440
10.061	22.178	16371	16480	0	440
8.006	20.267	16371	16576	0	440
8.511	22.106	16371	16384	0	440
10.927	26.830	16371	16288	0	440
15.543	27.624	16371	16000	0	440
17.779	26.506	16365	15808	0	440
20.483	21.673	16365	15615	0	440
17.995	17.851	16365	15423	0	440
15.290	18.536	16365	15423	0	440
9.196	22.539	16365	15711	0	440
6.058	24.630	16365	16192	0	440
9.124	26.037	16365	16480	0	440
15.002	25.099	16365	16864	0	440
20.808	23.909	16365	17153	0	440
21.024	23.512	16365	17441	0	440
16.264	20.123	16365	17441	0	440
7.212	13.307	16365	17537	0	440
0.469	5.409	16365	17826	0	440
1.731	1.983	16379	18114	0	440
7.212	6.635	16379	18210	0	440
12.225	14.317	16379	18114	0	440
15.543	19.257	16379	17826	0	440
13.307	18.752	16371	17249	0	440
12.838	13.379	16371	16672	0	440
14.028	8.511	16371	16288	1	812
16.192	5.734	16365	15904	0	812
19.618	4.327	16365	15519	0	812
15.471	2.056	16365	15231	0	812
11.035	-1.875	16365	15134	0	812
6.852	-3.390	16365	15327	0	812
8.799	-1.731	16357	15423	0	812
11.648	4.111	16357	15519	0	812
13.415	7.393	16357	15711	0	812
9.701	7.032	16357	15904	0	812
5.662	1.587	16357	16288	0	812
3.101	-3.606	16365	16672	0	812
3.606	-3.678	16365	17249	0	812
4.472	-1.803	16365	17730	0	812
0.685	-1.911	16365	18018	0	812
-6.527	-7.068	16379	18018	0	812
-14.930	-14.353	16379	18018	0	812
-19.113	-15.254	16379	17922	0	812
-15.290	-7.753	16379	17730	0	812
-13.271	1.839	16379	17537	0	812
-11.828	5.517	16379	17345	0	812
-13.127	-1.695	16379	17345	0	812
-17.093	-11.684	16384	17537	0	812
-16.300	-19.798	16379	17730	0	812
-13.740	-20.519	16384	18018	0	812
-7.501	-16.805	16384	18307	0	812
-6.167	-15.074	16384	18595	0	812
-6.275	-15.507	16389	18691	0	812
-11.107	-15.795	16384	18691	0	812
-15.182	-15.254	16389	18595	0	812
-16.805	-13.668	16397	18595	0	812
-20.736	-15.218	16397	18499	0	812
-21.385	-18.572	16397	18499	0	812
-21.745	-19.582	16397	18307	0	812
-21.529	-16.733	16389	17922	0	812
-19.257	-12.189	16389	17537	0	812
-21.096	-10.350	16389	17153	0	812
-26.433	-13.595	16389	16864	0	812
-31.122	-21.854	16397	16672	0	812
-35.449	-27.696	16397	16384	0	812
-34.295	-27.984	16397	16288	0	812
-30.292	-24.919	16389	15904	0	812
-26.181	-23.188	16389	15519	0	812
-25.893	-21.241	16389	15423	0	812
-25.676	-23.873	16397	15519	0	812
-25.929	-24.775	16397	15615	0	812
-25.352	-24.089	16397	15711	0	812
-22.250	-23.981	16397	15904	0	812
-18.608	-21.890	16397	16000	0	812
-19.690	-20.411	16397	16096	0	812
-18.247	-19.546	16397	15904	0	812
-22.467	-19.149	16397	15808	0	812
-24.414	-20.087	16397	15423	0	812
-24.414	-21.745	16397	15134	0	812
-23.224	-25.099	16397	14942	0	812
-21.349	-24.558	16397	14750	0	812
-15.218	-22.791	16397	14654	0	812
-12.586	-19.690	16397	14654	0	812
-10.025	-17.454	16389	14654	0	812
-7.862	-16.589	16389	14558	0	812
-7.681	-19.077	16389	14365	0	812
-9.160	-21.132	16389	14269	0	812
-10.242	-23.837	16389	14173	0	812
-10.242	-25.929	16384	14173	0	812
-10.566	-25.027	16384	14173	0	812
-12.477	-26.001	16384	14269	0	812
-11.143	-25.640	16384	14558	0	812
-11.828	-25.893	16384	14942	0	812
-10.025	-25.207	16384	15327	0	812
-4.652	-24.125	16384	15615	0	812
2.885	-19.257	16384	15711	0	812
7.934	-12.766	16384	15808	0	812
8.763	-7.825	16384	16000	0	812
6.491	-6.275	16384	16384	0	812
-0.938	-7.537	16384	16672	0	812
-6.383	-11.612	16389	17057	0	812
-9.196	-13.884	16389	17441	0	812
-8.402	-12.622	16389	17730	0	812
-7.357	-10.530	16389	17922	0	812
-7.825	-8.366	16389	17922	1	316
-12.333	-9.232	16389	17730	0	316
-18.788	-11.684	16389	17441	0	316
-24.522	-15.002	16389	17153	0	316
-28.056	-17.779	16389	16864	0	316
-29.066	-18.933	16389	16576	0	316
-28.453	-18.969	16389	16288	0	316
-28.633	-18.175	16379	16000	0	316
-28.128	-18.139	16384	15808	0	316
-29.030	-18.644	16384	15711	0	316
-31.302	-21.060	16384	15519	0	316
-36.314	-24.125	16384	15327	0	316
-40.606	-26.397	16384	15327	0	316
-43.238	-29.210	16384	15615	0	316
-39.524	-29.571	16384	15904	0	316
-32.853	-26.686	16379	15904	0	316
-21.637	-19.293	16379	15808	0	316
-15.435	-8.258	16379	15808	0	316
-11.396	-0.072	16379	16000	0	316
-14.497	2.957	16379	16384	0	316
-19.185	-1.010	16384	16768	0	316
-26.938	-11.035	16384	17153	0	316
-29.715	-15.831	16384	17441	0	316
-25.460	-14.533	16384	17730	0	316
-17.851	-8.475	16389	18018	0	316
-8.042	-1.406	16389	18210	0	316
-4.219	-0.361	16389	18307	0	316
-5.842	-5.481	16389	18499	0	316
-9.484	-6.852	16397	18595	0	316
-8.763	-1.442	16389	18499	0	316
-4.616	7.970	16389	18307	0	316
0.000	13.992	16389	18018	0	316
0.505	14.064	16389	17634	0	316
-1.623	6.924	16389	17153	0	316
-4.255	4.327	16389	16672	0	316
-2.092	6.960	16389	16384	0	316
-0.144	11.900	16384	16096	0	316
-0.361	13.451	16384	15904	0	316
-4.508	9.629	16384	15711	0	316
-8.402	8.330	16384	15711	0	316
-9.701	9.701	16384	15615	0	316
-9.016	13.018	16384	15519	0	316
-8.907	13.848	16384	15423	0	316
-10.169	10.350	16384	15134	0	316
-10.314	3.859	16379	14750	0	316
-9.737	-0.325	16379	14558	0	316
-4.796	-0.865	16379	14654	0	316
-1.154	0.108	16379	14750	0	316
-1.442	0.649	16379	14942	0	316
-2.921	1.947	16379	14942	0	316
-1.911	4.832	16379	14942	0	316
-0.144	10.133	16371	14942	0	316
5.049	11.215	16379	14942	0	316
7.934	10.783	16379	15038	0	316
10.278	7.176	16379	15134	0	316
16.913	10.025	16379	15134	0	316
22.791	17.490	16371	14942	0	316
30.040	29.246	16371	14942	0	316
29.318	32.853	16371	14942	0	316
22.647	27.624	16371	15231	0	316
13.235	16.841	16371	15711	0	316
10.566	10.710	16371	16192	0	316
14.821	14.713	16371	16576	0	316
17.779	22.358	16371	16768	0	316
20.195	24.486	16371	16672	0	316
17.346	21.241	16371	16576	0	316
19.185	14.713	16371	16576	0	316
22.683	12.405	16371	16864	0	316
27.443	19.582	16371	17249	0	316
30.436	31.122	16371	17537	0	316
28.164	36.242	16379	17826	0	316
24.811	35.810	16379	18018	0	316
24.270	31.843	16379	18114	0	316
26.722	27.984	16379	18210	0	316
30.040	30.472	16379	18114	0	316
32.203	35.016	16379	18018	0	316
31.915	37.432	16379	18018	0	316
27.732	33.646	16384	18307	0	316
22.142	27.696	16384	18691	0	316
18.933	22.178	16384	18980	0	316
18.608	23.044	16389	18884	0	316
23.765	28.309	16389	18595	0	316
26.145	31.807	16389	18210	0	316
26.614	31.843	16389	17730	0	316
26.938	28.489	16389	17345	1	336
26.433	23.945	16389	17057	0	336
27.119	24.125	16389	17057	0	336
30.508	27.191	16389	17057	0	336
32.961	32.420	16389	17057	0	336
33.502	35.846	16389	17057	0	336
32.853	36.242	16397	17057	0	336
30.653	32.456	16397	17153	0	336
29.102	25.856	16397	17345	0	336
31.410	21.601	16397	17441	0	336
34.295	19.654	16403	17441	0	336
36.747	23.368	16403	17441	0	336
37.000	31.049	16403	17345	0	336
30.472	33.502	16403	17153	0	336
24.342	30.040	16403	16768	0	336
18.031	20.736	16403	16384	0	336
11.468	11.215	16403	16000	0	336
8.114	6.491	16403	15615	0	336
5.770	9.016	16389	15134	0	336
7.898	15.326	16389	14558	0	336
13.343	20.087	16389	14077	0	336
20.700	22.683	16384	13692	0	336
22.972	21.818	16384	13404	0	336
21.024	20.483	16384	13404	0	336
16.625	19.077	16384	13500	0	336
9.953	17.057	16384	13692	0	336
8.907	17.057	16379	13788	0	336
14.389	21.818	16379	13884	0	336
20.844	27.948	16379	14077	0	336
26.974	31.518	16379	14269	0	336
23.837	30.184	16379	14558	0	336
15.975	20.195	16384	14942	0	336
5.337	9.737	16384	15327	0	336
-2.308	2.056	16384	15615	0	336
-0.072	2.741	16384	15904	0	336
10.061	7.645	16384	16096	0	336
24.053	14.136	16384	16192	0	336
34.764	18.103	16384	16480	0	336
37.180	18.572	16384	16864	0	336
29.174	15.939	16389	17345	0	336
14.858	12.225	16384	17826	0	336
4.400	7.537	16384	18114	0	336
0.216	6.131	16384	18114	0	336
3.426	4.977	16384	18018	0	336
7.537	5.049	16389	17922	0	336
8.475	7.285	16389	17922	0	336
8.619	8.114	16389	18018	0	336
9.701	10.530	16389	18210	0	336
15.254	11.973	16389	18210	0	336
22.322	13.740	16397	18210	0	336
26.506	14.100	16397	18210	0	336
23.837	11.504	16397	18114	0	336
15.218	7.537	16397	18018	0	336
9.124	2.019	16397	17922	0	336
7.862	0.144	16403	18018	0	336
11.828	3.246	16403	17922	0	336
17.779	7.934	16403	17826	0	336
17.382	10.927	16403	17634	0	336
12.477	8.439	16403	17537	0	336
4.796	0.072	16403	17345	0	336
2.056	-6.635	16403	17057	0	336
6.167	-7.465	16403	16768	0	336
10.963	-3.606	16411	16672	0	336
15.254	3.895	16411	16576	0	336
12.189	9.340	16403	16384	0	336
9.232	7.753	16411	16096	0	336
7.140	3.065	16403	15519	0	336
10.855	1.587	16397	14750	0	336
19.185	4.003	16389	14077	0	336
21.709	10.746	16389	13500	0	336
16.300	15.146	16384	12923	0	336
3.137	12.874	16384	12346	0	336
-11.828	3.173	16379	12058	0	336
-14.930	-4.760	16379	12058	0	336
-7.104	-5.337	16371	12058	0	336
9.592	2.777	16371	12250	0	336
23.260	12.586	16379	12442	0	336
23.981	19.149	16371	12731	0	336
15.759	17.959	16371	13115	0	336
1.334	9.953	16371	13596	0	336
-8.907	0.938	16379	13884	0	336
-10.855	-4.868	16371	14077	0	336
-7.789	-5.626	16365	14269	0	336
1.370	-2.777	16365	14558	0	336
4.291	0.793	16365	14846	0	336
4.111	2.019	16365	15231	0	336
-1.623	2.560	16365	15808	0	336
-6.599	1.515	16365	16576	0	336
-8.835	1.983	16371	17441	0	336
-7.357	0.902	16371	17922	0	336
-4.652	-1.190	16371	18210	0	336
-5.517	-6.311	16371	18403	0	336
-6.455	-7.501	16371	18787	0	336
-6.924	-6.527	16379	19172	0	336
-6.383	-3.282	16379	19460	0	336
-5.986	-1.334	16379	19845	0	336
-5.265	-3.895	16384	20134	0	336
-5.554	-8.619	16384	20230	0	336
-3.282	-9.917	16384	20134	0	336
-1.190	-6.996	16389	20037	0	336
4.147	-2.741	16389	19845	0	336
3.787	-2.957	16389	19557	0	336
0.216	-8.835	16389	19268	1	408
-4.327	-18.536	16389	18884	0	408
-7.898	-24.666	16389	18403	0	408
-8.907	-21.709	16389	17826	0	408
-3.534	-12.586	16389	17345	0	408
5.986	-1.334	16389	16864	0	408
14.894	4.760	16384	16384	0	408
22.070	4.977	16384	16096	0	408
21.096	-1.010	16384	15904	0	408
18.283	-6.167	16384	15711	0	408
10.025	-7.681	16384	15423	0	408
9.701	-2.921	16384	15327	0	408
12.297	6.022	16384	15231	0	408
15.543	13.163	16384	15134	0	408
17.959	13.992	16384	15134	0	408
11.973	9.737	16384	15134	0	408
6.347	5.229	16379	15038	0	408
3.462	2.488	16379	15038	0	408
4.147	6.347	16379	15231	0	408
8.114	13.595	16379	15519	0	408
11.756	17.057	16384	15904	0	408
11.143	16.661	16384	16288	0	408
6.671	12.874	16384	16672	0	408
2.200	9.484	16384	16960	0	408
1.262	6.599	16389	17249	0	408
5.121	5.121	16389	17345	0	408
10.530	4.832	16389	17345	0	408
18.788	3.787	16389	17249	0	408
22.070	8.222	16389	17153	0	408
25.135	17.598	16389	17249	0	408
27.624	28.128	16389	17153	0	408
28.345	34.115	16389	16864	0	408
27.804	32.564	16389	16480	0	408
26.506	23.260	16389	16192	0	408
23.801	14.317	16389	15808	0	408
22.539	11.576	16384	15519	0	408
24.450	15.074	16384	15231	0	408
28.309	21.998	16384	14942	0	408
30.833	27.660	16384	14750	0	408
32.095	25.929	16379	14654	0	408
32.492	21.096	16379	14654	0	408
30.653	14.497	16379	14750	0	408
27.335	8.871	16379	14942	0	408
25.640	8.402	16379	15134	0	408
24.089	9.304	16379	15134	0	408
21.349	11.215	16379	15038	0	408
21.421	13.631	16379	15134	0	408
21.277	13.740	16379	15423	0	408
22.178	13.451	16379	15808	0	408
23.368	11.071	16379	16192	0	408
20.844	7.934	16379	16480	0	408
21.024	2.705	16379	16768	0	408
18.788	0.397	16379	17153	0	408
19.546	1.947	16384	17537	0	408
24.017	8.763	16384	18114	0	408
27.299	17.382	16389	18499	0	408
30.148	23.080	16389	18787	0	408
31.013	21.385	16389	18884	0	408
27.119	14.749	16397	19076	0	408
26.433	8.366	16397	19268	0	408
27.010	7.140	16397	19364	0	408
32.239	11.900	16397	19172	0	408
37.757	18.320	16403	18884	0	408
42.120	21.132	16403	18499	0	408
40.389	19.726	16403	18210	0	408
32.636	14.821	16403	17826	0	408
20.267	7.465	16403	17441	0	408
9.881	1.118	16403	16960	0	408
5.445	-2.164	16403	16480	0	408
8.402	-0.938	16397	16288	0	408
18.283	5.121	16403	16288	0	408
25.279	11.648	16403	16384	0	408
28.489	15.543	16397	16384	0	408
24.775	14.605	16397	16384	0	408
18.572	11.396	16397	16384	0	408
18.969	11.360	16397	16288	0	408
20.050	12.874	16397	16192	0	408
25.676	15.435	16397	16000	0	408
31.049	17.562	16397	15808	0	408
35.954	21.637	16397	15808	0	408
38.947	26.181	16397	15711	0	408
39.452	32.059	16397	15711	0	408
33.826	33.177	16403	15808	0	408
27.804	28.020	16403	15904	0	408
19.690	20.375	16403	15808	0	408
16.661	13.307	16403	15615	0	408
14.533	9.629	16397	15519	0	408
9.160	5.950	16397	15327	0	408
-0.865	1.406	16397	15231	0	408
-8.042	-2.957	16397	15231	0	408
-10.350	-5.013	16397	15231	0	408
-5.626	-4.003	16397	15423	0	408
1.082	-2.452	16397	15711	0	408
4.003	-1.479	16403	16000	0	408
7.248	-1.190	16403	16384	0	408
10.783	0.433	16403	16576	0	408
14.172	4.075	16403	16576	0	408
20.772	6.491	16397	16384	0	408
18.716	5.554	16397	15808	0	408
15.182	3.029	16389	15327	0	408
10.566	2.056	16389	14558	0	408
9.881	3.101	16384	13788	0	408
13.956	8.114	16379	13115	0	408
18.392	11.937	16379	12538	0	408
25.424	16.408	16371	12250	0	408
27.299	17.129	16371	12058	0	408
23.512	14.028	16365	11961	0	408
16.625	10.314	16371	11961	0	408
7.501	4.688	16365	12250	0	408
3.137	2.128	16365	12634	0	408
4.291	5.301	16365	13115	0	408
9.268	9.016	16357	13692	0	408
16.516	11.973	16357	14269	0	408
19.005	10.602	16357	14654	0	408
20.808	9.448	16357	15134	0	408
19.113	6.239	16357	15615	0	408
15.002	8.006	16357	16096	0	408
13.271	10.278	16357	16576	0	408
15.903	13.451	16357	17345	0	408
23.621	17.202	16365	18307	0	408
34.475	20.880	16365	19172	0	408
44.104	22.250	16371	19941	0	408
43.707	20.808	16371	20614	0	408
37.216	16.012	16379	21287	0	408
28.669	12.117	16384	21864	0	408
22.106	11.792	16384	22249	0	408
22.899	14.785	16389	22441	0	408
29.318	19.942	16389	22441	0	408
35.701	25.893	16397	22345	0	408
42.193	28.237	16397	22153	0	408
43.707	27.984	16403	21864	0	408
38.298	24.522	16403	21384	0	408
32.528	20.880	16403	20903	1	528
28.381	17.779	16411	20518	0	528
28.056	19.546	16411	20326	0	528
33.682	24.522	16411	20037	0	528
38.983	27.840	16417	19653	0	528
39.344	27.155	16417	19172	0	528
33.862	22.034	16417	18595	0	528
27.660	18.428	16417	17826	0	528
21.457	16.336	16417	17153	0	528
22.719	20.231	16417	16480	0	528
27.912	25.676	16411	15808	0	528
33.790	29.391	16403	14846	0	528
38.226	28.669	16403	13981	0	528
38.298	25.279	16403	13308	0	528
33.357	20.844	16397	12827	0	528
27.335	18.608	16397	12538	0	528
20.916	16.661	16397	12250	0	528
19.185	16.408	16389	12154	0	528
18.644	14.966	16389	12442	0	528
23.657	15.038	16397	12923	0	528
27.912	14.894	16397	13404	0	528
28.561	15.362	16397	13788	0	528
25.856	12.297	16397	14365	0	528
24.414	10.097	16397	14942	0	528
25.856	7.104	16397	15423	0	528
30.545	9.376	16403	15711	0	528
37.613	16.300	16403	16000	0	528
40.534	22.647	16403	16288	0	528
41.471	28.237	16403	16384	0	528
42.193	28.850	16403	16768	0	528
42.445	25.532	16403	17153	0	528
39.199	21.204	16411	17345	0	528
34.403	16.084	16411	17249	0	528
27.768	14.064	16403	16864	0	528
23.945	13.199	16403	16384	0	528
25.460	17.021	16397	16000	0	528
27.227	20.988	16397	15423	0	528
28.345	21.818	16397	14942	0	528
27.191	21.745	16389	14558	0	528
25.352	17.851	16389	14365	0	528
24.053	14.317	16389	14173	0	528
23.440	14.353	16384	13884	0	528
26.325	16.300	16384	13692	0	528
27.624	21.241	16384	13596	0	528
28.525	23.837	16379	13500	0	528
27.876	22.935	16379	13500	0	528
26.325	19.834	16379	13596	0	528
24.666	16.552	16371	13788	0	528
24.558	15.507	16371	13788	0	528
26.794	18.536	16371	13788	0	528
30.869	22.286	16365	13884	0	528
34.079	21.926	16365	14173	0	528
37.072	19.041	16365	14654	0	528
36.026	11.360	16365	15327	0	528
30.292	3.967	16371	15808	0	528
21.313	0.974	16371	16192	0	528
16.228	2.524	16379	16480	0	528
14.317	9.737	16371	16768	0	528
15.903	15.543	16371	16960	0	528
15.507	19.221	16371	17249	0	528
17.490	17.887	16371	17634	0	528
17.526	15.146	16379	17922	0	528
22.755	13.812	16379	18114	0	528
27.696	16.661	16379	18210	0	528
33.069	20.664	16379	18307	0	528
35.593	24.089	16379	18403	0	528
37.613	27.624	16379	18595	0	528
39.704	28.201	16379	18691	0	528
41.291	28.777	16379	18884	0	528
41.904	25.496	16384	19076	0	528
40.822	25.063	16384	19268	0	528
39.344	23.801	16384	19364	0	528
41.039	23.080	16389	19268	0	528
41.976	23.621	16384	18884	0	528
39.921	23.621	16384	18307	0	528
34.656	22.214	16384	17826	0	528
27.371	19.798	16384	17537	0	528
18.103	15.543	16384	17249	0	528
14.172	10.422	16384	17057	0	528
11.792	4.472	16384	16960	0	528
13.559	1.551	16384	16864	0	528
17.129	3.173	16384	16864	0	528
18.752	5.590	16389	16960	0	528
18.464	5.049	16389	16960	0	528
12.694	2.236	16389	16864	0	528
7.032	-1.262	16389	16672	0	528
3.895	-2.596	16389	16384	0	528
7.501	2.488	16389	16288	0	528
15.543	10.783	16389	16192	0	528
23.008	16.300	16389	16288	0	528
22.575	17.129	16389	16384	0	528
19.546	12.369	16389	16576	0	528
17.779	8.294	16389	16864	0	528
17.490	4.616	16397	17153	0	528
23.476	5.337	16397	17249	0	528
24.955	7.429	16389	17249	0	528
21.204	10.891	16397	17249	0	528
17.274	14.353	16397	17153	0	528
14.533	14.858	16397	16864	0	528
16.949	15.002	16397	16576	0	528
21.998	12.297	16389	16384	0	528
22.611	6.816	16389	16000	0	528
18.247	1.839	16389	15711	0	528
14.749	-2.705	16389	15423	0	528
10.746	-6.131	16384	14942	0	528
9.232	-4.508	16384	14558	0	528
12.081	-0.829	16384	14365	0	528
14.064	4.832	16384	14173	0	528
15.903	10.278	16384	14173	0	528
17.634	9.448	16379	14173	0	528
15.471	6.780	16379	14173	0	528
15.254	2.885	16379	14269	0	528
12.658	0.144	16379	14365	0	528
14.749	3.246	16379	14558	0	528
16.552	9.484	16379	14846	0	528
15.182	14.172	16384	15423	0	528
14.064	14.497	16384	15904	0	528
9.196	10.566	16384	16384	0	528
4.003	4.400	16389	16672	0	528
4.364	-0.036	16384	16672	0	528
4.904	0.649	16384	16672	0	528
7.537	2.344	16384	16672	0	528
9.340	3.498	16379	16672	0	528
8.583	3.354	16384	16576	0	528
6.311	3.426	16384	16480	0	528
5.770	4.904	16384	16384	0	528
9.160	9.232	16384	16288	0	528
14.317	12.117	16384	16192	0	528
23.729	14.605	16384	16096	0	528
29.030	15.110	16384	16192	0	528
34.367	16.264	16384	16096	0	528
36.603	18.716	16379	15904	0	528
36.747	21.781	16379	15808	0	528
35.197	21.241	16379	15904	0	528
31.338	18.356	16379	16096	0	528
27.551	16.733	16379	16288	0	528
24.234	16.408	16379	16384	0	528
21.854	18.428	16379	16480	0	528
22.250	19.906	16384	16768	0	528
23.008	17.779	16384	17057	0	528
22.683	13.740	16379	16960	0	528
20.231	9.629	16379	16768	0	528
19.582	8.006	16379	16768	0	528
18.283	9.917	16379	16768	0	528
21.457	10.999	16379	16768	0	528
25.207	12.117	16379	16576	0	528
26.145	10.530	16379	16192	0	528
23.837	3.101	16379	15711	0	528
13.487	-5.049	16371	15519	0	528
9.052	-8.366	16371	15327	0	528
7.104	-6.599	16371	15327	0	528
9.989	2.416	16371	15423	0	528
15.471	10.206	16371	15615	0	528
16.661	10.242	16371	15808	0	528
14.858	4.111	16371	16096	0	528
11.035	-2.416	16371	16384	0	528
8.294	-2.092	16371	16672	0	528
7.934	3.137	16371	17057	0	528
9.809	10.458	16371	17441	0	528
13.884	13.631	16379	17922	0	528
15.579	8.691	16379	18499	0	528
15.831	2.488	16384	19172	0	528
10.927	-4.003	16384	19653	0	528
7.753	-5.662	16389	19845	0	528
5.049	-2.741	16389	19749	0	528
4.219	0.793	16389	19653	0	528
1.406	2.813	16397	19364	0	528
-0.685	1.623	16397	18980	0	528
-0.902	0.216	16397	18595	0	528
3.065	-1.190	16397	18307	0	528
10.025	-0.361	16397	18018	1	680
14.461	1.803	16397	17634	0	680
14.858	1.334	16397	17249	0	680
9.701	-1.154	16397	16672	0	680
5.373	-2.849	16397	16288	0	680
5.914	-2.164	16389	15711	0	680
9.809	1.839	16389	15423	0	680
11.323	5.698	16389	15231	0	680
11.864	10.386	16389	15327	0	680
8.114	7.898	16389	15423	0	680
2.705	1.875	16389	15423	0	680
-0.793	-4.255	16389	15519	0	680
-1.046	-10.097	16389	15519	0	680
-0.433	-10.855	16389	15423	0	680
-1.190	-8.763	16389	15134	0	680
0.325	-2.813	16389	15038	0	680
4.580	1.010	16384	15038	0	680
7.357	1.911	16389	15231	0	680
8.547	-0.469	16389	15423	0	680
9.809	-2.560	16389	15615	0	680
8.799	-4.652	16389	15904	0	680
9.629	-0.938	16389	16000	0	680
12.333	4.544	16389	15904	0	680
16.805	10.386	16389	15615	0	680
16.877	11.504	16389	15327	0	680
15.723	10.494	16384	15327	0	680
12.874	5.914	16384	15423	0	680
11.684	1.659	16384	15327	0	680
13.451	-1.659	16379	15038	0	680
15.110	-1.262	16384	14654	0	680
16.084	1.046	16384	14173	0	680
10.350	2.777	16379	13788	0	680
1.947	4.147	16379	13500	0	680
-4.147	4.940	16371	13211	0	680
-3.534	2.993	16371	13211	0	680
2.488	1.983	16371	13404	0	680
9.088	2.813	16365	13596	0	680
13.992	1.947	16365	13788	0	680
14.353	3.859	16365	14077	0	680
11.864	5.517	16365	14558	0	680
12.550	3.678	16365	15231	0	680
12.261	2.128	16365	16000	0	680
11.792	-2.380	16365	16480	0	680
11.143	-6.239	16365	17057	0	680
9.520	-4.760	16365	17441	0	680
7.898	1.082	16365	17730	0	680
8.943	8.330	16365	17730	0	680
10.061	10.963	16365	17826	0	680
11.360	7.285	16365	17922	0	680
11.612	0.613	16365	18018	0	680
9.773	-5.049	16365	18114	0	680
7.645	-5.554	16371	18210	0	680
4.039	-3.029	16371	18307	0	680
4.508	-0.036	16379	18499	0	680
4.904	-1.695	16379	18595	0	680
6.527	-4.255	16379	18787	0	680
6.419	-7.537	16384	18884	0	680
4.472	-6.383	16384	18787	0	680
2.488	-1.839	16384	18595	0	680
5.554	4.147	16384	18403	0	680
9.701	9.016	16384	18403	0	680
16.480	9.520	16384	18499	0	680
16.841	5.698	16389	18595	0	680
16.156	1.803	16389	18691	0	680
12.874	0.902	16389	18884	0	680
10.206	3.931	16397	18980	0	680
12.514	9.917	16389	18884	0	680
15.326	14.749	16389	18787	0	680
20.519	20.014	16389	18595	0	680
22.467	19.149	16397	18403	0	680
22.034	16.516	16397	18307	0	680
15.002	15.218	16397	18114	0	680
12.333	16.805	16397	17922	0	680
12.874	22.358	16397	17537	0	680
19.293	26.686	16397	16960	0	680
22.142	22.827	16397	16384	0	680
20.231	11.937	16397	15904	0	680
8.655	-0.216	16397	15615	0	680
0.829	-4.508	16397	15327	0	680
0.541	1.010	16389	14846	0	680
6.744	12.946	16389	14365	0	680
16.012	17.851	16389	14077	0	680
16.985	14.389	16389	13884	0	680
14.641	6.167	16389	13788	0	680
9.917	-0.577	16384	13788	0	680
6.347	-0.649	16384	13981	0	680
6.671	4.472	16384	14173	0	680
9.268	10.097	16384	14365	0	680
10.999	9.773	16384	14654	0	680
10.133	7.898	16384	14942	0	680
8.114	4.544	16384	15134	0	680
4.904	3.714	16384	15231	0	680
3.210	7.465	16384	15423	0	680
8.114	11.973	16384	15519	0	680
15.002	16.697	16384	15327	0	680
20.591	17.129	16384	15038	0	680
18.211	12.586	16379	14558	0	680
12.550	5.085	16379	14269	0	680
5.121	1.190	16379	14077	0	680
4.760	3.534	16371	13981	0	680
7.825	9.953	16371	13981	0	680
13.199	18.392	16371	14077	0	680
17.129	21.601	16371	14365	0	680
15.362	16.805	16371	14846	0	680
14.569	9.232	16371	15327	0	680
12.838	3.678	16371	15808	0	680
16.192	2.777	16371	16096	0	680
19.221	9.809	16371	16288	0	680
23.801	16.300	16371	16384	0	680
22.935	21.060	16371	16576	0	680
18.969	18.356	16371	16672	0	680
17.490	13.992	16371	16960	0	680
17.923	13.595	16379	17153	0	680
26.578	17.310	16379	17153	0	680
32.312	23.549	16379	17057	0	680
31.590	24.702	16371	17057	0	680
24.017	22.106	16371	17153	0	680
15.579	15.831	16371	17249	0	680
11.576	11.504	16371	17153	0	680
17.093	9.412	16371	16960	0	680
20.014	9.556	16371	16864	0	680
20.591	5.301	16371	16864	0	680
12.982	2.344	16371	16960	0	680
7.429	2.705	16371	17057	0	680
9.268	6.852	16371	16960	0	680
16.769	10.999	16371	16864	0	680
25.568	15.326	16371	16768	0	680
29.607	15.110	16371	16864	0	680
28.489	14.821	16371	17153	0	680
27.371	19.546	16371	17537	0	680
28.922	27.010	16379	17826	0	680
33.574	34.656	16379	18018	0	680
36.603	36.098	16379	18018	0	680
35.449	31.482	16379	18018	0	680
31.518	24.125	16379	17922	0	680
26.397	22.178	16379	17922	0	680
26.974	26.397	16379	17826	0	680
32.203	33.502	16379	17634	0	680
35.701	38.334	16379	17441	0	680
34.475	35.305	16379	17249	0	680
25.640	23.224	16379	17057	0	680
12.694	13.415	16379	16768	0	680
6.635	7.789	16379	16384	0	680
6.455	9.953	16379	16288	0	680
7.825	14.821	16379	16192	0	680
6.491	18.969	16379	16096	0	680
0.829	17.274	16379	15904	0	680
-4.364	11.540	16379	15904	0	680
-5.698	9.160	16379	15808	0	680
0.793	9.376	16379	15808	0	680
8.655	15.326	16379	15808	0	680
16.913	22.647	16379	15808	0	680
18.428	24.089	16379	15904	0	680
18.752	24.558	16371	15808	0	680
14.821	21.060	16379	15615	0	680
17.274	20.050	16379	15327	0	680
20.664	20.916	16379	15038	0	680
26.830	23.116	16371	14750	0	680
26.830	23.152	16371	14365	0	680
22.863	20.267	16379	14077	0	680
18.752	18.283	16365	14077	0	680
16.192	16.192	16365	14269	0	680
17.995	15.543	16365	14461	0	680
19.077	15.146	16365	14365	0	680
19.942	12.802	16357	14365	0	680
17.093	9.629	16357	14365	0	680
12.514	4.364	16357	14461	0	680
4.977	0.252	16357	14654	0	680
-1.479	0.938	16357	15038	0	680
-4.400	3.065	16357	15711	0	680
-2.308	9.773	16357	16480	0	680
1.731	13.415	16357	17345	0	680
4.652	12.477	16365	17826	0	680
3.967	10.025	16365	18210	0	680
1.695	6.996	16371	18403	0	680
1.947	6.491	16371	18691	0	680
1.695	5.337	16379	18980	0	680
3.642	4.472	16379	19268	0	680
4.724	1.803	16379	19557	0	680
6.094	2.633	16384	19653	0	680
9.340	5.806	16384	19364	0	680
10.494	10.242	16384	18884	0	680
11.215	11.684	16379	18307	0	680
9.340	7.753	16379	17730	0	680
5.950	3.823	16379	17057	1	736
4.400	-0.902	16379	16384	0	736
3.714	-1.767	16371	15808	0	736
3.606	-0.469	16371	15327	0	736
6.131	0.216	16365	14750	0	736
6.347	-0.577	16365	14173	0	736
4.652	-2.452	16365	13981	0	736
0.577	-5.409	16357	13981	0	736
-2.164	-5.662	16357	13981	0	736
-3.318	-4.147	16357	13981	0	736
-1.551	-2.056	16351	13884	0	736
4.039	0.902	16351	14077	0	736
8.727	2.416	16351	14461	0	736
11.864	3.282	16351	15134	0	736
11.648	5.121	16365	15904	0	736
10.458	6.924	16365	16480	0	736
8.511	10.061	16371	17153	0	736
9.340	10.819	16365	17537	0	736
12.550	12.117	16365	17826	0	736
14.894	10.638	16365	17730	0	736
18.608	8.258	16365	17441	0	736
17.129	6.383	16365	17345	0	736
14.605	5.517	16365	17249	0	736
9.773	4.796	16365	17057	0	736
6.527	5.914	16365	16768	0	736
4.904	5.013	16365	16384	0	736
3.246	4.760	16357	16192	0	736
4.436	2.885	16357	16192	0	736
3.642	2.560	16357	16192	0	736
2.813	2.380	16357	16192	0	736
5.301	5.013	16357	16192	0	736
8.691	9.448	16357	16096	0	736
13.704	14.425	16365	16192	0	736
17.346	18.788	16365	16288	0	736
15.074	19.401	16365	16384	0	736
12.658	18.392	16365	16384	0	736
11.107	16.877	16365	16576	0	736
12.441	17.454	16365	16768	0	736
17.454	20.375	16365	17153	0	736
18.752	23.945	16365	17537	0	736
16.480	21.565	16371	18210	0	736
7.789	17.887	16371	18980	0	736
2.416	10.710	16379	19845	0	736
1.334	7.645	16384	20614	0	736
4.868	8.439	16389	21384	0	736
11.540	12.550	16397	21864	0	736
15.218	13.704	16403	22249	0	736
14.677	12.514	16403	22345	0	736
11.143	6.816	16411	22345	0	736
6.527	3.606	16417	22153	0	736
6.888	7.825	16417	21672	0	736
9.953	16.625	16425	21095	0	736
15.471	23.512	16425	20422	0	736
16.480	26.722	16417	19653	0	736
16.877	19.870	16417	18884	0	736
12.261	11.143	16417	18018	0	736
9.773	8.114	16417	17345	0	736
11.864	10.422	16417	16672	0	736
16.480	16.084	16417	16288	0	736
22.899	19.221	16417	15808	0	736
24.666	17.418	16417	15231	0	736
21.421	13.199	16417	14750	0	736
13.559	8.006	16411	14365	0	736
4.039	3.137	16417	14269	0	736
-1.587	1.370	16417	14077	0	736
-1.082	-0.252	16411	13884	0	736
2.813	-0.108	16411	13692	0	736
5.590	1.118	16411	13308	0	736
7.934	3.029	16411	12827	0	736
6.960	4.544	16403	12442	0	736
6.203	7.573	16403	12154	0	736
4.977	8.511	16403	12250	0	736
4.544	9.484	16403	12442	0	736
3.426	7.898	16403	12731	0	736
5.590	7.140	16403	12923	0	736
8.222	9.124	16397	13211	0	736
13.559	14.389	16397	13019	0	736
16.697	17.454	16397	12634	0	736
17.057	18.897	16389	12346	0	736
13.054	15.543	16389	12442	1	316
8.871	10.530	16389	12634	0	316
7.537	9.701	16384	12923	0	316
8.294	10.061	16384	13404	0	316
11.215	11.251	16384	13788	0	316
11.900	11.251	16384	14269	0	316
13.848	7.032	16384	14846	0	316
12.225	5.914	16384	15519	0	316
10.855	4.291	16389	16096	0	316
9.232	5.085	16389	16576	0	316
7.285	7.789	16389	17249	0	316
4.327	8.655	16389	17730	0	316
4.616	8.691	16397	18210	0	316
4.796	9.665	16397	18787	0	316
5.590	10.602	16403	19268	0	316
7.429	10.314	16397	19460	0	316
9.701	10.674	16397	19268	0	316
11.360	9.520	16397	18787	0	316
14.785	8.330	16397	18403	0	316
15.579	5.121	16397	18018	0	316
14.172	4.977	16397	17730	0	316
14.677	5.698	16397	17537	0	316
15.579	8.655	16397	17537	0	316
19.906	13.956	16397	17826	0	316
22.178	17.310	16397	18018	0	316
22.431	17.743	16403	18114	0	316
14.317	14.136	16403	18114	0	316
5.337	7.465	16403	18018	0	316
-0.108	5.878	16411	18210	0	316
-0.108	7.789	16411	18403	0	316
5.626	11.756	16411	18210	0	316
9.773	16.552	16411	17922	0	316
10.891	16.444	16403	17826	0	316
7.068	13.127	16417	17730	0	316
3.318	8.691	16417	17634	0	316
0.000	5.590	16411	17634	0	316
-0.397	4.688	16411	17441	0	316
0.902	5.337	16411	16864	0	316
1.226	9.809	16411	16288	0	316
2.344	14.208	16411	15711	0	316
3.101	18.500	16403	15231	0	316
2.236	17.598	16403	14846	0	316
3.714	16.228	16403	14750	0	316
5.265	12.333	16403	14942	0	316
7.104	10.674	16403	15327	0	316
8.006	9.448	16411	15615	0	316
8.799	7.321	16411	15711	0	316
7.248	7.285	16411	15423	0	316
5.662	6.094	16403	15038	0	316
5.698	6.022	16403	14558	0	316
2.921	4.580	16403	14077	0	316
0.072	1.406	16389	13788	0	316
-4.760	-3.029	16389	13596	0	316
-5.842	-3.967	16389	13500	0	316
-3.750	0.902	16384	13596	0	316
1.803	8.330	16384	13788	0	316
7.393	13.415	16384	13884	0	316
8.655	13.451	16384	13981	0	316
6.816	10.097	16384	14269	0	316
2.921	4.508	16384	14461	0	316
3.065	5.554	16384	14750	0	316
6.599	9.268	16384	15134	0	316
12.297	14.533	16384	15423	0	316
19.726	16.120	16379	15519	0	316
23.693	16.012	16379	15423	0	316
24.486	14.281	16379	15519	0	316
23.729	12.261	16379	15808	0	316
24.089	13.054	16379	16192	0	316
23.476	13.992	16384	16384	0	316
23.296	14.821	16384	16480	0	316
18.103	13.704	16384	16480	0	316
12.477	11.828	16384	16480	0	316
7.104	9.232	16384	16576	0	316
7.753	8.366	16384	16864	0	316
12.333	9.989	16384	17249	0	316
16.012	13.091	16384	17634	0	316
17.995	14.605	16384	17826	0	316
13.523	13.992	16384	17826	0	316
10.097	9.520	16384	17730	0	316
10.133	7.970	16389	17730	0	316
12.333	6.094	16384	17826	0	316
17.238	9.016	16384	17826	0	316
19.798	11.251	16384	17634	0	316
14.641	12.802	16384	17441	0	316
10.061	12.369	16384	17441	0	316
5.590	7.862	16384	17634	0	316
8.366	9.016	16384	17922	0	316
15.254	10.963	16384	17922	0	316
23.332	18.392	16384	17634	0	316
24.739	22.539	16384	17345	0	316
18.356	22.106	16384	17153	0	316
11.540	17.454	16384	16960	0	316
7.825	10.783	16384	16768	0	316
9.268	9.773	16384	16672	0	316
14.785	13.235	16384	16576	0	316
16.084	14.533	16384	16480	0	316
10.638	11.107	16384	16480	0	316
7.717	6.491	16384	16576	0	316
7.104	3.570	16384	16672	0	316
11.756	6.311	16389	16864	0	316
20.267	16.192	16389	17153	0	316
22.286	22.899	16389	17441	0	316
19.437	23.152	16389	17441	0	316
12.117	16.697	16389	17249	0	316
6.203	9.629	16389	17057	0	316
3.318	4.580	16389	16768	0	316
4.327	2.416	16389	16768	0	316
8.258	4.508	16397	16768	0	316
13.487	5.662	16397	16672	0	316
18.680	10.530	16389	16480	0	316
20.880	12.514	16389	16384	0	316
22.250	15.543	16389	16192	0	316
17.923	13.956	16389	16192	0	316
15.074	12.441	16397	16288	0	316
13.018	11.792	16397	16384	0	316
15.687	16.949	16397	16384	0	316
16.156	20.880	16397	16288	0	316
13.740	19.654	16397	16096	0	316
6.816	13.379	16397	15904	0	316
0.469	5.734	16397	15711	0	316
0.902	2.777	16389	15615	0	316
7.068	5.914	16389	15519	0	316
13.812	13.018	16389	15519	0	316
15.795	17.418	16389	15423	0	316
10.314	15.074	16389	15134	0	316
3.967	7.753	16389	14942	0	316
1.623	1.587	16389	14750	0	316
6.708	-1.010	16384	14654	0	316
17.057	4.400	16384	14558	0	316
26.397	14.425	16384	14461	0	316
31.230	24.162	16384	14461	0	316
30.797	29.174	16384	14654	0	316
25.424	26.470	16379	14846	0	316
20.772	21.060	16379	14942	0	316
15.615	14.569	16379	14942	0	316
13.956	10.350	16379	15134	0	316
9.701	7.429	16379	15519	0	316
7.032	8.439	16379	15808	0	316
5.121	9.016	16379	16000	0	316
4.832	10.206	16379	15904	0	316
4.111	10.819	16379	15808	0	316
3.534	9.088	16379	15808	0	316
1.262	6.311	16379	16096	0	316
0.541	2.596	16379	16384	0	316
2.849	1.947	16379	16768	0	316
7.176	2.957	16379	17249	0	316
7.825	5.373	16379	17826	0	316
5.121	6.275	16384	18403	0	316
-0.252	7.104	16384	18884	0	316
-2.596	5.950	16389	19268	0	316
-0.108	5.301	16389	19557	0	316
5.481	6.599	16397	19941	0	316
10.746	6.563	16397	20230	0	316
10.963	6.671	16403	20230	0	316
10.278	7.212	16403	20134	0	316
8.114	8.042	16403	19941	0	316
7.465	8.583	16411	19653	0	316
7.970	8.114	16411	19557	0	316
7.537	6.888	16403	19460	1	632
9.196	5.698	16411	18980	0	632
10.350	7.321	16411	18307	0	632
12.045	11.468	16403	17441	0	632
13.343	14.353	16403	16768	0	632
13.271	15.146	16403	16192	0	632
11.323	13.668	16397	15519	0	632
12.261	13.920	16397	14846	0	632
14.497	15.723	16397	14269	0	632
13.884	17.562	16389	13884	0	632
13.559	15.146	16389	13500	0	632
8.186	7.717	16389	13404	0	632
4.400	1.515	16389	13500	0	632
4.977	-1.082	16389	13596	0	632
10.350	4.436	16389	13788	0	632
17.743	11.684	16389	14077	0	632
21.132	15.038	16389	14461	0	632
18.283	14.172	16389	14750	0	632
15.975	8.402	16389	14846	0	632
12.694	5.806	16384	14558	0	632
11.143	6.708	16384	14269	0	632
13.704	9.448	16384	14077	0	632
12.946	9.989	16379	13884	0	632
11.071	9.268	16379	13596	0	632
11.504	4.472	16371	13500	0	632
12.766	1.406	16371	13692	0	632
13.487	1.226	16371	13884	0	632
12.694	3.750	16365	13788	0	632
9.340	6.383	16365	13788	0	632
5.049	6.671	16365	13981	0	632
2.344	7.429	16365	14365	0	632
2.236	6.635	16357	14654	0	632
8.907	4.039	16357	14942	0	632
14.821	6.167	16365	15327	0	632
18.175	8.402	16371	15808	0	632
19.221	12.622	16365	16288	0	632
13.054	15.002	16365	16384	0	632
5.409	14.821	16365	16480	0	632
-0.144	10.891	16365	16672	0	632
-2.813	4.544	16365	16960	0	632
-3.931	3.137	16365	17441	0	632
-3.931	1.082	16365	17922	0	632
-3.029	0.757	16371	18210	0	632
-4.111	-0.577	16371	18403	0	632
-0.938	-2.416	16371	18595	0	632
2.705	-1.659	16371	18980	0	632
5.445	2.488	16379	19364	0	632
6.996	7.825	16379	19749	0	632
4.183	11.396	16379	19941	0	632
-0.793	10.783	16384	19941	0	632
-7.645	6.491	16384	19749	0	632
-13.018	0.072	16384	19460	0	632
-16.192	-4.436	16384	19364	0	632
-13.595	-3.606	16384	19460	0	632
-9.520	0.865	16389	19749	0	632
-1.515	6.203	16397	20134	0	632
4.580	10.638	16397	20230	0	632
5.950	12.910	16397	20037	0	632
3.859	9.304	16397	19364	0	632
1.947	7.789	16397	18595	0	632
0.216	6.311	16397	18210	0	632
3.282	6.239	16397	17826	0	632
6.527	8.691	16397	17345	0	632
7.537	10.783	16397	16768	0	632
4.508	9.196	16397	16192	0	632
-1.118	3.967	16397	15519	0	632
-5.013	-0.793	16397	14942	0	632
-4.219	-1.298	16389	14558	0	632
-1.623	1.659	16389	14365	0	632
3.750	7.934	16389	14173	0	632
7.970	8.691	16389	14173	0	632
10.133	7.537	16389	14365	0	632
13.018	3.426	16389	14365	0	632
17.310	3.390	16389	14365	0	632
16.300	4.688	16384	14365	0	632
15.507	7.393	16384	14173	0	632
10.494	8.583	16384	13884	0	632
7.862	9.520	16384	13500	0	632
8.150	8.583	16384	13404	0	632
8.042	7.140	16379	13596	1	316
10.061	4.544	16379	13884	0	316
9.232	2.957	16379	14173	0	316
13.415	4.003	16379	14365	0	316
16.733	8.439	16379	14558	0	316
23.765	9.917	16379	14942	0	316
23.729	9.016	16379	15423	0	316
19.005	3.642	16379	15808	0	316
15.038	0.685	16379	16288	0	316
14.100	2.705	16379	16672	0	316
16.589	8.979	16384	17249	0	316
23.260	14.533	16384	17441	0	316
25.676	18.788	16384	17441	0	316
25.063	16.516	16384	17249	0	316
21.421	14.461	16384	17057	0	316
22.683	11.973	16384	16864	0	316
24.017	12.874	16379	16672	0	316
30.941	14.136	16379	16768	0	316
35.990	17.887	16384	16864	0	316
39.163	22.791	16384	16960	0	316
36.711	28.453	16379	16768	0	316
35.521	31.987	16379	16384	0	316
34.151	33.610	16379	15904	0	316
35.774	33.646	16371	15327	0	316
37.757	32.384	16371	14654	0	316
38.767	32.312	16365	14173	0	316
38.442	33.718	16365	13884	0	316
37.613	32.312	16357	13884	0	316
36.747	30.941	16357	14269	0	316
39.344	29.463	16357	14846	0	316
39.957	30.761	16357	15327	0	316
44.933	30.220	16357	15711	0	316
45.438	30.941	16357	16192	0	316
43.166	28.597	16371	16768	0	316
39.163	24.594	16371	17441	0	316
31.879	25.063	16371	18018	0	316
27.515	25.748	16379	18499	0	316
25.640	27.479	16379	18787	0	316
26.830	27.263	16379	19076	0	316
28.128	24.089	16384	19557	0	316
28.237	18.788	16384	20037	0	316
29.318	15.579	16389	20326	0	316
30.256	14.317	16389	20422	0	316
30.436	16.408	16397	20230	0	316
29.787	19.185	16397	20037	0	316
28.777	18.897	16397	19653	0	316
26.361	16.264	16397	18980	0	316
25.965	13.018	16389	18018	0	316
27.515	13.054	16384	17057	0	316
27.768	15.579	16384	16384	0	316
26.938	19.185	16384	15711	0	316
20.087	19.654	16379	15134	0	316
14.749	16.228	16379	14846	0	316
9.520	11.828	16384	14654	0	316
8.186	8.763	16384	14461	0	316
11.864	6.455	16379	14173	0	316
13.776	7.573	16379	13884	0	316
16.156	6.239	16379	13788	0	316
14.966	5.481	16371	13788	0	316
9.484	3.137	16371	13884	0	316
4.508	2.128	16371	14077	0	316
0.325	1.659	16371	14269	0	316
-3.210	1.334	16371	14654	0	316
-2.236	-0.072	16371	14942	0	316
0.252	1.190	16371	15231	0	316
2.416	2.885	16371	15711	0	316
4.616	6.203	16371	16192	0	316
3.282	8.691	16371	16384	0	316
-2.019	3.823	16371	16480	0	316
-6.960	-1.262	16379	16768	0	316
-6.455	-6.996	16379	17153	0	316
1.479	-3.823	16379	17634	0	316
11.792	3.498	16379	17922	0	316
20.375	9.809	16384	18114	0	316
19.510	12.369	16384	18114	0	316
16.552	10.061	16384	18210	0	316
12.838	9.088	16384	18210	0	316
16.516	7.501	16384	18307	0	316
18.211	9.196	16384	18210	0	316
19.005	8.583	16384	18018	1	316
11.215	7.429	16389	17730	0	316
6.599	5.806	16389	17441	0	316
4.760	9.340	16389	17345	0	316
7.789	13.343	16389	17537	0	316
10.278	16.372	16389	17730	0	316
9.520	17.238	16389	17730	0	316
5.842	14.245	16389	17537	0	316
6.058	13.018	16389	17249	0	316
16.048	14.425	16389	16864	0	316
28.453	20.050	16389	16576	0	316
38.478	25.965	16389	16384	0	316
38.298	22.827	16389	16096	0	316
28.633	14.677	16389	15904	0	316
16.805	4.688	16389	15904	0	316
12.297	0.036	16389	16096	0	316
14.353	4.508	16397	16384	0	316
21.421	15.615	16397	16576	0	316
23.296	21.241	16397	16768	0	316
19.654	18.860	16397	16864	0	316
9.665	10.674	16403	17057	0	316
4.111	3.210	16403	17249	0	316
4.760	1.190	16403	17345	0	316
9.412	2.885	16397	17537	0	316
10.278	3.065	16403	17634	0	316
4.688	-2.669	16403	17826	0	316
-5.626	-9.592	16403	17826	0	316
-12.009	-10.855	16403	17441	0	316
-5.373	-4.580	16403	17057	0	316
9.592	7.970	16403	16672	0	316
23.873	19.113	16403	16384	0	316
35.449	23.981	16403	16000	0	316
35.521	20.267	16403	15711	0	316
34.223	17.743	16403	15519	0	316
34.944	17.129	16403	15423	0	316
37.613	22.070	16403	15231	0	316
38.154	27.912	16403	15038	0	316
33.790	28.705	16403	14846	0	316
24.811	24.955	16397	14654	0	316
14.930	18.031	16397	14461	0	316
7.140	10.097	16397	14269	0	316
4.183	6.491	16397	13981	0	316
1.947	6.167	16397	13692	0	316
-0.865	6.671	16384	13404	0	316
-2.272	8.330	16384	13115	0	316
-2.416	7.068	16384	13115	0	316
-1.442	4.183	16379	13308	0	316
-2.236	-3.210	16384	13500	0	316
-5.662	-8.150	16384	13788	0	316
-10.963	-12.009	16384	14077	0	316
-17.454	-11.576	16384	14558	0	316
-17.851	-8.402	16384	14846	0	316
-14.497	-5.734	16384	15038	0	316
-4.580	-0.577	16384	15327	0	316
7.789	3.895	16384	15711	0	316
14.713	5.698	16384	16000	0	316
16.264	8.114	16384	16288	0	316
7.825	4.508	16384	16384	0	316
-3.065	0.397	16384	16384	0	316
-9.268	-0.144	16379	16480	0	316
-7.032	2.921	16379	16672	0	316
0.072	10.458	16379	16864	0	316
6.671	14.461	16379	16864	0	316
8.979	13.992	16379	16576	0	316
7.321	9.412	16379	16096	0	316
5.481	2.596	16379	15519	0	316
2.633	-2.705	16371	15134	0	316
-2.705	-4.724	16365	15134	0	316
-10.242	-6.347	16365	15423	0	316
-17.418	-5.590	16365	15615	0	316
-18.464	-2.128	16365	15904	0	316
-12.766	2.705	16365	16192	0	316
0.721	6.780	16365	16384	0	316
9.629	7.934	16365	16576	0	316
12.261	4.724	16365	16480	0	316
8.366	-1.406	16365	16384	0	316
1.587	-3.137	16357	16192	0	316
-0.974	-0.216	16357	16096	0	316
1.479	5.157	16357	16000	0	316
7.248	11.720	16357	16000	0	316
9.773	10.350	16351	16096	0	316
8.907	6.888	16357	16192	0	316
7.032	3.137	16357	16384	0	316
7.393	4.255	16357	16384	0	316
8.619	9.304	16357	16384	0	316
9.556	11.684	16357	16384	0	316
6.924	10.350	16357	16480	0	316
2.380	5.373	16357	16960	0	316
1.082	1.226	16357	17537	0	316
2.056	1.046	16357	18018	0	316
5.914	1.406	16365	18403	0	316
5.445	0.288	16365	18691	0	316
2.056	-0.721	16365	18787	0	316
-4.472	-2.092	16365	18691	0	316
-6.311	2.164	16365	18691	0	316
-0.144	10.386	16365	18884	0	316
9.773	17.418	16371	19268	0	316
21.349	19.329	16371	19653	0	316
25.568	17.021	16384	20037	0	316
23.585	11.179	16384	20230	0	316
17.706	9.232	16389	20134	0	316
16.877	14.064	16389	19941	0	316
17.743	21.060	16384	19845	0	316
22.250	30.076	16389	19653	0	316
24.883	32.889	16389	19460	1	416
22.899	27.371	16389	18980	0	416
22.899	21.529	16389	18210	0	416
22.106	16.697	16389	17537	0	416
21.096	17.057	16389	16960	0	416
19.041	16.589	16389	16576	0	416
9.160	13.776	16389	16384	0	416
1.731	7.934	16389	16192	0	416
-1.479	1.803	16389	16000	0	416
2.344	1.154	16389	15808	0	416
10.422	6.780	16384	15327	0	416
14.930	11.720	16384	14750	0	416
10.674	11.035	16384	14461	0	416
2.813	7.825	16384	14558	0	416
-4.291	4.760	16384	14654	0	416
-6.131	3.642	16384	14750	0	416
-3.173	10.061	16384	14750	0	416
0.288	16.841	16384	14846	0	416
4.291	21.349	16384	14942	0	416
6.563	22.611	16384	15134	0	416
12.441	19.978	16384	15231	0	416
18.716	17.634	16384	15423	0	416
21.637	17.418	16384	15615	0	416
19.473	19.834	16389	15904	0	416
17.454	24.378	16389	16288	0	416
13.884	29.138	16389	16480	0	416
14.100	29.102	16389	16768	0	416
16.625	27.840	16389	16960	0	416
13.740	21.024	16397	17249	0	416
10.206	15.543	16397	17537	0	416
3.426	11.396	16397	17634	0	416
0.721	11.107	16397	17634	0	416
3.282	13.884	16403	17441	0	416
7.068	14.677	16403	17057	0	416
9.448	15.435	16403	16768	0	416
8.979	14.425	16397	16480	0	416
7.285	14.605	16397	16384	0	416
6.383	16.192	16397	16192	0	416
8.439	16.228	16397	16096	0	416
11.143	15.326	16397	16000	0	416
10.819	11.864	16403	16192	0	416
10.963	11.792	16403	16384	0	416
13.956	17.418	16403	16384	0	416
25.243	24.739	16403	16192	0	416
34.764	29.318	16403	16192	0	416
39.091	29.499	16397	16096	0	416
33.177	25.460	16397	15904	0	416
21.421	21.168	16397	15615	0	416
9.340	20.303	16397	15327	0	416
1.515	18.897	16389	15134	0	416
1.298	16.877	16389	15038	0	416
0.974	8.222	16389	14942	0	416
2.921	3.173	16389	14750	0	416
4.977	-1.370	16384	14365	0	416
5.770	-1.442	16384	14077	0	416
1.659	3.787	16384	13788	0	416
-0.829	10.169	16379	13692	0	416
-1.226	15.254	16379	13596	0	416
0.216	15.903	16379	13500	0	416
2.705	10.278	16371	13115	0	416
6.852	5.013	16365	12827	0	416
10.783	3.065	16365	12827	0	416
16.372	6.311	16365	13019	0	416
19.654	12.730	16371	13500	0	416
19.221	15.831	16365	13981	0	416
13.163	12.009	16365	14461	0	416
9.232	7.753	16365	14846	0	416
13.018	5.301	16365	15327	0	416
17.598	8.114	16365	15904	0	416
24.162	12.766	16371	16480	0	416
23.260	21.096	16371	17153	0	416
21.565	25.712	16371	17634	0	416
19.942	25.460	16371	17922	0	416
16.156	18.175	16371	18018	0	416
12.730	7.753	16371	18018	0	416
7.717	1.731	16371	17826	0	416
4.868	4.508	16371	17537	0	416
5.085	12.369	16365	17249	0	416
3.318	15.326	16365	16960	0	416
0.721	11.035	16365	16672	0	416
-6.816	2.164	16365	16672	0	416
-12.261	-1.875	16365	16768	0	416
-9.232	2.777	16365	16864	0	416
-3.534	9.232	16365	17153	0	416
5.301	13.415	16365	17537	0	416
14.100	13.956	16371	18018	0	416
20.627	13.091	16379	18499	0	416
26.253	16.877	16379	18980	0	416
28.741	22.503	16379	19460	0	416
30.725	25.460	16384	19845	0	416
29.931	24.125	16384	20037	0	416
26.578	18.680	16389	19941	0	416
22.431	13.740	16389	19653	0	416
16.949	14.389	16389	19076	0	416
12.838	19.437	16389	18499	0	416
10.602	26.289	16384	17826	1	380
7.681	27.587	16384	17057	0	380
1.623	18.933	16384	16288	0	380
-7.898	5.373	16379	15711	0	380
-15.579	-6.563	16379	15423	0	380
-19.041	-10.314	16379	15423	0	380
-15.903	-9.448	16379	15615	0	380
-12.405	-6.599	16379	16096	0	380
-10.350	-7.898	16384	16480	0	380
-13.595	-9.881	16384	16864	0	380
-11.323	-8.294	16384	16864	0	380
-7.501	-4.688	16384	16576	0	380
-4.255	-0.288	16384	16288	0	380
-4.364	-0.938	16384	16000	0	380
-9.232	-6.275	16384	16096	0	380
-14.389	-9.448	16384	16192	0	380
-10.602	-8.114	16384	16096	0	380
-5.157	-2.596	16384	15904	0	380
0.469	5.013	16379	15615	0	380
1.010	9.196	16384	15327	0	380
-3.029	9.809	16379	14942	0	380
-6.599	5.914	16379	14654	0	380
-6.780	0.721	16371	14365	0	380
-4.255	-2.957	16371	13981	0	380
-2.200	-4.003	16365	13788	0	380
-1.983	-3.101	16365	13692	0	380
-2.272	-1.695	16365	13788	0	380
-2.416	-1.587	16365	14173	0	380
-1.442	-3.570	16365	14558	0	380
0.505	-5.301	16365	14942	0	380
-1.911	-10.242	16365	15327	0	380
-8.763	-13.704	16365	15711	0	380
-17.815	-18.572	16365	16192	0	380
-24.162	-18.933	16365	16576	0	380
-19.257	-14.785	16365	17057	0	380
-11.107	-8.150	16365	17345	0	380
-2.488	-3.931	16365	17441	0	380
0.108	-2.524	16371	17537	0	380
-2.813	-3.065	16371	17634	0	380
-4.868	0.180	16379	17634	0	380
-6.094	2.849	16379	17537	0	380
-4.580	4.219	16379	17345	0	380
-4.472	2.200	16379	17441	0	380
-9.304	-3.606	16379	17537	0	380
-13.379	-10.242	16379	17537	0	380
-12.153	-11.287	16379	17249	0	380
-7.645	-9.665	16371	16864	0	380
-0.649	-5.986	16371	16384	0	380
6.239	-5.085	16371	16384	0	380
4.544	-7.898	16371	16480	0	380
-2.056	-14.281	16371	16768	0	380
-12.586	-20.700	16371	16864	0	380
-17.021	-23.368	16371	16960	0	380
-17.923	-18.680	16379	16960	0	380
-11.071	-14.353	16379	17153	0	380
-1.479	-10.999	16379	17345	0	380
4.688	-8.402	16379	17537	0	380
9.845	-6.058	16379	17441	0	380
9.484	1.082	16379	17249	0	380
6.960	8.258	16379	17153	0	380
5.301	11.973	16379	16960	0	380
3.029	8.330	16379	16960	0	380
3.029	0.829	16379	17057	0	380
3.714	-3.750	16384	17249	0	380
3.823	-2.813	16384	17345	0	380
5.301	1.334	16384	17057	0	380
6.058	5.806	16384	16768	0	380
7.934	6.563	16384	16672	0	380
14.353	3.931	16384	16576	0	380
15.903	2.813	16384	16576	0	380
18.356	2.092	16384	16384	0	380
15.507	-0.505	16384	16288	0	380
10.999	-1.298	16384	16192	0	380
6.960	-4.904	16384	16192	0	380
3.029	-7.898	16384	16288	0	380
3.895	-5.445	16384	16096	0	380
7.645	0.902	16379	15808	0	380
12.766	14.136	16379	15519	0	380
18.897	24.378	16379	15134	0	380
20.411	27.840	16379	14750	0	380
15.543	21.745	16371	14558	0	380
6.816	10.566	16371	14558	0	380
0.108	3.029	16371	14846	0	380
0.865	3.498	16371	15134	0	380
5.373	12.153	16371	15423	0	380
9.088	16.985	16371	15711	0	380
9.268	19.113	16371	15904	0	380
8.583	18.716	16371	16096	0	380
9.052	17.490	16371	16192	0	380
17.129	19.077	16371	16096	0	380
23.765	22.935	16371	16096	0	380
28.273	25.856	16379	16192	0	380
27.732	27.587	16379	16288	0	380
26.433	29.427	16379	16384	0	380
25.604	29.210	16379	16480	0	380
23.585	26.578	16384	16768	0	380
20.555	20.988	16384	17153	0	380
12.297	15.471	16384	17441	0	380
10.314	13.740	16384	17826	0	380
12.694	15.398	16389	18210	0	380
17.815	17.634	16389	18691	0	380
23.404	19.726	16389	18884	0	380
24.089	21.132	16397	18787	0	380
20.123	22.395	16389	18595	0	380
18.428	25.676	16389	18307	0	380
18.139	28.381	16389	18018	0	380
22.286	27.299	16389	17826	0	380
23.512	24.486	16389	17634	0	380
21.745	18.788	16389	17441	0	380
20.050	16.264	16397	17537	0	380
14.353	14.317	16397	17730	0	380
13.415	15.038	16397	17634	0	380
12.405	16.372	16397	17345	0	380
12.153	14.966	16397	17057	0	380
11.035	13.668	16397	16768	0	380
9.268	9.340	16397	16384	0	380
6.996	6.203	16397	16384	0	380
8.186	4.724	16397	16384	0	380
10.710	6.852	16397	16384	0	380
10.855	11.215	16403	16384	0	380
9.304	14.677	16403	16288	0	380
5.445	17.129	16397	15904	0	380
3.426	16.372	16397	15615	0	380
4.796	13.631	16397	15519	0	380
10.025	9.737	16397	15519	0	380
10.314	4.291	16403	15711	0	380
9.016	3.137	16403	15904	0	380
4.832	2.344	16403	15904	0	380
2.416	5.409	16403	15711	0	380
6.131	9.484	16403	15711	0	380
11.828	12.405	16403	15711	0	380
14.281	12.586	16397	15711	0	380
17.310	8.114	16397	15904	0	380
11.684	3.173	16397	16000	0	380
5.770	-4.436	16397	16000	0	380
-1.010	-10.891	16397	16000	0	380
-4.940	-12.586	16397	15904	0	380
-4.400	-9.268	16397	15904	0	380
0.252	-1.839	16397	15904	0	380
5.878	7.176	16397	15808	0	380
11.540	12.441	16397	15615	0	380
13.487	15.182	16397	15423	0	380
15.471	14.461	16397	15423	0	380
15.146	10.999	16397	15519	0	380
10.855	10.025	16397	15423	0	380
8.222	9.484	16397	15327	0	380
3.318	7.681	16397	15327	0	380
0.144	9.052	16397	15423	0	380
1.551	12.225	16389	15423	0	380
4.616	15.507	16389	15423	0	380
8.511	17.815	16389	15519	0	380
12.369	17.706	16389	15615	0	380
16.589	18.139	16389	15711	0	380
17.743	18.897	16389	15711	0	380
20.664	21.349	16389	16000	0	380
20.916	24.450	16397	16384	0	380
19.942	22.503	16397	16576	0	380
12.045	17.021	16397	16864	0	380
5.049	11.432	16389	17153	0	380
-2.272	6.744	16397	17057	0	380
-2.669	9.556	16397	17057	0	380
2.200	12.694	16403	17345	0	380
8.439	14.281	16397	17730	0	380
11.287	13.379	16397	18018	0	380
11.035	9.917	16397	18018	0	380
12.730	8.330	16403	18018	0	380
14.533	7.537	16403	18018	0	380
19.293	10.242	16403	17826	0	380
17.418	12.946	16403	17441	0	380
15.326	14.389	16403	17153	0	380
13.415	18.716	16403	16960	0	380
15.435	22.575	16403	16864	0	380
24.522	26.073	16403	16672	0	380
32.131	25.496	16403	16576	0	380
33.898	23.080	16403	16576	0	380
30.761	19.041	16403	16384	0	380
24.630	15.290	16403	16192	0	380
21.709	13.668	16403	16000	0	380
20.844	9.917	16403	15904	0	380
19.041	10.097	16403	15904	0	380
17.995	10.710	16403	15904	0	380
13.415	14.785	16403	15711	0	380
12.874	20.664	16403	15519	0	380
14.894	22.431	16389	15423	0	380
15.362	22.034	16389	15231	0	380
15.290	18.392	16389	14942	0	380
11.107	15.939	16389	14654	0	380
8.943	19.257	16389	14461	0	380
15.471	23.873	16384	14461	0	380
23.657	27.119	16384	14461	0	380
32.997	26.578	16384	14461	0	380
34.547	22.935	16384	14461	0	380
30.256	17.851	16379	14365	0	380
22.250	15.326	16379	14461	0	380
16.156	14.894	16379	14654	0	380
14.749	13.776	16379	14846	0	380
12.189	10.819	16379	14846	0	380
6.563	3.390	16379	15038	0	380
3.570	-1.911	16379	15423	0	380
-0.649	-5.770	16379	15808	0	380
0.180	-3.282	16384	16096	0	380
5.157	1.803	16384	16192	0	380
9.629	8.511	16384	16096	0	380
11.107	14.821	16379	15808	0	380
11.937	16.084	16379	15711	0	380
11.900	16.156	16379	15808	0	380
11.251	16.805	16379	16000	0	380
9.340	16.084	16379	16192	0	380
10.819	16.552	16379	16384	0	380
11.071	17.202	16379	16384	0	380
11.900	16.949	16371	16384	0	380
15.723	16.444	16371	16384	0	380
15.218	17.490	16371	16384	0	380
15.543	19.762	16371	16384	0	380
11.035	22.034	16371	16384	0	380
6.960	22.935	16371	16288	0	380
0.325	20.952	16371	16384	0	380
-4.724	15.038	16371	16384	0	380
-9.016	9.629	16365	16480	0	380
-12.369	4.796	16365	16480	0	380
-12.297	1.551	16365	16384	0	380
-15.831	2.452	16365	16192	0	380
-14.894	3.318	16365	16096	0	380
-16.372	3.173	16357	16000	0	380
-13.199	5.517	16357	16000	0	380
-5.445	7.970	16357	16096	0	380
4.868	13.091	16357	16288	0	380
13.271	16.805	16357	16768	0	380
13.379	16.372	16371	17537	0	380
7.934	10.638	16371	18403	0	380
-1.082	4.111	16379	19364	0	380
-4.652	3.354	16384	20037	0	380
0.361	8.907	16384	20326	0	380
8.763	19.221	16384	20326	0	380
14.353	22.647	16389	20422	0	380
13.668	19.365	16389	20326	0	380
8.907	8.258	16389	20134	0	380
0.469	-2.993	16389	19653	0	380
-5.157	-7.285	16389	19172	0	380
-5.265	-4.977	16397	18787	1	956
-4.436	2.308	16384	18307	0	956
-0.397	6.708	16384	17730	0	956
-0.793	8.294	16384	17057	0	956
-1.479	2.019	16384	16576	0	956
-7.104	-5.481	16384	16192	0	956
-13.523	-11.612	16384	15615	0	956
-17.418	-14.425	16379	15038	0	956
-17.995	-12.622	16379	14461	0	956
-11.648	-8.186	16384	14173	0	956
-5.481	-2.633	16379	13981	0	956
-2.705	0.649	16379	13788	0	956
-6.527	0.902	16379	13692	0	956
-13.343	-2.164	16379	13692	0	956
-16.048	-4.400	16371	13788	0	956
-7.862	-2.560	16379	13981	0	956
5.662	2.705	16371	14269	0	956
13.091	7.465	16371	14750	0	956
14.064	9.556	16371	15038	0	956
4.183	8.727	16371	15134	0	956
-4.652	6.094	16371	15038	0	956
-7.970	6.527	16371	14942	0	956
-6.852	6.022	16365	14846	0	956
-8.186	3.426	16365	14942	0	956
-13.451	0.902	16365	15231	0	956
-18.392	-0.397	16365	15519	0	956
-21.096	-0.793	16365	16000	0	956
-13.127	1.190	16371	16384	0	956
-5.301	1.118	16371	16576	0	956
0.325	0.252	16371	16768	0	956
-2.813	-4.652	16371	16864	0	956
-9.665	-9.845	16371	17249	0	956
-11.684	-11.287	16371	17730	0	956
-5.409	-7.032	16379	18210	0	956
8.511	6.744	16379	18691	0	956
22.899	20.880	16379	18884	0	956
27.407	29.968	16384	18980	0	956
21.781	25.135	16384	19172	0	956
11.828	16.480	16384	19268	0	956
2.560	7.573	16384	19364	0	956
-0.649	9.665	16389	19172	0	956
3.859	16.769	16389	19076	0	956
10.097	23.440	16389	18884	0	956
16.733	26.686	16389	18595	0	956
23.152	23.044	16389	18018	0	956
27.443	20.664	16389	17441	0	956
27.010	18.680	16389	17057	0	956
22.250	17.851	16389	16768	0	956
18.608	18.356	16389	16384	0	956
13.884	18.933	16384	15808	0	956
15.254	18.500	16384	15231	0	956
14.677	17.166	16384	14750	0	956
14.930	12.730	16379	14269	0	956
10.530	9.340	16379	14077	0	956
7.357	7.285	16379	14173	0	956
3.426	8.439	16379	14365	0	956
-0.216	9.953	16379	14654	0	956
-4.183	9.448	16379	14942	0	956
-7.501	8.475	16379	15134	0	956
-5.986	8.547	16379	15423	0	956
3.859	15.795	16379	15615	0	956
18.283	24.486	16384	16000	0	956
30.256	32.889	16384	16384	0	956
32.456	32.059	16384	16672	0	956
23.585	23.549	16384	16864	0	956
11.251	10.025	16384	17057	0	956
3.246	1.947	16389	17249	0	956
5.445	2.056	16389	17345	0	956
14.858	9.340	16389	17441	0	956
20.519	17.382	16389	17537	0	956
24.162	19.149	16389	17345	0	956
21.204	16.625	16389	17057	0	956
19.401	13.668	16389	16768	0	956
21.277	10.746	16389	16672	0	956
23.549	11.432	16389	16576	0	956
26.289	11.720	16389	16480	0	956
25.784	7.789	16389	16576	0	956
19.041	3.678	16389	16864	0	956
13.631	0.108	16397	17057	0	956
9.412	-0.577	16397	17249	0	956
9.881	2.669	16397	17345	0	956
15.615	6.527	16397	17345	0	956
20.339	10.819	16397	17153	0	956
25.424	16.084	16397	16864	0	956
28.922	22.142	16397	16576	0	956
30.112	27.119	16397	16384	0	956
29.715	28.128	16397	16384	0	956
23.404	22.214	16397	16096	0	956
15.975	13.199	16397	15711	0	956
7.357	7.104	16397	15423	0	956
6.311	8.078	16397	15231	0	956
7.357	9.484	16397	15038	0	956
11.179	8.258	16389	15038	0	956
12.586	4.075	16389	15038	0	956
13.776	-2.669	16384	15134	0	956
14.677	-3.967	16389	15327	0	956
13.848	-2.272	16397	15711	0	956
12.441	0.757	16397	16192	0	956
10.097	4.544	16397	16576	0	956
8.979	8.691	16403	16960	0	956
12.333	13.740	16397	17153	0	956
17.021	17.310	16397	17249	0	956
15.867	15.543	16397	17153	0	956
12.009	5.986	16397	16960	0	956
3.065	-1.154	16397	16864	0	956
-0.505	-4.724	16397	16768	0	956
3.390	-2.092	16397	16576	0	956
13.559	4.472	16397	16384	0	956
21.890	7.393	16397	16096	0	956
21.096	2.560	16389	15615	0	956
14.641	-5.806	16389	15134	0	956
2.344	-10.891	16389	14750	0	956
-2.344	-9.376	16384	14461	0	956
-0.974	-4.111	16384	14269	0	956
5.157	1.406	16384	14173	0	956
10.350	1.659	16384	14173	0	956
12.225	-4.977	16384	14461	0	956
9.592	-9.304	16384	14750	0	956
9.124	-9.953	16384	15231	0	956
10.819	-7.537	16384	15711	0	956
13.054	-3.859	16384	16192	0	956
14.028	-3.426	16384	16480	0	956
14.533	-0.685	16389	16864	0	956
13.776	1.190	16389	17249	0	956
15.182	4.688	16389	17441	0	956
19.582	8.979	16389	17634	0	956
20.664	8.547	16389	17730	0	956
18.824	7.501	16389	17730	0	956
15.254	5.337	16389	17730	0	956
13.379	4.147	16397	17634	0	956
13.631	5.049	16397	17537	0	956
17.887	4.364	16397	17345	0	956
18.933	3.354	16389	16960	0	956
19.041	1.046	16389	16480	0	956
16.300	0.685	16389	16288	0	956
16.048	1.515	16389	16096	0	956
14.028	5.157	16389	15904	0	956
16.264	7.248	16384	15711	0	956
15.687	7.789	16384	15423	0	956
20.880	8.727	16384	15327	0	956
25.063	12.009	16384	15423	0	956
30.328	14.749	16384	15808	0	956
30.581	16.156	16384	16096	0	956
27.119	13.018	16389	16384	0	956
19.113	6.635	16389	16480	0	956
14.533	5.626	16384	16384	0	956
12.045	6.383	16384	16192	0	956
12.225	9.052	16384	16000	0	956
13.127	10.314	16384	15904	0	956
13.127	8.619	16384	15711	0	956
16.300	6.563	16384	15711	0	956
19.005	6.599	16384	15711	0	956
23.693	8.006	16379	15615	0	956
24.017	9.160	16379	15423	0	956
21.926	11.107	16379	15423	0	956
19.618	11.179	16379	15423	0	956
14.028	13.199	16379	15519	0	956
12.802	13.271	16379	15711	0	956
10.927	12.441	16379	15808	0	956
10.638	10.891	16379	16000	0	956
12.766	10.386	16379	16192	0	956
14.966	9.989	16379	16384	0	956
16.625	9.917	16379	16480	0	956
18.067	12.153	16379	16480	0	956
17.743	12.586	16379	16576	0	956
19.618	14.425	16379	16768	0	956
21.890	16.697	16379	17153	0	956
24.486	16.408	16379	17345	0	956
28.705	15.795	16379	17634	0	956
31.735	15.543	16384	17826	0	956
31.879	12.514	16384	17826	0	956
29.030	9.340	16384	17826	0	956
20.195	4.652	16384	17537	0	956
13.307	0.974	16379	17057	0	956
7.501	1.587	16379	16576	0	956
6.275	6.888	16379	16384	0	956
8.330	11.828	16379	16096	0	956
9.268	13.343	16371	15904	0	956
6.996	8.294	16371	15711	0	956
4.508	2.308	16371	15519	0	956
3.967	-0.938	16371	15519	0	956
8.330	1.947	16371	15711	0	956
19.329	6.780	16371	16000	0	956
28.128	10.422	16371	16288	0	956
34.511	10.133	16371	16384	0	956
32.564	7.537	16379	16768	0	956
26.181	3.750	16379	17345	0	956
21.529	2.633	16379	17826	0	956
16.949	1.803	16384	18210	0	956
15.290	1.010	16384	18403	0	956
13.740	0.721	16384	18307	0	956
13.920	0.361	16384	18114	0	956
15.759	2.416	16384	17730	0	956
18.464	5.445	16384	17345	0	956
21.277	7.465	16384	17057	1	776
22.503	9.052	16384	16960	0	776
18.572	6.744	16384	16768	0	776
17.634	3.534	16384	16576	0	776
15.435	2.633	16384	16384	0	776
17.021	3.318	16384	16288	0	776
13.704	5.445	16384	16192	0	776
10.819	6.455	16384	16192	0	776
5.409	3.642	16384	16288	0	776
1.370	0.649	16384	16288	0	776
1.947	-3.390	16384	16096	0	776
3.714	-3.498	16384	15904	0	776
5.481	-2.741	16384	15904	0	776
1.551	-1.479	16384	16096	0	776
-2.596	-1.370	16384	16384	0	776
-1.118	-0.865	16384	16672	0	776
5.265	2.741	16384	16960	0	776
13.992	8.186	16389	17441	0	776
20.772	9.773	16389	17730	0	776
17.995	10.169	16389	17634	0	776
15.218	8.078	16389	17249	0	776
10.927	11.360	16389	16864	0	776
15.543	16.949	16389	16480	0	776
19.546	24.594	16389	16288	0	776
21.493	25.027	16389	15808	0	776
15.110	17.598	16384	15327	0	776
7.934	7.970	16384	15038	0	776
3.282	2.488	16384	14942	0	776
2.957	4.868	16384	15038	0	776
6.275	9.665	16384	15038	0	776
9.737	15.182	16379	14750	0	776
13.379	15.038	16379	14461	0	776
15.579	11.612	16379	14269	0	776
17.887	8.691	16379	14461	0	776
21.457	6.563	16379	14654	0	776
21.926	5.698	16379	14846	0	776
19.329	4.760	16371	14846	0	776
18.031	3.895	16371	14654	0	776
16.949	7.898	16371	14654	0	776
19.690	16.048	16379	14942	0	776
24.162	25.856	16379	15423	0	776
32.023	32.203	16379	15808	0	776
39.812	32.672	16379	16192	0	776
42.301	26.902	16379	16384	0	776
41.904	22.395	16379	16864	0	776
35.377	18.788	16384	17153	0	776
27.876	17.634	16384	17441	0	776
19.582	15.471	16384	17634	0	776
18.752	12.369	16384	17826	0	776
21.313	10.278	16384	18114	0	776
24.847	9.881	16389	18403	0	776
25.388	11.396	16389	18595	0	776
20.267	11.756	16389	18595	0	776
12.982	13.127	16389	18595	0	776
8.439	12.838	16389	18595	0	776
10.314	14.317	16397	18499	0	776
21.168	17.923	16389	18307	0	776
32.528	23.621	16389	18307	0	776
37.937	28.417	16389	18403	0	776
36.423	26.650	16389	18403	0	776
25.099	20.772	16397	18210	0	776
16.048	13.668	16397	18114	0	776
