neuroNicle FX2
D3F25R12
Bluetooth SPP
2023년 11월 8일 수요일
오후 4:08
time interval = 4msec
EEG1	EEG2	PPG	sdPPG	pulse	peak_interval(msec)
-2.308	104.291	14972	18615	0	668
-8.727	93.112	15255	18757	0	668
-15.543	84.890	15481	18812	0	668
-23.981	78.182	15678	18812	0	668
-33.754	70.357	15678	18689	0	668
-42.337	63.217	15622	18306	0	668
-48.576	58.168	15537	17848	0	668
-54.201	52.362	15763	17706	0	668
-62.243	46.340	15961	17879	0	668
-73.386	38.298	16187	18028	0	668
-83.700	31.987	16328	17997	0	668
-91.345	29.463	16384	17842	0	668
-93.906	29.427	16525	17694	0	668
-93.004	31.843	16666	17613	0	668
-87.486	30.472	16864	17613	0	668
-83.808	26.397	17090	17663	0	668
-85.359	20.087	17146	17650	0	668
-93.797	14.136	17287	17558	0	668
-103.967	10.061	17513	17484	0	668
-109.917	10.061	17655	17477	0	668
-108.150	12.874	17852	17490	0	668
-104.327	12.550	17994	17397	0	668
-101.226	10.314	18135	17206	0	668
-102.308	4.724	18220	17045	0	668
-104.219	1.226	18276	16958	0	668
-104.580	0.469	18417	16890	0	668
-105.626	3.354	18559	16835	0	668
-109.520	5.445	18700	16828	0	668
-116.048	4.147	18785	16779	0	668
-118.860	2.741	18841	16631	0	668
-110.855	1.515	18785	16408	0	668
-92.247	2.777	18700	16174	0	668
-72.845	3.246	18643	15896	0	668
-65.489	2.128	18417	15532	0	668
-73.242	-1.983	18135	15111	0	668
-88.568	-6.311	17937	14802	0	668
-98.161	-8.943	17937	14802	0	668
-94.158	-10.314	17852	14901	0	668
-83.556	-11.323	17429	14605	0	668
-75.875	-11.360	16864	13925	0	668
-78.832	-15.146	16384	13387	0	668
-90.516	-23.729	16046	13189	0	668
-94.230	-31.590	15763	13183	0	668
-82.330	-36.603	15396	13208	0	668
-49.657	-32.744	15113	13195	0	668
-11.107	-22.142	14774	13171	0	668
12.946	-13.199	14548	13220	0	668
7.681	-14.100	14351	13424	0	668
-22.395	-24.450	14209	13789	0	668
-55.499	-37.252	14209	14221	0	668
-64.515	-44.645	14209	14574	0	668
-35.485	-43.851	14068	14864	0	668
16.913	-35.810	14068	15192	0	668
66.967	-27.479	14125	15556	0	668
88.677	-24.991	14068	15878	0	668
78.074	-28.056	13983	16082	0	668
49.369	-35.521	13983	16205	0	668
26.902	-41.976	13983	16292	0	668
26.073	-41.507	13701	16317	0	668
45.150	-34.800	13701	16372	0	668
67.220	-25.748	13927	16668	0	668
78.291	-19.870	14068	17199	0	668
78.579	-19.077	14209	17515	0	668
76.920	-21.168	13983	17354	0	668
81.861	-21.962	13644	16890	0	668
93.545	-23.585	13221	16354	0	668
102.272	-23.873	12571	15668	0	668
101.659	-25.496	11865	14901	0	668
91.381	-31.699	11384	14376	0	668
78.796	-40.822	10961	14172	0	668
69.455	-50.523	10537	14153	0	668
65.453	-59.394	10311	14283	0	668
62.748	-64.659	10170	14512	0	668
55.860	-64.082	10029	14753	0	668
46.664	-62.351	9831	14957	0	668
37.324	-62.964	9548	15043	0	668
30.725	-67.400	9125	14914	0	668
28.128	-74.829	8757	14728	0	668
29.354	-81.644	8560	14808	0	668
29.391	-85.864	8475	15155	0	668
24.306	-85.611	8418	15550	0	668
19.401	-82.762	8418	15890	0	668
14.966	-78.579	8334	16143	0	668
11.396	-75.514	8277	16323	0	668
8.655	-72.953	8277	16544	0	668
3.029	-71.727	8334	16872	0	668
-0.397	-71.619	8475	17193	0	668
-3.570	-75.298	8560	17434	0	668
-2.849	-81.500	8560	17601	0	668
-5.914	-90.624	8616	17706	0	668
-14.749	-95.853	8701	17811	0	668
-26.578	-97.115	8757	17935	0	668
-32.600	-92.102	8842	17990	0	668
-27.083	-86.224	8899	17978	0	668
-16.264	-83.664	8983	18065	0	668
-11.576	-84.169	9181	18262	0	668
-22.611	-85.936	9407	18423	0	668
-42.770	-87.739	9605	18516	0	668
-59.755	-87.559	9746	18590	0	668
-63.145	-87.234	9972	18664	0	668
-56.437	-88.208	10311	18775	0	668
-50.198	-89.398	10594	18961	0	668
-52.326	-88.857	10961	19196	0	668
-60.909	-85.719	11384	19356	0	668
-66.174	-79.264	11667	19412	0	668
-63.217	-73.603	12147	19455	0	668
-55.283	-70.105	12571	19622	0	668
-50.054	-71.944	13221	19894	0	668
-55.499	-77.678	13560	20092	0	668
-72.124	-83.303	13983	20018	0	668
-90.984	-87.847	14266	19727	0	668
-105.193	-87.955	14548	19480	0	668
-108.114	-84.818	14972	19356	0	668
-100.469	-81.248	15339	19264	1	612
-86.765	-79.012	15622	19146	0	612
-80.527	-81.320	15763	18806	0	612
-85.467	-85.683	15678	18102	0	612
-99.675	-87.090	15678	17416	0	612
-113.704	-84.926	15961	17261	0	612
-121.168	-78.759	16440	17552	0	612
-122.395	-72.160	16864	17867	0	612
-122.611	-67.869	17372	17997	0	612
-131.590	-67.580	17655	17990	0	612
-146.051	-68.301	18135	17978	0	612
-156.690	-70.393	18559	18009	0	612
-157.411	-70.754	18841	17984	0	612
-150.343	-70.862	19124	17824	0	612
-150.054	-73.206	19406	17589	0	612
-162.351	-77.822	19547	17397	0	612
-186.909	-88.063	19971	17304	0	612
-211.143	-98.521	20395	17329	0	612
-222.034	-106.022	20677	17434	0	612
-217.851	-109.304	21045	17477	0	612
-210.855	-109.304	21384	17397	0	612
-206.275	-108.727	21609	17243	0	612
-206.203	-107.357	21892	17113	0	612
-207.357	-106.058	22174	17032	0	612
-204.652	-105.013	22372	16927	0	612
-198.269	-107.032	22598	16767	0	612
-190.840	-112.045	22739	16569	0	612
-182.726	-116.697	22739	16273	0	612
-170.862	-114.028	22739	15921	0	612
-157.916	-104.652	22881	15748	0	612
-144.609	-91.381	23022	15711	0	612
-133.466	-80.058	22881	15476	0	612
-125.965	-75.766	22739	14975	0	612
-122.322	-79.012	22372	14419	0	612
-122.142	-84.457	22090	13974	0	612
-120.808	-87.342	21892	13696	0	612
-117.670	-84.349	21666	13523	0	612
-110.927	-74.612	21327	13319	0	612
-99.928	-62.495	21101	13035	0	612
-87.991	-52.001	20762	12862	0	612
-78.399	-46.520	20621	12886	0	612
-72.845	-45.366	20338	12979	0	612
-72.016	-45.799	20197	13059	0	612
-72.953	-44.825	19915	13140	0	612
-73.170	-40.750	19773	13251	0	612
-72.160	-36.495	19547	13424	0	612
-68.085	-34.259	19547	13708	0	612
-65.308	-34.151	19547	14104	0	612
-63.181	-35.737	19632	14555	0	612
-64.082	-35.954	19773	14988	0	612
-65.056	-32.997	19773	15408	0	612
-61.630	-28.958	20056	15847	0	612
-56.257	-26.037	20112	16242	0	612
-49.405	-24.306	20254	16513	0	612
-46.484	-25.820	20197	16600	0	612
-48.972	-28.056	20056	16445	0	612
-58.276	-31.374	19689	16137	0	612
-66.967	-33.249	19491	15822	0	612
-67.111	-32.492	19208	15544	0	612
-61.450	-29.427	18841	15371	0	612
-52.578	-25.532	18643	15321	0	612
-44.897	-23.549	18417	15272	0	612
-43.419	-24.125	18135	15167	0	612
-43.455	-25.568	17852	15056	0	612
-45.222	-26.830	17429	14889	0	612
-44.753	-28.237	17005	14623	0	612
-45.763	-27.732	16581	14339	0	612
-47.458	-26.289	16187	14172	0	612
-45.943	-23.440	15904	14184	0	612
-43.058	-19.077	15763	14388	0	612
-38.695	-17.923	15763	14796	0	612
-36.531	-20.231	15820	15303	0	612
-40.317	-25.929	15763	15674	0	612
-47.710	-32.780	15481	15729	0	612
-53.480	-36.711	15255	15618	0	612
-54.922	-38.370	15113	15655	0	612
-52.578	-37.144	15057	15896	0	612
-48.576	-37.468	14972	16143	0	612
-44.609	-38.154	14972	16329	0	612
-45.835	-39.812	14916	16507	0	612
-50.018	-43.347	14916	16736	0	612
-54.021	-43.274	15057	17070	0	612
-60.007	-41.363	15481	17613	0	612
-61.702	-38.045	15904	18281	0	612
-60.620	-34.439	16187	18744	0	612
-57.050	-32.239	16243	18812	0	612
-54.778	-34.187	16328	18621	0	612
-55.103	-36.603	16328	18398	0	612
-57.555	-38.262	16328	18250	0	612
-62.351	-37.757	16384	18170	0	612
-63.686	-36.639	16384	18095	0	612
-62.892	-35.341	16440	18003	0	612
-60.043	-36.495	16525	17929	0	612
-59.070	-39.380	16581	17867	0	612
-58.420	-40.173	16581	17749	0	612
-59.106	-39.704	16581	17558	0	612
-59.214	-36.278	16440	17304	0	612
-56.870	-34.115	16384	17032	0	612
-53.336	-33.429	16243	16773	0	612
-49.513	-31.446	16046	16464	0	612
-46.592	-28.669	15763	16075	0	612
-44.861	-22.899	15622	15705	0	612
-44.356	-18.897	15339	15433	0	612
-47.458	-17.202	15057	15223	0	612
-48.756	-18.897	14831	15087	0	612
-51.136	-20.267	14690	15050	0	612
-53.228	-19.798	14548	15019	0	612
-59.214	-17.815	14351	14938	0	612
-75.514	-16.012	14068	14827	0	612
-102.272	-15.867	13927	14753	0	612
-135.341	-15.795	13701	14753	0	612
-162.063	-14.461	13503	14796	0	612
-170.646	-11.107	13362	14852	0	612
-156.329	-6.203	13136	14864	0	612
-132.420	-2.669	12797	14759	0	612
-112.802	-1.082	12514	14567	0	612
-106.924	-2.380	12091	14431	0	612
-111.107	-4.003	11949	14431	0	612
-114.858	-7.176	11667	14574	0	612
-109.665	-6.094	11441	14697	0	612
-99.171	-3.895	11300	14734	0	612
-91.093	-0.757	11102	14876	0	612
-88.280	2.128	11102	15223	0	612
-89.109	4.940	11102	15593	0	612
-86.946	4.940	11017	15841	0	612
-80.671	4.940	10961	15983	0	612
-71.872	5.373	10876	16125	0	612
-65.308	4.364	10876	16360	0	612
-61.955	3.137	11017	16693	0	612
-60.115	2.452	11300	17119	0	612
-58.709	3.173	11300	17471	0	612
-58.096	6.419	11243	17440	0	612
-57.952	9.376	10961	17039	0	612
-57.771	12.189	10678	16655	0	612
-57.519	11.720	10537	16482	0	612
-56.834	10.169	10311	16384	0	612
-57.843	7.501	10170	16298	0	612
-61.486	7.140	9972	16255	0	612
-65.164	6.491	9887	16273	0	612
-63.000	7.212	9831	16329	0	612
-52.578	9.124	9746	16347	0	612
-35.521	14.425	9548	16255	0	612
-23.909	18.428	9407	16119	0	612
-21.493	21.637	9181	16082	0	612
-29.246	20.123	9125	16143	0	612
-38.442	15.543	9040	16224	0	612
-42.842	11.576	9125	16341	0	612
-41.652	8.150	9181	16575	0	612
-38.334	9.917	9322	16896	0	612
-38.839	12.369	9464	17218	0	612
-41.075	16.012	9746	17527	0	612
-41.507	18.680	9831	17756	0	612
-39.704	18.680	9887	17756	0	612
-32.961	17.526	9831	17545	0	612
-26.758	16.012	9831	17341	0	612
-22.178	16.084	9887	17329	0	612
-21.529	16.589	10029	17521	0	612
-24.991	15.290	10452	17848	0	612
-30.220	12.694	10820	18219	0	612
-35.305	7.140	11102	18516	0	612
-37.324	5.301	11384	18689	0	612
-35.774	5.157	11808	18806	0	612
-31.843	6.491	12091	18961	0	612
-26.578	9.124	12571	19202	0	612
-22.539	9.160	12995	19455	0	612
-20.195	9.304	13644	19696	0	612
-22.791	10.314	14068	19851	0	612
-24.342	13.018	14351	19795	0	612
-22.358	17.598	14774	19672	0	612
-15.795	20.159	15396	19820	0	612
-6.852	19.690	16102	20240	0	612
-2.200	16.589	16864	20617	0	612
-4.183	12.369	17513	20765	0	612
-9.412	11.360	18078	20697	0	612
-14.172	12.766	18559	20500	1	696
-13.668	15.507	18982	20271	0	696
-12.297	17.562	19547	20117	0	696
-12.477	17.598	20112	20018	0	696
-14.245	16.697	20536	19851	0	696
-15.687	16.661	20960	19597	0	696
-13.235	17.202	21525	19344	0	696
-8.006	19.618	21807	19140	0	696
-0.252	23.621	22231	18880	0	696
4.580	28.309	22372	18367	0	696
6.094	29.499	22372	17663	0	696
5.229	29.318	22457	17032	0	696
9.448	28.092	22513	16563	0	696
19.978	33.826	22655	16205	0	696
41.616	47.890	22739	15909	0	696
67.941	68.626	22881	15668	0	696
92.355	89.470	22937	15389	0	696
112.117	106.311	22881	15037	0	696
125.063	118.752	22796	14660	0	696
138.009	130.256	22655	14320	0	696
153.768	143.960	22513	14005	0	696
172.593	158.565	22316	13665	0	696
192.463	173.098	22033	13288	0	696
211.287	186.405	21666	12917	0	696
224.486	198.269	21384	12651	0	696
234.079	207.212	21242	12553	0	696
238.190	210.422	21045	12602	0	696
236.423	206.347	20903	12695	0	696
230.292	197.872	20621	12713	0	696
218.428	187.919	20480	12719	0	696
205.157	178.940	20197	12806	0	696
190.732	168.229	20112	12967	0	696
174.973	151.785	19830	13121	0	696
156.329	127.840	19689	13195	0	696
132.816	103.570	19265	13226	0	696
110.530	84.493	19067	13257	0	696
89.398	74.468	18926	13362	0	696
73.350	68.734	18559	13541	0	696
60.260	60.476	18417	13708	0	696
47.638	45.222	18220	13888	0	696
31.302	27.407	18135	14160	0	696
17.093	10.386	18078	14543	0	696
4.364	1.515	18078	14975	0	696
-6.419	-1.479	18135	15371	0	696
-15.651	-1.731	17994	15562	0	696
-23.693	-3.859	17711	15501	0	696
-29.066	-8.330	17372	15284	0	696
-32.492	-14.208	17005	15068	0	696
-36.639	-20.123	16722	14994	0	696
-41.760	-24.414	16525	15074	0	696
-48.503	-29.427	16243	15167	0	696
-53.985	-35.593	16046	15192	0	696
-56.004	-41.003	15763	15223	0	696
-55.572	-44.753	15678	15402	0	696
-53.913	-45.438	15678	15766	0	696
-54.165	-43.274	15763	16211	0	696
-53.552	-43.743	15763	16569	0	696
-54.850	-46.592	15820	16798	0	696
-61.882	-53.444	15820	16946	0	696
-71.403	-61.702	15820	17113	0	696
-76.992	-66.426	15961	17360	0	696
-70.105	-62.495	16102	17632	0	696
-51.136	-52.614	16187	17836	0	696
-29.282	-40.570	16328	17972	0	696
-22.070	-35.305	16525	18151	0	696
-32.528	-41.291	16722	18417	0	696
-54.057	-54.562	16948	18639	0	696
-70.501	-68.229	17146	18744	0	696
-74.901	-72.701	17231	18689	0	696
-73.314	-67.977	17090	18343	0	696
-71.583	-57.014	16807	17762	0	696
-73.747	-47.782	16581	17261	0	696
-73.422	-43.851	16440	16934	0	696
-64.263	-42.914	16328	16717	0	696
-49.441	-44.789	16187	16550	0	696
-32.853	-43.130	15904	16279	0	696
-16.949	-38.911	15622	15884	0	696
-0.433	-32.816	15481	15612	0	696
15.074	-28.345	15339	15569	0	696
25.929	-27.515	15198	15606	0	696
22.755	-32.853	15057	15525	0	696
9.701	-40.714	14774	15284	0	696
-4.580	-47.422	14492	15087	0	696
-9.448	-50.054	14351	15062	0	696
-5.229	-49.405	14266	15179	0	696
0.433	-49.838	14209	15334	0	696
2.416	-52.001	14068	15464	0	696
1.010	-54.634	14068	15569	0	696
0.180	-53.444	13983	15668	0	696
4.796	-47.458	13983	15822	0	696
9.448	-38.478	13983	16026	0	696
11.937	-30.148	13983	16150	0	696
6.455	-27.984	13927	16187	0	696
-2.164	-32.636	13842	16279	0	696
-13.054	-42.301	13983	16489	0	696
-20.844	-55.139	14068	16668	0	696
-21.781	-60.909	13644	16464	0	696
-16.192	-56.437	13221	15804	0	696
-8.258	-42.012	12571	15068	0	696
-4.436	-25.856	12232	14635	0	696
-6.599	-18.680	11808	14506	0	696
-16.048	-24.955	11667	14543	0	696
-25.063	-40.137	11384	14673	0	696
-28.489	-52.254	11243	14808	0	696
-26.794	-53.552	11017	14889	0	696
-21.024	-45.041	10876	15019	0	696
-16.697	-36.062	11017	15408	0	696
-17.057	-33.538	11159	15995	0	696
-20.411	-36.026	11243	16464	0	696
-21.277	-40.137	11300	16668	0	696
-16.444	-39.380	11300	16754	0	696
-5.806	-35.485	11384	16958	0	696
6.203	-32.239	11582	17236	0	696
9.953	-29.931	11526	17403	0	696
4.436	-26.614	11667	17459	0	696
-8.330	-22.539	11582	17428	0	696
-19.401	-17.346	11526	17329	0	696
-20.267	-14.533	11526	17224	0	696
-12.982	-13.776	11441	17193	0	696
-2.019	-12.009	11384	17144	0	696
4.147	-11.107	11243	16878	0	696
3.750	-8.294	10820	16451	0	696
0.288	-6.888	10594	16106	0	696
-4.147	-7.465	10452	15933	0	696
-7.609	-10.819	10255	15865	0	696
-13.054	-18.031	10029	15816	0	696
-19.798	-24.450	9887	15742	0	696
-25.063	-28.994	9690	15630	0	696
-24.089	-22.972	9407	15389	0	696
-15.723	-10.710	8899	15037	0	696
-1.731	3.282	8560	14740	0	696
8.186	7.465	8277	14605	0	696
10.097	0.685	7910	14537	0	696
3.606	-12.333	7486	14388	0	696
-6.527	-21.313	7062	14190	0	696
-12.766	-20.231	6921	14221	0	696
-11.504	-10.242	6723	14524	0	696
-8.547	-2.813	6639	14790	0	696
-8.475	-1.875	6300	14827	0	696
-13.704	-4.977	6074	14808	0	696
-18.824	-8.475	6017	14988	0	696
-17.093	-5.698	5933	15346	0	696
-8.943	0.216	5933	15773	0	696
4.147	2.019	6074	16249	0	696
12.946	-0.325	6300	16742	0	696
15.362	-5.517	6497	17230	0	696
8.907	-9.556	6780	17737	0	696
-4.904	-8.583	7288	18324	0	696
-17.021	-5.770	7769	18992	0	696
-20.519	-0.433	8277	19573	0	696
-12.730	4.904	8616	19863	0	696
0.757	10.891	8899	19900	0	696
6.239	12.153	9322	19993	0	696
-0.721	7.862	9831	20228	0	696
-18.572	-1.082	10255	20469	0	696
-30.545	-10.061	10735	20673	0	696
-31.662	-15.038	11384	20864	0	696
-19.077	-11.864	12006	21031	0	696
-3.750	-6.383	12514	21118	0	696
8.763	-0.613	13079	21136	0	696
10.494	1.515	13701	21161	0	696
3.029	0.036	14209	21186	0	696
-11.071	-4.291	14690	21081	0	696
-24.630	-11.576	15113	20809	0	696
-31.013	-15.975	15622	20518	0	696
-30.797	-18.392	15961	20259	0	696
-26.578	-15.975	16384	19987	1	664
-19.582	-10.386	16666	19634	0	664
-9.016	-5.662	16948	19214	0	664
5.193	-4.472	17231	18831	0	664
17.923	-6.599	17513	18540	0	664
19.582	-10.386	17937	18324	0	664
8.475	-10.602	18276	18133	0	664
-3.642	-9.124	18502	17885	0	664
-3.246	-5.013	18700	17583	0	664
11.684	-3.859	19067	17329	0	664
26.433	-4.183	19350	17175	0	664
27.047	-7.970	19632	17076	0	664
8.835	-10.746	19971	16958	0	664
-17.382	-8.655	20197	16835	0	664
19.834	59.574	13644	20197	0	620
21.313	58.384	14125	20011	1	644
18.608	55.536	14492	19733	0	644
13.776	52.038	14831	19381	0	644
8.763	50.451	15113	19066	0	644
6.563	53.588	15537	18856	0	644
5.481	58.997	15961	18701	0	644
4.219	65.344	16328	18528	0	644
2.741	65.705	16666	18287	0	644
-0.361	64.335	17005	18028	0	644
-1.947	61.522	17287	17817	0	644
0.108	60.837	17711	17688	0	644
6.094	63.686	18078	17632	0	644
12.441	65.705	18417	17552	0	644
19.077	67.724	18841	17416	0	644
22.142	65.453	19124	17255	0	644
23.044	63.072	19491	17138	0	644
21.385	60.692	19830	17057	0	644
21.637	61.702	19971	16903	0	644
21.709	64.263	20254	16662	0	644
23.549	68.482	20395	16396	0	644
23.585	71.223	20536	16125	0	644
21.854	68.878	20536	15834	0	644
16.516	65.164	20621	15495	0	644
12.369	59.899	20395	15050	0	644
11.540	58.384	20197	14462	0	644
15.579	57.952	19689	13783	0	644
21.926	58.637	19350	13084	0	644
26.722	57.663	18841	12534	0	644
28.489	55.752	18502	12237	0	644
27.047	55.247	18276	12169	0	644
25.640	58.348	18135	12219	0	644
28.020	64.587	17852	12268	0	644
31.951	74.180	17655	12318	0	644
35.701	82.041	17429	12441	0	644
37.901	87.703	17287	12633	0	644
36.891	86.873	17146	12831	0	644
32.997	81.212	16948	12961	0	644
30.256	73.422	16666	13016	0	644
28.850	67.292	16440	13066	0	644
28.237	64.263	16243	13226	0	644
29.354	65.128	16102	13504	0	644
29.391	67.761	16046	13838	0	644
28.525	70.032	15961	14203	0	644
31.338	72.160	15961	14611	0	644
34.800	72.665	16046	15050	0	644
40.173	72.196	16102	15488	0	644
43.743	73.711	16102	15834	0	644
45.005	76.776	16046	16014	0	644
42.589	82.077	15961	15946	0	644
39.272	84.493	15537	15686	0	644
36.459	82.510	15113	15352	0	644
34.295	77.497	14492	14876	0	644
34.764	70.465	13927	14314	0	644
35.305	65.921	13362	13931	0	644
34.511	65.849	12712	13696	0	644
32.780	65.561	12232	13467	0	644
28.994	67.184	11667	13375	0	644
24.775	67.436	11441	13548	0	644
22.395	68.698	11243	13918	0	644
24.739	69.419	11102	14351	0	644
29.210	71.511	11017	14765	0	644
35.413	74.468	10961	15216	0	644
39.308	76.379	11017	15711	0	644
38.118	77.281	11159	16242	0	644
31.626	76.596	11243	16791	0	644
26.542	75.045	11526	17292	0	644
22.467	74.901	11667	17681	0	644
22.899	74.865	11808	18028	0	644
23.404	76.956	12147	18423	0	644
21.890	75.189	12373	18850	0	644
21.096	73.314	12853	19276	0	644
20.447	69.095	13221	19690	0	644
19.870	66.390	13560	20011	0	644
18.608	62.532	14068	20209	0	644
14.858	58.601	14266	20302	0	644
11.684	56.906	14548	20271	0	644
12.009	55.536	14690	20092	0	644
16.516	56.149	14831	19715	0	644
20.375	55.788	14690	19196	0	644
19.510	53.083	14548	18664	0	644
15.975	49.441	14548	18201	0	644
13.415	47.674	14492	17811	0	644
14.605	49.585	14407	17515	0	644
18.752	53.696	14266	17212	0	644
22.575	54.995	14125	16779	0	644
22.827	54.778	13927	16329	0	644
23.549	54.345	13644	15952	0	644
24.125	55.680	13418	15587	0	644
26.001	59.755	13221	15247	0	644
29.210	65.344	12938	15012	0	644
30.905	67.544	12853	14876	0	644
31.987	68.626	12656	14827	0	644
32.708	69.419	12656	14883	0	644
31.590	69.095	12514	15000	0	644
28.777	70.069	12514	15056	0	644
23.657	70.393	12288	15031	0	644
22.070	70.141	12288	15031	0	644
23.512	70.357	12147	15124	0	644
28.886	71.042	12147	15253	0	644
35.305	71.908	12006	15340	0	644
39.055	72.376	11949	15396	0	644
36.747	72.268	11723	15377	0	644
30.869	72.953	11441	15185	0	644
26.974	72.990	11159	14926	0	644
25.820	72.990	11102	14957	0	644
30.328	71.042	11159	15321	0	644
36.134	68.734	11159	15674	0	644
38.622	68.554	11017	15760	0	644
40.065	69.924	10876	15655	0	644
39.199	73.891	10735	15575	0	644
39.055	76.055	10594	15643	0	644
37.288	70.646	10594	15791	0	644
32.203	60.548	10537	15865	0	644
25.243	49.044	10311	15810	0	644
18.860	43.996	10170	15779	0	644
19.473	47.710	10170	15890	0	644
26.109	58.420	10170	16082	0	644
34.511	70.718	10170	16273	0	644
39.055	77.245	10113	16396	0	644
37.468	76.776	10113	16464	0	644
33.285	71.799	10113	16519	0	644
29.715	66.607	10029	16507	0	644
31.410	63.974	9887	16445	0	644
32.997	64.587	9690	16378	0	644
33.502	63.072	9605	16298	0	644
29.138	60.909	9407	16193	0	644
24.342	56.149	9266	16057	0	644
21.781	55.463	9181	16020	0	644
22.972	58.493	9322	16298	0	644
25.748	62.387	9605	16816	0	644
25.135	64.515	9690	17187	0	644
20.050	59.647	9690	17168	0	644
15.110	52.759	9548	16915	0	644
10.494	45.655	9407	16668	0	644
11.287	43.924	9266	16519	0	644
15.507	46.809	9040	16414	0	644
17.526	50.956	8842	16199	0	644
19.113	54.418	8475	15816	0	644
17.238	54.165	8192	15482	0	644
15.146	51.388	7995	15346	0	644
13.487	49.982	7853	15371	0	644
15.362	52.146	7627	15420	0	644
20.736	56.906	7571	15420	0	644
28.633	61.450	7430	15433	0	644
36.242	62.784	7345	15581	0	644
40.281	59.719	7345	15847	0	644
37.613	56.726	7486	16125	0	644
34.367	56.257	7345	16255	0	644
34.511	61.089	7062	16082	0	644
39.344	69.167	6780	15729	0	644
47.494	73.747	6582	15519	0	644
50.379	71.439	6441	15532	0	644
44.681	63.686	6300	15593	0	644
35.449	55.319	6159	15674	0	644
26.289	49.982	6074	15810	0	644
21.601	50.270	6017	15915	0	644
20.231	49.333	5876	15940	0	644
16.949	46.051	5735	16001	0	644
12.586	39.344	5791	16137	0	644
9.809	35.521	5791	16329	0	644
11.576	35.557	5791	16557	0	644
16.877	38.658	6074	16841	0	644
18.788	40.786	6300	17230	0	644
14.461	38.334	6639	17762	0	644
6.491	33.033	7204	18429	0	644
-0.541	27.804	7712	19035	0	644
-0.361	27.804	8192	19418	0	644
6.311	30.761	8701	19739	0	644
15.146	34.764	9407	20203	0	644
20.123	37.865	10170	20784	0	644
21.890	38.550	10876	21316	0	644
22.719	38.226	11667	21686	0	644
22.322	36.242	12430	21934	0	644
24.234	36.603	13221	22144	0	644
25.099	37.000	14068	22360	0	644
27.624	38.947	14916	22595	0	644
33.249	43.996	15820	22805	0	644
38.731	48.612	16666	22941	0	644
41.832	50.631	17513	22916	0	644
40.786	48.972	18220	22731	0	644
35.774	46.628	18926	22434	0	644
32.853	45.691	19406	22051	0	644
34.079	49.080	20056	21569	1	728
37.541	53.083	20395	20963	0	728
37.468	55.319	20762	20240	0	728
31.482	52.362	20762	19393	0	728
23.260	45.979	20762	18367	0	728
15.831	39.524	20536	17243	0	728
13.956	38.839	20395	16255	0	728
13.776	39.812	20112	15365	0	728
14.317	41.399	19830	14493	0	728
13.523	41.399	19632	13770	0	728
13.018	39.812	19406	13288	0	728
15.398	39.163	19265	12967	0	728
17.202	41.147	18982	12695	0	728
19.618	45.979	18785	12410	0	728
18.933	48.576	18643	12176	0	728
16.264	49.766	18417	12064	0	728
15.723	47.566	18276	12114	0	728
16.480	45.691	18220	12274	0	728
20.195	45.618	18220	12435	0	728
26.506	49.225	18078	12590	0	728
30.364	56.113	18078	12787	0	728
31.987	61.450	17994	13053	0	728
31.374	66.102	17994	13331	0	728
26.794	66.931	17937	13504	0	728
26.650	65.633	17655	13486	0	728
27.227	65.994	17287	13276	0	728
31.158	65.308	16807	12948	0	728
33.321	65.597	16328	12614	0	728
33.213	63.289	15820	12423	0	728
28.417	57.303	15481	12435	0	728
20.627	51.605	15057	12553	0	728
13.668	46.340	14633	12633	0	728
10.638	47.169	14351	12707	0	728
13.271	51.641	14125	12936	0	728
18.680	56.004	13701	13164	0	728
22.899	55.139	13362	13232	0	728
20.014	47.566	12995	13307	0	728
11.937	37.901	12656	13511	0	728
1.551	29.607	12571	13838	0	728
-3.426	26.289	12373	14302	0	728
0.108	28.669	12514	14883	0	728
7.862	31.085	12514	15519	0	728
15.362	35.269	12712	16131	0	728
18.608	37.000	12853	16674	0	728
15.507	37.108	13136	17193	0	728
11.720	36.062	13362	17756	0	728
8.763	34.475	13701	18337	0	728
10.278	33.069	14068	18812	0	728
11.864	32.708	14209	19016	0	728
14.894	32.312	14209	18955	0	728
16.697	31.662	14266	18843	0	728
17.959	31.302	14351	18757	0	728
19.149	31.699	14351	18639	0	728
18.860	31.049	14351	18522	0	728
17.129	29.427	14407	18405	0	728
14.353	28.417	14407	18250	0	728
11.612	26.470	14351	18034	0	728
7.645	28.092	14266	17805	0	728
6.203	28.525	14266	17601	0	728
6.888	30.869	14209	17422	0	728
12.081	33.429	14068	17187	0	728
19.365	36.603	13842	16884	0	728
28.561	40.209	13842	16662	0	728
30.581	43.022	13786	16569	0	728
25.893	42.553	13701	16519	0	728
17.815	40.137	13701	16451	0	728
12.009	38.983	13644	16390	0	728
9.881	37.577	13644	16396	0	728
10.927	37.865	13786	16507	0	728
11.792	36.495	13927	16693	0	728
11.756	33.970	13983	16896	0	728
10.422	31.013	14125	17002	0	728
13.595	28.201	14266	16995	0	728
17.490	29.210	14266	16983	0	728
18.933	32.600	14351	17002	0	728
17.382	38.226	14492	17014	0	728
13.884	43.671	14407	16927	0	728
11.864	46.268	14209	16662	0	728
10.783	46.087	13983	16242	0	728
11.792	42.842	13644	15742	0	728
14.497	40.894	13221	15241	0	728
15.218	40.534	12938	14883	0	728
15.795	40.894	12712	14710	0	728
14.966	39.380	12373	14623	0	728
12.153	37.757	12147	14555	0	728
9.701	35.774	11949	14469	0	728
6.239	35.233	11667	14401	0	728
5.517	36.639	11582	14475	0	728
6.419	36.675	11384	14673	0	728
7.285	35.305	11300	14821	0	728
10.097	33.754	11159	14852	0	728
10.602	34.079	10961	14901	0	728
10.674	36.062	10876	15037	0	728
11.251	38.803	10876	15241	0	728
14.930	39.993	10735	15495	0	728
18.356	41.075	10735	15742	0	728
18.933	39.199	10820	15958	0	728
14.461	37.505	10735	16193	0	728
6.275	36.891	11017	16501	0	728
0.361	37.468	11159	16872	0	728
-0.685	41.183	11243	17193	0	728
2.416	42.265	11441	17416	0	728
4.832	39.524	11582	17552	0	728
3.859	32.167	11582	17638	0	728
1.262	24.666	11808	17712	0	728
1.695	21.529	11808	17786	0	728
5.229	24.089	12006	17848	0	728
9.845	26.433	11949	17861	0	728
10.602	25.965	12091	17694	0	728
4.291	21.529	12006	17440	0	728
-2.596	18.716	12006	17360	0	728
-5.409	20.050	12147	17447	0	728
1.370	27.263	12147	17447	0	728
13.487	33.285	12147	17261	0	728
21.818	34.944	11865	16934	0	728
21.745	30.977	11808	16612	0	728
13.740	25.388	11582	16378	0	728
3.750	21.024	11526	16199	0	728
-1.803	20.808	11384	15983	0	728
-0.865	21.493	11017	15698	0	728
2.560	22.755	10735	15321	0	728
5.481	22.791	10170	14734	0	728
9.989	26.145	9548	14042	0	728
13.199	31.843	9040	13603	0	728
17.815	39.272	8616	13418	0	728
19.149	41.399	8277	13356	0	728
14.245	37.541	7995	13412	0	728
8.114	29.391	7769	13616	0	728
2.452	21.060	7627	13943	0	728
0.974	17.093	7627	14388	0	728
2.921	16.949	7712	14889	0	728
2.308	16.949	7712	15346	0	728
-0.757	16.733	7853	15742	0	728
-3.859	16.120	7995	16113	0	728
-4.039	17.093	7910	16360	0	728
-2.452	17.057	7486	16168	0	728
-0.613	14.172	6723	15346	0	728
-3.426	8.979	5791	14228	0	728
-9.592	4.472	4887	13350	0	728
-14.136	3.390	4238	12942	0	728
-16.372	5.950	3673	12942	0	728
-13.307	11.215	3475	13226	0	728
-10.783	12.514	3334	13653	0	728
-8.835	12.333	3108	14129	0	728
-8.042	11.468	3108	14635	0	728
-8.475	12.405	2966	15056	0	728
-7.717	17.743	2825	15340	0	728
-9.304	22.431	2825	15680	0	728
-12.081	25.316	2910	16156	0	728
-16.264	24.234	3051	16705	0	728
-17.526	22.214	3390	17348	0	728
-13.920	24.594	3757	18089	0	728
-7.717	27.768	4464	18917	0	728
-4.544	31.662	4944	19727	0	728
-5.157	30.328	5452	20283	0	728
-9.304	22.395	5876	20574	0	728
-11.576	12.441	6441	20871	0	728
-10.350	6.527	7062	21297	0	728
-5.373	4.400	7853	21730	0	728
-2.164	4.580	8475	22131	0	728
-3.498	3.823	9181	22440	0	728
-7.032	3.354	9831	22545	0	728
-9.665	4.219	10396	22453	0	728
-9.448	7.176	10961	22317	0	728
-5.770	12.009	11441	22187	0	728
-3.787	14.172	12147	22100	0	728
-2.164	10.963	12712	22026	1	664
-2.633	9.412	13362	21884	0	664
-2.993	8.402	13983	21723	0	664
-2.164	10.819	14690	21662	0	664
-2.741	13.668	15396	21649	0	664
-5.662	13.127	16046	21526	0	664
-6.816	11.684	16666	21248	0	664
-4.039	11.432	17287	20945	0	664
1.479	12.730	17937	20735	0	664
11.360	16.841	18643	20592	0	664
16.985	19.005	19208	20426	0	664
17.634	16.300	19773	20147	0	664
11.973	10.530	20197	19758	0	664
5.157	5.986	20677	19307	0	664
1.515	5.301	21045	18868	0	664
2.993	9.701	21609	18503	0	664
7.465	16.589	21948	18225	0	664
9.629	20.159	22372	17935	0	664
5.878	18.500	22655	17564	0	664
-2.416	13.163	23022	17138	0	664
-9.773	11.179	23220	16711	0	664
-8.222	14.100	23304	16261	0	664
-0.505	23.585	23361	15754	0	664
11.612	32.456	23446	15235	0	664
18.356	35.052	23304	14666	0	664
17.670	30.184	23163	14092	0	664
11.612	22.972	23163	13696	0	664
6.888	18.608	23078	13517	0	664
6.347	20.880	23022	13393	0	664
10.097	27.335	22881	13183	0	664
8.799	28.994	22739	12855	0	664
4.075	26.758	22513	12528	0	664
-2.344	19.798	22316	12367	0	664
-4.832	15.218	22090	12361	0	664
-2.669	15.362	21948	12392	0	664
-0.252	18.031	21807	12386	0	664
-2.777	17.202	21609	12410	0	664
-11.540	13.235	21468	12497	0	664
-21.241	7.393	21384	12614	0	664
-26.289	2.993	21101	12757	0	664
-26.073	1.046	21045	12868	0	664
-24.414	0.865	20762	12936	0	664
-21.926	-2.488	20621	13035	0	664
-20.159	-5.337	20395	13195	0	664
-17.670	-3.714	20395	13461	0	664
-12.081	3.859	20480	13956	0	664
-5.481	15.362	20677	14635	0	664
-0.036	24.486	20677	15142	0	664
1.370	28.128	20621	15229	0	664
-0.288	23.909	20338	15050	0	664
-3.210	17.887	20254	15000	0	664
-4.688	16.120	20112	15216	0	664
-1.406	19.546	20197	15482	0	664
3.498	27.083	19971	15600	0	664
6.311	31.771	19830	15575	0	664
8.475	33.177	19547	15513	0	664
8.402	31.446	19406	15464	0	664
10.602	29.751	19208	15420	0	664
12.081	28.850	18926	15340	0	664
14.641	29.643	18700	15253	0	664
14.245	30.869	18502	15223	0	664
14.785	30.725	18276	15315	0	664
16.372	32.708	18361	15550	0	664
18.428	34.764	18276	15841	0	664
17.995	34.475	18276	16032	0	664
14.317	32.203	18135	16156	0	664
7.321	30.472	18135	16292	0	664
5.265	29.391	18135	16470	0	664
5.481	31.951	18135	16631	0	664
9.268	34.223	18078	16686	0	664
13.740	34.115	17937	16668	0	664
14.172	30.689	17796	16581	0	664
9.665	23.909	17513	16360	0	664
4.039	19.834	17146	15989	0	664
0.757	18.031	16807	15637	0	664
0.505	22.683	16440	15396	0	664
4.075	29.246	16187	15235	0	664
8.330	33.970	15763	15025	0	664
9.016	35.052	15339	14765	0	664
9.052	31.915	14916	14592	0	664
9.376	29.066	14690	14580	0	664
13.487	27.551	14407	14685	0	664
15.795	28.056	14125	14778	0	664
14.713	27.840	13842	14802	0	664
8.979	26.145	13644	14883	0	664
4.183	24.234	13418	15062	0	664
6.275	28.164	13418	15291	0	664
13.235	34.151	13221	15519	0	664
19.365	42.265	13079	15698	0	664
16.552	42.337	12995	15822	0	664
5.301	35.593	12853	15970	0	664
-5.229	26.325	12938	16224	0	664
-5.409	21.277	12853	16519	0	664
2.921	23.332	12938	16761	0	664
14.064	31.266	12712	16798	0	664
16.769	36.567	12514	16637	0	664
9.881	34.800	12288	16495	0	664
2.416	29.174	12147	16489	0	664
1.226	25.316	12091	16519	0	664
6.599	23.080	12006	16569	0	664
12.117	21.890	11865	16649	0	664
9.412	22.250	11865	16705	0	664
3.859	20.627	11723	16785	0	664
0.397	23.080	11949	17039	0	664
6.563	28.886	12091	17465	0	664
19.618	37.000	12373	17842	0	664
28.489	39.091	12430	18009	0	664
27.840	36.711	12514	17972	0	664
17.923	27.984	12430	17873	0	664
8.799	23.044	12514	17805	0	664
5.445	22.899	12373	17681	0	664
9.629	29.102	12288	17409	0	664
13.127	32.780	12006	17039	0	664
11.612	31.807	11865	16674	0	664
7.898	24.594	11667	16396	0	664
4.255	19.185	11526	16273	0	664
6.888	19.834	11441	16255	0	664
12.333	26.289	11243	16218	0	664
13.307	31.482	11243	16174	0	664
8.006	30.436	11243	16187	0	664
3.823	26.001	11159	16249	0	664
6.419	21.457	11243	16347	0	664
16.192	22.214	11384	16501	0	664
24.955	27.371	11384	16699	0	664
27.732	30.508	11526	16847	0	664
20.411	30.545	11441	16927	0	664
11.287	28.814	11582	16964	0	664
8.150	25.243	11667	16964	0	664
10.458	23.008	11582	16940	0	664
12.802	19.221	11582	16866	0	664
11.468	13.523	11300	16643	0	664
2.669	5.409	11243	16323	0	664
-7.140	-2.344	11102	16125	0	664
-12.009	-4.688	10961	16100	0	664
-11.973	-0.108	10876	16088	0	664
-6.203	9.629	10820	16020	0	664
-3.498	19.798	10678	15921	0	664
-5.662	24.234	10537	15816	0	664
-8.511	22.755	10311	15686	0	664
-8.871	20.050	10029	15408	0	664
-3.318	19.257	9605	15006	0	664
1.983	20.555	9125	14586	0	664
2.957	19.401	8475	14048	0	664
-1.947	15.362	7853	13424	0	664
-5.301	10.746	7288	13084	0	664
-4.760	10.206	6921	13134	0	664
1.803	13.199	6582	13313	0	664
9.016	17.670	6356	13529	0	664
11.576	16.913	6215	13813	0	664
9.592	11.504	6017	14104	0	664
4.327	8.439	5876	14357	0	664
0.721	9.881	5791	14642	0	664
-0.577	18.139	5650	14994	0	664
-0.108	27.083	5594	15346	0	664
0.829	32.384	5509	15569	0	664
-2.272	26.470	5226	15643	0	664
-10.061	16.120	5170	15742	0	664
-20.050	2.993	5085	15946	0	664
-25.640	-1.406	4887	16137	0	664
-22.575	0.469	4746	16174	0	664
-11.107	10.314	4520	16150	0	664
3.498	18.572	4605	16323	0	664
13.523	21.818	4661	16736	0	664
17.346	20.123	4944	17243	0	664
15.290	16.769	5085	17718	0	664
12.946	15.290	5368	18139	0	664
14.245	17.995	5791	18559	0	664
17.202	22.431	6215	19053	0	664
18.860	23.621	6723	19641	0	664
16.084	19.798	7430	20259	0	664
8.763	11.360	8051	20765	0	664
0.361	2.669	8701	21161	0	664
-4.147	-2.560	9407	21519	0	664
-1.479	-0.649	10170	21890	0	664
5.013	3.967	10876	22243	0	664
9.665	7.212	11582	22477	0	664
10.855	5.734	12373	22570	0	664
5.806	3.534	12938	22508	0	664
-0.505	2.885	13418	22224	0	664
-1.118	9.448	13927	21785	0	664
2.957	21.962	14266	21359	0	664
10.674	33.177	14690	20994	1	724
14.966	37.613	15057	20623	0	724
12.441	33.105	15396	20166	0	724
6.167	21.781	15622	19622	0	724
-0.685	10.025	15904	19109	0	724
-1.515	4.436	16102	18701	0	724
2.633	4.075	16440	18374	0	724
9.665	7.934	16666	18089	0	724
15.687	14.172	16948	17774	0	724
18.211	15.975	17287	17502	0	724
17.057	13.740	17513	17292	0	724
12.477	9.701	17655	17002	0	724
8.366	6.239	17796	16581	0	724
9.845	5.337	17796	16088	0	724
14.858	9.124	17513	15451	0	724
21.673	14.713	17287	14734	0	724
24.955	19.041	17231	14277	0	724
22.431	23.981	17146	14129	0	724
16.661	27.263	17146	14054	0	724
11.828	29.715	17146	13986	0	724
11.756	28.561	17090	13918	0	724
12.694	23.621	17005	13838	0	724
13.307	16.589	17005	13758	0	724
11.360	10.097	17005	13857	0	724
4.147	6.996	17231	14203	0	724
0.613	8.006	17372	14530	0	724
-0.505	14.497	17372	14611	0	724
6.527	19.149	17287	14537	0	724
12.694	20.700	17287	14518	0	724
12.153	15.398	17372	14648	0	724
3.534	5.157	17513	14895	0	724
-9.809	-1.190	17655	15179	0	724
-17.093	-1.911	17711	15402	0	724
-15.651	3.823	17937	15637	0	724
-9.088	9.989	18078	15946	0	724
-2.344	11.720	18361	16249	0	724
-2.272	9.917	18559	16427	0	724
-4.580	8.042	18643	16489	0	724
-5.770	8.619	18643	16501	0	724
-3.318	12.838	18841	16550	0	724
-1.551	13.992	18982	16686	0	724
0.361	14.641	19124	16847	0	724
-1.226	12.441	19350	16946	0	724
-5.013	12.333	19406	16983	0	724
-6.455	13.704	19632	16995	0	724
-4.472	18.608	19773	16983	0	724
-1.118	21.241	19689	16927	0	724
1.082	19.942	19830	16816	0	724
-0.036	12.441	19773	16686	0	724
-9.701	1.190	19830	16563	0	724
-19.654	-8.871	19830	16451	0	724
-28.741	-15.002	19915	16414	0	724
-30.508	-13.631	20112	16575	0	724
-26.830	-8.943	20254	16773	0	724
-20.627	-4.796	20338	16736	0	724
-17.021	-2.957	20112	16439	0	724
-18.211	-4.832	19971	16051	0	724
-21.241	-7.176	19689	15680	0	724
-24.450	-10.819	19547	15389	0	724
-22.034	-11.107	19350	15179	0	724
-16.480	-10.602	19067	14938	0	724
-9.412	-8.078	18700	14605	0	724
-4.291	-3.534	18361	14296	0	724
-2.128	-1.262	18078	14135	0	724
-3.714	-0.397	17994	14122	0	724
-5.337	-2.416	17711	14172	0	724
-4.796	-4.075	17513	14190	0	724
-3.714	-5.662	17372	14197	0	724
-3.029	-4.580	17090	14252	0	724
-3.210	-3.462	16807	14258	0	724
-5.121	-2.705	16525	14203	0	724
-9.917	-6.275	16384	14246	0	724
-12.946	-9.160	16243	14456	0	724
-16.012	-12.658	16187	14747	0	724
-16.480	-11.864	16187	15050	0	724
-17.310	-11.937	16187	15377	0	724
-19.293	-11.756	16187	15692	0	724
-22.972	-15.398	16187	15983	0	724
-26.542	-19.077	16187	16218	0	724
-28.128	-19.221	16187	16360	0	724
-26.722	-15.398	16046	16396	0	724
-25.532	-9.376	15961	16384	0	724
-23.909	-3.065	15961	16390	0	724
-23.296	2.092	15904	16458	0	724
-21.637	4.508	15763	16507	0	724
-19.654	4.904	15622	16439	0	724
-18.211	1.442	15396	16304	0	724
-18.031	-2.200	15255	16181	0	724
-15.687	-2.488	15113	16119	0	724
-10.674	1.695	14916	16113	0	724
-5.049	7.248	14774	16106	0	724
-0.938	10.602	14690	16125	0	724
-1.154	9.917	14690	16230	0	724
-5.481	5.049	14774	16433	0	724
-9.412	1.875	14690	16618	0	724
-13.343	-1.587	14492	16563	0	724
-15.435	-2.705	14125	16156	0	724
-17.057	-3.714	13701	15581	0	724
-17.634	-4.075	13277	15229	0	724
-16.120	-1.911	13079	15148	0	724
-13.271	-0.649	12797	15124	0	724
-8.439	0.397	12656	15118	0	724
-6.960	1.911	12430	15192	0	724
-5.842	3.101	12288	15315	0	724
-4.364	5.409	12147	15439	0	724
-2.849	9.520	12232	15686	0	724
1.370	11.828	12147	16038	0	724
3.823	11.937	12232	16261	0	724
5.517	10.999	12006	16273	0	724
2.885	7.501	11949	16211	0	724
0.180	6.058	11723	16199	0	724
-1.046	6.419	11723	16273	0	724
-0.216	7.898	11582	16433	0	724
2.092	11.143	11723	16662	0	724
4.977	14.028	11808	16828	0	724
6.347	18.031	11667	16909	0	724
7.357	21.421	11808	16971	0	724
4.940	24.594	11723	17100	0	724
1.370	21.890	11808	17193	0	724
-5.193	13.992	11667	17100	0	724
-12.477	2.813	11526	16896	0	724
-19.690	-7.970	11526	16779	0	724
-23.585	-13.740	11441	16822	0	724
-22.106	-12.802	11526	16940	0	724
-18.067	-8.799	11526	16995	0	724
-13.163	-5.806	11441	16995	0	724
-9.917	-4.544	11526	16989	0	724
-9.773	-5.662	11384	16952	0	724
-10.133	-6.167	11384	16872	0	724
-12.297	-6.852	11300	16705	0	724
-12.045	-5.986	10961	16433	0	724
-11.973	-5.986	10678	16075	0	724
-12.658	-6.131	10311	15643	0	724
-15.146	-6.599	9887	15204	0	724
-16.516	-8.402	9464	14876	0	724
-18.752	-9.052	9266	14703	0	724
-20.339	-11.251	8899	14648	0	724
-17.851	-11.323	8616	14574	0	724
-14.821	-11.251	8277	14425	0	724
-10.242	-9.304	7995	14370	0	724
-8.330	-5.481	7769	14481	0	724
-6.491	-1.983	7627	14635	0	724
-7.825	0.325	7571	14784	0	724
-8.691	2.416	7288	14926	0	724
-10.242	4.183	7147	15074	0	724
-9.592	5.517	7062	15297	0	724
-10.025	7.285	7204	15680	0	724
-9.484	7.465	7288	16156	0	724
-10.638	4.868	7288	16482	0	724
-13.343	1.262	7062	16414	0	724
-14.966	-0.902	6497	15865	0	724
-14.713	-0.469	5933	15229	0	724
-11.360	1.010	5650	14988	0	724
-5.157	2.705	5650	15198	0	724
1.442	5.193	5594	15692	0	724
5.013	6.419	5791	16267	0	724
7.825	7.068	6017	16742	0	724
7.789	9.701	6074	17113	0	724
6.852	8.799	6441	17521	0	724
5.878	8.475	6780	18046	0	724
5.517	7.176	7147	18559	0	724
4.652	6.347	7486	18911	0	724
5.481	6.239	7769	19134	0	724
5.590	5.842	8277	19455	0	724
5.481	5.986	8842	19937	0	724
6.852	4.291	9548	20506	0	724
7.393	2.741	10255	21037	0	724
6.022	1.479	11017	21470	0	724
4.255	0.072	11865	21890	0	724
0.361	-2.452	12656	22286	0	724
-3.859	-4.832	13418	22515	0	724
-5.121	-5.554	14125	22539	0	724
-6.635	-3.606	14774	22465	0	724
-8.186	-0.288	15481	22379	0	724
-15.254	1.911	16243	22323	0	724
-27.155	0.397	17005	22335	0	724
-39.812	-4.977	17852	22354	1	704
-48.503	-11.396	18502	22236	0	704
-47.458	-13.704	19124	21971	0	704
-42.048	-12.766	19830	21612	0	704
-32.744	-8.258	20254	21210	0	704
-25.496	-2.993	20903	20796	0	704
-19.834	0.288	21327	20339	0	704
-13.271	0.685	21751	19832	0	704
-8.402	-2.019	22033	19239	0	704
-3.967	-6.203	22090	18466	0	704
-2.849	-7.393	22090	17533	0	704
-2.128	-5.121	22090	16643	0	704
-1.515	-0.505	21948	15896	0	704
-0.541	6.347	21807	15241	0	704
0.108	13.018	21807	14642	0	704
1.370	17.526	21609	14079	0	704
1.334	19.257	21384	13616	0	704
-1.947	16.805	21327	13239	0	704
-8.006	11.828	20960	12825	0	704
-15.435	4.183	20762	12355	0	704
-20.303	-0.865	20338	11965	0	704
-20.808	-3.462	20197	11755	0	704
-20.808	-4.327	19915	11706	0	704
-21.060	-3.931	19830	11829	0	704
-20.519	-0.938	19689	12095	0	704
-19.726	3.498	19689	12355	0	704
-15.435	8.258	19547	12553	0	704
-9.881	12.694	19547	12732	0	704
-9.160	14.894	19491	12954	0	704
-10.025	16.120	19350	13220	0	704
-12.189	16.949	19350	13455	0	704
-12.189	17.129	19265	13634	0	704
-9.232	16.697	19067	13764	0	704
-6.744	16.048	18785	13758	0	704
-7.285	14.749	18643	13733	0	704
-12.730	13.776	18559	13999	0	704
-20.014	9.917	18700	14543	0	704
-27.155	7.248	18785	14982	0	704
-26.830	5.842	18643	15130	0	704
-20.159	7.429	18502	15148	0	704
-10.566	9.448	18417	15223	0	704
-2.669	12.009	18417	15420	0	704
-0.829	9.737	18417	15692	0	704
-2.344	8.835	18276	15878	0	704
-7.609	7.825	18220	15902	0	704
-9.556	9.881	18220	15921	0	704
-9.917	11.612	18220	16094	0	704
-5.734	13.668	18220	16378	0	704
0.325	15.867	18361	16674	0	704
7.717	19.762	18361	16810	0	704
12.441	23.512	18078	16581	0	704
14.245	24.847	17711	16137	0	704
12.550	23.440	17655	15909	0	704
8.330	17.238	17513	15983	0	704
7.465	11.756	17429	16106	0	704
7.789	8.547	17429	16224	0	704
11.215	10.746	17429	16366	0	704
14.064	15.362	17513	16538	0	704
16.228	20.736	17655	16816	0	704
15.254	23.044	18135	17329	0	704
13.235	22.863	18559	18009	0	704
12.441	19.834	18926	18491	0	704
10.350	16.913	19067	18602	0	704
8.979	12.658	19208	18472	0	704
4.147	7.898	19350	18306	0	704
0.288	1.190	19350	18201	0	704
-3.750	-3.390	19491	18126	0	704
-5.662	-3.859	19406	17935	0	704
-3.859	-0.397	19350	17576	0	704
-1.515	5.878	19350	17304	0	704
2.164	11.468	19406	17280	0	704
7.321	16.480	19547	17354	0	704
12.982	21.241	19689	17335	0	704
18.716	24.089	19632	17181	0	704
19.834	26.325	19632	16934	0	704
16.084	23.549	19350	16600	0	704
9.052	17.634	19124	16143	0	704
2.200	12.153	18841	15630	0	704
-1.479	7.825	18417	15204	0	704
-2.164	6.635	18276	14938	0	704
-0.974	6.275	17994	14784	0	704
0.072	6.635	17852	14722	0	704
0.180	7.393	17711	14722	0	704
2.813	8.511	17570	14716	0	704
4.688	11.360	17287	14685	0	704
6.311	14.064	17090	14629	0	704
7.573	17.959	16864	14555	0	704
11.251	22.431	16666	14518	0	704
15.543	26.470	16440	14524	0	704
19.834	30.761	16328	14555	0	704
21.529	31.987	16046	14586	0	704
18.752	31.049	15763	14512	0	704
13.127	26.794	15396	14382	0	704
9.484	24.017	15339	14401	0	704
7.393	21.024	15113	14592	0	704
6.094	17.526	14972	14815	0	704
3.787	14.353	14774	14982	0	704
-1.623	9.989	14633	15080	0	704
-6.888	5.770	14492	15148	0	704
-12.009	3.282	14351	15272	0	704
-12.874	1.803	14209	15464	0	704
-14.713	0.180	14125	15637	0	704
-14.533	-2.128	13842	15606	0	704
-13.668	-3.029	13277	15253	0	704
-12.441	-1.082	12853	14784	0	704
-6.816	1.406	12430	14567	0	704
-1.839	3.642	12232	14660	0	704
3.210	6.455	11865	14821	0	704
5.770	6.780	11723	14920	0	704
5.157	7.609	11300	14957	0	704
4.327	5.590	11102	14951	0	704
4.724	4.688	10961	15062	0	704
5.734	3.065	10876	15470	0	704
6.419	4.868	10961	15977	0	704
6.311	9.845	10820	16205	0	704
8.330	15.579	10452	16113	0	704
9.701	19.113	10255	15921	0	704
13.091	19.077	9972	15810	0	704
16.661	16.661	9746	15816	0	704
16.913	13.271	9464	15859	0	704
15.471	11.468	9322	15909	0	704
12.297	9.773	9181	16001	0	704
10.783	10.061	8983	16137	0	704
10.494	8.907	8899	16310	0	704
8.619	6.816	8899	16513	0	704
6.491	3.210	8842	16693	0	704
1.046	-1.262	8842	16816	0	704
-4.832	-4.580	8842	16983	0	704
-7.537	-5.950	8983	17261	0	704
-5.626	-2.849	9181	17620	0	704
1.479	2.380	9322	17960	0	704
7.104	6.239	9464	18176	0	704
8.835	6.816	9605	18281	0	704
4.688	2.813	9690	18337	0	704
-2.416	0.288	9831	18386	0	704
-7.140	-0.144	10029	18479	0	704
-5.842	3.967	10311	18615	0	704
-2.164	9.268	10396	18726	0	704
2.488	14.821	10594	18689	0	704
4.508	17.021	10537	18417	0	704
2.308	19.041	10396	18021	0	704
1.803	20.952	10311	17718	0	704
3.678	23.404	10396	17613	0	704
6.816	23.981	10537	17589	0	704
10.999	21.962	10537	17521	0	704
10.494	19.257	10594	17465	0	704
10.169	16.156	10961	17632	0	704
7.898	14.353	11441	18046	0	704
8.907	15.074	11865	18522	0	704
9.556	15.002	12373	18880	0	704
8.078	13.127	12797	19097	0	704
3.426	12.622	13277	19251	0	704
-1.046	12.297	13786	19455	0	704
-2.921	14.100	14351	19733	0	704
-1.947	12.982	14972	20024	0	704
0.505	10.422	15481	20135	0	704
2.380	6.816	15763	19919	0	704
3.606	5.914	16046	19536	0	704
5.085	7.753	16440	19356	0	704
2.344	9.412	16948	19449	0	704
-2.813	8.907	17570	19566	0	704
-8.619	4.472	18078	19628	0	704
-12.189	0.793	18643	19653	0	704
-10.025	-0.325	19124	19622	0	704
-4.075	2.669	19689	19622	0	704
-0.865	5.013	20621	19851	0	704
-1.839	6.527	21384	20240	0	704
-2.633	4.940	21948	20407	0	704
-1.803	4.291	22457	20147	0	704
2.993	3.354	22937	19659	0	704
6.996	2.849	23220	19214	0	704
4.940	1.659	23587	18880	0	704
-1.551	2.019	24011	18602	1	688
-5.662	6.563	24350	18312	0	688
-4.544	11.468	24717	17984	0	688
0.072	15.326	24915	17638	0	688
3.570	12.369	25197	17311	0	688
0.361	3.534	25423	16958	0	688
-4.508	-3.931	25480	16532	0	688
-10.061	-5.121	25480	16032	0	688
-10.314	-1.587	25480	15519	0	688
-11.143	0.505	25423	15080	0	688
-13.595	-1.515	25480	14771	0	688
-19.870	-5.409	25564	14574	0	688
-22.791	-6.383	25423	14351	0	688
-22.070	-0.577	25338	14061	0	688
-14.785	8.006	25197	13783	0	688
-6.455	14.064	25141	13572	0	688
0.361	12.766	24999	13412	0	688
0.180	8.583	24773	13257	0	688
-5.770	4.940	24576	13041	0	688
-11.071	7.537	24067	12651	0	688
-12.694	12.838	23502	12101	0	688
-8.835	18.536	23078	11687	0	688
-1.262	19.582	22881	11694	0	688
5.157	16.733	22655	12027	0	688
6.347	12.910	22513	12349	0	688
5.337	11.251	22231	12478	0	688
0.577	10.458	22033	12466	0	688
-3.570	8.871	21525	12478	0	688
-5.698	7.104	21384	12621	0	688
-6.924	4.147	21101	12837	0	688
-5.481	4.760	20677	12985	0	688
-3.534	7.212	20395	13035	0	688
-3.967	10.314	20112	13171	0	688
-4.796	11.143	19971	13486	0	688
-6.996	10.061	19971	13925	0	688
-7.429	7.537	19830	14401	0	688
-8.871	4.291	19830	14802	0	688
-8.042	1.659	19773	15130	0	688
-8.042	0.000	19689	15427	0	688
-7.645	-1.118	19491	15643	0	688
-9.088	-1.983	19491	15785	0	688
-10.242	-2.633	19491	16020	0	688
-10.746	-3.462	19491	16384	0	688
-8.655	-2.560	19632	16742	0	688
-2.560	0.325	19547	17008	0	688
3.354	4.508	19689	17193	0	688
5.698	6.563	19689	17304	0	688
7.176	5.842	19632	17372	0	688
6.383	5.878	19632	17372	0	688
7.068	5.590	19406	17280	0	688
10.566	7.898	19406	17138	0	688
12.189	11.684	19265	17020	0	688
13.271	12.694	19124	16995	0	688
12.117	13.415	19124	17076	0	688
9.881	14.100	19208	17156	0	688
4.400	14.569	19124	17193	0	688
-2.200	14.677	19208	17236	0	688
-7.753	11.035	19067	17131	0	688
-9.304	7.068	18700	16791	0	688
-8.583	2.236	18502	16439	0	688
-4.904	-1.010	18361	16236	0	688
-4.688	-0.613	18135	16143	0	688
-5.734	2.056	17994	16150	0	688
-6.996	5.662	18078	16261	0	688
-7.357	8.294	18078	16372	0	688
-5.986	7.862	17994	16384	0	688
-3.678	6.599	17937	16372	0	688
-3.210	3.426	17852	16421	0	688
0.072	3.678	17852	16532	0	688
3.606	6.311	17937	16649	0	688
7.645	12.405	17994	16742	0	688
9.196	18.428	17994	16804	0	688
9.016	22.106	17852	16804	0	688
6.491	23.945	17796	16649	0	688
3.570	22.395	17655	16439	0	688
4.724	21.060	17796	16507	0	688
6.671	18.644	17994	16878	0	688
7.898	18.139	18135	17193	0	688
7.681	18.356	18135	17255	0	688
4.977	18.608	18135	17138	0	688
3.498	20.447	18135	16995	0	688
3.750	20.772	18078	16896	0	688
5.229	18.644	17994	16822	0	688
2.344	15.074	17937	16631	0	688
-4.760	11.612	17655	16304	0	688
-13.487	8.583	17429	16007	0	688
-21.529	8.475	17372	15884	0	688
-23.080	9.160	17146	15853	0	688
-21.890	8.294	17090	15822	0	688
-18.716	7.898	16948	15742	0	688
-17.995	5.049	16864	15674	0	688
-20.159	0.469	16722	15668	0	688
-23.044	-2.885	16666	15729	0	688
-25.496	-5.626	16581	15797	0	688
-26.073	-5.950	16440	15804	0	688
-22.539	-2.128	16384	15748	0	688
-17.274	3.967	16243	15692	0	688
-8.943	11.576	16102	15649	0	688
-3.787	19.077	16102	15618	0	688
-1.118	21.709	15904	15612	0	688
-2.560	19.221	15763	15624	0	688
-5.373	14.136	15481	15556	0	688
-8.475	10.746	15113	15309	0	688
-6.671	10.458	14690	14951	0	688
-3.570	13.776	14407	14685	0	688
0.144	16.697	14125	14567	0	688
1.551	15.543	13842	14592	0	688
0.000	12.477	13644	14673	0	688
-3.859	7.825	13418	14722	0	688
-8.186	5.554	13221	14808	0	688
-11.432	3.895	13136	15050	0	688
-13.415	4.868	13221	15371	0	688
-13.595	5.013	12995	15630	0	688
-14.136	6.419	12995	15773	0	688
-12.550	3.967	12797	15841	0	688
-12.730	1.515	12656	15847	0	688
-11.864	-2.200	12373	15791	0	688
-10.674	-2.524	12232	15736	0	688
-8.907	-1.010	11865	15674	0	688
-5.914	4.003	11526	15420	0	688
-0.793	9.340	11017	15000	0	688
0.613	12.802	10594	14740	0	688
-0.288	14.136	10311	14759	0	688
-3.642	10.783	10113	14870	0	688
-7.032	9.340	9887	15012	0	688
-9.304	7.176	9690	15216	0	688
-8.402	7.104	9605	15464	0	688
-6.311	7.212	9548	15692	0	688
-6.419	6.852	9464	15890	0	688
-5.842	5.337	9407	16094	0	688
-6.239	3.101	9322	16292	0	688
-5.265	3.606	9181	16366	0	688
-6.491	3.137	8983	16310	0	688
-8.475	0.938	8757	16273	0	688
-12.405	-1.515	8757	16372	0	688
-14.533	-2.957	8701	16575	0	688
-13.559	-2.524	8701	16835	0	688
-8.763	1.334	8757	17082	0	688
-5.337	5.590	8899	17317	0	688
-4.039	7.465	9125	17607	0	688
-4.904	6.491	9407	18003	0	688
-8.907	5.121	9690	18405	0	688
-10.278	1.875	9887	18695	0	688
-11.864	0.397	10170	18917	0	688
-11.432	-0.288	10594	19196	0	688
-9.448	0.108	11102	19573	0	688
-6.852	0.144	11526	19981	0	688
-2.777	0.938	12147	20339	0	688
-0.613	2.416	12797	20648	0	688
1.442	4.111	13362	20945	0	688
1.911	8.907	13983	21186	0	688
1.479	10.746	14633	21353	0	688
-0.757	11.035	15198	21421	0	688
-3.859	7.429	15763	21353	0	688
-6.239	4.183	16102	21136	0	688
-8.114	1.154	16440	20759	0	688
-7.970	0.938	16722	20314	0	688
-5.662	1.118	17005	19987	1	628
-4.796	0.829	17513	19838	0	628
-3.390	-0.252	18078	19826	0	628
-3.967	-0.577	18643	19838	0	628
-4.436	0.144	19067	19789	0	628
-6.527	2.236	19830	19770	0	628
-5.229	4.219	20395	19820	0	628
-2.921	7.212	20960	19814	0	628
0.974	8.330	21468	19684	0	628
4.364	7.717	21948	19455	0	628
4.291	7.501	22372	19177	0	628
3.498	7.393	22655	18843	0	628
1.442	6.960	22881	18330	0	628
0.433	5.590	22937	17675	0	628
0.433	2.669	23078	17020	0	628
0.252	0.685	22796	16298	0	628
0.216	0.541	22598	15501	0	628
1.695	5.121	22598	14951	0	628
4.616	11.143	22655	14710	0	628
5.590	15.507	22655	14561	0	628
5.698	16.372	22655	14425	0	628
3.101	13.307	22739	14376	0	628
-0.469	11.684	22937	14425	0	628
-2.633	9.304	23078	14524	0	628
-4.111	7.970	23220	14623	0	628
-2.596	9.196	23361	14734	0	628
-0.180	10.530	23502	14852	0	628
2.633	13.992	23587	14864	0	628
4.003	17.490	23587	14728	0	628
4.616	19.582	23361	14469	0	628
5.121	18.788	22881	13925	0	628
8.402	17.310	22316	13109	0	628
16.697	17.274	21609	12336	0	628
25.640	19.582	21045	11829	0	628
30.364	21.601	20536	11601	0	628
29.859	21.204	20197	11663	0	628
24.702	18.464	20112	12021	0	628
17.057	14.281	20197	12559	0	628
12.658	12.045	20112	13109	0	628
14.461	13.920	20112	13535	0	628
20.303	19.329	19830	13702	0	628
30.653	24.847	19689	13708	0	628
37.973	26.578	19406	13851	0	628
40.894	24.991	19406	14178	0	628
40.894	20.447	19491	14561	0	628
40.101	16.913	19406	15000	0	628
42.229	16.913	19547	15464	0	628
41.868	16.949	19689	15983	0	628
37.468	14.317	20197	16711	0	628
28.633	8.150	20677	17613	0	628
21.601	2.488	21242	18343	0	628
20.880	2.019	21468	18701	0	628
23.729	8.186	21751	18837	0	628
28.020	14.425	22090	18924	0	628
25.820	18.320	22316	19047	0	628
21.818	17.129	22598	19146	0	628
18.752	14.317	22655	19097	0	628
19.401	13.884	22881	18843	0	628
22.034	18.175	22796	18540	0	628
23.657	22.935	22796	18324	0	628
24.883	25.027	22937	18182	0	628
22.286	24.811	23022	18058	0	628
17.995	21.349	23078	17879	0	628
13.992	18.500	23022	17558	0	628
10.602	17.887	22881	17131	0	628
10.710	20.772	22739	16791	0	628
12.946	23.585	22796	16625	0	628
16.372	27.047	22881	16563	0	628
17.959	25.784	22937	16581	0	628
17.093	23.945	23022	16643	0	628
15.435	21.277	23163	16730	0	628
14.497	20.447	23361	16804	0	628
14.172	20.303	23446	16804	0	628
11.973	19.582	23446	16736	0	628
9.340	18.283	23502	16587	0	628
4.544	14.317	23361	16341	0	628
-0.505	8.402	23220	16026	0	628
-3.101	5.373	23022	15766	0	628
-3.606	3.498	23022	15624	0	628
-1.406	4.832	22881	15550	0	628
-0.974	8.114	22796	15414	0	628
-2.813	8.907	22513	15148	0	628
-7.862	6.311	22231	14889	0	628
-15.002	-1.046	22090	14759	0	628
-18.464	-6.708	21948	14734	0	628
-20.952	-10.494	21666	14685	0	628
-18.572	-7.248	21468	14555	0	628
-14.858	-0.829	21327	14456	0	628
-12.622	4.291	21101	14518	0	628
-11.179	7.032	21242	14771	0	628
-11.179	2.705	21186	15124	0	628
-12.730	-1.731	21101	15383	0	628
-12.333	-3.390	21101	15476	0	628
-12.261	-2.452	20960	15501	0	628
-11.504	-0.685	21045	15569	0	628
-10.025	-1.082	20819	15649	0	628
-10.602	-2.272	20762	15612	0	628
-9.665	-2.705	20480	15476	0	628
-9.737	0.865	20254	15346	0	628
-10.386	5.121	19971	15235	0	628
-10.819	8.691	19773	15142	0	628
-12.333	5.914	19491	15087	0	628
-13.956	0.577	19265	15056	0	628
-14.858	-6.347	18982	15012	0	628
-15.723	-10.133	18643	14889	0	628
-14.172	-12.333	18276	14697	0	628
-12.153	-10.638	17937	14537	0	628
-9.773	-9.556	17513	14431	0	628
-8.655	-8.258	17231	14394	0	628
-7.825	-8.979	16948	14425	0	628
-8.619	-11.323	16581	14450	0	628
-9.232	-16.084	16328	14475	0	628
-12.045	-21.781	16102	14592	0	628
-16.408	-24.919	15904	14778	0	628
-20.303	-25.568	15622	14914	0	628
-22.358	-21.529	15339	14938	0	628
-20.808	-14.208	14972	14920	0	628
-15.471	-8.655	14774	14957	0	628
-10.097	-4.327	14548	15148	0	628
-7.357	-5.626	14492	15457	0	628
-7.068	-9.016	14351	15748	0	628
-8.943	-13.054	14209	15970	0	628
-11.648	-12.369	14209	16143	0	628
-13.343	-9.773	14068	16286	0	628
-12.009	-6.744	13927	16414	0	628
-13.271	-8.691	13842	16526	0	628
-14.100	-15.471	13786	16618	0	628
-16.516	-22.070	13560	16649	0	628
-18.031	-26.506	13277	16507	0	628
-20.880	-26.433	12995	16242	0	628
-24.594	-27.551	12571	16051	0	628
-30.689	-29.318	12430	16026	0	628
-36.928	-30.112	12232	16088	0	628
-37.901	-27.263	12006	16088	0	628
-31.951	-21.493	11723	15977	0	628
-23.945	-15.435	11526	15890	0	628
-16.985	-16.156	11384	15927	0	628
-16.841	-21.709	11159	16075	0	628
-18.788	-27.191	11102	16224	0	628
-18.139	-29.499	11017	16304	0	628
-11.756	-26.830	10876	16414	0	628
-5.337	-22.214	10961	16649	0	628
-1.118	-18.969	11102	16946	0	628
-4.255	-18.680	11102	17206	0	628
-10.133	-19.978	11159	17348	0	628
-16.048	-20.267	11159	17403	0	628
-18.500	-20.411	11159	17477	0	628
-19.690	-21.637	11243	17583	0	628
-20.808	-22.395	11384	17675	0	628
-24.342	-22.539	11300	17743	0	628
-29.931	-23.657	11384	17768	0	628
-35.737	-23.981	11300	17669	0	628
-39.199	-25.027	11159	17422	0	628
-40.750	-28.164	11017	17119	0	628
-39.921	-33.393	10820	16835	0	628
-39.199	-36.098	10594	16612	0	628
-40.101	-40.317	10452	16439	0	628
-42.084	-44.284	10396	16304	0	628
-41.147	-49.116	10255	16236	0	628
-39.885	-55.139	10311	16384	0	628
-36.531	-60.620	10537	16723	0	628
-33.357	-61.918	10820	17107	0	628
-30.364	-58.312	10820	17354	0	628
-30.220	-53.119	11017	17440	0	628
-30.689	-49.044	11159	17490	0	628
-34.547	-46.051	11243	17595	0	628
-39.127	-49.369	11526	17737	0	628
-41.039	-52.542	11582	17824	0	628
-42.878	-56.581	11723	17836	0	628
-41.940	-60.224	12006	17854	0	628
-41.039	-63.325	12232	17997	0	628
-42.229	-64.767	12656	18287	0	628
-43.851	-66.571	12995	18652	0	628
-48.287	-70.321	13503	18936	0	628
-55.355	-75.766	13786	19010	0	628
-63.505	-80.527	13786	18769	0	628
-70.465	-84.782	13842	18330	0	628
-74.252	-84.025	14068	18046	0	628
-75.334	-82.979	14209	18009	0	628
-76.524	-84.818	14351	17910	0	628
-77.642	-87.847	14209	17496	0	628
-80.202	-91.958	13983	16853	0	628
-79.553	-95.456	13786	16304	0	628
-78.399	-95.132	13701	16001	0	628
-74.901	-95.564	13701	15921	0	628
-71.691	-96.646	13786	15989	0	628
-71.619	-99.712	13927	16106	0	628
-72.845	-102.452	14209	16249	0	628
-76.740	-102.885	14407	16458	0	628
-79.336	-102.019	14492	16581	0	628
-82.113	-99.243	14633	16507	0	628
-80.887	-97.331	14774	16476	0	628
-79.950	-98.233	14916	16575	0	628
-78.759	-100.938	15113	16742	0	628
-81.248	-106.131	15481	17014	0	628
-85.900	-112.117	16046	17447	0	628
-92.030	-117.346	16525	17904	0	628
-98.630	-118.175	16948	18256	0	628
-99.856	-117.129	17429	18497	0	628
-98.846	-113.668	17852	18701	0	628
-94.158	-111.792	18361	18893	0	628
-91.309	-111.576	18841	19035	0	628
-91.381	-115.795	19265	19047	0	628
-94.266	-120.375	19491	18948	0	628
-98.738	-124.342	19830	18806	0	628
-99.315	-126.578	20197	18596	0	628
-97.800	-126.866	20254	18306	0	628
-94.446	-124.342	20480	17947	1	828
-93.401	-122.683	20338	17459	0	828
-94.122	-123.332	20254	16841	0	828
-97.259	-125.820	19971	16181	0	828
-100.793	-130.256	19773	15587	0	828
-104.039	-133.574	19547	15167	0	828
-105.481	-136.891	19632	14988	0	828
-106.635	-138.911	19632	15037	0	828
-107.645	-140.462	19773	15198	0	828
-108.294	-143.058	20056	15346	0	828
-108.979	-145.402	20112	15488	0	828
-110.530	-147.458	20338	15630	0	828
-112.009	-148.756	20395	15742	0	828
-114.353	-149.874	20621	15816	0	828
-116.697	-149.513	20677	15853	0	828
-119.942	-151.064	20819	15946	0	828
-122.755	-152.218	21186	16181	0	828
-123.008	-155.536	21468	16569	0	828
-123.549	-157.771	22033	17020	0	828
-123.801	-158.889	22372	17379	0	828
-123.368	-159.322	22739	17607	0	828
-121.781	-159.502	23078	17774	0	828
-119.293	-158.709	23446	17929	0	828
-116.480	-158.601	23785	18077	0	828
-115.074	-158.168	24152	18139	0	828
-115.471	-158.709	24434	18120	0	828
-117.021	-160.440	24632	18003	0	828
-115.903	-162.964	24632	17694	0	828
-111.504	-165.200	24717	17304	0	828
-105.950	-165.020	24999	17162	0	828
-102.056	-165.489	25197	17230	0	828
-101.334	-165.525	25338	17156	0	828
-102.488	-165.561	25338	16847	0	828
-99.279	-162.748	25282	16445	0	828
-95.348	-158.096	25141	16057	0	828
-89.722	-152.218	25056	15729	0	828
-89.073	-147.818	25056	15507	0	828
-92.283	-148.756	24858	15297	0	828
-97.295	-150.415	24717	14994	0	828
-97.404	-152.398	24434	14673	0	828
-94.050	-152.759	24293	14456	0	828
-90.371	-152.290	24293	14444	0	828
-90.984	-153.913	24293	14561	0	828
-97.295	-159.070	24293	14635	0	828
-107.609	-165.669	24152	14605	0	828
-114.605	-169.960	23926	14512	0	828
-116.012	-170.069	23785	14394	0	828
-109.989	-163.902	23587	14339	0	828
-99.243	-158.384	23446	14382	0	828
-91.958	-154.454	23361	14499	0	828
-91.706	-157.591	23304	14617	0	828
-97.548	-162.856	23163	14629	0	828
-105.193	-166.715	22937	14580	0	828
-106.852	-166.174	22739	14549	0	828
-103.787	-164.010	22513	14555	0	828
-100.541	-164.731	22231	14555	0	828
-101.767	-167.436	22090	14499	0	828
-108.150	-171.799	21751	14413	0	828
-112.441	-168.338	21468	14357	0	828
-109.989	-157.447	21327	14407	0	828
-98.954	-140.389	21101	14561	0	828
-86.296	-128.922	20960	14710	0	828
-80.815	-125.604	20762	14790	0	828
-83.916	-132.889	20480	14852	0	828
-95.420	-140.786	20338	14914	0	828
-107.140	-145.835	20056	14944	0	828
-113.127	-147.818	19830	14932	0	828
-113.559	-146.123	19632	14895	0	828
-108.943	-146.087	19208	14852	0	828
-105.950	-149.693	18982	14864	0	828
-108.439	-155.031	18785	14982	0	828
-114.785	-161.269	18643	15216	0	828
-120.519	-164.984	18643	15519	0	828
-119.365	-161.450	18643	15804	0	828
-111.323	-152.290	18417	15983	0	828
-98.449	-138.622	18361	16075	0	828
-89.073	-129.499	18220	16181	0	828
-88.316	-128.381	18135	16286	0	828
-94.158	-133.538	17994	16360	0	828
-102.164	-141.327	17852	16390	0	828
-105.265	-144.392	17711	16396	0	828
-100.433	-141.147	17513	16372	0	828
-91.021	-135.160	17287	16273	0	828
-82.041	-129.391	17005	16082	0	828
-78.976	-126.001	16581	15822	0	828
-79.625	-125.135	16187	15544	0	828
-81.392	-121.313	15678	15210	0	828
-78.868	-114.785	15339	14907	0	828
-74.360	-108.150	14916	14740	0	828
-71.439	-106.022	14633	14728	0	828
-74.180	-113.235	14351	14821	0	828
-82.005	-123.368	14068	14926	0	828
-91.057	-131.879	13842	15019	0	828
-93.184	-133.610	13644	15167	0	828
-90.011	-125.424	13503	15414	0	828
-81.789	-113.884	13418	15698	0	828
-74.071	-105.157	13418	15909	0	828
-73.134	-105.554	13136	16014	0	828
-77.714	-111.792	12995	16045	0	828
-84.277	-119.401	12797	16069	0	828
-85.900	-122.863	12656	16137	0	828
-84.097	-119.870	12430	16187	0	828
-78.435	-110.530	12288	16211	0	828
-76.920	-105.049	12006	16236	0	828
-76.812	-102.524	11865	16199	0	828
-78.038	-103.823	11526	16119	0	828
-76.884	-105.229	11384	16082	0	828
-70.646	-102.993	11159	16088	0	828
-60.728	-97.259	10876	16038	0	828
-51.929	-90.516	10537	15841	0	828
-48.359	-87.919	10170	15550	0	828
-50.631	-90.876	9746	15352	0	828
-57.843	-98.882	9464	15334	0	828
-62.964	-103.426	9266	15445	0	828
-63.253	-103.606	9125	15593	0	828
-57.339	-98.197	8757	15587	0	828
-52.470	-90.047	8192	15235	0	828
-49.513	-85.287	7627	14697	0	828
-50.920	-83.051	7147	14419	0	828
-53.083	-83.484	6921	14499	0	828
-52.146	-83.087	6582	14716	0	828
-51.244	-81.861	6441	15019	0	828
-49.910	-81.680	6497	15482	0	828
-49.910	-82.438	6723	16113	0	828
-51.713	-82.005	7062	16866	0	828
-53.768	-83.556	7345	17607	0	828
-51.677	-83.411	7486	18077	0	828
-47.458	-80.851	7627	18275	0	828
-39.632	-78.038	7910	18510	0	828
-32.203	-73.530	8192	18837	0	828
-29.715	-71.042	8560	19202	0	828
-32.167	-69.131	9125	19702	0	828
-38.190	-67.869	9605	20191	0	828
-41.543	-64.479	9972	20456	0	828
-38.262	-57.303	10396	20580	0	828
-30.292	-49.838	10876	20759	0	828
-23.512	-47.710	11441	20982	0	828
-22.214	-50.595	11723	21006	0	828
-27.768	-54.562	12091	20728	0	828
-31.338	-54.959	12232	20382	0	828
-30.328	-48.107	12656	20197	0	828
-25.532	-37.973	13079	20184	0	828
-20.123	-33.610	13644	20277	1	568
-21.168	-37.324	14125	20382	0	568
-26.289	-44.645	14690	20444	0	568
-33.970	-53.119	15339	20524	0	568
-39.885	-58.096	16046	20685	0	568
-41.940	-58.060	16722	20858	0	568
-44.212	-59.322	17429	20951	0	568
-44.681	-58.853	18078	20920	0	568
-45.510	-57.122	18700	20846	0	568
-44.789	-55.139	19350	20778	0	568
-42.337	-52.326	20056	20728	0	568
-37.505	-52.038	20677	20697	0	568
-31.843	-53.011	21384	20592	0	568
-29.246	-54.778	21892	20333	0	568
-28.633	-54.670	22174	19845	0	568
-26.470	-52.939	22372	19140	0	568
-25.676	-49.153	22598	18374	0	568
-22.863	-43.058	22655	17706	0	568
-19.329	-38.875	22739	17138	0	568
-17.743	-37.036	22796	16557	0	568
-17.346	-38.767	22655	15853	0	568
-14.641	-41.543	22513	15130	0	568
-12.009	-44.464	22513	14691	0	568
-8.979	-40.714	22598	14555	0	568
-2.452	-33.393	22739	14475	0	568
5.517	-21.926	22739	14283	0	568
13.091	-13.235	22598	13968	0	568
15.687	-11.612	22457	13653	0	568
11.828	-16.769	22457	13480	0	568
1.803	-25.712	22457	13430	0	568
-5.626	-29.895	22316	13375	0	568
-6.383	-26.542	22033	13189	0	568
-0.397	-15.398	21751	12862	0	568
5.193	-5.301	21468	12534	0	568
6.275	0.000	21101	12404	0	568
3.065	0.000	21045	12466	0	568
-2.705	-3.750	20762	12559	0	568
-5.121	-7.285	20621	12645	0	568
-4.147	-6.744	20395	12787	0	568
1.479	-4.364	20395	13016	0	568
6.635	-1.334	20254	13300	0	568
10.602	-1.370	20197	13554	0	568
10.602	-5.193	19971	13745	0	568
8.006	-6.635	19915	13900	0	568
7.898	-4.832	19689	14061	0	568
11.323	4.616	19632	14246	0	568
19.510	14.713	19406	14450	0	568
25.207	19.834	19491	14679	0	568
28.705	18.536	19406	14901	0	568
25.748	15.795	19124	15043	0	568
24.089	16.264	18982	15080	0	568
23.549	21.890	18841	15056	0	568
24.739	28.092	18417	14914	0	568
28.633	31.338	18078	14722	0	568
33.069	31.987	17852	14691	0	568
35.665	30.076	17570	14759	0	568
34.764	29.571	17146	14716	0	568
29.823	28.020	16864	14642	0	568
24.089	27.948	16722	14778	0	568
20.267	29.391	16666	15062	0	568
23.549	32.708	16525	15328	0	568
28.201	39.488	16525	15600	0	568
32.492	43.671	16525	15946	0	568
30.436	44.032	16666	16347	0	568
25.568	37.901	16807	16767	0	568
18.644	29.859	17005	17236	0	568
13.595	24.666	17231	17694	0	568
11.900	23.080	17429	18021	0	568
11.973	28.056	17513	18108	0	568
14.641	32.708	17513	18028	0	568
16.084	33.862	17513	17935	0	568
18.644	29.823	17513	17885	0	568
19.113	22.719	17429	17780	0	568
19.329	16.589	17146	17496	0	568
19.041	14.461	17005	17119	0	568
18.860	16.625	16864	16896	0	568
19.473	19.618	16864	16878	0	568
19.149	21.241	16807	16896	0	568
19.726	23.152	16807	16884	0	568
20.447	23.368	16807	16847	0	568
21.890	25.820	16722	16785	0	568
24.306	25.316	16666	16711	0	568
24.378	22.358	16666	16655	0	568
22.863	17.418	16525	16569	0	568
20.880	17.238	16384	16384	0	568
22.178	22.250	16243	16193	0	568
27.263	31.590	16102	16082	0	568
37.072	38.190	16102	16143	0	568
43.491	36.531	16187	16310	0	568
45.727	30.112	16187	16414	0	568
44.356	22.719	16102	16439	0	568
40.209	19.510	16102	16439	0	568
39.055	20.195	16102	16439	0	568
38.947	21.601	16046	16414	0	568
39.344	22.755	15904	16317	0	568
37.108	22.178	15763	16168	0	568
32.492	24.198	15622	15995	0	568
27.660	29.427	15255	15736	0	568
25.820	35.305	14916	15377	0	568
26.578	39.596	14548	15068	0	568
30.761	41.075	14266	14852	0	568
32.816	36.278	13927	14635	0	568
33.502	29.895	13503	14407	0	568
31.122	25.748	13136	14221	0	568
26.686	23.621	12514	13906	0	568
20.555	23.512	11582	13251	0	568
16.841	26.145	10876	12485	0	568
13.163	26.253	10113	12015	0	568
14.569	25.820	9407	11867	0	568
16.589	22.899	8842	11897	0	568
17.706	17.923	8475	12114	0	568
16.012	14.136	8277	12590	0	568
13.776	12.441	8136	13251	0	568
15.182	16.805	8051	13949	0	568
19.942	23.837	8136	14623	0	568
27.768	29.751	8192	15284	0	568
31.122	31.951	8334	15952	0	568
32.239	32.780	8475	16575	0	568
31.338	34.475	8616	17088	0	568
32.708	36.170	8701	17484	0	568
34.223	36.603	8842	17799	0	568
33.069	31.374	8757	17941	0	568
26.974	21.457	8842	18009	0	568
21.349	12.694	9040	18269	0	568
19.762	10.386	9181	18664	0	568
23.368	12.838	9266	18831	0	568
28.597	17.057	9181	18652	0	568
27.984	18.608	9125	18337	0	568
23.044	18.175	8983	18077	0	568
15.975	17.851	8983	17916	0	568
13.235	19.942	8983	17861	0	568
14.136	22.214	8899	17867	0	568
16.589	22.395	8899	17830	0	568
17.598	18.500	8899	17706	0	568
13.559	11.035	8842	17583	0	568
7.573	3.462	8899	17521	0	568
-0.902	-3.642	8842	17459	0	568
-7.104	-8.258	8757	17317	0	568
-11.107	-11.179	8560	17057	0	568
-12.730	-11.396	8192	16600	0	568
-12.874	-11.323	7769	15970	0	568
-11.179	-10.674	7345	15383	0	568
-9.701	-8.763	6921	14982	0	568
-4.075	-7.285	6497	14722	0	568
3.101	-5.229	6300	14611	0	568
11.396	-2.308	6074	14623	0	568
13.451	-3.246	5876	14722	0	568
10.963	-3.678	5735	14870	0	568
7.140	-4.003	5735	15050	0	568
6.996	-0.541	5594	15216	0	568
13.631	3.967	5509	15383	0	568
22.106	6.599	5509	15593	0	568
26.794	4.868	5594	15872	0	568
23.657	-0.793	5791	16304	0	568
17.382	-5.229	6159	16878	0	568
14.821	-5.517	6356	17447	0	568
15.543	-1.947	6639	17873	0	568
16.913	0.361	7062	18250	0	568
14.353	-1.406	7486	18676	0	568
7.212	-5.878	7995	19128	0	568
0.541	-12.550	8418	19536	0	568
-1.731	-15.435	8983	19869	0	568
-0.649	-17.274	9548	20178	0	568
-0.793	-18.680	10170	20549	0	568
-7.032	-20.159	10961	21019	0	568
-17.562	-25.496	11808	21538	0	568
-25.243	-28.417	12571	21878	0	568
-25.207	-31.230	12995	21810	0	568
-19.618	-30.220	13362	21396	0	568
-10.602	-30.184	13842	21037	0	568
-7.321	-30.761	14266	20895	0	568
-7.573	-33.141	14831	20809	1	684
-10.422	-34.800	15396	20697	0	684
-12.405	-36.206	15904	20592	0	684
-10.963	-35.557	16440	20487	0	684
-9.088	-36.928	17090	20395	0	684
-5.157	-39.199	17852	20419	0	684
-1.118	-40.245	18559	20481	0	684
3.462	-40.353	18982	20320	0	684
7.537	-37.252	19350	19863	0	684
6.924	-34.620	19632	19239	0	684
7.140	-33.213	19830	18646	0	684
6.491	-33.538	20112	18176	0	684
7.104	-35.088	20254	17762	0	684
6.167	-37.793	20395	17243	0	684
1.659	-41.471	20338	16581	0	684
-6.816	-45.474	20480	15995	0	684
-14.136	-45.979	20395	15581	0	684
-16.913	-44.392	20480	15247	0	684
-15.398	-38.695	20395	14876	0	684
-12.297	-34.764	20338	14469	0	684
-11.179	-33.682	20112	14061	0	684
-12.369	-35.810	19971	13647	0	684
-15.182	-42.950	19773	13313	0	684
-17.310	-49.261	19773	13140	0	684
-19.221	-54.129	19632	13059	0	684
-20.700	-54.382	19406	13022	0	684
-17.995	-49.189	19406	13072	0	684
-13.199	-41.255	19406	13208	0	684
-8.727	-37.288	19350	13381	0	684
-7.393	-40.029	19350	13504	0	684
-12.189	-47.962	18982	13424	0	684
-20.447	-56.040	18502	12961	0	684
-26.145	-58.745	17711	12194	0	684
-25.135	-53.372	17090	11527	0	684
-18.897	-46.520	16384	11211	0	684
-9.232	-40.714	15961	11193	0	684
-2.092	-42.301	15678	11384	0	684
0.144	-47.710	15339	11675	0	684
-3.714	-55.932	14972	11972	0	684
-8.655	-60.656	14916	12380	0	684
-10.999	-60.512	14831	12948	0	684
-8.402	-54.454	14774	13566	0	684
-2.957	-48.179	14831	14141	0	684
0.397	-47.205	14831	14673	0	684
-2.524	-49.766	14972	15198	0	684
-9.160	-57.303	15057	15754	0	684
-15.254	-64.118	15255	16366	0	684
-15.831	-64.443	15537	16964	0	684
-11.684	-62.712	15763	17490	0	684
-5.301	-58.024	16046	17898	0	684
-0.721	-54.273	16328	18213	0	684
2.236	-51.136	16525	18516	0	684
4.904	-47.890	16807	18812	0	684
4.760	-47.638	17090	19010	0	684
3.498	-46.845	17231	19078	0	684
1.731	-46.520	17372	19084	0	684
-0.397	-44.284	17570	19066	0	684
1.118	-40.750	17655	18979	0	684
4.940	-36.351	17711	18782	0	684
12.261	-32.312	17711	18497	0	684
18.464	-30.436	17711	18188	0	684
19.329	-29.895	17513	17811	0	684
14.785	-32.131	17372	17335	0	684
3.678	-37.685	17090	16859	0	684
-8.402	-43.419	16807	16414	0	684
-15.687	-47.097	16581	16032	0	684
-14.028	-43.924	16328	15748	0	684
-6.635	-38.045	16187	15519	0	684
0.252	-33.141	15961	15340	0	684
1.803	-33.502	15904	15284	0	684
-1.803	-39.235	15820	15365	0	684
-6.924	-44.032	15763	15464	0	684
-8.114	-46.664	15622	15445	0	684
-8.619	-45.366	15396	15328	0	684
-10.025	-44.861	15255	15198	0	684
-16.156	-43.635	15113	15155	0	684
-22.972	-42.589	14972	15198	0	684
-22.070	-37.360	14916	15229	0	684
-14.425	-30.869	14774	15241	0	684
0.108	-27.912	14548	15260	0	684
10.422	-28.633	14492	15284	0	684
13.884	-31.626	14351	15291	0	684
12.117	-30.581	14125	15291	0	684
11.864	-24.414	13983	15328	0	684
14.821	-15.759	13786	15315	0	684
18.897	-10.386	13503	15142	0	684
22.467	-7.934	12995	14846	0	684
21.241	-8.871	12712	14598	0	684
20.195	-6.852	12373	14487	0	684
21.349	-4.724	12147	14487	0	684
28.237	-2.596	11723	14475	0	684
34.259	-5.878	11441	14394	0	684
34.223	-14.064	11102	14345	0	684
27.047	-22.935	10735	14401	0	684
16.336	-29.246	10594	14549	0	684
8.186	-24.450	10452	14784	0	684
9.809	-15.435	10311	15019	0	684
14.461	-5.842	10113	15235	0	684
17.598	-4.688	10113	15507	0	684
14.245	-12.009	10255	15915	0	684
7.212	-20.339	10311	16408	0	684
3.823	-21.637	10311	16754	0	684
8.799	-13.307	9972	16600	0	684
18.824	-1.587	9266	15865	0	684
27.371	6.275	8560	15006	0	684
30.148	7.753	8051	14561	0	684
28.741	5.193	7712	14555	0	684
27.479	4.832	7486	14784	0	684
32.059	10.278	7288	15025	0	684
41.147	15.939	7006	15080	0	684
47.962	19.257	6639	14994	0	684
49.766	18.500	6300	14975	0	684
48.107	16.625	6159	15124	0	684
44.248	17.346	5933	15315	0	684
45.150	21.890	5594	15377	0	684
49.693	28.814	5226	15309	0	684
54.021	31.266	5085	15334	0	684
57.916	31.482	4887	15550	0	684
56.978	29.751	4887	15890	0	684
55.211	28.922	4803	16224	0	684
53.372	28.597	4803	16476	0	684
52.074	28.814	4661	16674	0	684
51.893	29.138	4379	16686	0	684
50.379	27.407	4096	16402	0	684
47.638	27.155	3757	16045	0	684
43.851	24.991	3334	15847	0	684
41.291	25.243	3108	15834	0	684
41.327	26.109	2966	15958	0	684
43.491	29.679	2966	16242	0	684
43.094	32.059	3051	16649	0	684
42.806	35.665	3192	17063	0	684
44.032	38.911	3334	17434	0	684
47.746	42.481	3531	17805	0	684
55.067	47.566	3757	18182	0	684
57.663	50.667	4096	18565	0	684
57.447	48.828	4322	18905	0	684
52.651	48.107	4746	19183	0	684
51.929	49.116	4944	19393	0	684
56.437	54.742	5311	19505	0	684
62.423	60.512	5509	19573	0	684
64.551	66.138	5876	19739	0	684
60.620	66.174	6441	20018	0	684
56.149	64.154	6865	20215	0	684
54.165	62.135	7147	20203	0	684
56.076	60.584	7288	19968	0	684
58.565	60.945	7486	19585	0	684
57.050	62.495	7486	19128	0	684
51.569	68.013	7430	18627	0	684
45.618	73.711	7345	18139	0	684
45.222	81.140	7345	17694	0	684
49.657	81.753	7204	17273	0	684
52.939	79.336	7204	16927	0	684
56.076	73.098	7204	16742	0	684
56.834	70.105	7345	16693	0	684
56.834	71.186	7430	16631	0	684
59.574	75.189	7430	16526	0	684
63.577	75.730	7486	16421	0	684
64.263	72.737	7627	16366	0	684
64.984	68.410	7627	16317	0	684
66.823	68.157	7712	16242	0	684
67.616	72.881	7769	16205	0	684
68.915	78.038	7853	16224	0	684
65.705	81.969	7910	16211	0	684
61.450	81.428	7995	16143	0	684
58.060	81.464	8136	16193	0	684
57.843	80.671	8418	16384	0	684
62.135	80.274	8616	16600	0	684
65.849	79.048	8757	16754	0	684
70.718	78.291	8983	16859	0	684
72.521	80.346	9322	17045	0	684
69.203	84.674	9746	17360	0	684
60.007	86.405	10170	17743	0	684
47.782	84.710	10594	18077	0	684
41.616	78.651	11102	18293	0	684
43.599	75.189	11526	18516	0	684
53.083	75.225	12147	18850	0	684
62.892	77.101	12712	19239	0	684
67.977	79.769	13418	19560	0	684
64.118	78.110	13927	19752	0	684
59.971	74.757	14407	19845	0	684
55.752	70.501	15057	19925	0	684
56.076	68.842	15678	20036	0	684
59.394	70.249	16328	20154	0	684
64.443	71.799	16864	20172	0	684
70.105	74.324	17372	20055	0	684
73.567	77.281	17852	19875	0	684
76.488	80.815	18361	19672	0	684
78.399	83.015	18700	19406	0	684
80.274	84.602	18926	18992	1	752
79.553	83.808	19067	18386	0	752
78.832	78.796	18982	17638	0	752
76.343	78.255	18785	16791	0	752
77.173	79.986	18643	15933	0	752
77.894	84.241	18417	15210	0	752
80.743	87.631	18220	14691	0	752
81.825	85.900	17994	14283	0	752
83.267	81.644	17711	13826	0	752
81.500	80.202	17429	13288	0	752
80.563	82.366	17146	12899	0	752
78.904	86.260	16948	12763	0	752
76.560	88.965	16722	12707	0	752
74.757	87.991	16525	12639	0	752
75.406	85.034	16243	12546	0	752
74.180	82.546	16046	12497	0	752
72.809	82.113	15763	12503	0	752
71.331	80.563	15481	12522	0	752
71.223	80.454	15255	12528	0	752
73.494	79.913	14972	12553	0	752
76.956	81.320	14774	12664	0	752
80.923	84.710	14548	12874	0	752
80.635	85.287	14492	13189	0	752
79.841	86.909	14407	13566	0	752
80.887	87.414	14407	13937	0	752
83.195	87.198	14351	14277	0	752
86.441	86.477	14266	14598	0	752
86.982	84.782	14266	14876	0	752
84.890	83.736	14266	15142	0	752
80.058	85.719	14407	15581	0	752
79.877	92.138	14633	16162	0	752
83.484	100.541	14690	16563	0	752
88.929	104.544	14633	16612	0	752
91.561	100.072	14492	16451	0	752
89.073	91.670	14266	16317	0	752
82.438	84.277	14266	16310	0	752
76.596	85.611	14209	16390	0	752
73.639	93.401	14125	16458	0	752
73.783	101.118	13983	16470	0	752
70.141	100.685	13983	16495	0	752
64.407	92.138	13983	16563	0	752
55.716	83.880	13927	16631	0	752
50.667	79.084	13927	16693	0	752
52.001	80.779	13842	16699	0	752
55.896	81.392	13701	16631	0	752
55.247	79.048	13644	16587	0	752
50.090	72.376	13701	16631	0	752
40.822	68.878	13644	16705	0	752
37.072	72.701	13503	16612	0	752
45.943	82.690	13136	16261	0	752
61.053	93.869	12712	15766	0	752
76.271	100.505	12430	15389	0	752
80.959	97.440	12091	15185	0	752
76.091	90.912	11865	15080	0	752
68.301	85.503	11582	15087	0	752
66.354	87.198	11441	15148	0	752
72.340	93.725	11300	15155	0	752
79.661	99.567	10876	15056	0	752
83.303	101.298	10678	14926	0	752
77.642	99.351	10537	14914	0	752
71.078	95.420	10311	15080	0	752
67.256	95.600	10170	15291	0	752
71.475	96.863	10113	15439	0	752
79.589	98.377	9972	15550	0	752
81.825	96.141	9690	15538	0	752
76.596	89.758	9322	15291	0	752
64.479	84.025	8899	14969	0	752
53.191	79.553	8560	14790	0	752
49.910	82.257	8277	14808	0	752
54.995	87.631	8136	15006	0	752
61.305	94.230	8192	15396	0	752
63.613	94.735	8277	15878	0	752
59.034	88.929	8334	16317	0	752
50.956	81.140	8418	16655	0	752
47.494	76.127	8475	16946	0	752
49.910	75.442	8616	17206	0	752
55.211	78.435	8701	17459	0	752
57.699	82.005	8842	17681	0	752
53.877	82.005	8899	17848	0	752
43.491	82.979	8983	17935	0	752
32.312	85.251	8899	17854	0	752
27.948	91.201	8899	17706	0	752
30.508	98.413	9181	17836	0	752
38.839	104.255	9548	18256	0	752
48.503	103.859	9746	18596	0	752
54.634	100.865	9887	18633	0	752
54.418	95.709	9831	18429	0	752
50.739	92.247	9887	18182	0	752
48.395	89.939	9972	18034	0	752
47.277	89.903	10029	17966	0	752
47.818	86.693	10029	17805	0	752
44.933	79.986	9887	17471	0	752
39.993	71.619	9831	17131	0	752
35.521	65.885	9831	16964	0	752
36.062	65.453	9887	16934	0	752
41.832	68.734	9887	16915	0	752
48.107	74.144	9831	16822	0	752
47.890	78.507	9831	16662	0	752
43.707	78.615	9746	16476	0	752
36.819	78.904	9605	16261	0	752
33.105	77.894	9464	16045	0	752
33.466	75.334	9322	15865	0	752
35.593	72.665	9040	15593	0	752
37.829	69.455	8616	15087	0	752
38.839	69.239	8192	14524	0	752
41.183	70.970	7853	14197	0	752
44.320	76.920	7769	14296	0	752
49.441	81.536	7769	14703	0	752
54.634	84.818	7769	15031	0	752
57.555	82.366	7571	15056	0	752
55.103	78.255	7345	14944	0	752
47.818	71.980	7147	14858	0	752
40.245	69.744	6780	14710	0	752
38.190	70.609	6497	14506	0	752
42.084	73.206	6159	14388	0	752
48.828	76.560	5876	14388	0	752
55.319	78.182	5791	14475	0	752
54.814	77.858	5594	14673	0	752
49.802	75.838	5509	14951	0	752
46.592	71.223	5509	15216	0	752
44.501	66.715	5311	15352	0	752
43.347	64.479	4944	15229	0	752
42.950	65.020	4605	14969	0	752
40.894	68.482	4322	14920	0	752
37.685	72.521	4238	15130	0	752
34.187	74.648	4181	15445	0	752
29.679	73.891	4322	15828	0	752
25.279	69.059	4322	16236	0	752
20.050	64.226	4464	16606	0	752
18.608	61.125	4520	16946	0	752
20.159	58.961	4746	17243	0	752
23.549	58.637	4803	17502	0	752
26.001	55.463	4944	17669	0	752
28.741	49.008	4887	17657	0	752
31.338	43.851	4944	17552	0	752
37.036	41.688	5170	17725	0	752
43.924	47.422	5509	18244	0	752
48.035	55.283	5933	18751	0	752
49.369	63.253	6215	19004	0	752
45.078	66.318	6441	19053	0	752
43.491	65.741	6723	19066	0	752
42.878	63.036	7006	19121	0	752
44.933	59.502	7204	19121	0	752
45.510	57.952	7345	19004	0	752
45.655	55.499	7571	18880	0	752
42.770	55.536	7853	18899	0	752
42.589	56.257	8277	19078	0	752
44.501	56.185	8757	19356	0	752
47.025	56.762	9322	19653	0	752
47.782	53.480	9831	19838	0	752
43.347	50.162	10311	19931	0	752
37.036	47.530	10876	20049	0	752
29.715	42.842	11582	20234	0	752
26.037	40.389	12091	20401	0	752
29.066	35.882	12712	20444	0	752
34.980	33.141	13221	20376	1	620
42.193	35.593	13701	20259	0	620
47.999	40.714	14125	20049	0	620
50.451	48.828	14548	19758	0	620
51.316	54.778	15057	19634	0	620
51.497	57.122	15622	19665	0	620
52.759	57.843	15961	19492	0	620
54.598	60.512	16187	18992	0	620
57.663	65.669	16384	18429	0	620
61.738	73.098	16722	18071	0	620
66.390	76.992	17005	17892	0	620
70.934	76.524	17287	17688	0	620
70.285	69.059	17513	17341	0	620
63.469	61.053	17513	16853	0	620
52.362	54.742	17429	16255	0	620
38.875	52.795	17231	15581	0	620
33.105	55.175	17005	14926	0	620
34.295	58.060	16722	14314	0	620
41.147	61.882	16384	13708	0	620
47.386	60.404	16046	13134	0	620
48.359	56.437	15678	12676	0	620
43.671	50.703	15481	12380	0	620
38.478	44.068	15057	12207	0	620
34.656	43.419	14690	12071	0	620
35.197	45.907	14492	11990	0	620
38.370	53.696	14209	12040	0	620
41.003	59.394	14125	12194	0	620
40.822	62.459	13842	12404	0	620
40.101	60.151	13786	12670	0	620
38.695	57.988	13786	13022	0	620
41.471	56.978	13644	13338	0	620
47.638	59.214	13418	13473	0	620
55.499	65.344	13221	13473	0	620
58.276	67.833	12853	13504	0	620
54.634	66.715	12712	13597	0	620
46.484	63.145	12373	13653	0	620
39.957	60.837	12091	13659	0	620
42.265	64.443	11723	13702	0	620
51.893	70.321	11526	13832	0	620
61.197	74.865	11300	14030	0	620
64.335	73.675	11159	14302	0	620
58.204	67.184	11017	14592	0	620
48.612	59.971	10876	14839	0	620
43.166	55.427	10735	15056	0	620
43.202	54.057	10678	15291	0	620
46.051	52.975	10678	15593	0	620
48.287	51.497	10594	15940	0	620
44.969	48.828	10594	16211	0	620
41.435	47.349	10678	16445	0	620
39.163	46.268	10735	16779	0	620
38.082	46.772	10961	17218	0	620
38.262	47.962	11159	17663	0	620
36.747	46.700	11384	17997	0	620
35.629	45.510	11441	18139	0	620
38.442	44.428	11441	18077	0	620
43.851	44.104	11384	17929	0	620
48.359	45.727	11384	17836	0	620
45.979	44.645	11441	17811	0	620
40.245	42.770	11384	17793	0	620
33.321	39.560	11441	17706	0	620
31.915	38.658	11243	17477	0	620
37.072	43.166	10876	17014	0	620
42.193	46.268	10396	16292	0	620
42.373	48.287	9746	15470	0	620
39.416	44.861	9322	14926	0	620
35.701	42.445	8899	14697	0	620
37.973	44.464	8616	14567	0	620
45.258	51.749	8334	14543	0	620
52.542	60.692	8192	14679	0	620
54.201	64.803	8136	14920	0	620
48.503	60.873	8051	15192	0	620
39.055	54.562	7995	15389	0	620
33.357	48.720	7853	15470	0	620
32.708	45.546	7712	15525	0	620
38.118	46.268	7769	15779	0	620
44.140	47.602	7853	16211	0	620
44.464	49.477	8051	16581	0	620
41.399	50.920	8136	16816	0	620
33.898	52.614	8192	17020	0	620
28.128	52.687	8418	17286	0	620
25.279	50.559	8616	17607	0	620
28.164	46.592	8899	17953	0	620
31.590	40.317	8983	18188	0	620
34.223	35.774	9040	18163	0	620
32.492	33.141	8983	17898	0	620
28.237	34.620	8842	17539	0	620
25.893	38.370	8701	17236	0	620
26.217	42.842	8616	17032	0	620
30.689	44.284	8475	16847	0	620
38.334	46.051	8192	16507	0	620
45.510	46.917	7853	16032	0	620
49.585	49.044	7486	15618	0	620
49.621	51.461	7288	15420	0	620
45.979	51.028	7147	15420	0	620
38.586	47.025	7062	15488	0	620
30.761	43.455	6921	15513	0	620
25.099	40.209	6921	15562	0	620
20.700	41.976	6780	15649	0	620
20.159	44.681	6582	15600	0	620
21.204	48.035	6356	15402	0	620
22.539	46.845	6159	15266	0	620
22.431	44.537	6017	15291	0	620
20.664	42.337	5876	15427	0	620
18.752	40.353	5933	15649	0	620
18.824	39.993	6017	15927	0	620
21.998	39.488	6074	16230	0	620
25.424	36.819	6215	16538	0	620
27.263	32.780	6441	16822	0	620
25.532	29.318	6441	16971	0	620
23.729	24.739	6356	16958	0	620
24.306	22.683	6356	16915	0	620
29.210	23.332	6356	16958	0	620
35.629	26.145	6497	17039	0	620
39.776	28.164	6356	17026	0	620
36.603	23.981	6300	16872	0	620
29.499	18.464	6159	16606	0	620
26.073	12.441	5876	16292	0	620
27.119	9.989	5594	16038	0	620
32.780	13.487	5509	15915	0	620
35.846	18.356	5311	15822	0	620
32.853	21.024	5170	15785	0	620
27.299	22.070	5226	15884	0	620
21.168	23.945	5226	16119	0	620
18.500	25.099	5368	16384	0	620
19.005	23.945	5368	16538	0	620
19.473	21.926	5226	16470	0	620
21.926	20.159	5170	16273	0	620
24.414	22.214	5085	16224	0	620
24.811	25.279	5170	16402	0	620
22.863	26.578	5311	16625	0	620
16.300	25.279	5311	16791	0	620
10.638	20.375	5509	16958	0	620
4.796	15.651	5650	17181	0	620
3.859	15.110	5876	17428	0	620
4.003	15.507	6074	17638	0	620
7.465	17.346	6441	17811	0	620
13.163	20.916	6497	17935	0	620
20.050	26.397	6582	17935	0	620
25.965	30.797	6723	17824	0	620
27.155	32.997	6865	17762	0	620
26.614	29.643	7006	17786	0	620
23.332	25.712	7204	17867	0	620
22.106	21.529	7345	17922	0	620
26.145	24.486	7571	17904	0	620
32.780	30.184	7769	17904	0	620
40.750	38.009	8051	18009	0	620
44.681	40.642	8418	18219	0	620
44.212	36.928	8842	18485	0	620
38.154	29.787	9322	18744	0	620
33.033	23.873	9887	19004	0	620
29.715	23.621	10396	19301	0	620
31.626	29.030	11017	19634	0	620
33.934	33.718	11667	19950	0	620
36.206	35.665	12232	20178	0	620
35.737	33.574	12938	20339	0	620
35.052	30.076	13560	20500	0	620
33.790	26.470	14351	20673	0	620
31.843	22.142	15113	20852	0	620
27.551	16.589	15904	21062	0	620
19.726	7.862	16722	21266	0	620
13.812	4.183	17372	21316	0	620
11.648	5.554	18078	21167	0	620
13.595	9.448	18785	21000	0	620
16.697	13.199	19632	21044	0	620
17.562	11.756	20480	21210	0	620
15.507	7.248	21101	21099	1	660
13.776	7.501	21609	20629	0	660
15.939	13.163	22033	20055	0	660
20.952	22.683	22457	19554	0	660
24.486	31.302	22881	19084	0	660
23.260	30.941	23163	18553	0	660
16.589	25.099	23304	17910	0	660
9.052	16.408	23304	17144	0	660
5.085	11.432	23220	16329	0	660
7.609	10.458	23163	15569	0	660
13.776	11.504	23078	14932	0	660
19.510	13.271	22937	14357	0	660
20.375	15.038	22655	13733	0	660
19.401	18.067	22372	13134	0	660
17.706	22.106	22174	12658	0	660
18.139	27.371	21807	12250	0	660
21.781	31.554	21242	11712	0	660
25.460	33.321	20677	10970	0	660
28.850	32.384	19773	10161	0	660
27.804	31.194	18926	9401	0	660
22.647	28.453	18135	8894	0	660
16.192	27.732	17429	8708	0	660
11.323	28.092	16807	8690	0	660
12.009	31.446	16243	8776	0	660
14.281	33.213	15678	8962	0	660
16.084	32.961	15198	9135	0	660
13.884	32.816	14633	9376	0	660
8.619	33.790	14351	9963	0	660
5.481	35.629	14209	10822	0	660
6.527	38.478	14125	11650	0	660
7.321	37.937	13983	12342	0	660
7.285	35.124	13786	12917	0	660
6.311	30.941	13701	13449	0	660
5.193	28.345	13560	13999	0	660
5.265	28.309	13560	14580	0	660
7.068	26.758	13560	15167	0	660
7.140	25.893	13560	15711	0	660
4.977	24.017	13644	16242	0	660
2.488	25.496	13842	16798	0	660
2.921	30.076	13983	17385	0	660
6.383	37.757	14209	17904	0	660
12.369	42.986	14407	18275	0	660
14.533	43.310	14548	18559	0	660
12.658	34.547	14690	18850	0	660
5.878	22.214	14916	19091	0	660
-1.298	11.937	14972	19146	0	660
-3.678	7.393	14916	18998	0	660
-0.325	10.422	14916	18726	0	660
3.787	16.625	14633	18330	0	660
7.032	20.591	14266	17854	0	660
6.816	19.401	14068	17397	0	660
6.491	16.228	13842	17088	0	660
7.357	12.045	13701	16934	0	660
11.900	8.258	13560	16828	0	660
15.759	8.727	13362	16606	0	660
17.238	9.376	12995	16310	0	660
15.146	10.025	12995	16187	0	660
9.701	7.717	12938	16286	0	660
4.255	4.003	12995	16408	0	660
0.685	0.180	12853	16476	0	660
-0.541	1.046	12797	16489	0	660
0.865	6.852	12797	16495	0	660
2.741	16.552	12656	16507	0	660
4.796	24.919	12571	16445	0	660
5.013	27.227	12373	16292	0	660
5.950	25.424	12232	16119	0	660
5.770	19.942	12006	16001	0	660
5.626	15.651	12006	15995	0	660
5.842	13.956	11949	16131	0	660
3.462	14.425	12147	16360	0	660
-0.072	13.740	12147	16544	0	660
-5.157	9.232	12147	16680	0	660
-10.025	5.409	12288	16835	0	660
-13.992	0.505	12430	17039	0	660
-14.172	-0.469	12656	17267	0	660
-14.317	0.036	12712	17471	0	660
-12.658	-0.108	12938	17650	0	660
-13.956	-2.344	13079	17749	0	660
-15.110	-5.193	12995	17644	0	660
-15.687	-4.291	12995	17391	0	660
-15.435	-0.505	12938	17187	0	660
-13.631	5.662	12995	17100	0	660
-8.907	12.946	12995	17076	0	660
-6.744	15.651	12938	17020	0	660
-6.491	13.631	12938	16866	0	660
-7.825	10.855	12853	16711	0	660
-10.530	8.691	12938	16649	0	660
-10.746	8.907	12853	16637	0	660
-4.652	14.281	12938	16581	0	660
3.714	20.050	12797	16445	0	660
9.845	23.765	12712	16273	0	660
12.225	23.801	12571	16119	0	660
7.681	21.818	12514	16075	0	660
2.488	18.752	12571	16143	0	660
-0.974	16.589	12514	16181	0	660
-1.406	15.759	12514	16125	0	660
-0.361	16.336	12373	16038	0	660
0.072	18.824	12288	15909	0	660
-0.180	22.719	11949	15600	0	660
-0.072	27.299	11526	15087	0	660
2.019	32.095	11017	14499	0	660
5.842	34.367	10311	13918	0	660
10.674	35.413	9690	13356	0	660
15.398	35.774	9040	12893	0	660
16.048	34.547	8560	12633	0	660
12.982	31.951	8051	12590	0	660
5.770	28.453	7627	12651	0	660
-0.036	24.811	7204	12732	0	660
-1.659	21.781	6921	12868	0	660
1.226	19.906	6723	13195	0	660
5.337	18.608	6723	13764	0	660
7.032	18.464	6780	14450	0	660
4.327	17.815	6780	15068	0	660
-1.767	17.959	6865	15556	0	660
-7.321	16.985	6865	15921	0	660
-10.025	14.497	6723	16156	0	660
-11.107	15.146	6723	16329	0	660
-7.321	19.113	6723	16557	0	660
-4.147	25.316	6723	16804	0	660
-1.839	31.013	6723	17014	0	660
-3.318	32.420	6780	17267	0	660
-5.337	27.155	7062	17638	0	660
-7.898	23.152	7204	18046	0	660
-7.212	20.627	7430	18355	0	660
-3.967	20.375	7627	18534	0	660
-4.760	20.880	7769	18627	0	660
-10.206	16.841	7910	18683	0	660
-20.231	9.701	8051	18726	0	660
-30.292	1.659	8192	18738	0	660
-34.367	-3.750	8277	18707	0	660
-30.617	-4.652	8334	18602	0	660
-22.467	-3.931	8277	18318	0	660
-15.543	-2.705	7995	17811	0	660
-13.559	-2.560	7571	17082	0	660
-16.805	-4.832	7062	16298	0	660
-18.788	-4.111	6723	15723	0	660
-17.346	-2.669	6441	15402	0	660
-14.100	1.226	6074	15167	0	660
-10.530	3.318	5876	15056	0	660
-9.088	4.111	5791	15161	0	660
-10.638	1.695	5876	15414	0	660
-11.323	0.108	5876	15705	0	660
-5.950	0.757	6017	15989	0	660
-1.659	3.678	6300	16354	0	660
3.029	7.104	6582	16872	0	660
6.167	9.665	7062	17558	0	660
6.780	9.845	7712	18287	0	660
7.898	9.989	8277	18905	0	660
9.845	10.169	8899	19406	0	660
9.665	9.124	9407	19764	0	660
8.475	7.753	9831	19968	0	660
6.599	5.121	10311	20160	0	660
8.691	6.311	11102	20487	0	660
12.225	10.819	11808	20883	0	660
16.300	15.398	12373	21142	0	660
15.110	16.552	12938	21118	0	660
8.114	12.153	13418	20932	0	660
-0.902	6.816	13983	20821	0	660
-8.006	3.210	14548	20827	0	660
-8.330	4.327	15113	20796	1	636
-6.888	5.517	15481	20574	0	636
-4.544	6.383	15904	20209	0	636
-3.895	3.642	16328	19900	0	636
-4.075	1.515	16722	19702	0	636
-3.246	-0.108	17287	19579	0	636
-2.200	-1.551	17796	19461	0	636
-3.065	-3.318	18135	19270	0	636
-6.058	-5.157	18502	18917	0	636
-10.386	-5.049	18643	18330	0	636
-10.999	-4.364	18643	17650	0	636
-8.655	-0.541	18841	17131	0	636
-2.344	1.515	18982	16767	0	636
1.046	1.406	19124	16476	0	636
3.173	0.036	19265	16292	0	636
0.397	-2.380	19632	16205	0	636
-4.508	-4.436	19830	16211	0	636
-10.386	-4.724	20197	16249	0	636
-12.441	-3.318	20338	16137	0	636
-12.946	-3.137	20480	15828	0	636
-12.081	-3.065	20480	15513	0	636
-11.973	-5.049	20621	15315	0	636
-16.336	-9.484	20621	15198	0	636
-23.224	-13.018	20762	15080	0	636
-25.243	-14.425	20621	14833	0	636
-21.781	-9.701	20480	14413	0	636
-12.730	-3.967	20197	13974	0	636
-6.599	1.695	20056	13677	0	636
-7.032	2.416	19830	13548	0	636
-15.398	-0.865	19830	13572	0	636
-26.542	-3.534	19689	13640	0	636
-33.321	-2.993	19689	13640	0	636
-32.167	1.695	19547	13616	0	636
-27.479	6.347	19350	13628	0	636
-21.818	6.744	19208	13616	0	636
-18.031	6.022	18841	13492	0	636
-15.615	3.210	18502	13276	0	636
-11.504	3.534	18135	13078	0	636
-5.517	7.393	17937	13035	0	636
1.911	13.992	17711	13232	0	636
6.708	18.680	17711	13597	0	636
7.140	20.627	17570	13943	0	636
6.275	18.536	17655	14252	0	636
4.364	12.297	17570	14567	0	636
2.380	4.868	17655	14901	0	636
0.902	-2.092	17711	15235	0	636
-1.983	-5.301	17711	15525	0	636
-7.357	-5.481	17711	15748	0	636
-8.835	0.036	17655	15896	0	636
-8.186	6.491	17655	16020	0	636
-2.416	13.054	17655	16150	0	636
5.914	14.641	17655	16279	0	636
12.261	14.064	17570	16421	0	636
14.533	10.494	17655	16581	0	636
9.845	7.357	17570	16655	0	636
-0.938	2.056	17513	16606	0	636
-12.369	-2.488	17429	16526	0	636
-20.736	-4.724	17287	16427	0	636
-19.942	-4.291	17005	16230	0	636
-11.973	1.983	16666	15909	0	636
-0.757	9.088	16384	15618	0	636
3.859	9.412	16187	15476	0	636
-1.010	5.301	15961	15470	0	636
-9.953	-2.272	15961	15575	0	636
-18.716	-4.652	15961	15785	0	636
-18.824	-2.236	15904	15995	0	636
-11.864	6.780	15904	16168	0	636
-4.724	14.136	15961	16384	0	636
-0.469	16.877	16102	16680	0	636
-1.875	14.785	16328	17020	0	636
-5.878	10.422	16440	17298	0	636
-8.907	5.950	16384	17304	0	636
-11.107	2.056	16187	16989	0	636
-11.468	-0.685	15820	16544	0	636
-7.465	0.541	15622	16137	0	636
-5.373	2.308	15255	15810	0	636
-2.741	4.832	14916	15562	0	636
-4.436	4.291	14407	15210	0	636
-6.671	1.298	13786	14586	0	636
-9.088	-3.246	13136	13906	0	636
-5.878	-4.868	12571	13541	0	636
-0.361	-3.354	12288	13560	0	636
6.383	-1.118	11949	13745	0	636
8.619	0.938	11723	13900	0	636
5.517	0.865	11384	13980	0	636
-0.865	-1.659	11102	14048	0	636
-10.927	-4.472	10876	14221	0	636
-19.726	-7.970	10735	14499	0	636
-23.657	-10.999	10594	14827	0	636
-21.709	-8.763	10452	15093	0	636
-15.218	-3.426	10396	15309	0	636
-8.114	3.859	10255	15556	0	636
-3.065	9.196	10255	15921	0	636
-3.498	8.222	10311	16341	0	636
-6.527	5.590	10396	16680	0	636
-9.701	2.236	10396	16909	0	636
-9.629	3.318	10255	17014	0	636
-8.583	7.501	10113	16995	0	636
-6.635	13.163	9972	16884	0	636
-5.265	15.831	9831	16791	0	636
-5.554	17.382	9690	16761	0	636
-5.626	18.356	9407	16693	0	636
-6.960	20.050	9125	16470	0	636
-8.763	21.854	8757	16168	0	636
-13.054	20.375	8475	15940	0	636
-16.264	17.310	8277	15847	0	636
-19.329	13.848	7995	15797	0	636
-21.096	12.802	7712	15711	0	636
-20.772	14.172	7486	15593	0	636
-21.962	17.418	7288	15575	0	636
-23.224	19.510	7147	15711	0	636
-21.962	19.690	7062	15909	0	636
-21.565	18.752	7006	16119	0	636
-20.952	17.166	6921	16292	0	636
-20.627	12.009	6921	16421	0	636
-20.123	8.763	6921	16563	0	636
-19.473	7.825	6921	16779	0	636
-15.939	9.340	7006	17063	0	636
-12.009	13.884	7147	17311	0	636
-9.520	15.471	7204	17496	0	636
-8.727	15.975	7345	17700	0	636
-10.350	13.812	7712	17960	0	636
-13.884	13.271	7769	18182	0	636
-13.812	15.218	7853	18213	0	636
-12.009	17.598	7712	17966	0	636
-7.248	19.257	7486	17576	0	636
-3.029	19.582	7345	17261	0	636
-0.757	17.454	7288	17070	0	636
-3.137	14.858	7288	16989	0	636
-9.556	10.963	7288	17039	0	636
-14.749	6.383	7430	17162	0	636
-19.690	2.236	7486	17206	0	636
-20.195	0.974	7486	17162	0	636
-17.310	1.298	7571	17206	0	636
-13.487	4.039	7853	17416	0	636
-12.405	5.878	8136	17743	0	636
-14.425	5.626	8418	18021	0	636
-19.510	4.364	8616	18157	0	636
-24.594	1.010	8899	18231	0	636
-28.958	-1.587	9181	18355	0	636
-31.807	-3.570	9548	18516	0	636
-31.699	-6.167	9831	18676	0	636
-30.761	-7.789	10255	18788	0	636
-26.542	-7.032	10594	18850	0	636
-24.234	-6.383	10961	18911	0	636
-22.106	-2.993	11300	18998	0	636
-20.700	1.911	11808	19115	0	636
-18.933	7.285	12091	19177	0	636
-14.208	12.730	12373	19023	0	636
-5.662	16.444	12430	18683	0	636
1.370	20.050	12797	18411	0	636
4.400	21.745	12938	18318	0	636
3.173	24.125	13362	18269	0	636
-1.334	24.522	13560	18213	0	636
-6.022	22.467	13842	18170	0	636
-8.439	18.356	14209	18102	0	636
-12.477	10.927	14633	18028	0	636
-17.887	2.128	14972	18102	0	636
-24.270	-4.940	15622	18442	0	636
-28.597	-8.294	16328	18874	0	636
-29.318	-9.484	16948	19146	0	636
-24.378	-8.547	17429	19239	0	636
-21.241	-9.917	17994	19270	0	636
-20.159	-12.405	18559	19332	0	636
-21.745	-15.074	19124	19375	0	636
-21.637	-13.054	19632	19288	0	636
-19.726	-7.862	19971	19053	0	636
-14.064	-0.902	20480	18850	0	636
-9.412	2.488	20903	18782	0	636
-9.196	2.200	21468	18800	1	676
-12.261	-1.515	22033	18825	0	676
-17.382	-5.806	22457	18763	0	676
-20.844	-8.727	22881	18602	0	676
-21.277	-9.737	23304	18380	0	676
-20.303	-7.645	23643	18151	0	676
-17.021	-6.491	24011	17947	0	676
-13.379	-3.534	24293	17706	0	676
-8.402	-1.406	24576	17391	0	676
-4.003	0.000	24717	16995	0	676
-1.479	1.010	24717	16464	0	676
-2.019	1.010	24632	15859	0	676
-5.193	0.288	24632	15328	0	676
-10.206	-0.649	24576	14932	0	676
-11.468	0.288	24491	14586	0	676
-12.117	2.308	24350	14234	0	676
-8.835	5.013	24208	13888	0	676
-6.816	6.671	24152	13684	0	676
-6.455	8.366	24208	13708	0	676
-9.773	6.635	24293	13869	0	676
-13.487	5.914	24293	13986	0	676
-18.572	4.219	24293	13999	0	676
-19.942	2.308	24152	13875	0	676
-18.969	0.541	23785	13492	0	676
-14.245	-1.118	23304	12942	0	676
-9.052	-1.875	22937	12559	0	676
-5.806	-1.659	22513	12398	0	676
-5.301	-0.685	22231	12342	0	676
-7.573	1.082	22033	12410	0	676
-12.874	1.911	21807	12627	0	676
-17.129	0.793	21666	12961	0	676
-23.188	-3.101	21807	13368	0	676
-27.119	-7.248	21751	13764	0	676
-27.948	-10.530	21609	14073	0	676
-25.352	-9.268	21609	14289	0	676
-19.437	-5.590	21468	14493	0	676
-13.307	-0.108	21384	14697	0	676
-10.963	2.885	21327	14895	0	676
-12.117	0.685	21186	15056	0	676
-16.120	-5.121	21045	15080	0	676
-19.365	-10.530	20819	15062	0	676
-21.132	-14.064	20819	15278	0	676
-17.995	-10.999	20960	15711	0	676
-15.759	-7.068	20903	16100	0	676
-15.831	-3.173	21045	16372	0	676
-16.733	-5.193	20960	16526	0	676
-19.185	-8.330	21045	16581	0	676
-19.257	-10.494	20903	16600	0	676
-17.634	-10.061	20903	16662	0	676
-16.480	-7.573	20903	16723	0	676
-17.923	-5.229	20677	16693	0	676
-21.601	-4.868	20677	16625	0	676
-23.693	-7.068	20536	16631	0	676
-23.729	-7.898	20677	16748	0	676
-23.296	-7.825	20621	16878	0	676
-22.575	-8.727	20677	16909	0	676
-24.270	-9.196	20536	16890	0	676
-28.237	-10.999	20536	16835	0	676
-28.128	-11.179	20338	16686	0	676
-25.532	-9.556	20338	16532	0	676
-19.365	-6.094	20197	16519	0	676
-12.802	-2.777	20254	16606	0	676
-10.494	-4.472	20112	16606	0	676
-12.405	-9.016	19915	16396	0	676
-15.002	-14.281	19632	16075	0	676
-15.903	-15.326	19491	15847	0	676
-12.333	-13.379	19350	15754	0	676
-11.107	-9.556	19067	15686	0	676
-11.792	-10.638	18926	15593	0	676
-17.346	-13.595	18785	15519	0	676
-21.024	-16.480	18502	15495	0	676
-19.942	-15.182	18417	15538	0	676
-14.605	-10.350	18417	15668	0	676
-10.242	-6.167	18276	15804	0	676
-12.622	-6.816	18135	15859	0	676
-17.923	-12.045	18135	15872	0	676
-25.279	-18.031	18078	15933	0	676
-25.856	-19.077	18078	16094	0	676
-20.411	-15.615	18078	16279	0	676
-12.658	-10.025	17937	16366	0	676
-6.419	-5.301	17937	16372	0	676
-3.318	-4.616	17937	16414	0	676
-6.635	-6.455	17994	16557	0	676
-10.242	-8.979	17994	16730	0	676
-15.795	-9.232	17937	16816	0	676
-18.752	-9.917	17937	16816	0	676
-20.375	-10.206	17937	16779	0	676
-20.267	-12.117	17852	16717	0	676
-18.644	-12.910	17711	16587	0	676
-15.795	-12.153	17513	16384	0	676
-12.117	-10.746	17287	16181	0	676
-7.753	-8.727	17146	15970	0	676
-5.806	-10.025	16722	15668	0	676
-4.796	-11.828	16440	15365	0	676
-8.078	-13.523	16328	15328	0	676
-8.366	-11.973	16328	15600	0	676
-7.176	-7.934	16384	15915	0	676
-1.767	-2.056	16328	16082	0	676
2.344	0.108	16243	16075	0	676
2.272	-1.406	16102	15989	0	676
-1.298	-4.255	15961	15940	0	676
-6.744	-7.717	15904	15958	0	676
-8.475	-7.429	15763	15964	0	676
-8.763	-5.121	15622	15921	0	676
-7.825	-6.599	15481	15909	0	676
-11.287	-10.314	15396	15970	0	676
-15.362	-17.057	15396	16106	0	676
-19.041	-20.195	15396	16279	0	676
-19.798	-19.726	15481	16445	0	676
-18.644	-15.038	15396	16563	0	676
-17.995	-12.694	15481	16637	0	676
-17.310	-11.900	15481	16680	0	676
-15.398	-12.658	15396	16711	0	676
-13.054	-12.333	15255	16668	0	676
-10.422	-10.855	15113	16507	0	676
-9.953	-11.468	14774	16174	0	676
-11.684	-12.369	14266	15581	0	676
-13.523	-14.894	13644	14883	0	676
-14.425	-14.894	13079	14382	0	676
-11.251	-13.740	12712	14135	0	676
-9.160	-9.809	12232	13999	0	676
-3.967	-4.219	11808	13807	0	676
1.406	0.325	11243	13616	0	676
6.960	4.760	11102	13677	0	676
12.550	9.520	10961	14030	0	676
16.192	9.917	10820	14469	0	676
15.831	12.009	10678	14808	0	676
13.307	13.631	10594	15050	0	676
6.744	13.091	10452	15297	0	676
0.252	11.612	10396	15587	0	676
-6.960	8.258	10452	15921	0	676
-9.917	3.787	10537	16279	0	676
-11.432	0.108	10452	16538	0	676
-11.287	-1.190	10396	16693	0	676
-12.477	-2.488	10396	16810	0	676
-14.966	-3.534	10311	16884	0	676
-15.254	-3.642	10255	16896	0	676
-13.740	-2.488	10029	16872	0	676
-11.107	-0.505	9746	16699	0	676
-8.042	2.669	9464	16360	0	676
-5.878	6.167	9181	16075	0	676
-4.724	8.366	8983	15970	0	676
-3.823	10.855	8616	15909	0	676
-1.587	11.323	8418	15828	0	676
-2.164	10.602	8192	15754	0	676
-3.714	9.304	7910	15692	0	676
-4.327	6.383	7769	15668	0	676
-6.708	4.832	7627	15717	0	676
-7.248	3.859	7486	15865	0	676
-9.953	2.019	7486	16113	0	676
-14.894	0.288	7430	16341	0	676
-19.762	-2.236	7486	16476	0	676
-22.791	-3.101	7430	16594	0	676
-20.664	-1.010	7345	16723	0	676
-16.769	3.426	7288	16822	0	676
-11.684	6.960	7288	16828	0	676
-12.153	7.501	7147	16791	0	676
-15.074	4.688	7062	16822	0	676
-15.939	1.262	7204	16971	0	676
-11.323	2.056	7345	17249	0	676
-5.445	6.203	7571	17638	0	676
-1.479	9.629	7769	17990	0	676
-2.236	12.405	7853	18058	0	676
-4.580	14.028	7712	17817	0	676
-1.551	14.785	7853	17607	0	676
5.121	18.392	7910	17675	0	676
12.550	21.421	8136	17910	0	676
12.333	18.680	8475	18182	0	676
5.950	11.396	8757	18423	0	676
-3.390	2.019	8899	18522	0	676
-8.114	-3.931	9266	18559	0	676
-8.114	-5.013	9690	18868	0	676
-3.318	-0.469	10311	19430	0	676
1.623	4.327	10961	19925	0	676
5.157	6.708	11582	20234	0	676
6.239	5.950	12091	20419	0	676
6.311	6.671	12712	20592	0	676
3.101	7.465	13362	20821	0	676
0.072	10.350	14125	21087	0	676
-3.065	9.989	14916	21316	0	676
-5.878	8.222	15537	21445	0	676
-6.203	3.534	16328	21519	0	676
-7.717	-0.793	17005	21587	0	676
-9.845	-2.488	17711	21637	0	676
-14.966	-3.859	18559	21612	0	676
-19.834	-4.580	19208	21451	0	676
-22.358	-4.183	19689	21173	0	676
-20.664	-4.219	20338	20889	0	676
-16.444	-2.056	20903	20660	1	752
-15.002	-0.541	21609	20487	0	752
-15.759	-0.541	22174	20308	0	752
-16.805	-0.541	22796	20073	0	752
-15.579	-0.577	23163	19678	0	752
-10.638	0.793	23446	19091	0	752
-5.013	2.236	23785	18411	0	752
-5.229	0.469	23785	17694	0	752
-12.297	-5.662	23869	16995	0	752
-22.358	-13.163	23869	16329	0	752
-30.436	-18.464	23728	15612	0	752
-32.095	-17.995	23502	14839	0	752
-29.499	-12.874	23361	14122	0	752
-23.332	-6.708	23163	13566	0	752
-21.024	-2.741	22937	13195	0	752
-19.906	-1.154	22796	12905	0	752
-20.050	-1.010	22598	12584	0	752
-20.916	-1.154	22316	12305	0	752
-21.277	-0.288	22174	12176	0	752
-21.132	2.705	22090	12213	0	752
-21.854	5.914	22033	12342	0	752
-21.060	8.763	21948	12497	0	752
-21.024	10.133	21948	12676	0	752
-21.060	7.248	21892	12911	0	752
-19.582	4.327	21948	13226	0	752
-17.706	3.282	22090	13566	0	752
-12.045	5.121	22033	13820	0	752
-5.986	9.737	21892	13925	0	752
-1.010	16.841	21525	13739	0	752
1.298	22.467	21186	13344	0	752
0.829	25.388	20677	13084	0	752
-1.839	24.594	20480	13029	0	752
-3.462	19.762	20056	13035	0	752
-5.085	14.425	19773	13029	0	752
-4.472	11.215	19265	12923	0	752
-5.806	10.819	18785	12732	0	752
-7.573	9.737	18361	12614	0	752
-11.432	7.321	17937	12602	0	752
-14.677	2.272	17429	12664	0	752
-14.136	-0.144	17090	12800	0	752
-12.514	1.154	16807	13022	0	752
-10.314	6.203	16581	13387	0	752
-10.242	12.297	16525	13900	0	752
-10.314	13.812	16525	14487	0	752
-11.071	13.127	16525	15012	0	752
-9.124	11.071	16440	15408	0	752
-7.032	9.448	16440	15828	0	752
-5.842	10.783	16722	16390	0	752
-5.842	12.910	16948	17057	0	752
-8.619	12.550	17231	17712	0	752
-10.025	12.658	17513	18207	0	752
-11.540	11.864	17796	18547	0	752
-11.684	10.206	17937	18775	0	752
-8.727	8.871	17994	18794	0	752
-7.140	8.691	17796	18522	0	752
-6.599	8.042	17711	18157	0	752
-6.671	8.979	17711	17966	0	752
-9.088	10.458	17655	17861	0	752
-11.035	10.422	17429	17638	0	752
-13.668	5.626	17231	17317	0	752
-17.634	-0.685	17090	17039	0	752
-21.673	-7.140	16948	16841	0	752
-24.378	-11.251	16666	16649	0	752
-25.099	-11.287	16384	16372	0	752
-23.260	-7.032	16187	16088	0	752
-20.303	-3.534	16328	16045	0	752
-18.103	-0.036	16243	16236	0	752
-17.166	1.551	16243	16414	0	752
-18.644	1.983	16187	16451	0	752
-20.267	0.865	16102	16384	0	752
-22.719	0.613	16102	16396	0	752
-22.611	0.902	16102	16513	0	752
-22.899	0.974	16046	16575	0	752
-24.378	0.288	15904	16482	0	752
-26.974	-2.488	15763	16317	0	752
-31.771	-7.789	15622	16187	0	752
-33.538	-12.766	15537	16143	0	752
-31.879	-14.677	15622	16224	0	752
-25.388	-11.864	15622	16402	0	752
-14.317	-5.193	15763	16618	0	752
-5.590	-0.252	15820	16798	0	752
1.551	3.137	15820	16884	0	752
3.029	4.219	15904	16884	0	752
2.524	2.272	15904	16872	0	752
0.397	1.911	15904	16847	0	752
-1.803	0.361	15820	16791	0	752
-4.652	-2.236	15678	16649	0	752
-6.419	-5.013	15339	16310	0	752
-8.475	-3.354	15057	15853	0	752
-6.455	0.757	14916	15630	0	752
-2.164	8.835	14774	15655	0	752
0.469	13.595	14690	15643	0	752
4.039	15.543	14407	15495	0	752
6.058	15.651	14068	15284	0	752
6.852	15.507	13927	15118	0	752
6.996	17.310	13701	15043	0	752
3.246	17.093	13418	15037	0	752
-2.164	15.074	13277	15012	0	752
-6.094	9.376	12995	14963	0	752
-6.022	7.681	12938	15006	0	752
-0.938	8.475	12995	15241	0	752
4.003	13.018	12938	15612	0	752
5.590	14.605	13079	16014	0	752
0.902	10.278	13136	16329	0	752
-6.022	3.462	13136	16427	0	752
-13.163	-2.596	12712	16187	0	752
-14.497	-2.633	12430	15717	0	752
-10.674	3.859	12091	15420	0	752
-4.364	13.307	12006	15433	0	752
1.442	20.700	11808	15575	0	752
4.075	23.080	11723	15674	0	752
3.029	20.519	11384	15624	0	752
1.190	17.454	11159	15488	0	752
-1.118	13.668	11017	15427	0	752
-1.334	15.110	10735	15464	0	752
-1.226	17.706	10594	15482	0	752
-0.577	19.762	10255	15334	0	752
-1.551	18.175	9831	15068	0	752
-3.931	12.910	9548	14907	0	752
-9.520	5.662	9266	14957	0	752
-16.625	-0.577	9125	15136	0	752
-23.512	-5.878	8983	15291	0	752
-28.958	-9.376	8842	15383	0	752
-32.095	-12.514	8757	15532	0	752
-34.187	-15.939	8701	15785	0	752
-35.810	-19.618	8701	16088	0	752
-36.819	-21.637	8757	16378	0	752
-36.278	-23.044	8757	16587	0	752
-33.718	-22.178	8757	16730	0	752
-30.653	-19.762	8701	16890	0	752
-27.443	-17.887	8757	17119	0	752
-28.525	-16.589	8757	17243	0	752
-30.689	-15.398	8334	16896	0	752
-33.357	-14.894	7627	16020	0	752
-35.413	-13.848	6921	15111	0	752
-35.088	-13.127	6356	14574	0	752
-32.672	-11.864	5933	14339	0	752
-28.489	-10.458	5452	14246	0	752
-24.847	-9.448	5170	14296	0	752
-21.818	-8.439	5029	14487	0	752
-20.844	-8.979	4803	14747	0	752
-20.411	-10.169	4803	15062	0	752
-18.320	-7.970	4887	15569	0	752
-12.946	-1.983	5226	16292	0	752
-6.131	5.734	5452	17026	0	752
1.515	12.514	5650	17552	0	752
5.734	16.661	5933	17854	0	752
5.842	15.867	6074	18083	0	752
2.019	11.973	6215	18306	0	752
-2.849	7.212	6441	18522	0	752
-9.088	2.092	6723	18732	0	752
-9.304	1.839	6921	18917	0	752
-6.131	3.210	7204	19053	0	752
-0.180	5.878	7430	19189	0	752
3.246	5.698	7769	19387	0	752
1.298	1.587	8192	19591	0	752
-4.364	-3.750	8560	19715	0	752
-8.583	-7.501	8899	19758	0	752
-7.898	-6.816	9266	19820	0	752
-0.288	-2.741	9690	19931	0	752
7.645	-0.252	10113	20061	0	752
13.884	2.380	10594	20141	0	752
14.425	4.147	11102	20160	0	752
12.045	3.210	11441	20110	0	752
7.176	1.046	11808	19937	0	752
0.072	-3.065	12147	19659	0	752
-6.708	-7.393	12373	19430	0	752
-11.143	-11.540	12797	19288	1	668
-11.648	-10.133	13079	19140	0	668
-8.691	-7.321	13277	18887	0	668
-4.724	-4.796	13560	18571	0	668
-4.111	-4.580	13786	18337	0	668
-9.196	-6.275	14209	18250	0	668
-13.595	-6.563	14548	18275	0	668
-15.110	-4.147	15198	18361	0	668
-12.802	0.433	15537	18460	0	668
-6.419	2.344	16102	18559	0	668
-2.452	1.370	16581	18683	0	668
-2.705	-4.327	17231	18850	0	668
-5.878	-8.186	17796	18998	0	668
-7.825	-9.304	18361	19035	0	668
-7.357	-9.629	18841	18961	0	668
-4.075	-8.691	19208	18751	0	668
-3.210	-10.278	19491	18448	0	668
-4.327	-11.504	19915	18176	0	668
-6.419	-12.946	20112	17947	0	668
-7.321	-12.622	20480	17694	0	668
-6.924	-12.477	20677	17428	0	668
-5.193	-10.278	20960	17168	0	668
-2.957	-9.016	21186	16958	0	668
-3.246	-5.698	21609	16909	0	668
-3.354	-4.508	21948	16909	0	668
-5.481	-3.318	22033	16693	0	668
-7.285	-2.705	22033	16205	0	668
-8.907	0.216	21892	15556	0	668
-7.285	3.642	21666	14944	0	668
-6.671	5.662	21468	14493	0	668
-7.573	2.056	21384	14160	0	668
-12.225	-4.580	21101	13770	0	668
-17.526	-10.494	20762	13245	0	668
-19.906	-13.559	20254	12707	0	668
-18.824	-10.566	19971	12342	0	668
-16.156	-7.357	19632	12163	0	668
-12.333	-3.859	19350	12058	0	668
-9.304	-0.252	18926	11947	0	668
-3.787	3.967	18643	11897	0	668
0.865	9.232	18361	11984	0	668
6.455	14.281	18135	12101	0	668
7.789	15.687	17711	12157	0	668
4.977	17.057	17372	12213	0	668
1.587	17.418	17231	12392	0	668
-2.416	16.444	17005	12689	0	668
-6.491	13.451	16864	13035	0	668
-7.573	8.402	16807	13430	0	668
-8.691	3.498	16722	13894	0	668
-9.448	0.433	16807	14382	0	668
-6.744	2.308	16666	14728	0	668
-4.255	7.393	16440	14802	0	668
-2.741	9.520	16102	14703	0	668
-2.849	10.097	15820	14642	0	668
-4.796	5.842	15537	14685	0	668
-9.629	-0.902	15255	14784	0	668
-12.766	-7.357	14972	14821	0	668
-15.290	-11.612	14548	14710	0	668
-13.668	-12.045	13983	14469	0	668
-11.035	-9.629	13503	14197	0	668
-5.806	-3.534	13221	14098	0	668
-1.226	3.534	12712	14215	0	668
2.560	10.638	12571	14401	0	668
6.239	16.084	12288	14635	0	668
9.376	19.546	12288	15012	0	668
12.189	18.644	12288	15575	0	668
10.169	17.346	12430	16205	0	668
7.898	15.038	12430	16649	0	668
5.301	15.795	12288	16754	0	668
7.537	20.123	12091	16674	0	668
13.054	25.460	12091	16754	0	668
17.598	29.030	12091	17051	0	668
15.615	27.515	12147	17335	0	668
6.311	21.168	12147	17570	0	668
-5.590	12.405	12373	17786	0	668
-12.622	4.977	12430	17984	0	668
-11.071	0.216	12712	18207	0	668
-5.806	-1.587	12995	18689	0	668
-0.288	-1.695	13644	19387	0	668
0.361	-0.865	14068	19919	0	668
-2.921	0.721	14492	20141	0	668
-5.554	2.957	14831	20271	0	668
-4.508	6.708	15396	20475	0	668
1.659	10.061	15820	20697	0	668
7.393	12.946	16243	20809	0	668
12.477	17.418	16666	20784	0	668
14.966	21.673	16948	20617	0	668
13.884	26.830	17090	20265	0	668
13.631	27.984	17146	19764	0	668
14.317	27.551	17146	19189	1	352
17.274	24.739	17146	18615	0	352
22.142	25.784	17090	18052	0	352
24.125	27.551	16948	17508	0	352
20.988	29.427	16864	17032	0	352
11.973	25.099	16807	16680	0	352
-0.974	18.103	16807	16451	0	352
-11.035	10.638	16807	16292	0	352
-15.543	5.409	16864	16168	0	352
-14.605	5.662	16807	16014	0	352
-8.511	6.022	16722	15785	0	352
-5.590	5.409	16666	15532	0	352
-5.734	2.741	16525	15272	0	352
-8.619	0.252	16328	15006	0	352
-13.487	-1.406	16046	14697	0	352
-16.012	-2.669	15622	14234	0	352
-15.182	-0.072	15113	13708	0	352
-13.451	1.262	14831	13449	0	352
-10.530	1.515	14633	13473	0	352
-11.143	-1.226	14351	13449	0	352
-13.091	-5.229	13927	13263	0	352
-12.694	-7.898	13418	13004	0	352
-11.107	-7.248	13079	12781	0	352
-6.094	-4.039	12571	12670	0	352
0.252	0.541	12288	12676	0	352
3.282	2.813	11723	12707	0	352
2.380	3.101	11300	12645	0	352
1.767	1.983	10876	12621	0	352
0.288	2.741	10594	12818	0	352
-0.361	1.479	10452	13226	0	352
-2.128	-1.370	10311	13702	0	352
-4.940	-5.698	10113	14061	0	352
-9.592	-11.540	9887	14314	0	352
-13.668	-15.579	9690	14549	0	352
-16.805	-17.995	9464	14740	0	352
-19.798	-18.536	9322	14926	0	352
-20.519	-18.247	9125	15192	0	352
-19.582	-16.480	9040	15525	0	352
-15.326	-12.441	8899	15785	0	352
-9.088	-7.321	8757	15921	0	352
-5.554	-1.190	8560	15989	0	352
-3.859	3.101	8418	16094	0	352
-3.390	5.193	8334	16273	0	352
-5.662	5.193	8192	16433	0	352
-7.393	2.885	7910	16421	0	352
-9.160	1.406	7627	16298	0	352
-12.369	0.397	7430	16230	0	352
-14.641	2.272	7204	16279	0	352
-15.831	4.544	7147	16408	0	352
-13.343	6.744	7006	16550	0	352
-9.701	8.114	7006	16655	0	352
-4.616	9.917	7006	16847	0	352
0.793	13.307	7062	17162	0	352
2.272	14.533	7147	17484	0	352
-0.433	15.723	7288	17725	0	352
-5.770	14.461	7345	17879	0	352
-11.720	11.612	7430	17972	0	352
-17.454	8.114	7486	18071	0	352
-20.736	5.698	7769	18262	0	352
-21.637	2.741	7910	18485	0	352
-20.808	-0.505	8051	18602	0	352
-19.762	-1.370	8192	18608	0	352
-17.887	-2.596	8334	18584	0	352
-16.589	-3.029	8418	18534	0	352
-15.398	-3.101	8475	18423	0	352
-13.451	-2.777	8475	18256	0	352
-10.458	-2.777	8560	18058	0	352
-8.366	-3.498	8475	17830	0	352
-7.825	-3.426	8334	17508	0	352
-11.107	-4.364	8277	17168	0	352
-14.461	-3.534	8334	17057	0	352
-16.228	-3.895	8418	17138	0	352
-15.507	-2.452	8418	17144	0	352
-12.333	-0.180	8418	16964	0	352
-9.304	1.623	8277	16680	0	352
-9.484	2.957	8136	16396	0	352
-12.946	1.911	8051	16224	0	352
-16.661	-1.334	7995	16156	0	352
-19.798	-7.501	7853	16069	0	352
-19.870	-10.783	7769	15921	0	352
-18.644	-10.999	7712	15859	0	352
-16.516	-8.763	7853	15995	0	352
-14.858	-5.662	8136	16310	0	352
-12.550	-2.236	8334	16693	0	352
-11.287	-0.469	8616	17002	0	352
-11.287	-0.865	8842	17193	0	352
-12.514	-1.587	8983	17341	0	352
-17.454	-3.246	9322	17558	0	352
-22.539	-6.671	9605	17824	0	352
-25.424	-8.907	9887	18040	0	352
-27.371	-10.963	10255	18207	0	352
-24.991	-9.520	10594	18343	0	352
-21.277	-7.717	10820	18392	0	352
-17.923	-5.698	11017	18349	0	352
-16.444	-4.327	11384	18324	0	352
-15.795	-6.239	11526	18337	0	352
-15.507	-6.239	11865	18256	0	352
-15.507	-5.517	11865	17978	0	352
-12.694	-3.606	11865	17620	0	352
-10.278	1.298	12006	17385	0	352
-6.960	4.364	12147	17329	0	352
-3.246	6.852	12514	17422	0	352
-0.577	5.373	12712	17558	0	352
-0.613	2.272	13136	17675	0	352
-1.947	-1.623	13503	17885	0	352
-3.895	-3.065	13983	18188	0	352
-6.455	-2.921	14492	18448	0	352
-8.511	-1.839	15057	18578	0	352
-12.081	-1.803	15339	18596	0	352
-14.533	-3.498	15678	18578	0	352
-18.933	-6.527	16102	18590	0	352
-21.168	-8.763	16525	18633	0	352
-21.096	-10.566	16864	18652	0	352
-20.087	-12.477	17231	18516	0	352
-15.795	-13.163	17231	18083	0	352
-11.576	-13.343	17146	17379	0	352
-6.744	-10.963	17005	16742	0	352
-5.157	-9.881	17005	16354	0	352
-5.013	-7.104	17005	16057	0	352
-6.094	-4.868	17005	15760	0	352
-8.258	-3.426	16948	15470	0	352
-8.511	-1.587	16864	15210	0	352
-7.501	1.839	16948	15056	0	352
-4.436	5.409	17090	15130	0	352
1.623	11.287	17287	15427	0	352
7.753	15.651	17513	15705	0	352
11.504	17.093	17655	15785	0	352
9.953	15.723	17655	15668	0	352
5.986	13.235	17655	15457	0	352
-0.433	10.097	17570	15247	0	352
-4.183	10.746	17429	15031	0	352
-5.626	11.540	17146	14728	0	352
-6.852	10.169	16807	14339	0	352
-6.816	8.258	16525	14011	0	352
-5.986	5.734	16328	13844	0	352
-5.157	3.029	16187	13820	0	352
-4.183	3.282	15961	13838	0	352
-5.626	1.803	15763	13832	0	352
-13.487	0.216	15481	13783	0	352
-20.231	-1.623	15339	13745	0	352
-26.181	-1.623	15113	13770	0	352
-24.775	2.416	14831	13776	0	352
-19.834	7.248	14125	13406	0	352
-12.297	10.494	13136	12571	0	352
-5.265	11.287	12288	11687	0	352
-2.705	9.989	11243	11026	0	352
-0.757	7.285	10396	10581	0	352
-0.036	9.124	9605	10396	0	352
0.577	10.999	8899	10488	0	352
1.479	13.163	8418	10773	0	352
2.921	13.884	7853	11100	0	352
4.327	10.530	7430	11496	0	352
3.895	8.619	7204	12058	0	352
3.426	6.888	6865	12639	0	352
1.226	10.422	6582	13090	0	352
-0.433	12.586	6356	13572	0	352
-2.272	15.759	6159	14172	0	352
-1.659	14.930	6159	14827	0	352
0.000	12.586	6215	15550	0	352
1.983	10.638	6356	16378	0	352
1.046	7.393	6582	17199	0	352
-2.560	4.508	6780	17836	0	352
-6.383	3.750	6780	18102	0	352
-6.635	5.013	6723	18145	0	352
-4.183	9.340	6780	18324	0	352
0.541	12.550	6921	18707	0	352
2.488	12.261	7204	19121	0	352
0.288	5.698	7486	19554	0	352
-4.508	-0.938	7853	20011	0	352
-8.402	-7.321	8277	20432	0	352
-11.504	-8.222	8842	20833	0	352
-9.881	-5.878	9548	21359	0	352
-6.347	0.144	10311	21989	0	352
0.325	5.914	10961	22385	0	352
5.734	10.566	11243	22317	0	352
5.698	11.576	11582	21934	0	352
1.190	7.970	11723	21489	0	352
-6.058	0.577	12006	21044	0	352
-13.415	-7.248	12091	20524	1	712
-15.002	-12.586	11949	19882	0	712
-13.343	-14.172	11949	19196	0	712
-10.710	-11.937	11865	18621	0	712
-10.710	-8.799	11865	18126	0	712
-10.999	-7.357	11667	17589	0	712
-13.992	-6.563	11441	16952	0	712
-14.389	-8.979	11300	16323	0	712
-14.749	-7.609	11017	15834	0	712
-11.071	-6.094	10961	15556	0	712
-7.465	0.144	11017	15470	0	712
-2.705	5.517	10876	15470	0	712
1.226	9.665	10961	15420	0	712
0.974	8.547	10961	15340	0	712
-2.633	6.635	10820	15291	0	712
-9.268	2.452	10820	15253	0	712
-12.730	0.288	10820	15192	0	712
-14.208	0.216	10678	15105	0	712
-13.848	0.721	10678	15056	0	712
-12.586	0.288	10537	14975	0	712
-14.641	-1.406	10170	14753	0	712
-16.084	-4.472	9972	14493	0	712
-16.300	-7.285	10029	14518	0	712
-15.398	-9.665	9972	14784	0	712
-16.048	-8.186	9831	14901	0	712
-18.933	-7.068	9605	14771	0	712
-22.863	-6.094	9322	14555	0	712
-25.027	-5.337	9125	14413	0	712
-23.404	-6.455	8842	14407	0	712
-18.500	-6.563	8757	14506	0	712
-15.110	-5.842	8475	14555	0	712
-14.966	-3.354	8192	14450	0	712
-15.254	-1.370	7910	14363	0	712
-15.975	-0.108	7910	14462	0	712
-15.002	0.036	7769	14740	0	712
-12.982	-1.370	7769	15074	0	712
-12.514	-4.364	7712	15334	0	712
-17.202	-7.248	7627	15532	0	712
-22.863	-12.009	7627	15711	0	712
-26.109	-14.461	7486	15834	0	712
-22.935	-13.235	7571	15970	0	712
-15.038	-6.852	7627	16236	0	712
-3.931	-0.433	7712	16575	0	712
1.154	6.131	7769	16841	0	712
0.072	7.321	7769	16971	0	712
-5.337	4.724	7910	16995	0	712
-10.206	3.750	7769	16952	0	712
-10.638	2.957	7712	16890	0	712
-8.763	2.669	7571	16779	0	712
-6.347	2.452	7430	16643	0	712
-7.465	0.685	7204	16532	0	712
-9.629	-1.226	7147	16451	0	712
-11.900	-1.515	7062	16421	0	712
-11.504	-1.118	7147	16476	0	712
-8.006	-1.875	7006	16532	0	712
-6.780	-5.013	6921	16470	0	712
-7.537	-8.799	6780	16378	0	712
-9.737	-12.514	6723	16335	0	712
-11.792	-12.982	6639	16335	0	712
-10.025	-9.124	6639	16317	0	712
-5.734	-4.400	6441	16249	0	712
-2.416	-1.010	6215	16156	0	712
-4.147	-0.721	6215	16125	0	712
-7.825	-2.560	6300	16205	0	712
-10.710	-4.400	6215	16390	0	712
-10.386	-6.094	6356	16612	0	712
-6.996	-5.265	6441	16841	0	712
-1.190	-3.606	6723	17026	0	712
0.974	-1.370	6723	17175	0	712
1.839	1.442	6780	17311	0	712
2.777	5.337	6921	17385	0	712
3.570	8.258	7006	17416	0	712
5.337	9.448	7062	17397	0	712
4.364	8.511	6921	17224	0	712
1.334	2.957	6921	16989	0	712
-3.318	-1.262	7062	17026	0	712
-7.681	-5.481	7288	17317	0	712
-7.573	-3.714	7430	17533	0	712
-5.121	-0.325	7571	17564	0	712
-2.200	2.524	7769	17539	0	712
-0.793	2.308	7910	17589	0	712
-2.272	-0.144	7995	17620	0	712
-4.760	-2.488	7853	17335	0	712
-6.239	-3.895	7571	16779	0	712
-6.527	-3.714	7486	16414	0	712
-5.013	-2.200	7571	16458	0	712
-2.849	0.108	7910	16798	0	712
-0.036	3.859	8418	17323	0	712
0.469	8.078	8899	17922	0	712
-1.839	8.547	9464	18429	0	712
-5.986	5.842	9972	18825	0	712
-8.871	0.685	10537	19202	0	712
-10.638	-3.498	11102	19548	0	712
-8.222	-3.101	11582	19696	0	712
-4.904	2.200	11865	19585	0	712
-0.180	8.330	12232	19381	0	712
7.176	14.028	12430	19214	0	712
14.497	18.680	12797	19041	0	712
20.267	20.050	12995	18831	0	712
22.358	23.188	13221	18602	0	712
17.959	24.630	13503	18312	0	712
12.045	25.893	13277	17830	0	712
7.104	24.991	13221	17131	0	712
7.212	20.303	12938	16414	0	712
6.635	14.136	12938	15909	0	712
4.796	7.068	12797	15637	0	712
-1.406	0.036	12797	15550	0	712
-10.783	-5.842	12938	15525	0	712
-17.454	-9.232	12853	15414	0	712
-19.582	-12.550	12938	15247	0	712
-16.985	-11.756	12797	15118	0	712
-13.379	-10.458	12938	15080	0	712
-11.107	-8.547	12853	15105	0	712
-12.153	-7.393	12938	15136	0	712
-12.297	-8.186	12995	15179	0	712
-12.622	-6.563	12995	15272	0	712
-10.602	-2.777	13277	15470	0	712
-6.022	2.344	13418	15773	0	712
-4.003	5.770	13701	16106	0	712
-3.101	4.436	14068	16396	0	712
-5.301	2.128	14209	16612	0	712
-5.085	1.803	14407	16773	0	712
-2.885	4.544	14690	16909	0	712
2.741	11.215	14831	16958	0	712
8.258	14.461	14972	16915	0	712
8.511	14.389	14916	16767	0	712
6.708	11.612	14774	16402	0	712
3.967	9.592	14492	15884	0	712
3.570	7.537	14266	15396	0	712
3.498	8.006	13927	15012	0	712
3.931	7.032	13503	14561	0	712
0.180	7.645	12853	13925	0	712
-5.481	6.816	12288	13300	0	712
-11.720	5.950	11949	13010	0	712
-15.723	6.563	11582	13072	0	712
-17.346	5.662	11526	13282	0	712
-15.615	5.662	11384	13498	0	712
-10.566	8.294	11102	13671	0	712
-4.508	7.285	10961	13807	0	712
-1.082	5.554	10735	13912	0	712
-0.685	1.515	10452	14042	0	712
-2.921	-1.767	10396	14277	0	712
-3.859	-0.649	10396	14580	0	712
-1.623	3.859	10311	14901	0	712
5.301	10.494	10311	15284	0	712
11.251	16.877	10537	15760	0	712
14.966	20.123	10678	16261	0	712
14.821	20.555	10820	16649	0	712
12.189	21.241	10876	16934	0	712
12.225	22.431	11017	17168	0	712
14.894	26.217	11159	17372	0	712
19.654	31.626	11243	17521	0	712
25.171	37.829	11300	17595	0	712
27.912	40.137	11384	17613	0	712
27.624	37.468	11300	17558	0	712
23.260	31.049	11243	17366	0	712
18.572	24.017	10961	17063	0	712
12.802	18.067	10876	16822	0	712
6.744	16.012	10820	16723	0	712
2.452	15.254	10735	16717	0	712
0.216	15.254	10678	16699	0	712
1.587	14.858	10678	16631	0	712
5.517	13.884	10678	16600	0	712
8.042	13.163	10594	16674	0	712
4.616	8.006	10735	16816	0	712
-5.157	1.370	10876	16958	0	712
-16.949	-4.760	10678	16940	0	712
-22.755	-8.763	10594	16655	0	712
-19.906	-4.832	10311	16273	0	712
-9.665	4.255	10255	16094	0	712
2.344	11.937	10170	16156	0	712
9.665	16.661	10170	16242	0	712
11.215	16.372	10170	16286	0	712
10.530	14.425	10170	16304	0	712
9.809	11.107	10029	16273	0	712
9.232	12.441	9887	16174	0	712
10.710	15.182	9972	16168	0	712
9.737	18.572	10029	16341	0	712
6.347	17.779	10029	16445	0	712
-2.128	13.307	9746	16267	0	712
-11.900	3.714	9548	15915	0	712
-20.303	-6.563	9266	15618	0	712
-24.053	-11.900	9040	15451	0	712
-22.827	-14.172	8757	15278	0	712
-23.512	-13.812	8334	14975	0	712
-24.486	-14.064	7910	14580	0	712
-27.876	-12.838	7571	14333	0	712
-25.135	-8.943	7345	14320	0	712
-16.841	-3.101	7204	14487	0	712
-7.898	2.633	7062	14722	0	712
-3.354	5.157	6921	14944	0	712
-1.947	6.167	6921	15192	0	712
-0.108	8.114	7006	15513	0	712
6.744	10.602	7147	15896	0	712
15.290	13.307	7147	16261	0	712
16.949	9.448	7204	16501	0	712
9.989	2.885	7204	16674	0	712
-1.046	-4.400	7345	16835	0	712
-6.455	-5.590	7345	16983	0	712
-6.022	-3.137	7345	17100	0	712
-1.659	0.325	7430	17212	0	712
-1.551	-1.046	7486	17311	0	712
-7.753	-6.744	7430	17273	0	712
-15.254	-11.792	7345	17125	0	712
-17.166	-13.018	7288	17014	0	712
-13.271	-9.196	7204	16964	0	712
-6.491	-2.885	7204	16946	0	712
-2.488	0.036	7147	16890	0	712
-5.950	-0.252	7006	16711	0	712
-10.674	-3.246	6723	16390	0	712
-15.362	-6.131	6300	15909	0	712
-16.697	-6.599	5876	15365	0	712
-16.300	-4.652	5509	14975	0	712
-15.687	-2.813	5170	14808	0	712
-17.887	-2.128	4944	14740	0	712
-19.834	0.072	4661	14753	0	712
-22.250	0.938	4605	14895	0	712
-22.863	1.334	4520	15155	0	712
-23.657	2.813	4322	15352	0	712
-20.844	3.570	3955	15173	0	712
-16.012	6.275	3334	14506	0	712
-8.258	11.468	2401	13684	0	712
-1.767	16.480	1780	13090	0	712
1.839	18.969	1215	12868	0	712
2.849	18.572	791	12936	0	712
0.757	18.211	368	13059	0	712
-0.036	20.195	1	13134	0	712
-0.577	22.827	1	13375	0	712
0.000	25.532	1	13875	0	712
-0.541	24.883	1	14512	0	712
-1.911	21.024	1	15204	0	712
-3.462	18.933	1	15896	0	712
-5.481	17.093	142	16563	0	712
-7.357	16.120	368	17249	0	712
-10.819	14.100	707	17984	0	712
-12.874	10.963	1272	18775	0	712
-13.956	8.835	1921	19604	0	712
-10.783	9.376	2627	20364	0	712
-6.203	13.199	3192	20969	0	712
-2.380	16.805	3955	21501	0	712
-2.380	16.300	4746	22026	0	712
-4.940	13.487	5509	22527	0	712
-5.662	8.907	6300	22972	0	712
-3.642	7.212	7204	23318	0	712
-0.216	7.825	8051	23571	0	712
0.613	10.025	8983	23800	0	712
-3.498	8.835	9972	24078	0	712
-9.448	6.419	11017	24307	0	712
-10.783	4.724	11808	24325	0	712
-5.517	7.104	12712	24134	0	712
2.164	12.081	13418	23880	0	712
8.150	16.949	14266	23652	0	712
9.016	17.670	15113	23398	0	712
8.258	16.805	15820	23034	1	1012
7.285	13.668	16440	22552	0	1012
8.691	10.278	17005	21995	0	1012
7.681	6.275	17570	21377	0	1012
2.092	1.911	17994	20728	0	1012
-2.596	-0.865	18361	20024	0	1012
-4.977	0.433	18559	19239	0	1012
-0.505	3.787	18700	18411	0	1012
5.626	5.049	18841	17558	0	1012
9.665	5.409	18841	16705	0	1012
