neuroNicle FX2
D3F25R12
Bluetooth SPP
2023년 11월 9일 목요일
오후 3:32
time interval = 4msec
EEG1	EEG2	PPG	sdPPG	pulse	peak_interval(msec)
-19.005	-57.375	15794	14902	0	972
-21.781	-55.031	15781	15000	0	972
-20.014	-52.614	15768	14958	0	972
-22.070	-51.244	15753	14818	0	972
-20.375	-51.893	15729	14510	0	972
-20.880	-54.237	15709	14105	0	972
-25.820	-57.735	15689	13853	0	972
-28.273	-59.574	15672	13825	0	972
-30.869	-60.656	15656	13909	0	972
-31.410	-61.342	15646	14105	0	972
-31.482	-63.433	15636	14461	0	972
-35.629	-67.724	15629	14902	0	972
-41.327	-73.098	15622	15259	0	972
-46.556	-78.507	15617	15573	0	972
-48.720	-82.185	15613	15958	0	972
-49.910	-82.907	15610	16411	0	972
-49.116	-82.798	15610	16887	0	972
-51.280	-81.789	15612	17307	0	972
-51.028	-80.346	15610	17670	0	972
-49.585	-78.146	15613	17971	0	972
-47.746	-72.881	15612	18181	0	972
-41.868	-67.147	15609	18300	0	972
-39.344	-62.423	15613	18439	0	972
-38.478	-61.305	15614	18621	0	972
-40.894	-63.974	15613	18733	0	972
-44.392	-68.229	15614	18740	0	972
-44.969	-69.996	15613	18677	0	972
-41.868	-66.246	15610	18614	0	972
-34.547	-56.834	15612	18551	0	972
-27.696	-47.674	15610	18460	0	972
-24.847	-42.229	15609	18349	0	972
-25.676	-39.993	15605	18202	0	972
-28.561	-43.310	15605	18048	0	972
-28.056	-44.573	15605	17936	0	972
-28.237	-45.330	15604	17824	0	972
-28.597	-44.392	15598	17621	0	972
-31.049	-46.195	15593	17314	0	972
-33.610	-48.720	15588	17034	0	972
-36.170	-51.929	15584	16866	0	972
-34.620	-53.228	15579	16670	0	972
-31.735	-53.011	15567	16315	0	972
-29.607	-51.569	15557	15860	0	972
-28.705	-51.172	15548	15538	0	972
-29.354	-50.198	15540	15412	0	972
-28.020	-49.080	15538	15405	0	972
-27.479	-48.828	15531	15440	0	972
-27.443	-47.530	15528	15496	0	972
-23.981	-47.674	15527	15615	0	972
-21.204	-46.195	15526	15790	0	972
-16.697	-40.858	15527	16007	0	972
-10.746	-35.629	15528	16273	0	972
-6.094	-28.958	15532	16495	0	972
-3.390	-24.594	15532	16663	0	972
1.298	-21.926	15534	16810	0	972
4.291	-21.565	15538	16999	0	972
6.780	-19.978	15541	17202	0	972
7.753	-19.221	15542	17307	0	972
6.203	-18.428	15538	17146	0	972
5.517	-17.959	15532	16796	0	972
4.400	-17.995	15531	16558	0	972
6.744	-19.221	15527	16530	0	972
5.734	-21.204	15527	16593	0	972
2.380	-25.676	15531	16691	0	972
-1.803	-28.669	15532	16852	0	972
-4.616	-31.446	15537	17069	0	972
-4.796	-31.518	15541	17272	0	972
-1.803	-28.164	15553	17558	0	972
2.344	-24.198	15566	18076	0	972
4.147	-20.555	15581	18684	0	972
5.193	-17.418	15596	19118	0	972
7.934	-14.605	15610	19390	0	972
11.937	-10.999	15629	19733	0	972
20.591	-7.068	15650	20230	0	972
25.640	-0.757	15675	20796	0	972
32.636	4.760	15703	21363	0	972
36.098	7.285	15729	21866	0	972
34.944	8.078	15756	22202	0	972
35.521	4.940	15780	22411	0	972
35.449	3.750	15810	22677	0	972
36.928	4.688	15840	22950	0	972
38.767	8.402	15868	23104	0	972
40.750	13.776	15900	23251	0	972
36.819	14.713	15932	23481	0	972
28.814	11.612	15968	23761	0	972
18.752	5.662	16004	23992	0	972
9.412	-0.036	16039	24104	0	972
8.366	-2.019	16076	24104	0	972
10.855	0.757	16107	24041	0	972
11.576	4.616	16144	23943	0	972
11.179	4.436	16177	23824	0	972
3.101	1.983	16211	23656	0	972
-4.544	-3.859	16243	23390	1	964
-8.042	-9.196	16276	23097	0	964
-4.977	-8.619	16308	22852	0	964
-0.541	-6.455	16341	22607	0	964
4.436	-1.515	16365	22153	0	964
10.242	3.390	16384	21342	0	964
13.379	4.977	16399	20342	0	964
14.245	2.200	16418	19537	0	964
15.326	-2.705	16437	18992	0	964
12.838	-7.753	16455	18509	0	964
13.740	-8.943	16468	17901	0	964
15.254	-7.537	16481	17167	0	964
19.654	-3.714	16493	16558	0	964
22.755	-1.623	16509	16182	0	964
24.522	-1.262	16523	15909	0	964
21.313	-2.236	16537	15657	0	964
19.257	-4.472	16547	15322	0	964
13.776	-6.203	16552	14797	0	964
9.196	-8.078	16558	14259	0	964
6.022	-8.402	16566	13895	0	964
4.327	-6.744	16572	13720	0	964
6.563	-3.606	16580	13601	0	964
6.708	-2.705	16584	13405	0	964
9.052	-2.777	16589	13126	0	964
10.025	-4.832	16591	12930	0	964
10.386	-5.914	16596	12888	0	964
13.523	-6.022	16601	12972	0	964
17.995	-3.318	16609	13140	0	964
22.683	-0.252	16618	13294	0	964
26.614	1.731	16621	13405	0	964
29.318	3.101	16628	13552	0	964
30.400	3.246	16635	13762	0	964
32.312	3.246	16643	13958	0	964
36.531	5.986	16647	14056	0	964
39.055	8.330	16652	14105	0	964
39.163	8.979	16653	14161	0	964
37.541	9.520	16656	14203	0	964
32.672	7.068	16657	14210	0	964
30.689	5.554	16656	14161	0	964
29.968	4.291	16654	14077	0	964
31.338	2.560	16654	14056	0	964
32.997	1.046	16656	14133	0	964
35.016	-1.262	16654	14231	0	964
35.665	-0.829	16654	14245	0	964
38.154	-0.685	16651	14224	0	964
38.803	1.046	16649	14252	0	964
42.950	1.479	16649	14357	0	964
46.232	3.137	16649	14524	0	964
49.153	3.318	16649	14657	0	964
52.975	3.210	16648	14727	0	964
51.100	0.757	16647	14790	0	964
48.359	-0.649	16646	14902	0	964
50.523	-0.108	16647	15035	0	964
51.280	3.173	16647	15168	0	964
55.680	6.744	16646	15273	0	964
57.339	9.088	16643	15301	0	964
56.293	7.212	16638	15210	0	964
56.076	5.517	16630	15049	0	964
52.759	2.308	16625	14895	0	964
53.877	-0.433	16618	14776	0	964
52.362	-1.983	16610	14685	0	964
52.542	-2.596	16601	14566	0	964
53.552	0.721	16592	14419	0	964
57.194	4.977	16589	14426	0	964
60.440	9.160	16585	14685	0	964
61.955	11.323	16584	14972	0	964
61.846	9.412	16577	15035	0	964
59.719	9.737	16570	14923	0	964
60.620	10.494	16562	14818	0	964
63.938	14.100	16554	14825	0	964
66.282	17.093	16548	14881	0	964
68.049	18.572	16539	14860	0	964
66.571	18.031	16530	14748	0	964
60.440	15.543	16522	14720	0	964
57.555	12.946	16517	14853	0	964
57.735	12.658	16511	15028	0	964
59.502	13.415	16505	15126	0	964
63.397	15.038	16498	15140	0	964
63.397	15.146	16490	15126	0	964
61.774	14.100	16484	15147	0	964
55.788	9.665	16476	15245	0	964
51.965	6.419	16471	15378	0	964
46.412	4.039	16466	15461	0	964
43.202	4.291	16457	15496	0	964
40.137	4.940	16452	15545	0	964
39.344	6.780	16448	15650	0	964
37.613	8.294	16444	15797	0	964
36.314	8.475	16436	15874	0	964
35.557	6.960	16429	15860	0	964
33.393	7.898	16425	15846	0	964
33.934	8.799	16418	15902	0	964
32.564	10.963	16415	16014	0	964
32.239	13.379	16412	16140	0	964
29.246	12.081	16408	16266	0	964
27.515	9.484	16404	16357	0	964
29.571	7.789	16399	16390	0	964
31.554	9.376	16395	16384	0	964
34.043	11.035	16389	16322	0	964
32.961	12.117	16382	16175	0	964
25.604	10.169	16370	15930	0	964
18.464	5.445	16359	15608	0	964
11.576	2.272	16343	15273	0	964
10.458	1.082	16329	14986	0	964
9.484	-0.649	16317	14748	0	964
5.554	-3.606	16300	14475	0	964
-1.370	-10.097	16277	14077	0	964
-7.537	-14.894	16255	13594	0	964
-9.881	-19.401	16235	13203	0	964
-6.816	-19.149	16217	12958	0	964
-1.190	-19.834	16193	12755	0	964
-2.019	-23.693	16171	12489	0	964
-5.626	-27.479	16147	12245	0	964
-9.088	-31.374	16128	12182	0	964
-6.131	-28.561	16112	12357	0	964
0.902	-24.955	16100	12678	0	964
7.934	-21.277	16086	13014	0	964
9.412	-20.591	16071	13259	0	964
5.590	-23.224	16054	13364	0	964
5.193	-22.899	16038	13398	0	964
4.616	-20.700	16021	13538	0	964
5.049	-19.906	16009	13783	0	964
4.904	-21.637	15995	14056	0	964
-0.325	-25.965	15985	14371	0	964
-3.426	-27.912	15976	14776	0	964
-1.875	-26.217	15973	15322	0	964
4.111	-20.519	15969	15909	0	964
7.032	-17.995	15966	16371	0	964
6.058	-19.690	15961	16684	0	964
0.397	-25.820	15958	16964	0	964
-6.852	-29.282	15954	17265	0	964
-9.124	-28.237	15952	17586	0	964
-6.347	-22.972	15952	17866	0	964
-0.757	-19.113	15949	18062	0	964
1.515	-18.139	15949	18223	0	964
-2.164	-20.700	15948	18377	0	964
-6.635	-23.044	15945	18488	0	964
-8.294	-21.457	15942	18467	0	964
-6.419	-15.543	15934	18258	0	964
1.551	-8.294	15924	17894	0	964
7.285	-2.488	15914	17516	0	964
11.684	0.938	15905	17202	0	964
9.701	0.361	15897	17013	0	964
4.796	-2.993	15889	16922	0	964
-1.623	-6.455	15882	16838	0	964
-8.078	-8.619	15875	16684	0	964
-11.612	-8.330	15863	16453	0	964
-11.143	-4.940	15854	16217	0	964
-10.638	0.288	15846	16084	0	964
-8.871	3.859	15840	16077	0	964
-9.160	2.308	15832	16063	0	964
-15.254	-4.364	15824	15965	0	964
-22.719	-15.867	15816	15902	0	964
-34.980	-26.974	15809	15923	0	964
-44.609	-34.908	15803	15930	0	964
-46.195	-37.144	15794	15832	0	964
-41.796	-36.495	15785	15713	0	964
-36.711	-35.341	15780	15699	0	964
-31.482	-33.285	15775	15825	0	964
-26.145	-30.292	15773	16021	0	964
-21.421	-26.433	15770	16217	0	964
-16.480	-23.080	15770	16390	0	964
-10.530	-21.168	15767	16593	0	964
-10.746	-24.414	15770	16824	0	964
-16.949	-28.164	15772	17111	0	964
-18.860	-30.400	15776	17425	0	964
-17.634	-29.968	15778	17642	0	964
-9.701	-24.558	15780	17761	0	964
-1.803	-19.473	15782	17866	0	964
3.714	-19.077	15787	18013	0	964
3.498	-22.863	15792	18160	0	964
-3.210	-27.515	15792	18216	0	964
-5.265	-32.059	15795	18188	0	964
-4.868	-30.508	15800	18146	0	964
-0.541	-27.299	15800	18132	0	964
2.380	-25.748	15801	18090	0	964
4.436	-25.388	15806	18034	0	964
7.140	-27.010	15806	17992	0	964
14.208	-25.929	15810	17936	0	964
19.149	-25.820	15810	17831	0	964
19.546	-25.965	15813	17691	0	964
9.773	-26.866	15811	17530	0	964
-5.157	-28.345	15810	17363	0	964
-14.425	-27.876	15810	17181	0	964
-10.566	-25.929	15806	16922	0	964
0.505	-27.047	15801	16607	0	964
8.042	-32.600	15801	16467	0	964
3.137	-41.940	15808	16628	0	964
-9.592	-52.398	15815	16880	0	964
-23.368	-58.348	15818	17006	0	964
-25.965	-61.017	15821	17069	0	964
-22.431	-58.853	15828	17195	0	964
-15.326	-59.322	15838	17425	0	964
-16.444	-61.161	15848	17754	0	964
-23.260	-66.607	15862	18111	0	964
-35.233	-71.295	15876	18467	0	964
-49.080	-73.530	15892	18894	0	964
-66.138	-72.376	15915	19446	0	964
-88.640	-69.311	15940	20090	0	964
-108.979	-66.102	15968	20761	0	964
-131.626	-61.378	15996	21335	0	964
-144.212	-58.348	16025	21831	0	964
-152.146	-58.168	16058	22307	0	964
-163.830	-63.866	16090	22796	0	964
-175.442	-76.920	16124	23216	0	964
-190.660	-90.119	16157	23509	0	964
-194.879	-95.673	16189	23740	0	964
-189.903	-90.444	16226	23992	0	964
-175.298	-80.779	16264	24272	0	964
-162.568	-78.002	16302	24516	0	964
-157.591	-84.998	16340	24663	0	964
-161.522	-98.630	16377	24677	0	964
-160.332	-108.042	16410	24537	0	964
-152.146	-103.606	16446	24300	0	964
-134.764	-89.903	16477	24041	0	964
-119.726	-78.471	16510	23719	0	964
-116.444	-79.517	16538	23279	1	860
-129.138	-94.771	16563	22740	0	860
-148.972	-117.526	16592	22153	0	860
-162.387	-134.331	16615	21558	0	860
-154.345	-138.226	16640	21034	0	860
-136.603	-130.256	16665	20579	0	860
-120.195	-120.483	16686	20034	0	860
-115.831	-117.634	16701	19258	0	860
-125.856	-124.053	16710	18321	0	860
-138.154	-137.829	16721	17418	0	860
-139.740	-148.756	16729	16614	0	860
-133.466	-151.280	16735	15881	0	860
-122.286	-145.907	16739	15133	0	860
-112.586	-136.855	16742	14405	0	860
-107.645	-131.446	16748	13818	0	860
-101.875	-132.961	16751	13433	0	860
-93.617	-139.055	16757	13182	0	860
-82.041	-143.202	16759	12944	0	860
-72.160	-144.176	16764	12678	0	860
-64.407	-142.265	16766	12454	0	860
-61.233	-139.380	16768	12336	0	860
-60.692	-137.721	16773	12308	0	860
-58.240	-132.131	16775	12315	0	860
-51.064	-126.145	16778	12336	0	860
-43.996	-119.618	16782	12419	0	860
-36.928	-117.562	16788	12594	0	860
-30.941	-119.041	16793	12818	0	860
-29.174	-124.522	16797	13035	0	860
-26.542	-128.994	16799	13182	0	860
-29.499	-131.987	16801	13273	0	860
-36.928	-132.348	16804	13371	0	860
-43.707	-131.374	16807	13510	0	860
-46.772	-125.820	16809	13671	0	860
-38.550	-118.175	16810	13776	0	860
-24.811	-110.314	16809	13818	0	860
-10.710	-105.734	16806	13846	0	860
-10.025	-108.006	16809	13937	0	860
-17.382	-113.920	16806	14056	0	860
-31.554	-120.736	16801	14035	0	860
-37.757	-119.041	16791	13734	0	860
-31.446	-110.278	16778	13287	0	860
-16.552	-98.197	16768	13021	0	860
-6.780	-90.155	16761	12972	0	860
-3.750	-90.335	16749	12965	0	860
-10.350	-92.066	16738	12902	0	860
-16.805	-92.319	16724	12706	0	860
-18.500	-88.929	16705	12391	0	860
-13.054	-84.638	16691	12168	0	860
-8.799	-82.762	16677	12147	0	860
-5.554	-83.772	16666	12273	0	860
-4.580	-83.339	16654	12447	0	860
-7.862	-84.241	16642	12552	0	860
-14.281	-85.323	16628	12615	0	860
-18.680	-86.441	16618	12776	0	860
-19.401	-84.926	16610	13091	0	860
-9.989	-75.334	16600	13433	0	860
3.029	-64.299	16591	13678	0	860
9.701	-53.444	16579	13804	0	860
6.311	-50.884	16571	13958	0	860
-6.022	-53.516	16563	14245	0	860
-15.939	-57.014	16557	14608	0	860
-18.680	-57.807	16552	14972	0	860
-17.634	-56.798	16547	15252	0	860
-14.317	-56.149	16539	15454	0	860
-17.815	-55.824	16534	15636	0	860
-21.241	-56.834	16529	15874	0	860
-25.784	-56.581	16525	16140	0	860
-27.299	-54.922	16522	16364	0	860
-27.047	-52.687	16519	16586	0	860
-23.224	-48.503	16520	16908	0	860
-19.582	-44.645	16523	17293	0	860
-13.343	-41.652	16524	17642	0	860
-13.740	-40.822	16523	17824	0	860
-15.939	-41.363	16522	17866	0	860
-23.440	-44.897	16520	17873	0	860
-25.965	-45.041	16517	17838	0	860
-23.008	-44.176	16506	17551	0	860
-14.677	-39.776	16494	16985	0	860
-3.895	-37.865	16480	16432	0	860
0.433	-37.757	16467	16042	0	860
-1.875	-42.842	16452	15678	0	860
-6.816	-47.890	16436	15322	0	860
-9.448	-49.946	16425	15035	0	860
-9.196	-45.691	16410	14846	0	860
-5.337	-38.947	16399	14734	0	860
-6.239	-35.341	16388	14685	0	860
-12.586	-37.721	16379	14664	0	860
-21.709	-43.022	16368	14678	0	860
-28.273	-48.503	16360	14727	0	860
-32.023	-50.992	16350	14804	0	860
-35.233	-48.143	16343	14909	0	860
-40.137	-44.789	16336	15077	0	860
-46.520	-41.399	16336	15426	0	860
-52.218	-38.406	16336	15902	0	860
-51.064	-38.262	16334	16252	0	860
-50.054	-39.199	16326	16301	0	860
-48.576	-41.219	16316	16077	0	860
-50.054	-42.229	16303	15783	0	860
-58.024	-41.435	16292	15587	0	860
-66.787	-39.668	16283	15545	0	860
-79.625	-39.596	16274	15545	0	860
-96.899	-43.202	16264	15503	0	860
-111.504	-44.753	16255	15461	0	860
-117.454	-43.419	16245	15447	0	860
-113.668	-37.685	16233	15398	0	860
-102.813	-30.761	16222	15259	0	860
-94.302	-28.092	16210	15105	0	860
-94.483	-30.112	16200	15056	0	860
-100.216	-35.918	16191	15161	0	860
-99.567	-37.757	16187	15378	0	860
-92.319	-34.006	16179	15608	0	860
-79.156	-28.850	16174	15755	0	860
-67.977	-25.748	16168	15874	0	860
-65.885	-27.119	16167	16077	0	860
-69.816	-31.735	16165	16357	0	860
-72.521	-37.829	16164	16628	0	860
-71.944	-40.534	16162	16810	0	860
-66.174	-41.183	16155	16887	0	860
-59.719	-39.380	16153	16880	0	860
-52.903	-38.009	16145	16768	0	860
-49.513	-34.764	16136	16586	0	860
-46.304	-33.249	16128	16432	0	860
-40.930	-32.564	16121	16357	0	860
-37.505	-30.725	16112	16259	0	860
-33.285	-30.725	16103	16112	0	860
-30.545	-31.915	16096	16021	0	860
-30.545	-36.206	16090	16056	0	860
-30.653	-40.209	16082	16042	0	860
-28.741	-41.327	16069	15790	0	860
-24.739	-36.891	16058	15447	0	860
-23.116	-29.823	16047	15273	0	860
-20.952	-24.342	16043	15384	0	860
-24.883	-25.027	16039	15678	0	860
-30.184	-31.158	16035	15888	0	860
-34.367	-37.180	16025	15839	0	860
-35.846	-39.091	16014	15629	0	860
-33.105	-36.026	16004	15433	0	860
-30.941	-31.266	15993	15329	0	860
-30.653	-29.210	15986	15322	0	860
-34.043	-31.374	15977	15384	0	860
-39.235	-36.675	15972	15461	0	860
-43.779	-41.688	15964	15538	0	860
-44.140	-42.084	15957	15622	0	860
-41.147	-38.226	15952	15706	0	860
-34.187	-30.184	16244	14084	0	800
37.432	-4.003	16227	14056	0	800
41.940	-1.046	16212	14049	0	800
39.812	-4.796	16200	14133	0	800
33.826	-11.143	16188	14322	0	800
25.316	-18.500	16178	14545	0	800
20.447	-21.204	16167	14741	0	800
22.395	-18.175	16158	14937	0	800
25.712	-11.937	16149	15175	0	800
28.273	-5.590	16144	15496	0	800
29.174	-3.931	16136	15839	0	800
26.542	-5.193	16130	16084	0	800
21.890	-7.825	16124	16203	0	800
20.664	-10.566	16115	16294	0	800
19.906	-9.376	16109	16453	0	800
19.834	-8.402	16103	16635	0	800
20.447	-7.140	16097	16747	0	800
18.500	-9.701	16091	16782	0	800
19.041	-11.540	16081	16782	0	800
18.392	-11.864	16076	16796	0	800
19.005	-10.242	16069	16845	0	800
20.447	-6.094	16063	16880	0	800
19.077	-2.236	16057	16887	0	800
17.166	-3.065	16050	16873	0	800
15.218	-6.094	16043	16859	0	800
12.550	-10.855	16038	16831	0	800
13.812	-13.812	16029	16761	0	800
13.704	-14.605	16021	16663	0	800
19.690	-11.071	16012	16530	0	800
24.558	-9.484	16000	16287	0	800
29.174	-9.340	15987	15979	0	800
31.843	-10.386	15978	15846	0	800
29.823	-12.514	15971	15881	0	800
28.850	-13.379	15961	15874	0	800
26.145	-13.812	15950	15755	0	800
26.758	-13.668	15940	15622	0	800
28.777	-14.317	15932	15566	0	800
29.318	-15.435	15925	15664	0	800
29.859	-15.471	15924	15944	0	800
27.587	-13.271	15928	16357	0	800
27.299	-11.864	15929	16810	0	800
26.794	-9.917	15937	17342	0	800
28.814	-6.852	15949	17971	0	800
30.148	-6.816	15962	18663	0	800
28.994	-6.527	15976	19335	0	800
24.306	-9.376	15995	19943	0	800
19.149	-16.264	16012	20523	0	800
12.477	-23.981	16034	21062	0	800
11.143	-28.201	16053	21530	0	800
13.740	-27.587	16078	21985	0	800
18.392	-22.286	16102	22467	0	800
26.361	-13.740	16130	22971	0	800
34.043	-5.121	16160	23502	0	800
39.344	-0.361	16197	24090	0	800
40.894	2.056	16233	24684	0	800
42.157	1.406	16273	25209	0	800
42.048	-3.173	16312	25649	0	800
42.048	-5.337	16353	26020	0	800
46.953	-5.734	16393	26300	0	800
47.890	-3.787	16432	26460	0	800
46.664	-4.291	16472	26495	0	800
43.310	-4.039	16513	26439	0	800
39.163	-4.291	16551	26272	0	800
37.216	-2.741	16584	25894	0	800
39.091	-0.613	16614	25314	0	800
40.606	-0.974	16643	24649	1	760
38.478	-4.219	16668	23936	0	760
33.610	-9.917	16694	23195	0	760
29.138	-12.225	16715	22439	0	760
25.532	-11.360	16738	21677	0	760
25.604	-9.268	16761	20985	0	760
25.207	-7.717	16785	20446	0	760
22.395	-10.999	16810	20041	0	760
17.923	-15.435	16831	19607	0	760
10.999	-20.123	16854	19083	0	760
9.052	-22.070	16874	18586	0	760
7.862	-21.349	16896	18209	0	760
9.232	-17.526	16917	17908	0	760
11.179	-14.569	16939	17642	0	760
13.127	-12.297	16959	17363	0	760
13.668	-9.881	16981	17132	0	760
11.432	-9.556	17003	17006	0	760
12.189	-9.773	17029	17020	0	760
9.701	-11.864	17054	17118	0	760
8.042	-13.631	17077	17167	0	760
10.855	-12.766	17101	17097	0	760
13.920	-9.340	17122	16978	0	760
18.680	-2.633	17143	16929	0	760
25.352	3.931	17165	16908	0	760
29.030	8.222	17186	16817	0	760
27.515	7.609	17203	16628	0	760
24.089	4.688	17218	16371	0	760
19.185	0.757	17229	16021	0	760
13.559	-2.236	17237	15573	0	760
15.002	-1.623	17241	15028	0	760
15.903	1.370	17247	14510	0	760
18.752	3.498	17249	14056	0	760
17.346	3.065	17249	13636	0	760
17.490	1.190	17253	13273	0	760
16.372	0.325	17254	12986	0	760
20.844	0.469	17251	12748	0	760
23.549	2.596	17251	12489	0	760
24.702	3.606	17247	12238	0	760
24.053	5.121	17246	12028	0	760
18.139	5.265	17242	11874	0	760
19.329	5.626	17236	11755	0	760
21.421	3.750	17232	11657	0	760
23.621	1.154	17225	11559	0	760
28.201	-2.019	17218	11461	0	760
28.561	-3.354	17213	11468	0	760
30.220	0.252	17206	11587	0	760
33.898	4.147	17202	11713	0	760
37.541	8.547	17194	11797	0	760
41.832	9.376	17186	11860	0	760
44.284	10.314	17179	11937	0	760
47.277	10.133	17172	12056	0	760
48.431	10.855	17164	12224	0	760
48.251	12.910	17158	12371	0	760
50.487	16.877	17146	12461	0	760
49.657	19.293	17135	12503	0	760
49.982	19.041	17119	12378	0	760
46.664	16.589	17103	12168	0	760
41.724	10.494	17089	12126	0	760
37.252	4.760	17076	12287	0	760
33.574	1.947	17068	12517	0	760
31.626	0.974	17059	12825	0	760
30.436	0.108	17055	13273	0	760
26.181	-2.452	17051	13811	0	760
23.044	-6.275	17049	14308	0	760
21.781	-7.573	17046	14748	0	760
25.748	-7.537	17044	15168	0	760
28.705	-6.094	17044	15573	0	760
30.148	-5.950	17044	15951	0	760
31.085	-7.357	17044	16343	0	760
29.859	-7.573	17045	16677	0	760
32.997	-6.275	17044	16894	0	760
36.819	-4.183	17041	17013	0	760
39.596	-2.452	17038	17097	0	760
39.055	-3.787	17035	17146	0	760
39.127	-7.465	17032	17132	0	760
38.406	-8.078	17027	17041	0	760
41.111	-8.619	17015	16789	0	760
43.599	-7.681	17006	16446	0	760
42.878	-8.619	17000	16280	0	760
39.380	-12.081	16993	16336	0	760
34.908	-15.362	16990	16390	0	760
33.213	-17.057	16982	16315	0	760
34.223	-14.461	16973	16112	0	760
36.459	-9.376	16963	15895	0	760
36.928	-6.203	16954	15734	0	760
36.387	-5.121	16945	15636	0	760
35.016	-4.868	16934	15524	0	760
34.295	-6.708	16924	15308	0	760
35.269	-6.960	16910	15035	0	760
35.810	-7.032	16896	14804	0	760
36.134	-6.347	16883	14650	0	760
34.764	-4.940	16871	14531	0	760
34.583	-3.534	16855	14371	0	760
35.485	-1.983	16840	14182	0	760
34.583	-3.318	16824	13993	0	760
34.043	-6.816	16807	13783	0	760
34.764	-11.287	16791	13587	0	760
34.980	-13.812	16772	13412	0	760
36.314	-13.740	16749	13140	0	760
38.226	-11.107	16723	12734	0	760
40.317	-5.770	16701	12461	0	760
40.894	-4.580	16682	12412	0	760
40.389	-5.626	16662	12454	0	760
36.206	-11.215	16643	12531	0	760
31.879	-16.949	16623	12629	0	760
27.804	-21.060	16605	12713	0	760
26.614	-22.070	16591	12881	0	760
26.470	-20.159	16580	13315	0	760
27.551	-19.437	16575	13951	0	760
24.847	-19.221	16565	14482	0	760
20.087	-20.627	16551	14727	0	760
14.100	-23.729	16538	14804	0	760
8.655	-26.650	16524	14888	0	760
4.977	-29.895	16511	15021	0	760
3.678	-32.276	16496	15119	0	760
5.157	-30.581	16485	15182	0	760
8.078	-28.597	16470	15287	0	760
9.160	-25.820	16460	15426	0	760
11.071	-24.089	16447	15580	0	760
9.268	-23.476	16438	15776	0	760
10.891	-22.899	16427	15972	0	760
13.091	-19.077	16418	16063	0	760
19.618	-13.595	16403	16021	0	760
25.856	-9.340	16384	15748	0	760
32.203	-4.724	16363	15287	0	760
34.944	-2.813	16341	14937	0	760
33.502	-1.154	16324	14797	0	760
31.554	0.000	16307	14769	0	760
30.508	0.361	16296	14867	0	760
28.886	-0.469	16284	15147	0	760
28.705	-1.190	16278	15531	0	760
25.965	-3.534	16270	15888	0	760
22.250	-5.481	16265	16210	0	760
23.080	-4.868	16260	16502	0	760
23.476	-4.111	16257	16838	0	760
29.679	-0.216	16255	17181	0	760
35.413	3.282	16253	17474	0	760
37.108	4.075	16251	17698	0	760
34.259	2.741	16249	17908	0	760
28.273	-3.137	16249	18104	0	760
22.358	-10.494	16246	18251	0	760
17.526	-14.317	16243	18265	0	760
18.572	-13.848	16234	18090	0	760
19.005	-8.979	16225	17768	0	760
19.401	-3.318	16214	17356	0	760
18.247	0.433	16198	16929	0	760
15.939	-1.406	16188	16579	0	760
15.615	-4.580	16177	16378	0	760
19.113	-7.321	16168	16238	0	760
20.339	-6.671	16154	16077	0	760
24.847	-4.327	16144	15832	0	760
28.886	-2.308	16129	15552	0	760
34.367	2.019	16119	15364	0	760
39.380	4.003	16107	15322	0	760
43.563	5.373	16098	15329	0	760
42.193	2.669	16086	15273	0	760
37.396	-2.019	16078	15203	0	760
32.456	-6.058	16067	15217	0	760
32.636	-5.554	16061	15350	0	760
38.731	1.839	16058	15580	0	760
46.340	10.819	16053	15867	0	760
53.191	19.185	16055	16231	0	760
54.093	21.962	16059	16712	0	760
53.191	20.050	16067	17321	0	760
49.441	17.129	16078	17950	0	760
46.123	12.550	16088	18551	0	760
45.005	8.258	16104	19174	0	760
42.337	6.491	16122	19866	0	760
40.065	4.977	16146	20649	0	760
37.072	4.219	16169	21488	0	760
32.023	1.515	16200	22279	0	760
26.289	-0.288	16229	22992	0	760
23.729	-3.462	16260	23656	0	760
23.585	-3.823	16296	24300	0	760
23.476	-3.534	16332	24929	0	760
23.837	-4.616	16372	25523	0	760
23.945	-5.698	16409	26027	0	760
22.431	-7.970	16448	26411	0	760
22.358	-7.862	16490	26670	0	760
24.558	-7.717	16530	26831	0	760
21.673	-7.717	16570	26866	0	760
19.185	-11.143	16608	26768	0	760
15.362	-14.533	16646	26614	0	760
13.163	-17.634	16685	26411	0	760
10.783	-18.356	16724	26181	0	760
13.271	-17.202	16764	26020	1	740
12.982	-16.120	16807	25950	0	740
12.369	-16.336	16847	25754	0	740
14.569	-16.589	16882	25265	0	740
14.749	-16.048	16912	24544	0	740
15.146	-15.002	16941	23782	0	740
16.228	-16.228	16973	23104	0	740
10.242	-20.664	17002	22495	0	740
5.517	-27.047	17027	21817	0	740
-0.180	-32.961	17050	20985	0	740
-2.885	-34.620	17072	20132	0	740
-3.823	-34.475	17091	19356	0	740
-6.780	-34.115	17108	18635	0	740
-9.917	-35.052	17126	17929	0	740
-13.704	-37.793	17141	17230	0	740
-14.641	-39.704	17156	16593	0	740
-16.084	-42.193	17172	16091	0	740
-11.396	-40.822	17187	15720	0	740
-9.376	-37.757	17206	15440	0	740
-6.816	-33.970	17220	15175	0	740
-5.265	-31.554	17234	14916	0	740
-2.128	-30.472	17251	14713	0	740
-0.288	-31.194	17266	14615	0	740
4.291	-30.292	17284	14615	0	740
10.783	-24.558	17299	14622	0	740
15.435	-19.257	17311	14510	0	740
18.933	-16.156	17321	14266	0	740
15.867	-17.238	17332	14063	0	740
13.451	-19.437	17341	13951	0	740
8.619	-23.693	17350	13839	0	740
5.265	-24.630	17357	13713	0	740
3.823	-23.152	17363	13573	0	740
5.157	-20.664	17364	13322	0	740
9.881	-16.336	17364	13028	0	740
12.766	-14.533	17371	12937	0	740
12.730	-14.461	17378	13105	0	740
13.956	-15.182	17380	13259	0	740
10.783	-16.877	17385	13252	0	740
8.691	-17.887	17389	13238	0	740
11.035	-18.572	17393	13364	0	740
10.674	-21.204	17400	13594	0	740
8.042	-27.083	17401	13734	0	740
5.373	-30.112	17400	13622	0	740
7.140	-30.581	17393	13294	0	740
9.773	-29.174	17387	12937	0	740
14.317	-24.883	17378	12650	0	740
21.493	-23.224	17366	12426	0	740
20.447	-24.630	17358	12224	0	740
19.473	-27.263	17345	12000	0	740
13.379	-31.266	17333	11811	0	740
10.999	-35.305	17321	11706	0	740
7.321	-38.803	17311	11713	0	740
6.996	-43.347	17302	11783	0	740
8.619	-45.402	17289	11846	0	740
12.622	-45.727	17278	11909	0	740
17.274	-44.825	17269	12021	0	740
22.395	-44.501	17258	12196	0	740
26.145	-48.431	17250	12419	0	740
26.542	-57.266	17240	12643	0	740
25.893	-72.521	17230	12853	0	740
21.709	-87.883	17222	13105	0	740
21.241	-100.000	17217	13419	0	740
22.972	-106.744	17210	13748	0	740
23.152	-107.717	17203	14007	0	740
24.089	-107.789	17194	14196	0	740
22.322	-110.819	17187	14364	0	740
15.723	-117.021	17179	14545	0	740
13.848	-121.349	17173	14783	0	740
14.353	-123.657	17172	15126	0	740
15.651	-122.719	17164	15426	0	740
18.392	-121.962	17155	15461	0	740
17.598	-121.890	17141	15245	0	740
16.589	-122.467	17125	14958	0	740
17.093	-120.808	17111	14734	0	740
20.591	-117.057	17098	14615	0	740
22.214	-113.668	17081	14531	0	740
23.873	-113.631	17067	14419	0	740
24.811	-113.992	17051	14273	0	740
21.565	-115.182	17034	14161	0	740
22.791	-112.153	17019	14133	0	740
26.001	-107.898	17007	14182	0	740
28.020	-102.596	16993	14266	0	740
31.735	-96.718	16981	14308	0	740
32.420	-93.076	16965	14350	0	740
31.807	-90.768	16954	14454	0	740
32.276	-90.732	16945	14657	0	740
33.538	-91.309	16936	14923	0	740
35.160	-93.401	16928	15161	0	740
36.351	-91.634	16919	15350	0	740
35.341	-86.332	16912	15587	0	740
34.439	-79.373	16909	15965	0	740
35.016	-73.206	16905	16357	0	740
36.567	-69.023	16901	16600	0	740
38.226	-72.160	16897	16733	0	740
35.341	-77.930	16890	16838	0	740
30.400	-87.018	16883	16894	0	740
23.585	-93.365	16876	16852	0	740
18.067	-95.564	16864	16726	0	740
19.690	-93.761	16857	16586	0	740
24.306	-88.316	16844	16439	0	740
26.217	-83.592	16835	16308	0	740
24.414	-79.913	16824	16189	0	740
19.401	-79.769	16812	16056	0	740
12.514	-79.373	16800	15916	0	740
9.773	-79.048	16788	15741	0	740
12.658	-78.868	16776	15538	0	740
14.677	-76.163	16759	15329	0	740
18.572	-73.855	16744	15119	0	740
20.050	-70.357	16730	14909	0	740
26.109	-65.164	16713	14692	0	740
30.905	-59.791	16692	14384	0	740
36.459	-53.660	16673	14021	0	740
39.163	-51.388	16657	13860	0	740
40.281	-51.569	16643	13965	0	740
37.468	-54.093	16630	14147	0	740
35.593	-57.014	16618	14245	0	740
33.646	-57.375	16604	14273	0	740
31.987	-58.240	16589	14301	0	740
31.446	-58.384	16578	14398	0	740
28.633	-59.647	16565	14552	0	740
30.004	-62.099	16556	14706	0	740
28.958	-60.296	16542	14811	0	740
30.905	-58.204	16533	14958	0	740
31.662	-54.093	16520	15133	0	740
31.338	-51.533	16510	15259	0	740
30.869	-51.821	16498	15287	0	740
27.191	-53.552	16485	15287	0	740
27.479	-55.391	16472	15315	0	740
29.895	-54.309	16461	15391	0	740
35.413	-50.703	16453	15545	0	740
42.589	-45.041	16444	15776	0	740
45.763	-40.173	16436	15909	0	740
48.792	-39.091	16418	15769	0	740
44.573	-38.947	16401	15426	0	740
40.534	-41.688	16385	15196	0	740
35.665	-43.347	16372	15140	0	740
32.528	-46.340	16360	15091	0	740
29.931	-48.503	16341	14993	0	740
27.263	-51.280	16324	14832	0	740
28.201	-51.857	16307	14636	0	740
30.869	-49.116	16291	14538	0	740
35.846	-43.887	16274	14552	0	740
43.815	-39.344	16262	14608	0	740
45.510	-37.432	16245	14671	0	740
43.202	-40.462	16229	14615	0	740
38.118	-43.743	16214	14510	0	740
34.547	-48.107	16202	14671	0	740
33.934	-48.395	16195	15105	0	740
35.521	-48.828	16188	15468	0	740
35.160	-48.972	16174	15531	0	740
30.256	-50.054	16158	15412	0	740
26.578	-49.549	16146	15364	0	740
25.893	-47.999	16136	15503	0	740
28.201	-44.969	16128	15734	0	740
28.814	-43.383	16119	15923	0	740
27.587	-45.366	16107	16007	0	740
23.368	-47.926	16101	16119	0	740
19.978	-48.684	16092	16301	0	740
17.779	-46.087	16086	16453	0	740
20.267	-39.272	16078	16558	0	740
19.041	-34.151	16072	16642	0	740
16.336	-29.931	16064	16754	0	740
12.297	-29.463	16060	16915	0	740
9.232	-29.030	16059	17146	0	740
11.937	-25.604	16058	17439	0	740
15.795	-21.637	16058	17726	0	740
23.693	-17.057	16058	17971	0	740
26.145	-15.687	16061	18244	0	740
25.856	-15.362	16069	18628	0	740
25.063	-14.533	16078	19111	0	740
22.972	-12.477	16087	19558	0	740
24.450	-6.671	16093	19789	0	740
27.083	-0.721	16102	19838	0	740
28.056	7.898	16111	19978	0	740
25.171	18.788	16125	20300	0	740
24.594	30.364	16140	20691	0	740
19.798	39.560	16159	21111	0	740
16.228	43.527	16181	21586	0	740
18.500	45.546	16206	22097	0	740
20.736	46.989	16234	22698	0	740
25.099	53.155	16272	23502	0	740
27.696	61.378	16310	24363	0	740
25.784	70.970	16346	24964	0	740
23.909	77.137	16383	25286	0	740
24.089	81.248	16417	25509	0	740
25.243	87.162	16453	25691	0	740
29.102	92.968	16491	25845	0	740
31.374	97.656	16530	25971	0	740
30.689	101.190	16565	25964	0	740
30.112	101.479	16601	25782	0	740
29.535	97.007	16635	25530	0	740
28.922	93.869	16670	25272	0	740
28.381	89.181	16706	24992	1	768
26.938	84.962	16738	24677	0	768
26.289	80.887	16772	24307	0	768
28.164	78.435	16804	23901	0	768
28.525	79.228	16838	23516	0	768
30.292	80.779	16868	23125	0	768
31.158	82.726	16898	22642	0	768
27.876	81.825	16924	22034	0	768
24.378	75.766	16948	21370	0	768
18.933	71.475	16976	20796	0	768
17.382	67.616	17001	20363	0	768
16.048	67.472	17029	20013	0	768
18.969	67.869	17057	19642	0	768
17.238	65.236	17079	19251	0	768
15.435	61.125	17107	18894	0	768
10.746	57.447	17130	18544	0	768
10.674	57.158	17149	18097	0	768
12.802	59.178	17167	17537	0	768
16.877	59.034	17180	16908	0	768
22.431	56.365	17192	16266	0	768
23.440	49.730	17206	15762	0	768
25.424	43.599	17222	15454	0	768
26.758	38.298	17236	15231	0	768
28.309	33.754	17249	14979	0	768
27.335	29.282	17260	14643	0	768
28.273	25.135	17269	14280	0	768
27.984	22.683	17279	14000	0	768
29.210	24.414	17289	13853	0	768
30.328	26.614	17299	13818	0	768
29.571	27.551	17314	13867	0	768
29.895	21.818	17322	13874	0	768
30.328	12.045	17332	13839	0	768
32.816	-1.623	17345	13930	0	768
33.502	-15.939	17358	14203	0	768
32.131	-28.994	17375	14496	0	768
26.938	-40.101	17384	14629	0	768
20.844	-48.684	17390	14552	0	768
18.356	-55.211	17400	14433	0	768
19.582	-61.017	17404	14378	0	768
18.500	-65.200	17408	14252	0	768
16.841	-71.403	17407	14014	0	768
11.828	-78.255	17408	13790	0	768
6.960	-81.789	17407	13643	0	768
8.330	-84.025	17409	13552	0	768
13.451	-83.159	17411	13559	0	768
18.356	-79.120	17412	13629	0	768
22.972	-74.793	17414	13664	0	768
25.568	-69.347	17416	13706	0	768
26.037	-64.046	17418	13825	0	768
28.994	-61.414	17422	14028	0	768
28.814	-61.486	17425	14252	0	768
26.073	-65.164	17427	14384	0	768
20.375	-68.626	17425	14398	0	768
16.156	-71.114	17425	14364	0	768
13.127	-69.780	17423	14364	0	768
13.163	-68.987	17422	14391	0	768
11.504	-71.727	17417	14343	0	768
8.583	-76.956	17409	14084	0	768
8.691	-82.907	17397	13671	0	768
8.583	-83.015	17384	13315	0	768
11.396	-77.714	17373	13098	0	768
19.365	-66.931	17361	12993	0	768
22.250	-59.070	17349	12895	0	768
26.578	-56.509	17333	12643	0	768
27.660	-58.925	17316	12266	0	768
29.499	-63.758	17297	11993	0	768
28.633	-68.554	17279	11881	0	768
23.549	-71.078	17266	11902	0	768
17.634	-76.019	17253	12035	0	768
10.350	-80.058	17240	12182	0	768
5.301	-83.988	17226	12252	0	768
4.327	-86.693	17211	12364	0	768
7.970	-87.919	17202	12636	0	768
7.789	-86.946	17193	13028	0	768
7.248	-85.575	17184	13426	0	768
5.445	-83.411	17177	13783	0	768
2.813	-82.402	17170	14119	0	768
1.118	-80.887	17161	14384	0	768
0.036	-82.005	17146	14371	0	768
-1.731	-83.123	17126	14098	0	768
-1.947	-80.959	17110	13867	0	768
-1.767	-76.415	17094	13860	0	768
-0.685	-68.193	17081	14021	0	768
1.190	-57.158	17072	14294	0	768
4.364	-45.763	17063	14629	0	768
6.924	-35.305	17054	14923	0	768
12.477	-30.364	17044	15098	0	768
16.589	-27.155	17032	15189	0	768
21.601	-25.712	17025	15357	0	768
23.693	-19.942	17017	15622	0	768
27.047	-11.360	17010	15832	0	768
30.400	-0.613	17001	15972	0	768
32.925	6.419	16995	16112	0	768
36.531	7.429	16988	16273	0	768
39.740	4.039	16977	16315	0	768
40.101	0.829	16959	16021	0	768
37.000	-1.370	16939	15482	0	768
33.033	-1.659	16916	14993	0	768
27.299	-0.072	16895	14566	0	768
22.034	0.685	16871	14133	0	768
19.113	-1.370	16850	13839	0	768
19.906	-6.203	16833	13755	0	768
17.995	-14.425	16814	13783	0	768
19.365	-25.243	16795	13734	0	768
17.815	-35.233	16775	13608	0	768
18.824	-40.606	16758	13643	0	768
16.949	-40.714	16747	13902	0	768
19.149	-38.983	16734	14231	0	768
16.552	-38.731	16721	14496	0	768
16.120	-42.553	16710	14678	0	768
13.091	-46.664	16696	14832	0	768
13.235	-47.746	16687	15014	0	768
13.271	-42.770	16675	15224	0	768
15.146	-32.239	16664	15412	0	768
20.123	-19.906	16652	15531	0	768
24.522	-9.052	16640	15629	0	768
30.761	2.885	16630	15769	0	768
35.665	12.405	16623	15979	0	768
40.281	19.401	16614	16196	0	768
41.760	21.313	16604	16315	0	768
43.310	22.431	16595	16357	0	768
48.179	24.270	16584	16390	0	768
49.982	30.545	16577	16481	0	768
50.631	38.045	16567	16593	0	768
50.523	42.806	16560	16663	0	768
44.176	43.707	16551	16663	0	768
37.432	38.911	16541	16635	0	768
33.033	32.816	16530	16593	0	768
29.715	29.282	16519	16495	0	768
28.741	27.587	16506	16322	0	768
27.263	25.027	16492	16098	0	768
26.145	24.378	16480	15930	0	768
20.303	21.385	16467	15804	0	768
16.156	18.860	16452	15692	0	768
15.254	17.382	16441	15566	0	768
14.064	15.687	16425	15454	0	768
15.687	14.389	16412	15308	0	768
17.634	10.314	16391	15014	0	768
16.516	5.806	16375	14685	0	768
19.041	3.642	16363	14587	0	768
20.664	2.236	16350	14720	0	768
23.801	4.255	16337	14839	0	768
27.660	6.708	16324	14839	0	768
27.515	9.701	16312	14811	0	768
27.768	7.068	16298	14832	0	768
26.902	2.308	16284	14909	0	768
26.650	-4.580	16274	15000	0	768
25.279	-10.783	16258	14993	0	768
25.532	-10.710	16241	14832	0	768
23.549	-9.845	16225	14650	0	768
21.421	-7.248	16211	14594	0	768
17.923	-6.239	16193	14615	0	768
19.401	-3.318	16178	14601	0	768
18.716	2.596	16164	14552	0	768
20.627	7.393	16144	14419	0	768
18.392	8.078	16119	14063	0	768
16.228	3.101	16092	13566	0	768
9.845	-5.265	16069	13273	0	768
8.258	-9.989	16048	13231	0	768
8.691	-10.278	16028	13287	0	768
10.746	-8.871	16014	13426	0	768
11.540	-6.960	15997	13671	0	768
10.278	-9.340	15985	13972	0	768
6.816	-12.658	15971	14238	0	768
3.678	-17.382	15957	14468	0	768
1.118	-22.358	15943	14664	0	768
-0.613	-26.433	15930	14797	0	768
-0.721	-28.958	15913	14909	0	768
0.397	-27.696	15901	15056	0	768
2.308	-27.443	15887	15273	0	768
5.481	-26.181	15877	15468	0	768
6.275	-26.794	15862	15552	0	768
7.032	-26.289	15847	15531	0	768
8.366	-24.053	15834	15559	0	768
10.602	-17.634	15821	15671	0	768
13.631	-8.907	15808	15776	0	768
19.041	-0.685	15796	15832	0	768
21.745	5.590	15781	15846	0	768
22.863	7.393	15772	15951	0	768
22.142	6.058	15765	16217	0	768
17.598	5.229	15763	16663	0	768
16.985	3.534	15763	17209	0	768
14.028	4.111	15765	17663	0	768
15.435	3.967	15763	17971	0	768
15.759	6.022	15763	18258	0	768
14.785	7.393	15771	18684	0	768
16.372	10.819	15779	19279	0	768
16.949	13.884	15794	19929	0	768
17.923	15.038	15810	20621	0	768
16.733	15.795	15830	21377	0	768
16.985	17.346	15854	22139	0	768
14.677	19.690	15878	22838	0	768
17.418	22.106	15908	23495	0	768
17.202	22.539	15938	24153	0	768
18.247	21.421	15973	24859	0	768
15.507	19.149	16014	25628	0	768
15.723	17.887	16055	26390	0	768
14.641	18.428	16100	27020	0	768
16.372	21.204	16140	27481	0	768
18.103	21.854	16186	27796	0	768
17.959	21.529	16229	28006	0	768
18.788	18.247	16273	28160	0	768
21.709	13.523	16317	28286	0	768
23.873	10.350	16363	28342	0	768
28.777	9.629	16405	28251	0	768
31.374	11.287	16448	27992	0	768
30.941	14.245	16491	27628	0	768
28.128	16.084	16532	27209	0	768
27.443	17.057	16572	26768	1	832
26.397	17.743	16609	26265	0	832
28.705	17.454	16643	25586	0	832
30.436	16.985	16677	24796	0	832
31.879	15.831	16711	24160	0	832
28.850	15.182	16751	23705	0	832
27.876	15.362	16782	23174	0	832
25.893	16.697	16810	22384	0	832
25.496	17.634	16834	21411	0	832
22.178	16.877	16858	20474	0	832
18.716	13.307	16881	19677	0	832
14.100	10.350	16904	19006	0	832
10.386	5.914	16925	18404	0	832
9.665	0.721	16948	17852	0	832
9.448	-5.373	16973	17404	0	832
10.927	-11.071	16995	17090	0	832
9.052	-15.326	17020	16796	0	832
6.167	-14.930	17040	16467	0	832
3.714	-11.504	17062	16147	0	832
5.517	-9.304	17082	15888	0	832
10.710	-7.609	17103	15741	0	832
18.247	-10.025	17129	15685	0	832
26.758	-13.631	17153	15720	0	832
27.587	-15.471	17177	15818	0	832
28.453	-13.631	17204	15958	0	832
28.669	-7.104	17229	16147	0	832
31.915	1.370	17258	16357	0	832
34.728	8.222	17283	16537	0	832
35.521	12.802	17309	16677	0	832
32.744	12.982	17335	16789	0	832
28.345	11.684	17359	16880	0	832
22.358	12.982	17384	16929	0	832
19.437	15.218	17403	16901	0	832
18.644	21.096	17422	16740	0	832
18.716	29.318	17440	16460	0	832
19.293	34.079	17449	16070	0	832
19.293	36.387	17457	15538	0	832
19.834	35.701	17462	14958	0	832
17.887	33.502	17464	14378	0	832
19.473	33.285	17464	13783	0	832
17.887	32.348	17460	13161	0	832
17.743	28.814	17452	12496	0	832
15.038	22.827	17443	11818	0	832
13.199	16.372	17436	11273	0	832
12.045	14.353	17427	10930	0	832
14.172	17.202	17421	10720	0	832
19.798	24.017	17413	10545	0	832
24.234	30.004	17401	10336	0	832
28.273	33.646	17393	10189	0	832
30.184	34.439	17384	10175	0	832
29.318	33.898	17376	10280	0	832
29.859	34.764	17368	10419	0	832
31.410	35.990	17359	10538	0	832
34.872	38.803	17351	10692	0	832
36.747	40.029	17345	10972	0	832
40.317	39.632	17341	11357	0	832
39.993	37.829	17336	11769	0	832
39.488	35.557	17333	12140	0	832
36.819	33.862	17330	12468	0	832
35.233	32.997	17323	12811	0	832
35.016	31.735	17321	13203	0	832
36.964	30.869	17316	13559	0	832
37.180	31.230	17308	13692	0	832
35.088	28.417	17292	13482	0	832
29.246	25.820	17274	13105	0	832
22.719	21.024	17256	12874	0	832
16.841	16.408	17244	12832	0	832
16.408	14.208	17228	12839	0	832
16.552	13.451	17211	12853	0	832
17.851	11.648	17197	12902	0	832
14.966	8.439	17184	12993	0	832
14.208	3.859	17169	13105	0	832
15.038	2.957	17156	13224	0	832
19.149	4.904	17144	13364	0	832
26.361	10.891	17127	13496	0	832
28.777	12.189	17112	13517	0	832
25.027	9.773	17096	13447	0	832
18.500	4.075	17077	13426	0	832
13.920	-0.361	17063	13531	0	832
12.369	0.361	17050	13720	0	832
14.605	4.400	17036	13958	0	832
16.877	7.970	17025	14217	0	832
14.353	7.393	17015	14475	0	832
12.874	5.409	17007	14741	0	832
9.665	2.236	16997	15028	0	832
8.619	-0.397	16987	15273	0	832
10.819	-1.551	16976	15398	0	832
12.477	-2.560	16963	15447	0	832
14.966	-1.875	16952	15517	0	832
19.690	1.587	16941	15615	0	832
23.693	6.960	16929	15671	0	832
28.201	10.061	16915	15622	0	832
27.587	8.979	16901	15531	0	832
24.702	3.065	16887	15517	0	832
16.300	-5.013	16879	15636	0	832
15.146	-10.855	16869	15825	0	832
14.821	-10.350	16861	15986	0	832
21.457	-7.429	16850	16091	0	832
24.811	-3.714	16843	16203	0	832
24.378	-4.003	16838	16343	0	832
21.132	-7.393	16828	16481	0	832
16.408	-10.314	16819	16537	0	832
18.428	-11.612	16810	16474	0	832
18.680	-9.629	16797	16343	0	832
20.411	-10.494	16786	16210	0	832
14.677	-14.605	16771	16007	0	832
10.566	-21.745	16745	15482	0	832
2.560	-27.371	16716	14615	0	832
0.361	-30.941	16686	13713	0	832
0.144	-27.587	16651	12944	0	832
2.633	-23.188	16619	12336	0	832
5.662	-18.103	16592	11951	0	832
6.852	-16.156	16565	11818	0	832
9.845	-16.156	16542	11825	0	832
10.927	-17.995	16517	11846	0	832
10.674	-19.582	16495	11902	0	832
9.016	-20.772	16477	12189	0	832
9.376	-20.627	16467	12713	0	832
7.465	-20.736	16455	13336	0	832
7.068	-21.854	16446	13888	0	832
7.465	-23.188	16432	14301	0	832
8.871	-23.873	16419	14629	0	832
8.511	-23.981	16408	14965	0	832
7.465	-25.027	16398	15287	0	832
6.852	-25.352	16386	15573	0	832
3.750	-26.506	16379	15853	0	832
2.164	-26.866	16370	16161	0	832
0.288	-25.712	16363	16509	0	832
1.334	-22.070	16359	16901	0	832
2.741	-16.949	16356	17272	0	832
2.019	-15.038	16349	17530	0	832
3.029	-14.569	16344	17684	0	832
2.524	-17.238	16339	17796	0	832
0.829	-21.024	16334	17929	0	832
1.262	-23.224	16329	18069	0	832
1.370	-21.673	16325	18146	0	832
4.868	-19.726	16318	18146	0	832
6.708	-15.795	16313	18097	0	832
9.340	-14.136	16306	18034	0	832
13.956	-11.504	16301	17957	0	832
16.805	-9.340	16294	17845	0	832
23.296	-6.780	16284	17691	0	832
25.424	-2.380	16278	17523	0	832
26.037	-0.252	16269	17328	0	832
24.558	0.649	16259	17090	0	832
20.050	-0.216	16248	16803	0	832
18.139	-1.803	16235	16502	0	832
18.392	-3.246	16222	16203	0	832
18.644	-2.272	16206	15818	0	832
21.313	-0.757	16188	15357	0	832
21.241	0.108	16172	14972	0	832
23.440	0.613	16157	14769	0	832
23.404	0.433	16144	14678	0	832
25.640	1.947	16126	14531	0	832
26.650	4.472	16110	14280	0	832
29.174	9.268	16097	14147	0	832
29.463	13.884	16085	14245	0	832
30.508	17.923	16078	14461	0	832
31.302	20.627	16066	14664	0	832
31.626	20.375	16057	14804	0	832
30.184	17.057	16049	14916	0	832
26.037	12.910	16038	15028	0	832
22.178	7.825	16029	15119	0	832
17.202	4.724	16017	15154	0	832
16.877	3.318	16002	15105	0	832
17.238	3.029	15990	15042	0	832
20.375	4.039	15980	15056	0	832
22.214	6.167	15971	15182	0	832
24.991	6.888	15964	15412	0	832
27.515	6.996	15957	15664	0	832
30.364	8.042	15952	15930	0	832
33.610	9.773	15949	16196	0	832
36.639	14.677	15945	16460	0	832
36.314	20.339	15945	16726	0	832
34.223	23.549	15943	17020	0	832
30.653	21.745	15943	17328	0	832
26.253	19.041	15942	17558	0	832
24.666	15.687	15943	17698	0	832
21.709	13.559	15940	17817	0	832
21.024	10.638	15942	17950	0	832
19.293	7.393	15943	18118	0	832
16.733	2.993	15947	18293	0	832
18.752	-1.695	15945	18363	0	832
17.562	-4.039	15950	18432	0	832
17.382	-7.068	15962	18817	0	832
11.540	-10.819	15978	19530	0	832
3.823	-14.569	15996	20223	0	832
0.865	-17.851	16014	20663	0	832
-3.750	-20.195	16028	20950	0	832
-1.695	-20.411	16050	21293	0	832
0.649	-21.204	16072	21747	0	832
0.180	-22.935	16097	22230	0	832
-1.370	-24.270	16121	22614	0	832
-2.885	-25.604	16145	22845	0	832
-3.895	-26.722	16174	23125	0	832
-4.003	-24.811	16205	23530	0	832
-0.325	-23.512	16239	23950	0	832
3.678	-20.952	16272	24265	0	832
6.022	-19.437	16301	24432	0	832
8.186	-18.680	16336	24474	0	832
9.556	-19.185	16367	24488	0	832
9.953	-20.700	16401	24565	0	832
10.927	-22.358	16436	24677	0	832
10.674	-22.322	16472	24698	0	832
9.124	-23.585	16505	24572	0	832
5.409	-27.948	16541	24377	0	832
0.613	-32.276	16573	24181	0	832
-2.705	-37.144	16608	23964	0	832
-3.390	-38.767	16639	23656	1	832
-3.137	-36.026	16667	23244	0	832
-1.623	-33.357	16694	22719	0	832
0.252	-32.095	16720	22083	0	832
0.180	-32.420	16740	21370	0	832
0.793	-32.925	16758	20635	0	832
2.741	-31.915	16778	19936	0	832
2.344	-31.951	16795	19223	0	832
0.144	-32.961	16805	18439	0	832
-5.301	-38.226	16816	17614	0	832
-8.727	-43.455	16826	16852	0	832
-8.186	-46.772	16836	16203	0	832
-6.960	-47.133	16839	15552	0	832
-2.236	-42.950	16843	14832	0	832
-0.902	-40.245	16845	14112	0	832
0.613	-37.144	16849	13552	0	832
-0.433	-36.459	16853	13196	0	832
2.452	-36.711	16857	12986	0	832
5.193	-34.872	16862	12860	0	832
7.032	-31.338	16867	12748	0	832
10.999	-28.669	16876	12783	0	832
11.720	-27.083	16886	12986	0	832
11.973	-27.876	16893	13210	0	832
11.504	-31.951	16903	13391	0	832
9.268	-32.889	16911	13559	0	832
6.708	-33.105	16920	13713	0	832
6.347	-29.643	16926	13874	0	832
6.094	-24.594	16936	14070	0	832
10.061	-21.024	16944	14266	0	832
14.136	-18.572	16950	14398	0	832
17.382	-16.156	16957	14468	0	832
21.529	-13.595	16959	14489	0	832
26.938	-8.979	16967	14538	0	832
30.689	-2.885	16969	14622	0	832
35.954	0.288	16972	14664	0	832
38.478	2.056	16974	14629	0	832
36.747	-1.515	16974	14559	0	832
31.987	-7.573	16968	14371	0	832
28.381	-13.415	16962	13993	0	832
24.847	-17.238	16952	13580	0	832
21.313	-18.175	16945	13322	0	832
16.949	-17.454	16938	13182	0	832
15.651	-14.749	16931	13112	0	832
14.677	-11.864	16925	13126	0	832
20.159	-5.590	16920	13210	0	832
28.489	0.685	16916	13329	0	832
37.613	7.645	16912	13489	0	832
42.878	12.261	16909	13650	0	832
41.543	14.281	16904	13804	0	832
41.724	15.939	16903	13965	0	832
42.445	17.418	16898	14140	0	832
43.202	19.185	16892	14266	0	832
43.851	19.185	16885	14252	0	832
40.606	17.562	16878	14161	0	832
39.127	16.120	16871	14210	0	832
37.180	15.146	16867	14412	0	832
39.091	17.021	16863	14608	0	832
43.527	20.627	16857	14699	0	832
44.248	24.775	16850	14706	0	832
42.229	26.253	16842	14692	0	832
42.697	25.893	16834	14720	0	832
41.976	22.503	16829	14818	0	832
42.553	18.824	16824	14951	0	832
42.229	17.166	16816	15056	0	832
40.029	17.598	16811	15154	0	832
34.367	18.283	16809	15294	0	832
27.083	15.723	16805	15496	0	832
18.356	9.124	16801	15706	0	832
11.720	0.144	16796	15811	0	832
5.842	-6.744	16791	15804	0	832
5.445	-9.016	16786	15804	0	832
7.501	-6.275	16781	15874	0	832
9.809	-4.111	16776	15979	0	832
12.405	-3.895	16773	16091	0	832
8.907	-7.176	16773	16217	0	832
6.239	-11.792	16769	16350	0	832
5.626	-11.648	16768	16509	0	832
10.097	-9.160	16768	16705	0	832
16.192	-3.859	16767	16852	0	832
17.382	-3.390	16764	16901	0	832
14.605	-6.780	16762	16852	0	832
5.950	-12.514	16753	16663	0	832
0.577	-18.247	16747	16404	0	832
0.469	-19.798	16744	16343	0	832
2.344	-19.185	16742	16481	0	832
6.599	-18.031	16737	16551	0	832
8.150	-19.401	16730	16336	0	832
9.989	-21.601	16716	15944	0	832
8.979	-26.470	16707	15587	0	832
9.845	-27.912	16695	15329	0	832
7.537	-28.128	16685	15154	0	832
6.780	-22.899	16676	15063	0	832
8.402	-18.283	16666	14993	0	832
8.006	-16.336	16657	14923	0	832
9.845	-19.293	16647	14867	0	832
7.176	-25.063	16638	14839	0	832
4.977	-30.004	16629	14769	0	832
2.957	-32.059	16615	14636	0	832
2.380	-31.085	16604	14510	0	832
1.731	-27.191	16592	14440	0	832
5.157	-24.450	16580	14412	0	832
4.688	-22.250	16570	14391	0	832
3.318	-24.486	16557	14322	0	832
-0.216	-27.840	16542	14252	0	832
-2.164	-32.203	16533	14266	0	832
-2.813	-34.006	16523	14398	0	832
0.325	-31.590	16513	14573	0	832
5.662	-29.318	16504	14671	0	832
7.573	-28.850	16494	14685	0	832
6.022	-31.266	16481	14671	0	832
2.813	-35.557	16470	14685	0	832
0.721	-37.432	16457	14692	0	832
2.741	-36.062	16442	14629	0	832
4.219	-33.321	16428	14517	0	832
7.898	-31.230	16413	14412	0	832
5.013	-33.898	16394	14224	0	832
0.541	-38.190	16372	13832	0	832
-2.380	-40.389	16345	13343	0	832
-2.380	-39.668	16322	12979	0	832
3.282	-33.357	16298	12755	0	832
9.196	-27.371	16273	12503	0	832
12.369	-22.755	16246	12217	0	832
13.415	-21.962	16222	12056	0	832
10.097	-24.234	16201	12112	0	832
8.222	-25.712	16182	12336	0	832
7.609	-26.181	16167	12650	0	832
9.917	-25.279	16149	13007	0	832
11.251	-21.565	16138	13391	0	832
13.523	-19.654	16125	13811	0	832
15.687	-19.185	16116	14301	0	832
16.048	-19.942	16106	14790	0	832
17.454	-22.791	16097	15182	0	832
17.129	-24.270	16087	15503	0	832
21.096	-24.234	16081	15832	0	832
22.250	-21.854	16073	16203	0	832
27.263	-19.005	16067	16558	0	832
31.374	-16.661	16061	16866	0	832
31.879	-17.021	16055	17111	0	832
27.299	-20.988	16052	17342	0	832
21.241	-25.676	16048	17635	0	832
16.372	-30.328	16047	17943	0	832
13.415	-32.997	16042	18153	0	832
14.858	-33.718	16039	18258	0	832
16.120	-33.321	16036	18328	0	832
13.271	-33.826	16034	18418	0	832
12.369	-34.475	16029	18460	0	832
10.314	-34.151	16023	18321	0	832
10.855	-31.879	16010	17901	0	832
18.139	-27.371	15995	17335	0	832
21.601	-21.529	15982	16908	0	832
24.450	-18.644	15971	16684	0	832
26.253	-17.670	15959	16509	0	832
24.198	-19.690	15950	16350	0	832
20.844	-23.332	15940	16252	0	832
17.454	-27.768	15932	16210	0	832
13.091	-33.033	15924	16182	0	832
5.662	-37.793	15916	16147	0	832
4.652	-38.190	15909	16133	0	832
6.599	-34.583	15901	16091	0	832
13.018	-26.109	15887	15937	0	832
22.575	-16.300	15877	15713	0	832
29.030	-7.393	15871	15657	0	832
32.276	-2.380	15865	15818	0	832
33.682	-0.685	15859	16014	0	832
33.357	-2.164	15854	16091	0	832
31.374	-6.708	15847	16077	0	832
31.662	-10.566	15843	16119	0	832
27.119	-12.910	15838	16259	0	832
25.027	-13.776	15829	16287	0	832
22.322	-12.117	15820	16063	0	832
15.903	-13.379	15804	15678	0	832
12.009	-15.867	15791	15343	0	832
9.629	-20.375	15779	15182	0	832
8.150	-23.621	15768	15161	0	832
10.710	-24.991	15758	15175	0	832
12.874	-24.775	15749	15133	0	832
12.225	-21.781	15736	15049	0	832
13.668	-18.572	15723	14930	0	832
11.973	-16.733	15713	14839	0	832
14.821	-15.471	15703	14867	0	832
16.084	-14.677	15694	14986	0	832
16.156	-13.704	15686	15119	0	832
17.238	-12.405	15681	15287	0	832
17.093	-7.717	15674	15496	0	832
20.195	-5.626	15670	15741	0	832
22.250	-4.868	15667	15986	0	832
24.089	-5.265	15666	16224	0	832
25.676	-7.321	15662	16453	0	832
27.263	-6.635	15663	16747	0	832
28.994	-3.823	15667	17132	0	832
30.869	-2.380	15672	17642	0	832
31.735	-1.226	15684	18251	0	832
28.525	-1.623	15700	18957	0	832
26.938	-5.445	15718	19705	0	832
21.277	-9.556	15736	20377	0	832
18.500	-13.199	15753	20922	0	832
14.641	-17.706	15776	21404	0	832
11.612	-21.096	15797	21894	0	832
9.376	-23.873	15821	22370	0	832
5.662	-25.893	15847	22824	0	832
4.364	-29.282	15877	23335	0	832
5.806	-32.276	15910	23936	0	832
10.386	-35.810	15949	24551	0	832
17.166	-39.127	15983	25062	0	832
23.044	-43.022	16020	25432	0	832
22.431	-43.635	16060	25705	0	832
20.375	-44.464	16088	25726	0	832
17.743	-42.193	16120	25453	0	832
17.057	-38.154	16150	25153	0	832
19.798	-35.305	16182	24971	0	832
23.260	-33.177	16215	24817	0	832
27.263	-31.194	16251	24705	1	844
30.725	-29.787	16287	24663	0	844
35.737	-26.830	16324	24614	0	844
42.048	-21.962	16361	24453	0	844
46.412	-18.139	16394	24209	0	844
45.186	-17.021	16428	23943	0	844
40.498	-18.500	16465	23677	0	844
34.439	-22.683	16499	23425	0	844
30.472	-23.765	16534	23132	0	844
31.554	-22.539	16566	22761	0	844
34.439	-18.428	16600	22349	0	844
36.783	-15.182	16630	21943	0	844
36.783	-14.461	16663	21558	0	844
35.088	-15.723	16696	21237	0	844
34.151	-16.336	16726	20943	0	844
34.295	-15.074	16756	20593	0	844
34.872	-13.668	16783	20160	0	844
35.737	-10.061	16811	19663	0	844
35.449	-6.671	16834	19139	0	844
35.882	-2.452	16858	18635	0	844
36.928	0.613	16879	18139	0	844
40.389	-0.180	16895	17544	0	844
42.661	-4.544	16911	16880	0	844
44.392	-11.864	16929	16390	0	844
43.815	-17.779	16947	16105	0	844
41.543	-20.195	16965	15832	0	844
38.983	-20.050	16979	15524	0	844
36.747	-19.762	16995	15196	0	844
36.531	-20.736	17007	14874	0	844
35.990	-24.739	17020	14615	0	844
36.134	-30.436	17034	14419	0	844
34.764	-35.016	17044	14217	0	844
27.948	-38.009	17053	13958	0	844
23.008	-38.334	17063	13720	0	844
19.690	-34.800	17072	13566	0	844
18.031	-30.689	17078	13475	0	844
20.447	-26.794	17086	13378	0	844
22.683	-26.542	17089	13203	0	844
20.050	-27.155	17093	12972	0	844
21.457	-28.381	17096	12776	0	844
22.214	-26.722	17098	12664	0	844
25.965	-21.096	17098	12629	0	844
30.328	-16.300	17101	12615	0	844
31.879	-14.605	17103	12594	0	844
31.879	-16.805	17100	12524	0	844
26.866	-20.952	17098	12378	0	844
24.847	-24.017	17091	12161	0	844
22.395	-25.135	17083	11923	0	844
21.818	-24.450	17074	11727	0	844
20.627	-24.089	17065	11587	0	844
21.060	-26.938	17054	11461	0	844
17.021	-29.102	17044	11336	0	844
14.785	-32.997	17033	11231	0	844
10.783	-36.964	17021	11210	0	844
6.383	-40.065	17011	11224	0	844
5.265	-40.281	16992	11154	0	844
3.354	-40.209	16978	11028	0	844
4.111	-36.242	16965	11014	0	844
5.445	-32.780	16950	11147	0	844
4.940	-32.492	16940	11357	0	844
4.111	-34.728	16926	11531	0	844
2.524	-39.344	16915	11713	0	844
1.082	-43.743	16906	12014	0	844
2.092	-42.661	16896	12419	0	844
4.039	-38.767	16886	12790	0	844
8.222	-31.735	16878	13105	0	844
10.819	-26.470	16869	13364	0	844
9.953	-25.279	16859	13615	0	844
10.278	-24.955	16853	13916	0	844
9.737	-26.433	16845	14266	0	844
11.251	-23.873	16838	14601	0	844
13.631	-20.411	16831	14881	0	844
17.634	-16.264	16824	15105	0	844
16.985	-15.110	16816	15315	0	844
16.156	-15.038	16811	15538	0	844
12.730	-15.831	16804	15734	0	844
10.422	-14.064	16795	15832	0	844
9.737	-9.737	16787	15860	0	844
11.143	-4.111	16778	15923	0	844
13.595	-3.029	16773	16063	0	844
15.759	-7.140	16768	16224	0	844
12.189	-14.605	16761	16357	0	844
11.684	-21.277	16756	16481	0	844
12.009	-25.207	16751	16607	0	844
13.163	-22.070	16748	16684	0	844
16.048	-17.815	16739	16719	0	844
15.435	-14.064	16733	16698	0	844
14.425	-12.045	16725	16593	0	844
9.845	-12.622	16713	16384	0	844
9.556	-11.143	16699	16077	0	844
11.684	-9.448	16685	15727	0	844
18.536	-3.246	16670	15440	0	844
21.926	1.515	16657	15245	0	844
23.368	5.193	16643	15063	0	844
21.349	3.498	16624	14776	0	844
15.254	0.000	16605	14405	0	844
13.451	-1.875	16586	14098	0	844
13.704	-0.613	16571	13951	0	844
17.959	5.914	16554	13916	0	844
19.762	11.937	16535	13783	0	844
21.709	15.939	16509	13350	0	844
17.634	13.451	16486	12860	0	844
15.471	8.727	16465	12685	0	844
12.297	3.967	16448	12811	0	844
9.665	2.633	16431	13007	0	844
10.927	5.373	16415	13175	0	844
9.989	6.347	16401	13364	0	844
7.176	5.662	16389	13657	0	844
4.904	1.695	16382	14098	0	844
7.681	-1.370	16373	14573	0	844
11.973	-1.803	16365	14937	0	844
17.887	1.190	16356	15203	0	844
23.945	4.580	16349	15482	0	844
22.935	4.652	16341	15832	0	844
21.637	2.849	16337	16203	0	844
20.267	0.757	16332	16502	0	844
19.077	0.397	16325	16726	0	844
22.034	1.334	16320	16908	0	844
20.988	2.633	16317	17083	0	844
20.952	3.029	16312	17286	0	844
20.700	3.101	16308	17488	0	844
18.680	2.272	16305	17628	0	844
19.834	3.210	16297	17628	0	844
20.267	5.229	16288	17474	0	844
22.358	5.517	16277	17202	0	844
24.955	4.724	16265	16894	0	844
22.611	1.226	16251	16614	0	844
20.988	-3.570	16239	16384	0	844
16.769	-5.698	16225	16126	0	844
15.687	-6.455	16208	15783	0	844
14.569	-3.029	16192	15405	0	844
16.444	-0.469	16176	15147	0	844
17.346	0.649	16164	15042	0	844
19.834	-0.577	16149	14944	0	844
20.050	-4.255	16131	14734	0	844
21.385	-8.763	16116	14496	0	844
18.500	-14.533	16100	14301	0	844
14.677	-18.752	16078	14084	0	844
9.701	-19.726	16055	13790	0	844
9.304	-18.428	16035	13482	0	844
10.746	-15.290	16015	13315	0	844
12.009	-13.631	15999	13343	0	844
14.064	-14.641	15985	13496	0	844
14.245	-16.300	15969	13692	0	844
13.704	-17.238	15957	13874	0	844
16.444	-17.166	15945	14063	0	844
16.805	-17.382	15932	14329	0	844
18.860	-19.221	15925	14692	0	844
16.805	-24.414	15919	15112	0	844
15.362	-27.624	15911	15496	0	844
12.802	-30.004	15907	15853	0	844
12.766	-27.876	15901	16196	0	844
15.471	-25.243	15899	16530	0	844
17.418	-21.313	15895	16859	0	844
20.483	-16.733	15890	17097	0	844
20.231	-14.136	15887	17258	0	844
21.060	-11.900	15883	17404	0	844
22.070	-12.117	15880	17572	0	844
21.421	-11.179	15875	17642	0	844
23.801	-11.684	15858	17321	0	844
23.332	-8.979	15837	16586	0	844
25.460	-4.724	15814	15797	0	844
30.508	0.288	15790	15147	0	844
35.846	5.121	15766	14615	0	844
42.265	9.484	15748	14294	0	844
45.546	12.550	15733	14203	0	844
45.005	11.071	15714	14175	0	844
44.717	10.025	15696	14063	0	844
44.068	11.900	15681	13972	0	844
47.061	18.644	15672	14168	0	844
54.201	28.453	15667	14664	0	844
58.961	38.190	15666	15231	0	844
61.161	40.065	15661	15713	0	844
58.132	37.360	15657	16070	0	844
55.499	31.518	15655	16371	0	844
55.283	27.335	15651	16670	0	844
57.952	28.345	15649	16943	0	844
61.269	30.256	15646	17132	0	844
62.568	29.174	15642	17258	0	844
58.276	28.056	15639	17377	0	844
54.418	23.440	15637	17537	0	844
50.559	20.591	15639	17796	0	844
47.313	17.382	15641	18097	0	844
42.157	14.100	15644	18328	0	844
37.685	9.196	15644	18432	0	844
32.492	2.596	15647	18488	0	844
26.650	-0.974	15646	18565	0	844
25.316	-1.442	15649	18649	0	844
24.450	1.010	15649	18656	0	844
26.361	2.885	15649	18579	0	844
23.116	0.361	15650	18467	0	844
20.952	-5.626	15649	18328	0	844
15.471	-13.163	15647	18153	0	844
13.812	-18.536	15641	17894	0	844
14.497	-19.401	15636	17537	0	844
20.483	-16.156	15627	17118	0	844
20.195	-13.487	15618	16642	0	844
20.231	-13.163	15605	16168	0	844
15.543	-16.372	15595	15783	0	844
12.333	-20.519	15585	15545	0	844
9.629	-28.092	15577	15343	0	844
4.255	-34.006	15564	15049	0	844
-0.505	-38.550	15553	14727	0	844
-8.619	-42.373	15545	14636	0	844
-12.405	-42.734	15541	14825	0	844
-13.668	-39.596	15539	15084	0	844
-9.088	-36.964	15533	15231	0	844
-4.364	-32.744	15528	15231	0	844
1.226	-28.597	15519	15168	0	844
5.914	-27.155	15514	15140	0	844
7.032	-26.578	15508	15203	0	844
8.655	-27.010	15503	15322	0	844
6.816	-30.833	15499	15447	0	844
3.823	-32.997	15495	15545	0	844
-0.613	-35.269	15491	15678	0	844
-3.462	-35.341	15493	15923	0	844
-5.554	-34.223	15491	16238	0	844
-5.590	-33.177	15496	16551	0	844
-5.878	-32.925	15502	16957	0	844
-6.708	-33.610	15513	17523	0	844
-10.530	-35.737	15528	18258	0	844
-10.999	-38.695	15548	19090	0	844
-10.314	-41.111	15569	19873	0	844
-10.999	-43.491	15588	20474	0	844
-8.475	-43.347	15604	20775	0	844
-7.032	-42.697	15620	20929	0	844
-5.950	-39.885	15642	21251	0	844
-5.878	-37.829	15666	21768	0	844
-4.580	-36.819	15694	22335	0	844
-4.724	-35.269	15727	22943	0	844
-3.750	-33.610	15761	23572	0	844
-1.695	-30.869	15797	24174	0	844
0.613	-28.092	15837	24719	0	844
3.101	-26.470	15877	25209	0	844
4.400	-26.866	15916	25600	0	844
6.635	-26.542	15953	25768	0	844
10.602	-24.450	15993	25796	0	844
16.733	-20.375	16038	25985	0	844
19.798	-14.966	16082	26328	0	844
23.585	-11.287	16126	26537	0	844
24.558	-9.124	16169	26509	0	844
23.729	-7.753	16211	26321	0	844
23.909	-6.924	16251	26041	0	844
27.443	-4.940	16292	25733	0	844
27.371	-3.029	16330	25432	1	976
24.991	-4.868	16368	25055	0	976
24.234	-6.563	16401	24523	0	976
18.860	-7.753	16433	23880	0	976
19.293	-9.701	16460	23069	0	976
21.024	-8.402	16484	22146	0	976
19.762	-7.465	16508	21258	0	976
19.762	-5.409	16532	20488	0	976
15.795	-4.652	16553	19775	0	976
13.668	-5.554	16578	19146	0	976
12.405	-5.950	16600	18663	0	976
12.910	-7.285	16624	18258	0	976
16.805	-8.150	16646	17817	0	976
16.372	-7.753	16668	17377	0	976
18.608	-7.537	16691	17048	0	976
15.146	-7.717	16715	16866	0	976
14.605	-8.907	16740	16726	0	976
14.858	-7.393	16762	16551	0	976
18.897	-3.714	16783	16357	0	976
22.719	-1.839	16804	16168	0	976
27.010	0.180	16824	15965	0	976
26.397	0.902	16839	15741	0	976
28.164	1.334	16859	15496	0	976
32.312	4.111	16873	15280	0	976
38.839	10.133	16888	15084	0	976
44.861	14.136	16898	14790	0	976
47.386	16.913	16907	14433	0	976
46.268	15.254	16925	14308	0	976
40.570	10.891	16940	14440	0	976
34.511	5.193	16953	14489	0	976
29.607	-0.144	16959	14287	0	976
24.955	-3.101	16965	13923	0	976
21.493	-4.364	16968	13566	0	976
17.923	-5.734	16972	13287	0	976
17.418	-5.734	16973	13070	0	976
15.831	-6.239	16972	12818	0	976
19.077	-6.311	16968	12461	0	976
20.195	-5.049	16964	12098	0	976
23.873	-3.462	16959	11818	0	976
21.204	-3.318	16953	11587	0	976
17.779	-4.868	16945	11391	0	976
15.759	-6.419	16936	11189	0	976
13.018	-7.825	16926	10986	0	976
12.369	-10.710	16916	10860	0	976
15.398	-11.612	16905	10783	0	976
15.867	-13.018	16893	10692	0	976
18.572	-13.487	16879	10566	0	976
19.185	-13.992	16862	10357	0	976
21.349	-11.684	16844	10154	0	976
19.005	-11.792	16833	10189	0	976
18.500	-12.405	16819	10440	0	976
16.120	-13.235	16809	10734	0	976
17.382	-12.838	16799	11028	0	976
18.067	-11.468	16790	11398	0	976
22.070	-8.835	16783	11881	0	976
23.549	-5.770	16780	12426	0	976
24.775	-4.075	16775	12944	0	976
24.811	-3.823	16771	13398	0	976
24.883	-3.065	16766	13839	0	976
21.854	-4.183	16764	14273	0	976
19.942	-7.573	16757	14629	0	976
13.415	-13.018	16750	14860	0	976
8.799	-18.536	16743	14972	0	976
3.426	-22.250	16734	15007	0	976
0.685	-23.404	16725	15063	0	976
-0.397	-22.286	16718	15168	0	976
0.541	-19.942	16708	15287	0	976
4.039	-19.726	16702	15440	0	976
6.275	-19.870	16697	15657	0	976
6.058	-19.978	16691	15832	0	976
5.698	-20.916	16682	15895	0	976
3.714	-19.906	16676	15916	0	976
5.590	-16.841	16667	15958	0	976
9.917	-13.199	16662	16021	0	976
12.730	-9.917	16654	16070	0	976
15.723	-7.934	16646	16063	0	976
15.615	-8.655	16637	16028	0	976
17.346	-8.619	16629	16014	0	976
16.516	-9.196	16623	16042	0	976
20.267	-7.789	16614	16070	0	976
20.736	-7.321	16606	16063	0	976
21.962	-7.248	16601	16070	0	976
21.854	-7.104	16594	16119	0	976
21.096	-5.806	16591	16259	0	976
21.962	-3.029	16586	16439	0	976
21.349	0.036	16584	16558	0	976
24.775	3.065	16577	16593	0	976
26.289	4.868	16572	16565	0	976
29.679	5.193	16562	16384	0	976
31.446	4.472	16549	16098	0	976
34.079	4.760	16538	15825	0	976
32.095	4.688	16522	15510	0	976
28.345	6.347	16505	15091	0	976
27.660	9.376	16490	14741	0	976
26.073	11.684	16475	14545	0	976
28.561	12.550	16458	14398	0	976
31.771	12.982	16444	14245	0	976
31.049	11.360	16425	14042	0	976
28.850	9.629	16409	13790	0	976
26.470	8.258	16390	13594	0	976
23.044	7.970	16374	13489	0	976
23.585	7.393	16361	13475	0	976
26.866	10.061	16343	13503	0	976
29.391	11.432	16324	13454	0	976
33.141	14.461	16307	13329	0	976
33.429	15.975	16293	13378	0	976
30.833	15.903	16279	13657	0	976
27.732	14.425	16269	13972	0	976
25.604	11.540	16255	14182	0	976
21.781	11.504	16241	14273	0	976
22.286	14.353	16229	14350	0	976
24.919	19.618	16217	14510	0	976
26.397	24.594	16206	14720	0	976
31.482	27.479	16193	14909	0	976
36.387	27.515	16182	15035	0	976
40.606	28.345	16168	15147	0	976
44.032	32.059	16160	15280	0	976
49.008	35.341	16149	15454	0	976
48.612	36.891	16140	15657	0	976
44.320	34.367	16129	15811	0	976
41.796	29.354	16121	15937	0	976
38.695	23.116	16114	16098	0	976
35.341	20.159	16109	16357	0	976
34.728	17.202	16104	16635	0	976
31.410	14.425	16097	16789	0	976
28.777	12.586	16081	16635	0	976
28.886	10.999	16066	16294	0	976
28.705	11.251	16054	16049	0	976
29.823	13.812	16040	15986	0	976
29.138	13.163	16030	15965	0	976
25.279	12.009	16018	15944	0	976
21.818	8.150	16010	15937	0	976
17.743	3.967	15999	15944	0	976
19.149	1.659	15992	16021	0	976
18.752	2.524	15990	16301	0	976
23.621	5.590	15990	16747	0	976
24.162	7.465	15987	17104	0	976
23.873	7.898	15980	17160	0	976
24.378	8.150	15973	17020	0	976
24.270	5.770	15963	16859	0	976
27.876	5.049	15953	16733	0	976
30.112	3.318	15945	16586	0	976
30.581	2.921	15935	16425	0	976
29.968	2.596	15925	16287	0	976
28.633	2.777	15914	16168	0	976
24.270	2.560	15907	16084	0	976
19.437	0.649	15897	16063	0	976
10.746	-5.013	15890	16049	0	976
5.229	-12.009	15880	15951	0	976
-0.577	-17.923	15867	15769	0	976
-2.705	-22.935	15851	15454	0	976
-4.472	-26.181	15834	15077	0	976
-4.940	-27.551	15820	14811	0	976
-7.609	-28.741	15805	14706	0	976
-7.321	-29.751	15795	14699	0	976
-6.527	-28.922	15785	14769	0	976
-4.832	-30.184	15777	14909	0	976
-4.291	-31.699	15770	15098	0	976
-4.364	-32.708	15762	15294	0	976
-4.760	-34.187	15757	15489	0	976
-3.895	-32.636	15751	15699	0	976
-1.731	-28.705	15744	15902	0	976
0.685	-26.794	15741	16077	0	976
0.288	-26.433	15734	16168	0	976
-1.298	-29.571	15727	16182	0	976
-4.039	-32.348	15719	16189	0	976
-3.065	-32.816	15711	16203	0	976
-0.325	-31.013	15708	16294	0	976
3.931	-27.191	15708	16579	0	976
6.094	-22.467	15709	16985	0	976
6.203	-20.736	15706	17230	0	976
9.484	-17.202	15700	17146	0	976
13.054	-14.497	15691	16866	0	976
17.598	-9.196	15681	16607	0	976
25.135	-4.760	15671	16411	0	976
27.912	-1.046	15658	16119	0	976
29.427	1.406	15639	15594	0	976
30.472	2.741	15623	15035	0	976
30.472	3.390	15607	14769	0	976
28.741	1.947	15600	14832	0	976
23.873	-2.200	15593	15021	0	976
13.559	-9.845	15584	15161	0	976
4.364	-19.726	15576	15203	0	976
-3.390	-25.388	15567	15231	0	976
-6.239	-25.063	15560	15287	0	976
-1.839	-20.808	15550	15308	0	976
5.193	-14.064	15539	15259	0	976
10.963	-7.104	15531	15224	0	976
14.894	-5.373	15519	15252	0	976
15.867	-4.796	15515	15412	0	976
16.192	-4.977	15514	15720	0	976
14.461	-6.924	15509	16063	0	976
16.012	-7.321	15507	16294	0	976
17.202	-6.419	15502	16411	0	976
18.211	-6.203	15500	16530	0	976
15.579	-4.868	15497	16698	0	976
17.779	-2.560	15495	16859	0	976
18.320	-0.613	15491	16915	0	976
24.558	2.164	15489	16922	0	976
28.237	4.760	15485	16964	0	976
30.941	3.895	15481	17041	0	976
32.276	1.731	15481	17146	0	976
31.230	-0.613	15481	17258	0	976
29.391	-1.731	15478	17342	0	976
27.335	-1.190	15475	17293	0	976
23.729	0.649	15467	17034	0	976
20.123	1.370	15456	16635	0	976
20.627	0.613	15446	16315	0	976
19.221	-0.469	15438	16112	0	976
21.854	-3.318	15428	15916	0	976
20.880	-6.419	15416	15601	0	976
20.014	-10.278	15399	15189	0	976
20.736	-12.153	15386	14818	0	976
20.267	-12.045	15373	14601	0	976
20.736	-9.773	15362	14552	0	976
17.274	-9.268	15356	14657	0	976
16.120	-12.117	15350	14874	0	976
11.576	-16.300	15351	15245	0	976
9.268	-20.808	15357	15832	0	976
10.494	-23.945	15367	16628	0	976
11.107	-23.765	15383	17544	0	976
11.251	-22.972	15402	18432	0	976
12.874	-22.611	15421	19300	0	976
12.730	-19.762	15446	20223	0	976
11.576	-15.723	15475	21202	0	976
14.641	-12.838	15508	22195	0	976
13.415	-9.124	15542	23132	0	976
14.245	-9.088	15580	24006	0	976
14.208	-9.737	15620	24859	0	976
12.622	-12.261	15663	25705	0	976
10.674	-16.120	15708	26446	0	976
7.934	-20.159	15752	26978	0	976
4.436	-23.404	15794	27328	0	976
3.354	-24.702	15839	27593	0	976
1.731	-24.919	15883	27803	0	976
1.515	-24.378	15926	27908	0	976
0.829	-25.135	15971	27852	0	976
0.974	-27.984	16011	27663	0	976
-0.649	-28.958	16050	27342	0	976
0.252	-28.994	16087	26887	0	976
0.469	-26.902	16125	26349	1	960
1.803	-23.008	16162	25803	0	960
5.409	-18.103	16196	25279	0	960
9.304	-15.362	16231	24719	0	960
13.740	-12.838	16260	24069	0	960
16.084	-12.261	16294	23397	0	960
18.860	-11.143	16327	22852	0	960
17.129	-7.717	16360	22397	0	960
18.211	-6.563	16386	21831	0	960
15.579	-3.462	16413	21104	0	960
15.759	-3.173	16436	20307	0	960
16.444	-2.957	16458	19530	0	960
18.247	-5.626	16479	18838	0	960
17.923	-8.114	16501	18237	0	960
15.867	-12.045	16518	17614	0	960
10.242	-16.300	16534	16901	0	960
3.750	-18.536	16549	16238	0	960
0.793	-18.067	16562	15692	0	960
-0.685	-17.995	16578	15231	0	960
0.288	-18.716	16590	14818	0	960
2.380	-19.690	16603	14440	0	960
3.714	-21.168	16614	14126	0	960
4.255	-23.512	16627	13902	0	960
3.282	-23.440	16637	13678	0	960
2.957	-21.313	16646	13384	0	960
3.606	-19.077	16653	13119	0	960
5.698	-13.704	16663	12979	0	960
10.025	-6.924	16671	12916	0	960
14.497	-3.787	16680	12888	0	960
14.569	-2.957	16687	12881	0	960
12.622	-7.393	16695	12895	0	960
7.681	-14.281	16697	12846	0	960
3.029	-19.690	16696	12608	0	960
0.505	-21.962	16694	12210	0	960
-0.180	-20.231	16687	11888	0	960
0.577	-18.572	16685	11685	0	960
1.046	-17.634	16678	11510	0	960
1.551	-16.877	16671	11329	0	960
4.147	-14.208	16662	11105	0	960
5.662	-12.441	16651	10860	0	960
9.701	-9.701	16640	10727	0	960
9.737	-11.251	16632	10720	0	960
8.078	-13.595	16621	10776	0	960
5.157	-16.589	16610	10776	0	960
1.262	-17.526	16596	10706	0	960
-0.685	-17.851	16585	10727	0	960
-1.839	-16.661	16575	10923	0	960
0.505	-16.913	16570	11266	0	960
3.101	-15.867	16562	11643	0	960
5.337	-14.677	16553	11958	0	960
8.619	-14.425	16546	12203	0	960
7.176	-16.120	16536	12419	0	960
6.780	-18.680	16529	12685	0	960
6.708	-19.041	16523	13042	0	960
8.871	-14.569	16518	13433	0	960
15.723	-6.708	16513	13832	0	960
19.077	1.082	16513	14273	0	960
21.313	3.282	16513	14818	0	960
16.336	-0.397	16515	15412	0	960
10.963	-9.340	16514	15846	0	960
5.337	-15.759	16509	15965	0	960
3.931	-17.562	16501	15902	0	960
5.914	-14.713	16500	15958	0	960
9.989	-9.989	16495	16168	0	960
13.451	-4.508	16492	16371	0	960
16.408	-3.282	16491	16516	0	960
21.890	-2.164	16490	16691	0	960
24.739	-3.065	16491	16922	0	960
26.794	-4.364	16492	17160	0	960
25.893	-5.626	16492	17363	0	960
22.611	-9.088	16494	17509	0	960
15.435	-11.143	16492	17558	0	960
14.713	-13.704	16489	17453	0	960
12.586	-14.785	16484	17237	0	960
13.091	-17.346	16477	17062	0	960
12.910	-20.411	16474	16964	0	960
10.674	-23.512	16471	16866	0	960
8.655	-24.450	16463	16712	0	960
10.025	-22.935	16458	16537	0	960
13.379	-18.392	16452	16397	0	960
16.408	-14.930	16448	16322	0	960
21.024	-13.595	16443	16287	0	960
23.729	-10.602	16438	16203	0	960
29.282	-8.727	16429	16042	0	960
34.223	-3.606	16427	15937	0	960
37.288	-1.334	16423	15958	0	960
36.964	-1.767	16419	15979	0	960
32.059	-5.193	16410	15902	0	960
25.388	-10.855	16405	15734	0	960
22.755	-13.054	16396	15587	0	960
21.313	-13.559	16389	15517	0	960
23.152	-10.133	16384	15475	0	960
23.368	-7.789	16377	15412	0	960
24.125	-6.167	16367	15294	0	960
25.784	-5.734	16358	15154	0	960
28.994	-6.383	16351	15056	0	960
32.780	-5.842	16343	15056	0	960
34.656	-6.383	16337	15147	0	960
34.079	-7.609	16331	15203	0	960
30.761	-8.619	16320	15182	0	960
27.227	-10.350	16313	15133	0	960
25.604	-9.304	16303	15091	0	960
25.063	-9.016	16297	15063	0	960
21.277	-11.540	16288	15042	0	960
17.923	-15.002	16278	15084	0	960
11.864	-18.283	16274	15154	0	960
8.150	-20.519	16264	15175	0	960
4.364	-20.627	16255	15133	0	960
2.128	-23.296	16244	15056	0	960
-0.902	-28.922	16232	14930	0	960
-5.193	-33.970	16216	14657	0	960
-6.239	-35.197	16193	14175	0	960
-3.426	-31.446	16172	13650	0	960
1.190	-24.234	16150	13308	0	960
7.212	-18.320	16133	13147	0	960
8.979	-16.805	16112	12993	0	960
8.763	-19.365	16088	12734	0	960
5.590	-22.431	16068	12496	0	960
3.787	-24.666	16048	12461	0	960
-0.938	-25.568	16035	12643	0	960
-2.560	-25.424	16020	12965	0	960
-1.262	-23.765	16010	13308	0	960
-1.298	-23.440	15995	13580	0	960
0.757	-21.673	15982	13790	0	960
5.842	-20.411	15971	14000	0	960
6.275	-19.149	15956	14182	0	960
7.609	-19.041	15942	14315	0	960
8.402	-19.437	15930	14440	0	960
6.527	-19.978	15915	14636	0	960
9.809	-18.283	15907	14937	0	960
12.838	-16.048	15900	15350	0	960
15.471	-14.317	15899	15839	0	960
15.651	-14.677	15894	16287	0	960
11.107	-17.706	15889	16649	0	960
3.967	-20.447	15889	17006	0	960
0.072	-22.503	15889	17418	0	960
-2.849	-24.017	15891	17859	0	960
-5.878	-24.847	15894	18258	0	960
-8.619	-28.128	15896	18628	0	960
-9.556	-29.607	15902	18957	0	960
-8.835	-29.968	15905	19202	0	960
-7.212	-27.479	15908	19363	0	960
-3.606	-26.145	15908	19425	0	960
-0.829	-24.883	15910	19390	0	960
2.380	-25.784	15908	19265	0	960
4.327	-25.748	15906	19027	0	960
5.265	-27.083	15904	18768	0	960
3.065	-27.551	15905	18698	0	960
-0.613	-30.040	15908	18789	0	960
-4.075	-32.600	15907	18747	0	960
-7.393	-33.862	15902	18404	0	960
-6.888	-33.141	15894	17894	0	960
-4.724	-28.958	15886	17390	0	960
-2.272	-26.001	15877	16936	0	960
0.288	-23.837	15865	16481	0	960
2.705	-25.748	15852	16014	0	960
4.688	-26.325	15840	15531	0	960
7.681	-24.270	15827	15112	0	960
11.215	-18.680	15815	14818	0	960
15.218	-13.163	15804	14664	0	960
15.759	-10.891	15794	14566	0	960
12.910	-11.648	15784	14419	0	960
13.595	-16.264	15770	14231	0	960
10.602	-19.798	15758	14077	0	960
7.212	-21.421	15751	14063	0	960
4.508	-21.962	15739	14189	0	960
1.947	-22.322	15732	14245	0	960
1.695	-18.067	15714	14070	0	960
7.212	-12.550	15699	13783	0	960
15.182	-5.770	15687	13706	0	960
23.152	-1.154	15677	13881	0	960
25.640	0.216	15670	14119	0	960
24.234	-2.885	15662	14364	0	960
20.555	-7.862	15658	14685	0	960
15.471	-10.206	15657	15070	0	960
15.002	-10.783	15653	15461	0	960
13.668	-11.576	15652	15790	0	960
14.064	-11.035	15646	15958	0	960
12.117	-12.874	15638	15923	0	960
9.845	-14.317	15627	15797	0	960
10.169	-14.569	15618	15706	0	960
10.674	-15.507	15609	15727	0	960
13.343	-16.228	15605	15818	0	960
15.074	-15.543	15598	15909	0	960
18.139	-14.208	15591	16000	0	960
16.877	-13.307	15589	16154	0	960
15.795	-12.117	15589	16460	0	960
11.900	-13.091	15590	16901	0	960
11.612	-13.523	15594	17265	0	960
14.028	-12.045	15593	17418	0	960
18.969	-6.924	15590	17411	0	960
27.263	-2.019	15586	17335	0	960
33.754	3.787	15582	17272	0	960
38.658	7.717	15581	17272	0	960
43.887	12.405	15580	17335	0	960
48.359	17.021	15579	17411	0	960
52.614	21.096	15581	17523	0	960
52.470	22.431	15586	17761	0	960
51.533	22.575	15593	18090	0	960
45.871	20.231	15601	18418	0	960
41.652	19.510	15610	18719	0	960
38.550	20.087	15620	19034	0	960
42.229	21.529	15631	19293	0	960
46.268	24.125	15639	19446	0	960
48.828	27.083	15653	19635	0	960
52.146	29.102	15668	19943	0	960
52.182	31.482	15681	20160	0	960
52.614	34.043	15695	20272	0	960
54.634	35.305	15715	20558	0	960
54.490	35.485	15741	21104	0	960
52.110	35.160	15770	21719	0	960
47.313	34.583	15803	22349	0	960
46.015	32.312	15835	22999	0	960
45.294	31.699	15872	23649	0	960
47.061	31.338	15913	24258	0	960
52.506	30.761	15952	24754	0	960
52.362	31.013	15988	25034	0	960
52.651	29.968	16021	25041	0	960
49.838	30.761	16052	24866	0	960
47.566	30.508	16082	24635	0	960
45.546	30.905	16116	24439	0	960
44.248	32.600	16149	24300	0	960
42.770	32.312	16182	24139	1	888
41.652	30.689	16211	23866	0	888
36.819	27.551	16244	23530	0	888
32.816	20.880	16278	23307	0	888
28.417	13.776	16313	23237	0	888
24.162	6.671	16350	23181	0	888
18.356	0.757	16384	22992	0	888
14.677	-4.111	16414	22663	0	888
8.979	-7.825	16446	22272	0	888
4.508	-12.189	16476	21873	0	888
2.488	-15.038	16505	21474	0	888
1.731	-18.897	16533	21041	0	888
1.226	-21.818	16558	20551	0	888
-2.128	-25.388	16584	20048	0	888
-6.599	-30.184	16610	19607	0	888
-11.071	-32.636	16634	19258	0	888
-12.009	-33.357	16661	18922	0	888
-8.186	-30.761	16681	18509	0	888
-6.599	-30.220	16700	18006	0	888
-6.888	-31.771	16719	17495	0	888
-11.612	-36.423	16737	17062	0	888
-18.464	-42.301	16754	16677	0	888
-21.421	-43.202	16772	16287	0	888
-20.627	-41.724	16785	15860	0	888
-16.480	-39.091	16796	15461	0	888
-16.949	-38.406	16806	15056	0	888
-16.841	-40.606	16816	14622	0	888
-16.480	-43.635	16823	14196	0	888
-18.680	-42.770	16828	13727	0	888
-15.002	-41.724	16825	13140	0	888
-11.576	-37.360	16820	12454	0	888
-8.294	-35.052	16816	11790	0	888
-5.662	-34.187	16809	11280	0	888
-6.852	-35.269	16804	10937	0	888
-9.629	-37.757	16797	10664	0	888
-12.730	-40.426	16787	10343	0	888
-15.795	-43.166	16776	9986	0	888
-18.536	-44.320	16768	9811	0	888
-15.435	-45.330	16762	9902	0	888
-13.668	-43.058	16758	10105	0	888
-7.104	-39.019	16750	10273	0	888
-1.406	-33.393	16742	10384	0	888
2.957	-27.804	16734	10489	0	888
4.003	-26.614	16726	10650	0	888
1.983	-27.407	16720	10888	0	888
2.164	-27.876	16710	11133	0	888
6.311	-25.640	16702	11301	0	888
10.891	-19.077	16692	11412	0	888
17.959	-11.720	16681	11580	0	888
19.906	-7.321	16675	11846	0	888
20.952	-5.445	16667	12189	0	888
19.437	-3.210	16661	12524	0	888
24.414	-0.252	16653	12811	0	888
29.282	7.357	16647	13126	0	888
37.577	13.199	16643	13538	0	888
41.219	17.851	16643	14007	0	888
43.455	19.798	16642	14447	0	888
41.868	20.880	16638	14853	0	888
41.219	21.818	16637	15224	0	888
41.255	23.549	16634	15559	0	888
41.724	24.955	16633	15825	0	888
43.707	25.243	16629	16000	0	888
45.294	26.650	16625	16133	0	888
47.746	26.397	16624	16280	0	888
45.799	25.532	16620	16425	0	888
42.337	20.483	16618	16551	0	888
35.954	13.343	16614	16607	0	888
28.381	7.934	16608	16579	0	888
26.830	6.311	16600	16467	0	888
28.056	11.792	16590	16238	0	888
32.997	16.372	16578	15937	0	888
37.108	18.716	16568	15685	0	888
36.783	15.831	16557	15496	0	888
33.177	8.330	16547	15398	0	888
28.453	3.246	16541	15391	0	888
25.820	1.911	16533	15405	0	888
27.948	4.904	16524	15426	0	888
29.823	8.294	16519	15524	0	888
31.518	11.756	16515	15692	0	888
32.203	12.369	16510	15818	0	888
32.816	11.937	16503	15825	0	888
35.160	10.999	16496	15769	0	888
37.721	8.835	16489	15748	0	888
37.252	7.068	16482	15811	0	888
33.610	4.219	16477	15902	0	888
27.119	2.452	16472	15958	0	888
21.745	2.416	16465	15958	0	888
15.398	1.154	16460	15958	0	888
13.271	-0.649	16452	15986	0	888
9.845	-3.570	16448	15986	0	888
6.455	-6.780	16438	15916	0	888
7.862	-9.304	16429	15797	0	888
9.052	-10.458	16420	15692	0	888
9.989	-13.487	16410	15601	0	888
9.448	-17.959	16404	15545	0	888
8.943	-22.755	16395	15531	0	888
7.140	-24.198	16386	15538	0	888
9.196	-23.476	16380	15510	0	888
12.477	-18.572	16372	15468	0	888
17.093	-14.100	16363	15447	0	888
17.743	-13.487	16356	15426	0	888
19.401	-13.992	16344	15364	0	888
17.995	-15.435	16334	15266	0	888
19.834	-15.290	16320	15070	0	888
19.726	-10.963	16302	14741	0	888
21.313	-7.645	16286	14357	0	888
21.493	-5.049	16267	14035	0	888
16.625	-6.780	16250	13825	0	888
13.668	-12.441	16231	13629	0	888
8.078	-17.129	16211	13440	0	888
5.085	-22.575	16196	13336	0	888
5.121	-24.306	16179	13371	0	888
3.354	-25.424	16168	13538	0	888
3.318	-27.119	16157	13776	0	888
-0.325	-28.669	16144	13993	0	888
-4.111	-30.472	16133	14182	0	888
-6.455	-33.393	16124	14384	0	888
-9.881	-33.610	16114	14615	0	888
-11.251	-35.449	16102	14797	0	888
-9.737	-36.747	16090	14888	0	888
-10.783	-37.432	16081	14979	0	888
-9.881	-39.019	16068	15133	0	888
-10.133	-39.993	16061	15343	0	888
-11.648	-41.291	16052	15559	0	888
-15.326	-43.094	16040	15671	0	888
-17.202	-43.671	16031	15706	0	888
-17.743	-42.012	16023	15762	0	888
-13.668	-38.262	16012	15888	0	888
-8.439	-32.600	16005	16056	0	888
-3.318	-28.309	15999	16224	0	888
-0.938	-26.217	15993	16371	0	888
-2.488	-28.597	15986	16502	0	888
-3.173	-30.076	15980	16649	0	888
-4.183	-31.482	15976	16817	0	888
-2.777	-29.643	15973	17013	0	888
-2.993	-27.119	15971	17223	0	888
-4.796	-25.856	15967	17321	0	888
-8.511	-26.974	15957	17188	0	888
-14.172	-31.771	15945	16901	0	888
-17.490	-34.908	15935	16628	0	888
-18.536	-36.098	15924	16446	0	888
-16.336	-35.088	15914	16329	0	888
-14.641	-33.213	15906	16217	0	888
-14.064	-33.754	15896	16119	0	888
-14.100	-37.324	15889	16147	0	888
-17.562	-41.904	15887	16329	0	888
-15.687	-43.022	15885	16523	0	888
-15.326	-41.976	15876	16572	0	888
-11.648	-37.757	15870	16460	0	888
-10.855	-34.403	15861	16322	0	888
-7.573	-32.889	15852	16196	0	888
-5.265	-32.276	15842	16028	0	888
-1.731	-31.446	15827	15741	0	888
1.659	-29.968	15813	15419	0	888
4.147	-26.650	15800	15175	0	888
6.671	-23.765	15787	15042	0	888
9.737	-19.690	15777	15000	0	888
13.848	-15.831	15767	15000	0	888
20.483	-11.828	15756	14972	0	888
25.460	-8.150	15742	14888	0	888
27.768	-3.101	15733	14839	0	888
28.417	1.154	15723	14902	0	888
26.794	4.003	15715	15063	0	888
25.243	4.147	15708	15217	0	888
22.395	4.688	15699	15315	0	888
22.611	4.436	15692	15412	0	888
25.496	6.347	15686	15559	0	888
27.083	10.458	15681	15783	0	888
31.987	15.110	15679	16028	0	888
35.990	17.634	15670	16140	0	888
37.468	19.293	15662	16084	0	888
38.514	19.582	15652	15979	0	888
38.478	18.933	15643	15930	0	888
39.776	19.654	15637	15930	0	888
39.740	20.014	15628	15993	0	888
41.688	21.493	15623	16063	0	888
40.786	19.437	15614	16112	0	888
38.622	16.048	15613	16210	0	888
35.449	13.992	15612	16467	0	888
34.764	12.694	15610	16838	0	888
33.826	14.064	15613	17118	0	888
34.439	14.136	15610	17230	0	888
32.420	11.432	15607	17188	0	888
30.040	6.996	15600	17076	0	888
29.210	3.859	15595	16964	0	888
27.840	2.380	15588	16824	0	888
25.712	2.128	15580	16621	0	888
21.060	0.865	15571	16425	0	888
16.516	-2.777	15565	16322	0	888
13.631	-6.347	15560	16280	0	888
12.802	-6.455	15553	16280	0	888
16.949	-5.049	15547	16259	0	888
17.490	-2.488	15543	16210	0	888
19.437	-0.829	15537	16189	0	888
20.123	-1.587	15534	16252	0	888
20.772	-2.813	15532	16384	0	888
17.346	-5.265	15533	16558	0	888
15.038	-9.196	15531	16712	0	888
10.566	-13.271	15533	16915	0	888
6.239	-19.401	15538	17223	0	888
2.488	-24.450	15547	17642	0	888
-0.397	-30.436	15558	18160	0	888
-4.580	-37.108	15574	18775	0	888
-7.465	-42.734	15589	19390	0	888
-11.432	-46.051	15603	19796	0	888
-12.405	-45.294	15618	20041	0	888
-10.710	-39.127	15636	20377	0	888
-8.186	-33.754	15657	20852	0	888
-3.462	-28.128	15679	21363	0	888
-1.190	-27.804	15705	21866	0	888
-1.406	-30.184	15730	22265	0	888
-4.904	-35.269	15758	22642	0	888
-8.655	-39.055	15797	23279	0	888
-10.242	-41.976	15838	24160	0	888
-11.684	-40.894	15880	24922	0	888
-10.530	-37.468	15919	25390	0	888
-7.537	-34.764	15959	25663	0	888
-4.508	-32.636	16000	25873	0	888
-3.678	-31.482	16040	26090	0	888
-0.721	-31.085	16087	26307	0	888
0.649	-31.987	16130	26516	0	888
0.433	-31.194	16173	26600	0	888
0.505	-32.456	16216	26523	0	888
-1.154	-33.069	16257	26314	0	888
-2.200	-31.771	16298	26041	0	888
-2.200	-29.463	16340	25761	0	888
-0.613	-24.017	16378	25425	1	904
1.479	-20.231	16414	24985	0	904
4.364	-15.651	16452	24502	0	904
4.832	-14.785	16489	24062	0	904
3.750	-14.461	16524	23621	0	904
2.633	-17.995	16557	23076	0	904
-2.452	-21.637	16591	22439	0	904
-4.688	-26.974	16620	21775	0	904
-9.088	-30.364	16648	21125	0	904
-8.511	-31.662	16675	20467	0	904
-7.393	-28.958	16699	19768	0	904
-4.977	-24.162	16720	19034	0	904
-0.865	-21.060	16742	18335	0	904
-0.469	-20.267	16761	17691	0	904
-0.252	-23.332	16781	17111	0	904
-3.426	-26.361	16801	16628	0	904
-4.724	-28.777	16819	16175	0	904
-4.544	-28.201	16828	15552	0	904
-1.731	-25.063	16838	14783	0	904
1.118	-22.070	16843	14000	0	904
4.075	-22.683	16839	13126	0	904
5.121	-24.125	16835	12161	0	904
3.101	-26.109	16831	11343	0	904
6.275	-27.335	16824	10720	0	904
8.439	-24.089	16818	10147	0	904
12.982	-20.736	16809	9622	0	904
15.651	-16.985	16796	9126	0	904
20.447	-13.451	16786	8713	0	904
21.313	-10.783	16777	8531	0	904
24.702	-6.419	16771	8559	0	904
26.253	-2.344	16766	8769	0	904
27.948	0.036	16768	9203	0	904
27.732	2.596	16769	9797	0	904
32.239	6.275	16771	10384	0	904
36.242	9.304	16773	10881	0	904
38.190	13.127	16775	11364	0	904
36.639	12.658	16778	11916	0	904
31.410	11.107	16783	12510	0	904
27.443	10.386	16790	13077	0	904
28.886	11.179	16793	13552	0	904
37.324	18.428	16796	13958	0	904
47.025	24.775	16799	14315	0	904
52.218	28.741	16800	14594	0	904
51.713	27.948	16801	14790	0	904
46.268	26.181	16804	15021	0	904
39.452	23.621	16806	15294	0	904
37.180	23.260	16810	15566	0	904
36.062	22.178	16812	15825	0	904
34.836	19.690	16815	16056	0	904
33.754	16.048	16816	16189	0	904
32.528	13.235	16816	16231	0	904
33.177	14.136	16818	16266	0	904
34.006	17.021	16818	16329	0	904
34.656	18.464	16819	16404	0	904
32.239	16.661	16820	16460	0	904
26.902	12.333	16820	16474	0	904
21.781	6.167	16819	16432	0	904
17.562	0.757	16814	16266	0	904
16.120	-3.282	16806	15979	0	904
13.163	-6.347	16802	15748	0	904
13.343	-9.881	16797	15629	0	904
9.520	-13.163	16792	15524	0	904
6.455	-15.543	16782	15322	0	904
6.131	-15.795	16773	15021	0	904
6.203	-14.713	16766	14783	0	904
9.304	-14.064	16756	14685	0	904
12.261	-14.136	16751	14685	0	904
14.064	-17.454	16744	14678	0	904
14.028	-19.906	16735	14629	0	904
12.766	-21.673	16729	14608	0	904
13.740	-20.519	16724	14643	0	904
13.559	-17.779	16714	14678	0	904
13.884	-16.084	16708	14671	0	904
15.110	-14.064	16700	14650	0	904
13.848	-13.740	16690	14650	0	904
12.982	-14.172	16686	14720	0	904
12.874	-13.379	16681	14895	0	904
13.451	-12.189	16676	15098	0	904
16.408	-10.855	16667	15126	0	904
15.975	-10.602	16652	14825	0	904
14.136	-11.396	16635	14364	0	904
9.701	-15.975	16621	14112	0	904
4.003	-21.277	16610	14126	0	904
0.072	-25.460	16599	14203	0	904
-1.875	-28.705	16589	14252	0	904
-1.983	-29.787	16579	14301	0	904
-2.596	-30.472	16570	14405	0	904
-6.419	-32.528	16561	14587	0	904
-8.835	-33.970	16560	14930	0	904
-10.097	-35.557	16557	15378	0	904
-10.638	-34.692	16552	15671	0	904
-7.862	-32.600	16542	15657	0	904
-4.400	-30.184	16532	15454	0	904
-1.370	-28.164	16518	15287	0	904
2.019	-26.470	16506	15196	0	904
4.724	-27.371	16495	15105	0	904
6.383	-27.948	16479	14916	0	904
4.688	-29.751	16463	14664	0	904
3.534	-30.472	16448	14503	0	904
0.613	-29.787	16434	14468	0	904
0.397	-26.830	16425	14531	0	904
1.515	-25.279	16413	14629	0	904
3.642	-21.962	16400	14657	0	904
7.609	-18.211	16386	14636	0	904
13.884	-12.297	16374	14601	0	904
18.031	-7.104	16360	14538	0	904
22.647	-1.767	16344	14440	0	904
26.614	1.046	16329	14357	0	904
27.191	1.731	16313	14315	0	904
28.453	1.731	16301	14357	0	904
29.138	1.767	16292	14524	0	904
28.201	-0.180	16279	14776	0	904
22.791	-4.544	16270	14986	0	904
16.841	-9.448	16262	15147	0	904
11.864	-13.812	16254	15350	0	904
7.825	-14.533	16246	15601	0	904
10.999	-12.622	16240	15846	0	904
14.894	-8.619	16232	16021	0	904
18.788	-8.294	16224	16133	0	904
19.113	-9.484	16217	16224	0	904
20.195	-11.720	16208	16308	0	904
24.702	-8.186	16200	16350	0	904
27.804	-1.515	16191	16343	0	904
31.699	6.347	16178	16245	0	904
31.699	12.766	16164	15986	0	904
27.047	10.963	16146	15573	0	904
21.168	5.554	16125	15133	0	904
14.605	-1.082	16107	14825	0	904
13.668	-5.806	16088	14615	0	904
12.225	-5.229	16064	14252	0	904
13.848	-2.524	16038	13678	0	904
16.949	2.993	16014	13217	0	904
17.779	8.511	15997	13147	0	904
18.500	9.629	15983	13426	0	904
16.048	8.366	15973	13860	0	904
13.740	3.318	15964	14273	0	904
8.547	-3.173	15956	14566	0	904
4.183	-8.114	15945	14804	0	904
-0.974	-11.504	15934	15049	0	904
-3.787	-11.071	15926	15301	0	904
-5.157	-10.638	15919	15552	0	904
-3.390	-9.953	15909	15769	0	904
-0.505	-10.169	15904	15965	0	904
1.334	-11.612	15896	16210	0	904
0.469	-15.831	15894	16551	0	904
-2.741	-20.159	15891	16936	0	904
-6.131	-23.621	15887	17251	0	904
-5.950	-25.135	15887	17467	0	904
-4.688	-21.421	15885	17649	0	904
-0.865	-15.038	15882	17845	0	904
3.210	-9.737	15882	18013	0	904
6.455	-5.662	15877	18048	0	904
7.501	-7.248	15873	17985	0	904
7.321	-10.566	15867	17929	0	904
5.662	-14.894	15866	17901	0	904
3.787	-17.562	15862	17873	0	904
2.849	-19.005	15858	17817	0	904
1.226	-18.644	15854	17719	0	904
0.036	-17.634	15849	17586	0	904
-1.695	-16.444	15843	17404	0	904
-2.993	-16.589	15835	17160	0	904
-0.902	-17.346	15828	16936	0	904
1.947	-17.238	15821	16782	0	904
4.508	-14.930	15814	16670	0	904
10.386	-10.746	15809	16530	0	904
13.343	-7.357	15801	16425	0	904
13.235	-7.573	15800	16474	0	904
11.504	-13.163	15800	16642	0	904
6.744	-17.959	15797	16740	0	904
4.688	-19.762	15794	16719	0	904
5.770	-16.661	15789	16621	0	904
7.357	-11.432	15782	16495	0	904
9.809	-8.439	15778	16404	0	904
8.691	-9.953	15775	16371	0	904
7.789	-14.966	15767	16259	0	904
5.662	-16.480	15757	16028	0	904
6.419	-15.182	15747	15741	0	904
8.763	-9.881	15734	15371	0	904
13.848	-1.839	15717	14916	0	904
19.077	4.327	15703	14545	0	904
21.745	8.114	15689	14329	0	904
20.267	7.321	15676	14203	0	904
14.425	4.291	15667	14217	0	904
13.307	3.390	15661	14378	0	904
14.281	1.803	15655	14636	0	904
14.064	1.406	15649	14860	0	904
15.579	-1.118	15638	14853	0	904
10.025	-6.022	15624	14650	0	904
4.039	-10.314	15615	14552	0	904
-0.036	-10.169	15607	14699	0	904
0.974	-7.789	15603	14951	0	904
1.767	-6.167	15598	15252	0	904
5.193	-8.006	15599	15650	0	904
2.849	-12.622	15603	16182	0	904
1.442	-17.382	15613	16880	0	904
0.000	-20.123	15628	17824	0	904
-0.144	-21.132	15650	18894	0	904
0.938	-20.700	15670	19803	0	904
4.039	-18.175	15687	20404	0	904
4.183	-15.110	15705	20845	0	904
3.029	-13.848	15727	21349	0	904
-0.793	-16.228	15752	21943	0	904
-2.885	-20.447	15777	22551	0	904
-4.400	-24.342	15803	23048	0	904
-1.190	-22.647	15829	23418	0	904
4.832	-17.129	15863	23845	0	904
11.504	-9.412	15897	24397	0	904
14.208	-5.698	15933	24922	0	904
14.533	-5.986	15969	25307	0	904
10.855	-11.937	16006	25579	0	904
6.708	-16.192	16045	25831	0	904
4.219	-19.582	16087	26090	0	904
4.003	-20.664	16128	26307	0	904
4.760	-19.690	16168	26418	0	904
6.094	-19.329	16211	26460	0	904
3.642	-21.926	16255	26495	0	904
-0.216	-24.630	16301	26551	0	904
-3.390	-25.748	16345	26586	0	904
-5.698	-25.027	16389	26537	0	904
-4.580	-21.421	16432	26342	0	904
-1.118	-18.897	16472	25999	0	904
3.065	-16.372	16511	25537	0	904
5.626	-16.084	16547	24950	1	888
5.770	-17.021	16580	24237	0	888
5.950	-16.228	16609	23446	0	888
3.823	-15.579	16639	22663	0	888
5.626	-15.110	16667	21929	0	888
6.094	-14.605	16696	21258	0	888
6.816	-13.487	16721	20607	0	888
8.547	-12.405	16748	19943	0	888
9.917	-7.357	16771	19265	0	888
16.372	-3.750	16792	18614	0	888
23.116	2.019	16812	17978	0	888
30.472	5.517	16833	17384	0	888
35.810	8.871	16857	16978	0	888
36.603	8.871	16879	16761	0	888
34.836	8.547	16898	16453	0	888
31.374	6.635	16911	15888	0	888
27.768	3.931	16922	15140	0	888
25.171	4.652	16930	14447	0	888
26.542	6.419	16940	13944	0	888
31.194	9.304	16949	13601	0	888
36.134	12.189	16958	13280	0	888
39.921	13.163	16964	12902	0	888
42.445	11.612	16967	12545	0	888
41.724	11.432	16972	12259	0	888
39.957	12.441	16974	12014	0	888
39.560	12.982	16974	11783	0	888
40.678	14.749	16976	11559	0	888
40.822	14.028	16977	11384	0	888
41.147	11.396	16976	11294	0	888
39.272	8.475	16978	11329	0	888
39.019	8.691	16977	11419	0	888
38.082	10.061	16974	11350	0	888
38.262	13.379	16962	10972	0	888
39.127	15.038	16949	10496	0	888
36.170	15.254	16939	10273	0	888
32.528	13.595	16930	10294	0	888
30.617	12.874	16921	10343	0	888
27.263	11.107	16911	10398	0	888
27.660	10.674	16902	10517	0	888
27.984	8.979	16895	10720	0	888
28.597	9.196	16887	11000	0	888
28.489	8.402	16881	11280	0	888
24.306	9.232	16873	11559	0	888
19.582	7.429	16868	11867	0	888
15.471	5.409	16859	12119	0	888
12.694	2.272	16849	12259	0	888
12.622	-0.325	16838	12364	0	888
15.615	-3.498	16828	12496	0	888
15.615	-5.590	16816	12657	0	888
15.543	-9.232	16805	12811	0	888
13.704	-9.773	16795	12958	0	888
8.907	-12.225	16785	13147	0	888
6.203	-13.271	16777	13426	0	888
0.649	-16.805	16771	13783	0	888
-2.308	-21.926	16764	14126	0	888
-3.282	-28.273	16758	14419	0	888
-2.416	-30.184	16757	14776	0	888
-1.803	-29.895	16753	15245	0	888
0.685	-27.624	16754	15713	0	888
1.370	-24.270	16752	16112	0	888
0.505	-24.234	16753	16404	0	888
1.911	-24.125	16750	16635	0	888
5.409	-22.358	16749	16824	0	888
9.304	-19.618	16748	16985	0	888
13.740	-14.894	16742	17055	0	888
15.975	-9.881	16738	17048	0	888
18.860	-7.285	16735	17020	0	888
19.185	-4.436	16730	17048	0	888
21.060	-2.777	16730	17132	0	888
22.791	-3.246	16726	17230	0	888
22.539	-3.390	16726	17300	0	888
21.421	-5.554	16725	17363	0	888
17.706	-6.888	16726	17446	0	888
16.480	-9.773	16725	17544	0	888
15.038	-11.756	16726	17607	0	888
15.831	-14.172	16724	17579	0	888
15.939	-16.264	16721	17481	0	888
16.408	-17.490	16715	17307	0	888
13.415	-17.057	16710	17069	0	888
14.064	-14.821	16705	16859	0	888
13.127	-13.704	16707	16845	0	888
10.710	-13.163	16707	17013	0	888
8.655	-15.723	16704	17055	0	888
4.472	-18.608	16696	16782	0	888
3.750	-19.437	16687	16364	0	888
5.445	-18.067	16676	15958	0	888
8.943	-15.939	16664	15615	0	888
12.838	-14.317	16654	15287	0	888
11.468	-15.218	16643	14972	0	888
9.737	-15.939	16627	14657	0	888
8.727	-15.398	16613	14343	0	888
11.684	-12.045	16600	14091	0	888
15.182	-7.068	16587	13937	0	888
21.998	-3.967	16572	13790	0	888
21.781	-4.760	16557	13608	0	888
20.159	-7.753	16542	13482	0	888
14.425	-13.631	16529	13440	0	888
14.317	-15.182	16513	13343	0	888
16.120	-13.704	16493	13112	0	888
21.096	-8.727	16474	12853	0	888
24.955	-3.787	16453	12699	0	888
28.417	-2.705	16438	12692	0	888
29.571	-3.570	16423	12839	0	888
29.066	-5.337	16412	13091	0	888
30.364	-5.878	16399	13329	0	888
29.751	-6.203	16385	13510	0	888
28.741	-4.724	16374	13678	0	888
27.263	-5.373	16361	13825	0	888
26.109	-5.986	16350	13979	0	888
23.188	-7.032	16336	14175	0	888
20.988	-7.104	16320	14259	0	888
21.024	-7.789	16303	14189	0	888
17.670	-8.727	16289	14168	0	888
17.743	-11.179	16275	14308	0	888
15.182	-11.504	16260	14475	0	888
16.949	-12.297	16249	14615	0	888
17.670	-10.674	16235	14720	0	888
22.322	-7.717	16217	14713	0	888
20.988	-7.285	16202	14671	0	888
18.897	-8.222	16195	14881	0	888
12.081	-11.864	16188	15371	0	888
8.511	-14.245	16181	15797	0	888
6.203	-14.821	16172	15979	0	888
6.635	-13.704	16162	16014	0	888
7.429	-13.199	16149	16063	0	888
10.133	-11.396	16144	16189	0	888
10.386	-11.864	16136	16397	0	888
11.432	-11.215	16131	16670	0	888
15.290	-8.439	16126	16887	0	888
18.428	-7.862	16120	17027	0	888
20.519	-7.825	16115	17167	0	888
24.306	-8.619	16110	17300	0	888
25.929	-7.753	16104	17335	0	888
27.119	-6.347	16097	17286	0	888
29.823	-2.596	16090	17223	0	888
32.853	0.938	16083	17202	0	888
34.980	2.813	16081	17223	0	888
35.918	3.787	16072	17237	0	888
35.413	3.426	16066	17181	0	888
33.718	3.750	16058	17034	0	888
31.194	1.551	16049	16887	0	888
26.614	-0.541	16043	16817	0	888
22.503	-4.400	16036	16810	0	888
16.805	-7.357	16029	16726	0	888
14.677	-10.638	16017	16425	0	888
10.855	-12.946	16000	15993	0	888
9.412	-12.622	15987	15615	0	888
11.071	-13.523	15973	15364	0	888
10.927	-13.740	15962	15231	0	888
9.881	-14.966	15952	15203	0	888
9.268	-17.706	15939	15168	0	888
6.996	-21.313	15926	15014	0	888
3.246	-25.784	15911	14776	0	888
2.921	-26.217	15897	14622	0	888
2.705	-26.145	15887	14608	0	888
3.823	-24.955	15876	14664	0	888
3.859	-23.404	15863	14678	0	888
3.173	-24.125	15851	14636	0	888
4.291	-23.765	15840	14650	0	888
2.705	-24.378	15832	14797	0	888
4.688	-20.772	15825	15084	0	888
7.753	-16.408	15820	15391	0	888
11.360	-11.107	15816	15629	0	888
17.057	-7.753	15810	15846	0	888
20.303	-5.445	15809	16091	0	888
24.234	-5.265	15801	16294	0	888
24.125	-6.924	15795	16343	0	888
23.440	-7.573	15786	16280	0	888
22.395	-5.517	15778	16238	0	888
21.745	-4.616	15773	16308	0	888
23.512	-2.092	15770	16474	0	888
26.938	-1.154	15768	16712	0	888
28.561	-1.911	15765	16922	0	888
32.023	-2.596	15763	17048	0	888
32.961	-2.596	15757	17083	0	888
31.626	-3.606	15757	17118	0	888
28.092	-5.013	15757	17237	0	888
24.089	-7.609	15756	17425	0	888
19.690	-10.602	15758	17656	0	888
16.552	-12.802	15765	17985	0	888
13.740	-14.172	15776	18425	0	888
11.035	-16.949	15786	18936	0	888
7.176	-20.303	15803	19474	0	888
3.210	-23.296	15819	20027	0	888
3.859	-24.089	15837	20558	0	888
6.347	-20.664	15859	21090	0	888
12.694	-14.785	15885	21698	0	888
17.959	-7.789	15919	22495	0	888
23.512	-4.472	15954	23425	0	888
23.693	-4.255	15990	24167	0	888
23.765	-5.049	16020	24530	0	888
22.719	-9.232	16048	24642	0	888
16.841	-11.648	16078	24691	0	888
13.704	-14.569	16110	24761	0	888
7.970	-18.211	16144	24859	0	888
6.131	-18.680	16177	24964	0	888
7.104	-16.841	16211	25027	0	888
12.189	-12.658	16248	25062	0	888
16.408	-7.501	16282	25048	0	888
18.897	-5.337	16312	24838	0	888
20.050	-4.472	16344	24467	0	888
21.132	-3.606	16374	24076	0	888
19.185	-3.823	16403	23719	1	808
20.483	-1.442	16433	23404	0	808
19.077	0.216	16466	23132	0	808
17.129	-0.938	16495	22824	0	808
12.189	-4.436	16525	22439	0	808
6.852	-10.855	16552	22013	0	808
1.551	-16.769	16580	21537	0	808
-1.767	-19.870	16605	21062	0	808
-0.288	-17.923	16632	20635	0	808
4.904	-13.307	16657	20230	0	808
8.907	-10.602	16682	19838	0	808
10.386	-10.638	16707	19488	0	808
8.655	-12.982	16732	19195	0	808
7.501	-16.048	16758	18908	0	808
7.609	-16.480	16778	18565	0	808
11.251	-15.831	16799	18146	0	808
13.199	-15.435	16816	17656	0	808
16.697	-13.451	16833	17146	0	808
16.300	-10.855	16848	16663	0	808
17.706	-6.996	16860	16238	0	808
16.985	-3.787	16874	15825	0	808
16.084	-5.806	16883	15412	0	808
10.891	-11.720	16892	14951	0	808
2.741	-20.123	16898	14433	0	808
-1.515	-27.948	16902	13902	0	808
-8.799	-31.554	16897	13238	0	808
-11.684	-31.518	16891	12461	0	808
-11.396	-30.004	16886	11818	0	808
-9.556	-27.047	16881	11391	0	808
-9.881	-26.614	16878	11161	0	808
-7.032	-26.614	16879	11126	0	808
-6.671	-28.850	16881	11224	0	808
-4.940	-32.276	16874	11238	0	808
-6.275	-34.656	16863	10916	0	808
-7.248	-36.242	16852	10433	0	808
-9.052	-37.072	16842	10189	0	808
-10.602	-35.485	16834	10259	0	808
-6.708	-32.492	16830	10489	0	808
-1.731	-26.866	16825	10769	0	808
4.652	-21.601	16824	11133	0	808
7.140	-17.598	16821	11601	0	808
10.422	-16.156	16826	12175	0	808
13.487	-16.516	16829	12783	0	808
14.172	-15.687	16831	13301	0	808
19.077	-13.631	16834	13755	0	808
20.411	-8.294	16838	14196	0	808
22.755	-5.265	16843	14664	0	808
24.919	-2.524	16849	15126	0	808
22.467	-2.128	16853	15517	0	808
20.014	-2.596	16855	15811	0	808
19.618	-3.390	16860	16056	0	808
18.175	-4.544	16860	16252	0	808
19.546	-4.940	16862	16357	0	808
16.841	-6.131	16862	16411	0	808
13.054	-10.206	16862	16460	0	808
5.085	-12.694	16862	16446	0	808
-0.180	-15.326	16855	16294	0	808
-4.472	-17.670	16850	16014	0	808
-5.806	-18.752	16843	15769	0	808
-7.717	-21.349	16836	15629	0	808
-9.629	-24.919	16830	15482	0	808
-11.143	-29.571	16820	15231	0	808
-9.953	-30.148	16809	14895	0	808
-9.088	-29.931	16797	14643	0	808
-6.888	-28.525	16791	14559	0	808
-5.301	-27.083	16786	14629	0	808
-3.931	-26.614	16780	14748	0	808
-2.344	-24.270	16773	14825	0	808
2.560	-21.277	16769	14888	0	808
7.393	-18.933	16757	14804	0	808
10.927	-17.454	16745	14517	0	808
11.504	-18.969	16730	14252	0	808
12.982	-20.591	16723	14168	0	808
10.602	-20.123	16713	14245	0	808
13.487	-16.661	16709	14482	0	808
16.012	-9.232	16707	14860	0	808
21.709	-2.813	16707	15252	0	808
28.814	2.416	16705	15517	0	808
30.833	2.092	16699	15657	0	808
29.066	-1.442	16695	15755	0	808
23.873	-6.167	16692	15888	0	808
17.129	-7.825	16687	16042	0	808
13.704	-7.609	16686	16168	0	808
9.556	-8.330	16682	16245	0	808
4.327	-9.701	16678	16322	0	808
-2.380	-14.533	16676	16384	0	808
-7.717	-19.113	16671	16432	0	808
-10.242	-21.709	16665	16425	0	808
-7.573	-21.493	16657	16287	0	808
-3.750	-19.690	16647	15986	0	808
-2.524	-17.887	16632	15615	0	808
-0.288	-17.598	16618	15252	0	808
-0.216	-17.310	16604	14951	0	808
1.118	-18.500	16591	14713	0	808
3.065	-18.320	16572	14378	0	808
5.085	-16.552	16552	13916	0	808
10.458	-13.271	16533	13545	0	808
14.858	-9.629	16520	13503	0	808
17.093	-8.907	16511	13755	0	808
17.238	-9.845	16504	14077	0	808
9.917	-14.136	16494	14308	0	808
5.806	-19.437	16486	14433	0	808
3.787	-20.988	16474	14524	0	808
5.481	-20.880	16465	14622	0	808
8.943	-19.293	16456	14734	0	808
8.042	-18.716	16444	14804	0	808
6.708	-20.195	16432	14790	0	808
3.282	-22.611	16422	14797	0	808
3.029	-24.125	16412	14930	0	808
6.383	-23.008	16404	15154	0	808
10.494	-19.546	16398	15391	0	808
13.091	-17.851	16390	15580	0	808
13.307	-17.166	16384	15727	0	808
8.691	-19.221	16378	15874	0	808
3.714	-24.594	16373	16056	0	808
-0.108	-28.128	16369	16245	0	808
-0.757	-30.833	16363	16384	0	808
0.902	-30.400	16356	16467	0	808
2.488	-29.535	16350	16530	0	808
5.301	-28.273	16344	16593	0	808
6.058	-26.866	16341	16670	0	808
7.934	-27.768	16332	16705	0	808
9.484	-27.804	16327	16670	0	808
8.258	-30.545	16318	16600	0	808
8.150	-33.357	16311	16488	0	808
5.986	-35.882	16302	16404	0	808
5.085	-35.557	16300	16488	0	808
6.599	-31.518	16297	16649	0	808
8.114	-26.361	16286	16607	0	808
11.900	-22.142	16274	16308	0	808
10.963	-21.673	16259	15888	0	808
8.583	-23.585	16245	15510	0	808
2.452	-28.345	16232	15266	0	808
-2.921	-32.889	16219	15098	0	808
-4.724	-32.564	16205	14888	0	808
-2.056	-29.210	16188	14622	0	808
3.137	-22.683	16178	14545	0	808
8.150	-16.048	16168	14727	0	808
12.441	-12.009	16163	14986	0	808
15.867	-11.251	16157	15168	0	808
17.706	-10.278	16146	15259	0	808
19.257	-11.323	16140	15336	0	808
15.146	-12.838	16131	15433	0	808
9.412	-17.815	16125	15524	0	808
1.515	-22.683	16117	15615	0	808
-5.481	-28.633	16110	15706	0	808
-8.979	-30.689	16103	15797	0	808
-6.058	-31.446	16097	15909	0	808
-5.626	-31.049	16092	16077	0	808
-2.669	-30.472	16087	16252	0	808
-0.938	-29.282	16083	16364	0	808
0.865	-28.705	16077	16425	0	808
4.436	-27.624	16072	16481	0	808
8.042	-27.515	16068	16544	0	808
10.566	-28.669	16062	16614	0	808
8.222	-28.705	16058	16656	0	808
2.669	-30.472	16055	16684	0	808
-1.623	-30.941	16049	16740	0	808
-4.832	-30.148	16045	16803	0	808
-3.931	-29.859	16038	16733	0	808
-1.623	-28.525	16024	16378	0	808
0.793	-25.784	16009	15811	0	808
1.154	-22.791	15992	15336	0	808
3.354	-18.824	15976	15021	0	808
7.898	-14.100	15962	14776	0	808
15.002	-10.025	15947	14566	0	808
21.673	-7.357	15930	14364	0	808
20.916	-9.556	15916	14154	0	808
17.598	-11.323	15897	13951	0	808
9.268	-14.317	15885	13825	0	808
6.311	-13.776	15871	13846	0	808
8.907	-11.251	15862	14035	0	808
12.946	-7.140	15853	14350	0	808
20.195	-4.904	15846	14650	0	808
20.411	-4.291	15839	14874	0	808
21.204	-4.364	15837	15224	0	808
21.060	-3.859	15839	15804	0	808
23.332	-2.452	15843	16502	0	808
26.289	-1.298	15852	17216	0	808
27.696	-0.721	15862	17915	0	808
27.840	0.000	15876	18635	0	808
27.840	1.442	15892	19425	0	808
30.436	3.750	15914	20321	0	808
35.124	7.717	15942	21265	0	808
38.370	9.124	15968	22146	0	808
38.406	10.855	15996	22950	0	808
36.206	11.251	16031	23712	0	808
33.934	12.441	16064	24453	0	808
35.269	14.605	16101	25090	0	808
37.937	16.733	16135	25558	0	808
39.127	16.733	16171	25873	0	808
36.387	15.831	16205	26111	0	808
32.636	13.415	16239	26251	0	808
27.624	10.097	16274	26300	0	808
28.164	9.737	16311	26314	0	808
29.499	10.025	16346	26293	0	808
33.033	10.746	16383	26188	0	808
33.321	7.285	16413	25915	0	808
29.102	3.534	16443	25495	0	808
23.080	-2.416	16476	25069	1	796
17.995	-4.472	16509	24726	0	796
13.235	-4.364	16539	24370	0	796
9.052	-2.344	16567	23873	0	796
8.547	-3.246	16595	23237	0	796
5.445	-6.491	16621	22628	0	796
4.688	-10.350	16649	22132	0	796
5.013	-12.622	16680	21761	0	796
5.590	-14.894	16706	21432	0	796
6.239	-16.625	16737	21062	0	796
4.832	-18.392	16764	20747	0	796
2.596	-21.168	16796	20544	0	796
-2.164	-23.440	16828	20356	0	796
-7.537	-23.909	16854	20097	0	796
-10.278	-25.243	16882	19747	0	796
-12.441	-25.893	16906	19356	0	796
-12.441	-30.328	16931	18978	0	796
-13.776	-34.151	16955	18649	0	796
-19.618	-38.911	16981	18349	0	796
-21.565	-43.238	16998	17936	0	796
-26.397	-43.924	17014	17307	0	796
-28.128	-44.320	17026	16614	0	796
-29.607	-43.779	17043	16168	0	796
-30.256	-43.996	17059	15951	0	796
-32.203	-42.914	17076	15755	0	796
-33.754	-42.337	17089	15454	0	796
-34.367	-40.642	17097	14951	0	796
-34.259	-39.524	17098	14294	0	796
-33.862	-40.678	17101	13643	0	796
-34.908	-41.868	17101	13077	0	796
-35.088	-43.527	17105	12678	0	796
-33.393	-44.284	17107	12482	0	796
-30.545	-41.724	17112	12398	0	796
-24.955	-38.803	17116	12350	0	796
-20.916	-36.098	17122	12378	0	796
-17.743	-34.115	17129	12489	0	796
-18.608	-33.538	17134	12629	0	796
-17.057	-33.502	17140	12783	0	796
-17.490	-32.456	17146	12944	0	796
-14.569	-31.987	17150	13112	0	796
-15.218	-31.230	17156	13315	0	796
-13.343	-30.076	17165	13587	0	796
-10.061	-30.148	17172	13881	0	796
-8.475	-28.994	17180	14140	0	796
-5.734	-28.922	17188	14419	0	796
-4.760	-27.768	17197	14741	0	796
-6.744	-27.840	17204	14986	0	796
-8.402	-28.128	17208	15084	0	796
-11.864	-27.551	17212	15084	0	796
-11.720	-28.381	17213	15042	0	796
-10.458	-28.309	17215	15000	0	796
-9.665	-27.732	17216	14965	0	796
-6.419	-28.237	17212	14874	0	796
-6.852	-27.660	17211	14692	0	796
-8.222	-28.777	17206	14496	0	796
-9.881	-29.174	17202	14357	0	796
-12.838	-29.354	17201	14322	0	796
-12.622	-28.669	17199	14391	0	796
-8.799	-26.145	17197	14468	0	796
-5.265	-23.224	17196	14531	0	796
0.108	-18.572	17194	14594	0	796
4.724	-13.776	17193	14678	0	796
6.780	-8.727	17191	14734	0	796
13.127	-4.688	17187	14720	0	796
16.552	-1.262	17183	14622	0	796
20.231	-1.551	17173	14475	0	796
18.067	-4.400	17164	14322	0	796
14.497	-7.068	17156	14189	0	796
11.900	-7.681	17148	14077	0	796
13.271	-7.465	17137	13979	0	796
18.897	-6.527	17127	13846	0	796
20.952	-6.455	17115	13692	0	796
21.204	-9.953	17102	13531	0	796
17.057	-14.497	17091	13405	0	796
11.828	-15.579	17077	13350	0	796
8.619	-16.913	17065	13350	0	796
8.294	-16.625	17053	13308	0	796
10.602	-16.048	17036	13189	0	796
13.740	-13.884	17024	13126	0	796
15.975	-10.530	17011	13147	0	796
21.637	-5.229	16997	13224	0	796
22.106	-2.056	16986	13322	0	796
22.178	-0.649	16969	13378	0	796
21.926	-2.849	16958	13454	0	796
17.851	-5.842	16946	13580	0	796
15.146	-9.701	16935	13748	0	796
10.242	-13.451	16924	13923	0	796
9.160	-16.120	16912	14077	0	796
9.412	-16.120	16903	14273	0	796
12.946	-11.504	16893	14517	0	796
16.841	-6.167	16887	14804	0	796
21.349	-0.433	16878	15070	0	796
24.450	1.947	16869	15266	0	796
22.250	0.902	16861	15371	0	796
22.250	-1.298	16850	15440	0	796
22.827	-3.029	16842	15531	0	796
21.529	-4.472	16830	15594	0	796
25.027	-4.760	16814	15440	0	796
28.056	-4.255	16791	14979	0	796
26.686	-3.101	16768	14405	0	796
24.630	-2.957	16745	14007	0	796
22.611	-5.121	16726	13790	0	796
19.041	-8.042	16705	13664	0	796
18.500	-12.946	16687	13587	0	796
15.182	-18.320	16667	13524	0	796
13.631	-20.808	16647	13454	0	796
10.061	-20.555	16628	13433	0	796
8.150	-18.969	16611	13517	0	796
9.592	-14.245	16597	13671	0	796
11.792	-8.439	16579	13811	0	796
15.687	-4.364	16561	13853	0	796
22.034	-1.010	16538	13734	0	796
25.171	1.118	16513	13482	0	796
27.660	1.695	16487	13196	0	796
25.676	0.216	16465	13056	0	796
21.096	-3.029	16441	13056	0	796
13.631	-7.789	16420	13070	0	796
9.845	-12.405	16401	13196	0	796
10.963	-11.251	16385	13496	0	796
17.274	-6.347	16374	13909	0	796
28.201	2.092	16363	14343	0	796
36.675	8.222	16350	14748	0	796
40.137	8.006	16343	15182	0	796
39.344	5.337	16335	15699	0	796
36.819	2.813	16332	16280	0	796
38.045	2.957	16330	16810	0	796
40.678	8.078	16325	17244	0	796
41.940	12.045	16322	17593	0	796
39.452	13.523	16320	17936	0	796
36.639	11.360	16320	18272	0	796
30.292	7.862	16318	18593	0	796
28.273	3.895	16320	18838	0	796
26.902	1.839	16313	18915	0	796
25.388	0.685	16308	18803	0	796
25.279	0.649	16302	18663	0	796
25.316	1.479	16298	18558	0	796
29.282	3.859	16292	18425	0	796
32.167	6.708	16283	18258	0	796
35.305	9.953	16277	18062	0	796
37.360	10.999	16265	17740	0	796
38.118	8.835	16255	17342	0	796
37.613	3.787	16249	17132	0	796
36.098	-2.524	16243	17125	0	796
31.699	-8.871	16233	17013	0	796
24.089	-14.353	16221	16677	0	796
17.346	-19.690	16210	16273	0	796
10.674	-24.630	16195	15951	0	796
6.455	-30.689	16186	15755	0	796
5.301	-35.629	16176	15685	0	796
7.248	-38.803	16168	15685	0	796
6.924	-40.317	16160	15713	0	796
7.645	-41.039	16158	15818	0	796
6.131	-40.930	16154	16042	0	796
4.616	-38.947	16150	16273	0	796
6.383	-36.206	16147	16384	0	796
10.206	-32.239	16140	16336	0	796
14.028	-29.643	16134	16231	0	796
12.658	-29.787	16126	16147	0	796
8.186	-34.944	16119	16098	0	796
0.216	-40.678	16110	16028	0	796
-6.599	-48.431	16100	15860	0	796
-8.907	-52.362	16091	15671	0	796
-13.054	-55.355	16081	15566	0	796
-12.405	-56.581	16074	15573	0	796
-12.441	-53.480	16067	15622	0	796
-12.009	-50.307	16059	15594	0	796
-9.016	-47.097	16047	15440	0	796
-5.445	-43.779	16028	15049	0	796
-2.633	-43.924	16010	14531	0	796
-2.092	-45.763	15992	14154	0	796
-1.947	-48.143	15976	13972	0	796
-4.327	-49.838	15962	13923	0	796
-6.455	-48.215	15950	13986	0	796
-5.806	-46.664	15939	14077	0	796
-4.400	-45.294	15926	14175	0	796
-5.806	-45.727	15918	14315	0	796
-6.599	-50.451	15908	14496	0	796
-11.432	-54.598	15901	14706	0	796
-13.920	-56.401	15891	14909	0	796
-12.730	-55.139	15887	15154	0	796
-12.045	-51.424	15887	15559	0	796
-9.737	-49.225	15889	16189	0	796
-10.061	-49.730	15900	17006	0	796
-12.730	-52.687	15913	17943	0	796
-16.444	-53.877	15930	18894	0	796
-16.516	-52.470	15952	19831	0	796
-16.949	-47.890	15977	20831	0	796
-13.127	-41.471	16006	21852	0	796
-13.740	-39.596	16036	22789	0	796
-14.172	-40.426	16068	23621	0	796
-14.677	-42.697	16106	24411	0	796
-15.687	-44.789	16141	25188	0	796
-9.665	-41.399	16183	25922	0	796
-3.967	-36.567	16222	26544	0	796
-3.029	-33.898	16264	26992	0	796
-4.796	-34.079	16305	27300	0	796
-8.475	-35.882	16349	27558	0	796
-11.396	-38.875	16389	27803	0	796
-9.917	-39.235	16433	27978	0	796
-9.737	-39.055	16477	27999	0	796
-10.602	-41.580	16519	27873	0	796
-11.648	-44.068	16560	27649	0	796
-15.146	-44.897	16600	27293	0	796
-13.523	-42.445	16635	26782	0	796
-11.107	-38.009	16671	26181	1	816
-12.153	-34.583	16704	25565	0	816
-12.658	-34.547	16739	24964	0	816
-14.858	-37.396	16771	24370	0	816
-18.608	-41.435	16804	23754	0	816
-20.988	-45.366	16834	23111	0	816
-21.204	-47.890	16862	22453	0	816
-19.690	-46.232	16886	21691	0	816
-12.910	-39.344	16905	20726	0	816
-5.265	-29.427	16925	19698	0	816
1.046	-21.313	16943	18831	0	816
1.875	-18.500	16962	18167	0	816
0.469	-20.087	16982	17628	0	816
-0.325	-23.260	16998	17118	0	816
2.380	-20.014	17016	16635	0	816
9.773	-13.018	17040	16336	0	816
10.963	-6.852	17062	16252	0	816
6.203	-8.402	17086	16252	0	816
-4.147	-15.326	17111	16231	0	816
-12.802	-24.594	17132	16168	0	816
-12.081	-29.499	17154	16098	0	816
-8.294	-28.705	17177	16070	0	816
-4.436	-25.676	17199	16098	0	816
-9.376	-25.893	17221	16112	0	816
-18.860	-30.761	17242	16063	0	816
-27.624	-36.567	17261	16021	0	816
-31.158	-41.219	17282	16021	0	816
-33.682	-46.015	17306	16098	0	816
-35.810	-54.309	17326	16238	0	816
-42.842	-61.991	17347	16350	0	816
-44.501	-64.803	17369	16404	0	816
-37.036	-57.663	17393	16495	0	816
-22.503	-40.822	17414	16656	0	816
-9.016	-24.450	17438	16803	0	816
-1.875	-16.480	17459	16901	0	816
-6.852	-20.627	17479	16943	0	816
-13.920	-28.741	17497	16922	0	816
-13.956	-32.600	17514	16817	0	816
-7.573	-28.814	17528	16607	0	816
5.373	-18.392	17537	16280	0	816
13.091	-9.052	17546	15860	0	816
15.074	-6.203	17548	15350	0	816
11.648	-8.078	17548	14755	0	816
7.212	-9.701	17548	14140	0	816
10.458	-7.825	17545	13594	0	816
16.156	-0.036	17543	13161	0	816
21.709	7.140	17536	12755	0	816
25.027	11.360	17528	12266	0	816
25.352	11.360	17517	11692	0	816
23.729	10.278	17504	11175	0	816
27.083	10.566	17492	10818	0	816
31.194	12.333	17483	10594	0	816
32.095	11.251	17470	10468	0	816
29.463	10.674	17459	10364	0	816
27.732	9.845	17444	10224	0	816
27.263	10.530	17428	10056	0	816
31.338	14.966	17413	9958	0	816
35.737	20.447	17399	9944	0	816
37.937	21.854	17380	9937	0	816
36.891	20.627	17365	9972	0	816
33.393	17.310	17352	10126	0	816
33.105	16.048	17339	10419	0	816
34.403	17.129	17328	10797	0	816
36.459	20.411	17316	11133	0	816
35.774	21.349	17304	11426	0	816
32.636	20.736	17292	11720	0	816
32.059	19.978	17279	11951	0	816
37.649	23.512	17263	12098	0	816
47.530	31.194	17247	12217	0	816
57.627	39.668	17227	12238	0	816
62.063	43.383	17206	12126	0	816
60.043	42.120	17186	12119	0	816
51.857	35.629	17170	12315	0	816
51.172	27.624	17154	12580	0	816
51.821	25.207	17141	12853	0	816
57.086	28.056	17125	13140	0	816
65.489	38.731	17112	13419	0	816
69.744	50.018	17101	13762	0	816
73.855	56.653	17094	14301	0	816
70.970	54.129	17092	14958	0	816
68.157	46.664	17082	15440	0	816
62.279	40.281	17072	15608	0	816
63.145	41.147	17058	15601	0	816
66.030	46.917	17044	15559	0	816
72.196	51.929	17031	15573	0	816
73.386	49.297	17019	15615	0	816
69.492	38.262	17001	15573	0	816
58.997	23.945	16984	15405	0	816
46.809	13.163	16965	15210	0	816
36.351	10.061	16946	14965	0	816
31.085	10.133	16921	14580	0	816
30.436	13.018	16898	14168	0	816
32.961	16.552	16874	13923	0	816
38.298	19.221	16854	13839	0	816
43.527	22.034	16833	13797	0	816
43.851	22.827	16816	13832	0	816
39.380	21.637	16800	14014	0	816
35.305	19.978	16786	14245	0	816
33.285	21.457	16773	14496	0	816
34.836	23.008	16761	14804	0	816
39.199	23.260	16754	15196	0	816
43.310	23.440	16745	15608	0	816
43.347	21.529	16738	15979	0	816
43.310	22.611	16732	16273	0	816
42.193	21.601	16721	16481	0	816
40.317	15.903	16714	16642	0	816
33.502	2.164	16705	16775	0	816
23.224	-11.107	16696	16831	0	816
14.172	-18.103	16685	16803	0	816
11.179	-16.120	16673	16747	0	816
14.245	-6.455	16662	16670	0	816
20.303	-1.190	16651	16628	0	816
15.651	-3.534	16643	16719	0	816
5.121	-10.350	16637	16859	0	816
-8.294	-17.382	16623	16796	0	816
-18.283	-19.473	16609	16502	0	816
-19.113	-21.385	16591	16133	0	816
-17.815	-27.263	16577	15825	0	816
-24.522	-36.855	16560	15650	0	816
-32.023	-41.976	16548	15531	0	816
-38.550	-37.973	16529	15336	0	816
-37.829	-27.263	16511	15035	0	816
-32.312	-17.310	16493	14797	0	816
-28.453	-14.461	16479	14720	0	816
-31.951	-18.428	16465	14762	0	816
-36.639	-27.984	16450	14797	0	816
-45.258	-33.538	16438	14790	0	816
-45.005	-33.285	16425	14825	0	816
-39.127	-27.840	16410	14916	0	816
-35.557	-20.844	16395	14916	0	816
-39.272	-22.214	16383	14776	0	816
-50.884	-34.656	16364	14629	0	816
-65.849	-50.198	16346	14545	0	816
-75.153	-58.060	16332	14545	0	816
-74.180	-54.922	16321	14664	0	816
-69.455	-47.782	16307	14860	0	816
-68.518	-47.999	16298	15028	0	816
-74.468	-57.411	16286	15147	0	816
-80.310	-67.039	16274	15266	0	816
-79.553	-68.121	16263	15426	0	816
-75.622	-61.558	16255	15636	0	816
-69.996	-53.047	16246	15818	0	816
-64.659	-49.910	16239	15972	0	816
-63.830	-50.054	16231	16147	0	816
-59.863	-50.487	16222	16308	0	816
-56.509	-49.441	16217	16481	0	816
-56.185	-47.566	16215	16810	0	816
-54.454	-43.887	16212	17153	0	816
-55.788	-40.426	16205	17223	0	816
-50.379	-35.701	16192	17006	0	816
-43.671	-30.184	16178	16656	0	816
-34.656	-26.037	16165	16364	0	816
-26.433	-24.053	16153	16175	0	816
-22.899	-22.972	16141	16056	0	816
-18.788	-24.775	16129	15951	0	816
-17.346	-24.522	16117	15832	0	816
-13.415	-21.962	16106	15804	0	816
-8.619	-18.897	16101	15909	0	816
-3.570	-15.651	16092	16049	0	816
0.072	-17.454	16082	16084	0	816
0.613	-23.981	16073	15979	0	816
0.072	-30.184	16059	15797	0	816
2.452	-31.338	16048	15629	0	816
5.590	-27.732	16034	15510	0	816
11.792	-20.519	16021	15405	0	816
14.677	-16.444	16009	15280	0	816
12.514	-16.877	15993	15140	0	816
7.645	-19.149	15982	15042	0	816
4.147	-20.050	15972	15049	0	816
3.354	-16.733	15962	15126	0	816
8.547	-12.261	15950	15196	0	816
12.189	-7.970	15937	15196	0	816
16.589	-7.465	15925	15126	0	816
15.146	-9.484	15911	15028	0	816
16.841	-9.484	15899	14937	0	816
16.769	-7.717	15883	14895	0	816
23.332	-3.354	15872	14909	0	816
27.335	2.344	15863	15007	0	816
35.485	5.229	15856	15224	0	816
40.570	6.239	15848	15510	0	816
43.743	5.770	15844	15818	0	816
47.169	4.039	15842	16147	0	816
45.907	2.813	15839	16474	0	816
43.563	2.092	15837	16747	0	816
38.658	1.010	15835	16985	0	816
34.439	1.046	15839	17349	0	816
33.754	2.669	15846	17922	0	816
37.396	6.924	15858	18607	0	816
39.885	9.268	15867	19202	0	816
43.527	10.891	15882	19663	0	816
43.851	8.439	15900	20251	0	816
44.032	7.681	15924	21097	0	816
45.618	8.186	15952	22055	0	816
50.451	12.982	15982	22943	0	816
55.283	15.723	16015	23677	0	816
59.683	16.048	16048	24314	0	816
58.384	12.297	16082	24852	0	816
56.581	7.104	16114	25237	0	816
53.552	4.147	16145	25467	0	816
49.585	2.344	16179	25635	0	816
49.657	2.957	16212	25796	0	816
48.684	2.308	16249	25943	0	816
44.897	-0.036	16287	26083	0	816
43.563	-1.983	16325	26188	0	816
43.996	-2.849	16363	26174	0	816
46.736	-3.137	16396	26048	0	816
49.549	-0.108	16433	25831	0	816
53.696	1.623	16467	25537	0	816
51.641	0.613	16501	25167	1	832
50.739	-1.479	16533	24768	0	832
47.386	-5.698	16566	24356	0	832
44.104	-5.842	16599	23943	0	832
45.294	-3.534	16628	23460	0	832
46.376	0.397	16652	22789	0	832
43.743	2.921	16675	21964	0	832
41.435	-1.046	16696	21181	0	832
32.564	-8.042	16718	20453	0	832
25.063	-16.156	16732	19642	0	832
19.401	-20.375	16748	18796	0	832
19.726	-21.241	16763	18097	0	832
17.779	-20.627	16780	17579	0	832
16.589	-21.349	16797	17160	0	832
12.261	-26.073	16814	16698	0	832
6.311	-30.004	16824	16210	0	832
2.380	-32.708	16840	15797	0	832
2.344	-31.590	16857	15566	0	832
4.940	-28.777	16874	15510	0	832
9.989	-25.532	16891	15489	0	832
10.314	-26.830	16909	15433	0	832
10.783	-28.525	16929	15468	0	832
10.458	-28.705	16949	15601	0	832
12.874	-23.945	16968	15734	0	832
19.870	-17.562	16988	15825	0	832
26.037	-10.891	17007	15902	0	832
30.148	-6.744	17024	15965	0	832
30.004	-5.554	17043	16042	0	832
30.040	-5.193	17063	16210	0	832
29.931	-4.508	17082	16384	0	832
28.850	-4.652	17097	16350	0	832
27.227	-10.386	17102	15937	0	832
21.349	-16.084	17103	15287	0	832
13.559	-22.431	17107	14748	0	832
6.744	-26.470	17111	14405	0	832
4.255	-25.135	17111	14098	0	832
4.075	-21.385	17112	13783	0	832
5.734	-21.745	17112	13503	0	832
6.888	-23.549	17112	13245	0	832
6.852	-27.155	17108	12972	0	832
5.085	-30.076	17103	12713	0	832
6.022	-29.282	17101	12503	0	832
8.042	-24.234	17096	12322	0	832
11.287	-20.772	17089	12133	0	832
16.877	-18.356	17081	11951	0	832
19.510	-17.346	17074	11818	0	832
22.431	-16.589	17065	11755	0	832
24.558	-16.805	17059	11720	0	832
23.585	-16.805	17046	11622	0	832
24.089	-16.156	17033	11461	0	832
24.666	-15.723	17022	11378	0	832
26.145	-13.776	17012	11461	0	832
29.715	-9.701	17006	11657	0	832
33.610	-5.698	16995	11811	0	832
35.052	-3.137	16984	11867	0	832
34.367	-4.255	16973	11958	0	832
30.581	-8.330	16963	12182	0	832
26.181	-14.930	16958	12489	0	832
19.870	-21.024	16949	12811	0	832
16.048	-24.847	16944	13126	0	832
11.684	-27.443	16940	13496	0	832
8.475	-29.643	16936	13951	0	832
6.563	-31.230	16935	14426	0	832
3.823	-32.167	16933	14825	0	832
3.282	-31.158	16928	15077	0	832
3.246	-31.013	16924	15259	0	832
1.587	-31.590	16919	15433	0	832
-0.288	-34.980	16915	15622	0	832
-3.859	-39.957	16910	15811	0	832
-9.376	-44.068	16906	15965	0	832
-12.910	-47.061	16902	16056	0	832
-14.100	-48.107	16896	16126	0	832
-13.631	-46.520	16893	16196	0	832
-8.835	-44.897	16886	16252	0	832
-2.416	-41.652	16879	16231	0	832
1.010	-38.767	16868	16042	0	832
5.590	-38.514	16853	15685	0	832
3.426	-37.541	16838	15287	0	832
2.128	-35.846	16824	14958	0	832
2.452	-32.780	16809	14727	0	832
4.183	-29.968	16795	14566	0	832
8.006	-26.578	16781	14447	0	832
9.881	-26.037	16767	14350	0	832
13.054	-24.594	16752	14259	0	832
13.559	-24.017	16743	14294	0	832
14.353	-21.601	16735	14489	0	832
17.057	-19.005	16721	14608	0	832
18.356	-15.903	16705	14447	0	832
22.178	-13.307	16687	14105	0	832
21.421	-12.441	16667	13825	0	832
18.067	-16.516	16651	13734	0	832
11.900	-24.811	16637	13790	0	832
3.210	-32.744	16621	13874	0	832
-1.442	-37.973	16608	13930	0	832
-0.361	-39.055	16595	13986	0	832
1.839	-37.324	16578	14049	0	832
3.065	-37.360	16567	14147	0	832
1.803	-39.885	16556	14336	0	832
-2.813	-41.904	16543	14559	0	832
-5.049	-39.885	16533	14783	0	832
-5.085	-36.711	16525	15042	0	832
-0.685	-31.085	16519	15357	0	832
2.524	-29.174	16513	15685	0	832
4.508	-30.581	16506	15930	0	832
4.183	-32.925	16495	16035	0	832
3.678	-34.006	16485	16049	0	832
4.868	-32.961	16475	16056	0	832
4.291	-31.230	16465	16077	0	832
4.472	-29.931	16451	16035	0	832
2.921	-28.597	16439	15923	0	832
0.829	-26.650	16425	15797	0	832
1.875	-24.739	16414	15713	0	832
3.210	-21.673	16398	15580	0	832
5.373	-18.500	16378	15196	0	832
8.511	-15.759	16349	14510	0	832
11.900	-12.225	16322	13776	0	832
13.523	-8.258	16296	13238	0	832
16.084	-3.787	16269	12951	0	832
15.110	-2.596	16248	12811	0	832
12.477	-3.642	16226	12762	0	832
9.160	-5.878	16206	12839	0	832
6.960	-8.619	16191	13077	0	832
9.160	-11.107	16179	13447	0	832
11.648	-11.143	16169	13937	0	832
12.153	-11.864	16165	14538	0	832
12.550	-13.235	16159	15140	0	832
10.278	-16.120	16149	15573	0	832
8.871	-16.156	16143	15797	0	832
9.376	-16.264	16131	15937	0	832
12.333	-15.795	16121	16077	0	832
13.018	-15.543	16111	16196	0	832
9.124	-16.264	16101	16301	0	832
5.878	-18.500	16091	16404	0	832
0.649	-20.014	16085	16544	0	832
-3.173	-21.349	16078	16747	0	832
-2.488	-21.709	16073	17034	0	832
1.118	-22.322	16069	17307	0	832
5.445	-19.726	16064	17425	0	832
9.845	-16.877	16057	17418	0	832
10.927	-14.713	16049	17363	0	832
8.042	-15.074	16038	17251	0	832
7.248	-16.985	16030	17111	0	832
6.058	-17.346	16021	16992	0	832
7.465	-15.723	16006	16768	0	832
10.422	-10.674	15992	16411	0	832
14.425	-8.222	15980	16147	0	832
13.199	-7.609	15968	16035	0	832
12.477	-10.710	15958	15993	0	832
11.540	-14.677	15950	15958	0	832
8.042	-17.021	15935	15867	0	832
4.688	-18.680	15924	15699	0	832
2.308	-20.880	15914	15629	0	832
1.731	-21.204	15909	15839	0	832
0.288	-21.204	15909	16238	0	832
0.649	-21.565	15905	16544	0	832
0.793	-21.926	15900	16600	0	832
-1.334	-25.424	15892	16516	0	832
-2.416	-27.155	15885	16481	0	832
-1.118	-28.345	15882	16572	0	832
0.505	-25.820	15880	16733	0	832
2.669	-24.378	15872	16845	0	832
2.705	-24.955	15870	16852	0	832
2.164	-26.361	15866	16915	0	832
4.904	-27.660	15866	17083	0	832
7.068	-26.361	15865	17272	0	832
10.206	-23.440	15864	17432	0	832
9.917	-21.745	15865	17544	0	832
4.868	-23.693	15866	17670	0	832
2.056	-24.883	15868	17831	0	832
0.469	-24.630	15873	18020	0	832
4.219	-22.503	15878	18279	0	832
11.215	-16.300	15890	18649	0	832
14.533	-11.864	15902	19104	0	832
20.591	-8.222	15919	19649	0	832
20.231	-7.357	15940	20321	0	832
21.854	-5.481	15964	21062	0	832
20.195	-4.255	15992	21726	0	832
21.060	-0.721	16018	22293	0	832
24.053	1.911	16047	22817	0	832
25.243	2.488	16079	23328	0	832
27.263	3.642	16109	23789	0	832
27.624	2.200	16141	24160	0	832
26.145	-0.577	16174	24467	0	832
20.844	-3.823	16206	24656	0	832
17.166	-10.169	16235	24607	0	832
11.215	-14.821	16260	24390	0	832
7.717	-16.949	16289	24174	0	832
7.681	-16.264	16318	23978	0	832
8.114	-14.749	16343	23747	1	752
7.465	-15.543	16368	23397	0	752
3.462	-18.897	16390	22936	0	752
-0.180	-22.286	16414	22488	0	752
-1.551	-23.585	16437	22125	0	752
0.902	-20.880	16466	21838	0	752
2.957	-18.031	16489	21572	0	752
6.275	-17.238	16513	21265	0	752
4.796	-19.041	16537	20922	0	752
4.472	-22.611	16561	20579	0	752
5.517	-22.034	16582	20230	0	752
7.537	-19.726	16605	19873	0	752
9.701	-15.651	16628	19551	0	752
11.396	-12.658	16651	19307	0	752
10.999	-12.009	16676	19174	0	752
8.763	-11.720	16704	19160	0	752
9.881	-11.756	16730	19181	0	752
9.448	-10.963	16756	19104	0	752
9.737	-9.917	16782	18950	0	752
8.258	-10.963	16807	18845	0	752
8.907	-12.153	16835	18803	0	752
7.825	-11.864	16859	18775	0	752
9.340	-14.064	16882	18649	0	752
9.304	-15.218	16901	18286	0	752
