neuroNicle FX2
D3F25R12
Bluetooth SPP
2023년 4월 4일 화요일
오후 2:32
time interval = 4msec
EEG1	EEG2	PPG	sdPPG	pulse	peak_interval(msec)
5.590	-3.354	22829	16820	0	756
8.871	-2.200	22753	16764	0	756
11.864	-1.623	22695	16723	0	756
13.415	0.433	22629	16703	0	756
12.189	2.019	22572	16681	0	756
13.163	3.642	22499	16652	0	756
13.127	3.534	22442	16621	0	756
13.343	3.354	22381	16593	0	756
15.218	5.337	22314	16556	0	756
16.084	7.357	22223	16486	0	756
17.851	8.943	22123	16374	0	756
15.326	9.592	22009	16247	0	756
13.091	8.547	21904	16143	0	756
9.953	4.183	21799	16065	0	756
5.626	0.036	21694	15996	0	756
2.019	-3.750	21589	15935	0	756
-0.902	-6.852	21479	15882	0	756
-3.354	-11.107	21374	15836	0	756
-5.265	-12.730	21275	15799	0	756
-7.357	-13.704	21174	15782	0	756
-8.006	-14.713	21084	15782	0	756
-7.645	-14.064	20979	15779	0	756
-7.285	-11.251	20878	15757	0	756
-4.472	-12.694	20760	15718	0	756
-1.767	-11.720	20640	15674	0	756
1.046	-8.799	20522	15642	0	756
4.977	-6.671	20407	15620	0	756
7.068	-3.750	20283	15602	0	756
8.366	-2.128	20159	15575	0	756
8.835	-3.173	20020	15539	0	756
5.878	-5.337	19887	15504	0	756
5.626	-7.537	19763	15481	0	756
2.849	-8.006	19625	15469	0	756
0.036	-9.448	19486	15452	0	756
-1.010	-9.124	19343	15433	0	756
-2.019	-9.052	19206	15417	0	756
-1.298	-6.383	19053	15395	0	756
0.361	-5.554	18895	15366	0	756
2.777	-2.452	18748	15341	0	756
4.580	-1.010	18590	15328	0	756
5.914	-0.216	18437	15324	0	756
7.609	-0.288	18294	15327	0	756
7.573	-0.793	18142	15344	0	756
8.366	-2.669	18008	15384	0	756
6.527	-3.282	17880	15437	0	756
5.049	-5.013	17732	15468	0	756
2.380	-4.616	17579	15465	0	756
0.361	-4.327	17417	15448	0	756
-0.649	-4.580	17255	15445	0	756
-2.200	-4.796	17112	15460	0	756
-2.452	-4.652	16965	15486	0	756
-1.442	-4.544	16813	15511	0	756
-1.334	-4.616	16670	15531	0	756
1.010	-2.705	16517	15556	0	756
1.911	-1.731	16375	15589	0	756
2.236	-1.118	16241	15630	0	756
1.623	-1.659	16095	15666	0	756
0.469	-3.029	15955	15692	0	756
-2.019	-2.741	15812	15721	0	756
-2.272	-2.921	15685	15758	0	756
-1.587	-1.118	15555	15805	0	756
-0.505	0.144	15431	15857	0	756
2.056	-1.118	15313	15910	0	756
2.344	-2.019	15198	15963	0	756
2.488	-2.128	15084	16021	0	756
2.308	-3.498	14983	16085	0	756
1.190	-3.390	14884	16148	0	756
-1.515	-5.337	14783	16205	0	756
-3.642	-6.383	14693	16256	0	756
-3.787	-6.094	14588	16298	0	756
-2.560	-1.587	14483	16326	0	756
3.426	2.993	14388	16342	0	756
7.537	7.825	14293	16356	0	756
9.412	9.737	14197	16372	0	756
8.583	8.402	14102	16384	0	756
9.196	6.960	14001	16385	0	756
12.441	11.648	13896	16376	0	756
16.805	14.461	13801	16369	0	756
20.591	18.175	13711	16374	0	756
16.913	18.536	13619	16384	0	756
12.477	14.966	13530	16386	0	756
7.898	13.559	13434	16375	0	756
8.691	13.848	13343	16366	0	756
13.740	19.726	13263	16372	0	756
17.382	20.591	13187	16386	0	756
15.110	22.611	13105	16400	0	756
10.710	19.113	13028	16408	0	756
7.212	16.625	12958	16414	0	756
5.085	12.153	12881	16424	0	756
6.563	10.999	12819	16445	0	756
6.275	8.222	12752	16468	0	756
4.400	8.006	12691	16480	0	756
1.587	6.960	12624	16481	0	756
2.741	10.061	12561	16481	0	756
8.439	13.631	12500	16488	0	756
13.451	17.274	12443	16498	0	756
18.572	20.808	12380	16502	0	756
17.238	20.375	12323	16502	0	756
16.625	21.818	12266	16502	0	756
14.389	23.873	12214	16499	0	756
16.625	25.676	12161	16499	0	756
21.168	29.354	12113	16514	0	756
25.496	29.246	12075	16538	0	756
28.273	28.561	12023	16541	0	756
30.220	28.525	11960	16504	0	756
28.345	26.073	11890	16442	0	756
23.152	22.395	11808	16381	0	756
16.697	16.372	11737	16322	0	756
11.468	10.963	11646	16256	0	756
6.924	5.193	11550	16169	0	756
6.599	5.085	11451	16077	0	756
4.940	3.246	11356	16013	0	756
2.380	1.370	11274	15982	0	756
-2.272	-1.190	11194	15968	0	756
-5.481	-3.787	11118	15958	0	756
-5.373	-4.075	11032	15944	0	756
-1.298	-3.390	10950	15930	0	756
3.534	-1.190	10870	15925	0	756
3.823	-0.541	10793	15934	0	756
0.721	-3.931	10727	15954	0	756
-6.275	-7.285	10654	15978	0	756
-13.127	-10.891	10597	16007	0	756
-12.369	-11.612	10545	16057	0	756
-11.684	-11.143	10507	16135	0	756
-5.229	-8.619	10488	16242	0	756
-2.633	-5.013	10492	16378	0	756
-0.252	-3.859	10526	16553	0	756
-0.108	-3.354	10593	16777	0	756
2.092	-2.128	10688	17050	0	756
2.957	-3.498	10835	17376	0	756
3.390	-3.462	11022	17750	0	756
1.947	-4.400	11261	18166	0	756
-0.252	-4.364	11531	18614	0	756
-3.282	-4.760	11846	19076	0	756
-2.813	-3.859	12204	19544	0	756
-0.793	-2.633	12599	20026	0	756
2.813	-1.226	13038	20514	0	756
3.462	-1.082	13515	20990	0	756
1.118	-2.056	14016	21436	0	756
-2.200	-3.137	14535	21840	0	756
-4.652	-6.347	15078	22202	0	756
-4.508	-7.537	15647	22522	0	756
-2.813	-11.179	16213	22790	0	756
-2.669	-13.307	16788	22989	0	756
-5.662	-16.625	17360	23110	0	756
-8.763	-18.067	17932	23163	0	756
-10.783	-20.736	18494	23160	0	756
-10.674	-19.762	19053	23102	0	756
-10.169	-20.844	19601	22985	0	756
-12.045	-18.572	20131	22804	0	756
-13.343	-18.788	20640	22561	1	884
-10.278	-15.507	21122	22257	0	884
-7.645	-13.451	21574	21890	0	884
-3.787	-10.819	21999	21470	0	884
-2.344	-12.117	22394	21017	0	884
-4.977	-12.838	22756	20526	0	884
-5.229	-12.081	23081	19997	0	884
-2.633	-10.855	23392	19464	0	884
2.416	-6.491	23678	18941	0	884
5.698	-4.147	23935	18424	0	884
5.301	-5.121	24168	17906	0	884
2.092	-7.753	24364	17386	0	884
-1.659	-12.045	24536	16868	0	884
-5.373	-14.100	24692	16375	0	884
-6.671	-16.048	24822	15915	0	884
-7.032	-17.598	24936	15489	0	884
-4.255	-14.353	25035	15095	0	884
-1.154	-12.333	25108	14721	0	884
0.902	-11.648	25159	14362	0	884
0.938	-9.881	25188	14025	0	884
-1.406	-12.333	25174	13689	0	884
-3.534	-12.694	25127	13330	0	884
-3.029	-11.071	25054	12978	0	884
1.298	-9.881	24978	12687	0	884
3.967	-6.996	24898	12470	0	884
5.013	-5.806	24812	12315	0	884
6.203	-2.993	24736	12217	0	884
8.222	-0.974	24644	12165	0	884
10.133	2.019	24545	12133	0	884
12.766	2.669	24431	12104	0	884
13.668	2.596	24307	12088	0	884
11.792	2.092	24187	12108	0	884
11.035	4.940	24053	12165	0	884
14.136	8.150	23929	12242	0	884
15.687	10.169	23802	12338	0	884
17.562	11.071	23668	12457	0	884
13.740	7.789	23544	12601	0	884
9.520	5.085	23414	12758	0	884
5.229	4.327	23281	12910	0	884
5.013	5.157	23144	13050	0	884
7.898	8.619	23001	13191	0	884
12.009	10.061	22858	13341	0	884
15.038	9.701	22718	13505	0	884
13.271	5.878	22600	13689	0	884
10.242	2.236	22480	13901	0	884
6.563	-0.144	22381	14135	0	884
5.554	1.190	22280	14366	0	884
6.058	5.770	22200	14586	0	884
10.674	11.756	22114	14813	0	884
15.254	13.559	22051	15059	0	884
16.949	16.372	21990	15304	0	884
16.877	15.074	21942	15536	0	884
18.680	15.002	21898	15752	0	884
20.447	18.824	21856	15958	0	884
25.856	20.700	21832	16159	0	884
30.617	24.955	21813	16357	0	884
32.023	27.696	21799	16544	0	884
31.735	28.633	21790	16707	0	884
30.581	28.669	21774	16842	0	884
31.554	28.994	21765	16958	0	884
33.429	29.968	21765	17064	0	884
31.951	29.679	21765	17155	0	884
28.814	29.066	21755	17218	0	884
26.830	28.345	21742	17251	0	884
27.732	27.768	21727	17263	0	884
29.030	27.155	21704	17248	0	884
29.643	24.702	21666	17201	0	884
24.125	22.358	21628	17142	0	884
17.851	16.300	21599	17090	0	884
10.674	14.821	21551	17031	0	884
8.979	13.956	21504	16943	0	884
13.956	14.966	21431	16834	0	884
17.021	17.743	21370	16727	0	884
21.529	16.084	21303	16625	0	884
21.565	16.048	21227	16523	0	884
20.411	15.218	21145	16415	0	884
16.372	18.139	21059	16302	0	884
19.005	21.565	20970	16191	0	884
21.673	27.299	20878	16095	0	884
26.686	29.931	20789	16014	0	884
28.922	30.040	20693	15938	0	884
27.624	25.424	20592	15861	0	884
23.116	23.260	20493	15787	0	884
24.847	26.181	20388	15721	0	884
29.571	29.427	20287	15666	0	884
36.134	35.449	20178	15620	0	884
41.075	36.459	20068	15580	0	884
37.829	33.285	19959	15539	0	884
31.446	27.587	19845	15498	0	884
24.630	21.962	19724	15457	0	884
21.096	18.103	19601	15415	0	884
16.120	14.136	19473	15382	0	884
13.884	9.953	19353	15360	0	884
12.369	9.809	19229	15350	0	884
10.710	9.665	19105	15347	0	884
13.776	9.665	18986	15350	0	884
13.127	12.802	18866	15366	0	884
12.081	10.927	18758	15398	0	884
11.468	8.799	18638	15425	0	884
12.009	7.176	18510	15427	0	884
12.405	7.501	18371	15415	0	884
13.235	7.573	18243	15409	0	884
10.133	7.501	18109	15419	0	884
6.563	5.698	17976	15431	0	884
5.662	1.767	17837	15432	0	884
6.058	0.902	17694	15424	0	884
8.655	1.551	17556	15423	0	884
9.484	3.173	17423	15437	0	884
6.816	3.859	17289	15461	0	884
5.301	3.750	17150	15486	0	884
5.986	4.147	17017	15505	0	884
11.684	5.085	16874	15517	0	884
16.084	6.852	16740	15532	0	884
20.303	7.285	16607	15558	0	884
17.454	7.032	16479	15592	0	884
12.514	4.760	16343	15623	0	884
7.465	2.957	16209	15649	0	884
5.914	0.685	16085	15678	0	884
4.544	-1.046	15961	15716	0	884
5.662	-2.452	15841	15763	0	884
4.688	-2.236	15723	15805	0	884
3.895	-4.147	15599	15840	0	884
2.669	-5.193	15479	15871	0	884
2.200	-3.931	15360	15900	0	884
2.993	-5.337	15240	15928	0	884
4.255	-3.210	15122	15953	0	884
3.787	-3.065	15008	15977	0	884
3.029	-4.544	14888	15998	0	884
1.370	-5.662	14769	16006	0	884
0.757	-5.662	14640	15996	0	884
0.902	-4.904	14497	15966	0	884
2.380	-3.967	14359	15926	0	884
4.291	-1.515	14220	15897	0	884
6.094	1.695	14087	15889	0	884
6.708	0.974	13963	15891	0	884
7.537	0.865	13839	15906	0	884
6.203	-1.442	13724	15939	0	884
5.554	-5.445	13619	15984	0	884
4.436	-5.878	13520	16027	0	884
4.940	-5.121	13410	16063	0	884
3.823	-4.796	13314	16099	0	884
2.524	-4.219	13225	16145	0	884
0.325	-6.383	13143	16204	0	884
0.216	-8.727	13063	16270	0	884
2.633	-7.321	12986	16332	0	884
5.554	-3.895	12920	16390	0	884
7.862	-1.010	12862	16455	0	884
8.006	0.793	12805	16526	0	884
4.508	-2.957	12752	16595	0	884
1.406	-6.203	12704	16649	0	884
0.721	-7.825	12656	16688	0	884
3.750	-6.671	12605	16722	0	884
8.114	-1.551	12557	16752	0	884
10.061	-1.190	12510	16774	0	884
9.196	-1.767	12462	16780	0	884
7.862	-4.904	12414	16774	0	884
4.364	-5.590	12357	16760	0	884
3.246	-5.517	12304	16736	0	884
2.849	-5.986	12243	16705	0	884
1.731	-3.931	12195	16683	0	884
0.974	-6.491	12147	16670	0	884
4.580	-5.121	12084	16646	0	884
9.845	-0.541	12018	16596	0	884
14.245	4.255	11947	16526	0	884
13.812	7.140	11875	16458	0	884
11.937	5.121	11804	16405	0	884
9.124	3.137	11732	16368	0	884
10.061	2.236	11671	16332	0	884
16.805	5.301	11604	16296	0	884
20.267	9.989	11531	16265	0	884
20.736	11.107	11470	16242	0	884
14.605	8.943	11404	16224	0	884
8.294	4.111	11341	16209	0	884
4.508	0.649	11280	16195	0	884
3.823	0.072	11213	16181	0	884
7.501	0.469	11156	16175	0	884
9.989	1.839	11102	16178	0	884
10.458	0.685	11041	16179	0	884
9.773	-1.118	10975	16162	0	884
6.527	-3.282	10889	16113	0	884
5.013	-5.157	10797	16048	0	884
3.282	-3.714	10721	16001	0	884
5.229	-1.370	10635	15976	0	884
5.481	-3.282	10559	15957	0	884
4.219	-3.787	10479	15943	0	884
2.236	-4.472	10402	15933	0	884
1.046	-5.337	10320	15924	0	884
0.252	-4.796	10244	15917	0	884
2.056	-5.950	10168	15913	0	884
4.724	-6.275	10082	15912	0	884
6.419	-8.583	10006	15915	0	884
9.340	-5.590	9930	15914	0	884
12.045	-1.983	9844	15906	0	884
13.054	2.813	9764	15906	0	884
13.271	4.291	9691	15920	0	884
12.550	6.888	9621	15944	0	884
12.225	6.816	9558	15974	0	884
15.615	10.783	9500	16022	0	884
17.815	12.730	9468	16111	0	884
21.385	13.992	9468	16250	0	884
19.942	16.697	9497	16440	0	884
20.447	12.838	9554	16679	0	884
16.516	11.900	9653	16963	0	884
15.146	8.763	9783	17288	0	884
12.009	5.517	9958	17645	0	884
10.061	3.750	10168	18037	0	884
8.330	2.019	10435	18476	0	884
6.671	2.200	10746	18947	0	884
6.924	4.436	11089	19430	0	884
7.068	3.318	11480	19918	0	884
6.924	2.849	11903	20404	0	884
6.816	1.731	12367	20882	0	884
5.013	-0.036	12872	21350	0	884
6.058	-0.288	13387	21786	0	884
7.212	1.947	13925	22154	0	884
10.314	4.039	14449	22434	0	884
13.487	4.472	14989	22636	0	884
13.451	3.137	15526	22778	0	884
12.297	1.947	16060	22864	0	884
11.251	0.757	16593	22887	0	884
8.979	2.380	17102	22832	0	884
11.684	4.219	17604	22701	0	884
12.297	8.114	18090	22518	0	884
11.432	8.835	18567	22299	0	884
12.081	8.979	19019	22037	1	896
11.648	8.547	19457	21727	0	896
10.133	9.448	19867	21367	0	896
9.520	9.665	20255	20967	0	896
9.665	9.016	20611	20538	0	896
9.016	8.042	20954	20092	0	896
8.835	7.573	21260	19627	0	896
11.287	4.183	21536	19138	0	896
11.468	3.498	21790	18637	0	896
9.773	2.056	22022	18139	0	896
6.852	-0.397	22223	17656	0	896
6.022	-1.370	22409	17186	0	896
6.852	0.180	22562	16720	0	896
9.268	4.688	22699	16262	0	896
11.792	7.537	22804	15817	0	896
14.245	9.520	22877	15379	0	896
13.343	9.592	22924	14946	0	896
12.550	7.104	22957	14537	0	896
13.235	6.022	22972	14174	0	896
12.838	6.780	22957	13843	0	896
13.271	7.537	22934	13533	0	896
15.435	11.828	22890	13256	0	896
16.120	14.208	22833	13015	0	896
18.608	14.245	22766	12810	0	896
16.228	15.723	22680	12636	0	896
17.454	13.631	22591	12483	0	896
16.084	14.389	22467	12346	0	896
17.129	14.894	22343	12236	0	896
16.228	17.418	22213	12158	0	896
16.516	16.120	22066	12110	0	896
14.208	13.379	21917	12086	0	896
12.009	13.343	21755	12079	0	896
13.595	10.242	21593	12096	0	896
11.179	8.294	21431	12145	0	896
13.018	8.619	21269	12230	0	896
13.776	8.907	21113	12343	0	896
14.353	9.520	20951	12472	0	896
16.769	13.271	20789	12616	0	896
15.471	13.920	20636	12778	0	896
14.894	14.317	20487	12962	0	896
12.838	14.821	20350	13165	0	896
14.028	16.372	20216	13378	0	896
18.247	19.834	20083	13602	0	896
23.296	21.781	19972	13837	0	896
26.433	24.414	19864	14089	0	896
26.974	24.017	19778	14350	0	896
23.837	22.142	19692	14620	0	896
18.536	21.493	19620	14890	0	896
15.831	18.897	19549	15141	0	896
14.497	19.293	19473	15361	0	896
18.139	20.014	19410	15556	0	896
21.962	22.647	19343	15746	0	896
25.460	25.171	19295	15939	0	896
26.938	25.352	19248	16129	0	896
26.397	26.578	19206	16305	0	896
25.243	27.335	19171	16462	0	896
27.551	28.381	19149	16619	0	896
29.318	29.859	19133	16777	0	896
29.715	29.246	19120	16921	0	896
28.597	27.263	19105	17033	0	896
24.522	24.739	19091	17116	0	896
22.286	24.089	19072	17180	0	896
20.050	22.863	19063	17234	0	896
22.503	24.306	19057	17279	0	896
25.099	26.145	19044	17311	0	896
25.424	25.099	19028	17319	0	896
25.712	27.804	19000	17295	0	896
26.397	28.525	18958	17231	0	896
26.037	28.525	18910	17142	0	896
26.578	29.102	18866	17064	0	896
26.001	26.253	18824	16996	0	896
22.755	22.935	18777	16925	0	896
19.185	20.952	18729	16852	0	896
18.428	20.159	18685	16784	0	896
17.887	22.467	18634	16722	0	896
20.375	24.089	18590	16667	0	896
20.808	25.496	18548	16616	0	896
21.096	25.388	18491	16552	0	896
22.719	27.263	18424	16462	0	896
22.431	27.263	18351	16362	0	896
23.296	27.984	18275	16265	0	896
22.647	28.092	18195	16177	0	896
20.123	26.542	18109	16093	0	896
19.510	25.424	18018	16006	0	896
17.274	23.621	17932	15920	0	896
17.743	22.503	17842	15853	0	896
14.497	19.834	17751	15805	0	896
13.235	18.608	17665	15682	0	62
16.192	6.635	20754	21491	0	916
11.684	4.832	21160	20985	0	916
6.455	0.433	21532	20446	0	916
3.642	-3.390	21875	19884	0	916
2.344	-3.246	22190	19313	0	916
0.361	-6.419	22470	18740	0	916
-2.524	-6.455	22718	18163	0	916
-6.924	-7.248	22938	17582	0	916
-7.934	-6.383	23119	17007	0	916
-4.219	-2.921	23281	16450	0	916
5.085	1.406	23414	15926	0	916
13.379	6.816	23529	15432	0	916
21.926	10.638	23615	14959	0	916
21.204	11.900	23662	14501	0	916
19.113	13.271	23687	14055	0	916
15.687	11.360	23681	13630	0	916
17.021	11.287	23668	13250	0	916
19.221	14.533	23624	12913	0	916
24.162	16.480	23563	12610	0	916
26.722	15.326	23491	12343	0	916
21.565	13.235	23395	12113	0	916
14.100	5.265	23290	11914	0	916
4.832	-1.226	23157	11742	0	916
1.875	-5.590	23014	11588	0	916
4.147	-4.147	22842	11450	0	916
9.160	-1.190	22657	11336	0	916
12.766	2.741	22467	11255	0	916
9.484	2.849	22270	11220	0	916
4.111	2.200	22076	11233	0	916
0.361	1.046	21875	11278	0	916
3.750	4.147	21670	11350	0	916
12.982	7.825	21460	11451	0	916
22.467	14.641	21260	11586	0	916
28.201	16.156	21075	11755	0	916
25.784	14.389	20884	11956	0	916
18.860	11.432	20703	12180	0	916
14.461	8.655	20535	12415	0	916
10.278	7.645	20359	12662	0	916
8.475	7.573	20207	12926	0	916
7.645	8.366	20058	13207	0	916
5.914	7.537	19921	13504	0	916
4.400	5.986	19797	13807	0	916
6.563	7.465	19683	14109	0	916
10.530	10.350	19578	14413	0	916
15.795	14.208	19486	14719	0	916
16.084	18.211	19416	15024	0	916
15.615	16.625	19343	15321	0	916
10.638	13.956	19292	15610	0	916
6.816	13.018	19238	15888	0	916
8.078	9.773	19206	16150	0	916
9.701	10.458	19177	16390	0	916
10.025	7.032	19152	16614	0	916
7.212	2.741	19133	16821	0	916
2.056	-1.803	19120	17007	0	916
-1.118	-4.904	19110	17162	0	916
-2.524	-3.750	19101	17286	0	916
-1.226	-2.524	19095	17399	0	916
1.767	0.613	19095	17503	0	916
3.714	3.678	19105	17593	0	916
8.402	9.196	19105	17658	0	916
12.009	12.946	19110	17693	0	916
12.730	16.084	19114	17713	0	916
12.333	15.579	19124	17730	0	916
11.792	12.441	19139	17744	0	916
13.812	12.694	19143	17745	0	916
22.791	14.641	19152	17725	0	916
29.210	17.346	19162	17689	0	916
29.174	19.185	19168	17641	0	916
19.401	15.579	19168	17577	0	916
3.859	6.527	19158	17492	0	916
-9.340	-0.829	19139	17390	0	916
-11.792	-2.596	19105	17261	0	916
-4.760	0.252	19063	17109	0	916
5.878	6.347	19025	16971	0	916
13.018	9.592	18981	16854	0	916
12.730	10.494	18939	16741	0	916
8.835	6.203	18891	16623	0	916
4.039	4.436	18838	16511	0	916
2.560	6.347	18786	16406	0	916
5.806	7.537	18723	16307	0	916
6.888	8.294	18662	16207	0	916
2.019	3.750	18596	16109	0	916
-6.275	-1.587	18523	16015	0	916
-9.953	-4.472	18437	15911	0	916
-6.780	-1.118	18351	15803	0	916
6.203	6.599	18266	15725	0	916
19.978	14.245	18189	15679	0	916
27.119	16.120	18109	15638	0	916
24.630	13.884	18008	15580	0	916
17.598	11.396	17909	15508	0	916
17.129	12.658	17804	15442	0	916
21.637	23.008	17703	15395	0	916
34.547	30.941	17594	15361	0	916
47.205	37.721	17490	15330	0	916
52.290	41.291	17375	15298	0	916
49.730	37.505	17261	15275	0	916
40.389	33.934	17160	15272	0	916
31.158	31.699	17051	15285	0	916
26.614	31.158	16946	15304	0	916
27.047	27.804	16845	15320	0	916
29.282	26.325	16727	15332	0	916
32.023	24.847	16622	15346	0	916
31.518	24.666	16502	15364	0	916
27.732	25.568	16393	15387	0	916
25.207	27.768	16285	15409	0	916
23.801	28.309	16156	15411	0	916
25.316	29.643	16022	15391	0	916
26.361	25.279	15889	15370	0	916
21.673	20.591	15755	15362	0	916
10.566	15.074	15618	15366	0	916
1.983	13.163	15494	15378	0	916
2.236	18.464	15364	15400	0	916
15.435	31.338	15237	15426	0	916
30.004	39.704	15107	15457	0	916
37.288	37.216	15002	15508	0	916
30.761	27.876	14893	15584	0	916
18.716	19.437	14792	15664	0	916
15.687	17.454	14687	15726	0	916
22.467	26.974	14588	15768	0	916
28.669	34.547	14478	15815	0	916
26.830	32.384	14392	15884	0	916
14.245	24.522	14306	15964	0	916
2.344	14.028	14216	16033	0	916
0.397	13.018	14125	16086	0	916
8.366	16.156	14045	16131	0	916
14.172	20.123	13959	16175	0	916
9.376	15.579	13883	16230	0	916
0.613	7.104	13810	16289	0	916
-7.429	2.993	13743	16343	0	916
-7.753	3.426	13673	16386	0	916
-3.931	6.383	13606	16423	0	916
-4.219	6.635	13539	16454	0	916
-6.671	2.885	13467	16476	0	916
-5.878	1.298	13391	16484	0	916
-1.695	4.400	13320	16478	0	916
4.688	10.458	13244	16464	0	916
5.301	9.809	13162	16444	0	916
-3.678	1.118	13076	16416	0	916
-11.107	-5.409	13000	16396	0	916
-9.412	-4.003	12920	16384	0	916
1.082	6.888	12838	16356	0	916
8.979	14.100	12742	16302	0	916
5.554	12.333	12637	16241	0	916
-8.186	-1.082	12548	16191	0	916
-20.988	-12.153	12447	16157	0	916
-21.277	-13.415	12351	16121	0	916
-10.746	-3.029	12246	16071	0	916
0.793	4.183	12142	16018	0	916
2.957	5.409	12046	15990	0	916
-2.019	-0.469	11957	15992	0	916
-5.914	-3.714	11875	16007	0	916
-4.796	-2.993	11794	16024	0	916
-3.967	0.325	11712	16038	0	916
-5.265	0.288	11632	16049	0	916
-13.415	-5.698	11560	16069	0	916
-20.555	-12.658	11493	16103	0	916
-25.027	-16.661	11426	16145	0	916
-22.178	-13.920	11360	16174	0	916
-16.048	-8.222	11274	16169	0	916
-13.018	-5.085	11194	16142	0	916
-11.287	-2.993	11108	16131	0	916
-8.475	-1.262	11041	16147	0	916
-6.960	-0.974	10969	16170	0	916
-2.128	-1.190	10893	16177	0	916
-0.108	-5.049	10803	16151	0	916
-3.246	-12.477	10708	16102	0	916
-7.429	-21.673	10631	16082	0	916
-9.376	-22.683	10565	16119	0	916
-7.825	-16.661	10521	16187	0	916
-5.517	-3.354	10463	16243	0	916
-4.219	7.357	10402	16266	0	916
-10.458	10.278	10336	16267	0	916
-18.320	3.173	10273	16268	0	916
-24.955	-7.645	10212	16277	0	916
-24.594	-15.795	10149	16280	0	916
-21.962	-16.444	10069	16262	0	916
-19.221	-14.749	9992	16227	0	916
-15.002	-10.097	9916	16201	0	916
-12.045	-9.160	9849	16194	0	916
-7.357	-6.671	9777	16195	0	916
0.325	-2.633	9710	16196	0	916
4.977	0.541	9640	16192	0	916
5.734	0.938	9577	16187	0	916
3.678	-2.019	9500	16185	0	916
1.010	-5.373	9439	16187	0	916
3.137	-4.616	9376	16195	0	916
8.763	1.442	9315	16199	0	916
16.192	9.809	9249	16197	0	916
17.418	14.605	9186	16194	0	916
17.346	14.858	9119	16195	0	916
12.514	10.638	9052	16201	0	916
8.511	4.508	8995	16205	0	916
5.950	0.469	8925	16194	0	916
5.806	0.721	8848	16170	0	916
7.537	3.390	8782	16155	0	916
11.432	6.203	8724	16165	0	916
14.172	8.439	8680	16207	0	916
10.710	3.714	8661	16288	0	916
2.344	-4.616	8667	16406	0	916
-7.032	-8.186	8690	16566	0	916
-8.547	-9.665	8753	16774	0	916
-0.613	-1.587	8852	17041	0	916
12.189	7.357	8995	17363	0	916
17.995	13.776	9182	17724	0	916
19.401	14.677	9405	18114	0	916
14.208	13.091	9668	18528	0	916
16.625	13.199	9973	18965	0	916
21.926	15.146	10317	19424	0	916
31.230	19.041	10708	19890	0	916
34.764	20.808	11118	20345	0	916
33.285	21.060	11569	20788	0	916
25.929	15.939	12056	21222	0	916
17.166	11.937	12576	21645	0	916
13.451	7.645	13129	22052	0	916
14.317	7.285	13705	22427	0	916
23.440	12.045	14302	22753	0	916
28.814	16.192	14903	23023	0	916
26.974	13.235	15517	23237	0	916
18.824	5.914	16137	23387	0	916
7.068	-4.832	16750	23470	0	916
3.318	-10.999	17369	23495	0	916
5.409	-9.737	17976	23459	0	916
9.268	-4.364	18567	23349	0	916
11.107	-1.046	19133	23156	0	916
12.261	1.226	19677	22893	0	916
14.569	1.695	20197	22575	1	912
16.661	0.036	20693	22209	0	912
16.372	-3.029	21160	21793	0	912
12.261	-7.537	21593	21328	0	912
8.366	-9.520	21994	20824	0	912
10.783	-7.753	22371	20303	0	912
15.290	0.361	22728	19777	0	912
21.709	7.176	23052	19252	0	912
21.890	10.602	23348	18718	0	912
22.286	12.802	23605	18163	0	912
22.827	14.064	23830	17594	0	912
29.138	19.221	24015	17019	0	912
40.570	27.155	24177	16454	0	912
46.087	34.403	24301	15916	0	912
47.241	33.970	24406	15405	0	912
38.803	28.237	24498	14919	0	912
25.352	16.985	24545	14469	0	912
12.477	6.058	24587	14061	0	912
11.648	2.777	24606	13686	0	912
17.202	8.114	24593	13327	0	912
26.578	15.290	24545	12967	0	912
29.210	18.788	24473	12621	0	912
20.303	10.350	24393	12327	0	912
8.691	-1.659	24297	12092	0	912
0.577	-11.828	24187	11897	0	912
2.272	-15.795	24068	11739	0	912
8.006	-9.809	23939	11620	0	912
11.215	-4.796	23796	11535	0	912
7.501	-7.645	23649	11482	0	912
0.325	-14.785	23500	11475	0	912
-8.078	-23.729	23344	11511	0	912
-11.937	-29.859	23182	11565	0	912
-14.930	-30.653	23020	11627	0	912
-12.297	-26.325	22842	11709	0	912
-10.314	-20.880	22667	11813	0	912
-5.301	-14.136	22486	11940	0	912
0.288	-7.176	22324	12092	0	912
4.580	-4.904	22142	12261	0	912
6.599	-4.616	21965	12435	0	912
4.760	-8.114	21790	12610	0	912
2.488	-11.396	21599	12777	0	912
1.659	-10.133	21418	12940	0	912
3.859	-6.960	21240	13128	0	912
6.419	-3.823	21075	13344	0	912
4.291	-4.832	20926	13579	0	912
-5.914	-10.746	20783	13831	0	912
-15.254	-18.860	20659	14103	0	912
-19.437	-19.870	20544	14383	0	912
-11.468	-14.677	20440	14650	0	912
1.190	-6.275	20321	14890	0	912
10.746	-1.623	20220	15114	0	912
9.304	-4.940	20125	15338	0	912
-1.046	-13.054	20039	15562	0	912
-11.973	-20.952	19959	15774	0	912
-16.985	-20.519	19877	15970	0	912
-17.454	-18.933	19816	16150	0	912
-12.802	-16.048	19734	16302	0	912
-12.225	-16.048	19663	16430	0	912
-9.556	-13.307	19601	16557	0	912
-6.311	-10.602	19534	16667	0	912
-1.479	-5.626	19457	16734	0	912
4.255	-2.380	19387	16772	0	912
6.996	-1.839	19305	16806	0	912
7.898	-3.173	19238	16843	0	912
6.852	-4.616	19177	16885	0	912
5.265	-7.573	19120	16926	0	912
3.173	-7.465	19063	16956	0	912
0.397	-8.439	19006	16971	0	912
-0.252	-7.681	18952	16982	0	912
2.488	-4.977	18901	16993	0	912
7.789	-0.577	18847	17003	0	912
12.802	1.406	18805	17002	0	912
13.235	2.308	18752	16989	0	912
10.891	1.118	18704	16967	0	912
5.698	-0.469	18657	16945	0	912
2.236	1.118	18615	16928	0	912
7.609	3.967	18567	16909	0	912
13.704	9.809	18519	16882	0	912
20.880	11.973	18466	16846	0	912
21.926	9.989	18418	16798	0	912
19.113	11.360	18361	16741	0	912
16.192	11.468	18294	16679	0	912
13.884	11.468	18237	16612	0	912
13.054	13.668	18161	16540	0	912
14.930	12.730	18090	16460	0	912
15.471	12.910	17995	16364	0	912
20.664	18.320	17900	16249	0	912
24.162	17.274	17798	16138	0	912
23.873	15.867	17694	16039	0	912
21.818	10.855	17579	15941	0	912
14.930	8.547	17455	15833	0	912
13.992	7.789	17331	15721	0	912
13.848	9.556	17203	15626	0	912
11.864	7.537	17083	15557	0	912
10.242	2.488	16959	15507	0	912
8.439	1.623	16835	15465	0	912
9.232	1.875	16702	15417	0	912
11.540	2.596	16568	15366	0	912
9.412	0.902	16431	15324	0	912
4.075	-4.400	16299	15295	0	912
2.416	-6.491	16165	15276	0	912
5.626	-5.121	16022	15256	0	912
11.540	1.298	15885	15238	0	912
16.625	3.570	15742	15232	0	912
10.025	-1.623	15608	15240	0	912
1.659	-8.907	15475	15266	0	912
-6.816	-14.353	15341	15296	0	912
-6.347	-12.658	15193	15302	0	912
-0.505	-8.042	15046	15282	0	912
5.229	-1.118	14897	15276	0	912
5.409	-0.072	14754	15298	0	912
1.551	-4.868	14617	15334	0	912
-6.455	-12.477	14474	15370	0	912
-13.668	-17.021	14340	15406	0	912
-14.100	-19.726	14201	15439	0	912
-10.278	-18.680	14077	15480	0	912
-0.397	-10.963	13953	15545	0	912
7.862	-3.859	13844	15627	0	912
11.107	-2.272	13724	15698	0	912
5.698	-3.895	13600	15747	0	912
-0.505	-7.825	13476	15780	0	912
-1.046	-8.114	13362	15818	0	912
5.698	-2.849	13248	15872	0	912
12.009	3.318	13143	15935	0	912
14.785	4.111	13038	15990	0	912
7.898	-2.777	12929	16030	0	912
-0.144	-9.376	12834	16068	0	912
0.180	-10.025	12729	16115	0	912
5.409	-6.671	12637	16172	0	912
11.360	-1.947	12552	16232	0	912
10.242	-3.823	12471	16285	0	912
5.301	-9.016	12386	16332	0	912
1.731	-11.035	12300	16372	0	912
2.777	-9.701	12214	16392	0	912
3.426	-9.160	12122	16396	0	912
1.298	-11.540	12037	16398	0	912
-2.921	-13.776	11951	16408	0	912
-3.895	-12.658	11880	16430	0	912
5.373	-4.724	11804	16461	0	912
12.946	3.534	11737	16494	0	912
16.012	4.508	11671	16520	0	912
10.242	-2.849	11598	16532	0	912
3.895	-10.638	11528	16528	0	912
0.397	-10.999	11446	16508	0	912
2.777	-9.665	11369	16484	0	912
1.767	-7.068	11293	16468	0	912
0.433	-9.484	11222	16465	0	912
-3.065	-12.477	11156	16462	0	912
0.325	-12.225	11089	16452	0	912
7.609	-5.445	11016	16440	0	912
13.343	2.416	10959	16448	0	912
12.550	3.895	10912	16478	0	912
6.708	0.577	10864	16513	0	912
-0.685	-4.400	10812	16535	0	912
-2.741	-8.222	10769	16542	0	912
-0.757	-6.924	10721	16543	0	912
2.669	-6.167	10679	16551	0	912
4.508	-5.878	10631	16563	0	912
2.272	-7.285	10593	16569	0	912
-1.010	-8.619	10536	16555	0	912
-1.623	-7.825	10479	16515	0	912
-1.406	-7.789	10416	16462	0	912
-0.865	-9.124	10359	16430	0	912
1.082	-10.025	10301	16416	0	912
4.472	-8.439	10240	16395	0	912
6.816	-6.996	10187	16362	0	912
6.599	-5.914	10116	16322	0	912
1.479	-10.422	10050	16278	0	912
-7.068	-16.084	9983	16237	0	912
-12.694	-20.159	9926	16215	0	912
-11.071	-14.605	9868	16211	0	912
-6.239	-8.871	9802	16202	0	912
-2.128	-3.606	9729	16167	0	912
-2.236	-3.354	9659	16119	0	912
-3.246	-7.068	9582	16081	0	912
-2.488	-7.501	9516	16056	0	912
2.957	-7.032	9439	16035	0	912
9.376	-1.803	9357	16007	0	912
12.622	1.947	9281	15974	0	912
14.136	5.121	9205	15957	0	912
12.802	5.481	9138	15970	0	912
9.773	6.275	9090	16008	0	912
5.878	1.190	9039	16057	0	912
1.226	-3.173	9005	16115	0	912
-1.082	-4.652	8982	16191	0	912
1.911	-2.885	8966	16294	0	912
7.248	0.938	8982	16416	0	912
12.189	5.878	9005	16564	0	912
11.756	3.462	9052	16738	0	912
8.475	-0.865	9125	16943	0	912
6.563	-3.282	9243	17189	0	912
7.537	-1.587	9382	17482	0	912
11.792	1.983	9567	17818	0	912
15.326	4.977	9796	18189	0	912
11.576	1.839	10059	18585	0	912
4.327	-3.173	10359	18992	0	912
-0.036	-7.104	10692	19405	0	912
-1.190	-6.816	11055	19820	0	912
2.596	-2.128	11461	20229	0	912
9.412	2.669	11884	20621	0	912
11.937	2.488	12328	20990	0	912
9.304	1.262	12809	21331	0	912
5.626	-3.498	13305	21645	0	912
1.406	-6.708	13820	21938	0	912
0.865	-7.429	14354	22194	0	912
2.813	-5.229	14893	22384	0	912
4.219	-3.714	15418	22494	0	912
4.940	-6.094	15936	22535	0	912
0.144	-8.907	16450	22521	0	912
-4.219	-15.146	16965	22460	0	912
-8.763	-18.247	17465	22351	0	912
-12.766	-20.844	17951	22187	0	912
-13.523	-20.591	18424	21963	1	848
-11.684	-19.726	18866	21694	0	848
-10.278	-18.969	19311	21401	0	848
-5.698	-16.697	19730	21090	0	848
-2.741	-17.166	20140	20754	0	848
-2.849	-18.608	20516	20382	0	848
-2.813	-22.142	20869	19980	0	848
-4.796	-23.224	21199	19555	0	848
-4.003	-24.847	21498	19106	0	848
-2.669	-24.991	21771	18640	0	848
-2.128	-24.666	22022	18174	0	848
-5.806	-27.515	22247	17721	0	848
-11.973	-30.761	22451	17275	0	848
-15.362	-33.610	22629	16830	0	848
-18.211	-35.269	22785	16392	0	848
-15.939	-33.429	22909	15958	0	848
-12.838	-31.446	23001	15529	0	848
-12.369	-25.820	23071	15112	0	848
-10.566	-24.089	23125	14713	0	848
-10.061	-24.017	23144	14339	0	848
-10.350	-25.207	23153	13991	0	848
-8.619	-24.414	23128	13672	0	848
-9.376	-23.693	23100	13380	0	848
-10.674	-24.162	23039	13108	0	848
-10.097	-22.539	22962	12853	0	848
-12.117	-25.171	22871	12630	0	848
-13.451	-29.318	22772	12443	0	848
-15.002	-28.381	22648	12282	0	848
-12.225	-27.587	22514	12141	0	848
-10.314	-24.522	22362	12022	0	848
-9.196	-22.972	22194	11929	0	848
-9.268	-21.926	22028	11867	0	848
-12.946	-23.945	21851	11843	0	848
-15.074	-24.883	21675	11847	0	848
-12.658	-21.673	21475	11857	0	848
-11.215	-20.014	21256	11853	0	848
-11.684	-23.008	21036	11855	0	848
-14.389	-26.830	20817	11906	0	848
-21.024	-31.735	20607	12009	0	848
-21.313	-32.420	20392	12137	0	848
-18.897	-27.155	20192	12289	0	848
-9.917	-20.700	19997	12470	0	848
-4.652	-15.362	19806	12674	0	848
-1.839	-11.973	19629	12902	0	848
-3.390	-14.749	19477	13164	0	848
-8.366	-15.002	19330	13453	0	848
-10.350	-17.021	19191	13737	0	848
-12.838	-16.084	19047	13994	0	848
-9.484	-13.812	18904	14236	0	848
-5.842	-10.422	18781	14480	0	848
-4.327	-8.943	18662	14732	0	848
-4.652	-12.189	18542	14977	0	848
-6.527	-13.235	18428	15197	0	848
-11.323	-13.054	18323	15401	0	848
-12.189	-13.451	18228	15609	0	848
-9.881	-10.530	18151	15825	0	848
-7.285	-7.212	18081	16042	0	848
-4.868	-7.393	18018	16251	0	848
-3.678	-6.744	17961	16439	0	848
-2.488	-5.554	17913	16618	0	848
-0.433	-5.121	17875	16795	0	848
1.623	-3.101	17852	16965	0	848
4.183	-0.469	17827	17114	0	848
4.760	0.180	17798	17232	0	848
4.940	-0.541	17779	17323	0	848
4.544	-1.010	17756	17399	0	848
4.364	-1.623	17747	17467	0	848
6.599	-0.361	17732	17525	0	848
7.645	0.144	17722	17569	0	848
6.167	-0.613	17709	17593	0	848
3.678	-2.921	17694	17591	0	848
-1.154	-4.436	17671	17569	0	848
-3.498	-7.753	17652	17531	0	848
-2.308	-6.671	17627	17478	0	848
2.236	-4.436	17589	17412	0	848
6.383	-3.354	17560	17329	0	848
8.294	0.108	17503	17219	0	848
9.340	1.442	17432	17077	0	848
10.855	2.885	17350	16910	0	848
11.937	3.787	17255	16730	0	848
12.009	5.734	17156	16563	0	848
13.343	6.203	17070	16417	0	848
11.287	4.904	16965	16284	0	848
10.206	6.455	16870	16162	0	848
14.605	10.133	16774	16061	0	848
16.228	13.848	16679	15977	0	848
18.139	15.435	16584	15900	0	848
18.175	17.021	16473	15824	0	848
20.736	15.759	16381	15761	0	848
21.421	19.257	16289	15720	0	848
28.345	24.017	16194	15696	0	848
32.925	29.571	16104	15681	0	848
37.072	31.338	16009	15660	0	848
38.803	31.410	15908	15636	0	848
39.740	29.102	15809	15616	0	848
38.550	27.083	15698	15590	0	848
35.124	20.952	15580	15549	0	848
28.237	16.589	15456	15500	0	848
24.666	11.973	15341	15467	0	848
25.207	12.766	15221	15455	0	848
27.515	14.894	15107	15455	0	848
30.328	16.516	14998	15459	0	848
30.040	18.175	14878	15466	0	848
27.047	15.038	14764	15477	0	848
26.001	15.651	14659	15497	0	848
26.974	14.858	14544	15521	0	848
27.840	16.516	14436	15543	0	848
26.397	12.261	14315	15560	0	848
20.988	10.206	14207	15579	0	848
14.100	6.239	14102	15605	0	848
12.838	4.580	13987	15633	0	848
14.461	5.373	13877	15657	0	848
18.175	7.537	13762	15685	0	848
22.178	6.996	13667	15723	0	848
21.781	7.573	13568	15767	0	848
19.942	6.960	13463	15809	0	848
20.050	6.455	13368	15846	0	848
20.195	7.825	13263	15879	0	848
22.214	9.196	13162	15912	0	848
19.365	11.179	13063	15936	0	848
16.084	10.242	12962	15948	0	848
11.107	7.970	12847	15952	0	848
8.366	5.770	12723	15932	0	848
7.862	1.370	12599	15890	0	848
4.940	-2.056	12481	15862	0	848
3.462	-3.823	12367	15867	0	848
0.577	-8.258	12252	15884	0	848
-3.426	-9.989	12151	15902	0	848
-4.327	-11.864	12046	15926	0	848
-6.383	-11.720	11947	15956	0	848
-7.717	-11.360	11852	15985	0	848
-8.294	-11.360	11747	16006	0	848
-9.340	-9.701	11646	16016	0	848
-8.907	-10.746	11541	16017	0	848
-9.124	-10.891	11432	16016	0	848
-9.484	-11.973	11327	16016	0	848
-11.251	-15.831	11232	16028	0	848
-12.874	-16.084	11137	16058	0	848
-11.684	-14.533	11051	16101	0	848
-10.783	-10.530	10965	16138	0	848
-7.717	-5.698	10883	16161	0	848
-3.282	-2.452	10797	16186	0	848
-3.390	-0.865	10721	16226	0	848
-2.596	-1.190	10660	16276	0	848
-2.524	-2.344	10593	16326	0	848
-2.164	-2.056	10526	16370	0	848
-2.164	-4.219	10469	16408	0	848
-4.291	-5.373	10406	16443	0	848
-5.265	-6.816	10345	16460	0	848
-6.780	-8.979	10273	16459	0	848
-7.176	-8.943	10206	16458	0	848
-8.042	-12.333	10145	16463	0	848
-8.619	-13.271	10082	16478	0	848
-11.937	-13.884	10034	16502	0	848
-13.523	-15.290	9992	16534	0	848
-16.156	-13.884	9945	16561	0	848
-16.048	-14.749	9897	16573	0	848
-13.271	-12.802	9849	16577	0	848
-11.504	-10.386	9806	16583	0	848
-7.501	-8.871	9758	16591	0	848
-5.662	-7.465	9716	16593	0	848
-6.419	-9.268	9672	16589	0	848
-10.602	-13.271	9624	16581	0	848
-15.903	-17.959	9577	16559	0	848
-18.897	-19.149	9520	16526	0	848
-21.313	-20.808	9468	16496	0	848
-20.267	-18.067	9420	16475	0	848
-17.526	-16.949	9373	16460	0	848
-16.228	-12.946	9329	16451	0	848
-14.245	-10.746	9287	16445	0	848
-13.235	-7.681	9253	16452	0	848
-8.763	-4.327	9233	16483	0	848
-4.652	-0.649	9224	16539	0	848
-1.839	1.983	9224	16613	0	848
-0.613	2.452	9243	16699	0	848
-1.479	0.721	9277	16808	0	848
-4.400	-1.587	9338	16958	0	848
-5.842	-4.400	9439	17158	0	848
-6.744	-6.744	9567	17399	0	848
-6.708	-9.592	9720	17667	0	848
-6.058	-10.855	9910	17959	0	848
-5.193	-11.937	10130	18280	0	848
-4.616	-14.064	10402	18631	0	848
-3.210	-13.199	10698	19003	0	848
-3.606	-11.684	11032	19386	0	848
-4.616	-11.504	11394	19770	0	848
-4.291	-7.645	11794	20154	0	848
-2.705	-3.787	12214	20526	0	848
0.865	0.361	12672	20887	0	848
6.563	4.472	13167	21251	0	848
11.973	8.439	13686	21607	0	848
15.002	9.592	14211	21910	0	848
13.307	6.022	14745	22144	0	848
12.225	1.406	15278	22319	0	848
9.376	-4.075	15818	22435	0	848
5.157	-4.977	16352	22496	0	848
3.354	-7.104	16883	22508	0	848
0.433	-6.275	17408	22464	0	848
-1.370	-7.645	17922	22356	0	848
-2.344	-9.304	18424	22196	0	848
-2.957	-14.281	18901	21991	0	848
-4.147	-15.903	19368	21733	1	804
-3.787	-15.435	19791	21412	0	804
-2.128	-15.579	20197	21036	0	804
1.479	-10.061	20573	20620	0	804
5.337	-8.727	20907	20160	0	804
5.842	-8.511	21218	19667	0	804
5.229	-10.422	21507	19172	0	804
-0.036	-12.694	21765	18681	0	804
-4.472	-16.228	22003	18187	0	804
-6.744	-16.480	22219	17697	0	804
-4.868	-18.031	22409	17222	0	804
-0.505	-15.110	22575	16763	0	804
3.246	-13.091	22728	16323	0	804
3.462	-11.973	22848	15894	0	804
-0.036	-13.199	22938	15470	0	804
-4.255	-17.959	23001	15052	0	804
-4.940	-18.211	23043	14648	0	804
-3.065	-18.933	23062	14268	0	804
0.397	-14.858	23052	13916	0	804
3.101	-12.333	23029	13591	0	804
4.616	-9.268	22985	13286	0	804
3.750	-9.989	22915	13005	0	804
1.731	-11.071	22842	12770	0	804
2.380	-12.514	22756	12585	0	804
4.544	-9.953	22667	12430	0	804
7.898	-5.229	22543	12286	0	804
11.432	-3.065	22409	12151	0	804
12.261	-2.056	22261	12034	0	804
9.809	-6.347	22099	11946	0	804
7.176	-11.143	21923	11881	0	804
5.878	-12.333	21736	11835	0	804
4.760	-12.946	21536	11811	0	804
2.813	-11.937	21342	11813	0	804
0.721	-12.405	21136	11845	0	804
-1.875	-15.182	20941	11918	0	804
-2.488	-14.894	20741	12026	0	804
1.190	-11.035	20544	12153	0	804
3.498	-8.439	20354	12296	0	804
8.907	-3.210	20159	12456	0	804
8.366	-1.911	19969	12634	0	804
7.645	-4.472	19791	12830	0	804
5.049	-7.285	19606	13036	0	804
2.524	-11.504	19435	13250	0	804
2.344	-11.612	19273	13473	0	804
4.039	-9.701	19105	13699	0	804
8.042	-5.734	18958	13936	0	804
11.720	-4.111	18838	14205	0	804
16.841	-0.865	18723	14503	0	804
16.336	-0.036	18618	14791	0	804
16.769	1.479	18514	15044	0	804
14.172	2.885	18418	15276	0	804
12.766	3.859	18323	15503	0	804
12.622	3.931	18247	15732	0	804
11.648	1.262	18176	15957	0	804
13.740	0.252	18113	16170	0	804
16.264	2.056	18056	16364	0	804
20.555	4.544	18004	16544	0	804
22.827	8.186	17966	16721	0	804
24.955	10.530	17941	16893	0	804
22.431	9.124	17919	17051	0	804
20.844	7.465	17900	17186	0	804
21.529	3.426	17880	17303	0	804
20.627	1.659	17871	17403	0	804
21.277	1.551	17865	17493	0	804
19.041	1.731	17865	17571	0	804
19.473	2.705	17861	17626	0	804
21.818	5.590	17856	17656	0	804
23.404	5.950	17852	17669	0	804
25.929	6.888	17852	17668	0	804
24.991	3.750	17842	17654	0	804
22.178	3.137	17827	17620	0	804
20.772	0.397	17808	17554	0	804
19.762	-1.226	17770	17451	0	804
18.824	-3.210	17728	17325	0	804
17.634	-4.940	17671	17193	0	804
14.353	-7.465	17623	17069	0	804
13.235	-11.215	17566	16954	0	804
13.487	-11.396	17503	16835	0	804
12.225	-10.855	17432	16703	0	804
15.074	-10.783	17356	16567	0	804
13.054	-10.061	17284	16444	0	804
9.160	-10.963	17213	16344	0	804
4.796	-12.514	17141	16263	0	804
1.551	-15.831	17070	16190	0	804
-1.479	-14.749	16998	16116	0	804
-1.154	-17.346	16931	16053	0	804
0.072	-16.156	16855	16002	0	804
0.793	-16.300	16774	15950	0	804
2.849	-14.245	16689	15884	0	804
5.229	-14.136	16593	15814	0	804
4.868	-14.497	16502	15751	0	804
3.354	-14.497	16412	15704	0	804
1.659	-16.300	16327	15673	0	804
0.541	-14.461	16241	15658	0	804
1.587	-13.199	16156	15654	0	804
3.462	-11.504	16076	15656	0	804
3.859	-12.261	15984	15657	0	804
0.649	-14.389	15904	15658	0	804
0.325	-15.867	15812	15658	0	804
-2.452	-17.418	15717	15650	0	804
-1.262	-15.471	15622	15632	0	804
-1.226	-14.389	15507	15608	0	804
-2.019	-15.651	15402	15574	0	804
-3.967	-16.264	15284	15538	0	804
-5.373	-19.329	15183	15533	0	804
-8.979	-20.050	15078	15552	0	804
-9.917	-21.818	14964	15553	0	804
-12.297	-23.152	14840	15526	0	804
-12.658	-21.890	14716	15492	0	804
-10.097	-21.204	14598	15471	0	804
-7.032	-14.389	14464	15460	0	804
-3.859	-11.828	14325	15433	0	804
-3.859	-10.386	14178	15387	0	804
-5.914	-13.018	14039	15349	0	804
-8.006	-17.129	13896	15341	0	804
-8.691	-16.480	13772	15359	0	804
-8.258	-15.615	13644	15397	0	804
-6.635	-12.117	13534	15452	0	804
-6.888	-8.691	13425	15511	0	804
-9.052	-11.143	13305	15567	0	804
-11.756	-13.379	13206	15626	0	804
-15.110	-14.569	13110	15698	0	804
-14.281	-16.228	13019	15777	0	804
-13.163	-12.586	12920	15843	0	804
-10.819	-10.350	12819	15894	0	804
-8.402	-8.763	12719	15935	0	804
-11.864	-10.278	12624	15973	0	804
-14.569	-9.556	12523	16010	0	804
-14.281	-10.566	12433	16044	0	804
-14.533	-10.025	12332	16075	0	804
-13.595	-8.222	12237	16095	0	804
-15.146	-11.612	12128	16098	0	804
-18.716	-12.838	12018	16084	0	804
-19.798	-13.379	11903	16071	0	804
-18.464	-14.605	11789	16061	0	804
-16.697	-13.307	11674	16040	0	804
-15.435	-8.511	11550	16000	0	804
-14.641	-8.439	11426	15960	0	804
-14.749	-5.806	11312	15940	0	804
-10.530	-2.885	11203	15946	0	804
-5.554	0.938	11102	15971	0	804
-2.488	6.635	11003	16001	0	804
-0.938	10.963	10908	16029	0	804
-2.092	14.064	10816	16064	0	804
-4.219	13.992	10740	16108	0	804
-4.436	11.756	10650	16151	0	804
-2.993	12.766	10574	16186	0	804
-2.885	12.333	10488	16213	0	804
-0.865	11.648	10402	16234	0	804
-1.839	12.982	10326	16258	0	804
-2.308	12.441	10254	16292	0	804
-3.642	11.468	10187	16333	0	804
-3.318	13.848	10116	16367	0	804
-2.380	14.461	10050	16388	0	804
-0.685	18.608	9987	16406	0	804
0.613	21.132	9916	16424	0	804
2.452	23.260	9849	16437	0	804
1.551	22.611	9783	16441	0	804
1.298	22.070	9720	16442	0	804
-0.072	25.279	9659	16448	0	804
4.868	27.443	9596	16459	0	804
9.592	32.203	9544	16477	0	804
14.966	34.800	9497	16501	0	804
16.877	35.377	9449	16530	0	804
15.290	34.475	9415	16565	0	804
8.979	36.026	9386	16612	0	804
6.022	36.675	9376	16680	0	804
6.383	37.505	9382	16771	0	804
8.366	39.055	9411	16893	0	804
12.081	41.399	9462	17058	0	804
14.713	43.202	9548	17263	0	804
18.969	48.395	9668	17496	0	804
19.978	51.028	9815	17765	0	804
18.103	53.408	10002	18074	0	804
15.723	50.739	10221	18406	0	804
10.133	43.347	10469	18747	0	804
5.698	38.334	10755	19104	0	804
2.669	31.518	11083	19482	0	804
1.010	28.994	11451	19878	0	804
-3.678	25.063	11852	20287	0	804
-7.429	24.017	12290	20694	0	804
-9.160	24.630	12761	21086	0	804
-5.770	25.135	13244	21449	0	804
-1.731	29.679	13753	21766	0	804
1.947	32.492	14264	22029	0	804
2.344	30.328	14788	22243	0	804
-2.092	27.443	15322	22412	0	804
-6.419	24.053	15860	22532	0	804
-7.393	22.034	16384	22581	0	804
-5.517	23.296	16889	22542	0	804
-0.902	28.525	17379	22425	0	804
1.803	30.617	17865	22257	0	804
2.633	33.069	18329	22051	0	804
2.777	31.735	18777	21796	1	772
2.056	31.807	19187	21482	0	772
2.885	33.538	19587	21116	0	772
4.364	35.413	19963	20732	0	772
3.895	36.423	20321	20344	0	772
1.947	34.259	20659	19938	0	772
-0.649	32.492	20964	19499	0	772
-0.397	32.816	21240	19030	0	772
2.236	35.882	21494	18548	0	772
6.924	37.757	21717	18067	0	772
10.133	40.678	21923	17593	0	772
11.937	40.317	22089	17124	0	772
9.701	39.199	22242	16655	0	772
6.455	37.541	22366	16196	0	772
1.190	33.538	22461	15754	0	772
-1.406	29.823	22543	15339	0	772
-1.839	27.551	22594	14950	0	772
-0.216	28.020	22638	14583	0	772
4.039	33.466	22648	14239	0	772
7.970	38.045	22648	13915	0	772
7.032	42.193	22619	13612	0	772
7.248	43.058	22575	13332	0	772
7.825	43.166	22505	13069	0	772
8.511	42.445	22413	12821	0	772
11.107	46.159	22308	12598	0	772
15.579	49.513	22194	12406	0	772
15.723	51.929	22051	12250	0	772
17.526	53.732	21917	12139	0	772
16.552	51.064	21771	12055	0	772
15.254	51.641	21599	11973	0	772
14.930	50.487	21399	11886	0	772
13.812	54.021	21199	11816	0	772
16.012	54.850	20989	11781	0	772
15.795	57.303	20779	11789	0	772
16.264	56.726	20573	11837	0	772
14.497	54.165	20369	11915	0	772
9.376	50.703	20159	12016	0	772
7.681	46.592	19953	12145	0	772
3.246	42.986	19763	12308	0	772
-0.469	40.966	19572	12501	0	772
-1.154	39.596	19396	12714	0	772
-1.587	39.993	19225	12937	0	772
-2.272	40.858	19057	13171	0	772
0.974	43.491	18904	13423	0	772
2.596	43.960	18761	13694	0	772
2.272	45.150	18634	13974	0	772
2.164	42.842	18500	14241	0	772
3.282	43.924	18367	14474	0	772
5.229	42.553	18233	14687	0	772
6.419	45.727	18123	14917	0	772
7.176	47.638	18023	15168	0	772
7.393	48.359	17938	15423	0	772
6.744	52.001	17865	15674	0	772
6.527	51.461	17808	15922	0	772
7.032	53.805	17751	16161	0	772
8.222	52.254	17713	16387	0	772
7.789	52.687	17671	16597	0	772
5.013	50.775	17646	16791	0	772
3.534	48.467	17627	16967	0	772
0.541	48.828	17598	17116	0	772
-0.577	46.520	17585	17239	0	772
-0.505	44.356	17575	17356	0	772
1.334	44.032	17575	17470	0	772
2.344	43.455	17570	17564	0	772
2.957	44.573	17570	17630	0	772
3.210	45.078	17566	17671	0	772
2.849	45.366	17570	17695	0	772
-0.180	43.094	17570	17707	0	772
-3.787	39.921	17570	17709	0	772
-7.609	38.550	17566	17689	0	772
-9.124	37.793	17551	17641	0	772
-7.537	37.685	17531	17573	0	772
-6.491	41.147	17509	17490	0	772
-3.570	41.255	17484	17398	0	772
-4.255	41.832	17455	17305	0	772
-4.291	41.832	17423	17207	0	772
-1.010	44.248	17385	17102	0	772
3.714	48.936	17350	17001	0	772
9.268	51.208	17308	16906	0	772
12.117	54.129	17270	16818	0	772
11.396	50.739	17245	16749	0	772
6.455	46.592	17207	16689	0	772
3.859	45.871	17169	16613	0	772
3.282	45.727	17102	16502	0	772
3.065	45.330	17036	16378	0	772
4.580	45.618	16965	16259	0	772
5.734	43.887	16889	16151	0	772
3.642	42.589	16807	16049	0	772
2.921	41.832	16721	15947	0	772
0.505	38.947	16631	15849	0	772
-1.983	38.550	16549	15771	0	772
-2.308	35.521	16464	15711	0	772
-1.659	34.764	16371	15656	0	772
-0.433	35.016	16276	15599	0	772
1.154	34.547	16175	15542	0	772
2.272	34.331	16076	15491	0	772
3.101	34.620	15980	15458	0	772
5.193	33.826	15879	15442	0	772
7.573	34.656	15780	15431	0	772
11.973	36.098	15666	15404	0	772
15.182	38.370	15545	15351	0	772
16.084	42.301	15408	15289	0	772
20.808	45.691	15294	15254	0	772
21.060	46.881	15179	15250	0	772
22.575	49.441	15050	15257	0	772
25.496	48.576	14931	15260	0	772
22.503	44.933	14792	15248	0	772
18.644	43.707	14659	15228	0	772
15.831	40.209	14540	15234	0	772
13.415	38.947	14430	15285	0	772
15.218	40.462	14331	15362	0	772
20.808	40.426	14220	15433	0	772
22.575	39.416	14111	15477	0	772
21.818	35.557	13997	15507	0	772
19.762	31.446	13892	15547	0	772
13.307	26.253	13787	15598	0	772
10.710	22.214	13677	15645	0	772
9.304	18.897	13558	15672	0	772
4.291	13.956	13444	15684	0	772
0.577	6.635	13330	15708	0	772
-5.698	1.298	13229	15755	0	772
-9.160	-2.633	13133	15816	0	772
-6.022	-0.180	13038	15877	0	772
-0.793	5.481	12942	15930	0	772
5.950	10.746	12853	15977	0	772
9.412	12.910	12761	16024	0	772
9.701	9.340	12675	16073	0	772
9.160	7.825	12590	16123	0	772
9.809	5.229	12513	16163	0	772
11.143	7.104	12428	16196	0	772
11.756	9.953	12342	16230	0	772
14.821	15.543	12275	16272	0	772
17.166	19.401	12204	16318	0	772
21.745	24.270	12138	16367	0	772
21.277	24.666	12081	16413	0	772
19.365	23.404	12018	16448	0	772
12.910	19.257	11951	16468	0	772
10.999	15.074	11884	16482	0	772
12.261	16.841	11817	16488	0	772
14.605	17.706	11751	16489	0	772
17.995	20.483	11684	16484	0	772
15.471	20.087	11608	16470	0	772
14.930	21.060	11537	16449	0	772
13.595	18.283	11470	16436	0	772
13.054	19.510	11413	16442	0	772
15.074	18.608	11346	16448	0	772
13.451	18.752	11274	16437	0	772
13.920	15.471	11207	16405	0	772
13.163	14.425	11127	16364	0	772
10.927	9.881	11045	16324	0	772
10.494	8.619	10978	16298	0	772
11.900	8.763	10908	16283	0	772
12.081	9.484	10835	16271	0	772
15.182	9.520	10765	16256	0	772
14.208	9.196	10702	16246	0	772
13.992	6.239	10641	16251	0	772
14.533	5.301	10584	16267	0	772
15.579	8.222	10530	16281	0	772
20.159	11.792	10473	16294	0	772
20.447	16.697	10425	16311	0	772
20.303	16.300	10378	16336	0	772
17.238	15.939	10345	16375	0	772
14.353	13.235	10320	16437	0	772
10.530	9.484	10326	16528	0	772
10.530	10.386	10345	16657	0	772
10.242	9.989	10387	16823	0	772
9.268	9.376	10469	17023	0	772
6.671	9.737	10568	17255	0	772
8.330	9.196	10708	17520	0	772
7.934	10.746	10873	17816	0	772
9.629	11.107	11070	18128	0	772
12.117	14.028	11299	18455	0	772
12.009	13.848	11569	18810	0	772
10.206	14.713	11875	19194	0	772
8.258	14.785	12224	19596	0	772
7.645	14.208	12599	19997	0	772
7.970	15.218	12996	20374	0	772
7.321	13.595	13419	20717	0	772
8.114	13.848	13854	21026	0	772
9.629	12.081	14315	21308	0	772
8.078	9.052	14788	21557	0	772
6.058	8.330	15265	21758	0	772
7.176	7.357	15746	21904	0	772
6.491	7.753	16238	22005	0	772
7.609	8.583	16721	22067	0	772
7.248	5.517	17203	22082	0	772
3.678	4.940	17674	22026	0	772
0.036	1.983	18123	21881	0	772
-0.613	4.255	18538	21663	0	772
2.633	8.294	18952	21415	0	772
7.970	10.638	19353	21148	1	760
8.943	9.917	19721	20840	0	760
6.491	8.475	20077	20492	0	760
2.849	2.056	20398	20113	0	760
1.226	-0.974	20697	19700	0	760
3.606	-2.452	20979	19267	0	760
5.914	-3.318	21240	18850	0	760
6.455	-4.147	21485	18450	0	760
3.895	-5.409	21708	18033	0	760
1.406	-8.799	21879	17578	0	760
0.180	-9.917	22032	17100	0	760
-0.036	-10.530	22156	16631	0	760
0.865	-6.888	22261	16187	0	760
1.947	-5.517	22347	15775	0	760
4.183	-1.118	22419	15391	0	760
5.445	0.938	22461	15020	0	760
6.888	0.757	22486	14660	0	760
4.147	-0.613	22486	14320	0	760
0.252	-3.318	22470	14012	0	760
-5.626	-10.206	22438	13729	0	760
-8.907	-14.172	22381	13458	0	760
-7.934	-16.372	22305	13202	0	760
-4.832	-13.812	22213	12971	0	760
-1.479	-10.350	22114	12771	0	760
0.541	-8.042	21984	12600	0	760
0.180	-7.285	21847	12448	0	760
-1.370	-8.979	21704	12316	0	760
-2.128	-10.638	21536	12212	0	760
-2.921	-12.369	21370	12139	0	760
-4.291	-13.054	21189	12093	0	760
-5.734	-12.838	21008	12067	0	760
-6.816	-14.497	20808	12058	0	760
-6.780	-13.631	20611	12072	0	760
-7.970	-14.281	20407	12112	0	760
-7.970	-13.956	20211	12186	0	760
-7.176	-12.658	20026	12310	0	760
-5.337	-10.999	19848	12478	0	760
-5.842	-9.773	19673	12655	0	760
-4.977	-8.871	19482	12822	0	760
-6.599	-9.809	19311	12991	0	760
-7.357	-9.556	19139	13181	0	760
-5.337	-8.871	18971	13394	0	760
-4.760	-8.006	18809	13613	0	760
-3.101	-8.475	18657	13824	0	760
-2.524	-6.203	18510	14034	0	760
-0.865	-2.056	18376	14266	0	760
0.649	1.190	18256	14525	0	760
2.560	3.354	18157	14797	0	760
1.587	2.272	18065	15069	0	760
-1.659	-2.128	17985	15336	0	760
-5.878	-6.383	17919	15601	0	760
-10.494	-9.304	17871	15863	0	760
-13.451	-7.357	17827	16117	0	760
-11.360	-6.383	17789	16357	0	760
-7.501	-3.750	17766	16585	0	760
-3.065	-1.406	17756	16800	0	760
-0.577	0.649	17737	16995	0	760
-0.613	3.823	17741	17171	0	760
0.433	8.222	17737	17327	0	760
3.137	15.795	17747	17460	0	760
7.285	20.519	17751	17571	0	760
8.619	25.171	17770	17664	0	760
10.746	24.955	17779	17736	0	760
6.780	23.765	17795	17785	0	760
5.193	21.818	17798	17806	0	760
3.210	18.644	17804	17804	0	760
1.334	18.139	17804	17779	0	760
-0.288	13.559	17789	17725	0	760
-1.947	11.973	17779	17643	0	760
-2.705	9.160	17756	17555	0	760
-4.436	9.232	17747	17470	0	760
-5.950	11.179	17722	17390	0	760
-5.734	11.179	17699	17299	0	760
-5.698	9.881	17661	17190	0	760
-6.780	9.953	17633	17080	0	760
-6.708	8.763	17604	16980	0	760
-6.996	9.556	17566	16887	0	760
-8.114	8.547	17522	16791	0	760
-7.862	8.186	17484	16690	0	760
-9.917	4.940	17436	16591	0	760
-13.018	0.216	17388	16499	0	760
-14.533	-2.380	17341	16418	0	760
-21.277	-5.914	17293	16348	0	760
-22.034	-9.088	17242	16272	0	760
-26.217	-11.540	17175	16185	0	760
-26.794	-12.261	17112	16099	0	760
-23.981	-10.602	17045	16022	0	760
-20.664	-10.169	16975	15956	0	760
-15.723	-7.393	16908	15890	0	760
-15.939	-5.626	16813	15809	0	760
-15.362	-4.652	16711	15710	0	760
-19.113	-4.940	16612	15606	0	760
-19.654	-5.554	16498	15509	0	760
-20.014	-4.364	16384	15429	0	760
-18.716	-4.039	16276	15368	0	760
-17.382	-3.931	16161	15325	0	760
-19.221	-3.029	16057	15296	0	760
-20.087	-4.977	15946	15278	0	760
-24.702	-8.583	15837	15269	0	760
-26.073	-11.143	15732	15274	0	760
-27.840	-14.533	15631	15296	0	760
-27.912	-14.749	15532	15322	0	760
-27.624	-16.336	15421	15340	0	760
-26.578	-16.192	15326	15364	0	760
-25.820	-17.923	15227	15405	0	760
-26.542	-18.031	15132	15453	0	760
-26.037	-19.834	15027	15495	0	760
-25.532	-18.824	14935	15532	0	760
-25.027	-19.510	14840	15570	0	760
-27.299	-19.149	14745	15616	0	760
-29.354	-23.512	14655	15668	0	760
-33.646	-24.739	14563	15716	0	760
-39.235	-26.650	14468	15747	0	760
-39.272	-26.938	14363	15760	0	760
-39.308	-25.532	14254	15765	0	760
-37.324	-21.385	14144	15767	0	760
-35.305	-19.510	14039	15776	0	760
-31.807	-17.490	13934	15788	0	760
-30.328	-15.723	13825	15801	0	760
-29.715	-13.235	13721	15813	0	760
-28.705	-12.694	13610	15817	0	760
-29.210	-8.511	13505	15821	0	760
-30.004	-5.878	13410	15856	0	760
-33.429	-7.717	13333	15924	0	760
-35.665	-10.422	13244	15980	0	760
-40.209	-12.081	13148	16001	0	760
-41.796	-16.300	13047	16003	0	760
-43.527	-17.093	12948	16007	0	760
-43.274	-16.012	12857	16021	0	760
-44.969	-18.428	12761	16041	0	760
-45.258	-18.211	12656	16041	0	760
-46.051	-19.437	12529	15992	0	760
-46.772	-21.565	12405	15921	0	760
-49.044	-20.664	12285	15884	0	760
-49.549	-21.241	12180	15888	0	760
-50.090	-18.031	12075	15905	0	760
-47.854	-16.589	11970	15924	0	760
-44.464	-10.999	11875	15946	0	760
-41.111	-8.114	11785	15975	0	760
-38.586	-4.219	11703	16017	0	760
-37.937	-2.164	11623	16071	0	760
-36.711	0.072	11550	16130	0	760
-37.180	-0.433	11484	16186	0	760
-36.134	0.865	11413	16237	0	760
-35.846	3.210	11356	16283	0	760
-35.521	4.219	11283	16326	0	760
-35.665	5.590	11222	16362	0	760
-35.954	3.967	11156	16391	0	760
-33.970	5.013	11098	16421	0	760
-31.879	5.986	11045	16451	0	760
-29.282	9.052	10984	16480	0	760
-28.669	10.458	10931	16507	0	760
-29.427	11.468	10893	16542	0	760
-29.895	7.573	10854	16589	0	760
-29.463	4.796	10826	16637	0	760
-27.263	4.472	10807	16695	0	760
-27.479	5.337	10812	16792	0	760
-26.902	5.626	10845	16935	0	760
-30.653	7.104	10893	17096	0	760
-29.210	7.862	10959	17261	0	760
-27.732	8.655	11051	17456	0	760
-24.883	10.097	11188	17702	0	760
-21.781	13.559	11365	18003	0	760
-19.798	12.550	11589	18348	0	760
-20.087	10.206	11842	18722	0	760
-15.687	10.999	12138	19110	0	760
-12.586	10.458	12471	19506	0	760
-7.789	14.605	12834	19914	0	760
-4.977	21.890	13238	20324	0	760
-2.380	25.929	13663	20717	0	760
-1.442	28.850	14111	21077	0	760
-1.298	29.030	14579	21398	0	760
0.036	27.912	15065	21678	0	760
1.875	28.669	15551	21915	0	760
2.813	27.479	16057	22102	0	760
5.481	28.994	16555	22229	0	760
5.914	26.902	17041	22285	0	760
6.022	24.883	17518	22261	0	760
3.750	20.519	17976	22166	0	760
4.652	18.969	18428	22017	0	760
5.157	17.959	18863	21829	0	760
6.455	19.906	19292	21606	1	724
10.097	23.585	19696	21344	0	724
11.143	23.332	20077	21041	0	724
9.629	23.873	20445	20706	0	724
9.989	22.972	20802	20358	0	724
9.953	22.431	21141	20001	0	724
12.441	25.027	21456	19625	0	724
21.204	30.292	21742	19216	0	724
29.246	34.295	21999	18776	0	724
35.990	37.505	22223	18319	0	724
38.442	40.750	22429	17856	0	724
38.731	40.498	22591	17389	0	724
37.865	41.111	22737	16913	0	724
40.426	43.166	22848	16438	0	724
43.924	43.743	22943	15985	0	724
47.169	44.356	23010	15562	0	724
44.933	43.058	23071	15172	0	724
41.796	40.606	23115	14809	0	724
41.219	40.462	23125	14462	0	724
43.058	41.111	23119	14130	0	724
48.287	40.281	23090	13823	0	724
50.270	42.878	23058	13549	0	724
50.811	40.498	23001	13302	0	724
47.349	37.721	22919	13075	0	724
46.736	36.531	22829	12867	0	724
49.080	36.387	22715	12678	0	724
51.533	37.036	22585	12501	0	724
52.939	37.216	22442	12348	0	724
50.379	35.088	22305	12248	0	724
47.458	29.174	22156	12203	0	724
44.284	23.693	21999	12171	0	724
43.238	19.798	21813	12124	0	724
45.366	19.654	21612	12071	0	724
50.018	21.385	21412	12042	0	724
51.497	22.467	21202	12050	0	724
55.247	25.207	20993	12094	0	724
57.122	29.318	20789	12167	0	724
59.286	31.230	20579	12262	0	724
61.918	34.367	20379	12379	0	724
62.495	37.036	20182	12526	0	724
63.686	36.747	19991	12702	0	724
65.128	37.793	19810	12902	0	724
67.075	41.904	19644	13119	0	724
70.032	43.996	19482	13350	0	724
70.826	45.150	19334	13605	0	724
68.806	42.950	19206	13884	0	724
66.282	37.360	19091	14182	0	724
61.738	31.915	18990	14488	0	724
57.663	26.830	18901	14793	0	724
56.942	24.739	18828	15089	0	724
53.732	24.414	18752	15371	0	724
55.211	21.926	18691	15640	0	724
55.536	22.178	18638	15893	0	724
55.572	23.837	18586	16129	0	724
58.204	23.585	18542	16347	0	724
58.096	25.460	18504	16539	0	724
59.250	24.775	18472	16710	0	724
59.466	24.414	18437	16866	0	724
57.663	21.890	18418	17009	0	724
58.384	24.089	18390	17134	0	724
62.459	25.784	18361	17226	0	724
66.787	29.066	18338	17290	0	724
70.898	31.879	18310	17342	0	724
73.927	33.610	18294	17385	0	724
73.062	33.646	18262	17406	0	724
70.898	33.357	18228	17395	0	724
69.600	33.321	18186	17363	0	724
69.059	33.502	18157	17331	0	724
70.862	33.574	18128	17306	0	724
72.160	34.403	18100	17283	0	724
72.052	34.331	18075	17256	0	724
71.259	33.790	18043	17217	0	724
70.285	31.987	18023	17175	0	724
69.672	30.400	17995	17136	0	724
70.357	27.660	17980	17098	0	724
71.908	26.758	17947	17052	0	724
69.528	26.758	17900	16976	0	724
70.357	27.335	17837	16861	0	724
68.049	27.335	17776	16727	0	724
67.508	27.948	17709	16611	0	724
67.220	27.984	17646	16518	0	724
66.534	27.515	17585	16436	0	724
68.590	28.453	17522	16360	0	724
71.006	26.830	17455	16290	0	724
73.530	27.263	17388	16224	0	724
74.901	25.424	17322	16161	0	724
74.144	24.089	17245	16102	0	724
72.232	22.431	17184	16048	0	724
72.737	22.431	17108	15996	0	724
73.927	26.397	17017	15931	0	724
78.363	28.164	16927	15853	0	724
80.563	31.446	16835	15781	0	724
79.625	32.456	16740	15729	0	724
77.281	29.138	16650	15695	0	724
72.881	28.309	16559	15669	0	724
74.288	30.472	16469	15637	0	724
75.298	32.023	16371	15606	0	724
76.415	33.610	16276	15586	0	724
74.035	31.699	16184	15584	0	724
69.383	28.633	16095	15588	0	724
64.010	23.044	15999	15586	0	724
61.269	20.267	15898	15579	0	724
60.115	15.362	15799	15578	0	724
59.142	16.264	15708	15591	0	724
58.024	15.651	15612	15613	0	724
56.726	17.923	15517	15628	0	724
54.562	17.526	15421	15635	0	724
54.490	19.942	15317	15642	0	724
53.047	18.139	15217	15652	0	724
55.968	20.267	15116	15666	0	724
56.906	20.627	15031	15688	0	724
59.827	22.142	14931	15722	0	724
62.171	19.005	14840	15750	0	724
62.099	19.906	14741	15765	0	724
63.397	20.014	14649	15780	0	724
66.354	24.125	14560	15811	0	724
67.328	27.047	14468	15852	0	724
68.301	30.184	14378	15880	0	724
67.761	28.273	14277	15882	0	724
67.039	27.047	14169	15864	0	724
64.335	25.352	14054	15843	0	724
62.928	25.135	13944	15827	0	724
60.079	23.440	13835	15818	0	724
58.096	21.781	13724	15810	0	724
54.057	20.014	13610	15799	0	724
54.454	17.093	13495	15794	0	724
50.487	18.283	13387	15802	0	724
48.359	15.507	13291	15820	0	724
43.274	15.759	13187	15840	0	724
41.724	14.713	13082	15855	0	724
43.166	14.353	12977	15866	0	724
48.035	19.005	12881	15883	0	724
51.028	20.267	12780	15908	0	724
54.706	20.087	12681	15935	0	724
51.749	21.277	12580	15955	0	724
50.126	20.267	12475	15954	0	724
49.116	23.188	12361	15935	0	724
48.179	24.919	12262	15926	0	724
50.920	28.886	12157	15935	0	724
48.720	30.617	12056	15950	0	724
48.792	32.636	11957	15966	0	724
49.297	35.377	11852	15980	0	724
51.965	36.964	11756	15990	0	724
55.536	38.045	11661	16008	0	724
56.798	36.928	11579	16050	0	724
54.526	35.233	11508	16115	0	724
49.766	32.131	11436	16175	0	724
44.320	29.391	11360	16213	0	724
41.652	26.578	11280	16229	0	724
41.507	23.585	11198	16235	0	724
40.462	22.647	11102	16230	0	724
39.668	22.755	11016	16217	0	724
37.505	23.260	10931	16217	0	724
35.088	26.145	10851	16230	0	724
34.547	29.751	10778	16244	0	724
36.170	31.662	10702	16266	0	724
38.442	35.016	10645	16304	0	724
41.327	37.613	10587	16352	0	724
43.707	39.199	10530	16396	0	724
42.697	39.416	10483	16438	0	724
41.075	35.485	10444	16482	0	724
36.026	30.508	10412	16542	0	724
30.292	24.414	10393	16621	0	724
25.929	19.906	10387	16715	0	724
23.873	19.149	10397	16828	0	724
24.847	19.329	10435	16973	0	724
28.309	20.916	10502	17158	0	724
29.607	21.781	10606	17390	0	724
30.256	19.726	10755	17685	0	724
30.364	21.096	10950	18036	0	724
29.823	20.483	11179	18412	0	724
31.626	22.395	11436	18788	0	724
30.112	24.811	11737	19174	0	724
28.994	23.585	12075	19585	0	724
25.243	22.034	12456	20020	0	724
21.962	19.942	12872	20466	0	724
22.467	18.860	13330	20898	0	724
23.729	21.204	13816	21304	0	724
24.450	22.034	14325	21695	0	724
24.702	22.503	14865	22068	0	724
25.135	21.962	15427	22400	0	724
24.775	20.519	15999	22678	0	724
24.522	22.791	16574	22897	0	724
24.919	20.916	17165	23056	0	724
21.204	21.421	17756	23159	0	724
19.870	20.772	18348	23214	0	724
16.552	18.283	18929	23216	0	724
18.428	18.752	19505	23144	0	724
18.752	17.670	20068	22999	0	724
19.365	18.283	20607	22794	0	724
21.241	17.021	21126	22542	0	724
19.834	19.510	21631	22243	1	764
21.421	19.437	22108	21890	0	764
21.349	22.611	22552	21486	0	764
23.224	20.700	22972	21037	0	764
23.332	19.582	23363	20557	0	764
22.070	19.005	23729	20062	0	764
22.935	15.723	24072	19571	0	764
23.693	17.995	24393	19082	0	764
24.053	17.382	24673	18569	0	764
25.604	18.788	24917	18023	0	764
25.424	16.372	25131	17465	0	764
25.207	17.310	25312	16920	0	764
26.289	15.975	25474	16401	0	764
28.381	18.211	25607	15916	0	764
28.669	17.274	25722	15452	0	764
28.273	17.743	25813	15006	0	764
25.207	16.444	25884	14595	0	764
23.476	15.038	25941	14227	0	764
24.486	16.913	25970	13891	0	764
25.568	17.851	25979	13570	0	764
27.912	20.483	25975	13271	0	764
29.282	19.870	25951	13009	0	764
28.597	18.175	25909	12789	0	764
26.578	16.625	25865	12608	0	764
26.145	13.776	25798	12457	0	764
25.604	9.953	25722	12324	0	764
24.847	9.124	25626	12209	0	764
25.207	5.878	25522	12117	0	764
24.811	4.364	25407	12053	0	764
25.568	5.626	25274	12016	0	764
26.722	6.708	25146	12005	0	764
29.066	10.710	25007	12020	0	764
31.230	13.812	24854	12050	0	764
32.672	16.913	24702	12091	0	764
34.079	19.762	24539	12147	0	764
33.970	19.582	24368	12220	0	764
33.033	20.519	24196	12306	0	764
30.328	17.706	24021	12409	0	764
25.171	16.120	23843	12524	0	764
19.149	10.350	23678	12660	0	764
17.743	7.501	23515	12834	0	764
13.992	5.517	23372	13045	0	764
15.038	4.436	23224	13266	0	764
13.812	4.003	23077	13472	0	764
14.966	4.868	22928	13664	0	764
14.785	5.013	22785	13855	0	764
15.002	6.239	22642	14056	0	764
16.192	8.186	22509	14257	0	764
16.012	8.439	22371	14451	0	764
17.057	8.078	22247	14640	0	764
15.254	8.763	22133	14838	0	764
14.677	10.855	22028	15047	0	764
11.035	10.458	21933	15266	0	764
7.429	8.258	21851	15485	0	764
6.996	4.724	21771	15690	0	764
8.439	4.039	21694	15881	0	764
11.612	5.229	21628	16065	0	764
14.569	9.701	21580	16248	0	764
14.497	11.107	21527	16423	0	764
9.629	7.176	21488	16583	0	764
3.895	4.219	21441	16721	0	764
-0.721	0.829	21408	16842	0	764
-2.813	2.777	21370	16943	0	764
-1.587	4.183	21336	17029	0	764
1.911	6.888	21313	17116	0	764
3.029	6.924	21288	17191	0	764
6.455	6.960	21250	17226	0	764
9.556	8.835	21202	17216	0	764
12.009	10.710	21151	17186	0	764
11.973	11.396	21103	17154	0	764
11.360	12.189	21059	17125	0	764
8.402	8.799	21017	17100	0	764
5.770	7.248	20979	17075	0	764
4.904	6.563	20932	17041	0	764
0.938	4.652	20893	17003	0	764
0.649	5.265	20846	16960	0	764
-3.570	3.678	20792	16905	0	764
-3.426	4.147	20741	16837	0	764
0.469	6.131	20678	16760	0	764
4.147	9.701	20617	16679	0	764
12.189	11.360	20544	16596	0	764
16.589	12.910	20468	16504	0	764
16.048	11.756	20388	16401	0	764
12.261	9.629	20297	16300	0	764
4.760	10.422	20207	16208	0	764
-0.613	9.881	20115	16123	0	764
-4.327	10.314	20020	16041	0	764
-5.481	12.694	19925	15960	0	764
-3.823	12.369	19816	15879	0	764
-2.164	11.720	19711	15803	0	764
0.577	11.071	19606	15737	0	764
2.452	9.520	19496	15676	0	764
2.633	7.934	19381	15622	0	764
2.272	7.032	19286	15600	0	764
2.056	9.160	19187	15606	0	764
1.298	9.701	19082	15604	0	764
0.577	9.196	18981	15581	0	764
-0.793	8.042	18863	15554	0	764
-3.282	7.429	18752	15529	0	764
-3.390	7.032	18628	15507	0	764
-4.580	7.357	18510	15488	0	764
-5.445	7.862	18386	15469	0	764
-5.517	7.789	18256	15435	0	764
-6.022	5.337	18104	15388	0	764
-6.022	3.318	17957	15334	0	764
-5.590	3.137	17808	15290	0	764
-2.633	3.606	17652	15259	0	764
-2.092	2.633	17509	15234	0	764
-1.190	5.265	17356	15217	0	764
-0.433	4.977	17203	15217	0	764
-1.983	6.167	17064	15236	0	764
-3.606	6.347	16917	15262	0	764
-2.560	7.393	16765	15269	0	764
-1.479	11.143	16603	15246	0	764
0.757	10.458	16431	15216	0	764
1.983	10.927	16280	15220	0	764
0.505	7.573	16127	15260	0	764
-2.236	4.219	15990	15310	0	764
-5.121	1.587	15851	15361	0	764
-6.275	1.947	15713	15417	0	764
-4.436	2.741	15584	15481	0	764
-1.659	3.498	15460	15561	0	764
0.144	5.950	15360	15668	0	764
2.200	7.321	15265	15793	0	764
4.760	10.422	15164	15898	0	764
8.042	13.415	15050	15962	0	764
12.225	17.166	14945	16001	0	764
14.028	17.093	14830	16038	0	764
12.189	18.428	14722	16078	0	764
11.864	17.490	14611	16114	0	764
10.999	17.490	14506	16145	0	764
9.232	16.192	14407	16177	0	764
9.088	17.202	14312	16220	0	764
7.429	16.120	14216	16273	0	764
3.462	16.372	14130	16322	0	764
0.721	15.218	14039	16356	0	764
-0.325	17.959	13949	16374	0	764
1.442	18.644	13854	16379	0	764
4.868	25.496	13753	16374	0	764
10.494	27.984	13654	16356	0	764
15.182	30.220	13543	16325	0	764
15.326	28.633	13434	16292	0	764
13.992	26.073	13333	16269	0	764
14.785	25.063	13234	16260	0	764
13.631	24.775	13139	16262	0	764
13.199	25.604	13047	16268	0	764
11.215	24.919	12952	16272	0	764
7.609	20.483	12872	16276	0	764
2.993	16.084	12777	16278	0	764
-1.298	11.287	12695	16282	0	764
-4.904	9.376	12609	16288	0	764
-8.799	9.629	12529	16290	0	764
-9.340	10.963	12443	16292	0	764
-6.744	15.759	12361	16293	0	764
-3.462	18.716	12266	16284	0	764
-0.252	23.152	12176	16256	0	764
0.541	25.099	12084	16230	0	764
0.288	26.974	11999	16219	0	764
-0.397	29.535	11918	16222	0	764
2.633	30.004	11836	16224	0	764
5.049	33.177	11747	16214	0	764
7.898	34.908	11665	16206	0	764
5.409	33.754	11594	16213	0	764
3.534	31.554	11522	16232	0	764
0.252	29.463	11446	16251	0	764
-1.551	26.974	11379	16267	0	764
-2.200	25.496	11322	16287	0	764
-3.714	22.358	11261	16320	0	764
-5.193	21.493	11222	16370	0	764
-7.176	18.716	11184	16438	0	764
-6.275	15.362	11156	16512	0	764
-7.753	15.398	11131	16580	0	764
-6.311	14.749	11127	16665	0	764
-9.196	12.694	11165	16811	0	764
-10.278	12.297	11226	17024	0	764
-11.215	9.881	11341	17286	0	764
-13.379	7.140	11484	17593	0	764
-12.694	7.753	11671	17947	0	764
-15.182	8.619	11913	18338	0	764
-16.589	8.258	12176	18750	0	764
-17.706	6.888	12485	19174	0	764
-19.726	3.246	12834	19617	0	764
-19.041	3.065	13219	20069	0	764
-14.785	5.337	13639	20508	0	764
-6.563	13.235	14087	20926	0	764
1.190	19.582	14573	21329	0	764
6.419	25.027	15069	21705	0	764
12.045	27.515	15589	22026	0	764
12.225	26.650	16104	22279	0	764
12.081	27.840	16641	22478	0	764
13.054	26.470	17175	22637	0	764
11.251	24.666	17728	22752	0	764
6.708	20.880	18266	22812	0	764
4.039	18.211	18815	22812	0	764
2.200	14.821	19339	22752	0	764
1.947	15.615	19864	22631	0	764
0.397	14.100	20373	22460	0	764
-1.190	12.730	20865	22249	0	764
-4.977	8.979	21345	21994	1	792
-6.996	4.904	21803	21689	0	792
-8.366	4.472	22232	21339	0	792
-7.898	4.291	22648	20958	0	792
-7.789	7.573	23029	20551	0	792
-7.212	6.780	23401	20117	0	792
-8.330	4.616	23725	19657	0	792
-7.717	3.282	24030	19176	0	792
-7.825	1.659	24297	18680	0	792
-6.419	4.364	24539	18168	0	792
-4.472	7.501	24749	17646	0	792
0.397	12.586	24936	17136	0	792
4.977	14.353	25102	16651	0	792
8.475	13.740	25241	16189	0	792
9.268	15.507	25350	15737	0	792
7.934	12.982	25441	15297	0	792
4.472	12.694	25512	14889	0	792
2.380	13.487	25575	14524	0	792
2.669	14.605	25607	14198	0	792
5.986	17.923	25632	13896	0	792
9.737	18.175	25632	13613	0	792
10.530	19.906	25623	13362	0	792
8.078	15.867	25598	13153	0	792
5.590	14.641	25569	12983	0	792
2.200	10.530	25522	12841	0	792
0.902	7.465	25470	12714	0	792
1.406	7.429	25379	12593	0	792
0.397	4.580	25279	12468	0	792
0.036	3.606	25159	12353	0	792
-1.262	1.767	25035	12278	0	792
-1.983	-0.469	24908	12246	0	792
-2.019	-2.200	24768	12246	0	792
-4.472	-2.669	24641	12269	0	792
-6.383	-2.452	24498	12314	0	792
-8.547	-2.056	24355	12380	0	792
-11.179	-1.190	24206	12462	0	792
-9.773	-1.515	24053	12550	0	792
-5.121	0.793	23882	12632	0	792
-1.262	2.957	23716	12714	0	792
6.419	5.229	23554	12826	0	792
9.701	6.744	23395	12973	0	792
11.179	8.114	23248	13143	0	792
12.874	10.927	23096	13326	0	792
14.713	14.713	22953	13511	0	792
15.398	19.618	22819	13700	0	792
18.067	23.945	22695	13911	0	792
17.670	28.453	22572	14139	0	792
16.877	25.424	22467	14367	0	792
13.235	24.378	22362	14588	0	792
8.907	19.726	22251	14799	0	792
6.563	14.425	22162	15008	0	792
4.544	13.668	22076	15217	0	792
5.121	14.317	22003	15433	0	792
4.616	13.884	21937	15649	0	792
4.364	13.631	21875	15849	0	792
2.777	10.097	21818	16028	0	792
0.902	5.301	21765	16200	0	792
0.938	4.724	21727	16374	0	792
2.272	5.950	21698	16538	0	792
4.183	8.294	21660	16681	0	792
5.193	10.530	21622	16796	0	792
5.914	10.025	21599	16891	0	792
6.203	10.386	21561	16971	0	792
3.750	10.530	21536	17040	0	792
3.534	12.225	21517	17105	0	792
3.246	16.120	21494	17158	0	792
1.406	14.028	21456	17181	0	792
-0.216	12.405	21412	17161	0	792
-1.839	9.953	21361	17110	0	792
-1.803	9.917	21307	17052	0	792
0.108	11.468	21256	16998	0	792
2.128	15.471	21199	16943	0	792
2.957	14.569	21141	16884	0	792
0.649	12.946	21078	16812	0	792
-1.947	7.645	21008	16730	0	792
-3.426	3.750	20932	16645	0	792
-4.544	2.488	20865	16568	0	792
-4.436	1.262	20792	16492	0	792
-5.590	1.226	20712	16412	0	792
-4.724	2.056	20626	16331	0	792
-5.950	1.082	20544	16254	0	792
-5.517	2.452	20455	16181	0	792
-6.527	1.226	20369	16108	0	792
-5.914	1.262	20258	16027	0	792
-4.364	2.092	20169	15944	0	792
-2.849	3.895	20058	15870	0	792
0.108	6.275	19949	15811	0	792
-0.865	8.979	19848	15759	0	792
-1.947	7.465	19734	15706	0	792
-3.282	6.599	19620	15646	0	792
-3.534	3.678	19496	15585	0	792
-2.669	2.236	19368	15525	0	792
-2.452	3.246	19238	15471	0	792
-1.046	3.282	19110	15425	0	792
-1.226	4.580	18977	15385	0	792
0.685	6.527	18838	15346	0	792
1.731	7.501	18681	15293	0	792
3.390	10.061	18533	15225	0	792
4.688	11.396	18351	15147	0	792
4.508	10.638	18176	15066	0	792
3.606	10.746	17999	15004	0	792
1.839	8.294	17823	14969	0	792
-1.406	6.239	17652	14950	0	792
-2.200	5.085	17484	14947	0	792
-3.967	5.445	17327	14967	0	792
-2.488	5.193	17169	15010	0	792
-1.190	7.898	17022	15068	0	792
0.721	10.097	16879	15129	0	792
2.705	11.107	16740	15193	0	792
3.354	11.576	16597	15269	0	792
4.003	13.812	16469	15352	0	792
2.669	12.477	16343	15433	0	792
2.128	12.910	16203	15501	0	792
2.019	10.999	16079	15559	0	792
2.380	9.701	15946	15614	0	792
4.472	8.979	15803	15663	0	792
6.131	11.720	15666	15700	0	792
9.520	14.136	15536	15731	0	792
13.235	19.149	15399	15761	0	792
15.831	21.457	15265	15791	0	792
20.159	24.811	15132	15827	0	792
20.267	26.145	15008	15867	0	792
22.178	28.705	14874	15904	0	792
20.231	27.804	14750	15938	0	792
16.985	26.109	14630	15972	0	792
16.372	22.863	14506	16003	0	792
13.559	18.139	14388	16030	0	792
12.045	16.408	14264	16054	0	792
11.215	14.749	14150	16081	0	792
7.393	15.903	14039	16117	0	792
5.914	16.156	13930	16151	0	792
4.580	13.451	13816	16173	0	792
3.678	13.379	13711	16196	0	792
2.741	10.242	13610	16229	0	792
1.442	8.258	13511	16261	0	792
0.036	8.583	13410	16288	0	792
0.902	8.943	13314	16308	0	792
2.813	9.592	13215	16322	0	792
4.219	10.350	13124	16338	0	792
3.931	11.937	13038	16364	0	792
2.092	12.405	12952	16394	0	792
0.288	10.242	12872	16416	0	792
-2.452	10.999	12777	16420	0	792
-2.200	8.583	12691	16416	0	792
0.685	8.006	12605	16418	0	792
3.354	7.681	12523	16425	0	792
7.212	10.999	12443	16426	0	792
9.412	13.127	12351	16418	0	792
10.710	13.812	12271	16409	0	792
11.071	15.471	12185	16401	0	792
10.097	13.920	12109	16398	0	792
13.812	15.579	12037	16412	0	792
15.398	16.589	11966	16429	0	792
13.812	20.411	11894	16422	0	792
13.920	18.824	11798	16389	0	792
10.133	18.211	11712	16348	0	792
7.898	14.425	11627	16312	0	792
7.537	13.740	11541	16289	0	792
10.061	12.405	11465	16280	0	792
10.386	12.910	11384	16277	0	792
9.665	12.946	11303	16269	0	792
8.547	10.638	11232	16255	0	792
6.022	7.681	11150	16244	0	792
3.859	6.383	11079	16241	0	792
2.669	4.400	11003	16239	0	792
1.262	4.291	10927	16230	0	792
1.082	3.787	10845	16217	0	792
1.046	4.904	10774	16207	0	792
2.164	4.219	10698	16207	0	792
2.200	5.337	10635	16215	0	792
3.390	4.904	10559	16217	0	792
5.265	6.131	10483	16203	0	792
7.285	5.409	10402	16181	0	792
8.979	5.481	10326	16161	0	792
11.576	7.970	10240	16145	0	792
14.281	9.809	10164	16126	0	792
15.290	11.973	10073	16101	0	792
16.444	13.704	9983	16066	0	792
16.877	12.297	9897	16033	0	792
14.064	11.143	9821	16030	0	792
13.704	9.088	9754	16064	0	792
11.684	7.862	9710	16128	0	792
8.150	6.383	9678	16221	0	792
6.708	5.373	9663	16335	0	792
3.173	2.452	9678	16480	0	792
1.118	-0.793	9725	16690	0	792
-0.216	-2.633	9821	16965	0	792
-0.649	-5.301	9945	17282	0	792
-1.803	-6.022	10116	17631	0	792
-1.587	-8.078	10317	18012	0	792
0.216	-6.563	10565	18427	0	792
2.056	-7.104	10864	18879	0	792
2.741	-6.239	11203	19362	0	792
3.426	-4.832	11589	19857	0	792
4.977	-4.436	12008	20343	0	792
4.436	-4.436	12471	20817	0	792
4.364	-4.724	12958	21278	0	792
5.734	-2.813	13476	21720	0	792
6.708	-0.757	14029	22128	0	792
7.645	0.865	14588	22478	0	792
8.042	1.551	15155	22764	0	792
8.475	1.479	15736	22989	0	792
11.035	-0.072	16323	23157	0	792
13.487	0.865	16902	23265	0	792
14.713	0.974	17490	23305	0	792
16.228	3.318	18056	23272	0	792
13.451	4.183	18615	23173	0	792
13.163	4.508	19158	23008	0	792
13.956	6.852	19683	22779	0	792
14.245	4.724	20182	22495	1	836
14.894	3.137	20659	22162	0	836
11.756	-0.180	21107	21780	0	836
7.285	-3.101	21527	21345	0	836
4.616	-4.796	21917	20872	0	836
1.839	-5.698	22285	20376	0	836
-0.288	-7.393	22619	19869	0	836
0.613	-7.681	22938	19357	0	836
1.082	-8.583	23220	18833	0	836
1.515	-7.501	23472	18299	0	836
0.288	-5.842	23700	17774	0	836
-0.974	-7.465	23910	17266	0	836
-2.164	-8.511	24091	16771	0	836
-1.370	-10.386	24234	16288	0	836
0.433	-9.845	24368	15817	0	836
2.849	-10.494	24469	15366	0	836
5.554	-8.763	24555	14946	0	836
6.780	-8.294	24616	14561	0	836
7.862	-6.708	24663	14207	0	836
8.979	-4.183	24683	13867	0	836
11.107	-2.200	24669	13531	0	836
12.225	0.036	24631	13209	0	836
12.802	0.577	24583	12928	0	836
13.091	0.865	24520	12689	0	836
12.694	-0.361	24440	12481	0	836
12.333	-1.442	24349	12300	0	836
13.595	-3.570	24234	12147	0	836
11.973	-4.940	24110	12019	0	836
12.189	-3.462	23977	11918	0	836
11.251	-3.426	23840	11863	0	836
9.052	-4.400	23697	11843	0	836
7.862	-5.337	23529	11828	0	836
8.511	-5.734	23357	11812	0	836
9.124	-6.167	23163	11811	0	836
9.520	-3.895	22976	11840	0	836
14.172	-1.623	22785	11907	0	836
14.930	-0.288	22610	12010	0	836
12.658	0.144	22419	12143	0	836
13.163	-0.721	22251	12298	0	836
11.756	-1.010	22070	12477	0	836
11.323	-0.541	21914	12683	0	836
14.245	1.515	21755	12906	0	836
14.569	3.210	21603	13136	0	836
19.401	3.895	21456	13369	0	836
20.123	4.688	21317	13608	0	836
23.621	4.111	21183	13853	0	836
23.188	6.419	21065	14109	0	836
21.818	5.914	20954	14374	0	836
20.195	5.409	20859	14642	0	836
17.129	4.796	20769	14906	0	836
19.149	4.977	20687	15163	0	836
20.267	6.275	20617	15416	0	836
22.791	10.206	20544	15656	0	836
23.116	11.287	20487	15876	0	836
21.421	11.540	20426	16073	0	836
20.195	12.730	20373	16251	0	836
16.408	9.592	20321	16413	0	836
14.353	6.924	20268	16563	0	836
11.179	2.344	20226	16696	0	836
9.665	-0.793	20182	16808	0	836
9.773	-0.757	20134	16897	0	836
11.720	0.361	20093	16957	0	836
12.694	3.426	20039	16995	0	836
15.398	3.714	19988	17027	0	836
14.677	1.623	19949	17056	0	836
14.677	2.344	19896	17076	0	836
18.139	2.705	19858	17085	0	836
17.129	3.137	19806	17078	0	836
18.716	5.986	19763	17064	0	836
18.500	6.635	19721	17049	0	836
20.195	9.448	19673	17030	0	836
24.125	10.891	19625	17002	0	836
25.893	14.930	19572	16961	0	836
25.388	12.045	19524	16914	0	836
24.306	11.287	19477	16864	0	836
18.644	7.393	19416	16806	0	836
17.274	6.780	19349	16734	0	836
17.310	9.412	19276	16652	0	836
20.231	12.730	19196	16551	0	836
22.070	18.788	19105	16434	0	836
24.991	21.421	19019	16336	0	836
27.696	22.178	18939	16264	0	836
28.597	21.421	18853	16200	0	836
24.811	17.959	18761	16137	0	836
20.447	14.533	18676	16077	0	836
16.264	9.124	18590	16022	0	836
10.206	4.724	18500	15971	0	836
7.212	2.524	18409	15925	0	836
5.698	0.541	18313	15881	0	836
4.832	1.082	18214	15838	0	836
3.787	1.623	18113	15785	0	836
4.364	2.236	17999	15723	0	836
7.176	2.741	17890	15666	0	836
7.681	3.246	17770	15622	0	836
9.629	3.967	17655	15587	0	836
11.251	4.652	17537	15554	0	836
11.900	4.075	17427	15521	0	836
12.766	5.517	17299	15493	0	836
12.261	3.065	17179	15479	0	836
10.710	1.226	17064	15477	0	836
8.186	-1.983	16950	15479	0	836
6.347	-6.708	16832	15481	0	836
4.075	-7.429	16711	15483	0	836
3.318	-7.068	16588	15486	0	836
4.039	-6.671	16469	15494	0	836
6.491	-5.878	16352	15505	0	836
7.825	-2.200	16222	15513	0	836
12.009	-0.902	16104	15514	0	836
14.100	1.406	15975	15517	0	836
14.208	3.570	15847	15525	0	836
12.766	4.940	15717	15538	0	836
10.746	2.416	15589	15548	0	836
7.789	0.541	15446	15539	0	836
5.301	-0.613	15298	15509	0	836
3.462	-2.344	15141	15469	0	836
4.111	-1.623	14992	15435	0	836
4.327	-0.361	14836	15417	0	836
5.914	1.154	14684	15419	0	836
6.816	2.200	14535	15427	0	836
7.645	4.039	14382	15421	0	836
9.845	7.176	14226	15411	0	836
12.153	10.783	14077	15419	0	836
13.668	11.612	13940	15455	0	836
16.048	13.127	13806	15510	0	836
14.966	12.550	13682	15572	0	836
15.218	11.360	13558	15632	0	836
15.038	13.740	13438	15700	0	836
15.831	10.674	13330	15777	0	836
16.877	10.133	13219	15852	0	836
14.425	7.393	13120	15924	0	836
12.874	4.688	13015	15991	0	836
8.727	4.580	12914	16053	0	836
5.734	4.544	12824	16117	0	836
6.563	5.590	12738	16188	0	836
9.556	8.547	12653	16262	0	836
11.973	10.638	12571	16324	0	836
13.920	12.586	12481	16368	0	836
13.307	10.350	12386	16384	0	836
9.989	10.025	12294	16385	0	836
6.491	7.465	12204	16392	0	836
4.868	6.563	12119	16412	0	836
4.219	5.590	12033	16434	0	836
5.301	6.347	11957	16448	0	836
7.753	5.878	11861	16444	0	836
11.937	7.140	11766	16422	0	836
15.002	9.556	11684	16405	0	836
16.084	9.809	11598	16402	0	836
14.172	9.088	11512	16402	0	836
15.435	8.835	11426	16394	0	836
12.550	9.268	11337	16377	0	836
14.497	9.484	11255	16365	0	836
14.785	9.268	11179	16367	0	836
13.559	8.150	11108	16382	0	836
12.297	7.248	11041	16399	0	836
11.973	5.085	10975	16412	0	836
16.697	7.681	10908	16421	0	836
18.933	9.052	10841	16431	0	836
22.611	11.143	10784	16440	0	836
20.195	11.360	10721	16451	0	836
17.706	9.088	10664	16459	0	836
12.514	4.977	10603	16464	0	836
9.268	2.488	10549	16477	0	836
7.898	0.397	10507	16500	0	836
6.239	-0.757	10463	16526	0	836
6.311	-1.190	10412	16535	0	836
3.570	-1.442	10349	16510	0	836
3.498	-0.252	10278	16462	0	836
4.327	1.911	10216	16424	0	836
7.212	4.039	10149	16404	0	836
9.592	6.491	10092	16386	0	836
12.622	5.986	10025	16360	0	836
14.858	8.222	9949	16316	0	836
14.641	7.573	9868	16253	0	836
16.048	7.934	9796	16202	0	836
17.238	8.439	9735	16195	0	836
17.202	8.186	9687	16222	0	836
19.257	10.710	9634	16250	0	836
22.214	12.766	9577	16262	0	836
22.719	13.054	9535	16268	0	836
22.791	14.713	9497	16291	0	836
17.670	11.576	9462	16343	0	836
13.704	8.366	9462	16429	0	836
8.294	8.619	9472	16547	0	836
5.121	5.878	9506	16685	0	836
4.039	4.760	9548	16842	0	836
3.318	2.849	9630	17032	0	836
3.029	1.659	9735	17263	0	836
3.534	-0.072	9882	17534	0	836
1.839	-2.164	10059	17836	0	836
0.577	-3.750	10269	18170	0	836
-1.226	-7.176	10526	18536	0	836
-2.416	-9.088	10822	18933	0	836
-1.154	-8.799	11159	19351	0	836
0.649	-7.501	11522	19769	0	836
2.705	-3.714	11918	20176	0	836
5.373	0.252	12342	20574	0	836
9.809	3.426	12805	20958	0	836
10.855	6.599	13295	21322	0	836
12.766	5.517	13797	21661	0	836
9.232	3.426	14321	21959	0	836
5.013	-0.793	14846	22196	0	836
-0.433	-3.354	15380	22367	0	836
-3.498	-3.426	15908	22478	0	836
-3.678	-4.544	16425	22524	0	836
-0.613	-2.488	16946	22510	0	836
3.390	1.154	17451	22438	0	836
8.114	4.436	17932	22297	0	836
13.235	6.924	18399	22090	0	836
14.858	7.825	18857	21838	1	832
13.379	4.183	19286	21552	0	832
12.333	2.452	19696	21224	0	832
9.340	1.875	20077	20850	0	832
8.943	2.092	20436	20434	0	832
10.061	3.606	20760	19988	0	832
10.386	3.498	21059	19522	0	832
9.701	2.380	21332	19035	0	832
8.511	0.541	21565	18525	0	832
6.960	-0.613	21771	18000	0	832
6.744	-3.246	21927	17455	0	832
5.914	-4.472	22066	16906	0	832
6.094	-4.616	22181	16394	0	832
5.698	-4.760	22285	15930	0	832
5.517	-2.705	22362	15489	0	832
5.806	-0.649	22409	15059	0	832
5.986	-0.144	22429	14631	0	832
4.796	0.505	22423	14215	0	832
5.626	0.180	22404	13841	0	832
7.357	0.613	22366	13515	0	832
10.602	1.695	22314	13225	0	832
14.353	3.426	22242	12964	0	832
15.146	5.698	22152	12723	0	832
16.552	7.393	22047	12503	0	832
14.930	8.691	21927	12322	0	832
16.805	11.468	21799	12179	0	832
16.913	11.576	21656	12063	0	832
17.670	8.763	21488	11960	0	832
14.785	8.727	21317	11870	0	832
12.297	5.662	21141	11812	0	832
10.278	5.590	20954	11797	0	832
7.970	4.868	20769	11817	0	832
7.537	4.039	20579	11865	0	832
7.248	3.498	20388	11932	0	832
5.517	2.019	20192	12024	0	832
6.635	5.337	20001	12149	0	832
6.852	6.347	19829	12308	0	832
8.078	8.006	19648	12491	0	832
9.881	8.366	19477	12686	0	832
9.953	6.239	19314	12892	0	832
9.737	5.013	19152	13115	0	832
9.809	5.409	19006	13356	0	832
8.907	6.203	18863	13610	0	832
9.737	6.924	18733	13867	0	832
8.439	5.590	18609	14121	0	832
7.032	5.121	18491	14374	0	832
5.049	2.957	18380	14626	0	832
3.895	5.121	18290	14883	0	832
5.121	7.645	18214	15164	0	832
6.022	8.186	18157	15455	0	832
6.311	9.448	18090	15714	0	832
5.698	9.989	18027	15932	0	832
7.285	13.812	17976	16135	0	832
10.494	15.362	17941	16352	0	832
12.405	16.841	17919	16575	0	832
12.405	13.054	17903	16782	0	832
9.196	6.131	17884	16952	0	832
3.246	2.777	17861	17081	0	832
-2.452	-0.469	17842	17184	0	832
-6.058	-0.072	17827	17278	0	832
-7.068	0.361	17823	17366	0	832
-5.734	0.108	17808	17441	0	832
-3.101	-1.226	17808	17491	0	832
0.036	-1.082	17795	17517	0	832
0.288	-1.118	17785	17532	0	832
0.036	-2.200	17789	17548	0	832
-1.190	-1.154	17785	17559	0	832
-1.046	-0.469	17785	17548	0	832
-0.144	0.685	17770	17513	0	832
1.659	2.272	17756	17462	0	832
2.957	2.488	17751	17406	0	832
5.662	4.327	17728	17348	0	832
7.717	5.013	17718	17284	0	832
10.674	6.708	17694	17206	0	832
11.215	7.321	17652	17106	0	832
12.189	7.176	17613	16988	0	832
11.864	4.724	17566	16865	0	832
8.186	5.770	17503	16740	0	832
6.491	5.445	17442	16610	0	832
6.094	6.708	17366	16475	0	832
7.140	7.934	17284	16331	0	832
9.304	7.104	17198	16187	0	832
11.648	7.212	17112	16076	0	832
12.225	4.868	17036	15993	0	832
10.566	4.796	16956	15915	0	832
8.150	3.462	16864	15831	0	832
6.383	2.524	16769	15745	0	832
5.121	0.577	16670	15664	0	832
3.390	-1.659	16574	15594	0	832
0.361	-4.255	16473	15541	0	832
-1.262	-6.671	16381	15506	0	832
-4.111	-7.789	16280	15482	0	832
-6.960	-9.052	16180	15463	0	832
-8.871	-12.153	16089	15451	0	832
-8.799	-11.251	15990	15447	0	832
-5.662	-8.294	15889	15447	0	832
-1.010	-4.219	15784	15438	0	832
6.635	2.669	15679	15423	0	832
12.405	5.914	15565	15413	0	832
15.002	8.979	15456	15406	0	832
15.903	9.556	15332	15388	0	832
14.064	10.314	15202	15361	0	832
15.398	10.999	15078	15339	0	832
14.641	12.441	14950	15322	0	832
15.651	11.828	14807	15300	0	832
16.228	10.855	14668	15280	0	832
14.605	11.468	14535	15269	0	832
11.323	8.150	14392	15269	0	832
8.547	3.787	14258	15274	0	832
6.816	2.272	14121	15284	0	832
7.645	-0.613	13987	15299	0	832
8.871	-1.623	13848	15323	0	832
8.402	0.361	13721	15358	0	832
7.681	2.993	13597	15402	0	832
6.924	3.606	13467	15443	0	832
6.275	3.859	13333	15473	0	832
5.878	-0.433	13206	15501	0	832
5.517	-2.560	13082	15540	0	832
4.832	-6.527	12958	15584	0	832
3.895	-7.104	12824	15624	0	832
3.390	-6.275	12704	15658	0	832
4.183	-4.904	12586	15694	0	832
2.633	-3.498	12466	15741	0	832
2.957	-2.452	12367	15800	0	832
7.789	1.442	12256	15865	0	832
13.343	5.445	12147	15923	0	832
19.834	10.566	12046	15974	0	832
22.106	11.828	11951	16026	0	832
22.575	12.405	11856	16083	0	832
19.942	10.458	11760	16141	0	832
19.473	9.881	11674	16191	0	832
17.418	9.232	11585	16229	0	832
14.930	9.809	11489	16258	0	832
7.681	5.445	11398	16275	0	832
1.623	1.154	11312	16290	0	832
-1.406	-3.678	11232	16326	0	832
-2.308	-5.698	11156	16371	0	832
-0.144	-6.347	11064	16386	0	832
1.695	-4.904	10965	16364	0	832
2.164	-2.452	10860	16326	0	832
2.705	-0.541	10759	16300	0	832
4.255	-1.262	10679	16295	0	832
4.003	-1.479	10587	16305	0	832
2.092	-4.868	10498	16308	0	832
-0.649	-7.717	10412	16296	0	832
-1.442	-7.429	10326	16291	0	832
-0.685	-4.580	10250	16304	0	832
3.823	-0.902	10174	16323	0	832
6.311	1.190	10101	16340	0	832
5.229	0.757	10031	16355	0	832
3.642	-1.659	9958	16370	0	832
1.334	-3.462	9891	16384	0	832
2.236	-1.911	9830	16402	0	832
6.671	-0.685	9773	16420	0	832
11.973	2.272	9706	16430	0	832
12.982	2.488	9643	16433	0	832
12.405	3.318	9586	16439	0	832
11.648	5.049	9529	16449	0	832
10.819	6.383	9468	16458	0	832
12.297	8.222	9405	16454	0	832
12.081	5.445	9335	16426	0	832
8.294	2.308	9262	16383	0	832
3.534	-1.731	9192	16347	0	832
-0.829	-5.517	9119	16326	0	832
0.361	-3.750	9058	16313	0	832
3.318	-2.164	8991	16310	0	832
7.465	1.515	8934	16311	0	832
10.458	2.452	8867	16301	0	832
9.592	2.019	8801	16287	0	832
8.475	0.361	8753	16299	0	832
6.094	-1.406	8719	16345	0	832
6.816	-0.325	8690	16404	0	832
7.393	0.902	8671	16464	0	832
6.960	1.226	8652	16525	0	832
6.708	0.433	8648	16599	0	832
3.137	-1.731	8667	16703	0	832
1.262	-3.210	8709	16848	0	832
0.685	-2.777	8782	17032	0	832
2.921	-0.829	8877	17249	0	832
6.275	1.839	9010	17497	0	832
7.717	4.472	9172	17788	0	832
7.465	5.590	9392	18127	0	832
6.491	5.734	9649	18509	0	832
3.678	6.888	9939	18918	0	832
3.282	6.744	10288	19349	0	832
6.167	7.898	10660	19798	0	832
10.278	8.042	11083	20263	0	832
12.189	7.285	11550	20732	0	832
13.487	7.176	12052	21190	0	832
11.287	4.724	12576	21624	0	832
7.321	2.885	13120	22013	0	832
4.868	1.695	13677	22338	0	832
5.626	-0.036	14239	22597	0	832
6.311	-0.252	14817	22802	0	832
4.868	-0.974	15389	22954	0	832
1.659	-1.731	15965	23040	0	832
-1.190	-4.147	16530	23062	0	832
-3.137	-3.678	17108	23034	0	832
-3.318	-3.101	17674	22970	0	832
-2.741	-3.390	18237	22864	0	832
-4.364	-4.580	18790	22703	0	832
-5.770	-8.186	19311	22478	1	804
-5.878	-9.484	19820	22190	0	804
-1.118	-8.186	20293	21848	0	804
2.957	-5.373	20745	21459	0	804
3.787	-3.101	21164	21025	0	804
3.029	-1.010	21546	20553	0	804
0.397	-3.678	21904	20047	0	804
-0.252	-3.246	22228	19520	0	804
2.524	-1.370	22528	18983	0	804
4.003	-0.793	22795	18447	0	804
5.157	1.875	23039	17917	0	804
4.183	3.462	23248	17394	0	804
2.344	2.633	23433	16874	0	804
0.974	2.524	23592	16362	0	804
0.325	0.180	23710	15862	0	804
1.298	-0.757	23821	15384	0	804
1.695	-1.118	23891	14927	0	804
4.904	-0.505	23935	14488	0	804
7.537	1.695	23948	14064	0	804
9.268	3.246	23929	13646	0	804
7.537	1.803	23887	13234	0	804
3.534	-1.118	23802	12842	0	804
-0.180	-4.003	23706	12482	0	804
-3.462	-9.016	23586	12171	0	804
-3.895	-9.953	23453	11908	0	804
-1.587	-8.439	23306	11683	0	804
0.685	-5.950	23147	11504	0	804
2.993	-2.128	22985	11378	0	804
4.364	0.180	22814	11298	0	804
3.823	0.577	22633	11249	0	804
5.842	-0.036	22442	11222	0	804
7.032	0.541	22247	11229	0	804
8.511	0.902	22047	11274	0	804
9.809	1.587	21847	11349	0	804
6.996	0.469	21647	11447	0	804
4.111	-1.010	21437	11563	0	804
1.983	-3.282	21227	11698	0	804
1.911	-2.272	21027	11859	0	804
2.488	-4.580	20827	12049	0	804
2.633	-4.219	20636	12264	0	804
2.272	-3.606	20445	12491	0	804
3.967	-2.092	20255	12709	0	804
6.094	-0.577	20064	12919	0	804
8.871	2.452	19887	13150	0	804
9.520	2.416	19721	13412	0	804
9.592	2.200	19562	13686	0	804
9.989	2.200	19416	13962	0	804
9.845	2.380	19276	14229	0	804
10.638	2.416	19139	14485	0	804
10.855	2.272	19019	14744	0	804
9.268	2.236	18904	15009	0	804
7.104	3.282	18815	15276	0	804
5.337	2.344	18720	15540	0	804
3.931	0.721	18643	15789	0	804
3.137	-1.479	18571	16022	0	804
4.003	-3.390	18519	16256	0	804
7.501	-1.046	18481	16496	0	804
9.845	3.101	18453	16727	0	804
13.343	7.429	18424	16929	0	804
16.589	9.629	18395	17096	0	804
17.093	8.691	18371	17233	0	804
17.851	5.121	18351	17353	0	804
15.615	4.724	18332	17462	0	804
14.100	4.183	18329	17553	0	804
12.586	5.409	18313	17619	0	804
12.658	6.888	18300	17663	0	804
14.677	7.032	18300	17697	0	804
14.641	5.986	18290	17724	0	804
16.192	5.914	18285	17734	0	804
14.317	4.652	18271	17716	0	804
12.297	4.688	18256	17674	0	804
14.533	5.554	18243	17615	0	804
16.697	7.429	18214	17545	0	804
21.890	9.737	18180	17455	0	804
25.532	11.432	18113	17313	0	804
25.027	10.891	18033	17120	0	804
23.512	8.799	17941	16921	0	804
18.824	8.150	17846	16739	0	804
16.949	6.527	17756	16569	0	804
14.353	5.049	17661	16421	0	804
12.730	5.337	17575	16305	0	804
9.592	2.416	17490	16206	0	804
8.799	1.154	17388	16107	0	804
8.006	1.226	17293	16000	0	804
7.501	0.144	17194	15906	0	804
7.140	0.144	17099	15835	0	804
7.573	-0.072	17003	15782	0	804
6.816	-0.144	16902	15733	0	804
7.393	0.974	16807	15679	0	804
7.934	1.046	16698	15629	0	804
9.520	2.272	16603	15597	0	804
10.133	2.200	16502	15582	0	804
11.900	2.308	16406	15574	0	804
12.477	4.327	16299	15552	0	804
16.156	6.167	16165	15494	0	804
18.644	7.681	16037	15414	0	804
18.031	10.386	15904	15358	0	804
18.464	10.314	15780	15343	0	804
16.985	12.333	15650	15334	0	804
14.533	12.333	15507	15296	0	804
13.559	10.999	15341	15220	0	804
15.362	11.107	15179	15145	0	804
14.064	8.078	15021	15109	0	804
12.838	5.950	14878	15109	0	804
11.792	5.193	14741	15129	0	804
7.789	5.626	14598	15159	0	804
5.554	3.173	14455	15185	0	804
3.426	2.993	14321	15215	0	804
3.895	1.803	14197	15275	0	804
8.222	2.777	14077	15364	0	804
11.792	6.383	13972	15454	0	804
14.785	8.655	13854	15531	0	804
17.310	9.376	13743	15600	0	804
16.192	9.845	13639	15667	0	804
18.247	6.203	13530	15737	0	804
18.031	6.744	13429	15809	0	804
20.555	7.393	13330	15879	0	804
20.736	9.953	13225	15938	0	804
19.978	11.396	13129	15992	0	804
20.844	12.550	13038	16046	0	804
20.303	15.615	12942	16101	0	804
23.585	15.723	12847	16153	0	804
25.893	15.507	12757	16192	0	804
26.614	17.454	12666	16220	0	804
25.171	14.677	12571	16242	0	804
22.755	13.379	12475	16256	0	804
17.779	10.422	12380	16262	0	804
17.418	9.304	12281	16264	0	804
17.887	12.225	12170	16246	0	804
21.998	13.884	12052	16202	0	804
24.594	15.903	11941	16161	0	804
23.873	13.992	11836	16143	0	804
23.224	7.789	11728	16132	0	804
17.779	3.137	11623	16120	0	804
16.120	1.370	11512	16109	0	804
14.966	3.462	11407	16096	0	804
17.093	6.744	11308	16089	0	804
15.975	8.402	11217	16106	0	804
17.490	8.150	11140	16149	0	804
14.389	4.977	11055	16196	0	804
13.307	5.121	10984	16227	0	804
10.602	2.380	10898	16240	0	804
7.393	2.308	10807	16240	0	804
5.445	1.334	10702	16221	0	804
3.678	0.361	10606	16190	0	804
2.056	0.036	10517	16167	0	804
3.246	-0.252	10416	16159	0	804
6.347	0.938	10330	16165	0	804
8.366	3.065	10254	16182	0	804
12.153	6.058	10177	16209	0	804
15.687	9.484	10101	16238	0	804
15.975	11.432	10034	16262	0	804
16.516	13.018	9968	16282	0	804
15.362	10.710	9897	16310	0	804
13.018	8.619	9844	16350	0	804
12.802	7.321	9792	16390	0	804
11.432	5.734	9735	16421	0	804
12.586	5.626	9672	16432	0	804
13.559	5.806	9592	16412	0	804
12.766	5.914	9520	16376	0	804
13.127	6.744	9453	16359	0	804
11.720	6.599	9396	16379	0	804
10.422	6.094	9344	16406	0	804
9.448	6.275	9281	16407	0	804
9.376	4.616	9211	16384	0	804
8.078	4.400	9138	16352	0	804
7.176	3.606	9071	16330	0	804
7.140	5.734	9010	16325	0	804
5.770	5.265	8953	16334	0	804
4.796	3.823	8896	16336	0	804
3.895	4.291	8829	16318	0	804
5.481	3.246	8762	16292	0	804
5.986	2.777	8700	16278	0	804
7.825	4.544	8642	16279	0	804
8.619	4.940	8585	16289	0	804
7.393	8.583	8528	16299	0	804
7.717	10.097	8486	16312	0	804
8.439	11.540	8452	16341	0	804
11.143	14.605	8419	16390	0	804
11.720	12.586	8400	16454	0	804
9.989	9.412	8391	16524	0	804
8.619	8.979	8391	16605	0	804
6.744	7.176	8410	16711	0	804
6.635	7.357	8461	16857	0	804
8.979	10.566	8534	17046	0	804
10.999	12.405	8642	17271	0	804
12.297	14.172	8766	17513	0	804
10.963	10.061	8915	17761	0	804
9.196	9.881	9110	18044	0	804
8.150	7.681	9348	18395	0	804
8.150	8.619	9643	18808	0	804
8.835	9.268	9992	19266	0	804
10.999	12.658	10387	19756	0	804
12.514	12.117	10822	20258	0	804
10.891	11.684	11318	20770	0	804
10.855	13.127	11852	21307	0	804
11.071	12.441	12443	21855	0	804
10.061	12.333	13066	22372	0	804
10.819	13.812	13701	22831	0	804
11.540	14.858	14359	23225	0	804
11.107	12.874	15036	23560	0	804
7.753	13.271	15723	23839	0	804
5.157	11.648	16422	24056	0	804
5.373	14.136	17108	24192	0	804
8.907	16.156	17795	24242	0	804
11.684	17.490	18472	24216	0	804
13.451	18.247	19139	24122	0	804
11.720	13.415	19791	23966	0	804
8.366	12.766	20420	23748	0	804
6.419	12.117	21036	23458	1	836
5.842	10.602	21612	23099	0	836
6.347	13.163	22171	22686	0	836
5.770	11.251	22699	22234	0	836
4.364	9.412	23195	21746	0	836
3.787	9.845	23668	21223	0	836
4.832	8.150	24101	20671	0	836
5.121	7.789	24498	20091	0	836
4.400	7.068	24854	19480	0	836
5.301	10.206	25169	18848	0	836
4.832	10.638	25455	18214	0	836
6.022	12.369	25703	17584	0	836
6.311	13.235	25912	16954	0	836
8.547	12.045	26080	16322	0	836
6.455	8.439	26218	15704	0	836
5.878	8.294	26338	15133	0	836
6.239	8.763	26433	14622	0	836
7.501	9.737	26509	14157	0	836
9.268	11.468	26557	13721	0	836
11.468	14.785	26580	13313	0	836
13.127	15.471	26580	12939	0	836
11.540	17.995	26561	12601	0	836
13.415	18.572	26519	12295	0	836
13.523	19.834	26456	12023	0	836
12.117	18.428	26380	11792	0	836
14.064	18.500	26284	11604	0	836
14.064	17.526	26179	11458	0	836
12.730	19.401	26071	11356	0	836
13.740	19.077	25951	11292	0	836
11.720	20.700	25808	11251	0	836
10.999	19.077	25661	11225	0	836
9.520	17.021	25489	11205	0	836
8.042	13.271	25308	11199	0	836
8.078	12.658	25117	11224	0	836
8.078	13.163	24921	11278	0	836
8.042	11.648	24730	11357	0	836
6.203	13.451	24526	11459	0	836
5.265	11.576	24316	11575	0	836
5.481	9.196	24110	11702	0	836
6.924	10.530	23887	11841	0	836
8.799	11.179	23658	11973	0	836
10.927	12.189	23430	12098	0	836
8.691	14.713	23201	12244	0	836
5.229	13.054	22976	12424	0	836
4.760	14.317	22766	12642	0	836
4.147	13.451	22581	12900	0	836
5.373	13.451	22409	13187	0	836
4.977	15.074	22247	13484	0	836
4.219	14.136	22095	13779	0	836
3.462	13.054	21965	14087	0	836
3.787	13.704	21847	14415	0	836
3.354	13.343	21742	14745	0	836
6.203	13.884	21641	15059	0	836
5.554	14.281	21561	15356	0	836
6.383	11.973	21479	15638	0	836
6.852	12.622	21418	15912	0	836
7.321	13.091	21361	16177	0	836
8.943	12.658	21317	16432	0	836
9.520	14.497	21279	16664	0	836
9.376	11.864	21227	16844	0	836
8.186	11.468	21164	16965	0	836
6.347	10.278	21113	17061	0	836
5.085	10.602	21065	17157	0	836
5.229	8.547	21021	17245	0	836
4.255	9.304	20979	17316	0	836
4.327	8.655	20935	17365	0	836
4.904	10.061	20884	17384	0	836
6.563	13.487	20830	17373	0	836
10.097	14.497	20779	17351	0	836
12.081	13.127	20722	17325	0	836
9.773	12.550	20659	17280	0	836
7.393	10.494	20592	17206	0	836
5.914	9.773	20516	17118	0	836
5.481	12.153	20449	17039	0	836
5.626	14.641	20379	16978	0	836
6.058	14.028	20321	16927	0	836
5.914	14.389	20255	16875	0	836
3.570	11.864	20188	16813	0	836
5.662	13.451	20115	16741	0	836
7.285	13.163	20026	16645	0	836
7.717	14.100	19934	16526	0	836
7.681	13.487	19835	16417	0	836
5.554	11.792	19744	16326	0	836
4.508	10.133	19648	16247	0	836
2.885	10.314	19559	16180	0	836
3.606	10.566	19467	16127	0	836
4.868	9.484	19377	16083	0	836
4.364	11.287	19286	16040	0	836
6.383	11.900	19191	15996	0	836
7.609	12.622	19101	15955	0	836
9.196	15.254	19006	15918	0	836
9.448	14.749	18904	15881	0	836
7.429	12.874	18796	15838	0	836
6.239	13.307	18695	15793	0	836
4.580	11.612	18580	15744	0	836
3.462	10.314	18453	15678	0	836
3.678	10.530	18313	15594	0	836
3.498	10.458	18166	15511	0	836
4.219	9.268	18023	15434	0	836
6.275	11.323	17875	15362	0	836
9.701	14.028	17713	15294	0	836
11.215	15.471	17556	15234	0	836
12.838	18.608	17404	15189	0	836
11.828	17.706	17255	15170	0	836
12.622	17.490	17102	15174	0	836
12.261	15.074	16965	15191	0	836
11.720	14.245	16822	15210	0	836
11.107	13.018	16679	15233	0	836
8.619	11.648	16536	15264	0	836
6.022	11.504	16406	15300	0	836
5.734	9.484	16266	15335	0	836
5.517	9.665	16123	15361	0	836
7.681	10.999	15971	15372	0	836
10.783	12.730	15803	15355	0	836
11.215	13.740	15637	15326	0	836
12.117	15.687	15475	15318	0	836
12.838	14.028	15317	15333	0	836
12.081	15.507	15164	15356	0	836
13.487	15.579	15012	15389	0	836
15.038	17.526	14865	15431	0	836
14.136	17.634	14725	15481	0	836
15.038	16.264	14582	15529	0	836
13.668	17.093	14445	15575	0	836
12.982	16.949	14296	15618	0	836
14.966	19.329	14153	15644	0	836
13.451	18.572	14001	15654	0	836
14.064	17.959	13854	15668	0	836
13.235	15.543	13711	15692	0	836
10.819	14.858	13568	15721	0	836
10.386	14.569	13419	15745	0	836
9.088	16.048	13276	15761	0	836
8.402	14.353	13133	15782	0	836
7.393	14.353	12996	15813	0	836
7.898	12.550	12866	15844	0	836
7.501	11.504	12719	15866	0	836
8.150	13.740	12586	15887	0	836
8.511	13.451	12466	15924	0	836
8.078	13.920	12348	15979	0	836
7.789	12.261	12243	16045	0	836
6.094	9.989	12138	16113	0	836
5.409	6.203	12037	16176	0	836
4.616	4.796	11938	16235	0	836
3.065	4.472	11846	16297	0	836
5.554	3.462	11770	16366	0	836
7.573	4.724	11690	16438	0	836
7.825	5.445	11623	16508	0	836
9.484	6.455	11556	16572	0	836
10.278	8.871	11489	16624	0	836
11.864	10.133	11423	16666	0	836
12.297	11.432	11360	16701	0	836
15.254	10.602	11289	16726	0	836
14.028	11.648	11226	16740	0	836
10.927	11.179	11165	16749	0	836
9.917	10.458	11102	16752	0	836
8.078	11.864	11036	16749	0	836
5.770	9.412	10975	16743	0	836
6.131	7.429	10917	16738	0	836
5.770	5.301	10854	16735	0	836
6.419	6.563	10797	16719	0	836
7.645	6.924	10730	16683	0	836
8.222	9.953	10660	16643	0	836
8.439	9.917	10593	16607	0	836
6.094	8.871	10526	16567	0	836
4.940	3.967	10444	16511	0	836
3.606	0.721	10364	16449	0	836
4.327	-0.757	10288	16400	0	836
3.318	-2.524	10225	16373	0	836
3.895	-2.416	10158	16362	0	836
3.642	-2.128	10101	16358	0	836
4.111	-0.288	10034	16350	0	836
6.167	1.370	9973	16338	0	836
10.746	4.977	9916	16328	0	836
14.208	7.789	9859	16324	0	836
15.975	9.268	9806	16326	0	836
18.572	8.330	9758	16334	0	836
18.247	10.242	9706	16346	0	836
20.303	10.783	9653	16356	0	836
20.483	11.360	9611	16358	0	836
20.159	14.064	9554	16354	0	836
19.113	12.694	9500	16344	0	836
14.425	9.845	9449	16328	0	836
13.163	5.013	9386	16305	0	836
13.415	3.101	9315	16268	0	836
12.261	0.361	9239	16214	0	836
14.172	0.613	9163	16159	0	836
14.064	3.642	9087	16115	0	836
13.631	5.445	9005	16079	0	836
14.605	6.239	8928	16043	0	836
13.956	6.022	8848	16002	0	836
12.405	4.580	8766	15972	0	836
10.963	0.829	8696	15965	0	836
8.006	-1.190	8639	15986	0	836
6.996	-1.623	8591	16034	0	836
9.052	-0.288	8557	16109	0	836
9.737	1.046	8553	16218	0	836
9.340	1.226	8566	16378	0	836
9.016	0.325	8633	16595	0	836
8.258	0.144	8724	16868	0	836
8.294	0.649	8852	17178	0	836
9.773	1.767	9014	17520	0	836
10.855	5.373	9211	17884	0	836
13.812	7.537	9462	18280	0	836
12.946	8.907	9758	18730	0	836
14.785	8.511	10101	19227	0	836
14.533	6.671	10507	19760	0	836
12.333	3.967	10965	20326	0	836
9.556	0.252	11474	20912	0	836
6.167	-2.741	12037	21502	0	836
4.147	-4.003	12647	22090	0	836
2.560	-5.914	13291	22651	0	836
2.019	-7.068	13949	23144	0	836
3.065	-5.662	14617	23542	0	836
3.462	-5.842	15294	23852	0	836
4.688	-3.895	15980	24096	0	836
6.419	-1.875	16673	24275	0	836
7.429	-0.288	17356	24379	0	836
9.196	0.361	18033	24399	0	836
9.520	-0.685	18700	24331	0	836
9.304	-3.101	19353	24195	0	836
8.114	-3.426	19988	23994	0	836
5.301	-5.734	20598	23717	0	836
4.219	-5.445	21174	23366	1	884
2.200	-5.770	21727	22955	0	884
0.938	-6.022	22247	22498	0	884
1.406	-5.842	22753	22009	0	884
1.298	-4.616	23229	21499	0	884
0.974	-5.734	23668	20968	0	884
1.082	-6.527	24072	20397	0	884
2.272	-6.744	24425	19768	0	884
2.128	-8.222	24740	19102	0	884
2.308	-7.104	25026	18449	0	884
3.462	-5.085	25279	17824	0	884
6.167	-2.993	25508	17211	0	884
10.097	-0.469	25693	16607	0	884
13.163	1.082	25861	16026	0	884
16.516	0.361	25989	15471	0	884
15.435	-0.685	26109	14952	0	884
15.939	-2.164	26204	14487	0	884
12.694	-2.488	26284	14071	0	884
11.468	-4.364	26322	13668	0	884
7.970	-5.986	26328	13261	0	884
2.885	-7.609	26309	12869	0	884
2.272	-7.609	26265	12519	0	884
4.688	-6.635	26204	12209	0	884
7.970	-2.633	26118	11932	0	884
13.271	0.649	26014	11686	0	884
16.012	1.803	25890	11480	0	884
14.317	1.515	25760	11313	0	884
13.415	-0.144	25613	11186	0	884
11.612	-0.974	25455	11099	0	884
9.232	-1.911	25289	11040	0	884
8.583	-2.344	25102	11004	0	884
8.330	-1.551	24902	10986	0	884
8.691	-2.236	24692	10983	0	884
9.773	-3.823	24478	11006	0	884
11.540	-4.327	24259	11071	0	884
11.828	-3.173	24044	11169	0	884
10.638	-2.921	23824	11294	0	884
11.360	-1.767	23605	11447	0	884
12.081	-0.902	23395	11632	0	884
13.487	0.288	23191	11845	0	884
16.048	-0.397	22995	12081	0	884
14.136	-1.190	22810	12337	0	884
13.415	-0.649	22623	12599	0	884
9.809	-0.144	22442	12857	0	884
8.294	-2.560	22266	13117	0	884
5.914	-3.750	22095	13385	0	884
4.039	-8.763	21937	13661	0	884
1.839	-13.884	21784	13936	0	884
0.180	-15.435	21631	14196	0	884
-0.325	-15.939	21485	14441	0	884
0.793	-11.900	21342	14682	0	884
1.154	-11.396	21212	14924	0	884
1.442	-12.189	21094	15167	0	884
-0.721	-13.451	20993	15409	0	884
-0.938	-15.002	20884	15640	0	884
-0.541	-13.271	20798	15863	0	884
2.452	-9.268	20716	16083	0	884
7.104	-5.590	20649	16297	0	884
9.016	-4.327	20583	16489	0	884
8.871	-3.823	20516	16657	0	884
7.573	-5.734	20464	16808	0	884
5.590	-6.203	20420	16953	0	884
5.409	-3.931	20382	17096	0	884
6.780	-2.633	20344	17225	0	884
6.996	-1.190	20312	17327	0	884
8.042	-1.010	20283	17402	0	884
7.862	-2.056	20245	17456	0	884
8.078	-2.236	20216	17495	0	884
9.196	-2.524	20182	17515	0	884
11.937	0.541	20144	17510	0	884
15.002	3.606	20102	17483	0	884
15.074	5.373	20054	17441	0	884
14.172	4.436	20007	17379	0	884
10.278	1.406	19949	17300	0	884
4.904	-2.921	19883	17215	0	884
2.596	-4.940	19826	17130	0	884
1.442	-6.888	19763	17041	0	884
-0.829	-8.222	19692	16947	0	884
-2.849	-10.674	19620	16845	0	884
-5.193	-12.802	19539	16738	0	884
-5.842	-15.146	19454	16632	0	884
-4.364	-12.658	19377	16534	0	884
0.974	-11.035	19282	16436	0	884
4.832	-7.898	19191	16332	0	884
8.078	-5.121	19095	16232	0	884
8.439	-2.344	19000	16147	0	884
9.124	-2.272	18904	16067	0	884
8.763	-1.262	18796	15984	0	884
9.232	-0.397	18685	15894	0	884
11.504	-0.180	18571	15807	0	884
12.153	0.252	18453	15732	0	884
11.540	0.216	18348	15676	0	884
12.153	-1.118	18224	15628	0	884
12.550	-0.180	18100	15572	0	884
11.035	1.659	17970	15510	0	884
12.802	3.931	17837	15454	0	884
14.821	5.698	17703	15405	0	884
14.497	5.157	17570	15364	0	884
16.084	4.940	17427	15326	0	884
14.461	4.219	17274	15278	0	884
14.317	4.327	17118	15215	0	884
10.494	3.931	16946	15148	0	884
8.655	3.895	16774	15088	0	884
5.554	1.226	16612	15043	0	884
4.796	-1.695	16435	15017	0	884
3.895	-2.741	16276	15000	0	884
4.400	-2.777	16085	14976	0	884
5.157	-5.049	15913	14953	0	884
3.859	-4.868	15746	14962	0	884
3.282	-5.157	15593	15008	0	884
3.137	-5.481	15437	15066	0	884
5.481	-4.400	15284	15119	0	884
7.537	-2.092	15126	15165	0	884
8.871	-0.793	14970	15212	0	884
8.511	-1.442	14821	15263	0	884
6.671	-1.442	14664	15310	0	884
6.852	0.974	14502	15347	0	884
6.996	2.849	14350	15380	0	884
8.799	4.111	14192	15419	0	884
10.819	3.967	14039	15469	0	884
10.566	2.164	13905	15535	0	884
11.071	1.190	13768	15610	0	884
11.179	0.325	13635	15679	0	884
11.828	2.957	13501	15738	0	884
14.713	7.537	13368	15791	0	884
14.208	8.619	13234	15842	0	884
16.156	11.396	13110	15897	0	884
15.615	10.710	12986	15948	0	884
13.307	8.799	12857	15993	0	884
10.783	6.311	12733	16032	0	884
6.491	2.741	12599	16057	0	884
3.354	0.577	12471	16067	0	884
0.433	-1.875	12348	16075	0	884
-2.344	-3.318	12214	16087	0	884
-3.210	-4.580	12090	16101	0	884
-4.219	-5.481	11960	16109	0	884
-4.616	-6.563	11833	16109	0	884
-2.957	-7.898	11709	16119	0	884
-0.793	-7.176	11598	16147	0	884
1.983	-6.311	11493	16188	0	884
4.436	-3.895	11388	16230	0	884
2.596	-5.409	11293	16267	0	884
0.974	-6.924	11194	16308	0	884
-2.669	-9.773	11112	16359	0	884
-4.616	-9.917	11036	16414	0	884
-3.137	-10.025	10959	16468	0	884
-0.829	-5.878	10889	16515	0	884
3.065	-2.813	10812	16553	0	884
5.445	-0.865	10746	16587	0	884
5.698	0.938	10679	16621	0	884
7.032	0.649	10616	16652	0	884
4.868	-0.541	10555	16669	0	884
3.967	-1.370	10483	16673	0	884
0.613	-3.606	10421	16676	0	884
-2.633	-3.931	10359	16681	0	884
-5.265	-7.176	10292	16682	0	884
-8.907	-8.907	10235	16677	0	884
-11.937	-14.533	10177	16671	0	884
-13.271	-15.290	10107	16658	0	884
-17.093	-19.221	10040	16627	0	884
-16.228	-19.690	9968	16577	0	884
-15.579	-19.906	9897	16528	0	884
-13.271	-16.733	9811	16484	0	884
-7.825	-15.615	9739	16438	0	884
-5.590	-11.900	9663	16393	0	884
-3.390	-11.576	9582	16357	0	884
-0.938	-9.340	9516	16332	0	884
-0.577	-8.655	9453	16322	0	884
0.541	-7.285	9392	16327	0	884
1.370	-8.619	9338	16338	0	884
-0.288	-9.448	9281	16347	0	884
-2.777	-11.576	9233	16360	0	884
-4.652	-12.081	9192	16380	0	884
-5.986	-12.550	9144	16397	0	884
-4.652	-12.081	9096	16409	0	884
-5.626	-10.819	9052	16413	0	884
-5.481	-11.287	9001	16411	0	884
-6.816	-8.222	8957	16411	0	884
-7.934	-4.904	8909	16416	0	884
-8.943	-4.147	8867	16423	0	884
-9.088	-2.488	8823	16422	0	884
-10.386	-4.868	8782	16416	0	884
-10.314	-5.950	8734	16407	0	884
-10.386	-9.304	8686	16398	0	884
-9.484	-9.592	8642	16395	0	884
-10.386	-7.285	8614	16402	0	884
-11.937	-8.078	8572	16414	0	884
-11.287	-7.573	8524	16412	0	884
-11.323	-7.970	8476	16380	0	884
-9.917	-7.501	8419	16330	0	884
-5.842	-5.373	8356	16286	0	884
-4.868	-4.652	8299	16260	0	884
-3.787	-2.993	8257	16252	0	884
-3.462	-3.534	8213	16250	0	884
-2.272	-2.885	8166	16252	0	884
-1.551	-1.551	8133	16272	0	884
-0.433	0.036	8118	16326	0	884
1.082	1.118	8118	16411	0	884
2.272	2.885	8143	16520	0	884
3.101	3.029	8175	16653	0	884
2.344	2.885	8238	16819	0	884
1.839	0.974	8333	17029	0	884
2.344	0.036	8457	17278	0	884
2.524	1.154	8623	17569	0	884
5.085	3.678	8833	17911	0	884
7.032	5.986	9087	18303	0	884
7.285	7.357	9392	18740	0	884
6.888	6.671	9745	19219	0	884
7.609	7.501	10155	19729	0	884
9.773	8.943	10593	20248	0	884
12.225	9.448	11083	20761	0	884
11.792	11.468	11608	21263	0	884
11.215	9.088	12170	21747	0	884
8.547	6.744	12748	22198	0	884
5.878	3.606	13368	22604	0	884
6.744	3.210	13987	22958	0	884
6.635	4.147	14630	23249	0	884
10.891	8.294	15259	23464	0	884
12.874	13.668	15908	23609	0	884
15.795	15.795	16559	23713	0	884
20.375	18.860	17223	23781	0	884
22.214	21.204	17865	23780	0	884
23.909	23.945	18504	23692	0	884
24.702	26.325	19114	23518	0	884
23.585	26.470	19702	23270	0	884
21.024	23.837	20264	22960	1	900
20.772	21.818	20798	22597	0	900
20.555	19.654	21307	22180	0	900
20.700	18.031	21780	21707	0	900
19.978	18.608	22209	21181	0	900
17.021	15.867	22604	20615	0	900
12.658	15.543	22976	20037	0	900
12.658	13.451	23315	19456	0	900
10.638	12.622	23620	18863	0	900
13.559	14.100	23891	18259	0	900
15.146	13.704	24126	17650	0	900
13.127	11.756	24311	17033	0	900
13.054	12.081	24469	16418	0	900
11.432	10.422	24597	15825	0	900
8.511	8.150	24688	15250	0	900
5.842	6.527	24745	14692	0	900
2.092	3.282	24784	14175	0	900
-0.108	0.397	24803	13714	0	900
1.334	-0.397	24797	13296	0	900
6.708	0.577	24765	12912	0	900
10.674	4.111	24717	12553	0	900
12.982	6.383	24635	12217	0	900
13.307	6.888	24536	11922	0	900
10.602	8.366	24416	11670	0	900
10.278	10.855	24288	11460	0	900
13.091	11.612	24145	11294	0	900
13.271	12.946	23986	11162	0	900
15.362	14.533	23811	11053	0	900
15.326	12.586	23630	10978	0	900
11.864	9.448	23433	10941	0	900
10.927	8.907	23224	10924	0	900
8.402	4.291	23001	10922	0	900
6.094	1.695	22772	10944	0	900
4.940	0.000	22547	11005	0	900
3.606	-0.288	22318	11108	0	900
4.364	2.849	22099	11256	0	900
5.229	4.977	21889	11443	0	900
6.708	4.904	21679	11649	0	900
4.255	2.596	21469	11871	0	900
2.380	0.685	21275	12110	0	900
-0.902	-1.839	21084	12368	0	900
-2.705	-2.560	20897	12642	0	900
-1.406	-0.649	20722	12922	0	900
1.803	-0.144	20554	13206	0	900
4.796	0.397	20398	13501	0	900
6.491	1.046	20249	13801	0	900
8.439	1.731	20115	14109	0	900
9.232	1.262	20011	14441	0	900
9.737	4.616	19921	14790	0	900
11.143	6.780	19826	15116	0	900
13.740	9.412	19734	15396	0	900
13.776	11.035	19648	15644	0	900
14.894	11.143	19572	15885	0	900
15.867	13.740	19511	16125	0	900
16.012	13.595	19454	16359	0	900
16.336	13.992	19406	16581	0	900
12.441	9.412	19377	16786	0	900
6.491	3.210	19343	16977	0	900
2.308	0.361	19330	17154	0	900
-2.596	-2.344	19311	17306	0	900
-3.714	-2.272	19292	17425	0	900
-2.128	-1.226	19273	17510	0	900
-2.308	-1.370	19248	17572	0	900
-1.479	-1.154	19229	17617	0	900
-0.397	-1.010	19215	17652	0	900
0.974	-2.056	19196	17668	0	900
0.288	-4.111	19168	17657	0	900
-1.551	-6.347	19143	17625	0	900
-3.029	-5.986	19114	17579	0	900
-2.885	-5.481	19086	17524	0	900
0.902	-0.865	19053	17461	0	900
5.698	0.793	19009	17381	0	900
8.150	1.587	18962	17285	0	900
7.934	-1.370	18910	17177	0	900
6.239	-3.895	18847	17058	0	900
3.282	-5.914	18771	16920	0	900
3.426	-4.291	18691	16771	0	900
5.517	-0.938	18609	16628	0	900
4.436	1.947	18519	16494	0	900
5.013	2.669	18418	16359	0	900
3.859	1.659	18319	16219	0	900
3.354	0.144	18208	16092	0	900
3.137	-2.128	18109	15984	0	900
4.508	-4.003	18008	15892	0	900
2.741	-6.239	17900	15807	0	900
1.875	-7.934	17789	15723	0	900
-0.865	-7.429	17674	15651	0	900
-2.272	-8.258	17570	15598	0	900
-3.354	-7.537	17461	15559	0	900
-3.318	-8.835	17350	15525	0	900
-3.534	-8.439	17236	15491	0	900
-4.544	-10.566	17118	15457	0	900
-4.364	-9.773	16998	15432	0	900
-4.688	-9.232	16893	15423	0	900
-4.832	-10.855	16778	15423	0	900
-4.580	-10.242	16654	15421	0	900
-5.409	-9.088	16540	15415	0	900
-4.616	-8.583	16425	15417	0	900
-4.111	-9.376	16304	15429	0	900
-3.714	-8.619	16194	15447	0	900
-2.957	-9.088	16070	15458	0	900
-3.210	-8.763	15942	15451	0	900
-2.849	-7.465	15799	15423	0	900
-2.741	-5.662	15650	15389	0	900
-0.974	-4.580	15513	15363	0	900
0.938	-3.931	15364	15351	0	900
2.560	-1.767	15227	15352	0	900
4.183	0.721	15084	15361	0	900
4.111	2.164	14941	15368	0	900
3.101	1.515	14792	15368	0	900
0.180	-0.361	14649	15374	0	900
-2.128	-1.947	14521	15401	0	900
-3.065	-3.714	14388	15451	0	900
-3.426	-4.580	14264	15505	0	900
-3.787	-4.219	14134	15549	0	900
-3.462	-5.554	14010	15588	0	900
-3.246	-5.878	13877	15630	0	900
-3.462	-5.950	13759	15675	0	900
-2.669	-5.698	13635	15718	0	900
-1.515	-4.652	13515	15757	0	900
-1.118	-2.921	13391	15794	0	900
0.072	-1.767	13282	15837	0	900
1.731	1.010	13171	15890	0	900
3.787	2.200	13063	15946	0	900
6.527	3.210	12952	15993	0	900
8.114	4.327	12847	16028	0	900
7.248	5.554	12733	16053	0	900
10.061	8.691	12624	16071	0	900
9.520	11.684	12513	16090	0	900
10.494	14.425	12409	16106	0	900
12.045	14.389	12290	16117	0	900
11.360	14.569	12185	16127	0	900
10.169	11.576	12071	16128	0	900
11.648	10.386	11960	16124	0	900
14.389	13.415	11871	16149	0	900
15.290	14.136	11785	16207	0	900
18.356	16.048	11699	16258	0	900
16.841	19.582	11604	16278	0	900
16.661	18.175	11512	16282	0	900
15.687	20.591	11423	16294	0	900
17.634	19.654	11337	16319	0	900
18.320	19.978	11261	16350	0	900
20.050	19.654	11184	16380	0	900
18.644	16.444	11112	16400	0	900
19.365	18.644	11036	16420	0	900
18.283	17.887	10969	16442	0	900
19.762	20.159	10898	16459	0	900
19.618	20.808	10822	16465	0	900
20.519	22.214	10746	16460	0	900
19.618	18.860	10673	16452	0	900
18.969	17.887	10606	16448	0	900
21.601	16.264	10536	16456	0	900
20.952	17.779	10473	16470	0	900
24.017	17.923	10416	16482	0	900
24.594	19.906	10359	16494	0	900
22.503	17.995	10311	16504	0	900
21.168	16.552	10250	16512	0	900
17.670	12.946	10196	16519	0	900
15.615	12.946	10145	16522	0	900
9.304	11.504	10088	16517	0	900
6.960	9.592	10025	16503	0	900
3.390	8.727	9968	16481	0	900
3.787	7.104	9907	16455	0	900
8.222	7.573	9840	16425	0	900
14.821	9.629	9773	16392	0	900
23.476	17.093	9706	16360	0	900
26.722	19.546	9630	16319	0	900
27.768	22.358	9558	16271	0	900
24.775	18.933	9481	16230	0	900
20.952	16.012	9411	16203	0	900
19.834	12.261	9338	16187	0	900
22.395	14.136	9272	16169	0	900
22.358	13.848	9201	16149	0	900
19.870	15.687	9129	16135	0	900
16.012	12.982	9071	16133	0	900
12.622	9.665	9010	16143	0	900
12.153	10.530	8953	16153	0	900
14.605	8.835	8890	16159	0	900
13.127	8.294	8833	16169	0	900
11.540	6.708	8791	16194	0	900
7.645	5.085	8753	16242	0	900
3.714	3.101	8724	16310	0	900
4.436	4.183	8705	16382	0	900
7.104	5.626	8686	16440	0	900
8.475	6.852	8667	16488	0	900
9.737	5.878	8661	16553	0	900
6.058	4.111	8677	16652	0	900
4.183	1.911	8709	16780	0	900
3.534	2.019	8762	16929	0	900
6.599	2.452	8839	17104	0	900
12.045	5.337	8947	17318	0	900
15.002	6.167	9087	17577	0	900
14.245	7.140	9281	17889	0	900
13.163	6.491	9525	18260	0	900
11.612	6.708	9806	18681	0	900
11.323	9.160	10145	19139	0	900
14.353	10.927	10526	19621	0	900
15.507	12.153	10950	20119	0	900
18.356	14.894	11423	20627	0	900
17.598	14.064	11922	21125	0	900
17.634	12.189	12456	21589	0	900
15.218	13.776	13015	22002	0	900
16.084	12.946	13572	22353	0	900
15.759	14.749	14130	22621	0	900
16.156	14.497	14687	22802	0	900
15.543	11.432	15259	22923	0	900
12.333	8.655	15828	23003	0	900
10.783	5.734	16397	23040	0	900
7.068	4.652	16969	23033	0	900
6.203	3.859	17541	22981	0	900
4.904	2.741	18094	22872	0	900
2.560	-0.649	18634	22695	0	900
2.488	-3.787	19149	22452	1	848
2.128	-5.373	19644	22156	0	848
4.075	-5.229	20121	21818	0	848
7.212	-2.272	20564	21435	0	848
8.835	1.551	20979	21006	0	848
10.674	3.498	21364	20536	0	848
9.592	3.931	21713	20031	0	848
7.321	2.560	22022	19486	0	848
5.121	1.190	22289	18909	0	848
3.750	2.056	22533	18319	0	848
4.219	2.056	22734	17731	0	848
4.147	2.488	22905	17152	0	848
5.842	1.587	23052	16588	0	848
6.924	0.252	23166	16040	0	848
9.556	1.803	23252	15511	0	848
9.737	3.606	23325	15015	0	848
12.910	8.402	23367	14559	0	848
12.838	10.169	23386	14137	0	848
10.638	8.907	23386	13742	0	848
8.763	7.789	23363	13375	0	848
10.242	8.475	23325	13044	0	848
10.350	9.016	23262	12748	0	848
12.297	11.576	23186	12483	0	848
15.362	10.530	23081	12241	0	848
13.054	9.773	22957	12020	0	848
11.864	7.321	22819	11821	0	848
10.530	5.806	22648	11634	0	848
7.393	5.734	22461	11461	0	848
6.455	1.046	22247	11312	0	848
3.714	0.036	22022	11181	0	848
2.380	-0.829	21780	11072	0	848
3.246	-0.216	21536	11016	0	848
4.147	0.613	21298	11021	0	848
4.544	1.262	21056	11069	0	848
5.013	1.515	20817	11147	0	848
6.671	3.823	20573	11257	0	848
7.140	5.698	20335	11392	0	848
9.917	8.150	20087	11541	0	848
10.710	7.862	19848	11708	0	848
8.871	6.058	19620	11910	0	848
6.383	7.285	19400	12151	0	848
6.563	6.527	19191	12414	0	848
7.140	7.609	18990	12688	0	848
9.989	9.160	18805	12978	0	848
9.773	8.402	18638	13288	0	848
9.845	9.340	18475	13616	0	848
7.934	9.809	18332	13950	0	848
7.753	10.061	18205	14278	0	848
9.088	10.746	18084	14603	0	848
8.330	11.612	17980	14934	0	848
7.465	9.160	17900	15275	0	848
6.022	6.671	17833	15612	0	848
3.606	6.455	17770	15926	0	848
4.580	5.085	17713	16212	0	848
5.265	5.193	17674	16477	0	848
3.642	6.275	17646	16733	0	848
3.282	5.301	17613	16972	0	848
2.452	4.472	17598	17182	0	848
2.524	3.137	17589	17367	0	848
4.003	5.662	17579	17533	0	848
8.006	6.563	17585	17681	0	848
7.970	7.717	17579	17796	0	848
8.186	9.160	17560	17852	0	848
9.160	7.393	17541	17858	0	848
10.855	9.304	17522	17849	0	848
11.107	9.448	17490	17832	0	848
15.939	10.061	17465	17798	0	848
16.733	10.169	17446	17760	0	848
17.238	9.737	17432	17731	0	848
15.831	7.609	17432	17710	0	848
11.684	6.852	17427	17689	0	848
9.665	8.439	17417	17651	0	848
9.412	10.819	17408	17599	0	848
9.701	12.550	17398	17538	0	848
12.045	13.956	17388	17468	0	848
11.973	13.920	17366	17381	0	848
9.304	10.963	17331	17279	0	848
7.357	6.996	17303	17172	0	848
6.275	6.094	17280	17072	0	848
4.688	4.904	17245	16983	0	848
5.409	4.544	17217	16895	0	848
5.517	5.373	17169	16794	0	848
7.934	7.573	17127	16681	0	848
8.835	9.845	17070	16569	0	848
10.133	11.287	17017	16468	0	848
10.530	11.792	16959	16373	0	848
9.629	9.881	16898	16273	0	848
10.314	10.422	16822	16165	0	848
10.855	8.655	16746	16053	0	848
10.386	11.251	16654	15944	0	848
12.045	11.612	16568	15841	0	848
12.369	12.730	16473	15745	0	848
10.169	12.477	16381	15658	0	848
11.035	12.658	16276	15578	0	848
11.576	15.759	16161	15491	0	848
10.819	17.526	16047	15403	0	848
12.441	21.204	15942	15345	0	848
13.054	21.096	15837	15322	0	848
11.937	19.654	15727	15312	0	848
8.583	17.779	15618	15294	0	848
9.376	14.641	15507	15266	0	848
9.592	13.018	15389	15242	0	848
8.979	13.343	15265	15231	0	848
9.052	10.566	15151	15231	0	848
6.671	6.419	15031	15232	0	848
2.596	4.544	14907	15227	0	848
-0.721	2.416	14769	15209	0	848
-0.793	0.649	14636	15189	0	848
0.469	2.200	14502	15188	0	848
2.380	4.436	14378	15210	0	848
7.393	6.203	14245	15236	0	848
10.025	7.609	14111	15257	0	848
11.504	8.439	13987	15283	0	848
11.684	8.511	13867	15320	0	848
9.665	7.825	13749	15373	0	848
10.458	8.691	13629	15431	0	848
11.756	10.169	13501	15469	0	848
12.153	11.540	13368	15481	0	848
13.415	11.540	13234	15489	0	848
13.199	10.602	13101	15507	0	848
10.242	12.550	12971	15533	0	848
11.360	14.028	12847	15564	0	848
13.343	14.641	12714	15597	0	848
13.523	18.644	12590	15625	0	848
16.156	17.274	12466	15652	0	848
14.136	18.320	12348	15695	0	848
14.245	17.310	12246	15765	0	848
13.631	17.598	12147	15847	0	848
11.540	15.398	12046	15919	0	848
11.143	14.245	11947	15974	0	848
9.665	11.828	11846	16025	0	848
6.924	11.612	11760	16081	0	848
5.013	9.376	11665	16140	0	848
2.128	7.645	11585	16196	0	848
-0.433	5.337	11499	16246	0	848
-3.426	1.587	11413	16289	0	848
-2.705	0.216	11337	16330	0	848
0.288	0.793	11261	16374	0	848
3.678	4.616	11188	16414	0	848
6.599	7.104	11112	16446	0	848
6.347	9.484	11036	16468	0	848
4.364	7.934	10965	16484	0	848
1.551	5.301	10898	16496	0	848
0.829	3.282	10822	16502	0	848
2.705	4.039	10740	16499	0	848
6.131	6.383	10669	16492	0	848
7.825	7.934	10587	16483	0	848
9.484	9.304	10511	16465	0	848
9.304	8.222	10441	16446	0	848
9.016	10.133	10378	16456	0	848
9.124	10.819	10330	16493	0	848
11.323	11.468	10273	16521	0	848
11.215	14.064	10216	16530	0	848
9.773	13.559	10168	16536	0	848
8.943	9.773	10116	16551	0	848
6.960	7.393	10073	16567	0	848
4.472	3.173	10021	16575	0	848
3.967	0.685	9968	16569	0	848
4.760	2.524	9910	16548	0	848
5.950	6.239	9853	16519	0	848
7.321	8.943	9796	16491	0	848
9.556	7.501	9735	16465	0	848
8.691	6.671	9668	16435	0	848
5.193	4.616	9605	16394	0	848
5.770	3.065	9529	16349	0	848
4.111	5.517	9468	16307	0	848
8.583	6.671	9405	16284	0	848
9.773	6.924	9348	16278	0	848
9.737	7.140	9296	16276	0	848
8.078	6.960	9239	16273	0	848
6.996	6.744	9192	16274	0	848
6.960	7.825	9134	16278	0	848
8.691	8.006	9087	16288	0	848
8.907	9.232	9062	16320	0	848
8.799	8.150	9039	16384	0	848
6.563	8.294	9039	16465	0	848
5.554	6.094	9043	16555	0	848
6.167	7.934	9062	16665	0	848
4.977	7.429	9125	16822	0	848
2.633	7.140	9205	17033	0	848
1.515	7.681	9329	17289	0	848
1.082	5.842	9491	17591	0	848
2.741	6.347	9697	17941	0	848
5.013	6.599	9949	18339	0	848
5.950	8.294	10250	18780	0	848
5.445	9.124	10606	19262	0	848
3.787	7.934	11003	19766	0	848
3.029	7.393	11446	20275	0	848
4.147	5.301	11922	20782	0	848
4.688	3.714	12433	21265	0	848
4.977	3.137	12971	21713	0	848
4.652	3.246	13543	22139	0	848
4.364	3.642	14144	22544	0	848
5.517	4.616	14764	22908	0	848
7.645	5.265	15408	23226	0	848
9.809	7.501	16066	23492	0	848
13.235	10.891	16731	23698	0	848
12.694	12.333	17394	23834	0	848
10.458	14.966	18052	23894	0	848
7.032	13.018	18695	23872	0	848
4.544	10.242	19334	23771	0	848
4.724	8.655	19944	23599	0	848
6.419	5.590	20535	23359	0	848
6.527	3.750	21097	23052	1	812
5.517	2.056	21631	22681	0	812
2.416	0.397	22133	22237	0	812
1.947	-0.469	22591	21734	0	812
2.092	0.613	23039	21216	0	812
3.534	2.236	23458	20696	0	812
4.472	3.498	23834	20147	0	812
4.364	3.390	24173	19553	0	812
5.662	1.551	24469	18931	0	812
5.734	1.623	24740	18303	0	812
2.993	-1.082	24969	17688	0	812
2.056	-1.118	25174	17092	0	812
-1.046	-4.075	25356	16510	0	812
-2.488	-3.065	25489	15942	0	812
-0.288	-3.101	25604	15391	0	812
-0.252	-1.947	25693	14875	0	812
5.049	1.154	25760	14404	0	812
7.862	2.344	25804	13971	0	812
11.035	4.039	25823	13564	0	812
10.278	4.183	25813	13179	0	812
10.133	5.013	25789	12828	0	812
6.563	2.092	25747	12521	0	812
4.616	-0.433	25674	12248	0	812
3.282	-2.380	25584	11995	0	812
4.688	0.180	25470	11767	0	812
7.357	5.301	25337	11565	0	812
12.081	10.422	25188	11388	0	812
15.326	12.009	25022	11240	0	812
12.369	8.655	24845	11128	0	812
8.258	2.669	24650	11054	0	812
3.210	-3.967	24444	11008	0	812
1.875	-5.806	24225	10975	0	812
2.524	-6.131	24002	10966	0	812
4.616	-3.895	23782	11016	0	812
3.210	-2.596	23573	11125	0	812
1.731	-3.137	23353	11259	0	812
0.757	-4.904	23128	11395	0	812
-1.190	-7.501	22900	11539	0	812
0.433	-7.357	22676	11710	0	812
2.669	-8.583	22470	11918	0	812
3.498	-7.609	22261	12157	0	812
4.075	-6.671	22070	12411	0	812
2.596	-7.429	21879	12671	0	812
2.092	-5.229	21694	12933	0	812
2.957	-4.688	21513	13202	0	812
4.291	-2.236	21351	13486	0	812
4.832	-2.596	21193	13783	0	812
5.914	-1.370	21050	14083	0	812
6.383	-1.154	20922	14383	0	812
5.554	-0.036	20811	14690	0	812
7.357	-1.154	20707	15004	0	812
6.996	-1.839	20621	15318	0	812
4.688	-4.003	20541	15606	0	812
3.967	-6.491	20455	15849	0	812
1.695	-6.996	20373	16062	0	812
0.252	-9.196	20306	16278	0	812
-0.216	-8.799	20255	16502	0	812
0.721	-7.321	20211	16714	0	812
2.019	-7.681	20173	16905	0	812
2.416	-5.698	20144	17078	0	812
2.596	-7.285	20115	17229	0	812
2.236	-9.629	20087	17355	0	812
3.029	-10.530	20068	17460	0	812
4.219	-9.088	20054	17551	0	812
4.760	-8.475	20039	17629	0	812
4.940	-8.330	20026	17683	0	812
2.633	-9.556	20007	17703	0	812
1.479	-10.783	19978	17694	0	812
0.144	-13.054	19949	17658	0	812
0.902	-12.081	19911	17599	0	812
0.793	-10.422	19877	17532	0	812
2.272	-12.153	19826	17459	0	812
3.354	-11.360	19787	17379	0	812
2.308	-10.097	19744	17303	0	812
2.596	-12.658	19711	17238	0	812
2.344	-12.477	19673	17176	0	812
2.092	-10.710	19635	17098	0	812
4.183	-10.061	19578	16999	0	812
6.311	-7.357	19520	16896	0	812
9.701	-3.750	19463	16802	0	812
12.189	-2.705	19416	16718	0	812
13.776	-2.308	19349	16629	0	812
11.179	-2.019	19286	16530	0	812
8.186	-7.104	19210	16429	0	812
