neuroNicle FX2
D3F25R12
Bluetooth SPP
2023년 6월 5일 월요일
오전 10:29
time interval = 4msec
EEG1	EEG2	PPG	sdPPG	pulse	peak_interval(msec)
-2.416	-1.442	16085	18884	0	316
-4.508	-2.308	16085	19278	0	316
-7.465	-3.787	16085	19541	0	316
-10.999	-7.176	16085	19673	0	316
-10.494	-7.645	16085	19673	0	316
-9.592	-7.248	16085	19673	0	316
-4.075	-5.554	16085	19410	0	316
0.685	-2.416	16085	19278	0	316
5.662	1.839	16085	19541	0	316
8.294	5.049	16171	19936	0	316
8.835	6.527	16171	20199	0	316
10.927	7.789	16171	20462	0	316
12.838	7.248	16299	20726	0	316
15.687	5.842	16299	20726	0	316
17.959	5.265	16299	20594	0	316
15.651	4.255	16299	20594	0	316
9.304	2.741	16384	20857	0	316
3.967	1.479	16384	21120	0	316
1.334	3.462	16384	20857	0	316
4.327	6.635	16469	20594	0	316
10.530	10.097	16469	20199	0	316
14.966	12.514	16469	19936	0	316
15.795	12.225	16469	19278	0	316
10.891	9.016	16469	18620	0	316
7.321	8.619	16469	17831	0	316
6.527	9.268	16469	17041	0	316
11.215	11.973	16469	16384	0	316
16.697	12.117	16469	15858	0	316
18.175	10.386	16469	15463	0	316
14.641	6.419	16469	14937	0	316
5.770	1.659	16384	14148	0	316
-1.731	0.397	16384	13358	0	316
-6.491	0.685	16384	12963	0	316
-6.239	2.092	16299	12700	0	316
-1.046	2.452	16299	12437	0	316
6.022	0.613	16299	12174	0	316
11.792	0.325	16299	12174	0	316
12.514	1.442	16171	12042	0	316
8.763	4.436	16171	11911	0	316
0.397	8.186	16171	11911	0	316
-4.544	7.285	16085	11911	0	316
-2.885	3.859	16085	12174	0	316
1.334	-1.947	16085	12437	0	316
9.124	-3.173	16085	12700	0	316
9.881	-2.272	16085	13095	0	316
5.229	1.046	16085	13227	0	316
-3.534	3.065	16085	13490	0	316
-6.924	4.760	16171	13753	0	316
-2.777	5.193	16085	14016	0	316
9.592	6.852	16085	14279	0	316
23.044	10.494	15957	14674	0	316
29.066	11.360	15957	15200	0	316
25.965	12.333	16085	15990	0	316
15.939	12.189	16085	16515	0	316
7.609	10.494	16085	17436	0	316
3.967	10.602	16085	18489	0	316
9.088	11.287	16171	19278	0	316
16.480	11.648	16171	19805	0	316
23.368	13.595	16171	20199	0	316
27.263	15.831	16299	20462	0	316
23.549	16.444	16299	20594	0	316
18.464	15.435	16299	20331	0	316
12.658	13.631	16299	20068	0	316
7.717	11.360	16299	19673	0	316
7.248	10.061	16299	18884	0	316
7.753	9.160	16171	18094	1	612
7.645	8.691	16171	17436	0	612
7.898	7.429	16171	17041	0	612
5.049	6.203	16171	16515	0	612
4.832	5.554	16171	15990	0	612
4.291	5.914	16171	15858	0	612
6.311	7.393	16299	15990	0	612
8.222	6.635	16299	15990	0	612
7.862	6.167	16171	15858	0	612
4.219	6.239	16171	15727	0	612
1.587	5.950	16171	15990	0	612
-0.974	5.373	16299	16384	0	612
1.154	7.104	16299	16778	0	612
7.789	8.511	16299	16910	0	612
15.615	11.576	16299	16910	0	612
23.296	14.966	16299	17041	0	612
29.174	18.788	16299	17436	0	612
30.292	19.978	16384	18094	0	612
28.777	18.320	16384	18620	0	612
25.568	17.490	16384	18752	0	612
20.664	17.057	16384	18489	0	612
16.480	16.589	16384	18226	0	612
12.658	16.012	16384	17962	0	612
10.133	14.028	16384	17699	0	612
8.294	10.999	16384	17436	0	612
9.989	8.366	16384	17173	0	612
11.251	6.058	16384	16778	0	612
12.622	3.534	16384	16647	0	612
11.323	2.236	16384	16384	0	612
5.554	-0.974	16384	15990	0	612
1.154	-2.056	16384	15727	0	612
-4.255	-1.767	16384	15727	0	612
-5.770	-1.046	16384	15727	0	612
-5.481	0.180	16384	15727	0	612
-3.354	0.252	16384	15463	0	612
-4.003	-1.515	16384	15332	0	612
-2.993	-3.462	16384	15200	0	612
-3.570	-6.275	16384	15200	0	612
-3.823	-6.419	16384	15200	0	612
-4.327	-6.455	16384	15200	0	612
-7.537	-4.364	16384	15200	0	612
-8.619	-3.390	16384	15332	0	612
-10.422	-3.318	16384	15332	0	612
-8.799	-4.904	16384	15332	0	612
-5.590	-5.878	16384	15200	0	612
-0.829	-6.383	16384	15332	0	612
1.875	-6.311	16384	15858	0	612
3.534	-3.426	16384	16647	0	612
2.705	-2.452	16469	17568	0	612
1.551	-1.515	16469	18620	0	612
0.072	-1.226	16597	19673	0	612
1.298	-0.902	16683	20462	0	612
7.140	-0.144	16683	20989	0	612
14.461	1.551	16811	21252	0	612
22.178	5.842	16811	21252	0	612
25.171	8.583	16683	20989	0	612
23.476	10.097	16811	20594	0	612
17.021	7.898	16811	20068	0	612
9.737	2.957	16811	19541	0	612
3.859	0.469	16811	18884	0	612
1.551	-0.721	16811	18094	0	612
0.216	0.505	16811	17305	0	612
-1.118	1.947	16811	16515	0	612
-1.082	0.757	16811	15990	0	612
-1.623	-0.793	16811	15332	0	612
-0.288	-1.046	16683	14674	0	612
2.921	-0.072	16683	14148	0	612
5.950	2.596	16597	13621	0	612
7.285	3.462	16683	13095	0	612
3.859	3.642	16683	12700	0	612
-0.433	3.029	16597	12306	0	612
-5.013	0.902	16469	11911	0	612
-8.042	0.397	16469	11911	0	612
-6.888	-0.108	16384	11911	0	612
-2.813	0.649	16384	12174	0	612
1.695	3.426	16384	12437	0	612
5.770	5.806	16384	12832	0	612
8.150	5.950	16384	12832	0	612
6.852	4.904	16384	12700	0	612
5.193	4.291	16299	12832	1	316
3.570	3.823	16299	12963	0	316
3.642	5.193	16299	13227	0	316
4.796	7.104	16384	13884	0	316
8.655	8.691	16384	14806	0	316
10.278	9.232	16384	15463	0	316
12.045	10.999	16384	15727	0	316
10.566	13.091	16384	15858	0	316
6.960	11.937	16384	16121	0	316
2.092	10.097	16384	16515	0	316
-0.865	6.527	16469	17305	0	316
-0.577	3.750	16384	18094	0	316
2.416	4.183	16384	18752	0	316
7.104	6.527	16469	19147	0	316
9.520	12.586	16469	19278	0	316
11.287	15.398	16469	19147	0	316
9.592	16.733	16469	19147	0	316
9.809	15.435	16469	19147	0	316
8.439	11.973	16469	19147	0	316
9.773	8.835	16597	19278	0	316
9.304	6.347	16597	19541	0	316
8.402	5.626	16597	19936	0	316
6.816	5.842	16683	20199	0	316
7.862	7.717	16683	19936	0	316
8.330	11.432	16683	19410	0	316
12.477	13.163	16683	19015	0	316
14.677	13.631	16683	18620	0	316
15.326	11.035	16683	18357	0	316
10.963	7.248	16683	17962	0	316
5.229	3.642	16683	17436	0	316
-0.108	2.308	16683	17041	0	316
-3.173	4.219	16683	16778	0	316
-2.524	7.032	16811	16647	0	316
-1.298	9.701	16811	16384	0	316
-2.560	9.412	16811	16253	0	316
-4.291	4.724	16811	15990	0	316
-6.960	-0.469	16597	15595	0	316
-7.862	-4.688	16597	15069	0	316
-8.439	-5.157	16597	14411	0	316
-6.708	-0.829	16597	13621	0	316
-4.904	5.337	16469	12832	0	316
0.072	9.268	16469	12437	0	316
6.599	10.566	16384	12174	0	316
13.487	7.970	16384	12042	0	316
16.444	4.508	16384	11779	0	316
18.103	6.599	16299	11779	0	316
16.516	10.278	16299	11911	0	316
13.848	15.723	16299	12174	0	316
11.107	19.329	16299	12832	0	316
8.547	17.634	16299	13884	0	316
7.429	14.569	16384	15069	0	316
10.061	12.730	16384	15990	0	316
12.261	11.287	16384	16515	0	316
12.081	10.710	16384	16778	0	316
9.340	10.314	16384	17041	0	316
4.075	8.258	16384	17173	0	316
2.777	7.970	16384	17305	0	316
6.167	8.871	16384	17436	0	316
12.910	10.025	16384	17568	0	316
16.661	10.963	16384	17568	0	316
14.713	10.206	16384	17436	0	316
8.330	7.645	16384	17305	0	316
6.527	7.140	16384	17436	0	316
8.114	7.321	16469	17699	0	316
15.579	9.088	16469	17962	0	316
22.575	11.468	16469	18226	0	316
22.611	13.307	16469	18489	0	316
18.356	12.586	16469	18752	0	316
14.749	13.271	16597	18884	0	316
15.435	13.235	16469	18357	0	316
20.700	13.740	16469	17699	0	316
24.342	12.333	16469	17173	0	316
23.945	12.550	16469	16910	0	316
19.618	13.451	16469	16647	0	316
16.733	16.552	16469	16384	0	316
18.860	20.303	16469	16121	0	316
24.198	22.250	16469	15595	0	316
25.965	20.772	16384	14937	0	316
22.647	16.985	16384	14411	0	316
15.615	13.956	16384	14016	0	316
10.242	14.497	16299	14016	0	316
9.917	17.526	16299	14016	0	316
15.651	22.539	16299	14411	0	316
23.260	27.840	16384	15069	0	316
31.518	34.115	16384	15990	0	316
39.416	39.704	16384	16384	0	316
44.969	44.609	16384	16647	0	316
48.936	49.153	16384	16515	0	316
55.319	54.526	16384	16515	0	316
66.895	62.928	16384	16384	0	316
82.726	74.180	16384	16384	0	316
99.712	89.867	16384	16384	0	316
113.091	101.731	16384	16384	0	316
121.529	110.133	16384	16647	0	316
127.696	113.776	16384	16910	0	316
134.367	116.661	16384	17305	0	316
141.868	119.798	16384	17699	0	316
149.585	126.506	16469	17831	0	316
157.555	133.682	16384	17436	0	316
166.210	139.885	16384	17041	0	316
174.829	141.832	16384	16647	0	316
181.717	140.570	16384	16384	0	316
185.683	138.262	16384	16253	0	316
184.818	137.036	16384	16384	0	316
183.015	136.026	16384	16647	0	316
180.202	136.964	16384	17173	0	316
177.497	134.908	16469	17436	0	316
176.019	131.410	16469	17436	0	316
174.901	125.929	16469	16910	0	316
173.999	122.431	16384	16384	0	316
169.960	119.329	16384	16121	0	316
165.344	117.382	16384	15595	0	316
157.880	113.704	16299	14806	0	316
151.713	110.242	16299	14016	0	316
145.582	104.472	16171	13095	0	316
142.517	99.026	16171	12042	0	316
139.921	92.283	16085	11253	0	316
135.665	84.385	15957	10595	0	316
131.266	75.442	15872	10332	0	316
124.017	65.272	15872	10332	0	316
114.858	56.293	15957	10727	0	316
105.698	50.090	15872	11253	0	316
98.305	46.917	15872	11911	0	316
92.860	44.356	15872	12700	0	316
90.552	44.176	15872	13490	0	316
92.355	42.120	15872	14411	0	316
91.489	39.308	15872	15200	0	316
88.460	33.429	15872	16121	0	316
80.995	27.660	15872	16647	0	316
71.367	20.952	15872	17173	0	316
64.082	17.490	15872	17699	0	316
62.712	18.067	15872	18094	0	316
64.263	21.854	15957	18226	0	316
67.328	28.381	16085	18226	0	316
67.905	31.662	15957	18094	0	316
66.282	34.583	15872	17568	0	316
65.813	35.269	15872	17041	0	316
66.787	36.098	15872	16910	0	316
72.413	39.452	15872	17173	0	316
79.048	44.176	15872	17436	0	316
84.962	50.667	15872	18094	0	316
87.883	56.221	15872	18752	0	316
85.864	59.142	15872	19410	0	316
80.454	59.286	15957	19936	0	316
74.504	56.329	16085	20331	0	316
68.338	51.821	16085	20857	0	316
64.154	47.494	16171	21252	0	316
64.010	47.097	16171	21252	0	316
64.840	48.503	16171	21120	0	316
68.806	52.651	16299	21384	0	316
74.144	56.185	16299	21778	0	316
78.291	57.339	16299	22041	0	316
81.464	59.286	16384	21778	0	316
81.572	59.358	16384	21384	0	316
79.445	58.961	16384	20989	0	316
77.894	60.043	16384	20726	1	620
78.723	59.322	16469	20199	0	620
82.041	59.430	16469	19805	0	620
87.378	60.873	16469	19410	0	620
90.155	59.430	16469	19278	0	620
89.073	54.201	16597	19015	0	620
83.772	46.556	16597	18752	0	620
78.110	38.334	16597	18226	0	620
72.413	33.646	16597	17699	0	620
68.951	32.384	16597	16910	0	620
67.003	33.718	16597	16253	0	620
66.967	35.197	16469	15858	0	620
67.328	34.295	16469	15595	0	620
66.895	31.843	16469	15332	0	620
67.184	29.571	16469	14937	0	620
65.561	25.856	16469	14279	0	620
64.335	25.893	16384	13753	0	620
62.063	26.938	16384	13227	0	620
60.476	30.761	16384	12832	0	620
58.168	33.033	16384	12437	0	620
54.814	34.439	16299	12174	0	620
54.995	34.836	16299	12174	0	620
54.742	33.790	16299	12174	0	620
53.155	30.545	16299	12174	0	620
50.126	26.073	16299	12306	0	620
44.537	20.591	16171	12306	0	620
41.580	16.661	16299	12306	0	620
41.219	17.779	16299	12306	0	620
46.123	21.421	16299	12569	0	620
48.035	25.712	16299	13095	0	620
47.854	25.316	16299	13884	0	620
44.573	22.935	16299	14937	0	620
39.632	19.690	16299	15858	0	620
35.990	16.805	16384	16647	0	620
34.115	15.615	16384	17568	0	620
33.213	15.759	16469	18620	0	620
33.429	16.516	16469	19673	0	620
32.600	16.841	16597	20462	0	620
30.689	17.346	16597	20857	0	620
27.912	17.202	16683	20857	0	620
25.171	15.435	16597	20331	0	620
26.433	14.966	16597	19805	0	620
27.804	14.172	16597	19278	0	620
28.597	15.002	16597	18752	0	620
25.352	14.605	16597	18357	0	620
19.978	14.064	16597	17831	0	620
14.281	10.927	16597	17305	0	620
12.514	9.376	16597	16778	0	620
12.441	6.635	16597	16384	0	620
12.261	5.193	16469	16253	0	620
10.061	5.157	16469	15858	0	620
3.462	5.662	16469	15727	0	620
-3.823	8.583	16469	15595	0	620
-6.744	9.196	16469	15463	0	620
-4.904	9.701	16469	15069	0	620
-0.505	6.022	16469	14411	0	620
1.370	-0.144	16384	13884	0	620
-2.741	-8.402	16384	13621	0	620
-16.625	-16.372	16384	13358	0	620
-33.321	-21.926	16384	13227	0	620
-46.376	-24.811	16299	13227	0	620
-52.218	-26.902	16299	13358	0	620
-52.218	-28.705	16299	13753	0	620
-49.477	-34.403	16299	14148	0	620
-49.657	-42.337	16299	14542	0	620
-57.230	-50.198	16299	14937	0	620
-67.833	-52.290	16299	15200	0	620
-76.379	-49.513	16299	15200	0	620
-80.563	-45.114	16299	15069	0	620
-82.077	-43.815	16299	15200	0	620
-81.933	-46.556	16299	15463	0	620
-85.539	-54.345	16299	15858	0	620
-93.869	-62.387	16299	16253	0	620
-101.226	-67.328	16299	16515	0	620
-100.577	-67.184	16299	16910	0	620
-89.542	-64.876	16299	17305	0	620
-69.275	-62.063	16299	17568	0	620
-55.644	-61.918	16299	17699	0	620
-59.502	-69.023	16384	17831	0	620
-86.152	-81.717	16384	18226	0	620
-122.070	-99.279	16384	18357	0	620
-148.503	-115.471	16384	18226	0	620
-150.595	-120.159	16384	18357	0	620
-130.292	-111.432	16384	18620	0	620
-102.092	-87.703	16469	19015	0	620
-79.841	-64.695	16469	19147	0	620
-69.131	-56.329	16469	19278	0	620
-68.446	-65.994	16597	19410	0	620
-75.009	-82.618	16597	19410	0	620
-84.710	-91.093	16597	19541	0	620
-96.141	-84.313	16683	19805	0	620
-105.193	-72.376	16683	19805	0	620
-105.950	-66.426	16683	19673	0	620
-96.141	-71.259	16811	19805	0	620
-81.969	-79.120	16811	19805	0	620
-73.242	-82.762	16811	19410	0	620
-76.596	-78.940	16811	18752	0	620
-89.217	-74.612	16811	17962	0	620
-101.839	-74.035	16683	17041	0	620
-104.508	-77.966	16811	16384	0	620
-93.220	-80.527	16683	15463	0	620
-73.783	-79.445	16683	14542	0	620
-56.329	-72.413	16597	13621	0	620
-46.448	-58.601	16469	12963	0	620
-42.265	-40.606	16469	12306	0	620
-36.639	-16.084	16384	11516	0	620
-22.935	14.389	16384	10858	0	620
0.216	45.655	16299	10463	0	620
28.381	76.415	16299	10463	0	620
55.139	100.974	16299	10595	0	620
75.442	118.428	16171	10858	0	620
88.244	131.230	16171	11253	0	620
94.771	144.392	16299	11516	0	620
97.692	162.640	16299	12306	0	620
103.318	186.549	16299	13095	0	620
113.704	208.619	16299	13884	0	620
126.181	223.693	16299	14411	0	620
135.377	219.257	16299	14674	0	620
131.735	196.646	16299	15069	0	620
111.648	162.207	16384	15463	0	620
79.120	124.775	16299	15595	0	620
42.553	92.535	16171	15332	0	620
9.592	65.092	16171	14937	0	620
-14.172	41.255	16171	15069	0	620
-26.253	19.798	16171	15463	0	620
-31.915	2.416	16085	15858	0	620
-39.993	-10.819	16085	16121	0	620
-57.014	-24.089	16085	16384	0	620
-82.257	-39.957	16085	16647	0	620
-111.179	-62.279	16085	17041	0	620
-134.800	-85.106	16085	17173	0	620
-151.172	-103.173	16085	17173	0	620
-159.106	-114.497	16085	17041	0	620
-164.263	-118.608	16085	17305	0	620
-167.220	-121.421	16085	17699	0	620
-165.200	-124.342	16085	18094	0	620
-161.233	-127.696	16085	18489	0	620
-158.132	-130.184	16171	18884	0	620
-154.886	-130.869	16171	19147	0	620
-151.208	-129.210	16299	19147	0	620
-149.225	-127.696	16299	19278	0	620
-146.376	-125.352	16299	19410	0	620
-140.317	-122.070	16299	19673	0	620
-131.699	-114.533	16299	19673	0	620
-121.024	-103.787	16384	19541	0	620
-106.888	-91.381	16384	19278	0	620
-96.466	-81.067	16384	19147	0	620
-90.948	-75.334	16384	19410	0	620
-86.441	-70.718	16384	19673	0	620
-80.202	-65.128	16469	19673	0	620
-67.472	-53.913	16469	19410	1	600
-50.415	-36.891	16469	19278	0	600
-29.354	-15.867	16469	19147	0	600
-7.862	9.016	16469	18884	0	600
17.995	39.776	16469	18620	0	600
48.323	75.045	16469	18357	0	600
82.943	114.208	16469	18094	0	600
116.336	150.054	16469	17831	0	600
138.190	174.648	16469	17173	0	600
148.756	184.421	16469	16515	0	600
151.280	185.683	16469	16253	0	600
153.336	190.263	16384	15595	0	600
159.502	203.859	16384	14806	0	600
162.568	221.890	16384	14279	0	600
-7.321	6.816	16299	15858	0	528
-9.737	8.186	16299	15858	0	528
-12.477	10.314	16299	15595	0	528
-10.494	14.281	16299	15463	0	528
-5.770	18.211	16299	15463	0	528
0.288	20.339	16299	15595	0	528
4.472	20.159	16299	15858	0	528
6.708	18.283	16299	16384	0	528
8.619	17.382	16299	17305	0	528
13.307	18.969	16384	18489	0	528
17.743	21.890	16384	19278	0	528
20.483	26.325	16469	19673	0	528
19.618	25.965	16469	20199	0	528
15.867	23.945	16597	20857	0	528
11.864	20.700	16597	21252	0	528
12.297	18.536	16597	21252	0	528
12.586	16.877	16683	20726	0	528
12.009	15.038	16683	20199	0	528
7.176	11.900	16683	19805	0	528
-1.226	9.196	16683	19541	0	528
-7.321	6.383	16683	19410	0	528
-10.458	4.832	16683	19015	0	528
-10.206	4.868	16683	18094	0	528
-8.439	2.993	16683	17305	0	528
-7.537	1.515	16683	16515	0	528
-8.258	-0.541	16683	15595	0	528
-8.871	-1.983	16597	14542	0	528
-9.917	-1.623	16469	13490	0	528
-9.989	0.757	16469	12832	0	528
-10.710	2.957	16384	12174	0	528
-11.576	4.868	16384	11516	0	528
-11.576	6.816	16299	10990	0	528
-8.186	10.710	16299	10595	0	528
-1.515	16.048	16171	10463	0	528
5.409	19.798	16299	10463	0	528
8.366	19.329	16171	10332	0	528
8.222	15.435	16171	10463	0	528
5.157	11.143	16171	10990	0	528
2.524	11.576	16171	11648	0	528
3.606	14.461	16085	12306	0	528
4.039	16.805	16085	12700	0	528
1.983	15.074	16085	13358	0	528
-3.570	6.708	16085	14148	0	528
-11.432	-0.938	16085	14806	0	528
-18.392	-8.979	16085	15332	0	528
-23.332	-11.612	16085	15595	0	528
-23.945	-11.468	16085	15858	0	528
-25.424	-8.655	16085	15990	0	528
-25.388	-8.222	15957	16253	0	528
-29.643	-9.520	15957	16384	0	528
-31.626	-12.658	15957	16647	0	528
-32.744	-15.795	15957	16647	0	528
-28.597	-16.228	15957	16515	0	528
-22.972	-13.668	16085	16647	0	528
-17.887	-12.297	16085	16910	0	528
-18.139	-11.937	16171	17173	0	528
-22.034	-13.812	15957	17305	0	528
-27.299	-15.146	15957	17305	0	528
-30.653	-16.877	15957	17305	0	528
-29.571	-17.346	15957	17305	0	528
-25.316	-17.995	15957	17436	0	528
-20.664	-17.743	15957	17436	0	528
-17.166	-15.975	15957	17568	0	528
-17.382	-13.235	15957	17699	1	316
-20.664	-12.874	15957	17962	0	316
-25.388	-14.100	15957	18489	0	316
-29.571	-18.752	15957	19015	0	316
-31.771	-22.395	16085	19541	0	316
-30.400	-25.099	16085	20068	0	316
-29.354	-25.532	16299	20594	0	316
-27.768	-26.109	16299	21120	0	316
-29.391	-26.722	16299	21515	0	316
-32.384	-29.715	16384	21515	0	316
-35.701	-30.725	16384	21647	0	316
-37.649	-32.167	16384	21515	0	316
-38.839	-32.059	16469	21120	0	316
-38.406	-31.915	16469	20594	0	316
-38.009	-33.393	16469	19936	0	316
-37.360	-33.970	16469	19278	0	316
-36.242	-33.574	16469	18620	0	316
-33.754	-30.364	16384	17962	0	316
-29.643	-25.712	16384	17436	0	316
-25.099	-19.582	16384	17173	0	316
-18.175	-14.966	16384	16910	0	316
-13.018	-11.432	16384	16384	0	316
-10.855	-10.097	16384	15858	0	316
-8.907	-9.592	16384	15463	0	316
-11.468	-11.035	16299	15069	0	316
-12.369	-12.405	16384	14806	0	316
-13.523	-10.927	16384	14411	0	316
-13.884	-10.999	16384	14279	0	316
-14.064	-11.035	16384	14542	0	316
-15.290	-10.855	16384	14937	0	316
-16.552	-12.297	16469	15595	0	316
-18.139	-13.487	16384	16253	0	316
-19.293	-12.045	16384	16778	0	316
-21.168	-10.746	16469	17436	0	316
-21.745	-11.215	16469	17831	0	316
-23.368	-11.973	16597	17962	0	316
-22.539	-14.100	16597	17962	0	316
-21.998	-15.651	16597	17962	0	316
-18.644	-13.776	16597	17831	0	316
-15.543	-10.314	16597	17568	0	316
-13.487	-8.619	16597	17041	0	316
-9.304	-7.934	16597	16384	0	316
-6.816	-9.484	16597	15727	0	316
-3.390	-8.655	16597	15200	0	316
-0.649	-6.311	16597	15069	0	316
0.397	-1.551	16597	15200	0	316
1.442	3.390	16597	15463	0	316
2.669	6.491	16597	15990	0	316
5.265	8.366	16597	16121	0	316
8.763	11.071	16597	16121	0	316
12.874	13.668	16597	16121	0	316
14.461	14.317	16683	16384	0	316
14.605	17.418	16683	16384	0	316
13.992	20.303	16683	16384	0	316
10.891	21.493	16683	15990	0	316
8.907	22.142	16597	15595	0	316
5.229	18.067	16683	15463	0	316
2.669	12.694	16683	15463	0	316
1.226	9.953	16683	15727	0	316
1.983	9.592	16597	15990	0	316
5.878	13.920	16597	16121	0	316
8.763	17.202	16597	16253	0	316
10.566	21.601	16597	16384	0	316
10.169	23.224	16683	16384	0	316
7.934	23.116	16683	16515	0	316
5.662	20.627	16683	16647	0	316
3.282	15.939	16683	16778	0	316
2.452	7.357	16683	16910	0	316
-0.721	2.272	16683	16910	0	316
-2.633	-0.721	16683	16910	0	316
-4.364	1.154	16811	16778	0	316
-3.606	4.688	16811	16778	0	316
-2.921	7.934	16811	16910	0	316
-1.947	8.114	16811	16910	0	316
-1.803	4.904	16811	16647	0	316
-3.462	1.803	16811	16384	0	316
-6.022	0.505	16811	15727	0	316
-6.383	2.056	16597	15069	0	316
-6.599	4.868	16597	14542	0	316
-8.330	7.321	16597	14411	1	316
-8.042	7.934	16597	14411	0	316
-9.304	8.655	16597	14279	0	316
-9.160	7.645	16597	14148	0	316
-9.737	7.609	16597	14016	0	316
-8.763	6.491	16597	14279	0	316
-9.304	4.580	16469	14411	0	316
-7.176	4.796	16469	14411	0	316
-6.383	5.481	16469	14279	0	316
-3.859	7.285	16469	14148	0	316
-2.849	9.917	16469	14016	0	316
-1.695	10.133	16469	14148	0	316
-1.046	10.242	16384	14016	0	316
-0.793	9.124	16384	14016	0	316
-2.596	7.645	16384	14016	0	316
-5.626	4.508	16384	14148	0	316
-10.314	2.092	16299	14148	0	316
-13.668	-0.180	16299	14279	0	316
-16.264	-1.479	16299	14806	0	316
-16.444	-3.750	16384	15727	0	316
-17.598	-5.734	16384	16384	0	316
-18.897	-8.547	16384	16910	0	316
-23.332	-13.091	16384	17041	0	316
-27.263	-16.444	16384	16647	0	316
-31.662	-20.159	16299	16384	0	316
-31.987	-24.198	16299	16384	0	316
-31.410	-25.568	16299	16384	0	316
-30.112	-24.775	16299	16384	0	316
-30.905	-24.414	16299	16384	0	316
-31.302	-22.899	16299	16253	0	316
-31.843	-20.627	16299	16121	0	316
-27.768	-19.834	16171	15990	0	316
-19.690	-16.589	16171	15990	0	316
-9.881	-11.287	16171	15727	0	316
-1.659	-6.203	16171	15332	0	316
2.524	-1.046	16085	15069	0	316
4.760	1.334	16085	15200	0	316
5.085	2.272	16171	15463	0	316
8.763	1.118	16171	15595	0	316
11.468	-0.577	16171	15727	0	316
13.487	-0.325	16171	16121	0	316
11.756	-0.649	16171	16384	0	316
6.924	-2.705	16171	16647	0	316
2.200	-6.239	16171	16778	0	316
-3.282	-12.586	16171	16910	0	316
-9.268	-19.978	16085	16910	0	316
-15.651	-26.361	16085	16910	0	316
-20.772	-32.961	16085	16910	0	316
-23.873	-35.413	16085	17305	0	316
-24.306	-36.314	16171	17699	0	316
-23.116	-35.665	16171	17962	0	316
-23.152	-33.970	16171	18357	0	316
-24.919	-33.321	16171	18620	0	316
-25.893	-32.600	16171	18884	0	316
-23.368	-31.662	16299	19410	0	316
-19.401	-28.777	16299	19673	0	316
-11.864	-24.053	16299	19805	0	316
-4.724	-20.700	16299	19805	0	316
-1.587	-18.067	16299	19541	0	316
-3.931	-18.788	16299	19278	0	316
-7.393	-21.024	16299	19015	0	316
-9.845	-21.601	16299	18620	0	316
-7.825	-18.320	16299	18094	0	316
1.046	-10.242	16299	17568	0	316
9.088	-3.173	16299	17041	0	316
11.576	-0.649	16299	16515	0	316
7.753	-4.291	16299	16121	0	316
0.108	-11.468	16299	15858	0	316
-4.832	-16.985	16299	15858	0	316
-5.157	-16.661	16299	15858	0	316
-3.210	-14.353	16299	15990	0	316
-0.829	-11.937	16299	16121	0	316
-0.577	-10.927	16384	16384	0	316
-0.361	-11.179	16384	16647	0	316
1.731	-9.160	16384	16910	0	316
6.888	-5.626	16384	16910	0	316
10.891	-1.082	16469	17305	0	316
13.307	1.479	16384	18226	0	316
14.533	2.272	16469	19147	0	316
13.740	3.390	16597	19805	0	316
16.697	5.193	16597	20199	0	316
20.123	8.294	16597	20068	0	316
22.034	11.468	16683	19805	0	316
24.234	12.333	16683	19673	0	316
22.935	12.658	16683	19673	0	316
22.286	12.982	16811	19936	0	316
24.053	14.569	16811	19805	0	316
24.522	16.300	16811	19147	0	316
22.935	14.858	16811	18489	0	316
20.844	11.432	16811	17962	0	316
16.949	6.996	16896	17568	0	316
14.317	3.282	16896	17041	0	316
10.206	-0.541	16896	16515	0	316
5.914	-4.580	16896	16253	0	316
-1.479	-11.071	16896	15858	0	316
-7.898	-16.228	16811	15332	0	316
-9.809	-17.346	16811	14937	0	316
-8.871	-14.858	16811	14542	0	316
-5.554	-9.592	16811	14279	0	316
-4.147	-7.753	16811	14148	0	316
-3.354	-7.393	16811	14279	0	316
-3.895	-9.160	16811	14542	0	316
-1.659	-7.609	16811	14806	0	316
1.551	-3.642	16811	14806	0	316
4.940	2.596	16811	14542	0	316
6.816	7.321	16811	14148	0	316
5.950	10.530	16683	13753	0	316
6.527	9.665	16683	13227	0	316
6.527	10.278	16683	12832	0	316
9.052	11.792	16597	12569	0	316
11.107	16.661	16469	12306	0	316
14.677	22.899	16469	11911	0	316
19.041	29.823	16469	11779	0	316
23.837	33.429	16469	12042	0	316
25.820	33.682	16469	12569	0	316
26.109	30.256	16469	13227	0	316
23.296	26.109	16469	13753	0	316
19.546	23.476	16384	13753	0	316
17.057	20.916	16384	13753	0	316
13.343	17.490	16384	13621	0	316
8.835	12.081	16299	13621	0	316
0.252	3.750	16299	13358	0	316
-8.330	-5.265	16299	13095	0	316
-15.651	-10.819	16171	13095	0	316
-20.627	-14.461	16171	13358	0	316
-21.024	-15.038	16171	13753	0	316
-19.510	-13.451	16171	14016	0	316
-18.211	-13.523	16171	14279	0	316
-18.211	-14.064	16171	14674	0	316
-19.041	-15.435	16171	15332	0	316
-18.608	-15.615	16299	16121	0	316
-16.733	-12.874	16299	16778	0	316
-13.631	-8.907	16299	17305	0	316
-8.006	-4.364	16299	17436	0	316
-4.760	-0.108	16171	17436	0	316
-1.334	2.524	16171	17436	0	316
1.803	4.868	16171	17436	0	316
5.265	9.412	16171	17436	0	316
7.501	11.251	16171	17305	0	316
10.963	11.576	16171	17305	0	316
10.927	10.386	16171	17173	0	316
8.619	6.239	16171	17041	0	316
4.364	1.190	16085	17041	0	316
-0.469	-3.750	16085	17173	0	316
-3.534	-6.635	16085	17305	0	316
-5.157	-8.691	16085	17699	0	316
-5.373	-10.602	16085	17831	0	316
-5.662	-11.973	16085	17831	0	316
-7.970	-15.002	16085	17699	0	316
-10.206	-19.005	16085	17568	0	316
-14.425	-22.286	16085	17568	0	316
-17.238	-24.414	16085	17699	0	316
-20.267	-24.630	16171	17831	0	316
-20.339	-21.781	16299	18226	0	316
-18.247	-16.805	16299	18489	0	316
-15.795	-13.343	16299	19015	0	316
-14.245	-11.251	16299	19541	0	316
-11.973	-13.523	16384	19936	0	316
-11.612	-14.569	16384	19936	0	316
-10.314	-13.668	16384	19805	0	316
-7.176	-10.169	16469	19936	0	316
-6.599	-5.337	16469	20331	0	316
-6.239	-3.642	16469	20462	0	316
-8.006	-3.967	16597	20331	0	316
-9.773	-4.255	16597	20199	0	316
-10.133	-2.741	16469	20068	0	316
-9.412	-1.587	16469	20068	1	664
-10.061	-1.479	16597	19805	0	664
-9.953	-2.596	16597	19278	0	664
-9.124	-4.796	16597	18884	0	664
-5.950	-5.157	16597	18226	0	664
-1.226	-2.669	16597	17436	0	664
2.128	-2.308	16597	16778	0	664
3.931	-1.479	16597	16253	0	664
1.082	-0.325	16469	15463	0	664
-1.695	-0.541	16469	14674	0	664
-3.642	-1.298	16469	13884	0	664
-5.193	-4.327	16469	13490	0	664
-6.275	-8.655	16469	13095	0	664
-6.167	-12.586	16384	12700	0	664
-5.914	-14.136	16384	12306	0	664
-6.022	-11.864	16384	12174	0	664
-7.140	-11.251	16384	12306	0	664
-8.907	-11.756	16299	12700	0	664
-9.629	-12.153	16299	12963	0	664
-9.088	-13.343	16299	13095	0	664
-6.671	-14.605	16299	13358	0	664
-4.039	-14.677	16299	13621	0	664
-3.101	-13.271	16299	14016	0	664
-1.551	-11.396	16299	14411	0	664
0.577	-7.104	16299	14411	0	664
3.823	-1.515	16299	14148	0	664
6.383	3.859	16171	13884	0	664
8.186	5.914	16171	13753	0	664
6.852	6.671	16171	14016	0	664
5.085	3.354	16171	14542	0	664
2.633	-0.577	16171	14806	0	664
1.406	-2.272	16085	14806	0	664
3.498	-0.252	16171	14674	0	664
8.547	7.140	16171	14542	0	664
17.346	15.074	16085	14148	0	664
23.729	19.906	16085	13621	0	664
24.234	19.077	15957	13358	0	664
20.483	11.900	15957	13095	0	664
14.713	4.111	15872	13095	0	664
10.206	-1.370	15872	13227	0	664
10.133	-3.462	15872	13621	0	664
12.369	-3.570	15872	14542	0	664
12.045	-4.364	15872	15595	0	664
11.107	-8.114	15872	16515	0	664
10.314	-9.556	15872	17305	0	664
9.304	-11.071	15872	17831	0	664
10.350	-9.160	16085	18226	0	664
12.117	-8.943	16085	18620	0	664
12.369	-9.629	16171	18884	0	664
11.143	-12.225	16085	18884	0	664
8.583	-13.848	16085	18884	0	664
6.563	-11.179	16085	18752	0	664
6.239	-7.176	16085	18620	0	664
8.475	-1.659	16085	18752	0	664
10.169	0.108	16085	18884	0	664
10.819	-2.092	16085	19015	0	664
7.825	-6.203	16085	19015	0	664
8.186	-10.169	16085	19015	0	664
9.520	-10.494	16085	19015	0	664
13.595	-7.789	16085	18752	0	664
17.346	-2.633	16085	18226	0	664
18.536	-0.505	16085	17831	0	664
18.320	0.433	16085	17568	0	664
18.824	-1.479	16085	17568	0	664
19.942	-4.147	16085	17831	0	664
20.664	-6.780	16171	18357	0	664
20.916	-8.835	16171	18884	0	664
19.906	-10.891	16299	19278	0	664
16.805	-12.405	16299	19410	0	664
15.110	-12.009	16299	19278	0	664
12.838	-10.097	16299	19015	0	664
11.937	-6.960	16299	18752	0	664
13.487	-4.760	16299	18489	0	664
13.668	-3.931	16384	18357	0	664
14.136	-3.967	16384	18094	0	664
14.064	-4.616	16384	17962	0	664
16.012	-4.147	16384	17962	0	664
18.897	-1.731	16384	17699	0	664
22.467	1.298	16384	17305	0	664
23.116	4.508	16384	16647	0	664
22.214	5.445	16384	16253	0	664
21.637	7.717	16384	15990	0	664
21.132	6.996	16384	15858	0	664
20.555	5.842	16384	15727	0	664
17.779	2.092	16384	15463	0	664
13.343	-3.787	16299	15069	0	664
10.206	-9.088	16299	14674	0	664
8.186	-12.081	16299	14148	0	664
8.943	-12.441	16299	13884	0	664
6.635	-10.242	16299	14016	0	664
4.724	-10.855	16299	14411	0	664
2.272	-12.838	16299	14937	0	664
3.931	-12.477	16299	15332	0	664
8.006	-11.251	16299	15463	0	664
12.297	-9.124	16299	15595	0	664
15.002	-6.383	16299	15858	0	664
12.586	-6.744	16299	15727	0	664
9.809	-9.629	16299	15595	0	664
8.402	-9.953	16299	15463	0	664
10.133	-8.078	16299	15463	0	664
14.930	-2.128	16299	15858	0	664
19.726	4.436	16299	16384	0	664
20.988	8.763	16299	16647	0	664
18.716	9.268	16299	16910	0	664
15.867	8.727	16299	16778	0	664
14.353	6.275	16299	16647	0	664
17.634	8.475	16299	16384	0	664
23.981	11.143	16299	16253	0	664
31.049	15.507	16299	16121	0	664
36.098	19.113	16299	16121	0	664
37.685	21.457	16299	16253	0	664
35.197	21.457	16299	16121	0	664
32.600	19.401	16299	15858	0	664
29.859	17.021	16299	15727	0	664
30.076	14.894	16299	15990	0	664
27.587	13.523	16299	16384	0	664
24.198	10.169	16299	16910	0	664
16.841	5.013	16299	17436	0	664
9.340	-2.380	16384	17962	0	664
2.993	-10.206	16384	18226	0	664
0.288	-14.966	16384	18489	0	664
-3.534	-19.329	16469	18752	0	664
-9.268	-23.224	16469	18752	0	664
-12.477	-26.542	16469	18357	0	664
-15.110	-27.876	16384	17568	0	664
-12.622	-26.686	16384	16910	0	664
-10.169	-22.863	16384	16384	0	664
-9.232	-19.185	16384	16121	0	664
-12.297	-18.320	16384	15990	0	664
-14.028	-17.887	16384	15858	0	664
-13.595	-18.536	16384	15727	0	664
-8.114	-15.543	16384	15727	0	664
0.865	-8.402	16384	16253	0	664
9.340	-1.226	16384	16515	0	664
16.408	6.671	16384	16647	0	664
22.358	12.117	16384	16384	0	664
24.270	12.514	16384	15990	0	664
24.089	12.189	16384	15727	0	664
23.332	9.989	16384	15463	0	664
22.899	9.196	16384	15332	0	664
24.234	11.071	16384	15332	0	664
27.912	14.461	16384	15463	0	664
28.597	14.749	16384	15463	0	664
26.253	12.189	16384	15332	0	664
20.050	4.291	16384	15332	0	664
12.730	-4.327	16384	15858	0	664
8.583	-10.278	16384	16515	0	664
7.212	-11.756	16469	17173	0	664
9.556	-10.566	16469	17568	0	664
10.097	-7.068	16469	17699	0	664
8.583	-6.852	16469	17568	0	664
2.993	-9.160	16469	17305	0	664
-4.255	-13.595	16469	17041	0	664
-9.809	-18.428	16469	16647	0	664
-12.297	-21.421	16469	16384	0	664
-12.874	-23.440	16469	16647	0	664
-12.477	-22.755	16469	17041	0	664
-13.451	-21.818	16469	17173	0	664
-13.271	-19.510	16469	17041	0	664
-11.792	-15.795	16469	16778	0	664
-6.131	-8.078	16469	16910	0	664
1.623	-2.380	16597	17173	0	664
9.953	3.534	16597	17305	0	664
16.877	6.094	16597	17305	0	664
22.899	6.960	16597	17173	0	664
24.955	6.094	16597	17041	0	664
24.739	4.436	16597	17041	0	664
20.988	5.517	16597	17041	0	664
16.733	5.734	16597	16778	0	664
12.874	4.436	16597	16515	0	664
10.314	2.957	16597	16515	0	664
6.708	-2.921	16683	16647	0	664
3.282	-12.081	16683	16910	0	664
-2.993	-21.168	16683	16910	0	664
-7.573	-26.722	16597	16910	0	664
-8.727	-24.162	16597	17173	0	664
-5.662	-14.677	16683	17436	0	664
-2.452	-3.678	16683	17699	0	664
0.938	3.823	16683	17699	0	664
-0.144	4.291	16683	17436	0	664
-2.921	1.515	16683	17305	0	664
-7.140	-0.072	16683	17173	0	664
-9.701	0.685	16811	17305	0	664
-12.658	1.911	16811	17568	1	732
-15.182	1.118	16811	17831	0	732
-17.021	-2.092	16896	18094	0	732
-17.346	-4.652	16896	18226	0	732
-14.749	-2.596	16811	18094	0	732
-10.097	0.541	16896	17699	0	732
-6.960	4.147	17025	17305	0	732
-4.688	3.642	16896	17173	0	732
-5.373	0.252	16896	16910	0	732
-6.960	-4.364	16896	16647	0	732
-7.970	-7.537	16896	16253	0	732
-10.783	-8.294	16896	15595	0	732
-12.009	-9.448	16811	14674	0	732
-15.398	-10.314	16811	13884	0	732
-17.526	-10.963	16811	13358	0	732
-18.139	-9.556	16811	13358	0	732
-16.264	-5.770	16683	13227	0	732
-12.946	-2.308	16683	12700	0	732
-10.783	-0.829	16683	12306	0	732
-10.458	-1.659	16683	12174	0	732
-12.405	-4.219	16469	12306	0	732
-15.615	-3.787	16469	12437	0	732
-14.894	-3.065	16469	12700	0	732
-12.297	-2.308	16469	13095	0	732
-9.881	-2.633	16469	13490	0	732
-8.511	-4.616	16469	14016	0	732
-9.592	-5.013	16469	14674	0	732
-11.143	-1.370	16597	15595	0	732
-8.619	3.750	16597	16515	0	732
-6.167	6.239	16683	17699	0	732
-4.327	4.940	16683	18489	0	732
-6.275	-2.056	16683	18884	0	732
-10.458	-8.114	16811	19015	0	732
-12.730	-11.360	16811	19015	0	732
-11.504	-9.268	16811	18752	0	732
-6.058	-3.065	16683	17831	0	732
-1.911	1.911	16683	16384	0	732
-0.108	3.137	16597	15200	0	732
-1.442	0.829	16597	14148	0	732
-3.246	-2.488	16469	13358	0	732
-3.931	-4.472	16469	12832	0	732
-2.272	-3.354	16384	12437	0	732
0.216	0.036	16384	12174	0	732
2.993	4.724	16299	11911	0	732
6.635	8.727	16299	12042	0	732
9.052	11.756	16299	12174	0	732
10.999	12.982	16171	12306	0	732
8.979	10.566	16171	12306	0	732
6.239	4.436	16171	12437	0	732
1.695	-0.793	16085	12963	0	732
-1.406	-2.633	16085	13358	0	732
-1.226	0.793	16085	13621	0	732
-0.072	10.314	15957	13884	0	732
1.767	17.310	15957	14279	0	732
2.019	18.788	15957	14806	0	732
1.334	14.281	15957	15332	0	732
-0.793	6.383	15957	15727	0	732
-1.911	-0.577	15957	15990	0	732
-5.337	-4.580	15872	16121	0	732
-9.304	-6.960	15957	16384	0	732
-13.668	-10.819	15957	16515	0	732
-16.949	-13.127	15957	16910	0	732
-16.589	-13.595	15957	17041	0	732
-12.874	-13.091	15957	17173	0	732
-10.061	-11.107	15957	17041	0	732
-8.078	-12.730	15872	16778	0	732
-5.662	-13.668	15872	16515	0	732
-0.902	-12.730	15872	16384	0	732
4.652	-5.914	15743	16384	0	732
9.304	0.252	15743	16515	0	732
8.186	7.465	15743	16910	0	732
5.085	8.763	15872	17041	0	732
1.731	7.681	15957	17305	0	732
3.606	6.671	15872	17699	0	732
7.825	7.285	15872	18094	0	732
11.612	10.386	15872	18489	0	732
10.422	10.530	15872	18489	0	732
5.409	10.025	15872	18489	0	732
-0.216	9.917	15872	18752	0	732
-2.308	9.556	15872	19410	0	732
-1.947	12.946	15957	20068	0	732
-0.469	14.317	15957	20594	0	732
-0.541	13.163	15957	20989	0	732
-2.957	7.898	16171	21384	0	732
-6.383	0.829	16171	21647	0	732
-9.196	-2.993	16299	21910	0	732
-8.835	-4.111	16299	22173	0	732
-8.366	-2.957	16299	22173	0	732
-7.573	-1.587	16384	21910	1	352
-7.357	-2.236	16384	21647	0	352
-9.340	-6.094	16384	21515	0	352
-11.937	-9.556	16469	21252	0	352
-14.461	-12.369	16469	20594	0	352
-15.182	-12.009	16469	20068	0	352
-13.523	-9.665	16469	19410	0	352
-12.550	-5.950	16469	18620	0	352
-9.665	-4.544	16469	17568	0	352
-9.304	-4.111	16469	16778	0	352
-8.439	-5.554	16469	16253	0	352
-10.169	-7.393	16469	15858	0	352
-13.091	-9.809	16384	15463	0	352
-19.582	-12.838	16299	15069	0	352
-24.919	-14.569	16384	14674	0	352
-29.895	-16.516	16469	14806	0	352
-31.699	-15.398	16384	15069	0	352
-29.643	-13.523	16384	15200	0	352
-27.443	-12.802	16384	15332	0	352
-26.433	-12.045	16384	15332	0	352
-24.919	-14.533	16384	15463	0	352
-24.594	-16.985	16384	15595	0	352
-25.243	-18.211	16469	15858	0	352
-23.044	-17.598	16469	16121	0	352
-22.142	-13.451	16469	16121	0	352
-19.221	-8.475	16469	15727	0	352
-16.913	-3.931	16469	15332	0	352
-13.127	-2.849	16469	15069	0	352
-10.350	-3.534	16469	14937	0	352
-7.032	-6.239	16469	15069	0	352
-4.039	-6.816	16469	15332	0	352
-2.488	-5.517	16469	15463	0	352
-1.118	-3.210	16469	15200	0	352
0.288	0.361	16469	15069	0	352
-0.180	3.714	16469	14937	0	352
1.262	5.590	16469	14937	0	352
2.488	8.619	16384	14937	0	352
2.993	8.799	16384	14674	0	352
2.705	7.789	16384	14542	0	352
-1.442	3.823	16384	14542	0	352
-7.068	-2.308	16384	14674	0	352
-14.930	-7.429	16384	14806	0	352
-21.818	-11.540	16384	14937	0	352
-25.279	-14.425	16384	14806	0	352
-26.974	-15.939	16384	14542	0	352
-25.604	-17.310	16299	14411	0	352
-22.863	-17.274	16299	14279	0	352
-20.411	-16.408	16299	14148	0	352
-16.480	-12.586	16299	14016	0	352
-12.838	-6.347	16171	14016	0	352
-9.160	-1.659	16171	14148	0	352
-8.186	2.885	16171	14279	0	352
-7.717	5.590	16171	14411	0	352
-8.439	4.868	16171	14674	0	352
-6.455	3.498	16171	14806	0	352
-3.606	1.587	16171	15069	0	352
1.875	1.010	16171	15332	0	352
3.426	-0.180	16171	15463	0	352
4.652	1.226	16171	15727	0	352
2.633	3.065	16171	16253	0	352
3.137	6.852	16171	16778	0	352
5.878	12.369	16299	17305	0	352
7.934	17.562	16299	17436	0	352
10.133	19.762	16171	17305	0	352
10.783	18.283	16171	17173	0	352
8.655	14.821	16171	17436	0	352
8.114	11.792	16299	17699	0	352
7.681	12.586	16299	18094	0	352
6.131	13.668	16299	18226	0	352
4.544	15.218	16299	18357	0	352
2.164	13.163	16299	18489	0	352
0.288	10.133	16299	18752	0	352
-1.010	5.590	16299	18884	0	352
-1.659	3.714	16384	18884	0	352
-2.705	2.452	16384	18620	0	352
-3.210	0.829	16384	18226	0	352
-2.993	0.793	16384	18094	0	352
-2.705	2.813	16384	18094	0	352
-0.397	7.068	16384	18094	0	352
3.246	14.425	16384	18094	0	352
9.412	21.349	16384	17962	0	352
14.641	25.676	16384	18226	0	352
18.320	25.388	16469	18357	0	352
18.824	22.431	16469	18489	0	352
15.795	18.211	16469	18620	0	352
11.937	16.228	16469	18489	0	352
9.556	15.615	16469	18094	0	352
6.347	16.985	16469	17568	0	352
4.183	17.526	16469	17041	0	352
2.993	17.129	16469	16384	0	352
2.885	17.202	16469	15858	0	352
6.094	18.356	16469	15463	0	352
10.566	21.637	16384	15332	0	352
15.254	23.837	16384	15200	0	352
17.093	24.162	16384	14937	0	352
16.877	23.657	16384	14542	0	352
15.146	21.421	16384	13884	0	352
13.740	20.195	16299	12963	0	352
14.353	19.834	16299	12306	0	352
16.264	19.257	16171	12042	0	352
19.798	18.031	16171	12174	0	352
21.926	18.392	16171	12306	0	352
21.457	18.247	16171	12700	0	352
17.202	16.552	16085	12963	0	352
10.314	14.821	16085	13490	0	352
4.400	12.117	16085	14279	0	352
2.056	11.179	16171	15069	0	352
4.977	12.477	16171	15858	0	352
8.150	12.694	16171	16384	0	352
12.694	13.920	16171	16778	0	352
14.461	12.333	16171	16910	0	352
15.579	11.828	16171	17173	0	352
16.300	10.458	16171	17568	0	352
14.677	11.360	16171	17962	0	352
13.271	12.297	16171	18094	0	352
9.917	16.913	16171	17962	0	352
11.215	22.503	16299	17436	0	352
15.903	30.581	16299	17305	0	352
22.250	34.223	16299	17436	0	352
27.443	34.620	16299	17568	0	352
31.518	32.636	16299	17699	0	352
31.374	30.292	16384	17962	0	352
31.410	31.482	16384	17831	0	352
30.977	34.511	16384	17831	0	352
29.535	38.154	16384	17699	0	352
24.089	38.154	16384	17831	0	352
19.798	34.331	16384	17962	0	352
15.615	27.515	16384	18094	0	352
12.514	19.365	16384	18357	0	352
13.523	13.740	16469	18357	0	352
15.254	10.025	16469	18489	0	352
16.480	8.006	16469	18357	0	352
14.785	6.275	16469	18226	0	352
9.773	2.849	16469	17699	0	352
0.361	-1.767	16469	17305	0	352
-7.970	-5.806	16384	17041	0	352
-12.514	-8.547	16384	16647	0	352
-9.917	-9.737	16384	16121	0	352
-5.734	-7.789	16299	15727	0	352
-1.442	-5.554	16469	15727	0	352
1.154	-2.056	16384	16121	0	352
2.957	0.865	16384	16384	0	352
4.904	4.327	16384	16384	0	352
9.088	7.176	16384	16253	0	352
11.251	11.540	16384	16121	0	352
13.271	15.903	16384	15990	0	352
14.677	20.267	16384	15990	0	352
19.041	25.099	16384	16384	0	352
25.784	30.797	16384	16647	0	352
33.970	39.055	16469	17173	0	352
40.606	48.251	16469	17831	0	352
43.924	57.266	16469	18226	0	352
44.753	60.837	16597	18752	0	352
41.435	60.620	16597	19015	0	352
39.849	55.283	16683	19015	0	352
36.278	48.035	16683	19015	0	352
32.997	41.868	16683	19015	0	352
28.705	33.682	16683	18752	0	352
21.709	25.856	16683	18226	0	352
15.939	18.392	16683	17699	0	352
7.068	10.999	16683	17173	0	352
1.262	7.248	16683	16910	0	352
-3.354	4.544	16811	16515	0	352
-7.285	3.318	16811	16384	0	352
-8.907	0.325	16811	16515	0	352
-12.009	-3.678	16811	16515	0	352
-17.166	-8.402	16811	16384	0	352
-21.313	-12.477	16811	16253	0	352
-24.702	-13.235	16811	15595	0	352
-21.998	-9.124	16683	14674	0	352
-15.903	-2.344	16597	13884	0	352
-8.439	5.157	16597	13227	0	352
-2.705	9.917	16597	12700	0	352
-0.397	13.127	16469	12042	0	352
1.442	14.136	16469	11648	0	352
5.986	17.670	16384	11253	0	352
11.937	22.286	16384	10990	0	352
19.113	26.217	16299	10595	0	352
24.486	29.968	16299	10069	0	352
26.866	30.256	16171	9806	0	352
29.895	29.102	16171	9806	0	352
34.006	28.417	16085	10200	0	352
36.278	26.722	16085	10463	0	352
34.656	25.243	16085	10858	0	352
30.364	22.106	16085	11648	0	352
23.116	17.815	16085	12306	0	352
17.526	14.100	16085	12700	0	352
14.677	9.665	16085	13095	0	352
11.323	3.931	15957	13490	0	352
4.183	-2.092	15957	14279	0	352
-5.590	-13.199	15957	15332	0	352
-13.920	-20.808	15957	16384	0	352
-18.175	-26.974	16085	17041	0	352
-16.516	-25.820	16085	17568	0	352
-12.550	-24.017	16085	17962	0	352
-10.025	-20.231	16085	18226	0	352
-9.701	-18.464	15957	18226	0	352
-11.540	-16.733	15957	18357	0	352
-10.927	-14.677	16085	18884	0	352
-6.347	-10.494	16085	19410	0	352
-1.406	-5.049	16085	19936	0	352
5.265	-0.144	16171	20331	0	352
11.215	5.337	16299	20989	0	352
14.389	10.314	16299	21515	0	352
15.687	12.874	16299	21647	0	352
15.543	14.858	16384	21647	0	352
13.163	15.543	16384	21647	0	352
11.720	15.579	16384	21647	0	352
11.828	15.579	16384	21515	0	352
14.713	17.057	16469	21384	0	352
17.093	17.490	16469	21384	0	352
18.608	16.516	16469	21384	0	352
16.156	13.415	16597	20989	1	848
10.746	6.383	16597	20331	0	848
3.642	-0.793	16469	19541	0	848
-1.046	-9.665	16384	18620	0	848
-5.013	-15.038	16384	17436	0	848
-6.635	-20.123	16384	16384	0	848
-9.160	-21.818	16384	15332	0	848
-11.900	-24.198	16299	14806	0	848
-16.048	-24.450	16299	14674	0	848
-16.156	-23.765	16384	14542	0	848
-15.398	-24.125	16384	14674	0	848
-13.848	-23.116	16384	14937	0	848
-13.235	-22.827	16469	15463	0	848
-15.615	-23.512	16384	15858	0	848
-17.562	-20.339	16384	16253	0	848
-16.625	-14.677	16384	16384	0	848
-12.477	-5.265	16384	16778	0	848
-5.770	5.013	16469	16910	0	848
-0.649	12.369	16469	17173	0	848
1.154	16.625	16469	17173	0	848
-0.397	14.966	16469	16910	0	848
-3.101	10.097	16469	16647	0	848
-7.934	3.498	16469	16515	0	848
-10.494	-2.452	16469	16384	0	848
-13.523	-6.347	16469	15990	0	848
-16.156	-7.212	16469	15727	0	848
-17.454	-5.445	16469	15332	0	848
-18.103	-5.265	16469	14937	0	848
-17.779	-6.419	16469	14806	0	848
-17.310	-7.970	16469	14806	0	848
-15.975	-11.143	16384	14806	0	848
-16.769	-13.992	16384	14674	0	848
-18.211	-15.182	16384	14806	0	848
-19.582	-16.192	16384	14806	0	848
-21.529	-15.903	16384	14937	0	848
-22.575	-14.713	16384	15200	0	848
-24.162	-14.389	16384	15463	0	848
-24.883	-15.146	16384	15463	0	848
-25.712	-15.867	16384	15595	0	848
-23.837	-16.877	16384	15858	0	848
-21.890	-14.966	16469	16121	0	848
-17.779	-12.838	16469	16384	0	848
-15.110	-10.206	16469	16647	0	848
-14.497	-8.655	16469	16778	0	848
-12.441	-7.068	16469	17041	0	848
-11.035	-5.265	16469	17305	0	848
-7.609	-4.003	16469	17305	0	848
-3.678	-0.757	16469	17436	0	848
0.361	1.298	16597	17568	0	848
1.551	1.983	16597	17699	0	848
2.236	1.551	16597	17831	0	848
0.505	1.190	16597	18094	0	848
-1.479	0.397	16683	18357	0	848
-2.777	0.108	16683	18489	0	848
-1.479	2.596	16683	18094	0	848
0.829	4.760	16683	17436	0	848
3.354	5.986	16683	17041	0	848
5.301	6.491	16683	16647	0	848
6.022	8.619	16683	16515	0	848
6.599	9.592	16683	16384	0	848
6.996	12.477	16683	16253	0	848
7.140	16.264	16683	16253	0	848
6.960	15.795	16597	16384	0	848
4.904	13.740	16597	16384	0	848
1.587	9.268	16597	16384	0	848
-2.308	2.813	16597	16253	0	848
-7.789	-4.364	16597	15990	0	848
-11.468	-11.071	16597	15463	0	848
-14.172	-14.461	16597	14937	0	848
-16.048	-15.867	16597	14937	0	848
-17.995	-15.543	16597	15200	0	848
-20.483	-14.389	16597	15595	0	848
-23.116	-15.939	16597	15858	0	848
-23.981	-19.221	16597	16384	0	848
-24.125	-21.637	16683	16778	0	848
-23.909	-23.837	16683	16910	0	848
-23.765	-23.116	16683	16910	0	848
-24.955	-22.611	16683	16647	0	848
-24.089	-20.664	16683	16515	0	848
-22.322	-18.067	16683	16384	0	848
-20.988	-16.480	16683	16384	0	848
-18.247	-16.300	16597	16384	0	848
-17.202	-16.841	16683	16253	0	848
-16.625	-18.428	16683	15858	0	848
-15.435	-19.113	16683	15463	0	848
-13.415	-17.598	16597	15463	0	848
-8.475	-13.271	16597	15463	0	848
-5.986	-8.943	16597	15595	0	848
-3.859	-4.544	16597	15990	0	848
-3.534	-2.560	16597	16253	0	848
-5.085	-3.606	16597	16253	0	848
-7.862	-4.940	16597	15858	0	848
-8.655	-7.681	16597	15332	0	848
-10.602	-9.773	16469	15200	0	848
-11.576	-9.809	16469	15069	0	848
-13.668	-10.350	16469	15069	0	848
-13.451	-9.340	16469	14806	0	848
-13.451	-8.943	16469	14674	0	848
-10.783	-7.212	16469	14674	0	848
-8.871	-6.996	16384	14411	0	848
-6.239	-7.681	16384	14148	0	848
-6.924	-9.232	16384	14148	0	848
-9.737	-10.242	16384	14279	0	848
-12.225	-10.278	16384	14542	0	848
-12.838	-6.708	16384	14937	0	848
-12.189	-3.282	16384	15463	0	848
-10.710	0.721	16384	15858	0	848
-9.124	0.865	16384	16121	0	848
-8.655	0.108	16384	16253	0	848
-5.481	-1.515	16384	16384	0	848
-1.983	-0.613	16384	16515	0	848
3.173	1.370	16384	16778	0	848
3.354	2.308	16384	17173	0	848
1.911	1.118	16384	17568	0	848
-2.128	-0.902	16469	18094	0	848
-6.671	-5.626	16469	18620	0	848
-7.393	-7.212	16469	19147	0	848
-5.698	-6.888	16597	19278	0	848
-5.229	-7.248	16597	19147	0	848
-3.859	-6.960	16597	18752	0	848
-5.554	-7.140	16597	18226	0	848
-7.032	-6.888	16597	17831	0	848
-9.809	-5.842	16469	17305	0	848
-10.278	-6.058	16469	16910	0	848
-10.783	-5.157	16469	16384	0	848
-10.963	-5.517	16469	16121	0	848
-8.655	-6.708	16469	15858	0	848
-6.671	-5.517	16469	15727	0	848
-2.416	-3.714	16469	15727	0	848
2.092	-1.623	16469	15727	0	848
6.491	0.577	16469	15727	0	848
8.763	4.039	16384	15463	0	848
9.737	6.383	16384	15332	0	848
7.248	7.898	16384	14937	0	848
4.616	7.825	16384	14806	0	848
1.370	5.878	16384	14674	0	848
-0.757	1.983	16299	14542	0	848
-2.416	-1.082	16299	14411	0	848
-3.823	-3.823	16299	14279	0	848
-3.678	-4.652	16299	14148	0	848
-5.698	-4.724	16171	14016	0	848
-5.229	-3.173	16171	14016	0	848
-4.796	-1.190	16171	14016	0	848
-2.813	1.659	16171	14411	0	848
-0.721	4.688	16171	15200	0	848
0.938	4.219	16299	16384	0	848
2.056	4.688	16299	17699	0	848
2.308	4.472	16384	18752	0	848
2.885	6.888	16384	19541	0	848
3.714	8.439	16384	20068	0	848
3.426	10.855	16469	20331	0	848
1.911	8.475	16469	20462	0	848
1.082	3.895	16469	20199	0	848
0.577	0.541	16469	19936	0	848
2.128	-0.325	16469	19673	0	848
4.436	1.911	16469	19147	0	848
7.753	7.393	16469	18752	1	624
10.999	13.704	16469	18357	0	624
15.074	20.159	16469	17962	0	624
18.211	24.630	16469	17699	0	624
21.277	28.056	16469	17305	0	624
22.539	28.922	16597	17041	0	624
25.820	30.400	16597	16910	0	624
27.299	31.194	16597	16778	0	624
29.895	31.626	16597	16647	0	624
28.489	29.282	16597	16384	0	624
25.388	26.614	16597	16384	0	624
20.014	22.791	16597	16384	0	624
16.625	21.998	16597	16384	0	624
15.795	20.736	16597	16121	0	624
16.228	19.473	16384	15463	0	624
15.002	16.084	16384	14806	0	624
12.874	12.477	16384	14411	0	624
11.179	12.225	16384	14148	0	624
9.052	12.658	16384	13884	0	624
12.189	16.372	16299	13753	0	624
15.110	20.519	16299	13753	0	624
18.356	22.286	16384	13753	0	624
20.267	24.342	16384	13621	0	624
21.998	24.198	16384	13490	0	624
22.106	22.791	16299	13358	0	624
23.296	23.296	16299	13358	0	624
26.145	24.162	16299	13227	0	624
29.174	26.722	16171	13227	0	624
34.511	32.059	16171	13095	0	624
39.272	37.541	16171	12700	0	624
42.445	43.058	16085	12569	0	624
43.202	47.674	16085	12700	0	624
42.517	48.431	16085	12963	0	624
41.435	47.710	16085	13753	0	624
42.734	49.008	16085	14806	0	624
44.933	51.713	16085	16121	0	624
50.884	57.158	16171	17305	0	624
58.601	64.695	16171	18357	0	624
66.102	71.655	16171	19278	0	624
73.530	78.543	16299	20199	0	624
77.786	84.025	16299	20989	0	624
78.579	85.323	16384	21647	0	624
75.622	82.654	16384	22041	0	624
72.160	75.911	16469	22173	0	624
69.780	70.790	16469	22173	0	624
71.042	68.482	16469	22173	0	624
73.999	67.544	16597	22041	0	624
76.632	68.770	16597	21515	0	624
76.343	69.492	16597	20594	0	624
73.639	68.121	16597	19541	0	624
71.223	66.643	16597	18884	0	624
70.934	65.669	16597	18752	0	624
70.213	62.784	16597	18752	0	624
68.229	61.486	16597	18620	0	624
63.938	59.574	16683	18489	0	624
60.728	59.466	16683	18226	0	624
58.601	58.817	16683	17962	0	624
56.509	56.978	16683	17305	0	624
53.805	52.687	16683	16647	0	624
47.999	46.195	16683	15990	0	624
41.904	39.380	16597	15463	0	624
39.957	34.908	16469	14937	0	624
39.704	34.151	16469	14148	0	624
40.101	35.269	16469	13490	0	624
37.036	37.829	16384	12832	0	624
31.554	38.586	16384	12306	0	624
25.352	39.272	16384	12042	0	624
20.123	36.314	16384	12174	0	624
18.969	32.023	16384	12569	0	624
18.716	26.794	16384	12963	0	624
19.113	22.358	16299	13227	0	624
20.231	21.854	16299	13358	0	624
23.260	25.316	16299	13621	0	624
26.830	29.607	16299	14016	0	624
30.220	34.187	16299	14411	0	624
32.744	34.728	16299	14806	0	624
32.384	34.043	16299	15069	0	624
33.934	33.610	16384	15595	0	624
36.098	32.059	16469	16121	0	624
35.485	30.436	16384	16778	1	316
31.807	27.732	16384	17699	0	316
23.657	21.096	16469	18489	0	316
13.884	16.589	16469	19015	0	316
7.537	13.235	16469	19278	0	316
7.285	12.297	16597	19278	0	316
11.648	13.235	16597	19147	0	316
16.805	16.372	16597	18489	0	316
20.231	19.582	16469	17568	0	316
20.700	22.683	16469	16647	0	316
19.293	25.460	16469	16121	0	316
17.454	25.424	16469	15595	0	316
15.903	22.070	16384	15332	0	316
14.749	18.175	16384	15200	0	316
14.425	15.543	16384	15200	0	316
15.182	15.687	16384	14806	0	316
19.654	17.923	16299	14279	0	316
22.972	19.329	16299	13621	0	316
21.096	16.048	16299	13358	0	316
12.369	8.439	16171	13227	0	316
-0.397	-1.046	16171	13095	0	316
-7.970	-4.832	16085	12700	0	316
-8.439	-3.498	16085	12306	0	316
-4.183	0.613	16085	12042	0	316
-2.416	1.515	16085	12042	0	316
-5.481	-2.488	16085	12174	0	316
-11.251	-8.583	15957	12174	0	316
-13.920	-12.514	15957	12569	0	316
-12.009	-12.838	15957	13227	0	316
-8.547	-10.458	15957	14016	0	316
-7.248	-12.009	15957	14937	0	316
-5.229	-14.064	15957	15858	0	316
-4.832	-14.100	15957	16647	0	316
-3.823	-14.353	15957	17305	0	316
-7.789	-13.776	16085	17962	0	316
-15.543	-16.264	16085	18620	0	316
-24.053	-21.421	16085	19147	0	316
-27.876	-25.748	16085	19541	0	316
-27.155	-27.299	16085	19936	0	316
-22.431	-25.316	16085	20068	0	316
-18.247	-21.168	16299	20199	0	316
-16.589	-20.050	16299	20199	0	316
-17.166	-19.473	16299	20199	0	316
-16.841	-22.142	16299	20331	0	316
-17.346	-25.460	16299	20462	0	316
-16.625	-28.994	16384	20331	0	316
-14.930	-28.309	16384	20068	0	316
-13.018	-26.974	16384	19805	0	316
-12.586	-23.512	16384	19410	0	316
-10.855	-22.286	16384	18884	0	316
-10.819	-21.204	16384	18357	0	316
-9.701	-22.142	16299	17436	0	316
-9.124	-21.060	16299	16384	0	316
-12.658	-22.286	16384	15463	0	316
-15.435	-23.404	16171	14806	0	316
-16.625	-24.991	16171	14411	0	316
-13.487	-25.352	16171	14411	0	316
-7.285	-21.457	16171	14542	0	316
-2.921	-17.274	16171	14542	0	316
-3.065	-15.435	16171	14806	0	316
-10.386	-18.572	16171	15069	0	316
-17.129	-23.224	16171	15332	0	316
-20.591	-26.614	16171	15463	0	316
-19.185	-24.198	16085	15463	0	316
-11.937	-17.995	16085	15463	0	316
-4.436	-12.189	16085	15463	0	316
-0.036	-9.881	16085	15595	0	316
0.252	-11.360	16085	15990	0	316
-2.777	-13.595	16171	16647	0	316
-6.888	-15.615	16171	17436	0	316
-9.773	-17.959	16171	17962	0	316
-8.511	-20.303	16299	18489	0	316
-6.599	-23.080	16299	18884	0	316
-3.931	-23.585	16299	19278	0	316
-4.580	-22.755	16384	19936	0	316
-8.799	-21.349	16384	20462	0	316
-14.245	-22.214	16469	20857	0	316
-21.168	-25.568	16469	20726	0	316
-26.217	-31.879	16469	20594	0	316
-30.689	-37.360	16597	20594	0	316
-32.636	-41.327	16597	20331	0	316
-32.997	-42.986	16597	19805	0	316
-31.194	-43.743	16597	18884	0	316
-27.047	-41.580	16597	17699	0	316
-24.378	-41.003	16597	17041	0	316
-22.791	-41.039	16597	16384	0	316
-25.460	-42.373	16597	15990	0	316
-32.348	-47.169	16469	15463	0	316
-39.272	-52.038	16469	14806	0	316
-43.960	-55.103	16469	14279	0	316
-43.779	-53.985	16469	14148	0	316
-37.721	-47.097	16469	14148	0	316
-28.994	-37.613	16469	14411	0	316
-22.827	-30.941	16469	14674	0	316
-18.933	-28.525	16469	14806	0	316
-20.159	-30.617	16469	14806	0	316
-22.899	-33.357	16469	14674	0	316
-24.089	-35.954	16469	14674	0	316
-24.775	-35.088	16469	14674	0	316
-22.503	-32.312	16469	14674	0	316
-18.536	-29.968	16469	14937	0	316
-15.759	-27.479	16469	15463	0	316
-11.648	-23.188	16469	15990	0	316
-9.629	-22.070	16597	16384	0	316
-8.511	-20.123	16597	16384	0	316
-11.792	-22.214	16597	16121	0	316
-16.877	-25.460	16469	15727	0	316
-20.014	-28.489	16384	15463	0	316
-17.743	-27.407	16469	15332	0	316
-11.468	-24.955	16469	15463	0	316
-3.606	-21.673	16469	15463	0	316
-0.252	-20.700	16469	15463	0	316
-5.914	-26.289	16469	15595	0	316
-13.631	-31.843	16469	15727	0	316
-19.762	-36.387	16469	15595	0	316
-20.555	-36.675	16469	15463	0	316
-16.841	-33.646	16469	15200	0	316
-14.136	-29.895	16299	14937	0	316
-14.569	-30.328	16384	14411	0	316
-17.815	-32.780	16384	13884	0	316
-20.627	-36.495	16299	13621	0	316
-20.483	-39.380	16299	13490	0	316
-18.139	-40.245	16299	13490	0	316
-15.651	-39.632	16299	13753	0	316
-15.182	-39.488	16299	14148	0	316
-16.877	-38.045	16299	14674	0	316
-19.690	-38.154	16299	15200	0	316
-20.519	-37.577	16299	15727	0	316
-21.565	-37.468	16384	15990	0	316
-21.926	-37.468	16299	16384	0	316
-21.168	-36.134	16299	16778	0	316
-22.395	-33.177	16299	17436	0	316
-20.050	-29.246	16299	17831	0	316
-15.867	-25.460	16299	17962	0	316
-10.746	-21.349	16299	18094	0	316
-5.734	-20.916	16299	17962	0	316
-6.635	-23.621	16299	17831	0	316
-11.864	-30.184	16299	17699	0	316
-21.493	-38.118	16299	17436	0	316
-30.184	-43.455	16299	17173	0	316
-36.423	-44.969	16299	16778	0	316
-38.262	-44.789	16299	16384	0	316
-37.865	-41.688	16171	16253	0	316
-36.062	-41.219	16171	15858	0	316
-32.420	-40.426	16171	15727	0	316
-26.938	-38.875	16171	15595	0	316
-22.647	-37.072	16171	15595	0	316
-18.500	-36.603	16171	15727	0	316
-17.418	-36.242	16171	15990	0	316
-18.356	-36.098	16171	16121	0	316
-17.274	-33.646	16171	16384	0	316
-14.281	-30.869	16171	16384	0	316
-9.701	-25.099	16171	16647	0	316
-4.832	-23.512	16171	16910	0	316
-2.560	-21.637	16171	17305	0	316
-4.364	-21.818	16171	17831	0	316
-6.383	-21.132	16299	18620	0	316
-8.150	-21.493	16299	19147	0	316
-8.871	-19.077	16299	19410	0	316
-6.203	-15.507	16299	19541	0	316
-3.173	-12.369	16299	19410	0	316
-1.587	-8.330	16384	19015	0	316
0.252	-7.970	16384	18620	0	316
-1.298	-9.268	16299	18094	0	316
-2.524	-12.009	16299	17568	1	656
-6.311	-15.975	16299	17173	0	656
-9.412	-18.969	16384	16778	0	656
-14.136	-24.486	16384	16384	0	656
-18.283	-29.246	16384	16121	0	656
-21.385	-33.213	16384	15990	0	656
-23.008	-35.918	16384	15990	0	656
-20.483	-34.728	16384	15858	0	656
-17.418	-32.384	16384	15858	0	656
-10.783	-25.893	16384	15858	0	656
-5.121	-20.195	16384	15990	0	656
0.505	-15.398	16384	16253	0	656
2.560	-13.307	16384	16384	0	656
2.741	-15.038	16469	16910	0	656
1.298	-16.048	16384	17305	0	656
1.947	-17.021	16384	17436	0	656
4.724	-14.461	16384	17436	0	656
9.737	-12.189	16384	17568	0	656
11.864	-10.458	16384	17568	0	656
11.937	-9.556	16469	17699	0	656
10.927	-9.881	16469	17962	0	656
8.330	-9.016	16469	18357	0	656
8.042	-9.268	16597	18620	0	656
6.924	-8.871	16597	18752	0	656
5.698	-10.169	16597	18884	0	656
5.013	-12.838	16683	18884	0	656
2.885	-13.848	16683	18489	0	656
1.911	-15.507	16683	17962	0	656
0.505	-13.018	16683	17436	0	656
2.092	-7.501	16683	16910	0	656
6.347	1.479	16683	16384	0	656
12.441	8.402	16597	15858	0	656
16.985	11.648	16597	15332	0	656
16.913	8.619	16597	15069	0	656
13.920	2.993	16597	14674	0	656
9.845	-1.010	16597	13884	0	656
9.773	0.577	16469	12832	0	656
11.071	6.744	16469	12174	0	656
13.704	12.658	16384	11911	0	656
15.831	18.356	16384	11911	0	656
17.851	21.998	16384	11911	0	656
20.664	26.217	16384	12042	0	656
24.162	28.128	16299	12174	0	656
26.217	28.345	16299	12569	0	656
26.794	24.198	16299	12569	0	656
24.414	21.998	16299	12569	0	656
23.008	22.178	16171	12832	0	656
23.116	25.496	16171	13095	0	656
23.476	31.879	16171	13621	0	656
26.397	33.610	16171	14148	0	656
26.722	32.780	16171	14806	0	656
27.191	29.607	16171	15200	0	656
26.938	27.155	16171	15463	0	656
26.542	26.289	16171	15727	0	656
25.279	27.479	16171	15858	0	656
27.083	28.164	16171	15990	0	656
26.866	29.318	16171	16121	0	656
29.463	31.735	16085	16253	0	656
31.626	32.780	16085	16384	0	656
31.374	34.115	16085	16647	0	656
31.410	33.069	16171	17173	0	656
31.049	29.751	16171	17962	0	656
30.436	24.558	16171	18884	0	656
27.335	20.014	16384	19673	0	656
24.053	17.238	16384	20331	0	656
19.329	15.435	16469	20726	0	656
16.480	16.300	16469	21252	0	656
15.759	16.589	16384	21515	0	656
14.425	14.641	16469	21647	0	656
11.720	10.169	16469	21647	0	656
6.780	3.246	16597	21647	0	656
5.554	-1.118	16597	21778	0	656
6.347	-1.406	16597	21910	0	656
9.629	0.541	16683	21910	0	656
10.314	3.318	16683	21647	0	656
10.097	4.147	16811	21252	0	656
7.609	4.652	16811	20462	0	656
8.511	4.868	16811	19673	0	656
12.117	6.888	16811	18884	0	656
18.824	11.215	16811	18094	1	316
25.171	13.740	16811	17436	0	316
29.859	16.589	16811	16647	0	316
28.561	17.310	16811	15990	0	316
24.486	15.939	16597	15200	0	316
20.014	13.523	16683	14411	0	316
18.608	12.946	16683	13753	0	316
21.493	11.973	16683	13227	0	316
27.443	12.910	16469	12700	0	316
29.571	11.828	16469	12174	0	316
28.561	8.799	16469	11911	0	316
25.099	4.616	16469	11911	0	316
22.719	1.731	16384	11911	0	316
21.096	0.685	16384	11911	0	316
19.401	0.216	16384	11911	0	316
16.300	0.000	16384	12174	0	316
12.117	-0.613	16384	12569	0	316
7.321	-2.885	16384	13358	0	316
4.760	-6.347	16384	14148	0	316
1.298	-9.629	16384	15069	0	316
-0.757	-12.622	16469	15858	0	316
-4.255	-13.884	16469	16384	0	316
-3.426	-8.979	16469	16910	0	316
0.793	-1.911	16469	17436	0	316
7.465	7.393	16597	17831	0	316
14.425	15.398	16597	17831	0	316
20.231	18.860	16597	17305	0	316
23.729	19.257	16469	16910	0	316
24.558	18.752	16469	16515	0	316
27.010	18.860	16469	16384	0	316
28.886	22.070	16469	16253	0	316
31.987	27.804	16469	15990	0	316
35.557	33.393	16469	15858	0	316
38.839	37.829	16469	15727	0	316
40.317	40.426	16469	15858	0	316
40.534	40.750	16469	16384	0	316
38.550	42.770	16469	16910	0	316
37.865	44.428	16597	17831	0	316
36.783	46.015	16597	18489	0	316
34.764	42.589	16683	18752	0	316
32.708	36.783	16683	18884	0	316
27.335	27.407	16683	18620	0	316
19.510	20.988	16683	18226	0	316
11.504	18.031	16683	17831	0	316
4.688	19.473	16683	17568	0	316
-1.623	21.601	16683	17173	0	316
-3.282	21.204	16683	16910	0	316
-3.823	19.365	16683	16515	0	316
-3.173	15.218	16683	16253	0	316
-1.767	13.451	16597	16121	0	316
0.252	15.218	16597	15990	0	316
6.022	21.241	16469	15595	0	316
13.235	26.361	16469	15069	0	316
21.457	29.246	16469	14674	0	316
28.886	27.876	16469	14411	0	316
31.122	23.873	16469	14411	0	316
30.400	20.772	16469	14542	0	316
27.876	19.005	16469	14674	0	316
22.972	16.372	16469	14937	0	316
19.870	15.795	16469	15200	0	316
17.815	14.100	16384	15200	0	316
16.913	16.769	16384	14937	0	316
17.851	22.250	16384	14806	0	316
19.546	30.220	16384	14674	0	316
18.897	33.393	16384	14542	0	316
16.300	31.987	16384	14411	0	316
10.530	25.568	16299	14542	0	316
0.685	14.749	16299	14937	0	316
-8.511	7.321	16384	15463	0	316
-15.038	5.806	16384	15990	0	316
-17.706	8.799	16384	16384	0	316
-16.120	13.812	16384	16647	0	316
-14.641	17.346	16384	17041	0	316
-14.172	16.516	16384	17699	0	316
-15.146	14.028	16469	18094	0	316
-16.552	12.982	16469	18357	0	316
-17.346	16.480	16469	18357	0	316
-16.408	22.034	16469	18620	0	316
-16.336	25.099	16469	18752	0	316
-16.949	23.981	16469	18620	0	316
-18.860	18.572	16469	18094	0	316
-20.375	13.343	16469	17173	0	316
-21.132	10.458	16469	16515	0	316
-21.132	13.018	16384	15990	0	316
-20.050	14.641	16384	15595	0	316
-20.447	15.471	16384	15069	0	316
-22.178	14.930	16299	14542	0	316
-25.316	15.651	16299	14148	0	316
-26.578	20.231	16299	13884	0	316
-30.292	22.647	16299	13753	0	316
-33.790	20.772	16171	13621	0	316
-39.416	11.648	16171	13358	0	316
-46.736	-2.705	16171	13358	0	316
-53.155	-13.307	16085	13490	0	316
-56.509	-16.408	16085	13621	0	316
-54.634	-12.622	16085	13621	0	316
-49.008	-4.039	16085	13884	0	316
-41.003	1.334	16171	14542	0	316
-35.485	0.938	16171	15463	0	316
-32.095	-3.101	16171	16384	0	316
-30.004	-8.258	16171	17173	0	316
-26.217	-8.222	16299	17699	0	316
-20.483	-2.921	16299	18094	0	316
-14.749	1.983	16299	18226	0	316
-11.143	3.642	16299	18357	0	316
-12.081	-1.010	16299	18620	0	316
-14.136	-7.176	16299	18752	0	316
-16.084	-11.107	16299	19015	0	316
-14.713	-7.501	16384	19147	0	316
-11.432	-0.397	16384	19278	0	316
-8.475	6.960	16384	19410	0	316
-5.265	12.441	16384	19541	0	316
-5.770	14.821	16384	19410	0	316
-5.554	14.389	16384	19147	0	316
-4.327	15.110	16384	18752	0	316
-3.642	15.831	16384	18489	0	316
-1.442	16.336	16384	18094	0	316
-0.325	15.471	16469	18094	0	316
-2.344	14.172	16469	18226	0	316
-6.058	9.376	16469	18357	0	316
-12.369	5.409	16469	18094	0	316
-20.952	0.938	16469	17568	0	316
-29.354	-4.183	16469	16778	0	316
-36.206	-10.350	16384	16121	0	316
-41.219	-18.897	16384	15332	0	316
-47.133	-26.758	16384	14937	0	316
-49.441	-33.213	16384	14674	0	316
-50.379	-31.951	16384	14674	0	316
-49.008	-28.597	16384	14674	0	316
-46.304	-24.378	16299	14542	0	316
-44.573	-23.476	16299	14411	0	316
-45.438	-22.972	16299	14411	0	316
-45.763	-23.368	16299	14674	0	316
-43.383	-21.421	16299	14937	0	316
-40.714	-19.473	16299	14937	0	316
-37.865	-19.690	16299	14937	0	316
-36.675	-20.591	16299	15069	0	316
-35.737	-21.565	16299	15463	0	316
-34.764	-19.546	16299	15727	0	316
-32.492	-17.382	16299	16121	0	316
-31.122	-16.264	16299	16515	0	316
-31.122	-17.670	16299	16910	0	316
-29.174	-19.365	16299	16647	0	316
-27.407	-21.421	16299	16384	0	316
-22.935	-21.818	16299	15858	0	316
-21.096	-20.880	16299	15595	0	316
-21.565	-22.972	16299	15463	0	316
-24.270	-27.371	16299	15595	0	316
-28.958	-34.151	16171	15595	0	316
-31.518	-40.029	16171	15332	0	316
-33.141	-40.894	16171	15069	0	316
-32.420	-37.973	16171	14937	0	316
-30.400	-32.456	16085	14674	0	316
-27.948	-29.859	16085	14542	0	316
-26.325	-31.554	16085	14411	0	316
-25.496	-35.233	16085	14148	0	316
-23.765	-37.216	15957	14148	0	316
-21.998	-36.351	15957	14411	0	316
-20.700	-34.475	15957	14806	0	316
-21.277	-33.357	16085	15200	0	316
-21.637	-34.043	16171	15595	0	316
-21.926	-34.980	16085	15858	0	316
-19.365	-34.656	16085	15990	0	316
-14.281	-31.085	16085	16121	0	316
-9.592	-28.309	16085	16253	0	316
-6.744	-26.830	16085	16384	0	316
-6.022	-26.253	16085	16910	0	316
-7.934	-27.768	16085	17305	0	316
-11.828	-29.138	16085	17831	0	316
-14.894	-30.076	16085	18357	0	316
-12.369	-29.679	16085	19015	0	316
-7.573	-27.119	16171	19541	0	316
-1.983	-25.460	16171	19936	0	316
-1.479	-25.171	16171	20199	0	316
-9.881	-30.040	16299	20462	0	316
-18.103	-37.937	16299	20726	0	316
-22.034	-44.428	16299	20726	0	316
-19.221	-45.618	16384	20726	0	316
-13.379	-43.779	16384	20462	0	316
-9.520	-38.406	16384	19673	0	316
-10.494	-35.016	16299	18752	0	316
-11.937	-33.862	16299	17831	0	316
-8.547	-32.925	16299	16910	1	728
-4.688	-31.338	16299	16121	0	728
0.000	-29.968	16171	15332	0	728
1.406	-30.977	16171	14542	0	728
0.108	-31.410	16171	14016	0	728
-1.442	-34.187	16171	13753	0	728
-2.056	-36.855	16171	13753	0	728
-1.983	-38.262	16171	13753	0	728
-2.957	-41.327	16171	13884	0	728
-3.931	-41.868	16171	13884	0	728
-6.203	-41.255	16171	14148	0	728
-6.563	-40.426	16171	14279	0	728
-4.580	-38.839	16171	14542	0	728
-0.469	-36.891	16171	14937	0	728
4.472	-34.656	16171	15595	0	728
7.140	-31.699	16171	16384	0	728
4.364	-31.230	16299	17173	0	728
0.721	-33.069	16299	18094	0	728
-2.921	-35.774	16384	19147	0	728
1.695	-36.675	16384	20331	0	728
11.792	-32.636	16469	21515	0	728
18.536	-25.676	16597	22568	0	728
18.464	-23.332	16683	23489	0	728
11.215	-24.414	16811	24015	0	728
2.164	-29.463	16811	23884	0	728
-2.596	-33.826	16896	23357	0	728
-3.246	-35.918	16896	22831	0	728
-3.534	-37.649	16896	22173	0	728
-8.222	-39.452	16896	21647	0	728
-13.956	-44.104	16896	20989	0	728
-17.310	-45.907	16896	20199	0	728
-17.382	-46.232	17025	19541	0	728
-14.497	-43.563	17025	18884	0	728
-12.405	-40.317	17025	17962	0	728
-8.511	-36.747	17025	17173	0	728
-5.193	-31.735	16896	16384	0	728
-0.144	-26.001	17025	15463	0	728
4.003	-21.132	16896	14542	0	728
4.075	-18.572	16811	13753	0	728
0.361	-19.834	16811	13227	0	728
-2.164	-21.673	16811	12569	0	728
1.082	-18.103	16811	12042	0	728
9.809	-10.746	16811	11779	0	728
20.303	-2.452	16683	11648	0	728
22.575	0.649	16683	11516	0	728
17.238	-3.282	16683	11516	0	728
5.373	-13.235	16683	11384	0	728
-1.154	-22.503	16597	11253	0	728
-5.013	-28.994	16597	10990	0	728
-5.698	-35.233	16597	10858	0	728
-9.917	-41.760	16597	10858	0	728
-15.254	-46.195	16469	11253	0	728
-18.031	-46.376	16469	11648	0	728
-15.651	-41.652	16469	12042	0	728
-10.242	-35.521	16469	12306	0	728
-7.645	-33.538	16469	12437	0	728
-8.763	-37.072	16384	12437	0	728
-12.117	-42.012	16384	12437	0	728
-12.550	-41.832	16384	12569	0	728
-8.402	-35.701	16299	12700	0	728
-0.829	-25.568	16299	13095	0	728
7.104	-17.887	16299	13490	0	728
13.235	-11.973	16299	14148	0	728
16.589	-9.989	16299	15069	0	728
17.743	-7.862	16384	16121	0	728
20.231	-3.498	16384	17041	0	728
24.666	3.354	16384	17831	0	728
29.246	10.566	16384	18357	0	728
34.115	18.067	16384	18489	0	728
35.990	22.431	16384	18226	0	728
33.141	23.224	16384	17962	0	728
29.427	18.860	16384	17831	0	728
25.965	12.946	16384	17568	0	728
26.433	8.979	16384	17173	0	728
27.227	7.032	16299	17041	0	728
28.994	5.373	16299	17041	0	728
27.191	5.013	16299	17041	0	728
24.558	2.308	16299	16778	0	728
20.267	0.938	16299	16384	0	728
17.129	-1.695	16299	16384	1	316
13.848	-5.950	16171	16384	0	316
10.242	-9.304	16171	16384	0	316
7.104	-12.874	16171	16384	0	316
6.022	-8.943	16171	16384	0	316
7.645	-2.200	16171	16384	0	316
11.360	5.049	16171	15990	0	316
11.756	9.484	16085	15595	0	316
11.756	8.907	16085	15463	0	316
10.566	12.441	16085	15595	0	316
11.360	18.933	16085	16121	0	316
17.346	30.040	16085	16384	0	316
25.063	38.478	16085	16515	0	316
33.249	43.779	16085	16647	0	316
38.370	44.861	16085	16910	0	316
40.534	44.392	16085	17436	0	316
41.291	43.058	16171	17699	0	316
40.786	42.553	16171	17699	0	316
37.865	39.668	16171	17568	0	316
33.934	37.036	16299	17436	0	316
29.571	35.485	16171	17436	0	316
24.342	34.367	16171	17436	0	316
21.998	31.662	16171	17305	0	316
16.877	26.217	16171	17305	0	316
9.845	17.382	16171	17436	0	316
-0.180	7.898	16171	17568	0	316
-9.989	-1.154	16171	17699	0	316
-19.798	-10.746	16299	17962	0	316
-26.289	-19.546	16299	18357	0	316
-28.741	-27.047	16299	18752	0	316
-30.184	-34.259	16299	19015	0	316
-29.968	-36.964	16384	19147	0	316
-27.010	-35.954	16384	19015	0	316
-26.145	-31.699	16384	19015	0	316
-25.243	-27.984	16384	18884	0	316
-25.784	-24.919	16384	18489	0	316
-24.955	-23.008	16384	17962	0	316
-22.755	-19.870	16384	17568	0	316
-16.120	-13.595	16384	17173	0	316
-9.340	-6.058	16384	16910	0	316
-3.101	-0.938	16384	16647	0	316
-2.200	1.947	16384	16778	0	316
-3.029	2.741	16384	16910	0	316
-6.203	5.373	16384	17041	0	316
-5.301	11.035	16384	16778	0	316
-2.741	15.687	16384	16384	0	316
0.613	18.824	16384	15990	0	316
4.832	20.050	16384	15727	0	316
7.393	19.654	16384	15858	0	316
8.799	18.788	16384	15990	0	316
7.104	14.353	16384	16121	0	316
1.442	8.294	16384	16121	0	316
-5.121	3.426	16384	16121	0	316
-11.648	-0.036	16384	15990	0	316
-16.589	-1.551	16469	15858	0	316
-19.293	-3.282	16469	16121	0	316
-22.539	-8.439	16469	16121	0	316
-27.984	-12.730	16469	15858	0	316
-33.610	-15.723	16384	15595	0	316
-40.101	-17.670	16384	15332	0	316
-45.438	-18.824	16384	14806	0	316
-48.828	-21.313	16384	14279	0	316
-49.189	-22.106	16299	13753	0	316
-44.032	-19.113	16299	13358	0	316
-37.937	-11.792	16299	13358	0	316
-30.653	-4.544	16299	13490	0	316
-26.433	0.361	16299	13621	0	316
-26.037	1.370	16171	13884	0	316
-24.558	1.370	16171	13884	0	316
-23.044	3.859	16171	14016	0	316
-17.887	9.052	16171	14279	0	316
-13.018	15.687	16171	14411	0	316
-11.504	19.149	16171	14674	0	316
-12.225	18.644	16171	14937	0	316
-16.769	14.749	16171	15332	0	316
-18.860	10.133	16085	15727	0	316
-17.815	5.914	16085	15727	0	316
-13.451	5.193	16085	15727	0	316
-9.773	5.121	16085	15595	0	316
-6.311	6.058	16085	15595	0	316
-8.222	6.239	16171	15727	0	316
-11.576	1.803	16085	15727	0	316
-16.625	-6.022	16085	15858	0	316
-21.241	-15.615	16085	16121	0	316
-23.152	-22.575	16171	16647	0	316
-21.493	-23.981	16171	17436	0	316
-18.320	-21.277	16171	18094	0	316
-16.012	-18.211	16171	18357	0	316
-15.038	-18.824	16171	18620	0	316
-18.500	-19.870	16171	18752	0	316
-22.647	-21.132	16299	19015	0	316
-23.837	-18.247	16299	19278	0	316
-23.512	-15.795	16299	19410	0	316
-21.673	-15.543	16299	19541	0	316
-22.719	-18.067	16299	19541	0	316
-24.378	-21.385	16384	19410	0	316
-27.155	-21.313	16384	19541	0	316
-30.040	-18.572	16384	19805	0	316
-31.049	-15.074	16384	19805	0	316
-29.931	-12.982	16469	19805	0	316
-30.292	-13.451	16469	19936	0	316
-28.669	-12.441	16469	20068	0	316
-25.929	-11.756	16597	19936	0	316
-24.162	-9.052	16597	19673	0	316
-22.575	-5.121	16597	19278	0	316
-22.286	-3.029	16597	18884	0	316
-24.811	-5.157	16597	18226	0	316
-27.407	-6.996	16597	17305	0	316
-29.643	-7.104	16597	16515	0	316
-29.427	-6.599	16597	15858	0	316
-27.479	-3.101	16469	15069	0	316
-26.578	-2.669	16469	14148	0	316
-27.227	-5.409	16384	13227	0	316
-29.282	-9.701	16384	12700	0	316
-29.968	-9.520	16384	12700	0	316
-27.768	-6.744	16384	12963	0	316
-24.342	-3.823	16384	13358	0	316
-22.286	-3.029	16384	13884	0	316
-22.539	-6.383	16384	14411	0	316
-24.522	-9.520	16384	14806	0	316
-26.397	-10.819	16384	15069	0	316
-27.984	-12.081	16384	15463	0	316
-31.446	-14.858	16469	15990	0	316
-36.603	-22.106	16469	16384	0	316
-42.986	-30.472	16469	16910	0	316
-49.297	-36.855	16469	17305	0	316
-50.343	-38.118	16597	17568	0	316
-48.539	-33.754	16597	17699	0	316
-43.960	-27.515	16597	17962	0	316
-38.262	-21.637	16597	18620	0	316
-33.538	-19.978	16597	19147	0	316
-29.210	-19.041	16683	19805	0	316
-25.171	-19.329	16683	20199	0	316
-21.349	-18.175	16811	20331	0	316
-20.627	-16.012	16811	19936	0	316
-21.709	-13.776	16811	19410	0	316
-24.125	-14.713	16811	18752	0	316
-26.938	-15.290	16811	17962	0	316
-28.741	-16.661	16811	17173	0	316
-28.705	-17.274	16811	16384	0	316
-26.506	-16.805	16683	15727	0	316
-23.693	-15.867	16683	14806	0	316
-18.933	-13.343	16683	14148	0	316
-13.920	-11.071	16597	13621	0	316
-13.235	-9.376	16597	13358	0	316
-14.641	-10.314	16597	13358	0	316
-19.437	-14.353	16597	13490	0	316
-24.919	-17.634	16597	13753	0	316
-30.905	-21.349	16469	13753	0	316
-36.891	-26.866	16469	13753	0	316
-44.356	-31.446	16469	13490	0	316
-49.982	-38.767	16469	13095	0	316
-54.237	-43.599	16384	12700	0	316
-53.913	-46.051	16384	12437	0	316
-52.939	-45.618	16384	12569	0	316
-49.080	-44.789	16299	12700	0	316
-47.313	-45.510	16299	12832	0	316
-43.707	-43.707	16299	13227	0	316
-38.190	-40.894	16299	13753	0	316
-32.384	-34.908	16299	14016	0	316
-28.309	-30.400	16384	14411	0	316
-25.352	-28.489	16384	14937	0	316
-23.296	-26.650	16384	15595	0	316
-16.769	-24.234	16384	15990	0	316
-6.671	-16.985	16384	16384	0	316
2.993	-8.907	16384	16384	0	316
10.494	-4.364	16299	15990	0	316
9.917	-4.327	16299	15463	0	316
7.609	-7.465	16299	15200	0	316
6.780	-6.347	16299	15332	0	316
9.629	-1.515	16299	15727	0	316
12.225	3.642	16299	16121	0	316
12.009	3.137	16299	16384	0	316
6.996	-3.065	16299	16515	0	316
0.216	-10.169	16384	16910	0	316
-2.921	-14.136	16299	17173	0	316
-2.308	-11.360	16299	17305	0	316
-0.577	-7.934	16299	17173	0	316
-2.236	-10.061	16299	17173	0	316
-9.052	-18.031	16171	17173	0	316
-16.228	-27.371	16171	16778	0	316
-21.096	-31.951	16171	16253	0	316
-20.267	-32.600	16085	15858	0	316
-18.788	-29.823	16085	15727	0	316
-17.129	-28.597	16085	15727	0	316
-16.625	-27.984	16085	15990	0	316
-15.543	-28.092	16085	16384	0	316
-11.684	-26.217	16085	17041	0	316
-9.376	-25.027	16171	17699	0	316
-6.924	-24.666	16171	18357	0	316
-7.537	-26.506	16171	18884	0	316
-6.491	-25.460	16171	19278	0	316
-6.671	-24.775	16299	19805	0	316
-6.203	-24.414	16299	20068	0	316
-8.402	-26.109	16299	20068	0	316
-11.684	-30.292	16299	19805	0	316
-13.740	-32.672	16299	19410	0	316
-13.487	-31.410	16299	18752	0	316
-15.398	-27.876	16299	18094	0	316
-16.913	-26.650	16299	17568	1	796
-17.995	-25.460	16299	17436	0	796
-15.759	-27.804	16299	17568	0	796
-11.756	-30.220	16299	17568	0	796
-10.674	-34.006	16299	17568	0	796
-16.877	-38.983	16299	17436	0	796
-26.722	-44.104	16469	17305	0	796
-34.511	-48.179	16384	17041	0	796
-37.000	-49.225	16299	16647	0	796
-36.459	-49.261	16384	16384	0	796
-39.127	-54.634	16384	16121	0	796
-46.051	-61.233	16384	16121	0	796
-54.237	-68.878	16384	16121	0	796
-56.185	-71.980	16384	16253	0	796
-51.172	-70.249	16384	16253	0	796
-42.878	-65.525	16384	16121	0	796
-35.413	-61.702	16384	15595	0	796
-32.276	-60.043	16384	14937	0	796
-32.961	-59.286	16299	14279	0	796
-34.656	-58.997	16299	13621	0	796
-34.800	-57.591	16299	13095	0	796
-32.312	-54.886	16171	12832	0	796
-29.318	-52.975	16171	12700	0	796
-26.433	-51.821	16171	12700	0	796
-26.938	-52.074	16171	12832	0	796
-26.542	-52.903	16085	13095	0	796
-26.830	-53.336	16085	13358	0	796
-25.207	-52.795	16085	13621	0	796
-24.414	-52.434	16085	13884	0	796
-23.981	-52.218	16085	14411	0	796
-24.089	-53.011	16085	15069	0	796
-24.450	-53.191	16085	15858	0	796
-23.404	-53.660	16085	16910	0	796
-24.558	-53.949	16171	17962	0	796
-24.234	-54.093	16171	18620	0	796
-24.486	-54.922	16171	19015	0	796
-24.811	-54.850	16171	19147	0	796
-24.558	-55.680	16299	19278	0	796
-27.155	-57.663	16299	19278	0	796
-30.220	-59.971	16299	19015	0	796
-32.925	-62.568	16299	18620	0	796
-33.357	-63.000	16299	18489	0	796
-31.987	-63.686	16299	18226	0	796
-29.679	-63.794	16299	18094	0	796
-29.102	-64.226	16299	18094	0	796
-29.715	-66.138	16299	17962	0	796
-30.076	-65.380	16299	17699	0	796
-30.725	-65.128	16299	17699	0	796
-28.092	-61.738	16299	17962	0	796
-23.332	-57.988	16299	18226	0	796
-16.372	-52.578	16384	18357	0	796
-10.350	-47.349	16384	18489	0	796
-5.301	-43.743	16384	18226	0	796
-2.560	-40.389	16384	17831	0	796
-4.111	-40.966	16384	17305	0	796
-6.419	-42.301	16384	16778	0	796
-9.268	-43.347	16299	16253	0	796
-10.710	-44.933	16384	15463	0	796
-9.340	-44.248	16384	14937	0	796
-8.330	-44.140	16384	14674	0	796
-6.671	-42.120	16384	14542	0	796
-8.294	-43.130	16299	14411	0	796
-8.979	-44.501	16299	14411	0	796
-12.802	-48.143	16299	14806	0	796
-14.245	-51.136	16299	15069	0	796
-17.418	-52.614	16384	15332	0	796
-19.906	-51.641	16384	15463	0	796
-22.611	-50.595	16384	15858	0	796
-28.164	-52.578	16384	16384	0	796
-33.934	-55.536	16384	16910	0	796
-39.416	-60.620	16469	17436	0	796
-40.534	-60.728	16469	17962	0	796
-33.574	-54.490	16469	18357	0	796
-23.116	-45.691	16469	18357	0	796
-14.533	-38.586	16469	18094	0	796
-13.559	-35.593	16384	17831	0	796
-18.320	-38.911	16469	17831	0	796
-23.585	-41.616	16469	17699	0	796
-22.683	-42.481	16469	17699	0	796
-14.425	-35.882	16469	17699	0	796
-2.200	-26.037	16469	17831	0	796
8.439	-14.461	16469	17831	0	796
15.723	-6.491	16597	17962	0	796
18.608	-1.154	16597	18094	0	796
18.933	-0.757	16597	18094	0	796
15.579	-2.560	16597	17962	0	796
11.973	-6.744	16597	17831	0	796
6.419	-10.314	16683	17699	0	796
2.452	-14.785	16683	17173	0	796
-0.036	-16.769	16597	16384	0	796
-1.190	-17.670	16597	15595	0	796
-1.947	-18.211	16597	15069	0	796
-4.544	-21.349	16597	14674	0	796
-7.321	-25.784	16597	14411	0	796
-12.333	-30.508	16597	14411	0	796
-17.346	-35.882	16597	14542	0	796
-21.709	-38.947	16597	14542	0	796
-23.621	-41.003	16597	14542	0	796
-25.027	-42.842	16597	14674	0	796
-24.234	-41.976	16597	15200	0	796
-22.755	-38.803	16597	15858	0	796
-19.906	-35.485	16597	16384	0	796
-16.516	-29.823	16597	16384	0	796
-11.251	-21.890	16597	16384	0	796
-3.859	-14.713	16597	16384	0	796
3.210	-7.934	16683	16384	0	796
8.439	-2.452	16597	16647	0	796
10.061	-1.731	16597	17041	0	796
10.422	-0.721	16597	16910	0	796
7.717	0.144	16597	16647	0	796
8.366	2.380	16597	16515	0	796
9.232	4.724	16597	16384	0	796
11.251	8.114	16597	16384	0	796
13.631	7.934	16597	16384	0	796
14.641	9.088	16597	16384	0	796
16.913	8.727	16597	16253	0	796
18.139	8.835	16597	15858	0	796
16.120	7.104	16597	15200	0	796
11.071	4.255	16597	14806	0	796
4.255	-0.793	16597	14806	0	796
-4.075	-6.708	16597	14937	0	796
-11.720	-11.648	16469	15200	0	796
-15.687	-15.867	16469	15200	0	796
-20.159	-17.743	16469	14937	0	796
-21.854	-21.673	16469	14806	0	796
-22.214	-22.358	16469	14411	0	796
-17.238	-21.168	16469	14148	0	796
-9.268	-16.913	16384	13884	0	796
-0.577	-11.900	16384	13621	0	796
5.842	-9.304	16384	13621	0	796
5.950	-9.665	16299	13621	0	796
3.534	-12.405	16299	13753	0	796
0.829	-12.369	16299	13884	0	796
2.705	-6.816	16299	13884	0	796
7.970	1.875	16171	13753	0	796
12.189	8.943	16171	13884	0	796
13.631	10.097	16171	14016	0	796
9.845	6.816	16171	14279	0	796
3.426	0.505	16171	14806	0	796
-2.308	-5.229	16171	15069	0	796
-7.717	-7.212	16085	14937	0	796
-9.196	-9.088	16085	14674	0	796
-10.314	-7.212	16085	14674	0	796
-9.773	-6.022	16085	15069	0	796
-9.917	-4.364	16085	15727	0	796
-10.278	-4.075	16085	16384	0	796
-11.143	-4.652	16085	16910	0	796
-11.900	-7.898	16171	17436	0	796
-10.386	-8.979	16171	17831	0	796
-9.448	-10.169	16171	18489	0	796
-8.006	-9.917	16299	19410	0	796
-9.016	-10.097	16299	20199	0	796
-11.396	-8.799	16299	20594	0	796
-15.146	-9.629	16384	20857	0	796
-17.490	-9.989	16384	21120	0	796
-19.293	-10.855	16384	21252	0	796
-19.654	-11.648	16469	21384	0	796
-18.392	-10.602	16469	21384	0	796
-16.733	-10.530	16469	20857	0	796
-15.182	-10.242	16469	20068	0	796
-14.749	-10.242	16469	18884	0	796
-15.759	-11.937	16384	18094	0	796
-17.562	-11.468	16384	17305	1	648
-18.392	-12.261	16384	16647	0	648
-17.202	-12.081	16384	15990	0	648
-15.182	-10.061	16384	15595	0	648
-12.081	-10.242	16299	15463	0	648
-11.937	-10.133	16299	15595	0	648
-13.523	-12.802	16299	15595	0	648
-17.454	-17.706	16299	15463	0	648
-22.755	-24.198	16299	15595	0	648
-27.407	-29.174	16299	15463	0	648
-31.085	-31.122	16299	15200	0	648
-30.364	-26.361	16299	14674	0	648
-27.443	-17.382	16171	14016	0	648
-22.647	-6.491	16171	13621	0	648
-18.644	-0.721	16171	13358	0	648
-20.303	-2.019	16085	13227	0	648
-25.388	-7.429	16085	13095	0	648
-30.653	-10.746	16085	13095	0	648
-31.338	-7.898	16085	13227	0	648
-28.886	0.685	15957	13490	0	648
-26.325	6.780	15957	13884	0	648
-26.217	6.599	15957	14411	0	648
-32.744	0.577	15957	14937	0	648
-40.245	-5.806	15957	15332	0	648
-44.212	-10.746	15957	15727	0	648
-47.458	-11.287	15957	16121	0	648
-47.061	-11.107	16085	16384	0	648
-46.195	-11.143	16085	16910	0	648
-46.989	-13.271	16299	17436	0	648
-47.133	-14.245	16171	18226	0	648
-47.494	-16.661	16171	18752	0	648
-49.333	-18.860	16171	19015	0	648
-49.116	-21.601	16299	19278	0	648
-49.369	-24.053	16299	19410	0	648
-47.602	-24.630	16299	19541	0	648
-46.412	-25.388	16299	19541	0	648
-43.202	-23.512	16299	19541	0	648
-41.652	-20.123	16299	19410	0	648
-39.488	-18.536	16299	19147	0	648
-38.045	-16.336	16384	18884	0	648
-35.629	-15.398	16384	18620	0	648
-32.348	-13.127	16384	18620	0	648
-28.705	-10.061	16384	18752	0	648
-25.027	-7.176	16384	18620	0	648
-23.512	-6.599	16384	18357	0	648
-24.558	-9.953	16384	18226	0	648
-28.561	-16.264	16469	18357	0	648
-33.141	-20.375	16469	18752	0	648
-35.305	-21.962	16469	19015	0	648
-35.269	-19.726	16597	18884	0	648
-32.420	-16.697	16597	18489	0	648
-28.922	-14.208	16597	17962	0	648
-26.289	-14.208	16597	17699	0	648
-24.378	-14.966	16597	17305	0	648
-24.847	-16.552	16469	16910	0	648
-25.135	-18.500	16597	16515	0	648
-29.499	-21.168	16597	16384	0	648
-32.708	-23.657	16597	16121	0	648
-31.843	-24.919	16597	15858	0	648
-26.542	-22.863	16469	15727	0	648
-19.293	-21.457	16469	15727	0	648
-17.670	-23.152	16469	15332	0	648
-23.332	-29.246	16469	14937	0	648
-31.771	-36.928	16469	14806	0	648
-35.160	-41.724	16469	14411	0	648
-30.689	-41.507	16469	14148	0	648
-20.555	-38.695	16469	14148	0	648
-13.018	-36.206	16469	14411	0	648
-12.838	-37.505	16469	14806	0	648
-15.579	-39.704	16469	15332	0	648
-18.428	-42.373	16469	15858	0	648
-18.752	-43.887	16469	16253	0	648
-19.077	-47.277	16597	16384	0	648
-22.467	-51.929	16597	16253	0	648
-28.958	-55.932	16597	16121	0	648
-33.682	-55.463	16597	16384	0	648
-34.331	-50.956	16597	16515	0	648
-30.184	-44.861	16597	16647	0	648
-24.702	-40.317	16597	16778	0	648
-22.539	-37.649	16597	16910	0	648
-23.765	-37.036	16683	17041	0	648
-24.775	-34.115	16683	17173	0	648
-25.568	-31.049	16683	16778	0	648
-21.601	-27.624	16683	16384	0	648
-15.687	-26.325	16683	16384	0	648
-9.556	-23.368	16683	16253	0	648
-5.734	-21.854	16683	15990	0	648
-5.013	-20.483	16683	15727	0	648
-6.167	-20.952	16597	15727	0	648
-10.097	-22.358	16597	15463	0	648
-11.287	-24.522	16469	15069	0	648
-12.586	-24.594	16469	14542	0	648
-13.271	-23.152	16469	14148	0	648
-11.792	-22.575	16469	14016	0	648
-12.766	-21.529	16384	14016	0	648
-13.307	-22.358	16384	14016	0	648
-15.038	-22.214	16384	13884	0	648
-15.651	-23.152	16384	13621	0	648
-16.913	-23.188	16299	13227	0	648
-17.057	-24.414	16299	12832	0	648
-16.625	-24.919	16299	12832	0	648
-16.012	-23.188	16171	13095	0	648
-14.389	-18.572	16299	13490	0	648
-11.937	-13.415	16299	13884	0	648
-9.160	-9.665	16299	14411	0	648
-4.977	-8.186	16299	15200	0	648
-0.072	-7.393	16299	15858	0	648
4.760	-6.131	16299	16384	0	648
8.258	-5.265	16384	16778	0	648
11.432	-2.128	16384	17173	0	648
12.910	-0.216	16384	17568	0	648
15.435	1.875	16384	17962	0	648
18.752	5.878	16384	18489	0	648
20.988	8.402	16384	18884	0	648
20.808	11.576	16469	19015	0	648
19.293	12.766	16469	18884	0	648
18.788	11.035	16469	18489	0	648
17.274	9.304	16384	17962	0	648
14.821	3.750	16384	17436	0	648
9.268	-0.469	16384	17041	0	648
3.642	-4.075	16384	16778	0	648
-2.488	-2.705	16384	16647	0	648
-3.137	-0.757	16384	16515	0	648
-2.777	1.334	16384	16515	0	648
-1.731	2.560	16384	16384	0	648
-2.416	1.118	16299	16253	0	648
-3.137	0.216	16299	16121	0	648
-3.246	1.118	16299	16121	0	648
-1.803	2.669	16299	16384	0	648
0.685	5.517	16384	16778	0	648
1.731	5.481	16384	17173	0	648
2.488	4.111	16384	17436	0	648
3.246	3.606	16384	17436	0	648
3.101	1.515	16384	17173	0	648
2.128	-0.108	16384	17041	0	648
0.902	-0.938	16384	16647	0	648
-1.370	-2.272	16299	16121	0	648
-2.092	-1.839	16299	15595	0	648
0.325	-0.974	16299	15332	0	648
3.750	0.757	16299	15200	0	648
8.511	0.757	16299	15332	0	648
9.124	0.000	16299	15595	0	648
8.366	-2.452	16299	15727	0	648
5.049	-4.832	16299	15990	0	648
2.056	-6.022	16299	16253	0	648
1.334	-5.013	16299	16384	0	648
2.849	-4.796	16299	16253	0	648
3.859	-3.390	16171	15727	0	648
2.488	-5.301	16171	15332	0	648
-0.541	-8.727	16171	15463	0	648
-5.481	-13.343	16171	15727	0	648
-7.934	-15.903	16171	16253	0	648
-8.979	-17.129	16171	16515	0	648
-6.311	-15.903	16171	16647	0	648
-4.075	-13.163	16171	16778	0	648
-0.108	-8.150	16299	17041	0	648
2.777	-4.616	16299	17568	0	648
4.436	-1.190	16299	18226	0	648
4.977	0.288	16299	18620	0	648
2.416	-0.108	16384	19015	0	648
0.072	-1.118	16384	19278	0	648
-1.154	-1.839	16384	19541	0	648
-0.613	-0.721	16469	19541	0	648
0.685	0.649	16469	19278	0	648
2.380	2.416	16469	19147	0	648
2.524	1.587	16469	19147	0	648
0.829	-0.577	16469	19147	0	648
-1.190	-3.931	16597	19015	1	668
-2.488	-5.481	16597	18620	0	668
-2.128	-4.688	16597	18094	0	668
0.144	-3.137	16597	17568	0	668
2.344	0.252	16597	17173	0	668
2.849	1.695	16597	16910	0	668
1.479	1.334	16597	16647	0	668
-1.370	1.334	16597	16253	0	668
-2.993	0.577	16597	15727	0	668
-2.560	0.469	16597	15332	0	668
-0.938	2.019	16469	15200	0	668
1.262	2.092	16469	15200	0	668
2.092	1.587	16469	15069	0	668
2.560	0.577	16469	14937	0	668
2.957	-1.082	16469	14674	0	668
1.623	-2.380	16469	14279	0	668
0.902	-3.642	16469	14016	0	668
-0.108	-6.599	16469	14016	0	668
-1.587	-8.619	16469	14148	0	668
-2.380	-10.566	16469	14411	0	668
-2.813	-9.737	16469	14674	0	668
-3.714	-9.376	16469	15200	0	668
-4.868	-8.366	16469	15858	0	668
-6.203	-10.494	16469	16253	0	668
-6.383	-11.720	16384	16384	0	668
-6.491	-14.208	16469	16647	0	668
-6.852	-15.362	16469	16910	0	668
-5.229	-15.038	16469	16778	0	668
-3.606	-12.369	16469	16778	0	668
-0.397	-7.825	16469	17041	0	668
1.911	-3.354	16469	17305	0	668
2.308	0.036	16469	17173	0	668
-0.180	0.000	16469	17173	0	668
-4.400	-2.813	16597	17305	0	668
-6.203	-5.806	16597	17436	0	668
-6.852	-7.321	16597	17568	0	668
-5.085	-9.665	16597	17436	0	668
-3.570	-9.556	16597	17041	0	668
-3.282	-9.412	16597	16647	0	668
-2.849	-8.114	16597	16384	0	668
-4.075	-7.248	16597	16253	0	668
-4.364	-6.058	16597	15858	0	668
-6.888	-5.662	16469	15463	0	668
-8.150	-7.032	16469	15069	0	668
-9.881	-8.258	16469	14674	0	668
-11.973	-11.648	16469	14148	0	668
-14.100	-15.146	16384	13621	0	668
-16.012	-19.221	16384	13095	0	668
-16.589	-19.834	16299	12700	0	668
-15.903	-18.067	16299	12306	0	668
-13.523	-13.776	16299	12042	0	668
-10.458	-7.609	16171	12042	0	668
-7.248	-3.750	16171	12700	0	668
-3.137	-0.577	16171	13490	0	668
1.442	0.685	16171	14279	0	668
5.554	1.406	16299	15069	0	668
7.357	2.885	16299	15858	0	668
8.907	5.806	16299	16384	0	668
7.609	7.212	16299	16910	0	668
6.094	7.285	16299	17436	0	668
5.085	7.789	16299	17831	0	668
4.075	6.203	16299	17962	0	668
6.599	6.275	16299	18094	0	668
8.258	6.455	16384	18094	0	668
10.097	5.950	16384	18489	0	668
8.114	5.337	16384	19015	0	668
3.426	3.210	16384	19541	0	668
0.829	1.731	16469	19805	0	668
-1.442	1.731	16469	20068	0	668
-0.721	2.164	16597	20594	0	668
0.469	2.633	16597	21384	0	668
1.515	2.957	16683	22041	0	668
2.128	3.642	16683	22173	0	668
3.787	3.787	16811	21910	0	668
7.212	6.599	16811	21120	0	668
9.520	8.547	16811	20199	0	668
8.727	9.160	16811	19410	0	668
6.311	6.924	16811	18884	0	668
0.938	4.003	16811	18752	0	668
-2.885	1.551	16811	18620	1	316
-2.669	1.551	16896	18226	0	316
-1.082	4.183	16896	17568	0	316
2.705	7.573	16811	17041	0	316
7.068	12.153	16811	16515	0	316
9.809	15.723	16811	16121	0	316
14.064	17.959	16811	15727	0	316
19.005	20.375	16811	15463	0	316
24.306	22.683	16811	15069	0	316
27.804	24.883	16811	14411	0	316
30.581	27.227	16683	13753	0	316
29.679	27.696	16683	13095	0	316
28.669	29.535	16683	12832	0	316
28.777	32.023	16683	12963	0	316
29.859	38.406	16683	12963	0	316
33.177	46.412	16683	12963	0	316
35.413	50.920	16597	12832	0	316
35.160	52.506	16597	12569	0	316
33.249	50.415	16597	12437	0	316
31.410	50.090	16597	12174	0	316
33.033	53.696	16384	12174	0	316
39.488	59.755	16384	12174	0	316
50.523	64.803	16384	12306	0	316
62.748	69.095	16299	12437	0	316
71.799	72.304	16299	12437	0	316
73.819	75.045	16384	12437	0	316
69.708	76.776	16384	12437	0	316
65.380	75.658	16299	12700	0	316
62.495	71.583	16299	13095	0	316
66.210	66.354	16299	13490	0	316
72.196	65.597	16299	14016	0	316
74.288	64.263	16299	14542	0	316
69.960	63.469	16299	15069	0	316
61.702	58.709	16299	15463	0	316
52.326	49.585	16299	15858	0	316
46.592	40.606	16171	16121	0	316
43.274	32.167	16171	16384	0	316
40.498	27.515	16171	16778	0	316
38.514	25.496	16299	17305	0	316
35.990	27.768	16299	17699	0	316
34.295	30.076	16299	17962	0	316
32.672	32.456	16299	18226	0	316
30.040	31.518	16299	18357	0	316
26.361	27.083	16299	18489	0	316
27.047	20.880	16299	18489	0	316
30.833	17.418	16299	18489	0	316
36.134	18.103	16299	18357	0	316
38.731	21.890	16299	17962	0	316
33.429	24.486	16299	17831	0	316
27.263	26.470	16299	17962	0	316
21.313	24.162	16299	18357	0	316
21.385	22.214	16299	18357	0	316
23.585	18.897	16299	18094	0	316
24.342	15.435	16299	17699	0	316
26.325	13.884	16299	17568	0	316
26.542	15.110	16299	17436	0	316
30.364	18.464	16171	17041	0	316
33.249	24.991	16171	16910	0	316
31.374	26.794	16171	16910	0	316
28.056	24.414	16171	17041	0	316
26.181	18.824	16299	17041	0	316
27.660	13.956	16299	17305	0	316
32.348	13.704	16299	17305	0	316
35.521	15.002	16171	16910	0	316
32.528	16.805	16171	16384	0	316
23.549	14.677	16171	15990	0	316
15.795	8.619	16171	15858	0	316
9.124	1.731	16171	15858	0	316
8.907	-2.056	16171	15858	0	316
11.071	-2.777	16171	15595	0	316
13.307	-1.154	16171	15332	0	316
12.946	-0.036	16171	14937	0	316
12.910	1.334	16171	14411	0	316
11.973	2.957	16171	13884	0	316
14.353	3.823	16085	13621	0	316
15.543	5.698	15957	13358	0	316
14.569	4.291	15957	13358	0	316
12.369	1.587	15957	13490	0	316
8.078	-2.849	15957	13884	0	316
7.032	-6.455	15957	14674	0	316
8.006	-6.816	15957	15727	0	316
10.638	-5.373	15957	16384	0	316
13.920	-0.793	15957	16778	0	316
14.605	4.544	15957	17173	0	316
13.379	7.825	16085	17568	0	316
12.946	8.655	16085	18094	0	316
9.773	5.481	16085	18489	0	316
6.671	-0.974	16085	18884	0	316
2.669	-7.068	16171	19147	0	316
-2.993	-11.468	16299	19278	0	316
-7.176	-13.235	16299	19410	0	316
-8.763	-12.694	16299	19673	0	316
-8.799	-9.448	16299	20068	0	316
-6.671	-7.357	16384	20594	0	316
-5.626	-6.671	16469	21252	0	316
-5.157	-6.094	16469	21778	0	316
-4.400	-8.006	16469	21778	0	316
-4.724	-8.907	16597	21384	0	316
-4.291	-9.592	16597	20857	0	316
-3.570	-8.078	16597	20331	0	316
-2.921	-7.104	16469	19673	0	316
-1.442	-5.157	16469	19278	1	404
-0.469	-5.301	16597	18884	0	404
0.974	-5.193	16597	18489	0	404
0.793	-7.068	16597	17962	0	404
-0.144	-10.963	16597	17436	0	404
-4.364	-15.435	16597	16910	0	404
-9.520	-19.618	16597	16384	0	404
-13.956	-21.601	16597	15990	0	404
-16.408	-21.709	16469	15200	0	404
-14.930	-18.788	16469	14411	0	404
-11.251	-16.264	16469	13621	0	404
-9.737	-15.831	16384	12832	0	404
-9.160	-16.048	16384	12437	0	404
-9.773	-15.326	16384	11911	0	404
-6.924	-13.848	16299	11648	0	404
-4.219	-10.602	16299	11516	0	404
-1.659	-8.547	16299	11516	0	404
-1.298	-8.150	16171	11384	0	404
-3.570	-11.937	16171	11253	0	404
-3.534	-12.838	16171	11384	0	404
-0.685	-13.343	16171	11648	0	404
3.282	-10.783	16085	11911	0	404
4.904	-7.393	16085	12306	0	404
5.698	-4.255	16085	12700	0	404
4.472	-1.298	16171	13227	0	404
6.167	0.433	16171	13884	0	404
6.563	-0.974	16171	14542	0	404
6.058	-4.472	16171	14937	0	404
1.515	-7.934	16171	15332	0	404
-2.560	-11.107	16171	15727	0	404
-4.039	-10.746	16171	15990	0	404
-4.291	-9.448	16085	15990	0	404
-1.190	-8.655	16085	15727	0	404
-0.361	-7.609	16085	15727	0	404
-2.019	-7.717	16085	15990	0	404
-5.049	-8.402	16085	16253	0	404
-7.321	-10.169	16085	16515	0	404
-8.727	-13.595	16085	17173	0	404
-5.806	-15.831	16085	17831	0	404
-1.947	-16.048	16085	18357	0	404
1.947	-15.038	16171	18752	0	404
5.337	-10.458	16171	19147	0	404
6.022	-7.717	16171	19673	0	404
6.563	-4.508	16299	20199	0	404
7.970	-3.895	16299	20462	0	404
7.645	-3.642	16299	20726	0	404
9.160	-3.606	16299	20857	0	404
9.845	-1.947	16384	20857	0	404
11.648	0.433	16384	20726	0	404
12.189	3.750	16384	20594	0	404
13.018	6.058	16384	20331	0	404
13.595	7.681	16384	19673	0	404
11.468	10.422	16384	18620	0	404
10.638	9.773	16384	17568	0	404
8.763	9.953	16299	16515	0	404
7.321	8.006	16299	15990	0	404
8.979	7.753	16299	15463	0	404
10.386	8.006	16299	15200	0	404
11.360	10.133	16299	15069	0	404
9.556	10.133	16299	15200	0	404
5.517	8.727	16384	15463	0	404
0.757	4.327	16384	15858	0	404
-3.318	0.397	16469	16384	0	404
-5.373	-3.426	16384	17041	0	404
-5.986	-7.104	16384	17699	0	404
-6.599	-7.862	16469	18094	0	404
-6.599	-10.242	16469	18357	0	404
-6.599	-11.179	16469	18489	0	404
-7.104	-10.927	16597	18752	0	404
-5.734	-6.996	16597	18884	0	404
-3.498	-1.479	16597	18884	0	404
0.433	5.590	16597	18884	0	404
1.875	9.340	16683	18620	0	404
0.757	5.626	16683	18357	0	404
-3.065	-1.262	16683	18094	0	404
-6.744	-5.193	16683	17962	0	404
-8.186	-4.255	16683	17568	0	404
-6.744	1.731	16683	17173	0	404
-3.246	7.681	16683	16778	0	404
-1.190	10.242	16683	16384	0	404
-0.613	7.104	16683	15990	0	404
-0.613	2.777	16683	15595	0	404
-0.577	0.433	16683	15200	0	404
-0.108	0.000	16683	14806	0	404
0.397	2.056	16683	14411	0	404
1.082	4.291	16683	14148	0	404
0.721	5.842	16683	14016	0	404
0.721	5.409	16683	14016	0	404
0.505	5.337	16597	14148	0	404
0.000	3.101	16597	13884	0	404
-1.767	2.633	16469	13490	0	404
-2.849	0.361	16469	13095	0	404
-4.111	-2.200	16469	12963	0	404
-4.904	-4.580	16469	13095	0	404
-5.481	-4.868	16469	13490	0	404
-5.842	-5.229	16469	13884	0	404
-7.898	-3.967	16469	14411	0	404
-7.681	-4.147	16469	14937	0	404
-7.285	-4.580	16469	15200	0	404
-6.491	-6.419	16469	15595	0	404
-5.193	-6.563	16469	16253	0	404
-6.203	-6.311	16597	16515	0	404
-6.599	-5.301	16597	16778	0	404
-5.986	-2.560	16597	16910	0	404
-5.770	-0.252	16597	17041	0	404
-2.741	2.236	16597	16910	0	404
0.072	5.517	16597	16647	0	404
2.344	7.645	16597	16384	0	404
4.796	9.845	16469	15990	0	404
5.229	10.386	16469	15727	0	404
6.491	9.845	16469	15595	0	404
6.131	11.360	16469	15727	0	404
7.176	12.622	16469	15727	0	404
9.376	15.002	16469	15595	0	404
10.133	16.661	16469	15332	0	404
10.133	15.110	16469	15332	0	404
9.665	12.009	16384	15463	0	404
8.150	6.275	16384	15463	0	404
7.934	4.472	16384	15332	0	404
6.996	3.390	16384	15200	0	404
5.806	5.517	16384	15332	0	404
5.481	7.357	16384	15463	0	404
4.760	8.943	16384	15200	0	404
6.852	7.212	16299	15069	0	404
11.251	6.527	16299	15332	0	404
13.235	4.291	16299	15727	0	404
13.740	1.875	16299	15990	0	404
10.061	-1.875	16299	16253	0	404
3.859	-5.085	16299	16384	0	404
-0.036	-6.527	16299	16647	0	404
-2.272	-3.931	16384	16910	0	404
-0.613	-1.479	16384	17436	0	404
3.426	0.757	16384	17831	0	404
9.124	1.154	16384	17962	0	404
13.595	0.036	16384	18094	0	404
16.084	0.577	16384	18620	0	404
14.677	1.839	16469	19015	0	404
10.097	4.436	16469	19278	0	404
5.590	4.616	16469	19541	0	404
3.678	3.823	16597	19805	0	404
4.291	1.767	16597	19805	0	404
7.176	1.262	16597	19673	0	404
7.789	0.685	16597	19541	0	404
8.763	1.010	16683	19541	0	404
5.878	0.072	16597	19278	0	404
4.255	-1.587	16683	18752	1	580
1.839	-4.400	16683	18226	0	580
1.875	-4.327	16683	17831	0	580
2.993	-3.895	16597	17568	0	580
4.472	-1.983	16597	17041	0	580
7.681	-0.252	16597	16647	0	580
10.025	2.344	16597	16384	0	580
13.127	4.472	16597	16121	0	580
14.497	7.104	16597	15463	0	580
16.372	10.061	16469	15069	0	580
16.372	11.215	16469	15069	0	580
16.444	12.081	16597	15332	0	580
15.507	9.845	16597	15332	0	580
12.153	7.393	16469	14937	0	580
9.448	4.039	16469	14411	0	580
8.186	2.200	16469	14148	0	580
11.287	5.878	16469	14279	0	580
17.995	10.422	16469	14674	0	580
20.880	16.300	16469	15069	0	580
19.978	17.274	16469	15332	0	580
13.235	14.353	16469	15595	0	580
6.383	7.825	16469	15858	0	580
5.373	5.734	16597	15990	0	580
8.943	5.121	16469	15990	0	580
13.127	6.599	16469	15858	0	580
12.514	7.285	16469	15858	0	580
6.924	3.967	16597	16121	0	580
-2.056	-0.505	16597	16384	0	580
-6.780	-1.767	16597	16384	0	580
-4.183	0.685	16597	16515	0	580
0.469	4.940	16597	16384	0	580
7.645	9.701	16597	16384	0	580
10.963	9.376	16597	15990	0	580
12.369	6.671	16469	15595	0	580
12.441	1.983	16469	15332	0	580
14.821	1.226	16469	15200	0	580
16.661	4.291	16469	15069	0	580
18.031	9.160	16469	15069	0	580
19.293	15.038	16469	14937	0	580
21.204	18.139	16469	15200	0	580
23.116	18.933	16469	15727	0	580
27.191	17.743	16469	16384	0	580
28.453	14.821	16469	16910	0	580
28.669	12.261	16597	17041	0	580
26.289	8.835	16469	17041	0	580
24.125	8.078	16384	16778	0	580
21.349	7.032	16384	16515	0	580
18.031	8.078	16384	16253	0	580
16.048	6.888	16384	15858	0	580
15.326	7.104	16384	15727	0	580
16.084	5.517	16384	15727	0	580
17.129	3.895	16384	15727	0	580
16.300	3.065	16384	15858	0	580
13.668	2.669	16384	16121	0	580
11.720	4.111	16384	16384	0	580
11.900	8.294	16384	16647	0	580
14.641	12.153	16384	16647	0	580
16.589	11.828	16384	16647	0	580
14.858	9.376	16384	16384	0	580
11.179	2.344	16384	16121	0	580
7.393	-0.541	16299	15463	0	580
7.285	1.082	16299	14542	0	580
9.773	8.294	16171	13753	0	580
14.858	15.651	16299	13227	0	580
18.608	20.195	16171	12700	0	580
19.546	20.087	16171	12306	0	580
18.897	18.356	16085	12306	0	580
17.310	16.841	16085	12306	0	580
15.254	15.110	15957	12437	0	580
13.415	14.749	15957	12437	0	580
10.927	13.523	15957	12700	0	580
9.809	13.199	15957	13227	0	580
8.078	15.471	15872	13753	0	580
6.852	15.687	15872	14279	0	580
4.219	14.749	15872	14806	0	580
2.705	11.323	15872	15463	0	580
0.541	6.058	15872	16384	0	580
0.469	3.390	15957	17436	0	580
1.947	3.498	16085	18357	0	580
3.534	7.285	16085	18884	0	580
4.544	11.612	16171	19278	0	580
3.931	15.398	16085	19805	0	580
4.688	16.408	16171	20199	0	580
4.111	15.326	16171	20594	0	580
6.022	13.668	16171	20857	0	580
8.330	14.245	16171	21252	0	580
12.333	16.733	16299	21384	0	580
15.146	20.267	16299	21515	0	580
16.372	23.585	16299	21647	0	580
15.038	25.568	16384	21647	0	580
14.641	28.056	16384	21515	0	580
14.894	31.482	16384	21120	0	580
17.995	32.744	16384	20857	0	580
22.286	32.997	16469	20726	0	580
24.162	30.725	16469	20726	1	376
24.666	27.010	16469	20594	0	376
21.926	25.099	16597	20331	0	376
19.113	24.702	16597	20199	0	376
16.120	25.063	16683	20331	0	376
13.163	26.325	16683	20462	0	376
11.323	25.604	16683	20594	0	376
11.864	23.837	16811	20462	0	376
13.054	22.899	16811	19936	0	376
16.084	22.503	16811	19410	0	376
19.221	25.460	16811	19015	0	376
22.070	31.122	16811	18357	0	376
22.322	36.928	16811	17568	0	376
23.837	39.957	16811	16647	0	376
22.647	40.930	16811	15858	0	376
22.106	38.875	16683	14806	0	376
19.978	36.170	16683	13753	0	376
18.933	32.203	16683	12963	0	376
16.949	26.794	16597	12174	0	376
16.156	22.791	16597	11516	0	376
17.057	21.024	16597	11121	0	376
17.562	24.017	16469	10858	0	376
20.375	32.961	16469	10595	0	376
21.962	41.724	16469	10595	0	376
23.945	46.520	16469	10595	0	376
24.847	45.546	16384	10858	0	376
26.397	39.849	16384	11384	0	376
27.191	33.538	16384	12174	0	376
29.499	30.004	16384	12832	0	376
30.941	30.833	16384	13358	0	376
30.364	32.312	16469	13884	0	376
27.515	33.357	16469	14542	0	376
20.159	30.040	16469	15332	0	376
12.405	23.512	16469	16121	0	376
3.282	15.543	16469	16515	0	376
-3.173	8.691	16469	16778	0	376
-5.734	5.337	16597	17041	0	376
-3.787	5.085	16597	17041	0	376
-0.144	7.898	16469	16778	0	376
4.940	12.477	16469	16515	0	376
7.934	14.497	16469	16253	0	376
7.393	16.769	16384	15858	0	376
7.321	16.913	16299	15200	0	376
6.599	17.670	16384	14674	0	376
9.448	18.500	16384	14279	0	376
14.317	19.942	16384	14279	0	376
18.247	21.890	16299	14411	0	376
21.349	24.739	16299	14806	0	376
20.700	26.722	16299	15069	0	376
19.473	30.617	16299	15595	0	376
17.418	33.249	16384	16253	0	376
15.795	32.528	16384	16910	0	376
14.317	30.328	16384	17568	0	376
13.054	24.522	16384	17831	0	376
10.602	17.743	16384	17699	0	376
8.078	11.937	16384	17436	0	376
6.383	10.133	16384	17041	0	376
5.157	10.133	16299	16515	0	376
2.849	12.405	16299	16384	0	376
2.308	13.523	16299	16121	0	376
0.541	11.071	16299	15858	0	376
-0.144	10.746	16299	15463	0	376
0.541	11.323	16171	15332	0	376
1.947	11.396	16171	15595	0	376
2.560	11.720	16171	15858	0	376
2.128	9.412	16171	15990	0	376
2.200	4.724	16171	15990	0	376
2.849	1.767	16171	15858	0	376
5.662	1.515	16171	15727	0	376
7.717	2.596	16085	15727	0	376
6.419	3.823	16085	15595	0	376
5.554	2.633	16085	15727	0	376
3.895	2.344	16085	15858	0	376
6.239	1.587	16085	15990	0	376
10.746	2.669	16085	15990	0	376
12.730	3.678	16085	15990	0	376
11.792	5.986	16085	16121	0	376
9.016	5.301	16085	16384	0	376
6.022	4.688	16085	16515	0	376
5.337	3.210	16085	16647	0	376
6.996	2.633	16085	16910	0	376
5.157	1.190	16171	17173	0	376
2.128	0.613	16171	17305	0	376
-1.947	-0.325	16171	17436	0	376
-4.400	-0.397	16299	17436	0	376
-3.173	1.154	16171	17436	0	376
-0.036	3.570	16171	17568	0	376
3.101	5.481	16171	17436	0	376
4.003	5.409	16085	17305	0	376
1.911	2.236	16085	17041	0	376
0.252	-1.659	16085	16778	0	376
0.108	-2.524	16085	16647	0	376
1.623	-1.442	16085	16778	0	376
5.698	3.534	16085	17041	0	376
9.556	8.727	16085	17173	0	376
13.091	12.658	16085	17305	0	376
13.848	14.497	16085	17436	0	376
14.930	13.776	16085	17568	0	376
14.858	14.461	16085	17436	0	376
16.949	17.238	16085	17436	0	376
17.418	21.024	16171	17436	0	376
16.625	23.116	16171	17568	0	376
12.117	20.808	16171	17831	0	376
4.364	14.136	16299	18226	0	376
-1.947	7.248	16299	18620	0	376
-5.013	5.229	16384	18884	0	376
-4.652	7.898	16384	19147	0	376
-2.488	10.350	16384	19278	0	376
-1.659	10.278	16469	19541	0	376
-2.560	5.301	16469	19936	0	376
-6.527	-0.108	16597	20331	0	376
-7.429	-1.298	16469	20331	0	376
-7.321	2.705	16469	20068	0	376
-2.885	10.386	16469	19673	0	376
1.983	14.172	16469	19147	0	376
5.409	14.966	16597	18489	0	376
6.058	10.963	16469	17831	1	464
2.741	5.337	16469	17173	0	464
-1.118	4.111	16469	16647	0	464
-4.255	4.940	16597	16384	0	464
-3.678	9.196	16597	16253	0	464
-0.649	14.533	16597	15990	0	464
5.806	19.906	16597	15727	0	464
12.081	22.611	16597	15332	0	464
16.913	23.368	16469	14937	0	464
19.005	23.008	16469	14148	0	464
19.618	20.952	16469	13490	0	464
17.706	20.664	16469	13095	0	464
14.785	21.060	16384	12963	0	464
10.783	20.339	16384	12700	0	464
7.429	19.654	16384	12437	0	464
5.734	19.654	16299	12174	0	464
8.366	19.510	16299	12174	0	464
12.369	19.510	16299	12437	0	464
15.110	17.815	16299	12700	0	464
12.153	12.586	16299	12832	0	464
5.517	7.393	16299	12832	0	464
-2.813	2.993	16171	12963	0	464
-9.232	2.560	16171	13227	0	464
-10.819	4.652	16171	13753	0	464
-10.278	5.986	16171	14542	0	464
-6.744	7.104	16171	15332	0	464
-3.750	6.167	16171	15858	0	464
0.180	5.373	16299	16253	0	464
3.065	5.950	16299	16515	0	464
5.734	7.429	16299	16778	0	464
5.662	9.953	16299	17173	0	464
4.868	10.963	16299	17436	0	464
3.029	12.189	16299	17831	0	464
4.436	14.858	16299	18226	0	464
6.960	16.336	16469	18620	0	464
10.386	18.428	16384	18620	0	464
13.307	18.572	16384	18620	0	464
13.487	18.139	16384	18752	0	464
10.855	15.939	16384	19015	0	464
10.169	16.192	16469	19410	0	464
10.061	17.743	16469	19805	0	464
9.052	19.473	16469	19936	0	464
8.691	20.844	16469	19805	0	464
6.491	18.283	16469	19278	0	464
1.406	11.684	16469	18620	0	464
-3.354	1.839	16469	17699	0	464
-9.160	-5.481	16469	17041	0	464
-10.891	-7.285	16469	16515	0	464
-11.396	-5.806	16469	16253	0	464
-11.107	-3.354	16469	15990	0	464
-10.602	-4.075	16469	15727	0	464
-10.783	-5.770	16384	15463	0	464
-7.862	-7.501	16384	15332	0	464
-4.508	-4.508	16384	15069	0	464
-1.479	-1.298	16384	14806	0	464
-2.092	0.216	16384	14279	0	464
-5.049	-0.397	16384	14016	0	464
-7.285	-1.046	16299	13490	0	464
-4.039	0.649	16299	12832	0	464
-0.108	2.488	16171	12042	0	464
1.803	1.515	16171	11779	0	464
-1.082	-1.947	16085	11516	0	464
-4.904	-6.203	16085	11516	0	464
-5.698	-9.520	15957	11648	0	464
-4.724	-7.645	16085	12042	0	464
-2.488	-7.140	16085	12437	0	464
-5.734	-8.691	16085	12963	0	464
-12.117	-14.821	15957	13358	0	464
-17.887	-18.752	15957	13884	0	464
-19.113	-22.034	15957	14411	0	464
-16.156	-22.791	15957	14937	0	464
-14.677	-24.270	15957	15332	0	464
-17.454	-29.427	15957	15595	0	464
-23.188	-34.259	15957	15858	0	464
-29.751	-37.721	15957	16121	0	464
-30.941	-37.036	15957	16384	0	464
-28.994	-33.646	15957	16778	0	464
-26.073	-31.013	15957	17173	0	464
-23.765	-30.797	15957	17831	0	464
-21.421	-29.715	16085	18620	0	464
-18.356	-26.145	16171	19147	0	464
-12.261	-21.168	16085	19278	0	464
-6.419	-15.218	16085	19278	0	464
-1.262	-11.143	16085	19278	0	464
0.072	-7.934	16085	19278	0	464
4.255	-5.554	16171	19541	0	464
7.645	-1.479	16171	20068	0	464
11.576	2.813	16171	20462	0	464
15.182	6.852	16299	20726	0	464
16.949	8.799	16299	20989	0	464
16.877	10.386	16299	21384	0	464
14.641	10.061	16384	21647	0	464
12.333	6.563	16384	21910	0	464
7.573	1.479	16469	21910	0	464
3.282	-4.364	16469	21910	0	464
-0.793	-9.268	16597	21910	0	464
-2.777	-11.179	16597	21778	0	464
-5.806	-11.251	16597	21384	0	464
-7.285	-9.881	16683	20989	0	464
-8.150	-6.383	16683	20594	0	464
-8.222	-4.508	16683	19936	1	400
-5.698	-0.541	16683	18884	0	400
-1.226	2.596	16597	17568	0	400
0.974	3.787	16683	16384	0	400
4.255	6.022	16597	15200	0	400
5.229	8.078	16597	14279	0	400
6.816	10.891	16469	13227	0	400
9.520	16.264	16384	12437	0	400
12.261	21.168	16384	11648	0	400
15.326	24.775	16299	11121	0	400
17.887	27.876	16384	10858	0	400
20.159	28.777	16384	10858	0	400
22.683	31.446	16299	10990	0	400
26.974	35.088	16299	11384	0	400
30.112	40.065	16299	11648	0	400
33.574	43.996	16299	12174	0	400
35.774	46.520	16299	12700	0	400
35.846	45.763	16299	13095	0	400
34.836	44.537	16299	13358	0	400
30.508	39.199	16384	13621	0	400
24.847	34.259	16171	13753	0	400
15.651	26.253	16171	13753	0	400
5.950	19.365	16171	13753	0	400
-3.318	12.189	16171	13490	0	400
-10.386	7.140	16085	13358	0	400
-12.910	2.813	16085	13621	0	400
-12.477	0.902	16085	14279	0	400
-9.196	1.406	16085	14937	0	400
-5.085	3.642	16085	15463	0	400
-1.515	6.744	16085	15858	0	400
1.515	10.133	16085	16384	0	400
5.445	11.973	16085	17041	0	400
8.655	13.487	16085	17568	0	400
12.730	15.110	16171	18094	0	400
17.346	16.985	16171	18489	0	400
19.510	19.257	16171	18489	0	400
19.798	20.447	16171	18489	0	400
19.329	22.791	16171	18620	0	400
19.041	24.883	16171	18620	0	400
22.142	29.535	16171	18620	0	400
26.686	34.367	16299	18620	0	400
32.853	39.993	16299	18884	0	400
36.675	42.589	16384	19278	0	400
35.918	40.317	16384	19936	0	400
33.357	36.170	16469	20462	0	400
26.073	27.443	16469	20989	0	400
20.483	20.014	16597	21384	0	400
12.802	12.802	16469	21778	0	400
5.445	8.150	16597	22041	0	400
-0.397	4.796	16597	22305	0	400
-5.193	2.633	16683	22436	0	400
-9.052	1.587	16683	22041	0	400
-9.160	1.118	16683	21384	0	400
-9.845	-0.144	16811	20989	0	400
-11.215	-1.262	16811	20726	0	400
-15.038	-3.714	16896	20462	0	400
-16.985	-4.436	16896	20199	0	400
-16.444	-2.885	16896	19936	0	400
-12.441	1.875	17025	19673	0	400
-4.977	6.708	16896	19147	0	400
-0.216	10.927	17025	18226	0	400
2.128	12.045	17025	17041	0	400
4.652	13.451	16896	15858	0	400
6.203	15.975	16811	14674	0	400
10.746	19.834	16811	13753	0	400
14.713	23.549	16811	13095	0	400
17.995	25.352	16811	12569	0	400
19.582	26.253	16683	11911	0	400
21.673	26.397	16683	11384	0	400
23.512	26.686	16683	10858	0	400
24.089	29.030	16597	10069	0	400
21.385	31.266	16597	9542	0	400
16.228	30.148	16469	9542	0	400
9.340	28.273	16469	9806	0	400
1.587	24.234	16469	10332	0	400
-4.940	17.634	16469	10858	0	400
-9.376	11.612	16469	11253	0	400
-15.074	6.455	16469	11516	0	400
-18.356	1.334	16384	11648	0	400
-23.188	-2.019	16384	11911	1	316
-26.325	-4.364	16384	12042	0	316
-27.876	-5.445	16299	12306	0	316
-28.201	-5.265	16299	12700	0	316
-26.217	-4.111	16299	13095	0	316
-20.627	-0.829	16299	13753	0	316
-13.271	4.183	16299	14411	0	316
-4.508	8.294	16299	15069	0	316
5.121	14.136	16299	15595	0	316
12.333	17.634	16299	16384	0	316
17.418	20.447	16384	17305	0	316
19.798	23.909	16384	18226	0	316
20.195	26.830	16384	18884	0	316
20.014	29.715	16384	19147	0	316
21.168	33.141	16469	19410	0	316
22.178	35.088	16469	19541	0	316
24.306	34.728	16469	19410	0	316
27.119	33.393	16469	19278	0	316
26.650	30.256	16469	18884	0	316
26.181	27.227	16469	18489	0	316
23.621	23.512	16384	17962	0	316
20.519	20.267	16384	17568	0	316
17.887	19.870	16384	17173	0	316
15.579	20.087	16384	16647	0	316
14.461	21.277	16384	16384	0	316
13.631	22.719	16299	15858	0	316
11.504	20.555	16299	15463	0	316
7.248	15.687	16299	15463	0	316
1.479	8.871	16299	15595	0	316
-5.337	2.452	16299	15990	0	316
-13.127	-5.121	16299	16253	0	316
-16.733	-10.422	16299	16121	0	316
-16.372	-11.071	16299	15858	0	316
-14.028	-11.504	16171	15595	0	316
-10.746	-8.583	16171	15463	0	316
-8.294	-7.609	16171	15595	0	316
-8.078	-7.573	16171	15858	0	316
-6.996	-9.304	16171	16121	0	316
-5.770	-8.979	16171	16384	0	316
-3.498	-8.294	16171	16515	0	316
-1.839	-6.527	16171	16910	0	316
-0.505	-6.924	16299	17305	0	316
0.216	-7.645	16299	17699	0	316
-0.144	-8.330	16299	17831	0	316
-1.983	-10.855	16299	17831	0	316
-8.511	-13.704	16299	17962	0	316
-15.507	-17.238	16299	18094	0	316
-23.260	-23.116	16299	18226	0	316
-27.335	-28.020	16384	18357	0	316
-28.922	-31.807	16384	18226	0	316
-29.030	-32.384	16299	17699	0	316
-27.804	-33.249	16299	17305	0	316
-28.669	-31.843	16299	17173	0	316
-29.571	-30.184	16299	17041	0	316
-28.020	-29.246	16299	16647	0	316
-26.506	-26.506	16299	16253	0	316
-24.125	-25.207	16299	15990	0	316
-22.647	-24.125	16299	15727	0	316
-19.401	-23.512	16299	15595	0	316
-18.572	-24.775	16299	15595	0	316
-17.418	-25.243	16299	15858	0	316
-18.788	-25.784	16299	15990	0	316
-22.431	-25.965	16299	15858	0	316
-25.965	-24.666	16299	15727	0	316
-27.984	-23.116	16299	15463	0	316
-23.693	-20.591	16299	15332	0	316
-18.933	-18.211	16299	15595	0	316
-15.435	-18.428	16299	16121	0	316
-15.074	-18.572	16384	16910	0	316
-16.444	-18.428	16384	17699	0	316
-18.356	-16.516	16469	18489	0	316
-18.572	-14.713	16469	19278	0	316
-17.634	-15.398	16597	19936	0	316
-20.231	-18.356	16597	20462	0	316
-25.171	-23.296	16597	20726	0	316
-29.787	-28.309	16597	20726	0	316
-33.393	-29.859	16597	20594	0	316
-34.187	-28.777	16597	20199	0	316
-32.095	-28.669	16597	19410	0	316
-31.049	-26.974	16597	18489	0	316
-29.066	-27.010	16597	17699	0	316
-27.840	-26.722	16597	17305	0	316
-25.784	-28.128	16683	17305	0	316
-23.729	-25.929	16683	17436	0	316
-20.772	-24.089	16683	17173	0	316
-18.283	-19.798	16683	16778	0	316
-16.877	-16.084	16683	16515	0	316
-16.084	-14.569	16683	16384	0	316
-16.120	-13.704	16683	16384	0	316
-15.723	-14.317	16811	16384	0	316
-12.369	-11.071	16811	16384	0	316
-8.799	-7.321	16811	16121	0	316
-4.255	-0.793	16811	15595	0	316
-0.757	5.481	16683	14937	0	316
1.515	9.304	16683	14411	0	316
2.957	11.396	16597	14148	0	316
3.318	9.737	16597	14016	0	316
3.354	6.888	16597	13884	0	316
0.252	2.164	16597	13490	0	316
-3.642	-3.678	16469	13227	0	316
-9.809	-10.169	16469	12832	0	316
-15.435	-16.336	16469	12569	0	316
-18.536	-21.204	16469	12569	0	316
-19.654	-23.873	16469	12963	0	316
-18.067	-22.539	16469	13490	0	316
-17.202	-22.611	16469	14016	0	316
-16.228	-21.457	16469	14542	0	316
-16.805	-21.854	16469	14674	0	316
-17.093	-21.277	16469	14542	0	316
-16.733	-21.601	16384	14411	0	316
-16.949	-20.916	16384	14148	0	316
-14.749	-19.185	16384	14148	0	316
-12.261	-17.815	16384	14279	0	316
-9.016	-14.713	16299	14411	0	316
-4.255	-10.710	16299	14411	0	316
-2.993	-5.950	16299	14411	0	316
-1.370	-3.895	16299	14674	0	316
-0.865	-1.262	16299	14937	0	316
-0.072	0.288	16299	15200	0	316
3.498	1.370	16171	15069	0	316
7.285	3.642	16171	14937	0	316
14.497	6.780	16171	15069	0	316
21.601	11.540	16171	15200	0	316
26.974	15.723	16171	15595	0	316
30.040	18.788	16171	15990	0	316
26.902	20.375	16171	16515	0	316
22.827	18.824	16171	17305	0	316
18.103	16.733	16384	18094	0	316
14.930	14.821	16384	18620	0	316
13.776	13.271	16384	18884	0	316
14.064	11.215	16384	18752	0	316
12.946	10.458	16384	18489	0	316
12.261	9.809	16384	18357	0	316
12.045	9.737	16384	18357	0	316
12.441	12.153	16384	18489	0	316
14.497	12.297	16384	18620	0	316
16.733	13.595	16384	18884	0	316
17.779	13.920	16469	19015	0	316
16.805	14.930	16469	19015	0	316
13.704	14.281	16384	18884	0	316
10.927	13.668	16384	18752	0	316
7.140	13.127	16384	18752	0	316
7.068	12.441	16384	18884	0	316
6.744	12.333	16469	19278	0	316
8.727	14.858	16469	19541	0	316
11.864	18.283	16597	19805	0	316
14.389	22.214	16597	19936	0	316
14.713	25.316	16597	20068	0	316
12.153	24.306	16683	19936	0	316
9.520	20.808	16683	19805	0	316
7.212	16.012	16683	19541	0	316
7.393	15.759	16683	19015	0	316
10.530	18.969	16683	18489	1	608
15.831	24.053	16683	18094	0	608
19.942	30.761	16811	17831	0	608
22.647	33.610	16811	17305	0	608
21.926	32.456	16811	16778	0	608
18.752	29.174	16811	16384	0	608
14.245	25.063	16811	15990	0	608
10.422	23.224	16683	15595	0	608
11.540	24.919	16811	15200	0	608
13.704	28.201	16811	14937	0	608
15.362	32.095	16683	14806	0	608
18.356	32.276	16683	14806	0	608
20.159	32.528	16683	14674	0	608
20.916	31.843	16597	14279	0	608
18.788	30.220	16597	13753	0	608
15.002	28.777	16597	13490	0	608
9.701	26.037	16597	13358	0	608
4.796	24.522	16597	13490	0	608
2.957	22.972	16597	13753	0	608
2.957	21.565	16597	13753	0	608
2.885	22.719	16597	13621	0	608
0.469	22.142	16597	13753	0	608
-0.938	23.260	16597	14016	0	608
-1.334	23.224	16597	14279	0	608
-0.433	24.450	16597	14542	0	608
3.282	23.945	16597	14937	0	608
8.511	25.496	16597	15463	0	608
13.235	29.715	16597	15858	0	608
17.923	35.413	16597	16253	0	608
19.185	39.812	16597	16778	0	608
18.464	42.409	16683	17305	0	608
16.120	41.471	16683	17699	0	608
15.038	40.570	16683	17962	0	608
17.021	42.445	16683	18094	0	608
22.611	50.198	16811	18226	0	608
27.587	58.709	16683	18357	0	608
31.194	62.856	16683	18357	0	608
30.364	62.640	16683	18226	0	608
29.318	58.312	16683	18226	0	608
28.273	54.778	16683	17962	0	608
28.850	53.696	16683	17436	0	608
29.210	53.300	16683	16778	0	608
24.630	50.847	16683	16384	0	608
17.670	46.809	16683	16121	0	608
13.884	43.960	16683	15463	0	608
16.805	45.078	16683	14937	0	608
23.080	48.936	16597	14674	0	608
29.210	48.828	16597	14542	0	608
25.856	41.652	16597	14542	0	608
17.887	30.184	16597	14411	0	608
8.150	18.788	16597	14411	0	608
6.419	13.559	16597	14542	0	608
8.186	13.523	16469	14674	0	608
11.107	13.992	16597	14542	0	608
8.691	10.891	16597	14411	0	608
4.796	4.255	16469	14279	0	608
0.865	-0.649	16469	14016	0	608
-0.036	-1.623	16469	13621	0	608
2.669	1.695	16384	13227	0	608
5.373	6.852	16384	13227	0	608
8.402	12.441	16384	13621	0	608
8.943	14.785	16384	13884	0	608
11.720	15.831	16299	13884	0	608
13.271	17.166	16299	13884	0	608
16.228	16.841	16299	13621	0	608
16.156	17.346	16171	13227	0	608
14.245	16.228	16171	12832	0	608
11.937	13.992	16171	12832	0	608
8.258	12.261	16085	13095	0	608
6.816	9.809	16085	13490	0	608
5.013	8.547	15957	13884	0	608
3.173	6.455	15957	14148	0	608
1.046	3.931	15957	14542	0	608
-2.200	0.433	15957	14806	0	608
-3.173	-2.200	15957	15200	0	608
-3.859	-4.183	15957	15727	0	608
-3.173	-4.327	15957	16253	0	608
-3.714	-4.977	15957	16778	0	608
-6.058	-5.806	15957	17305	0	608
-12.369	-7.681	15872	17436	0	608
-17.995	-10.999	15957	17436	0	608
-23.621	-11.287	15957	17436	0	608
-23.332	-10.097	15957	17699	0	608
-20.014	-8.439	15957	18357	0	608
-17.129	-8.078	15957	18884	0	608
-17.779	-11.540	16085	19278	0	608
-19.185	-15.254	16085	19673	0	608
-20.375	-16.480	16085	19805	0	608
-18.175	-13.595	16085	19673	0	608
-12.477	-8.366	16085	19673	0	608
-7.537	-3.823	16085	19805	0	608
-4.977	-1.442	16085	19805	0	608
-6.852	-1.659	16085	19805	0	608
-9.629	-3.859	16171	19805	0	608
-10.819	-3.714	16171	19936	0	608
-9.088	-3.210	16171	19936	0	608
-5.409	-0.469	16171	19805	0	608
-0.144	4.544	16171	19673	0	608
2.777	9.484	16171	19410	1	392
3.101	12.946	16171	19147	0	392
1.551	15.939	16384	19015	0	392
-1.118	15.002	16384	18752	0	392
-3.967	12.982	16384	18357	0	392
-7.501	9.737	16384	17962	0	392
-11.360	6.239	16384	17699	0	392
-13.307	3.967	16384	17305	0	392
-14.605	5.373	16384	17041	0	392
-13.848	7.393	16384	16647	0	392
-13.379	10.855	16384	16384	0	392
-12.802	11.973	16384	16253	0	392
-16.516	11.612	16384	15990	0	392
-20.772	9.881	16384	15990	0	392
-22.647	8.078	16384	16253	0	392
-22.827	10.169	16384	16384	0	392
-18.716	13.271	16384	16384	0	392
-13.163	18.211	16384	16384	0	392
-8.078	21.529	16384	15727	0	392
-6.491	25.532	16299	14937	0	392
-6.058	26.073	16299	14411	0	392
-9.088	23.837	16299	14279	0	392
-12.297	21.204	16299	14411	0	392
-15.579	16.372	16299	14542	0	392
-19.762	12.189	16299	15069	0	392
-23.332	9.124	16299	15463	0	392
-25.279	6.275	16384	15858	0	392
-27.299	3.570	16384	16253	0	392
-25.568	1.551	16384	16647	0	392
-23.188	1.839	16384	17305	0	392
-19.978	2.236	16384	17831	0	392
-17.129	2.669	16469	18357	0	392
-14.028	3.426	16469	18489	0	392
-12.117	3.967	16469	18226	0	392
-12.261	3.859	16469	17831	0	392
-12.477	5.554	16469	17436	0	392
-13.884	5.698	16469	17173	0	392
-13.920	6.888	16469	17305	0	392
-12.477	9.629	16597	17568	0	392
-8.006	12.694	16469	17962	0	392
-4.111	16.264	16469	18226	0	392
-0.433	18.103	16597	18226	0	392
0.902	18.536	16597	17962	0	392
-0.072	17.310	16469	17173	0	392
-2.921	15.074	16469	16384	0	392
-5.770	12.045	16469	15463	0	392
-6.347	8.186	16469	14674	0	392
-8.727	5.373	16384	13884	0	392
-9.196	1.695	16384	13358	0	392
-9.989	-0.757	16299	12832	0	392
-9.340	-2.128	16299	12306	0	392
-8.835	-2.452	16299	12174	0	392
-7.645	-2.488	16171	12174	0	392
-11.323	-4.616	16171	12437	0	392
-16.480	-10.746	16171	13095	0	392
-22.286	-18.500	16299	14016	0	392
-27.624	-27.551	16299	14937	0	392
-27.587	-33.105	16384	15727	0	392
-25.965	-34.728	16384	16384	0	392
-21.096	-34.295	16469	17041	0	392
-18.211	-32.636	16384	17699	0	392
-15.110	-31.915	16384	18357	0	392
-13.704	-29.643	16469	18752	0	392
-13.018	-28.273	16469	19147	0	392
-10.566	-26.433	16469	19410	0	392
-7.140	-23.404	16469	19147	0	392
-5.950	-22.250	16469	18620	0	392
-5.301	-21.385	16469	17962	0	392
-6.022	-21.673	16469	17436	0	392
-10.386	-22.250	16469	16778	0	392
-13.343	-22.575	16469	16253	0	392
-16.697	-24.666	16384	15858	0	392
-20.014	-26.794	16384	15463	0	392
-21.601	-30.617	16384	14806	0	392
-24.198	-32.167	16299	13884	0	392
-23.152	-33.105	16299	13095	0	392
-21.421	-31.122	16171	12700	0	392
-19.257	-28.381	16171	12437	0	392
-17.887	-26.758	16171	12306	0	392
-17.815	-26.722	16085	12042	0	392
-18.788	-24.919	16171	12042	0	392
-19.942	-24.522	16085	12174	0	392
-19.257	-23.801	16171	12437	0	392
-18.933	-26.902	16085	12963	0	392
-19.329	-32.131	16085	13753	0	392
-19.077	-39.740	16085	14674	0	392
-17.887	-45.546	16085	15727	0	392
-14.245	-47.746	16085	16384	0	392
-10.710	-46.772	16085	16647	0	392
-7.248	-45.150	16171	16910	0	392
-8.114	-45.691	16171	17305	0	392
-10.422	-50.126	16171	17831	0	392
-15.254	-54.129	16171	18357	0	392
-17.634	-59.502	16171	18752	0	392
-16.877	-61.702	16171	19015	0	392
-14.317	-64.767	16171	19278	0	392
-11.360	-67.544	16299	19278	0	392
-7.645	-74.144	16299	19147	0	392
-5.806	-83.411	16299	18884	0	392
-3.570	-98.738	16299	18752	0	392
-0.469	-118.031	16299	18620	0	392
2.921	-139.596	16299	18620	1	404
6.131	-156.762	16299	18489	0	404
8.691	-164.190	16299	18357	0	404
7.501	-160.440	16299	17962	0	404
5.373	-151.388	16299	17568	0	404
1.298	-142.012	16299	17173	0	404
-3.210	-136.747	16171	16910	0	404
-4.832	-135.413	16171	16515	0	404
-7.068	-133.826	16171	16121	0	404
-7.357	-131.482	16299	15727	0	404
-8.294	-127.660	16299	15595	0	404
-8.583	-122.863	16299	15463	0	404
-10.855	-118.680	16299	15727	0	404
-11.540	-114.245	16299	16121	0	404
-12.009	-109.304	16299	16253	0	404
-11.684	-105.481	16299	16253	0	404
-8.871	-101.551	16299	15990	0	404
-8.042	-96.466	16171	15463	0	404
-6.960	-90.480	16171	15069	0	404
-6.635	-84.241	16171	15069	0	404
-5.986	-77.028	16171	15463	0	404
-4.724	-70.609	16171	15858	0	404
-1.731	-61.558	16171	16253	0	404
0.757	-50.487	16171	16515	0	404
3.570	-39.163	16171	16778	0	404
6.780	-28.128	16299	16910	0	404
11.684	-17.851	16299	17041	0	404
17.129	-10.422	16299	17173	0	404
22.503	-6.780	16299	17173	0	404
24.270	-6.780	16299	17305	0	404
23.224	-11.143	16299	17305	0	404
17.093	-19.041	16299	17436	0	404
10.855	-26.397	16299	17436	0	404
3.859	-33.610	16299	17436	0	404
-1.551	-39.704	16299	17305	0	404
-9.881	-44.068	16299	17173	0	404
-16.372	-48.720	16299	17173	0	404
-22.358	-51.497	16299	17436	0	404
-29.174	-56.978	16384	17831	0	404
-32.816	-63.289	16384	18094	0	404
-36.855	-68.338	16384	18226	0	404
-38.298	-71.439	16384	18226	0	404
-40.930	-71.944	16384	18226	0	404
-40.858	-71.186	16469	18226	0	404
-40.966	-69.780	16469	18094	0	404
-39.127	-68.842	16469	17568	0	404
-35.737	-65.056	16469	16910	0	404
-28.237	-58.493	16384	16384	0	404
-18.933	-49.441	16384	15990	0	404
-10.927	-41.219	16384	15727	0	404
-6.455	-35.593	16384	15463	0	404
-4.472	-32.420	16384	14937	0	404
-4.688	-30.004	16299	14411	0	404
-5.770	-29.895	16299	14148	0	404
-3.678	-27.587	16299	14148	0	404
-0.433	-25.171	16299	14411	0	404
3.931	-21.529	16299	14674	0	404
6.058	-17.887	16299	14806	0	404
7.068	-17.346	16299	15069	0	404
1.875	-22.503	16299	15463	0	404
-7.032	-33.466	16299	15858	0	404
-15.723	-44.176	16384	16253	0	404
-22.935	-51.533	16384	16384	0	404
-27.768	-54.093	16384	16253	0	404
-30.004	-53.768	16299	16121	0	404
-33.898	-54.273	16384	16253	0	404
-36.747	-56.870	16384	16384	0	404
-38.045	-58.565	16384	16647	0	404
-35.233	-58.853	16384	16910	0	404
-30.977	-56.257	16384	17436	0	404
-26.470	-54.526	16469	18094	0	404
-23.404	-52.290	16469	18620	0	404
-23.080	-50.090	16469	19015	0	404
-21.890	-45.438	16597	19147	0	404
-18.788	-40.245	16597	19410	0	404
-15.254	-34.079	16597	19673	0	404
-12.441	-30.653	16683	19936	0	404
-10.350	-30.508	16683	19936	0	404
-7.465	-28.525	16683	19805	0	404
-4.219	-26.325	16811	19673	0	404
0.613	-19.510	16811	19410	0	404
5.301	-12.694	16811	19015	0	404
6.491	-7.068	16811	18489	1	328
6.671	-2.380	16811	17568	0	328
7.717	-0.433	16811	16778	0	328
11.360	1.118	16811	15990	0	328
15.939	4.183	16597	14806	0	328
22.322	6.491	16597	13621	0	328
27.515	9.268	16469	12437	0	328
29.427	11.107	16384	11253	0	328
28.850	11.179	16384	10332	0	328
26.181	9.484	16299	9674	0	328
20.231	6.996	16299	9148	0	328
12.766	2.272	16171	9279	0	328
5.662	-2.344	16171	9674	0	328
-1.875	-7.321	16171	10332	0	328
-6.275	-13.415	16171	10727	0	328
-10.458	-17.815	16171	11253	0	328
-9.881	-20.483	16171	12174	0	328
-11.828	-20.916	16171	13227	0	328
-15.038	-21.529	16171	14016	0	328
-17.021	-22.106	16171	14806	0	328
-20.303	-22.575	16171	15463	0	328
-22.972	-26.181	16299	16253	0	328
-23.981	-28.777	16299	17041	0	328
-26.433	-32.095	16299	17831	0	328
-30.184	-35.197	16299	18620	0	328
-33.898	-38.298	16384	19147	0	328
-36.170	-41.039	16384	19673	0	328
-39.019	-42.770	16384	20068	0	328
-41.363	-44.320	16469	20462	0	328
-44.212	-44.176	16469	20726	0	328
-45.041	-43.130	16469	20594	0	328
-42.697	-39.812	16469	20594	0	328
-37.901	-35.160	16597	20594	0	328
-32.167	-32.131	16597	20462	0	328
-28.886	-30.328	16597	20331	0	328
-31.230	-29.859	16597	19805	0	328
-34.006	-32.131	16597	19015	0	328
-35.521	-31.122	16597	18357	0	328
-33.754	-30.112	16597	17699	0	328
-31.230	-28.345	16597	17305	0	328
-29.318	-27.912	16469	16647	0	328
-30.472	-30.545	16384	16253	0	328
-31.879	-33.790	16384	15858	0	328
