neuroNicle FX2
D3F25R12
Bluetooth SPP
2023년 11월 1일 수요일
오후 7:30
time interval = 4msec
EEG1	EEG2	PPG	sdPPG	pulse	peak_interval(msec)
26.470	22.034	17299	15241	0	464
24.919	19.834	17273	15271	0	464
23.476	15.975	17254	15321	0	464
22.719	15.579	17240	15393	0	464
20.087	12.441	17227	15478	0	464
11.864	7.862	17219	15574	0	464
6.744	4.219	17206	15687	0	464
5.373	0.469	17206	15805	0	464
8.727	0.902	17200	15903	0	464
12.658	4.364	17206	16010	0	464
16.480	7.032	17214	16151	0	464
13.884	10.674	17227	16308	0	464
7.357	8.907	17232	16438	0	464
4.219	9.304	17246	16532	0	464
4.580	7.465	17259	16610	0	464
9.412	9.124	17267	16680	0	464
15.146	9.484	17273	16743	0	464
21.854	14.172	17281	16793	0	464
25.712	17.706	17286	16815	0	464
30.617	25.135	17294	16813	0	464
36.675	30.617	17299	16815	0	464
41.219	35.341	17313	16854	0	464
43.094	37.432	17321	16906	0	464
40.966	36.098	17334	16915	0	464
36.675	32.816	17321	16821	0	464
29.354	24.089	17294	16649	0	464
22.647	16.589	17281	16508	0	464
15.002	8.799	17259	16434	0	464
8.763	2.128	17254	16386	0	464
3.282	0.757	17246	16352	0	464
0.829	-1.442	17232	16319	0	464
-3.210	-6.383	17219	16273	0	464
-6.383	-8.619	17206	16228	0	464
-8.475	-13.018	17206	16236	0	464
-10.206	-14.605	17214	16293	0	464
-9.809	-15.507	17206	16323	0	464
-13.451	-15.254	17192	16276	0	464
-17.418	-19.401	17166	16173	0	464
-19.726	-21.493	17147	16079	0	464
-22.214	-23.693	17125	16023	0	464
-22.719	-24.342	17093	15960	0	464
-19.762	-25.604	17058	15870	0	464
-21.241	-27.912	17040	15812	0	464
-21.421	-29.030	17032	15853	0	464
-14.749	-24.811	17045	15995	0	464
-6.058	-12.586	17045	16145	0	464
2.128	-2.777	17040	16217	0	464
7.248	4.832	17032	16212	0	464
6.635	5.229	17026	16197	0	464
6.780	3.678	17013	16212	0	464
9.809	5.914	17005	16243	0	464
17.454	13.668	16999	16256	0	464
26.253	21.096	16986	16254	0	464
32.853	24.847	16986	16271	0	464
36.531	24.666	16978	16310	0	464
36.855	23.873	16965	16330	0	464
36.314	22.827	16959	16321	0	464
34.151	23.476	16946	16284	0	464
31.518	18.500	16919	16228	0	464
30.076	17.202	16892	16164	0	464
27.948	12.586	16871	16099	0	464
26.109	14.281	16839	16025	0	464
23.693	14.569	16791	15907	0	464
23.909	16.552	16732	15707	0	464
22.575	15.435	16670	15491	0	464
23.440	14.930	16625	15400	0	464
25.460	15.615	16598	15437	0	464
23.801	15.975	16571	15502	0	464
22.431	18.536	16550	15591	0	464
24.630	18.247	16544	15737	0	464
26.361	22.250	16558	15940	0	464
32.492	29.174	16576	16173	0	464
40.137	33.177	16603	16421	0	464
41.976	35.521	16643	16689	0	464
37.901	32.059	16697	16976	0	464
31.843	26.433	16750	17279	0	464
27.551	23.657	16825	17590	0	464
27.443	23.440	16906	17915	0	464
31.446	24.558	16999	18233	0	464
33.754	23.945	17099	18534	0	464
33.105	22.214	17200	18819	0	464
29.499	17.598	17321	19087	0	464
27.840	15.867	17441	19338	0	464
28.309	14.245	17562	19569	0	464
30.436	17.274	17688	19763	0	464
32.131	18.283	17808	19891	0	464
33.646	23.080	17937	19974	0	464
32.456	22.611	18076	20076	0	464
32.384	22.250	18223	20207	0	464
34.151	23.440	18365	20305	0	464
37.973	24.450	18499	20312	0	464
42.589	26.614	18625	20224	0	464
46.881	29.066	18754	20126	0	464
47.746	31.410	18893	20059	0	464
47.746	32.456	19027	19983	0	464
46.051	37.685	19147	19854	1	728
46.953	40.966	19262	19678	0	728
48.143	44.212	19383	19490	0	728
48.503	42.950	19495	19309	0	728
49.730	41.760	19616	19135	0	728
50.379	39.704	19718	18937	0	728
48.503	36.495	19803	18667	0	728
44.320	33.033	19870	18292	0	728
34.115	26.686	19924	17858	0	728
25.316	20.339	19978	17484	0	728
20.339	17.706	20044	17207	0	728
22.142	19.798	20098	16972	0	728
27.587	24.522	20160	16756	0	728
28.669	23.476	20219	16573	0	728
21.349	17.634	20285	16431	0	728
12.802	7.573	20352	16319	0	728
5.770	0.469	20406	16191	0	728
6.419	-0.613	20427	15990	0	728
15.182	5.301	20460	15753	0	728
21.745	10.999	20500	15574	0	728
28.561	14.858	20535	15487	0	728
28.020	16.877	20580	15441	0	728
26.217	15.218	20607	15395	0	728
24.630	14.677	20642	15313	0	728
24.739	15.795	20655	15210	0	728
24.811	15.146	20674	15145	0	728
22.935	14.497	20709	15119	0	728
20.159	9.232	20722	15106	0	728
13.595	3.823	20741	15093	0	728
11.396	4.364	20749	15051	0	728
14.785	7.753	20754	14966	0	728
16.264	12.261	20749	14886	0	728
18.103	14.281	20735	14820	0	728
12.514	9.484	20722	14727	0	728
5.337	1.118	20682	14576	0	728
1.154	-3.678	20642	14415	0	728
-0.036	-1.947	20615	14306	0	728
4.868	2.308	20575	14276	0	728
9.737	5.157	20561	14308	0	728
13.235	6.347	20535	14369	0	728
14.749	3.426	20521	14439	0	728
13.343	1.515	20494	14535	0	728
12.369	1.406	20494	14663	0	728
13.235	4.652	20481	14781	0	728
11.792	10.602	20454	14873	0	728
14.245	11.360	20446	14953	0	728
14.389	8.439	20427	15040	0	728
11.684	6.131	20406	15145	0	728
13.487	4.904	20406	15284	0	728
16.192	10.963	20406	15430	0	728
23.621	19.618	20379	15509	0	728
28.633	27.515	20334	15463	0	728
31.554	26.722	20285	15339	0	728
26.361	19.365	20245	15278	0	728
18.500	11.035	20213	15306	0	728
7.357	3.246	20178	15350	0	728
0.902	0.072	20146	15378	0	728
-2.200	-1.334	20111	15430	0	728
-2.705	-2.993	20093	15520	0	728
-4.364	-6.744	20079	15633	0	728
-7.717	-10.458	20058	15753	0	728
-12.369	-16.733	20044	15866	0	728
-19.005	-20.087	20026	15960	0	728
-22.719	-25.460	20004	16016	0	728
-25.893	-27.984	19986	16040	0	728
-28.164	-31.158	19959	16062	0	728
-27.948	-29.535	19932	16097	0	728
-25.532	-25.460	19919	16125	0	728
-23.765	-22.683	19884	16125	0	728
-23.296	-21.349	19844	16071	0	728
-23.368	-23.152	19798	15979	0	728
-22.935	-24.198	19758	15899	0	728
-19.221	-21.277	19704	15844	0	728
-14.641	-16.769	19656	15772	0	728
-10.097	-11.720	19597	15679	0	728
-11.179	-10.710	19549	15615	0	728
-11.468	-11.251	19503	15620	0	728
-8.943	-10.242	19469	15668	0	728
-5.986	-9.016	19428	15703	0	728
-3.642	-7.609	19383	15687	0	728
-4.436	-10.133	19335	15650	0	728
-10.855	-16.913	19281	15611	0	728
-17.310	-26.001	19236	15594	0	728
-22.755	-30.220	19182	15600	0	728
-23.260	-33.862	19142	15598	0	728
-21.457	-31.013	19088	15587	0	728
-24.017	-31.338	19048	15605	0	728
-25.965	-32.131	19008	15668	0	728
-28.056	-33.790	18973	15748	0	728
-29.968	-34.403	18928	15803	0	728
-27.696	-31.518	18901	15851	0	728
-25.207	-27.155	18874	15931	0	728
-23.657	-25.027	18847	16042	0	728
-26.361	-24.017	18821	16154	0	728
-28.489	-25.568	18799	16232	0	728
-29.571	-24.486	18780	16293	0	728
-26.253	-22.431	18759	16354	0	728
-20.736	-16.372	18732	16405	0	728
-13.307	-11.937	18713	16451	0	728
-7.176	-5.373	18692	16499	0	728
-2.416	-0.577	18679	16545	0	728
-1.839	2.705	18652	16562	0	728
-0.288	5.265	18625	16549	0	728
1.262	6.924	18593	16516	0	728
3.101	9.016	18558	16466	0	728
6.888	9.809	18531	16410	0	728
10.458	10.350	18486	16352	0	728
11.792	9.881	18438	16241	0	728
11.432	9.484	18365	16053	0	728
7.645	8.727	18304	15844	0	728
6.780	10.963	18231	15681	0	728
7.285	13.415	18170	15572	0	728
10.710	18.680	18097	15476	0	728
15.398	19.906	18031	15387	0	728
16.048	22.250	17977	15350	0	728
18.716	23.440	17923	15376	0	728
17.202	22.647	17870	15406	0	728
21.132	25.640	17816	15387	0	728
23.152	30.112	17755	15356	0	728
29.210	34.836	17709	15391	0	728
32.708	36.747	17669	15513	0	728
34.439	35.557	17661	15687	0	728
35.052	34.331	17634	15875	0	728
35.810	33.934	17621	16056	0	728
35.197	32.672	17629	16252	0	728
33.754	35.052	17629	16462	0	728
34.331	34.151	17634	16675	0	728
31.410	30.508	17656	16885	0	728
27.948	25.243	17669	17089	0	728
26.145	21.962	17701	17281	0	728
23.657	20.591	17736	17473	0	728
20.988	18.824	17768	17669	0	728
14.930	18.897	17803	17839	0	728
13.956	15.435	17822	17913	0	728
10.206	14.425	17822	17832	0	728
10.674	11.684	17808	17647	0	728
10.458	10.386	17803	17495	0	728
9.304	12.477	17795	17405	0	728
7.573	14.317	17789	17299	0	728
11.071	17.562	17768	17157	0	728
15.867	23.080	17749	17007	0	728
23.332	28.814	17736	16869	0	728
28.128	29.968	17709	16745	0	728
28.958	29.931	17696	16612	0	728
27.443	28.164	17661	16479	0	728
27.732	28.092	17642	16367	0	728
27.804	27.299	17615	16262	0	728
26.722	29.318	17575	16151	0	728
24.811	27.984	17540	16005	0	728
23.549	26.650	17468	15770	0	728
22.791	27.551	17393	15474	0	728
27.479	29.210	17326	15232	0	728
33.826	35.341	17267	15099	0	728
39.416	40.209	17206	15045	0	728
44.933	42.986	17174	15049	0	728
46.989	45.510	17125	15090	0	728
50.920	49.261	17093	15143	0	728
55.211	56.113	17066	15217	0	728
57.375	59.466	17040	15339	0	728
55.644	59.935	17032	15511	0	728
54.309	58.745	17026	15718	0	728
52.326	56.149	17040	15949	0	728
57.735	59.647	17053	16186	0	728
66.895	70.177	17080	16438	0	728
74.144	79.517	17120	16726	0	728
73.999	83.195	17174	17052	0	728
71.114	79.084	17240	17401	0	728
61.233	68.878	17313	17741	0	728
54.309	58.745	17407	18078	0	728
51.424	52.759	17495	18418	0	728
47.313	50.920	17607	18758	0	728
43.491	47.494	17715	19065	0	728
41.616	42.193	17822	19316	0	728
35.413	34.728	17937	19508	0	728
29.859	30.364	18049	19667	0	728
30.220	30.436	18170	19819	0	728
31.915	35.413	18298	19952	0	728
40.245	41.255	18405	20009	0	728
48.936	45.727	18499	19924	0	728
50.270	46.700	18585	19732	0	728
45.582	41.760	18673	19551	0	728
35.954	37.252	18754	19421	0	728
28.092	33.646	18847	19292	1	728
24.702	33.574	18933	19146	0	728
27.191	34.115	19013	18991	0	728
28.777	31.554	19102	18821	0	728
27.191	26.542	19174	18649	0	728
23.224	24.198	19268	18512	0	728
22.286	23.332	19356	18407	0	728
20.880	27.840	19437	18275	0	728
18.644	27.840	19495	18057	0	728
15.074	20.195	19557	17791	0	728
7.970	8.511	19616	17549	0	728
2.344	-0.144	19664	17344	0	728
2.092	-0.288	19718	17148	0	728
5.950	3.570	19763	16943	0	728
7.285	5.950	19798	16741	0	728
5.878	6.635	19852	16569	0	728
2.993	1.046	19892	16449	0	728
2.705	-1.731	19951	16384	0	728
4.472	-0.938	19999	16332	0	728
5.806	2.056	20039	16254	0	728
4.940	2.633	20085	16175	0	728
0.144	1.659	20133	16125	0	728
-3.390	-0.757	20186	16101	0	728
-4.183	-3.101	20232	16090	0	728
-3.642	-4.400	20272	16071	0	728
-3.859	-8.547	20320	16056	0	728
-5.157	-9.520	20366	16062	0	728
-7.068	-10.674	20414	16088	0	728
-9.196	-10.169	20460	16106	0	728
-11.648	-13.163	20500	16101	0	728
-15.903	-16.120	20548	16101	0	728
-19.149	-23.801	20601	16130	0	728
-25.135	-30.797	20647	16193	0	728
-28.705	-37.288	20695	16271	0	728
-33.213	-41.075	20741	16300	0	728
-38.586	-42.445	20754	16206	0	728
-41.435	-45.871	20762	16034	0	728
-43.635	-42.986	20781	15927	0	728
-43.599	-42.481	20808	15923	0	728
-41.075	-41.507	20843	15942	0	728
-37.324	-38.947	20869	15960	0	728
-31.302	-36.819	20896	15992	0	728
-26.037	-33.718	20928	16034	0	728
-24.162	-33.069	20955	16069	0	728
-25.748	-32.203	20990	16106	0	728
-29.968	-35.629	21017	16130	0	728
-35.774	-37.252	21035	16112	0	728
-38.803	-36.819	21049	16082	0	728
-37.793	-37.757	21070	16060	0	728
-33.898	-35.124	21089	16053	0	728
-29.679	-34.403	21116	16069	0	728
-29.210	-36.206	21137	16099	0	728
-35.737	-40.462	21156	16140	0	728
-43.851	-45.078	21191	16195	0	728
-50.343	-50.054	21209	16232	0	728
-56.726	-55.716	21217	16201	0	728
-56.978	-59.971	21217	16101	0	728
-59.214	-64.767	21209	15977	0	728
-63.000	-67.797	21196	15870	0	728
-63.469	-67.580	21196	15814	0	728
-60.981	-64.551	21204	15818	0	728
-58.781	-58.781	21209	15862	0	728
-54.490	-56.906	21223	15914	0	728
-51.028	-57.807	21236	15962	0	728
-52.110	-60.945	21250	16023	0	728
-53.480	-65.308	21276	16103	0	728
-58.457	-68.193	21298	16208	0	728
-62.387	-67.184	21330	16319	0	728
-64.046	-65.164	21351	16407	0	728
-60.548	-60.981	21384	16482	0	728
-53.588	-56.545	21410	16556	0	728
-46.087	-51.605	21445	16647	0	728
-40.029	-45.907	21477	16726	0	728
-35.485	-40.498	21499	16750	0	728
-32.889	-38.586	21517	16743	0	728
-32.095	-37.288	21539	16743	0	728
-31.807	-38.550	21571	16765	0	728
-33.357	-39.596	21598	16797	0	728
-33.646	-38.839	21619	16804	0	728
-33.610	-37.144	21633	16767	0	728
-34.331	-36.567	21651	16721	0	728
-33.285	-37.649	21665	16691	0	728
-33.862	-39.993	21678	16658	0	728
-34.620	-40.317	21678	16573	0	728
-35.124	-41.724	21659	16401	0	728
-36.459	-42.409	21638	16199	0	728
-37.180	-46.159	21625	16049	0	728
-34.439	-52.434	21611	15966	0	728
-28.164	-59.647	21606	15912	0	728
-20.339	-60.368	21592	15877	0	728
-12.838	-54.706	21584	15859	0	728
-9.340	-46.556	21579	15838	0	728
-9.520	-37.468	21566	15805	0	728
-10.963	-33.033	21552	15748	0	728
-12.910	-34.403	21517	15650	0	728
-12.982	-35.665	21477	15515	0	728
-11.612	-35.810	21437	15363	0	728
-10.566	-34.944	21378	15208	0	728
-9.520	-32.853	21338	15079	0	728
-9.304	-31.482	21284	15012	0	728
-9.016	-30.941	21250	15003	0	728
-11.107	-31.879	21204	15012	0	728
-12.225	-34.151	21169	15016	0	728
-10.855	-32.564	21151	15073	0	728
-7.357	-30.220	21129	15206	0	728
-3.462	-26.542	21116	15361	0	728
-0.757	-22.070	21102	15489	0	728
-2.272	-23.476	21089	15594	0	728
-9.989	-25.532	21076	15703	0	728
-14.894	-30.545	21070	15840	0	728
-19.437	-32.131	21062	15986	0	728
-18.175	-33.574	21062	16117	0	728
-16.012	-33.429	21062	16223	0	728
-13.848	-34.331	21070	16334	0	728
-15.146	-34.403	21084	16464	0	728
-17.598	-33.862	21089	16614	0	728
-21.673	-32.889	21102	16756	0	728
-19.149	-30.328	21102	16824	0	728
-17.418	-28.994	21084	16758	0	728
-14.208	-29.751	21062	16619	0	728
-13.199	-32.564	21043	16543	0	728
-16.372	-34.944	21030	16529	0	728
-18.103	-37.036	21009	16482	0	728
-19.978	-35.485	20982	16399	0	728
-15.903	-31.158	20955	16310	0	728
-12.658	-27.299	20923	16215	0	728
-8.583	-23.368	20888	16119	0	728
-8.727	-21.096	20848	16032	0	728
-14.353	-23.837	20794	15916	0	728
-20.050	-29.174	20741	15742	0	728
-26.109	-34.006	20682	15554	0	728
-29.210	-38.370	20607	15395	0	728
-28.922	-40.137	20553	15267	0	728
-28.597	-39.957	20481	15160	0	728
-31.662	-40.462	20414	15053	0	728
-33.754	-44.464	20339	14951	0	728
-36.639	-46.159	20267	14866	0	728
-37.252	-47.422	20200	14801	0	728
-36.242	-46.268	20119	14746	0	728
-33.826	-42.409	20039	14696	0	728
-30.581	-39.344	19951	14615	0	728
-27.443	-34.223	19865	14515	0	728
-22.863	-31.410	19777	14465	0	728
-17.202	-26.109	19696	14467	0	728
-13.559	-22.286	19597	14428	0	728
-11.540	-20.123	19482	14310	0	728
-10.061	-18.716	19370	14173	0	728
-12.477	-22.034	19254	14082	0	728
-13.523	-24.017	19142	14042	0	728
-12.838	-25.820	19040	14042	0	728
-15.110	-26.470	18928	14064	0	728
-13.523	-24.125	18826	14084	0	728
-12.946	-22.683	18719	14108	0	728
-12.189	-23.368	18612	14169	0	728
-11.612	-23.332	18526	14282	0	728
-12.946	-24.739	18438	14422	0	728
-14.281	-23.909	18344	14550	0	728
-11.576	-20.159	18258	14657	0	728
-8.943	-15.903	18164	14772	0	728
-5.842	-13.415	18089	14923	0	728
-4.327	-18.067	18017	15084	0	728
-5.517	-19.690	17942	15223	0	728
-5.842	-19.798	17862	15350	0	728
-2.272	-15.110	17803	15500	0	728
1.010	-8.042	17741	15683	0	728
0.721	-3.065	17696	15877	0	728
-1.442	-3.967	17629	16032	0	728
-1.406	-4.652	17548	16064	0	728
0.721	-2.272	17447	15953	0	728
7.501	2.019	17361	15833	0	728
10.206	4.400	17286	15881	0	728
5.806	1.731	17259	16117	0	728
-1.731	-4.652	17246	16449	0	728
-10.674	-10.783	17246	16784	0	728
-11.684	-15.435	17254	17105	0	728
-8.547	-12.261	17281	17462	0	728
-2.849	-10.927	17334	17895	0	728
-0.829	-10.999	17407	18368	0	728
-3.678	-13.704	17473	18760	0	728
-7.068	-19.546	17522	19011	0	728
-6.275	-18.824	17575	19159	0	728
-2.236	-15.074	17621	19266	0	728
4.075	-5.878	17674	19360	0	728
10.350	1.515	17736	19445	0	728
13.884	6.131	17781	19488	0	728
16.264	7.898	17835	19468	0	728
18.572	7.429	17897	19438	0	728
21.890	11.035	17950	19416	0	728
20.411	13.307	17996	19333	0	728
10.891	11.071	15581	16084	0	704
13.956	13.992	15536	15999	0	704
11.251	13.018	15482	15883	0	704
6.996	11.071	15428	15746	0	704
6.816	8.547	15380	15650	0	704
7.753	8.763	15335	15620	0	704
10.783	12.550	15300	15639	0	704
13.127	14.425	15260	15668	0	704
13.091	13.812	15220	15683	0	704
13.451	13.559	15201	15718	0	704
9.520	10.061	15179	15801	0	704
5.373	6.275	15161	15927	0	704
4.291	6.744	15153	16064	0	704
3.065	7.248	15139	16186	0	704
3.678	9.809	15139	16308	0	704
5.626	11.540	15153	16460	0	704
6.347	13.812	15166	16651	0	704
6.924	14.461	15193	16865	0	704
8.222	17.634	15220	17083	0	704
15.543	23.044	15273	17312	0	704
22.395	30.617	15327	17569	0	704
30.112	33.754	15402	17852	0	704
35.305	36.495	15474	18142	0	704
36.819	35.413	15554	18399	0	704
36.170	32.420	15635	18612	0	704
33.177	31.122	15728	18808	0	704
27.840	29.282	15822	19013	0	704
23.080	28.273	15937	19227	0	704
17.923	25.676	16050	19421	0	704
15.218	24.414	16165	19586	0	704
11.035	19.365	16285	19721	0	704
7.176	16.408	16402	19837	0	704
5.229	12.117	16531	19930	0	704
4.688	12.982	16651	19972	0	704
6.888	12.910	16772	19950	0	704
9.376	15.326	16871	19861	0	704
10.999	16.589	16973	19719	0	704
10.206	12.946	17066	19558	0	704
9.917	12.009	17160	19384	1	800
10.458	9.592	17254	19200	0	800
11.684	9.232	17340	19004	0	800
15.218	9.953	17415	18760	0	800
16.192	13.091	17482	18499	0	800
20.627	14.497	17581	18329	0	800
21.060	17.274	17669	18257	0	800
21.890	17.382	17763	18157	0	800
22.539	19.329	17830	17963	0	800
22.827	19.149	17897	17719	0	800
24.378	20.700	17956	17486	0	800
24.270	20.988	18022	17294	0	800
22.250	20.880	18084	17129	0	800
21.349	16.769	18130	16954	0	800
17.815	15.903	18178	16741	0	800
16.480	12.838	18218	16523	0	800
13.127	11.432	18250	16345	0	800
11.143	9.665	18304	16217	0	800
6.599	6.816	18344	16119	0	800
4.075	2.236	18392	16032	0	800
1.334	-1.695	18432	15964	0	800
-0.865	-3.498	18486	15947	0	800
-0.938	-4.796	18545	15981	0	800
-0.433	-3.498	18606	16042	0	800
1.551	-0.577	18660	16082	0	800
5.085	2.308	18705	16066	0	800
6.708	5.157	18746	16023	0	800
11.107	8.150	18799	16018	0	800
10.963	6.275	18853	16060	0	800
10.891	4.255	18888	16084	0	800
13.018	1.587	18928	16036	0	800
14.821	2.813	18928	15881	0	800
19.077	5.554	18914	15659	0	800
20.916	9.629	18920	15480	0	800
23.080	10.855	18928	15387	0	800
18.897	12.982	18928	15341	0	800
17.238	12.946	18941	15313	0	800
13.271	12.369	18946	15293	0	800
10.602	12.586	18946	15293	0	800
4.616	8.222	18960	15304	0	800
-0.361	3.137	18968	15310	0	800
-0.288	0.216	18968	15306	0	800
0.000	-0.325	18968	15293	0	800
2.957	2.596	18954	15282	0	800
4.003	4.039	18954	15284	0	800
1.082	6.058	18960	15300	0	800
-3.606	2.200	18941	15304	0	800
-8.511	-3.065	18920	15262	0	800
-8.258	-6.275	18901	15210	0	800
-4.039	-4.796	18893	15236	0	800
0.541	-0.865	18901	15343	0	800
8.511	6.996	18906	15461	0	800
12.369	13.307	18901	15546	0	800
9.809	12.802	18893	15583	0	800
4.364	8.583	18888	15594	0	800
-0.685	4.075	18874	15618	0	800
-3.065	-0.036	18861	15661	0	800
0.180	-0.072	18847	15687	0	800
5.770	2.777	18834	15676	0	800
11.576	5.878	18821	15685	0	800
13.704	7.862	18799	15733	0	800
10.602	7.681	18794	15770	0	800
9.196	5.337	18780	15788	0	800
5.445	2.633	18767	15812	0	800
1.442	-0.649	18759	15857	0	800
3.065	-0.902	18746	15925	0	800
5.698	3.173	18754	16023	0	800
9.376	8.222	18754	16127	0	800
11.648	13.343	18754	16212	0	800
13.235	13.956	18754	16269	0	800
9.629	14.317	18746	16306	0	800
7.465	10.891	18754	16356	0	800
5.085	6.708	18767	16442	0	800
1.695	5.265	18780	16560	0	800
0.469	4.147	18799	16678	0	800
0.757	6.924	18813	16767	0	800
4.364	11.576	18821	16813	0	800
7.104	14.677	18821	16780	0	800
9.701	18.464	18807	16673	0	800
8.943	13.343	18786	16560	0	800
5.085	11.756	18767	16462	0	800
1.659	9.412	18740	16337	0	800
1.370	8.330	18692	16173	0	800
2.669	12.874	18660	16018	0	800
4.760	13.668	18625	15894	0	800
5.950	11.720	18585	15794	0	800
2.741	8.402	18545	15696	0	800
0.000	4.688	18499	15596	0	800
-2.849	2.813	18451	15480	0	800
-2.164	6.347	18405	15369	0	800
1.839	8.727	18352	15300	0	800
3.426	13.163	18312	15258	0	800
5.626	15.398	18258	15212	0	800
7.393	20.087	18218	15184	0	800
11.576	24.414	18164	15195	0	800
13.271	28.020	18130	15239	0	800
17.418	30.941	18097	15289	0	800
17.274	29.499	18057	15337	0	800
19.149	28.489	18017	15389	0	800
19.185	27.479	17982	15448	0	800
22.827	28.020	17950	15507	0	800
22.863	29.679	17915	15572	0	800
22.322	28.489	17883	15633	0	800
21.349	25.568	17848	15692	0	800
15.867	21.457	17822	15768	0	800
12.658	17.454	17808	15875	0	800
9.629	18.247	17789	15984	0	800
8.727	18.103	17749	16021	0	800
9.809	18.644	17688	15931	0	800
10.530	17.815	17634	15779	0	800
8.006	14.497	17575	15687	0	800
5.590	10.169	17527	15676	0	800
2.308	10.530	17482	15676	0	800
3.823	11.396	17433	15676	0	800
7.970	15.903	17388	15703	0	800
13.812	22.250	17353	15753	0	800
14.966	24.162	17313	15801	0	800
16.949	22.827	17273	15835	0	800
15.146	23.440	17240	15868	0	800
16.480	21.241	17192	15894	0	800
17.706	22.683	17152	15896	0	800
20.772	24.378	17107	15883	0	800
20.050	23.440	17058	15875	0	800
21.818	23.224	17013	15877	0	800
21.204	24.739	16959	15857	0	800
22.863	24.811	16898	15781	0	800
25.352	25.820	16844	15690	0	800
22.286	24.955	16799	15698	0	800
18.752	23.224	16772	15809	0	800
14.064	18.860	16724	15890	0	800
10.458	18.175	16678	15877	0	800
7.717	16.300	16616	15822	0	800
7.393	16.661	16563	15794	0	800
7.429	14.064	16523	15807	0	800
5.626	13.018	16483	15842	0	800
4.616	9.953	16437	15879	0	800
5.878	9.520	16384	15892	0	800
7.501	12.441	16344	15894	0	800
11.396	18.608	16304	15918	0	800
16.156	21.601	16264	15971	0	800
19.401	25.279	16224	16018	0	800
22.070	26.109	16184	16036	0	800
22.719	24.414	16143	16045	0	800
22.791	24.919	16103	16053	0	800
25.243	24.162	16058	16040	0	800
28.092	24.702	15991	15990	0	800
30.256	24.198	15943	15918	0	800
30.364	24.919	15876	15833	0	800
27.119	23.368	15809	15764	0	800
21.204	17.995	15769	15764	0	800
14.533	14.245	15736	15840	0	800
12.622	9.124	15702	15931	0	800
13.235	6.708	15669	16023	0	800
14.533	7.248	15643	16127	0	800
14.317	6.996	15621	16243	0	800
6.780	3.859	15608	16356	0	800
0.180	-0.685	15589	16440	0	800
-8.475	-6.419	15568	16508	0	800
-13.920	-9.340	15554	16571	0	800
-13.740	-9.340	15536	16634	0	800
-13.812	-9.196	15514	16686	0	800
-12.009	-7.140	15501	16708	0	800
-9.052	-6.311	15469	16689	0	800
-9.340	-5.878	15428	16604	0	800
-9.268	-6.347	15380	16486	0	800
-9.016	-6.527	15348	16388	0	800
-8.330	-6.311	15295	16310	0	800
-6.635	-7.321	15260	16234	0	800
-5.950	-7.357	15206	16158	0	800
-7.862	-9.448	15161	16062	0	800
-11.323	-15.254	15099	15960	0	800
-17.021	-17.779	15067	15938	0	800
-20.447	-20.736	15045	16014	0	800
-24.234	-21.962	15019	16103	0	800
-26.794	-23.657	15000	16149	0	800
-30.148	-27.624	14965	16162	0	800
-34.151	-30.364	14938	16184	0	800
-38.478	-34.620	14925	16241	0	800
-42.625	-36.603	14906	16315	0	800
-43.779	-38.442	14885	16369	0	800
-41.003	-37.108	14871	16392	0	800
-38.154	-37.000	14858	16436	0	800
-35.052	-34.006	14853	16516	0	800
-33.105	-29.066	14845	16610	0	800
-31.482	-26.289	14845	16689	0	800
-28.922	-22.935	14839	16756	0	800
-24.162	-19.906	14845	16830	0	800
-20.123	-16.336	14853	16922	0	800
-15.615	-17.490	14866	17017	0	800
-14.389	-15.975	14885	17109	0	800
-12.514	-17.129	14898	17190	0	800
-11.504	-14.353	14906	17220	0	800
-8.078	-11.720	14912	17211	0	800
-2.957	-5.842	14946	17277	0	800
-0.288	-1.695	14987	17442	0	800
0.216	-0.793	15040	17628	0	800
0.361	-2.596	15094	17815	0	800
-0.180	-5.157	15166	18009	0	800
-0.361	-6.022	15228	18183	0	800
-2.741	-6.311	15308	18325	0	800
-5.373	-9.520	15380	18453	0	800
-12.586	-10.999	15461	18573	0	800
-16.769	-13.776	15536	18665	0	800
-16.733	-16.949	15608	18702	0	800
-16.841	-16.913	15683	18693	0	800
-15.795	-21.313	15763	18695	0	800
-17.490	-26.073	15849	18734	0	800
-19.221	-34.908	15937	18787	0	800
-21.096	-41.471	16036	18839	0	800
-17.129	-44.176	16130	18885	0	800
-14.858	-45.546	16232	18922	0	800
-8.727	-41.832	16339	18943	0	800
-7.248	-36.026	16437	18950	0	800
-5.662	-30.761	16531	18922	0	800
-3.787	-26.830	16630	18856	0	800
-2.056	-25.496	16732	18800	1	860
-1.370	-22.431	16831	18758	0	860
-1.406	-23.476	16924	18699	0	860
-2.849	-20.627	17018	18599	0	860
-2.957	-20.772	17099	18449	0	860
-1.118	-19.870	17179	18270	0	860
2.885	-17.923	17259	18102	0	860
3.714	-17.598	17334	17954	0	860
1.082	-16.841	17401	17795	0	860
-3.318	-18.933	17460	17608	0	860
-7.501	-19.546	17527	17412	0	860
-10.494	-20.195	17581	17240	0	860
-10.494	-17.851	17648	17107	0	860
-8.366	-16.300	17715	17007	0	860
-6.455	-13.018	17776	16902	0	860
-2.128	-12.189	17830	16784	0	860
1.442	-8.655	17889	16675	0	860
6.311	-5.301	17950	16582	0	860
8.763	-3.823	17996	16510	0	860
9.304	-2.164	18057	16458	0	860
9.629	-4.111	18111	16407	0	860
12.117	-2.380	18156	16328	0	860
15.615	-0.216	18197	16208	0	860
17.815	4.327	18223	16082	0	860
22.467	9.809	18258	15960	0	860
22.935	15.543	18272	15842	0	860
21.529	14.677	18290	15700	0	860
23.152	14.713	18277	15511	0	860
22.214	12.441	18272	15280	0	860
20.123	9.376	18237	15040	0	860
18.897	8.907	18210	14801	0	860
14.461	9.088	18156	14537	0	860
12.333	9.448	18097	14267	0	860
9.556	5.481	18044	14040	0	860
6.131	3.390	17996	13890	0	860
6.131	0.180	17950	13820	0	860
6.455	0.433	17910	13816	0	860
11.179	4.580	17862	13818	0	860
15.867	11.251	17808	13794	0	860
19.546	14.317	17763	13788	0	860
22.322	18.644	17723	13835	0	860
22.647	17.490	17674	13936	0	860
21.565	19.329	17634	14053	0	860
23.404	19.077	17602	14158	0	860
25.099	23.621	17562	14269	0	860
27.624	25.784	17540	14415	0	860
30.364	28.525	17508	14594	0	860
31.662	31.013	17495	14783	0	860
30.869	31.049	17468	14968	0	860
27.984	31.266	17455	15160	0	860
28.417	31.266	17441	15361	0	860
29.318	34.006	17441	15576	0	860
31.951	32.925	17441	15792	0	860
32.456	32.167	17428	15966	0	860
29.787	28.201	17428	16090	0	860
24.594	21.854	17420	16206	0	860
17.598	15.651	17420	16354	0	860
12.333	11.251	17433	16516	0	860
7.357	7.753	17428	16645	0	860
7.068	6.888	17433	16730	0	860
7.501	5.337	17441	16804	0	860
10.602	6.888	17433	16869	0	860
13.307	9.953	17441	16922	0	860
17.093	9.809	17447	16970	0	860
14.245	11.684	17455	17017	0	860
13.704	12.802	17455	17033	0	860
12.694	12.369	17441	16996	0	860
13.812	17.382	17441	16950	0	860
20.267	19.618	17455	16967	0	860
23.476	23.044	17468	17048	0	860
26.109	24.558	17473	17076	0	860
24.991	24.125	17455	16991	0	860
23.945	25.929	17433	16834	0	860
28.417	31.013	17407	16667	0	860
36.783	37.468	17374	16503	0	860
42.589	41.868	17326	16313	0	860
44.969	43.527	17259	16051	0	860
37.324	38.658	17200	15766	0	860
26.866	29.679	17147	15570	0	860
13.415	22.214	17099	15491	0	860
6.816	13.704	17053	15443	0	860
4.291	11.937	16999	15361	0	860
4.868	9.016	16946	15252	0	860
5.770	6.347	16892	15162	0	860
3.606	5.626	16831	15117	0	860
2.056	3.462	16791	15103	0	860
3.318	4.760	16737	15106	0	860
7.032	9.124	16691	15106	0	860
13.091	13.199	16638	15132	0	860
15.723	18.103	16603	15206	0	860
16.516	19.221	16576	15308	0	860
17.454	22.611	16536	15395	0	860
20.555	21.818	16491	15417	0	860
24.847	24.378	16424	15371	0	860
28.777	26.902	16366	15308	0	860
29.787	28.886	16318	15310	0	860
27.984	32.095	16272	15374	0	860
26.289	31.843	16224	15441	0	860
26.578	30.653	16184	15500	0	860
26.650	29.787	16143	15557	0	860
28.381	29.427	16090	15587	0	860
29.427	29.102	16036	15589	0	860
26.361	27.587	15996	15605	0	860
22.791	23.008	15943	15659	0	860
15.074	19.113	15910	15733	0	860
10.710	13.343	15876	15818	0	860
6.167	12.153	15835	15907	0	860
6.203	10.314	15803	15981	0	860
6.347	8.150	15769	16036	0	860
7.429	9.484	15736	16073	0	860
6.419	8.979	15696	16114	0	860
4.724	9.016	15669	16164	0	860
5.301	9.448	15635	16219	0	860
6.383	10.386	15608	16271	0	860
9.881	9.989	15576	16306	0	860
12.153	9.376	15528	16295	0	860
13.704	12.658	15487	16245	0	860
16.012	12.982	15447	16210	0	860
15.831	14.533	15415	16208	0	860
18.175	16.444	15375	16228	0	860
19.329	17.346	15335	16239	0	860
21.565	19.798	15308	16230	0	860
20.736	20.087	15273	16254	0	860
21.241	22.431	15260	16341	0	860
19.906	19.437	15246	16447	0	860
19.473	17.815	15241	16543	0	860
18.356	13.884	15220	16608	0	860
17.779	13.018	15214	16658	0	860
13.776	10.891	15193	16719	0	860
8.366	6.708	15193	16787	0	860
0.397	2.380	15174	16830	0	860
-5.698	-2.596	15166	16828	0	860
-9.052	-5.590	15153	16800	0	860
-9.845	-6.094	15134	16780	0	860
-4.616	-3.029	15126	16793	0	860
1.731	1.154	15120	16837	0	860
7.934	5.878	15112	16872	0	860
9.592	6.996	15112	16876	0	860
10.350	6.852	15107	16858	0	860
4.255	2.200	15086	16830	0	860
0.685	-1.731	15080	16787	0	860
-0.974	-1.587	15067	16726	0	860
0.397	1.983	15045	16678	0	860
3.462	4.796	15032	16654	0	860
5.517	8.402	15027	16647	0	860
4.580	6.599	15027	16651	0	860
1.262	1.154	15013	16647	0	860
-3.065	-2.488	15013	16636	0	860
-4.832	-4.724	15000	16623	0	860
-4.832	-4.291	14992	16604	0	860
-2.560	-0.757	14987	16571	0	860
-2.524	0.974	14965	16514	0	860
-3.065	-0.361	14946	16440	0	860
-4.977	-5.373	14920	16354	0	860
-8.547	-12.225	14879	16225	0	860
-14.064	-14.785	14839	16058	0	860
-13.523	-15.146	14799	15907	0	860
-11.900	-8.619	14759	15816	0	860
-9.484	-4.291	14719	15764	0	860
-8.366	-4.688	14684	15705	0	860
-8.763	-8.402	14638	15615	0	860
-10.674	-13.163	14598	15544	0	860
-10.746	-11.900	14558	15524	0	860
-8.439	-9.809	14531	15548	0	860
-5.193	-6.491	14496	15589	0	860
-6.744	-6.635	14470	15615	0	860
-9.989	-10.927	14438	15637	0	860
-11.864	-16.877	14411	15676	0	860
-12.658	-17.851	14397	15744	0	860
-14.317	-19.582	14371	15822	0	860
-14.641	-17.959	14349	15890	0	860
-14.389	-19.654	14330	15953	0	860
-17.202	-18.752	14317	16045	0	860
-17.418	-20.483	14322	16173	0	860
-17.382	-20.267	14330	16323	0	860
-17.238	-19.077	14317	16447	0	860
-18.247	-18.247	14322	16540	0	860
-17.346	-16.048	14317	16588	0	860
-15.687	-16.661	14282	16523	0	860
-12.550	-14.317	14237	16374	0	860
-10.710	-13.884	14210	16256	0	860
-10.746	-15.471	14170	16186	0	860
-11.900	-16.589	14135	16117	0	860
-11.071	-17.526	14116	16114	0	860
-8.619	-14.064	14116	16230	0	860
-2.308	-9.629	14130	16412	0	860
2.993	-2.128	14143	16590	0	860
4.616	1.839	14162	16739	0	860
3.895	3.462	14188	16889	0	860
2.741	2.705	14223	17087	0	860
2.164	1.551	14282	17333	0	860
1.947	2.056	14344	17612	0	860
3.354	0.829	14424	17904	0	860
4.508	3.426	14504	18192	0	860
4.472	5.265	14604	18468	0	860
7.609	10.206	14705	18736	0	860
10.494	15.723	14812	19002	0	860
15.074	22.070	14933	19266	0	860
20.952	25.207	15059	19492	0	860
26.578	26.794	15174	19660	0	860
30.328	29.463	15300	19780	0	860
34.295	32.059	15415	19837	0	860
37.577	36.026	15528	19848	0	860
39.668	39.308	15643	19858	0	860
40.353	39.632	15763	19856	0	860
40.029	39.272	15876	19828	0	860
39.524	40.822	16010	19804	0	860
40.570	43.924	16130	19784	0	860
43.743	47.782	16251	19728	1	832
46.015	50.667	16366	19614	0	832
47.926	49.982	16477	19458	0	832
48.323	49.946	16576	19277	0	832
45.871	49.333	16691	19098	0	832
46.592	50.307	16785	18928	0	832
47.349	52.687	16879	18736	0	832
44.861	52.074	16973	18516	0	832
42.517	51.497	17053	18294	0	832
38.478	46.123	17139	18092	0	832
34.115	41.616	17227	17913	0	832
30.941	34.583	17299	17708	0	832
27.155	31.771	17348	17412	0	832
25.568	27.804	17388	17050	0	832
23.260	27.768	17433	16736	0	832
23.188	29.535	17473	16506	0	832
25.748	31.446	17514	16297	0	832
28.777	34.151	17540	16086	0	832
30.040	32.961	17575	15870	0	832
28.958	31.194	17594	15659	0	832
29.066	30.004	17607	15469	0	832
28.741	29.030	17629	15308	0	832
29.571	32.780	17634	15167	0	832
31.807	35.485	17642	15027	0	832
34.223	35.954	17634	14853	0	832
35.557	35.124	17621	14674	0	832
35.846	32.816	17634	14605	0	832
34.043	30.364	17648	14642	0	832
31.951	27.119	17648	14670	0	832
27.263	24.955	17642	14631	0	832
22.863	17.490	17629	14548	0	832
15.435	11.215	17602	14452	0	832
9.773	4.652	17589	14391	0	832
5.986	1.010	17562	14387	0	832
5.734	1.479	17548	14398	0	832
9.268	4.039	17514	14382	0	832
15.471	5.770	17487	14363	0	832
21.854	8.979	17447	14356	0	832
21.457	10.602	17420	14363	0	832
22.106	12.225	17380	14382	0	832
21.493	15.110	17348	14408	0	832
19.762	16.012	17313	14452	0	832
22.034	13.992	17294	14533	0	832
25.279	14.389	17267	14650	0	832
25.784	11.828	17240	14777	0	832
25.568	13.451	17219	14886	0	832
28.056	14.208	17192	14984	0	832
30.941	16.985	17174	15093	0	832
33.141	21.385	17152	15223	0	832
33.393	21.385	17139	15363	0	832
29.102	22.358	17120	15472	0	832
22.935	20.483	17099	15552	0	832
18.897	16.805	17085	15639	0	832
14.353	14.136	17072	15748	0	832
11.396	9.881	17058	15864	0	832
7.789	4.977	17032	15940	0	832
2.885	0.144	16999	15936	0	832
3.354	-2.416	16959	15864	0	832
6.635	-0.288	16919	15803	0	832
9.196	3.390	16879	15788	0	832
12.982	7.934	16844	15798	0	832
11.396	7.537	16804	15798	0	832
8.763	5.445	16737	15711	0	832
9.701	3.642	16678	15552	0	832
12.261	3.931	16616	15439	0	832
14.569	5.157	16563	15413	0	832
17.995	8.042	16523	15437	0	832
15.471	9.196	16477	15478	0	832
13.956	9.088	16429	15500	0	832
13.631	10.206	16389	15504	0	832
16.552	14.172	16352	15541	0	832
18.788	16.228	16312	15620	0	832
23.657	16.516	16272	15687	0	832
26.037	17.238	16232	15709	0	832
27.515	15.038	16184	15711	0	832
26.938	16.264	16143	15751	0	832
23.080	14.858	16117	15840	0	832
21.529	16.156	16098	15962	0	832
20.087	13.343	16071	16095	0	832
18.139	9.376	16063	16219	0	832
16.444	6.419	16050	16345	0	832
11.143	3.318	16050	16482	0	832
4.400	0.505	16044	16614	0	832
2.957	0.649	16036	16717	0	832
3.570	2.452	16023	16778	0	832
6.563	5.265	16010	16815	0	832
9.304	8.042	16018	16872	0	832
10.169	12.045	16010	16950	0	832
14.028	13.884	16018	17022	0	832
16.192	16.913	15996	17028	0	832
22.395	21.601	15969	16922	0	832
23.981	21.493	15929	16734	0	832
24.594	23.188	15889	16577	0	832
20.627	22.286	15862	16488	0	832
16.300	21.060	15822	16407	0	832
17.021	20.700	15790	16323	0	832
19.726	25.424	15755	16254	0	832
25.965	27.443	15715	16180	0	832
29.246	30.148	15675	16075	0	832
25.279	28.092	15635	15975	0	832
18.211	22.395	15594	15927	0	832
7.068	13.920	15554	15896	0	832
-0.902	6.996	15509	15825	0	832
-2.957	4.039	15461	15727	0	832
-4.364	0.974	15407	15644	0	832
-2.993	0.108	15348	15574	0	832
-0.902	0.325	15295	15496	0	832
0.144	0.865	15228	15404	0	832
0.649	1.659	15179	15343	0	832
-0.108	2.308	15120	15339	0	832
-0.397	2.813	15086	15384	0	832
0.108	2.344	15053	15467	0	832
3.101	3.859	15013	15554	0	832
7.537	5.121	14979	15607	0	832
12.369	8.979	14933	15633	0	832
13.415	11.071	14885	15652	0	832
9.232	11.323	14845	15681	0	832
2.669	8.078	14812	15735	0	832
-0.433	6.996	14778	15801	0	832
-1.046	5.121	14751	15877	0	832
2.957	7.645	14724	15979	0	832
11.323	12.874	14697	16084	0	832
17.418	18.103	14679	16162	0	832
17.526	19.437	14652	16210	0	832
19.365	19.762	14625	16260	0	832
15.362	15.939	14604	16332	0	832
11.973	13.740	14604	16429	0	832
6.996	8.547	14590	16549	0	832
4.544	7.104	14585	16651	0	832
3.967	6.780	14577	16712	0	832
6.383	8.655	14558	16750	0	832
7.825	8.907	14558	16791	0	832
8.402	9.701	14550	16845	0	832
6.563	8.619	14531	16874	0	832
3.967	10.819	14504	16804	0	832
5.986	12.369	14464	16649	0	832
8.799	15.831	14438	16525	0	832
9.556	17.887	14403	16462	0	832
9.701	15.543	14371	16401	0	832
10.061	14.028	14344	16347	0	832
13.559	13.631	14317	16326	0	832
18.175	14.605	14290	16319	0	832
23.765	17.815	14282	16339	0	832
26.578	17.202	14290	16429	0	832
23.657	16.084	14282	16558	0	832
20.772	12.658	14269	16604	0	832
16.949	10.386	14242	16527	0	832
15.903	9.665	14210	16401	0	832
14.497	10.314	14183	16302	0	832
18.211	13.812	14143	16243	0	832
16.336	12.369	14103	16160	0	832
15.831	10.025	14049	16003	0	832
12.261	11.107	13996	15816	0	832
9.556	11.540	13942	15683	0	832
7.104	13.523	13894	15622	0	832
2.200	16.372	13854	15611	0	832
-2.741	15.218	13814	15626	0	832
-6.239	15.182	13787	15642	0	832
-7.032	13.740	13747	15681	0	832
-4.724	13.776	13733	15751	0	832
-3.967	13.018	13701	15829	0	832
-7.212	8.294	13688	15894	0	832
-14.497	1.875	13653	15944	0	832
-20.303	-1.803	13634	15990	0	832
-21.349	-2.380	13613	16058	0	832
-19.365	0.108	13607	16169	0	832
-15.579	2.524	13607	16293	0	832
-13.884	2.921	13594	16380	0	832
-17.418	-1.551	13581	16436	0	832
-20.483	-7.645	13581	16506	0	832
-25.929	-13.487	13573	16593	0	832
-30.725	-15.290	13573	16682	0	832
-31.843	-16.192	13573	16734	0	832
-31.518	-14.858	13567	16741	0	832
-29.859	-15.074	13546	16730	0	832
-27.083	-14.100	13540	16721	0	832
-24.234	-11.143	13532	16726	0	832
-24.198	-9.917	13532	16747	0	832
-21.313	-6.924	13527	16780	0	832
-20.447	-6.671	13527	16791	0	832
-18.500	-5.914	13519	16767	0	832
-18.031	-8.150	13506	16734	0	832
-19.329	-6.635	13500	16712	0	832
-17.779	-5.085	13492	16708	0	832
-18.933	-4.327	13500	16719	0	832
-18.969	-6.275	13506	16754	0	832
-22.827	-6.563	13519	16839	0	832
-24.775	-10.133	13559	17004	0	832
-26.217	-11.179	13613	17242	0	832
-26.037	-9.737	13674	17468	0	832
-23.873	-9.881	13714	17610	0	832
-21.890	-9.737	13768	17689	0	832
-23.512	-13.559	13808	17763	0	832
-26.830	-16.661	13854	17856	0	832
-29.463	-20.844	13921	17948	0	832
-31.122	-22.575	13982	18031	0	832
-28.597	-18.824	14041	18116	0	832
-23.693	-14.930	14103	18170	0	832
-15.507	-7.681	14143	18118	0	832
-11.900	-2.308	14175	17974	0	832
-10.674	-2.380	14202	17834	0	832
-11.215	-2.236	14250	17754	0	832
-12.153	-4.219	14304	17741	1	808
-9.881	-3.390	14376	17797	0	808
-6.383	-2.993	14443	17902	0	808
-2.092	-0.649	14531	18015	0	808
2.452	2.993	14612	18107	0	808
3.462	6.203	14692	18172	0	808
2.272	6.708	14786	18227	0	808
-0.325	7.573	14871	18279	0	808
-3.426	2.344	14965	18329	0	808
-6.563	-1.226	15059	18355	0	808
-5.481	-3.570	15139	18342	0	808
-1.479	-0.288	15228	18307	0	808
4.544	5.121	15313	18275	0	808
7.753	9.773	15402	18251	0	808
7.753	10.278	15482	18205	0	808
3.678	6.239	15554	18122	0	808
-1.334	-1.046	15635	18015	0	808
-4.544	-3.354	15710	17893	0	808
-3.101	-2.416	15769	17773	0	808
0.108	3.065	15844	17689	0	808
5.914	10.314	15924	17634	0	808
9.592	14.461	15991	17538	0	808
12.477	14.389	16031	17344	0	808
12.009	13.631	16071	17094	0	808
10.999	9.665	16103	16854	0	808
9.268	7.140	16130	16647	0	808
10.855	10.819	16152	16431	0	808
17.815	17.274	16143	16147	0	808
26.361	26.361	16130	15812	0	808
35.269	35.737	16143	15581	0	808
41.327	41.363	16165	15507	0	808
41.183	38.875	16178	15485	0	808
35.088	35.088	16192	15437	0	808
26.397	26.037	16197	15356	0	808
17.887	15.903	16210	15280	0	808
12.009	11.396	16210	15230	0	808
9.016	8.439	16218	15201	0	808
8.186	8.475	16224	15184	0	808
8.439	9.737	16232	15164	0	808
9.953	11.828	16224	15151	0	808
10.674	10.819	16224	15156	0	808
11.576	11.287	16224	15180	0	808
13.163	14.930	16224	15199	0	808
14.461	17.490	16224	15195	0	808
15.182	21.781	16218	15188	0	808
19.185	22.034	16205	15193	0	808
19.726	24.125	16192	15188	0	808
21.890	23.873	16170	15162	0	808
20.555	23.224	16152	15136	0	808
21.926	25.424	16130	15143	0	808
27.660	29.823	16125	15184	0	808
31.410	32.059	16111	15245	0	808
36.387	35.882	16098	15310	0	808
37.973	37.396	16090	15356	0	808
36.495	35.846	16063	15382	0	808
34.259	31.843	16058	15408	0	808
35.197	29.895	16031	15443	0	808
34.800	28.669	16023	15498	0	808
33.321	28.020	16010	15589	0	808
29.787	27.083	16010	15705	0	808
24.883	26.578	15996	15781	0	808
22.358	22.286	15977	15766	0	808
19.798	21.637	15937	15694	0	808
17.743	21.673	15902	15637	0	808
17.634	19.113	15862	15618	0	808
16.048	19.221	15835	15605	0	808
13.127	15.218	15803	15581	0	808
14.353	14.100	15763	15557	0	808
11.468	13.776	15736	15565	0	808
12.477	14.497	15710	15622	0	808
14.461	18.752	15696	15722	0	808
16.625	20.231	15683	15820	0	808
22.142	24.053	15669	15890	0	808
29.391	28.814	15648	15944	0	808
35.233	34.980	15629	15995	0	808
40.137	39.524	15608	16016	0	808
42.157	42.193	15576	16001	0	808
40.714	43.996	15541	15966	0	808
38.226	41.147	15514	15951	0	808
33.321	36.026	15487	15973	1	316
31.302	31.302	15469	16027	0	316
26.794	25.929	15447	16093	0	316
24.198	23.188	15434	16140	0	316
21.457	21.998	15420	16188	0	316
19.437	19.149	15407	16256	0	316
14.533	17.166	15402	16343	0	316
12.982	14.172	15402	16423	0	316
10.422	9.520	15388	16471	0	316
11.432	10.710	15375	16501	0	316
13.235	11.937	15380	16534	0	316
13.523	10.061	15367	16580	0	316
10.458	11.323	15361	16632	0	316
7.429	7.862	15367	16669	0	316
3.606	3.931	15353	16682	0	316
2.524	1.442	15340	16673	0	316
6.131	1.118	15340	16658	0	316
10.819	4.760	15321	16634	0	316
17.129	8.799	15313	16614	0	316
18.824	17.093	15308	16599	0	316
22.358	20.195	15281	16556	0	316
23.152	23.368	15254	16445	0	316
25.424	25.171	15214	16302	0	316
26.830	23.837	15187	16175	0	316
27.335	23.585	15153	16088	0	316
24.594	22.647	15112	16021	0	316
21.241	18.897	15086	15955	0	316
19.077	18.536	15053	15912	0	316
19.329	16.156	15040	15949	0	316
22.827	16.408	15045	16077	0	316
21.745	15.218	15045	16217	0	316
21.421	14.100	15040	16293	0	316
16.372	11.973	15027	16300	0	316
14.533	9.809	15005	16278	0	316
12.009	11.215	14987	16252	0	316
16.156	13.595	14960	16191	0	316
16.985	15.507	14920	16069	0	316
19.113	18.933	14866	15927	0	316
15.723	16.733	14826	15822	0	316
13.271	17.238	14791	15768	0	316
12.550	13.776	14759	15753	0	316
11.179	14.389	14724	15757	0	316
14.677	14.894	14697	15777	0	316
15.687	16.336	14671	15816	0	316
16.228	16.012	14652	15881	0	316
13.595	11.287	14644	15971	0	316
7.501	6.816	14638	16073	0	316
3.498	1.118	14625	16151	0	316
1.623	-0.974	14612	16197	0	316
3.173	1.010	14598	16243	0	316
5.517	4.544	14590	16310	0	316
6.708	7.104	14590	16401	0	316
4.219	7.573	14585	16473	0	316
3.210	11.684	14537	16416	0	316
3.750	12.261	14478	16171	0	316
5.445	11.432	14403	15864	0	316
7.212	12.153	14344	15666	0	316
8.042	11.684	14290	15568	0	316
9.592	10.999	14237	15509	0	316
9.917	12.333	14188	15478	0	316
12.874	15.867	14135	15459	0	316
12.766	14.894	14095	15465	0	316
8.727	14.425	14081	15587	0	316
6.924	12.261	14095	15825	0	316
3.787	9.629	14089	16045	0	316
1.983	10.025	14076	16151	0	316
2.236	8.835	14055	16186	0	316
3.498	8.691	14036	16225	0	316
5.265	9.665	14022	16295	0	316
7.248	8.619	14014	16388	0	316
9.016	8.799	14009	16499	0	316
9.665	8.691	14014	16604	0	316
8.475	5.770	14014	16689	0	316
4.111	2.921	14014	16771	0	316
3.029	1.839	14022	16863	0	316
2.993	3.642	14028	16930	0	316
5.517	8.294	14028	16943	0	316
8.547	11.107	14014	16913	0	316
9.953	9.989	13996	16852	0	316
7.934	8.114	13982	16778	0	316
6.852	4.868	13969	16712	0	316
9.016	5.986	13947	16651	0	316
11.612	8.150	13934	16593	0	316
12.297	10.458	13921	16573	0	316
7.862	8.150	13915	16601	0	316
3.498	1.803	13915	16641	0	316
-1.587	-3.498	13915	16632	0	316
-1.659	-8.150	13889	16560	0	316
0.036	-6.563	13840	16399	0	316
1.226	-4.291	13808	16188	0	316
1.010	-2.308	13755	16018	0	316
-0.829	-2.777	13720	15907	0	316
-3.570	-5.121	13674	15822	0	316
-5.157	-7.825	13647	15772	0	316
-7.248	-9.160	13613	15768	0	316
-7.248	-8.294	13599	15805	0	316
-4.832	-8.366	13586	15857	0	316
-1.875	-5.986	13559	15905	0	316
-0.613	-5.914	13546	15949	0	316
-0.613	-6.563	13532	15995	0	316
-2.380	-9.484	13519	16049	0	316
-6.347	-12.910	13514	16117	0	316
-9.052	-16.805	13500	16184	0	316
-11.215	-20.375	13492	16245	0	316
-12.297	-21.565	13492	16306	0	316
-12.730	-24.955	13492	16397	0	316
-14.930	-25.063	13506	16547	0	316
-13.595	-25.712	13519	16702	0	316
-16.048	-22.791	13527	16767	0	316
-15.038	-19.437	13527	16743	0	316
-14.281	-14.569	13506	16691	0	316
-15.975	-10.963	13500	16656	0	316
-14.461	-11.396	13500	16667	0	316
-16.264	-12.802	13514	16732	0	316
-15.435	-14.461	13527	16819	0	316
-18.031	-18.500	13540	16909	0	316
-18.500	-20.303	13581	17028	0	316
-21.601	-20.339	13626	17205	0	316
-19.473	-19.185	13674	17414	0	316
-17.454	-15.398	13741	17612	0	316
-13.018	-13.199	13795	17776	0	316
-13.235	-11.720	13854	17913	0	316
-14.245	-11.215	13921	18044	0	316
-16.120	-14.353	13982	18148	0	316
-17.598	-12.838	14041	18203	0	316
-16.264	-12.550	14103	18220	0	316
-18.067	-14.533	14170	18248	0	316
-19.834	-15.579	14242	18312	0	316
-24.486	-20.087	14322	18407	0	316
-26.289	-19.510	14416	18514	0	316
-26.109	-19.401	14491	18590	0	316
-21.962	-14.966	14590	18632	0	316
-19.149	-12.982	14671	18660	0	316
-15.074	-10.097	14772	18693	0	316
-15.002	-9.556	14866	18723	0	316
-12.982	-10.602	14952	18717	0	316
-13.091	-10.927	15045	18667	0	316
-12.550	-10.169	15120	18595	0	316
-11.396	-9.124	15206	18519	0	316
-11.792	-8.727	15295	18451	1	556
-11.648	-6.311	15388	18416	0	556
-9.448	-5.590	15482	18403	0	556
-6.671	-5.445	15562	18340	0	556
-4.327	-4.003	15635	18177	0	556
-3.173	-4.977	15696	17950	0	556
-4.688	-4.904	15750	17723	0	556
-5.517	-4.327	15803	17519	0	556
-2.741	-1.695	15844	17303	0	556
0.613	2.813	15876	17050	0	556
5.662	4.111	15902	16793	0	556
4.616	3.101	15937	16606	0	556
2.200	-0.721	15983	16488	0	556
-3.101	-5.049	16018	16378	0	556
-5.481	-7.321	16050	16249	0	556
-1.875	-5.337	16071	16112	0	556
4.544	0.938	16098	15984	0	556
11.792	8.258	16111	15842	0	556
18.283	12.910	16090	15596	0	556
19.329	14.064	16063	15243	0	556
14.894	9.881	16023	14929	0	556
12.189	6.888	16010	14761	0	556
10.133	5.698	15996	14705	0	556
15.723	9.737	16004	14705	0	556
21.024	13.523	15991	14729	0	556
28.056	17.598	15991	14746	0	556
28.561	20.916	15983	14772	0	556
25.712	21.060	15991	14838	0	556
24.306	19.762	15996	14951	0	556
24.053	22.575	16010	15079	0	556
26.902	21.349	16010	15173	0	556
29.210	24.306	16023	15247	0	556
29.354	23.404	16023	15347	0	556
27.732	23.332	16050	15483	0	556
26.506	24.811	16058	15620	0	556
25.640	23.729	16063	15724	0	556
23.657	26.758	16077	15790	0	556
25.316	28.597	16071	15831	0	556
25.532	29.282	16085	15864	0	556
28.201	30.905	16077	15890	0	556
31.085	29.571	16071	15914	0	556
31.338	29.535	16077	15940	0	556
28.417	26.470	16063	15953	0	556
25.279	24.414	16050	15903	0	556
22.358	24.630	16018	15803	0	556
23.440	23.152	15996	15724	0	556
23.440	24.919	15969	15696	0	556
27.696	27.840	15951	15672	0	556
29.679	30.436	15910	15611	0	556
30.581	34.403	15884	15544	0	556
30.256	34.656	15876	15563	0	556
25.820	30.004	15862	15668	0	556
17.382	24.089	15862	15785	0	556
10.674	16.516	15857	15877	0	556
6.527	10.710	15844	15934	0	556
6.996	8.006	15844	15973	0	556
10.927	11.035	15830	16027	0	556
15.615	13.812	15822	16093	0	556
16.877	18.608	15809	16132	0	556
20.447	22.647	15795	16138	0	556
19.510	25.207	15795	16175	0	556
21.962	23.404	15795	16267	0	556
20.736	20.772	15803	16363	0	556
19.041	18.139	15803	16423	0	556
16.012	13.920	15795	16442	0	556
13.271	9.845	15795	16438	0	556
9.448	10.927	15782	16440	0	556
11.323	10.746	15782	16468	0	556
14.785	12.766	15777	16492	0	556
17.346	17.851	15769	16482	0	556
21.024	19.473	15763	16455	0	556
20.411	22.827	15755	16453	0	556
17.779	21.673	15755	16479	0	556
16.120	21.313	15750	16508	0	556
15.002	19.257	15750	16503	0	556
11.323	13.668	15736	16464	0	556
8.366	10.242	15728	16418	0	556
4.977	7.212	15715	16390	0	556
4.832	9.376	15702	16382	0	556
10.963	12.369	15688	16356	0	556
14.966	17.815	15675	16308	0	556
19.762	18.860	15648	16243	0	556
20.087	20.952	15616	16140	0	556
18.608	20.123	15602	16036	0	556
20.231	22.503	15589	16027	0	556
21.132	25.063	15576	16090	0	556
24.017	23.512	15554	16095	0	556
21.601	22.827	15514	16001	0	556
21.601	21.890	15474	15877	0	556
22.142	21.168	15442	15781	0	556
24.811	24.702	15415	15737	0	556
27.479	29.210	15388	15737	0	556
27.912	27.804	15353	15751	0	556
23.224	23.909	15340	15759	0	556
16.949	21.060	15308	15761	0	556
15.146	17.562	15281	15764	0	556
13.523	18.356	15254	15768	0	556
10.927	16.120	15220	15770	0	556
9.376	13.956	15187	15764	0	556
6.239	6.708	15166	15768	0	556
5.121	2.993	15134	15798	0	556
5.265	2.993	15112	15827	0	556
8.150	6.563	15094	15853	0	556
9.088	8.619	15059	15888	0	556
8.006	10.133	15032	15916	0	556
8.366	10.674	15013	15949	0	556
8.150	12.477	15005	16016	0	556
9.773	13.956	14987	16117	0	556
12.802	15.723	14979	16186	0	556
14.641	17.743	14952	16215	0	556
16.552	14.569	14933	16219	0	556
14.389	14.136	14912	16225	0	556
15.939	13.379	14893	16247	0	556
15.326	13.559	14871	16265	0	556
18.139	16.084	14853	16269	0	556
17.743	15.038	14831	16278	0	556
17.851	16.300	14818	16302	0	556
13.199	12.117	14804	16339	0	556
8.222	10.278	14791	16378	0	556
3.714	6.347	14786	16405	0	556
1.190	4.616	14759	16399	0	556
1.226	4.364	14732	16356	0	556
1.947	3.570	14697	16297	0	556
2.128	1.911	14679	16247	0	556
-1.154	0.613	14657	16215	0	556
-4.255	-2.236	14625	16188	0	556
-7.068	-4.364	14590	16162	0	556
-5.950	-5.265	14585	16164	0	556
-3.967	-3.787	14577	16239	0	556
-1.767	-0.361	14571	16350	0	556
-0.180	2.416	14558	16394	0	556
-0.721	4.147	14531	16358	0	556
-2.741	0.505	14504	16278	0	556
-7.176	-5.517	14470	16197	0	556
-10.674	-11.973	14443	16147	0	556
-11.648	-10.927	14411	16127	0	556
-10.386	-7.609	14384	16095	0	556
-2.885	0.505	14349	16025	0	556
3.101	5.229	14309	15968	0	556
4.904	5.662	14290	15964	0	556
2.957	-0.433	14263	15979	0	556
-3.101	-6.599	14229	15981	0	556
-10.746	-13.307	14202	15955	0	556
-13.523	-13.127	14170	15925	0	556
-14.136	-11.504	14143	15927	0	556
-11.287	-6.671	14122	15981	0	556
-8.835	-2.777	14108	16066	0	556
-8.763	-1.226	14089	16127	0	556
-10.350	-2.921	14081	16162	0	556
-11.396	-3.931	14063	16206	0	556
-12.441	-5.734	14055	16286	0	556
-10.819	-8.078	14055	16380	0	556
-8.979	-6.780	14041	16445	0	556
-6.167	-4.219	14036	16488	0	556
-6.527	-1.298	14028	16525	0	556
-6.491	1.839	14022	16558	0	556
-8.078	1.947	14014	16586	0	556
-11.035	-0.108	14009	16599	0	556
-11.973	-3.210	13988	16590	0	556
-10.999	-3.859	13974	16551	0	556
-6.491	-0.865	13955	16490	0	556
-1.298	4.472	13929	16436	0	556
3.462	8.330	13915	16397	0	556
3.859	8.727	13889	16354	0	556
0.757	4.255	13854	16265	0	556
-4.400	-0.938	13808	16143	0	556
-7.321	-2.957	13781	16051	0	556
-4.977	1.334	13747	16005	0	556
-0.108	7.573	13728	15979	0	556
3.354	16.552	13688	15957	0	556
7.068	18.283	13661	15912	0	556
7.501	18.969	13613	15855	0	556
5.770	14.821	13594	15853	0	556
4.580	11.360	13581	15905	0	556
3.967	7.393	13559	15962	0	556
2.669	6.780	13532	15997	0	556
2.957	7.501	13514	16016	0	556
8.799	14.641	13500	16053	0	556
13.451	20.916	13487	16132	0	556
17.238	28.777	13479	16228	0	556
21.962	30.508	13465	16284	0	556
21.349	30.076	13452	16297	0	556
19.041	24.955	13447	16328	0	556
18.500	22.178	13447	16416	0	556
17.057	21.745	13460	16556	0	556
19.293	20.664	13479	16719	0	556
18.392	23.044	13492	16865	0	556
18.969	21.854	13519	16989	0	556
15.723	20.231	13554	17116	0	556
15.218	21.060	13573	17244	0	556
16.336	20.123	13607	17364	0	556
20.519	24.378	13647	17462	0	556
21.818	23.116	13661	17495	0	556
21.096	20.375	13693	17488	0	556
14.461	14.569	13728	17549	0	556
10.927	10.422	13787	17695	0	556
12.297	10.206	13840	17848	0	556
15.507	16.913	13902	17963	0	556
23.549	21.096	13955	18015	0	556
22.611	24.522	14001	18026	0	556
19.149	19.834	14063	18068	0	556
12.910	15.471	14130	18146	0	556
8.186	9.773	14210	18244	0	556
6.527	9.701	14277	18338	0	556
9.881	11.612	14349	18370	0	556
14.894	15.615	14429	18364	0	556
19.365	21.204	14518	18442	0	556
25.712	23.296	14617	18593	0	556
25.712	24.378	14711	18678	0	556
23.404	23.044	14791	18660	0	556
20.483	18.392	14871	18599	0	556
18.897	17.310	14960	18547	1	844
22.683	16.444	15045	18527	0	844
26.758	20.087	15139	18529	0	844
29.246	20.772	15220	18495	0	844
27.587	20.411	15300	18394	0	844
23.873	17.057	15380	18288	0	844
19.005	11.360	15469	18214	0	844
13.776	5.842	15541	18137	0	844
9.448	2.957	15621	18028	0	844
7.176	1.803	15688	17893	0	844
7.970	5.590	15755	17750	0	844
9.448	7.357	15822	17610	0	844
13.956	8.871	15870	17451	0	844
16.985	7.825	15916	17248	0	844
16.661	5.662	15956	17015	0	844
18.500	8.078	15983	16800	0	844
16.805	10.494	16031	16630	0	844
16.552	12.910	16063	16512	0	844
13.812	15.362	16117	16429	0	844
11.973	12.586	16152	16341	0	844
8.078	8.907	16184	16239	0	844
5.481	4.147	16224	16147	0	844
3.246	-0.108	16251	16049	0	844
1.983	-3.859	16272	15931	0	844
2.596	-5.914	16291	15812	0	844
1.587	-4.219	16304	15716	0	844
1.226	-2.741	16318	15639	0	844
2.777	-0.108	16339	15574	0	844
6.780	2.777	16358	15526	0	844
11.540	4.940	16366	15491	0	844
13.848	5.013	16379	15452	0	844
11.756	0.613	16384	15413	0	844
3.390	-3.318	16389	15376	0	844
-5.950	-7.176	16389	15343	0	844
-10.097	-8.547	16389	15302	0	844
-8.799	-6.888	16384	15258	0	844
-3.137	-2.993	16371	15206	0	844
4.940	0.829	16352	15110	0	844
9.088	3.029	16318	14981	0	844
8.439	4.327	16277	14864	0	844
5.590	0.938	16245	14766	0	844
-0.829	-2.813	16205	14687	0	844
-4.724	-6.383	16165	14646	0	844
-5.301	-6.924	16130	14633	0	844
-4.760	-4.580	16103	14635	0	844
-0.397	1.731	16071	14676	0	844
4.255	3.173	16050	14759	0	844
6.131	4.760	16018	14838	0	844
4.904	0.902	15991	14881	0	844
0.829	-3.173	15964	14955	0	844
-4.111	-8.330	15956	15099	0	844
-7.357	-11.468	15943	15271	0	844
-8.078	-11.864	15937	15422	0	844
-5.806	-9.773	15929	15546	0	844
-4.147	-8.511	15916	15661	0	844
-3.714	-6.888	15910	15770	0	844
-4.904	-5.734	15902	15892	0	844
-4.291	-6.022	15902	16029	0	844
-4.436	-4.868	15910	16162	0	844
-4.868	-7.537	15902	16276	0	844
-4.688	-10.097	15916	16388	0	844
-6.383	-12.225	15929	16527	0	844
-7.465	-11.684	15943	16673	0	844
-8.258	-8.402	15964	16789	0	844
-6.599	-4.688	15956	16834	0	844
-5.121	-4.760	15943	16771	0	844
-7.176	-7.321	15910	16632	0	844
-13.776	-9.340	15897	16523	0	844
-27.768	-8.727	15876	16466	0	844
-54.382	-5.409	15849	16416	0	844
-87.414	-0.865	15830	16356	0	844
-115.831	1.767	15803	16260	0	844
-127.912	2.596	15763	16138	0	844
-118.067	0.829	15736	16045	0	844
-95.276	-3.642	15710	16001	0	844
-73.855	-7.285	15669	15968	0	844
-66.246	-8.222	15635	15905	0	844
-69.347	-10.710	15602	15833	0	844
-69.383	-8.979	15576	15801	0	844
-61.918	-8.150	15554	15820	0	844
-51.064	-5.554	15536	15866	0	844
-40.137	-4.255	15509	15890	0	844
-35.701	-3.967	15474	15881	0	844
-32.744	-3.714	15455	15890	0	844
-31.122	-5.950	15447	15947	0	844
-26.253	-7.285	15434	16042	0	844
-23.368	-6.671	15428	16140	0	844
-18.933	-3.750	15420	16225	0	844
-16.156	-3.282	15420	16308	0	844
-12.405	-0.397	15415	16386	0	844
-10.278	2.272	15415	16460	0	844
-9.881	2.200	15415	16525	0	844
-7.537	5.265	15415	16577	0	844
-6.960	6.275	15407	16617	0	844
-2.705	8.979	15415	16656	0	844
0.902	11.251	15420	16715	0	844
5.734	15.218	15420	16771	0	844
8.042	19.437	15407	16747	0	844
13.559	23.512	15367	16593	0	844
13.018	22.683	15327	16376	0	844
12.189	21.060	15295	16232	0	844
9.665	15.759	15273	16184	0	844
6.239	12.730	15241	16143	0	844
3.065	10.458	15228	16101	0	844
1.587	9.737	15193	16073	0	844
0.793	10.422	15174	16038	0	844
1.731	11.756	15139	15986	0	844
5.193	13.127	15112	15949	0	844
11.360	19.113	15094	15942	0	844
17.706	23.080	15059	15938	0	844
25.207	27.696	15027	15899	0	844
29.679	30.869	14992	15851	0	844
29.535	31.662	14973	15835	0	844
27.515	30.508	14946	15853	0	844
22.683	26.037	14920	15864	0	844
19.041	23.873	14885	15868	0	844
19.401	23.909	14866	15886	0	844
20.844	26.217	14845	15927	0	844
25.496	28.201	14826	15986	0	844
30.400	28.814	14812	16049	0	844
33.069	27.551	14791	16082	0	844
31.771	25.965	14759	16056	0	844
30.040	23.765	14705	15947	0	844
24.991	23.044	14657	15798	0	844
21.204	21.781	14612	15722	0	844
21.709	18.247	14577	15724	0	844
21.385	19.041	14545	15735	0	844
23.981	17.562	14504	15753	0	844
24.270	19.077	14491	15809	0	844
23.512	18.175	14464	15901	0	844
22.358	19.005	14451	15992	0	844
19.906	18.608	14429	16071	0	844
17.743	18.103	14424	16167	0	844
20.411	19.401	14438	16306	0	844
22.719	21.565	14438	16484	0	844
28.633	26.361	14464	16671	0	844
32.059	29.859	14464	16817	0	844
33.033	32.600	14483	16924	0	844
28.777	31.230	14496	17035	0	844
23.224	29.246	14531	17163	0	844
20.195	27.191	14550	17285	0	844
18.969	27.587	14563	17349	0	844
20.050	27.984	14558	17296	0	844
24.883	31.590	14537	17146	0	844
24.198	32.312	14537	17009	0	844
23.837	31.879	14523	16935	0	844
22.431	29.571	14518	16872	0	844
19.618	25.893	14496	16789	0	844
19.546	25.388	14483	16671	0	844
19.582	23.945	14456	16536	0	844
21.601	25.352	14438	16436	0	844
24.450	28.381	14411	16363	0	844
26.938	29.210	14397	16291	0	844
29.895	31.987	14376	16223	0	844
31.194	33.502	14344	16138	0	844
30.112	33.574	14322	16053	0	844
28.273	32.492	14317	16062	0	844
27.047	31.446	14317	16162	0	844
29.210	32.167	14309	16228	0	844
31.843	33.826	14290	16171	0	844
35.305	36.206	14242	16025	0	844
36.639	37.108	14215	15914	0	844
32.384	36.531	14202	15927	0	844
26.578	33.033	14196	16010	0	844
22.575	29.463	14188	16073	0	844
19.618	28.886	14175	16088	0	844
22.322	26.361	14162	16093	0	844
24.378	25.929	14148	16123	0	844
24.594	20.014	14143	16178	0	844
23.332	10.638	14135	16210	0	844
17.346	-1.803	14122	16210	0	844
14.208	-11.071	14108	16206	0	844
9.448	-17.346	14103	16228	0	844
7.717	-15.002	14095	16271	0	844
6.203	-11.684	14089	16315	0	844
4.436	-7.248	14076	16332	0	844
2.524	-6.455	14063	16323	0	844
1.839	-7.537	14049	16306	0	844
0.252	-10.133	14028	16282	0	844
-0.325	-9.484	14014	16252	0	844
0.757	-7.717	14001	16241	0	844
1.154	-6.239	13996	16267	0	844
0.469	-4.400	13996	16313	0	844
-0.685	-6.347	13996	16378	0	844
0.685	-4.724	14001	16464	0	844
3.210	-2.560	14009	16551	0	844
8.078	1.082	14014	16619	0	844
13.343	6.599	14022	16656	0	844
13.054	7.140	14022	16673	0	844
8.547	4.364	14036	16715	0	844
0.974	0.108	14049	16795	0	844
-5.734	-4.868	14076	16911	0	844
-11.432	-9.845	14108	17035	0	844
-11.756	-11.251	14135	17131	0	844
-9.773	-11.756	14156	17172	0	844
-9.520	-13.740	14170	17159	0	844
-8.799	-12.333	14183	17107	0	844
-6.996	-10.963	14196	17072	0	844
-7.681	-10.133	14215	17065	0	844
-5.986	-10.025	14242	17100	0	844
-8.258	-11.360	14290	17238	0	844
-12.225	-18.247	14363	17455	0	844
-16.589	-25.171	14424	17636	0	844
-21.854	-29.282	14478	17745	0	844
-20.808	-29.571	14550	17839	0	844
-20.087	-24.919	14617	17963	0	844
-17.887	-18.788	14697	18118	0	844
-13.451	-13.054	14791	18281	0	844
-7.285	-7.465	14879	18418	0	844
-1.623	-3.714	14973	18516	0	844
2.993	0.144	15067	18604	0	844
6.131	2.560	15161	18697	0	844
4.868	1.983	15268	18787	0	844
0.685	-1.659	15367	18861	0	844
-4.219	-4.219	15469	18898	0	844
-8.114	-5.734	15568	18893	0	844
-9.809	-2.092	15669	18876	0	844
-7.285	-1.082	15777	18876	0	844
-1.226	0.505	15884	18878	0	844
-0.865	-1.983	15969	18815	1	876
-3.750	-9.917	16036	18619	0	876
-8.835	-14.136	16085	18312	0	876
-13.992	-13.704	16143	18013	0	876
-15.579	-12.009	16192	17763	0	876
-10.963	-5.337	16232	17519	0	876
-7.825	-2.380	16272	17268	0	876
-5.157	-0.108	16304	17033	0	876
-4.291	-0.288	16339	16819	0	876
-3.210	-1.911	16379	16654	0	876
-4.832	-2.633	16429	16553	0	876
-6.563	-4.436	16477	16492	0	876
-7.285	-6.996	16509	16392	0	876
-9.124	-6.708	16536	16212	0	876
-8.691	-4.977	16536	15977	0	876
-5.517	-4.219	16536	15757	0	876
-2.885	-3.390	16544	15576	0	876
-2.056	-3.823	16544	15415	0	876
-5.662	-5.373	16544	15271	0	876
-9.088	-9.088	16536	15143	0	876
-15.543	-11.828	16523	15029	0	876
-16.228	-12.189	16517	14949	0	876
-14.785	-13.379	16517	14907	0	876
-9.448	-12.189	16509	14866	0	876
-6.491	-11.251	16483	14805	0	876
-6.094	-10.999	16469	14751	0	876
-7.032	-13.668	16456	14733	0	876
-7.429	-9.989	16437	14742	0	876
-6.094	-7.321	16416	14746	0	876
0.036	-2.092	16397	14727	0	876
6.058	3.101	16371	14709	0	876
10.674	4.436	16344	14722	0	876
11.468	5.734	16331	14761	0	876
10.278	4.724	16304	14807	0	876
9.773	3.859	16277	14838	0	876
11.323	5.554	16245	14866	0	876
14.497	10.855	16218	14905	0	876
22.250	17.346	16205	14992	0	876
25.099	25.460	16197	15127	0	876
24.702	29.066	16184	15269	0	876
22.863	27.515	16170	15393	0	876
15.254	19.185	16178	15526	0	876
9.665	14.353	16170	15685	0	876
5.157	9.196	16178	15864	0	876
3.029	8.439	16192	16047	0	876
3.137	11.107	16205	16212	0	876
4.688	12.694	16210	16339	0	876
9.520	11.864	16218	16438	0	876
16.120	14.713	16224	16523	0	876
20.519	15.110	16224	16580	0	876
24.017	17.021	16232	16610	0	876
25.099	18.860	16232	16638	0	876
23.476	20.519	16224	16651	0	876
23.476	20.087	16232	16660	0	876
26.614	23.801	16245	16728	0	876
26.686	23.152	16264	16834	0	876
26.578	24.594	16264	16874	0	876
27.479	25.063	16259	16797	0	876
28.345	26.794	16237	16671	0	876
31.590	28.417	16218	16553	0	876
35.016	32.203	16205	16464	0	876
35.774	35.052	16192	16401	0	876
36.387	36.206	16165	16330	0	876
34.800	36.278	16138	16223	0	876
31.446	34.620	16111	16110	0	876
28.741	32.636	16077	16025	0	876
24.234	27.804	16058	15968	0	876
20.159	24.306	16023	15903	0	876
14.461	17.057	15996	15816	0	876
9.592	10.746	15951	15735	0	876
4.796	3.895	15924	15683	0	876
2.128	1.298	15889	15663	0	876
3.354	3.029	15870	15674	0	876
8.114	6.780	15844	15687	0	876
15.146	13.379	15809	15687	0	876
18.716	16.697	15782	15696	0	876
22.755	21.024	15769	15737	0	876
22.250	20.700	15750	15798	0	876
24.342	21.601	15728	15835	0	876
23.585	22.755	15696	15849	0	876
27.984	24.991	15683	15875	0	876
31.446	28.128	15669	15940	0	876
33.285	27.624	15656	16027	0	876
32.059	26.578	15648	16114	0	876
28.922	24.955	15643	16199	0	876
25.748	25.460	15635	16286	0	876
22.863	25.496	15635	16365	0	876
21.168	26.325	15629	16421	0	876
20.411	23.585	15616	16449	0	876
17.670	20.014	15608	16458	0	876
19.041	15.867	15589	16449	0	876
18.860	17.310	15576	16429	0	876
19.978	17.274	15554	16403	0	876
18.356	17.310	15528	16365	0	876
17.562	18.392	15495	16300	0	876
13.631	19.257	15461	16201	0	876
14.136	17.454	15420	16064	0	876
15.002	17.995	15367	15910	0	876
15.543	16.372	15313	15785	0	876
17.887	13.920	15273	15707	0	876
17.526	13.992	15228	15652	0	876
17.959	10.855	15179	15583	0	876
14.317	11.864	15120	15489	0	876
13.018	10.061	15072	15424	0	876
11.540	10.242	15032	15417	0	876
12.369	12.514	15000	15467	0	876
17.274	16.264	14960	15528	0	876
21.565	19.546	14925	15565	0	876
24.089	21.890	14893	15600	0	876
27.155	23.657	14866	15670	0	876
21.529	20.123	14839	15770	0	876
16.516	16.913	14812	15859	0	876
10.674	12.550	14786	15907	0	876
5.193	8.835	14759	15957	0	876
4.255	6.924	14737	16051	0	876
6.058	6.527	14737	16184	0	876
7.681	7.825	14732	16323	0	876
9.484	9.088	14724	16427	0	876
10.350	12.117	14719	16508	0	876
10.025	12.225	14705	16575	0	876
7.465	9.268	14697	16621	0	876
6.816	8.330	14684	16645	0	876
8.511	5.337	14671	16658	0	876
11.648	5.770	14657	16669	0	876
14.389	7.898	14644	16680	0	876
17.454	8.727	14644	16706	0	876
13.704	10.242	14638	16756	0	876
11.468	10.494	14630	16802	0	876
11.900	12.333	14630	16821	0	876
14.317	17.093	14630	16824	0	876
20.952	21.637	14625	16828	0	876
26.181	25.171	14630	16865	0	876
29.391	28.958	14657	16983	0	876
27.840	24.702	14692	17161	0	876
21.890	20.267	14711	17281	0	876
13.235	13.343	14724	17285	0	876
4.508	9.376	14724	17224	0	876
0.541	7.248	14737	17177	0	876
-1.298	7.140	14751	17185	0	876
1.479	8.691	14759	17187	0	876
6.671	11.576	14759	17111	0	876
12.477	13.343	14751	16965	0	876
14.785	16.372	14719	16773	0	876
15.939	15.290	14671	16503	0	876
13.415	12.225	14604	16154	0	876
9.520	9.989	14523	15785	0	876
8.222	6.167	14456	15474	0	876
8.979	5.770	14389	15256	0	876
9.881	6.455	14330	15132	0	876
9.412	9.592	14290	15073	0	876
11.756	11.035	14242	15045	0	876
9.052	11.937	14196	15042	0	876
9.448	11.107	14156	15060	0	876
10.386	12.261	14108	15064	0	876
11.937	12.622	14068	15069	0	876
11.251	17.706	14041	15138	0	876
12.333	17.634	14014	15265	0	876
10.927	16.264	13988	15395	0	876
8.078	12.369	13982	15539	0	876
7.068	9.232	13982	15733	0	876
8.078	10.855	13988	15977	0	876
8.727	12.982	14001	16208	0	876
8.042	13.956	14009	16388	0	876
8.691	14.569	14014	16540	0	876
10.097	13.884	14028	16686	0	876
11.432	10.350	14041	16824	0	876
10.494	10.927	14063	16937	0	876
12.766	8.511	14068	17015	0	876
13.343	9.052	14076	17065	0	876
13.415	9.665	14081	17083	0	876
17.021	15.074	14076	17070	0	876
18.103	18.536	14076	17033	0	876
19.582	22.719	14063	16959	0	876
17.706	22.395	14041	16848	0	876
19.582	20.555	14014	16715	0	876
19.978	18.716	13996	16595	0	876
22.539	16.949	13982	16543	0	876
22.250	19.185	13982	16567	0	876
23.476	18.500	13982	16619	0	876
21.781	18.031	13988	16641	0	876
16.084	13.704	13982	16638	0	876
13.379	13.956	14001	16673	0	876
11.323	12.838	14028	16791	0	876
9.124	12.658	14068	16976	0	876
10.674	13.668	14116	17187	0	876
7.465	10.927	14175	17397	0	876
4.472	6.203	14237	17606	0	876
3.678	7.104	14309	17819	0	876
3.570	6.347	14397	18039	0	876
7.032	7.681	14478	18255	0	876
11.179	8.330	14571	18440	0	876
11.756	7.465	14652	18588	0	876
11.864	7.898	14751	18743	0	876
12.405	8.402	14871	18928	0	876
12.225	10.061	14987	19109	0	876
13.812	6.960	15086	19220	0	876
15.939	5.950	15179	19235	0	876
15.795	2.092	15281	19190	0	876
18.247	1.587	15375	19153	0	876
18.320	2.380	15469	19133	0	876
18.608	2.849	15568	19089	0	876
16.661	4.291	15661	19007	1	804
17.490	5.770	15755	18913	0	804
15.759	8.583	15844	18817	0	804
18.067	12.550	15929	18708	0	804
18.356	12.658	16023	18582	0	804
19.762	9.989	16103	18451	0	804
15.687	8.006	16184	18309	0	804
14.749	3.859	16264	18146	0	804
11.648	3.173	16331	17961	0	804
12.153	3.173	16397	17765	0	804
14.281	4.616	16450	17556	0	804
13.992	4.616	16496	17327	0	804
15.615	5.590	16536	17085	0	804
13.848	5.590	16590	16878	0	804
14.533	7.825	16643	16747	0	804
13.776	4.868	16697	16669	0	804
11.468	2.524	16745	16564	0	804
11.143	0.721	16764	16382	0	804
10.602	1.118	16791	16134	0	804
11.612	5.049	16791	15883	0	804
15.975	9.773	16804	15663	0	804
18.356	15.146	16791	15446	0	804
21.168	14.821	16772	15182	0	804
21.421	12.009	16750	14894	0	804
22.431	10.350	16705	14615	0	804
20.411	7.357	16630	14306	0	804
17.779	6.455	16563	13955	0	804
15.218	5.590	16496	13659	0	804
11.107	6.275	16424	13476	0	804
7.104	4.977	16371	13400	0	804
4.183	4.472	16331	13426	0	804
2.885	5.337	16304	13548	0	804
7.645	6.563	16291	13731	0	804
13.343	8.943	16272	13936	0	804
16.120	12.982	16264	14151	0	804
18.356	14.245	16264	14384	0	804
16.336	15.398	16264	14637	0	804
16.444	16.589	16272	14899	0	804
15.867	14.749	16277	15147	0	804
18.933	16.805	16291	15376	0	804
18.392	17.057	16304	15585	0	804
20.050	20.519	16318	15794	0	804
22.286	22.322	16339	16012	0	804
27.010	23.837	16352	16215	0	804
28.489	25.604	16366	16337	0	804
29.210	24.522	16366	16376	0	804
26.325	22.358	16366	16412	0	804
20.916	19.257	16371	16486	0	804
15.110	12.946	16379	16558	0	804
9.052	8.258	16379	16612	0	804
5.193	4.724	16384	16658	0	804
3.426	4.904	16389	16691	0	804
4.111	7.285	16402	16736	0	804
7.285	10.206	16429	16872	0	804
11.684	8.691	16477	17061	0	804
13.415	8.727	16504	17192	0	804
16.372	6.708	16523	17222	0	804
19.077	5.554	16536	17187	0	804
23.693	7.032	16544	17135	0	804
27.587	8.871	16544	17070	0	804
30.472	9.737	16544	16970	0	804
29.931	10.386	16536	16850	0	804
25.929	10.891	16536	16741	0	804
24.198	13.343	16523	16647	0	804
22.935	13.812	16517	16571	0	804
24.198	15.110	16517	16516	0	804
25.135	17.851	16509	16466	0	804
27.191	17.887	16504	16397	0	804
27.443	19.762	16477	16289	0	804
26.109	18.824	16437	16090	0	804
23.152	17.706	16389	15851	0	804
17.274	11.576	16358	15694	0	804
13.343	8.366	16326	15620	0	804
9.484	3.642	16299	15574	0	804
8.294	1.010	16277	15568	0	804
8.114	-1.442	16272	15626	0	804
8.871	-2.596	16264	15724	0	804
8.979	-2.993	16259	15803	0	804
7.537	-2.236	16232	15794	0	804
4.688	-0.865	16192	15709	0	804
3.714	-1.298	16170	15661	0	804
3.462	0.577	16157	15685	0	804
6.960	3.678	16130	15720	0	804
12.153	8.186	16103	15742	0	804
14.713	12.045	16090	15774	0	804
16.048	14.894	16071	15816	0	804
12.333	13.235	16063	15862	0	804
11.468	11.215	16050	15940	0	804
10.999	12.369	16044	16053	0	804
11.396	15.507	16044	16149	0	804
15.687	18.536	16031	16201	0	804
18.464	21.493	16036	16267	0	804
18.464	21.565	16050	16405	0	804
17.562	18.428	16077	16590	0	804
17.526	17.274	16077	16712	0	804
16.120	15.507	16077	16719	0	804
16.120	17.346	16063	16649	0	804
17.202	16.589	16044	16569	0	804
15.218	17.238	16031	16508	0	804
14.497	15.903	16010	16466	0	804
11.035	15.471	15996	16412	0	804
9.556	12.441	15964	16328	0	804
7.032	9.809	15943	16236	0	804
4.111	8.078	15916	16171	0	804
2.056	4.003	15889	16134	0	804
-1.767	1.262	15876	16103	0	804
-3.354	-0.757	15849	16082	0	804
-1.803	0.072	15835	16090	0	804
2.128	3.318	15830	16130	0	804
6.924	8.511	15822	16169	0	804
10.242	11.287	15803	16178	0	804
12.874	14.749	15777	16156	0	804
13.415	14.713	15763	16132	0	804
13.487	14.136	15750	16127	0	804
15.110	18.067	15728	16147	0	804
14.136	18.500	15715	16162	0	804
11.071	19.726	15688	16125	0	804
10.819	17.562	15629	15964	0	804
7.934	15.759	15549	15657	0	804
7.104	12.297	15461	15345	0	804
5.301	10.566	15394	15182	0	804
6.852	9.052	15348	15138	0	804
6.022	8.294	15295	15140	0	804
4.940	5.481	15260	15180	0	804
3.823	5.049	15228	15267	0	804
1.623	4.003	15214	15406	0	804
0.216	3.246	15187	15570	0	804
1.623	2.164	15174	15709	0	804
2.705	-0.144	15139	15779	0	804
2.885	-2.380	15107	15794	0	804
2.128	-3.859	15072	15794	0	804
0.902	-3.318	15040	15816	0	804
2.380	-2.236	15005	15875	0	804
5.193	0.325	14979	15938	0	804
9.953	4.364	14946	15966	0	804
12.910	8.402	14920	15968	0	804
16.516	10.602	14898	16027	0	804
16.552	10.927	14893	16188	0	804
14.028	13.271	14893	16382	0	804
14.966	12.766	14893	16529	0	804
13.668	14.136	14885	16614	0	804
16.877	17.598	14885	16665	0	804
17.851	16.625	14879	16730	0	804
20.555	17.995	14885	16828	0	804
17.959	15.831	14898	16943	0	804
16.156	13.091	14912	17046	0	804
12.117	7.789	14925	17120	0	804
10.314	5.626	14933	17187	0	804
12.009	7.104	14952	17264	0	804
12.225	9.520	14973	17336	0	804
15.110	12.658	14987	17370	0	804
16.048	12.117	15005	17375	0	804
13.956	10.891	15013	17375	0	804
12.369	7.212	15032	17390	0	804
7.068	3.246	15053	17401	0	804
3.318	1.010	15067	17368	0	804
0.974	-0.252	15072	17303	0	804
2.416	0.072	15072	17240	0	804
5.950	4.868	15094	17203	0	804
9.989	6.744	15112	17177	0	804
11.576	8.439	15107	17122	0	804
8.799	7.140	15112	17028	0	804
7.717	6.852	15120	16933	0	804
8.547	8.655	15112	16856	0	804
10.061	14.641	15120	16782	0	804
14.461	18.211	15112	16682	0	804
17.454	22.070	15099	16560	0	804
14.497	18.824	15086	16427	0	804
11.504	14.281	15059	16258	0	804
6.708	6.635	15019	16056	0	804
1.803	2.813	14987	15886	0	804
0.252	3.137	14952	15777	0	804
2.596	3.787	14925	15694	0	804
5.517	8.475	14893	15609	0	804
8.799	11.035	14866	15533	0	804
10.891	12.658	14831	15469	0	804
9.665	10.999	14786	15395	0	804
5.229	9.917	14746	15293	0	804
5.085	7.104	14692	15182	0	804
6.058	6.744	14652	15127	0	804
10.891	7.717	14630	15182	0	804
15.182	9.917	14630	15347	0	804
14.028	9.304	14638	15598	0	804
13.235	5.950	14665	15890	0	804
7.032	1.587	14697	16184	0	804
5.409	-3.029	14746	16482	0	804
7.717	-3.173	14799	16811	0	804
11.756	0.902	14871	17166	0	804
13.127	6.888	14946	17506	0	804
16.336	12.009	15019	17800	0	804
17.346	15.795	15107	18074	0	804
18.860	17.093	15214	18373	0	804
21.096	19.293	15313	18699	0	804
24.991	18.392	15434	19007	0	804
24.486	17.959	15549	19244	0	804
20.880	13.776	15661	19414	0	804
19.365	12.081	15782	19556	0	804
14.858	9.953	15902	19686	0	804
14.785	8.150	16018	19778	0	804
14.064	9.773	16138	19800	0	804
12.297	9.052	16237	19758	0	804
9.953	8.799	16339	19684	0	804
7.140	7.429	16442	19590	0	804
2.849	4.796	16544	19479	0	804
1.947	2.813	16638	19357	1	816
1.010	1.515	16737	19222	0	816
1.479	0.865	16825	19061	0	816
3.101	2.849	16911	18867	0	816
4.832	4.327	16991	18647	0	816
8.619	6.708	17053	18386	0	816
12.153	9.556	17099	18078	0	816
15.326	15.795	17139	17734	0	816
20.880	18.716	17174	17377	0	816
23.585	25.135	17200	17028	0	816
27.443	28.922	17219	16719	0	816
31.374	33.321	17240	16462	0	816
33.682	34.692	17281	16273	0	816
33.069	32.708	17321	16149	0	816
29.607	28.886	17361	16066	0	816
24.089	24.378	17401	16014	0	816
18.644	18.139	17455	16008	0	816
16.552	15.398	17508	16014	0	816
12.441	11.900	17540	15984	0	816
8.114	10.819	17575	15903	0	816
4.291	6.419	17602	15805	0	816
-0.649	3.390	17621	15718	0	816
-4.003	-2.344	17642	15631	0	816
-4.508	-7.140	17642	15515	0	816
-3.065	-10.097	17642	15384	0	816
-0.829	-8.799	17656	15278	0	816
1.983	-6.816	17656	15221	0	816
5.373	-2.777	17661	15215	0	816
7.429	0.793	17682	15225	0	816
10.963	2.885	17682	15221	0	816
11.360	4.327	17669	15173	0	816
10.963	3.895	17642	15025	0	816
8.943	2.957	17602	14816	0	816
4.327	0.325	17562	14670	0	816
2.596	1.875	17535	14615	0	816
3.642	4.508	17500	14596	0	816
8.763	7.321	17482	14602	0	816
13.018	12.477	17460	14652	0	816
17.346	15.471	17441	14731	0	816
17.382	16.661	17428	14805	0	816
16.408	15.651	17407	14873	0	816
13.487	14.966	17388	14949	0	816
14.028	14.641	17374	15014	0	816
16.841	16.805	17348	15066	0	816
23.260	19.906	17326	15132	0	816
26.361	22.539	17313	15223	0	816
26.073	20.591	17299	15321	0	816
23.044	16.769	17267	15387	0	816
16.264	10.242	17240	15408	0	816
12.405	6.022	17206	15422	0	816
9.268	4.688	17179	15446	0	816
8.979	6.455	17152	15476	0	816
11.071	10.206	17120	15511	0	816
12.225	14.966	17099	15554	0	816
15.723	18.392	17085	15637	0	816
20.844	18.969	17072	15781	0	816
22.178	20.447	17080	15964	0	816
21.709	18.103	17085	16158	0	816
18.103	16.228	17093	16328	0	816
11.612	12.045	17099	16464	0	816
4.111	9.304	17112	16590	0	816
2.669	7.212	17133	16721	0	816
2.885	7.176	17147	16850	0	816
4.868	6.744	17166	16961	0	816
7.717	8.691	17187	17052	0	816
6.455	7.970	17192	17116	0	816
6.455	8.619	17200	17142	0	816
4.364	7.285	17214	17135	0	816
6.167	5.842	17219	17113	0	816
8.547	7.609	17227	17089	0	816
10.278	8.475	17227	17074	0	816
8.835	8.330	17246	17085	0	816
7.717	8.006	17254	17092	0	816
6.599	5.121	17259	17057	0	816
8.114	6.094	17259	16987	0	816
11.864	10.855	17254	16900	0	816
16.805	17.057	17246	16791	0	816
18.175	24.666	17232	16682	0	816
20.591	26.325	17219	16580	0	816
22.539	27.912	17206	16488	0	816
27.624	28.705	17192	16407	0	816
32.059	30.400	17179	16328	0	816
33.538	31.771	17174	16273	0	816
30.725	31.699	17192	16319	0	816
20.123	25.099	17214	16447	0	816
10.278	16.480	17219	16540	0	816
0.793	7.248	17227	16545	0	816
-1.406	4.147	17219	16501	0	816
1.226	3.498	17214	16429	0	816
3.750	4.832	17187	16321	0	816
3.137	3.606	17160	16182	0	816
-0.397	-1.154	17125	16029	0	816
-5.878	-4.400	17099	15883	0	816
-9.520	-4.219	17066	15772	0	816
-6.852	-1.082	17032	15707	0	816
-0.469	3.787	17005	15676	0	816
6.491	6.599	16973	15631	0	816
10.061	5.265	16933	15537	0	816
7.429	-0.469	16892	15428	0	816
1.154	-8.258	16844	15356	0	816
-5.950	-14.136	16812	15330	0	816
-8.727	-13.956	16772	15326	0	816
-6.852	-11.035	16737	15315	0	816
-1.947	-3.246	16691	15313	0	816
2.741	3.750	16665	15334	0	816
10.097	9.052	16625	15367	0	816
14.533	12.946	16584	15380	0	816
20.231	16.192	16550	15380	0	816
20.267	16.516	16517	15404	0	816
18.464	16.228	16483	15476	0	816
13.487	14.966	16469	15596	0	816
9.701	14.136	16456	15735	0	816
11.071	16.012	16437	15859	0	816
10.746	11.684	16416	15957	0	816
9.917	7.645	16402	16047	0	816
7.465	0.974	16397	16143	0	816
3.029	-4.255	16384	16234	0	816
0.649	-4.760	16371	16304	0	816
0.685	-1.226	16358	16358	0	816
0.505	0.288	16352	16412	0	816
-0.361	1.010	16344	16473	0	816
-0.288	-3.895	16344	16551	0	816
-0.793	-5.517	16358	16684	0	816
-0.865	-7.140	16371	16848	0	816
-1.298	-6.058	16371	16939	0	816
-4.111	-5.770	16358	16915	0	816
-6.852	-6.419	16339	16824	0	816
-9.845	-7.645	16318	16726	0	816
-13.776	-12.153	16299	16649	0	816
-13.559	-13.199	16277	16597	0	816
-14.930	-12.081	16264	16553	0	816
-12.261	-12.514	16245	16508	0	816
-7.321	-11.251	16224	16453	0	816
-9.088	-10.710	16205	16403	0	816
-10.350	-13.595	16178	16363	0	816
-13.018	-12.153	16152	16297	0	816
-12.477	-9.340	16130	16204	0	816
-9.845	-2.560	16090	16136	0	816
-4.183	2.452	16085	16125	0	816
-2.849	2.813	16063	16154	0	816
-3.750	-0.469	16050	16186	0	816
-4.796	-2.741	16031	16197	0	816
-4.327	-3.714	16010	16186	0	816
0.216	0.613	15991	16158	0	816
1.947	6.311	15969	16132	0	816
2.849	9.376	15951	16123	0	816
2.741	12.297	15924	16088	0	816
2.885	12.045	15870	15979	0	816
3.787	9.989	15830	15849	0	816
6.708	11.323	15803	15796	0	816
9.124	11.648	15777	15833	0	816
11.937	15.362	15750	15883	0	816
16.949	21.998	15723	15892	0	816
17.923	22.539	15675	15820	0	816
20.591	21.168	15629	15711	0	816
18.067	16.913	15594	15676	0	816
15.110	11.720	15568	15729	0	816
10.927	6.780	15549	15809	0	816
9.124	6.635	15549	15905	0	816
6.203	5.121	15528	16012	0	816
4.436	5.049	15514	16112	0	816
4.436	8.078	15509	16206	0	816
6.635	9.160	15509	16304	0	816
7.573	11.035	15495	16376	0	816
9.088	10.278	15474	16378	0	816
10.422	10.927	15447	16334	0	816
12.225	9.484	15428	16321	0	816
13.163	10.025	15415	16361	0	816
14.966	10.963	15407	16403	0	816
14.389	11.576	15380	16399	0	816
17.995	15.795	15361	16386	0	816
18.175	17.310	15375	16462	0	816
22.575	21.241	15380	16621	0	816
22.647	20.267	15394	16769	0	816
19.726	19.618	15415	16880	0	816
20.555	16.336	15434	16976	0	816
21.313	19.546	15455	17074	0	816
25.532	22.611	15482	17196	0	816
30.148	30.184	15522	17349	0	816
33.213	37.036	15562	17503	0	816
33.826	41.580	15608	17628	0	816
35.521	42.697	15661	17754	0	816
36.134	38.695	15723	17915	0	816
34.079	34.187	15803	18109	0	816
29.823	25.135	15876	18305	0	816
26.361	20.303	15956	18471	0	816
24.234	20.591	16050	18599	0	816
23.621	20.916	16130	18715	0	816
24.198	21.818	16218	18813	0	816
23.801	21.818	16312	18885	0	816
20.447	15.326	16402	18948	0	816
14.858	11.360	16504	19020	0	816
13.271	8.907	16611	19089	0	816
13.091	9.556	16705	19146	0	816
14.028	13.199	16817	19179	0	816
20.123	18.680	16911	19163	0	816
22.503	20.123	17018	19113	0	816
21.241	21.313	17112	19044	0	816
16.841	16.516	17192	18924	0	816
11.900	11.792	17273	18754	1	796
7.862	8.150	17361	18586	0	796
7.212	5.409	17428	18434	0	796
10.999	7.898	17500	18257	0	796
11.576	7.934	17548	18017	0	796
12.009	8.222	17602	17739	0	796
11.612	8.294	17642	17486	0	796
12.117	8.907	17696	17277	0	796
14.245	11.684	17736	17076	0	796
16.913	12.261	17768	16854	0	796
16.552	13.487	17795	16621	0	796
17.706	11.179	17835	16427	0	796
16.805	10.206	17870	16291	0	796
22.719	11.648	17902	16191	0	796
26.217	16.192	17937	16108	0	796
28.201	15.326	17977	16032	0	796
26.037	14.389	18017	15977	0	796
21.745	11.107	18049	15951	0	796
20.952	11.432	18084	15938	0	796
25.640	17.346	18124	15927	0	796
29.174	21.132	18170	15923	0	796
30.220	23.332	18197	15925	0	796
24.162	20.880	18237	15925	0	796
19.365	15.218	18264	15934	0	796
14.389	10.855	18317	15953	0	796
15.651	9.989	18339	15975	0	796
14.425	6.203	18384	16001	0	796
10.855	1.010	18419	16038	0	796
2.019	-5.085	18464	16103	0	796
-4.436	-9.376	18518	16193	0	796
-6.347	-10.242	18566	16289	0	796
-5.986	-11.287	18612	16371	0	796
-4.508	-12.405	18660	16427	0	796
-7.393	-14.353	18705	16473	0	796
-12.225	-21.565	18746	16508	0	796
-13.415	-23.296	18772	16497	0	796
-13.307	-22.286	18799	16445	0	796
-8.547	-21.132	18821	16365	0	796
-6.311	-17.779	18834	16267	0	796
-6.599	-16.589	18839	16160	0	796
-9.232	-15.038	18834	16045	0	796
-8.186	-13.956	18839	15931	0	796
-3.534	-10.169	18834	15814	0	796
1.515	-5.121	18807	15668	0	796
5.301	0.036	18794	15511	0	796
6.888	2.524	18786	15452	0	796
3.354	2.092	18794	15491	0	796
0.180	-0.577	18786	15491	0	796
-0.397	-2.380	18759	15391	0	796
0.721	-1.695	18732	15258	0	796
4.075	1.515	18700	15164	0	796
5.337	5.986	18679	15136	0	796
5.085	5.806	18665	15156	0	796
0.397	-0.072	18646	15175	0	796
-7.248	-8.511	18625	15178	0	796
-12.766	-16.300	18606	15210	0	796
-14.569	-18.680	18606	15284	0	796
-9.989	-12.550	18593	15358	0	796
-2.921	-4.940	18572	15413	0	796
3.895	0.865	18553	15454	0	796
7.032	0.721	18545	15504	0	796
5.265	-2.344	18539	15587	0	796
1.082	-7.285	18531	15696	0	796
-3.534	-10.097	18518	15783	0	796
-5.590	-10.602	18513	15825	0	796
-4.472	-7.717	18499	15853	0	796
0.685	-2.633	18486	15901	0	796
6.816	4.183	18478	15986	0	796
10.242	6.635	18486	16088	0	796
8.186	8.042	18486	16169	0	796
4.868	4.400	18472	16212	0	796
2.200	2.272	18464	16247	0	796
4.219	3.678	18464	16304	0	796
9.953	8.006	18472	16376	0	796
13.595	10.999	18472	16451	0	796
14.749	13.091	18478	16529	0	796
13.235	13.018	18486	16597	0	796
10.314	9.520	18491	16638	0	796
7.393	10.494	18491	16656	0	796
8.511	11.864	18486	16649	0	796
9.520	12.153	18486	16621	0	796
10.566	13.307	18472	16562	0	796
9.052	10.314	18451	16477	0	796
6.599	3.642	18424	16394	0	796
1.731	-0.144	18405	16321	0	796
-0.721	-1.551	18384	16247	0	796
1.551	0.865	18352	16156	0	796
7.140	4.796	18317	16014	0	796
10.530	12.081	18272	15862	0	796
13.631	13.307	18250	15805	0	796
12.369	12.189	18223	15840	0	796
8.258	10.530	18197	15831	0	796
5.229	8.258	18143	15718	0	796
4.039	9.196	18103	15591	0	796
5.013	11.648	18076	15565	0	796
5.878	15.074	18057	15637	0	796
5.409	13.523	18036	15731	0	796
7.753	16.084	18022	15794	0	796
11.720	18.788	17996	15825	0	796
19.618	26.578	17969	15840	0	796
23.945	28.814	17950	15873	0	796
20.916	24.919	17937	15931	0	796
15.182	16.733	17915	15988	0	796
11.973	10.206	17897	16018	0	796
14.389	15.290	17875	16040	0	796
25.424	23.585	17862	16082	0	796
32.925	32.276	17848	16147	0	796
34.403	31.915	17843	16206	0	796
31.194	29.751	17822	16232	0	796
27.047	25.676	17803	16245	0	796
24.234	25.027	17781	16271	0	796
23.188	23.296	17768	16310	0	796
19.437	20.050	17755	16334	0	796
19.221	17.202	17749	16341	0	796
18.716	17.166	17736	16369	0	796
17.743	19.077	17723	16405	0	796
15.435	16.516	17715	16438	0	796
8.619	8.691	17709	16466	0	796
1.334	-1.298	17696	16482	0	796
-1.154	-7.032	17682	16488	0	796
3.570	-4.364	17674	16501	0	796
8.330	2.524	17669	16521	0	796
10.350	6.852	17656	16527	0	796
4.400	4.400	17642	16519	0	796
-4.904	-1.442	17634	16499	0	796
-11.756	-7.825	17607	16464	0	796
-13.379	-10.855	17589	16382	0	796
-10.638	-7.429	17554	16280	0	796
-6.491	-6.239	17540	16252	0	796
-5.301	-3.642	17540	16315	0	796
-3.210	-2.488	17527	16382	0	796
-3.210	-2.380	17522	16386	0	796
-3.750	-5.121	17500	16345	0	796
-4.544	-6.996	17482	16293	0	796
-6.022	-9.052	17468	16262	0	796
-10.458	-12.802	17441	16249	0	796
-12.441	-15.218	17420	16219	0	796
-12.297	-13.487	17393	16156	0	796
-8.078	-12.009	17366	16095	0	796
-7.321	-6.563	17340	16051	0	796
-3.210	-3.534	17313	16005	0	796
-3.570	-2.128	17281	15955	0	796
-2.633	-3.173	17232	15888	0	796
2.272	-0.577	17200	15814	0	796
8.330	2.849	17166	15761	0	796
9.088	6.131	17133	15757	0	796
3.426	1.262	17107	15772	0	796
-4.796	-4.724	17066	15737	0	796
-8.258	-9.592	17005	15607	0	796
-5.013	-6.888	16933	15424	0	796
1.406	-1.587	16884	15315	0	796
3.678	2.885	16839	15308	0	796
-1.479	-0.505	16785	15321	0	796
-8.150	-6.599	16745	15323	0	796
-13.740	-12.333	16691	15332	0	796
-11.143	-11.215	16638	15332	0	796
-9.160	-10.206	16584	15284	0	796
-5.013	-5.950	16517	15225	0	796
-3.390	-5.590	16464	15225	0	796
-4.327	-5.590	16410	15262	0	796
-7.321	-7.825	16352	15260	0	796
-8.583	-7.825	16291	15223	0	796
-10.602	-7.321	16232	15217	0	796
-8.871	-5.445	16178	15254	0	796
-6.455	-3.787	16125	15306	0	796
-1.695	-0.144	16077	15371	0	796
3.426	5.481	16031	15461	0	796
7.825	11.540	16004	15572	0	796
7.357	12.658	15964	15700	0	796
2.705	11.828	15943	15853	0	796
-2.777	6.275	15916	15990	0	796
-2.921	4.472	15884	16084	0	796
7.212	10.855	15862	16167	0	796
19.978	18.933	15835	16262	0	796
30.112	24.702	15817	16376	0	796
28.597	23.404	15809	16508	0	796
20.627	15.471	15809	16656	0	796
10.638	11.215	15809	16817	0	796
6.131	8.655	15822	16996	0	796
7.104	9.629	15844	17187	0	796
13.127	14.497	15870	17375	0	796
15.435	15.795	15889	17545	0	796
14.461	12.441	15937	17708	0	796
12.081	12.730	15991	17906	0	796
11.504	15.831	16050	18150	0	796
23.404	25.893	16111	18401	0	796
35.269	36.351	16184	18573	0	796
39.344	38.767	16224	18610	0	796
34.944	32.203	16264	18573	0	796
23.296	20.627	16326	18595	0	796
17.634	18.536	16397	18695	0	796
27.047	27.912	16477	18800	0	796
37.973	36.423	16550	18891	0	796
44.897	42.481	16630	18976	0	796
42.625	37.865	16724	19044	0	796
36.567	32.239	16812	19098	0	796
35.701	32.059	16924	19181	0	796
37.793	34.980	17032	19292	0	796
37.757	34.547	17139	19364	0	796
31.843	29.859	17232	19349	0	796
23.080	21.277	17321	19266	0	796
17.995	18.320	17420	19172	1	804
15.903	16.264	17522	19089	0	804
21.529	20.375	17602	19002	0	804
22.214	20.050	17688	18900	0	804
22.322	18.247	17781	18778	0	804
16.949	16.480	17862	18628	0	804
14.894	13.704	17942	18464	0	804
8.799	12.946	18022	18316	0	804
8.258	13.956	18097	18168	0	804
9.484	13.487	18170	17983	0	804
12.622	17.598	18223	17784	0	804
21.565	21.781	18298	17610	0	804
27.227	27.696	18357	17466	0	804
32.889	32.708	18424	17329	0	804
32.059	29.751	18486	17174	0	804
27.263	25.532	18531	17015	0	804
21.962	21.637	18585	16878	0	804
22.106	24.089	18638	16758	0	804
26.433	29.463	18692	16634	0	804
34.151	38.767	18732	16501	0	804
39.308	41.327	18780	16390	0	804
39.091	37.865	18834	16317	0	804
33.574	33.069	18879	16276	0	804
25.784	27.515	18933	16245	0	804
16.913	23.008	18968	16195	0	804
10.602	19.149	19013	16127	0	804
6.888	13.487	19062	16077	0	804
8.078	12.189	19115	16066	0	804
14.497	12.045	19155	16086	0	804
19.618	13.812	19201	16093	0	804
21.277	16.048	19214	16008	0	804
13.127	11.107	19228	15842	0	804
1.370	0.974	19241	15703	0	804
-7.862	-7.357	19262	15629	0	804
-7.068	-7.609	19268	15559	0	804
4.796	3.462	19268	15469	0	804
19.005	17.310	19268	15384	0	804
26.001	26.866	19276	15317	0	804
21.565	24.702	19281	15286	0	804
10.855	15.146	19303	15341	0	804
5.626	10.278	19329	15467	0	804
4.724	9.629	19343	15550	0	804
11.360	11.143	19343	15513	0	804
13.379	12.081	19329	15406	0	804
13.920	13.091	19316	15310	0	804
13.271	11.973	19303	15252	0	804
14.533	18.897	19281	15197	0	804
18.897	20.880	19236	15082	0	804
20.267	22.286	19187	14916	0	804
19.329	18.031	19169	14812	0	804
14.425	15.795	19142	14829	0	804
12.982	13.704	19121	14912	0	804
11.396	14.425	19107	14990	0	804
10.494	13.091	19080	15051	0	804
11.684	9.665	19080	15125	0	804
13.235	9.520	19062	15230	0	804
15.182	10.783	19062	15343	0	804
20.988	13.740	19040	15430	0	804
19.762	16.913	19027	15485	0	804
15.002	14.064	19008	15524	0	804
8.186	10.999	18995	15581	0	804
3.390	8.907	18987	15687	0	804
8.619	12.622	18987	15822	0	804
16.661	15.939	18973	15892	0	804
19.293	17.634	18928	15829	0	804
19.221	10.891	18893	15703	0	804
12.441	7.645	18861	15659	0	804
8.979	5.914	18834	15709	0	804
8.619	8.871	18813	15753	0	804
10.350	10.530	18786	15770	0	804
9.881	9.917	18767	15794	0	804
9.520	5.626	18732	15803	0	804
8.583	2.705	18687	15755	0	804
7.032	1.803	18646	15696	0	804
4.075	1.190	18620	15703	0	804
0.252	1.839	18598	15753	0	804
1.947	4.868	18566	15796	0	804
8.186	10.061	18545	15853	0	804
13.992	16.048	18553	16001	0	804
13.091	11.828	18566	16232	0	804
7.429	4.940	18566	16414	0	804
-1.983	-3.029	18553	16473	0	804
-4.327	-6.527	18531	16455	0	804
1.947	1.731	18526	16442	0	804
12.405	11.937	18513	16447	0	804
20.952	23.008	18486	16440	0	804
26.650	28.922	18451	16386	0	804
27.624	27.227	18424	16293	0	804
23.585	23.152	18392	16204	0	804
18.139	17.418	18357	16156	0	804
13.163	12.297	18339	16154	0	804
8.979	9.412	18312	16162	0	804
9.268	10.999	18285	16145	0	804
12.153	11.900	18250	16082	0	804
14.064	9.917	18191	15929	0	804
11.251	8.583	18111	15718	0	804
7.104	6.022	18057	15552	0	804
6.924	9.484	17996	15452	0	804
10.422	17.851	17942	15400	0	804
14.353	28.237	17902	15406	0	804
19.221	32.636	17875	15476	0	804
17.706	31.554	17843	15574	0	804
16.120	31.302	17808	15646	0	804
14.930	31.626	17768	15685	0	804
19.870	36.567	17741	15709	0	804
19.870	39.596	17701	15753	0	804
20.555	39.380	17674	15816	0	804
17.670	37.216	17648	15879	0	804
19.870	37.072	17615	15931	0	804
21.673	40.389	17581	15981	0	804
27.083	45.474	17567	16042	0	804
31.915	48.215	17540	16121	0	804
33.033	51.569	17527	16193	0	804
32.600	49.621	17487	16215	0	804
30.905	48.323	17455	16175	0	804
25.424	41.039	17420	16138	0	804
18.824	32.239	17380	16130	0	804
12.802	22.575	17353	16125	0	804
6.527	12.874	17321	16123	0	804
0.902	9.737	17286	16127	0	804
0.433	9.520	17254	16143	0	804
2.200	11.612	17232	16188	0	804
6.239	16.733	17232	16313	0	804
10.999	18.320	17240	16503	0	804
13.379	20.700	17246	16669	0	804
13.054	20.555	17240	16743	0	804
12.225	22.755	17227	16752	0	804
15.218	22.791	17214	16743	0	804
17.743	26.217	17200	16736	0	804
21.637	27.155	17179	16732	0	804
21.962	28.669	17166	16697	0	804
21.204	29.066	17133	16617	0	804
23.873	28.994	17112	16525	0	804
25.171	30.653	17085	16455	0	804
28.273	34.475	17053	16401	0	804
33.393	38.154	17026	16350	0	804
36.062	41.507	16991	16293	0	804
39.235	43.996	16973	16258	0	804
39.452	44.537	16959	16254	0	804
37.468	41.760	16938	16273	0	804
30.545	37.649	16911	16293	0	804
24.991	31.915	16892	16284	0	804
21.781	26.758	16871	16241	0	804
19.690	24.630	16839	16193	0	804
21.998	24.270	16825	16178	0	804
20.591	24.017	16804	16199	0	804
18.031	22.431	16791	16228	0	804
15.182	17.634	16764	16243	0	804
9.124	15.723	16750	16232	0	804
4.183	11.251	16724	16212	0	804
3.498	10.638	16697	16182	0	804
2.813	9.773	16665	16130	0	804
4.291	11.071	16630	16066	0	804
6.852	12.694	16603	16010	0	804
5.878	16.733	16558	15966	0	804
4.111	15.615	16536	15951	0	804
1.875	16.769	16523	16001	0	804
0.108	12.730	16504	16077	0	804
-0.361	11.900	16469	16082	0	804
-0.144	9.701	16429	15990	0	804
1.190	11.179	16384	15866	0	804
2.993	11.792	16339	15768	0	804
5.914	13.776	16291	15716	0	804
7.573	10.422	16237	15655	0	804
9.592	9.124	16178	15535	0	804
12.369	6.527	16117	15417	0	804
12.838	6.311	16077	15411	0	804
17.706	9.953	16058	15533	0	804
17.454	11.143	16036	15696	0	804
18.139	13.704	16031	15840	0	804
14.461	11.973	16010	15966	0	804
13.848	10.097	16010	16103	0	804
14.281	12.153	16010	16271	0	804
14.677	14.353	16018	16460	0	804
18.464	14.930	16031	16656	0	804
18.211	16.552	16044	16841	0	804
20.375	15.146	16085	17028	0	804
20.519	16.769	16111	17235	0	804
22.972	17.670	16165	17475	0	804
26.794	22.503	16224	17726	0	804
26.938	21.998	16285	17954	0	804
25.424	20.664	16339	18135	0	804
23.585	18.103	16384	18233	0	804
20.591	15.975	16437	18275	0	804
18.644	17.634	16496	18353	0	804
20.772	18.103	16563	18482	0	804
19.365	19.077	16643	18608	0	804
17.021	13.054	16732	18726	0	804
10.206	6.599	16812	18845	0	804
3.931	-2.019	16911	18963	0	804
-1.118	-6.527	17005	19065	0	804
-0.829	-7.537	17093	19105	0	804
0.541	-3.426	17174	19063	0	804
6.275	2.128	17254	19007	0	804
9.376	7.140	17340	18978	0	804
10.386	8.330	17433	18948	0	804
9.232	9.881	17508	18887	1	784
7.501	6.996	17594	18804	0	784
4.400	5.842	17674	18712	0	784
0.757	5.878	17768	18634	0	784
-4.868	8.619	17862	18601	0	784
-8.222	13.343	17956	18580	0	784
-12.261	18.247	18036	18492	0	784
-13.920	22.935	18103	18322	0	784
-11.071	23.621	18164	18107	0	784
-9.016	22.358	18231	17891	0	784
-7.068	21.781	18264	17662	0	784
-6.383	18.644	18290	17340	0	784
-8.619	18.175	18285	16904	0	784
-13.054	12.622	18290	16488	0	784
-15.471	9.052	18290	16199	0	784
-15.435	5.950	18317	16016	0	784
-14.821	5.301	18330	15901	0	784
-11.828	6.527	18365	15816	0	784
-12.153	7.068	18384	15740	0	784
-11.251	3.426	18419	15696	0	784
-11.143	2.092	18451	15703	0	784
-8.943	-1.406	18491	15748	0	784
-8.943	-2.524	18531	15805	0	784
-11.251	-5.842	18572	15849	0	784
-12.153	-8.799	18606	15877	0	784
-14.713	-16.300	18646	15912	0	784
-12.297	-22.142	18687	15966	0	784
-8.475	-27.696	18719	16018	0	784
-6.131	-31.482	18754	16038	0	784
-5.770	-34.511	18780	16023	0	784
-7.393	-38.731	18799	15984	0	784
-9.592	-44.320	18813	15940	0	784
-8.583	-48.179	18826	15903	0	784
-6.203	-53.264	18839	15859	0	784
-1.082	-50.775	18847	15801	0	784
2.272	-47.313	18847	15731	0	784
3.787	-41.147	18839	15661	0	784
3.426	-36.603	18853	15615	0	784
2.272	-33.033	18861	15637	0	784
3.426	-31.302	18879	15716	0	784
2.272	-31.807	18879	15766	0	784
-0.325	-33.862	18874	15718	0	784
-5.265	-37.396	18861	15598	0	784
-11.323	-39.019	18834	15474	0	784
-14.930	-37.685	18807	15369	0	784
-11.864	-32.780	18767	15254	0	784
-7.501	-27.768	18719	15088	0	784
-2.669	-25.135	18673	14916	0	784
-1.515	-23.585	18638	14853	0	784
-3.787	-26.470	18620	14927	0	784
-6.671	-27.587	18606	15051	0	784
-9.160	-28.525	18598	15158	0	784
-10.097	-25.856	18585	15234	0	784
-8.294	-22.395	18553	15273	0	784
-5.770	-18.392	18505	15219	0	784
-5.121	-13.776	18451	15086	0	784
-4.760	-14.497	18405	14988	0	784
-4.075	-12.838	18352	14966	0	784
-4.544	-9.556	18317	14979	0	784
-0.325	-6.960	18272	15032	0	784
4.904	-2.236	18250	15136	0	784
9.917	1.010	18223	15271	0	784
12.297	2.524	18210	15398	0	784
9.809	4.075	18178	15502	0	784
5.337	2.164	18138	15528	0	784
0.216	1.262	18089	15472	0	784
-4.616	-1.370	18044	15430	0	784
-5.121	-3.895	18004	15461	0	784
-1.839	-0.144	17969	15544	0	784
3.354	3.570	17956	15676	0	784
7.970	6.816	17950	15857	0	784
12.333	11.179	17942	16053	0	784
12.117	9.989	17950	16236	0	784
7.212	4.147	17950	16401	0	784
1.623	-1.767	17964	16562	0	784
-2.885	-5.662	17969	16708	0	784
-4.183	-2.957	17977	16828	0	784
1.731	6.419	17977	16919	0	784
9.448	17.346	17982	16991	0	784
18.211	25.820	17982	17031	0	784
19.870	28.164	17969	17000	0	784
20.808	25.243	17956	16933	0	784
17.634	23.585	17956	16928	0	784
16.805	24.450	17964	16985	0	784
15.038	23.512	17964	16994	0	784
16.697	24.125	17942	16917	0	784
15.038	24.919	17923	16802	0	784
15.759	22.358	17910	16702	0	784
15.903	21.673	17897	16641	0	784
15.398	22.611	17875	16601	0	784
17.346	21.168	17856	16538	0	784
15.687	20.519	17835	16447	0	784
19.185	23.368	17816	16388	0	784
18.356	22.755	17822	16384	0	784
18.969	23.873	17803	16399	0	784
18.644	23.476	17789	16397	0	784
17.166	19.654	17776	16369	0	784
17.310	18.897	17755	16315	0	784
20.267	17.634	17736	16260	0	784
24.053	19.113	17723	16221	0	784
24.919	17.057	17688	16171	0	784
22.539	17.093	17661	16079	0	784
20.123	12.730	17621	15962	0	784
13.740	11.648	17581	15866	0	784
14.245	10.674	17562	15809	0	784
17.634	12.297	17522	15774	0	784
19.293	16.949	17487	15733	0	784
21.060	17.815	17447	15690	0	784
21.926	21.457	17420	15663	0	784
19.582	19.942	17388	15661	0	784
18.969	20.339	17348	15668	0	784
18.752	17.490	17313	15652	0	784
21.060	18.139	17281	15631	0	784
21.060	18.103	17240	15626	0	784
23.440	18.608	17214	15646	0	784
24.594	17.779	17179	15670	0	784
22.863	17.490	17147	15685	0	784
22.070	16.012	17107	15683	0	784
23.224	17.093	17058	15655	0	784
22.755	18.139	17013	15607	0	784
23.945	21.349	16965	15570	0	784
27.227	23.549	16919	15541	0	784
29.210	23.260	16866	15489	0	784
32.780	22.863	16791	15406	0	784
35.413	24.991	16732	15306	0	784
35.954	23.116	16657	15208	0	784
33.177	23.657	16590	15138	0	784
29.895	24.198	16531	15127	0	784
25.929	20.844	16483	15171	0	784
26.145	20.339	16437	15258	0	784
22.935	17.779	16397	15363	0	784
21.962	16.264	16366	15487	0	784
17.526	10.314	16331	15624	0	784
11.287	6.455	16304	15748	0	784
5.481	0.721	16277	15855	0	784
3.895	-2.524	16245	15942	0	784
1.983	-3.426	16210	16010	0	784
3.101	-2.200	16184	16088	0	784
4.508	0.252	16152	16175	0	784
2.741	3.390	16125	16232	0	784
2.813	2.813	16090	16245	0	784
2.993	3.642	16050	16247	0	784
4.760	3.931	16023	16276	0	784
7.537	5.121	15996	16347	0	784
13.271	8.907	15991	16440	0	784
15.218	11.143	15956	16510	0	784
17.166	13.379	15943	16540	0	784
16.877	13.740	15916	16551	0	784
15.543	13.199	15897	16580	0	784
15.651	14.966	15884	16621	0	784
13.559	12.333	15857	16638	0	784
13.595	13.091	15835	16634	0	784
10.278	10.061	15822	16643	0	784
7.285	7.645	15809	16669	0	784
6.563	4.832	15795	16715	0	784
8.511	6.383	15803	16813	0	784
9.953	8.186	15817	16950	0	784
10.746	10.097	15822	17052	0	784
9.881	10.097	15817	17074	0	784
8.222	9.773	15817	17057	0	784
4.832	6.671	15822	17068	0	784
4.075	5.842	15835	17124	0	784
3.570	6.167	15844	17200	0	784
1.046	5.770	15862	17255	0	784
0.433	3.534	15876	17272	0	784
0.288	5.770	15876	17255	0	784
1.623	9.160	15889	17242	0	784
3.570	13.343	15924	17285	0	784
7.573	17.959	15943	17384	0	784
11.179	20.159	15996	17501	0	784
11.360	19.906	16044	17647	0	784
10.927	14.425	16117	17834	0	784
10.783	8.835	16192	18050	0	784
7.068	6.780	16277	18272	0	784
4.291	2.560	16371	18477	0	784
1.118	2.921	16469	18671	0	784
-2.885	4.111	16571	18867	0	784
-4.724	2.957	16683	19059	0	784
-3.967	3.029	16804	19229	0	784
-1.695	4.688	16911	19351	0	784
1.695	6.527	17032	19423	0	784
4.039	11.360	17139	19464	0	784
6.599	13.018	17254	19473	0	784
7.934	13.595	17361	19431	0	784
9.088	14.461	17447	19344	0	784
9.160	11.143	17548	19231	0	784
8.366	7.645	17642	19109	0	784
6.419	6.058	17736	18989	1	748
5.986	6.347	17830	18861	0	748
8.150	8.294	17910	18691	0	748
11.287	11.143	17982	18477	0	748
16.697	15.795	18049	18244	0	748
19.546	16.697	18116	18011	0	748
17.851	17.346	18170	17773	0	748
16.877	15.867	18218	17525	0	748
14.064	14.497	18272	17275	0	748
14.605	13.451	18298	17011	0	748
13.631	12.297	18325	16708	0	748
14.353	14.100	18344	16418	0	748
13.127	14.028	18392	16267	0	748
7.681	10.819	18438	16228	0	748
4.724	8.943	18472	16154	0	748
2.560	5.265	18491	15979	0	748
2.452	3.534	18505	15759	0	748
4.868	4.111	18513	15552	0	748
8.979	6.239	18513	15378	0	748
10.350	8.763	18513	15236	0	748
12.369	12.261	18499	15077	0	748
14.281	13.451	18478	14870	0	748
13.848	13.992	18459	14696	0	748
16.516	17.057	18446	14620	0	748
16.805	18.500	18438	14600	0	748
17.779	20.303	18424	14576	0	748
16.661	21.457	18397	14539	0	748
16.156	17.346	18384	14515	0	748
12.045	15.543	18365	14509	0	748
10.314	12.369	18339	14502	0	748
10.169	10.638	18312	14478	0	748
10.350	10.025	18272	14452	0	748
7.645	6.419	18245	14450	0	748
4.760	2.885	18218	14493	0	748
1.659	0.505	18205	14594	0	748
-1.442	-0.108	18183	14716	0	748
-0.288	0.541	18164	14822	0	748
1.947	2.957	18151	14927	0	748
4.075	6.455	18138	15045	0	748
6.383	7.681	18124	15173	0	748
7.898	12.081	18116	15304	0	748
8.294	17.057	18111	15419	0	748
8.294	22.683	18089	15515	0	748
9.881	24.234	18076	15605	0	748
11.720	25.496	18071	15698	0	748
13.559	25.388	18057	15796	0	748
16.372	23.260	18044	15881	0	748
14.100	23.332	18036	15947	0	748
13.163	22.070	18004	15966	0	748
9.809	17.238	17969	15916	0	748
5.590	15.074	17929	15829	0	748
3.065	12.369	17897	15772	0	748
1.983	14.821	17862	15774	0	748
3.570	17.706	17835	15796	0	748
6.275	19.978	17803	15790	0	748
9.232	20.952	17776	15781	0	748
10.386	20.411	17755	15853	0	748
9.268	16.841	17749	15997	0	748
8.475	15.254	17749	16130	0	748
9.232	12.766	17741	16219	0	748
6.780	8.943	17723	16267	0	748
4.436	8.835	17709	16306	0	748
2.308	5.554	17701	16361	0	748
0.865	6.527	17701	16431	0	748
3.101	6.816	17696	16512	0	748
7.032	9.124	17688	16575	0	748
11.504	11.864	17696	16628	0	748
12.802	13.163	17696	16675	0	748
12.622	16.156	17688	16706	0	748
14.569	17.238	17682	16717	0	748
16.516	19.077	17682	16712	0	748
20.050	20.267	17661	16689	0	748
17.887	20.952	17648	16660	0	748
15.651	16.336	17656	16651	0	748
10.278	14.028	17648	16667	0	748
5.698	9.304	17634	16675	0	748
4.508	7.753	17634	16649	0	748
4.796	6.167	17621	16606	0	748
6.635	6.419	17607	16564	0	748
7.321	6.563	17594	16514	0	748
9.989	5.229	17567	16434	0	748
13.451	6.131	17548	16345	0	748
15.471	7.140	17522	16271	0	748
15.074	6.491	17508	16219	0	748
15.795	7.717	17473	16167	0	748
12.117	8.150	17455	16101	0	748
11.540	7.357	17420	16025	0	748
11.071	7.140	17380	15942	0	748
9.556	7.645	17334	15807	0	748
10.963	7.645	17281	15622	0	748
11.937	8.330	17214	15450	0	748
11.792	9.412	17152	15315	0	748
14.172	8.943	17085	15188	0	748
14.389	10.025	17018	15069	0	748
11.720	10.350	16951	14979	0	748
11.576	9.665	16898	14934	0	748
12.333	10.530	16839	14927	0	748
11.432	8.907	16777	14951	0	748
12.009	9.232	16732	14990	0	748
11.720	10.422	16683	15032	0	748
9.268	13.127	16643	15119	0	748
9.412	13.235	16616	15256	0	748
9.196	11.468	16584	15406	0	748
7.176	9.592	16550	15533	0	748
5.445	5.842	16517	15629	0	748
2.957	3.029	16491	15718	0	748
0.108	2.741	16464	15814	0	748
-1.082	1.839	16437	15914	0	748
-0.108	1.082	16402	15997	0	748
0.685	-0.288	16371	16038	0	748
1.947	0.180	16331	16047	0	748
5.373	3.065	16291	16064	0	748
10.278	7.537	16272	16125	0	748
14.641	16.228	16245	16210	0	748
19.149	21.962	16224	16271	0	748
22.178	26.866	16192	16306	0	748
25.856	27.912	16165	16345	0	748
27.479	27.371	16152	16390	0	748
31.771	28.489	16125	16421	0	748
33.718	29.751	16085	16418	0	748
31.843	30.076	16063	16394	0	748
27.587	27.371	16023	16371	0	748
22.034	23.332	15991	16337	0	748
13.235	15.326	15937	16252	0	748
8.330	9.304	15884	16121	0	748
2.633	2.164	15830	16012	0	748
-1.911	-4.400	15777	15934	0	748
-6.635	-10.206	15715	15835	0	748
-11.215	-18.356	15656	15727	0	748
-16.769	-22.142	15602	15670	0	748
-18.644	-24.378	15549	15657	0	748
-18.788	-24.883	15495	15609	0	748
-14.569	-19.401	15428	15517	0	748
-12.477	-18.031	15361	15448	0	748
-12.369	-16.805	15313	15441	0	748
-13.668	-20.519	15268	15498	0	748
-16.697	-21.457	15241	15613	0	748
-14.064	-19.113	15206	15746	0	748
-9.232	-13.848	15187	15859	0	748
-2.236	-5.517	15161	15988	0	748
2.488	-0.144	15153	16149	0	748
3.642	0.974	15139	16304	0	748
2.272	0.180	15120	16416	0	748
1.370	-0.649	15107	16499	0	748
0.361	-3.029	15094	16573	0	748
-0.902	-4.400	15080	16656	0	748
-2.128	-4.688	15080	16741	0	748
-4.219	-5.770	15067	16795	0	748
-5.373	-2.669	15045	16808	0	748
-6.852	-2.885	15027	16806	0	748
-6.022	-2.993	15019	16826	0	748
-6.996	-7.573	15027	16882	0	748
-9.484	-14.317	15027	16972	0	748
-11.612	-18.067	15027	17055	0	748
-10.963	-20.483	15032	17118	0	748
-13.631	-16.985	15053	17183	0	748
-12.009	-15.218	15067	17259	0	748
-9.989	-12.586	15080	17340	0	748
-12.189	-12.838	15120	17453	0	748
-13.595	-12.766	15166	17608	0	748
-11.035	-10.710	15206	17776	0	748
-10.206	-10.746	15273	17943	0	748
-8.150	-9.160	15335	18116	0	748
-4.652	-6.167	15402	18272	0	748
-3.065	-6.491	15474	18405	0	748
-2.633	-2.633	15554	18538	0	748
0.108	0.577	15635	18678	0	748
3.678	3.714	15723	18797	0	748
7.645	3.462	15803	18885	0	748
8.186	5.337	15902	18959	0	748
9.484	5.481	15983	19009	0	748
10.025	5.950	16063	18980	0	748
10.891	8.763	16125	18874	0	748
10.566	10.494	16205	18773	0	748
10.169	11.540	16285	18712	0	748
8.475	8.402	16366	18665	1	700
4.652	3.859	16429	18577	0	700
2.885	0.216	16491	18436	0	700
3.642	-1.731	16558	18292	0	700
4.796	0.613	16630	18172	0	700
5.157	3.931	16691	18065	0	700
6.455	5.481	16764	17967	0	700
4.364	2.380	16817	17858	0	700
0.505	0.288	16892	17743	0	700
-2.957	-4.616	16951	17632	0	700
-4.255	-5.157	17013	17523	0	700
-3.895	-2.669	17072	17399	0	700
-0.108	1.479	17120	17246	0	700
4.508	5.517	17166	17092	0	700
7.789	7.753	17214	16970	0	700
10.566	9.052	17273	16889	0	700
10.278	7.429	17321	16824	0	700
13.163	10.169	17361	16730	0	700
18.103	13.199	17401	16601	0	700
20.916	19.221	17441	16479	0	700
24.594	21.132	17473	16401	0	700
25.748	22.863	17522	16345	0	700
23.044	24.450	17535	16241	0	700
20.231	22.214	17548	16049	0	700
19.293	20.267	17540	15814	0	700
15.362	18.969	17548	15629	0	700
13.992	15.290	17548	15509	0	700
9.881	11.251	17554	15415	0	700
6.996	9.088	17548	15334	0	700
4.003	6.960	17554	15265	0	700
1.983	6.311	17540	15178	0	700
2.993	4.832	17522	15049	0	700
5.337	5.481	17487	14905	0	700
6.671	3.606	17468	14796	0	700
6.131	3.029	17428	14707	0	700
6.239	5.193	17393	14589	0	700
6.455	9.484	17340	14459	0	700
11.143	14.858	17299	14376	0	700
15.831	22.647	17254	14334	0	700
19.618	25.712	17206	14291	0	700
19.473	27.335	17147	14219	0	700
18.788	27.299	17085	14151	0	700
16.769	26.037	17040	14149	0	700
19.077	23.945	16999	14217	0	700
19.546	23.945	16965	14334	0	700
20.050	22.611	16933	14485	0	700
15.903	16.733	16911	14642	0	700
10.710	11.828	16892	14822	0	700
7.645	7.104	16879	15042	0	700
6.167	5.445	16884	15282	0	700
8.222	4.688	16871	15500	0	700
11.287	6.924	16858	15674	0	700
10.963	6.599	16866	15829	0	700
6.996	5.085	16866	16008	0	700
4.291	5.229	16871	16225	0	700
1.983	7.104	16898	16458	0	700
4.616	12.802	16906	16638	0	700
10.133	15.435	16884	16671	0	700
12.369	16.625	16871	16597	0	700
13.631	15.867	16858	16560	0	700
13.091	12.946	16852	16608	0	700
11.973	13.307	16852	16662	0	700
13.271	16.300	16844	16706	0	700
17.057	17.093	16852	16756	0	700
17.166	19.077	16844	16804	0	700
19.473	16.589	16852	16834	0	700
18.392	16.120	16852	16852	0	700
18.752	13.884	16844	16863	0	700
14.677	13.235	16852	16856	0	700
12.550	9.989	16839	16806	0	700
8.511	5.590	16817	16728	0	700
5.914	4.904	16812	16656	0	700
5.806	4.796	16791	16595	0	700
8.511	10.025	16777	16523	0	700
13.415	17.021	16737	16412	0	700
17.346	26.145	16710	16269	0	700
20.952	28.164	16670	16145	0	700
21.313	27.912	16651	16077	0	700
17.815	24.739	16630	16056	0	700
16.552	20.808	16598	16018	0	700
14.966	18.860	16571	15951	0	700
14.821	20.627	16558	15934	0	700
15.975	21.132	16550	16001	0	700
15.146	20.988	16536	16093	0	700
16.300	20.555	16523	16147	0	700
15.831	19.618	16509	16154	0	700
18.933	22.827	16496	16147	0	700
20.231	24.414	16483	16154	0	700
22.034	27.119	16469	16186	0	700
20.267	28.056	16464	16230	0	700
18.067	28.164	16456	16265	0	700
18.247	23.621	16450	16286	0	700
17.634	21.637	16442	16315	0	700
17.562	19.834	16437	16365	0	700
14.353	15.218	16437	16425	0	700
8.655	12.694	16429	16464	0	700
3.859	8.222	16424	16471	0	700
0.721	4.003	16416	16460	0	700
2.056	3.029	16410	16455	0	700
4.364	3.895	16402	16464	0	700
5.409	8.547	16389	16453	0	700
3.859	8.979	16358	16363	0	700
2.236	6.888	16326	16215	0	700
-1.587	3.787	16299	16110	0	700
-5.409	-1.731	16272	16064	0	700
-8.619	-4.616	16245	16016	0	700
-6.996	-5.698	16210	15957	0	700
-3.967	-2.705	16170	15899	0	700
-0.252	-0.072	16143	15833	0	700
1.803	2.741	16098	15753	0	700
1.406	4.003	16050	15674	0	700
-2.092	2.164	16018	15622	0	700
-4.904	-0.721	15969	15581	0	700
-4.472	-2.488	15924	15500	0	700
-1.515	0.361	15870	15402	0	700
1.983	4.436	15830	15391	0	700
6.780	9.376	15809	15483	0	700
8.366	11.612	15777	15572	0	700
6.203	3.498	15736	15585	0	700
0.288	-10.458	15688	15546	0	700
-4.147	-31.158	15648	15524	0	700
-6.167	-49.044	15608	15544	0	700
-3.210	-57.591	15576	15589	0	700
0.216	-58.240	15536	15633	0	700
3.210	-51.280	15495	15648	0	700
3.859	-47.638	15447	15633	0	700
-0.180	-48.251	15402	15605	0	700
-5.481	-52.687	15353	15607	0	700
-12.369	-56.365	15313	15646	0	700
-17.598	-57.411	15281	15681	0	700
-17.887	-52.001	15233	15713	0	700
-19.293	-47.313	15206	15774	0	700
-15.975	-43.130	15179	15877	0	700
-17.743	-42.337	15161	15999	0	700
-19.113	-42.265	15134	16069	0	700
-21.854	-43.924	15080	16029	0	700
-21.962	-42.084	15032	15936	0	700
-21.024	-39.055	14992	15910	0	700
-21.926	-36.387	14965	15971	0	700
-20.555	-34.475	14933	16049	0	700
-19.978	-32.348	14906	16121	0	700
-20.050	-31.807	14885	16199	0	700
-17.454	-30.400	14866	16269	0	700
-17.382	-27.804	14845	16334	0	700
-15.254	-23.873	14839	16427	0	700
-15.362	-19.942	14831	16556	0	700
-14.858	-16.769	14826	16658	0	700
-11.828	-12.514	14804	16684	0	700
-11.287	-9.845	14786	16656	0	700
-8.511	-8.979	14772	16636	0	700
-7.789	-7.862	14751	16641	0	700
-8.655	-9.268	14724	16643	0	700
-12.081	-11.035	14711	16636	0	700
-13.451	-14.064	14692	16630	0	700
-14.136	-12.910	14671	16619	0	700
-13.271	-12.802	14657	16610	0	700
-9.809	-11.612	14652	16623	0	700
-7.465	-8.691	14630	16630	0	700
-5.914	-5.734	14617	16608	0	700
-3.606	-3.895	14604	16577	0	700
-2.777	-0.902	14585	16569	0	700
-0.469	-0.144	14577	16588	0	700
-1.010	-0.361	14563	16593	0	700
-3.462	-0.902	14545	16558	0	700
-5.950	-1.695	14537	16534	0	700
-7.357	-2.236	14531	16575	0	700
-7.753	-2.741	14545	16682	0	700
-6.708	-2.416	14563	16813	0	700
-7.212	-3.967	14585	16937	0	700
-7.898	-5.049	14617	17063	0	700
-7.753	-5.986	14644	17185	0	700
-8.330	-5.409	14679	17318	0	700
-9.232	-6.708	14737	17501	0	700
-9.665	-6.888	14799	17723	0	700
-11.179	-6.888	14871	17954	0	700
-11.071	-7.032	14960	18200	0	700
-6.996	-3.246	15059	18464	0	700
-4.075	1.839	15161	18717	0	700
0.865	5.193	15260	18917	0	700
4.652	8.511	15367	19061	0	700
8.114	10.025	15474	19183	0	700
9.520	11.648	15581	19305	0	700
12.982	16.480	15696	19421	0	700
17.670	20.123	15809	19499	0	700
21.998	27.479	15924	19534	0	700
24.883	32.816	16023	19529	0	700
27.948	37.613	16130	19466	0	700
26.758	39.812	16232	19375	0	700
29.318	43.274	16344	19344	0	700
32.131	46.556	16456	19342	1	756
34.403	47.097	16558	19248	0	756
33.502	47.962	16638	19037	0	756
30.977	44.717	16718	18771	0	756
27.696	39.127	16777	18503	0	756
23.512	35.485	16858	18257	0	756
21.854	32.492	16911	18028	0	756
20.808	30.076	16965	17767	0	756
18.031	27.335	17005	17455	0	756
16.913	24.198	17045	17146	0	756
13.956	22.178	17085	16893	0	756
14.605	18.356	17120	16684	0	756
13.631	18.788	17152	16473	0	756
16.192	17.562	17174	16245	0	756
16.949	19.185	17192	16014	0	756
18.067	20.952	17192	15766	0	756
20.447	25.640	17187	15509	0	756
27.371	32.203	17192	15304	0	756
33.466	38.731	17192	15169	0	756
39.488	43.996	17206	15079	0	756
43.347	45.510	17219	15038	0	756
43.094	44.897	17246	15062	0	756
42.265	46.664	17273	15130	0	756
44.284	48.792	17294	15195	0	756
45.799	51.461	17313	15254	0	756
48.395	54.201	17340	15321	0	756
44.537	48.576	17374	15406	0	756
39.019	42.770	17401	15496	0	756
29.030	32.889	17415	15559	0	756
20.014	26.181	17441	15589	0	756
16.985	21.204	17441	15602	0	756
16.228	20.844	17460	15615	0	756
21.241	25.135	17473	15637	0	756
21.926	27.371	17473	15650	0	756
22.503	28.597	17473	15611	0	756
21.096	26.217	17447	15493	0	756
17.598	23.260	17415	15321	0	756
17.598	17.923	17374	15149	0	756
16.120	16.156	17334	15021	0	756
19.041	15.038	17299	14949	0	756
19.978	16.084	17273	14912	0	756
24.775	17.706	17232	14881	0	756
29.066	22.972	17200	14853	0	756
36.423	24.847	17160	14835	0	756
47.025	28.020	17125	14829	0	756
60.368	29.607	17093	14851	0	756
74.540	31.302	17058	14890	0	756
86.982	34.187	17018	14925	0	756
90.047	34.908	16991	14975	0	756
86.549	34.908	16965	15042	0	756
76.740	36.423	16919	15066	0	756
66.282	32.492	16858	15014	0	756
59.142	30.508	16817	14964	0	756
55.536	28.381	16764	14988	0	756
49.874	24.775	16737	15084	0	756
45.799	23.296	16710	15239	0	756
38.911	20.014	16710	15437	0	756
35.629	20.087	16697	15642	0	756
33.466	17.382	16697	15844	0	756
30.040	16.336	16718	16060	0	756
24.955	11.504	16724	16308	0	756
16.552	8.439	16750	16549	0	756
11.107	1.911	16758	16734	0	756
6.022	-0.036	16785	16880	0	756
4.003	-1.370	16799	17024	0	756
2.741	-0.036	16825	17170	0	756
0.180	0.938	16858	17305	0	756
-0.938	1.947	16871	17407	0	756
-1.118	4.183	16898	17471	0	756
0.613	5.445	16919	17506	0	756
5.517	6.852	16933	17510	0	756
11.107	8.943	16946	17492	0	756
14.605	10.855	16965	17466	0	756
13.956	11.323	16973	17418	0	756
13.559	10.133	16965	17322	0	756
10.819	10.855	16959	17181	0	756
13.812	11.468	16959	17039	0	756
17.706	13.740	16959	16961	0	756
21.673	17.346	16951	16911	0	756
21.998	16.985	16938	16782	0	756
21.204	17.418	16906	16558	0	756
19.005	14.605	16858	16313	0	756
16.589	15.182	16825	16093	0	756
11.323	14.317	16785	15918	0	756
8.222	11.071	16737	15783	0	756
5.878	9.737	16697	15650	0	756
4.904	6.996	16657	15507	0	756
6.563	5.842	16603	15387	0	756
8.366	6.852	16571	15319	0	756
11.107	10.566	16536	15302	0	756
11.684	12.658	16496	15308	0	756
9.845	12.153	16464	15300	0	756
7.753	11.973	16429	15297	0	756
6.058	9.340	16402	15321	0	756
3.282	6.275	16371	15356	0	756
4.436	5.157	16339	15393	0	756
6.563	7.429	16304	15428	0	756
8.691	7.140	16272	15461	0	756
11.900	9.376	16237	15502	0	756
16.228	10.638	16218	15570	0	756
18.103	14.028	16197	15652	0	756
19.185	15.074	16165	15713	0	756
14.930	15.615	16138	15753	0	756
14.064	16.012	16117	15803	0	756
11.107	10.819	16090	15873	0	756
9.809	7.645	16071	15951	0	756
8.006	5.229	16050	16012	0	756
7.862	5.301	16023	16056	0	756
9.016	7.970	16010	16099	0	756
9.088	9.989	15983	16149	0	756
12.333	13.054	15969	16191	0	756
12.297	13.523	15929	16191	0	756
12.910	13.415	15902	16151	0	756
14.930	14.172	15862	16086	0	756
14.461	14.172	15817	15995	0	756
17.995	17.418	15763	15894	0	756
18.247	19.329	15715	15827	0	756
18.788	21.168	15675	15809	0	756
16.733	18.031	15635	15798	0	756
15.435	15.795	15581	15737	0	756
13.812	13.884	15522	15637	0	756
18.428	14.281	15482	15615	0	756
22.431	19.582	15469	15711	0	756
28.128	24.198	15434	15840	0	756
28.525	23.549	15402	15916	0	756
22.755	20.591	15375	15936	0	756
16.661	12.369	15340	15949	0	756
9.701	7.357	15300	15984	0	756
7.898	3.967	15268	15988	0	756
9.737	4.472	15214	15927	0	756
11.035	6.058	15166	15853	0	756
12.838	7.717	15126	15835	0	756
13.920	10.386	15086	15873	0	756
10.638	11.107	15067	15944	0	756
9.953	11.396	15040	16023	0	756
8.330	11.071	15013	16086	0	756
7.717	10.674	14987	16149	0	756
7.825	12.622	14973	16228	0	756
9.268	15.867	14965	16347	0	756
7.321	19.618	14965	16490	0	756
3.462	20.339	14960	16608	0	756
-2.921	15.759	14946	16675	0	756
-6.203	13.415	14946	16736	0	756
-6.888	10.710	14952	16830	0	756
-2.813	11.071	14952	16941	0	756
2.633	12.874	14965	17024	0	756
6.852	17.706	14960	17046	0	756
8.979	16.552	14946	17007	0	756
8.943	17.129	14933	16930	0	756
8.439	15.903	14912	16863	0	756
8.511	17.346	14893	16806	0	756
6.888	18.211	14879	16752	0	756
5.842	21.168	14858	16706	0	756
5.986	20.591	14839	16647	0	756
7.609	21.493	14818	16573	0	756
10.350	22.863	14804	16516	0	756
12.225	22.142	14799	16508	0	756
11.468	22.250	14791	16536	0	756
7.393	20.952	14786	16556	0	756
4.868	15.939	14778	16575	0	756
3.570	13.884	14799	16647	0	756
6.167	13.307	14826	16800	0	756
8.222	13.704	14871	17011	0	756
9.484	16.120	14920	17231	0	756
9.052	13.018	14965	17436	0	756
8.042	12.441	15045	17682	0	756
5.445	9.592	15134	17985	0	756
6.239	9.809	15228	18299	0	756
7.934	12.730	15335	18586	0	756
11.071	19.437	15434	18821	0	756
14.894	22.322	15541	19017	0	756
16.841	23.657	15661	19205	0	756
19.113	24.775	15782	19392	0	756
20.447	23.693	15889	19534	0	756
22.719	22.791	16010	19599	0	756
25.893	23.621	16117	19628	0	756
20.555	20.483	16237	19658	0	756
15.543	16.985	16366	19699	0	756
7.429	11.323	16483	19723	0	756
1.911	8.763	16603	19699	0	756
-0.361	5.806	16724	19630	0	756
-0.433	3.678	16831	19536	0	756
1.190	1.947	16938	19412	0	756
2.236	0.469	17032	19238	1	732
4.003	0.541	17125	19031	0	732
7.212	2.488	17214	18819	0	732
8.871	4.436	17307	18612	0	732
8.691	3.246	17393	18412	0	732
9.592	3.895	17473	18229	0	732
8.655	2.596	17567	18063	0	732
8.871	3.967	17634	17885	0	732
8.619	6.924	17701	17651	0	732
9.556	8.006	17755	17357	0	732
10.638	8.907	17789	17039	0	732
11.792	13.956	17830	16741	0	732
14.064	18.031	17862	16486	0	732
20.159	22.395	17897	16254	0	732
22.358	25.712	17910	15992	0	732
24.991	25.676	17923	15724	0	732
27.587	24.198	17950	15557	0	732
24.811	21.277	17990	15515	0	732
20.050	21.385	18031	15509	0	732
19.041	19.510	18057	15463	0	732
14.425	17.382	18084	15387	0	732
13.163	15.831	18111	15319	0	732
11.540	12.477	18130	15280	0	732
10.458	9.629	18143	15243	0	732
10.530	9.881	18151	15162	0	732
9.304	8.835	18143	15027	0	732
6.455	7.825	18138	14923	0	732
4.472	6.780	18143	14896	0	732
0.505	2.524	18151	14907	0	732
-2.164	1.118	18143	14914	0	732
-2.308	-0.829	18143	14910	0	732
-1.442	-0.757	18138	14903	0	732
1.515	-1.334	18130	14903	0	732
1.839	0.469	18124	14920	0	732
5.806	2.741	18116	14940	0	732
6.563	7.393	18097	14936	0	732
6.671	8.799	18071	14918	0	732
6.203	8.655	18057	14912	0	732
6.203	7.717	18044	14938	0	732
5.481	9.592	18031	14990	0	732
7.357	11.035	18004	15032	0	732
10.746	13.740	17982	15053	0	732
11.432	17.851	17964	15073	0	732
14.136	16.877	17942	15112	0	732
15.543	15.903	17923	15164	0	732
15.507	17.634	17902	15206	0	732
16.552	16.336	17875	15236	0	732
13.812	16.084	17843	15249	0	732
11.179	12.189	17795	15221	0	732
8.042	10.494	17755	15184	0	732
6.816	8.222	17741	15247	0	732
8.042	9.160	17728	15415	0	732
9.917	10.746	17715	15559	0	732
10.025	13.199	17682	15594	0	732
5.914	9.304	17648	15563	0	732
1.118	4.724	17621	15552	0	732
-3.895	1.479	17589	15589	0	732
-6.744	1.479	17567	15646	0	732
-4.364	2.633	17527	15672	0	732
-1.298	5.770	17500	15674	0	732
0.144	7.068	17468	15724	0	732
0.036	7.753	17460	15835	0	732
-0.072	7.717	17433	15942	0	732
1.803	9.268	17420	16014	0	732
4.760	12.261	17401	16058	0	732
8.439	13.054	17374	16103	0	732
11.360	16.841	17366	16167	0	732
13.704	17.310	17353	16241	0	732
13.595	16.733	17334	16295	0	732
13.018	16.444	17307	16308	0	732
12.189	12.838	17294	16300	0	732
9.592	13.018	17273	16313	0	732
8.150	11.612	17267	16363	0	732
8.006	10.530	17246	16414	0	732
7.068	9.592	17232	16436	0	732
4.255	7.393	17214	16438	0	732
3.029	5.121	17192	16436	0	732
0.000	3.714	17166	16399	0	732
-0.216	2.308	17125	16308	0	732
-0.072	2.272	17085	16182	0	732
1.118	4.219	17053	16071	0	732
2.957	5.193	17005	15992	0	732
3.101	4.904	16965	15942	0	732
2.849	5.301	16924	15903	0	732
1.875	5.409	16892	15868	0	732
1.010	5.950	16852	15853	0	732
0.613	6.924	16825	15855	0	732
2.164	10.566	16791	15864	0	732
5.409	11.792	16750	15868	0	732
10.133	15.002	16724	15870	0	732
12.730	20.087	16683	15857	0	732
18.356	19.870	16638	15807	0	732
18.572	19.437	16584	15709	0	732
20.519	13.776	16531	15596	0	732
21.313	9.124	16469	15520	0	732
24.739	5.121	16416	15491	0	732
28.092	2.416	16379	15509	0	732
27.768	3.282	16339	15548	0	732
25.676	3.173	16291	15581	0	732
23.008	2.596	16259	15629	0	732
17.382	0.793	16232	15705	0	732
17.202	0.252	16205	15812	0	732
15.326	-0.613	16184	15942	0	732
14.533	-2.236	16165	16060	0	732
9.989	-3.390	16152	16167	0	732
6.635	-6.094	16143	16276	0	732
4.832	-7.393	16125	16376	0	732
4.111	-7.645	16098	16429	0	732
4.364	-6.708	16085	16438	0	732
2.092	-7.321	16050	16421	0	732
1.082	-10.819	16031	16421	0	732
0.505	-12.441	16010	16451	0	732
3.895	-10.206	15991	16484	0	732
9.160	-6.311	15964	16479	0	732
16.769	-0.902	15943	16453	0	732
17.129	3.462	15910	16438	0	732
16.805	3.642	15889	16440	0	732
13.668	2.524	15876	16447	0	732
10.855	5.301	15835	16431	0	732
11.937	5.950	15809	16390	0	732
13.812	7.970	15790	16358	0	732
17.021	9.629	15769	16343	0	732
19.762	8.222	15736	16332	0	732
16.625	8.006	15710	16304	0	732
13.812	6.960	15675	16262	0	732
9.160	5.229	15643	16228	0	732
9.917	5.986	15616	16197	0	732
13.920	7.068	15589	16167	0	732
19.221	11.287	15554	16136	0	732
23.585	13.523	15528	16119	0	732
23.044	13.776	15495	16106	0	732
19.005	11.396	15455	16075	0	732
16.300	6.167	15420	16023	0	732
14.136	4.760	15388	15971	0	732
15.038	6.347	15348	15949	0	732
18.464	10.206	15321	15962	0	732
22.647	15.975	15286	15966	0	732
25.171	18.247	15241	15931	0	732
28.345	21.241	15206	15890	0	732
28.561	19.654	15174	15877	0	732
26.253	19.473	15139	15903	0	732
28.092	17.634	15112	15923	0	732
26.722	17.779	15072	15910	0	732
26.433	15.146	15040	15907	0	732
23.549	14.100	15013	15936	0	732
18.969	12.009	14979	15960	0	732
16.048	10.746	14952	15964	0	732
11.251	9.268	14906	15957	0	732
8.366	5.301	14871	15953	0	732
5.013	-0.361	14845	15975	0	732
-3.642	-10.242	14826	16049	0	732
-12.045	-16.156	14804	16140	0	732
-18.824	-21.277	14772	16164	0	732
-20.087	-18.320	14724	16066	0	732
-19.473	-14.749	14671	15916	0	732
-14.533	-11.792	14630	15853	0	732
-12.838	-9.232	14590	15903	0	732
-10.386	-10.350	14577	15984	0	732
-7.753	-10.242	14545	16038	0	732
-5.662	-7.537	14491	16010	0	732
-1.515	-3.787	14451	15925	0	732
0.072	-1.731	14424	15899	0	732
0.108	-2.164	14397	15992	0	732
-1.010	-2.488	14403	16173	0	732
-0.072	-4.364	14411	16407	0	732
0.649	-2.380	14438	16651	0	732
2.885	0.938	14456	16893	0	732
7.321	3.642	14518	17181	0	732
9.665	4.327	14577	17523	0	732
14.425	4.327	14657	17878	0	732
13.812	1.875	14737	18211	0	732
14.497	1.947	14831	18529	0	732
13.956	1.623	14938	18863	0	732
11.396	2.452	15059	19214	0	732
9.881	3.678	15193	19556	0	732
4.940	4.219	15321	19843	0	732
2.128	1.479	15461	20070	0	732
-1.479	-1.839	15608	20283	0	732
-1.623	-3.895	15750	20482	0	732
-1.010	-6.563	15897	20621	0	732
1.154	-6.131	16044	20689	0	732
1.659	-7.176	16178	20684	0	732
2.092	-8.402	16304	20617	0	732
2.777	-10.566	16429	20516	0	732
2.488	-13.668	16558	20405	0	732
2.957	-15.146	16683	20279	1	740
5.013	-11.143	16799	20087	0	740
9.520	-6.347	16871	19758	0	740
13.956	0.649	16951	19342	0	740
15.831	5.373	17026	18970	0	740
16.841	7.501	17107	18678	0	740
14.569	4.219	17174	18392	0	740
13.740	1.731	17240	18107	0	740
12.297	1.010	17321	17865	0	740
10.025	0.649	17407	17684	0	740
8.258	-0.757	17482	17545	0	740
3.895	-2.272	17575	17427	0	740
1.082	-3.246	17648	17305	0	740
0.216	-4.400	17728	17163	0	740
-1.731	-3.787	17795	17013	0	740
-3.029	-0.865	17862	16858	0	740
-3.642	-0.252	17923	16691	0	740
-3.823	1.551	17969	16510	0	740
-3.390	2.056	18017	16330	0	740
-7.032	1.875	18057	16140	0	740
-13.018	-0.288	18089	15949	0	740
-19.257	-3.137	18116	15770	0	740
-24.198	-3.714	18138	15618	0	740
-23.008	-2.849	18164	15469	0	740
-16.661	1.479	18164	15291	0	740
-9.665	6.780	18164	15088	0	740
-6.094	10.602	18170	14920	0	740
-6.816	10.927	18164	14807	0	740
-9.232	9.448	18164	14716	0	740
-11.828	8.186	18156	14618	0	740
-13.307	8.006	18138	14507	0	740
-10.458	8.763	18116	14419	0	740
-10.314	9.124	18111	14384	0	740
-12.225	4.904	18103	14398	0	740
-14.208	-0.252	18084	14411	0	740
-15.903	-2.416	18057	14389	0	740
-17.562	-5.842	18044	14376	0	740
-15.398	-4.183	18031	14413	0	740
-15.182	-5.590	18004	14474	0	740
-13.740	-6.816	17982	14528	0	740
-12.910	-6.888	17964	14574	0	740
-11.035	-6.094	17942	14629	0	740
-6.780	-5.049	17929	14709	0	740
-5.157	-4.544	17923	14833	0	740
-5.013	-5.265	17915	14988	0	740
-6.960	-6.599	17910	15134	0	740
-9.124	-7.104	17902	15258	0	740
-8.979	-6.239	17897	15371	0	740
-7.537	-3.967	17897	15489	0	740
-4.544	-2.596	17889	15615	0	740
-2.524	0.793	17883	15727	0	740
-0.793	2.741	17875	15807	0	740
-0.288	4.291	17870	15873	0	740
0.577	4.940	17856	15936	0	740
-0.649	4.940	17848	15997	0	740
-0.361	4.436	17843	16056	0	740
2.272	6.275	17830	16117	0	740
5.878	8.511	17822	16147	0	740
8.150	11.215	17795	16110	0	740
7.825	13.668	17755	16021	0	740
6.239	11.828	17723	15925	0	740
5.301	13.054	17682	15846	0	740
7.212	11.323	17642	15764	0	740
9.917	10.458	17589	15635	0	740
13.595	10.783	17522	15483	0	740
14.641	11.323	17473	15374	0	740
16.913	12.946	17420	15341	0	740
20.087	14.533	17380	15356	0	740
22.358	18.392	17340	15380	0	740
24.162	19.257	17299	15389	0	740
26.542	22.358	17246	15374	0	740
28.164	25.640	17187	15297	0	740
29.354	27.407	17120	15191	0	740
32.239	31.085	17058	15143	0	740
34.367	33.754	17005	15171	0	740
37.180	35.990	16965	15245	0	740
39.560	40.029	16938	15367	0	740
41.616	42.445	16911	15517	0	740
44.897	44.537	16879	15655	0	740
