neuroNicle FX2
D3F0R0
Bluetooth SPP
2023년 6월 2일 금요일
오후 7:08
time interval = 4msec
EEG1	EEG2	PPG	sdPPG	pulse	peak_interval(msec)
-37.757	-53.083	16099	20912	0	532
-40.498	-46.232	16107	20480	0	532
-44.068	-40.714	16117	20342	0	532
-47.097	-38.226	16129	20460	1	716
-46.700	-41.724	16149	20853	0	716
-45.618	-47.494	16168	21462	0	716
-44.861	-51.316	16193	22012	0	716
-43.527	-48.395	16215	22327	0	716
-41.147	-41.796	16232	22464	0	716
-40.317	-38.839	16257	22661	0	716
-41.868	-40.245	16279	22926	0	716
-42.157	-45.041	16304	23122	0	716
-46.051	-50.054	16324	23161	0	716
-44.176	-52.939	16350	23093	0	716
-37.793	-49.549	16368	22985	0	716
-30.220	-40.678	16388	22837	0	716
-24.630	-33.249	16405	22562	0	716
-23.801	-28.561	16418	22012	0	716
-23.837	-27.587	16428	21138	0	716
-28.453	-32.672	16435	20106	0	716
-30.328	-35.449	16440	19134	0	716
-32.925	-37.072	16442	18279	0	716
-37.541	-35.269	16447	17552	0	716
-40.642	-34.872	16449	16835	0	716
-40.389	-37.865	16447	15913	0	716
-35.485	-40.101	16440	14724	0	716
-28.056	-41.255	16433	13585	0	716
-22.503	-37.901	16423	12760	0	716
-20.411	-35.016	16420	12141	0	716
-27.047	-34.187	16408	11493	0	716
-34.439	-37.036	16398	10844	0	716
-38.875	-38.731	16390	10432	0	716
-36.928	-38.911	16385	10284	0	716
-30.977	-33.934	16380	10245	0	716
-23.440	-29.823	16370	10137	0	716
-20.519	-28.237	16360	9950	0	716
-20.700	-28.958	16355	9970	0	716
-25.640	-33.033	16355	10353	0	716
-28.561	-35.593	16355	11001	0	716
-30.148	-35.774	16355	11669	0	716
-31.085	-35.016	16350	12033	0	716
-29.895	-33.862	16338	11876	0	716
-30.184	-33.321	16326	11375	0	716
-29.102	-31.194	16311	10982	0	716
-26.073	-28.777	16296	10775	0	716
-21.024	-25.424	16281	10736	0	716
-18.175	-23.080	16276	11021	0	716
-16.625	-24.234	16270	11581	0	716
-20.411	-25.856	16270	12229	0	716
-22.503	-24.270	16267	12927	0	716
-24.017	-22.395	16267	13634	0	716
-22.683	-21.385	16270	14331	0	716
-20.519	-24.270	16271	15009	0	716
-20.339	-33.646	16271	15599	0	716
-23.765	-39.668	16276	16070	0	716
-24.883	-40.389	16276	16560	0	716
-26.578	-34.475	16284	17110	0	716
-25.820	-25.063	16289	17710	0	716
-22.683	-19.149	16296	18368	0	716
-22.178	-17.670	16311	19036	0	716
-27.155	-22.683	16319	19576	0	716
-32.167	-30.545	16328	19969	0	716
-37.613	-34.944	16340	20332	0	716
-37.468	-35.593	16350	20725	0	716
-30.977	-31.807	16363	21040	0	716
-23.116	-27.299	16370	21118	0	716
-21.457	-26.686	16378	20991	0	716
-26.578	-31.554	16383	20735	0	716
-34.583	-37.937	16384	20372	0	716
-41.111	-42.589	16385	19959	0	716
-42.697	-41.291	16388	19556	0	716
-35.269	-36.134	16385	19026	0	716
-27.299	-29.210	16384	18328	0	716
-19.690	-24.847	16383	17798	0	716
-16.192	-23.621	16384	17552	0	716
-15.507	-22.683	16384	17356	0	716
-18.933	-23.693	16384	17081	0	716
-21.457	-24.414	16383	16688	0	716
-24.991	-22.611	16378	16247	0	716
-27.083	-24.053	16380	16011	0	716
-31.446	-27.263	16385	16326	0	716
-31.951	-32.023	16398	16963	0	716
-33.934	-31.807	16405	17385	1	316
-34.583	-32.672	16410	17435	0	316
-35.016	-31.915	16415	17346	0	316
-34.547	-30.040	16420	17218	0	316
-30.545	-30.436	16423	17061	0	316
-23.260	-29.066	16420	16816	0	316
-19.077	-27.984	16413	16316	0	316
-17.887	-22.935	16405	15540	0	316
-23.512	-19.618	16393	14773	0	316
-28.453	-19.293	16385	14145	0	316
-26.902	-14.785	16380	13663	0	316
-21.709	-13.127	16365	13241	0	316
-16.697	-12.261	16353	12809	0	316
-13.091	-10.350	16340	12445	0	316
-12.658	-12.946	16330	12288	0	316
-19.293	-16.264	16326	12357	0	316
-23.368	-19.221	16321	12642	0	316
-29.318	-25.712	16321	13035	0	316
-35.485	-29.571	16319	13516	0	316
-36.459	-32.961	16321	14076	0	316
-34.223	-34.259	16324	14646	0	316
-31.518	-34.836	16326	15088	0	316
-28.020	-31.951	16324	15324	0	316
-26.974	-28.741	16321	15481	0	316
-22.647	-24.883	16324	15697	0	316
-18.608	-24.053	16321	15942	0	316
-16.661	-25.532	16321	16041	0	316
-17.238	-29.030	16316	15982	0	316
-22.358	-32.131	16314	15952	0	316
-26.974	-31.771	16311	16100	0	316
-26.650	-28.669	16319	16393	0	316
-23.585	-25.929	16316	16698	0	316
-16.877	-22.142	16316	16826	0	316
-11.973	-20.159	16314	16786	0	316
-8.799	-17.923	16314	16727	0	316
-5.409	-15.362	16311	16747	0	316
-2.777	-16.877	16309	16737	0	316
-5.986	-20.447	16304	16492	0	316
-10.494	-26.145	16294	16080	0	316
-17.021	-28.705	16286	15736	0	316
-23.981	-27.010	16284	15579	0	316
-22.575	-22.431	16276	15500	0	316
-19.726	-18.464	16270	15333	0	316
-12.838	-17.454	16260	15029	0	316
-11.756	-25.063	16247	14665	0	316
-12.441	-29.715	16240	14381	0	316
-14.100	-33.429	16227	14184	0	316
-19.690	-33.321	16220	14007	0	316
-19.582	-30.725	16212	13899	0	316
-19.618	-30.617	16201	13909	0	316
-18.716	-31.302	16196	13997	0	316
-15.759	-35.341	16188	14135	0	316
-18.320	-39.849	16181	14273	0	316
-20.195	-43.815	16171	14204	0	316
-26.145	-43.635	16158	13880	0	316
-26.974	-40.137	16142	13496	0	316
-24.125	-31.662	16127	13192	0	316
-17.815	-19.365	16114	13005	0	316
-10.710	-11.396	16102	12976	0	316
-9.989	-6.996	16090	13084	0	316
-11.900	-6.599	16080	13280	0	316
-13.523	-5.842	16075	13624	0	316
-15.326	-6.275	16075	14273	0	316
-13.199	-6.744	16075	15049	0	316
-10.891	-9.160	16070	15510	0	316
-11.360	-13.668	16063	15520	0	316
-14.821	-19.942	16053	15363	0	316
-20.231	-20.808	16045	15343	0	316
-28.597	-23.368	16036	15500	0	316
-32.780	-23.693	16029	15589	0	316
-32.095	-23.729	16019	15402	0	316
-26.433	-26.542	16004	15039	0	316
-17.129	-27.515	15991	14832	0	316
-12.982	-28.453	15986	14940	0	316
-13.307	-30.725	15980	15304	0	316
-19.942	-31.987	15977	15717	0	316
-24.811	-31.446	15970	15952	0	316
-26.361	-31.662	15967	16060	0	316
-26.037	-31.013	15960	16159	0	316
-22.791	-32.672	15957	16326	0	316
-23.837	-35.016	15950	16482	0	316
-27.083	-36.891	15947	16550	0	316
-29.318	-35.449	15947	16639	0	316
-27.227	-31.266	15942	16884	0	316
-21.926	-26.361	15945	17238	0	316
-18.500	-24.234	15942	17533	0	316
-14.028	-25.532	15945	17778	0	316
-16.264	-27.010	15942	18034	0	316
-15.651	-28.237	15950	18328	0	316
-17.202	-25.424	15957	18721	0	316
-17.562	-24.522	15962	19163	0	316
-22.034	-26.217	15970	19468	0	316
-25.640	-30.545	15972	19576	0	316
-27.768	-34.439	15977	19655	0	316
-25.496	-35.665	15986	19792	0	316
-20.050	-33.970	15986	19920	0	316
-18.428	-30.004	15989	19733	0	316
-20.087	-29.138	15977	18947	0	316
-23.224	-30.941	15967	17739	0	316
-25.171	-29.571	15955	16776	0	316
-22.178	-29.391	15947	16276	0	316
-18.897	-25.568	15937	15942	0	316
-17.851	-21.745	15935	15697	0	316
-16.012	-19.401	15932	15608	0	316
-18.824	-15.146	15930	15717	0	316
-16.408	-13.956	15932	15972	0	316
-15.435	-13.054	15935	16355	0	316
-16.913	-15.615	15945	16806	0	316
-20.267	-23.873	15952	17258	0	316
-26.181	-32.816	15957	17710	0	316
-28.020	-39.091	15970	18171	0	316
-27.984	-39.019	15977	18594	0	316
-22.719	-34.764	15989	18947	0	316
-18.788	-27.804	15999	19272	0	316
-15.579	-23.801	16006	19527	0	316
-17.202	-21.709	16021	19714	0	316
-21.204	-24.450	16031	19939	0	316
-25.965	-26.830	16043	20254	0	316
-26.397	-28.886	16058	20529	0	316
-24.306	-29.354	16068	20529	0	316
-21.926	-29.895	16075	20332	0	316
-23.981	-29.427	16090	20283	0	316
-29.354	-31.915	16104	20450	0	316
-29.210	-32.312	16114	20588	0	316
-24.053	-30.761	16127	20450	0	316
-11.612	-22.791	16134	20156	0	316
-0.144	-16.084	16147	20008	0	316
5.301	-8.727	16163	20126	0	316
3.282	-9.196	16178	20401	0	316
2.272	-12.225	16196	20617	0	316
4.400	-11.107	16212	20696	0	316
8.871	-10.386	16235	20863	0	316
14.389	-4.327	16255	21217	0	316
15.435	-0.577	16279	21570	0	316
11.720	-1.695	16301	21796	0	316
9.016	-5.301	16321	21865	0	316
5.517	-6.635	16340	21884	0	316
2.452	-8.150	16365	21973	0	316
-0.757	-12.009	16385	22032	0	316
-8.258	-16.552	16403	21875	0	316
-16.841	-22.683	16420	21423	0	316
-23.512	-26.650	16433	20912	0	316
-22.647	-28.453	16447	20539	0	316
-19.149	-25.568	16464	20205	1	572
-13.848	-23.260	16477	19782	0	572
-13.018	-21.385	16487	19232	0	572
-15.507	-22.972	16497	18643	0	572
-23.008	-24.089	16506	18073	0	572
-28.273	-28.814	16508	17444	0	572
-31.013	-34.006	16513	16698	0	572
-30.292	-34.728	16513	15913	0	572
-26.506	-32.239	16516	15206	0	572
-23.080	-27.912	16516	14675	0	572
-16.877	-23.657	16521	14331	0	572
-17.202	-20.627	16523	14135	0	572
-17.454	-24.486	16528	13939	0	572
-22.070	-27.551	16528	13713	0	572
-24.955	-30.797	16533	13565	0	572
-26.794	-32.780	16536	13555	0	572
-28.705	-32.492	16541	13536	0	572
-33.069	-34.872	16538	13349	0	572
-40.353	-37.865	16538	13064	0	572
-43.310	-39.199	16536	12848	0	572
-40.678	-38.406	16533	12750	0	572
-31.085	-32.708	16533	12799	0	572
-21.926	-26.289	16533	12986	0	572
-20.231	-23.224	16538	13241	0	572
-23.440	-24.594	16538	13408	0	572
-30.725	-27.696	16541	13477	0	572
-33.718	-30.761	16536	13506	0	572
-30.689	-32.672	16536	13467	0	572
-28.525	-28.597	16531	13379	0	572
-25.604	-26.361	16526	13212	0	572
-26.037	-24.198	16513	12848	0	572
-25.207	-22.647	16506	12445	0	572
-24.991	-24.198	16501	12465	0	572
-21.745	-23.404	16497	12750	0	572
-25.640	-24.342	16484	12730	0	572
-34.403	-28.669	16474	12298	0	572
-45.222	-33.646	16459	11777	0	572
-50.270	-37.577	16444	11473	0	572
-43.455	-38.442	16433	11443	0	572
-33.285	-33.862	16420	11551	0	572
-20.808	-31.122	16410	11689	0	572
-20.483	-30.040	16403	11915	0	572
-29.102	-33.898	16400	12426	0	572
-34.439	-37.757	16403	13271	0	572
-38.586	-38.118	16408	14194	0	572
-38.911	-36.459	16408	14891	0	572
-37.685	-35.197	16405	15324	0	572
-38.298	-34.259	16405	15648	0	572
-38.334	-35.088	16405	16021	0	572
-35.197	-35.810	16405	16393	0	572
-29.354	-33.429	16403	16570	0	572
-24.558	-30.076	16395	16442	0	572
-24.486	-25.784	16388	16267	0	572
-26.722	-24.053	16385	16267	0	572
-28.850	-24.017	16384	16403	0	572
-26.578	-24.306	16383	16580	0	572
-21.313	-22.503	16380	16659	0	572
-16.913	-22.358	16375	16629	0	572
-16.336	-19.546	16375	16590	0	572
-21.204	-23.476	16368	16550	0	572
-26.578	-26.325	16363	16423	0	572
-28.381	-31.482	16353	16188	0	572
-26.758	-33.538	16348	16041	0	572
-22.503	-32.997	16345	16178	0	572
-18.572	-30.617	16350	16560	0	572
-19.510	-27.984	16353	16993	0	572
-20.231	-25.676	16353	17287	0	572
-22.575	-24.558	16355	17454	0	572
-26.001	-24.234	16358	17621	0	572
-26.325	-24.955	16363	17886	0	572
-21.132	-24.198	16368	18201	0	572
-17.238	-22.791	16368	18299	0	572
-10.963	-24.378	16360	17877	0	572
-14.208	-27.047	16348	17101	0	572
-21.241	-32.636	16345	16560	0	572
-31.807	-38.731	16340	16403	0	572
-39.055	-41.003	16338	16345	0	572
-39.704	-39.776	16330	16139	0	572
-37.577	-37.144	16316	15559	0	572
-35.990	-34.908	16296	14636	0	572
-33.502	-34.764	16281	13781	0	572
-30.761	-33.429	16265	13212	0	572
-24.847	-31.662	16255	12907	0	572
-17.021	-26.758	16242	12868	0	572
-12.189	-23.152	16237	13025	0	572
-11.504	-21.493	16227	13290	0	572
-16.661	-21.890	16222	13575	0	572
-24.053	-24.991	16215	13880	0	572
-28.453	-27.804	16211	14125	0	572
-29.391	-29.607	16201	14145	0	572
-23.476	-28.633	16188	13978	0	572
-17.959	-28.381	16181	13870	0	572
-13.127	-29.030	16171	13889	0	572
-15.723	-30.076	16158	13889	0	572
-18.933	-31.518	16147	13880	0	572
-23.188	-31.951	16139	13988	0	572
-22.250	-30.076	16134	14214	0	572
-16.444	-25.856	16127	14469	0	572
-13.992	-23.152	16119	14695	0	572
-13.812	-24.991	16109	14724	0	572
-18.320	-25.784	16099	14607	0	572
-24.522	-28.525	16093	14646	0	572
-29.318	-29.138	16085	14931	0	572
-26.037	-28.201	16083	15333	0	572
-21.926	-25.748	16075	15658	0	572
-18.320	-25.388	16073	15834	0	572
-15.002	-27.047	16070	16031	0	572
-19.257	-30.148	16068	16403	0	572
-21.673	-32.889	16068	16904	0	572
-24.847	-31.915	16065	17268	0	572
-25.171	-29.210	16068	17435	0	572
-21.890	-23.044	16068	17700	0	572
-20.664	-20.772	16073	18181	0	572
-18.139	-22.935	16080	18662	0	572
-18.897	-26.397	16083	18957	0	572
-17.598	-27.083	16085	19105	0	572
-17.166	-25.929	16088	19213	0	572
-13.379	-19.546	16093	19350	0	572
-7.862	-17.202	16097	19517	0	572
-4.436	-16.589	16102	19664	0	572
-8.042	-21.132	16107	19753	0	572
-15.110	-26.506	16112	19782	0	572
-25.388	-31.194	16119	19841	0	572
-31.482	-34.367	16129	19989	0	572
-33.357	-37.036	16137	20106	0	572
-29.174	-38.695	16139	20018	0	572
-24.883	-38.731	16147	19792	0	572
-22.755	-39.632	16149	19586	0	572
-24.630	-39.632	16156	19478	0	572
-25.099	-37.036	16161	19360	0	572
-26.938	-35.088	16161	19036	0	572
-28.633	-32.059	16158	18574	0	572
-28.164	-29.463	16161	18161	0	572
-28.886	-30.472	16163	17877	0	572
-29.391	-34.115	16163	17611	0	572
-28.922	-39.235	16161	17218	0	572
-27.515	-42.770	16152	16560	0	572
-27.768	-42.301	16137	15491	0	572
-26.830	-38.947	16119	14233	0	572
-26.722	-34.259	16104	13300	0	572
-26.397	-31.626	16090	12740	0	572
-25.424	-29.931	16078	12357	0	572
-22.755	-31.771	16070	12161	0	572
-21.601	-34.872	16063	12229	0	572
-22.358	-38.406	16058	12426	0	572
-22.935	-40.281	16050	12593	0	572
-26.361	-40.894	16043	12691	0	572
-29.102	-39.632	16036	12691	0	572
-30.653	-40.029	16021	12485	0	572
-27.696	-39.812	16006	12180	0	572
-26.722	-38.658	15999	12062	0	572
-25.856	-38.045	15986	12210	0	572
-26.325	-35.810	15977	12416	0	572
-26.830	-35.088	15965	12455	0	572
-28.669	-37.577	15955	12465	0	572
-28.417	-40.101	15952	12907	0	572
-26.073	-39.452	15957	13821	0	572
-26.181	-36.819	15955	14646	0	572
-22.935	-33.393	15952	15029	0	572
-22.034	-30.184	15945	15157	0	572
-20.339	-29.499	15945	15392	0	572
-19.798	-30.761	15942	15864	0	572
-22.899	-31.302	15947	16511	0	572
-24.306	-30.508	15952	17238	0	572
-24.234	-27.263	15957	17857	0	572
-21.385	-22.935	15967	18338	0	572
-15.615	-19.293	15972	18839	0	572
-9.737	-17.310	15984	19488	0	572
-5.842	-19.726	15996	20165	0	572
-6.816	-22.972	16006	20696	0	572
-12.297	-27.263	16021	21099	0	572
-20.411	-30.040	16036	21550	0	572
-23.621	-27.119	16053	22091	0	572
-22.250	-19.473	16068	22582	0	572
-17.202	-12.766	16088	22886	0	572
-11.071	-8.078	16102	23044	0	572
-10.386	-8.439	16122	23240	0	572
-17.418	-14.605	16142	23505	0	572
-21.890	-18.500	16158	23731	0	572
-26.037	-20.303	16181	23820	0	572
-26.109	-18.608	16198	23829	0	572
-24.053	-20.087	16220	23849	0	572
-26.722	-23.044	16242	23938	0	572
-32.889	-27.912	16265	24006	0	572
-41.760	-32.889	16284	23928	0	572
-48.395	-35.413	16306	23721	0	572
-47.386	-35.846	16328	23584	0	572
-40.101	-37.000	16353	23584	0	572
-28.128	-35.737	16375	23545	1	752
-16.372	-35.954	16388	23063	0	752
-14.605	-33.862	16393	21924	0	752
-18.572	-32.744	16395	20490	0	752
-27.587	-33.177	16403	19399	0	752
-34.872	-34.836	16410	18820	0	752
-37.721	-36.495	16420	18397	0	752
-33.718	-35.485	16430	17945	0	752
-28.705	-33.538	16440	17513	0	752
-26.470	-29.282	16449	17169	0	752
-22.972	-27.515	16459	16973	0	752
-21.709	-28.417	16474	16943	0	752
-19.401	-29.679	16489	16983	0	752
-16.300	-29.174	16498	16914	0	752
-14.858	-28.417	16511	16717	0	752
-16.949	-25.748	16516	16462	0	752
-16.985	-23.260	16526	16168	0	752
-19.510	-23.188	16531	15844	0	752
-16.661	-20.050	16536	15432	0	752
-14.894	-18.211	16531	14773	0	752
-10.061	-15.471	16528	13939	0	752
-7.285	-13.740	16521	13231	0	752
-4.760	-10.746	16518	12740	0	752
-2.741	-8.150	16511	12357	0	752
-2.596	-5.409	16508	12033	0	752
-4.904	-6.022	16501	11758	0	752
-8.763	-8.727	16497	11502	0	752
-13.992	-13.199	16494	11286	0	752
-16.372	-18.392	16482	11070	0	752
-14.894	-18.247	16472	10746	0	752
-13.271	-21.457	16457	10343	0	752
-12.117	-21.457	16444	10107	0	752
-12.117	-21.204	16442	10157	0	752
-15.002	-22.358	16435	10481	0	752
-14.172	-19.546	16430	10893	0	752
-13.163	-20.591	16425	11286	0	752
-9.773	-20.555	16425	11807	0	752
-7.501	-22.791	16425	12524	0	752
-8.835	-24.811	16430	13271	0	752
-9.304	-25.207	16433	13899	0	752
-12.333	-23.873	16433	14351	0	752
-13.091	-22.683	16433	14724	0	752
-15.002	-20.627	16435	15137	0	752
-17.310	-33.069	16198	17130	0	748
-23.476	-34.403	16206	17307	0	748
-26.253	-34.800	16215	17552	0	748
-23.080	-31.915	16215	17582	0	748
-16.156	-29.679	16220	17464	0	748
-14.353	-26.758	16225	17523	0	748
-12.153	-26.325	16237	17867	0	748
-14.317	-26.325	16247	18338	0	748
-16.913	-27.624	16260	18721	0	748
-15.543	-28.633	16270	18918	0	748
-14.785	-26.830	16284	19114	0	748
-11.792	-27.155	16299	19448	0	748
-10.206	-27.335	16314	19861	0	748
-11.287	-27.912	16328	20185	0	748
-11.432	-26.001	16345	20362	0	748
-11.720	-22.899	16360	20529	0	748
-9.737	-17.418	16380	20814	0	748
-8.547	-13.415	16398	21167	0	748
-9.809	-17.995	16413	21403	0	748
-13.415	-23.621	16433	21413	0	748
-16.480	-29.391	16447	21354	0	748
-17.166	-29.715	16469	21423	0	748
-15.218	-24.883	16487	21629	0	748
-8.763	-18.716	16508	21796	0	748
-8.006	-15.939	16523	21717	0	748
-8.439	-16.120	16543	21472	0	748
-9.917	-20.050	16560	21285	0	748
-10.819	-19.149	16582	21266	1	756
-7.970	-17.562	16602	21305	0	756
-5.337	-14.245	16614	21000	0	756
-6.131	-17.021	16614	19969	0	756
-9.737	-20.087	16612	18427	0	756
-16.048	-26.145	16610	17150	0	756
-17.706	-25.316	16614	16375	0	756
-16.444	-20.303	16610	15677	0	756
-10.458	-12.982	16607	14940	0	756
-4.327	-8.402	16607	14322	0	756
-1.551	-8.439	16607	13899	0	756
0.144	-12.550	16610	13683	0	756
2.092	-13.631	16610	13536	0	756
5.626	-10.025	16610	13418	0	756
9.124	-3.642	16614	13379	0	756
11.720	-0.036	16616	13408	0	756
13.379	0.829	16619	13418	0	756
15.362	-2.560	16616	13349	0	756
16.913	-4.544	16616	13261	0	756
20.483	-2.416	16612	13143	0	756
18.680	1.010	16607	12779	0	756
16.336	2.741	16600	12347	0	756
11.612	1.406	16602	12377	0	756
11.035	0.108	16602	12868	0	756
12.297	-1.082	16600	13153	0	756
13.812	-0.144	16592	12897	0	756
15.002	1.731	16580	12357	0	756
12.982	2.993	16567	11944	0	756
9.196	2.705	16560	11787	0	756
6.744	3.859	16556	11876	0	756
3.426	1.118	16548	12102	0	756
3.101	-1.623	16546	12367	0	756
4.364	-2.633	16543	12740	0	756
6.563	-4.760	16541	13241	0	756
8.655	-1.226	16541	13722	0	756
11.071	2.164	16536	14047	0	756
9.629	2.741	16536	14194	0	756
6.131	2.596	16528	14312	0	756
1.370	-1.695	16523	14361	0	756
-4.111	-9.520	16503	13929	0	756
-7.825	-12.405	16484	12946	0	756
-10.855	-12.946	16467	12082	0	756
-11.143	-13.091	16444	11718	0	756
-12.009	-10.674	16435	11777	0	756
-10.927	-9.376	16428	12170	0	756
-10.314	-12.982	16425	12799	0	756
-11.900	-20.700	16420	13428	0	756
-14.172	-23.044	16418	13988	0	756
-18.031	-25.748	16415	14459	0	756
-21.457	-25.316	16413	14960	0	756
-20.772	-23.296	16418	15628	0	756
-21.349	-21.421	16418	16316	0	756
-19.834	-24.811	16420	16826	0	756
-17.454	-29.030	16425	17317	0	756
-16.589	-29.607	16430	17867	0	756
-12.405	-28.814	16438	18456	0	756
-11.035	-23.693	16442	19026	0	756
-9.953	-18.320	16449	19458	0	756
-10.819	-13.848	16457	19635	0	756
-11.612	-14.497	16459	19684	0	756
-14.028	-16.661	16462	19743	0	756
-13.451	-18.211	16467	19733	0	756
-10.819	-18.824	16469	19615	0	756
-8.402	-13.884	16469	19458	0	756
-1.479	-9.629	16469	19193	0	756
4.724	-7.068	16472	18928	0	756
7.789	-6.852	16477	18967	0	756
5.662	-12.441	16484	19213	0	756
3.678	-15.615	16487	19124	0	756
-0.902	-15.903	16479	18564	0	756
-2.669	-13.848	16477	17857	0	756
0.505	-6.708	16474	17327	0	756
4.688	-3.137	16469	17071	0	756
8.330	-1.190	16467	16855	0	756
10.422	-1.623	16462	16393	0	756
9.953	-3.967	16452	15775	0	756
6.599	-6.635	16447	15422	0	756
4.904	-7.032	16447	15471	0	756
3.173	-8.150	16449	15618	0	756
1.442	-7.862	16444	15599	0	756
1.767	-6.996	16440	15412	0	756
1.010	-8.222	16438	15166	0	756
2.596	-7.825	16430	14970	0	756
6.924	-6.996	16423	14685	0	756
8.835	-6.347	16410	14145	0	756
9.953	-6.924	16393	13477	0	756
5.806	-11.107	16383	12986	0	756
-0.829	-14.497	16370	12819	0	756
-5.878	-19.582	16363	12897	0	756
-7.285	-19.401	16358	13064	0	756
-5.878	-18.824	16350	13202	0	756
-5.842	-15.867	16343	13359	0	756
-5.554	-18.139	16340	13624	0	756
-10.386	-20.123	16338	14017	0	756
-16.552	-25.424	16335	14498	0	756
-21.060	-29.931	16333	14931	0	756
-21.745	-33.105	16335	15265	0	756
-22.647	-34.006	16335	15648	0	756
-22.106	-31.879	16340	16198	0	756
-20.375	-29.318	16345	16875	0	756
-21.781	-27.732	16353	17513	0	756
-19.149	-27.443	16355	17965	0	756
-18.247	-26.650	16358	18132	0	756
-18.031	-27.948	16363	18161	0	756
-18.464	-28.453	16363	18220	0	756
-22.539	-30.328	16363	18191	0	756
-23.332	-31.951	16360	18053	0	756
-21.637	-33.718	16360	17877	0	756
-14.353	-31.699	16360	17729	0	756
-10.638	-26.578	16353	17415	0	756
-8.547	-24.053	16333	16492	0	756
-11.864	-23.549	16306	14901	0	756
-20.195	-26.073	16279	13280	0	756
-23.945	-28.453	16255	12102	0	756
-24.270	-31.843	16227	11296	0	756
-18.860	-32.167	16212	10785	0	756
-11.720	-31.626	16193	10599	0	756
-6.527	-30.436	16181	10726	0	756
-6.455	-29.968	16168	11090	0	756
-7.970	-25.929	16161	11551	0	756
-10.097	-23.260	16154	12023	0	756
-11.179	-23.044	16147	12573	0	756
-12.622	-26.722	16142	13153	0	756
-13.631	-28.741	16134	13546	0	756
-12.586	-28.381	16124	13732	0	756
-9.304	-23.404	16119	14017	0	756
2.452	-11.937	16114	14557	0	756
14.858	-4.472	16114	15255	0	756
24.594	-1.370	16112	15834	0	756
26.073	-4.436	16109	16168	0	756
22.358	-9.592	16109	16501	0	756
14.389	-11.612	16112	17042	0	756
8.006	-13.054	16117	17729	0	756
6.599	-9.629	16122	18378	0	756
9.881	-2.741	16129	18908	0	756
18.572	3.498	16137	19380	0	756
23.188	6.599	16144	19822	0	756
23.440	4.652	16147	20136	0	756
17.598	-4.075	16154	20273	0	756
8.475	-12.730	16154	20254	0	756
2.416	-19.726	16158	20165	0	756
4.616	-15.867	16163	20156	0	756
11.720	-10.025	16171	20283	0	756
21.926	-1.911	16176	20450	0	756
27.912	2.993	16186	20490	0	756
26.974	4.364	16193	20431	0	756
24.017	0.072	16198	20323	0	756
19.546	-2.849	16203	20224	0	756
17.346	-3.029	16211	20106	1	592
20.447	-1.190	16211	19851	0	592
22.178	2.885	16215	19497	0	592
23.044	6.744	16220	19193	0	592
25.676	10.710	16222	18977	0	592
25.893	9.881	16227	18829	0	592
26.145	9.196	16227	18584	0	592
24.270	5.121	16225	18034	0	592
18.247	0.649	16220	17209	0	592
17.418	-0.685	16215	16570	0	592
16.480	4.183	16217	16296	0	592
19.005	8.042	16212	16129	0	592
20.844	8.907	16215	15972	0	592
17.274	4.580	16215	15923	0	592
15.038	-2.921	16217	15952	0	592
10.530	-9.989	16217	15884	0	592
8.078	-13.704	16212	15697	0	592
9.304	-15.543	16217	15608	0	592
10.927	-14.894	16217	15677	0	592
11.035	-12.766	16215	15677	0	592
9.088	-9.412	16217	15589	0	592
8.222	-5.914	16220	15717	0	592
3.534	-5.085	16230	16119	0	592
1.082	-7.465	16235	16639	0	592
0.505	-13.920	16250	17189	0	592
-0.685	-17.166	16260	17788	0	592
-3.246	-22.539	16279	18446	0	592
-4.364	-21.385	16294	19183	0	592
-6.527	-22.611	16316	19998	0	592
-6.744	-21.349	16335	20696	0	592
-9.160	-22.322	16360	21226	0	592
-8.979	-25.171	16383	21806	0	592
-9.268	-23.621	16405	22484	0	592
-9.484	-24.666	16430	23073	0	592
-11.179	-24.702	16454	23427	0	592
-12.838	-24.739	16477	23476	0	592
-12.694	-26.794	16494	23378	0	592
-16.589	-27.840	16516	23289	0	592
-15.651	-28.381	16533	23171	0	592
-16.733	-32.384	16553	22857	0	592
-16.480	-33.898	16565	22336	0	592
-17.815	-37.144	16577	21767	0	592
-16.913	-40.101	16592	21275	0	592
-19.798	-39.704	16607	20922	0	592
-21.385	-40.498	16624	20686	0	592
-24.342	-38.983	16639	20352	0	592
-23.368	-36.531	16651	19871	0	592
-15.543	-31.699	16661	19311	0	592
-7.609	-27.479	16669	18653	0	592
1.731	-23.008	16673	17906	0	592
5.337	-19.113	16678	17228	0	592
3.967	-19.221	16685	16737	0	592
-1.551	-19.834	16690	16384	0	592
-4.688	-23.621	16698	16119	0	592
-5.878	-28.201	16708	15903	0	592
-4.652	-29.535	16710	15608	0	592
-2.777	-26.470	16715	15196	0	592
-1.659	-20.808	16718	14744	0	592
-1.983	-15.074	16715	14164	0	592
-3.642	-12.874	16703	13261	0	592
-4.400	-14.677	16690	12141	0	592
-3.390	-19.221	16675	11237	0	592
-1.046	-18.211	16669	10687	0	592
2.236	-17.202	16656	10147	0	592
2.741	-13.884	16639	9528	0	592
3.462	-15.254	16624	9066	0	592
3.931	-17.490	16610	8889	0	592
3.318	-21.601	16600	8899	0	592
3.173	-21.204	16592	9076	0	592
1.803	-19.365	16585	9420	0	592
-0.180	-13.704	16580	9921	0	592
0.613	-10.097	16580	10540	0	592
3.859	-6.203	16577	11227	0	592
7.321	-2.777	16572	11738	0	592
11.973	-1.587	16567	12092	0	592
11.540	-0.036	16570	12593	0	592
10.350	-1.803	16567	13290	0	592
6.816	-4.760	16567	13958	0	592
5.590	-6.455	16570	14489	0	592
6.852	-8.439	16567	14842	1	316
7.645	-6.419	16565	15157	0	316
7.068	-4.039	16570	15608	0	316
4.760	-1.442	16572	16178	0	316
4.940	-1.082	16575	16668	0	316
9.052	-1.875	16577	16914	0	316
14.749	-1.190	16575	16934	0	316
17.238	-1.695	16570	16894	0	316
14.605	-2.128	16572	16884	0	316
6.888	-2.633	16565	16796	0	316
1.587	-5.265	16557	16560	0	316
0.938	-5.049	16556	16326	0	316
5.554	-2.344	16548	16198	0	316
8.943	1.370	16548	16247	0	316
11.756	2.596	16546	16384	0	316
11.540	4.111	16543	16482	0	316
11.504	4.147	16543	16560	0	316
11.432	4.832	16543	16698	0	316
13.343	7.753	16548	16973	0	316
16.480	6.491	16548	17297	0	316
13.307	2.669	16553	17543	0	316
11.215	-1.334	16556	17680	0	316
9.448	-0.938	16557	17818	0	316
8.691	3.498	16560	17955	0	316
8.943	9.196	16565	18004	0	316
12.586	12.297	16560	17877	0	316
15.290	12.441	16562	17680	0	316
18.464	11.035	16560	17503	0	316
22.503	10.746	16557	17376	0	316
24.378	14.713	16560	17238	0	316
21.673	15.002	16556	17081	0	316
20.375	17.238	16553	16865	0	316
17.202	16.949	16548	16501	0	316
17.995	17.310	16533	15874	0	316
21.204	14.641	16523	15088	0	316
22.611	9.701	16508	14430	0	316
24.414	5.698	16498	13997	0	316
20.591	3.029	16487	13634	0	316
18.428	3.642	16469	13182	0	316
16.084	8.511	16459	12760	0	316
19.293	12.117	16454	12819	0	316
23.765	13.668	16449	13320	0	316
23.729	12.189	16444	13732	0	316
20.988	7.285	16438	13801	0	316
11.323	4.436	16428	13654	0	316
6.058	1.767	16418	13536	0	316
7.537	4.544	16410	13595	0	316
12.982	9.340	16408	13889	0	316
20.988	13.379	16405	14410	0	316
23.332	15.110	16405	15029	0	316
23.729	13.307	16413	15677	0	316
19.077	11.107	16415	16335	0	316
18.716	13.199	16420	16934	0	316
18.933	14.569	16423	17346	0	316
17.202	14.208	16423	17513	0	316
14.353	10.710	16420	17572	0	316
6.924	1.298	16420	17592	0	316
1.010	-6.275	16415	17484	0	316
-1.947	-8.871	16410	17228	0	316
0.000	-5.698	16405	16934	0	316
2.200	-0.865	16400	16688	0	316
1.118	0.072	16395	16550	0	316
-3.210	-0.180	16395	16600	0	316
-6.491	-4.796	16393	16708	0	316
-4.796	-6.744	16390	16698	0	316
0.252	-7.501	16385	16570	0	316
7.068	-7.140	16384	16492	0	316
9.701	-8.439	16384	16570	0	316
8.006	-10.566	16384	16747	0	316
1.262	-15.543	16383	16816	0	316
-3.462	-17.057	16380	16717	0	316
-7.681	-20.519	16378	16619	0	316
-8.439	-20.447	16375	16619	0	316
-6.527	-19.942	16375	16717	0	316
-4.977	-20.087	16375	16875	0	316
-4.255	-17.490	16375	16993	0	316
-7.176	-17.382	16373	16953	0	316
-7.681	-16.192	16370	16767	0	316
-6.816	-15.290	16365	16531	0	316
-3.714	-17.093	16360	16257	0	316
-2.200	-15.759	16355	15962	0	316
-5.013	-20.339	16345	15608	0	316
-12.766	-21.204	16328	15009	0	316
-20.736	-25.856	16316	14322	0	316
-25.388	-28.237	16309	14086	0	316
-21.998	-29.931	16306	14243	0	316
-16.841	-30.292	16291	14174	0	316
-10.314	-28.164	16276	13703	0	316
-8.763	-26.974	16265	13162	0	316
-6.383	-23.512	16247	12838	0	316
-5.662	-20.411	16235	12711	0	316
-3.606	-17.021	16217	12426	0	316
-1.983	-18.103	16193	11797	0	316
-2.236	-19.293	16173	11168	0	316
-4.327	-24.342	16161	11051	0	316
-6.311	-26.650	16149	11453	0	316
-6.888	-26.253	16142	12043	0	316
-7.357	-25.640	16132	12544	0	316
-7.862	-23.765	16122	12897	0	316
-7.573	-21.204	16114	13241	0	316
-7.357	-22.719	16107	13683	0	316
-6.527	-20.519	16102	14174	0	316
-6.527	-20.339	16095	14567	0	316
-8.078	-20.880	16088	14813	0	316
-7.176	-19.149	16083	15039	0	316
-7.212	-18.824	16080	15451	0	316
-6.780	-18.031	16080	16051	0	316
-8.547	-20.988	16080	16708	0	316
-12.694	-23.476	16080	17258	0	316
-19.329	-26.433	16083	17729	0	316
-18.536	-24.883	16085	18260	0	316
-16.156	-22.863	16095	18898	0	316
-8.979	-18.933	16102	19527	0	316
-4.544	-22.142	16109	20018	0	316
-4.291	-23.765	16117	20342	0	316
-10.242	-24.630	16124	20588	0	316
-10.602	-22.863	16129	20843	0	316
-7.825	-14.497	16139	21118	0	316
-3.787	-9.701	16152	21413	0	316
-0.397	-7.393	16161	21678	0	316
-1.911	-8.691	16171	21767	0	316
-5.409	-9.484	16181	21688	0	316
-6.635	-10.710	16186	21541	0	316
-4.291	-11.071	16191	21305	0	316
-2.272	-11.973	16198	21000	0	316
-3.714	-16.625	16203	20637	0	316
-6.058	-18.031	16206	20224	0	316
-8.150	-21.745	16211	19831	0	316
-11.540	-23.621	16212	19625	0	316
-12.874	-24.883	16220	19399	0	316
-15.290	-25.640	16217	18780	0	316
-15.507	-21.024	16208	17808	0	316
-12.081	-16.697	16201	16796	0	316
-3.246	-9.953	16196	16001	0	316
2.308	-7.898	16183	15412	0	316
8.150	-6.671	16176	14872	0	316
9.304	-6.239	16168	14233	0	316
8.042	-4.291	16158	13693	0	316
7.248	-3.570	16158	13654	0	316
7.140	-0.902	16161	14214	0	316
9.592	-2.344	16171	14999	0	316
10.530	-2.308	16181	15628	0	316
10.891	-2.272	16186	16041	0	316
11.432	-3.318	16191	16384	0	316
8.186	-5.193	16203	16816	0	316
6.708	-7.357	16208	17277	0	316
6.996	-10.025	16220	17602	0	316
8.979	-14.425	16227	17749	0	316
9.737	-13.523	16232	17975	0	316
11.360	-10.602	16250	18417	0	316
10.891	-7.501	16262	18977	0	316
12.658	-3.534	16276	19517	0	316
14.821	-2.452	16296	19998	0	316
16.480	-4.219	16311	20499	0	316
19.077	-6.094	16333	21010	0	316
20.916	-4.977	16353	21492	0	316
19.005	-4.652	16373	21934	0	316
19.690	-3.354	16393	22287	0	316
16.228	-7.429	16415	22533	0	316
12.874	-11.179	16440	22778	0	316
8.402	-11.396	16464	23093	0	316
6.671	-11.973	16487	23387	0	316
7.753	-6.022	16506	23358	0	316
12.802	0.397	16516	22710	0	316
15.975	6.058	16526	21649	0	316
19.437	6.527	16533	20794	0	316
19.329	10.530	16546	20313	1	664
19.798	12.081	16553	19871	0	664
20.700	14.028	16565	19370	0	664
25.171	18.897	16572	18869	0	664
27.551	17.670	16580	18446	0	664
22.755	14.461	16592	18132	0	664
17.454	9.484	16607	17916	0	664
11.792	2.741	16614	17739	0	664
12.045	0.216	16624	17503	0	664
14.894	-1.947	16631	17091	0	664
16.084	-1.154	16634	16521	0	664
15.435	0.325	16636	15884	0	664
12.441	4.580	16634	15225	0	664
12.514	5.517	16634	14548	0	664
14.569	6.708	16629	13860	0	664
17.743	5.121	16621	13241	0	664
19.329	5.121	16614	12681	0	664
21.818	7.970	16610	12219	0	664
23.512	10.891	16602	11827	0	664
26.866	15.002	16592	11296	0	664
29.715	15.038	16577	10638	0	664
26.325	11.179	16565	10176	0	664
23.440	8.294	16560	10039	0	664
19.077	3.101	16551	10117	0	664
13.163	1.118	16541	10157	0	664
14.064	2.669	16531	9999	0	664
16.048	8.763	16513	9852	0	664
20.339	12.586	16508	9940	0	664
18.247	15.435	16501	10294	0	664
14.569	10.133	16492	10726	0	664
8.114	1.370	16487	11090	0	664
6.419	-6.852	16479	11404	0	664
7.789	-8.871	16469	11718	0	664
12.982	-7.248	16467	12072	0	664
14.208	-2.813	16459	12475	0	664
12.658	-1.731	16452	12868	0	664
10.783	-1.767	16449	13290	0	664
8.763	-4.616	16452	13870	0	664
6.131	-7.609	16454	14675	0	664
6.708	-8.475	16457	15569	0	664
6.563	-7.429	16459	16218	0	664
7.898	-5.986	16459	16413	0	664
9.989	-4.760	16454	16413	0	664
6.347	-4.544	16454	16639	0	664
2.200	-10.169	16459	17140	0	664
-2.236	-13.307	16462	17582	0	664
-1.767	-13.559	16462	17916	0	664
3.137	-11.576	16472	18260	0	664
7.934	-8.330	16477	18672	0	664
8.763	-8.402	16482	19075	0	664
4.508	-12.550	16492	19360	0	664
-2.019	-19.401	16489	19222	0	664
-6.022	-22.503	16482	18682	0	664
-6.491	-22.791	16482	18201	0	664
-3.823	-20.736	16482	18014	0	664
-1.515	-16.552	16477	17896	0	664
-0.216	-17.815	16477	17719	0	664
-2.669	-19.618	16472	17366	0	664
-6.563	-23.621	16462	16845	0	664
-6.960	-27.443	16457	16403	0	664
-8.294	-25.712	16454	16119	0	664
-8.907	-26.037	16447	15913	0	664
-9.737	-26.145	16440	15687	0	664
-13.235	-28.669	16430	15284	0	664
-14.749	-28.669	16423	14832	0	664
-11.432	-25.279	16423	14862	0	664
-9.520	-21.493	16425	15314	0	664
-6.780	-17.670	16420	15589	0	664
-8.835	-22.827	16415	15491	0	664
-13.631	-31.302	16410	15265	0	664
-17.238	-38.731	16405	15225	0	664
-16.084	-39.091	16405	15461	0	664
-14.677	-34.079	16408	15815	0	664
-11.360	-28.777	16405	15982	0	664
-14.064	-27.047	16403	15884	0	664
-15.362	-26.686	16400	15834	0	664
-14.713	-29.102	16400	16011	0	664
-14.064	-30.472	16400	16227	0	664
-9.448	-28.705	16398	16375	0	664
-4.832	-29.607	16398	16452	0	664
-5.193	-27.984	16398	16541	0	664
-2.560	-25.496	16398	16668	0	664
-1.298	-22.791	16398	16776	0	664
-0.180	-17.526	16398	16806	0	664
-1.010	-17.382	16395	16717	0	664
-1.731	-18.067	16395	16678	0	664
-3.137	-20.050	16395	16776	0	664
-5.626	-25.496	16400	17042	0	664
-8.511	-26.073	16403	17346	0	664
-8.691	-25.388	16405	17494	0	664
-8.799	-21.241	16408	17484	0	664
-6.852	-15.795	16410	17523	0	664
-4.724	-15.507	16415	17710	0	664
-4.904	-16.156	16418	17955	0	664
-7.321	-20.339	16423	18014	0	664
-11.179	-21.096	16423	17886	0	664
-10.566	-22.178	16425	17769	0	664
-9.016	-20.555	16428	17778	0	664
-4.544	-21.637	16430	17788	0	664
-3.570	-23.801	16433	17631	0	664
-4.508	-25.027	16428	17336	0	664
-8.078	-26.506	16428	17051	0	664
-11.504	-25.676	16425	16845	0	664
-10.169	-25.604	16425	16649	0	664
-8.799	-25.207	16423	16423	0	664
-6.671	-27.155	16415	16041	0	664
-6.455	-29.318	16405	15392	0	664
-5.085	-29.968	16393	14764	0	664
-2.488	-25.748	16388	14410	0	664
0.397	-20.555	16385	14489	0	664
1.767	-18.428	16388	14901	0	664
-0.072	-17.706	16385	15147	0	664
-4.003	-24.017	16378	14872	0	664
-9.701	-27.732	16365	14273	0	664
-8.979	-27.479	16355	13722	0	664
-5.121	-22.034	16345	13398	0	664
2.957	-15.326	16333	13221	0	664
8.186	-10.206	16321	12937	0	664
8.871	-7.898	16306	12553	0	664
1.623	-11.323	16296	12485	0	664
-8.727	-14.858	16294	12809	0	664
-13.812	-16.516	16286	13251	0	664
-11.828	-17.238	16279	13546	0	664
-7.357	-12.189	16274	13663	0	664
-1.623	-12.477	16265	13752	0	664
0.397	-13.848	16262	13919	0	664
-0.721	-16.516	16250	14056	0	664
-2.236	-19.726	16245	14125	0	664
-2.452	-17.057	16235	14214	0	664
-2.380	-15.795	16232	14469	0	664
-3.173	-13.559	16227	14911	0	664
-4.183	-16.264	16230	15412	0	664
-2.669	-17.815	16225	15815	0	664
0.793	-20.988	16225	16070	0	664
3.570	-18.031	16217	16237	0	664
6.275	-15.867	16222	16442	0	664
4.544	-12.009	16222	16796	0	664
0.721	-13.379	16220	17140	0	664
-2.164	-14.930	16217	17248	0	664
-2.524	-16.985	16212	17189	0	664
-0.577	-18.103	16212	17169	0	664
1.695	-13.812	16215	17336	0	664
4.291	-10.061	16212	17602	0	664
6.599	-6.094	16215	17769	0	664
7.717	-5.662	16212	17769	0	664
9.088	-6.419	16211	17710	0	664
6.455	-12.550	16212	17719	0	664
3.642	-15.867	16211	17778	0	664
0.541	-15.687	16211	17778	0	664
0.325	-14.677	16211	17651	0	664
3.354	-9.845	16206	17464	0	664
5.481	-6.383	16203	17287	0	664
4.616	-9.592	16203	17228	0	664
3.282	-10.097	16206	17405	0	664
-0.216	-10.025	16211	17710	0	664
-1.406	-8.835	16208	17798	0	664
-0.902	-8.691	16203	17425	0	664
0.036	-8.294	16196	16727	0	664
1.587	-9.520	16186	16051	0	664
1.839	-8.114	16173	15530	0	664
1.803	-9.196	16161	15009	0	664
-1.118	-10.819	16147	14282	0	664
-4.977	-14.785	16127	13516	0	664
-9.881	-19.834	16119	13271	0	664
-11.215	-18.283	16114	13585	0	664
-11.792	-16.733	16109	13919	0	664
-9.881	-14.677	16102	13958	0	664
-11.360	-18.500	16093	13811	0	664
-10.638	-21.854	16085	13781	0	664
-10.638	-24.306	16080	14017	0	664
-11.287	-26.073	16080	14508	0	664
-11.215	-25.207	16085	15137	0	664
-11.576	-27.732	16085	15726	0	664
-16.552	-32.167	16090	16247	0	664
-18.283	-35.413	16095	16826	0	664
-21.745	-36.423	16102	17523	0	664
-22.503	-35.197	16112	18211	0	664
-23.008	-33.429	16122	18761	0	664
-23.476	-33.177	16132	19222	0	664
-20.231	-33.429	16142	19704	0	664
-19.978	-33.682	16156	20205	0	664
-16.300	-31.626	16166	20657	0	664
-15.435	-27.551	16176	20981	0	664
-13.127	-25.063	16193	21266	0	664
-14.713	-23.873	16211	21629	0	664
-13.307	-24.486	16227	22160	0	664
-9.376	-19.618	16250	22729	0	664
-5.698	-15.579	16267	23132	0	664
2.344	-9.196	16286	23299	0	664
6.852	-4.724	16304	23220	0	664
8.258	-8.979	16316	23024	0	664
4.219	-15.038	16333	22896	0	664
-0.649	-18.139	16348	22778	0	664
-4.760	-20.988	16363	22562	1	772
-6.455	-18.824	16380	22307	0	772
-4.688	-18.644	16393	22081	0	772
-2.452	-18.139	16405	21767	0	772
-1.587	-17.346	16418	21305	0	772
-2.092	-12.982	16430	20765	0	772
-2.777	-10.638	16440	20234	0	772
-2.524	-7.609	16447	19723	0	772
-0.108	-7.068	16454	19203	0	772
1.695	-11.251	16462	18643	0	772
2.019	-13.631	16469	18093	0	772
2.777	-15.615	16472	17592	0	772
-0.361	-18.860	16479	17150	0	772
-3.823	-19.401	16487	16826	0	772
-5.517	-19.185	16498	16835	0	772
-5.229	-14.064	16513	17120	0	772
-2.272	-9.412	16521	17209	0	772
2.488	-4.039	16526	16776	0	772
4.508	-3.137	16523	16051	0	772
4.291	-4.868	16526	15373	0	772
2.885	-7.501	16521	14823	0	772
1.875	-10.350	16518	14174	0	772
5.662	-7.573	16503	13280	0	772
7.357	-4.688	16494	12298	0	772
7.825	-2.669	16484	11551	0	772
4.904	-1.551	16472	11119	0	772
1.551	-4.796	16467	10952	0	772
-0.541	-6.635	16459	10893	0	772
0.721	-8.475	16449	10795	0	772
2.272	-7.248	16442	10736	0	772
3.462	-4.904	16438	10805	0	772
4.327	-3.787	16433	11011	0	772
5.337	-5.337	16428	11326	0	772
3.787	-7.032	16423	11650	0	772
4.219	-10.855	16420	11954	0	772
1.406	-13.668	16418	12357	0	772
-1.947	-13.992	16418	12927	0	772
-2.921	-14.064	16420	13526	0	772
-1.623	-11.864	16420	13997	0	772
-1.046	-12.730	16423	14371	0	772
2.993	-13.199	16420	14783	0	772
2.705	-14.533	16425	15304	0	772
0.974	-18.211	16428	15874	0	772
-0.757	-16.300	16433	16286	0	772
0.252	-13.848	16435	16541	0	772
4.147	-10.386	16438	16757	0	772
9.376	-7.068	16440	17042	0	772
10.855	-7.321	16438	17199	0	772
8.439	-14.425	16428	16649	0	772
4.436	-19.077	16400	15196	0	772
0.974	-25.135	16378	13575	0	772
-0.252	-23.116	16355	12603	0	772
1.262	-19.005	16343	12278	0	772
1.190	-15.398	16328	12219	0	772
1.082	-13.091	16319	12357	0	772
0.144	-15.543	16314	12730	0	772
-3.606	-20.159	16311	13251	0	772
-5.806	-21.421	16309	13830	0	772
-8.186	-21.241	16306	14361	0	772
-4.940	-16.589	16304	14813	0	772
-0.469	-10.891	16301	15147	0	772
2.344	-6.167	16294	15274	0	772
0.541	-7.970	16289	15274	0	772
-5.193	-12.009	16286	15383	0	772
-9.088	-14.821	16279	15618	0	772
-7.393	-16.300	16274	15795	0	772
-0.902	-11.504	16270	15785	0	772
6.888	-6.419	16260	15677	0	772
8.547	-2.741	16257	15726	0	772
6.239	-6.203	16255	16051	0	772
0.180	-11.540	16260	16570	0	772
-4.291	-17.923	16260	17091	0	772
-6.094	-25.171	16265	17415	0	772
-6.888	-25.784	16260	17543	0	772
-4.580	-22.755	16252	17287	0	772
-3.065	-19.437	16245	16717	0	772
-0.865	-13.595	16235	16296	0	772
0.144	-12.874	16227	16149	0	772
-0.288	-13.920	16225	16188	0	772
-4.832	-18.247	16222	16442	0	772
-9.448	-23.440	16227	16884	0	772
-13.199	-28.309	16230	17435	0	772
-15.002	-29.679	16235	17788	0	772
-17.274	-30.256	16225	17513	0	772
-14.028	-27.407	16215	16816	0	772
-12.514	-25.027	16212	16393	0	772
-9.989	-24.991	16208	16442	0	772
-5.986	-23.585	16208	16609	0	772
-2.849	-23.693	16211	16855	0	772
-0.793	-23.801	16212	17258	0	772
-0.036	-21.709	16222	17798	0	772
-1.298	-23.476	16230	18378	0	772
-7.573	-26.830	16242	18918	0	772
-10.638	-25.640	16250	19370	0	772
-12.405	-23.621	16265	19763	0	772
-7.609	-19.654	16274	20136	0	772
-3.390	-14.930	16286	20529	0	772
2.344	-14.533	16304	20843	0	772
2.488	-15.939	16311	21050	0	772
1.370	-18.283	16324	21138	0	772
-1.695	-17.346	16333	21089	0	772
-3.787	-16.697	16345	20941	0	772
-4.652	-14.425	16355	20833	0	772
-6.239	-10.963	16363	20745	0	772
-6.599	-11.540	16370	20480	0	772
-8.294	-10.891	16373	19920	0	772
-10.963	-11.432	16370	19124	0	772
-14.713	-13.956	16368	18289	0	772
-12.946	-13.631	16365	17503	0	772
-10.494	-10.855	16360	16747	0	772
-3.967	-10.206	16353	16070	0	772
0.361	-8.150	16348	15471	0	772
1.839	-7.501	16345	14990	0	772
0.902	-6.996	16338	14607	0	772
0.721	-8.511	16330	14204	0	772
0.180	-8.835	16319	13585	0	772
3.318	-10.602	16309	12878	0	772
3.787	-11.396	16304	12593	0	772
2.669	-14.172	16299	12789	0	772
3.282	-10.710	16296	13025	0	772
1.983	-7.862	16289	12996	0	772
2.524	-2.524	16279	12750	0	772
3.570	1.479	16271	12544	0	772
4.111	2.813	16265	12553	0	772
3.354	0.144	16257	12720	0	772
4.003	-3.750	16255	12907	0	772
3.570	-5.914	16245	12986	0	772
4.039	-4.400	16240	13025	0	772
4.291	-3.859	16230	13113	0	772
5.950	-2.777	16227	13290	0	772
5.842	-3.967	16222	13516	0	772
6.635	-4.868	16215	13722	0	772
6.708	-3.246	16215	13978	0	772
7.104	-2.633	16211	14410	0	772
7.068	-1.587	16215	15009	0	772
6.852	-3.823	16215	15520	0	772
6.816	-7.609	16211	15717	0	772
5.986	-10.061	16208	15736	0	772
6.022	-8.475	16203	15854	0	772
4.652	-8.763	16208	16178	0	772
3.678	-6.852	16208	16521	0	772
5.554	-6.563	16203	16698	0	772
8.042	-5.986	16203	16727	0	772
11.612	-6.275	16203	16717	0	772
13.018	-7.573	16198	16757	0	772
13.595	-9.196	16198	16865	0	772
10.602	-11.251	16198	16973	0	772
6.203	-10.314	16196	17042	0	772
4.472	-8.979	16196	17081	0	772
0.649	-6.563	16198	17169	0	772
-2.092	-7.321	16196	17317	0	772
-1.442	-8.979	16198	17444	0	772
-0.577	-13.451	16201	17543	0	772
-0.036	-15.218	16198	17602	0	772
0.469	-15.074	16203	17670	0	772
0.144	-14.966	16208	17798	0	772
0.613	-10.169	16208	17965	0	772
-0.180	-9.232	16215	18161	0	772
-0.397	-9.484	16215	18240	0	772
-0.721	-13.884	16215	18053	0	772
-4.580	-16.733	16215	17739	0	772
-4.400	-20.700	16212	17592	0	772
-3.714	-22.683	16217	17670	0	772
-2.885	-19.834	16222	17808	0	772
-1.370	-17.598	16222	17759	0	772
-1.839	-12.838	16222	17494	0	772
-2.885	-11.323	16220	17287	0	772
-4.544	-12.405	16227	17346	0	772
-6.780	-15.326	16232	17670	0	772
-8.511	-21.637	16242	18083	0	772
-12.766	-22.647	16250	18407	0	772
-13.559	-22.178	16262	18712	0	772
-10.783	-22.503	16274	19144	0	772
-8.475	-20.736	16291	19655	0	772
-4.327	-23.404	16304	20028	0	772
-4.688	-23.657	16316	20215	0	772
-6.563	-24.811	16333	20460	0	772
-6.563	-23.765	16348	20833	0	772
-7.357	-20.988	16365	21207	0	772
-3.318	-15.831	16385	21482	0	772
-1.695	-14.858	16400	21619	0	772
-2.596	-13.415	16415	21619	0	772
-3.642	-14.930	16433	21629	0	772
-6.852	-17.959	16454	21786	0	772
-9.124	-18.031	16472	21993	0	772
-9.953	-17.959	16489	21983	0	772
-9.412	-15.867	16506	21757	0	772
-7.789	-17.779	16518	21482	0	772
-5.193	-17.238	16538	21275	0	772
-4.436	-17.995	16548	21030	1	756
-3.282	-16.552	16562	20657	0	756
-3.714	-17.815	16575	20185	0	756
-5.445	-16.733	16582	19655	0	756
-7.140	-18.824	16590	19095	0	756
-8.943	-17.815	16600	18525	0	756
-10.638	-19.257	16602	17886	0	756
-16.156	-18.788	16605	17189	0	756
-18.824	-21.673	16607	16501	0	756
-21.024	-20.195	16607	15913	0	756
-15.543	-18.392	16610	15383	0	756
-11.179	-16.408	16607	14862	0	756
-4.940	-14.497	16605	14282	0	756
-3.787	-14.858	16602	13703	0	756
-7.176	-17.310	16595	13192	0	756
-10.999	-15.182	16592	12760	0	756
-10.674	-14.425	16582	12298	0	756
-10.097	-12.982	16572	11660	0	756
-6.383	-10.494	16556	10795	0	756
-5.698	-11.540	16531	9783	0	756
-2.344	-10.314	16511	8821	0	756
0.000	-6.671	16489	8143	0	756
3.390	-7.645	16472	7838	0	756
4.832	-6.094	16459	7878	0	756
1.767	-9.160	16447	8202	0	756
-4.977	-13.235	16438	8703	0	756
-11.828	-17.057	16435	9400	0	756
-14.245	-15.326	16435	10343	0	756
-8.691	-11.792	16438	11404	0	756
-0.252	-4.255	16438	12328	0	756
7.789	1.226	16435	12966	0	756
13.884	2.056	16433	13408	0	756
12.369	-1.551	16433	13870	0	756
5.229	-8.006	16430	14361	0	756
-2.416	-13.523	16425	14705	0	756
-8.366	-18.933	16420	14842	0	756
-10.206	-17.959	16413	14950	0	756
-6.203	-17.238	16410	15196	0	756
-0.902	-13.127	16408	15569	0	756
3.318	-8.727	16408	15962	0	756
3.642	-8.439	16405	16267	0	756
0.757	-10.350	16405	16452	0	756
-2.416	-14.461	16403	16590	0	756
-4.364	-18.211	16400	16786	0	756
-4.291	-15.507	16400	17042	0	756
0.902	-12.009	16398	17189	0	756
8.619	-5.049	16398	17258	0	756
13.848	1.406	16398	17425	0	756
15.579	3.498	16403	17749	0	756
13.163	2.092	16408	18171	0	756
4.111	-3.173	16413	18623	0	756
-5.013	-10.025	16418	18928	0	756
-12.477	-15.326	16423	19006	0	756
-12.189	-18.536	16428	19026	0	756
-7.321	-12.946	16433	19085	0	756
4.111	-6.960	16435	19105	0	756
14.605	-0.072	16435	19065	0	756
20.627	2.957	16440	18977	0	756
14.569	-1.623	16442	18800	0	756
4.724	-10.494	16442	18535	0	756
-9.665	-19.185	16440	18191	0	756
-19.798	-26.938	16433	17719	0	756
-19.870	-25.856	16423	16973	0	756
-15.002	-22.575	16410	16031	0	756
-6.996	-18.428	16398	15196	0	756
-2.272	-14.641	16385	14607	0	756
-3.714	-18.283	16378	14184	0	756
-8.006	-22.827	16365	13830	0	756
-14.894	-27.263	16350	13310	0	756
-15.939	-29.246	16338	12740	0	756
-14.281	-29.102	16328	12603	0	756
-9.737	-25.676	16324	13015	0	756
-3.895	-24.775	16321	13496	0	756
-1.010	-23.296	16314	13683	0	756
0.829	-18.067	16309	13654	0	756
0.685	-15.290	16304	13870	0	756
0.361	-10.061	16306	14469	0	756
-1.370	-9.881	16311	15157	0	756
-3.065	-9.484	16311	15677	0	756
-1.983	-9.701	16309	15952	0	756
-0.974	-9.232	16304	15962	0	756
0.288	-8.979	16291	15481	0	756
1.803	-8.150	16271	14597	0	756
-0.108	-8.330	16257	13850	0	756
-1.262	-10.061	16237	13428	0	756
-6.780	-11.864	16227	13202	0	756
-11.576	-14.353	16215	13212	0	756
-15.615	-17.021	16211	13457	0	756
-17.490	-20.411	16203	13811	0	756
-14.894	-18.608	16193	14037	0	756
-9.484	-18.139	16181	13958	0	756
-9.160	-19.293	16163	13605	0	756
-11.792	-21.457	16154	13388	0	756
-16.913	-25.568	16142	13546	0	756
-23.008	-26.145	16137	13870	0	756
-24.450	-27.335	16132	14263	0	756
-23.260	-25.929	16129	14764	0	756
-19.401	-24.991	16129	15373	0	756
-14.245	-22.070	16129	15982	0	756
-13.884	-20.916	16129	16452	0	756
-13.451	-18.969	16127	16826	0	756
-16.625	-14.749	16129	17209	0	756
-15.146	-15.182	16132	17670	0	756
-10.169	-13.271	16137	18171	0	756
-4.472	-10.061	16139	18564	0	756
-0.793	-9.412	16137	18653	0	756
-3.462	-10.566	16134	18417	0	756
-9.845	-10.891	16132	18191	0	756
-13.163	-16.048	16129	18093	0	756
-15.867	-15.939	16129	18024	0	756
-13.487	-15.326	16124	17965	0	756
-12.369	-17.382	16124	17936	0	756
-14.966	-17.598	16122	17906	0	756
-14.821	-21.962	16122	17818	0	756
-13.163	-25.856	16119	17700	0	756
-7.537	-22.935	16119	17621	0	756
-1.839	-17.562	16117	17543	0	756
1.334	-8.835	16109	17209	0	756
-1.442	-6.419	16099	16609	0	756
-6.491	-9.160	16093	16119	0	756
-9.701	-15.687	16085	15864	0	756
-9.376	-18.067	16083	15874	0	756
-5.229	-15.903	16080	16041	0	756
-1.370	-7.357	16080	16218	0	756
1.731	-2.705	16080	16384	0	756
1.947	-3.498	16085	16649	0	756
0.757	-8.583	16090	17022	0	756
-1.262	-15.038	16093	17346	0	756
-3.354	-16.589	16095	17484	0	756
-3.065	-15.182	16097	17602	0	756
-3.678	-11.143	16099	17769	0	756
-3.750	-9.989	16102	17867	0	756
-4.147	-10.674	16102	17798	0	756
-6.131	-11.540	16102	17582	0	756
-4.075	-14.136	16099	17356	0	756
-1.767	-12.586	16099	17248	0	756
0.793	-11.684	16104	17327	0	756
2.308	-13.704	16107	17523	0	756
1.479	-13.307	16109	17582	0	756
-1.551	-13.920	16109	17464	0	756
-4.868	-15.326	16109	17327	0	756
-7.609	-14.785	16112	17307	0	756
-7.393	-16.625	16114	17366	0	756
-5.662	-16.084	16117	17327	0	756
-3.823	-16.877	16117	17209	0	756
-1.839	-14.353	16119	17160	0	756
-3.065	-12.730	16124	17277	0	756
-5.517	-13.451	16132	17513	0	756
-6.671	-12.586	16142	17798	0	756
-5.986	-14.136	16149	18161	0	756
-5.193	-12.802	16158	18554	0	756
-2.777	-12.694	16173	18977	0	756
-5.193	-15.507	16186	19399	0	756
-6.708	-17.418	16198	19723	0	756
-8.979	-21.385	16208	19861	0	756
-11.071	-21.204	16215	19733	0	756
-9.556	-19.510	16217	19399	0	756
-10.891	-15.723	16227	19183	0	756
-8.871	-15.759	16240	19163	0	756
-8.114	-15.326	16250	19281	0	756
-1.911	-16.372	16260	19419	0	756
2.452	-12.982	16270	19360	0	756
7.212	-10.386	16274	19095	0	756
8.258	-7.645	16286	18938	0	756
6.780	-8.222	16296	18996	0	756
6.924	-9.232	16304	19055	0	756
6.960	-10.025	16314	18947	0	756
7.898	-8.402	16326	18712	0	756
8.871	-5.770	16333	18604	0	756
11.071	-3.895	16345	18721	0	756
12.333	-1.911	16363	18977	0	756
15.723	-2.236	16373	19075	0	756
13.956	-2.524	16384	19006	0	756
14.605	-8.042	16400	19124	0	756
11.864	-10.783	16420	19537	0	756
7.465	-10.133	16440	19959	0	756
5.554	-6.527	16457	20215	0	756
3.678	-1.983	16472	20283	0	756
3.859	0.757	16492	20283	0	756
4.147	-1.298	16506	20313	0	756
5.193	-6.275	16526	20411	0	756
3.137	-9.809	16541	20450	0	756
1.370	-10.314	16560	20352	0	756
-0.252	-8.907	16572	20165	0	756
-0.036	-8.583	16590	20018	0	756
3.065	-8.439	16607	19949	0	756
4.832	-9.520	16624	19881	1	744
11.432	-8.799	16634	19596	0	744
12.189	-6.311	16646	19144	0	744
11.720	-1.911	16656	18721	0	744
10.386	0.505	16669	18456	0	744
7.573	-2.380	16680	18289	0	744
5.337	-7.934	16693	18093	0	744
4.508	-12.874	16700	17778	0	744
2.308	-17.021	16710	17366	0	744
-1.082	-14.641	16718	16943	0	744
-0.685	-8.907	16723	16501	0	744
2.488	-4.724	16723	15942	0	744
5.229	-1.623	16723	15324	0	744
10.025	-2.344	16723	14773	0	744
10.133	-7.501	16723	14233	0	744
9.665	-11.973	16718	13585	0	744
6.708	-12.405	16710	12878	0	744
6.094	-13.307	16698	12210	0	744
4.111	-9.088	16690	11561	0	744
5.445	-4.544	16673	10756	0	744
5.878	-0.649	16654	9842	0	744
6.996	0.216	16636	9076	0	744
4.796	-0.361	16624	8614	0	744
6.924	-2.921	16602	8300	0	744
8.294	-1.731	16580	7868	0	744
10.674	-1.118	16560	7318	0	744
10.891	-1.767	16538	6974	0	744
9.448	-4.796	16518	7003	0	744
5.265	-9.232	16506	7269	0	744
3.173	-10.422	16489	7534	0	744
5.013	-6.635	16467	7730	0	744
6.455	-4.688	16454	8084	0	744
5.337	-5.878	16447	8762	0	744
4.508	-12.946	16440	9754	0	744
3.210	-17.274	16435	10903	0	744
4.508	-18.644	16438	11954	0	744
8.294	-12.766	16430	12789	0	744
10.530	-7.717	16428	13428	0	744
10.025	-4.760	16423	13997	0	744
10.422	-6.239	16415	14508	0	744
10.530	-7.357	16410	14891	0	744
10.206	-7.429	16405	15265	0	744
11.360	-7.717	16403	15785	0	744
7.789	-6.599	16403	16423	0	744
4.904	-6.275	16403	17032	0	744
4.327	-7.140	16405	17543	0	744
5.265	-4.544	16408	18014	0	744
8.655	-4.940	16410	18456	0	744
7.140	-3.642	16413	18869	0	744
4.904	-8.114	16415	19272	0	744
1.118	-12.910	16420	19556	0	744
1.442	-14.821	16423	19704	0	744
3.859	-16.589	16425	19841	0	744
8.583	-11.396	16433	20106	0	744
13.018	-4.291	16440	20431	0	744
12.730	2.813	16447	20598	0	744
9.629	5.842	16449	20519	0	744
7.898	6.058	16449	20264	0	744
6.058	3.029	16449	19959	0	744
5.193	0.685	16452	19704	0	744
5.517	1.623	16452	19429	0	744
5.229	2.344	16449	19055	0	744
4.039	2.849	16447	18613	0	744
3.246	0.505	16447	18201	0	744
3.967	-2.885	16440	17788	0	744
5.481	-5.229	16438	17327	0	744
6.960	-2.957	16428	16727	0	744
9.881	1.479	16413	15913	0	744
9.773	6.708	16400	14990	0	744
11.720	6.780	16388	14322	0	744
8.907	0.613	16380	13968	0	744
3.750	-9.124	16370	13752	0	744
-1.046	-14.966	16358	13526	0	744
-1.623	-15.471	16343	13133	0	744
3.318	-7.609	16333	12612	0	744
10.494	1.767	16314	12170	0	744
17.202	7.212	16296	11885	0	744
13.523	6.744	16286	11718	0	744
6.094	1.118	16270	11650	0	744
-3.282	-6.347	16257	11620	1	316
-5.301	-13.379	16250	11748	0	316
-2.921	-13.307	16235	12131	0	316
4.400	-10.530	16230	12495	0	316
10.746	-3.714	16215	12544	0	316
16.516	3.282	16198	12377	0	316
15.002	5.481	16186	12318	0	316
11.179	2.741	16178	12544	0	316
3.606	-3.498	16168	13025	0	316
-5.590	-10.458	16163	13624	0	316
-11.287	-12.297	16161	14233	0	316
-9.989	-12.550	16161	14901	0	316
-6.094	-10.169	16161	15667	0	316
-1.046	-7.789	16166	16462	0	316
2.308	-10.458	16168	17179	0	316
-0.072	-13.127	16171	17710	0	316
-6.275	-14.208	16173	18093	0	316
-12.441	-16.300	16178	18525	0	316
-14.172	-16.589	16183	19085	0	316
-15.074	-17.995	16193	19704	0	316
-10.855	-22.575	16198	20067	0	316
-11.973	-29.282	16193	19822	0	316
-15.651	-33.033	16186	19085	0	316
-19.798	-34.511	16181	18495	0	316
-21.457	-30.148	16178	18299	0	316
-20.700	-25.099	16176	18240	0	316
-14.569	-21.060	16176	18181	0	316
-12.982	-19.618	16178	18181	0	316
-12.297	-18.608	16176	18270	0	316
-12.405	-18.716	16183	18378	0	316
-16.841	-18.392	16181	18358	0	316
-19.654	-23.044	16176	18024	0	316
-25.279	-27.083	16168	17474	0	316
-28.309	-34.692	16163	16993	0	316
-30.400	-39.812	16158	16659	0	316
-31.302	-41.399	16154	16365	0	316
-32.600	-40.858	16147	16109	0	316
-35.774	-40.750	16144	15962	0	316
-36.891	-38.118	16139	15923	0	316
-34.944	-37.180	16144	16060	0	316
-30.400	-37.108	16149	16531	0	316
-26.686	-34.836	16156	17160	0	316
-24.702	-31.951	16158	17435	0	316
-22.431	-26.794	16154	17218	0	316
-23.080	-21.962	16149	16796	0	316
-16.877	-15.687	16149	16521	0	316
-12.405	-11.179	16149	16570	0	316
-7.898	-11.612	16152	16767	0	316
-5.085	-11.648	16149	16776	0	316
-7.140	-16.228	16142	16442	0	316
-11.900	-18.247	16139	16090	0	316
-14.353	-20.087	16134	15982	0	316
-19.185	-21.601	16139	16119	0	316
-16.589	-24.053	16137	16306	0	316
-17.057	-24.919	16139	16403	0	316
-13.848	-24.450	16139	16472	0	316
-14.533	-21.096	16142	16570	0	316
-11.973	-14.497	16142	16688	0	316
-10.530	-11.756	16144	16835	0	316
-9.304	-11.360	16144	16924	0	316
-12.153	-13.199	16147	16904	0	316
-13.920	-18.428	16149	16943	0	316
-16.949	-20.087	16154	17160	0	316
-16.841	-23.368	16158	17415	0	316
-14.749	-25.207	16158	17484	0	316
-13.740	-24.811	16156	17317	0	316
-12.153	-23.585	16154	16973	0	316
-12.910	-21.060	16152	16600	0	316
-12.117	-14.100	16152	16403	0	316
-10.674	-11.900	16147	16326	0	316
-11.143	-11.648	16147	16198	0	316
-13.018	-13.956	16147	16178	0	316
-12.658	-18.211	16152	16413	0	316
-13.523	-17.779	16158	16914	0	316
-10.927	-17.851	16171	17543	0	316
-7.285	-14.100	16181	18132	0	316
-7.068	-14.930	16191	18554	0	316
-7.537	-15.543	16203	18879	0	316
-9.665	-16.012	16217	19213	0	316
-9.412	-17.634	16225	19497	0	316
-8.078	-15.326	16240	19733	0	316
-3.390	-15.146	16250	19969	0	316
0.649	-10.927	16262	20067	0	316
3.318	-10.097	16274	20136	0	316
3.534	-8.078	16294	20578	0	316
-0.216	-8.511	16319	21403	0	316
-3.246	-9.917	16338	21993	0	316
-6.635	-12.658	16353	22012	0	316
-6.635	-12.658	16365	21678	0	316
-4.364	-11.792	16375	21325	0	316
-1.334	-12.766	16388	21089	0	316
0.108	-12.297	16400	20922	0	316
0.036	-11.612	16413	20735	1	368
-1.010	-13.992	16425	20470	0	368
-2.921	-14.425	16438	20175	0	368
-4.147	-18.500	16452	19989	0	368
-3.823	-18.211	16469	19959	0	368
-2.092	-18.572	16482	19949	0	368
0.577	-14.966	16494	19792	0	368
1.442	-10.674	16508	19547	0	368
-0.252	-11.035	16521	19350	0	368
-2.777	-12.946	16536	19203	0	368
-5.662	-14.713	16543	18918	0	368
-5.986	-16.516	16551	18368	0	368
-3.967	-13.379	16557	17759	0	368
-2.741	-11.107	16560	17317	0	368
-3.065	-10.278	16570	17002	0	368
-5.806	-12.694	16572	16659	0	368
-8.511	-18.103	16575	16198	0	368
-10.638	-19.437	16575	15658	0	368
-8.871	-20.844	16575	14999	0	368
-7.429	-17.021	16570	14351	0	368
-4.616	-14.930	16572	14017	0	368
-4.544	-11.540	16572	13899	0	368
-4.580	-13.091	16572	13762	0	368
-5.626	-11.576	16575	13693	0	368
-7.573	-12.441	16582	13830	0	368
-9.665	-16.336	16585	14056	0	368
-15.146	-17.562	16587	14106	0	368
-16.625	-20.880	16587	14017	0	368
-17.923	-22.142	16587	13997	0	368
-16.985	-23.657	16590	14135	0	368
-12.081	-25.532	16595	14371	0	368
-10.746	-24.558	16600	14557	0	368
-6.311	-20.627	16602	14675	0	368
-4.364	-16.552	16605	14832	0	368
-3.498	-13.054	16607	15039	0	368
-3.714	-14.605	16612	15245	0	368
-6.239	-20.050	16616	15471	0	368
-5.229	-20.231	16626	15736	0	368
-0.793	-18.608	16624	15834	0	368
1.406	-15.471	16619	15550	0	368
-0.288	-19.185	16612	14980	0	368
-6.347	-22.106	16607	14489	0	368
-12.225	-26.650	16602	14194	0	368
-10.530	-25.027	16592	13978	0	368
-4.760	-19.942	16585	13722	0	368
2.272	-12.982	16577	13438	0	368
3.570	-9.520	16567	13172	0	368
-1.262	-10.494	16557	12986	0	368
-5.337	-11.864	16548	12838	0	368
-6.094	-14.100	16538	12573	0	368
-3.318	-18.103	16521	12239	0	368
0.216	-18.536	16513	12092	0	368
1.334	-18.788	16508	12239	0	368
-0.036	-14.641	16501	12573	0	368
-2.741	-11.540	16497	12897	0	368
-4.832	-8.475	16487	13084	0	368
-1.154	-5.590	16482	13290	0	368
3.101	-4.868	16479	13634	0	368
8.439	-5.950	16474	14106	0	368
10.638	-4.400	16477	14607	0	368
6.094	-6.599	16474	15009	0	368
-0.252	-9.592	16469	15274	0	368
-7.970	-14.821	16467	15481	0	368
-14.461	-21.493	16469	15775	0	368
-14.064	-24.775	16464	16139	0	368
-14.533	-27.227	16464	16403	0	368
-10.891	-24.991	16467	16629	0	368
-7.537	-21.277	16467	16953	0	368
-4.219	-15.939	16472	17425	0	368
-4.580	-13.704	16477	17886	0	368
-4.796	-10.458	16472	17936	0	368
-7.429	-9.989	16459	17287	0	368
-10.314	-14.136	16447	16335	0	368
-10.530	-16.372	16438	15775	0	368
-11.468	-18.500	16430	15687	0	368
-12.225	-19.077	16423	15648	0	368
-13.451	-17.562	16413	15422	0	368
-18.824	-17.995	16395	14754	0	368
-20.880	-21.854	16370	13634	0	368
-20.195	-21.565	16350	12524	0	368
-11.251	-22.106	16328	11876	0	368
-1.154	-13.668	16314	11817	0	368
9.520	-6.419	16304	12141	0	368
13.704	0.613	16299	12642	0	368
9.376	2.633	16294	13290	0	368
4.400	0.721	16294	14007	0	368
1.298	-1.731	16294	14656	0	368
2.633	-3.426	16286	14999	0	368
3.823	-4.724	16276	14921	0	368
6.058	-5.445	16265	14665	0	368
4.327	-6.419	16255	14636	0	368
1.731	-5.986	16250	14901	0	368
-0.072	-6.383	16242	15225	0	368
0.685	-4.688	16237	15383	0	368
4.796	-4.327	16227	15412	0	368
8.150	-4.508	16225	15579	0	368
9.340	-4.832	16222	15962	0	368
9.196	-5.698	16222	16472	0	368
5.409	-7.357	16225	16953	0	368
3.390	-9.629	16222	17346	0	368
4.904	-9.520	16230	17896	0	368
6.311	-8.114	16237	18682	0	368
6.383	-5.301	16252	19488	0	368
5.554	-4.147	16257	20067	0	368
2.524	-2.993	16270	20401	0	368
3.859	-3.931	16274	20627	0	368
6.852	-4.868	16286	20892	0	368
9.881	-6.058	16296	21158	0	368
8.078	-9.160	16304	21315	0	368
5.193	-11.287	16311	21285	0	368
2.344	-11.323	16319	21138	0	368
2.056	-6.094	16324	20932	0	368
5.950	0.757	16326	20578	0	368
10.242	4.183	16326	20087	1	452
9.665	3.570	16326	19556	0	452
7.681	0.288	16328	19065	0	452
4.147	-4.364	16326	18633	0	452
-0.433	-8.114	16326	18279	0	452
-3.787	-8.691	16328	17965	0	452
-3.570	-9.953	16324	17513	0	452
-1.406	-9.629	16321	16953	0	452
3.210	-6.888	16319	16492	0	452
6.780	-3.246	16316	16276	0	452
7.681	-1.154	16319	16218	0	452
7.212	2.308	16321	16218	0	452
7.321	3.714	16321	16218	0	452
10.458	5.121	16321	16159	0	452
11.432	2.308	16324	16090	0	452
9.520	-2.308	16324	16031	0	452
5.085	-6.239	16326	15903	0	452
4.183	-6.383	16319	15677	0	452
7.862	2.885	16316	15441	0	452
18.139	13.776	16314	15225	0	452
27.587	20.411	16309	15009	0	452
29.571	21.060	16304	14803	0	452
24.234	13.559	16301	14675	0	452
17.959	8.006	16294	14498	0	452
14.425	7.068	16281	14017	0	452
18.464	9.773	16271	13467	0	452
21.926	12.550	16267	13388	0	452
24.414	13.884	16265	13781	0	452
21.313	10.097	16260	13988	0	452
13.559	5.121	16247	13713	0	452
11.612	0.865	16235	13153	0	452
10.963	1.334	16217	12671	0	452
13.307	2.200	16208	12416	0	452
17.779	5.734	16201	12426	0	452
19.077	9.196	16188	12622	0	452
22.791	11.684	16181	12829	0	452
22.899	11.215	16178	13162	0	452
23.296	13.379	16178	13742	0	452
23.296	13.668	16178	14430	0	452
20.014	11.251	16178	14980	0	452
20.014	10.206	16178	15343	0	452
18.392	7.934	16176	15628	0	452
16.408	6.491	16173	15972	0	452
8.907	6.131	16178	16452	0	452
1.659	3.426	16183	16963	0	452
-3.029	0.829	16181	17297	0	452
-1.442	0.577	16183	17454	0	452
8.439	4.075	16186	17572	0	452
19.221	10.025	16186	17769	0	452
19.690	13.740	16186	17955	0	452
16.480	12.802	16186	17936	0	452
9.160	6.383	16183	17719	0	452
7.898	-0.902	16176	17454	0	452
10.819	-6.347	16178	17297	0	452
12.009	-8.222	16176	17287	0	452
8.511	-7.429	16176	17287	0	452
2.849	-8.042	16171	17169	0	452
-1.082	-6.527	16168	17032	0	452
-0.361	-7.068	16168	16993	0	452
1.587	-10.169	16168	17002	0	452
-1.442	-13.559	16163	16924	0	452
-8.547	-19.113	16156	16629	0	452
-15.471	-25.640	16147	16100	0	452
-16.697	-26.830	16139	15500	0	452
-14.930	-25.424	16129	15078	0	452
-10.061	-22.647	16122	14823	0	452
-8.150	-19.510	16112	14636	0	452
-7.609	-21.277	16104	14489	0	452
-11.828	-21.565	16095	14282	0	452
-13.199	-22.431	16083	14017	0	452
-10.386	-20.375	16070	13742	0	452
-7.753	-16.769	16055	13388	0	452
-2.777	-17.129	16040	12946	0	452
-2.308	-17.562	16024	12514	0	452
-6.563	-21.204	16006	12259	0	452
-10.927	-21.998	16001	12357	0	452
-14.064	-21.565	15994	12897	0	452
-12.153	-21.962	15994	13663	0	452
-8.907	-20.159	15996	14371	0	452
-7.248	-22.755	15996	15049	0	452
-5.481	-22.178	16011	16080	0	452
-7.609	-23.368	16026	17513	0	452
-10.783	-24.702	16043	18987	0	452
-12.189	-23.729	16063	20224	0	452
-14.966	-25.856	16080	21158	0	452
-12.153	-24.666	16099	21963	0	452
-9.304	-20.267	16124	22847	0	452
-5.373	-16.264	16149	23810	0	452
-4.255	-15.326	16176	24606	0	452
-5.878	-16.877	16198	25126	0	452
-9.629	-18.428	16225	25598	0	452
-10.566	-19.618	16255	26128	0	452
-11.035	-17.779	16281	26590	0	452
-8.439	-15.795	16309	26835	0	452
-5.085	-15.831	16333	26835	0	452
-2.019	-20.087	16360	26668	0	452
-2.380	-22.214	16383	26413	0	452
-3.390	-18.464	16400	26000	0	452
-7.934	-16.120	16418	25391	0	452
-11.251	-13.595	16438	24684	1	396
-12.189	-15.903	16454	23977	0	396
-11.900	-19.618	16472	23378	0	396
-10.169	-25.135	16492	22985	0	396
-9.268	-25.568	16513	22710	0	396
-10.530	-25.604	16531	22327	0	396
-15.038	-27.191	16551	21786	0	396
-16.985	-27.083	16562	21177	0	396
-20.772	-28.056	16577	20607	0	396
-16.733	-26.289	16592	20077	0	396
-10.350	-23.657	16610	19478	0	396
-2.344	-17.995	16616	18800	0	396
2.344	-15.939	16626	18152	0	396
1.839	-13.920	16639	17572	0	396
-1.442	-15.218	16649	17081	0	396
-6.131	-15.615	16656	16659	0	396
-7.825	-16.841	16661	16080	0	396
-7.537	-14.713	16659	15137	0	396
-8.330	-12.802	16651	13929	0	396
-7.465	-12.225	16641	12701	0	396
-5.914	-12.514	16634	11709	0	396
-3.714	-14.930	16626	11031	0	396
-1.911	-14.785	16616	10471	0	396
-0.325	-14.136	16605	9842	0	396
-0.469	-15.218	16595	9361	0	396
0.216	-12.622	16597	9498	0	396
2.128	-11.937	16602	10225	0	396
3.642	-11.864	16607	10962	0	396
0.649	-12.225	16605	11326	0	396
-6.058	-16.048	16605	11414	0	396
-12.910	-20.664	16600	11493	0	396
-20.267	-25.929	16600	11728	0	396
-20.483	-26.758	16597	12013	0	396
-19.257	-25.135	16590	12072	0	396
-13.307	-20.664	16580	11807	0	396
-4.472	-13.956	16570	11493	0	396
4.039	-11.143	16560	11384	0	396
7.934	-9.809	16556	11453	0	396
7.248	-9.701	16543	11581	0	396
5.517	-11.720	16533	11669	0	396
4.652	-9.989	16523	11669	0	396
6.599	-5.698	16511	11650	0	396
10.350	0.902	16503	11748	0	396
12.189	3.823	16497	11984	0	396
12.441	5.337	16487	12200	0	396
11.973	2.452	16482	12465	0	396
14.713	-0.649	16477	12927	0	396
18.031	-0.793	16477	13673	0	396
19.077	2.200	16482	14508	0	396
20.736	7.212	16477	15019	0	396
22.972	11.143	16464	14901	0	396
22.683	15.543	16452	14459	0	396
26.037	16.661	16447	14381	0	396
28.201	15.615	16442	14803	0	396
25.893	14.966	16442	15461	0	396
23.621	10.783	16447	16198	0	396
19.401	11.071	16454	16884	0	396
14.894	9.989	16459	17523	0	396
16.733	10.819	16464	18103	0	396
17.851	10.783	16472	18554	0	396
22.539	9.160	16477	18869	0	396
22.791	7.176	16479	19085	0	396
23.512	7.321	16484	19222	0	396
25.243	7.681	16487	19272	0	396
25.568	11.432	16487	19222	0	396
28.309	16.012	16489	19095	0	396
31.122	21.241	16484	18810	0	396
30.220	20.195	16479	18201	0	396
28.309	17.779	16467	17356	0	396
27.984	12.622	16457	16580	0	396
26.253	8.186	16444	16021	0	396
28.345	7.717	16435	15550	0	396
28.633	7.934	16425	15078	0	396
28.273	7.393	16413	14597	0	396
22.358	6.311	16400	14174	0	396
16.769	6.599	16390	13948	0	396
11.973	5.265	16384	13948	0	396
7.789	4.219	16378	13978	0	396
6.311	3.354	16368	13909	0	396
7.357	1.983	16360	13850	0	396
8.294	3.390	16355	13899	0	396
12.297	8.186	16348	14007	0	396
15.615	10.278	16335	14037	0	396
17.887	11.035	16328	13899	0	396
17.670	7.717	16319	13840	0	396
15.002	4.183	16311	14017	0	396
16.084	1.479	16309	14351	0	396
14.894	0.974	16304	14685	0	396
16.192	0.865	16296	14852	0	396
13.199	0.325	16286	14715	0	396
12.333	-0.541	16276	14469	0	396
11.360	-1.190	16270	14528	0	396
12.766	2.236	16267	14911	0	396
18.356	8.402	16262	15294	0	396
18.428	10.963	16262	15618	0	396
18.680	9.989	16262	16080	0	396
11.900	4.544	16265	16717	0	396
6.744	-0.902	16271	17336	0	396
1.551	-3.354	16271	17710	0	396
-0.829	-0.613	16276	17916	0	396
-1.082	2.308	16279	18201	0	396
-0.397	3.462	16284	18623	0	396
0.721	3.354	16291	19016	0	396
1.226	-1.406	16294	19222	0	396
1.479	-5.085	16296	19262	0	396
1.154	-12.477	16304	19291	0	396
0.902	-15.903	16306	19389	0	396
0.144	-15.903	16311	19517	0	396
0.361	-10.746	16319	19664	0	396
0.902	-5.770	16328	19772	0	396
-1.226	-5.157	16330	19714	0	396
-2.524	-9.376	16330	19458	0	396
-5.842	-18.572	16330	19075	0	396
-7.970	-22.719	16330	18672	0	396
-10.638	-24.450	16328	18230	0	396
-11.107	-22.611	16324	17582	0	396
-11.143	-18.247	16311	16737	0	396
-12.802	-20.375	16301	15923	0	396
-12.766	-20.447	16291	15274	0	396
-11.648	-21.024	16281	14783	0	396
-10.783	-20.159	16270	14341	0	396
-8.583	-13.884	16255	13722	0	396
-7.176	-13.487	16235	12907	0	396
-5.734	-12.730	16220	12219	0	396
-6.744	-15.831	16206	11768	0	396
-4.796	-22.322	16183	11306	0	396
-4.147	-24.198	16161	10638	0	396
-4.544	-24.666	16139	10019	0	396
-6.780	-23.440	16124	9832	0	396
-10.314	-20.050	16109	10137	0	396
-14.749	-19.906	16102	10707	0	396
-15.398	-21.204	16093	11316	0	396
-14.353	-20.303	16090	11866	0	396
-9.016	-20.555	16080	12328	0	396
-3.859	-15.435	16068	12534	0	396
1.226	-10.350	16053	12583	0	396
2.669	-6.924	16048	12809	0	396
-0.685	-7.357	16036	13241	0	396
-7.393	-10.638	16029	13732	0	396
-13.054	-17.238	16029	14351	0	396
-16.444	-17.995	16034	15206	0	396
-11.720	-18.500	16034	16168	0	396
-6.419	-12.189	16039	16943	0	396
-0.757	-8.835	16040	17552	0	396
0.649	-7.104	16048	18161	0	396
-1.226	-8.330	16055	18869	0	396
-5.229	-8.691	16063	19596	0	396
-6.960	-5.193	16073	20156	0	396
-7.212	-2.993	16080	20480	0	396
-6.022	-1.226	16085	20706	0	396
-4.796	-5.409	16095	21000	0	396
-7.465	-9.701	16104	21364	0	396
-8.258	-10.999	16119	21757	0	396
-6.563	-9.160	16132	22081	0	396
-1.406	-4.255	16142	22189	0	396
4.255	-2.380	16152	22071	0	396
6.924	-1.839	16156	21865	0	396
4.255	-3.173	16163	21659	0	396
-2.596	-1.695	16171	21374	0	396
-5.878	2.056	16173	20912	0	396
-6.167	4.940	16173	20254	0	396
-1.947	5.445	16166	19360	0	396
2.236	5.590	16158	18309	0	396
6.203	4.111	16152	17366	0	396
6.311	4.760	16144	16570	0	396
3.642	4.868	16132	15658	0	396
-0.288	4.616	16114	14587	0	396
-1.515	3.642	16095	13516	0	396
3.859	7.429	16073	12318	0	396
11.396	14.677	16043	10962	0	396
22.467	25.748	16019	9823	0	396
27.299	34.692	15994	9086	0	396
28.561	36.026	15975	8781	0	396
25.207	33.826	15962	8889	0	396
24.198	28.958	15952	9282	0	396
23.440	29.246	15935	9646	0	396
26.109	31.446	15923	9832	0	396
27.696	35.197	15911	10068	0	396
27.876	34.006	15901	10559	0	396
23.909	27.732	15898	11355	0	396
20.916	21.637	15898	12367	0	396
16.733	17.815	15898	13447	0	396
11.864	19.906	15908	14567	0	396
8.006	19.798	15916	15795	0	396
8.511	19.618	15925	17110	0	396
8.006	17.779	15945	18387	0	396
10.494	16.589	15960	19527	0	396
12.045	16.769	15977	20666	0	396
15.326	18.788	16001	21924	0	396
14.100	19.762	16031	23270	0	396
15.651	15.362	16058	24537	0	396
16.625	13.740	16085	25529	0	396
17.562	15.759	16114	26285	0	396
19.690	20.519	16144	26884	0	396
24.775	30.689	16171	27228	0	396
28.164	39.308	16193	27287	0	396
29.751	41.363	16217	27179	0	396
26.650	36.639	16240	27051	0	396
23.512	29.318	16267	26963	0	396
22.467	24.450	16291	26904	0	396
24.486	22.467	16319	26806	1	800
28.273	22.034	16343	26550	0	800
28.056	21.709	16368	26050	0	800
27.479	20.050	16384	25411	0	800
25.568	17.166	16400	24743	0	800
23.837	16.336	16423	24075	0	800
20.375	15.507	16440	23407	0	800
18.860	13.199	16457	22759	0	800
15.290	13.704	16472	22051	0	800
15.146	11.323	16479	21069	0	800
16.589	12.946	16489	19969	0	800
18.788	10.783	16503	19360	0	800
15.975	8.691	16523	19252	0	800
13.523	6.275	16533	18977	0	800
10.458	7.645	16543	18191	0	800
11.035	9.160	16548	17199	0	800
16.012	12.153	16556	16355	0	800
18.572	12.297	16557	15707	0	800
21.204	12.261	16565	15235	0	800
17.598	9.088	16570	14764	0	800
14.785	7.104	16570	14174	0	800
12.189	8.366	16572	13654	0	800
12.081	6.780	16577	13359	0	800
11.035	4.940	16580	13251	0	800
7.465	0.325	16582	13153	0	800
1.406	-5.193	16585	12956	0	800
-3.101	-11.828	16592	12829	0	800
-5.950	-13.054	16592	12848	0	800
-6.744	-14.389	16597	12937	0	800
-6.563	-9.629	16600	13025	0	800
-6.022	-7.681	16602	13015	0	800
-6.275	-4.111	16600	12907	0	800
-9.556	-4.436	16600	12829	0	800
-14.966	-7.753	16600	12779	0	800
-21.385	-13.307	16597	12632	0	800
-28.633	-22.755	16587	12328	0	800
-29.318	-25.856	16580	12033	0	800
-29.174	-28.309	16575	11846	0	800
-26.614	-29.174	16570	11836	0	800
-29.499	-31.085	16565	11944	0	800
-33.177	-37.108	16560	11984	0	800
-38.009	-41.760	16556	11925	0	800
-40.498	-43.743	16543	11856	0	800
-40.209	-41.688	16536	11748	0	800
-36.531	-35.269	16521	11551	0	800
-32.780	-31.699	16511	11365	0	800
-31.338	-28.309	16497	11286	0	800
-29.968	-27.876	16489	11394	0	800
-29.030	-29.174	16487	11699	0	800
-27.191	-29.427	16479	12161	0	800
-24.919	-31.554	16479	12770	0	800
-22.178	-33.393	16479	13438	0	800
-23.693	-34.728	16477	14007	0	800
-27.443	-37.324	16477	14440	0	800
-28.381	-38.406	16474	14832	0	800
-28.958	-35.810	16472	15216	0	800
-25.496	-30.256	16474	15599	0	800
-21.060	-24.234	16472	15864	0	800
-14.569	-20.087	16462	15825	0	800
-12.838	-16.336	16457	15677	0	800
-11.432	-18.283	16459	15913	0	800
-12.441	-18.933	16459	16403	0	800
-18.247	-21.421	16454	16560	0	800
-20.555	-24.919	16447	16296	0	800
-20.664	-23.260	16438	15874	0	800
-15.326	-21.962	16428	15599	0	800
-13.199	-21.168	16423	15579	0	800
-11.684	-18.860	16418	15707	0	800
-16.913	-22.286	16413	15707	0	800
-21.060	-24.955	16403	15461	0	800
-25.460	-28.525	16398	15373	0	800
-25.568	-29.571	16395	15667	0	800
-25.316	-31.013	16398	16109	0	800
-23.296	-33.213	16398	16472	0	800
-22.575	-35.088	16395	16659	0	800
-19.113	-34.547	16395	16727	0	800
-20.519	-35.377	16390	16747	0	800
-21.781	-32.816	16388	16727	0	800
-24.702	-30.220	16385	16678	0	800
-25.027	-26.145	16383	16649	0	800
-18.320	-21.204	16380	16639	0	800
-11.323	-17.202	16378	16668	0	800
-4.977	-12.658	16378	16855	0	800
-1.731	-9.520	16380	17110	0	800
-3.210	-8.835	16378	17218	0	800
-3.714	-7.140	16378	17179	0	800
-1.803	-5.590	16375	17169	0	800
0.505	-7.717	16378	17327	0	800
0.288	-10.674	16380	17592	0	800
-3.065	-17.887	16383	17749	0	800
-11.648	-22.683	16383	17729	0	800
-17.202	-25.712	16384	17719	0	800
-18.392	-26.470	16385	17847	0	800
-18.644	-22.358	16390	18093	0	800
-14.713	-23.621	16398	18358	0	800
-17.166	-26.325	16403	18545	0	800
-17.923	-28.381	16408	18594	0	800
-20.375	-30.653	16410	18476	0	800
-20.952	-31.302	16405	18191	0	800
-21.060	-31.482	16400	17661	0	800
-23.404	-31.879	16393	16914	0	800
-22.467	-30.941	16380	16041	0	800
-20.123	-29.895	16363	15029	0	800
-14.028	-26.506	16350	14204	0	800
-10.530	-22.214	16343	13929	0	800
-8.655	-20.736	16335	13958	0	800
-9.160	-20.808	16324	13713	0	800
-12.622	-18.788	16309	13113	0	800
-13.199	-19.726	16289	12475	0	800
-11.720	-17.346	16274	12033	0	800
-10.494	-16.733	16265	11817	0	800
-6.708	-16.300	16247	11768	0	800
-2.596	-18.500	16235	11768	0	800
-0.216	-19.870	16222	11787	0	800
0.865	-20.483	16215	12013	0	800
1.154	-16.697	16212	12534	0	800
2.308	-13.271	16206	13133	0	800
4.039	-9.917	16201	13565	0	800
7.104	-6.419	16193	13772	0	800
9.845	-2.019	16181	13860	0	800
13.595	0.361	16173	13958	0	800
14.641	2.380	16166	14096	0	800
15.038	2.849	16156	14194	0	800
15.326	0.397	16144	14184	0	800
12.081	-0.072	16137	14273	0	800
11.864	-0.325	16129	14597	0	800
9.232	1.983	16129	15098	0	800
8.366	4.075	16124	15599	0	800
9.232	6.383	16124	16031	0	800
12.622	7.898	16122	16413	0	800
15.867	9.304	16124	16806	0	800
17.562	12.117	16127	17287	0	800
19.473	12.946	16132	17867	0	800
17.202	14.966	16134	18378	0	800
16.733	17.454	16139	18761	0	800
18.283	14.100	16144	19095	0	800
16.733	12.405	16149	19468	0	800
13.848	9.881	16156	19792	0	800
12.009	8.006	16158	19890	0	800
10.855	7.717	16161	19743	0	800
13.920	12.946	16161	19537	0	800
20.591	16.913	16161	19399	0	800
29.318	22.142	16166	19291	0	800
30.581	21.565	16163	19124	0	800
32.600	22.034	16166	18859	0	800
31.771	18.356	16163	18554	0	800
32.997	18.788	16161	18309	0	800
37.252	18.428	16163	18161	0	800
41.435	19.293	16168	18171	0	800
42.697	18.608	16173	18319	0	800
37.000	16.913	16173	18279	0	800
34.079	18.283	16166	17808	0	800
26.109	17.562	16161	17071	0	800
22.322	13.812	16154	16413	0	800
19.185	11.504	16144	15903	0	800
14.858	7.104	16137	15412	0	800
13.992	4.616	16124	14852	0	800
15.038	5.770	16114	14331	0	800
18.536	7.537	16112	14174	0	800
19.762	11.540	16109	14430	0	800
22.358	14.172	16109	14744	0	800
19.618	18.320	16104	14803	0	800
17.851	17.598	16097	14616	0	800
13.776	15.759	16090	14430	0	800
13.992	8.475	16085	14361	0	800
12.838	1.010	16075	14243	0	800
10.819	-4.724	16060	13880	0	800
9.809	-7.609	16045	13359	0	800
5.301	-6.708	16036	12976	0	800
0.108	-4.616	16026	12907	0	800
-1.623	-3.101	16016	13064	0	800
-3.029	-2.596	16011	13271	0	800
-2.921	-8.547	16004	13418	0	800
-3.787	-14.605	15996	13614	0	800
-6.599	-21.096	15991	13929	0	800
-9.917	-26.001	15991	14312	0	800
-14.966	-25.676	15984	14724	0	800
-14.677	-20.303	15984	15098	0	800
-17.995	-19.365	15982	15471	0	800
-20.014	-20.880	15986	15962	0	800
-24.486	-27.299	15991	16659	0	800
-27.083	-31.302	15999	17435	0	800
-29.030	-33.934	16004	17975	0	800
-29.174	-32.239	16004	18220	0	800
-26.758	-30.256	16011	18397	0	800
-26.686	-30.328	16016	18731	0	800
-23.512	-31.662	16024	19163	0	800
-22.611	-33.646	16031	19547	0	800
-24.702	-32.816	16040	19822	0	800
-27.083	-30.508	16048	20067	0	800
-32.528	-30.076	16058	20352	0	800
-37.901	-30.545	16073	20666	0	800
-38.082	-32.708	16083	20932	0	800
-37.324	-37.360	16095	21187	0	800
-36.242	-41.760	16109	21462	0	800
-33.718	-42.445	16124	21708	0	800
-31.554	-40.498	16139	21875	0	800
-31.374	-36.278	16156	22012	0	800
-31.843	-31.699	16171	22150	0	800
-33.826	-30.436	16186	22209	0	800
-36.423	-31.554	16196	21953	0	800
-38.118	-31.590	16211	21541	0	800
-37.360	-30.112	16222	21482	0	800
-34.259	-27.155	16242	21688	0	800
-28.922	-24.053	16252	21590	1	816
-25.207	-25.965	16265	21069	0	816
-22.935	-29.102	16267	20382	0	816
-19.546	-30.797	16276	19772	0	816
-19.293	-31.699	16284	19360	0	816
-15.867	-25.712	16294	19114	0	816
-13.091	-20.267	16301	18839	0	816
-9.520	-14.569	16311	18505	0	816
-6.599	-10.350	16324	18368	0	816
-4.219	-9.340	16335	18505	0	816
-5.193	-11.360	16353	18692	0	816
-7.645	-12.982	16368	18780	0	816
-11.828	-13.559	16380	18761	0	816
-13.271	-14.497	16393	18721	0	816
-13.487	-14.136	16408	18731	0	816
-12.405	-15.290	16420	18721	0	816
-11.071	-17.418	16430	18495	0	816
-15.687	-22.503	16430	17818	0	816
-19.582	-29.823	16420	16531	0	816
-27.083	-35.990	16408	15029	0	816
-30.292	-40.750	16403	14037	0	816
-30.148	-39.668	16400	13663	0	816
-21.349	-32.672	16398	13438	0	816
-12.730	-22.647	16398	13241	0	816
-5.806	-17.490	16400	13202	0	816
-5.517	-16.300	16405	13388	0	816
-10.314	-24.666	16410	13722	0	816
-19.510	-34.331	16418	14096	0	816
-24.089	-43.310	16423	14489	0	816
-29.427	-48.539	16433	14891	0	816
-30.220	-47.349	16440	15284	0	816
-31.446	-47.602	16447	15618	0	816
-30.905	-45.294	16454	15805	0	816
-30.905	-43.094	16459	15893	0	816
-26.470	-40.065	16462	15962	0	816
-22.755	-32.925	16464	15864	0	816
-18.031	-26.145	16457	15353	0	816
-14.461	-22.106	16447	14557	0	816
-17.598	-20.808	16438	13909	0	816
-18.139	-20.772	16428	13447	0	816
-19.149	-21.781	16418	12956	0	816
-15.038	-23.729	16405	12436	0	816
-14.208	-24.847	16393	12052	0	816
-16.733	-29.354	16383	11827	0	816
-26.866	-33.538	16373	11660	0	816
-35.954	-38.190	16363	11522	0	816
-41.039	-40.209	16350	11424	0	816
-39.885	-39.055	16340	11473	0	816
-34.331	-35.846	16335	11738	0	816
-29.030	-28.777	16328	12111	0	816
-24.991	-25.027	16321	12377	0	816
-23.873	-21.998	16314	12622	0	816
-23.729	-24.522	16314	13123	0	816
-20.483	-28.561	16311	13644	0	816
-22.683	-30.761	16304	13919	0	816
-23.909	-33.033	16301	14125	0	816
-26.109	-30.617	16296	14410	0	816
-29.210	-29.931	16294	14803	0	816
-28.850	-30.472	16294	15353	0	816
-24.919	-31.843	16301	16011	0	816
-17.346	-31.626	16299	16501	0	816
-14.064	-29.895	16296	16698	0	816
-11.287	-25.135	16301	16875	0	816
-11.576	-19.401	16304	17287	0	816
-10.783	-15.831	16309	17818	0	816
-7.753	-13.920	16314	18220	0	816
-3.426	-16.300	16319	18437	0	816
-4.364	-18.500	16321	18623	0	816
-6.167	-23.765	16326	18859	0	816
-11.396	-24.342	16330	19036	0	816
-14.281	-21.781	16330	19036	0	816
-13.776	-18.500	16335	18918	0	816
-8.799	-14.245	16335	18800	0	816
-5.193	-15.398	16338	18761	0	816
-3.642	-14.389	16343	18859	0	816
-3.101	-12.838	16350	19016	0	816
-4.219	-10.819	16355	19065	0	816
-2.777	-5.842	16358	18977	0	816
-1.118	-2.200	16363	18888	0	816
2.813	-3.714	16368	18839	0	816
2.777	-4.291	16373	18761	0	816
-0.829	-9.016	16375	18623	0	816
-3.678	-11.540	16380	18466	0	816
-6.275	-11.323	16383	18319	0	816
-5.481	-11.756	16384	18191	0	816
-2.633	-8.835	16385	18044	0	816
0.865	-8.330	16385	17769	0	816
1.839	-8.439	16383	17179	0	816
2.344	-9.917	16373	16335	0	816
0.721	-7.898	16365	15579	0	816
-2.488	-8.763	16360	15196	0	816
-4.291	-8.150	16363	15284	0	816
-0.325	-5.662	16363	15589	0	816
7.465	-1.370	16363	15569	0	816
17.418	5.626	16353	15029	0	816
26.037	12.550	16338	14263	0	816
27.227	13.740	16328	13624	0	816
24.162	10.097	16319	13241	0	816
21.277	4.472	16309	13084	0	816
18.356	-0.108	16299	12937	0	816
20.339	1.551	16289	12720	0	816
26.217	8.547	16281	12750	0	816
29.643	16.300	16281	13162	0	816
34.511	23.368	16281	13673	0	816
36.242	24.919	16276	14076	0	816
34.800	25.893	16276	14302	0	816
32.564	23.837	16271	14489	0	816
31.590	20.195	16271	14734	0	816
30.184	18.752	16271	15068	0	816
28.886	16.300	16267	15294	0	816
26.001	16.264	16262	15216	0	816
22.106	15.038	16250	14960	0	816
18.247	15.146	16247	14793	0	816
14.966	13.091	16237	14823	0	816
16.552	12.946	16235	14921	0	816
17.815	10.422	16225	14960	0	816
18.752	9.629	16222	14990	0	816
14.208	7.537	16217	15166	0	816
8.763	6.058	16220	15550	0	816
2.019	4.508	16222	16070	0	816
-0.325	3.606	16217	16365	0	816
1.334	3.750	16208	16051	0	816
4.977	2.416	16193	15255	0	816
5.914	-0.649	16178	14665	0	816
3.534	-3.498	16171	14498	0	816
-2.885	-6.275	16161	14430	0	816
-8.150	-9.304	16152	14400	0	816
-11.720	-7.465	16144	14469	0	816
-9.196	-6.347	16139	14675	0	816
-1.911	-4.616	16137	15049	0	816
-0.613	-4.327	16139	15559	0	816
-0.433	-7.465	16142	16109	0	816
-7.934	-12.514	16142	16492	0	816
-16.084	-19.077	16139	16678	0	816
-19.942	-24.414	16137	16717	0	816
-22.250	-28.814	16132	16727	0	816
-23.296	-31.013	16129	16757	0	816
-23.476	-30.833	16127	16865	0	816
-24.847	-32.203	16127	17022	0	816
-26.830	-31.374	16129	17248	0	816
-24.811	-33.357	16134	17641	0	816
-24.342	-32.925	16139	18083	0	816
-24.847	-33.502	16137	18152	0	816
-21.277	-30.977	16129	17739	0	816
-20.952	-25.820	16122	17130	0	816
-20.411	-22.683	16114	16629	0	816
-18.572	-21.132	16107	16375	0	816
-20.050	-25.063	16104	16296	0	816
-19.401	-32.023	16097	16198	0	816
-20.267	-36.278	16090	15903	0	816
-18.716	-36.567	16080	15559	0	816
-20.195	-33.682	16075	15383	0	816
-17.346	-28.525	16073	15451	0	816
-15.362	-21.601	16070	15608	0	816
-8.619	-17.454	16065	15707	0	816
-6.131	-15.398	16065	15825	0	816
-3.787	-15.110	16065	16090	0	816
-5.265	-14.569	16065	16355	0	816
-7.970	-16.949	16063	16423	0	816
-6.239	-12.514	16060	16345	0	816
-0.649	-9.881	16058	16316	0	816
5.085	-6.960	16060	16521	0	816
6.419	-5.770	16065	16993	0	816
3.642	-7.789	16073	17562	0	816
-1.298	-9.592	16078	18034	0	816
-6.455	-14.064	16088	18446	0	816
-5.049	-13.812	16095	18869	0	816
-0.541	-14.785	16107	19222	0	816
8.150	-8.222	16114	19439	0	816
16.733	-0.721	16119	19576	0	816
23.585	6.455	16129	19743	0	816
28.525	12.225	16144	20057	0	816
29.643	10.314	16156	20539	0	816
29.066	8.366	16178	21069	0	816
25.460	4.652	16193	21482	0	816
21.096	3.859	16211	21786	0	816
18.644	8.330	16227	22051	0	816
17.490	12.802	16250	22346	0	816
21.998	19.510	16267	22602	0	816
28.777	22.322	16286	22769	0	816
30.617	24.630	16306	22828	0	816
31.013	23.693	16321	22719	0	816
27.840	17.238	16330	22317	0	816
23.512	14.064	16345	21835	0	816
20.736	9.629	16363	21708	0	816
17.887	8.691	16383	21806	1	740
17.923	9.809	16390	21521	0	740
14.966	9.629	16398	20765	0	740
12.009	7.032	16405	19900	0	740
8.330	2.308	16410	19144	0	740
5.481	0.036	16418	18525	0	740
4.904	0.216	16420	17995	0	740
7.717	5.626	16428	17503	0	740
12.081	8.511	16433	17091	0	740
12.297	7.934	16444	16993	0	740
7.501	4.183	16459	17238	0	740
1.551	-2.344	16474	17513	0	740
-2.236	-7.789	16484	17523	0	740
-2.272	-7.248	16494	17238	0	740
1.298	-5.481	16497	16875	0	740
2.560	-3.859	16506	16649	0	740
-0.685	-7.789	16516	16501	0	740
-5.445	-13.595	16516	16218	0	740
-9.268	-18.788	16518	15618	0	740
-10.061	-25.856	16513	14950	0	740
-8.366	-24.234	16513	14430	0	740
-10.530	-24.089	16511	14076	0	740
-13.523	-23.260	16511	13781	0	740
-16.012	-23.332	16506	13457	0	740
-18.139	-21.998	16503	13143	0	740
-15.471	-25.820	16498	12946	0	740
-15.759	-30.508	16498	12907	0	740
-16.480	-31.699	16501	12966	0	740
-19.221	-33.682	16494	12937	0	740
-19.870	-29.174	16494	12838	0	740
-20.014	-24.666	16487	12750	0	740
-15.579	-21.709	16484	12750	0	740
-13.523	-19.906	16484	12809	0	740
-10.746	-20.195	16472	12720	0	740
-7.248	-21.421	16459	12229	0	740
-8.222	-21.060	16442	11453	0	740
-7.609	-24.125	16423	10825	0	740
-9.809	-23.512	16408	10491	0	740
-12.261	-23.440	16390	10235	0	740
-14.677	-21.854	16373	9842	0	740
-14.930	-18.897	16350	9341	0	740
-14.317	-20.014	16330	9106	0	740
-13.199	-17.202	16319	9322	0	740
-9.701	-18.356	16309	9803	0	740
-7.501	-17.382	16299	10402	0	740
-5.049	-17.526	16289	11070	0	740
-0.685	-14.389	16286	11718	0	740
3.390	-12.405	16276	12219	0	740
7.212	-8.691	16265	12553	0	740
10.350	-6.022	16260	12927	0	740
9.773	-7.573	16250	13428	0	740
8.547	-6.491	16247	13909	0	740
8.871	-4.580	16237	14302	0	740
14.389	-1.587	16235	14705	0	740
19.942	3.029	16230	15235	0	740
26.037	6.022	16230	15864	0	740
27.371	5.770	16230	16365	0	740
25.171	4.652	16222	16609	0	740
22.142	5.770	16225	16884	0	740
17.706	5.481	16222	17415	0	740
19.834	7.681	16232	18152	0	740
22.791	11.792	16235	18859	0	740
28.994	16.048	16245	19360	0	740
36.747	21.962	16247	19733	0	740
40.462	24.955	16257	20136	0	740
40.173	22.070	16265	20549	0	740
36.639	19.149	16274	20853	0	740
31.843	17.021	16279	20951	0	740
31.230	20.591	16286	21000	0	740
30.581	25.929	16294	21079	0	740
32.023	30.653	16301	21207	0	740
31.626	27.299	16314	21384	0	740
29.679	22.034	16321	21433	0	740
27.948	14.389	16326	21138	0	740
24.378	13.956	16326	20617	0	740
22.683	15.290	16328	20195	0	740
25.135	21.421	16335	19949	0	740
26.109	27.371	16338	19704	0	740
30.256	31.013	16340	19370	0	740
32.744	31.951	16343	19026	0	740
33.826	30.436	16348	18780	0	740
32.997	29.679	16350	18633	0	740
32.203	29.571	16355	18368	0	740
31.879	28.201	16348	17700	0	740
32.456	24.594	16338	16668	0	740
31.590	20.772	16333	15805	0	740
32.167	17.166	16326	15304	0	740
33.826	17.634	16319	14931	0	740
30.472	18.247	16314	14557	0	740
29.427	19.113	16309	14253	0	740
28.777	19.726	16301	13997	0	740
30.292	18.933	16296	13870	0	740
32.636	20.375	16301	14204	0	740
35.629	21.096	16311	14911	0	740
36.098	21.132	16311	15402	0	740
32.059	15.759	16309	15333	0	740
26.902	11.864	16301	14901	0	740
19.942	5.806	16291	14449	0	740
15.651	3.534	16281	14056	0	740
11.540	1.731	16271	13644	0	740
12.514	1.406	16255	13094	0	740
14.389	1.803	16242	12524	0	740
15.687	1.046	16225	12141	0	740
19.329	4.544	16217	12043	0	740
18.428	6.888	16206	12180	0	740
17.887	11.396	16198	12367	0	740
17.598	11.937	16191	12485	0	740
14.966	11.756	16186	12779	0	740
13.199	8.402	16183	13359	0	740
12.189	6.527	16183	14007	0	740
8.511	2.056	16183	14508	0	740
4.327	-2.416	16176	14813	0	740
1.082	-7.140	16173	15039	0	740
-0.072	-10.025	16173	15324	0	740
1.046	-10.783	16173	15648	0	740
3.787	-9.737	16166	15933	0	740
8.042	-6.239	16168	16090	0	740
7.212	-4.039	16163	16227	0	740
5.265	-4.508	16163	16413	0	740
1.983	-5.842	16163	16727	0	740
-0.685	-9.376	16161	17022	0	740
-2.380	-15.398	16161	17140	0	740
0.397	-17.887	16158	17091	0	740
3.462	-19.618	16158	17081	0	740
7.429	-18.933	16158	17307	0	740
8.366	-20.627	16161	17680	0	740
7.681	-20.952	16163	17847	0	740
5.085	-21.745	16152	17425	0	740
3.462	-21.709	16142	16609	0	740
2.272	-17.346	16132	16011	0	740
2.488	-12.441	16122	15746	0	740
4.327	-9.520	16112	15510	0	740
2.164	-7.898	16104	15255	0	740
2.921	-11.828	16097	15088	0	740
-0.433	-15.867	16088	14950	0	740
-3.859	-18.103	16075	14685	0	740
-9.376	-21.313	16065	14322	0	740
-13.812	-20.772	16055	14125	0	740
-15.939	-21.313	16048	14115	0	740
-16.913	-22.683	16034	13968	0	740
-10.602	-21.349	16021	13663	0	740
-7.032	-20.555	16011	13506	0	740
-3.462	-18.500	16001	13555	0	740
-5.698	-17.923	15989	13673	0	740
-10.061	-20.267	15986	13840	0	740
-14.497	-21.673	15977	14115	0	740
-17.562	-23.116	15977	14479	0	740
-15.471	-21.241	15975	14999	0	740
-14.281	-20.195	15975	15628	0	740
-15.615	-22.358	15977	16168	0	740
-17.310	-25.820	15977	16590	0	740
-21.277	-32.167	15984	17169	0	740
-24.162	-36.783	15986	17798	0	740
-21.493	-37.396	15994	18279	0	740
-19.582	-33.285	15996	18672	0	740
-15.507	-27.047	16004	19046	0	740
-14.713	-22.034	16014	19468	0	740
-11.648	-16.408	16026	20048	0	740
-12.333	-16.877	16043	20804	0	740
-9.629	-16.877	16060	21609	0	740
-6.131	-19.510	16080	22277	0	740
-3.137	-18.608	16097	22788	0	740
-0.721	-18.788	16119	23250	0	740
0.252	-16.480	16139	23780	0	740
-1.334	-16.300	16163	24301	0	740
-2.957	-12.982	16188	24664	0	740
-6.852	-15.110	16211	24861	0	740
-6.744	-14.425	16235	25106	0	740
-6.996	-14.821	16267	25568	0	740
-6.131	-16.408	16299	26108	0	740
-4.940	-14.208	16326	26433	0	740
-1.659	-14.100	16358	26492	0	740
2.308	-11.684	16385	26472	0	740
6.852	-9.773	16418	26531	0	740
10.097	-8.583	16444	26570	0	740
10.025	-6.924	16472	26384	0	740
8.799	-5.770	16498	25883	0	740
10.602	-4.003	16518	24998	0	740
12.225	-0.036	16531	23879	1	712
15.939	5.517	16546	22798	0	712
19.942	11.576	16557	21786	0	712
20.267	15.687	16565	20774	0	712
21.313	18.428	16577	19812	0	712
24.017	16.552	16587	18947	0	712
26.217	18.536	16595	18152	0	712
34.043	21.637	16602	17415	0	712
44.068	29.859	16612	16717	0	712
53.228	37.505	16619	16041	0	712
59.286	41.832	16621	15324	0	712
61.089	41.688	16624	14646	0	712
54.886	37.649	16626	14086	0	712
50.559	34.620	16629	13614	0	712
46.015	34.331	16629	13084	0	712
46.015	35.485	16624	12318	0	712
46.159	36.783	16614	11414	0	712
47.169	37.000	16610	10638	0	712
48.143	35.124	16597	10117	0	712
44.573	32.059	16590	9813	0	712
41.003	28.525	16582	9607	0	712
38.550	24.739	16575	9371	0	712
36.964	23.224	16565	9223	0	712
36.675	21.854	16562	9341	0	712
34.980	21.024	16557	9616	0	712
33.357	21.060	16548	9813	0	712
30.545	18.680	16543	9823	0	712
27.624	19.582	16536	9950	0	712
26.650	18.247	16536	10412	0	712
25.856	17.706	16533	11051	0	712
21.637	13.848	16533	11591	0	712
19.293	11.323	16526	11954	0	712
16.300	5.085	16523	12269	0	712
14.894	0.974	16526	12730	0	712
11.143	-2.452	16526	13379	0	712
10.314	-2.633	16528	13978	0	712
10.855	1.479	16523	14351	0	712
14.100	6.419	16523	14626	0	712
20.519	9.665	16523	15019	0	712
22.431	7.537	16528	15530	0	712
20.267	2.380	16528	16041	0	712
15.038	-4.183	16533	16403	0	712
9.448	-5.626	16533	16629	0	712
7.032	-7.934	16536	16757	0	712
8.042	-6.816	16533	16884	0	712
10.746	-6.203	16538	17042	0	712
9.989	-5.121	16536	17160	0	712
9.232	-3.606	16538	17189	0	712
4.039	-6.167	16536	17169	0	712
-2.272	-9.016	16538	17169	0	712
-6.635	-16.048	16536	17189	0	712
-8.294	-20.087	16536	17140	0	712
-7.285	-22.142	16533	16973	0	712
-6.022	-20.375	16526	16698	0	712
-4.652	-16.985	16518	16306	0	712
-6.527	-17.166	16506	15785	0	712
-7.465	-16.408	16501	15353	0	712
-7.176	-21.168	16497	15088	0	712
-9.520	-22.755	16482	14823	0	712
-10.602	-24.450	16469	14351	0	712
-17.634	-26.325	16459	13948	0	712
-21.745	-26.938	16457	14125	0	712
-24.883	-28.561	16457	14665	0	712
-23.296	-30.220	16454	14940	0	712
-16.192	-30.112	16444	14764	0	712
-11.323	-27.948	16435	14410	0	712
-7.285	-23.188	16425	14174	0	712
-5.734	-20.844	16418	14184	0	712
-5.662	-20.087	16413	14361	0	712
-9.701	-20.483	16403	14361	0	712
-12.514	-25.965	16390	14047	0	712
-14.605	-28.777	16384	13899	0	712
-16.841	-26.037	16383	14204	0	712
-12.550	-22.322	16380	14773	0	712
-5.085	-18.247	16380	15304	0	712
-2.200	-13.776	16380	15707	0	712
-0.288	-14.569	16378	16011	0	712
-2.128	-15.795	16378	16296	0	712
-5.554	-16.264	16378	16521	0	712
-8.366	-18.356	16378	16776	0	712
-7.934	-17.021	16378	17081	0	712
-6.924	-18.536	16380	17346	0	712
-5.301	-17.526	16383	17621	0	712
-6.960	-18.428	16385	18044	0	712
-5.986	-17.129	16393	18525	0	712
-7.825	-17.526	16398	18829	0	712
-6.671	-15.543	16403	18918	0	712
-2.560	-14.281	16405	18928	0	712
2.488	-10.783	16410	18996	0	712
4.652	-12.586	16415	19173	0	712
3.318	-12.946	16420	19281	0	712
-1.046	-14.605	16425	19232	0	712
-6.094	-19.365	16425	19095	0	712
-9.088	-21.132	16428	18928	0	712
-9.556	-22.647	16430	18751	0	712
-8.402	-24.450	16435	18594	0	712
-7.068	-22.503	16435	18437	0	712
-6.888	-21.241	16433	18122	0	712
-8.727	-18.644	16433	17641	0	712
-7.825	-18.464	16425	17101	0	712
-6.708	-20.231	16418	16541	0	712
-1.623	-19.365	16410	15952	0	712
4.436	-20.231	16398	15314	0	712
9.881	-16.985	16383	14459	0	712
9.737	-17.274	16368	13575	0	712
7.032	-15.471	16360	13172	0	712
1.262	-18.211	16353	13172	0	712
-1.875	-18.608	16338	12946	0	712
-2.921	-20.591	16324	12347	0	712
-1.767	-19.329	16304	11679	0	712
0.036	-20.880	16284	11198	0	712
0.325	-17.887	16271	10982	0	712
0.036	-16.877	16257	11011	0	712
2.669	-12.117	16247	11168	0	712
6.635	-10.819	16232	11335	0	712
11.648	-9.160	16227	11679	0	712
13.018	-8.078	16222	12406	0	712
14.569	-7.393	16225	13320	0	712
11.576	-8.150	16220	14106	0	712
10.350	-7.501	16220	14636	0	712
12.441	-9.881	16220	15049	0	712
11.323	-11.360	16215	15461	0	712
9.989	-14.641	16217	15864	0	712
10.855	-12.622	16211	16149	0	712
9.629	-12.369	16208	16276	0	712
9.917	-9.953	16206	16365	0	712
9.016	-9.016	16201	16609	0	712
7.970	-10.566	16203	17002	0	712
5.517	-17.021	16203	17248	0	712
4.147	-21.781	16196	17179	0	712
3.931	-25.279	16191	16983	0	712
5.013	-26.073	16188	16914	0	712
4.111	-20.736	16183	17061	0	712
5.265	-17.202	16186	17336	0	712
5.914	-13.992	16181	17356	0	712
9.052	-11.432	16166	16816	0	712
11.468	-10.819	16154	15952	0	712
14.136	-7.789	16139	15383	0	712
16.480	-6.275	16129	15176	0	712
13.740	-3.390	16119	15029	0	712
11.215	-2.452	16112	14882	0	712
11.035	-0.613	16104	14862	0	712
13.487	1.623	16099	15039	0	712
21.349	4.255	16097	15392	0	712
26.650	8.619	16095	15687	0	712
29.246	12.622	16085	15608	0	712
26.722	13.487	16073	15225	0	712
21.890	11.900	16068	14931	0	712
16.697	8.511	16055	14862	0	712
16.084	3.606	16048	14960	0	712
12.802	0.865	16045	15166	0	712
11.360	1.334	16040	15441	0	712
8.835	1.370	16040	15756	0	712
6.816	0.108	16039	16100	0	712
7.429	0.108	16039	16462	0	712
11.720	-0.108	16040	16924	0	712
14.245	1.767	16045	17385	0	712
15.362	4.868	16045	17641	0	712
14.713	6.563	16048	17828	0	712
9.989	4.508	16060	18427	0	712
6.455	4.400	16075	19468	0	712
7.717	0.793	16093	20480	0	712
10.025	-0.216	16104	21089	0	712
13.018	0.433	16117	21364	0	712
13.631	-0.829	16132	21629	0	712
14.641	-0.288	16149	22071	0	712
12.081	1.479	16171	22651	0	712
12.189	2.056	16188	23181	0	712
12.117	0.938	16208	23535	0	712
11.215	-2.164	16235	23898	0	712
11.215	-5.373	16257	24389	0	712
10.710	-5.409	16284	24792	0	712
12.622	-4.327	16306	24939	0	712
16.985	-0.252	16326	24881	0	712
15.651	2.092	16350	24763	0	712
12.766	-0.757	16373	24684	0	712
7.032	-6.167	16398	24753	0	712
1.082	-13.884	16423	24831	1	708
-0.072	-19.978	16444	24615	0	708
1.911	-22.719	16462	24183	0	708
3.859	-23.476	16489	23790	0	708
2.777	-20.447	16511	23525	0	708
-0.469	-20.772	16531	23250	0	708
-2.885	-19.978	16553	22857	0	708
-0.865	-19.834	16570	22376	0	708
1.803	-20.375	16590	21963	0	708
3.570	-18.464	16610	21609	0	708
2.849	-18.103	16629	21236	0	708
2.488	-14.677	16649	20853	0	708
2.777	-10.061	16666	20431	0	708
6.888	-9.448	16678	19841	0	708
7.789	-10.458	16690	19095	0	708
6.131	-11.792	16700	18289	0	708
2.669	-16.192	16705	17415	0	708
0.649	-14.461	16710	16472	0	708
-0.072	-14.245	16710	15540	0	708
1.406	-12.441	16708	14567	0	708
1.154	-11.540	16703	13575	0	708
0.144	-11.937	16698	12691	0	708
1.118	-8.655	16693	11935	0	708
4.544	-4.508	16685	11188	0	708
7.862	-0.974	16671	10294	0	708
10.602	0.180	16656	9351	0	708
9.340	-4.003	16644	8663	0	708
4.472	-8.655	16631	8310	0	708
-2.416	-15.687	16619	8094	0	708
-5.878	-15.615	16605	7760	0	708
-6.239	-12.802	16587	7357	0	708
-4.075	-7.898	16570	7161	0	708
-1.659	-5.806	16565	7357	0	708
-1.839	-6.094	16556	7887	0	708
-3.498	-6.599	16548	8526	0	708
-3.714	-7.573	16543	9047	0	708
1.154	-5.337	16531	9420	0	708
4.364	-3.570	16518	9469	0	708
5.193	-4.039	16498	9263	0	708
2.128	-7.140	16484	9253	0	708
-2.488	-11.720	16474	9567	0	708
-3.534	-14.533	16462	10098	0	708
-1.370	-10.566	16457	10815	0	708
3.282	-6.852	16457	11709	0	708
5.806	-1.659	16454	12671	0	708
3.714	-0.938	16454	13614	0	708
0.108	-6.383	16459	14538	0	708
0.433	-11.864	16467	15510	0	708
5.445	-12.261	16472	16590	0	708
12.946	-9.665	16487	17749	0	708
20.555	-4.436	16498	18741	0	708
19.654	-0.108	16506	19537	0	708
16.372	-1.695	16521	20244	0	708
9.917	-3.678	16533	20961	0	708
8.114	-4.652	16551	21619	0	708
6.708	-5.373	16565	22179	0	708
7.104	-3.678	16577	22641	0	708
9.052	-4.039	16595	22965	0	708
9.629	-3.210	16612	23142	0	708
12.189	-3.101	16621	23181	0	708
12.910	-2.777	16631	23063	0	708
9.268	-3.678	16641	22759	0	708
7.825	-8.619	16649	22287	0	708
3.354	-13.812	16654	21688	0	708
0.361	-19.365	16659	21099	0	708
-3.210	-18.860	16666	20745	0	708
-5.013	-17.995	16673	20568	0	708
-4.688	-12.405	16678	20224	0	708
0.252	-9.052	16675	19429	0	708
4.003	-8.042	16669	18328	0	708
5.806	-8.258	16661	17258	0	708
2.416	-9.917	16654	16384	0	708
-1.911	-12.802	16646	15520	0	708
-3.714	-12.694	16631	14489	0	708
-1.803	-8.799	16614	13379	0	708
2.452	-6.022	16602	12455	0	708
7.032	-2.777	16587	11866	0	708
9.989	-0.613	16575	11502	0	708
9.809	-0.938	16560	11159	0	708
8.835	-0.613	16548	10746	0	708
6.022	-1.370	16531	10402	0	708
4.616	-2.452	16518	10274	0	708
3.570	-5.734	16506	10363	0	708
3.606	-8.943	16498	10569	0	708
3.426	-9.737	16492	10795	0	708
3.390	-9.556	16479	11080	0	708
0.577	-8.907	16474	11502	0	708
-0.325	-8.943	16472	12013	0	708
-3.246	-11.323	16462	12436	0	708
-1.767	-11.396	16454	12691	0	708
0.144	-9.845	16449	12986	0	708
2.092	-6.924	16444	13477	0	708
2.921	-4.977	16442	14076	0	708
0.685	-2.921	16442	14636	0	708
-1.947	-3.318	16440	15039	0	708
-4.436	-4.832	16438	15324	0	708
-4.544	-4.544	16433	15618	0	708
-3.787	-6.383	16428	15785	0	708
-2.741	-9.484	16420	15766	0	708
-2.308	-14.028	16410	15589	0	708
-3.895	-18.716	16393	15088	0	708
-8.006	-23.440	16378	14371	0	708
-11.792	-23.224	16363	13997	0	708
-15.903	-22.972	16353	14056	0	708
-14.425	-20.195	16348	14223	0	708
-13.559	-16.336	16330	14233	0	708
-10.566	-18.247	16311	13811	0	708
-9.124	-19.834	16286	12986	0	708
-11.179	-22.395	16262	12190	0	708
-11.215	-22.431	16237	11640	0	708
-9.845	-22.755	16220	11424	0	708
-10.927	-23.549	16203	11493	0	708
-11.684	-24.053	16183	11630	0	708
-15.651	-27.515	16171	11817	0	708
-22.972	-29.318	16158	12180	0	708
-27.191	-26.938	16149	12740	0	708
-27.191	-22.755	16142	13379	0	708
-24.378	-20.483	16137	14037	0	708
-17.490	-20.339	16132	14695	0	708
-14.425	-20.772	16127	15333	0	708
-12.225	-23.909	16124	15942	0	708
-12.369	-22.791	16124	16521	0	708
-13.992	-21.673	16122	17022	0	708
-13.920	-22.322	16122	17464	0	708
-18.572	-24.811	16124	18034	0	708
-20.447	-29.246	16132	18820	0	708
-25.099	-32.636	16139	19694	0	708
-26.938	-32.636	16149	20460	0	708
-28.597	-31.194	16158	21040	0	708
-26.253	-30.112	16176	21678	0	708
-26.109	-31.049	16193	22513	0	708
-23.909	-29.895	16211	23309	0	708
-18.139	-30.328	16227	23879	0	708
-14.821	-29.174	16242	24114	0	708
-8.042	-25.856	16255	24095	0	708
-6.347	-24.775	16267	24026	0	708
-5.085	-22.178	16284	23967	0	708
-5.265	-19.978	16291	23829	0	708
-5.265	-16.877	16301	23505	1	552
-3.318	-15.507	16314	23073	0	552
-0.361	-12.766	16321	22690	0	552
1.334	-13.631	16333	22405	0	552
2.236	-12.586	16343	22101	0	552
3.029	-10.133	16348	21560	0	552
3.282	-9.989	16353	20774	0	552
1.803	-9.592	16353	19890	0	552
-1.154	-9.484	16355	19124	0	552
-4.003	-12.802	16355	18486	0	552
-6.058	-13.054	16353	17788	0	552
-5.193	-10.746	16350	16993	0	552
-3.714	-10.566	16345	16267	0	552
-1.262	-10.061	16343	15687	0	552
-3.210	-12.117	16343	15245	0	552
-4.904	-16.408	16340	14931	0	552
-6.491	-16.985	16338	14665	0	552
-7.357	-18.969	16333	14322	0	552
-7.285	-17.634	16330	13958	0	552
-6.635	-19.077	16326	13683	0	552
-7.573	-17.021	16324	13487	0	552
-8.042	-17.093	16316	13349	0	552
-9.412	-13.740	16311	13221	0	552
-9.088	-10.710	16301	12878	0	552
-10.097	-10.963	16296	12426	0	552
-9.304	-12.910	16291	12485	0	552
-7.681	-13.776	16294	13123	0	552
-8.294	-16.552	16299	13693	0	552
-9.268	-14.966	16289	13801	0	552
-13.559	-15.867	16286	13732	0	552
-14.930	-15.903	16289	13850	0	552
-16.156	-17.310	16286	14273	0	552
-13.307	-15.435	16291	14813	0	552
-8.402	-16.408	16294	15186	0	552
-9.268	-17.562	16291	15324	0	552
-10.638	-19.654	16291	15481	0	552
-12.009	-21.024	16299	15825	0	552
-15.146	-20.736	16301	16335	0	552
-14.245	-14.930	16311	16924	0	552
-12.009	-14.966	16321	17533	0	552
-12.658	-14.894	16333	18171	0	552
-12.153	-19.690	16345	18859	0	552
-11.684	-22.827	16363	19586	0	552
-14.100	-24.558	16383	20273	0	552
-13.379	-22.395	16398	20824	0	552
-14.605	-20.159	16413	21266	0	552
-13.199	-18.680	16433	21747	0	552
-12.441	-16.264	16452	22297	0	552
-13.379	-19.293	16477	22818	0	552
-12.730	-17.959	16501	23191	0	552
-15.074	-19.834	16518	23417	0	552
-14.677	-17.923	16543	23525	0	552
-12.153	-18.572	16560	23574	0	552
-11.396	-17.815	16582	23554	0	552
-11.035	-20.231	16600	23338	0	552
-9.592	-18.897	16614	22955	0	552
-9.088	-17.418	16629	22552	0	552
-4.291	-9.592	16646	22258	0	552
-1.587	-4.688	16664	22022	0	552
0.108	-3.065	16678	21678	0	552
-0.721	-7.212	16693	21226	0	552
-1.983	-15.146	16708	20784	0	552
-1.515	-21.241	16720	20391	0	552
-1.623	-23.837	16734	20028	0	552
-3.787	-22.575	16747	19576	0	552
-5.517	-17.743	16752	18967	0	552
-6.131	-16.589	16759	18250	0	552
-5.193	-13.091	16764	17444	0	552
0.108	-12.910	16762	16590	0	552
3.570	-10.494	16764	15795	0	552
2.957	-8.655	16767	15137	0	552
2.560	-9.340	16762	14587	0	552
1.839	-9.520	16762	14037	0	552
1.983	-10.025	16764	13614	0	552
5.481	-10.061	16769	13575	0	552
7.429	-9.773	16774	13693	0	552
7.898	-8.619	16767	13457	0	552
7.609	-7.789	16762	12750	0	552
7.285	-4.832	16752	11885	0	552
5.445	-2.633	16737	11178	0	552
5.662	1.334	16729	10756	0	552
5.986	2.921	16723	10608	0	552
7.753	0.180	16713	10530	0	552
8.475	0.000	16700	10304	0	552
11.215	-4.039	16690	10058	0	552
11.720	-3.859	16680	9970	0	552
11.792	-2.092	16671	10009	0	552
14.353	2.488	16659	10019	0	552
18.067	9.016	16644	9950	0	552
23.044	13.848	16634	10009	0	552
22.611	12.477	16624	10265	0	552
19.510	6.347	16614	10658	0	552
13.956	0.397	16610	11060	0	552
8.943	-4.436	16600	11404	0	552
8.655	-2.416	16595	11777	0	552
10.314	1.875	16590	12298	0	552
15.507	7.429	16587	12996	0	552
18.175	11.396	16587	13752	0	552
19.437	10.530	16590	14381	0	552
16.841	8.835	16587	14911	0	552
11.287	4.580	16587	15422	0	552
4.147	2.705	16592	16011	0	552
1.875	0.649	16595	16649	0	552
6.635	3.895	16595	17160	0	552
13.054	8.222	16597	17474	0	552
17.779	9.917	16600	17690	0	552
16.589	8.078	16605	17985	0	552
12.405	6.131	16605	18309	0	552
7.176	4.255	16607	18505	0	552
5.914	6.239	16610	18535	0	552
7.537	11.432	16607	18495	0	552
11.504	13.271	16614	18486	0	552
11.396	12.874	16612	18525	0	552
9.701	9.556	16612	18574	0	552
8.835	5.698	16614	18545	0	552
5.013	3.101	16612	18348	0	552
2.633	3.967	16607	17837	0	552
0.505	0.793	16600	17268	0	552
0.180	1.118	16602	17238	0	552
-0.433	2.380	16612	17739	0	552
2.705	4.039	16612	18034	0	552
5.121	5.121	16610	17719	0	552
6.924	6.058	16602	17061	0	552
6.311	3.390	16592	16452	0	552
6.996	0.793	16587	16021	0	552
5.373	-0.397	16577	15579	0	552
4.904	-0.685	16565	15058	0	552
3.210	1.154	16553	14557	0	552
1.587	1.479	16551	14312	0	552
-1.226	0.252	16543	14390	0	552
-0.180	-2.885	16543	14646	0	552
-0.180	-6.924	16538	14832	0	552
1.046	-11.612	16536	14842	0	552
2.128	-11.756	16523	14587	0	552
2.200	-11.648	16506	13870	0	552
1.479	-10.566	16482	12848	0	552
-2.416	-11.396	16462	12052	0	552
-7.645	-17.815	16442	11591	0	552
-12.802	-23.116	16425	11286	0	552
-16.228	-27.732	16408	11218	0	552
-18.608	-30.076	16400	11404	0	552
-17.129	-26.758	16385	11718	0	552
-17.346	-27.047	16378	11994	0	552
-17.454	-27.335	16368	12318	0	552
-21.168	-29.030	16368	12838	0	552
-25.820	-31.771	16365	13595	0	552
-27.155	-31.662	16365	14479	0	552
-26.253	-31.807	16365	15255	0	552
-22.575	-30.869	16365	15903	0	552
-15.146	-29.679	16370	16560	0	552
-15.471	-30.364	16375	17327	0	552
-17.634	-29.282	16384	18161	0	552
-24.270	-29.823	16388	18849	0	552
-26.794	-30.472	16385	18987	0	552
-27.227	-31.987	16383	18584	0	552
-25.568	-34.511	16378	18240	0	552
-23.188	-35.485	16375	18201	0	552
-22.250	-33.790	16375	18152	0	552
-21.962	-29.282	16373	18014	0	552
-22.755	-23.693	16370	17916	0	552
-18.103	-19.834	16365	17828	0	552
-13.704	-15.759	16365	17818	0	552
-8.114	-16.480	16370	18073	0	552
-6.167	-14.497	16373	18348	0	552
-7.862	-15.975	16368	18240	0	552
-14.966	-17.238	16360	17690	0	552
-21.673	-21.962	16353	16943	0	552
-26.722	-28.922	16340	16296	0	552
-29.066	-32.564	16328	15756	0	552
-26.506	-33.790	16314	15098	0	552
-25.820	-32.348	16294	14184	0	552
-22.719	-27.515	16271	13280	0	552
-20.267	-25.460	16255	12711	0	552
-16.589	-22.899	16242	12544	0	552
-17.238	-23.368	16232	12681	0	552
-16.697	-23.188	16227	12907	0	552
-19.185	-19.942	16217	13074	0	552
-17.779	-19.185	16211	13359	0	552
-16.228	-16.516	16211	13880	0	552
-12.225	-17.851	16208	14440	0	552
-10.206	-19.618	16203	14862	0	552
-10.963	-21.745	16201	15147	0	552
-11.432	-20.700	16198	15471	0	552
-10.061	-17.382	16198	15962	0	552
-9.809	-13.091	16203	16501	0	552
-6.708	-11.360	16201	16953	0	552
-2.957	-7.465	16206	17238	0	552
3.498	-2.993	16203	17395	0	552
11.504	1.983	16201	17562	0	552
14.064	0.144	16206	17847	0	552
10.927	-6.780	16211	18220	0	552
3.426	-17.166	16211	18466	0	552
-3.570	-20.736	16215	18564	0	552
-3.642	-17.959	16217	18653	0	552
0.216	-8.547	16222	18829	0	552
3.498	-2.164	16227	19026	0	552
4.940	1.262	16225	18977	0	552
4.508	1.551	16217	18397	0	552
5.265	2.849	16206	17484	0	552
11.360	5.698	16201	16796	0	552
17.634	7.825	16193	16452	0	552
21.349	6.852	16186	16188	0	552
23.080	4.400	16181	15962	0	552
20.591	0.252	16178	15923	0	552
14.389	-2.957	16178	16011	0	552
11.215	-3.137	16176	16168	0	552
9.556	-0.108	16183	16452	0	552
9.701	3.931	16188	16924	0	552
14.713	5.950	16193	17366	0	552
18.536	8.150	16193	17552	0	552
19.113	5.662	16198	17533	0	552
17.634	3.137	16201	17523	0	552
9.484	1.046	16201	17602	0	552
6.455	0.829	16206	17719	0	552
6.960	2.056	16211	17857	0	552
11.756	4.111	16212	18004	0	552
17.418	4.472	16222	18181	0	552
17.418	0.325	16227	18446	0	552
6.924	-6.744	16240	18771	0	552
-2.813	-12.838	16245	18987	0	552
-12.514	-13.956	16257	19124	0	552
-11.071	-13.776	16270	19527	0	552
-6.383	-11.900	16291	20273	0	552
-2.200	-9.917	16311	21059	0	552
-1.190	-12.189	16328	21570	0	552
-2.164	-15.543	16345	21747	0	552
-6.094	-16.841	16363	21835	0	552
-6.383	-19.510	16380	22012	0	552
-9.340	-19.654	16400	22277	0	552
-12.982	-20.700	16420	22523	0	552
-18.788	-23.404	16440	22602	0	552
-20.303	-23.621	16454	22415	0	552
-22.214	-23.873	16467	22061	0	552
-21.168	-23.873	16484	21727	0	552
-20.736	-21.565	16497	21472	0	552
-19.510	-22.395	16511	21167	1	940
-18.897	-26.974	16526	20863	0	940
-18.788	-28.345	16541	20686	0	940
-15.218	-28.237	16560	20676	0	940
-15.362	-26.470	16575	20607	0	940
-13.920	-22.539	16587	20244	0	940
-13.740	-19.726	16597	19694	0	940
-15.687	-21.421	16607	19144	0	940
-15.831	-24.270	16616	18653	0	940
-17.490	-28.020	16626	18250	0	940
-15.471	-29.102	16634	17847	0	940
-17.238	-27.660	16634	17140	0	940
-16.552	-26.866	16629	16051	0	940
-18.247	-23.765	16624	14891	0	940
-15.939	-21.385	16616	13948	0	940
-13.920	-20.772	16612	13339	0	940
-12.477	-17.526	16616	13133	0	940
-12.658	-20.664	16616	13123	0	940
-18.500	-22.791	16616	13143	0	940
-20.411	-28.525	16621	13182	0	940
-23.404	-30.184	16621	13212	0	940
-22.106	-30.184	16621	13202	0	940
-20.916	-27.984	16621	13084	0	940
-20.772	-24.053	16619	12917	0	940
-19.690	-20.772	16616	12858	0	940
-19.834	-17.634	16616	12946	0	940
-14.785	-16.841	16619	13143	0	940
-9.845	-15.038	16616	13310	0	940
-4.580	-15.687	16614	13271	0	940
-2.921	-16.048	16612	13182	0	940
-5.373	-18.356	16614	13467	0	940
-9.484	-20.916	16619	14066	0	940
-12.874	-23.368	16624	14567	0	940
-12.153	-23.729	16624	14783	0	940
-7.862	-18.175	16621	14744	0	940
-5.337	-13.992	16621	14607	0	940
-3.282	-10.891	16616	14587	0	940
-3.029	-7.789	16616	14734	0	940
-3.570	-9.989	16616	14960	0	940
-2.849	-11.179	16616	15088	0	940
-3.426	-12.550	16616	15176	0	940
-4.760	-15.651	16621	15392	0	940
-7.285	-14.713	16621	15726	0	940
-8.402	-16.552	16624	15972	0	940
-10.674	-15.254	16624	16051	0	940
-10.783	-14.894	16624	16070	0	940
-11.071	-16.733	16624	16119	0	940
-11.107	-16.012	16621	16109	0	940
-7.140	-14.821	16619	15942	0	940
0.613	-7.681	16612	15638	0	940
8.619	-1.731	16602	15225	0	940
13.163	3.282	16597	14842	0	940
16.661	5.301	16595	14803	0	940
16.408	2.777	16597	15058	0	940
14.785	1.226	16592	15274	0	940
13.054	1.911	16585	15225	0	940
11.360	3.931	16572	14685	0	940
10.602	6.455	16556	13840	0	940
8.655	6.131	16541	13290	0	940
11.107	7.357	16536	13271	0	940
13.487	8.439	16528	13575	0	940
19.546	13.271	16531	13988	0	940
21.745	19.329	16528	14469	0	940
23.549	25.893	16531	14990	0	940
24.198	26.686	16531	15461	0	940
19.942	24.270	16533	15825	0	940
19.365	16.913	16533	16149	0	940
21.277	13.631	16536	16462	0	940
21.637	13.523	16536	16727	0	940
24.342	13.704	16536	16934	0	940
21.277	16.985	16541	17120	0	940
19.401	15.146	16536	17199	0	940
19.473	15.651	16531	16973	0	940
20.555	15.687	16521	16531	0	940
24.414	19.221	16516	16168	0	940
26.794	16.552	16508	16011	0	940
26.181	13.379	16506	15913	0	940
26.470	12.117	16497	15618	0	940
30.581	15.759	16484	15137	0	940
37.973	27.227	16477	14813	0	940
45.943	37.649	16469	14793	0	940
49.910	42.806	16464	14970	0	940
49.477	40.642	16462	15117	0	940
44.717	33.105	16457	15137	0	940
38.045	25.712	16452	15157	0	940
32.600	23.008	16447	15274	0	940
28.453	22.106	16442	15343	0	940
24.306	22.034	16438	15343	0	940
21.277	20.952	16433	15383	0	940
18.392	13.343	16433	15559	0	940
16.589	5.301	16430	15893	0	940
14.605	1.587	16433	16286	0	940
14.785	-1.947	16433	16541	0	940
13.307	-1.262	16433	16659	0	940
10.386	-1.479	16430	16816	0	940
7.537	-4.832	16433	17120	0	940
4.544	-7.717	16440	17552	0	940
4.436	-7.465	16444	17955	0	940
5.590	-4.580	16447	18161	0	940
4.760	-2.741	16447	18191	0	940
3.101	-3.570	16447	18152	0	940
1.659	-4.724	16449	18044	0	940
0.721	-9.196	16449	17867	0	940
1.659	-9.520	16449	17788	0	940
2.416	-9.340	16449	17877	0	940
1.875	-9.052	16454	17995	0	940
-2.524	-12.946	16459	18073	0	940
-5.085	-16.012	16459	18053	0	940
-8.006	-19.257	16457	17877	0	940
-6.347	-20.303	16454	17533	0	940
-3.426	-18.031	16449	17042	0	940
-1.551	-14.317	16442	16492	0	940
-1.442	-9.052	16435	16051	0	940
-6.527	-9.701	16433	15717	0	940
-12.477	-11.179	16423	15432	0	940
-20.772	-16.408	16415	15098	0	940
-24.486	-23.332	16403	14538	0	940
-23.765	-26.758	16385	13762	0	940
-21.385	-23.080	16373	13094	0	940
-14.028	-20.772	16358	12632	0	940
-13.523	-19.185	16340	12239	0	940
-15.435	-23.440	16321	11748	0	940
-22.539	-29.354	16304	11208	0	940
-25.352	-32.600	16284	10942	0	940
-26.578	-33.646	16276	11070	0	940
-24.666	-28.417	16265	11473	0	940
-21.565	-26.506	16255	11807	0	940
-20.916	-26.109	16242	11974	0	940
-18.320	-24.558	16235	12367	0	940
-13.091	-18.247	16240	13202	0	940
-6.094	-13.631	16242	14194	0	940
-4.652	-8.943	16240	15019	0	940
-4.327	-9.773	16242	15579	0	940
-6.347	-15.002	16235	15913	0	940
-8.835	-15.723	16230	16001	0	940
-6.527	-14.317	16220	15864	0	940
-5.662	-11.792	16212	15726	0	940
-9.953	-12.369	16203	15746	0	940
-15.326	-18.824	16203	15933	0	940
-20.303	-25.424	16201	16257	0	940
-21.781	-29.968	16198	16727	0	940
-18.428	-29.463	16206	17287	0	940
-11.396	-26.253	16208	17749	0	940
-5.878	-20.700	16206	18044	0	940
-6.744	-17.093	16203	18014	0	940
-12.261	-18.860	16196	17602	0	940
-21.277	-21.096	16183	17091	0	940
-31.338	-28.669	16176	16727	0	940
-33.285	-33.177	16171	16580	0	940
-30.364	-34.944	16168	16708	0	940
-26.001	-33.790	16168	17081	0	940
-19.942	-28.597	16178	17592	0	940
-17.093	-23.585	16181	18044	0	940
-11.720	-20.375	16188	18368	0	940
-10.783	-14.894	16188	18613	0	940
-9.376	-16.084	16196	18839	0	940
-10.855	-15.038	16203	19055	0	940
-12.045	-16.192	16203	19193	0	940
-13.163	-13.091	16211	19252	0	940
-11.251	-13.307	16215	19262	0	940
-8.402	-11.432	16217	19272	0	940
-8.835	-10.206	16230	19429	0	940
-7.898	-10.674	16240	19930	0	940
-8.475	-12.514	16257	20509	0	940
-12.045	-14.966	16262	20637	0	940
-19.365	-21.385	16270	20264	0	940
-25.604	-28.525	16270	19743	0	940
-31.410	-32.961	16271	19330	0	940
-34.151	-33.105	16274	19046	0	940
-30.184	-29.138	16274	18712	1	676
-24.378	-24.125	16274	18161	0	676
-17.346	-17.923	16271	17592	0	676
-14.425	-18.392	16279	17513	0	676
-12.297	-17.743	16294	17985	0	676
-15.254	-20.375	16306	18623	0	676
-17.779	-23.837	16321	19055	0	676
-19.726	-22.034	16330	19213	0	676
-18.067	-21.673	16343	19262	0	676
-15.759	-17.129	16353	19340	0	676
-12.982	-15.326	16365	19458	0	676
-10.530	-12.514	16378	19556	0	676
-11.468	-11.792	16388	19596	0	676
-10.242	-10.927	16400	19625	0	676
-7.717	-8.511	16415	19772	0	676
-5.770	-8.078	16430	20038	0	676
-1.551	-6.744	16449	20313	0	676
2.092	-6.094	16467	20460	0	676
3.967	-7.104	16479	20568	0	676
3.390	-5.554	16503	20765	0	676
4.183	-7.753	16526	21108	0	676
3.606	-8.799	16546	21462	0	676
3.859	-9.232	16567	21619	0	676
7.140	-9.629	16587	21590	0	676
10.891	-6.383	16605	21501	0	676
12.586	-3.173	16621	21423	0	676
14.966	0.433	16639	21295	0	676
11.828	2.200	16656	20971	0	676
11.179	1.695	16669	20509	0	676
9.448	0.541	16683	20048	0	676
9.773	-0.180	16695	19625	0	676
10.963	-0.469	16705	19252	0	676
14.677	1.046	16718	18908	0	676
14.858	2.272	16729	18564	0	676
16.228	3.210	16737	18103	0	676
16.120	6.167	16744	17513	0	676
13.163	7.429	16747	16884	0	676
14.281	9.376	16752	16257	0	676
13.307	8.619	16754	15628	0	676
15.398	4.400	16749	15019	0	676
15.146	0.000	16752	14420	0	676
10.963	-2.993	16754	13948	0	676
7.357	-5.914	16757	13880	0	676
2.272	-3.859	16767	14125	0	676
4.472	2.019	16769	14135	0	676
11.792	9.232	16759	13595	0	676
21.998	17.887	16752	12691	0	676
25.965	22.899	16742	11797	0	676
26.037	23.909	16728	11129	0	676
21.421	20.483	16715	10658	0	676
15.254	19.618	16700	10098	0	676
17.238	22.791	16678	9273	0	676
21.385	27.119	16654	8280	0	676
27.912	30.040	16624	7259	0	676
31.122	27.371	16592	6286	0	676
28.705	22.503	16557	5402	0	676
25.568	16.264	16523	4705	0	676
24.089	18.392	16498	4479	0	676
26.974	21.673	16482	4832	0	676
28.020	23.332	16462	5618	0	676
28.345	21.385	16452	6620	0	676
21.998	13.487	16444	7671	0	676
15.759	8.727	16435	8772	0	676
12.982	11.937	16433	9960	0	676
15.218	16.949	16433	11286	0	676
22.106	25.712	16433	12642	0	676
26.506	26.542	16435	13811	0	676
23.837	21.601	16438	14823	0	676
20.050	16.048	16440	15815	0	676
12.081	12.333	16444	16875	0	676
9.484	12.117	16454	17975	0	676
8.943	15.795	16459	18859	0	676
10.891	15.074	16457	19144	0	676
14.425	16.516	16452	18987	0	676
17.851	14.966	16452	18996	0	676
25.820	19.690	16457	19360	0	676
31.302	23.585	16459	19753	0	676
34.944	28.201	16464	20077	0	676
31.410	29.679	16472	20411	0	676
25.856	26.578	16479	20745	1	316
22.142	19.654	16484	21000	0	316
17.129	14.930	16492	21108	0	316
16.985	11.756	16494	21108	0	316
14.605	10.061	16501	21010	0	316
15.507	11.323	16503	20725	0	316
15.110	11.612	16501	20303	0	316
14.713	9.773	16501	19851	0	316
12.189	9.629	16494	19311	0	316
7.537	7.898	16489	18574	0	316
7.140	6.022	16482	17759	0	316
8.294	5.337	16472	17120	0	316
10.530	4.688	16467	16649	0	316
11.900	2.128	16462	16247	0	316
10.422	-0.288	16454	15874	0	316
5.554	-3.282	16444	15461	0	316
3.570	-4.616	16438	15029	0	316
1.983	-5.662	16430	14773	0	316
3.282	-2.777	16425	14724	0	316
4.436	0.974	16423	14764	0	316
2.669	4.796	16415	14715	0	316
3.895	4.183	16408	14518	0	316
0.144	3.642	16403	14430	0	316
-1.767	-2.633	16400	14626	0	316
-1.983	-12.081	16403	15039	0	316
-4.616	-16.589	16403	15451	0	316
-5.481	-15.218	16405	15717	0	316
-5.590	-10.422	16400	15766	0	316
-4.075	-3.390	16393	15530	0	316
-0.144	0.505	16385	15137	0	316
2.669	-1.298	16380	14901	0	316
3.065	-6.094	16373	14862	0	316
0.325	-9.809	16368	14891	0	316
-3.895	-12.405	16365	15088	0	316
-8.042	-14.677	16368	15530	0	316
-9.124	-16.769	16370	16021	0	316
-12.009	-20.050	16368	16276	0	316
-13.091	-23.476	16368	16365	0	316
-14.064	-23.224	16368	16442	0	316
-14.497	-22.935	16373	16639	0	316
-12.838	-21.168	16373	16904	0	316
-9.484	-19.257	16373	17120	0	316
-11.576	-22.322	16375	17277	0	316
-12.874	-23.657	16378	17444	0	316
-13.343	-24.594	16380	17680	0	316
-17.526	-25.748	16385	17975	0	316
-18.103	-24.991	16390	18299	0	316
-22.899	-27.948	16398	18604	0	316
-24.450	-29.463	16405	18820	0	316
-26.181	-29.535	16410	18947	0	316
-24.306	-26.686	16415	19036	0	316
-21.060	-20.736	16420	19026	0	316
-17.346	-18.644	16420	18761	0	316
-18.608	-15.795	16415	18112	0	316
-18.211	-16.300	16403	17160	0	316
-20.267	-15.507	16393	16286	0	316
-20.627	-17.057	16383	15599	0	316
-23.080	-18.428	16373	15058	0	316
-26.650	-24.125	16363	14538	0	316
-27.804	-26.181	16348	13870	0	316
-30.400	-27.335	16330	13113	0	316
-28.777	-26.001	16319	12583	0	316
-25.929	-25.027	16306	12406	0	316
-21.096	-24.847	16296	12465	0	316
-19.185	-27.515	16289	12534	0	316
-20.555	-27.732	16281	12563	0	316
-18.788	-27.876	16270	12671	0	316
-20.880	-21.890	16265	12868	0	316
-18.392	-18.933	16255	13015	0	316
-15.939	-15.218	16250	13094	0	316
-10.746	-13.127	16237	13182	0	316
-11.396	-14.749	16232	13349	0	316
-13.920	-18.211	16225	13644	0	316
-15.362	-19.041	16222	14047	0	316
-17.743	-19.618	16217	14498	0	316
-14.966	-16.264	16217	14921	0	316
-13.235	-15.867	16217	15314	0	316
-10.097	-14.064	16212	15736	0	316
-8.330	-18.103	16217	16247	0	316
-5.806	-20.411	16217	16757	0	316
-5.121	-22.683	16220	17130	0	316
-4.724	-20.231	16222	17376	0	316
-7.970	-21.457	16222	17651	0	316
-14.172	-24.883	16227	18034	0	316
-20.772	-28.777	16230	18378	0	316
-22.358	-32.564	16230	18397	0	316
-22.827	-31.085	16215	17847	0	316
-21.818	-27.479	16208	17002	0	316
-18.392	-25.352	16201	16452	0	316
-18.031	-23.801	16191	16286	0	316
-15.579	-23.440	16186	16159	0	316
-14.966	-22.719	16178	15982	0	316
-10.783	-17.093	16171	15805	0	316
-9.196	-15.579	16161	15628	0	316
-9.088	-13.523	16158	15441	0	316
-14.028	-16.408	16149	15274	0	316
-16.949	-19.798	16144	15216	0	316
-23.404	-23.693	16139	15225	0	316
-24.450	-22.467	16129	15216	0	316
-22.972	-18.969	16124	15206	0	316
-17.418	-13.956	16122	15314	0	316
-10.638	-10.314	16117	15500	0	316
-5.626	-8.727	16112	15540	0	316
-7.176	-14.208	16107	15461	0	316
-12.369	-18.211	16104	15540	0	316
-21.060	-25.171	16102	15834	0	316
-28.525	-29.318	16104	16227	0	316
-28.525	-30.472	16107	16668	0	316
-20.591	-27.732	16107	16993	0	316
-14.749	-23.981	16109	17169	0	316
-11.143	-20.880	16114	17464	0	316
-14.785	-20.375	16122	18024	0	316
-20.231	-22.539	16132	18761	0	316
-24.955	-21.024	16147	19507	0	316
-20.519	-20.664	16161	20195	0	316
-13.307	-15.867	16183	20961	0	316
-6.419	-13.054	16201	21845	0	316
-3.354	-11.432	16225	22641	0	316
-7.104	-11.432	16247	23201	0	316
-10.206	-13.523	16265	23535	0	316
-11.648	-13.523	16284	23800	0	316
-10.710	-14.064	16309	24075	0	316
-7.717	-13.163	16330	24311	0	316
-3.318	-10.819	16350	24439	0	316
0.505	-10.422	16370	24429	0	316
2.200	-9.088	16390	24380	0	316
3.534	-9.340	16415	24380	0	316
1.551	-8.402	16440	24419	0	316
-2.236	-9.196	16459	24370	1	512
-4.940	-10.710	16482	24095	0	512
-6.383	-12.081	16501	23633	0	512
-3.534	-15.002	16516	23103	0	512
-0.505	-12.225	16536	22602	0	512
3.354	-6.419	16548	22022	0	512
7.104	-1.551	16556	21217	0	512
8.366	2.488	16565	20264	0	512
4.977	1.298	16572	19380	0	512
0.325	-3.462	16580	18662	0	512
-3.318	-9.592	16590	18053	0	512
-3.354	-10.314	16592	17376	0	512
1.983	-7.176	16595	16600	0	512
8.006	0.000	16597	15854	0	512
17.166	9.629	16600	15166	0	512
20.736	14.605	16600	14587	0	512
25.171	16.913	16597	14027	0	512
25.748	14.497	16597	13457	0	512
27.587	12.730	16590	12858	0	512
28.994	16.228	16582	12072	0	512
32.456	21.168	16567	11178	0	512
37.432	27.624	16557	10481	0	512
41.003	30.328	16551	10049	0	512
42.481	29.895	16533	9705	0	512
42.950	26.037	16521	9263	0	512
41.904	24.234	16503	8762	0	512
41.580	23.909	16492	8487	0	512
38.406	19.365	16482	8536	0	512
36.747	14.930	16469	8801	0	512
33.069	8.366	16462	9066	0	512
31.230	3.318	16454	9331	0	512
30.761	4.724	16449	9862	0	512
32.997	10.169	16447	10707	0	512
33.321	14.172	16449	11591	0	512
36.747	17.454	16449	12337	0	512
36.495	15.723	16444	12878	0	512
37.036	11.468	16442	13349	0	512
34.367	9.701	16442	13781	0	512
27.263	7.645	16435	14027	0	512
22.358	7.862	16430	14047	0	512
20.195	7.429	16420	14115	0	512
18.392	8.294	16418	14390	0	512
21.060	6.563	16418	14862	0	512
21.601	6.888	16418	15432	0	512
15.867	6.203	16420	15992	0	512
11.540	4.075	16423	16413	0	512
7.609	2.633	16425	16767	0	512
5.590	0.144	16430	17218	0	512
4.400	-0.865	16435	17798	0	512
5.914	-1.082	16438	18289	0	512
5.734	0.577	16442	18495	0	512
7.573	0.685	16444	18545	0	512
7.681	-0.361	16452	18692	0	512
6.527	-3.246	16454	19055	0	512
2.669	-9.340	16469	19507	0	512
-3.390	-13.307	16479	19949	0	512
-9.556	-15.074	16484	20264	0	512
-12.297	-17.274	16494	20254	0	512
-11.071	-14.966	16497	19959	0	512
-9.268	-14.389	16494	19606	0	512
-7.068	-12.189	16497	19222	0	512
-7.104	-10.602	16494	18790	0	512
-7.681	-13.956	16497	18348	0	512
-9.773	-14.858	16492	17886	0	512
-9.412	-16.625	16487	17464	0	512
-8.835	-19.185	16497	17454	0	512
-9.052	-16.877	16501	17857	0	512
-11.432	-18.788	16508	18044	0	512
-10.278	-19.473	16503	17592	0	512
-8.763	-22.142	16494	16747	0	512
-9.592	-23.693	16487	15903	0	512
-10.458	-24.630	16474	15196	0	512
-12.658	-25.532	16462	14577	0	512
-19.041	-25.965	16447	13821	0	512
-20.555	-25.352	16430	12887	0	512
-21.998	-20.159	16410	12023	0	512
-19.041	-19.654	16390	11345	0	512
-19.041	-18.283	16375	10874	0	512
-15.146	-21.349	16358	10589	0	512
-15.146	-23.296	16340	10422	0	512
-13.920	-26.289	16330	10441	0	512
-16.841	-26.974	16319	10726	0	512
-20.483	-28.633	16314	11208	0	512
-28.164	-35.737	16306	11758	0	512
-33.502	-41.435	16301	12318	0	512
-34.259	-42.661	16301	12937	0	512
-25.965	-36.206	16299	13673	0	512
-15.795	-23.693	16299	14479	0	512
-4.688	-15.146	16301	15166	0	512
-3.498	-10.710	16304	15618	0	512
-6.131	-13.595	16299	15962	0	512
-10.097	-17.887	16301	16384	0	512
-10.602	-17.057	16306	16973	0	512
-5.049	-15.182	16306	17552	0	512
-2.524	-11.720	16309	17867	0	512
-3.137	-11.864	16311	17955	0	512
-8.655	-15.146	16311	18083	0	512
-14.281	-16.120	16314	18397	0	512
-19.473	-17.923	16321	18839	0	512
-19.473	-17.310	16324	19114	0	512
-17.815	-19.726	16321	18810	0	512
-13.992	-21.998	16299	17700	0	512
-9.304	-25.316	16281	16326	0	512
-8.907	-26.902	16267	15383	0	512
-9.953	-24.558	16250	14852	0	512
-14.100	-23.404	16240	14498	0	512
-18.500	-24.919	16227	14282	0	512
-16.733	-24.666	16220	14263	0	512
-13.740	-24.739	16211	14243	0	512
-8.078	-22.178	16191	13762	0	512
-6.131	-17.202	16166	12730	0	512
-7.934	-16.877	16142	11640	0	512
-15.038	-18.175	16112	10805	0	512
-18.716	-22.286	16085	10206	0	512
-21.926	-28.417	16065	9950	0	512
-18.572	-28.525	16048	10068	0	512
-14.281	-26.325	16036	10412	0	512
-8.619	-23.440	16021	10844	0	512
-4.796	-18.933	16009	11335	0	512
-2.921	-14.966	16004	11974	0	512
0.397	-10.350	15999	12848	0	512
0.144	-8.366	15999	13899	0	512
-0.216	-4.580	15999	14891	0	512
-1.046	-5.806	15996	15687	0	512
-4.688	-9.340	16001	16492	0	512
-7.934	-16.372	16011	17435	0	512
-12.225	-19.798	16011	18279	0	512
-12.117	-20.916	16014	18761	0	512
-9.340	-15.831	16019	19036	0	512
-4.544	-11.179	16021	19497	0	512
-2.344	-6.635	16031	20136	0	512
-2.524	-6.671	16039	20617	0	512
-4.111	-9.845	16043	20794	0	512
-4.219	-11.973	16045	20843	0	512
-1.262	-7.970	16053	20961	0	512
1.839	-3.678	16063	21226	0	512
2.921	0.505	16073	21511	0	512
2.741	-0.216	16080	21668	0	512
1.911	-2.056	16088	21649	0	512
2.885	-6.599	16097	21590	0	512
6.383	-7.501	16107	21668	0	512
10.602	-8.186	16124	21953	0	512
12.117	-8.439	16137	22336	0	512
13.235	-10.783	16156	22592	0	512
10.314	-10.746	16171	22739	0	512
8.511	-10.242	16191	22896	0	512
11.323	-4.436	16208	23122	0	512
15.290	-1.803	16230	23368	0	512
17.382	-1.767	16250	23495	0	512
17.959	-4.364	16270	23486	0	512
12.658	-8.402	16286	23387	0	512
10.061	-11.684	16306	23279	0	512
10.530	-10.927	16328	23181	0	512
14.281	-8.583	16345	23103	1	612
22.899	-4.219	16365	22945	0	612
