neuroNicle FX2
D3F25R12
Bluetooth SPP
2023년 3월 30일 목요일
오후 1:13
time interval = 4msec
EEG1	EEG2	PPG	sdPPG	pulse	peak_interval(msec)
-19.582	-55.067	19955	18921	0	648
-23.549	-56.978	20099	18578	0	648
-26.614	-58.565	20230	18234	0	648
-23.909	-55.463	20361	17917	0	648
-17.851	-48.539	20479	17620	0	648
-10.963	-38.983	20591	17339	0	648
-0.541	-31.987	20722	17086	0	648
9.340	-22.827	20820	16871	0	648
19.726	-18.897	20938	16667	0	648
23.765	-16.444	21049	16456	0	648
26.542	-14.172	21115	16258	0	648
28.597	-10.097	21200	16090	0	648
29.318	-8.943	21298	15956	0	648
30.797	-5.806	21364	15830	0	648
31.554	-5.373	21429	15675	0	648
31.590	-3.678	21475	15497	0	648
36.603	0.577	21495	15324	0	648
48.900	9.989	21495	15166	0	648
63.000	16.985	21508	15024	0	648
74.432	21.565	21528	14893	0	648
73.891	17.815	21508	14769	0	648
68.049	11.648	21462	14629	0	648
55.536	3.426	21397	14436	0	648
46.700	-4.039	21311	14201	0	648
39.668	-7.176	21200	14002	0	648
38.911	-6.131	21134	13883	0	648
38.803	-0.216	21036	13821	0	648
38.406	5.049	20938	13749	0	648
37.685	6.094	20807	13641	0	648
33.177	1.731	20676	13535	0	648
24.811	-6.852	20545	13462	0	648
22.106	-11.864	20394	13424	0	648
25.640	-12.045	20263	13403	0	648
34.980	-6.744	20099	13385	0	648
42.373	-3.498	19955	13385	0	648
41.507	-6.816	19804	13434	0	648
29.030	-16.625	19673	13537	0	648
15.723	-25.207	19562	13656	0	648
10.927	-27.732	19431	13754	0	648
20.627	-21.132	19280	13857	0	648
42.517	-7.609	19169	13976	0	648
60.512	3.714	19018	14087	0	648
71.186	6.347	18887	14175	0	648
68.878	-0.252	18743	14265	0	648
58.637	-10.746	18592	14389	0	648
50.162	-18.247	18480	14523	0	648
45.150	-21.132	18330	14621	0	648
45.078	-19.906	18199	14699	0	648
45.871	-20.411	18068	14825	0	648
42.229	-24.955	17989	15011	0	648
34.872	-30.581	17891	15220	0	648
29.535	-35.521	17806	15409	0	648
23.693	-36.567	17707	15577	0	648
21.457	-35.954	17674	15762	0	648
18.752	-34.259	17629	15987	0	648
17.490	-32.816	17596	16227	0	648
13.451	-32.961	17576	16443	0	648
13.271	-33.826	17543	16629	0	648
10.169	-39.488	17543	16833	0	648
4.580	-44.789	17563	17034	0	648
-4.724	-49.730	17530	17160	0	648
-14.569	-51.100	17511	17207	0	648
-17.310	-48.720	17498	17238	0	648
-15.687	-47.746	17445	17274	0	648
-8.835	-46.268	17465	17318	0	648
-3.750	-49.766	17445	17382	0	648
-6.383	-52.795	17478	17450	0	648
-11.792	-54.418	17445	17475	0	648
-18.824	-54.382	17412	17442	0	648
-25.965	-49.333	17399	17357	0	648
-28.994	-46.448	17334	17235	0	648
-26.037	-42.048	17281	17099	0	648
-20.231	-39.091	17203	16959	0	648
-12.550	-36.314	17150	16827	0	648
-2.705	-33.574	17085	16693	0	648
1.875	-34.439	16954	16513	0	648
-0.938	-38.082	16855	16299	0	648
-6.816	-46.123	16757	16113	0	648
-10.819	-52.578	16646	15995	0	648
-11.071	-53.155	16560	15928	0	648
-6.599	-50.847	16482	15860	0	648
-0.325	-43.455	16371	15765	0	648
1.839	-38.045	16273	15675	0	648
-0.541	-34.367	16175	15626	0	648
-5.085	-35.160	16090	15626	0	648
-8.402	-36.603	16024	15659	0	648
-5.301	-41.868	15959	15708	0	648
0.685	-42.950	15926	15770	0	648
6.311	-41.471	15880	15871	0	648
9.304	-37.865	15860	16015	0	648
9.629	-32.889	15860	16181	0	648
9.268	-30.328	15880	16333	0	648
18.356	-27.010	15880	16476	0	648
32.997	-24.053	15893	16636	0	648
43.563	-20.519	15945	16815	0	648
44.861	-22.358	16011	17003	0	648
30.148	-33.249	16044	17168	0	648
11.576	-47.422	16077	17251	0	648
-1.226	-54.850	16077	17225	0	648
-0.649	-50.703	16044	17132	0	648
9.016	-35.160	16024	17026	0	648
20.700	-19.978	16011	16957	0	648
29.030	-11.504	15991	16926	0	648
28.850	-15.939	15959	16882	0	648
28.814	-23.044	15926	16778	0	648
27.876	-28.020	15860	16621	0	648
29.751	-26.217	15795	16474	0	648
32.384	-17.021	15762	16382	0	648
34.980	-8.547	15729	16338	0	648
36.170	-1.983	15683	16307	0	648
32.528	-2.560	15651	16250	0	648
29.823	-8.042	15598	16191	0	648
25.424	-11.792	15552	16178	0	648
26.109	-14.136	15565	16204	0	648
29.102	-13.451	15519	16227	0	648
33.538	-10.638	15500	16217	0	648
32.636	-13.091	15454	16178	0	648
27.840	-16.949	15402	16103	0	648
16.841	-23.909	15323	16010	0	648
11.179	-28.128	15270	15953	0	648
8.655	-27.515	15205	15917	0	648
11.468	-21.962	15159	15889	0	648
14.461	-14.425	15126	15886	0	648
12.802	-10.097	15074	15922	0	648
5.878	-10.278	15041	15971	0	648
2.019	-15.326	15008	16000	0	648
-2.200	-19.185	14976	16005	0	648
-3.462	-22.575	14930	16008	0	648
-4.255	-21.926	14864	15987	0	648
-5.301	-23.549	14799	15946	0	648
-8.763	-24.811	14766	15946	0	648
-10.025	-30.328	14766	16026	0	648
-9.556	-36.314	14766	16160	0	648
-9.737	-38.586	14766	16302	0	648
-9.052	-38.514	14779	16417	0	648
-8.835	-36.928	14831	16556	0	648
-8.366	-34.764	14877	16758	0	648
-8.583	-33.934	14995	17026	0	648
-6.960	-33.610	15139	17341	0	648
-3.859	-31.302	15270	17661	0	648
2.741	-28.561	15467	17974	0	648
9.268	-25.243	15651	18291	0	648
11.684	-24.198	15893	18624	0	648
9.484	-24.450	16142	18967	0	648
-2.741	-28.020	16397	19277	0	648
-15.002	-33.682	16659	19546	0	648
-24.414	-37.144	16954	19793	0	648
-24.991	-40.209	17268	20018	0	648
-16.661	-36.964	17563	20212	0	648
-7.465	-32.889	17891	20403	0	648
-0.252	-29.210	18231	20588	0	648
-1.370	-26.938	18579	20730	0	648
-8.222	-29.427	18906	20798	0	648
-15.435	-29.138	19214	20808	0	648
-20.736	-31.446	19562	20808	0	648
-18.788	-32.600	19903	20792	0	648
-15.110	-31.843	20197	20671	0	648
-5.734	-29.210	20414	20385	0	648
1.442	-27.010	20610	19977	0	648
7.753	-22.863	20787	19525	1	648
9.845	-22.178	20918	19086	0	648
7.537	-25.027	21082	18673	0	648
5.013	-25.604	21180	18255	0	648
-0.325	-27.696	21279	17788	0	648
-2.452	-29.174	21331	17305	0	648
-5.554	-30.472	21364	16848	0	648
-4.183	-29.535	21429	16427	0	648
-1.226	-28.922	21429	16021	0	648
2.705	-22.755	21397	15600	0	648
5.734	-17.166	21377	15200	0	648
1.262	-14.533	21364	14856	0	648
-3.678	-16.336	21311	14585	0	648
-14.353	-20.014	21298	14374	0	648
-18.860	-22.755	21233	14154	0	648
-20.411	-24.342	21115	13855	0	648
-16.480	-22.503	21003	13512	0	648
-14.353	-24.125	20853	13248	0	648
-11.937	-26.181	20754	13104	0	648
-10.386	-28.056	20656	13018	0	648
-12.297	-26.001	20545	12975	0	648
-11.468	-20.952	20427	12967	0	648
-9.052	-11.432	20348	12998	0	648
-8.655	-7.970	20230	13060	0	648
-9.376	-8.547	20152	13153	0	648
-12.441	-12.802	20066	13290	0	648
-17.706	-19.257	20001	13481	0	648
-21.529	-21.421	19935	13677	0	648
-23.945	-21.024	19857	13832	0	648
-22.395	-16.589	19791	13966	0	648
-21.565	-14.749	19706	14123	0	648
-21.529	-11.828	19640	14304	0	648
-19.185	-5.445	19575	14479	0	648
-19.437	0.036	19509	14624	0	648
-17.093	7.465	19411	14740	0	648
-21.565	9.881	19345	14862	0	648
-29.787	3.967	19280	15009	0	648
-40.389	-5.517	19234	15182	0	648
-46.736	-12.369	19182	15349	0	648
-48.467	-14.858	19116	15486	0	648
-44.068	-13.199	19083	15608	0	648
-39.740	-12.225	19037	15739	0	648
-41.652	-21.781	18972	15873	0	648
-46.412	-33.898	18939	15971	0	648
-51.965	-47.061	18854	16033	0	648
-59.647	-56.762	18821	16095	0	648
-61.702	-58.457	18775	16168	0	648
-64.154	-58.384	18723	16235	0	648
-67.580	-60.945	18657	16276	0	648
-74.540	-63.938	18612	16312	0	648
-81.861	-69.023	18559	16343	0	648
-87.883	-72.845	18480	16343	0	648
-91.850	-75.225	18428	16317	0	648
-90.696	-77.497	18363	16333	0	648
-88.785	-80.707	18349	16422	0	648
-85.611	-80.995	18363	16572	0	648
-77.281	-76.992	18363	16722	0	648
-66.102	-65.453	18349	16820	0	648
-54.309	-49.766	18363	16900	0	648
-45.078	-33.105	18395	16995	0	648
-46.087	-25.027	18415	17111	0	648
-51.424	-27.551	18448	17217	0	648
-57.771	-40.786	18480	17279	0	648
-62.135	-53.660	18494	17305	0	648
-59.755	-61.522	18494	17287	0	648
-53.841	-56.113	18480	17204	0	648
-46.736	-41.111	18448	17096	0	648
-39.993	-23.080	18415	17026	0	648
-35.016	-8.691	18428	16988	0	648
-29.895	2.380	18382	16902	0	648
-23.765	7.862	18330	16750	0	648
-16.661	15.831	18297	16624	0	648
-7.140	20.880	18297	16613	0	648
0.721	28.994	18330	16688	0	648
3.931	38.082	18317	16724	0	648
3.534	45.114	18284	16644	0	648
-0.541	49.802	18231	16497	0	648
-0.397	49.080	18186	16379	0	648
3.967	47.746	18133	16299	0	648
14.425	42.157	18068	16191	0	648
23.368	39.199	17969	16010	0	648
27.299	37.324	17891	15801	0	648
23.224	37.324	17760	15646	0	648
17.454	36.495	17694	15574	0	648
11.287	40.498	17629	15569	0	648
11.287	42.120	17596	15595	0	648
15.471	43.238	17511	15608	0	648
18.356	40.245	17478	15613	0	648
19.582	34.728	17412	15641	0	648
13.018	28.056	17399	15716	0	648
3.426	23.873	17347	15817	0	648
-2.993	23.332	17314	15891	0	648
-8.439	21.421	17281	15907	0	648
-9.773	20.123	17170	15817	0	648
-13.523	13.776	17039	15651	0	648
-20.267	8.619	16954	15543	0	648
-29.535	4.075	16875	15535	0	648
-33.790	1.803	16790	15569	0	648
-32.456	-0.793	16711	15558	0	648
-25.748	-1.190	16593	15491	0	648
-17.851	2.380	16495	15447	0	648
-9.556	12.189	16397	15453	0	648
-5.157	26.253	16319	15486	0	648
-5.085	33.357	16240	15515	0	648
-5.157	31.013	16122	15499	0	648
-7.140	19.582	16044	15468	0	648
-9.088	7.248	15959	15515	0	648
-8.763	3.787	15913	15646	0	648
-4.544	12.910	15880	15809	0	648
4.832	30.040	15847	15946	0	648
17.454	46.448	15795	16044	0	648
31.482	58.240	15749	16116	0	648
42.481	60.765	15729	16199	0	648
53.408	63.397	15683	16304	0	648
61.305	68.229	15664	16409	0	648
70.177	78.687	15651	16492	0	648
81.392	92.896	15618	16554	0	648
93.797	110.350	15631	16631	0	648
108.402	123.116	15618	16745	0	648
120.267	135.305	15651	16895	0	648
129.931	143.094	15716	17055	0	648
127.912	144.645	15729	17199	0	648
121.421	138.586	15782	17310	0	648
111.900	129.715	15827	17390	0	648
103.390	119.005	15860	17444	0	648
98.233	113.235	15893	17475	0	648
90.660	106.058	15945	17493	0	648
82.654	100.469	15959	17499	0	648
71.259	92.788	15978	17473	0	648
61.053	81.933	16011	17442	0	648
51.352	72.629	16077	17475	0	648
45.691	64.551	16155	17576	0	648
40.606	56.221	16273	17679	0	648
34.764	49.080	16339	17754	0	648
25.784	38.406	16429	17814	0	648
13.451	26.866	16515	17865	0	648
-2.849	15.651	16659	17930	0	648
-14.966	3.895	16790	18036	0	648
-20.555	-3.029	16941	18165	0	648
-20.195	-5.590	17104	18291	0	648
-16.300	-7.753	17301	18415	0	648
-15.290	-9.881	17478	18549	0	648
-21.601	-17.851	17707	18714	0	648
-32.925	-26.902	17937	18900	0	648
-44.320	-38.154	18186	19058	0	648
-51.424	-47.818	18428	19176	0	648
-55.427	-50.811	18677	19285	0	648
-53.336	-52.831	18952	19398	0	648
-52.434	-50.811	19234	19497	0	648
-51.929	-53.336	19477	19556	0	648
-55.427	-54.562	19771	19589	0	648
-61.486	-60.440	20034	19610	0	648
-65.885	-65.597	20315	19608	0	648
-69.780	-69.492	20577	19556	0	648
-68.842	-68.951	20807	19448	0	648
-63.181	-64.299	21069	19308	0	648
-57.880	-62.748	21266	19148	1	624
-54.959	-63.830	21462	18931	0	624
-58.420	-72.376	21659	18652	0	624
-66.066	-81.356	21803	18363	0	624
-76.379	-82.690	21954	18090	0	624
-81.176	-74.180	22098	17832	0	624
-81.212	-59.611	22216	17558	0	624
-76.884	-46.412	22294	17246	0	624
-77.497	-47.205	22393	16923	0	624
-79.228	-54.273	22491	16639	0	624
-83.844	-64.695	22576	16402	0	624
-85.900	-66.066	22622	16186	0	624
-81.825	-62.063	22688	15946	0	624
-78.327	-54.201	22707	15688	0	624
-76.127	-48.792	22753	15453	0	624
-78.399	-53.949	22773	15275	0	624
-82.834	-61.558	22786	15135	0	624
-87.198	-69.888	22806	14983	0	624
-92.066	-73.711	22786	14818	0	624
-93.906	-72.881	22786	14671	0	624
-93.473	-68.229	22753	14554	0	624
-94.266	-60.007	22753	14490	0	624
-88.677	-50.667	22786	14518	0	624
-82.330	-38.803	22786	14601	0	624
-71.655	-25.676	22806	14629	0	624
-62.387	-15.290	22753	14578	0	624
-61.702	-10.566	22720	14490	0	624
-67.652	-15.507	22642	14389	0	624
-82.654	-24.414	22576	14294	0	624
-90.624	-32.925	22491	14234	0	624
-92.535	-37.036	22412	14196	0	624
-83.303	-35.160	22294	14144	0	624
-73.855	-31.085	22229	14108	0	624
-68.157	-28.309	22131	14116	0	624
-68.734	-27.299	22032	14139	0	624
-70.826	-24.450	21934	14144	0	624
-69.636	-21.277	21803	14128	0	624
-63.505	-17.310	21691	14121	0	624
-57.519	-12.658	21593	14141	0	624
-56.617	-10.530	21462	14196	0	624
-56.473	-13.631	21364	14273	0	624
-59.250	-13.956	21246	14335	0	624
-56.870	-9.124	21115	14381	0	624
-48.251	-4.508	21003	14428	0	624
-40.894	4.977	20872	14490	0	624
-42.589	8.186	20754	14560	0	624
-44.501	7.681	20623	14619	0	624
-46.556	4.183	20492	14676	0	624
-42.842	3.282	20361	14722	0	624
-39.416	3.859	20197	14727	0	624
-37.541	2.705	20034	14694	0	624
-43.491	-1.515	19870	14671	0	624
-49.008	-6.635	19706	14673	0	624
-43.455	-6.780	19496	14637	0	624
-28.309	0.397	19267	14534	0	624
-4.724	13.920	19083	14446	0	624
12.514	27.624	18887	14490	0	624
20.050	37.252	18788	14668	0	624
21.024	36.855	18690	14923	0	624
16.552	29.246	18625	15200	0	624
15.579	18.680	18546	15460	0	624
15.723	11.143	18461	15693	0	624
20.411	7.501	18448	15930	0	624
23.260	10.602	18415	16186	0	624
27.732	17.995	18395	16435	0	624
32.636	23.765	18382	16657	0	624
35.449	29.571	18363	16853	0	624
36.062	27.624	18363	17047	0	624
34.187	25.568	18395	17256	0	624
30.797	23.008	18415	17457	0	624
29.102	23.224	18428	17607	0	624
25.496	22.972	18448	17697	0	624
23.837	23.008	18461	17765	0	624
20.519	21.457	18461	17821	0	624
15.795	15.435	18494	17857	0	624
11.251	8.619	18494	17845	0	624
4.796	3.137	18448	17734	0	624
-2.741	-3.859	18382	17527	0	624
-6.094	-6.058	18297	17300	0	624
-4.111	-4.364	18218	17099	0	624
1.839	2.921	18153	16923	0	624
8.475	5.806	18087	16786	0	624
9.665	5.986	18022	16698	0	624
4.327	3.173	17956	16603	0	624
-3.498	0.757	17891	16482	0	624
-7.898	0.505	17825	16384	0	624
-8.475	5.157	17740	16307	0	624
-7.321	8.439	17661	16196	0	624
-7.717	6.275	17576	16057	0	624
-10.386	2.164	17465	15930	0	624
-10.206	-3.137	17380	15840	0	624
-8.619	-8.330	17281	15786	0	624
-5.878	-9.665	17216	15744	0	624
-7.645	-9.917	17117	15695	0	624
-13.091	-10.855	17039	15651	0	624
-20.772	-12.550	16954	15633	0	624
-24.234	-11.973	16855	15644	0	624
-25.965	-9.989	16823	15693	0	624
-24.270	-9.412	16777	15778	0	624
-26.722	-4.760	16744	15876	0	624
-28.958	-2.236	16724	15982	0	624
-31.374	-3.642	16678	16085	0	624
-29.859	-6.167	16626	16134	0	624
-27.191	-10.855	16580	16124	0	624
-22.358	-16.120	16528	16132	0	624
-15.507	-14.172	16495	16191	0	624
-7.212	-9.701	16482	16281	0	624
0.793	-3.065	16462	16366	0	624
5.950	1.911	16429	16435	0	624
6.419	0.325	16429	16515	0	624
2.921	-4.111	16416	16572	0	624
-1.370	-9.809	16384	16580	0	624
-4.003	-12.694	16339	16541	0	624
-2.128	-10.963	16273	16469	0	624
4.508	-2.308	16221	16399	0	624
10.061	10.169	16175	16382	0	624
18.283	20.916	16142	16404	0	624
20.375	26.181	16122	16438	0	624
21.601	23.873	16090	16440	0	624
20.159	16.372	16044	16417	0	624
21.168	13.884	16011	16404	0	624
18.175	12.802	15991	16422	0	624
12.802	17.418	15959	16456	0	624
0.577	20.447	15959	16469	0	624
-16.192	21.349	15913	16451	0	624
-29.463	16.264	15860	16427	0	624
-40.642	12.622	15827	16412	0	624
-49.008	11.251	15827	16404	0	624
-54.670	9.737	15782	16394	0	624
-67.364	14.533	15749	16384	0	624
-78.146	14.605	15729	16377	0	624
-92.788	15.398	15664	16341	0	624
-101.983	12.550	15631	16304	0	624
-104.724	10.891	15618	16335	0	624
-104.508	15.507	15651	16458	0	624
-103.462	17.526	15729	16670	0	624
-108.006	17.598	15782	16892	0	624
-115.362	10.783	15880	17091	0	624
-121.349	0.902	15991	17305	0	624
-118.716	-5.517	16142	17579	0	624
-106.924	-5.842	16319	17891	0	624
-96.790	-3.246	16515	18224	0	624
-92.788	-6.563	16711	18552	0	624
-96.574	-16.805	16986	18882	0	624
-102.452	-28.201	17268	19238	0	624
-100.288	-32.348	17576	19613	0	624
-90.768	-26.001	17904	19969	0	624
-80.418	-14.317	18231	20248	0	624
-74.721	-7.429	18559	20441	0	624
-77.642	-8.150	18887	20570	0	624
-80.815	-14.966	19201	20658	0	624
-82.221	-23.621	19529	20733	0	624
-75.261	-25.893	19870	20779	0	624
-67.292	-27.624	20184	20785	0	624
-61.197	-27.948	20479	20741	0	624
-61.702	-31.590	20787	20612	0	624
-63.866	-32.312	21036	20400	0	624
-68.446	-32.853	21331	20170	0	624
-69.095	-29.571	21560	19956	1	632
-65.128	-26.253	21803	19724	0	632
-59.827	-26.361	22019	19414	0	632
-57.483	-28.417	22196	19032	0	632
-54.093	-33.357	22380	18650	0	632
-50.992	-30.220	22524	18327	0	632
-41.003	-23.188	22740	18067	0	632
-27.696	-14.605	22904	17826	0	632
-20.627	-8.330	23048	17568	0	632
-19.510	-8.186	23199	17287	0	632
-31.013	-16.444	23310	16962	0	632
-43.779	-18.608	23363	16580	0	632
-49.838	-18.067	23408	16193	0	632
-49.116	-11.937	23441	15850	0	632
-41.976	-9.160	23494	15574	0	632
-34.439	-9.989	23572	15370	0	632
-29.499	-12.802	23625	15238	0	632
-25.893	-15.615	23690	15143	0	632
-23.549	-12.045	23736	15037	0	632
-19.257	-6.960	23788	14918	0	632
-16.985	-5.193	23821	14812	0	632
-16.913	-12.477	23834	14720	0	632
-24.125	-17.598	23854	14637	0	632
-29.931	-23.549	23854	14554	0	632
-31.122	-17.418	23834	14469	0	632
-21.781	-4.688	23802	14356	0	632
-7.465	13.487	23723	14185	0	632
7.068	30.364	23638	13974	0	632
15.182	39.488	23526	13568	0	11398
-48.071	-42.265	11365	16010	0	732
-41.003	-31.338	11326	16165	0	732
-34.475	-28.345	11286	16294	0	732
-29.282	-32.600	11273	16427	0	732
-31.446	-41.435	11253	16598	0	732
-37.000	-47.638	11273	16776	0	732
-40.678	-50.703	11267	16933	0	732
-41.039	-49.261	11293	17065	0	732
-39.380	-47.782	11299	17173	0	732
-35.954	-47.782	11293	17222	0	732
-29.391	-43.166	11267	17212	0	732
-21.349	-35.593	11273	17199	0	732
-13.235	-27.047	11267	17222	0	732
-9.556	-21.204	11273	17259	0	732
-14.785	-23.008	11253	17264	0	732
-19.401	-25.099	11240	17217	0	732
-22.142	-26.109	11234	17166	0	732
-16.300	-23.909	11240	17153	0	732
-11.287	-19.221	11253	17179	0	732
-8.078	-19.473	11273	17207	0	732
-7.537	-18.680	11267	17199	0	732
-8.150	-19.726	11293	17176	0	732
-6.744	-19.510	11319	17181	0	732
-8.042	-18.608	11371	17235	0	732
-10.674	-23.368	11417	17310	0	732
-14.713	-24.955	11463	17359	0	732
-12.333	-24.955	11529	17398	0	732
-4.904	-23.116	11614	17468	0	732
0.469	-19.906	11719	17586	0	732
1.695	-20.808	11817	17728	0	732
1.046	-19.257	11955	17855	0	732
-0.252	-18.067	12073	17953	0	732
2.777	-14.317	12191	18036	0	732
6.852	-15.687	12335	18100	0	732
4.183	-19.906	12472	18162	0	732
-3.318	-27.948	12636	18252	0	732
-9.520	-31.266	12813	18374	0	732
-9.665	-29.715	12990	18516	0	732
-1.659	-22.467	13206	18642	0	732
7.357	-19.546	13416	18740	0	732
10.025	-21.457	13658	18885	0	732
3.137	-25.171	13953	19127	0	732
-2.596	-28.922	14255	19396	0	732
-2.308	-27.732	14569	19602	0	732
7.934	-21.385	14858	19726	0	732
19.582	-12.225	15172	19824	0	732
27.840	-7.645	15493	19933	0	732
25.027	-8.006	15827	20052	0	732
16.192	-10.169	16181	20150	0	732
10.999	-10.025	16501	20212	0	732
11.071	-11.684	16875	20255	0	732
13.668	-7.862	17222	20289	0	732
20.555	-3.642	17550	20268	0	732
25.604	-0.505	17871	20170	0	732
26.722	1.442	18166	20013	0	732
25.388	3.282	18428	19765	0	732
22.719	3.967	18657	19435	1	788
20.555	3.570	18893	19115	0	788
25.063	6.960	19123	18836	0	788
32.312	10.061	19319	18552	0	788
35.233	12.694	19477	18216	0	788
35.521	12.694	19614	17783	0	788
30.653	10.927	19693	17269	0	788
23.332	11.720	19778	16802	0	788
20.664	10.819	19870	16474	0	788
20.916	12.333	20001	16261	0	788
23.729	14.136	20099	16064	0	788
29.318	15.867	20197	15848	0	788
33.177	20.267	20283	15618	0	788
32.456	20.123	20348	15417	0	788
25.279	17.490	20420	15269	0	788
15.074	10.891	20492	15140	0	788
9.881	6.527	20518	14983	0	788
11.612	3.895	20545	14794	0	788
16.192	4.111	20532	14598	0	788
20.339	2.380	20545	14428	0	788
17.454	0.288	20532	14317	0	788
13.487	-0.757	20525	14242	0	788
9.340	1.479	20492	14147	0	788
11.035	6.239	20433	14020	0	788
15.867	7.789	20394	13901	0	788
18.608	5.590	20328	13811	0	788
20.303	2.560	20250	13733	0	788
16.589	-2.813	20152	13643	0	788
14.461	-3.750	20034	13540	0	788
10.927	-4.940	19903	13431	0	788
9.412	-2.344	19739	13295	0	788
10.025	1.406	19568	13127	0	788
11.107	4.436	19385	12987	0	788
13.451	9.701	19188	12900	0	788
19.437	10.602	18979	12830	0	788
20.844	9.953	18749	12732	0	788
19.906	7.465	18526	12642	0	788
16.156	8.763	18349	12655	0	788
15.543	9.304	18166	12784	0	788
17.779	10.386	18002	12954	0	788
21.204	8.402	17832	13127	0	788
20.087	5.770	17674	13297	0	788
16.985	2.993	17517	13475	0	788
13.523	4.544	17386	13679	0	788
17.166	9.448	17255	13906	0	788
21.493	11.504	17111	14136	0	788
23.332	11.179	16973	14317	0	788
21.673	7.825	16783	14394	0	788
17.202	7.898	16593	14425	0	788
20.844	9.989	16462	14554	0	788
24.775	14.821	16352	14807	0	788
25.604	18.428	16273	15086	0	788
24.306	21.096	16188	15355	0	788
16.733	18.572	16122	15636	0	788
15.218	15.723	16103	15953	0	788
14.497	10.710	16077	16286	0	788
14.858	4.904	16077	16590	0	788
13.668	4.364	16083	16861	0	788
12.261	4.219	16057	17083	0	788
16.661	10.422	16044	17217	0	788
21.421	14.569	16004	17279	0	788
25.532	16.300	15978	17331	0	788
21.637	10.602	15972	17416	0	788
13.956	2.705	15945	17514	0	788
10.530	-2.272	15939	17573	0	788
10.530	-1.082	15893	17571	0	788
11.937	5.950	15906	17589	0	788
13.379	10.278	15913	17656	0	788
10.638	11.828	15939	17715	0	788
8.330	5.049	15913	17723	0	788
9.953	0.685	15919	17682	0	788
15.507	1.118	15893	17615	0	788
15.579	6.058	15906	17553	0	788
17.815	7.970	15893	17532	0	788
15.651	9.665	15886	17504	0	788
14.858	5.373	15814	17351	0	788
12.586	2.092	15742	17088	0	788
8.475	1.154	15657	16856	0	788
5.157	1.406	15611	16704	0	788
4.760	4.003	15546	16593	0	788
9.773	5.806	15480	16500	0	788
15.975	10.855	15428	16417	0	788
22.539	15.398	15362	16335	0	788
22.250	18.680	15284	16204	0	788
21.601	19.654	15185	16039	0	788
19.798	16.589	15107	15899	0	788
19.149	12.910	15002	15814	0	788
21.385	8.979	14930	15755	0	788
19.906	8.547	14825	15688	0	788
19.473	12.297	14746	15602	0	788
15.687	14.461	14648	15546	0	788
15.831	15.831	14582	15548	0	788
16.336	18.428	14537	15602	0	788
23.008	16.444	14484	15677	0	788
23.765	12.658	14419	15739	0	788
18.464	7.285	14373	15796	0	788
10.422	0.288	14320	15837	0	788
5.013	-1.046	14248	15840	0	788
8.006	4.327	14156	15799	0	788
17.382	18.680	14071	15742	0	788
29.427	26.938	13980	15703	0	788
31.194	27.479	13907	15708	0	788
23.981	18.211	13875	15773	0	788
13.920	4.760	13816	15884	0	788
4.003	-3.931	13789	16000	0	788
-1.875	-6.419	13776	16106	0	788
-1.911	-4.183	13744	16199	0	788
4.075	2.380	13724	16276	0	788
14.677	9.448	13678	16341	0	788
21.277	14.749	13652	16394	0	788
25.099	16.084	13626	16440	0	788
17.959	11.612	13580	16451	0	788
7.501	4.688	13521	16394	0	788
0.361	-0.252	13429	16297	0	788
1.334	0.505	13364	16224	0	788
10.061	3.895	13318	16209	0	788
14.497	6.347	13272	16240	0	788
9.016	2.344	13219	16274	0	788
-6.383	-6.888	13167	16279	0	788
-18.428	-14.930	13128	16276	0	788
-21.313	-14.930	13095	16289	0	788
-6.671	-5.914	13036	16304	0	788
12.081	5.950	12997	16307	0	788
22.214	12.009	12938	16279	0	788
19.618	9.052	12879	16237	0	788
7.717	0.865	12833	16224	0	788
-0.793	-1.442	12813	16266	0	788
2.056	1.947	12800	16346	0	788
12.658	9.412	12767	16404	0	788
22.719	15.254	12702	16366	0	788
22.719	12.297	12603	16230	0	788
14.136	5.409	12538	16119	0	788
2.272	1.370	12472	16082	0	788
-4.977	-1.010	12407	16067	0	788
-1.947	1.731	12367	16057	0	788
7.934	4.580	12276	16052	0	788
16.733	6.708	12191	15997	0	788
19.978	6.599	12105	15897	0	788
18.031	5.085	12020	15822	0	788
12.766	5.265	11955	15811	0	788
8.006	5.301	11883	15845	0	788
7.645	3.137	11824	15871	0	788
7.068	0.288	11758	15871	0	788
2.633	-3.895	11692	15876	0	788
-1.695	-4.977	11647	15917	0	788
-3.642	-4.364	11601	15992	0	788
-1.082	3.137	11561	16080	0	788
7.970	11.648	11529	16150	0	788
16.156	15.398	11496	16209	0	788
21.926	12.622	11483	16297	0	788
19.257	9.196	11502	16427	0	788
16.264	5.049	11516	16590	0	788
11.143	5.121	11529	16727	0	788
6.347	7.970	11561	16851	0	788
6.960	10.133	11614	17000	0	788
11.107	11.251	11692	17191	0	788
17.310	11.540	11778	17406	0	788
24.342	13.487	11889	17612	0	788
21.385	15.326	12007	17811	0	788
10.061	10.350	12138	18017	0	788
-4.472	1.515	12289	18232	0	788
-12.766	-4.940	12453	18443	0	788
-6.239	-4.219	12636	18650	0	788
9.989	3.787	12865	18874	0	788
25.388	15.254	13095	19112	0	788
32.384	22.863	13318	19316	0	788
26.938	18.067	13560	19484	0	788
13.127	8.979	13842	19662	0	788
2.993	-0.505	14124	19879	0	788
-1.370	-4.327	14451	20111	0	788
1.515	-0.974	14766	20305	0	788
11.360	7.537	15087	20426	0	788
22.142	16.192	15415	20496	0	788
31.049	22.142	15742	20555	0	788
29.715	19.185	16077	20614	0	788
19.942	15.218	16416	20650	0	788
9.268	8.475	16744	20614	0	788
3.787	4.075	17013	20467	0	788
6.671	7.573	17222	20170	0	788
16.372	9.592	17439	19791	0	788
19.834	12.333	17648	19468	1	720
18.428	13.091	17871	19218	0	720
12.910	13.956	18087	18967	0	720
8.583	11.251	18297	18717	0	720
6.491	7.970	18513	18472	0	720
2.056	-0.541	18710	18242	0	720
-3.173	-8.150	18926	18067	0	720
-3.318	-9.520	19155	17932	0	720
6.563	1.190	19319	17731	0	720
19.185	17.706	19431	17390	0	720
28.489	31.158	19516	16962	0	720
25.352	31.951	19581	16546	0	720
15.110	24.017	19640	16186	0	720
7.934	11.540	19680	15868	0	720
10.530	7.681	19706	15548	0	720
15.471	10.061	19706	15205	0	720
18.211	12.982	19699	14880	0	720
11.360	14.785	19673	14601	0	720
1.442	8.979	19647	14356	0	720
-5.013	1.551	19595	14128	0	720
-9.088	-5.265	19536	13909	0	720
-14.028	-12.658	19450	13700	0	720
-26.433	-19.546	19365	13524	0	720
-40.534	-29.210	19287	13395	0	720
-50.920	-37.180	19208	13315	0	720
-54.273	-46.051	19123	13261	0	720
-56.798	-54.165	19024	13228	0	720
-62.748	-64.659	18920	13199	0	720
-77.209	-76.560	18795	13168	0	720
-93.797	-86.765	18677	13142	0	720
-104.724	-97.223	18520	13111	0	720
-109.160	-101.118	18395	13080	0	720
-111.215	-104.688	18218	13057	0	720
-115.579	-105.734	18028	12998	0	720
-120.916	-106.058	17806	12882	0	720
-120.195	-101.659	17570	12771	0	720
-115.975	-92.968	17340	12709	0	720
-106.635	-83.267	17111	12704	0	720
-98.377	-76.235	16895	12732	0	720
-93.978	-75.838	16678	12771	0	720
-92.066	-76.920	16462	12853	0	720
-91.273	-78.399	16286	13011	0	720
-88.568	-78.723	16122	13240	0	720
-90.047	-75.586	15972	13499	0	720
-88.027	-73.422	15827	13754	0	720
-84.241	-68.878	15710	14025	0	720
-74.107	-61.666	15611	14343	0	720
-59.250	-51.172	15526	14704	0	720
-47.638	-40.534	15480	15084	0	720
-39.993	-34.006	15428	15440	0	720
-38.947	-32.348	15395	15770	0	720
-37.577	-30.905	15362	16098	0	720
-28.994	-24.594	15362	16427	0	720
-13.668	-14.281	15382	16745	0	720
1.082	-1.010	15349	16977	0	720
10.566	8.006	15270	17031	0	720
13.307	7.862	15166	16951	0	720
11.360	6.419	15087	16897	0	720
15.975	4.255	15028	16941	0	720
22.070	8.006	14989	17031	0	720
28.814	12.514	14962	17127	0	720
31.699	16.913	14923	17207	0	720
30.076	16.805	14877	17217	0	720
29.859	16.733	14812	17176	0	720
33.646	20.555	14727	17109	0	720
43.383	29.102	14635	16988	0	720
53.552	37.144	14550	16835	0	720
59.755	45.258	14451	16729	0	720
61.774	43.924	14373	16673	0	720
55.499	37.324	14333	16652	0	720
52.110	32.276	14274	16691	0	720
52.326	33.574	14255	16773	0	720
58.312	41.688	14248	16858	0	720
64.010	49.621	14242	16920	0	720
70.032	56.149	14222	16964	0	720
67.292	52.903	14222	17024	0	720
63.072	49.261	14268	17124	0	720
59.863	47.277	14288	17251	0	720
60.656	50.523	14320	17346	0	720
66.715	57.843	14353	17413	0	720
72.088	66.462	14399	17460	0	720
75.838	65.380	14419	17475	0	720
71.403	60.692	14438	17473	0	720
61.197	51.857	14484	17488	0	720
51.533	42.120	14517	17519	0	720
49.369	40.065	14537	17488	0	720
50.739	40.858	14537	17370	0	720
55.391	42.517	14504	17212	0	720
54.021	44.140	14504	17088	0	720
52.867	44.789	14504	17016	0	720
52.362	50.270	14504	16962	0	720
61.486	53.696	14471	16864	0	720
70.754	57.988	14419	16701	0	720
74.721	55.824	14373	16525	0	720
69.672	51.821	14320	16384	0	720
60.981	44.428	14301	16279	0	720
56.185	43.274	14242	16188	0	720
61.882	46.232	14189	16101	0	720
69.059	49.766	14170	16033	0	720
75.261	54.778	14124	16005	0	720
74.576	55.572	14117	16018	0	720
72.160	57.916	14091	16052	0	720
72.268	58.961	14084	16059	0	720
71.799	60.260	14045	16033	0	720
72.052	57.988	14019	16013	0	720
66.895	48.576	13993	16023	0	720
59.755	39.272	13986	16049	0	720
53.264	33.682	13947	16054	0	720
51.244	35.016	13940	16033	0	720
53.877	42.806	13888	16005	0	720
56.221	49.802	13816	15938	0	720
59.286	49.513	13744	15824	0	720
55.860	43.022	13658	15706	0	720
46.232	28.741	13560	15605	0	720
28.273	15.435	13449	15497	0	720
14.317	6.455	13337	15357	0	720
9.592	8.619	13200	15223	0	720
17.743	18.572	13108	15164	0	720
32.744	32.636	13023	15182	0	720
44.212	41.616	12944	15241	0	720
44.140	40.209	12879	15300	0	720
39.235	33.285	12800	15344	0	720
37.829	29.968	12741	15404	0	720
42.625	32.095	12682	15499	0	720
45.655	38.262	12649	15618	0	720
44.068	40.426	12616	15737	0	720
35.485	34.656	12577	15835	0	720
25.352	26.037	12518	15917	0	720
21.962	19.798	12485	16005	0	720
25.099	16.913	12472	16119	0	720
25.820	16.661	12472	16255	0	720
20.050	12.910	12479	16394	0	720
13.704	10.963	12466	16523	0	720
10.566	13.379	12453	16613	0	720
17.418	19.437	12472	16673	0	720
31.158	28.561	12420	16691	0	720
41.327	32.384	12341	16595	0	720
42.193	29.318	12223	16382	0	720
38.370	25.820	12079	16134	0	720
33.429	22.683	11961	15907	0	720
33.574	25.712	11797	15700	0	720
34.187	30.905	11686	15564	0	720
31.735	32.095	11568	15530	0	720
24.666	29.715	11522	15592	0	720
21.060	23.873	11489	15716	0	720
23.512	21.349	11437	15855	0	720
33.790	26.217	11457	16021	0	720
43.166	32.744	11489	16237	0	720
46.051	40.245	11502	16482	0	720
46.520	46.736	11568	16714	0	720
46.304	47.422	11620	16928	0	720
47.638	45.835	11719	17150	0	720
52.687	46.340	11817	17421	0	720
51.028	42.517	11981	17749	0	720
43.960	38.298	12145	18085	0	720
35.413	37.108	12308	18374	0	720
32.059	37.865	12485	18629	0	720
38.442	42.337	12715	18893	0	720
48.539	48.756	12944	19169	0	720
54.418	57.555	13193	19437	0	720
56.653	58.997	13436	19682	0	720
53.372	58.817	13731	19912	0	720
54.345	57.014	14012	20106	0	720
56.473	51.172	14274	20217	0	720
55.175	49.405	14569	20286	0	720
52.110	45.582	14910	20436	0	720
45.078	44.933	15270	20661	0	720
43.851	45.618	15598	20816	0	720
45.618	46.881	15913	20823	0	720
51.533	47.422	16208	20728	0	720
52.506	50.631	16495	20601	0	720
57.194	50.234	16790	20480	0	720
60.151	55.644	17085	20359	0	720
64.623	57.771	17366	20209	1	692
64.840	57.194	17629	20000	0	692
61.089	52.182	17891	19734	0	692
49.189	40.858	18087	19424	0	692
41.832	29.463	18297	19117	0	692
32.312	21.565	18513	18838	0	692
29.607	16.697	18677	18549	0	692
30.328	22.034	18874	18234	0	692
33.970	28.092	19037	17914	0	692
36.387	34.259	19182	17612	0	692
34.223	32.528	19313	17321	0	692
28.922	24.666	19444	17013	0	692
21.493	14.930	19529	16696	0	692
18.860	6.239	19627	16382	0	692
18.067	5.121	19693	16059	0	692
20.123	10.242	19726	15734	0	692
20.844	16.769	19739	15419	0	692
21.241	21.962	19739	15117	0	692
26.361	27.479	19739	14823	0	692
33.862	29.859	19693	14500	0	692
37.252	26.902	19608	14154	0	692
36.351	21.385	19529	13855	0	692
32.203	16.805	19444	13620	0	692
29.571	13.631	19332	13408	0	692
29.138	17.346	19182	13163	0	692
28.164	21.421	19051	12910	0	692
23.116	20.267	18887	12714	0	692
13.235	16.012	18743	12608	0	692
13.343	9.701	18612	12582	0	692
20.447	10.999	18480	12603	0	692
36.891	21.998	18349	12636	0	692
44.356	27.299	18218	12698	0	692
37.649	26.181	18068	12786	0	692
17.057	14.028	17923	12840	0	692
-3.101	-3.065	17760	12856	0	692
-15.867	-14.533	17576	12895	0	692
-14.894	-18.572	17412	12990	0	692
-7.934	-14.605	17301	13135	0	692
-5.373	-15.615	17150	13315	0	692
-7.825	-16.985	17006	13514	0	692
-14.461	-24.919	16908	13713	0	692
-20.880	-29.138	16790	13914	0	692
-22.431	-31.807	16659	14103	0	692
-21.818	-28.886	16482	14234	0	692
-16.697	-25.856	16352	14325	0	692
-15.218	-21.962	16240	14449	0	692
-15.831	-21.241	16109	14642	0	692
-20.519	-24.847	16024	14874	0	692
-24.847	-27.984	15913	15068	0	692
-29.715	-34.331	15795	15197	0	692
-33.754	-40.245	15716	15347	0	692
-36.062	-44.609	15631	15569	0	692
-40.822	-50.126	15585	15811	0	692
-42.301	-48.071	15533	16036	0	692
-38.406	-46.592	15519	16253	0	692
-30.725	-40.353	15467	16474	0	692
-25.279	-38.009	15500	16729	0	692
-28.164	-42.012	15519	17021	0	692
-36.675	-50.451	15533	17274	0	692
-48.576	-60.656	15487	17318	0	692
-55.716	-63.758	15356	17117	0	692
-58.276	-64.587	15225	16879	0	692
-55.283	-62.423	15172	16794	0	692
-53.480	-58.817	15107	16846	0	692
-47.710	-56.365	15094	16931	0	692
-42.157	-50.162	15094	17024	0	692
-34.547	-41.291	15074	17124	0	692
-29.535	-36.783	15041	17194	0	692
-28.705	-33.754	15061	17217	0	692
-30.076	-33.754	15061	17246	0	692
-27.912	-33.285	15041	17300	0	692
-19.618	-23.909	15061	17344	0	692
-6.635	-12.586	15041	17331	0	692
3.606	-3.101	15028	17253	0	692
2.957	-2.741	14976	17173	0	692
-6.816	-11.071	14976	17135	0	692
-18.247	-21.204	14995	17142	0	692
-18.897	-24.558	14995	17155	0	692
-9.484	-16.048	14962	17127	0	692
6.599	-4.147	14976	17091	0	692
19.149	9.917	14995	17096	0	692
27.948	21.601	15041	17142	0	692
33.682	30.220	15041	17199	0	692
40.858	41.291	15094	17225	0	692
52.506	56.798	15126	17228	0	692
61.450	68.878	15139	17230	0	692
69.167	77.858	15205	17248	0	692
74.612	80.346	15238	17261	0	692
79.877	80.959	15257	17235	0	692
85.900	79.192	15290	17168	0	692
88.244	79.661	15270	17080	0	692
89.073	83.700	15303	16993	0	692
85.503	89.181	15290	16908	0	692
84.854	95.204	15257	16802	0	692
91.021	102.272	15257	16680	0	692
100.902	103.967	15205	16536	0	692
107.537	96.322	15139	16338	0	692
100.433	80.959	15061	16101	0	692
80.815	59.971	14976	15899	0	692
53.372	40.930	14897	15760	0	692
34.944	34.439	14845	15669	0	692
29.931	33.718	14766	15589	0	692
32.889	33.610	14681	15489	0	692
32.961	25.856	14615	15406	0	692
22.683	8.619	14550	15375	0	692
9.052	-8.619	14504	15393	0	692
-5.770	-17.743	14451	15435	0	692
-9.484	-16.985	14405	15468	0	692
-9.016	-11.540	14353	15484	0	692
-10.999	-11.576	14307	15502	0	692
-16.805	-22.683	14255	15553	0	692
-27.155	-34.403	14242	15639	0	692
-37.108	-46.736	14176	15706	0	692
-45.691	-54.526	14143	15737	0	692
-53.300	-56.509	14078	15749	0	692
-56.076	-57.807	14012	15724	0	692
-57.916	-62.423	13927	15646	0	692
-56.185	-64.443	13796	15558	0	692
-51.785	-67.039	13731	15502	0	692
-50.847	-65.741	13599	15453	0	692
-50.956	-61.233	13488	15365	0	692
-48.792	-56.329	13337	15246	0	692
-49.802	-51.388	13226	15169	0	692
-48.251	-52.578	13128	15171	0	692
-52.254	-54.093	13029	15223	0	692
-53.336	-59.250	12911	15269	0	692
-53.732	-56.365	12833	15300	0	692
-45.438	-51.929	12748	15344	0	692
-37.360	-42.373	12669	15429	0	692
-30.148	-36.495	12616	15553	0	692
-29.535	-33.033	12551	15690	0	692
-30.617	-33.069	12505	15809	0	692
-31.374	-34.728	12485	15917	0	692
-28.850	-32.925	12440	16054	0	692
-26.253	-32.672	12440	16232	0	692
-23.837	-32.744	12420	16407	0	692
-21.781	-30.004	12407	16538	0	692
-18.824	-26.397	12387	16618	0	692
-13.451	-21.529	12374	16678	0	692
-8.511	-14.966	12374	16766	0	692
-5.265	-14.245	12387	16879	0	692
-1.911	-10.097	12374	16975	0	692
3.534	-5.986	12387	17047	0	692
8.907	0.865	12387	17096	0	692
15.038	5.049	12387	17124	0	692
14.425	5.481	12387	17135	0	692
8.439	-2.236	12387	17142	0	692
1.082	-9.412	12420	17155	0	692
-2.885	-14.966	12407	17155	0	692
-2.019	-14.172	12387	17109	0	692
1.695	-11.360	12374	17029	0	692
4.400	-12.658	12374	16995	0	692
0.072	-15.218	12407	17047	0	692
-5.734	-24.089	12485	17191	0	692
-13.595	-31.410	12584	17372	0	692
-17.526	-35.124	12649	17532	0	692
-16.048	-34.006	12800	17703	0	692
-16.372	-33.393	12964	17930	0	692
-17.202	-35.016	13141	18208	0	692
-23.512	-40.101	13357	18500	0	692
-29.751	-43.851	13586	18784	0	692
-33.574	-47.494	13848	19071	0	692
-32.456	-47.025	14143	19367	0	692
-31.590	-46.268	14438	19672	0	692
-31.987	-48.287	14766	19972	0	692
-32.564	-50.811	15094	20235	0	692
-32.672	-49.621	15434	20444	0	692
-31.446	-50.992	15762	20604	0	692
-31.049	-49.585	16109	20710	0	692
-33.574	-53.300	16429	20759	0	692
-38.875	-55.355	16757	20736	0	692
-42.229	-58.889	17052	20645	0	692
-43.491	-60.404	17347	20529	0	692
-43.996	-59.719	17661	20410	0	692
-44.032	-60.656	17937	20274	1	696
-42.806	-60.296	18218	20095	0	696
-39.957	-54.778	18494	19884	0	696
-34.006	-49.225	18723	19651	0	696
-27.155	-40.389	18972	19367	0	696
-23.368	-36.314	19149	19016	0	696
-21.132	-35.377	19332	18637	0	696
-22.755	-36.134	19477	18276	0	696
-27.263	-37.036	19640	17935	0	696
-23.296	-31.879	19791	17581	0	696
-13.668	-21.565	19870	17189	0	696
2.777	-10.422	19955	16799	0	696
16.877	-1.767	20034	16456	0	696
15.975	-0.469	20132	16178	0	696
4.832	-6.275	20197	15922	0	696
-7.537	-12.045	20250	15644	0	696
-10.602	-15.218	20283	15347	0	696
-3.426	-13.487	20283	15068	0	696
4.147	-8.258	20283	14836	0	696
2.885	-6.203	20315	14652	0	696
-0.361	-3.895	20315	14490	0	696
0.721	0.288	20296	14325	0	696
11.215	8.150	20263	14172	0	696
21.529	13.199	20230	14038	0	696
24.775	18.933	20197	13930	0	696
17.021	16.516	20132	13821	0	696
7.573	13.343	20034	13672	0	696
5.554	10.999	19903	13452	0	696
13.776	11.251	19726	13191	0	696
20.195	12.838	19562	12941	0	696
19.978	9.773	19365	12760	0	696
9.124	3.065	19201	12670	0	696
-3.570	-3.462	19051	12652	0	696
-9.340	-5.986	18874	12662	0	696
-3.931	-0.036	18690	12667	0	696
6.960	8.511	18526	12691	0	696
14.389	14.677	18363	12768	0	696
15.002	9.232	18218	12902	0	696
6.996	0.072	18087	13065	0	696
-0.433	-5.337	17937	13225	0	696
0.938	0.469	17806	13398	0	696
12.477	14.749	17674	13602	0	696
28.958	29.535	17563	13842	0	696
39.957	36.783	17478	14087	0	696
37.108	35.629	17347	14307	0	696
25.856	29.463	17268	14503	0	696
11.756	24.125	17150	14707	0	696
5.265	21.493	17072	14923	0	696
10.025	20.411	16986	15135	0	696
20.483	22.250	16888	15331	0	696
32.889	27.696	16842	15517	0	696
40.353	34.079	16744	15669	0	696
43.707	37.360	16626	15752	0	696
37.829	34.331	16515	15791	0	696
27.732	23.440	16429	15860	0	696
16.048	10.746	16371	15997	0	696
12.045	5.265	16319	16186	0	696
16.877	8.799	16273	16372	0	696
28.237	22.178	16221	16513	0	696
42.661	34.511	16188	16636	0	696
48.828	38.442	16175	16778	0	696
45.041	34.259	16175	16931	0	696
34.079	24.594	16142	17060	0	696
26.686	21.132	16142	17140	0	696
29.787	27.407	16109	17191	0	696
42.301	37.613	16090	17253	0	696
54.093	45.366	16109	17341	0	696
59.827	43.635	16122	17439	0	696
51.100	35.449	16122	17501	0	696
41.976	28.561	16122	17527	0	696
37.685	29.859	16155	17535	0	696
42.697	35.413	16122	17504	0	696
47.818	42.589	16090	17424	0	696
55.536	46.015	16057	17323	0	696
55.896	44.933	16011	17199	0	696
56.221	46.195	15926	17011	0	696
51.136	45.835	15847	16776	0	696
48.251	46.123	15729	16544	0	696
45.799	45.618	15631	16374	0	696
45.474	44.284	15585	16263	0	696
47.097	44.392	15487	16173	0	696
49.657	45.366	15402	16046	0	696
48.648	49.369	15303	15904	0	696
52.506	51.569	15225	15842	0	696
55.824	56.437	15205	15897	0	696
58.168	56.978	15159	16008	0	696
55.427	56.798	15159	16098	0	696
49.044	51.641	15107	16144	0	696
44.681	48.648	15074	16175	0	696
44.789	46.123	15074	16224	0	696
47.890	49.189	15061	16294	0	696
48.251	49.080	15041	16361	0	696
48.179	46.159	14995	16389	0	696
44.717	41.471	14976	16396	0	696
42.625	34.620	14962	16407	0	696
39.416	31.771	14943	16435	0	696
39.055	34.439	14910	16482	0	696
43.924	44.104	14910	16510	0	696
53.408	52.975	14877	16489	0	696
64.840	59.178	14799	16384	0	696
64.767	53.480	14713	16222	0	696
52.578	44.573	14635	16095	0	696
39.776	34.547	14550	16008	0	696
37.577	35.197	14451	15899	0	696
47.674	43.851	14353	15778	0	696
60.296	51.497	14255	15706	0	696
61.125	52.001	14189	15688	0	696
51.965	44.969	14091	15654	0	696
38.190	37.432	13960	15525	0	696
37.829	35.016	13816	15344	0	696
46.087	37.252	13698	15233	0	696
56.473	37.252	13567	15200	0	696
55.355	35.052	13468	15202	0	696
46.520	28.164	13390	15254	0	696
37.216	24.558	13324	15352	0	696
35.846	28.128	13272	15468	0	696
42.012	33.429	13193	15589	0	696
51.100	38.009	13173	15719	0	696
56.040	39.560	13141	15876	0	696
53.696	37.396	13128	16072	0	696
51.136	34.115	13160	16284	0	696
43.887	32.636	13160	16456	0	696
38.947	30.112	13160	16580	0	696
34.223	27.371	13141	16691	0	696
33.502	23.188	13173	16807	0	696
30.761	20.123	13193	16926	0	696
32.492	19.077	13193	17003	0	696
30.653	18.283	13160	17019	0	696
31.230	22.863	13141	16962	0	696
35.197	26.217	13062	16825	0	696
39.668	28.958	12977	16647	0	696
42.048	26.938	12911	16510	0	696
39.235	22.250	12846	16448	0	696
32.672	13.740	12813	16422	0	696
24.702	10.927	12748	16386	0	696
19.401	10.819	12682	16315	0	696
23.801	15.687	12616	16230	0	696
31.085	22.611	12551	16175	0	696
41.688	24.234	12518	16175	0	696
46.809	23.549	12485	16186	0	696
44.753	20.591	12407	16155	0	696
37.324	17.887	12354	16103	0	696
32.528	20.664	12308	16103	0	696
36.351	25.460	12289	16183	0	696
41.507	29.571	12289	16294	0	696
46.051	31.338	12308	16389	0	696
44.825	26.578	12308	16474	0	696
37.793	22.395	12308	16569	0	696
30.581	16.841	12341	16683	0	696
28.417	16.661	12354	16791	0	696
27.515	18.428	12387	16877	0	696
28.164	21.493	12440	16946	0	696
28.850	22.431	12420	16990	0	696
30.292	21.421	12420	16972	0	696
27.768	18.752	12407	16905	0	696
22.142	12.514	12407	16858	0	696
13.415	7.645	12407	16840	0	696
9.304	9.016	12407	16820	0	696
15.687	12.009	12407	16776	0	696
25.063	17.743	12387	16729	0	696
33.862	23.909	12387	16714	0	696
31.085	22.214	12407	16742	0	696
24.053	18.860	12472	16838	0	696
20.411	18.752	12551	16998	0	696
28.597	21.781	12669	17189	0	696
39.993	26.830	12800	17411	0	696
43.743	29.895	12964	17682	0	696
40.317	25.568	13173	18005	0	696
33.574	20.555	13390	18350	0	696
33.285	19.437	13652	18683	0	696
40.570	18.680	13914	19009	0	696
45.078	22.467	14222	19352	0	696
45.546	21.349	14569	19726	0	696
35.701	17.959	14930	20095	0	696
29.102	10.783	15290	20400	0	696
26.794	8.042	15651	20643	0	696
30.328	7.068	16044	20867	0	696
33.141	8.979	16449	21079	0	696
33.790	8.763	16842	21249	0	696
32.853	11.396	17235	21360	0	696
32.239	14.389	17661	21404	0	696
32.780	19.221	18002	21365	0	696
35.233	26.001	18330	21203	0	696
38.803	31.554	18657	20963	0	696
41.940	31.879	18985	20767	0	696
44.320	31.013	19313	20568	1	740
45.222	24.955	19496	20155	0	740
42.697	20.627	19640	19504	0	740
36.278	16.012	19758	18823	0	740
30.184	15.002	19857	18252	0	740
29.571	16.156	20001	17777	0	740
32.528	21.673	20099	17380	0	740
38.767	28.705	20217	17029	0	740
43.815	30.797	20348	16696	0	740
40.786	28.164	20446	16384	0	740
33.466	21.096	20545	16113	0	740
27.624	15.867	20656	15884	0	740
29.354	17.346	20741	15695	0	740
36.026	27.551	20840	15517	0	740
43.815	34.547	20905	15334	0	740
40.750	36.855	20971	15156	0	740
31.807	23.585	21036	14998	0	740
21.024	14.028	21069	14867	0	740
18.716	8.006	21102	14745	0	740
21.998	14.100	21134	14619	0	740
30.761	22.322	21134	14485	0	740
35.701	30.364	21102	14301	0	740
37.396	29.787	21017	14072	0	740
34.836	23.116	20971	13863	0	740
31.807	15.651	20885	13718	0	740
26.902	12.405	20820	13604	0	740
23.008	12.477	20689	13455	0	740
21.313	14.569	20558	13266	0	740
21.998	17.634	20414	13122	0	740
19.473	15.507	20283	13042	0	740
20.123	15.362	20165	13006	0	740
22.647	13.595	20020	13003	0	740
28.633	16.444	19889	13018	0	740
36.711	21.745	19771	13060	0	740
35.990	22.827	19608	13119	0	740
26.902	20.231	19463	13163	0	740
14.677	16.625	19300	13171	0	740
4.832	11.468	19116	13179	0	740
6.058	8.943	18952	13225	0	740
13.848	11.468	18788	13323	0	740
23.945	13.199	18677	13483	0	740
27.551	15.471	18546	13684	0	740
29.499	19.257	18415	13881	0	740
27.912	19.510	18297	14069	0	740
24.486	19.798	18186	14265	0	740
21.709	19.798	18068	14456	0	740
19.293	16.697	17956	14640	0	740
22.070	18.500	17858	14810	0	740
24.450	20.447	17773	14988	0	740
28.453	22.178	17661	15176	0	740
27.227	20.195	17543	15326	0	740
19.762	14.281	17465	15437	0	740
8.799	6.708	17366	15577	0	740
3.931	1.767	17314	15773	0	740
4.364	2.056	17268	16000	0	740
12.514	6.419	17235	16227	0	740
19.221	13.018	17183	16425	0	740
22.647	14.966	17203	16616	0	740
19.221	14.605	17183	16812	0	740
15.759	9.484	17170	16998	0	740
12.009	6.599	17203	17166	0	740
15.254	5.914	17183	17300	0	740
15.939	8.871	17203	17406	0	740
10.097	8.619	17203	17509	0	740
0.216	5.842	17268	17630	0	740
-11.468	0.108	17268	17734	0	740
-17.815	-2.092	17281	17754	0	740
-12.045	0.685	17268	17710	0	740
-4.724	4.111	17268	17659	0	740
0.505	6.383	17268	17623	0	740
-1.226	5.229	17249	17589	0	740
-5.878	5.481	17268	17530	0	740
-8.006	7.862	17216	17437	0	740
-5.049	13.451	17203	17297	0	740
-1.479	17.959	17104	17078	0	740
-0.288	21.168	17019	16812	0	740
-0.721	23.729	16941	16593	0	740
0.144	24.198	16855	16451	0	740
2.164	25.532	16809	16346	0	740
4.652	23.512	16711	16219	0	740
2.596	15.759	16613	16057	0	740
-1.947	12.117	16528	15902	0	740
-3.714	9.520	16429	15806	0	740
-0.902	9.016	16371	15773	0	740
4.183	10.963	16306	15770	0	740
7.465	9.448	16240	15760	0	740
4.255	5.229	16188	15755	0	740
-0.036	3.354	16142	15778	0	740
-0.108	5.085	16090	15809	0	740
5.481	10.999	16044	15835	0	740
11.468	17.670	15978	15866	0	740
15.831	16.949	15945	15912	0	740
12.874	9.737	15913	15977	0	740
6.816	-2.524	15893	16062	0	740
-0.072	-12.514	15880	16142	0	740
-4.688	-15.038	15827	16181	0	740
-4.832	-11.107	15782	16183	0	740
2.056	-2.524	15749	16170	0	740
7.825	2.669	15651	16113	0	740
14.064	-0.036	15565	16010	0	740
9.592	-8.186	15467	15910	0	740
2.488	-14.281	15388	15837	0	740
-3.570	-16.048	15270	15770	0	740
0.793	-9.232	15172	15667	0	740
10.674	-0.829	15041	15540	0	740
20.700	0.721	14910	15463	0	740
21.204	-4.868	14845	15458	0	740
15.435	-14.821	14766	15509	0	740
8.006	-16.156	14700	15577	0	740
2.813	-12.586	14615	15623	0	740
5.950	-1.046	14537	15646	0	740
8.655	6.599	14451	15649	0	740
8.619	5.914	14353	15649	0	740
6.888	-0.180	14288	15693	0	740
4.904	-6.852	14222	15768	0	740
3.895	-8.907	14156	15848	0	740
4.255	-6.275	14091	15889	0	740
3.210	-3.642	13960	15840	0	740
-1.731	-4.291	13829	15724	0	740
-7.862	-6.131	13731	15620	0	740
-11.468	-12.622	13554	15517	0	740
-12.333	-16.192	13423	15393	0	740
-12.694	-23.368	13291	15334	0	740
-18.644	-28.705	13160	15365	0	740
-27.876	-35.485	13075	15440	0	740
-36.603	-37.721	13010	15540	0	740
-37.505	-36.062	12931	15644	0	740
-32.780	-34.656	12846	15716	0	740
-27.984	-34.583	12748	15757	0	740
-29.715	-37.252	12702	15835	0	740
-34.800	-39.308	12649	15984	0	740
-33.141	-34.980	12636	16181	0	740
-21.529	-23.116	12616	16364	0	740
-4.183	-11.323	12584	16492	0	740
5.085	-6.347	12571	16603	0	740
-1.262	-11.179	12571	16735	0	740
-14.425	-22.467	12571	16871	0	740
-20.555	-28.309	12571	16982	0	740
-15.218	-25.820	12571	17055	0	740
-2.128	-17.021	12571	17114	0	740
7.645	-6.744	12584	17181	0	740
6.888	-2.705	12603	17264	0	740
-1.010	-1.947	12616	17341	0	740
-2.885	-5.878	12636	17372	0	740
-0.649	-3.606	12636	17357	0	740
9.484	2.885	12636	17331	0	740
18.860	13.848	12649	17313	0	740
26.578	23.080	12636	17274	0	740
26.073	25.676	12603	17166	0	740
20.916	18.680	12518	16954	0	740
20.339	13.884	12420	16706	0	740
23.368	14.172	12374	16523	0	740
30.220	20.014	12308	16425	0	740
33.502	27.083	12256	16374	0	740
27.515	26.578	12243	16348	0	740
18.464	24.666	12210	16351	0	740
15.002	23.440	12210	16351	0	740
26.433	31.230	12158	16343	0	740
43.563	42.012	12158	16374	0	740
56.798	47.710	12191	16474	0	740
58.168	48.323	12256	16642	0	740
52.939	43.383	12322	16833	0	740
50.559	40.786	12407	17024	0	740
49.910	40.137	12518	17240	0	740
50.739	39.019	12669	17522	0	740
49.730	36.819	12879	17878	0	740
44.320	31.843	13108	18268	0	740
43.635	31.158	13337	18637	0	740
51.893	38.118	13619	18973	0	740
60.115	46.268	13881	19287	0	740
62.748	51.677	14189	19600	0	740
56.617	45.582	14504	19907	0	740
45.943	36.062	14812	20155	0	740
42.734	29.066	15159	20338	0	740
48.648	31.194	15467	20493	0	740
55.896	38.947	15814	20630	0	740
60.224	43.779	16155	20733	0	740
54.598	46.592	16495	20805	0	740
48.395	44.104	16842	20854	0	740
47.926	46.628	17203	20862	0	740
54.850	49.261	17498	20785	0	740
58.384	51.677	17825	20627	0	740
55.139	44.356	18120	20446	0	740
41.327	34.980	18415	20274	0	740
32.492	27.083	18690	20093	1	736
28.669	27.263	18985	19876	0	736
35.449	32.564	19214	19597	0	736
41.471	36.639	19463	19287	0	736
41.219	35.341	19673	18983	0	736
30.364	24.883	19889	18689	0	736
11.900	14.858	20086	18363	0	736
-5.986	10.061	20230	17994	0	736
-27.443	10.855	20381	17602	0	736
-45.366	17.166	20512	17233	0	736
-57.014	18.824	20623	16913	0	736
-57.627	20.555	20774	16649	0	736
-47.999	18.356	20905	16414	0	736
-37.757	16.913	20984	16183	0	736
-32.131	11.684	21082	15928	0	736
-36.747	8.078	21148	15659	0	736
-43.743	2.849	21213	15398	0	736
-46.989	2.092	21213	15138	0	736
-40.534	4.544	21233	14882	0	736
-30.292	8.186	21246	14629	0	736
-25.640	9.701	21213	14389	0	736
-24.630	10.097	21213	14190	0	736
-26.001	9.809	21180	14077	0	736
-27.948	8.547	21180	14015	0	736
-27.083	6.996	21148	13919	0	736
-23.621	2.128	21049	13764	0	736
-22.250	0.108	20971	13568	0	736
-25.604	-2.596	20853	13377	0	736
-31.230	-5.049	20741	13230	0	736
-33.754	-3.895	20623	13132	0	736
-32.239	-4.291	20479	13052	0	736
-24.017	-0.469	20328	12954	0	736
-16.084	3.714	20152	12853	0	736
-10.530	8.114	20001	12802	0	736
-10.999	7.357	19857	12833	0	736
-11.251	6.203	19726	12918	0	736
-9.232	4.652	19562	12987	0	736
-6.058	6.311	19411	13031	0	736
-4.255	11.287	19234	13080	0	736
-3.462	14.064	19070	13153	0	736
-2.957	17.598	18874	13207	0	736
-0.721	13.848	18690	13243	0	736
-0.902	9.520	18513	13315	0	736
-2.236	3.282	18330	13413	0	736
-5.986	0.216	18120	13483	0	736
-7.285	2.452	17937	13537	0	736
-6.816	5.481	17727	13625	0	736
-3.859	8.979	17563	13749	0	736
-0.144	9.989	17366	13875	0	736
1.695	6.635	17203	14002	0	736
2.957	2.921	17019	14167	0	736
3.714	1.298	16921	14423	0	736
4.868	4.688	16823	14769	0	736
8.114	11.504	16777	15143	0	736
13.956	20.880	16711	15491	0	736
14.677	22.286	16678	15806	0	736
11.107	16.228	16646	16116	0	736
-0.793	4.688	16646	16435	0	736
-12.225	-5.193	16646	16758	0	736
-18.139	-7.465	16659	17044	0	736
-15.398	-1.731	16659	17264	0	736
-13.018	2.092	16646	17439	0	736
-11.612	2.416	16678	17602	0	736
-13.163	-2.092	16711	17770	0	736
-17.346	-7.429	16744	17919	0	736
-16.408	-8.439	16757	18017	0	736
-14.461	-5.770	16777	18067	0	736
-14.028	-5.950	16757	18082	0	736
-14.317	-6.563	16777	18069	0	736
-18.464	-8.366	16777	18020	0	736
-19.293	-8.222	16757	17919	0	736
-21.457	-5.229	16724	17793	0	736
-19.942	-2.236	16659	17646	0	736
-20.303	-4.003	16593	17432	0	736
-20.303	-5.986	16515	17163	0	736
-21.060	-6.996	16416	16920	0	736
-25.027	-6.888	16319	16701	0	736
-28.273	-6.960	16208	16469	0	736
-32.276	-9.556	16090	16250	0	736
-35.088	-15.398	15991	16075	0	736
-33.466	-16.877	15893	15959	0	736
-29.607	-17.923	15795	15891	0	736
-29.607	-16.733	15749	15860	0	736
-33.934	-21.529	15651	15832	0	736
-41.616	-28.128	15565	15793	0	736
-46.700	-32.853	15519	15775	0	736
-42.770	-30.581	15454	15811	0	736
-34.583	-23.549	15454	15904	0	736
-25.316	-17.093	15402	16005	0	736
-24.630	-16.697	15388	16077	0	736
-33.718	-25.820	15356	16129	0	736
-42.157	-34.006	15303	16188	0	736
-42.229	-37.829	15303	16261	0	736
-32.997	-33.538	15270	16335	0	736
-19.185	-25.929	15257	16382	0	736
-13.271	-21.673	15192	16356	0	736
-18.356	-24.666	15074	16235	0	736
-29.282	-28.597	14995	16072	0	736
-34.151	-29.895	14910	15956	0	736
-30.076	-23.585	14831	15904	0	736
-16.012	-14.821	14733	15897	0	736
-8.619	-9.088	14700	15912	0	736
-7.104	-8.042	14615	15894	0	736
-9.232	-10.133	14537	15850	0	736
-8.871	-7.248	14471	15853	0	736
-2.921	-0.180	14419	15907	0	736
5.842	7.645	14353	15917	0	736
12.874	12.874	14242	15848	0	736
17.598	19.293	14143	15762	0	736
22.178	18.356	14058	15734	0	736
22.755	18.752	13993	15770	0	736
20.014	13.848	13980	15871	0	736
11.143	9.845	13947	16013	0	736
4.977	6.058	13914	16139	0	736
7.537	7.501	13914	16245	0	736
21.241	13.127	13894	16356	0	736
35.341	22.070	13894	16479	0	736
43.996	24.089	13914	16613	0	736
43.347	25.748	13914	16724	0	736
39.127	27.407	13914	16804	0	736
39.199	28.994	13927	16853	0	736
42.842	29.679	13894	16864	0	736
45.943	31.662	13862	16835	0	736
42.842	29.463	13848	16789	0	736
36.026	26.073	13796	16732	0	736
31.013	25.460	13750	16665	0	736
36.206	31.518	13717	16585	0	736
45.330	34.800	13652	16497	0	736
49.946	36.819	13599	16412	0	736
46.304	31.951	13554	16356	0	736
36.351	25.604	13521	16333	0	736
32.384	25.640	13468	16302	0	736
42.481	34.511	13370	16222	0	736
55.896	47.169	13324	16129	0	736
66.210	55.103	13226	16026	0	736
65.417	54.670	13095	15842	0	736
56.221	45.330	12944	15577	0	736
47.494	35.557	12800	15360	0	736
44.825	33.898	12669	15259	0	736
47.061	35.593	12584	15254	0	736
49.982	45.582	12518	15334	0	736
59.106	53.336	12472	15468	0	736
63.758	54.345	12440	15600	0	736
64.479	51.280	12407	15721	0	736
58.853	42.842	12374	15845	0	736
47.674	35.918	12354	15977	0	736
40.389	36.531	12322	16101	0	736
39.849	39.272	12308	16206	0	736
42.012	40.101	12289	16304	0	736
42.842	37.613	12289	16384	0	736
38.658	31.158	12223	16404	0	736
33.033	26.686	12191	16396	0	736
28.777	23.188	12210	16489	0	736
30.689	22.539	12256	16696	0	736
32.708	20.231	12289	16895	0	736
32.456	15.759	12308	17006	0	736
27.335	12.369	12322	17039	0	736
21.745	9.592	12322	17049	0	736
15.362	8.042	12341	17073	0	736
14.100	7.970	12374	17104	0	736
14.533	6.131	12374	17111	0	736
15.615	3.318	12374	17096	0	736
14.497	-0.180	12387	17099	0	736
11.756	-3.210	12420	17148	0	736
9.484	-3.859	12472	17212	0	736
7.429	-3.787	12538	17292	0	736
2.272	-5.121	12616	17408	0	736
-2.957	-6.960	12748	17576	0	736
-6.311	-11.937	12898	17795	0	736
-4.977	-12.802	13075	18067	0	736
-1.839	-11.396	13291	18366	0	736
2.380	-10.819	13501	18652	0	736
2.488	-11.540	13763	18924	0	736
0.505	-10.855	14012	19176	0	736
0.144	-11.612	14255	19375	0	736
2.380	-9.304	14504	19515	0	736
4.688	-6.671	14779	19654	0	736
8.222	-6.094	15074	19832	0	736
7.537	-7.934	15369	20010	0	736
7.934	-10.422	15683	20119	0	736
7.501	-11.107	15959	20150	0	736
5.337	-11.360	16253	20165	0	736
3.678	-11.828	16580	20217	0	736
2.200	-8.763	16908	20292	0	736
1.298	-6.563	17249	20330	0	736
3.318	-4.760	17563	20299	0	736
6.852	-0.288	17871	20217	0	736
11.215	1.334	18166	20106	0	736
11.792	1.118	18448	19979	0	736
6.167	-2.777	18743	19811	1	756
-2.813	-7.321	18952	19515	0	756
-9.881	-11.648	19116	19099	0	756
-10.061	-8.835	19313	18686	0	756
-3.390	-5.986	19463	18335	0	756
1.911	-2.705	19627	18017	0	756
1.659	-4.327	19791	17695	0	756
-2.885	-7.681	19903	17364	0	756
-5.986	-9.809	20034	17057	0	756
-3.246	-5.662	20152	16784	0	756
4.760	-1.226	20263	16520	0	756
11.900	0.036	20328	16263	0	756
11.540	-1.875	20446	16010	0	756
5.770	-8.583	20492	15755	0	756
-0.865	-12.297	20512	15447	0	756
-3.101	-9.845	20512	15096	0	756
2.200	-1.623	20460	14769	0	756
9.592	6.491	20460	14513	0	756
16.012	11.900	20460	14340	0	756
16.048	13.343	20446	14229	0	756
15.507	11.396	20427	14134	0	756
14.208	15.002	20414	14033	0	756
19.293	19.185	20348	13927	0	756
21.241	23.657	20296	13821	0	756
20.952	23.981	20217	13708	0	756
16.877	20.952	20132	13599	0	756
15.867	21.529	20034	13506	0	756
19.221	23.296	19955	13462	0	756
26.650	27.804	19903	13481	0	756
31.554	29.859	19791	13530	0	756
30.725	29.823	19693	13550	0	756
25.352	27.263	19542	13483	0	756
19.762	23.224	19378	13346	0	756
12.658	18.356	19201	13256	0	756
6.022	9.629	19051	13251	0	756
-2.560	1.226	18887	13277	0	756
-8.943	-2.813	18756	13323	0	756
-8.222	-2.092	18592	13375	0	756
-0.072	4.652	18395	13382	0	756
11.215	14.966	18199	13359	0	756
21.385	21.998	18022	13380	0	756
22.611	25.712	17858	13486	0	756
17.743	23.116	17694	13635	0	756
9.124	13.848	17543	13785	0	756
6.311	9.592	17380	13917	0	756
7.970	6.816	17249	14082	0	756
9.953	8.655	17137	14319	0	756
10.314	8.979	17052	14609	0	756
3.354	6.022	16973	14880	0	756
-4.003	3.714	16855	15091	0	756
-3.498	4.400	16809	15303	0	756
3.282	8.799	16757	15582	0	756
11.864	13.487	16744	15922	0	756
14.425	14.605	16744	16266	0	756
11.720	8.475	16691	16515	0	756
4.003	2.777	16659	16624	0	756
-2.236	-1.875	16593	16652	0	756
-1.947	-1.082	16560	16735	0	756
2.344	3.967	16528	16882	0	756
8.006	7.393	16515	17021	0	756
11.035	10.999	16495	17142	0	756
11.215	8.763	16495	17248	0	756
11.107	7.104	16462	17315	0	756
12.658	9.448	16449	17341	0	756
21.277	18.211	16429	17354	0	756
30.905	24.378	16416	17370	0	756
35.016	29.391	16384	17364	0	756
33.682	30.328	16339	17300	0	756
30.797	30.508	16286	17189	0	756
32.167	36.314	16240	17093	0	756
38.658	41.940	16208	17055	0	756
45.835	47.133	16208	17073	0	756
44.825	43.599	16188	17104	0	756
39.091	35.124	16175	17088	0	756
33.574	27.551	16142	17047	0	756
32.203	22.467	16155	17034	0	756
33.141	20.880	16142	17047	0	756
30.617	17.670	16142	17052	0	756
25.352	15.002	16122	17029	0	756
21.890	13.235	16122	16985	0	756
22.142	10.999	16109	16933	0	756
27.443	12.225	16077	16864	0	756
28.633	10.025	16044	16755	0	756
21.457	4.436	15978	16636	0	756
8.006	-2.777	15945	16538	0	756
-0.938	-8.835	15893	16456	0	756
-2.849	-8.943	15827	16341	0	756
5.986	-3.931	15696	16142	0	756
18.175	2.056	15598	15920	0	756
28.020	6.635	15519	15773	0	756
29.607	4.616	15421	15693	0	756
22.899	-2.344	15323	15587	0	756
14.028	-11.756	15205	15453	0	756
7.717	-13.920	15094	15360	0	756
7.681	-13.631	15028	15344	0	756
10.927	-7.321	14962	15383	0	756
17.021	-0.397	14877	15432	0	756
20.844	3.173	14799	15458	0	756
19.546	3.282	14746	15494	0	756
14.966	-0.180	14700	15587	0	756
10.097	-4.075	14681	15729	0	756
7.357	-5.626	14648	15868	0	756
7.465	-8.042	14635	15977	0	756
9.304	-8.907	14615	16080	0	756
11.432	-10.891	14602	16201	0	756
10.386	-13.163	14615	16356	0	756
7.825	-15.903	14635	16525	0	756
6.419	-13.523	14648	16662	0	756
8.150	-12.550	14668	16745	0	756
10.133	-11.107	14668	16802	0	756
9.989	-11.684	14668	16851	0	756
5.806	-17.634	14648	16889	0	756
-0.793	-23.008	14681	16928	0	756
-8.691	-27.660	14681	16954	0	756
-12.153	-30.004	14681	16949	0	756
-7.898	-25.063	14668	16910	0	756
-3.642	-20.483	14648	16869	0	756
0.541	-19.726	14635	16822	0	756
-1.118	-21.601	14615	16771	0	756
-5.013	-27.119	14582	16698	0	756
-9.016	-31.013	14517	16572	0	756
-9.376	-34.079	14438	16391	0	756
-8.511	-35.088	14353	16224	0	756
-10.061	-40.678	14274	16101	0	756
-12.477	-46.845	14209	16015	0	756
-15.398	-50.847	14156	15951	0	756
-18.752	-53.588	14058	15876	0	756
-16.769	-50.884	13980	15791	0	756
-17.346	-47.025	13914	15731	0	756
-17.670	-46.845	13881	15726	0	756
-22.034	-45.402	13816	15757	0	756
-20.880	-42.697	13783	15775	0	756
-19.113	-38.154	13698	15786	0	756
-10.350	-29.354	13652	15809	0	756
-1.659	-18.608	13619	15819	0	756
6.167	-13.848	13534	15801	0	756
9.052	-11.432	13488	15799	0	756
6.563	-16.589	13436	15842	0	756
-1.190	-20.159	13390	15897	0	756
-6.203	-24.594	13357	15935	0	756
-8.943	-22.358	13272	15956	0	756
-6.816	-19.365	13259	15971	0	756
-0.938	-14.858	13206	16008	0	756
3.787	-14.785	13173	16052	0	756
3.750	-15.939	13095	16059	0	756
-0.541	-17.093	13042	16033	0	756
-1.551	-12.550	12997	16031	0	756
-2.633	-8.943	12977	16103	0	756
-1.983	-5.085	12977	16255	0	756
-3.065	-8.222	12997	16448	0	756
-7.212	-16.589	13062	16647	0	756
-10.386	-24.306	13141	16874	0	756
-8.799	-26.722	13239	17160	0	756
-1.082	-19.690	13370	17496	0	756
6.708	-15.038	13554	17832	0	756
8.691	-11.648	13717	18144	0	756
1.731	-12.622	13927	18443	0	756
-8.511	-18.175	14124	18745	0	756
-12.009	-14.858	14373	19060	0	756
-6.311	-9.232	14648	19378	0	756
5.842	-0.721	14930	19682	0	756
13.992	3.498	15225	19969	0	756
14.858	0.757	15552	20227	0	756
6.419	-6.022	15880	20452	0	756
-2.236	-11.107	16188	20630	0	756
-8.439	-9.701	16515	20728	0	756
-8.439	-4.400	16823	20756	0	756
-5.049	5.481	17104	20736	0	756
0.865	13.740	17412	20679	0	756
7.248	17.706	17674	20570	0	756
13.920	14.966	17923	20390	0	756
17.418	13.379	18166	20134	1	684
19.762	11.215	18382	19848	0	684
20.231	12.946	18579	19551	0	684
20.411	20.267	18756	19226	0	684
22.070	27.010	18920	18893	0	684
16.192	28.020	19116	18593	0	684
11.396	25.496	19267	18327	0	684
6.599	21.818	19444	18054	0	684
6.527	18.428	19562	17746	0	684
14.497	21.781	19693	17442	0	684
23.476	27.083	19824	17181	0	684
25.207	26.830	19988	16982	0	684
22.250	25.460	20099	16809	0	684
17.021	22.719	20184	16611	0	684
11.792	19.365	20296	16382	0	684
13.379	20.159	20381	16155	0	684
14.245	20.772	20446	15946	0	684
10.422	14.605	20512	15739	0	684
6.022	8.366	20525	15491	0	684
-0.252	2.705	20446	15130	0	684
-3.246	3.750	20348	14645	0	684
0.036	10.494	20217	14131	0	684
5.914	18.644	20066	13713	0	684
9.592	23.008	19955	13429	0	684
5.842	15.723	19824	13246	0	684
-1.262	7.032	19726	13106	0	684
-7.681	-0.902	19542	12936	0	684
-4.364	-0.325	19378	12735	0	684
5.626	9.809	19214	12567	0	684
15.435	19.473	19018	12476	0	684
21.781	24.594	18887	12474	0	684
17.995	23.981	18723	12523	0	684
15.254	17.310	18579	12590	0	684
13.776	12.730	18428	12691	0	684
12.766	9.520	18297	12843	0	684
12.045	5.842	18186	13042	0	684
5.986	3.246	18087	13264	0	684
1.587	2.849	17969	13470	0	684
-0.252	4.472	17858	13661	0	684
4.508	8.547	17760	13878	0	684
13.487	13.379	17694	14141	0	684
19.149	12.730	17609	14428	0	684
18.247	10.494	17543	14689	0	684
12.586	6.960	17498	14911	0	684
8.042	7.248	17412	15109	0	684
10.458	10.566	17347	15287	0	684
16.408	15.326	17268	15458	0	684
16.156	12.297	17268	15703	0	684
9.737	8.294	17268	16033	0	684
0.108	1.515	17281	16330	0	684
-3.967	0.000	17235	16494	0	684
2.236	4.436	17203	16567	0	684
10.133	10.494	17137	16621	0	684
10.422	10.710	17137	16714	0	684
3.354	8.727	17137	16856	0	684
-1.082	5.445	17117	17019	0	684
0.144	6.419	17150	17145	0	684
13.740	11.540	17137	17222	0	684
23.080	14.064	17150	17287	0	684
24.991	13.740	17170	17349	0	684
14.894	9.088	17150	17388	0	684
5.517	4.183	17170	17395	0	684
2.200	5.337	17150	17390	0	684
8.330	7.645	17170	17390	0	684
17.634	12.766	17170	17393	0	684
23.585	13.271	17183	17382	0	684
23.260	11.864	17183	17336	0	684
20.014	8.547	17150	17259	0	684
19.942	7.393	17150	17181	0	684
21.096	9.520	17137	17117	0	684
23.224	10.386	17137	17068	0	684
21.709	9.160	17137	17013	0	684
14.461	4.796	17104	16946	0	684
9.592	0.613	17104	16869	0	684
7.537	1.406	17052	16771	0	684
10.638	6.094	17019	16662	0	684
15.074	13.451	16986	16551	0	684
18.103	15.326	16921	16453	0	684
14.245	14.353	16888	16359	0	684
11.107	8.186	16823	16224	0	684
13.487	4.760	16744	16054	0	684
17.310	5.914	16659	15907	0	684
22.647	5.265	16560	15814	0	684
21.457	5.734	16515	15762	0	684
14.064	2.488	16449	15713	0	684
7.825	1.010	16371	15649	0	684
9.520	3.895	16306	15597	0	684
16.516	10.638	16253	15579	0	684
23.404	14.749	16188	15610	0	684
22.070	14.389	16142	15667	0	684
16.552	7.717	16090	15703	0	684
10.242	3.823	16044	15708	0	684
11.612	3.210	15978	15724	0	684
15.975	5.842	15959	15783	0	684
15.435	7.537	15913	15863	0	684
10.927	5.950	15880	15925	0	684
5.265	3.714	15827	15969	0	684
4.868	3.570	15814	16008	0	684
10.494	5.013	15749	16026	0	684
16.949	3.390	15696	16021	0	684
18.356	1.695	15631	15990	0	684
15.903	-2.200	15533	15917	0	684
12.694	-3.282	15454	15817	0	684
14.208	3.210	15303	15700	0	684
22.214	11.792	15192	15566	0	684
30.905	21.998	15074	15453	0	684
36.242	27.876	14962	15401	0	684
33.502	22.070	14877	15411	0	684
22.322	14.461	14766	15411	0	684
12.369	4.616	14648	15373	0	684
7.862	2.452	14550	15349	0	684
13.343	7.032	14451	15373	0	684
21.493	13.704	14340	15391	0	684
23.116	12.009	14222	15383	0	684
14.966	4.652	14143	15383	0	684
3.065	-3.173	14045	15435	0	684
-1.551	-4.364	13980	15551	0	684
4.183	1.731	13927	15713	0	684
15.110	7.609	13914	15889	0	684
22.431	11.648	13862	16039	0	684
23.188	6.816	13829	16155	0	684
16.084	2.885	13816	16258	0	684
13.199	1.010	13763	16359	0	684
11.071	5.517	13750	16461	0	684
13.235	8.871	13717	16549	0	684
14.894	14.785	13698	16613	0	684
17.202	16.372	13632	16634	0	684
21.709	18.031	13567	16572	0	684
26.974	17.959	13488	16487	0	684
28.922	18.860	13468	16502	0	684
27.443	15.939	13455	16613	0	684
22.178	16.228	13436	16698	0	684
15.290	12.405	13390	16711	0	684
12.982	9.340	13357	16673	0	684
12.766	10.097	13324	16634	0	684
19.149	10.927	13272	16634	0	684
19.329	13.271	13272	16665	0	684
18.175	16.877	13239	16698	0	684
12.441	16.372	13193	16683	0	684
11.937	18.608	13128	16572	0	684
14.389	18.752	13042	16412	0	684
15.759	18.283	12944	16268	0	684
18.644	14.605	12846	16150	0	684
14.894	10.097	12780	16064	0	684
15.326	9.340	12715	16033	0	684
17.526	10.242	12682	16070	0	684
20.447	10.999	12669	16181	0	684
13.668	8.835	12682	16341	0	684
3.029	0.577	12715	16507	0	684
-2.488	-4.111	12748	16680	0	684
-2.633	-3.570	12800	16866	0	684
8.006	2.524	12865	17034	0	684
16.372	10.097	12944	17194	0	684
20.050	14.894	13042	17403	0	684
22.034	18.500	13193	17672	0	684
21.168	18.031	13337	17968	0	684
18.824	16.480	13521	18239	0	684
14.858	12.081	13698	18482	0	684
9.737	6.383	13914	18727	0	684
8.222	2.452	14143	18996	0	684
14.353	4.183	14419	19293	0	684
22.214	9.701	14700	19600	0	684
25.243	13.523	14995	19871	0	684
20.231	13.992	15303	20119	0	684
13.199	13.379	15664	20366	0	684
9.340	9.845	16011	20609	0	684
13.848	10.097	16384	20823	0	684
19.582	11.720	16744	20976	0	684
19.870	11.648	17085	21061	0	684
15.254	8.583	17478	21100	0	684
8.006	9.592	17825	21125	0	684
6.852	9.592	18199	21133	0	684
10.674	11.756	18559	21081	0	684
13.631	11.937	18887	20965	0	684
17.238	13.487	19234	20805	0	684
17.093	12.261	19542	20599	0	684
21.096	17.815	19824	20341	1	704
24.955	22.503	20099	20036	0	704
27.371	26.650	20361	19695	0	704
24.053	26.614	20558	19308	0	704
12.694	16.985	20722	18831	0	704
3.101	7.285	20840	18281	0	704
-2.921	-1.803	20971	17749	0	704
-2.380	-4.219	21049	17274	0	704
-0.144	-1.983	21167	16856	0	704
2.633	2.705	21213	16464	0	704
4.147	4.400	21246	16018	0	704
5.049	6.094	21213	15445	0	704
9.629	6.671	21115	14818	0	704
10.963	7.285	21049	14281	0	704
9.124	5.193	20951	13881	0	704
4.508	4.039	20885	13561	0	704
1.623	2.344	20820	13302	0	704
3.354	6.635	20722	13122	0	704
8.258	11.684	20689	13021	0	704
9.448	13.054	20623	12972	0	704
8.330	12.802	20545	12954	0	704
10.169	12.550	20512	12969	0	704
14.281	15.182	20460	13016	0	704
19.906	20.303	20394	13086	0	704
19.654	19.942	20348	13171	0	704
14.172	15.687	20283	13259	0	704
7.104	7.898	20197	13333	0	704
7.429	7.537	20099	13393	0	704
15.110	11.756	19988	13401	0	704
21.060	14.136	19837	13357	0	704
17.166	13.595	19706	13333	0	704
8.439	4.364	19562	13364	0	704
0.144	-2.344	19444	13426	0	704
5.517	0.649	19267	13473	0	704
16.697	11.720	19136	13501	0	704
31.879	20.591	18952	13553	0	704
34.656	23.440	18841	13661	0	704
28.381	16.697	18723	13829	0	704
19.329	8.439	18612	14036	0	704
15.290	4.760	18526	14234	0	704
13.631	5.554	18415	14399	0	704
12.910	7.501	18297	14552	0	704
10.458	6.131	18218	14738	0	704
10.638	5.590	18153	14962	0	704
15.795	9.232	18068	15184	0	704
22.467	13.415	18002	15383	0	704
27.227	18.933	17969	15584	0	704
25.820	16.264	17923	15814	0	704
19.437	12.586	17891	16044	0	704
15.290	7.429	17858	16235	0	704
10.891	4.832	17825	16379	0	704
9.016	4.472	17806	16502	0	704
7.212	7.393	17740	16613	0	704
6.383	6.671	17707	16709	0	704
6.599	5.626	17694	16802	0	704
5.373	3.282	17694	16908	0	704
2.452	0.144	17661	17000	0	704
1.298	0.685	17609	17024	0	704
6.888	6.491	17596	16988	0	704
18.139	15.759	17530	16962	0	704
28.056	24.594	17530	16975	0	704
30.617	26.361	17478	17013	0	704
18.356	16.625	17465	17031	0	704
1.947	2.777	17432	16998	0	704
-13.451	-9.268	17366	16928	0	704
-15.326	-14.821	17314	16827	0	704
-7.825	-7.717	17235	16714	0	704
2.416	3.967	17183	16636	0	704
8.402	12.009	17117	16590	0	704
10.350	12.153	17085	16551	0	704
8.979	8.727	17039	16523	0	704
9.268	2.488	17006	16533	0	704
10.242	0.577	17006	16572	0	704
8.330	3.931	16973	16587	0	704
5.842	8.294	16921	16562	0	704
3.065	10.927	16888	16528	0	704
1.623	11.864	16855	16505	0	704
1.695	8.150	16823	16479	0	704
-1.947	2.705	16757	16445	0	704
-7.717	-3.498	16744	16417	0	704
-13.163	-7.717	16691	16394	0	704
-11.396	-7.465	16626	16328	0	704
-6.852	-0.757	16547	16204	0	704
1.803	7.825	16482	16095	0	704
6.744	13.091	16397	16041	0	704
7.717	15.254	16352	16033	0	704
5.265	10.783	16306	16026	0	704
1.551	4.255	16221	15979	0	704
0.288	1.334	16155	15920	0	704
1.803	-0.144	16090	15886	0	704
2.596	-1.010	16024	15879	0	704
4.580	0.180	15978	15873	0	704
6.131	0.721	15893	15853	0	704
7.573	4.616	15827	15848	0	704
12.189	9.052	15795	15881	0	704
16.048	15.254	15729	15946	0	704
18.897	15.290	15696	16005	0	704
15.507	13.054	15664	16033	0	704
9.665	11.071	15585	16028	0	704
8.871	8.439	15533	16018	0	704
8.655	11.684	15467	16026	0	704
11.179	11.648	15434	16054	0	704
11.756	10.602	15369	16075	0	704
11.071	8.763	15303	16044	0	704
11.360	11.143	15192	15941	0	704
19.293	14.100	15074	15796	0	704
26.938	21.349	14943	15654	0	704
31.554	24.522	14831	15553	0	704
29.571	24.450	14733	15512	0	704
21.457	21.168	14615	15499	0	704
13.812	16.336	14504	15463	0	704
11.432	13.776	14386	15411	0	704
12.730	9.268	14288	15398	0	704
9.592	5.121	14209	15447	0	704
6.094	0.541	14143	15546	0	704
-0.397	-2.416	14058	15644	0	704
-4.219	-2.380	13993	15693	0	704
-1.983	1.406	13894	15724	0	704
5.554	7.285	13848	15793	0	704
12.982	8.799	13816	15917	0	704
13.812	8.871	13763	16062	0	704
14.641	5.770	13750	16186	0	704
11.071	3.534	13698	16289	0	704
5.481	1.803	13665	16364	0	704
2.200	1.515	13619	16384	0	704
0.216	-0.216	13534	16366	0	704
2.236	-1.082	13488	16333	0	704
6.383	-0.865	13423	16317	0	704
13.920	-1.226	13337	16333	0	704
17.093	-1.298	13305	16364	0	704
16.877	-0.108	13291	16427	0	704
13.740	1.803	13272	16551	0	704
8.943	5.770	13239	16634	0	704
9.052	11.323	13173	16567	0	704
14.136	17.418	13075	16443	0	704
20.700	19.437	13029	16364	0	704
27.191	21.204	12964	16330	0	704
26.866	15.038	12911	16338	0	704
16.733	10.927	12879	16384	0	704
10.061	6.275	12833	16425	0	704
8.799	6.888	12800	16430	0	704
13.956	10.999	12767	16435	0	704
20.916	14.641	12734	16469	0	704
20.880	12.081	12715	16518	0	704
14.425	6.816	12682	16567	0	704
7.248	3.534	12702	16626	0	704
6.347	1.875	12715	16714	0	704
8.294	3.137	12748	16851	0	704
9.304	4.652	12813	17034	0	704
8.294	3.895	12898	17243	0	704
9.268	3.606	12997	17455	0	704
13.379	5.878	13108	17666	0	704
17.634	8.114	13226	17888	0	704
20.231	10.674	13423	18131	0	704
15.579	9.160	13586	18392	0	704
11.540	8.258	13763	18637	0	704
13.343	7.285	13993	18872	0	704
17.995	9.845	14222	19117	0	704
20.014	8.547	14471	19342	0	704
17.202	6.924	14733	19546	0	704
9.953	4.075	15041	19804	0	704
2.777	1.118	15388	20116	0	704
0.757	0.000	15696	20361	0	704
0.902	-1.839	16011	20485	0	704
0.469	-5.662	16319	20534	0	704
-0.505	-9.196	16626	20557	0	704
1.623	-6.888	16941	20578	0	704
6.960	3.859	17249	20583	0	704
18.031	16.913	17563	20539	0	704
24.270	26.578	17838	20418	0	704
25.784	21.962	18120	20253	0	704
18.824	12.477	18395	20085	0	704
11.720	2.596	18690	19935	1	688
8.330	1.803	18952	19786	0	688
12.982	6.527	19234	19584	0	688
16.444	13.235	19463	19339	0	688
16.552	12.333	19693	19089	0	688
10.530	7.789	19922	18843	0	688
3.426	2.344	20132	18583	0	688
2.344	1.262	20296	18270	0	688
5.085	4.003	20427	17883	0	688
8.006	2.993	20525	17429	0	688
5.517	-0.541	20623	16977	0	688
-1.226	-4.724	20676	16590	0	688
-5.662	-3.642	20787	16304	0	688
-0.469	-0.108	20885	16072	0	688
11.143	11.035	20905	15788	0	688
21.493	16.697	20938	15422	0	688
26.686	15.939	20905	15034	0	688
23.657	13.091	20885	14686	0	688
18.788	10.530	20840	14402	0	688
17.634	7.393	20840	14183	0	688
13.235	6.311	20787	13999	0	688
10.458	3.823	20722	13832	0	688
5.842	1.659	20689	13690	0	688
5.373	2.128	20643	13607	0	688
8.258	4.472	20577	13573	0	688
13.631	6.239	20545	13561	0	688
15.002	7.825	20479	13542	0	688
12.333	6.527	20414	13532	0	688
9.232	10.061	20348	13558	0	688
10.819	12.802	20315	13628	0	688
13.920	12.514	20250	13718	0	688
14.930	10.061	20165	13772	0	688
13.054	3.354	20086	13785	0	688
6.527	-2.092	19968	13795	0	688
1.803	-2.488	19870	13821	0	688
2.164	1.334	19771	13852	0	688
5.337	6.455	19660	13883	0	688
12.009	9.737	19529	13919	0	688
15.831	13.127	19411	13937	0	688
21.962	17.706	19214	13891	0	688
25.027	17.166	19070	13832	0	688
26.686	17.995	18920	13888	0	688
20.952	9.881	18808	14030	0	688
9.376	2.560	18625	14066	0	688
-3.354	-6.708	18415	13966	0	688
-12.333	-13.631	18218	13875	0	688
-12.622	-13.018	18035	13899	0	688
-6.419	-10.169	17871	14012	0	688
2.705	-6.816	17740	14170	0	688
9.232	0.036	17629	14340	0	688
14.713	4.688	17478	14510	0	688
15.146	5.842	17380	14694	0	688
15.290	8.547	17281	14913	0	688
14.966	8.619	17235	15179	0	688
15.723	9.629	17150	15468	0	688
17.851	7.753	17117	15739	0	688
16.444	5.193	17104	15997	0	688
15.182	1.587	17072	16263	0	688
10.278	-0.685	17085	16528	0	688
10.963	-0.216	17072	16771	0	688
15.074	3.318	17085	16980	0	688
20.447	8.799	17085	17153	0	688
23.765	12.261	17072	17290	0	688
23.224	11.540	17072	17382	0	688
17.923	13.235	17085	17470	0	688
17.093	13.451	17117	17612	0	688
18.680	17.887	17170	17772	0	688
21.168	20.772	17150	17816	0	688
18.392	20.988	17117	17705	0	688
14.966	15.254	17072	17537	0	688
8.006	9.088	17039	17432	0	688
8.042	5.986	17039	17403	0	688
12.658	5.265	17019	17390	0	688
16.661	8.475	16986	17333	0	688
17.779	8.078	16973	17235	0	688
12.261	7.898	16941	17127	0	688
8.366	7.176	16888	17042	0	688
10.819	7.176	16888	16995	0	688
17.202	9.556	16875	16962	0	688
26.470	11.576	16855	16902	0	688
28.237	10.999	16809	16822	0	688
24.017	9.701	16790	16747	0	688
16.877	8.078	16777	16688	0	688
7.862	8.835	16744	16631	0	688
4.868	8.943	16691	16546	0	688
7.140	7.609	16646	16440	0	688
12.009	4.796	16593	16343	0	688
14.389	-1.190	16528	16230	0	688
15.290	-4.291	16449	16098	0	688
10.855	-3.210	16371	15969	0	688
6.131	-0.144	16286	15845	0	688
5.049	4.075	16175	15713	0	688
9.196	4.075	16044	15548	0	688
13.884	4.183	15945	15380	0	688
14.136	0.180	15814	15272	0	688
13.091	-2.885	15716	15246	0	688
8.943	-4.977	15651	15272	0	688
9.412	-1.911	15533	15277	0	688
12.081	2.236	15434	15231	0	688
18.680	6.924	15323	15184	0	688
20.952	10.242	15225	15184	0	688
19.437	10.097	15139	15225	0	688
19.834	9.556	15041	15285	0	688
17.670	10.422	14976	15352	0	688
22.214	14.713	14910	15424	0	688
24.775	16.192	14845	15515	0	688
23.729	16.300	14799	15636	0	688
20.231	9.448	14733	15775	0	688
12.117	1.659	14713	15907	0	688
3.678	-6.311	14681	16026	0	688
1.406	-9.016	14648	16137	0	688
1.190	-6.671	14635	16255	0	688
3.678	-0.865	14615	16372	0	688
9.845	4.580	14582	16456	0	688
14.966	9.484	14550	16507	0	688
24.234	12.405	14517	16536	0	688
31.338	16.733	14451	16500	0	688
35.882	17.743	14373	16407	0	688
38.082	18.824	14288	16328	0	688
36.855	17.129	14222	16294	0	688
34.079	18.175	14209	16315	0	688
30.112	16.336	14143	16364	0	688
23.512	14.821	14111	16396	0	688
15.615	11.396	14078	16433	0	688
9.160	7.393	14078	16492	0	688
9.484	2.777	14045	16556	0	688
12.910	2.669	14025	16616	0	688
15.831	2.957	14012	16662	0	688
17.562	3.931	14012	16696	0	688
15.543	4.724	13980	16711	0	688
13.235	6.094	13947	16686	0	688
12.658	6.527	13894	16605	0	688
11.323	5.517	13816	16497	0	688
9.845	2.380	13763	16402	0	688
8.835	-0.721	13717	16356	0	688
9.773	-1.551	13665	16356	0	688
12.261	2.236	13665	16384	0	688
19.401	6.599	13619	16402	0	688
22.647	13.054	13619	16407	0	688
22.791	14.172	13554	16391	0	688
19.726	11.612	13501	16317	0	688
16.589	11.684	13403	16191	0	688
14.533	11.396	13337	16085	0	688
18.572	12.297	13272	16033	0	688
21.060	15.543	13193	15995	0	688
21.349	12.982	13108	15922	0	688
20.772	10.819	13042	15840	0	688
15.579	6.816	12977	15822	0	688
13.920	5.229	12931	15876	0	688
12.622	6.852	12865	15935	0	688
11.828	7.898	12846	15969	0	688
11.828	10.927	12780	15977	0	688
11.360	9.304	12734	15977	0	688
13.235	8.114	12702	16010	0	688
16.408	7.212	12669	16080	0	688
16.120	8.943	12636	16157	0	688
15.146	8.619	12616	16232	0	688
9.592	9.484	12616	16333	0	688
7.176	8.763	12649	16489	0	688
10.710	9.052	12715	16704	0	688
16.120	8.475	12800	16954	0	688
18.860	9.340	12898	17204	0	688
20.411	9.809	13010	17457	0	688
20.375	13.992	13160	17736	0	688
23.621	16.408	13324	18056	0	688
28.453	20.447	13534	18392	0	688
26.686	17.166	13750	18720	0	688
17.093	10.638	14012	19040	0	688
8.366	4.904	14255	19334	0	688
7.393	3.173	14504	19551	0	688
12.982	5.085	14746	19708	0	688
21.962	5.590	15008	19884	0	688
19.798	2.633	15336	20101	0	688
15.615	3.137	15664	20335	0	688
11.684	4.724	16011	20555	0	688
16.985	12.045	16352	20720	0	688
22.791	15.218	16711	20829	0	688
26.470	14.497	17052	20906	0	688
18.860	6.419	17412	20960	0	688
11.287	0.793	17773	20968	0	688
6.419	3.173	18100	20911	0	688
11.323	9.809	18428	20803	0	688
20.555	20.916	18743	20679	0	688
24.270	20.591	19083	20565	0	688
19.365	15.290	19411	20441	1	736
8.222	1.947	19726	20274	0	736
-5.301	-8.475	20034	20062	0	736
-10.710	-11.360	20315	19804	0	736
-9.376	-5.265	20577	19515	0	736
-0.649	1.767	20820	19192	0	736
8.258	10.422	21003	18831	0	736
11.107	14.425	21200	18430	0	736
12.045	14.281	21331	17984	0	736
8.186	12.586	21410	17465	0	736
3.426	6.924	21475	16897	0	736
2.056	1.190	21508	16354	0	736
1.442	-2.777	21528	15866	0	736
0.541	-1.911	21528	15424	0	736
0.072	2.669	21528	14991	0	736
3.498	10.819	21475	14560	0	736
13.307	19.473	21429	14175	0	736
23.476	22.755	21364	13855	0	736
26.830	20.880	21311	13571	0	736
17.526	9.052	21200	13300	0	736
2.741	0.613	21115	13057	0	736
-8.042	-6.239	21003	12871	0	736
-5.481	-0.902	20938	12758	0	736
6.744	8.691	20840	12737	0	736
18.247	16.120	20787	12786	0	736
19.185	15.795	20709	12833	0	736
14.208	13.631	20610	12864	0	736
7.321	8.583	20545	12920	0	736
4.616	6.924	20460	13024	0	736
4.580	6.780	20381	13142	0	736
7.573	7.068	20283	13243	0	736
11.432	8.943	20184	13333	0	736
14.100	13.379	20066	13413	0	736
19.329	18.031	19935	13470	0	736
19.618	21.096	19804	13506	0	736
19.942	18.969	19673	13548	0	736
15.795	12.910	19529	13620	0	736
14.569	7.501	19398	13700	0	736
13.487	7.681	19214	13746	0	736
18.103	12.081	19070	13759	0	736
20.736	17.743	18906	13801	0	736
23.549	20.916	18743	13909	0	736
18.103	15.435	18644	14082	0	736
11.432	6.419	18513	14278	0	736
4.219	0.144	18415	14459	0	736
5.554	2.056	18297	14642	0	736
10.350	8.294	18218	14851	0	736
16.480	13.091	18133	15081	0	736
13.595	13.091	18087	15324	0	736
7.609	5.950	18022	15566	0	736
1.551	-2.056	17969	15791	0	736
0.288	-5.157	17956	16015	0	736
6.347	-3.678	17956	16266	0	736
12.369	-0.541	17956	16536	0	736
12.369	1.587	17956	16786	0	736
10.278	1.515	17956	16975	0	736
7.176	-1.010	17956	17122	0	736
5.445	-3.967	17969	17251	0	736
6.635	-6.094	17969	17367	0	736
6.996	-8.907	18002	17457	0	736
8.150	-10.386	17989	17514	0	736
9.737	-8.511	17969	17514	0	736
12.730	-4.724	17923	17426	0	736
18.500	0.829	17858	17274	0	736
19.473	4.219	17792	17132	0	736
18.572	2.524	17760	17044	0	736
12.153	-3.606	17707	16998	0	736
4.904	-8.402	17642	16931	0	736
2.380	-14.172	17596	16804	0	736
3.210	-12.874	17511	16667	0	736
7.862	-7.898	17465	16577	0	736
14.281	-3.967	17412	16538	0	736
18.031	2.452	17366	16507	0	736
18.464	3.750	17314	16453	0	736
15.939	2.344	17249	16399	0	736
15.651	-0.505	17235	16379	0	736
12.405	-4.508	17183	16379	0	736
12.514	-5.554	17137	16382	0	736
12.910	-4.760	17117	16369	0	736
13.812	-3.065	17052	16354	0	736
14.461	0.288	17052	16359	0	736
13.848	3.065	17019	16379	0	736
13.487	1.767	16986	16399	0	736
10.025	-0.974	16986	16433	0	736
5.409	-4.904	16973	16466	0	736
1.947	-8.114	16921	16471	0	736
-1.767	-8.439	16908	16438	0	736
-2.344	-4.291	16855	16372	0	736
0.144	-1.082	16790	16289	0	736
4.400	2.921	16724	16217	0	736
10.494	2.741	16646	16150	0	736
13.487	2.957	16580	16049	0	736
13.343	0.108	16482	15915	0	736
13.271	0.865	16397	15809	0	736
14.172	4.652	16319	15757	0	736
15.939	11.828	16253	15747	0	736
22.250	17.057	16175	15744	0	736
25.099	22.106	16109	15711	0	736
23.729	17.706	16011	15669	0	736
19.942	11.323	15945	15654	0	736
13.054	5.517	15880	15698	0	736
10.674	3.750	15847	15768	0	736
9.376	5.698	15762	15811	0	736
11.973	10.927	15716	15824	0	736
16.877	13.668	15664	15850	0	736
16.156	11.107	15618	15912	0	736
13.848	7.357	15585	15997	0	736
9.556	2.200	15533	16070	0	736
8.042	1.695	15500	16124	0	736
12.658	6.996	15467	16157	0	736
22.322	13.163	15402	16178	0	736
31.013	18.536	15388	16217	0	736
30.617	18.464	15402	16341	0	736
23.008	12.838	15402	16520	0	736
14.353	9.809	15402	16618	0	736
8.366	5.662	15323	16569	0	736
9.232	2.885	15290	16458	0	736
9.737	2.056	15192	16366	0	736
7.573	1.010	15139	16292	0	736
8.150	2.308	15061	16230	0	736
14.966	12.694	14995	16157	0	736
28.777	21.493	14877	16049	0	736
41.003	28.201	14779	15922	0	736
41.940	25.460	14681	15822	0	736
30.977	18.103	14582	15747	0	736
18.320	9.953	14471	15677	0	736
11.540	7.753	14373	15602	0	736
14.172	9.376	14255	15546	0	736
15.254	10.242	14189	15528	0	736
14.930	8.439	14111	15569	0	736
8.366	1.947	14045	15657	0	736
4.291	-1.911	13980	15729	0	736
3.714	-3.390	13848	15662	0	736
6.635	-1.695	13632	15393	0	736
9.196	0.361	13436	15073	0	736
9.160	2.128	13239	14893	0	736
9.268	1.731	13095	14851	0	736
13.127	3.426	12964	14877	0	736
19.726	5.554	12833	14918	0	736
24.847	8.186	12682	14926	0	736
25.460	6.888	12538	14916	0	736
21.277	2.416	12407	14960	0	736
11.035	-4.436	12289	15076	0	736
4.868	-9.484	12223	15233	0	736
1.983	-10.783	12125	15391	0	736
0.397	-11.143	12046	15535	0	736
-2.236	-11.937	12014	15688	0	736
-3.967	-10.710	11948	15884	0	736
-3.390	-9.484	11928	16113	0	736
2.380	-4.580	11928	16333	0	736
8.871	-1.298	11896	16510	0	736
12.081	-0.577	11896	16675	0	736
12.730	-0.902	11883	16846	0	736
14.172	0.288	11896	17021	0	736
17.202	2.344	11928	17186	0	736
23.116	3.642	11928	17315	0	736
23.368	3.462	11948	17416	0	736
17.634	-1.370	11994	17514	0	736
10.494	-2.380	12027	17625	0	736
6.275	-4.039	12092	17749	0	736
6.131	-3.282	12158	17863	0	736
8.258	-2.957	12191	17919	0	736
8.583	-3.534	12223	17909	0	736
9.989	-3.859	12243	17868	0	736
8.583	-4.436	12289	17829	0	736
6.708	-6.058	12341	17829	0	736
5.013	-6.599	12407	17888	0	736
2.344	-7.537	12505	17979	0	736
2.236	-5.337	12584	18036	0	736
7.862	-1.731	12682	18067	0	736
13.884	0.721	12833	18183	0	736
16.048	1.226	13042	18436	0	736
16.949	0.577	13272	18766	0	736
14.425	-1.767	13554	19089	0	736
12.622	-0.433	13816	19362	0	736
16.264	4.977	14124	19610	0	736
20.375	11.720	14419	19873	0	736
22.827	14.028	14766	20147	0	736
18.283	8.835	15107	20397	0	736
8.114	-0.397	15487	20609	0	736
-0.577	-8.871	15827	20772	0	736
-2.849	-7.898	16208	20903	0	736
2.777	-1.190	16593	21025	0	736
8.475	5.301	16986	21123	0	736
8.150	4.039	17347	21154	0	736
1.515	-2.236	17727	21120	0	736
-1.587	-7.537	18087	21032	0	736
3.354	-5.554	18428	20890	0	736
17.021	2.777	18775	20723	0	736
25.784	9.484	19116	20578	1	756
24.775	10.025	19431	20397	0	756
16.949	7.501	19693	20083	0	756
9.376	4.832	19955	19677	0	756
9.340	10.025	20184	19290	0	756
15.543	15.795	20394	18921	0	756
16.949	19.473	20545	18461	0	756
15.002	20.664	20656	17883	0	756
9.088	17.887	20722	17297	0	756
6.094	18.680	20787	16758	0	756
6.131	19.690	20820	16253	0	756
7.429	15.543	20872	15783	0	756
2.849	11.143	20885	15370	0	756
-1.911	5.986	20885	15006	0	756
-0.036	6.671	20905	14668	0	756
9.592	12.117	20885	14366	0	756
23.801	20.627	20905	14116	0	756
32.348	20.952	20885	13937	0	756
31.879	19.149	20872	13811	0	756
23.080	15.002	20872	13695	0	756
14.136	15.002	20807	13573	0	756
12.117	15.687	20787	13470	0	756
12.477	18.824	20741	13408	0	756
12.153	16.697	20689	13375	0	756
11.107	13.595	20623	13341	0	756
10.206	10.927	20558	13305	0	756
13.595	12.802	20479	13287	0	756
21.926	19.546	20381	13279	0	756
26.542	23.224	20296	13271	0	756
27.948	24.630	20184	13264	0	756
23.981	23.188	20086	13277	0	756
18.860	18.175	19968	13308	0	756
12.586	15.182	19857	13318	0	756
9.376	11.828	19673	13290	0	756
4.147	7.140	19529	13266	0	756
-1.442	4.652	19365	13266	0	756
-3.859	2.849	19182	13264	0	756
-2.092	3.426	19005	13243	0	756
3.426	7.645	18788	13233	0	756
11.071	11.251	18625	13277	0	756
15.146	17.093	18461	13398	0	756
17.815	17.490	18349	13599	0	756
16.012	18.500	18231	13839	0	756
12.189	15.471	18100	14051	0	756
11.432	11.720	17989	14250	0	756
11.973	12.658	17904	14477	0	756
12.441	12.189	17838	14748	0	756
15.182	13.704	17760	15040	0	756
13.920	12.261	17694	15303	0	756
14.930	11.107	17629	15522	0	756
15.651	13.848	17576	15711	0	756
18.824	17.418	17498	15876	0	756
20.339	19.654	17445	16018	0	756
23.152	21.349	17366	16144	0	756
21.096	18.788	17314	16266	0	756
20.159	13.523	17216	16354	0	756
14.785	12.441	17170	16402	0	756
13.523	11.179	17072	16438	0	756
9.304	10.819	17019	16494	0	756
7.176	9.809	16973	16585	0	756
5.337	8.258	16921	16701	0	756
2.921	4.111	16888	16786	0	756
2.200	0.216	16842	16827	0	756
2.741	-0.938	16809	16879	0	756
6.167	-0.216	16777	16959	0	756
9.737	2.488	16757	17008	0	756
13.271	5.950	16691	16990	0	756
15.687	8.006	16626	16923	0	756
16.192	11.504	16580	16871	0	756
17.490	13.920	16528	16866	0	756
16.156	14.425	16515	16900	0	756
15.254	13.884	16495	16946	0	756
13.307	10.746	16482	16985	0	756
13.884	7.068	16462	17013	0	756
11.251	8.114	16449	17055	0	756
9.953	9.556	16482	17111	0	756
7.970	10.927	16495	17173	0	756
6.852	10.169	16515	17220	0	756
7.032	8.222	16515	17235	0	756
6.888	4.652	16515	17207	0	756
4.039	0.144	16462	17099	0	756
0.397	-4.039	16397	16936	0	756
-2.741	-5.806	16352	16776	0	756
-1.479	-4.219	16273	16624	0	756
3.570	-0.252	16208	16464	0	756
7.789	3.823	16090	16286	0	756
9.340	3.354	16011	16093	0	756
7.465	1.479	15893	15922	0	756
7.248	1.515	15749	15721	0	756
9.376	7.465	15585	15437	0	756
17.166	14.281	15402	15174	0	756
23.549	22.142	15270	15040	0	756
30.076	22.431	15139	15016	0	756
29.751	20.014	15074	15058	0	756
26.253	13.956	15028	15176	0	756
18.608	8.691	14976	15344	0	756
12.225	4.039	14930	15509	0	756
6.708	2.741	14910	15659	0	756
6.094	4.940	14897	15819	0	756
9.773	7.681	14897	16000	0	756
13.163	11.107	14877	16175	0	756
12.838	9.448	14864	16323	0	756
12.658	6.239	14877	16433	0	756
9.773	2.416	14864	16515	0	756
6.671	1.406	14812	16536	0	756
5.950	1.082	14766	16492	0	756
2.416	1.010	14713	16453	0	756
2.813	1.370	14668	16443	0	756
8.799	4.111	14615	16433	0	756
17.093	11.396	14550	16384	0	756
24.955	19.293	14484	16325	0	756
26.542	27.263	14451	16333	0	756
25.027	25.893	14451	16404	0	756
21.637	23.332	14419	16464	0	756
21.529	21.204	14373	16461	0	756
23.981	19.834	14320	16409	0	756
27.119	24.198	14255	16346	0	756
28.273	29.138	14209	16302	0	756
26.145	27.191	14176	16304	0	756
21.637	21.132	14143	16307	0	756
12.514	10.927	14025	16237	0	756
3.787	-0.721	13914	16054	0	756
-0.865	-6.671	13783	15814	0	756
-0.865	-7.501	13652	15649	0	756
1.370	-3.354	13567	15592	0	756
6.419	0.216	13455	15577	0	756
12.694	6.203	13390	15569	0	756
18.752	13.415	13291	15587	0	756
23.260	17.021	13239	15631	0	756
25.207	18.103	13193	15690	0	756
20.303	13.956	13128	15755	0	756
17.887	7.321	13062	15835	0	756
15.110	5.914	13029	15915	0	756
17.634	5.373	12964	15956	0	756
16.841	7.501	12898	15953	0	756
16.336	7.248	12833	15969	0	756
11.937	6.708	12780	16039	0	756
11.107	7.501	12767	16139	0	756
13.018	11.648	12702	16201	0	756
12.730	13.307	12649	16201	0	756
14.569	11.720	12603	16214	0	756
11.864	7.645	12571	16281	0	756
10.386	2.633	12551	16379	0	756
11.251	2.380	12538	16474	0	756
12.261	5.878	12538	16559	0	756
12.730	8.943	12518	16636	0	756
14.028	12.477	12518	16719	0	756
11.720	11.468	12551	16825	0	756
10.819	9.088	12584	16957	0	756
8.583	2.957	12603	17065	0	756
7.212	2.524	12649	17148	0	756
5.770	1.731	12682	17240	0	756
8.619	4.904	12748	17354	0	756
13.451	9.484	12813	17478	0	756
17.274	11.251	12879	17581	0	756
19.041	13.956	12964	17651	0	756
20.447	14.641	13010	17684	0	756
21.998	15.687	13042	17664	0	756
22.683	19.113	13095	17610	0	756
25.676	20.303	13173	17602	0	756
27.407	22.827	13272	17682	0	756
25.279	25.027	13370	17824	0	756
22.070	20.375	13521	17974	0	756
19.654	16.120	13652	18100	0	756
15.110	7.645	13848	18242	0	756
11.864	0.649	14025	18443	0	756
9.088	-3.390	14255	18691	0	756
9.304	-3.498	14484	18905	0	756
8.294	-2.633	14681	18988	0	756
11.143	0.397	14877	18991	0	756
10.819	1.767	15107	19065	0	756
10.819	1.659	15388	19241	0	756
11.107	-0.144	15664	19437	0	756
10.097	-2.993	15978	19600	0	756
7.898	-6.708	16253	19726	0	756
5.770	-6.744	16580	19848	0	756
7.285	-6.167	16875	19959	0	756
7.573	-1.334	17216	20023	0	756
10.386	3.137	17478	20008	0	756
11.396	4.760	17773	19935	0	756
7.681	2.885	18068	19827	0	756
1.118	-1.082	18284	19646	0	756
-3.282	-2.957	18494	19393	1	728
-2.849	-0.505	18723	19133	0	728
1.046	2.741	18939	18887	0	728
5.698	6.239	19083	18619	0	728
10.061	7.068	19247	18273	0	728
8.871	6.455	19345	17868	0	728
8.763	6.708	19463	17483	0	728
7.501	9.160	19562	17155	0	728
6.563	9.052	19660	16877	0	728
5.590	7.429	19739	16605	0	728
4.400	4.616	19824	16320	0	728
3.931	2.705	19903	16039	0	728
5.590	3.570	19922	15796	0	728
14.641	7.681	19968	15553	0	728
20.303	12.045	19968	15293	0	728
26.866	14.208	19968	15042	0	728
31.915	17.166	19968	14828	0	728
35.124	16.516	19968	14658	0	728
35.413	18.320	19968	14534	0	728
33.357	15.939	19955	14446	0	728
32.384	16.769	19955	14363	0	728
30.653	16.336	19922	14273	0	728
32.023	20.411	19870	14175	0	728
33.285	20.736	19824	14061	0	728
29.751	21.168	19706	13927	0	728
24.234	15.254	19627	13795	0	728
21.493	12.802	19509	13697	0	728
27.732	16.516	19431	13617	0	728
41.111	26.794	19247	13496	0	728
49.874	33.177	19103	13336	0	728
48.143	32.528	18920	13207	0	728
35.557	23.549	18788	13166	0	728
26.614	16.805	18644	13186	0	728
27.660	17.490	18494	13233	0	728
37.432	27.768	18330	13274	0	728
46.015	35.521	18186	13333	0	728
43.924	32.925	18055	13444	0	728
30.364	24.883	17937	13597	0	728
20.627	14.533	17806	13752	0	728
15.723	14.677	17694	13883	0	728
21.385	18.788	17543	14025	0	728
27.047	26.794	17432	14188	0	728
28.345	26.253	17314	14332	0	728
27.407	23.729	17170	14449	0	728
26.289	20.050	17072	14572	0	728
26.722	17.598	16954	14732	0	728
26.650	19.185	16875	14926	0	728
24.630	19.113	16777	15148	0	728
22.755	19.041	16744	15383	0	728
19.978	17.093	16678	15615	0	728
18.247	17.057	16626	15817	0	728
16.516	11.612	16528	15941	0	728
12.009	7.970	16429	15961	0	728
6.275	3.859	16319	15959	0	728
5.301	4.111	16240	16021	0	728
6.203	5.806	16175	16150	0	728
6.960	6.888	16142	16323	0	728
7.537	6.058	16090	16482	0	728
7.032	1.262	16057	16595	0	728
5.481	-2.308	16044	16696	0	728
2.885	-3.895	16011	16833	0	728
-0.685	-3.282	16024	17000	0	728
-0.829	0.685	16024	17153	0	728
-0.649	6.888	16044	17264	0	728
7.970	14.858	16057	17364	0	728
12.910	13.776	16077	17481	0	728
11.287	9.701	16122	17620	0	728
5.265	-1.262	16175	17759	0	728
-1.695	-8.619	16221	17852	0	728
-3.931	-11.071	16273	17899	0	728
1.767	-3.101	16306	17925	0	728
9.412	6.419	16352	17932	0	728
14.425	13.668	16384	17922	0	728
11.179	15.182	16416	17870	0	728
6.852	8.511	16429	17780	0	728
-0.685	-2.308	16416	17669	0	728
-3.787	-11.612	16397	17517	0	728
-3.642	-12.261	16397	17357	0	728
1.406	-7.934	16416	17277	0	728
7.321	0.397	16449	17282	0	728
9.737	5.481	16462	17248	0	728
8.691	5.770	16449	17114	0	728
7.104	1.298	16416	16926	0	728
3.787	-3.859	16384	16753	0	728
0.865	-3.823	16371	16624	0	728
5.121	-3.390	16352	16533	0	728
10.927	3.426	16306	16430	0	728
16.697	10.999	16253	16284	0	728
21.673	16.048	16188	16124	0	728
21.854	14.894	16142	16002	0	728
20.339	13.595	16090	15922	0	728
17.057	7.465	16057	15855	0	728
16.120	4.183	15978	15770	0	728
13.595	2.524	15913	15672	0	728
10.494	2.993	15847	15595	0	728
7.285	1.226	15814	15566	0	728
6.347	2.813	15749	15579	0	728
9.412	3.931	15696	15592	0	728
13.054	5.734	15664	15592	0	728
13.992	5.157	15585	15577	0	728
9.737	2.056	15533	15553	0	728
5.265	-4.364	15454	15517	0	728
2.092	-8.186	15388	15478	0	728
5.842	-6.816	15290	15455	0	728
12.838	-2.452	15225	15429	0	728
19.293	7.393	15107	15357	0	728
21.565	13.307	14962	15238	0	728
21.998	14.533	14831	15094	0	728
19.221	16.372	14635	14885	0	728
19.870	13.379	14419	14642	0	728
16.985	11.035	14242	14469	0	728
15.687	11.360	14078	14392	0	728
12.730	9.989	13914	14389	0	728
12.514	6.744	13783	14464	0	728
13.559	4.832	13685	14603	0	728
14.749	5.229	13567	14771	0	728
19.906	5.337	13501	14934	0	728
23.837	10.783	13403	15096	0	728
28.020	14.713	13357	15282	0	728
31.374	17.995	13324	15512	0	728
29.607	14.389	13291	15768	0	728
25.316	11.143	13272	15990	0	728
17.706	5.734	13239	16170	0	728
12.838	2.056	13206	16333	0	728
8.258	-0.072	13206	16482	0	728
7.609	-1.406	13173	16618	0	728
8.799	0.000	13160	16722	0	728
10.278	1.875	13108	16797	0	728
11.504	6.708	13108	16856	0	728
13.415	10.314	13075	16895	0	728
15.398	14.858	13062	16936	0	728
16.985	16.336	13075	17057	0	728
21.565	13.199	13108	17259	0	728
23.368	11.323	13160	17421	0	728
24.089	8.511	13173	17468	0	728
23.945	6.708	13160	17434	0	728
19.582	10.566	13160	17377	0	728
19.654	14.749	13141	17313	0	728
22.395	17.959	13108	17240	0	728
28.020	20.123	13062	17148	0	728
32.203	16.985	13042	17031	0	728
27.768	12.622	12997	16920	0	728
20.195	8.835	12964	16840	0	728
12.225	5.878	12944	16799	0	728
12.081	9.376	12931	16771	0	728
17.454	12.333	12898	16714	0	728
17.887	12.982	12846	16634	0	728
15.687	10.242	12833	16569	0	728
9.520	4.977	12800	16523	0	728
8.511	4.616	12767	16474	0	728
14.389	5.950	12734	16414	0	728
18.247	8.330	12702	16364	0	728
17.743	8.799	12669	16323	0	728
12.297	6.239	12603	16258	0	728
10.206	5.554	12551	16163	0	728
15.362	9.016	12505	16080	0	728
21.818	12.586	12453	16036	0	728
26.614	15.362	12420	16018	0	728
23.404	14.894	12374	16026	0	728
17.887	14.713	12374	16093	0	728
16.841	14.966	12387	16224	0	728
15.723	17.093	12387	16338	0	728
17.634	16.084	12407	16389	0	728
16.625	13.668	12420	16466	0	728
18.067	12.405	12472	16605	0	728
20.519	10.999	12551	16791	0	728
24.414	13.740	12649	17042	0	728
27.804	13.776	12780	17349	0	728
26.217	12.117	12977	17692	0	728
20.952	9.232	13173	18043	0	728
17.129	5.337	13423	18400	0	728
8.979	2.308	13665	18769	0	728
5.770	2.164	13960	19166	0	728
7.465	5.265	14307	19571	0	728
14.208	9.052	14602	19935	0	728
19.834	15.615	14962	20245	0	728
22.467	15.218	15323	20519	0	728
12.225	9.124	15683	20764	0	728
1.623	1.659	16044	20963	0	728
-3.606	-2.452	16416	21102	0	728
-1.695	-1.587	16777	21177	0	728
5.986	2.416	17137	21187	0	728
10.133	5.193	17465	21136	0	728
9.845	6.311	17792	21025	0	728
9.629	6.996	18100	20865	0	728
11.468	10.061	18415	20679	0	728
14.605	9.809	18723	20480	1	744
10.783	7.934	18985	20227	0	744
3.029	-0.685	19214	19894	0	744
-6.167	-8.294	19444	19509	0	744
-10.999	-10.242	19608	19089	0	744
-5.878	-5.265	19739	18609	0	744
6.275	3.678	19837	18072	0	744
12.622	10.278	19922	17524	0	744
14.425	10.422	19988	17011	0	744
6.419	1.190	20034	16556	0	744
-0.865	-6.960	20119	16183	0	744
-1.659	-6.852	20165	15866	0	744
7.825	-0.577	20197	15548	0	744
20.195	8.294	20217	15223	0	744
23.909	12.261	20230	14923	0	744
18.824	6.419	20230	14676	0	744
5.517	-2.272	20230	14467	0	744
-3.210	-6.383	20217	14263	0	744
-0.325	-1.731	20184	14069	0	744
10.422	7.862	20132	13888	0	744
15.615	12.802	20053	13692	0	744
16.625	11.540	19955	13473	0	744
6.347	2.380	19857	13282	0	744
1.334	-4.904	19739	13127	0	744
3.029	-5.806	19627	13006	0	744
11.215	-1.875	19496	12920	0	744
14.425	1.947	19345	12861	0	744
9.340	0.541	19214	12799	0	744
-0.613	-4.940	19037	12735	0	744
-6.455	-7.140	18906	12706	0	744
-3.029	-4.688	18743	12732	0	744
4.940	3.570	18592	12781	0	744
13.812	10.927	18428	12856	0	744
17.310	16.192	18284	12969	0	744
16.841	14.064	18186	13127	0	744
16.264	12.333	18035	13308	0	744
11.828	7.898	17904	13468	0	744
8.511	4.219	17773	13622	0	744
4.652	1.442	17661	13808	0	744
6.599	0.974	17576	14041	0	744
10.133	0.865	17478	14288	0	744
15.831	3.137	17399	14510	0	744
15.615	4.291	17281	14699	0	744
13.668	8.547	17203	14877	0	744
14.605	11.540	17104	15071	0	744
18.572	15.398	17039	15269	0	744
23.729	19.365	16973	15450	0	744
25.316	15.795	16875	15602	0	744
17.202	12.225	16790	15719	0	744
8.330	6.816	16678	15770	0	744
4.688	5.157	16560	15791	0	744
7.393	5.806	16515	15904	0	744
11.035	6.094	16482	16129	0	744
12.694	4.940	16449	16361	0	744
9.412	1.839	16397	16505	0	744
7.825	1.442	16352	16567	0	744
11.612	4.327	16286	16611	0	744
20.591	6.635	16240	16686	0	744
23.224	8.835	16221	16789	0	744
21.241	8.294	16188	16887	0	744
17.418	11.396	16155	16949	0	744
14.497	15.435	16142	17008	0	744
15.002	20.231	16142	17096	0	744
19.149	25.568	16155	17204	0	744
18.031	25.171	16142	17290	0	744
14.245	19.437	16142	17328	0	744
8.186	16.913	16122	17339	0	744
6.780	12.045	16122	17341	0	744
9.737	11.612	16122	17351	0	744
14.533	12.946	16142	17362	0	744
15.687	14.353	16155	17349	0	744
13.740	16.552	16122	17308	0	744
8.006	15.507	16090	17228	0	744
5.049	15.831	16024	17068	0	744
10.746	14.641	15945	16846	0	744
18.608	16.444	15880	16644	0	744
23.729	16.192	15795	16502	0	744
21.565	17.815	15716	16386	0	744
17.166	17.129	15651	16263	0	744
12.477	17.093	15552	16134	0	744
15.146	14.605	15519	16075	0	744
16.444	10.602	15454	16090	0	744
16.048	9.484	15434	16119	0	744
9.592	6.383	15369	16116	0	744
1.839	5.121	15336	16080	0	744
1.010	5.265	15270	16044	0	744
5.157	10.061	15257	16054	0	744
11.792	13.740	15205	16119	0	744
16.048	15.398	15225	16199	0	744
16.408	17.959	15192	16248	0	744
19.185	15.831	15139	16255	0	744
18.716	13.920	15126	16253	0	744
20.844	11.468	15107	16279	0	744
16.552	8.042	15061	16307	0	744
9.304	2.993	15028	16294	0	744
1.442	-0.577	14995	16250	0	744
0.325	-1.190	14930	16204	0	744
3.534	0.180	14864	16137	0	744
9.268	6.599	14766	16046	0	744
15.146	9.592	14700	15959	0	744
17.166	12.009	14615	15884	0	744
14.930	12.946	14517	15799	0	744
12.586	12.261	14386	15651	0	744
9.304	10.602	14255	15445	0	744
7.934	9.088	14091	15256	0	744
10.999	11.215	13947	15127	0	744
16.697	15.038	13796	15050	0	744
23.440	18.392	13665	14973	0	744
29.463	25.640	13488	14872	0	744
31.662	28.273	13357	14805	0	744
32.348	27.191	13226	14807	0	744
28.922	21.637	13095	14843	0	744
24.666	17.598	12944	14859	0	744
17.274	11.396	12813	14864	0	744
11.360	12.045	12682	14890	0	744
6.599	12.477	12571	14967	0	744
4.796	12.189	12485	15114	0	744
3.210	10.097	12440	15311	0	744
1.587	5.337	12354	15499	0	744
-0.180	0.829	12308	15667	0	744
-0.108	1.190	12276	15845	0	744
3.895	3.210	12243	16054	0	744
11.504	6.780	12243	16268	0	744
14.713	7.537	12210	16451	0	744
13.740	10.133	12191	16595	0	744
8.799	9.484	12158	16688	0	744
7.140	11.360	12092	16693	0	744
8.186	13.848	12014	16624	0	744
12.297	9.845	11928	16554	0	744
13.091	1.551	11883	16549	0	744
6.527	-8.402	11817	16595	0	744
0.938	-12.802	11784	16631	0	744
-0.757	-11.179	11719	16624	0	744
3.859	-3.210	11686	16621	0	744
7.176	3.750	11634	16660	0	744
8.258	5.301	11620	16709	0	744
5.121	0.577	11568	16724	0	744
0.216	-4.436	11535	16701	0	744
1.190	-5.301	11489	16675	0	744
4.508	-4.039	11437	16680	0	744
6.888	0.505	11437	16724	0	744
4.832	2.849	11424	16789	0	744
2.344	2.777	11404	16833	0	744
-0.397	0.036	11371	16825	0	744
1.082	-1.947	11326	16742	0	744
5.914	-1.983	11260	16613	0	744
9.953	-0.649	11175	16523	0	744
11.612	1.298	11142	16482	0	744
11.756	3.318	11109	16476	0	744
15.326	5.950	11096	16500	0	744
17.057	5.554	11063	16510	0	744
21.493	8.547	11044	16507	0	744
20.555	7.825	11031	16556	0	744
17.526	8.727	11077	16683	0	744
13.271	7.393	11129	16851	0	744
13.163	7.681	11194	17019	0	744
13.091	7.501	11273	17199	0	744
17.166	9.232	11371	17432	0	744
18.320	10.458	11555	17734	0	744
19.401	13.163	11751	18100	0	744
15.687	11.287	11994	18492	0	744
13.091	8.547	12243	18859	0	744
8.799	4.147	12518	19207	0	744
4.616	-0.902	12813	19566	0	744
3.606	-2.957	13160	19946	0	744
3.606	-1.515	13501	20323	0	744
4.291	2.921	13862	20604	0	744
8.186	3.931	14143	20712	0	744
12.514	4.904	14438	20699	0	744
12.766	2.308	14766	20718	0	744
12.009	-1.334	15094	20803	0	744
8.979	-3.498	15467	20890	0	744
5.373	-1.118	15814	20947	0	744
9.196	2.236	16175	20973	0	744
15.543	5.517	16515	20934	0	744
17.923	3.498	16855	20847	0	744
13.920	-3.462	17203	20743	0	744
3.750	-10.927	17530	20625	1	708
-6.419	-16.192	17838	20454	0	708
-6.744	-11.287	18120	20188	0	708
-1.010	-2.849	18382	19842	0	708
8.258	4.688	18612	19478	0	708
12.586	7.970	18841	19140	0	708
10.242	4.868	19051	18825	0	708
7.068	-0.469	19280	18508	0	708
7.429	-5.337	19444	18149	0	708
7.609	-8.511	19595	17767	0	708
6.635	-9.953	19739	17390	0	708
2.885	-12.622	19889	17037	0	708
-3.390	-12.622	19988	16701	0	708
-6.924	-9.881	20086	16366	0	708
-4.688	-8.042	20165	16028	0	708
-0.288	-2.993	20230	15711	0	708
3.173	-1.226	20283	15440	0	708
5.193	0.144	20348	15200	0	708
5.698	-0.108	20381	14960	0	708
8.042	0.865	20414	14722	0	708
7.609	1.983	20414	14513	0	708
8.150	1.334	20427	14356	0	708
4.724	0.649	20446	14239	0	708
0.325	-0.829	20446	14170	0	708
-0.397	-1.442	20479	14136	0	708
2.488	-1.479	20446	14048	0	708
5.950	1.911	20328	13798	0	708
6.094	3.895	20184	13439	0	708
3.967	3.570	20034	13135	0	708
-1.082	-0.577	19889	12957	0	708
-5.698	-4.147	19771	12866	0	708
-4.255	-5.445	19627	12804	0	708
0.829	-1.370	19496	12732	0	708
4.688	2.488	19313	12683	0	708
4.364	3.029	19182	12688	0	708
0.974	-2.272	19037	12753	0	708
-2.777	-10.602	18906	12840	0	708
-3.787	-12.189	18756	12926	0	708
2.524	-7.681	18592	13011	0	708
13.091	2.236	18480	13129	0	708
19.618	9.088	18349	13302	0	708
14.569	10.350	18231	13499	0	708
8.439	2.849	18068	13635	0	708
-0.974	-3.931	17871	13628	0	708
-1.226	-4.940	17596	13478	0	708
5.950	1.262	17334	13326	0	708
14.208	9.809	17117	13305	0	708
20.447	12.874	16941	13429	0	708
16.805	13.199	16744	13622	0	708
13.307	7.862	16580	13783	0	708
8.871	5.337	16397	13914	0	708
8.294	7.104	16253	14116	0	708
9.412	8.042	16155	14399	0	708
12.694	8.835	16044	14722	0	708
14.894	8.114	15959	15042	0	708
17.562	5.590	15880	15324	0	708
17.093	5.229	15814	15571	0	708
19.113	3.967	15762	15860	0	708
19.365	6.996	15749	16212	0	708
24.739	10.746	15782	16582	0	708
28.453	14.569	15782	16920	0	708
31.626	17.057	15782	17197	0	708
31.194	16.372	15814	17439	0	708
27.155	14.605	15880	17682	0	708
25.388	16.012	15926	17930	0	708
26.938	17.093	15978	18144	0	708
31.879	21.998	16024	18283	0	708
36.891	25.207	16090	18366	0	708
36.675	23.909	16109	18430	0	708
32.348	21.818	16175	18495	0	708
26.542	16.805	16240	18554	0	708
22.503	14.172	16286	18572	0	708
20.591	12.694	16306	18482	0	708
20.519	15.507	16273	18278	0	708
20.916	15.579	16253	18056	0	708
17.057	17.598	16240	17870	0	708
16.841	15.651	16208	17697	0	708
16.516	13.271	16175	17514	0	708
21.313	13.631	16155	17323	0	708
23.512	11.215	16090	17132	0	708
23.404	13.920	16044	16944	0	708
21.168	13.704	15991	16755	0	708
17.129	13.812	15926	16567	0	708
18.320	14.930	15860	16386	0	708
19.149	13.812	15782	16227	0	708
21.529	15.975	15696	16080	0	708
19.221	14.858	15651	15964	0	708
18.356	11.468	15585	15899	0	708
15.867	8.475	15552	15879	0	708
16.516	2.885	15500	15876	0	708
12.586	-1.010	15467	15858	0	708
9.304	-2.019	15402	15842	0	708
6.996	-1.298	15402	15866	0	708
7.032	1.298	15369	15928	0	708
10.602	5.626	15369	16002	0	708
15.615	8.799	15323	16044	0	708
14.208	8.835	15303	16054	0	708
12.802	7.753	15270	16075	0	708
8.871	5.662	15270	16119	0	708
2.885	2.416	15257	16170	0	708
2.669	0.974	15238	16227	0	708
5.698	0.361	15257	16292	0	708
11.504	2.200	15238	16343	0	708
18.283	4.400	15205	16359	0	708
18.500	7.176	15225	16377	0	708
15.038	5.878	15225	16456	0	708
6.996	4.039	15270	16590	0	708
3.246	0.829	15270	16662	0	708
2.741	0.974	15205	16590	0	708
9.268	4.183	15159	16407	0	708
15.507	8.006	15074	16206	0	708
17.923	9.737	14962	16036	0	708
20.664	8.222	14897	15917	0	708
17.057	8.078	14812	15830	0	708
17.923	7.970	14713	15729	0	708
17.346	10.746	14635	15626	0	708
19.690	11.937	14537	15558	0	708
17.382	9.412	14471	15543	0	708
16.841	2.849	14405	15548	0	708
14.353	0.397	14307	15525	0	708
17.454	5.481	14222	15481	0	708
20.159	12.874	14124	15450	0	708
23.044	19.546	14078	15453	0	708
21.385	18.788	13980	15481	0	708
17.418	15.110	13894	15509	0	708
15.543	10.422	13848	15533	0	708
15.146	8.871	13750	15553	0	708
18.356	10.350	13665	15561	0	708
19.726	8.583	13586	15584	0	708
19.654	5.662	13567	15685	0	708
16.769	3.859	13521	15832	0	708
15.687	4.796	13468	15902	0	708
11.756	6.888	13357	15863	0	708
6.816	5.445	13259	15773	0	708
1.947	2.344	13160	15706	0	708
-1.695	-1.551	13062	15693	0	708
5.157	-0.793	12997	15724	0	708
16.264	6.491	12898	15755	0	708
25.424	13.920	12813	15744	0	708
28.092	20.014	12702	15719	0	708
23.909	16.048	12616	15716	0	708
15.867	10.783	12538	15755	0	708
12.622	6.527	12472	15814	0	708
11.323	6.058	12407	15871	0	708
14.677	8.943	12354	15925	0	708
18.464	12.333	12276	16000	0	708
16.084	11.468	12256	16113	0	708
13.776	6.311	12223	16258	0	708
6.816	0.108	12210	16377	0	708
2.308	-3.354	12191	16461	0	708
2.813	-1.262	12158	16546	0	708
9.737	4.940	12145	16639	0	708
15.471	9.520	12145	16719	0	708
12.982	10.422	12112	16758	0	708
9.268	4.508	12079	16760	0	708
5.806	-1.154	12046	16722	0	708
7.862	-2.200	11948	16621	0	708
14.100	2.416	11863	16484	0	708
19.906	9.052	11797	16386	0	708
17.887	12.045	11719	16343	0	708
12.874	10.602	11653	16286	0	708
7.212	4.616	11535	16191	0	708
6.563	-0.469	11489	16103	0	708
10.422	-0.361	11437	16111	0	708
14.821	3.065	11424	16232	0	708
15.218	5.950	11457	16402	0	708
12.441	5.770	11470	16564	0	708
6.347	1.082	11489	16727	0	708
3.137	-2.813	11568	16923	0	708
6.094	-1.875	11666	17189	0	708
10.206	1.551	11817	17517	0	708
14.281	4.111	11981	17870	0	708
11.756	5.085	12177	18201	0	708
8.907	-0.649	12354	18521	0	708
8.439	-3.534	12603	18854	0	708
9.160	-1.695	12865	19200	0	708
12.586	0.288	13128	19540	0	708
13.343	2.128	13436	19855	0	708
10.963	2.885	13731	20134	0	708
8.366	-1.370	14058	20364	0	708
7.970	-3.895	14340	20501	0	708
8.799	-6.816	14635	20563	0	708
10.061	-5.157	14930	20617	0	708
10.530	-0.325	15257	20671	0	708
12.586	5.265	15533	20668	0	708
13.163	9.917	15814	20555	0	708
9.845	10.206	16044	20366	0	708
8.691	5.085	16339	20222	0	708
6.996	-0.072	16646	20181	1	752
7.465	-1.623	16954	20175	0	752
11.504	-0.144	17249	20119	0	752
15.326	2.885	17543	19992	0	752
11.756	3.101	17858	19830	0	752
5.337	-1.767	18120	19654	0	752
-2.056	-6.780	18363	19437	0	752
-5.662	-10.494	18579	19153	0	752
-3.714	-12.081	18788	18828	0	752
1.731	-8.475	18985	18503	0	752
6.383	-6.311	19169	18214	0	752
7.717	-3.931	19365	17953	0	752
6.491	-2.488	19529	17695	0	752
4.472	0.757	19673	17411	0	752
5.193	3.606	19804	17104	0	752
4.616	5.265	19955	16797	0	752
4.255	2.488	20020	16487	0	752
1.839	-1.406	20099	16165	0	752
1.010	-5.481	20152	15848	0	752
2.488	-6.996	20184	15553	0	752
4.977	-2.308	20217	15259	0	752
9.953	3.714	20197	14934	0	752
11.251	4.544	20165	14598	0	752
6.852	1.551	20132	14319	0	752
1.262	-4.760	20086	14087	0	752
-2.596	-9.773	19968	13788	0	752
-2.019	-10.566	19837	13395	0	752
3.318	-4.255	19673	13060	0	752
9.989	1.262	19562	12879	0	752
11.540	5.878	19444	12822	0	752
9.016	7.104	19378	12817	0	752
6.744	5.770	19267	12846	0	752
7.248	6.780	19182	12887	0	752
8.799	5.698	19070	12946	0	752
10.638	6.058	19005	13047	0	752
7.789	4.940	18939	13204	0	752
3.534	2.705	18841	13393	0	752
0.505	2.416	18788	13561	0	752
1.370	4.868	18710	13692	0	752
8.222	8.907	18612	13819	0	752
16.372	15.038	18513	13968	0	752
20.555	17.238	18448	14128	0	752
21.132	19.005	18363	14270	0	752
19.257	16.516	18264	14384	0	752
14.677	15.218	18153	14461	0	752
14.821	12.946	18022	14485	0	752
18.067	13.848	17891	14474	0	752
19.942	12.514	17740	14500	0	752
19.726	10.963	17629	14593	0	752
17.598	9.989	17543	14732	0	752
12.874	9.016	17412	14869	0	752
10.314	9.556	17314	14983	0	752
12.441	8.366	17268	15133	0	752
15.074	9.124	17203	15339	0	752
17.706	6.996	17137	15543	0	752
14.208	7.285	17085	15719	0	752
8.583	8.727	17019	15858	0	752
6.852	12.477	16986	15984	0	752
12.261	15.398	16921	16111	0	752
20.123	18.644	16855	16212	0	752
28.489	22.503	16777	16266	0	752
26.433	23.188	16711	16292	0	752
15.903	16.769	16646	16315	0	752
7.393	11.648	16580	16346	0	752
3.498	4.219	16528	16396	0	752
5.229	1.515	16482	16479	0	752
9.124	2.705	16449	16564	0	752
9.268	6.708	16416	16639	0	752
10.494	8.907	16371	16686	0	752
12.009	10.025	16286	16660	0	752
13.884	10.386	16208	16580	0	752
18.067	11.612	16142	16515	0	752
16.985	14.245	16077	16492	0	752
18.824	19.149	16011	16474	0	752
20.231	23.152	15945	16425	0	752
23.837	23.873	15847	16356	0	752
23.188	21.349	15762	16312	0	752
16.084	13.054	15729	16328	0	752
8.655	6.816	15664	16384	0	752
2.524	2.633	15618	16422	0	752
-0.361	1.046	15585	16407	0	752
1.118	-0.865	15519	16394	0	752
4.183	0.361	15500	16445	0	752
8.871	3.462	15467	16541	0	752
16.336	9.232	15487	16647	0	752
23.909	13.992	15467	16735	0	752
26.794	15.254	15487	16802	0	752
22.791	10.206	15467	16871	0	752
19.834	5.265	15519	16959	0	752
18.320	5.481	15519	17057	0	752
21.998	8.691	15552	17122	0	752
28.092	11.684	15519	17101	0	752
26.902	8.907	15487	16972	0	752
18.103	4.977	15421	16830	0	752
11.071	0.685	15402	16737	0	752
10.746	3.101	15336	16670	0	752
17.093	8.042	15323	16600	0	752
24.414	10.566	15238	16502	0	752
24.630	6.419	15159	16338	0	752
15.939	2.741	15061	16129	0	752
12.441	0.397	14943	15961	0	752
15.795	3.606	14897	15868	0	752
21.998	9.232	14831	15840	0	752
25.316	11.251	14766	15832	0	752
21.565	6.635	14681	15801	0	752
15.975	5.157	14615	15765	0	752
17.851	4.039	14550	15757	0	752
22.575	5.842	14504	15783	0	752
25.748	8.907	14451	15824	0	752
22.972	9.845	14419	15863	0	752
15.687	8.511	14373	15902	0	752
17.093	11.540	14320	15948	0	752
21.854	13.451	14307	16013	0	752
27.984	17.382	14274	16085	0	752
27.119	14.281	14255	16134	0	752
23.080	9.629	14209	16160	0	752
17.454	7.825	14176	16204	0	752
19.870	8.799	14156	16271	0	752
24.666	11.828	14124	16323	0	752
28.201	14.353	14091	16320	0	752
26.181	14.533	14025	16271	0	752
20.808	9.773	13947	16204	0	752
18.031	8.475	13862	16103	0	752
19.510	8.691	13783	15969	0	752
20.519	7.753	13665	15868	0	752
20.808	3.931	13619	15835	0	752
13.451	-3.101	13534	15853	0	752
6.347	-10.386	13488	15868	0	752
0.469	-12.550	13403	15850	0	752
-1.623	-8.691	13324	15848	0	752
2.488	-3.318	13305	15889	0	752
5.878	1.082	13239	15966	0	752
6.058	-0.433	13226	16049	0	752
3.931	-7.285	13193	16103	0	752
1.875	-11.251	13141	16139	0	752
3.029	-9.809	13095	16178	0	752
6.167	-6.275	13075	16240	0	752
9.484	-2.128	13042	16299	0	752
10.638	-0.288	13010	16325	0	752
8.294	-2.272	12964	16335	0	752
10.133	-2.813	12931	16377	0	752
13.451	-1.515	12944	16453	0	752
14.353	-1.983	12931	16546	0	752
12.477	-3.642	12944	16634	0	752
9.917	-6.275	12931	16680	0	752
8.799	-5.373	12846	16595	0	752
12.261	-3.714	12748	16394	0	752
15.290	-1.262	12669	16227	0	752
12.297	-1.154	12584	16139	0	752
8.330	-3.823	12518	16082	0	752
8.042	-6.022	12440	16031	0	752
12.333	-5.265	12341	15951	0	752
13.704	-4.688	12256	15848	0	752
12.369	-6.058	12191	15796	0	752
6.671	-5.373	12125	15824	0	752
3.101	-4.652	12092	15897	0	752
7.573	-0.433	12059	15974	0	752
17.959	5.013	12014	16031	0	752
22.106	6.203	11981	16095	0	752
23.008	7.465	11994	16201	0	752
17.166	4.544	11994	16364	0	752
12.405	1.623	12027	16559	0	752
6.635	-1.118	12092	16747	0	752
2.236	-4.868	12125	16915	0	752
0.397	-7.934	12210	17096	0	752
3.210	-6.491	12308	17321	0	752
11.035	-3.498	12420	17576	0	752
21.854	2.380	12571	17808	0	752
23.621	2.452	12682	18020	0	752
22.395	2.452	12833	18234	0	752
22.034	1.370	13029	18464	0	752
26.073	5.914	13239	18702	0	752
35.846	11.360	13436	18939	0	752
41.399	13.379	13685	19161	0	752
35.341	10.133	13894	19357	0	752
21.854	1.911	14143	19512	0	752
15.687	-3.101	14405	19633	0	752
17.490	0.216	14635	19744	0	752
27.551	7.609	14930	19871	0	752
35.737	13.451	15238	20015	0	752
35.016	12.550	15533	20157	0	752
29.318	9.520	15847	20253	0	752
22.647	5.013	16155	20315	0	752
20.591	4.940	16482	20364	0	752
22.286	7.104	16790	20397	0	752
19.870	8.294	17137	20405	0	752
15.038	6.924	17445	20364	0	752
9.016	4.183	17740	20271	0	752
6.239	3.029	18035	20144	0	752
9.989	5.734	18349	20000	0	752
14.821	7.465	18612	19819	1	760
15.615	9.701	18808	19525	0	760
12.694	8.691	18952	19042	0	760
7.970	7.032	19037	18425	0	760
6.563	4.688	19103	17845	0	760
9.773	4.868	19182	17367	0	760
11.107	3.606	19234	16931	0	760
9.124	4.508	19280	16510	0	760
7.140	4.291	19345	16137	0	760
12.009	7.537	19378	15814	0	760
20.916	13.487	19431	15525	0	760
31.410	19.005	19431	15256	0	760
35.449	20.880	19444	15016	0	760
30.436	17.346	19463	14784	0	760
17.851	8.402	19411	14513	0	760
7.465	0.902	19345	14221	0	760
0.325	-3.029	19300	13979	0	760
0.469	0.072	19234	13819	0	760
7.321	4.832	19214	13726	0	760
14.064	7.789	19136	13672	0	760
19.257	8.511	19103	13625	0	760
17.815	6.419	19051	13597	0	760
13.343	5.842	18985	13620	0	760
8.294	8.150	18972	13713	0	760
7.248	9.484	18939	13844	0	760
10.638	11.937	18920	13963	0	760
13.415	12.081	18887	14054	0	760
12.261	12.297	18821	14139	0	760
10.494	13.992	18788	14227	0	760
6.239	12.874	18723	14296	0	760
0.505	7.068	18644	14307	0	760
-1.334	-0.685	18480	14216	0	760
-1.226	-5.698	18330	14064	0	760
0.757	-5.734	18166	13922	0	760
6.455	4.400	18002	13824	0	760
13.992	13.487	17806	13770	0	760
17.995	20.447	17661	13762	0	760
17.779	17.274	17498	13798	0	760
16.985	13.415	17366	13852	0	760
13.163	9.592	17235	13935	0	760
12.622	10.061	17085	14074	0	760
12.333	12.658	17006	14263	0	760
12.730	13.523	16888	14438	0	760
17.815	12.946	16757	14588	0	760
20.339	10.314	16678	14722	0	760
22.683	8.547	16580	14867	0	760
20.267	9.340	16482	15045	0	760
16.841	11.648	16416	15246	0	760
12.405	12.081	16352	15453	0	760
13.523	9.556	16286	15639	0	760
13.668	7.429	16240	15817	0	760
15.146	3.282	16208	16005	0	760
13.235	1.659	16188	16227	0	760
9.088	3.462	16175	16458	0	760
10.278	6.527	16188	16665	0	760
14.064	9.268	16155	16822	0	760
15.182	10.206	16155	16959	0	760
16.697	6.383	16155	17093	0	760
13.163	1.911	16142	17181	0	760
10.025	-2.344	16077	17129	0	760
8.366	-5.265	15978	16962	0	760
7.573	-4.400	15913	16807	0	760
6.924	-4.219	15814	16714	0	760
1.803	-2.741	15729	16655	0	760
-1.695	-4.832	15683	16624	0	760
-2.308	-2.993	15631	16631	0	760
2.813	0.288	15618	16667	0	760
8.150	4.796	15552	16688	0	760
13.704	8.511	15519	16673	0	760
15.002	12.369	15487	16639	0	760
14.028	11.720	15388	16567	0	760
12.045	7.140	15336	16474	0	760
8.907	3.823	15270	16414	0	760
3.534	-2.849	15205	16389	0	760
0.829	-4.616	15172	16389	0	760
-0.577	-5.986	15139	16427	0	760
7.898	-0.829	15126	16518	0	760
17.562	5.950	15139	16631	0	760
23.657	12.081	15159	16729	0	760
24.270	18.283	15159	16807	0	760
21.132	19.113	15192	16887	0	760
17.382	17.779	15205	16972	0	760
18.247	11.323	15225	17055	0	760
18.139	5.409	15257	17106	0	760
17.851	1.082	15257	17127	0	760
13.091	0.108	15290	17119	0	760
12.982	4.832	15270	17070	0	760
15.074	9.448	15257	17006	0	760
18.175	11.323	15290	17003	0	760
19.942	11.287	15290	17026	0	760
21.745	9.845	15290	16977	0	760
22.214	9.592	15257	16835	0	760
23.801	12.550	15172	16652	0	760
23.693	13.884	15126	16476	0	760
19.906	11.937	15074	16338	0	760
17.959	11.973	14995	16219	0	760
15.398	10.206	14930	16077	0	760
17.634	10.133	14831	15899	0	760
17.670	12.477	14733	15726	0	760
17.274	12.550	14648	15620	0	760
15.254	13.776	14582	15605	0	760
19.113	17.598	14537	15639	0	760
26.217	19.618	14484	15646	0	760
35.305	20.988	14419	15626	0	760
35.629	14.966	14353	15620	0	760
29.715	7.321	14320	15659	0	760
17.779	-1.334	14274	15716	0	760
6.888	-6.131	14222	15749	0	760
2.164	-5.157	14176	15762	0	760
2.849	-4.652	14124	15775	0	760
5.229	-2.236	14058	15778	0	760
5.878	-2.560	13980	15768	0	760
3.354	-7.248	13947	15773	0	760
-2.921	-11.720	13881	15811	0	760
-7.032	-14.317	13829	15850	0	760
-6.852	-15.435	13763	15840	0	760
-1.334	-9.953	13665	15804	0	760
6.347	-2.236	13632	15817	0	760
11.648	0.036	13567	15871	0	760
12.441	0.829	13534	15915	0	760
8.727	2.056	13455	15935	0	760
9.917	4.075	13390	15920	0	760
15.146	9.016	13305	15886	0	760
20.159	12.802	13206	15848	0	760
23.729	9.665	13128	15793	0	760
19.618	4.111	13029	15719	0	760
11.251	-2.669	12911	15639	0	760
5.085	-6.816	12813	15584	0	760
0.865	-11.828	12715	15582	0	760
0.288	-14.677	12649	15636	0	760
0.433	-17.093	12584	15724	0	760
0.829	-17.310	12518	15796	0	760
0.613	-14.749	12472	15848	0	760
1.334	-13.415	12407	15907	0	760
1.551	-12.117	12374	15984	0	760
2.056	-15.038	12322	16072	0	760
3.750	-14.100	12276	16144	0	760
7.212	-11.215	12243	16196	0	760
9.989	-8.979	12177	16235	0	760
12.586	-6.888	12112	16232	0	760
14.641	-6.347	12046	16186	0	760
13.704	-7.862	11948	16139	0	760
12.333	-13.199	11863	16098	0	760
8.258	-15.903	11784	16049	0	760
3.354	-17.093	11666	15997	0	760
1.154	-15.543	11601	15966	0	760
5.265	-7.068	11555	16002	0	760
15.398	5.590	11502	16124	0	760
25.316	12.550	11522	16271	0	760
27.479	9.052	11489	16399	0	760
18.175	-3.137	11502	16507	0	760
5.049	-18.356	11489	16608	0	760
-4.616	-23.260	11489	16722	0	760
-2.993	-19.221	11535	16856	0	760
7.501	-4.039	11535	16998	0	760
15.543	1.551	11568	17106	0	760
14.677	2.308	11620	17176	0	760
10.242	-5.517	11634	17238	0	760
5.554	-13.307	11686	17313	0	760
8.150	-10.999	11719	17393	0	760
16.264	-4.760	11765	17447	0	760
22.611	2.452	11797	17483	0	760
23.116	7.212	11863	17504	0	760
18.788	7.321	11863	17486	0	760
15.326	6.852	11896	17432	0	760
12.261	6.527	11928	17395	0	760
13.668	9.701	11981	17411	0	760
14.930	10.133	12059	17455	0	760
15.939	8.114	12112	17486	0	760
19.906	7.789	12177	17509	0	760
23.008	7.898	12289	17584	0	760
24.198	10.927	12407	17731	0	760
25.243	11.143	12571	17912	0	760
16.697	6.419	12715	18092	0	760
10.097	1.406	12898	18255	0	760
4.183	-1.551	13108	18438	0	760
5.481	-0.325	13357	18673	0	760
12.369	4.796	13619	18967	0	760
20.339	10.025	13927	19295	0	760
19.870	10.422	14255	19600	0	760
16.661	7.789	14602	19866	0	760
8.078	4.652	14930	20101	0	760
4.977	4.472	15270	20294	0	760
5.842	3.426	15598	20421	0	760
8.150	4.580	15959	20501	0	760
6.888	5.554	16306	20550	0	760
6.311	5.734	16626	20570	0	760
5.914	7.789	16954	20552	0	760
9.989	12.369	17301	20490	0	760
12.369	18.860	17596	20377	0	760
9.917	17.851	17904	20227	0	760
3.570	13.631	18186	20036	1	764
-3.750	6.527	18428	19762	0	764
-6.563	0.361	18644	19401	0	764
-6.419	-2.741	18841	19016	0	764
-6.203	-2.272	19018	18663	0	764
-5.157	0.938	19214	18343	0	764
-4.508	5.373	19365	18017	0	764
-1.551	8.871	19509	17651	0	764
2.957	13.812	19640	17274	0	764
3.101	10.638	19726	16900	0	764
-0.793	4.400	19791	16513	0	764
-5.842	-0.325	19837	16111	0	764
-8.258	-5.121	19870	15713	0	764
-6.924	-2.921	19870	15349	0	764
-1.334	2.416	19922	15060	0	764
3.750	6.780	19955	14854	0	764
4.868	8.078	19968	14699	0	764
-0.469	4.291	19988	14554	0	764
-7.934	-2.344	19988	14405	0	764
-17.021	-7.681	19988	14273	0	764
-19.005	-6.383	19968	14159	0	764
-16.841	-2.849	19935	14056	0	764
-6.708	5.265	19922	13953	0	764
1.731	11.792	19870	13860	0	764
5.626	11.973	19791	13759	0	764
2.019	10.458	19693	13597	0	764
-3.534	6.563	19542	13390	0	764
-7.140	5.554	19411	13204	0	764
-7.609	5.986	19267	13080	0	764
-3.137	7.645	19116	13011	0	764
-0.577	7.681	18952	12944	0	764
-0.577	4.760	18775	12858	0	764
-0.505	4.508	18592	12799	0	764
2.200	5.193	18428	12804	0	764
5.013	11.287	18284	12876	0	764
5.337	15.939	18120	12967	0	764
5.590	19.582	17969	13031	0	764
3.246	18.247	17792	13104	0	764
2.777	16.769	17642	13243	0	764
3.498	10.999	17543	13468	0	764
5.950	8.078	17432	13736	0	764
5.445	9.845	17334	13994	0	764
6.563	12.622	17249	14229	0	764
4.977	14.569	17137	14441	0	764
2.380	14.966	16986	14603	0	764
-3.210	9.701	16888	14725	0	764
-7.393	3.318	16790	14887	0	764
-9.556	3.029	16711	15114	0	764
-7.789	1.515	16613	15339	0	764
-2.308	3.678	16560	15520	0	764
0.433	6.708	16482	15672	0	764
3.570	9.088	16416	15835	0	764
4.652	8.979	16371	16021	0	764
2.416	9.412	16306	16204	0	764
0.757	4.652	16240	16333	0	764
-3.498	0.433	16208	16412	0	764
-4.400	-3.137	16142	16510	0	764
-3.570	-1.370	16109	16657	0	764
0.865	4.832	16109	16833	0	764
5.265	9.484	16090	16988	0	764
2.452	10.422	16077	17096	0	764
-5.229	3.642	16057	17179	0	764
-13.054	-3.931	16090	17274	0	764
-18.897	-12.261	16077	17372	0	764
-13.812	-10.206	16077	17439	0	764
-3.931	-1.587	16077	17462	0	764
3.498	7.717	16077	17470	0	764
6.816	13.704	16077	17491	0	764
3.750	13.487	16122	17545	0	764
0.288	10.386	16142	17620	0	764
-1.731	5.337	16188	17695	0	764
-1.298	2.452	16221	17746	0	764
-0.721	1.190	16253	17752	0	764
-2.885	-0.577	16286	17705	0	764
-8.150	-3.714	16319	17672	0	764
-13.451	-4.508	16384	17705	0	764
-15.759	0.505	16416	17739	0	764
-11.396	6.780	16416	17651	0	764
-3.173	12.117	16384	17426	0	764
4.688	14.930	16319	17145	0	764
5.337	11.468	16273	16887	0	764
1.118	6.455	16221	16691	0	764
-6.383	4.688	16175	16546	0	764
-6.816	9.917	16109	16407	0	764
-0.829	15.038	16057	16245	0	764
8.330	16.589	15978	16077	0	764
12.261	14.353	15913	15943	0	764
9.196	8.330	15847	15855	0	764
1.695	2.741	15795	15788	0	764
-1.370	4.796	15716	15719	0	764
0.397	8.619	15664	15664	0	764
6.383	13.163	15618	15646	0	764
10.494	11.720	15565	15662	0	764
6.708	7.789	15533	15688	0	764
-2.019	0.902	15467	15698	0	764
-8.439	-3.462	15454	15703	0	764
-9.484	-1.767	15388	15721	0	764
-3.246	4.111	15369	15752	0	764
6.275	11.720	15303	15788	0	764
14.749	15.615	15270	15809	0	764
19.149	16.480	15225	15804	0	764
16.372	12.874	15139	15775	0	764
10.422	7.248	15074	15744	0	764
5.409	4.760	15028	15716	0	764
0.541	4.688	14943	15688	0	764
1.046	7.321	14864	15672	0	764
6.347	11.287	14799	15675	0	764
11.756	18.247	14713	15657	0	764
16.913	19.437	14615	15608	0	764
16.408	19.726	14537	15571	0	764
14.930	17.057	14471	15592	0	764
12.153	16.661	14419	15649	0	764
11.900	16.300	14340	15698	0	764
13.884	18.608	14274	15724	0	764
13.307	17.166	14222	15757	0	764
10.133	15.651	14176	15819	0	764
9.448	11.576	14124	15922	0	764
7.465	10.566	14091	16044	0	764
8.943	14.353	14058	16129	0	764
8.583	16.012	14025	16173	0	764
9.592	18.320	13980	16209	0	764
