neuroNicle FX2
D3F25R12
Bluetooth SPP
2023년 6월 1일 목요일
오후 1:22
time interval = 4msec
EEG1	EEG2	PPG	sdPPG	pulse	peak_interval(msec)
8.979	9.124	1	0	0	316
7.176	8.727	1	0	0	316
8.402	13.018	1	0	0	316
11.396	18.067	1	0	0	316
12.622	24.125	1	0	0	316
16.661	24.775	1	1228	0	316
14.821	20.627	1	9978	0	316
14.785	18.139	1	15134	0	316
15.074	14.966	1	19040	0	316
14.172	17.562	1	24352	0	316
15.975	19.798	1	30290	0	316
16.480	22.935	1	32767	0	316
21.962	23.440	1	32767	0	316
27.479	24.198	1	32767	0	316
34.475	27.660	1	32767	0	316
40.498	30.905	1	32767	0	316
43.491	35.413	1	32767	0	316
47.169	39.199	1	32767	0	316
48.972	41.940	1	32767	0	316
48.359	45.979	1	32767	0	316
52.074	50.847	1	32767	0	316
55.283	61.738	1	32767	0	316
63.289	71.944	1	32767	0	316
72.773	81.969	1	28259	0	316
81.067	90.732	1	8884	0	316
85.431	94.699	1	0	0	316
88.496	99.315	1	0	0	316
95.060	106.131	1	0	0	316
107.248	115.471	1	0	0	316
122.142	124.558	1	0	0	316
134.511	132.925	1	0	0	316
144.068	138.406	1	0	0	316
148.215	146.087	1	0	0	316
153.985	154.886	1	0	0	316
161.738	160.368	1	0	0	316
170.501	163.397	1	0	0	316
174.144	162.640	1	0	0	316
170.249	159.358	1	0	0	316
165.885	161.630	1	0	0	316
160.512	161.918	1	0	0	316
154.490	161.558	1	0	0	316
152.542	156.726	1	0	0	316
149.080	152.975	1	0	0	316
147.349	150.162	1	0	0	316
144.681	147.782	1	0	0	316
145.943	145.186	1	0	0	316
142.120	137.288	1	0	0	316
136.459	129.210	1	6384	0	316
132.203	124.630	1	17321	0	316
128.092	126.109	1	30446	0	316
128.994	128.345	1	32767	0	316
128.994	130.472	1	32767	0	316
126.578	127.155	1	32767	0	316
122.791	123.729	1	32767	0	316
117.562	119.005	1	32767	0	316
111.251	116.408	1	32767	0	316
111.937	113.884	1	32767	0	316
111.360	112.874	1	32767	0	316
112.766	113.487	1	32767	0	316
116.228	115.975	1	32767	0	316
114.317	117.562	1	32767	0	316
113.920	114.208	1	32767	0	316
109.448	106.491	1	32767	0	316
102.849	96.971	1	32767	0	316
96.250	88.352	1	32767	0	316
86.188	85.106	1	32767	0	316
76.091	79.481	1	32767	0	316
65.525	73.098	1	32767	0	316
58.745	65.344	1	32767	0	316
52.254	57.880	1	32767	0	316
51.064	53.336	1	32767	0	316
48.756	51.641	1	32767	0	316
49.621	54.814	1	32767	0	316
48.251	54.959	1	32767	0	316
46.700	55.788	8443	32767	0	316
47.710	55.824	22854	32767	0	316
45.799	53.228	32768	32767	0	316
44.068	50.234	32768	32767	1	392
45.510	45.258	32768	32767	0	392
45.618	41.543	32768	32767	0	392
48.395	40.966	32768	32767	0	392
53.228	45.186	32768	32767	0	392
53.372	49.441	32768	32767	0	392
52.146	49.838	32768	32767	0	392
46.304	46.268	32768	32767	0	392
41.147	39.993	32768	32767	0	392
39.199	34.259	32768	32767	0	392
39.704	35.593	32768	32767	0	392
40.137	38.695	32768	32767	0	392
38.045	40.750	32768	32767	0	392
33.970	41.580	32768	28571	0	392
28.453	42.157	32768	5291	0	392
27.191	40.570	32768	0	0	392
27.010	38.190	32768	0	0	392
29.931	37.396	32768	0	0	392
33.069	36.062	32768	0	0	392
35.846	35.557	32768	0	0	392
38.550	34.583	32768	0	0	392
38.658	35.016	32768	0	0	392
35.990	32.744	32768	0	0	392
33.934	31.446	32768	0	0	392
31.699	28.164	32768	0	0	392
30.076	25.207	32768	0	0	392
25.027	18.716	32768	0	0	392
20.519	13.920	32768	0	0	392
14.064	8.583	32768	0	0	392
12.946	6.924	32768	0	0	392
13.451	6.671	32768	0	0	392
15.435	11.684	32768	0	0	392
15.254	14.749	32768	0	0	392
10.891	14.353	32768	0	0	392
3.246	12.514	32768	0	0	392
0.469	4.039	32768	0	0	392
-0.325	-0.757	32768	0	0	392
5.157	0.974	32768	0	0	392
13.559	6.022	32768	0	0	392
17.923	12.766	32768	0	0	392
19.185	15.471	32768	0	0	392
14.136	9.052	32768	0	0	392
9.232	2.344	32768	0	0	392
3.931	-6.167	32768	0	0	392
1.515	-5.698	32768	0	0	392
2.092	-3.823	32768	0	0	392
8.475	1.839	32768	0	0	392
15.831	4.652	32768	0	0	392
22.358	7.573	32768	0	0	392
22.431	10.386	32768	0	0	392
19.942	11.215	32768	0	0	392
13.920	8.547	28148	0	0	392
7.681	5.229	19325	0	0	392
5.085	0.072	12855	0	0	392
3.498	-0.865	6973	0	0	392
3.246	-0.252	2561	0	0	392
3.354	0.613	1	0	0	392
8.511	1.298	1	0	0	392
12.189	2.488	1	0	0	392
14.461	4.760	1	0	0	392
16.048	6.960	1	12634	0	392
13.668	7.573	1	30290	0	392
8.511	4.147	1	32767	0	392
8.114	0.685	1	32767	0	392
9.592	0.036	1	32767	0	392
14.677	6.167	1	32767	0	392
24.450	13.343	1	32767	0	392
31.626	21.890	1	32767	0	392
36.711	25.027	1	32767	0	392
35.882	21.277	1	32767	0	392
29.607	18.067	1	32767	0	392
21.313	15.507	1	32767	0	392
17.634	19.437	1	32767	0	392
16.300	23.224	1	32767	0	392
19.834	24.666	1	32767	0	392
19.978	22.286	1	31696	0	392
17.706	13.415	1	25290	0	392
10.819	7.176	1	17790	0	392
4.472	2.452	1	13572	0	392
0.325	-1.154	1	12009	1	316
-2.200	-2.669	1	9978	0	316
-0.288	-1.118	1	8259	0	316
4.327	1.695	1	7947	0	316
9.737	9.268	1	9041	0	316
13.487	12.333	1	10291	0	316
11.973	13.307	1	11228	0	316
9.520	7.465	1	12322	0	316
2.560	-0.252	1	13572	0	316
0.144	-3.246	1	15134	0	316
1.082	-0.036	1	16540	0	316
3.714	5.842	1	15447	0	316
5.049	10.638	1	11384	0	316
3.390	8.835	1	8103	0	316
-4.183	3.750	1	3884	0	316
-12.766	-5.914	1	0	0	316
-19.437	-14.317	1	0	0	316
-24.522	-20.267	1	0	0	316
-23.765	-25.135	1	0	0	316
-22.070	-26.001	1	0	0	316
-21.673	-24.775	1	0	0	316
-20.880	-23.188	1	0	0	316
-23.981	-22.791	1	0	0	316
-30.256	-27.624	1	0	0	316
-33.934	-33.826	1	0	0	316
-39.632	-38.442	1	0	0	316
-39.163	-41.111	1	14197	0	316
-40.930	-40.858	1	26071	0	316
-45.005	-40.894	1	32767	0	316
-53.372	-42.950	1	32767	0	316
-67.184	-53.480	1	32767	0	316
-78.976	-67.436	1	32767	0	316
-85.251	-81.680	1	32767	0	316
-90.083	-90.984	1	32767	0	316
-89.578	-91.273	1	32767	0	316
-96.610	-90.624	1	32767	0	316
-108.402	-91.922	1	32767	0	316
-125.965	-105.662	1	32767	0	316
-141.471	-126.145	1	32165	0	316
-156.870	-152.831	1	29352	0	316
-174.324	-174.973	1	27477	0	316
-192.643	-193.833	1	27946	0	316
-211.792	-211.756	1	31852	0	316
-229.751	-226.830	1	32767	0	316
-239.163	-241.652	1	32767	0	316
-247.205	-250.054	1	32767	0	316
-255.103	-257.663	1	31696	0	316
-261.161	-260.512	1	25290	0	316
-269.564	-264.695	1	20446	0	316
-273.314	-274.432	1	15291	0	316
-280.094	-285.287	1	9197	0	316
-287.991	-296.069	1	4509	0	316
-294.987	-302.344	1	2166	0	316
-300.577	-305.806	1	2166	0	316
-297.944	-300.649	1	4978	0	316
-292.102	-294.338	1	7947	0	316
-283.051	-285.106	1	8728	0	316
-272.449	-275.766	1	7947	0	316
-261.269	-267.580	1	7791	0	316
-251.064	-257.447	1	9197	0	316
-240.065	-245.546	1	11072	0	316
-230.472	-234.079	1	10447	0	316
-220.664	-220.844	1	8728	0	316
-209.809	-210.097	1	8103	0	316
-198.918	-201.587	1	8884	0	316
-186.837	-194.374	1	8884	0	316
-172.990	-182.834	1	7009	0	316
-161.017	-174.324	1	3728	0	316
-150.847	-162.640	1	1541	0	316
-144.212	-156.581	1	3728	0	316
-141.471	-147.097	1	9509	0	316
-134.620	-140.822	1	15134	0	316
-122.142	-126.974	1	19352	0	316
-110.350	-116.589	1	24040	0	316
-100.036	-107.429	1	30915	0	316
-97.151	-101.767	1	32767	0	316
-95.564	-98.449	1	32767	0	316
-95.925	-96.610	1	32767	0	316
-92.247	-92.066	1	32767	0	316
-87.919	-87.450	1	32767	1	316
-86.441	-84.782	1	32767	0	316
-81.680	-81.031	1	32767	0	316
-77.028	-74.144	1	32767	0	316
-68.698	-68.121	1	32767	0	316
-63.938	-63.145	1	32767	0	316
-63.577	-63.036	1	32767	0	316
-66.751	-66.246	1	32767	0	316
-72.052	-72.413	1	32767	0	316
-72.052	-74.360	1	32767	0	316
-68.518	-71.186	1	32767	0	316
-61.666	-61.991	1	32767	0	316
-53.264	-52.542	1	32767	0	316
-46.268	-45.150	1	32767	0	316
-45.186	-40.678	1	32767	0	316
-41.075	-40.786	1	32767	0	316
-38.983	-41.111	1	32767	0	316
-35.269	-39.272	1	32767	0	316
-29.823	-34.259	1	32767	0	316
-26.361	-31.482	1	32767	0	316
-28.020	-31.843	1	32767	0	316
-29.463	-34.620	1	32767	0	316
-32.348	-36.459	1	32767	0	316
-32.420	-36.747	1	32767	0	316
-31.374	-33.538	1	32767	0	316
-29.318	-27.371	1	32767	0	316
-27.155	-23.693	1	32767	0	316
-24.702	-22.106	5502	32767	0	316
-23.224	-22.539	16972	32767	0	316
-25.784	-25.532	27266	32767	0	316
-30.581	-31.122	32768	32767	0	316
-34.692	-34.980	32768	32767	0	316
-35.557	-36.062	32768	32767	0	316
-30.004	-33.574	32768	32767	0	316
-18.680	-28.922	32768	32767	0	316
-10.674	-24.702	32768	32767	0	316
-4.580	-22.863	32768	32767	0	316
-3.173	-25.712	32768	32767	0	316
-6.527	-27.984	32768	32767	0	316
-7.537	-29.066	32768	32767	0	316
-9.160	-26.686	32768	32767	0	316
-8.511	-23.981	32768	32767	0	316
-8.366	-24.414	32768	32767	0	316
-8.727	-26.109	32768	26540	0	316
-9.737	-28.850	32768	17634	0	316
-11.468	-29.931	32768	9197	0	316
-10.855	-26.109	32768	0	0	316
-13.595	-24.270	32768	0	0	316
-11.937	-22.863	32768	0	0	316
-10.097	-24.125	32768	0	0	316
-10.458	-27.119	32768	0	0	316
-9.665	-29.174	32768	0	0	316
-12.081	-29.066	32768	0	0	316
-16.552	-27.768	32768	0	0	316
-19.942	-23.981	32768	0	0	316
-21.818	-20.880	32768	0	0	316
-18.464	-20.447	32768	0	0	316
-18.139	-21.529	32768	0	0	316
-16.516	-21.926	32768	0	0	316
-17.598	-23.260	32768	0	0	316
-15.831	-22.972	32768	0	0	316
-16.228	-18.067	32768	0	0	316
-13.595	-18.392	32768	0	0	316
-11.215	-16.841	32768	0	0	316
-12.982	-19.329	32768	0	0	316
-13.631	-21.349	31089	0	0	316
-18.320	-23.765	25207	0	0	316
-19.798	-22.467	16972	0	0	316
-24.378	-20.736	10502	0	0	316
-26.253	-21.493	4620	0	0	316
-27.083	-20.664	1	0	0	316
-26.830	-22.250	1	0	0	316
-26.217	-24.847	1	0	0	316
-25.316	-22.611	1	0	0	316
-21.890	-22.827	1	0	0	316
-18.788	-20.627	1	0	0	316
-12.369	-15.543	1	0	0	316
-6.599	-12.153	1	0	0	316
-4.111	-10.710	1	19352	0	316
-3.173	-9.052	1	32767	1	316
-3.895	-9.160	1	32767	0	316
-4.616	-7.501	1	32767	0	316
-3.210	-5.481	1679	32767	0	316
-2.741	-3.642	3149	32767	0	316
-3.606	-3.931	6090	32767	0	316
-3.823	-7.140	9914	32767	0	316
-7.212	-7.934	13443	32767	0	316
-6.203	-9.737	16384	32767	0	316
-5.806	-7.321	19325	32767	0	316
-4.508	-3.101	21384	32767	0	316
1.082	2.993	23736	32767	0	316
6.816	8.835	25207	32767	0	316
10.710	14.461	25795	32767	0	316
15.831	18.320	26678	32767	0	316
17.166	19.329	26678	32767	0	316
17.310	23.440	28736	32767	0	316
19.221	23.621	31678	32767	0	316
18.283	24.739	32768	32767	0	316
18.103	24.775	31678	32767	0	316
14.821	23.945	30207	32767	0	316
16.697	22.791	28148	32767	0	316
19.798	24.378	25795	32767	0	316
24.414	26.181	23736	26852	0	316
29.246	28.958	19913	12634	0	316
31.013	30.617	15796	0	0	316
28.597	30.761	11384	0	0	316
27.479	28.741	7561	0	0	316
27.119	25.712	4620	0	0	316
30.617	23.080	3149	0	0	316
32.744	23.152	1	0	0	316
35.485	27.876	1	0	0	316
37.072	31.626	1	0	0	316
39.849	38.190	1	0	0	316
43.347	42.553	1	0	0	316
44.573	43.887	1	0	0	316
43.527	44.825	1	0	0	316
40.714	43.851	1	0	0	316
38.118	40.317	1	0	0	316
39.885	39.091	1	0	0	316
42.878	37.541	1	0	0	316
43.779	40.173	1	0	0	316
42.661	45.078	1	0	0	316
41.940	47.313	1	0	0	316
42.661	48.035	1	0	0	316
43.166	46.520	1	0	0	316
46.592	45.835	1	0	0	316
52.074	48.648	1	0	0	316
55.427	53.047	1	0	0	316
60.548	55.139	1	0	0	316
60.368	56.185	1	0	0	316
59.791	54.706	1	0	0	316
59.791	52.867	1	0	0	316
58.060	55.788	1	0	0	316
60.151	56.076	1	0	0	316
59.502	55.139	1	0	0	316
56.076	51.244	1	0	0	316
52.651	47.926	1	0	0	316
50.090	45.474	1	0	0	316
48.467	43.779	1	0	0	316
46.304	45.691	1	0	0	316
47.530	43.022	1	0	0	316
45.114	40.678	1	0	0	316
41.363	34.728	1	0	0	316
33.429	27.660	1	0	0	316
25.352	20.123	1	0	0	316
19.942	16.048	1	0	0	316
11.576	10.314	1	2634	0	316
8.691	5.517	1	5291	0	316
1.010	-1.911	1	3728	0	316
-7.717	-8.439	1	2009	0	316
-14.281	-12.441	1	3416	0	316
-21.060	-11.035	1	7478	0	316
-23.296	-10.025	1	11853	0	316
-26.397	-11.720	1	14978	0	316
-32.636	-16.264	1	17790	0	316
-43.022	-27.876	1	21227	0	316
-56.076	-42.193	1	24352	0	316
-69.528	-56.437	1	26540	0	316
-79.336	-68.229	1	27165	1	316
-81.897	-73.422	1	27009	0	316
-77.101	-72.196	1	27946	0	316
-73.386	-67.436	1	31227	0	316
-69.708	-68.085	1	32767	0	316
-73.963	-73.206	1	32767	0	316
-82.185	-83.375	1	32767	0	316
-91.093	-91.634	1	24821	0	316
-98.413	-98.558	1	20602	0	316
-100.144	-101.731	1	21852	0	316
-103.750	-103.606	1	24040	0	316
-108.186	-106.167	1	26227	0	316
-109.629	-109.809	1	29821	0	316
-110.783	-109.160	1	32767	0	316
-106.996	-109.665	1	32767	0	316
-103.065	-108.006	1	32767	0	316
-102.560	-107.573	1	32767	0	316
-100.397	-104.904	1	32767	0	316
-97.079	-99.531	1	32767	0	316
-90.011	-92.679	1	32767	0	316
-77.569	-80.635	1	32767	0	316
-69.636	-72.701	1	32767	0	316
-63.433	-65.344	1	32767	0	316
-60.043	-59.971	1	32767	0	316
-57.663	-57.266	1	32767	0	316
-55.211	-54.201	1	32767	0	316
-51.929	-54.165	1	32767	0	316
-53.480	-54.165	1	32767	0	316
-52.759	-55.139	1	32767	0	316
-54.742	-56.257	1	32767	0	316
-51.497	-50.847	1	32767	0	316
-47.205	-44.320	1	32767	0	316
-39.668	-34.367	1	32767	0	316
-29.968	-25.099	1	32767	0	316
-23.512	-17.274	1	32767	0	316
-19.329	-15.831	1	32767	0	316
-20.591	-14.245	1	32767	0	316
-23.476	-16.264	4620	32767	0	316
-24.811	-15.579	14914	32767	0	316
-23.044	-14.245	24325	32767	0	316
-17.202	-12.730	32768	32767	0	316
-12.405	-8.655	32768	32767	0	316
-8.583	-8.799	32768	32767	0	316
-8.943	-7.717	32768	32767	0	316
-8.619	-6.563	32768	32767	0	316
-4.544	-2.524	32768	32767	0	316
-1.118	0.433	32768	32767	0	316
3.931	3.570	32768	32767	0	316
5.770	4.724	32768	32767	0	316
4.364	1.623	32768	32767	0	316
1.010	-1.262	32768	32767	0	316
-4.039	-5.049	32768	29040	0	316
-5.517	-4.003	32768	2634	0	316
-3.029	-0.505	32768	0	0	316
1.587	7.357	32768	0	0	316
7.645	14.713	32768	0	0	316
11.612	16.444	32768	0	0	316
9.665	14.605	32768	0	0	316
1.983	5.517	32768	0	0	316
-4.616	-1.262	32768	0	0	316
-3.390	-1.911	32768	0	0	316
1.875	1.623	32768	0	0	316
14.605	9.809	32768	0	0	316
23.873	18.211	32768	0	0	316
27.155	18.644	32768	0	0	316
24.883	17.959	32768	0	0	316
19.473	12.694	32768	0	0	316
16.877	10.891	32768	0	0	316
13.740	10.566	32768	0	0	316
11.864	10.025	32768	0	0	316
9.196	9.448	32768	0	0	316
9.304	10.674	32768	0	0	316
29.787	27.876	30207	32767	1	316
29.246	27.083	31089	32767	0	316
29.246	27.624	31678	32767	0	316
30.436	27.984	32560	32767	0	316
33.321	34.439	31678	32767	0	316
37.432	38.082	30207	32767	0	316
38.478	39.632	29619	32767	0	316
36.711	39.235	26678	32767	0	316
35.016	36.170	24325	22477	0	316
32.203	32.384	22266	12322	0	316
30.400	30.617	18442	1697	0	316
28.525	26.506	13443	0	0	316
25.929	22.899	7561	0	0	316
24.270	19.798	3149	0	0	316
22.034	17.274	1	0	0	316
24.162	19.401	1	0	0	316
26.650	21.132	1	0	0	316
28.092	23.621	1	0	0	316
28.453	28.309	1	0	0	316
26.614	26.578	1	0	0	316
26.253	26.397	1	0	0	316
24.414	23.765	1	0	0	316
27.624	23.693	1	0	0	316
28.994	22.431	1	0	0	316
28.741	24.558	1	0	0	316
25.929	22.683	1	0	0	316
19.329	16.372	1	0	0	316
13.523	10.855	1	0	0	316
8.150	7.285	1	0	0	316
6.131	6.924	1	0	0	316
9.845	9.412	1	0	0	316
14.172	13.704	1	4197	0	316
16.552	15.002	1	8728	0	316
21.493	13.992	1	9041	0	316
19.834	15.038	1	3259	0	316
18.392	12.766	1	0	0	316
12.802	12.045	1	0	0	316
8.907	8.835	1	0	0	316
2.885	6.419	1	0	0	316
-0.325	2.705	1	0	0	316
-0.036	2.344	1	0	0	316
4.003	3.895	1	0	0	316
9.520	10.891	1	0	0	316
15.615	15.615	1	0	0	316
15.002	15.867	1	0	0	316
10.999	15.903	1	0	0	316
7.393	8.763	1	0	0	316
4.904	6.527	1	3416	0	316
6.347	8.402	1	13103	0	316
9.268	10.927	1	20759	0	316
7.465	13.740	1	25446	0	316
8.330	13.054	1	27790	0	316
7.465	12.081	1	29040	0	316
9.701	11.432	1	29821	0	316
12.369	13.018	1	29040	0	316
14.821	13.487	1	24821	0	316
11.973	14.497	1	18259	0	316
12.297	14.172	1	12791	0	316
12.261	12.405	1	9978	0	316
10.891	14.533	1	9822	0	316
12.982	12.838	1	9978	0	316
12.081	10.530	1	9822	0	316
8.691	6.924	1	12478	0	316
4.436	2.560	1	18259	0	316
3.823	1.947	1	24977	0	316
3.606	2.957	1	31540	0	316
4.977	4.436	1	32767	0	316
6.311	3.895	1	32767	0	316
5.517	1.947	1	32767	0	316
4.472	0.288	1	32767	0	316
5.842	1.479	1	32767	0	316
10.386	4.508	1	32767	0	316
13.451	8.619	1	32767	0	316
11.468	9.592	1	32767	0	316
10.494	7.825	1	32767	0	316
6.780	6.167	1	32767	0	316
4.291	5.265	1	32767	0	316
6.960	8.258	1	32767	0	316
8.727	11.828	1	32767	0	316
12.694	12.838	1	32767	0	316
12.405	12.477	1	32767	0	316
10.855	8.835	1	32767	0	316
7.285	5.049	1	32767	0	316
2.344	3.642	1	32767	0	316
0.685	2.344	1	32767	0	316
0.216	1.370	2561	32767	0	316
1.479	0.361	16972	32767	0	316
0.865	0.036	31089	32767	0	316
-0.036	0.685	32768	32767	0	316
-0.577	0.865	32768	32767	0	316
-1.911	0.541	32768	32767	0	316
-3.462	-0.469	32768	32767	0	316
-4.508	-3.246	32768	32767	1	368
-5.409	-5.517	32768	32767	0	368
-7.645	-7.501	32768	32767	0	368
-8.907	-9.773	32768	32767	0	368
-12.189	-10.386	32768	32767	0	368
-14.281	-15.687	32768	32767	0	368
-18.860	-19.041	32768	32767	0	368
-21.277	-23.116	32768	32767	0	368
-22.034	-24.919	32768	32767	0	368
-20.519	-25.171	32768	32767	0	368
-15.218	-21.890	32768	32767	0	368
-12.297	-18.680	32768	32767	0	368
-12.766	-20.014	32768	32767	0	368
-18.500	-22.142	32768	32767	0	368
-28.958	-27.912	32768	19352	0	368
-37.829	-34.295	32768	447	0	368
-42.481	-38.262	32768	0	0	368
-43.310	-38.875	32768	0	0	368
-41.039	-38.082	32768	0	0	368
-37.468	-36.531	32768	0	0	368
-34.079	-37.000	32768	0	0	368
-31.735	-38.154	32768	0	0	368
-29.174	-36.891	32768	0	0	368
-28.814	-35.197	32768	0	0	368
-31.482	-34.115	32768	0	0	368
-36.495	-34.151	32768	0	0	368
-43.455	-36.747	32768	0	0	368
-45.943	-39.740	32768	0	0	368
-45.294	-40.029	32768	0	0	368
-38.767	-38.082	32768	0	0	368
-31.338	-34.908	32768	0	0	368
-26.866	-33.177	32768	0	0	368
-24.089	-32.384	32768	0	0	368
-22.358	-29.787	32768	0	0	368
-21.493	-25.604	32768	0	0	368
-18.788	-20.591	32768	0	0	368
-17.310	-16.480	32768	0	0	368
-14.317	-14.930	32768	0	0	368
-16.372	-15.867	32768	0	0	368
-16.408	-20.880	32768	0	0	368
-20.736	-23.044	32768	0	0	368
-23.693	-25.532	32768	0	0	368
-28.597	-29.030	32768	0	0	368
-31.446	-29.210	32768	0	0	368
-33.826	-31.554	32768	0	0	368
-33.862	-33.429	32768	0	0	368
-33.321	-34.800	32768	0	0	368
-33.249	-35.485	32768	0	0	368
-30.545	-35.449	32768	0	0	368
-29.679	-34.980	32768	0	0	368
-27.804	-33.105	32768	0	0	368
-28.345	-30.581	32768	0	0	368
-26.506	-27.912	32768	0	0	368
-27.191	-24.739	32768	0	0	368
-20.916	-20.736	32768	0	0	368
-14.713	-16.228	32768	2009	0	368
-7.140	-15.038	32768	16696	0	368
-5.265	-15.002	32768	29977	0	368
-9.448	-14.785	32768	32767	0	368
-11.792	-16.084	32768	32767	0	368
-12.117	-10.530	32768	32767	0	368
-9.701	-7.573	32768	32767	0	368
-6.383	-7.285	32768	32767	0	368
-4.868	-10.097	32768	32767	0	368
-8.114	-13.379	32768	32767	0	368
-10.242	-16.589	32768	32767	0	368
-12.982	-14.317	32768	32767	0	368
-14.389	-15.867	32768	32767	0	368
-13.415	-17.274	32768	32767	0	368
-14.497	-21.096	32768	32767	0	368
-12.261	-20.303	32768	32767	0	368
-12.441	-20.772	32768	32767	0	368
-17.743	-17.310	32768	32767	0	368
-24.270	-19.654	32768	32767	0	368
-31.446	-21.024	32768	32767	0	368
-35.052	-25.388	32768	32767	0	368
-34.115	-26.542	32768	32767	0	368
-30.545	-26.397	32560	32767	0	368
-25.207	-20.736	29619	23259	0	368
-19.942	-17.057	25795	12791	1	316
-14.930	-10.242	19913	447	0	316
-9.701	-4.796	14914	0	0	316
-6.239	-3.606	9914	0	0	316
-4.977	-4.400	4620	0	0	316
-5.445	-6.167	208	0	0	316
-5.301	-7.645	1	0	0	316
-5.986	-8.475	1	0	0	316
-8.042	-8.439	1	0	0	316
-7.501	-9.701	1	0	0	316
-9.052	-10.674	1	0	0	316
-5.626	-9.881	1	0	0	316
-2.669	-7.429	1	0	0	316
0.865	-4.075	1	0	0	316
-0.974	-3.570	1	0	0	316
-6.167	-8.655	1	0	0	316
-14.713	-13.884	1	0	0	316
-19.113	-20.339	1	0	0	316
-19.293	-19.834	1	0	0	316
-12.441	-17.346	1	0	0	316
-7.357	-9.881	1	0	0	316
-1.154	-5.698	1	5916	0	316
-1.587	-3.859	1	15291	0	316
-3.967	-6.599	1	21071	0	316
-5.662	-9.809	1	26227	0	316
-4.147	-9.160	1	32165	0	316
-2.128	-8.114	1	32767	0	316
-1.082	-5.481	1	32767	0	316
-1.298	-4.940	1	32767	0	316
-5.878	-5.806	1	32767	0	316
-11.720	-9.340	1	32767	0	316
-17.346	-14.497	1	32767	0	316
-19.185	-16.733	1	32767	0	316
-19.329	-16.264	1	32767	0	316
-14.281	-14.172	1	32767	0	316
-10.242	-6.635	1	32767	0	316
-7.681	-2.849	1	29352	0	316
-8.330	-2.993	1	21071	0	316
-15.038	-8.583	1	13728	0	316
-18.536	-14.425	1	5447	0	316
-21.818	-16.444	1	0	0	316
-19.546	-17.454	1	0	0	316
-17.274	-13.235	1	0	0	316
-11.937	-10.458	1	0	0	316
-12.405	-11.251	1	0	0	316
-12.153	-13.018	1	0	0	316
-13.812	-17.490	1	0	0	316
-17.959	-19.365	1	0	0	316
-17.743	-21.132	1	0	0	316
-17.815	-19.762	1	0	0	316
-15.218	-20.519	1	0	0	316
-15.110	-16.661	1	0	0	316
-11.828	-14.208	1	0	0	316
-9.989	-9.052	1	0	0	316
-9.556	-6.780	1	0	0	316
-7.789	-3.462	1	0	0	316
-6.924	-3.101	1	0	0	316
-6.239	-5.373	1	0	0	316
-4.147	-6.527	1	0	0	316
-2.669	-6.960	1	134	0	316
0.974	-6.347	1	24196	0	316
1.947	-3.137	1	32767	0	316
0.252	1.406	1	32767	0	316
1.587	3.137	1	32767	0	316
1.803	4.904	1	32767	0	316
0.829	5.662	1	32767	0	316
1.695	5.373	1	32767	0	316
5.229	5.842	1	32767	0	316
8.439	8.006	1	32767	0	316
11.864	11.468	1	32767	0	316
15.687	18.644	1	32767	0	316
20.123	26.037	1	32767	0	316
25.099	31.951	1	32767	0	316
28.814	35.774	1	32767	0	316
31.482	35.557	1	32767	0	316
31.049	33.862	1	32767	0	316
29.066	31.122	1	32767	0	316
27.227	28.381	1	32767	0	316
24.775	27.299	1	32767	0	316
24.270	28.092	1	32767	0	316
23.945	29.823	1	32767	0	316
22.106	32.276	1	32767	0	316
27.263	35.016	1	32767	0	316
31.518	35.197	1	32767	0	316
34.692	35.341	1	32767	0	316
35.810	32.384	1	32767	0	316
35.701	30.328	1	32767	0	316
31.987	28.309	1	32767	0	316
27.083	28.669	1	32767	0	316
23.801	27.227	4620	32767	1	356
19.401	23.296	14326	32767	0	356
17.706	20.411	22854	32767	0	356
13.884	16.084	32768	32767	0	356
15.074	16.949	32768	32767	0	356
17.670	19.005	32768	32767	0	356
23.512	24.342	32768	32767	0	356
26.650	24.883	32768	32767	0	356
29.715	25.171	32768	32767	0	356
29.607	23.008	32768	32767	0	356
27.299	21.673	32768	32767	0	356
25.316	21.060	32768	32767	0	356
23.152	23.909	32768	32767	0	356
20.736	22.503	32768	32767	0	356
15.290	20.736	32768	32767	0	356
13.018	18.752	32768	32767	0	356
9.917	13.920	32768	32767	0	356
7.609	13.343	32768	32767	0	356
6.852	12.874	32768	32767	0	356
7.357	12.261	32768	32767	0	356
9.773	15.398	32768	32767	0	356
13.343	16.769	32768	15447	0	356
19.546	20.519	32768	0	0	356
20.952	18.752	32768	0	0	356
22.647	18.139	32768	0	0	356
18.897	14.461	32768	0	0	356
15.759	14.713	32768	0	0	356
11.360	14.317	32768	0	0	356
9.520	14.208	32768	0	0	356
7.789	14.605	32768	0	0	356
8.114	11.720	32768	0	0	356
8.258	12.297	32768	0	0	356
10.855	14.281	32768	0	0	356
10.819	14.821	32768	0	0	356
11.143	17.490	32768	0	0	356
10.206	17.166	32768	0	0	356
8.835	17.166	32768	0	0	356
7.537	14.497	32768	0	0	356
5.698	13.595	32768	0	0	356
3.714	10.530	32768	0	0	356
1.911	8.150	32768	0	0	356
-0.721	9.268	32768	0	0	356
-2.236	9.881	32768	0	0	356
-1.334	12.045	32768	0	0	356
-0.505	15.579	32768	0	0	356
5.554	17.959	32768	0	0	356
10.963	19.437	32768	0	0	356
13.776	20.772	32768	0	0	356
15.038	20.772	32768	0	0	356
13.956	15.939	32768	0	0	356
12.009	14.100	32768	0	0	356
13.776	12.477	32768	0	0	356
15.074	12.514	32768	0	0	356
17.706	16.589	25795	0	0	356
17.851	15.759	19325	0	0	356
14.281	14.136	14326	0	0	356
8.439	8.835	10502	0	0	356
1.010	4.868	7561	0	0	356
-1.947	4.508	8443	0	0	356
-1.839	4.327	6973	291	0	356
2.164	6.635	6090	16852	0	356
5.121	5.842	5502	31227	0	356
7.321	3.282	6090	32767	0	356
4.400	-2.885	6973	32767	0	356
-1.947	-8.907	6973	32767	0	356
-7.681	-15.471	6973	32767	0	356
-15.146	-20.231	7561	32767	0	356
-15.254	-18.644	7561	32767	0	356
-12.189	-14.461	6090	32767	0	356
-5.337	-8.799	4620	32767	0	356
-4.327	-8.583	3149	32767	0	356
-9.665	-15.002	2561	32767	0	356
-20.880	-25.784	1090	32767	0	356
-30.184	-36.278	1	32767	0	356
-34.583	-39.993	1	32767	0	356
-34.115	-39.596	1	32767	0	356
-34.620	-38.731	1	32767	0	356
-39.488	-43.635	1	32767	0	356
-46.051	-49.080	1	32767	0	356
-49.838	-49.838	1	32767	1	316
-47.494	-47.458	1	32767	0	316
-40.930	-39.091	1	32767	0	316
-39.416	-32.636	1	32767	0	316
-40.750	-33.285	1	32767	0	316
-46.592	-38.658	1	32767	0	316
-50.811	-43.166	1	32767	0	316
-50.956	-42.697	1	32767	0	316
-44.176	-35.918	1	32767	0	316
-34.295	-25.496	1	32767	0	316
-26.253	-17.238	1	32767	0	316
-22.178	-14.425	1	32767	0	316
-18.752	-14.245	208	32767	0	316
-16.841	-12.477	1679	32767	0	316
-6.852	-4.147	3149	32767	0	316
6.239	8.186	4620	32767	0	316
21.962	23.080	6973	32767	0	316
31.807	32.384	8443	32767	0	316
35.774	36.891	9914	32767	0	316
35.737	37.324	11384	32767	0	316
33.826	36.026	12855	32767	0	316
35.737	36.639	14914	32767	0	316
39.957	40.353	15796	32767	0	316
49.225	47.674	16384	32767	0	316
58.961	54.814	16972	32767	0	316
69.275	64.515	16384	32767	0	316
77.353	70.393	14914	27321	0	316
84.818	80.238	14326	17321	0	316
89.867	86.801	12855	7791	0	316
92.571	91.742	9914	0	0	316
95.132	92.391	6973	0	0	316
92.283	91.994	4032	0	0	316
91.381	86.441	1	0	0	316
87.486	84.638	1	0	0	316
86.188	82.762	1	0	0	316
83.988	81.103	1	0	0	316
83.808	79.445	1	0	0	316
80.454	74.721	1	0	0	316
75.911	69.203	1	0	0	316
68.590	61.810	1	0	0	316
61.846	56.653	1	0	0	316
55.968	52.795	1	0	0	316
54.778	53.408	1	0	0	316
50.162	50.415	1	0	0	316
46.232	46.195	1	0	0	316
38.731	38.550	1	0	0	316
29.679	30.653	1	0	0	316
22.142	26.073	1	0	0	316
17.598	21.673	1	0	0	316
15.831	18.067	1	0	0	316
14.064	16.372	1	0	0	316
14.497	13.884	1	0	0	316
13.812	12.009	1	0	0	316
11.432	10.855	1	0	0	316
6.094	6.491	1	0	0	316
0.144	-0.469	1	0	0	316
-7.862	-7.248	1	0	0	316
-12.802	-10.458	1	0	0	316
-17.166	-10.783	1	0	0	316
-17.526	-12.405	1	0	0	316
-21.204	-12.874	1	0	0	316
-24.847	-19.510	1	0	0	316
-28.237	-26.109	1	0	0	316
-34.547	-34.223	1	0	0	316
-39.885	-40.426	1	0	0	316
-45.222	-46.520	1	0	0	316
-56.293	-53.985	1	0	0	316
-62.279	-60.404	1	0	0	316
-69.275	-64.046	1	0	0	316
-70.213	-65.705	1	0	0	316
-70.429	-65.200	1	0	0	316
-70.573	-65.813	1	291	0	316
-75.009	-69.816	1	3884	0	316
-80.671	-76.235	1	5447	0	316
-85.719	-79.553	1	8416	0	316
-85.936	-81.140	1	15916	0	316
-79.517	-77.894	1	27321	0	316
-72.485	-71.799	1	32767	0	316
-66.138	-68.265	1	32767	0	316
-61.125	-65.561	1	32767	1	316
-59.611	-62.964	1	32767	0	316
-57.266	-61.053	1	32767	0	316
-53.552	-56.185	1	32767	0	316
-52.290	-53.624	1	32767	0	316
-48.828	-48.936	1	32767	0	316
-48.648	-49.657	1	32767	0	316
-47.277	-46.195	1	32767	0	316
-41.688	-43.960	1	32767	0	316
-38.767	-37.505	1	32767	0	316
-35.593	-34.043	1	32767	0	316
-38.370	-36.387	1	32767	0	316
-45.402	-42.553	1	32767	0	316
-52.362	-50.667	1	32767	0	316
-57.411	-57.411	1	32767	0	316
-57.627	-55.932	1	32767	0	316
-56.113	-54.273	1	32767	0	316
-51.965	-50.198	1	32767	0	316
-50.992	-49.153	1	32767	0	316
-47.999	-50.090	6973	32767	0	316
-46.772	-47.097	21384	32767	0	316
-45.943	-44.609	32768	32767	0	316
-41.832	-38.803	32768	32767	0	316
-38.586	-33.574	32768	32767	0	316
-37.577	-31.771	32768	32767	0	316
-36.675	-32.384	32768	32767	0	316
-37.252	-34.475	32768	32767	0	316
-38.118	-35.124	32768	32767	0	316
-33.970	-32.961	32768	32767	0	316
-29.463	-28.705	32768	32767	0	316
-24.342	-25.099	32768	32767	0	316
-24.414	-23.909	32768	32767	0	316
-27.912	-27.407	32768	32767	0	316
-35.593	-31.230	32768	32767	0	316
-43.924	-35.665	32768	32767	0	316
-51.388	-39.849	32768	32767	0	316
-54.598	-43.599	32768	32767	0	316
-56.329	-48.539	32768	32767	0	316
-57.916	-52.723	32768	26384	0	316
-58.529	-56.149	32768	0	0	316
-58.493	-56.329	32768	0	0	316
-56.329	-51.172	32768	0	0	316
-50.487	-48.143	32768	0	0	316
-46.051	-39.812	32768	0	0	316
-42.157	-35.990	32768	0	0	316
-39.344	-33.069	32768	0	0	316
-36.314	-29.787	32768	0	0	316
-31.482	-27.876	32768	0	0	316
-26.758	-23.368	32768	0	0	316
-21.204	-17.995	32768	0	0	316
-16.661	-15.218	32768	0	0	316
-13.740	-11.864	32768	0	0	316
-7.104	-6.924	32768	0	0	316
0.577	-2.777	32768	0	0	316
7.645	4.472	32768	0	0	316
13.199	12.622	32768	0	0	316
15.362	14.569	32768	0	0	316
13.487	15.759	32768	0	0	316
10.927	17.274	32768	0	0	316
12.081	20.195	32768	0	0	316
20.519	27.876	32768	0	0	316
31.230	36.567	32768	0	0	316
38.298	43.996	32768	0	0	316
43.058	44.104	32768	0	0	316
41.219	41.147	32768	0	0	316
38.550	38.045	32768	0	0	316
39.632	38.695	32768	0	0	316
46.376	45.510	25207	0	0	316
53.444	52.110	16384	0	0	316
60.512	60.332	8443	0	0	316
65.489	60.656	1090	0	0	316
64.659	57.880	1	0	0	316
60.332	55.824	1	0	0	316
58.889	51.821	1	0	0	316
59.611	53.985	1	0	0	316
64.335	58.601	1	0	0	316
69.924	64.948	1	0	0	316
74.684	68.806	1	0	0	316
74.684	68.446	1	8259	0	316
72.340	65.777	1	28727	1	316
66.607	58.168	1	32767	0	316
60.512	54.165	1	32767	0	316
53.624	50.595	1	32767	0	316
51.749	50.234	1	32767	0	316
51.569	52.723	1	32767	0	316
58.745	59.827	1	32767	0	316
66.643	67.797	1	32767	0	316
76.235	77.461	1	32767	0	316
87.486	87.667	1	32767	0	316
97.512	97.656	1	32767	0	316
107.248	107.104	1	32767	0	316
113.018	112.874	1	32767	0	316
114.281	114.353	1	32767	0	316
111.504	110.602	1	32767	0	316
104.688	104.652	1	32767	0	316
99.603	99.171	1	32767	0	316
95.420	97.331	1	32767	0	316
91.201	95.348	1	32767	0	316
86.441	90.948	1	32767	0	316
79.589	85.539	1	32767	0	316
71.114	77.786	1	32767	0	316
63.217	71.655	1	32767	0	316
58.276	65.308	1	32767	0	316
49.008	58.889	1	32767	0	316
44.717	53.552	1	32767	0	316
36.567	45.258	1	32767	0	316
28.741	37.252	1	32767	0	316
23.585	29.391	1	32767	0	316
16.264	20.267	1	32767	0	316
12.081	14.858	1	20602	0	316
6.455	10.350	1	3103	0	316
3.354	7.248	1	0	0	316
-0.577	3.678	1	0	0	316
-3.282	-1.911	1	0	0	316
-7.285	-7.321	1	0	0	316
-12.297	-12.333	1	0	0	316
-14.461	-14.497	1	0	0	316
-18.860	-19.762	1	0	0	316
-23.116	-21.096	1	0	0	316
-30.653	-27.227	1	0	0	316
-40.353	-37.036	1	0	0	316
-51.785	-48.179	1	0	0	316
-61.774	-58.961	1	0	0	316
-64.695	-66.282	1	0	0	316
-61.955	-65.921	1	0	0	316
-58.096	-62.748	1	0	0	316
-51.893	-56.906	1	0	0	316
-49.441	-55.139	1	0	0	316
-48.972	-52.398	1	0	0	316
-50.775	-53.624	1	0	0	316
-50.090	-53.480	1	0	0	316
-52.651	-55.536	1	0	0	316
-52.182	-53.841	1	0	0	316
-51.497	-52.506	1	0	0	316
-47.999	-46.845	1	0	0	316
-44.501	-44.753	1	0	0	316
-44.825	-44.645	1	4822	0	316
-48.071	-46.015	1	13572	0	316
-50.775	-50.054	1	22477	0	316
-52.723	-50.198	1	32321	0	316
-50.018	-46.556	1	32767	0	316
-46.628	-43.563	1	32767	0	316
-44.392	-41.976	1	32767	0	316
-42.806	-40.894	1	32767	0	316
-39.632	-40.209	1	32767	0	316
-37.000	-39.272	1	32767	0	316
-34.151	-37.721	1	32767	0	316
-35.701	-38.082	1	32767	0	316
-37.685	-40.101	1	32767	0	316
-41.652	-42.012	1	32767	0	316
-43.310	-40.750	1	25915	0	316
-43.383	-38.406	1	21227	0	316
-43.202	-37.180	1	22321	0	316
-46.123	-36.819	1	24821	0	316
-46.159	-38.658	1	24040	0	316
-47.097	-41.868	1	19977	0	316
-49.153	-42.481	1	15134	0	316
-48.467	-44.248	1	10916	0	316
-47.962	-44.861	1	6072	1	316
-50.415	-46.484	1	0	0	316
-49.766	-47.926	1	0	0	316
-47.133	-46.917	1	0	0	316
-43.851	-44.140	1	0	0	316
-39.776	-40.966	1	0	0	316
-35.990	-37.757	1	916	0	316
-35.846	-37.865	1	916	0	316
-36.567	-38.262	1	1541	0	316
-35.737	-36.387	1	6384	0	316
-33.357	-30.328	1	15759	0	316
-30.076	-28.669	1	27634	0	316
-29.643	-28.669	1	32767	0	316
-30.725	-33.502	1	32767	0	316
-33.970	-36.639	1	32767	0	316
-34.403	-35.629	1	32767	0	316
-32.384	-29.679	1	32767	0	316
-30.040	-21.385	1	32767	0	316
-25.388	-18.428	1	32767	0	316
-24.089	-17.274	1	32767	0	316
-25.460	-19.365	1	32767	0	316
-25.243	-21.241	1	32767	0	316
-27.155	-22.683	1	32767	0	316
-30.364	-25.279	1	32767	0	316
-31.013	-27.191	1	32767	0	316
-33.610	-30.292	1	32767	0	316
-37.036	-35.810	1	32767	0	316
-41.039	-40.389	1	32767	0	316
-43.635	-43.455	8443	32767	0	316
-45.871	-46.340	18442	32767	0	316
-46.015	-48.107	29619	32767	0	316
-46.340	-46.953	32768	32767	0	316
-44.284	-47.710	32768	32767	0	316
-42.229	-46.664	32768	32767	0	316
-38.803	-40.317	32768	32767	0	316
-32.384	-31.410	32768	32767	0	316
-25.965	-23.152	32768	32767	0	316
-21.673	-19.293	32768	32767	0	316
-20.087	-15.939	32768	32767	0	316
-18.031	-16.805	32768	32767	0	316
-15.435	-10.710	32768	32767	0	316
-8.366	-3.390	32768	32767	0	316
-1.370	3.390	32768	32767	0	316
0.974	6.455	32768	32767	0	316
-0.649	2.777	32768	32767	0	316
-9.196	-3.354	32768	21384	0	316
-13.199	-5.770	32768	7166	0	316
-11.396	-7.501	32768	0	0	316
-6.780	-2.092	32768	0	0	316
0.865	3.967	32768	0	0	316
5.662	9.124	32768	0	0	316
8.258	12.009	32768	0	0	316
10.746	12.369	32768	0	0	316
11.756	12.189	32768	0	0	316
15.939	13.812	32768	0	0	316
18.211	15.903	32768	0	0	316
25.027	24.558	32768	0	0	316
32.095	33.610	32768	0	0	316
41.976	44.176	32768	0	0	316
48.936	53.805	32768	0	0	316
56.906	57.447	32768	0	0	316
57.916	60.512	32768	0	0	316
61.161	60.728	32768	0	0	316
61.486	61.558	32768	0	0	316
63.109	61.522	32768	0	0	316
62.892	63.902	32768	0	0	316
64.695	65.669	32768	0	0	316
65.813	70.790	32768	0	0	316
68.410	75.550	32768	0	0	316
71.511	77.966	32768	0	0	316
70.754	74.757	32768	0	0	316
68.806	69.275	32768	0	0	316
66.426	64.659	32768	0	0	316
63.613	61.342	32768	0	0	316
64.190	60.512	32768	0	0	316
63.361	61.991	32768	0	0	316
59.250	60.728	32768	0	0	316
55.968	58.709	32768	0	0	316
50.775	53.696	32768	0	0	316
50.018	51.244	32768	0	1	316
47.854	45.907	32768	0	0	316
48.467	44.609	32768	0	0	316
46.989	44.284	32768	0	0	316
44.537	44.212	28148	0	0	316
38.875	41.652	23736	0	0	316
35.810	37.000	19325	0	0	316
30.725	30.905	15796	0	0	316
26.794	22.286	11973	0	0	316
24.666	17.743	9914	0	0	316
23.585	12.946	8443	0	0	316
20.050	13.054	6090	0	0	316
16.841	12.369	4032	4353	0	316
12.622	10.494	4620	18727	0	316
7.140	7.285	4032	32767	0	316
1.082	3.642	4032	32767	0	316
-0.108	-0.252	3149	32767	0	316
-1.839	-3.606	1679	32767	0	316
-4.760	-7.501	1	32767	0	316
-9.232	-12.910	1	32767	0	316
-16.012	-19.149	1	32767	0	316
-19.005	-20.447	1	32767	0	316
-20.303	-22.972	1	32767	0	316
-20.159	-24.883	1	32767	0	316
-24.847	-27.876	1	32767	0	316
-29.643	-32.492	1	32767	0	316
-36.351	-34.439	1	32767	0	316
-39.199	-34.259	1	32767	0	316
-36.567	-33.862	1	32767	0	316
-36.387	-33.862	1	32767	0	316
-37.036	-36.964	1	32767	0	316
-38.118	-39.921	1	32767	0	316
-39.812	-39.849	1	32767	0	316
-39.163	-39.921	1	32767	0	316
-38.839	-38.875	1	32767	0	316
-39.163	-39.596	1	31540	0	316
-40.426	-43.202	1	28884	0	316
-43.202	-47.674	1	30446	0	316
-47.133	-48.215	1	32767	0	316
-49.044	-49.116	1	32767	0	316
-50.379	-48.720	1	32767	0	316
-53.083	-48.936	1	32767	0	316
-54.886	-54.021	1	32767	0	316
-58.709	-57.771	1	32767	0	316
-62.459	-59.250	1	32767	0	316
-60.115	-58.817	1	32767	0	316
-56.653	-54.850	1	32767	0	316
-52.254	-52.074	1	32767	0	316
-49.477	-48.864	1	32767	0	316
-46.736	-47.962	1	32767	0	316
-45.979	-46.304	1	32767	0	316
-42.986	-41.075	1	32767	0	316
-38.442	-39.344	1	31071	0	316
-34.728	-34.115	1	29196	0	316
-31.158	-33.285	1	28884	0	316
-25.856	-30.040	1	27321	0	316
-23.332	-25.856	1	23259	0	316
-21.096	-23.332	1	17790	0	316
-21.890	-21.168	1	12009	0	316
-24.414	-21.709	1	5447	0	316
-25.748	-24.270	1	0	0	316
-27.010	-25.099	1	0	0	316
-28.164	-24.342	1	0	0	316
-29.138	-24.630	1	0	0	316
-29.210	-26.938	1	0	0	316
-31.518	-28.705	1	0	0	316
-32.564	-31.194	1	0	0	316
-32.853	-33.898	1	0	0	316
-34.043	-35.882	1	0	0	316
-36.747	-37.901	1	0	0	316
-37.901	-38.658	1	0	0	316
-39.993	-37.396	1	0	0	316
-38.262	-33.862	1	0	0	316
-34.944	-30.725	1	0	0	316
-30.292	-27.371	1	0	0	316
-25.676	-26.614	1	0	0	316
-22.935	-23.044	1	0	0	316
-20.267	-18.716	1	0	0	316
-16.444	-15.471	1	0	0	316
-13.487	-10.566	1	0	1	316
-8.222	-10.674	1	0	0	316
-4.327	-10.097	1	0	0	316
-4.111	-12.117	1	0	0	316
-4.724	-13.595	1	0	0	316
-5.806	-15.975	1	0	0	316
-9.376	-16.805	1	0	0	316
-9.701	-18.247	1	0	0	316
-8.222	-14.894	1	4197	0	316
-7.032	-11.937	1	8259	0	316
-5.085	-9.232	1	9197	0	316
-4.868	-7.248	1	8416	0	316
-5.193	-10.169	1	9353	0	316
-6.347	-11.540	1	13728	0	316
-7.140	-11.468	1	19977	0	316
-4.472	-8.727	1	27009	0	316
-2.993	-5.013	1	32767	0	316
-2.813	-0.865	1	32767	0	316
-3.606	-0.325	1	32767	0	316
-5.734	-3.137	1	32767	0	316
-6.347	-5.554	1	32767	0	316
-3.029	-6.671	1	32767	0	316
2.272	-5.049	1	32767	0	316
7.862	-1.370	1	32767	0	316
11.071	2.452	1	32767	0	316
11.251	5.806	1	32767	0	316
11.973	8.078	1	32767	0	316
11.720	10.638	1	32767	0	316
14.028	14.821	1	32767	0	316
19.113	21.781	1	32767	0	316
21.493	25.712	1	32767	0	316
24.847	30.833	1	32767	0	316
28.092	33.069	1	32767	0	316
29.571	34.295	1	32767	0	316
30.328	33.682	1	32767	0	316
30.400	33.934	1	32767	0	316
30.833	33.393	1679	32767	0	316
30.617	34.079	14914	32767	0	316
32.276	34.367	28148	32767	0	316
33.538	35.016	32768	32767	0	316
34.331	35.846	32768	32767	0	316
35.341	33.393	32768	32767	0	316
35.737	31.807	32768	32767	0	316
36.062	29.679	32768	32767	0	316
36.855	28.814	32768	32767	0	316
36.531	30.148	32768	32767	0	316
37.901	34.547	32768	32767	0	316
38.154	38.550	32768	32767	0	316
38.262	41.507	32768	32767	0	316
39.055	42.770	32768	32767	0	316
38.875	41.616	32768	32767	0	316
40.281	42.625	32768	32767	0	316
41.435	43.383	32768	32767	0	316
45.330	46.592	32768	32767	0	316
46.376	49.008	32768	32767	0	316
44.753	48.756	32768	32767	0	316
41.399	46.268	32768	32767	0	316
33.754	41.652	32768	32767	0	316
28.994	37.396	32768	32767	0	316
27.263	35.557	32768	24509	0	316
28.597	36.459	32768	5291	0	316
30.905	35.882	32768	0	0	316
31.013	34.439	32768	0	0	316
28.489	31.951	32768	0	0	316
27.443	28.886	32768	0	0	316
26.181	28.561	32768	0	0	316
25.820	28.777	32768	0	0	316
27.732	29.066	32768	0	0	316
30.941	28.922	32768	0	0	316
31.518	29.679	32768	0	0	316
32.276	28.741	32768	0	0	316
31.049	28.309	32768	0	0	316
28.561	26.109	32768	0	0	316
26.361	24.378	32768	0	0	316
25.099	24.811	32768	0	0	316
24.702	24.991	32768	0	0	316
23.693	24.811	32768	0	0	316
23.945	24.847	32768	0	0	316
21.637	23.873	32768	0	0	316
20.555	23.729	32768	0	1	316
19.293	24.414	32768	0	0	316
16.048	26.578	32768	0	0	316
13.956	23.152	32768	0	0	316
12.369	20.736	32768	0	0	316
9.917	19.257	32768	0	0	316
9.016	15.867	32768	0	0	316
8.727	14.930	32768	0	0	316
6.419	12.550	32768	0	0	316
5.770	9.340	32768	0	0	316
4.400	6.058	32768	0	0	316
1.803	4.219	32768	0	0	316
2.777	2.596	32768	0	0	316
-0.216	-0.865	32768	0	0	316
-2.777	-3.570	32768	0	0	316
-5.626	-5.229	32768	0	0	316
-4.003	-4.580	32768	0	0	316
-3.137	-1.442	32768	0	0	316
-1.226	-1.659	31678	0	0	316
-1.587	-3.678	28736	0	0	316
-5.806	-9.412	25795	0	0	316
-10.530	-14.966	23736	0	0	316
-17.418	-19.798	21384	6384	0	316
-21.890	-21.818	19913	16540	0	316
-25.929	-25.352	17854	27165	0	316
-28.850	-24.919	16972	32767	0	316
-28.994	-24.450	16384	32767	0	316
-27.912	-23.837	14326	32767	0	316
-24.883	-20.231	11384	32767	0	316
-22.755	-18.680	9914	32767	0	316
-20.916	-20.159	8443	32767	0	316
-22.214	-21.096	6090	32767	0	316
-24.414	-26.938	3149	32767	0	316
-27.515	-32.167	208	32767	0	316
-30.040	-34.980	1	32767	0	316
-29.823	-38.298	1	32767	0	316
-29.030	-36.387	1	32767	0	316
-28.201	-36.062	1	32767	0	316
-27.804	-35.341	1	32767	0	316
-28.273	-34.511	1	32767	0	316
-27.587	-33.177	1	32767	0	316
-28.309	-31.879	1	32767	0	316
-25.929	-27.876	2561	32767	0	316
-24.378	-24.811	3149	32767	0	316
-21.132	-22.719	4620	32767	0	316
-18.320	-21.890	5502	32767	0	316
-17.634	-17.454	4032	32767	0	316
-14.641	-17.166	1090	32767	0	316
-14.136	-13.379	1	32767	0	316
-13.379	-11.540	1	32767	0	316
-16.552	-13.127	1	21071	0	316
-16.913	-14.389	1	12322	0	316
-19.690	-16.228	1	10603	0	316
-17.743	-15.507	1	10603	0	316
-12.946	-11.360	1	10291	0	316
-10.278	-9.917	1	10603	0	316
-10.422	-11.576	1	10447	0	316
-15.110	-16.264	1	8884	0	316
-20.952	-23.981	1	7166	0	316
-25.676	-28.814	1	7166	0	316
-24.630	-27.479	1	8728	0	316
-23.404	-22.250	1	10916	0	316
-19.221	-19.221	1	13103	0	316
-15.038	-15.759	1	14822	0	316
-15.975	-16.805	1	16696	0	316
-16.841	-17.382	1	18727	0	316
-19.077	-20.627	1	19665	0	316
-22.503	-21.132	1	21696	0	316
-23.909	-21.745	1	28727	0	316
-22.539	-19.618	1	32767	0	316
-19.690	-15.435	1	32767	0	316
-15.795	-9.989	1	32767	0	316
-9.881	-4.940	1	32165	0	316
-5.698	-1.839	1	27321	0	316
-3.931	-0.505	1	27634	0	316
-1.839	0.288	1	28727	0	316
-4.039	-0.541	1	27321	0	316
-4.544	-1.118	1	22477	0	316
-4.075	-0.613	1	16072	0	316
-2.849	-0.325	1	10291	1	316
-0.180	0.397	1	5447	0	316
0.036	-0.649	1	0	0	316
-1.731	-4.075	1	0	0	316
-5.734	-7.285	1	0	0	316
-9.448	-9.845	1	0	0	316
-12.622	-11.576	1	0	0	316
-12.081	-10.783	1	0	0	316
-8.943	-8.655	1	0	0	316
-7.393	-6.311	1	0	0	316
-6.455	-6.708	1	0	0	316
-7.429	-7.212	1	0	0	316
-9.124	-8.907	1	0	0	316
-7.645	-9.737	1	0	0	316
-7.501	-8.619	1	0	0	316
-2.524	-5.049	1	0	0	316
-0.649	-1.875	1	0	0	316
0.721	0.505	1	0	0	316
0.469	2.272	1	0	0	316
-2.308	0.721	1	0	0	316
-6.022	-2.380	1	0	0	316
-9.088	-6.239	1	0	0	316
-7.645	-6.203	1	0	0	316
-4.616	-4.652	1	0	0	316
-0.685	-0.757	1	759	0	316
1.298	0.325	1	7478	0	316
-0.361	0.685	1	11541	0	316
0.144	-0.180	1	13259	0	316
-1.767	-1.551	1	16540	0	316
-2.128	-0.902	1	22165	0	316
-2.560	-1.803	1	27009	0	316
-1.370	-0.325	1	29509	0	316
0.649	2.092	1	32634	0	316
3.678	2.993	1	32767	0	316
6.419	5.445	1	32767	0	316
7.357	2.993	1	32767	0	316
5.373	1.190	1	32767	0	316
4.616	0.793	1	32767	0	316
4.111	4.868	1	32767	0	316
7.537	10.025	1	32767	0	316
10.674	16.985	1	32767	0	316
17.021	22.322	1	32767	0	316
18.933	24.378	1	32767	0	316
20.591	23.729	1	32767	0	316
19.221	24.234	1	32767	0	316
21.745	24.522	1	32767	0	316
25.496	25.063	1	32767	0	316
28.777	26.974	4620	32767	0	316
30.328	26.686	19325	32767	0	316
28.092	26.253	32768	32767	0	316
25.929	24.450	32768	32767	0	316
22.503	23.837	32768	32767	0	316
21.132	23.188	32768	32767	0	316
22.539	21.565	32768	32767	0	316
20.411	21.998	32768	32767	0	316
21.493	19.257	32768	32767	0	316
18.211	19.041	32768	32767	0	316
17.454	19.870	32768	32767	0	316
17.598	18.860	32768	32767	0	316
18.933	22.322	32768	32767	0	316
23.873	22.142	32768	32767	0	316
23.044	21.673	32768	32767	0	316
20.736	19.834	32768	32767	0	316
14.533	17.274	32768	32767	0	316
13.054	16.589	32768	32767	0	316
13.199	16.336	32768	32767	0	316
17.995	19.582	32768	20134	0	316
21.060	21.781	32768	0	0	316
22.863	25.496	32768	0	0	316
18.788	25.027	32768	0	0	316
17.418	23.404	32768	0	0	316
15.290	23.765	32768	0	0	316
16.192	20.880	32768	0	0	316
16.733	20.627	32768	0	0	316
19.041	21.709	32768	0	0	316
19.618	19.870	32768	0	0	316
20.988	20.159	32768	0	0	316
17.743	16.589	32768	0	0	316
16.841	16.408	32768	0	0	316
13.163	12.910	32768	0	1	316
11.720	13.018	32768	0	0	316
11.360	10.638	32768	0	0	316
10.458	8.655	32768	0	0	316
10.746	6.383	32768	0	0	316
7.429	3.787	32768	0	0	316
6.275	2.380	32768	0	0	316
3.714	2.272	32768	0	0	316
1.515	1.262	32768	0	0	316
0.361	0.397	32768	0	0	316
0.902	0.144	32768	0	0	316
1.623	0.685	32768	0	0	316
2.272	0.829	32768	0	0	316
0.902	0.505	32768	0	0	316
-0.469	0.505	32768	0	0	316
-3.498	-0.325	32768	0	0	316
-2.669	1.515	32768	0	0	316
-3.498	4.977	32768	0	0	316
-0.108	8.619	32768	0	0	316
1.442	8.330	32768	0	0	316
1.947	6.888	32768	0	0	316
-1.875	0.288	32768	0	0	316
-7.898	-8.547	32768	0	0	316
-16.985	-13.704	32768	0	0	316
-22.827	-17.526	32768	0	0	316
-24.522	-16.120	32768	0	0	316
-23.404	-13.415	32768	0	0	316
-19.221	-10.350	29619	0	0	316
-17.995	-11.107	25207	0	0	316
-18.897	-19.041	22266	0	0	316
-24.450	-26.217	16972	0	0	316
-29.643	-31.590	11973	0	0	316
-32.816	-33.826	9032	0	0	316
-33.429	-31.158	6090	759	0	316
-30.184	-26.433	4620	11697	0	316
-28.597	-26.181	2561	22165	0	316
-29.751	-26.506	2561	31852	0	316
-32.816	-28.705	1679	32767	0	316
-35.016	-30.472	2561	32767	0	316
-35.918	-29.931	4620	32767	0	316
-34.439	-28.777	4032	32767	0	316
-31.879	-26.289	3149	32767	0	316
-29.895	-23.116	3149	32767	0	316
-29.643	-24.739	3149	32767	0	316
-30.004	-25.820	4032	32767	0	316
-31.194	-27.696	4620	32767	0	316
-32.961	-29.102	6973	32767	0	316
-33.069	-30.689	6973	32767	0	316
-32.853	-28.597	8443	32767	0	316
-32.816	-28.561	10502	32767	0	316
-30.977	-26.253	13443	32767	0	316
-31.951	-24.270	15796	32767	0	316
-32.203	-25.676	16972	32767	0	316
-32.528	-26.938	15796	32767	0	316
-33.393	-28.056	14326	32767	0	316
-30.256	-27.443	13443	32767	0	316
-26.794	-24.666	11973	32767	0	316
-23.152	-20.050	9914	32767	0	316
-19.546	-16.156	7561	32767	0	316
-18.067	-16.480	5502	30602	0	316
-18.644	-14.136	5502	25602	0	316
-15.831	-12.910	4032	22321	0	316
-14.569	-12.766	2561	19196	0	316
-10.602	-10.710	1679	16384	0	316
-8.475	-6.780	1679	14197	0	316
-9.196	-7.248	208	12791	0	316
-12.550	-8.943	208	12009	0	316
-15.939	-12.405	1	11228	0	316
-21.493	-15.182	1	9353	0	316
-21.241	-17.851	1	4353	0	316
-21.349	-16.985	1	0	0	316
-20.519	-16.949	1	0	0	316
-18.356	-14.569	1	1541	0	316
-17.021	-13.668	1	5916	0	316
-13.776	-10.566	1	6072	0	316
-11.756	-8.186	1	759	0	316
-13.812	-9.196	1	0	0	316
-15.038	-13.631	1	0	0	316
-17.706	-14.966	1	0	0	316
-14.245	-16.084	1	0	1	316
-9.520	-12.369	1	0	0	316
-2.921	-6.527	1	0	0	316
-0.144	-3.173	1	0	0	316
0.144	0.613	1	0	0	316
0.108	2.164	1	0	0	316
-0.144	3.462	1	0	0	316
-0.072	2.488	1	0	0	316
-0.865	2.596	1	0	0	316
-0.865	1.226	1	0	0	316
1.515	3.967	1	0	0	316
7.248	8.763	1	0	0	316
10.458	12.730	1	0	0	316
13.595	13.487	1	0	0	316
10.566	13.884	1	447	0	316
7.321	10.278	1	4197	0	316
8.222	7.934	1	2009	0	316
12.189	12.333	1	0	0	316
16.552	13.884	1	0	0	316
19.942	14.821	1	0	0	316
15.146	15.939	1	0	0	316
9.845	11.396	1	0	0	316
7.176	11.432	1	0	0	316
9.556	14.389	1	0	0	316
16.156	20.159	1	0	0	316
22.539	25.063	1	0	0	316
25.063	28.164	1	0	0	316
25.604	28.633	1	0	0	316
25.568	31.230	1	0	0	316
29.931	34.656	1	0	0	316
34.836	39.776	1	0	0	316
38.803	42.445	1	0	0	316
38.514	42.878	1	0	0	316
35.810	40.065	1	0	0	316
32.997	37.757	1	134	0	316
30.833	36.711	1	3572	0	316
30.797	37.216	1	8259	0	316
27.515	35.052	1	16540	0	316
23.801	30.076	1	27321	0	316
20.159	23.909	1	32767	0	316
15.687	18.320	1	32767	0	316
16.228	16.444	1	32767	0	316
14.533	17.418	1	32767	0	316
14.245	16.985	1	32767	0	316
12.441	14.497	1	32767	0	316
9.665	12.730	1	32767	0	316
9.016	9.412	1	32767	0	316
6.058	5.842	1	32767	0	316
8.402	7.321	1	32767	0	316
11.251	7.609	1	32767	0	316
17.418	10.278	1	32767	0	316
21.421	15.146	1	32767	0	316
24.162	20.303	1	32767	0	316
24.342	21.709	1	32767	0	316
24.270	23.945	1	32767	0	316
24.089	27.948	1	32767	0	316
28.056	31.194	10502	32767	0	316
31.049	32.312	25795	32767	0	316
33.177	36.026	32768	32767	0	316
32.312	34.367	32768	32767	0	316
27.083	28.850	32768	32767	0	316
19.870	21.385	32768	32767	0	316
11.612	15.398	32768	32767	0	316
6.780	8.619	32768	32767	0	316
3.678	5.842	32768	32767	0	316
3.065	5.734	32768	32767	0	316
4.219	5.734	32768	32767	0	316
3.678	4.796	32768	32767	0	316
2.019	1.911	32768	32767	0	316
-0.433	-0.252	32768	32767	0	316
-4.255	-4.183	32768	32767	0	316
-6.563	-4.760	32768	32767	0	316
-8.763	-4.075	32768	32767	0	316
-8.114	-2.633	32768	32767	0	316
-8.619	-2.019	32768	32767	0	316
-10.025	-5.878	32768	32767	0	316
-11.504	-9.196	32768	20759	0	316
-10.530	-13.451	32768	2478	0	316
-11.684	-14.208	32768	0	0	316
-12.369	-17.129	32768	0	1	316
-11.287	-16.444	32768	0	0	316
-13.776	-17.346	32768	0	0	316
-13.740	-14.100	32768	0	0	316
-13.054	-12.622	32768	0	0	316
-12.946	-9.773	32768	0	0	316
-15.218	-8.691	32768	0	0	316
-21.132	-13.631	32768	0	0	316
-24.486	-16.372	32768	0	0	316
-29.318	-18.788	32768	0	0	316
-29.968	-20.916	32768	0	0	316
-29.535	-22.178	32768	0	0	316
-30.076	-22.575	32768	0	0	316
-29.354	-25.568	32768	0	0	316
-32.816	-29.210	32768	0	0	316
-35.233	-32.997	32768	0	0	316
-38.695	-34.439	32768	0	0	316
-40.065	-34.872	32768	0	0	316
-38.731	-33.862	32768	0	0	316
-37.793	-30.581	32768	0	0	316
-34.728	-30.292	32768	0	0	316
-34.331	-31.518	32768	0	0	316
-34.547	-33.574	32768	0	0	316
-33.826	-34.728	32768	0	0	316
-28.922	-32.564	32768	0	0	316
-22.719	-28.922	32768	0	0	316
-18.283	-22.503	32768	0	0	316
-11.540	-17.093	32768	0	0	316
-11.648	-14.749	32768	0	0	316
-13.451	-13.559	32768	0	0	316
-12.405	-13.127	32768	0	0	316
-13.199	-14.966	27266	0	0	316
-12.982	-14.353	23736	0	0	316
-12.333	-16.048	19325	0	0	316
-15.326	-16.372	15796	0	0	316
-13.884	-17.129	13443	0	0	316
-13.884	-17.959	9914	0	0	316
-11.071	-15.579	8443	0	0	316
-8.943	-16.913	6090	3259	0	316
-13.668	-17.418	4620	18571	0	316
-16.985	-20.339	4032	32634	0	316
-19.762	-24.053	3149	32767	0	316
-22.611	-24.053	3149	32767	0	316
-20.627	-22.503	5502	32767	0	316
-18.428	-20.555	5502	32767	0	316
-18.933	-17.634	6973	32767	0	316
-17.562	-17.959	9032	32767	0	316
-17.202	-17.995	11384	32767	0	316
-15.182	-18.788	13443	32767	0	316
-15.471	-14.966	12855	32767	0	316
-14.858	-12.586	11384	32767	0	316
-17.562	-11.179	10502	32767	0	316
-16.949	-10.638	10502	32767	0	316
-18.175	-15.507	10502	32767	0	316
-15.723	-17.995	10502	32767	0	316
-16.733	-18.608	10502	32767	0	316
-16.300	-18.897	12855	32767	0	316
-17.598	-18.356	12855	32767	0	316
-20.014	-17.093	13443	32767	0	316
-20.050	-17.598	13443	32767	0	316
-16.372	-15.579	14326	32767	0	316
-14.569	-12.297	13443	32767	0	316
-11.287	-10.746	11973	32767	0	316
-9.376	-9.989	9914	32767	0	316
-10.566	-11.973	7561	32767	0	316
-14.894	-15.398	6090	32767	0	316
-15.110	-16.084	4032	31227	0	316
-15.146	-16.769	1090	20915	0	316
-12.117	-13.415	1	10134	0	316
-9.124	-9.953	1	5916	0	316
-7.212	-8.294	1	9041	0	316
-6.347	-9.629	1	14041	0	316
-7.645	-9.737	1	17946	0	316
-5.409	-10.927	208	20759	0	316
-3.606	-9.052	1090	24352	0	316
-3.210	-6.239	2561	29509	0	316
-2.272	-4.472	4620	32767	0	316
-4.472	-4.400	4620	32767	0	316
-6.275	-2.741	4620	32767	0	316
-7.717	-3.895	5502	30446	1	316
-6.383	-4.003	4032	25446	0	316
-7.357	-5.950	1679	19509	0	316
-8.258	-9.809	1	12166	0	316
-10.458	-13.415	1	3259	0	316
-12.730	-17.598	1	0	0	316
-17.129	-17.995	1	0	0	316
-15.615	-18.103	1	0	0	316
-10.746	-14.064	1	0	0	316
-6.094	-11.035	1	0	0	316
-1.406	-7.825	1	0	0	316
-2.380	-7.862	1	0	0	316
-7.537	-9.160	1	0	0	316
-12.874	-12.117	1	0	0	316
-17.310	-12.189	1	0	0	316
-15.615	-8.294	1	0	0	316
-13.523	-6.455	1	0	0	316
-12.694	-4.111	1	0	0	316
-10.097	-6.022	1	0	0	316
-11.648	-10.566	1	0	0	316
-11.576	-10.494	1	0	0	316
-8.583	-8.619	1	0	0	316
-4.832	-2.705	1	0	0	316
-2.019	1.118	1	0	0	316
2.416	2.957	1	0	0	316
0.505	2.164	1	0	0	316
0.361	1.839	1	0	0	316
-4.219	-1.442	1	0	0	316
-6.996	-5.986	1	0	0	316
-10.638	-9.592	1	0	0	316
-10.783	-8.619	1	0	0	316
-5.517	-4.400	1	0	0	316
1.298	3.750	1	0	0	316
5.662	11.792	1	0	0	316
7.140	12.117	1	0	0	316
4.147	9.629	1	0	0	316
-0.072	6.455	1	0	0	316
-0.072	4.039	1	0	0	316
3.823	6.058	1	11228	0	316
10.602	11.684	1	19509	0	316
18.608	19.113	1	22165	0	316
24.775	24.017	1	18571	0	316
28.201	26.794	1	14978	0	316
22.142	25.532	1	15447	0	316
18.824	20.700	1	20915	0	316
17.887	19.510	1	32165	0	316
18.824	20.664	1	32767	0	316
26.397	26.253	1	32767	0	316
31.879	29.535	1	32767	0	316
31.626	30.833	1	32767	0	316
26.938	24.739	1	32767	0	316
19.365	18.897	1	32767	0	316
15.687	18.031	1	32767	0	316
14.749	17.887	1	32767	0	316
15.218	22.503	1	32767	0	316
19.077	22.827	1	32767	0	316
18.897	21.745	1	32767	0	316
20.014	16.516	1	32767	0	316
18.067	15.218	1	32767	0	316
20.303	13.884	10502	32767	0	316
20.772	15.759	23736	32767	0	316
18.139	13.812	32768	32767	0	316
18.860	15.543	32768	32767	0	316
17.743	14.858	32768	32767	0	316
21.024	15.471	32768	32767	0	316
24.630	21.818	32768	32767	0	316
29.246	27.191	32768	32767	0	316
31.807	29.679	32768	32767	0	316
30.653	31.122	32768	32767	0	316
28.850	29.463	32768	32767	0	316
26.614	26.325	32768	32767	0	316
24.919	23.476	32768	32767	0	316
24.558	22.827	32768	32767	0	316
26.650	23.837	32768	32767	0	316
27.768	26.037	32768	32767	0	316
28.345	27.263	32768	32767	0	316
24.883	27.010	32768	32767	0	316
21.637	23.368	32768	32767	0	316
16.949	18.536	32768	32767	0	316
15.146	15.002	32768	32767	1	316
13.631	11.540	32768	32767	0	316
12.081	13.127	32768	23102	0	316
13.091	11.504	32768	5603	0	316
10.999	11.287	32768	0	0	316
8.511	13.523	32768	0	0	316
7.285	10.783	32768	0	0	316
3.029	10.206	32768	0	0	316
0.685	11.107	32768	0	0	316
1.731	11.360	32768	0	0	316
2.488	11.792	32768	0	0	316
5.626	13.704	32768	0	0	316
7.934	14.317	32768	0	0	316
13.559	16.769	32768	0	0	316
15.002	18.320	32768	0	0	316
15.146	20.664	32768	0	0	316
15.146	21.565	32768	0	0	316
11.973	22.755	32768	0	0	316
11.937	22.106	32768	0	0	316
12.225	21.421	32768	0	0	316
11.251	20.952	32768	0	0	316
12.081	17.382	32768	0	0	316
10.783	16.733	32768	0	0	316
9.232	13.415	32768	0	0	316
6.275	10.999	32768	0	0	316
5.409	7.393	32768	0	0	316
2.452	3.173	32768	0	0	316
2.056	1.767	32768	0	0	316
3.173	1.695	32768	0	0	316
5.373	2.560	32768	0	0	316
9.376	5.590	32768	0	0	316
13.740	7.032	32768	0	0	316
19.798	10.783	32768	0	0	316
19.798	10.674	32768	0	0	316
18.680	12.045	32768	0	0	316
16.769	12.225	32768	0	0	316
14.389	10.278	32768	0	0	316
12.694	8.150	32768	0	0	316
13.487	7.573	32768	0	0	316
11.792	7.068	32768	0	0	316
12.153	7.393	32768	0	0	316
13.199	7.753	32768	9197	0	316
12.045	6.671	32768	22634	0	316
8.583	5.481	32768	30915	0	316
5.590	3.246	32768	30759	0	316
0.902	2.019	32768	26852	0	316
-3.029	0.685	30207	27009	0	316
-6.419	-2.272	27266	30915	0	316
-9.412	-5.229	25207	32767	0	316
-11.179	-5.265	23736	32767	0	316
-10.314	-5.337	23736	32767	0	316
-6.094	-4.255	25207	32767	0	316
-2.633	-3.029	26678	32767	0	316
-4.472	-4.760	28736	32767	0	316
-6.816	-7.645	30207	32767	0	316
-13.343	-12.261	32560	32767	0	316
-16.697	-18.933	32768	32767	0	316
-22.034	-21.637	32768	32767	0	316
-21.673	-24.125	32768	32767	0	316
-23.837	-23.332	32768	32767	0	316
-25.027	-21.385	32768	32767	0	316
-24.450	-22.755	32768	32767	0	316
-22.755	-22.250	32768	32767	0	316
-23.224	-23.368	32768	32767	0	316
-22.286	-24.702	32768	32767	0	316
-24.739	-24.702	32768	32767	0	316
-28.417	-25.784	32768	32767	0	316
-32.636	-26.938	32768	32767	0	316
-34.980	-28.092	32560	32767	0	316
-34.043	-28.092	29619	32009	0	316
-34.511	-28.345	25207	19509	0	316
-29.246	-28.489	21384	5603	0	316
-28.850	-27.335	17854	0	0	316
-29.463	-26.109	15796	0	0	316
-32.564	-25.929	13443	0	0	316
-36.098	-26.866	10502	0	0	316
-37.072	-27.912	8443	0	0	316
-35.701	-30.112	6090	0	0	316
-31.122	-32.348	4620	0	0	316
-27.119	-34.800	1679	0	1	316
-25.316	-33.321	1	0	0	316
-23.152	-31.662	1	0	0	316
-24.450	-31.699	1	0	0	316
-27.840	-31.699	1	0	0	316
-29.787	-32.600	1	0	0	316
-30.472	-32.780	1	0	0	316
-26.470	-30.328	1	0	0	316
-20.231	-23.368	1	0	0	316
-11.071	-14.317	1	0	0	316
-8.402	-9.412	1	0	0	316
-8.799	-6.671	1	447	0	316
-10.602	-6.924	1	1384	0	316
-16.300	-11.828	1	1697	0	316
-18.969	-16.697	1	2947	0	316
-20.916	-18.139	1	5134	0	316
-21.096	-20.700	1	8572	0	316
-21.709	-19.690	1	13572	0	316
-20.519	-19.906	1	18259	0	316
-20.087	-15.723	1	18259	0	316
-18.103	-15.615	1	11384	0	316
-19.365	-14.497	1	1228	0	316
-23.440	-20.267	1	0	0	316
-26.325	-23.909	1	0	0	316
-31.554	-26.974	1	0	0	316
-31.771	-27.624	1	0	0	316
-29.066	-24.450	1	0	0	316
-26.866	-22.827	1	0	0	316
-25.748	-24.955	1	0	0	316
-25.316	-28.020	1	0	0	316
-27.083	-30.508	1	0	0	316
-26.361	-28.525	1	0	0	316
-22.322	-23.080	1	0	0	316
-18.103	-17.598	1	0	0	316
-11.107	-10.386	1	0	0	316
-8.907	-11.143	1	0	0	316
-9.701	-11.251	1	0	0	316
-11.287	-12.766	1	0	0	316
-13.848	-12.802	1	0	0	316
-13.776	-12.730	1	0	0	316
-9.989	-10.638	1	0	0	316
-8.150	-11.684	1	0	0	316
-7.789	-11.179	1	0	0	316
-8.871	-11.432	1	3416	0	316
-11.035	-13.740	1	9041	0	316
-16.336	-14.497	1	14666	0	316
-18.716	-17.743	1	20915	0	316
-23.729	-22.142	1	29665	0	316
-25.965	-23.765	1	32767	0	316
-25.604	-22.791	1	32767	0	316
-23.260	-20.880	1	32767	0	316
-16.625	-15.615	1	32767	0	316
-13.199	-13.848	1	32767	0	316
-8.979	-11.576	1	32767	0	316
-9.412	-12.838	1	32767	0	316
-7.429	-11.576	1	32767	0	316
-9.088	-9.701	1	32767	0	316
-8.511	-7.681	1	32767	0	316
-10.314	-5.986	1	32767	0	316
-10.674	-6.347	1	32767	0	316
-10.422	-7.465	7561	32767	0	316
-9.268	-7.321	19913	32767	0	316
-8.511	-5.698	32560	32767	0	316
-8.186	-4.832	32768	32767	0	316
-7.681	-3.823	32768	32767	0	316
-8.042	-4.327	32768	32767	0	316
-7.501	-5.193	32768	32767	0	316
-6.167	-4.940	32768	32767	0	316
-6.455	-4.255	32768	32767	0	316
-5.481	-4.327	32768	32767	0	316
-5.373	-3.823	32768	32767	0	316
-4.075	-5.842	32768	32767	0	316
-5.950	-7.104	32768	32767	0	316
-6.816	-7.573	32768	32767	0	316
-6.635	-5.878	32768	32767	0	316
-4.255	-3.750	32768	32767	0	316
-3.354	-0.938	32768	32767	0	316
-3.750	-1.154	32768	32767	0	316
-4.291	-2.092	32768	32767	0	316
-8.150	-5.049	32768	32767	1	316
-6.924	-5.481	32768	32767	0	316
-5.157	-3.354	32768	32767	0	316
-2.092	-1.154	32768	32767	0	316
-1.334	1.262	32768	32767	0	316
-2.380	1.767	32768	32767	0	316
-3.787	0.252	32768	13259	0	316
-4.183	-2.056	32768	0	0	316
-0.469	-4.075	32768	0	0	316
3.606	-3.570	32768	0	0	316
8.114	-1.154	32768	0	0	316
7.429	-0.469	32768	0	0	316
4.364	-0.144	32768	0	0	316
-0.144	-0.577	32768	0	0	316
-2.056	-0.902	32768	0	0	316
0.000	-1.623	32768	0	0	316
4.147	0.577	32768	0	0	316
9.629	4.003	32768	0	0	316
11.756	6.311	32768	0	0	316
12.009	5.986	32768	0	0	316
7.645	5.590	32768	0	0	316
5.445	4.760	32768	0	0	316
7.357	5.734	32768	0	0	316
13.487	15.939	32768	0	0	316
20.988	24.053	32768	0	0	316
26.758	28.958	32768	0	0	316
26.722	28.597	32768	0	0	316
22.683	24.198	32768	0	0	316
19.654	22.142	32768	0	0	316
22.250	25.893	32768	0	0	316
26.181	31.266	32768	0	0	316
30.364	36.747	32768	0	0	316
33.754	38.045	32768	0	0	316
31.879	37.144	32768	0	0	316
29.427	35.197	32768	0	0	316
29.679	34.836	32768	0	0	316
30.292	35.160	32768	0	0	316
33.069	36.351	32768	0	0	316
33.718	35.197	32768	0	0	316
32.853	31.626	32768	0	0	316
32.420	27.587	32768	0	0	316
30.905	23.080	32768	0	0	316
31.194	21.781	32768	0	0	316
27.479	21.998	32768	0	0	316
24.486	21.060	32768	0	0	316
20.195	21.962	32768	9197	0	316
18.103	20.555	32768	24821	0	316
16.192	19.870	32768	32767	0	316
16.805	19.978	32768	32767	0	316
14.317	17.562	32768	32767	0	316
15.723	19.401	32768	32767	0	316
17.274	20.916	32768	32767	0	316
23.116	26.397	32768	32767	0	316
25.099	31.302	32768	32767	0	316
25.135	34.475	32768	32767	0	316
21.890	32.131	32768	32767	0	316
19.762	32.925	32768	32767	0	316
20.808	31.410	32768	32767	0	316
21.313	31.735	32768	32767	0	316
20.808	31.013	32768	32767	0	316
19.690	27.083	32768	32767	0	316
14.966	23.621	32768	32767	0	316
15.543	19.293	32768	32767	0	316
18.788	19.654	32768	32767	0	316
20.375	18.824	32768	32767	0	316
21.241	17.706	32768	32767	0	316
19.293	14.425	32768	32767	0	316
11.792	10.278	32768	32767	0	316
9.232	6.671	32768	32767	0	316
8.402	6.527	32768	32767	0	316
8.979	6.960	32768	27790	0	316
12.622	10.963	32768	18415	0	316
14.353	10.783	32768	4041	0	316
11.864	8.186	32768	0	0	316
7.753	4.508	32768	0	0	316
4.580	1.190	32768	0	0	316
4.400	0.649	32768	0	0	316
8.330	5.842	32768	0	0	316
13.307	12.117	32768	0	0	316
19.582	14.425	32768	0	1	316
17.310	16.156	31678	0	0	316
12.117	11.720	30207	0	0	316
6.816	7.501	28736	0	0	316
0.397	4.580	28148	0	0	316
0.072	4.472	25795	916	0	316
1.587	5.554	24325	3103	0	316
4.760	7.645	23736	6072	0	316
7.609	8.871	22854	10603	0	316
8.439	9.340	20795	13259	0	316
9.448	10.458	20795	13728	0	316
9.809	10.133	19325	14822	0	316
7.068	9.376	16972	16384	0	316
5.013	7.717	15796	17009	0	316
2.128	5.301	14326	17321	0	316
0.433	2.524	13443	16540	0	316
1.298	0.252	11384	14666	0	316
1.551	-1.695	7561	10916	0	316
0.216	-3.101	4620	6228	0	316
-3.787	-2.741	1679	2166	0	316
-5.013	-1.839	1	0	0	316
-5.409	-0.108	1	0	0	316
-2.560	0.325	1	0	0	316
-0.144	0.144	1	0	0	316
0.865	-0.180	1	0	0	316
0.108	-2.056	1	0	0	316
-2.560	-4.688	1	0	0	316
-6.744	-7.212	1	0	0	316
-9.773	-10.350	1	0	0	316
-10.999	-11.648	1	0	0	316
-10.025	-9.520	1	0	0	316
-7.140	-8.619	1	0	0	316
-3.750	-8.042	1	0	0	316
-5.734	-11.468	1	0	0	316
-9.052	-14.749	1	0	0	316
-14.389	-20.303	1	0	0	316
-17.057	-20.123	1	0	0	316
-20.411	-18.320	1	0	0	316
-18.572	-15.507	1	0	0	316
-19.041	-16.552	1	0	0	316
-17.346	-17.346	1	0	0	316
-16.120	-19.690	1	0	0	316
-11.612	-18.428	1	0	0	316
-9.484	-15.867	1	0	0	316
-8.475	-10.710	1	4041	0	316
-12.730	-11.396	1	3728	0	316
-15.471	-13.920	1	0	0	316
-20.555	-14.461	1	0	0	316
-19.654	-16.805	1	2634	0	316
-19.005	-14.569	1	10759	0	316
-19.618	-14.749	1	18884	0	316
-17.057	-13.271	1	27946	0	316
-18.680	-16.084	1	32767	0	316
-17.526	-17.166	1	32767	0	316
-18.283	-17.166	1	32767	0	316
-16.192	-18.392	1	32767	0	316
-15.759	-18.392	1	32767	0	316
-14.281	-16.552	1	32767	0	316
-12.514	-14.713	1	32767	0	316
-15.435	-15.975	1	32767	0	316
-15.687	-15.074	1	32767	0	316
-17.634	-17.129	1	32767	0	316
-15.615	-17.959	1	32767	0	316
-13.271	-18.536	1	32767	0	316
-10.710	-16.841	1	32767	0	316
-8.366	-19.329	1	32767	0	316
-8.186	-18.572	5502	32767	0	316
-11.720	-20.844	20795	32767	0	316
-14.677	-19.401	32768	32767	0	316
-18.103	-18.788	32768	32767	0	316
-19.221	-19.762	32768	32767	0	316
-19.834	-19.185	32768	32767	0	316
-18.897	-23.332	32768	32767	0	316
-20.339	-23.765	32768	32767	0	316
-19.149	-23.909	32768	32767	0	316
-20.231	-22.755	32768	32767	0	316
-18.067	-19.654	32768	32767	0	316
-19.113	-20.303	32768	32767	0	316
-18.680	-19.473	32768	32767	0	316
-20.014	-20.123	32768	32767	1	316
-19.365	-20.808	32768	32767	0	316
-21.241	-19.257	32768	32767	0	316
-26.470	-22.611	32768	32767	0	316
-30.941	-24.630	32768	32767	0	316
-35.341	-27.227	32768	32767	0	316
-34.403	-26.001	32768	32767	0	316
-30.436	-25.243	32768	32767	0	316
-25.135	-22.070	32768	32767	0	316
-22.827	-22.467	32768	32767	0	316
-21.529	-22.719	32768	23727	0	316
-17.382	-19.654	32768	0	0	316
-17.526	-18.644	32768	0	0	316
-15.326	-15.759	32768	0	0	316
-13.054	-16.192	32768	0	0	316
-13.776	-15.362	32768	0	0	316
-10.674	-14.317	32768	0	0	316
-4.291	-10.097	32768	0	0	316
1.406	-4.796	32768	0	0	316
1.983	-3.678	32768	0	0	316
3.101	-4.400	32768	0	0	316
-2.164	-8.078	32768	0	0	316
-8.907	-12.477	32768	0	0	316
-13.018	-11.973	32768	0	0	316
-11.468	-11.071	32768	0	0	316
-7.898	-4.652	32768	0	0	316
-3.065	-0.216	32768	0	0	316
-3.173	0.361	32768	0	0	316
-9.160	-3.534	32768	0	0	316
-15.110	-9.809	32768	0	0	316
-22.070	-13.127	32768	0	0	316
-20.952	-16.805	32768	0	0	316
-20.880	-13.523	32768	0	0	316
-18.680	-13.812	32768	0	0	316
-19.690	-14.966	32768	0	0	316
-20.267	-15.687	32768	0	0	316
-18.536	-17.959	32768	0	0	316
-18.283	-16.589	32768	0	0	316
-16.552	-15.939	32768	0	0	316
-17.562	-13.884	32768	0	0	316
-15.759	-14.317	32768	0	0	316
-18.139	-13.848	32768	0	0	316
-16.516	-11.576	32768	0	0	316
-12.874	-10.999	32768	0	0	316
-10.133	-7.645	32768	0	0	316
-5.842	-6.058	32768	0	0	316
-2.777	-3.498	32768	0	0	316
0.144	-3.642	32768	0	0	316
1.947	-1.479	32768	13103	0	316
2.777	0.541	32768	24977	0	316
4.508	1.875	32768	32767	0	316
3.967	1.551	32768	32767	0	316
2.777	1.767	32768	32767	0	316
0.252	-0.036	32768	32767	0	316
-1.875	-1.298	32768	32767	0	316
-3.101	-1.947	32768	32767	0	316
1.190	1.875	32768	32767	0	316
9.665	8.042	32768	32767	0	316
20.267	16.877	32768	32767	0	316
25.424	20.664	32768	32767	0	316
26.289	20.844	32768	32767	0	316
16.012	13.487	32768	23884	0	316
10.350	8.150	32768	12322	0	316
7.321	8.006	32768	10603	0	316
10.061	12.586	32768	18415	0	316
19.113	20.700	32768	28415	0	316
25.171	26.433	32768	32767	0	316
29.715	30.545	32768	32767	0	316
33.393	34.403	32768	32767	0	316
35.052	35.449	32768	32767	0	316
34.475	37.721	32768	32767	0	316
34.403	36.026	32768	32767	0	316
32.889	36.423	32768	32767	0	316
32.780	35.593	32768	32767	0	316
33.754	35.269	32768	32767	0	316
34.872	32.997	32768	32767	0	316
33.357	30.436	32768	32767	0	316
28.741	27.083	32768	32767	0	316
28.741	24.775	32768	32767	0	316
27.768	23.152	32768	32767	1	316
28.741	23.873	32768	32767	0	316
27.768	20.195	32768	32767	0	316
23.332	14.821	32768	32767	0	316
16.120	11.576	32768	32767	0	316
13.127	9.232	32768	32767	0	316
15.038	11.287	32768	32767	0	316
18.969	18.752	32768	32767	0	316
22.683	23.296	32768	32165	0	316
24.125	26.145	32768	27477	0	316
20.627	21.241	32768	22165	0	316
19.510	17.310	32768	17790	0	316
19.798	15.579	32768	13259	0	316
23.404	18.969	32768	5447	0	316
27.227	24.089	32768	0	0	316
27.768	28.886	32768	0	0	316
24.306	29.391	32768	0	0	316
22.935	27.948	31678	0	0	316
18.320	26.470	23736	0	0	316
19.185	26.506	16384	0	0	316
22.431	27.551	9914	0	0	316
20.844	28.525	4032	0	0	316
20.700	27.768	1	0	0	316
16.985	27.191	1	0	0	316
15.002	24.811	1	0	0	316
11.576	20.303	1	0	0	316
10.133	18.031	1	0	0	316
8.691	14.281	1	0	0	316
6.671	9.989	1	0	0	316
5.626	6.816	1	0	0	316
5.121	3.895	1	0	0	316
4.940	2.056	1	0	0	316
3.318	0.144	1	0	0	316
1.479	-0.397	1	0	0	316
0.685	-1.983	1	2322	0	316
-0.036	-1.731	1	9509	0	316
1.406	-1.695	1	15759	0	316
3.823	0.180	1	19821	0	316
3.859	1.226	1	23884	0	316
2.380	1.839	1	29040	0	316
0.433	2.056	1	32767	0	316
-4.544	-0.252	1	32767	0	316
-6.167	-3.210	1	32767	0	316
-6.599	-4.580	1	32767	0	316
-4.580	-1.875	1	32767	0	316
0.469	5.734	1	32767	0	316
3.967	12.766	1	32767	0	316
2.705	11.792	1	30915	0	316
-3.354	7.248	1	14822	0	316
-10.350	-1.046	1	0	0	316
-16.264	-7.068	1	0	0	316
-14.569	-7.285	1	0	0	316
-10.422	-2.019	1	0	0	316
-4.652	3.931	1	0	0	316
-0.613	7.104	1	0	0	316
-0.649	8.114	1	0	0	316
-4.291	2.236	1	0	0	316
-10.025	-5.337	1	0	0	316
-17.346	-13.199	1	0	0	316
-20.411	-17.851	1	0	0	316
-21.313	-17.310	1	0	0	316
-16.300	-17.021	1	0	0	316
-14.641	-13.487	1	0	0	316
-14.028	-12.658	1	3259	0	316
-14.064	-14.028	1	25602	0	316
-17.598	-13.559	1	32767	0	316
-17.670	-16.661	1	32767	0	316
-19.077	-16.084	1	32767	0	316
-19.906	-18.716	1	32767	0	316
-21.854	-19.041	1	32767	0	316
-22.358	-20.231	1	32767	0	316
-18.211	-16.300	1	32767	0	316
-15.002	-13.559	1	32767	0	316
-10.927	-10.242	1	32767	0	316
-10.999	-11.900	1	32767	0	316
-17.598	-19.041	1	32767	0	316
-26.289	-26.686	8443	32767	0	316
-33.538	-33.574	22854	32767	0	316
-39.488	-36.278	32768	32767	0	316
-39.416	-34.547	32768	32767	0	316
-39.127	-30.725	32768	32767	0	316
-36.170	-28.850	32768	32767	0	316
-32.528	-26.506	32768	32767	0	316
-27.876	-27.804	32768	32767	0	316
-25.424	-28.525	32768	32767	0	316
-23.549	-29.571	32768	32767	0	316
-23.296	-30.004	32768	32767	0	316
-22.827	-28.381	32768	32767	0	316
-21.132	-25.243	32768	32767	1	352
-14.533	-19.582	32768	32767	0	352
-10.855	-14.858	32768	32767	0	352
-5.662	-9.881	32768	32767	0	352
-2.272	-8.258	32768	32767	0	352
-1.875	-7.789	32768	32767	0	352
-0.325	-5.986	32768	32767	0	352
1.262	-3.498	32768	32767	0	352
3.029	-0.902	32768	32767	0	352
4.003	2.380	32768	32767	0	352
4.868	5.554	32768	32477	0	352
6.022	5.157	32768	0	0	352
4.327	4.940	32768	0	0	352
3.678	2.380	32768	0	0	352
0.144	-0.397	32768	0	0	352
-1.442	-1.659	32768	0	0	352
-1.262	0.108	32768	0	0	352
-0.180	2.921	32768	0	0	352
0.902	3.823	32768	0	0	352
0.325	3.967	32768	0	0	352
1.334	2.344	32768	0	0	352
1.515	1.082	32768	0	0	352
2.921	0.288	32768	0	0	352
2.056	-0.685	32768	0	0	352
-1.839	-3.029	32768	0	0	352
-1.442	-2.416	32768	0	0	352
2.957	1.911	32768	0	0	352
12.369	11.107	32768	0	0	352
20.231	17.959	32768	0	0	352
24.739	21.709	32768	0	0	352
20.447	17.202	32768	0	0	352
14.425	10.674	32768	0	0	352
9.376	6.635	32768	0	0	352
10.350	8.006	32768	0	0	352
15.651	15.615	32768	0	0	352
22.899	24.522	32768	0	0	352
25.316	28.201	32768	0	0	352
23.440	26.217	32768	0	0	352
15.939	18.969	32768	0	0	352
13.199	13.307	32768	0	0	352
10.278	12.045	32768	0	0	352
13.127	11.937	32768	0	0	352
14.353	16.084	32768	0	0	352
14.497	15.362	32768	0	0	352
14.569	16.228	32768	0	0	352
14.281	17.526	32768	0	0	352
16.192	18.933	32768	0	0	352
16.480	21.168	32768	0	0	352
17.202	23.080	32768	0	0	352
15.939	22.322	32768	0	0	352
15.398	22.106	32768	0	0	352
16.300	22.791	32768	0	0	352
14.713	19.906	32768	0	0	352
17.021	22.214	32768	1228	0	352
16.156	23.224	32768	14822	0	352
17.454	23.693	32768	27477	0	352
16.192	26.001	32768	32767	0	352
17.238	26.542	32768	32767	0	352
16.120	26.794	32768	32767	0	352
17.310	27.587	32768	32767	0	352
17.166	28.453	32768	32767	0	352
18.320	27.732	32768	32767	0	352
17.418	26.145	32768	32767	0	352
16.625	21.962	32768	32767	0	352
15.326	17.310	32768	32767	0	352
11.973	11.215	32768	32767	0	352
10.927	7.429	32768	32767	0	352
7.357	6.852	32768	32767	0	352
6.094	6.563	32768	32767	0	352
5.662	6.924	32768	32767	0	352
6.455	9.052	32768	32767	0	352
6.744	10.783	32768	32767	0	352
5.337	10.314	32768	32009	0	352
4.291	8.258	32768	28259	0	352
1.262	6.671	32768	28571	0	352
0.865	3.065	32768	31227	0	352
1.983	4.111	32768	32767	0	352
6.167	5.590	32768	32767	0	352
10.242	7.825	32768	32767	0	352
14.172	7.898	32768	32767	1	316
14.425	7.393	32768	32767	0	316
14.749	6.275	32768	32767	0	316
12.550	9.412	32768	32767	0	316
10.242	10.133	32768	32767	0	316
14.677	12.982	32768	32634	0	316
15.254	15.543	32768	23884	0	316
18.103	16.336	32768	22165	0	316
15.939	17.454	32768	27946	0	316
12.081	13.199	32768	30915	0	316
6.708	6.780	32768	25446	0	316
1.406	-0.072	32768	15603	0	316
-1.731	-4.796	32560	6228	0	316
-3.859	-6.996	29619	0	0	316
-4.652	-6.455	26678	0	0	316
-4.255	-5.770	22266	0	0	316
-4.652	-7.248	16384	0	0	316
-6.744	-10.674	11973	0	0	316
-14.136	-17.238	7561	0	0	316
-21.421	-21.601	4032	0	0	316
-30.148	-28.092	1090	0	0	316
-34.043	-29.210	1	0	0	316
-32.961	-29.463	1	0	0	316
-30.328	-27.551	1	0	0	316
-27.083	-29.391	1	0	0	316
-27.732	-30.725	1	0	0	316
-31.771	-30.400	1	0	0	316
-33.393	-30.472	1	0	0	316
-31.879	-28.850	1	0	0	316
-28.020	-26.794	1	0	0	316
-21.962	-24.919	1	0	0	316
-17.598	-23.404	1	0	0	316
-16.985	-21.854	1	0	0	316
-15.218	-16.120	1	0	0	316
-13.668	-16.264	1	0	0	316
-17.743	-17.995	1	0	0	316
-23.476	-26.433	1	0	0	316
-31.374	-33.141	1	0	0	316
-37.396	-38.406	1	0	0	316
-36.098	-36.928	1	447	0	316
-29.138	-30.220	1	2478	0	316
-23.080	-23.368	1	3728	0	316
-17.851	-20.159	1	4509	0	316
-19.906	-17.923	1	4509	0	316
-22.647	-19.113	1	3416	0	316
-22.358	-19.762	1	3103	0	316
-22.611	-20.014	1	7478	0	316
-17.815	-18.608	1	15447	0	316
-16.552	-16.444	1	19509	0	316
-14.966	-17.382	1	16384	0	316
-16.805	-16.877	1	9978	0	316
-15.975	-19.185	1	4822	0	316
-15.723	-18.608	1	2634	0	316
-13.451	-19.005	1	2947	0	316
-13.559	-16.444	1	2478	0	316
-16.913	-18.067	1	0	0	316
-21.601	-18.788	1	0	0	316
-24.342	-24.450	1	0	0	316
-26.253	-27.912	1	0	0	316
-25.279	-29.931	1	916	0	316
-21.818	-28.669	1	5447	0	316
-21.529	-27.263	1	11072	0	316
-22.070	-26.001	1	18415	0	316
-19.257	-24.919	1	25915	0	316
-19.870	-24.991	1	32767	0	316
-17.959	-23.909	1	32767	0	316
-19.437	-20.844	1	32767	0	316
-19.690	-20.519	1	32767	0	316
-22.611	-20.664	1	32767	0	316
-22.503	-18.969	1	32767	0	316
-17.706	-18.031	1	32767	0	316
-14.930	-14.317	1	32767	0	316
-13.163	-12.910	1	32767	0	316
-13.812	-13.451	1	32767	0	316
-19.041	-12.441	1	32767	0	316
-20.736	-14.172	1	32767	0	316
-21.132	-12.946	1	32767	0	316
-20.880	-11.648	5502	32767	0	316
-17.526	-11.540	19913	32767	0	316
-18.752	-11.432	32768	32767	0	316
-16.228	-10.566	32768	32767	0	316
-15.362	-9.701	32768	32767	0	316
-16.120	-9.340	32768	32767	0	316
-18.536	-9.845	32768	32767	0	316
-23.801	-14.894	32768	32767	0	316
-27.083	-18.392	32768	32767	0	316
-29.463	-21.854	32768	32767	1	344
-27.299	-20.627	32768	32767	0	344
-21.709	-16.336	32768	32767	0	344
-18.320	-10.278	32768	32767	0	344
-13.307	-6.311	32768	32767	0	344
-12.658	-8.402	32768	32767	0	344
-13.163	-13.920	32768	32767	0	344
-11.684	-17.382	32768	32767	0	344
-10.530	-19.762	32768	32767	0	344
-6.708	-14.677	32768	32767	0	344
-2.524	-8.979	32768	32767	0	344
1.731	-3.498	32768	32767	0	344
1.731	-0.505	32768	32767	0	344
1.803	0.433	32768	32767	0	344
-0.072	-0.649	32768	27321	0	344
-1.190	0.757	32768	12478	0	344
-0.036	0.469	32768	0	0	344
3.606	1.298	32768	0	0	344
8.727	4.472	32768	0	0	344
12.117	6.888	32768	0	0	344
15.435	9.592	32768	0	0	344
14.100	10.819	32768	0	0	344
11.864	11.937	32768	0	0	344
8.006	11.107	32768	0	0	344
6.455	12.297	32768	0	0	344
9.881	14.641	32768	0	0	344
18.644	20.591	32768	0	0	344
25.135	24.847	32768	0	0	344
31.085	28.741	32768	0	0	344
34.547	29.787	32768	0	0	344
32.167	29.895	32768	0	0	344
30.761	29.138	32768	0	0	344
30.545	30.076	32768	0	0	344
29.499	28.669	32768	0	0	344
28.525	28.994	32768	0	0	344
30.364	27.010	32768	0	0	344
31.049	24.883	32768	0	0	344
34.583	25.279	32768	0	0	344
36.964	25.676	32768	0	0	344
38.514	27.263	32768	0	0	344
36.098	26.181	32768	0	0	344
33.141	23.332	32768	0	0	344
30.689	21.132	32768	0	0	344
28.669	17.923	32768	0	0	344
27.587	16.480	32768	0	0	344
24.306	14.064	32768	0	0	344
19.185	11.251	32768	0	0	344
16.372	7.862	32768	0	0	344
13.956	4.796	32768	0	0	344
13.992	6.275	32768	0	0	344
14.785	6.455	32768	0	0	344
12.766	7.321	32768	0	0	344
12.225	9.160	32768	0	0	344
10.746	9.592	32768	0	0	344
9.124	10.314	32768	0	0	344
8.186	12.874	32768	0	0	344
9.304	14.208	32768	7478	0	344
9.881	17.382	32768	19196	0	344
9.160	18.536	32768	25602	0	344
5.986	15.398	32768	29665	0	344
4.616	14.641	32768	32767	0	344
2.633	12.766	32768	32767	0	344
5.373	14.136	32768	32767	0	344
7.825	14.497	32768	32767	0	344
10.061	14.713	32768	32767	0	344
6.455	14.497	32768	32767	0	344
5.842	10.314	32768	32767	0	344
4.255	10.458	32768	32767	0	344
3.678	10.422	32768	32767	0	344
3.931	9.340	32768	32767	0	344
3.390	8.439	32768	32767	0	344
3.101	7.285	32768	32767	0	344
4.400	6.888	32768	32767	0	344
7.537	7.537	32768	32767	0	344
14.425	9.773	32768	32767	0	344
18.031	13.307	32768	32767	0	344
23.152	14.677	32560	32767	0	344
21.818	14.245	31678	32767	0	344
20.303	16.264	31678	32767	0	344
19.113	16.444	29619	32767	1	316
17.057	17.887	26678	32767	0	316
18.969	16.012	22854	32767	0	316
17.562	15.146	18442	25290	0	316
20.123	12.441	14914	17165	0	316
19.942	11.828	11973	11541	0	316
22.106	13.704	9032	5759	0	316
20.483	14.281	5502	0	0	316
19.041	14.028	1679	0	0	316
13.271	13.595	1	0	0	316
14.136	10.746	1	0	0	316
13.163	13.054	1	0	0	316
18.392	13.992	1	0	0	316
17.202	12.333	1	0	0	316
14.785	9.989	1	0	0	316
6.022	3.462	1	0	0	316
-3.137	-2.849	1	0	0	316
-8.042	-4.436	1	0	0	316
-7.825	-2.164	1	0	0	316
-3.462	0.974	1	0	0	316
0.433	1.587	1	0	0	316
-0.397	-2.380	1	0	0	316
-6.852	-8.691	1	0	0	316
-16.985	-18.716	1	0	0	316
-25.352	-22.178	1	0	0	316
-28.345	-25.207	1	0	0	316
-27.624	-22.935	1	0	0	316
-25.424	-19.798	1	2009	0	316
-23.729	-21.168	1	916	0	316
-26.181	-23.188	1	0	0	316
-28.417	-27.191	1	0	0	316
-29.751	-28.958	1	0	0	316
-27.263	-28.201	1	0	0	316
-21.565	-23.008	1	0	0	316
-16.480	-20.591	1	0	0	316
-10.530	-16.336	1	0	0	316
-8.042	-15.002	1	0	0	316
-9.232	-13.091	1	0	0	316
-12.874	-14.966	1	0	0	316
-15.903	-17.202	1	0	0	316
-22.250	-22.647	1	0	0	316
-27.010	-25.099	1	0	0	316
-29.427	-27.371	1	0	0	316
-32.095	-28.633	1	0	0	316
-36.278	-29.787	1	0	0	316
-36.242	-32.708	1	0	0	316
-35.413	-35.016	1	0	0	316
-33.718	-34.115	1	0	0	316
-31.302	-32.564	1	0	0	316
-29.246	-32.997	1	0	0	316
-31.879	-35.846	1	0	0	316
-34.403	-40.426	1	8103	0	316
-36.531	-41.616	1	14509	0	316
-36.747	-41.543	1	21540	0	316
-35.305	-37.757	1	32009	0	316
-32.276	-32.744	1	32767	0	316
-27.443	-28.597	1	32767	0	316
-20.736	-23.368	1	32767	0	316
-17.202	-16.480	1	32767	0	316
-12.982	-14.172	1	32767	0	316
-14.353	-12.874	1	32767	0	316
-13.379	-11.540	1	32767	0	316
-14.497	-12.658	1	32767	0	316
-14.281	-9.737	1	32767	0	316
-11.468	-8.835	1	32767	0	316
-13.523	-10.710	1	32767	0	316
-16.372	-15.182	1	32767	0	316
-19.726	-17.887	1	32767	0	316
-22.791	-22.719	1	32767	0	316
-24.522	-23.765	1	32767	0	316
-24.306	-21.349	1	32767	0	316
-19.185	-19.798	1	32767	0	316
-19.401	-15.651	1	32767	0	316
-16.084	-14.605	1	32767	0	316
-16.733	-15.362	1	32767	0	316
-16.120	-20.014	1	32767	0	316
-17.743	-20.555	1	32767	0	316
-15.254	-21.421	1	32767	0	316
-15.074	-17.166	1	32767	0	316
-14.785	-15.507	1	32767	0	316
-13.920	-12.477	1	32767	0	316
-14.208	-13.631	1	32767	0	316
-10.963	-11.864	2561	32767	0	316
-6.888	-9.232	14326	32767	0	316
-4.219	-5.626	26678	32767	0	316
-2.056	-2.452	32768	32767	0	316
-0.902	-0.938	32768	32767	0	316
-2.488	-2.128	32768	32767	0	316
-6.203	-7.104	32768	32767	0	316
-9.809	-11.071	32768	32767	0	316
-14.100	-16.444	32768	32767	1	360
-16.697	-15.831	32768	32767	0	360
-12.874	-10.386	32768	32767	0	360
-9.160	-5.013	32768	32767	0	360
-5.770	-2.560	32768	32767	0	360
-6.203	-4.977	32768	32767	0	360
-8.511	-11.612	32768	32767	0	360
-13.235	-16.120	32768	32767	0	360
-15.579	-18.464	32768	32767	0	360
-13.343	-14.317	32768	32767	0	360
-12.802	-10.746	32768	32767	0	360
-9.412	-6.816	32768	32767	0	360
-5.734	-3.318	32768	32767	0	360
-2.308	-0.108	32768	32767	0	360
2.813	3.246	32768	19352	0	360
8.294	7.717	32768	0	0	360
13.631	11.323	32768	0	0	360
12.874	13.271	32768	0	0	360
12.189	11.828	32768	0	0	360
9.737	9.448	32768	0	0	360
8.114	9.376	32768	0	0	360
9.773	11.900	32768	0	0	360
13.812	15.795	32768	0	0	360
15.615	20.988	32768	0	0	360
19.762	23.260	32768	0	0	360
20.483	25.568	32768	0	0	360
23.404	26.866	32768	0	0	360
25.784	28.092	32768	0	0	360
25.748	29.246	32768	0	0	360
24.306	28.489	32768	0	0	360
23.332	26.722	32768	0	0	360
21.204	24.270	32768	0	0	360
22.755	24.450	32768	0	0	360
24.342	26.109	32768	0	0	360
26.289	29.787	32768	0	0	360
27.083	32.600	32768	0	0	360
30.545	35.052	32768	0	0	360
31.915	35.124	32768	0	0	360
33.538	32.420	32768	0	0	360
32.708	29.463	32768	0	0	360
30.581	26.470	32768	0	0	360
27.191	24.558	32768	0	0	360
25.712	24.558	32768	0	0	360
26.073	24.883	32768	0	0	360
27.984	28.886	32768	0	0	360
29.679	30.581	32768	0	0	360
30.472	31.699	32768	0	0	360
28.417	32.600	32768	0	0	360
25.893	28.958	32768	0	0	360
22.322	23.512	32768	0	0	360
18.211	20.123	32768	0	0	360
17.851	16.877	32768	0	0	360
13.776	17.202	32768	0	0	360
12.045	15.651	32768	12634	0	360
9.088	14.605	32768	26071	0	360
5.445	10.783	32768	32767	0	360
2.560	8.439	32768	32767	0	360
0.144	7.140	32768	32767	0	360
-1.767	6.816	32768	32767	0	360
-2.019	6.780	32768	32767	0	360
0.216	8.943	32768	32767	0	360
3.173	11.792	32768	32767	0	360
7.501	13.199	32768	32767	0	360
11.468	14.353	32768	32767	0	360
11.468	12.514	32768	32767	0	360
8.763	7.753	32768	32767	0	360
4.904	4.075	32768	32767	0	360
0.865	3.426	32768	32767	0	360
0.469	3.895	32768	31540	0	360
0.216	5.337	32768	23571	0	360
0.613	6.094	32768	21540	0	360
-0.974	5.229	32768	23884	0	360
-2.236	3.642	32768	27321	0	360
-4.291	4.147	32768	28571	0	360
-0.577	5.157	31089	26852	0	360
3.787	7.789	25795	18415	0	360
6.167	11.071	19325	3103	0	360
10.133	12.117	12855	0	0	360
9.448	11.864	6090	0	0	360
7.681	11.251	1090	0	1	316
4.291	7.501	1	0	0	316
2.596	5.914	1	0	0	316
1.839	5.481	1	0	0	316
3.895	6.527	1	1384	0	316
6.419	11.720	1	7791	0	316
8.114	13.920	1	15447	0	316
8.330	14.353	1	25290	0	316
7.104	14.966	1	32767	0	316
7.862	11.648	1	32767	0	316
9.665	12.045	1	32767	0	316
11.071	13.307	1	32767	0	316
12.838	16.012	1	32767	0	316
15.795	19.077	1	32767	0	316
14.497	19.185	1	32767	0	316
14.497	20.014	1	32767	0	316
13.559	17.093	1	32767	0	316
10.530	17.454	1090	32767	0	316
13.018	14.497	2561	32767	0	316
11.143	14.245	6090	32767	0	316
10.566	11.540	10502	32767	0	316
8.114	9.773	14326	32767	0	316
4.472	9.556	13443	32767	0	316
4.039	8.727	11973	32767	0	316
5.554	8.006	10502	32767	0	316
6.924	8.763	7561	32767	0	316
9.845	10.061	4032	32767	0	316
12.730	12.225	1	16228	0	316
11.612	12.477	1	0	0	316
10.855	13.271	1	0	0	316
5.878	7.176	1	0	0	316
-1.515	2.560	1	0	0	316
-4.075	0.865	1	0	0	316
-3.967	1.082	1	0	0	316
-2.272	1.262	1	0	0	316
-0.216	0.216	1	0	0	316
-1.226	0.252	1	0	0	316
-3.606	-5.914	1	0	0	316
-7.898	-8.907	1	0	0	316
-8.258	-10.494	1	0	0	316
-9.232	-8.619	1	0	0	316
-7.970	-7.573	1	0	0	316
-12.117	-8.655	1	0	0	316
-16.733	-13.018	1	0	0	316
-23.585	-21.060	1	0	0	316
-29.391	-28.994	1	0	0	316
-32.600	-30.400	1	0	0	316
-29.571	-26.974	1	0	0	316
-27.371	-21.204	1	0	0	316
-25.496	-18.500	1	0	0	316
-24.883	-20.267	1	0	0	316
-26.181	-23.008	1	0	0	316
-26.722	-26.037	1	0	0	316
-25.893	-26.325	1	0	0	316
-25.532	-23.116	1	0	0	316
-25.929	-22.719	1	0	0	316
-29.066	-22.972	1	0	0	316
-31.735	-24.306	1	0	0	316
-32.636	-26.145	1	0	0	316
-32.816	-27.047	1	0	0	316
-32.131	-26.758	1	0	0	316
-30.905	-26.289	1	0	0	316
-28.561	-23.585	1	0	0	316
-24.666	-18.969	1	0	0	316
-18.500	-16.913	1	6697	0	316
-19.041	-19.041	1	20602	0	316
-22.034	-23.224	1	28415	0	316
-29.427	-30.508	1	32634	0	316
-36.423	-36.603	1	32767	0	316
-37.360	-36.603	1	32767	0	316
-32.636	-32.528	1	32767	0	316
-26.109	-24.702	1	32767	0	316
-19.510	-16.697	1	32767	0	316
-15.110	-14.172	1	32767	0	316
-17.634	-15.579	1	32767	0	316
-21.565	-23.080	1	32767	0	316
-26.686	-28.092	1	32767	0	316
-30.977	-30.977	1	32767	0	316
-31.446	-27.696	1	32767	0	316
-27.515	-23.621	1	32767	0	316
-23.296	-17.923	1	32767	0	316
-20.123	-17.779	1	32767	0	316
-17.959	-15.867	1	32767	0	316
-19.149	-17.923	1	32767	0	316
-17.815	-16.336	1	32767	0	316
-16.192	-15.975	1679	32767	0	316
-9.340	-11.251	21384	32767	0	316
-7.465	-7.609	32768	32767	0	316
-2.236	-4.940	32768	32767	0	316
-0.649	-3.426	32768	32767	0	316
-0.505	-3.318	32768	32767	0	316
1.406	-2.560	32768	32767	0	316
1.370	-2.669	32768	32767	0	316
-1.875	-3.101	32768	32767	0	316
-7.645	-4.868	32768	32767	0	316
-13.127	-9.484	32768	32767	0	316
-17.093	-11.251	32768	32767	1	384
-20.339	-12.045	32768	32767	0	384
-18.536	-10.855	32768	32767	0	384
-17.166	-10.242	32768	32767	0	384
-18.392	-9.016	32768	32767	0	384
-18.320	-8.511	32768	32767	0	384
-22.358	-11.360	32768	32767	0	384
-25.316	-15.435	32768	32767	0	384
-29.354	-18.247	32768	32767	0	384
-29.354	-21.529	32768	13884	0	384
-28.669	-21.745	32768	0	0	384
-25.712	-17.418	32768	0	0	384
-22.142	-17.166	32768	0	0	384
-20.267	-15.218	32768	0	0	384
-16.913	-13.523	32768	0	0	384
-15.362	-12.081	32768	0	0	384
-11.756	-8.294	32768	0	0	384
-10.855	-4.364	32768	0	0	384
-8.475	-3.101	32768	0	0	384
-8.150	0.072	32768	0	0	384
-7.825	1.154	32768	0	0	384
-7.032	0.902	32768	0	0	384
-8.258	2.164	32768	0	0	384
-10.746	0.361	32768	0	0	384
-11.756	-1.442	32768	0	0	384
-14.028	-4.075	32768	0	0	384
-12.477	-2.885	32768	0	0	384
-6.094	-0.288	32768	0	0	384
-0.397	4.688	32768	0	0	384
3.173	5.085	32768	0	0	384
3.426	4.832	32768	0	0	384
-2.921	-2.308	32768	0	0	384
-9.052	-8.150	32768	0	0	384
-12.622	-11.107	32768	0	0	384
-11.468	-10.061	32768	0	0	384
-5.157	-5.229	32768	0	0	384
-0.072	-0.072	32768	0	0	384
3.570	3.570	32768	0	0	384
2.200	4.111	32768	0	0	384
-2.272	0.613	32768	0	0	384
-6.311	-2.777	32768	0	0	384
-9.232	-3.354	32768	0	0	384
-4.544	0.757	32768	0	0	384
2.236	8.871	32768	0	0	384
9.701	14.858	32768	0	0	384
16.012	21.277	32768	0	0	384
15.939	20.159	32768	0	0	384
11.612	15.687	32768	0	0	384
4.760	8.655	32768	0	0	384
-1.118	2.993	32768	0	0	384
-1.370	1.803	32768	0	0	384
4.436	6.419	32768	0	0	384
13.235	15.903	32768	0	0	384
21.168	21.781	25207	0	0	384
24.198	24.378	18442	0	0	384
21.781	19.437	13443	0	0	384
16.552	16.444	9032	0	0	384
15.146	13.776	6973	0	0	384
14.785	14.858	5502	8416	0	384
17.743	13.920	4032	24821	0	384
17.093	15.218	4032	32767	0	384
17.093	13.776	4620	32767	0	384
15.615	14.749	6973	32767	0	384
14.497	16.769	9914	32767	0	384
16.444	17.129	13443	32767	0	384
17.238	18.680	15796	32767	0	384
17.959	17.454	17854	32767	0	384
15.507	19.257	22266	32767	0	384
15.975	20.087	25207	32767	0	384
16.480	22.719	28148	32767	0	384
21.962	27.047	30207	32767	0	384
26.506	29.102	28736	32767	0	384
28.741	28.164	26678	32767	0	384
26.758	24.991	25795	32767	0	384
23.260	21.709	25207	32767	0	384
19.582	18.752	23736	32767	0	384
21.818	20.880	22266	32767	0	384
23.332	24.991	19913	32767	0	384
26.830	25.568	18442	32767	0	384
25.965	23.837	19325	32767	1	316
23.549	20.555	21384	32767	0	316
17.274	14.821	22266	32767	0	316
14.100	11.179	21384	32767	0	316
10.530	10.278	19325	32767	0	316
10.638	10.746	16972	32767	0	316
13.091	10.386	14914	25446	0	316
13.091	11.179	13443	18884	0	316
15.471	8.547	9914	10603	0	316
15.398	6.960	6090	0	0	316
16.516	6.708	2561	0	0	316
20.483	9.701	208	0	0	316
18.824	10.855	1	0	0	316
19.185	11.864	1	0	0	316
17.346	10.242	1	0	0	316
15.939	6.527	1	0	0	316
15.254	3.678	1	0	0	316
18.283	6.167	1	0	0	316
15.831	8.006	1	0	0	316
14.713	10.278	1	0	0	316
9.701	10.206	1	0	0	316
6.563	6.780	1	0	0	316
4.940	2.813	1	0	0	316
5.049	2.092	1	0	0	316
6.275	0.865	1	0	0	316
9.304	6.311	1	0	0	316
8.366	8.114	1	0	0	316
8.186	8.258	1	0	0	316
7.970	7.248	1	0	0	316
5.157	5.193	1	0	0	316
4.291	5.626	1	0	0	316
4.183	7.862	1	0	0	316
2.813	10.638	1	0	0	316
4.940	11.287	1	0	0	316
4.904	11.323	1	0	0	316
6.239	11.612	1	0	0	316
6.347	9.592	1	0	0	316
5.517	9.665	1	0	0	316
4.472	7.212	1	0	0	316
2.993	6.924	1	0	0	316
5.590	7.501	1	0	0	316
6.635	9.809	1	0	0	316
6.888	10.566	1	0	0	316
5.337	9.881	1	0	0	316
3.173	7.321	1	0	0	316
-0.757	4.940	1	0	0	316
-2.200	2.849	1	0	0	316
-3.354	0.505	1	0	0	316
-5.265	-0.108	1	0	0	316
-7.429	-0.361	1	0	0	316
-7.068	-1.839	1	0	0	316
-6.635	-2.596	1	0	0	316
-7.898	-4.580	1	0	0	316
-9.917	-7.970	1	0	0	316
-12.874	-13.271	1	0	0	316
-19.437	-18.680	1	0	0	316
-23.296	-25.893	1	0	0	316
-28.417	-30.040	1	4978	0	316
-33.538	-32.853	1	13259	0	316
-36.891	-34.872	1	19665	0	316
-39.344	-35.846	1	26227	0	316
-38.983	-36.387	1	32767	0	316
-38.226	-35.737	1	32767	0	316
-36.495	-36.351	1	32767	0	316
-35.088	-35.774	1	32767	0	316
-36.278	-37.252	1	32767	0	316
-39.993	-38.658	1	32767	0	316
-43.022	-38.658	1	32767	0	316
-45.546	-37.793	1	32767	0	316
-46.556	-36.783	1	32767	0	316
-46.628	-38.226	1	32767	0	316
-43.815	-38.839	1	32767	0	316
-44.861	-40.894	1	32767	0	316
-44.933	-40.606	1	32767	0	316
-43.094	-38.154	1	32767	0	316
-41.111	-36.387	1	32767	0	316
-39.632	-34.115	1	32767	0	316
-34.151	-31.482	1	32767	0	316
-33.141	-29.174	1	32767	0	316
-31.951	-27.083	1	32767	0	316
-32.600	-26.650	1	32767	0	316
-32.600	-26.073	1	32767	0	316
-31.230	-25.496	1	32767	0	316
-29.246	-24.053	1	32767	0	316
-26.253	-22.467	1	32767	0	316
-23.729	-18.500	1	32767	0	316
-22.899	-18.608	1	32767	0	316
-24.522	-21.349	11973	32767	0	316
-26.938	-22.106	26678	32767	0	316
-29.787	-28.092	32768	32767	0	316
-30.256	-31.554	32768	32767	0	316
-29.318	-35.197	32768	32767	0	316
-26.938	-31.879	32768	32767	0	316
-23.621	-28.597	32768	32767	0	316
-21.457	-23.080	32768	32767	0	316
-19.834	-21.168	32768	32767	0	316
-20.267	-19.906	32768	32767	1	384
-19.329	-21.421	32768	32767	0	384
-21.132	-20.591	32768	32767	0	384
-17.995	-16.552	32768	32767	0	384
-17.670	-14.100	32768	32767	0	384
-13.884	-12.910	32768	32767	0	384
-15.038	-11.684	32768	32767	0	384
-14.785	-11.612	32768	32767	0	384
-13.992	-11.468	32768	32767	0	384
-11.360	-8.547	32768	32767	0	384
-9.953	-9.665	32768	32767	0	384
-9.701	-11.612	32768	32767	0	384
-13.415	-12.658	32768	32767	0	384
-14.605	-17.274	32768	26696	0	384
-17.202	-18.608	32768	7478	0	384
-16.408	-17.382	32768	0	0	384
-15.398	-16.480	32768	0	0	384
-14.894	-15.326	32768	0	0	384
-14.749	-14.894	32768	0	0	384
-16.156	-12.802	32768	0	0	384
-13.199	-11.287	32768	0	0	384
-13.235	-9.809	32768	0	0	384
-12.405	-7.753	32768	0	0	384
-9.448	-11.612	32768	0	0	384
-8.979	-13.054	32768	0	0	384
-9.088	-12.514	32768	0	0	384
-6.419	-10.710	32768	0	0	384
-4.580	-7.104	32768	0	0	384
-3.498	-5.193	32768	0	0	384
-1.659	-5.698	32768	0	0	384
-5.229	-6.167	32768	0	0	384
-8.511	-9.737	32768	0	0	384
-12.946	-10.278	32768	0	0	384
-13.668	-11.720	32768	0	0	384
-15.507	-11.576	32768	0	0	384
-13.992	-10.566	32768	0	0	384
-14.641	-9.556	32768	0	0	384
-11.792	-8.222	32768	0	0	384
-8.547	-7.104	32768	0	0	384
-4.688	-5.193	32768	0	0	384
-1.911	-3.859	32768	0	0	384
-1.479	-6.022	32768	0	0	384
-4.400	-7.898	32768	0	0	384
-5.770	-9.520	32768	0	0	384
-6.744	-8.366	32768	0	0	384
-4.868	-6.203	32768	0	0	384
-4.183	-2.056	32768	0	0	384
-4.436	-0.613	32768	0	0	384
-7.717	-2.488	32768	0	0	384
-11.432	-6.203	32768	0	0	384
-10.314	-7.862	30207	0	0	384
-5.121	-6.599	25795	0	0	384
0.938	-2.741	22854	0	0	384
8.439	2.488	19913	4666	0	384
9.304	4.039	16384	14978	0	384
6.960	3.318	11973	20915	0	384
6.311	2.056	9032	27790	0	384
5.878	1.515	6973	32767	0	384
8.222	4.436	1679	32767	0	384
11.468	5.770	1	32767	0	384
11.864	7.609	1	32767	0	384
13.631	9.665	1	32767	0	384
14.281	13.271	1	32767	0	384
14.821	21.457	1	32767	0	384
19.329	27.587	1	32767	0	384
20.952	32.925	1	32767	0	384
22.791	31.987	1	32767	0	384
25.532	26.361	1	32767	0	384
27.119	23.801	1	32767	0	384
28.164	22.539	1	32767	0	384
27.227	25.316	1	32767	0	384
26.542	30.292	1	32767	0	384
26.037	33.213	1	32767	0	384
26.397	34.583	1	32767	0	384
26.866	32.744	1	32767	0	384
26.758	30.004	1	32767	0	384
24.450	25.279	1	32767	0	384
22.503	25.027	1	32767	0	384
24.053	30.112	1	32767	0	384
26.289	36.134	1	32767	1	316
30.076	41.543	1	32767	0	316
33.502	42.517	1	32767	0	316
33.934	38.839	1	32767	0	316
31.590	34.187	1	32767	0	316
30.328	29.751	1	32767	0	316
26.974	26.109	1	32767	0	316
21.998	25.352	1	32767	0	316
18.608	21.024	1	32767	0	316
15.146	18.608	1	32767	0	316
16.264	19.654	1	32767	0	316
14.677	17.274	1	32767	0	316
16.156	16.661	1	32767	0	316
12.550	13.595	1	32767	0	316
10.386	10.097	1	32767	0	316
9.737	8.150	1	32634	0	316
9.268	7.501	1	32767	0	316
9.953	7.032	1	32321	0	316
10.314	6.635	1	20915	0	316
8.691	4.039	1	4509	0	316
10.350	3.173	1	0	0	316
13.487	6.852	1	0	0	316
16.192	12.225	1	0	0	316
18.897	15.615	1	0	0	316
20.050	17.995	1	0	0	316
22.142	16.697	1	0	0	316
21.277	15.867	1	0	0	316
22.683	13.740	1	0	0	316
22.395	14.389	1	0	0	316
21.457	13.992	1	0	0	316
21.673	11.540	1	0	0	316
18.320	13.740	1	0	0	316
18.211	14.389	1	0	0	316
13.776	15.795	1	0	0	316
10.927	16.480	1	0	0	316
7.104	13.631	1	0	0	316
8.006	13.091	1	0	0	316
13.451	13.920	1	0	0	316
22.431	20.952	1	0	0	316
29.499	27.227	1	0	0	316
31.446	30.400	1	0	0	316
28.777	32.167	1	0	0	316
23.332	30.833	1	0	0	316
21.926	29.354	1	0	0	316
20.736	27.443	1	0	0	316
22.935	24.775	1	0	0	316
19.978	22.214	1	0	0	316
18.392	17.923	1	0	0	316
17.382	18.716	1	0	0	316
13.559	16.913	1	2947	0	316
6.708	13.559	1	12009	0	316
-2.164	6.094	1	18727	0	316
-11.251	-0.397	1	22790	0	316
-13.307	-4.183	1	24977	0	316
-7.248	-2.849	1	25915	0	316
1.046	3.570	1	25759	0	316
4.977	8.655	1	24196	0	316
2.560	10.314	1	20915	0	316
-6.960	4.075	1	19352	0	316
-17.202	-6.816	1	24821	0	316
-23.512	-13.343	1	32767	0	316
-23.368	-18.860	1	32767	0	316
-17.166	-12.586	1	32767	0	316
-7.573	-2.921	1	32767	0	316
-0.036	3.606	1	26852	0	316
0.505	3.173	1	21384	0	316
-9.304	-4.904	1	18102	0	316
-20.375	-16.480	1	14041	0	316
-29.607	-23.945	1	6697	0	316
-32.095	-26.902	1	603	0	316
-30.545	-26.542	1	0	0	316
-27.515	-24.270	1	2947	0	316
-27.515	-25.532	1	8572	0	316
-29.715	-26.181	1	14509	0	316
-29.787	-27.227	1	22321	0	316
-29.246	-28.705	1	32767	0	316
-32.131	-30.905	1	32767	0	316
-34.259	-34.728	1	32767	0	316
-37.180	-37.108	1	32767	0	316
-38.839	-37.468	1	32767	1	316
-35.016	-35.990	1	32767	0	316
-29.931	-32.780	1	32767	0	316
-25.604	-31.699	1	32767	0	316
-25.063	-29.895	1	32767	0	316
-27.010	-29.823	1	32767	0	316
-28.453	-30.184	1	32767	0	316
-27.299	-31.049	1	32767	0	316
-25.424	-34.583	1	32767	0	316
-26.037	-36.964	1	32767	0	316
-28.020	-36.711	1	32767	0	316
-30.617	-32.276	1	32767	0	316
-28.633	-23.621	1	32767	0	316
-20.267	-14.930	1	32767	0	316
-12.694	-8.186	1	32767	0	316
-11.215	-7.176	19913	32767	0	316
-14.208	-12.622	32768	32767	0	316
-21.313	-18.139	32768	32767	0	316
-22.503	-22.503	32768	32767	0	316
-21.637	-19.978	32768	32767	0	316
-17.706	-16.913	32768	32767	0	316
-15.218	-11.504	32768	32767	0	316
-13.091	-13.487	32768	32767	0	316
-14.930	-16.300	32768	32767	0	316
-14.317	-17.959	32768	32767	0	316
-15.939	-20.050	32768	32767	0	316
-14.533	-19.834	32768	32767	0	316
-17.418	-19.257	32768	32767	0	316
-15.290	-19.437	32768	32767	0	316
-17.129	-16.012	32768	32767	0	316
-16.769	-14.028	32768	32767	0	316
-15.579	-11.432	32768	32767	0	316
-13.848	-8.727	32768	32767	0	316
-10.674	-9.629	32768	32009	0	316
-8.006	-9.629	32768	6541	0	316
-9.268	-7.970	32768	0	0	316
-11.900	-9.953	32768	0	0	316
-16.733	-13.920	32768	0	0	316
-20.988	-14.425	32768	0	0	316
-19.834	-12.910	32768	0	0	316
-13.127	-8.943	32768	0	0	316
-6.022	-1.983	32768	0	0	316
-6.491	1.406	32768	0	0	316
-10.097	-3.282	32768	0	0	316
-16.661	-8.547	32768	0	0	316
-21.421	-12.261	32768	0	0	316
-20.014	-13.812	32768	0	0	316
-18.500	-12.189	32768	0	0	316
-15.326	-8.979	32768	0	0	316
-15.435	-8.078	32768	0	0	316
-12.946	-7.465	32768	0	0	316
-8.042	-4.255	32768	0	0	316
-5.770	-2.741	32768	0	0	316
-7.934	-3.895	32768	0	0	316
-13.235	-4.724	32768	0	0	316
-17.779	-8.907	32768	0	0	316
-21.241	-11.432	32768	0	0	316
-20.123	-9.520	32768	0	0	316
-14.641	-9.773	32768	0	0	316
-12.514	-7.068	32768	0	0	316
-9.448	-5.914	32768	0	0	316
-7.898	-4.904	32768	0	0	316
-9.016	-4.724	32768	0	0	316
-10.061	-4.364	32768	0	0	316
-10.314	-4.472	32768	0	0	316
-7.753	-5.770	32768	0	0	316
-4.760	-5.698	32768	0	0	316
-0.577	-4.796	32768	0	0	316
-1.515	-2.957	32768	0	0	316
-4.291	-2.633	32768	0	0	316
-8.547	-4.724	32768	0	0	316
-12.658	-6.780	28736	0	0	316
-11.720	-13.199	23736	0	0	316
-11.828	-16.805	19913	0	0	316
-11.396	-17.238	16972	2009	0	316
-8.366	-13.884	15796	16384	0	316
-8.763	-8.799	14326	31540	0	316
-7.970	-7.068	12855	32767	0	316
-9.448	-8.330	10502	32767	0	316
-9.016	-11.396	9032	32767	1	316
-9.160	-12.838	9914	32767	0	316
-7.609	-10.999	9914	32767	0	316
-5.409	-6.924	9032	32767	0	316
-2.452	-3.029	9032	32767	0	316
-3.137	-2.921	9032	32767	0	316
-4.219	-3.787	9032	32767	0	316
-4.544	-4.796	11384	32767	0	316
-7.717	-7.032	11384	32767	0	316
-9.556	-8.330	11973	32767	0	316
-8.366	-6.924	11973	32767	0	316
-6.167	-4.219	11384	32767	0	316
-3.101	-2.128	10502	32767	0	316
-2.560	-1.839	11384	32767	0	316
-1.659	-4.183	11384	32767	0	316
-5.950	-8.439	10502	32767	0	316
-7.573	-9.809	6973	32767	0	316
-4.724	-6.960	3149	32767	0	316
0.072	-2.236	1	32767	0	316
7.898	2.669	1	31696	0	316
11.648	6.455	1	26540	0	316
11.360	5.157	1	23727	0	316
9.701	3.462	1	20290	0	316
5.770	2.272	1	15916	0	316
5.878	2.416	1	12791	0	316
8.655	5.193	1	12478	0	316
15.326	8.042	1	13103	0	316
22.034	16.769	1	11853	0	316
31.194	23.476	1	11384	0	316
36.495	31.158	1	13572	0	316
38.082	36.567	1	16696	0	316
38.298	37.144	1	18884	0	316
37.108	35.305	1	19352	0	316
34.980	32.925	1	18727	0	316
35.846	32.203	1	19352	0	316
35.341	30.869	1	22009	0	316
36.603	33.321	1	24352	0	316
38.947	36.170	1	22946	0	316
41.039	39.308	1	18415	0	316
40.426	40.353	1	13728	0	316
38.118	37.396	1	10291	0	316
36.603	33.790	1	7009	0	316
35.088	30.797	1	2009	0	316
35.052	30.112	1	0	0	316
37.180	31.266	1	0	0	316
38.262	33.898	1	0	0	316
38.695	35.990	1	0	0	316
40.822	38.911	1	0	0	316
43.419	42.337	1	0	0	316
46.845	46.304	1	0	0	316
49.946	45.943	1	0	0	316
50.559	46.123	1	0	0	316
47.566	44.392	1	0	0	316
43.347	39.416	1	0	0	316
38.478	33.898	1	0	0	316
34.403	28.561	1	0	0	316
35.774	28.237	1	0	0	316
36.639	29.715	1	0	0	316
35.774	32.997	1	0	0	316
31.410	34.259	1	0	0	316
26.289	29.174	1	0	0	316
22.250	25.243	1	0	0	316
22.611	23.693	1	0	0	316
27.263	26.217	1	0	0	316
30.184	29.318	1	0	0	316
30.112	30.725	1	0	0	316
25.243	28.705	1	0	0	316
18.356	25.712	1	0	0	316
13.848	23.044	1	3572	0	316
9.737	19.293	1	11541	0	316
7.970	18.320	1	17946	0	316
8.871	14.064	1	22634	0	316
10.025	12.694	1	25446	0	316
10.386	10.710	1	28415	0	316
8.763	9.773	1	32767	0	316
7.609	11.143	1	32767	0	316
10.494	12.658	1	32767	0	316
11.035	12.658	1	32767	0	316
11.179	12.802	1	32767	0	316
10.314	10.927	1	32767	1	316
7.140	10.638	1	32767	0	316
4.400	12.730	1	31384	0	316
6.563	14.966	1	29509	0	316
8.691	16.661	1	30134	0	316
8.258	17.129	1	30290	0	316
6.744	13.848	1	29352	0	316
5.013	14.497	1	26540	0	316
4.147	11.900	1	22165	0	316
3.390	10.530	1	17009	0	316
2.019	10.350	1	11697	0	316
-0.361	9.268	1	7166	0	316
-0.361	7.465	1	8416	0	316
-2.705	3.498	1	16696	0	316
-4.688	0.902	1	23884	0	316
-3.931	-1.479	1	23727	0	316
-4.580	-1.803	1	20134	0	316
-7.140	-0.974	1	19196	0	316
-7.501	-4.436	1	23727	0	316
-14.425	-8.835	1	32477	0	316
-18.067	-14.389	1	32767	0	316
-23.188	-14.497	1	32767	0	316
-22.791	-16.552	1	32767	0	316
-25.063	-18.211	1	32767	0	316
-28.994	-23.404	1	32767	0	316
-30.220	-30.148	1	32767	0	316
-31.771	-33.646	1	32767	0	316
-28.273	-31.085	1	32767	0	316
-23.080	-26.758	1	32767	0	316
-20.375	-22.503	1	32767	0	316
-22.899	-22.358	1	32767	0	316
-27.768	-26.181	1	32767	0	316
-29.968	-30.256	1	32767	0	316
-27.768	-28.814	1	32767	0	316
-21.565	-23.332	1	32767	0	316
-17.166	-16.480	1	32767	0	316
-15.182	-16.012	1	32767	0	316
-19.978	-19.401	1	32767	0	316
-23.512	-27.660	1	32767	0	316
-25.424	-33.466	4620	32767	0	316
-26.866	-38.586	19913	32767	0	316
-33.934	-44.068	32768	32767	0	316
-43.383	-50.090	32768	32767	0	316
-51.461	-52.398	32768	32767	0	316
-46.520	-49.621	32768	32767	0	316
-36.387	-38.406	32768	32767	0	316
-18.969	-25.460	32768	32767	0	316
-10.819	-19.365	32768	32767	0	316
-9.953	-16.336	32768	32767	0	316
-13.740	-19.582	32768	32767	0	316
-18.464	-23.765	32768	32767	0	316
-17.923	-21.673	32768	32767	0	316
-15.651	-18.897	32768	32767	0	316
-12.117	-11.576	32768	32767	0	316
-11.612	-8.439	32768	32767	0	316
-11.973	-9.376	32768	32767	0	316
-11.360	-11.468	32768	13884	0	316
-12.333	-13.956	32768	0	0	316
-11.756	-15.651	32768	0	0	316
-8.979	-12.874	32768	0	0	316
-11.323	-16.408	32768	0	0	316
-16.156	-19.185	32768	0	0	316
-18.356	-25.568	32768	0	0	316
-21.962	-28.705	32768	0	0	316
-23.549	-28.309	32768	0	0	316
-21.962	-26.181	32768	0	0	316
-19.834	-24.378	32768	0	0	316
-18.031	-20.880	32768	0	0	316
-18.536	-19.257	32768	0	0	316
-18.644	-19.834	32768	0	0	316
-19.293	-16.877	32768	0	0	316
-16.480	-14.569	32768	0	0	316
-11.323	-11.937	32768	0	0	316
-6.347	-6.671	32768	0	0	316
-3.787	-5.409	32768	0	0	316
-6.131	-5.986	32768	0	0	316
-7.068	-8.799	32768	0	0	316
-8.583	-9.556	32768	0	0	316
-5.013	-6.780	32768	0	0	316
-0.974	-3.354	32768	0	1	316
1.479	2.669	32768	0	0	316
1.695	2.344	32768	0	0	316
-0.865	2.164	32768	0	0	316
-3.967	-1.479	32768	0	0	316
-4.291	-2.452	32768	0	0	316
0.577	-2.957	32768	0	0	316
7.573	2.524	32768	0	0	316
15.074	5.806	32768	0	0	316
15.362	11.828	32768	0	0	316
12.297	11.648	32768	0	0	316
6.203	9.556	23736	0	0	316
4.147	9.665	14914	0	0	316
8.114	11.792	4620	0	0	316
15.362	15.398	1	0	0	316
20.664	22.034	1	0	0	316
24.666	23.657	1	0	0	316
25.820	26.794	1	0	0	316
30.617	32.239	1	0	0	316
37.468	38.731	1	0	0	316
45.041	43.996	1	0	0	316
47.349	43.743	1	0	0	316
45.258	39.163	1	0	0	316
36.819	32.312	1	10291	0	316
29.391	27.587	1	30602	0	316
25.279	24.486	1	32767	0	316
25.352	24.811	1	32767	0	316
29.138	27.840	1	32767	0	316
32.167	30.472	1	32767	0	316
32.636	33.429	1	32767	0	316
30.581	30.797	1	32767	0	316
23.440	23.981	1	32767	0	316
17.093	16.048	1	32767	0	316
13.199	9.809	1	32767	0	316
11.468	10.206	1	32767	0	316
14.064	16.336	1	32767	0	316
14.461	20.050	1	32767	0	316
10.999	22.034	1	32767	0	316
8.799	17.706	1	32767	0	316
6.960	13.235	1	32767	0	316
9.196	12.045	1	32767	0	316
14.533	14.028	1	32767	0	316
19.041	19.870	1	32767	0	316
19.257	22.539	1	32767	0	316
21.024	22.431	1	32767	0	316
23.729	24.522	1	32767	0	316
25.352	25.388	1	32767	0	316
28.453	26.794	1	32767	0	316
28.453	25.460	1	32767	0	316
25.352	23.693	1	32767	0	316
20.483	17.670	1	32767	0	316
20.591	18.644	1	32767	0	316
19.834	19.762	1	32767	0	316
21.709	23.116	1	32767	0	316
23.440	23.512	1	32767	0	316
19.293	20.303	1	32767	0	316
15.218	17.021	1	32767	0	316
10.169	13.271	1	32767	0	316
7.032	13.523	1	32767	0	316
8.475	13.199	1	29352	0	316
9.665	13.091	1	23727	0	316
8.763	12.441	1	19509	0	316
6.203	9.556	1	16228	0	316
3.895	8.979	1	10603	0	316
0.505	9.917	1	1853	0	316
-1.839	10.314	1	0	0	316
-1.226	9.773	1	0	0	316
-0.613	9.592	1	0	0	316
1.659	9.845	1	0	0	316
7.068	10.746	1	0	0	316
10.530	12.622	1	0	0	316
8.943	13.127	1	0	0	316
4.688	10.927	1	0	0	316
-2.092	6.599	1	0	0	316
-7.140	4.219	1	0	0	316
-9.340	3.210	1	0	0	316
-7.862	1.875	1	0	0	316
-5.373	2.633	1	0	0	316
-1.479	4.580	1	0	0	316
3.642	6.852	1	0	1	316
6.816	9.376	1	0	0	316
9.160	10.891	1	0	0	316
6.167	7.357	1	0	0	316
1.731	-0.433	1	0	0	316
-5.085	-4.904	1	0	0	316
-9.016	-8.583	1	0	0	316
-9.268	-5.626	1	0	0	316
-5.626	-2.019	1	0	0	316
-4.436	0.974	1	0	0	316
-2.885	-0.433	1	0	0	316
-7.465	-6.347	1	0	0	316
-14.389	-13.163	1	0	0	316
-19.113	-18.897	1	0	0	316
-23.296	-23.188	1	0	0	316
-23.981	-24.125	1	0	0	316
-22.935	-21.096	1	0	0	316
-24.378	-21.457	1	0	0	316
-27.010	-19.582	1	0	0	316
-29.859	-21.168	1	0	0	316
-32.023	-22.503	1	0	0	316
-32.167	-23.404	1	0	0	316
-28.741	-24.522	1	0	0	316
-27.624	-26.758	1	0	0	316
-26.866	-28.777	1	0	0	316
-30.508	-33.141	1	0	0	316
-31.122	-34.800	1	8572	0	316
-33.646	-34.764	1	27165	0	316
-34.187	-34.583	1	32767	0	316
-32.312	-33.538	1	32767	0	316
-29.102	-31.699	1	32767	0	316
-26.650	-28.633	1	32767	0	316
-23.873	-27.984	1	32767	0	316
-22.395	-26.001	1	32767	0	316
-25.352	-24.450	1	32767	0	316
-26.470	-23.116	1	32767	0	316
-25.496	-19.401	1	32767	0	316
-22.827	-15.326	1	32767	0	316
-22.467	-15.795	1	32767	0	316
-19.257	-17.526	1	32767	0	316
-19.546	-20.195	1	32767	0	316
-16.048	-19.185	1	32767	0	316
-13.018	-15.543	1	32767	0	316
-7.537	-10.314	1	32767	0	316
-3.678	-5.842	1	32767	0	316
-3.570	-5.445	1	32767	0	316
-5.157	-8.547	1	32767	0	316
-8.114	-11.720	1	32767	0	316
-10.025	-13.559	1	32767	0	316
-12.045	-15.435	1	32767	0	316
-12.658	-16.048	1	32767	0	316
-14.028	-14.641	1	32767	0	316
-18.464	-17.166	1	32767	0	316
-21.457	-17.202	1	32767	0	316
-22.431	-16.444	1679	32767	0	316
-20.447	-13.559	15796	32767	0	316
-18.788	-14.100	30207	32767	0	316
-16.084	-13.956	32768	32767	0	316
-15.254	-14.461	32768	32767	0	316
-12.369	-15.795	32768	32767	0	316
-11.071	-11.648	32768	32767	0	316
-9.989	-8.763	32768	32767	0	316
-7.825	-6.563	32768	32767	0	316
-7.717	-5.517	32768	32767	0	316
-7.393	-8.114	32768	32767	0	316
-7.321	-9.845	32768	32767	0	316
-8.402	-11.900	32768	32767	0	316
-8.547	-11.684	32768	32767	0	316
-12.838	-11.396	32768	32767	0	316
-13.559	-11.540	32768	32767	0	316
-12.477	-10.602	32768	32767	0	316
-11.251	-9.520	32768	32767	0	316
-7.248	-8.402	32768	21227	0	316
-3.967	-7.248	32768	3572	0	316
-6.491	-6.816	32768	0	0	316
-12.622	-7.501	32768	0	0	316
-18.788	-11.864	32768	0	0	316
-19.654	-10.458	32768	0	0	316
-18.500	-9.484	32768	0	0	316
-12.946	-7.501	32768	0	1	316
-9.665	-8.042	32768	0	0	316
-8.547	-10.242	32768	0	0	316
-9.809	-11.864	32768	0	0	316
-12.586	-16.408	32768	0	0	316
-12.694	-15.254	32768	0	0	316
-10.891	-13.091	32768	0	0	316
-10.855	-12.946	32768	0	0	316
-8.078	-10.494	32768	0	0	316
-5.121	-8.583	32768	0	0	316
-3.282	-7.429	32768	0	0	316
-2.416	-6.816	32768	0	0	316
-1.515	-7.501	32768	0	0	316
-2.092	-6.924	32768	0	0	316
-0.938	-5.626	32768	0	0	316
-0.685	-3.210	32768	0	0	316
4.508	-0.072	32768	0	0	316
7.321	1.334	32768	0	0	316
7.573	0.144	32768	0	0	316
6.708	-1.839	32768	0	0	316
4.688	-3.029	31089	0	0	316
3.210	-3.606	22266	0	0	316
3.462	-1.875	14914	0	0	316
9.340	1.406	5502	0	0	316
15.038	5.085	1	0	0	316
17.887	8.727	1	0	0	316
19.978	12.117	1	0	0	316
17.093	12.514	1	0	0	316
14.533	11.215	1	0	0	316
10.638	10.025	1	0	0	316
12.369	10.819	1	0	0	316
14.966	11.432	1	0	0	316
18.572	18.716	1	0	0	316
23.765	24.198	1	2166	0	316
28.164	30.869	1	20134	0	316
30.364	34.006	1	32767	0	316
33.177	35.341	1	32767	0	316
35.593	34.223	1	32767	0	316
36.603	31.266	1	32767	0	316
36.891	29.066	1	32767	0	316
34.295	25.279	1	32767	0	316
31.230	21.024	1	32767	0	316
27.155	19.726	1	32767	0	316
25.243	17.598	1	32767	0	316
25.063	21.349	1	32767	0	316
26.397	23.873	1	32767	0	316
28.525	26.217	1	32767	0	316
30.545	26.506	1	32767	0	316
28.092	23.909	1	32767	0	316
24.919	18.860	1	32767	0	316
18.897	15.831	1	32767	0	316
15.038	13.307	1	32767	0	316
12.189	15.254	1	32767	0	316
15.795	19.906	1	32767	0	316
17.851	24.486	1	32767	0	316
22.214	26.253	1	32767	0	316
21.818	26.145	1	32767	0	316
23.729	24.883	1	32767	0	316
21.060	21.926	1	32767	0	316
20.700	21.818	1	32767	0	316
21.529	22.899	1	32767	0	316
20.772	22.935	1	32767	0	316
22.214	23.188	1	32767	0	316
19.870	23.260	1	32767	0	316
17.923	22.070	1	32767	0	316
14.641	22.935	1	32767	0	316
13.956	18.897	1	32767	0	316
10.314	17.454	1	32767	0	316
11.864	12.514	1	32767	0	316
11.432	11.323	1	32767	0	316
10.278	10.710	1	32767	0	316
12.622	12.550	1	32767	0	316
13.379	14.100	1	32767	0	316
11.756	10.927	1	32767	0	316
13.271	6.960	1	28884	0	316
13.379	6.203	1	17477	0	316
11.251	4.832	1	7791	0	316
9.376	3.390	1	0	0	316
5.121	3.642	1	0	0	316
1.442	3.678	1	0	1	316
3.137	4.183	1	0	0	316
7.501	7.970	1	0	0	316
11.323	12.658	1	0	0	316
12.550	12.153	1	0	0	316
9.989	8.979	1	0	0	316
6.022	4.436	1	0	0	316
5.698	1.623	1	0	0	316
6.455	2.669	1	0	0	316
9.665	5.554	1	0	0	316
10.169	8.835	1	0	0	316
8.979	10.891	1	0	0	316
6.780	10.566	1	0	0	316
3.606	10.061	1	0	0	316
1.154	9.268	1	0	0	316
1.370	9.665	1	0	0	316
2.092	10.169	1	0	0	316
4.832	10.819	1	0	0	316
7.285	11.468	1	0	0	316
7.393	13.018	1	0	0	316
8.727	12.586	1	0	0	316
8.583	12.441	1	0	0	316
7.537	12.802	1	0	0	316
8.727	11.900	1	0	0	316
10.458	11.648	1	0	0	316
10.494	14.208	1	0	0	316
10.278	14.281	1	0	0	316
10.422	15.543	1	0	0	316
8.619	12.730	1	0	0	316
7.393	8.943	1	0	0	316
9.556	9.773	1	0	0	316
12.333	12.081	1	0	0	316
13.812	13.523	1	0	0	316
11.071	15.218	1	0	0	316
9.196	11.432	1	0	0	316
5.085	6.131	1	0	0	316
0.397	2.777	1	7791	0	316
-0.577	2.560	1	17009	0	316
-0.216	1.010	1	30759	0	316
0.288	0.216	1	32767	0	316
0.036	-2.560	1	32767	0	316
-0.072	-4.940	1	32767	0	316
-0.829	-6.022	1	32767	0	316
-0.974	-4.508	1	32767	0	316
0.397	-1.839	1	32767	0	316
2.596	0.144	1	32767	0	316
1.803	0.397	1	32767	0	316
-1.659	-3.859	1	32767	0	316
-7.970	-10.855	1	32767	0	316
-12.405	-16.661	1	32767	0	316
-14.966	-22.719	1	32767	0	316
-13.054	-21.781	1	32767	0	316
-8.439	-14.821	1	32767	0	316
-3.787	-10.602	1	32767	0	316
-4.796	-6.311	1	32767	0	316
-10.746	-11.828	1	32767	0	316
-17.851	-19.690	1	32767	0	316
-25.712	-27.804	1	32767	0	316
-29.715	-30.436	1	32767	0	316
-31.049	-29.787	1	32767	0	316
-33.105	-28.777	1	32767	0	316
-35.088	-30.977	1	32767	0	316
-36.603	-35.521	12855	32767	0	316
-38.226	-38.983	29619	32767	0	316
-38.154	-40.966	32768	32767	0	316
-37.973	-39.524	32768	32767	0	316
-37.072	-39.019	32768	32767	0	316
-36.242	-37.000	32768	32767	0	316
-32.997	-36.459	32768	32767	0	316
-33.538	-35.990	32768	32767	0	316
-31.807	-35.269	32768	32767	0	316
-33.321	-35.557	32768	32767	0	316
-36.531	-36.098	32768	32767	0	316
-38.370	-36.964	32768	32767	0	316
-37.180	-35.557	32768	32767	0	316
-35.124	-33.033	32768	32767	0	316
-30.112	-27.299	32768	32767	0	316
-22.611	-24.198	32768	32767	0	316
-21.168	-19.185	32768	6697	0	316
-22.322	-21.168	32768	0	1	316
-22.250	-22.683	32768	0	0	316
-25.532	-24.378	32768	0	0	316
-25.712	-22.503	32768	0	0	316
-22.395	-16.516	32768	0	0	316
-21.277	-13.884	32768	0	0	316
-19.654	-11.900	32768	0	0	316
-20.339	-14.569	32768	0	0	316
-22.431	-18.969	32768	0	0	316
-23.909	-20.231	32768	0	0	316
-25.496	-19.257	32768	0	0	316
-26.433	-17.346	32768	0	0	316
-22.395	-15.939	32768	0	0	316
-18.933	-12.369	32768	0	0	316
-14.930	-12.514	32768	0	0	316
-16.120	-12.009	32768	0	0	316
-19.582	-18.464	32768	0	0	316
-28.597	-21.637	32768	0	0	316
-35.197	-28.201	32768	0	0	316
-35.954	-28.201	32768	0	0	316
-32.492	-23.585	32768	0	0	316
-25.135	-19.618	32768	0	0	316
-15.759	-13.018	32768	0	0	316
-10.999	-10.891	32768	0	0	316
-10.458	-11.432	32768	0	0	316
-13.595	-15.651	32768	0	0	316
-18.969	-20.195	32768	0	0	316
-19.942	-22.431	32768	0	0	316
-20.267	-20.411	24325	0	0	316
-17.562	-17.815	14914	0	0	316
-15.218	-15.110	6973	0	0	316
-17.093	-17.779	1	0	0	316
-18.680	-18.716	1	0	0	316
-21.277	-21.854	1	0	0	316
-19.329	-19.365	1	0	0	316
-17.706	-15.254	1	0	0	316
-12.189	-9.232	1	0	0	316
-6.311	-5.157	1	0	0	316
-4.291	-2.344	1	0	0	316
-4.364	-4.111	1	0	0	316
-5.662	-8.042	1	0	0	316
-8.583	-10.710	1	0	0	316
-8.799	-11.071	1	0	0	316
-8.835	-10.314	1	3416	0	316
-6.635	-8.042	1	16228	0	316
-7.501	-6.455	1	25290	0	316
-8.006	-6.094	1	32767	0	316
-7.501	-7.285	1	32767	0	316
-8.222	-7.465	1	32767	0	316
-7.501	-9.520	1	32767	0	316
-6.924	-10.386	1	32767	0	316
-8.475	-12.946	1	32767	0	316
-10.855	-14.281	1	32767	0	316
-10.674	-11.504	1	32767	0	316
-10.097	-10.746	1	32767	0	316
-9.376	-6.816	1	32767	0	316
-8.691	-4.255	1	32767	0	316
-10.891	-5.914	1	32767	0	316
-12.369	-7.645	1	32767	0	316
-13.054	-9.556	1	32767	0	316
-9.268	-8.475	1	32767	0	316
-1.875	-6.203	1	32767	0	316
2.416	-3.931	1	32767	0	316
4.291	-3.462	1	32767	0	316
1.442	-4.003	1	32767	0	316
-3.714	-7.321	1	32767	0	316
-7.717	-9.845	1	32767	0	316
-8.258	-7.609	1	32767	0	316
-2.705	-4.111	1	32767	0	316
2.560	2.056	1	32767	0	316
8.655	6.708	1	32767	0	316
10.999	8.475	1	32767	0	316
9.701	5.265	1	32767	0	316
7.140	2.993	1	26384	0	316
2.164	2.164	1	12947	0	316
4.832	3.678	1	1384	0	316
8.979	7.176	1	0	0	316
15.831	14.930	1	0	0	316
24.017	19.293	1	0	0	316
28.237	25.676	1	0	1	316
30.256	28.669	1	0	0	316
32.131	30.112	1	0	0	316
31.771	29.968	1	0	0	316
30.581	30.869	1	0	0	316
31.807	31.951	1	0	0	316
30.436	31.338	1	0	0	316
32.528	29.715	1	0	0	316
33.646	30.184	1	0	0	316
34.187	29.138	1	0	0	316
33.321	28.777	1	0	0	316
31.987	27.768	1	0	0	316
29.751	26.145	1	0	0	316
29.679	24.702	1	0	0	316
28.128	24.702	1	0	0	316
29.174	26.758	1	0	0	316
30.328	28.814	1	0	0	316
32.564	31.266	1	0	0	316
35.521	32.672	1	0	0	316
37.865	33.033	1	0	0	316
36.026	30.292	1	0	0	316
31.699	27.119	1	0	0	316
27.010	25.893	1	0	0	316
25.784	26.902	1	0	0	316
26.902	27.840	1	0	0	316
28.958	30.292	1	1228	0	316
30.364	30.581	1	3416	0	316
27.912	30.689	1	5291	0	316
25.820	28.597	1	6541	0	316
22.683	26.794	1	4041	0	316
18.392	23.332	1	0	0	316
16.661	19.510	1	0	0	316
13.595	18.897	1	0	0	316
11.792	15.831	1	0	0	316
13.127	13.415	1	0	0	316
11.396	10.638	1	0	0	316
8.475	7.285	1	0	0	316
7.789	6.275	1	0	0	316
5.878	3.823	1	0	0	316
5.301	5.445	1	0	0	316
7.573	7.970	1	0	0	316
9.917	10.638	1	0	0	316
17.093	15.939	1	2791	0	316
22.214	20.014	1	13259	0	316
27.119	21.132	1	21071	0	316
30.617	22.214	1	32767	0	316
30.184	23.549	1	32767	0	316
24.775	20.808	1	32767	0	316
22.250	19.870	1	32767	0	316
19.077	15.939	1	32767	0	316
17.706	16.552	1	32767	0	316
19.834	14.317	1	32767	0	316
20.916	16.769	1	32767	0	316
19.546	16.444	1	32767	0	316
15.939	16.769	1	32767	0	316
10.025	13.127	1	32767	0	316
4.652	8.042	1	32767	0	316
0.938	6.635	1	32767	0	316
-0.325	6.058	1	32767	0	316
0.216	6.888	1	32767	0	316
2.092	8.475	1	32767	0	316
3.750	9.052	8443	32767	0	316
2.524	7.825	21384	32767	0	316
4.291	5.373	32768	32767	0	316
3.101	4.364	32768	32767	0	316
0.938	0.361	32768	32767	0	316
-2.921	-3.859	32768	32767	0	316
-5.337	-6.094	32768	32767	0	316
-5.914	-2.344	32768	32767	0	316
-0.541	3.931	32768	32767	0	316
5.806	10.206	32768	32767	0	316
11.107	14.894	32768	32767	0	316
10.746	14.605	32768	32767	0	316
5.193	7.429	32768	32767	0	316
-2.344	-1.082	32768	32767	0	316
-11.215	-8.799	32768	32767	0	316
-13.018	-11.973	32768	32767	0	316
-13.956	-10.783	32768	32767	0	316
-9.737	-5.626	32768	12166	0	316
-5.013	-1.334	32768	0	1	316
-4.940	-0.865	32768	0	0	316
-7.176	-3.823	32768	0	0	316
-13.956	-9.989	32768	0	0	316
-19.221	-14.785	32768	0	0	316
-24.486	-19.365	32768	0	0	316
-24.919	-20.123	32768	0	0	316
-25.135	-21.818	32768	0	0	316
-27.587	-25.027	32768	0	0	316
-30.220	-27.624	32768	0	0	316
-33.538	-31.446	32768	0	0	316
-31.987	-33.754	32768	0	0	316
-27.804	-32.023	32768	0	0	316
-22.899	-30.328	32768	0	0	316
-20.736	-28.669	32768	0	0	316
-19.149	-26.902	32768	0	0	316
-20.808	-26.037	32768	0	0	316
-20.952	-27.191	32768	0	0	316
-21.709	-27.804	32768	0	0	316
-23.512	-28.056	32768	0	0	316
-22.034	-21.926	32768	0	0	316
-20.988	-17.923	32768	0	0	316
-18.103	-13.235	32768	0	0	316
-16.697	-13.740	32768	0	0	316
-18.536	-15.975	32768	0	0	316
-19.582	-20.700	32768	0	0	316
-22.358	-21.241	32768	0	0	316
-22.647	-22.827	32768	0	0	316
-26.397	-23.296	32768	0	0	316
-30.040	-25.099	32560	0	0	316
-33.357	-24.919	27266	0	0	316
-33.033	-22.791	21384	0	0	316
-27.912	-18.067	14326	0	0	316
-20.303	-13.595	6973	0	0	316
-13.992	-10.963	1090	0	0	316
-10.314	-8.114	1	0	0	316
-8.763	-9.016	1	0	0	316
-12.297	-10.927	1	0	0	316
-16.264	-11.251	1	0	0	316
-18.680	-11.973	1	0	0	316
-21.962	-14.749	1	0	0	316
-23.296	-15.038	1	0	0	316
-21.890	-16.985	1	0	0	316
-20.988	-15.038	1	3572	0	316
-19.077	-12.874	1	16852	0	316
-15.831	-8.258	1	32767	0	316
-12.261	-4.688	1	32767	0	316
-12.477	-4.977	1	32767	0	316
-13.848	-5.517	1	32767	0	316
-17.562	-6.275	1	32767	0	316
-14.858	-4.003	1	32767	0	316
-10.638	-1.659	1	32767	0	316
-5.626	-0.288	1	32767	0	316
-6.131	-2.596	1	32767	0	316
-12.189	-10.206	1	32767	0	316
-18.933	-16.516	1	32767	0	316
-23.945	-21.349	1	32767	0	316
-22.322	-19.077	1	32767	0	316
-16.697	-16.625	1	32767	0	316
-14.858	-12.189	1	32767	0	316
-11.900	-12.838	1	32767	0	316
-11.179	-12.009	1	32767	0	316
-12.225	-12.550	1	32767	0	316
-11.756	-12.225	1	32767	0	316
-13.992	-10.855	1	32767	0	316
-15.290	-12.009	1	32767	0	316
-17.562	-15.795	1	32767	0	316
-20.591	-16.913	1	32767	0	316
-19.113	-17.454	1	32767	0	316
-18.103	-13.956	1	32767	0	316
-14.245	-10.494	1	32767	0	316
-11.864	-7.825	1	32767	0	316
-9.629	-8.222	1	32767	0	316
-7.429	-8.258	1	32767	0	316
-7.104	-10.963	1	32767	0	316
-6.527	-9.845	1	24821	0	316
-6.671	-8.979	1	15134	0	316
-6.203	-7.970	1	3103	0	316
-6.239	-6.563	1	0	0	316
-6.455	-6.094	1	0	1	316
-7.248	-7.068	1	0	0	316
-10.061	-7.501	1	0	0	316
-12.586	-8.835	1	0	0	316
-15.507	-13.271	1	0	0	316
-17.562	-18.969	1	0	0	316
-20.411	-24.811	1	0	0	316
-19.113	-26.037	1	0	0	316
-17.310	-23.152	1	0	0	316
-11.323	-18.283	1	0	0	316
-6.635	-12.261	1	0	0	316
-5.806	-10.746	1	0	0	316
-6.022	-9.088	1	0	0	316
-6.635	-8.150	1	0	0	316
-4.724	-7.393	1	0	0	316
-2.452	-4.147	1	0	0	316
1.262	-2.813	1	0	0	316
2.777	-0.108	1	0	0	316
0.180	-0.902	1	0	0	316
-2.849	-2.741	1	0	0	316
-3.967	-4.183	1	0	0	316
-2.993	-4.039	1	0	0	316
-1.334	-2.128	1	0	0	316
2.957	3.678	1	0	0	316
9.701	6.275	1	0	0	316
15.362	11.107	1	0	0	316
17.526	14.172	1	0	0	316
19.798	13.740	1	0	0	316
14.533	11.792	1	0	0	316
10.855	12.117	1	0	0	316
11.287	12.225	1	0	0	316
15.615	17.670	1	0	0	316
23.224	25.496	1	0	0	316
30.148	31.662	1	0	0	316
32.780	35.088	1	0	0	316
35.810	35.737	1	0	0	316
36.891	36.278	1	0	0	316
37.649	36.783	1	0	0	316
42.770	39.235	1	0	0	316
45.078	41.796	1	11072	0	316
46.484	43.130	1	26540	0	316
46.087	43.419	1	32767	0	316
43.166	39.560	1	32767	0	316
40.389	37.396	1	32767	0	316
35.521	34.151	1	32767	0	316
33.682	31.735	1	32767	0	316
31.194	30.076	1	32767	0	316
29.354	28.814	1	32767	0	316
29.102	26.037	1	32767	0	316
25.640	24.053	1	32767	0	316
23.981	22.070	1	32767	0	316
22.322	20.447	1	32767	0	316
18.392	19.834	1	32767	0	316
17.815	17.129	1	32767	0	316
14.821	15.687	1	32767	0	316
15.038	13.559	8443	32767	0	316
15.867	15.398	25207	32767	0	316
20.664	17.779	32768	32767	0	316
23.224	22.467	32768	32767	0	316
22.899	25.784	32768	32767	0	316
24.017	26.433	32768	32767	0	316
23.116	27.119	32768	32767	0	316
24.306	23.765	32768	32767	0	316
26.974	22.322	32768	32767	0	316
26.109	23.585	32768	32767	0	316
27.227	24.378	32768	32767	0	316
24.955	25.568	32768	32767	0	316
23.188	27.227	32768	32767	0	316
19.906	24.414	32768	32767	0	316
19.113	21.204	32768	32767	0	316
15.507	19.257	32768	32767	0	316
16.084	15.651	32768	32767	0	316
14.641	14.064	32768	32767	0	316
17.129	11.612	32768	32767	0	316
16.156	11.720	32768	32767	0	316
16.480	11.468	32768	31384	0	316
13.379	9.484	32768	7009	0	316
7.285	4.904	32768	0	0	316
3.570	1.442	32768	0	0	316
-1.118	-3.390	32768	0	1	316
-3.498	-7.898	32768	0	0	316
-4.075	-7.393	32768	0	0	316
-5.373	-6.239	32768	0	0	316
-3.065	-2.921	32768	0	0	316
-1.298	1.226	32768	0	0	316
-0.902	2.056	32768	0	0	316
-4.760	-4.436	32768	0	0	316
-12.694	-13.740	32768	0	0	316
-18.969	-24.053	32768	0	0	316
-22.575	-26.686	32768	0	0	316
-22.250	-24.630	32768	0	0	316
-19.546	-22.755	32768	0	0	316
-19.654	-18.969	32768	0	0	316
-19.582	-21.132	32768	0	0	316
-21.565	-23.945	32768	0	0	316
-23.512	-24.450	32768	0	0	316
-23.080	-24.522	32768	0	0	316
-24.739	-25.063	32768	0	0	316
-27.010	-24.955	32768	0	0	316
-26.686	-26.542	32768	0	0	316
-26.181	-27.660	32768	0	0	316
-25.640	-28.489	32768	0	0	316
-25.856	-28.669	32768	0	0	316
-26.001	-30.076	32768	0	0	316
-32.672	-29.968	32768	0	0	316
-36.603	-29.968	32768	0	0	316
-39.885	-29.102	32768	0	0	316
-39.199	-29.102	32768	0	0	316
-37.937	-26.722	32768	0	0	316
-34.439	-24.811	32768	0	0	316
-30.400	-23.585	28148	0	0	316
-28.922	-22.827	23736	0	0	316
-29.679	-22.647	21384	0	0	316
-30.581	-23.224	19913	0	0	316
-33.069	-24.414	18442	0	0	316
-33.574	-23.945	16384	0	0	316
-31.915	-23.080	14914	3572	0	316
-26.650	-21.565	14326	23259	0	316
-21.998	-18.320	13443	32767	0	316
-20.664	-17.382	12855	32767	0	316
-20.736	-14.569	11973	32767	0	316
-22.611	-15.254	11973	32767	0	316
-22.791	-16.300	12855	32767	0	316
-20.700	-13.848	14326	32767	0	316
-18.536	-16.084	15796	32767	0	316
-14.858	-14.785	16384	32767	0	316
-15.435	-16.156	16972	32767	0	316
-14.172	-16.156	17854	32767	0	316
-16.661	-17.166	19325	32767	0	316
-17.418	-18.103	20795	32767	0	316
-19.582	-21.241	21384	32767	0	316
-20.231	-22.539	22854	32767	0	316
-20.736	-24.378	25207	32767	0	316
-17.238	-24.522	28148	32767	0	316
-16.913	-22.214	30207	32767	0	316
-15.435	-22.106	32560	32767	0	316
-15.615	-21.709	32768	32767	0	316
-14.641	-20.772	32768	32767	0	316
-15.543	-20.159	32768	32767	0	316
-12.405	-16.949	32768	32767	0	316
-8.871	-15.435	32768	32767	0	316
-6.167	-11.684	32768	32767	0	316
-3.606	-10.783	32768	32767	0	316
-1.515	-6.599	32768	32767	0	316
-0.505	-2.416	32768	32767	0	316
0.974	2.488	32768	32767	0	316
1.334	5.554	32768	32767	0	316
-1.515	4.255	31089	24665	0	316
-5.626	-0.721	25795	4509	0	316
-7.681	-5.698	20795	0	0	316
-5.049	-8.294	14914	0	0	316
-0.865	-6.022	9914	0	0	316
4.364	-2.272	3149	0	0	316
6.599	2.164	1	0	0	316
3.967	2.669	1	0	0	316
1.370	0.577	1	0	0	316
-2.741	-2.741	1	0	0	316
-4.796	-5.229	1	0	0	316
-2.993	-3.065	1	0	1	316
1.154	0.505	1	0	0	316
8.619	9.701	1	0	0	316
13.740	16.084	1	0	0	316
15.687	17.743	1	0	0	316
12.189	16.480	1	0	0	316
8.799	12.333	1	0	0	316
9.088	11.973	1	0	0	316
13.235	16.552	1	0	0	316
19.798	23.657	1	0	0	316
27.840	32.384	1	0	0	316
32.167	34.403	1	0	0	316
33.502	34.367	1	0	0	316
34.439	31.987	1	0	0	316
34.403	29.931	1	0	0	316
30.833	28.525	1	0	0	316
26.145	29.030	1	6384	0	316
18.969	28.128	1	12634	0	316
15.182	25.856	1	18571	0	316
12.081	24.522	1	25446	0	316
13.740	23.080	1	32767	0	316
16.084	21.096	1	32767	0	316
14.966	19.257	1	32767	0	316
13.343	14.821	1	32767	0	316
12.189	14.100	1	32767	0	316
12.189	12.081	1	32767	0	316
14.858	14.533	1	32767	0	316
15.867	16.985	1	32767	0	316
18.067	16.336	1	32767	0	316
16.480	19.546	1	32767	0	316
15.831	17.959	1	32767	0	316
17.815	20.591	1	32767	0	316
19.185	23.693	1	32767	0	316
20.844	25.712	1	32767	0	316
23.909	28.453	1	32767	0	316
23.621	32.961	1	32767	0	316
26.325	36.819	1	32767	0	316
30.436	40.498	1	32767	0	316
31.482	41.904	1	32767	0	316
32.672	40.498	1	32767	0	316
28.164	33.682	1	32767	0	316
25.424	28.741	1	32767	0	316
23.440	26.470	1	32767	0	316
22.250	25.820	1	32767	0	316
19.906	23.585	1	32767	0	316
15.182	18.500	1	32767	0	316
8.943	13.307	1	32767	0	316
6.022	7.681	1	32767	0	316
7.212	8.114	3149	32767	0	316
10.314	9.160	15796	32767	0	316
10.710	13.956	29619	32767	0	316
10.602	12.225	32768	32767	0	316
9.196	10.855	32768	32767	0	316
9.124	10.169	32768	32767	0	316
10.169	8.114	32768	32767	0	316
10.314	7.537	32768	32767	0	316
12.514	8.979	32768	32767	0	316
10.350	8.439	32768	32767	0	316
9.917	6.527	32768	32767	0	316
8.583	6.960	32768	32767	0	316
6.852	6.167	32768	32767	0	316
3.750	8.727	32768	32767	0	316
5.049	12.261	32768	32767	0	316
6.167	13.487	32768	32767	0	316
10.999	16.949	32768	32767	0	316
14.100	16.048	32768	32767	0	316
13.920	14.641	32768	32767	0	316
11.071	12.477	32768	32767	0	316
5.229	7.573	32768	32767	0	316
1.082	4.111	32768	32767	0	316
0.180	2.560	32768	32767	0	316
2.128	3.895	32768	32767	0	316
3.750	5.914	32768	32767	0	316
5.301	8.006	32768	31071	0	316
3.282	7.717	32768	3884	0	316
2.344	5.337	32768	0	0	316
-0.252	1.587	32768	0	0	316
-1.695	-1.695	32768	0	0	316
-0.865	-3.065	32768	0	0	316
-0.757	-3.750	32768	0	1	316
-1.298	-2.849	32768	0	0	316
-1.406	-1.334	32768	0	0	316
-3.029	-1.947	32768	0	0	316
-5.842	-3.895	32768	0	0	316
-10.458	-7.321	32768	0	0	316
-14.389	-11.864	32768	0	0	316
-22.034	-17.346	32768	0	0	316
-25.135	-19.077	32768	0	0	316
-29.607	-21.241	32768	0	0	316
-31.446	-19.149	32768	0	0	316
-31.302	-19.546	32768	0	0	316
-30.076	-17.959	32768	0	0	316
-30.112	-19.582	32768	0	0	316
-26.037	-20.772	32768	0	0	316
-25.135	-21.601	32768	0	0	316
-24.053	-24.666	32768	0	0	316
-23.512	-24.991	32768	0	0	316
-25.207	-24.919	32768	0	0	316
-29.571	-25.784	32768	0	0	316
-31.302	-26.650	32768	0	0	316
-32.239	-24.955	32768	0	0	316
-34.043	-25.532	32768	0	0	316
-30.436	-22.972	32768	0	0	316
-28.237	-19.510	32768	0	0	316
-25.893	-20.159	32768	0	0	316
-27.263	-21.493	32768	0	0	316
-29.715	-25.027	32768	0	0	316
-31.735	-29.066	32768	0	0	316
-32.312	-29.499	32768	0	0	316
-30.004	-30.689	32768	0	0	316
-27.479	-27.515	32768	0	0	316
-28.886	-26.686	32768	0	0	316
-31.590	-27.768	32768	0	0	316
-34.656	-30.112	32768	0	0	316
-36.783	-33.393	32768	0	0	316
-37.541	-35.882	32768	0	0	316
-37.973	-35.557	32768	16540	0	316
-35.557	-33.754	32768	32767	0	316
-31.518	-32.023	32768	32767	0	316
-28.273	-26.542	32768	32767	0	316
-25.965	-22.899	32768	32767	0	316
-27.083	-22.647	32768	32767	0	316
-30.725	-22.935	32768	32767	0	316
-32.023	-26.109	32768	32767	0	316
-30.545	-25.243	32768	32767	0	316
-28.741	-24.162	32768	32767	0	316
-24.811	-17.743	32768	32767	0	316
-23.044	-16.408	32768	32767	0	316
-24.775	-15.975	32768	32767	0	316
-27.840	-17.851	32768	32767	0	316
-26.686	-19.149	32768	32767	0	316
-26.794	-20.844	32768	32767	0	316
-22.755	-18.067	32768	32767	0	316
-17.598	-15.975	32768	32767	0	316
-17.382	-12.009	32768	32767	0	316
-18.031	-12.297	32768	32767	0	316
-22.034	-16.877	32768	32767	0	316
-25.496	-18.608	32768	32767	0	316
-25.748	-21.565	32768	32767	0	316
-22.575	-16.697	32768	32767	0	316
-18.572	-13.559	32768	32767	0	316
-15.651	-10.855	32768	23102	0	316
-18.139	-13.812	32768	4197	0	316
-22.142	-18.680	32768	0	0	316
-26.470	-21.673	32768	0	0	316
-26.794	-21.349	32768	0	0	316
-20.880	-19.329	32768	0	0	316
-18.716	-16.516	32768	0	0	316
-13.848	-16.805	32768	0	0	316
-15.218	-15.795	32768	0	0	316
-14.713	-17.670	32768	0	0	316
-15.867	-14.533	32768	0	0	316
-14.353	-15.182	32768	0	0	316
-9.592	-15.254	32768	0	0	316
-9.665	-14.749	32768	0	0	316
