neuroNicle FX2
D3F25R12
Bluetooth SPP
2023년 11월 2일 목요일
오후 1:16
time interval = 4msec
EEG1	EEG2	PPG	sdPPG	pulse	peak_interval(msec)
-43.419	-60.656	15014	17767	0	684
-35.485	-51.605	15175	17613	0	684
-27.948	-39.199	15014	17459	0	684
-25.496	-27.876	15014	17273	0	684
-26.073	-22.827	14772	17064	0	684
-30.220	-30.292	14368	16842	0	684
-34.475	-45.907	13562	16538	0	684
-40.353	-60.404	12755	16158	0	684
-47.386	-65.164	11949	15817	0	684
-48.792	-55.788	11143	15568	0	684
-45.907	-37.541	10336	15395	0	684
-38.262	-24.847	9530	15246	0	684
-31.482	-25.388	8723	15069	0	684
-29.138	-36.964	7755	14919	0	684
-34.908	-46.448	7352	14865	0	684
-41.435	-47.782	6707	14901	0	684
-50.018	-42.697	6304	14983	0	684
-57.375	-38.550	5901	15069	0	684
-63.325	-45.078	5497	15187	0	684
-67.436	-60.296	5739	15395	0	684
-62.315	-74.865	5739	15663	0	684
-51.641	-76.884	6143	15908	0	684
-39.380	-65.056	5901	16067	0	684
-31.915	-47.818	6304	16189	0	684
-34.295	-38.045	6304	16335	0	684
-42.553	-35.918	6707	16529	0	684
-48.503	-42.553	7352	16765	0	684
-47.782	-50.126	7352	16951	0	684
-43.347	-50.739	7110	16892	0	684
-38.911	-52.506	6304	16597	0	684
-39.704	-55.608	5901	16339	0	684
-44.428	-65.669	5336	16235	0	684
-52.326	-76.271	4933	16180	0	684
-58.132	-78.651	4288	16117	0	684
-59.106	-70.826	4126	16067	0	684
-58.420	-51.605	3481	16044	0	684
-53.841	-33.357	3481	16067	0	684
-48.576	-25.784	3481	16208	0	684
-43.924	-34.006	3884	16397	0	684
-37.685	-49.693	3481	16447	0	684
-34.006	-66.859	2917	16271	0	684
-34.006	-70.393	2272	16003	0	684
-38.298	-61.810	1707	15904	0	684
-43.996	-45.546	1868	16035	0	684
-47.061	-31.554	1868	16217	0	684
-46.989	-30.761	1465	16294	0	684
-45.330	-42.084	1304	16248	0	684
-47.349	-60.981	497	16090	0	684
-50.703	-75.947	1	15699	0	684
-53.083	-76.271	1	15082	0	684
-51.244	-64.443	1	14465	0	684
-47.999	-49.333	1	14007	0	684
-46.845	-45.005	1	13735	0	684
-51.857	-53.949	1	13698	0	684
-57.735	-70.718	1	13875	0	684
-59.394	-83.628	1	14166	0	684
-56.437	-76.488	1	14456	0	684
-52.326	-57.266	1	14706	0	684
-52.687	-39.560	1	14901	0	684
-56.221	-35.269	1	15096	0	684
-60.440	-51.533	1	15382	0	684
-56.978	-70.357	1	15708	0	684
-48.071	-80.707	1	16003	0	684
-40.462	-74.324	1	16267	0	684
-38.695	-57.086	1	16506	0	684
-42.265	-44.212	1	16733	0	684
-48.323	-43.130	1	16910	0	684
-46.232	-54.886	1	17041	0	684
-41.580	-65.380	1	17109	0	684
-38.370	-76.127	1	17041	0	684
-44.176	-85.755	1	16874	0	684
-56.870	-93.689	1	16778	0	684
-67.184	-101.370	1	16837	0	684
-66.318	-102.993	1	16973	0	684
-57.771	-96.358	1	17028	0	684
-50.198	-86.549	1	16955	0	684
-49.369	-75.875	1	16951	0	684
-53.408	-70.573	1	17114	0	684
-53.336	-67.544	1	17318	0	684
-46.772	-59.899	1	17454	0	684
-38.154	-53.155	1	17495	0	684
-37.000	-51.172	1	17468	0	684
-46.195	-52.651	1	17359	0	684
-56.149	-59.070	1	17168	0	684
-63.397	-66.102	1	16973	0	684
-59.466	-68.446	1	16846	0	684
-53.047	-67.508	1	16815	0	684
-45.005	-66.066	1	16905	0	684
-43.347	-62.784	1	17141	0	684
-44.717	-60.620	1	17445	0	684
-46.412	-55.139	1	17695	0	684
-48.287	-55.824	1	17890	0	684
-49.621	-60.404	1	18008	0	684
-54.237	-71.150	1	17881	0	684
-57.050	-77.822	1	17572	0	684
-57.699	-76.091	1	17373	0	684
-50.379	-59.358	1	17400	0	684
-40.534	-40.750	1	17531	0	684
-31.987	-26.181	1	17636	0	684
-31.230	-26.001	1	17727	0	684
-34.800	-35.197	1	17913	0	684
-38.334	-46.195	1	18185	0	684
-37.973	-50.775	1	18443	0	684
-34.187	-50.307	1	18620	0	684
-32.456	-47.205	1	18738	0	684
-33.790	-48.107	94	18902	0	684
-37.721	-55.680	2272	19165	0	684
-41.435	-59.106	4288	19482	0	684
-42.445	-58.420	6949	19768	0	684
-41.760	-49.585	9126	19959	0	684
-45.150	-44.681	11546	20118	0	684
-47.926	-46.232	14207	20295	0	684
-53.155	-53.444	16787	20449	0	684
-54.382	-59.755	19206	20521	0	684
-50.270	-57.158	21384	20490	0	684
-42.589	-44.969	23642	20394	0	684
-34.295	-35.846	25658	20299	0	684
-30.220	-34.187	28077	20213	0	684
-30.689	-38.190	30093	20104	1	808
-36.314	-47.241	31867	19818	0	808
-42.084	-52.687	32271	19228	0	808
-47.205	-55.391	32674	18484	0	808
-50.487	-62.099	32768	17890	0	808
-54.057	-72.521	32768	17509	0	808
-58.637	-84.421	32768	17150	0	808
-61.666	-86.585	32768	16760	0	808
-61.558	-76.055	32768	16402	0	808
-56.076	-54.165	32768	16121	0	808
-49.405	-33.682	32768	15876	0	808
-45.294	-24.811	32768	15631	0	808
-43.743	-26.902	32768	15382	0	808
-43.130	-36.134	32768	15096	0	808
-44.464	-45.727	32768	14679	0	808
-46.448	-53.155	32768	14148	0	808
-52.975	-59.034	32768	13680	0	808
-60.620	-61.702	32768	13363	0	808
-66.174	-60.801	32768	13131	0	808
-64.840	-59.142	32109	12855	0	808
-57.663	-54.670	30496	12487	0	808
-48.467	-51.677	29287	12179	0	808
-44.897	-51.965	27835	12070	0	808
-44.464	-54.093	27029	12129	0	808
-47.422	-56.690	25819	12233	0	808
-46.809	-57.086	25013	12319	0	808
-45.871	-54.670	23803	12360	0	808
-43.455	-46.809	22029	12287	0	808
-44.392	-41.471	20577	12160	0	808
-44.861	-37.721	18964	12142	0	808
-44.392	-38.370	17593	12233	0	808
-42.950	-43.202	16384	12383	0	808
-42.193	-50.559	15417	12637	0	808
-45.618	-61.522	14772	13041	0	808
-52.362	-69.059	14610	13562	0	808
-56.726	-70.826	14207	14052	0	808
-55.896	-64.118	13159	14297	0	808
-50.379	-50.992	12352	14352	0	808
-41.904	-35.737	11788	14524	0	808
-33.538	-25.316	11143	14878	0	808
-27.371	-21.277	11143	15273	0	808
-26.109	-23.296	11143	15668	0	808
-26.650	-27.768	11546	16076	0	808
-30.472	-34.475	11546	16488	0	808
-35.810	-39.560	12191	16923	0	808
-41.904	-45.474	13401	17454	0	808
-47.205	-56.185	14368	17990	0	808
-50.847	-65.705	15014	18280	0	808
-49.080	-69.564	15014	18289	0	808
-41.399	-65.417	15014	18189	0	808
-33.610	-55.788	15417	18112	0	808
-30.256	-48.431	15014	18044	0	808
-33.033	-46.087	14610	17881	0	808
-41.796	-45.438	13804	17581	0	808
-47.782	-38.586	12997	17236	0	808
-48.251	-31.446	12352	16973	0	808
-44.392	-24.270	11949	16837	0	808
-42.012	-28.669	11949	16833	0	808
-43.274	-42.084	11949	16896	0	808
-49.044	-51.965	11949	16942	0	808
-53.408	-53.228	11949	16973	0	808
-51.821	-43.887	12352	17060	0	808
-44.969	-31.879	12755	17232	0	808
-36.531	-29.859	13401	17404	0	808
-33.249	-36.891	13804	17450	0	808
-34.620	-47.313	13965	17418	0	808
-39.776	-56.545	14207	17427	0	808
-40.389	-52.434	14772	17527	0	808
-36.170	-46.159	15417	17622	0	808
-27.660	-36.242	15578	17577	0	808
-17.670	-24.739	15175	17336	0	808
-9.088	-13.091	14207	16883	0	808
-3.823	-1.767	12997	16330	0	808
-5.481	0.108	11949	15890	0	808
-14.677	-13.812	10981	15600	0	808
-29.210	-35.088	9933	15373	0	808
-42.084	-54.309	8965	15159	0	808
-45.474	-55.463	7514	14865	0	808
-37.468	-43.563	5739	14492	0	808
-26.073	-27.443	4530	14207	0	808
-18.356	-18.283	2917	14048	0	808
-17.779	-19.654	1707	13930	0	808
-21.349	-25.388	255	13798	0	808
-25.316	-28.417	1	13689	0	808
-26.217	-33.105	1	13698	0	808
-27.876	-36.855	1	13875	0	808
-31.122	-44.356	1	14188	0	808
-36.675	-50.523	1	14579	0	808
-40.750	-53.191	1	14992	0	808
-41.543	-47.277	1	15423	0	808
-36.567	-36.928	1	15867	0	808
-29.138	-25.243	1	16285	0	808
-24.991	-16.336	1	16619	0	808
-26.902	-18.356	1	16869	0	808
-36.531	-27.443	1	17073	0	808
-46.015	-40.606	1	17277	0	808
-51.352	-48.143	1	17459	0	808
-49.982	-50.198	1	17609	0	808
-47.746	-47.205	1	17677	0	808
-48.756	-46.376	1	17522	0	808
-53.408	-53.732	1	17196	0	808
-56.870	-59.178	1	16996	0	808
-57.086	-63.541	1	16969	0	808
-55.680	-60.151	1	16951	0	808
-53.588	-54.814	1	16919	0	808
-53.949	-50.884	1	16905	0	808
-54.273	-46.881	1	16878	0	808
-54.201	-47.061	1	16855	0	808
-56.113	-47.674	1	16860	0	808
-57.339	-52.001	1	16778	0	808
-57.266	-61.305	1	16438	0	808
-51.533	-67.472	1	15913	0	808
-43.779	-64.263	1	15495	0	808
-39.452	-56.257	1	15300	0	808
-42.517	-47.566	1	15268	0	808
-50.451	-44.897	1	15345	0	808
-56.437	-49.657	1	15432	0	808
-56.581	-51.677	1	15495	0	808
-52.470	-52.795	1	15672	0	808
-50.775	-51.497	1	15917	0	808
-54.237	-53.119	1	16008	0	808
-61.594	-60.476	1	15885	0	808
-64.371	-65.525	1	15736	0	808
-63.181	-65.885	1	15704	0	808
-54.995	-54.742	1	15781	0	808
-43.310	-42.589	1	15931	0	808
-35.701	-31.482	1	16126	0	808
-33.033	-30.977	1	16312	0	808
-36.639	-42.229	1	16470	0	808
-46.051	-57.952	1	16624	0	808
-52.434	-68.049	1	16787	0	808
-53.264	-65.849	1	16951	0	808
-47.710	-51.461	1	17082	0	808
-40.534	-32.997	1	17182	0	808
-37.541	-24.739	1	17236	0	808
-39.019	-29.391	1	17255	0	808
-43.743	-39.993	1	17236	0	808
-41.940	-50.739	1	17159	0	808
-36.314	-51.569	1	17014	0	808
-31.771	-47.313	1	16855	0	808
-31.915	-41.688	1	16710	0	808
-37.144	-40.317	1	16638	0	808
-40.570	-41.111	1	16728	0	808
-40.498	-41.435	1	16951	0	808
-34.439	-39.235	1	17050	0	808
-31.122	-38.803	1	16878	0	808
-31.410	-37.973	1	16538	0	808
-35.305	-37.432	1	16212	0	808
-36.531	-34.547	1	15940	0	808
-31.554	-28.164	1	15631	0	808
-21.781	-19.113	1	15205	0	808
-8.150	-6.888	1	14760	0	808
9.809	8.907	1	14488	0	808
30.508	29.535	1	14443	0	808
55.788	56.834	1	14565	0	808
84.890	84.638	1	14751	0	808
112.153	113.451	1	14942	0	808
139.488	137.216	1	15178	0	808
165.272	159.538	1	15536	0	808
191.201	179.336	1	16035	0	808
217.021	202.596	1	16597	0	808
234.800	221.890	1	17119	0	808
238.190	231.626	1	17599	0	808
223.585	229.823	1	18112	0	808
197.331	216.336	1	18666	0	808
168.338	205.265	1	19215	0	808
144.248	201.370	1	19687	0	808
125.279	197.404	1	19936	0	808
107.393	184.205	1	19954	0	808
83.520	151.533	1	19954	0	808
58.529	110.999	1	20045	0	808
37.901	81.176	1	20104	0	808
25.820	69.996	1	20090	0	808
23.549	72.701	1304	20036	0	808
19.510	73.458	3078	19959	0	808
6.708	56.113	4691	19927	0	808
-13.559	25.568	7110	20063	1	704
-34.006	-8.907	9530	20326	0	704
-44.104	-28.525	11949	20481	0	704
-42.373	-34.259	13804	20376	0	704
-38.550	-32.384	15175	20086	0	704
-44.645	-35.810	16545	19755	0	704
-61.955	-51.172	17996	19473	0	704
-88.352	-71.980	19609	19260	0	704
-113.848	-94.014	21222	19079	0	704
-132.636	-104.688	22593	18820	0	704
-144.897	-113.920	23238	18475	0	704
-150.270	-124.522	24448	18112	0	704
-152.038	-136.242	25416	17776	0	704
-149.080	-147.890	25819	17441	0	704
-145.474	-151.136	26464	17064	0	704
-143.815	-147.999	26625	16683	0	704
-146.015	-140.498	27271	16375	0	704
-149.225	-135.737	27674	16149	0	704
-149.513	-134.223	28077	15913	0	704
-143.058	-131.626	28077	15609	0	704
-133.105	-133.538	28238	15296	0	704
-126.181	-138.190	28077	15078	0	704
-128.850	-143.635	28642	14960	0	704
-139.127	-148.359	28480	14874	0	704
-150.018	-145.799	28884	14756	0	704
-154.273	-138.875	28238	14588	0	704
-147.241	-131.771	28077	14370	0	704
-135.846	-128.309	27432	14143	0	704
-121.241	-124.306	27029	13984	0	704
-110.494	-121.241	26464	13884	0	704
-105.193	-115.543	25819	13762	0	704
-105.590	-116.300	24609	13540	0	704
-108.366	-115.759	22835	13172	0	704
-108.763	-110.710	21222	12773	0	704
-103.101	-96.430	19609	12492	0	704
-95.709	-78.615	18158	12387	0	704
-90.191	-68.878	17190	12478	0	704
-94.266	-78.363	16384	12691	0	704
-101.695	-95.925	15578	12914	0	704
-108.150	-111.684	15014	13163	0	704
-109.520	-112.766	14772	13499	0	704
-105.337	-100.902	14610	13916	0	704
-98.558	-85.395	14207	14229	0	704
-88.965	-73.855	12755	14216	0	704
-74.721	-66.751	11384	14025	0	704
-57.339	-56.185	10739	14021	0	704
-35.052	-39.199	9530	14188	0	704
-9.160	-8.943	8562	14343	0	704
19.257	27.227	7917	14483	0	704
49.802	62.351	7110	14679	0	704
80.490	90.371	6546	14860	0	704
107.176	109.088	5901	15041	0	704
127.587	121.962	5739	15332	0	704
145.979	133.429	6143	15754	0	704
160.115	147.746	6304	16230	0	704
173.494	159.142	6949	16706	0	704
183.772	167.075	7755	17173	0	704
188.532	171.367	8965	17627	0	704
185.070	176.451	9772	18012	0	704
174.468	181.717	10578	18325	0	704
156.834	180.202	11546	18598	0	704
134.079	164.840	12594	18847	0	704
114.605	136.314	13804	19056	0	704
97.259	104.436	14772	19206	0	704
82.618	85.070	15820	19301	0	704
67.111	77.461	16545	19319	0	704
43.563	71.836	16787	19174	0	704
16.336	58.312	17190	18915	0	704
-11.684	29.246	17996	18784	0	704
-32.744	-7.357	18803	18843	0	704
-46.592	-45.979	20013	18924	0	704
-55.896	-75.550	20819	18888	0	704
-60.945	-93.184	21384	18697	0	704
-61.450	-93.653	21625	18452	0	704
-62.459	-86.477	22029	18253	0	704
-68.734	-78.976	22835	18108	0	704
-87.523	-78.471	23400	17972	0	704
-112.117	-88.316	23642	17813	0	704
-134.656	-95.745	24206	17681	0	704
-147.277	-108.907	25013	17586	1	316
-150.956	-127.876	25416	17509	0	316
-153.877	-155.067	26222	17432	0	316
-156.221	-181.897	26464	17305	0	316
-155.103	-189.614	27029	17109	0	316
-148.323	-175.261	27029	16874	0	316
-140.714	-156.040	26625	16579	0	316
-136.242	-145.871	26464	16244	0	316
-137.324	-157.230	25658	15899	0	316
-139.055	-174.612	24609	15463	0	316
-136.819	-186.405	23238	14928	0	316
-134.836	-182.474	22029	14470	0	316
-132.925	-171.980	20819	14170	0	316
-133.934	-155.968	19771	13948	0	316
-130.364	-145.835	18400	13703	0	316
-123.008	-135.413	15981	13254	0	316
-113.992	-127.443	13562	12664	0	316
-107.609	-122.935	11788	12296	0	316
-107.032	-127.551	10578	12383	0	316
-108.042	-136.278	10578	12782	0	316
-106.527	-147.458	9772	13231	0	316
-103.065	-148.684	9368	13553	0	316
-101.262	-138.839	8723	13757	0	316
-104.291	-113.884	7917	13980	0	316
-109.124	-93.797	7755	14275	0	316
-113.127	-90.660	7514	14601	0	316
-111.828	-104.940	6707	14860	0	316
-106.635	-126.794	6546	15005	0	316
-99.315	-140.173	5739	15128	0	316
-94.951	-138.442	5497	15296	0	316
-91.453	-123.404	4933	15500	0	316
-90.660	-105.626	4691	15681	0	316
-87.991	-92.283	4126	15826	0	316
-86.982	-83.051	3884	15981	0	316
-87.090	-80.671	3481	16180	0	316
-85.900	-82.005	3884	16424	0	316
-87.090	-84.457	3884	16692	0	316
-87.811	-89.578	4126	16910	0	316
-85.215	-91.057	4126	17060	0	316
-79.156	-90.408	4288	17209	0	316
-68.301	-78.651	4691	17386	0	316
-58.637	-57.086	5336	17581	0	316
-52.795	-35.341	5901	17799	0	316
-53.480	-28.092	6546	18003	0	316
-61.305	-37.829	6949	18139	0	316
-66.679	-60.224	7514	18185	0	316
-67.436	-72.376	7514	18139	0	316
-62.207	-71.727	7514	17999	0	316
-55.211	-66.751	7514	17808	0	316
-51.064	-70.718	6949	17586	0	316
-54.201	-84.493	6707	17295	0	316
-61.089	-91.598	5739	16955	0	316
-68.842	-86.982	5336	16642	0	316
-68.554	-66.354	4530	16411	0	316
-62.928	-45.402	4126	16248	0	316
-53.552	-32.095	3078	16067	0	316
-48.864	-29.030	2514	15858	0	316
-50.884	-34.187	1707	15699	0	316
-55.031	-44.897	1465	15622	0	316
-59.034	-58.889	901	15581	0	316
-59.466	-71.295	94	15522	0	316
-59.286	-75.514	1	15432	0	316
-62.928	-69.095	1	15350	0	316
-68.049	-59.502	1	15205	0	316
-67.905	-49.080	1	14905	0	316
-62.676	-49.405	1	14588	0	316
-54.814	-50.523	1	14397	0	316
-51.244	-54.562	1	14329	0	316
-55.463	-51.316	1	14379	0	316
-60.909	-48.467	1	14574	0	316
-61.702	-46.376	1	14878	0	316
-57.375	-47.169	1	15141	0	316
-50.415	-54.670	1	15305	0	316
-49.044	-63.000	1	15445	0	316
-53.480	-72.196	1	15640	0	316
-59.034	-78.219	1	15845	0	316
-60.801	-77.137	1	15994	0	316
-57.122	-67.472	1	16112	0	316
-49.838	-44.825	1	16230	0	316
-44.392	-27.948	1	16253	0	316
-41.652	-16.877	1	16226	0	316
-41.003	-23.080	1	16447	0	316
-42.337	-36.387	1	16996	0	316
-41.363	-51.028	1	17554	0	316
-40.606	-55.175	1	17894	0	316
-42.265	-53.047	1	18085	0	316
-41.543	-43.996	1	18280	0	316
-39.488	-34.547	1	18557	0	316
-41.940	-39.596	22835	15182	0	704
-33.105	-33.285	22593	14842	0	704
-25.279	-27.768	22593	14606	0	704
-24.775	-26.578	22593	14447	0	704
-30.508	-31.843	22432	14302	0	704
-39.632	-39.055	22029	14139	0	704
-42.337	-40.822	21787	14012	0	704
-36.928	-38.622	22029	14012	0	704
-27.876	-34.620	21787	14075	0	704
-23.332	-31.879	21625	14093	0	704
-26.578	-33.790	21625	14089	0	704
-34.151	-38.695	21787	14152	0	704
-38.262	-39.235	21787	14288	0	704
-33.466	-32.167	21625	14438	0	704
-22.755	-21.060	21625	14511	0	704
-13.595	-13.523	21384	14502	0	704
-13.343	-14.966	21222	14492	0	704
-23.368	-24.270	20577	14497	0	704
-33.718	-35.593	20013	14492	0	704
-38.983	-37.036	19367	14456	0	704
-36.242	-30.148	17996	14229	0	704
-28.633	-20.267	15417	13649	0	704
-22.719	-15.110	12755	12923	0	704
-20.880	-16.733	10981	12514	0	704
-21.818	-22.070	9530	12569	0	704
-23.765	-26.650	8562	12832	0	704
-25.424	-24.883	7352	12986	0	704
-24.883	-22.611	5497	12986	0	704
-23.476	-16.552	4288	12986	0	704
-20.664	-13.307	2675	13081	0	704
-19.473	-10.999	1868	13304	0	704
-21.529	-12.550	1304	13626	0	704
-28.201	-15.651	94	13930	0	704
-32.384	-21.565	1	14152	0	704
-33.862	-24.306	1	14397	0	704
-30.508	-24.594	1	14742	0	704
-27.407	-22.395	1	15150	0	704
-25.243	-20.736	1	15527	0	704
-27.299	-19.582	1	15804	0	704
-27.840	-21.060	1	16026	0	704
-28.489	-22.503	1	16294	0	704
-27.732	-23.152	1	16651	0	704
-28.128	-22.575	1	17060	0	704
-29.463	-22.467	1	17354	0	704
-29.751	-26.253	1	17377	0	704
-30.508	-29.282	1	17196	0	704
-30.292	-32.059	1	17100	0	704
-26.650	-32.023	1	17178	0	704
-23.008	-23.909	1	17286	0	704
-17.959	-15.795	1	17373	0	704
-13.992	-6.599	1	17450	0	704
-12.802	-5.481	1	17513	0	704
-13.054	-5.842	1	17559	0	704
-9.304	-7.862	1	17586	0	704
-5.986	-9.376	1	17595	0	704
-3.426	-8.799	1	17554	0	704
-3.354	-8.006	1	17391	0	704
-6.671	-5.626	1	17128	0	704
-10.963	-6.383	1	16864	0	704
-10.638	-5.409	1	16638	0	704
-7.068	-3.678	1	16483	0	704
0.865	-2.128	1	16384	0	704
9.917	2.236	1	16280	0	704
16.769	10.025	1	16185	0	704
20.664	14.064	1	16180	0	704
20.375	14.172	1	16280	0	704
16.480	11.432	1	16402	0	704
14.172	6.888	1	16497	0	704
15.975	9.592	1	16606	0	704
24.702	17.851	1	16769	0	704
36.747	31.879	1	16987	0	704
48.395	43.996	1	17196	0	704
52.867	49.838	1	17305	0	704
49.513	50.415	1	17323	0	704
43.743	48.612	1	17354	0	704
40.714	49.405	1	17427	0	704
41.724	49.189	1	17500	0	704
45.510	52.290	1	17577	0	704
44.428	50.992	1	17654	0	704
41.363	46.809	1	17699	0	704
37.252	43.455	1	17717	0	704
36.314	44.320	1	17740	0	704
38.442	45.366	1	17727	0	704
39.596	46.700	1	17636	0	704
36.531	43.491	1	17445	0	704
30.653	35.990	1	17141	0	704
23.260	28.669	1	16719	0	704
24.450	28.020	1	16267	0	704
30.833	33.429	1	15890	0	704
39.921	39.957	1	15604	0	704
43.166	44.320	1	15305	0	704
37.649	38.442	1	14964	0	704
24.811	27.299	1	14679	0	704
13.343	18.680	1	14529	0	704
10.530	13.776	1	14483	0	704
16.084	17.851	1	14411	0	704
24.017	25.243	1	14238	0	704
28.994	28.705	1	14080	0	704
25.279	25.820	1	14048	0	704
17.310	17.057	1	14116	0	704
9.412	8.114	1	14220	0	704
4.147	3.354	1	14352	0	704
3.210	2.560	1	14520	0	704
1.442	5.301	1	14665	0	704
-0.757	5.481	1	14819	0	704
-8.583	1.442	1	15078	0	704
-15.290	-5.409	1	15391	0	704
-19.401	-11.107	1	15654	0	704
-17.562	-12.550	1	15881	0	704
-10.350	-7.717	1	16112	0	704
-3.101	-1.731	1	16307	0	704
-1.046	0.433	1	16380	0	704
-9.773	-7.321	1	16357	0	704
-23.657	-21.241	1	16289	0	704
-37.216	-36.423	1	16153	0	704
-41.832	-41.039	1	15972	0	704
-38.767	-37.865	1	15854	0	704
-31.951	-30.653	1	15835	0	704
-28.633	-28.273	1	15840	0	704
-33.105	-33.898	1	15813	0	704
-41.003	-43.599	1	15808	0	704
-48.792	-51.280	1	15981	0	704
-53.624	-52.470	1	16362	0	704
-55.536	-49.585	1	16787	0	704
-56.221	-45.835	1	17132	0	704
-55.860	-45.294	1	17359	0	704
-53.372	-44.248	1	17522	0	704
-48.792	-44.717	1	17713	0	704
-45.294	-42.734	1	17962	0	704
-43.419	-43.419	1	18198	0	704
-46.015	-44.464	1	18362	0	704
-51.641	-48.756	1	18493	0	704
-54.995	-50.234	1	18679	0	704
-54.309	-52.903	1	18974	0	704
-50.054	-52.182	1	19296	0	704
-44.501	-51.064	1	19523	0	704
-42.481	-50.775	1	19664	0	704
-44.284	-49.766	1	19809	0	704
-49.008	-48.864	1	19986	0	704
-49.297	-47.890	1	20158	0	704
-45.907	-46.195	1	20258	0	704
-42.914	-47.097	1	20285	0	704
-43.815	-48.107	1	20276	0	704
-50.270	-51.569	94	20249	0	704
-55.283	-52.470	2514	20249	0	704
-52.001	-49.549	4691	20358	0	704
-44.428	-44.645	6546	20358	0	704
-37.324	-42.806	6949	19864	0	704
-38.045	-46.268	6949	19006	1	652
-43.563	-51.100	7110	18271	0	652
-46.989	-52.614	7110	17772	0	652
-44.428	-47.999	7755	17377	0	652
-37.973	-42.842	7917	17032	0	652
-36.098	-40.822	7917	16674	0	652
-40.353	-45.258	8159	16303	0	652
-47.926	-50.631	8320	16012	0	652
-55.391	-55.572	8562	15826	0	652
-61.630	-59.755	8723	15645	0	652
-62.784	-63.036	8562	15423	0	652
-62.315	-63.000	8562	15169	0	652
-55.283	-58.565	8320	14924	0	652
-45.618	-49.621	7917	14751	0	652
-35.810	-41.291	7917	14624	0	652
-31.843	-38.695	7514	14474	0	652
-34.331	-40.317	6546	14270	0	652
-38.226	-42.950	5497	13939	0	652
-40.353	-43.166	4126	13558	0	652
-36.351	-43.635	3481	13363	0	652
-30.761	-41.183	2917	13390	0	652
-26.073	-41.940	2272	13481	0	652
-26.974	-39.560	1868	13590	0	652
-29.679	-35.629	1304	13739	0	652
-30.977	-30.220	1304	13943	0	652
-27.912	-23.693	1304	14188	0	652
-19.005	-15.903	1304	14474	0	652
-9.340	-11.684	1465	14787	0	652
-4.364	-8.402	1707	15041	0	652
-6.347	-13.559	1062	15132	0	652
-15.687	-21.277	497	15091	0	652
-26.650	-30.040	94	15060	0	652
-32.528	-34.547	1	15096	0	652
-31.987	-34.006	1	15123	0	652
-27.660	-32.456	1	15023	0	652
-24.919	-31.230	1	14806	0	652
-28.886	-36.855	1	14647	0	652
-34.006	-44.392	1	14651	0	652
-39.055	-49.549	1	14787	0	652
-38.370	-50.090	1	14960	0	652
-36.170	-48.503	1	15078	0	652
-38.154	-46.304	1	15123	0	652
-44.356	-51.569	1	15010	0	652
-52.506	-58.997	1	14778	0	652
-55.319	-65.705	1	14642	0	652
-48.864	-61.846	1	14674	0	652
-35.846	-48.287	1	14796	0	652
-23.224	-32.059	1	15041	0	652
-16.192	-21.890	1	15436	0	652
-17.202	-23.116	1	15885	0	652
-21.601	-32.564	1	16221	0	652
-25.748	-41.471	1	16424	0	652
-25.820	-45.150	1	16642	0	652
-25.676	-43.274	1	16923	0	652
-25.424	-39.019	1	17218	0	652
-26.578	-35.954	1	17486	0	652
-25.965	-33.646	1	17722	0	652
-26.145	-33.718	1	17949	0	652
-26.361	-38.009	1	18144	0	652
-30.545	-44.212	1	18280	0	652
-34.331	-50.198	1	18475	0	652
-34.547	-50.090	1	18834	0	652
-29.246	-42.734	1	19129	0	652
-21.349	-35.485	1	19119	0	652
-16.012	-29.499	1	18888	0	652
-16.697	-29.354	1	18634	0	652
-18.860	-29.210	1	18452	0	652
-19.257	-28.164	1	18298	0	652
-16.589	-25.460	1	18035	0	652
-14.641	-26.794	1	17645	0	652
-16.048	-31.302	1	17282	0	652
-19.293	-35.882	1	17050	0	652
-21.168	-35.197	1	16914	0	652
-20.627	-31.230	1	16796	0	652
-16.661	-25.063	1	16665	0	652
-12.982	-22.611	1	16565	0	652
-11.900	-23.981	1	16524	0	652
-10.169	-26.325	1	16538	0	652
-9.809	-23.476	1	16588	0	652
-6.599	-18.608	1	16547	0	652
-5.013	-12.802	1	16221	0	652
-4.364	-12.982	1	15668	0	652
-4.724	-18.103	1	15196	0	652
-10.891	-26.253	1	14883	0	652
-17.490	-33.826	1	14629	0	652
-24.125	-35.737	1	14424	0	652
-26.974	-34.331	1	14316	0	652
-24.919	-31.410	1	14334	0	652
-23.008	-31.915	1	14456	0	652
-23.260	-36.278	1	14620	0	652
-27.732	-43.527	1	14778	0	652
-34.331	-50.307	1	14887	0	652
-37.432	-53.913	1	14874	0	652
-35.593	-52.362	1	14792	0	652
-30.040	-49.261	1	14792	0	652
-26.145	-44.753	1	14928	0	652
-24.450	-43.960	1	15141	0	652
-28.164	-43.274	1	15395	0	652
-30.364	-43.743	1	15718	0	652
-28.850	-42.229	1	16176	0	652
-27.047	-41.075	1	16783	0	652
-25.568	-40.678	1	17436	0	652
-28.417	-44.212	1	17972	0	652
-33.682	-49.116	1	18334	0	652
-33.502	-51.280	1	18593	0	652
-28.886	-48.828	1	18820	0	652
-19.726	-42.048	1	18947	0	652
-13.668	-37.505	1	18924	0	652
-12.369	-36.495	1	18784	0	652
-17.238	-40.209	1	18593	0	652
-24.125	-45.510	1	18412	0	652
-29.427	-47.818	1	18307	0	652
-31.049	-46.123	1	18276	0	652
-29.138	-41.796	1	18194	0	652
-27.155	-39.091	1	18035	0	652
-29.066	-43.166	1	17876	0	652
-36.351	-50.487	1	17745	0	652
-44.969	-59.611	1	17649	0	652
-49.657	-65.813	1	17613	0	652
-47.349	-65.453	659	17636	0	652
-43.419	-64.299	1062	17590	0	652
-40.353	-65.344	1304	17345	0	652
-40.570	-63.794	901	16969	0	652
-38.947	-60.404	497	16601	0	652
-31.699	-49.441	255	16285	0	652
-22.250	-37.108	1	15958	0	652
-14.894	-30.833	1	15604	0	652
-14.136	-32.564	1	15255	0	652
-20.988	-40.606	1	15014	0	652
-26.109	-47.061	1	14933	0	652
-27.227	-48.359	1	14992	0	652
-21.854	-40.101	1	15078	0	652
-14.028	-32.636	1	15110	0	652
-8.763	-28.309	1	15155	0	652
-9.701	-32.312	1	15286	0	652
-18.608	-43.527	1	15482	0	652
-29.931	-54.382	1	15663	0	652
-39.560	-63.036	1	15799	0	652
-44.392	-65.128	1	15985	0	652
-48.612	-69.347	1	16267	0	652
-53.552	-75.730	94	16651	0	652
-61.053	-82.834	1465	17078	0	652
-66.282	-90.588	2514	17423	0	652
-68.446	-93.365	3481	17618	0	652
-68.121	-97.007	3481	17563	0	652
-69.528	-101.479	3884	17359	0	652
-71.619	-105.373	4530	17314	0	652
-69.203	-100.902	5497	17463	0	652
-58.420	-88.821	5901	17563	0	652
-42.445	-73.170	6707	17554	0	652
-29.968	-64.407	7514	17631	0	652
-25.099	-63.217	9126	17854	0	652
-22.935	-65.020	10578	18121	0	652
-19.293	-60.909	12191	18366	0	652
-13.307	-54.093	13804	18580	0	652
-10.278	-47.926	15578	18770	0	652
-13.848	-50.090	17593	18983	0	652
-21.601	-57.086	20013	19305	0	652
-25.965	-60.909	22432	19696	0	652
-22.683	-58.132	24851	19986	0	652
-18.608	-55.896	26867	20054	0	652
-19.185	-58.529	28238	19909	0	652
-27.010	-66.571	30093	19682	0	652
-33.393	-75.478	31303	19478	0	652
-34.439	-75.442	32674	19265	0	652
-28.597	-69.275	32768	18956	1	660
-20.627	-62.099	32768	18543	0	660
-16.697	-60.728	32768	18148	0	660
-21.277	-66.138	32768	17863	0	660
-28.237	-76.343	32768	17640	0	660
-36.206	-82.366	32768	17395	0	660
-41.904	-86.332	32768	17073	0	660
-44.969	-87.739	32768	16651	0	660
-47.710	-89.614	32768	16049	0	660
-51.605	-93.220	32768	15332	0	660
-54.129	-93.545	32768	14769	0	660
-53.300	-91.057	32768	14370	0	660
-45.474	-81.212	32768	14043	0	660
-35.629	-69.455	32768	13807	0	660
-27.624	-61.450	32768	13676	0	660
-24.991	-58.312	32109	13617	0	660
-28.561	-61.774	31867	13612	0	660
-32.780	-64.840	31706	13658	0	660
-35.341	-67.977	30900	13662	0	660
-34.115	-68.590	30093	13508	0	660
-32.384	-69.275	28642	13240	0	660
-31.518	-69.528	27432	13009	0	660
-30.581	-69.059	26061	12909	0	660
-31.879	-69.708	24851	12873	0	660
-34.620	-68.554	22996	12786	0	660
-38.803	-70.213	21625	12673	0	660
-43.563	-71.403	20819	12728	0	660
-43.887	-71.547	20013	12954	0	660
-42.012	-69.059	18803	13186	0	660
-37.757	-68.698	17996	13354	0	660
-36.170	-72.953	16787	13476	0	660
-37.505	-76.560	15981	13608	0	660
-38.947	-79.481	15014	13812	0	660
-39.199	-77.245	14368	14084	0	660
-35.629	-73.999	13562	14334	0	660
-34.764	-71.836	12755	14520	0	660
-36.278	-74.576	12191	14719	0	660
-38.334	-77.678	11788	14992	0	660
-38.803	-79.228	11949	15355	0	660
-37.036	-78.579	11546	15740	0	660
-36.747	-79.481	11384	16044	0	660
-40.173	-84.638	10981	16185	0	660
-47.386	-91.093	9933	16085	0	660
-54.454	-94.987	8159	15786	0	660
-56.221	-95.384	6546	15454	0	660
-53.011	-91.345	4691	15173	0	660
-48.143	-88.244	3078	15028	0	660
-41.796	-86.873	2514	15069	0	660
-39.416	-87.234	1465	15205	0	660
-38.586	-87.486	497	15377	0	660
-40.462	-88.100	497	15590	0	660
-43.347	-87.667	1	15817	0	660
-42.229	-87.342	1	15949	0	660
-35.810	-84.529	1	15972	0	660
-27.371	-80.382	1	16022	0	660
-24.955	-81.536	1	16176	0	660
-33.682	-90.408	1	16429	0	660
-52.326	-102.669	1	16751	0	660
-68.590	-113.487	1	17050	0	660
-73.819	-113.271	1	17300	0	660
-67.869	-106.022	1	17599	0	660
-55.355	-96.213	1	17962	0	660
-48.251	-93.437	94	18266	0	660
-47.710	-97.981	659	18475	0	660
-52.687	-103.462	1465	18620	0	660
-58.240	-108.042	2272	18738	0	660
-61.738	-108.294	2917	18865	0	660
-63.145	-106.852	4126	19011	0	660
-60.260	-104.616	4691	19106	0	660
-58.024	-103.787	5094	18983	0	660
-53.191	-101.515	4126	18507	0	660
-49.621	-101.479	3320	17867	0	660
-48.972	-99.531	2675	17418	0	660
-47.169	-99.171	2514	17227	0	660
-46.268	-98.702	2514	17082	0	660
-44.573	-94.951	2110	16928	0	660
-41.652	-90.408	2110	16824	0	660
-40.930	-89.650	2110	16742	0	660
-42.481	-90.155	1868	16642	0	660
-45.727	-95.817	1707	16529	0	660
-49.477	-99.928	1465	16442	0	660
-53.264	-103.210	1304	16348	0	660
-55.680	-101.947	659	16139	0	660
-55.896	-98.990	1	15845	0	660
-52.723	-92.932	1	15622	0	660
-46.484	-85.936	1	15527	0	660
-40.498	-80.022	1	15473	0	660
-37.180	-78.146	1	15318	0	660
-39.488	-83.303	1	15082	0	660
-44.248	-90.047	1	14933	0	660
-49.369	-93.761	1	14969	0	660
-51.064	-91.309	1	15137	0	660
-48.864	-84.710	1	15309	0	660
-45.258	-78.399	1	15436	0	660
-43.491	-77.497	1	15613	0	660
-43.383	-80.346	1	15876	0	660
-45.330	-84.782	1	16067	0	660
-42.625	-84.962	1	16117	0	660
-36.855	-80.743	1	16121	0	660
-27.624	-74.829	1	16185	0	660
-20.411	-68.590	1	16335	0	660
-20.087	-66.607	1	16556	0	660
-23.224	-65.705	1	16792	0	660
-29.066	-66.787	1	16973	0	660
-30.364	-66.823	1	17091	0	660
-28.705	-65.957	1	17141	0	660
-23.585	-64.587	1	17119	0	660
-18.464	-61.955	1	17028	0	660
-15.435	-61.774	1	16842	0	660
-17.238	-62.351	1	16606	0	660
-21.781	-67.833	1	16388	0	660
-28.056	-73.927	1	16194	0	660
-33.285	-79.913	1	16049	0	660
-35.701	-82.041	1	16049	0	660
-35.088	-80.022	1	16126	0	660
-32.131	-76.776	1	16040	0	660
-29.102	-76.055	1	15740	0	660
-29.427	-78.868	1	15377	0	660
-33.285	-84.205	1	15100	0	660
-39.488	-87.523	1	14910	0	660
-44.825	-86.513	1	14597	0	660
-48.395	-83.592	1	14066	0	660
-47.602	-82.546	1	13562	0	660
-46.664	-85.467	1	13340	0	660
-44.284	-89.181	1	13381	0	660
-39.524	-90.263	1	13576	0	660
-36.314	-86.837	1	13848	0	660
-36.639	-86.152	1	14161	0	660
-43.455	-90.119	1	14542	0	660
-54.706	-98.521	1	15005	0	660
-59.034	-106.708	1	15495	0	660
-53.444	-103.462	1	15990	0	660
-38.118	-89.470	1	16488	0	660
-22.467	-74.901	1	17019	0	660
-18.175	-64.407	1	17613	0	660
-23.837	-63.866	1	18276	0	660
-35.882	-71.367	1	18920	0	660
-44.537	-75.875	1	19451	0	660
-46.087	-76.632	1	19868	0	660
-42.120	-72.665	1	20249	0	660
-37.144	-69.203	1	20635	0	660
-34.836	-68.770	1	20975	0	660
-36.062	-70.934	1	21238	0	660
-39.632	-73.783	1	21438	0	660
-41.435	-76.019	659	21538	0	660
-41.580	-72.629	2272	21461	0	660
-35.413	-65.633	4126	21220	0	660
-28.958	-61.666	4933	20866	0	660
-24.955	-60.512	5497	20340	0	660
-26.686	-65.885	5739	19709	1	596
-29.715	-72.953	6546	19169	0	596
-32.131	-75.442	6949	18761	0	596
-29.066	-72.485	7514	18448	0	596
-23.080	-65.813	8723	18244	0	596
-20.375	-60.079	9933	18180	0	596
-21.241	-59.611	11546	18221	0	596
-27.660	-61.810	12997	18226	0	596
-34.151	-67.111	13965	18094	0	596
-38.478	-71.799	15175	17876	0	596
-40.209	-77.786	16384	17727	0	596
-39.344	-79.192	17190	17649	0	596
-38.262	-80.166	18158	17486	0	596
-38.695	-77.137	18158	17123	0	596
-36.747	-74.324	18561	16683	0	596
-35.197	-71.078	18964	16397	0	596
-33.934	-71.691	19609	16285	0	596
-37.180	-76.632	20174	16167	0	596
-44.356	-86.116	20577	16035	0	596
-55.319	-94.014	20980	15958	0	596
-61.161	-97.764	21625	15913	0	596
-58.348	-92.102	22432	15881	0	596
-49.802	-83.015	23238	15913	0	596
-39.776	-73.458	24045	16026	0	596
-33.862	-69.888	25013	16108	0	596
-33.934	-73.026	25254	16040	0	596
-39.776	-79.733	25416	15863	0	596
-48.900	-87.342	25819	15731	0	596
-55.752	-91.273	26061	15708	0	596
-57.627	-88.244	26464	15690	0	596
-50.631	-80.202	26061	15527	0	596
-39.560	-68.518	26061	15268	0	596
-28.128	-59.322	26061	15091	0	596
-22.431	-55.572	25819	15069	0	596
-19.401	-54.922	26222	15155	0	596
-18.067	-55.103	26222	15232	0	596
-14.100	-52.939	26464	15255	0	596
-8.763	-50.018	26625	15323	0	596
-9.773	-50.739	27029	15459	0	596
-12.586	-54.850	27271	15568	0	596
-17.815	-56.870	27674	15618	0	596
-17.346	-57.014	27674	15627	0	596
-11.071	-50.415	27835	15613	0	596
-4.327	-44.104	27835	15649	0	596
-3.823	-42.986	28480	15795	0	596
-12.622	-49.225	28884	16012	0	596
-23.296	-55.463	29448	16194	0	596
-26.433	-58.168	29448	16280	0	596
-22.431	-56.076	30093	16289	0	596
-17.310	-55.644	30093	16280	0	596
-18.428	-59.106	30093	16267	0	596
-27.335	-65.957	30254	16208	0	596
-35.233	-71.223	29851	16112	0	596
-36.170	-70.429	29851	16022	0	596
-31.374	-65.380	29448	15931	0	596
-25.279	-61.053	29851	15904	0	596
-25.243	-59.430	30254	16076	0	596
-25.784	-57.807	30496	16312	0	596
-27.155	-55.824	30496	16316	0	596
-24.847	-53.877	29690	16035	0	596
-23.585	-52.939	28884	15672	0	596
-23.657	-54.309	27835	15368	0	596
-24.702	-56.690	27271	15173	0	596
-26.650	-59.142	26222	15064	0	596
-27.263	-60.224	25416	14946	0	596
-30.256	-63.397	24206	14769	0	596
-34.764	-66.715	23803	14679	0	596
-40.462	-69.852	23400	14737	0	596
-44.176	-71.872	22593	14860	0	596
-46.232	-72.665	22432	14933	0	596
-44.789	-71.439	21625	14942	0	596
-44.753	-69.924	20980	14955	0	596
-42.157	-67.688	20577	15028	0	596
-42.193	-67.724	20174	15196	0	596
-43.166	-70.285	20174	15395	0	596
-45.438	-74.107	19609	15513	0	596
-49.008	-76.199	19367	15568	0	596
-50.451	-71.836	18964	15618	0	596
-49.766	-64.876	18158	15640	0	596
-47.349	-59.430	17351	15590	0	596
-47.025	-59.286	16787	15522	0	596
-47.999	-64.767	15981	15473	0	596
-49.369	-67.256	15014	15432	0	596
-45.114	-63.505	14207	15404	0	596
-38.406	-53.985	13562	15436	0	596
-28.489	-43.022	13562	15618	0	596
-20.808	-36.242	13562	15894	0	596
-17.382	-34.620	13159	16071	0	596
-16.300	-36.351	12594	16026	0	596
-16.661	-38.334	11546	15872	0	596
-17.995	-39.235	10739	15772	0	596
-19.726	-38.550	10175	15758	0	596
-25.532	-39.380	9530	15777	0	596
-29.535	-40.029	8723	15777	0	596
-30.581	-41.868	8320	15817	0	596
-27.227	-39.308	8320	15972	0	596
-18.283	-34.836	7917	16180	0	596
-9.592	-27.696	7917	16316	0	596
-2.885	-21.204	7514	16362	0	596
-2.560	-19.834	6707	16330	0	596
-4.255	-20.447	6304	16253	0	596
-7.357	-22.791	5497	16180	0	596
-11.143	-26.722	5094	16135	0	596
-14.930	-30.040	4288	16112	0	596
-20.050	-34.692	3723	16044	0	596
-24.630	-35.810	2272	15885	0	596
-28.020	-34.583	1465	15704	0	596
-27.047	-32.059	901	15640	0	596
-25.279	-28.453	94	15690	0	596
-23.260	-28.489	1	15736	0	596
-22.358	-30.400	1	15758	0	596
-23.873	-33.862	1	15786	0	596
-26.109	-36.639	1	15777	0	596
-28.814	-37.144	1	15718	0	596
-29.138	-38.082	1	15640	0	596
-29.391	-37.757	1	15609	0	596
-27.876	-36.170	1	15613	0	596
-24.125	-34.511	1	15563	0	596
-23.585	-31.626	1	15432	0	596
-25.171	-29.823	1	15345	0	596
-28.020	-31.771	1	15341	0	596
-31.807	-36.783	1	15314	0	596
-31.843	-41.255	1	15173	0	596
-29.895	-41.940	1	14992	0	596
-25.532	-39.632	1	14919	0	596
-25.243	-37.577	1	15019	0	596
-26.470	-36.314	1	15250	0	596
-28.705	-36.242	1	15495	0	596
-27.732	-37.505	1	15668	0	596
-27.299	-36.639	1	15772	0	596
-25.676	-35.485	1	15872	0	596
-26.722	-35.016	1	16031	0	596
-25.640	-33.105	1	16230	0	596
-25.243	-32.636	1	16393	0	596
-24.342	-34.620	1	16560	0	596
-28.128	-40.498	1	16801	0	596
-37.432	-48.467	1	17173	0	596
-44.320	-52.614	1	17604	0	596
-45.078	-50.703	1	17953	0	596
-38.550	-44.392	1	18207	0	596
-31.085	-38.731	1	18443	0	596
-28.886	-38.550	1	18720	0	596
-34.223	-40.822	1	19047	0	596
-41.652	-43.455	1	19333	0	596
-43.274	-41.219	1	19528	0	596
-39.957	-36.675	1	19659	0	596
-32.384	-29.246	1	19736	0	596
-26.470	-25.279	1	19823	0	596
-24.270	-27.479	1	20081	0	596
-28.020	-32.131	1	20490	0	596
-32.420	-39.380	1062	20757	0	596
-35.124	-45.005	2514	20712	0	596
-35.701	-46.051	4126	20481	0	596
-35.521	-46.232	5336	20254	0	596
-38.298	-46.304	6949	20113	0	596
-43.383	-48.323	8562	20050	1	620
-50.775	-50.775	10578	20027	0	620
-53.588	-50.198	12352	19959	0	620
-51.641	-47.133	14207	19882	0	620
-47.025	-45.871	16223	19850	0	620
-41.327	-45.727	18158	19823	0	620
-36.314	-43.347	19771	19705	0	620
-31.194	-40.894	21384	19460	0	620
-26.253	-37.180	22835	19133	0	620
-25.640	-35.016	23803	18797	0	620
-27.984	-38.406	24851	18484	0	620
-33.393	-42.481	26061	18158	0	620
-38.226	-45.763	26464	17763	0	620
-38.911	-41.039	27029	17332	0	620
-34.259	-35.413	27432	16946	0	620
-28.056	-28.886	28077	16638	0	620
-20.411	-26.217	28480	16393	0	620
-13.740	-25.712	29448	16198	0	620
-7.825	-25.712	29690	16022	0	620
-4.796	-21.457	30254	15813	0	620
-4.364	-18.139	30496	15572	0	620
-8.114	-13.956	30658	15341	0	620
-16.661	-15.038	30658	15114	0	620
-24.017	-21.854	30254	14869	0	620
-26.614	-28.453	30093	14570	0	620
-25.099	-30.725	28884	14161	0	620
-21.277	-30.797	28077	13762	0	620
-21.168	-32.131	27835	13630	0	620
-28.417	-34.620	27432	13694	0	620
-35.233	-42.265	26867	13639	0	620
-37.901	-43.815	25658	13404	0	620
-34.692	-39.993	24206	13127	0	620
-26.433	-33.141	23238	12941	0	620
-21.349	-25.496	22432	12895	0	620
-18.536	-23.621	21222	12950	0	620
-16.949	-23.765	20416	12973	0	620
-15.759	-25.279	18964	12914	0	620
-15.651	-29.859	17996	12923	0	620
-17.598	-33.898	17351	13090	0	620
-20.664	-37.721	16545	13313	0	620
-22.647	-38.298	15820	13476	0	620
-22.034	-35.665	14610	13553	0	620
-22.358	-32.059	13562	13630	0	620
-24.558	-30.797	12594	13757	0	620
-28.345	-31.987	11949	13903	0	620
-29.427	-32.420	10739	14012	0	620
-27.876	-32.997	9530	14098	0	620
-23.693	-32.203	8965	14234	0	620
-21.745	-33.826	8159	14447	0	620
-26.902	-38.154	7514	14742	0	620
-34.367	-45.150	7514	15069	0	620
-40.678	-49.044	6949	15355	0	620
-43.779	-51.424	6707	15559	0	620
-38.622	-46.448	5739	15631	0	620
-30.905	-42.661	4691	15600	0	620
-26.037	-39.019	3884	15581	0	620
-25.352	-42.553	3078	15622	0	620
-30.112	-48.035	2110	15704	0	620
-34.006	-49.982	1465	15795	0	620
-32.889	-47.458	497	15799	0	620
-24.739	-36.675	1	15767	0	620
-17.670	-25.640	1	15863	0	620
-13.054	-20.483	1	15958	0	620
-15.110	-21.818	1	15908	0	620
-20.050	-26.506	1	15849	0	620
-21.457	-30.905	1	15854	0	620
-21.024	-31.626	1	15881	0	620
-17.382	-28.922	1	15999	0	620
-15.146	-27.371	1	16208	0	620
-12.946	-26.938	1	16366	0	620
-14.461	-29.823	1	16402	0	620
-17.706	-35.305	1	16433	0	620
-23.368	-45.943	1	16551	0	620
-33.033	-54.454	1	16778	0	620
-40.894	-62.892	1	17064	0	620
-45.366	-64.407	1	17309	0	620
-44.032	-57.735	1	17522	0	620
-34.872	-44.717	1	17795	0	620
-23.224	-32.276	1	18126	0	620
-15.507	-24.198	1	18452	0	620
-15.326	-25.099	1	18684	0	620
-24.414	-34.115	1	18684	0	620
-35.990	-42.986	1	18439	0	620
-43.094	-45.294	1	18194	0	620
-44.104	-42.770	1	18071	0	620
-40.245	-36.819	1	17972	0	620
-36.495	-33.862	1	17795	0	620
-35.990	-34.800	1	17459	0	620
-35.088	-36.891	1	17019	0	620
-34.223	-35.593	1	16715	0	620
-31.626	-34.331	1	16710	0	620
-31.013	-34.908	1	16914	0	620
-32.997	-36.387	1	17096	0	620
-35.413	-38.658	1	17123	0	620
-36.351	-39.524	1	17041	0	620
-33.357	-36.423	1	16955	0	620
-28.633	-33.105	1	16919	0	620
-23.224	-31.807	1	16923	0	620
-23.152	-28.922	1	16864	0	620
-24.378	-26.001	1	16678	0	620
-25.784	-22.034	1	16474	0	620
-27.010	-21.962	1	16366	0	620
-26.758	-24.162	1	16339	0	620
-29.210	-31.013	1	16339	0	620
-33.934	-38.731	1	16312	0	620
-38.514	-41.904	1	16226	0	620
-40.065	-41.255	1	15999	0	620
-37.216	-38.658	1	15681	0	620
-32.492	-36.855	1	15486	0	620
-30.689	-35.485	1	15427	0	620
-31.987	-36.928	1	15409	0	620
-34.403	-37.613	1	15436	0	620
-33.646	-36.964	1	15527	0	620
-28.561	-34.908	1	15681	0	620
-23.296	-32.564	1	15885	0	620
-17.959	-27.804	1	16126	0	620
-14.100	-22.539	1	16285	0	620
-11.432	-16.408	1	16248	0	620
-9.845	-10.819	1	16090	0	620
-8.763	-9.737	1	15963	0	620
-12.622	-11.937	1	15899	0	620
-17.057	-17.779	1	15845	0	620
-23.332	-22.791	1	15781	0	620
-25.424	-22.575	1	15731	0	620
-25.027	-20.700	1	15804	0	620
-24.414	-17.129	1	16049	0	620
-25.496	-17.634	1	16353	0	620
-27.407	-20.231	1	16551	0	620
-30.184	-22.972	1	16606	0	620
-29.427	-23.188	1	16579	0	620
-25.604	-20.736	1	16551	0	620
-21.818	-19.185	1	16542	0	620
-20.880	-19.365	1	16479	0	620
-20.339	-18.824	1	16330	0	620
-20.123	-20.700	1	16158	0	620
-19.329	-21.204	1	16071	0	620
-19.437	-22.322	1	16126	0	620
-24.450	-26.217	1	16267	0	620
-32.925	-29.246	1	16357	0	620
-41.471	-32.095	1	16375	0	620
-45.763	-32.167	1	16388	0	620
-41.832	-28.669	1	16461	0	620
-35.377	-26.578	1	16565	0	620
-27.335	-26.001	1	16638	0	620
-24.378	-29.823	1	16701	0	620
-25.820	-35.485	1	16810	0	620
-29.174	-38.767	1	16942	0	620
-32.348	-36.134	1	17150	0	620
-31.302	-31.194	1	17568	0	620
-30.545	-28.345	1	18108	0	620
-29.931	-25.929	1	18525	0	620
-32.312	-27.984	1	18784	0	620
-32.492	-29.102	1	18997	0	620
-30.581	-27.191	1465	19174	0	620
-25.063	-23.296	2917	19319	0	620
-17.454	-16.841	4933	19460	0	620
-10.566	-10.999	6143	19532	0	620
-7.573	-5.662	7514	19451	0	620
-7.248	-4.436	8159	19219	0	620
-10.602	-9.412	8965	18915	0	620
-15.326	-14.317	9772	18638	0	620
-19.546	-16.516	10336	18412	1	644
-19.726	-15.687	10981	18212	0	644
-15.867	-12.081	11949	18076	0	644
-12.405	-10.097	13159	18031	0	644
-12.045	-10.133	14772	18053	0	644
-15.543	-12.946	15820	18053	0	644
-22.070	-12.946	16787	17976	0	644
-25.316	-8.727	17996	17890	0	644
-24.558	-6.960	19206	17872	0	644
-21.781	-8.583	20577	17903	0	644
-23.368	-18.572	22190	17944	0	644
-30.905	-31.122	23400	17917	0	644
-41.111	-40.317	23642	17695	0	644
-45.979	-40.389	24206	17305	0	644
-42.193	-29.174	24851	16973	0	644
-30.184	-17.743	25013	16792	0	644
-19.942	-13.054	25819	16656	0	644
-16.084	-13.740	26061	16511	0	644
-18.933	-18.897	26625	16366	0	644
-23.296	-21.745	27029	16203	0	644
-22.755	-18.031	27432	16017	0	644
-19.870	-12.081	27674	15840	0	644
-16.012	-8.006	27674	15699	0	644
-15.759	-8.979	27835	15577	0	644
-17.562	-9.953	27432	15386	0	644
-18.969	-12.441	27271	15105	0	644
-17.238	-8.871	26625	14874	0	644
-13.307	-5.193	26625	14778	0	644
-12.045	-3.210	26222	14715	0	644
-19.473	-8.475	25658	14547	0	644
-30.689	-19.293	24609	14306	0	644
-40.245	-29.354	24448	14161	0	644
-41.940	-34.115	24045	14161	0	644
-36.314	-31.915	23400	14234	0	644
-30.797	-29.859	23400	14297	0	644
-31.482	-31.302	22835	14343	0	644
-38.658	-37.973	22432	14406	0	644
-45.078	-43.202	22190	14515	0	644
-41.039	-44.284	22190	14669	0	644
-31.230	-37.252	22190	14846	0	644
-21.601	-29.066	21787	14969	0	644
-16.372	-24.594	21384	15051	0	644
-16.552	-23.693	21384	15146	0	644
-20.231	-26.650	21384	15282	0	644
-22.214	-28.417	21384	15432	0	644
-23.188	-29.571	20980	15545	0	644
-23.729	-27.371	20577	15604	0	644
-23.404	-24.450	20416	15654	0	644
-20.231	-20.591	20416	15740	0	644
-17.202	-16.444	20819	15922	0	644
-12.045	-13.235	21222	16257	0	644
-10.927	-11.973	21625	16606	0	644
-12.910	-15.038	21787	16724	0	644
-16.228	-19.870	21384	16565	0	644
-19.870	-24.702	20416	16276	0	644
-23.440	-28.705	19609	16008	0	644
-24.739	-29.246	18561	15822	0	644
-27.191	-29.499	17593	15590	0	644
-32.203	-29.643	15820	15205	0	644
-37.144	-29.787	14610	14792	0	644
-38.550	-30.653	12997	14542	0	644
-33.141	-27.299	11788	14488	0	644
-23.693	-23.945	10981	14547	0	644
-15.435	-21.745	10175	14651	0	644
-13.992	-19.834	9530	14737	0	644
-18.608	-21.890	8723	14819	0	644
-24.414	-22.972	8159	14937	0	644
-24.955	-23.044	7514	15051	0	644
-22.358	-21.709	6707	15137	0	644
-17.887	-19.185	6304	15246	0	644
-15.723	-16.336	5901	15427	0	644
-16.913	-13.235	5901	15677	0	644
-19.257	-12.586	5901	15985	0	644
-21.349	-13.127	6143	16312	0	644
-22.827	-16.589	6546	16574	0	644
-22.467	-18.247	6143	16760	0	644
-23.296	-17.887	6304	16855	0	644
-24.342	-16.769	5901	16901	0	644
-27.696	-17.923	6143	16960	0	644
-30.508	-21.421	5739	17010	0	644
-30.689	-24.955	5901	17041	0	644
-27.335	-24.306	5497	17041	0	644
-20.483	-16.805	5094	16914	0	644
-15.002	-9.448	3723	16597	0	644
-13.127	-6.347	2110	16112	0	644
-14.713	-8.150	255	15609	0	644
-18.067	-12.477	1	15318	0	644
-20.664	-16.048	1	15214	0	644
-19.401	-15.939	1	15128	0	644
-16.985	-15.651	1	15100	0	644
-15.362	-15.218	1	15237	0	644
-17.995	-17.057	1	15486	0	644
-25.279	-17.815	1	15718	0	644
-34.547	-19.329	1	15876	0	644
-42.337	-20.303	1	16085	0	644
-43.166	-20.880	1	16384	0	644
-35.052	-18.788	1	16710	0	644
-22.286	-14.930	1	16996	0	644
-13.018	-12.946	1	17232	0	644
-12.694	-13.091	1	17350	0	644
-22.214	-18.680	1	17164	0	644
-32.239	-25.316	1	16706	0	644
-36.928	-30.905	1	16321	0	644
-34.367	-31.518	1	16071	0	644
-29.931	-32.059	1	15718	0	644
-28.705	-31.807	1	15255	0	644
-29.679	-31.302	1	14960	0	644
-30.977	-30.292	1	14924	0	644
-30.581	-27.479	1	14978	0	644
-29.318	-27.876	1	15069	0	644
-31.266	-30.436	1	15209	0	644
-32.276	-34.620	1	15318	0	644
-32.780	-36.675	1	15382	0	644
-29.643	-33.970	1	15513	0	644
-29.463	-30.364	1	15754	0	644
-31.482	-28.597	1	16031	0	644
-36.567	-31.590	1	16248	0	644
-40.209	-36.711	1	16415	0	644
-41.616	-42.445	1	16633	0	644
-41.543	-44.356	1	16946	0	644
-41.507	-43.527	1	17336	0	644
-42.445	-42.734	1	17704	0	644
-42.481	-38.695	1	17903	0	644
-37.613	-35.774	1	17849	0	644
-30.472	-33.862	1	17645	0	644
-24.991	-31.013	1	17540	0	644
-22.178	-29.246	1	17586	0	644
-22.431	-28.741	1	17663	0	644
-27.083	-29.571	1	17781	0	644
-30.436	-33.321	1	18035	0	644
-33.862	-35.016	1	18416	0	644
-34.475	-34.475	1	18825	0	644
-32.384	-31.662	1	19088	0	644
-31.590	-31.518	1	19070	0	644
-33.141	-34.908	1	18838	0	644
-39.668	-45.474	1	18679	0	644
-47.530	-54.670	1	18661	0	644
-49.369	-56.653	1	18634	1	548
-46.087	-52.903	1	18570	0	548
-40.750	-46.376	1	18525	0	548
-39.704	-44.753	1	18443	0	548
-42.806	-49.657	1	18294	0	548
-49.946	-57.591	1062	18271	0	548
-53.372	-62.171	2675	18489	0	548
-52.470	-60.404	4126	18661	0	548
-51.136	-56.942	4691	18534	0	548
-51.064	-52.506	5497	18207	0	548
-54.165	-54.021	5739	17899	0	548
-60.115	-60.007	6546	17668	0	548
-63.541	-65.525	6707	17450	0	548
-66.390	-71.295	7352	17232	0	548
-64.443	-73.242	7755	17055	0	548
-62.928	-76.524	8159	16933	0	548
-61.882	-78.651	9126	16883	0	548
-61.378	-79.336	9933	16928	0	548
-61.558	-80.346	10981	17019	0	548
-58.565	-75.009	12191	17078	0	548
-54.778	-70.069	13159	17132	0	548
-50.920	-64.984	14368	17196	0	548
-48.395	-63.217	15417	17236	0	548
-45.150	-62.676	16384	17236	0	548
-40.858	-62.676	17351	17246	0	548
-35.990	-65.164	18561	17327	0	548
-33.718	-67.869	20174	17495	0	548
-34.295	-70.754	22190	17772	0	548
-37.000	-73.062	24609	18126	0	548
-37.468	-70.934	26625	18457	0	548
-35.665	-68.301	29045	18716	0	548
-32.636	-65.994	31303	18942	0	548
-31.807	-67.220	32768	19187	0	548
-30.617	-68.554	32768	19419	0	548
-31.302	-67.869	32768	19569	0	548
-29.571	-66.390	32768	19632	0	548
-28.561	-63.325	32768	19605	0	548
-27.876	-63.866	32768	19387	0	548
-30.040	-66.931	32768	18947	0	548
-32.780	-69.383	32768	18325	0	548
-33.213	-72.232	32768	17604	0	548
-34.079	-73.639	32768	16946	0	548
-33.826	-74.071	32768	16424	0	548
-33.898	-74.901	32768	15994	0	548
-34.944	-76.055	32768	15654	0	548
-36.603	-77.101	32768	15463	0	548
-37.036	-78.759	32768	15391	0	548
-37.649	-81.789	32768	15296	0	548
-38.154	-84.457	32768	15132	0	548
-40.750	-86.909	32768	15023	0	548
-41.543	-89.109	32768	15037	0	548
-41.652	-91.165	32768	15146	0	548
-42.481	-94.843	32768	15300	0	548
-41.435	-96.935	32768	15409	0	548
-39.055	-97.079	32768	15445	0	548
-34.511	-91.814	32768	15445	0	548
-28.741	-85.792	32768	15391	0	548
-24.486	-78.579	32768	15309	0	548
-24.450	-79.228	32768	15277	0	548
-30.220	-83.988	32768	15309	0	548
-38.406	-93.148	32768	15345	0	548
-42.878	-99.856	32768	15368	0	548
-43.960	-101.695	32768	15382	0	548
-40.966	-100.577	32768	15359	0	548
-36.495	-97.079	32768	15296	0	548
-32.059	-93.797	32768	15200	0	548
-29.463	-92.030	32768	15087	0	548
-27.263	-91.922	32768	14937	0	548
-26.433	-94.338	32768	14751	0	548
-27.768	-96.213	32768	14547	0	548
-29.931	-99.675	32768	14306	0	548
-33.069	-99.603	32768	13966	0	548
-36.855	-98.558	32768	13608	0	548
-40.858	-100.325	32768	13444	0	548
-45.618	-104.364	32768	13508	0	548
-50.343	-109.592	32768	13603	0	548
-52.434	-113.740	32768	13617	0	548
-52.506	-114.605	32768	13562	0	548
-52.110	-111.756	32768	13512	0	548
-52.110	-109.268	32768	13517	1	316
-53.228	-107.717	32768	13590	0	316
-55.572	-107.789	32768	13694	0	316
-57.807	-109.881	32768	13767	0	316
-60.224	-112.369	32513	13862	0	316
-63.000	-116.300	31867	14048	0	316
-64.118	-117.382	31303	14338	0	316
-65.236	-118.175	30900	14683	0	316
-64.190	-118.572	30254	14978	0	316
-63.830	-118.392	29851	15182	0	316
-64.803	-120.375	29045	15359	0	316
-64.515	-120.050	29045	15595	0	316
-62.207	-117.490	28642	15867	0	316
-57.230	-112.514	28642	16130	0	316
-51.316	-108.186	28480	16375	0	316
-48.612	-105.986	28480	16556	0	316
-49.766	-109.484	27835	16651	0	316
-54.634	-114.497	27674	16669	0	316
-58.709	-119.365	26867	16651	0	316
-62.171	-119.870	26464	16615	0	316
-63.866	-122.070	25416	16583	0	316
-66.390	-124.089	25013	16529	0	316
-67.977	-127.119	24206	16456	0	316
-68.157	-128.237	23400	16397	0	316
-65.380	-127.047	22996	16384	0	316
-61.991	-120.555	22593	16406	0	316
-58.312	-116.228	21625	16402	0	316
-59.863	-116.913	21222	16330	0	316
-63.866	-123.296	20577	16280	0	316
-71.763	-133.213	20174	16330	0	316
-78.723	-142.517	19771	16415	0	316
-82.979	-143.996	19367	16465	0	316
-78.868	-136.495	18964	16447	0	316
-70.032	-122.142	18400	16420	0	316
-56.221	-109.520	18158	16456	0	316
-50.162	-104.111	17996	16570	0	316
-49.982	-108.150	17996	16692	0	316
-56.221	-112.730	17754	16746	0	316
-63.505	-115.795	17593	16751	0	316
-66.174	-114.533	17351	16783	0	316
-66.895	-115.975	17593	16887	0	316
-68.446	-119.582	17593	16996	0	316
-71.763	-126.073	17351	17001	0	316
-72.593	-127.696	16948	16933	0	316
-71.006	-124.811	16787	16887	0	316
-67.688	-121.745	16787	16887	0	316
-68.085	-120.555	16545	16896	0	316
-71.403	-125.352	16384	16851	0	316
-77.930	-130.112	15981	16737	0	316
-78.579	-128.597	15175	16538	0	316
-71.078	-122.286	13804	16203	0	316
-61.738	-113.920	12594	15763	0	316
-58.132	-108.547	11143	15418	0	316
-62.243	-111.179	10336	15246	0	316
-72.160	-116.985	8965	15128	0	316
-81.356	-123.621	7514	14910	0	316
-84.421	-125.063	6143	14656	0	316
-79.120	-123.512	5336	14624	0	316
-72.701	-120.123	5094	14851	0	316
-65.994	-113.776	4691	15141	0	316
-62.351	-109.232	4530	15359	0	316
-58.673	-103.426	3884	15495	0	316
-57.014	-100.685	3723	15622	0	316
-55.716	-100.216	3723	15799	0	316
-58.529	-106.275	3481	16012	0	316
-64.082	-113.415	3481	16208	0	316
-72.521	-122.070	3078	16335	0	316
-79.192	-128.525	3078	16420	0	316
-79.264	-129.859	2917	16547	0	316
-75.694	-125.965	3320	16737	0	316
-71.331	-122.250	3723	16951	0	316
-68.229	-117.959	3481	17073	0	316
-67.147	-119.726	3723	17105	0	316
-65.921	-122.142	3320	17105	0	316
-64.984	-124.125	3481	17119	0	316
-63.866	-127.551	3320	17150	0	316
-65.669	-129.354	3481	17155	0	316
-70.682	-133.033	3078	17119	0	316
-75.009	-135.918	3078	17028	0	316
-79.120	-139.019	2272	16828	0	316
-79.950	-140.317	1304	16524	0	316
-78.904	-137.937	255	16208	0	316
-74.107	-134.800	1	15913	0	316
-66.787	-127.047	1	15609	0	316
-59.322	-121.745	1	15228	0	316
-54.742	-118.860	1	14819	0	316
-56.762	-123.296	1	14551	0	316
-61.991	-130.400	1	14497	0	316
-69.960	-137.757	1	14570	0	316
-77.569	-142.553	1	14638	0	316
-81.284	-145.258	1	14651	0	316
-83.087	-147.422	1	14665	0	316
-79.697	-146.087	1	14701	0	316
-74.468	-143.094	1	14747	0	316
-67.941	-138.190	1	14833	0	316
-63.722	-132.023	1	14960	0	316
-63.794	-128.020	1	15100	0	316
-68.951	-129.138	1	15286	0	316
-75.622	-131.266	1	15559	0	316
-83.448	-137.468	1	15872	0	316
-91.742	-145.402	1	16053	0	316
-97.872	-152.651	1	15963	0	316
-101.803	-154.995	1	15749	0	316
-101.226	-151.857	1	15704	0	316
-96.358	-143.707	1	15849	0	316
-92.283	-136.278	1	16035	0	316
-90.299	-131.662	1	16253	0	316
-91.057	-132.889	1	16524	0	316
-89.867	-130.617	1	16810	0	316
-86.260	-128.958	1	17073	0	316
-82.005	-126.902	1	17359	0	316
-81.644	-129.174	1	17708	0	316
-85.936	-134.043	1	18071	0	316
-88.388	-138.550	1	18339	0	316
-83.339	-134.908	1	18498	0	316
-72.593	-126.578	1	18666	0	316
-63.686	-117.851	1	18906	0	316
-62.784	-115.435	1	19129	0	316
-69.600	-118.644	1	19197	0	316
-71.980	-121.926	1	19169	0	316
-64.623	-116.877	1	19219	0	316
-49.189	-106.203	1	19405	0	316
-34.187	-96.646	1	19682	0	316
-31.915	-95.023	1	19977	0	316
-40.101	-101.947	1	20177	0	316
-49.405	-109.809	1	20208	0	316
-51.100	-111.287	255	19986	0	316
-45.366	-106.924	1304	19609	0	316
-39.055	-103.714	2110	19337	0	316
-39.163	-106.383	3320	19201	1	516
-44.753	-112.838	4530	19101	0	516
-48.395	-118.536	6546	19070	0	516
-46.015	-114.533	8159	19178	0	516
-38.298	-106.924	10578	19378	0	516
-32.239	-99.639	12997	19596	0	516
-31.266	-96.574	15417	19786	0	516
-36.928	-101.082	17754	19932	0	516
-45.150	-109.773	20174	20013	0	516
-52.506	-115.471	22835	20036	0	516
-58.420	-118.752	24851	19963	0	516
-57.880	-115.975	26464	19814	0	516
-53.119	-109.989	28642	19614	0	516
-45.763	-103.029	30093	19374	0	516
-42.337	-100.974	32109	19142	0	516
-42.157	-101.226	32768	19024	0	516
-44.681	-102.344	32768	18924	0	516
-46.664	-101.010	32768	18629	0	516
-43.491	-98.738	32768	18103	0	516
-37.613	-95.060	32768	17504	0	516
-34.403	-94.627	32768	16982	0	516
-33.033	-94.807	32768	16529	0	516
-34.151	-95.132	32768	16017	0	516
-36.062	-95.456	32768	15355	0	516
-37.396	-96.682	32768	14665	0	516
-38.586	-99.351	32768	14170	0	516
-40.930	-105.265	32768	13948	0	516
-44.825	-108.763	32768	13853	0	516
-49.153	-110.206	32768	13767	0	516
-54.418	-112.369	32768	13658	0	516
-58.709	-111.648	32768	13472	0	516
-61.305	-110.999	32768	13095	0	516
-60.404	-110.206	32513	12650	0	516
-56.473	-107.429	31303	12387	0	516
-51.677	-105.409	30093	12315	0	516
-46.304	-104.183	29448	12324	0	516
-43.671	-103.642	28480	12455	0	516
-41.219	-102.308	28480	12700	0	516
-41.183	-98.341	27835	12982	0	516
-41.652	-98.125	27674	13231	0	516
-43.527	-96.754	27029	13453	0	516
-45.835	-98.449	26867	13671	0	516
-45.691	-101.515	26464	13916	0	516
-42.589	-101.731	26464	14170	0	516
-37.757	-102.019	26222	14406	0	516
-35.521	-100.036	25658	14615	0	516
-32.925	-97.476	25416	14765	0	516
-31.951	-94.879	24206	14778	0	516
-29.931	-91.634	23400	14679	0	516
-26.866	-91.525	22190	14561	0	516
-23.837	-92.319	20980	14497	0	516
-24.775	-95.673	20174	14551	0	516
-27.660	-99.459	19367	14683	0	516
-32.997	-105.986	18561	14796	0	516
-37.973	-110.783	18158	14942	0	516
-38.226	-111.612	17996	15196	0	516
-35.774	-110.927	17996	15532	0	516
-31.843	-107.970	17754	15817	0	516
-31.951	-107.789	17593	15972	0	516
-33.826	-111.973	17351	16090	0	516
-39.560	-116.444	17351	16294	0	516
-40.570	-116.841	17593	16597	0	516
-39.380	-116.012	17996	16946	0	516
-38.009	-114.497	18561	17227	0	516
-40.317	-118.031	18964	17432	0	516
-45.582	-124.414	19367	17622	0	516
-50.667	-130.184	20013	17840	0	516
-55.536	-137.144	20819	18067	0	516
-60.512	-143.563	21787	18285	0	516
-61.342	-148.323	22835	18498	0	516
-57.807	-147.710	23642	18670	0	516
-47.999	-139.596	24609	18766	0	516
-34.656	-127.227	25254	18779	0	516
-25.784	-117.202	25819	18716	0	516
-26.433	-112.802	26222	18566	0	516
-32.600	-115.002	26222	18344	0	516
-38.731	-116.228	26464	18085	0	516
-39.524	-116.192	26222	17844	0	516
-36.891	-115.362	26222	17604	0	516
-34.331	-115.867	26061	17332	0	516
-34.367	-120.700	25416	17028	0	516
-35.557	-123.621	24851	16642	0	516
-34.800	-123.440	23803	16230	0	516
-30.400	-118.428	23400	15967	0	516
-25.929	-110.674	22996	15822	0	516
-22.791	-106.419	22029	15586	0	516
-25.712	-109.989	20577	15196	0	516
-30.004	-117.851	19367	14787	0	516
-34.439	-122.972	18158	14488	0	516
-34.908	-122.214	17190	14325	0	516
-33.862	-115.398	16384	14293	0	516
-33.538	-110.891	15578	14334	0	516
-37.973	-110.819	15014	14384	0	516
-42.337	-112.766	14368	14456	0	516
-44.861	-113.668	13965	14620	0	516
-40.389	-108.366	14207	14874	0	516
-32.889	-98.449	13965	15146	0	516
-27.263	-90.552	13965	15382	0	516
-27.155	-85.503	13804	15590	0	516
-31.626	-85.179	13965	15817	0	516
-35.449	-85.359	14368	16067	0	516
-36.351	-86.982	14772	16357	0	516
-35.557	-89.217	15175	16619	0	516
-35.305	-92.066	15014	16715	0	516
-38.803	-96.899	14207	16570	0	516
-43.743	-102.633	13159	16285	0	516
-46.232	-103.642	12594	15972	0	516
-42.120	-97.584	11143	15718	0	516
-34.403	-87.486	10175	15568	0	516
-24.883	-77.786	9126	15454	0	516
-22.899	-74.865	8159	15259	0	516
-26.289	-82.330	6546	15032	0	516
-33.213	-89.975	6143	15005	0	516
-38.514	-94.987	5901	15255	0	516
-37.216	-91.814	6143	15590	0	516
-33.033	-84.854	5901	15845	0	516
-30.004	-78.615	5901	15981	0	516
-27.876	-75.983	5497	16076	0	516
-27.443	-74.324	5336	16185	0	516
-27.083	-70.934	5336	16294	0	516
-26.037	-67.436	5094	16393	0	516
-25.748	-62.387	4933	16470	0	516
-27.227	-60.620	4691	16533	0	516
-27.912	-59.178	4933	16615	0	516
-25.676	-58.637	4691	16756	0	516
-24.414	-57.375	5094	16919	0	516
-25.640	-57.519	4933	17010	0	516
-30.040	-59.683	4691	16951	0	516
-37.144	-62.532	3481	16633	0	516
-41.327	-65.200	2110	16167	0	516
-42.878	-66.174	1062	15840	0	516
-41.219	-65.669	94	15713	0	516
-40.029	-64.010	1	15645	0	516
-38.875	-60.151	1	15604	0	516
-36.855	-55.499	1	15590	0	516
-33.682	-47.349	1	15609	0	516
-31.122	-39.776	1	15663	0	516
-32.348	-37.649	1	15745	0	516
-34.006	-39.199	1	15795	0	516
-37.036	-42.914	1	15740	0	516
-40.894	-47.458	1	15604	0	516
-42.265	-50.054	1	15536	0	516
-44.428	-52.182	1	15622	0	516
-48.756	-56.870	1	15831	0	516
-52.074	-61.702	1	16090	0	516
-55.067	-66.571	1	16330	0	516
-54.382	-68.301	1	16601	0	516
-52.362	-65.272	1	16937	0	516
-48.323	-62.604	1	17246	0	516
-47.241	-61.810	1	17459	0	516
-49.441	-63.072	1	17586	0	516
-53.516	-68.770	1	17677	0	516
-56.942	-74.252	1	17799	0	516
-57.771	-77.389	1	17990	0	516
-59.358	-77.245	1	18207	0	516
-59.538	-77.353	1	18339	0	516
-58.348	-76.235	255	18398	0	516
-56.076	-76.199	1707	18471	0	516
-50.775	-74.829	2675	18607	0	516
-45.763	-71.439	3723	18770	0	516
-41.363	-68.301	5094	18879	0	516
-39.055	-65.705	6143	18965	0	516
-36.928	-65.489	7917	19074	0	516
-35.557	-65.849	9368	19210	0	516
-35.810	-70.249	10739	19333	0	516
-40.101	-76.235	12191	19346	0	516
-44.933	-82.510	12997	19183	0	516
-48.395	-89.290	14207	18933	0	516
-48.539	-90.408	15014	18766	0	516
-44.284	-89.650	16223	18711	0	516
-41.796	-86.946	17593	18693	1	680
-40.606	-84.457	18803	18688	0	680
-42.084	-82.330	20577	18707	0	680
-44.032	-77.786	21625	18666	0	680
-40.894	-72.593	22996	18552	0	680
-33.826	-67.436	24206	18493	0	680
-25.135	-64.912	26222	18552	0	680
-20.014	-66.859	28077	18625	0	680
-19.077	-70.105	29287	18598	0	680
-23.585	-74.793	30254	18430	0	680
-27.660	-77.425	31706	18194	0	680
-27.119	-73.711	32674	17994	0	680
-20.736	-66.751	32768	17835	0	680
-13.848	-62.099	32768	17627	0	680
-10.530	-60.115	32768	17350	0	680
-11.973	-63.433	32768	17096	0	680
-13.956	-67.039	32768	16919	0	680
-13.956	-65.741	32768	16805	0	680
-12.658	-63.830	32768	16692	0	680
-12.658	-61.305	32768	16506	0	680
-14.785	-61.882	32768	16262	0	680
-19.473	-65.885	32768	16026	0	680
-20.736	-65.705	32768	15854	0	680
-18.860	-64.335	32768	15731	0	680
-15.903	-64.299	32768	15541	0	680
-16.733	-64.695	32768	15159	0	680
-19.185	-70.141	32768	14638	0	680
-25.316	-73.242	32768	14130	0	680
-28.525	-73.458	32768	13735	0	680
-29.931	-69.636	32768	13485	0	680
-28.850	-64.659	32768	13358	0	680
-26.217	-61.666	32768	13299	0	680
-23.368	-59.466	32513	13267	0	680
-20.447	-63.649	32109	13304	0	680
-20.627	-64.335	31867	13485	0	680
-23.332	-67.761	31061	13685	0	680
-30.689	-68.626	29851	13562	0	680
-36.278	-70.213	27432	13068	0	680
-39.957	-70.754	25416	12578	0	680
-36.747	-69.600	23238	12351	0	680
-31.518	-68.193	21787	12365	0	680
-29.174	-67.544	20819	12528	0	680
-32.744	-68.013	19609	12750	0	680
-40.101	-72.737	18561	12973	0	680
-48.323	-79.084	17593	13213	0	680
-54.201	-84.674	16787	13485	0	680
-53.660	-85.972	16223	13812	0	680
-47.746	-81.825	15981	14243	0	680
-39.704	-74.035	15981	14715	0	680
-33.898	-66.498	15981	15159	0	680
-31.518	-64.912	15981	15604	0	680
-34.980	-68.951	16384	16058	0	680
-39.488	-73.855	16948	16506	0	680
-41.616	-75.261	17593	16946	0	680
-40.245	-73.242	18158	17354	0	680
-36.387	-68.301	18561	17681	0	680
-33.177	-66.318	19367	17926	0	680
-33.682	-69.564	19771	18112	0	680
-36.459	-74.035	20174	18226	0	680
-39.632	-74.973	20577	18271	0	680
-39.272	-71.980	20577	18253	0	680
-37.108	-67.400	20174	18062	0	680
-33.502	-65.380	19771	17763	0	680
-33.898	-70.321	19771	17604	0	680
-39.524	-78.832	20013	17622	0	680
-46.448	-88.244	20013	17613	0	680
-50.198	-91.021	19771	17504	0	680
-47.313	-86.260	19367	17323	0	680
-38.911	-76.992	19206	17132	0	680
-32.276	-70.249	18561	16951	0	680
-29.030	-68.085	17996	16701	0	680
-32.131	-72.196	17190	16384	0	680
-35.954	-77.678	16384	16130	0	680
-36.351	-80.382	16223	16053	0	680
-32.889	-78.255	16223	16153	0	680
-29.751	-73.999	16545	16380	0	680
-30.400	-75.225	17190	16638	0	680
-38.045	-82.149	17593	16824	0	680
-49.297	-89.542	18158	16955	0	680
-56.581	-96.935	18803	17114	0	680
-59.430	-97.981	19771	17341	0	680
-54.850	-94.663	20416	17540	0	680
-47.818	-93.220	20980	17636	0	680
-42.661	-93.040	21384	17654	0	680
-38.695	-93.148	22029	17663	0	680
-35.882	-91.922	22835	17690	0	680
-31.807	-84.097	23400	17758	0	680
-28.994	-75.334	24448	17890	0	680
-27.371	-69.924	25658	18026	0	680
-26.145	-67.761	26061	18035	0	680
-26.325	-68.410	26625	17913	0	680
-23.044	-68.806	26625	17736	0	680
-20.123	-68.157	27029	17527	0	680
-19.690	-65.705	26867	17305	0	680
-23.332	-65.849	26867	17060	0	680
-28.561	-68.121	26464	16715	0	680
-32.744	-68.734	25658	16321	0	680
-34.151	-68.698	25658	16071	0	680
-31.554	-65.669	25254	15990	0	680
-29.535	-61.305	25254	15908	0	680
-29.968	-58.673	24851	15740	0	680
-33.177	-56.726	24045	15509	0	680
-35.160	-58.781	23400	15291	0	680
-37.000	-60.115	22996	15132	0	680
-35.449	-60.945	22029	15014	0	680
-34.115	-60.692	21625	14914	0	680
-36.783	-61.774	20819	14815	0	680
-42.373	-64.623	20013	14679	0	680
-49.080	-69.347	18964	14533	0	680
-50.884	-70.609	18400	14461	0	680
-48.287	-68.915	17593	14465	0	680
-42.048	-63.541	16787	14461	0	680
-35.485	-59.755	15820	14420	0	680
-33.934	-58.565	14772	14370	0	680
-36.783	-61.991	13562	14297	0	680
-41.111	-64.695	12352	14202	0	680
-43.779	-67.869	11546	14193	0	680
-42.625	-66.715	10739	14316	0	680
-36.387	-62.099	9933	14443	0	680
-26.758	-54.995	8723	14465	0	680
-19.329	-46.989	7755	14411	0	680
-13.343	-42.625	6546	14384	0	680
-14.894	-43.058	5336	14411	0	680
-19.690	-45.835	4530	14497	0	680
-25.027	-49.621	3481	14638	0	680
-28.453	-49.513	3078	14846	0	680
-25.496	-46.484	3320	15209	0	680
-21.457	-41.940	3320	15708	0	680
-19.365	-41.904	3723	16153	0	680
-21.601	-44.068	3320	16384	0	680
-24.558	-47.061	3078	16438	0	680
-26.073	-45.691	2675	16488	0	680
-22.214	-41.868	2675	16633	0	680
-17.346	-35.521	2917	16815	0	680
-15.002	-34.475	2272	16933	0	680
-18.464	-38.514	2272	16951	0	680
-23.404	-45.582	1868	16973	0	680
-29.174	-50.956	2272	17087	0	680
-27.515	-50.739	2514	17264	0	680
-23.044	-46.484	2514	17432	0	680
-17.634	-39.668	2675	17491	0	680
-15.218	-35.269	2514	17441	0	680
-16.480	-33.105	2272	17373	0	680
-19.149	-33.069	2514	17354	0	680
-22.178	-33.574	2272	17368	0	680
-23.873	-32.816	2272	17336	0	680
-31.013	-33.538	2272	17273	0	680
-38.839	-37.721	2110	17232	0	680
-47.494	-45.222	2272	17241	0	680
-51.244	-52.218	2272	17268	0	680
-46.159	-54.778	2917	17286	0	680
-38.658	-53.047	3078	17309	0	680
-32.961	-48.107	3078	17354	0	680
-31.013	-44.717	3723	17404	0	680
-33.213	-43.310	4126	17513	0	680
-36.711	-43.779	5739	17785	0	680
-36.567	-44.681	6949	18180	0	680
-36.062	-43.310	8562	18511	0	680
-34.331	-39.957	9772	18702	0	680
-33.718	-37.649	10981	18802	0	680
-35.701	-37.721	12352	18884	0	680
-38.406	-39.524	13562	18961	0	680
-43.527	-48.323	14368	18902	0	680
-47.674	-53.624	14772	18634	0	680
-50.415	-56.401	15175	18316	0	680
-47.530	-50.920	16223	18194	0	680
-40.534	-43.779	17351	18285	1	664
-31.987	-35.810	18803	18475	0	664
-26.253	-33.069	20577	18666	0	664
-25.820	-35.413	22432	18793	0	664
-30.328	-37.468	24045	18861	0	664
-31.482	-36.206	25254	18884	0	664
-28.669	-31.049	26867	18847	0	664
-22.899	-26.289	28077	18752	0	664
-17.743	-24.234	29448	18634	0	664
-18.211	-29.427	30254	18493	0	664
-20.772	-35.774	31464	18321	0	664
-22.935	-40.065	32674	18167	0	664
-20.375	-41.760	32768	18053	0	664
-18.536	-40.317	32768	17931	0	664
-15.759	-40.930	32768	17767	0	664
-17.202	-45.078	32768	17586	0	664
-21.096	-47.566	32768	17404	0	664
-22.755	-49.441	32768	17232	0	664
-24.125	-47.926	32768	17050	0	664
-22.395	-42.986	32768	16874	0	664
-22.755	-40.966	32768	16687	0	664
-23.008	-40.966	32768	16411	0	664
-24.775	-42.409	32768	16085	0	664
-27.479	-45.294	32768	15922	0	664
-27.660	-48.179	32768	15935	0	664
-29.823	-48.720	32768	15940	0	664
-33.610	-52.182	32768	15826	0	664
-36.783	-55.067	32768	15618	0	664
-41.003	-57.880	32768	15404	0	664
-40.029	-59.502	32768	15273	0	664
-36.387	-55.391	32768	15228	0	664
-32.528	-48.936	32768	15196	0	664
-30.797	-43.274	32768	15159	0	664
-31.446	-38.767	32768	15123	0	664
-33.862	-38.334	32768	15064	0	664
-33.033	-40.065	32768	15014	0	664
-31.302	-41.760	32768	14996	0	664
-27.912	-41.039	32768	14955	0	664
-26.253	-41.039	32768	14865	0	664
-25.099	-43.924	32768	14728	0	664
-26.650	-46.556	32768	14492	0	664
-28.381	-50.847	32768	14184	0	664
-31.807	-55.716	32768	13957	0	664
-39.380	-59.647	32768	13880	0	664
-46.051	-63.325	32768	13848	0	664
-52.578	-67.328	32768	13776	0	664
-52.723	-67.508	32768	13694	0	664
-47.494	-64.551	32768	13662	0	664
-40.426	-57.988	31867	13667	0	664
-36.855	-54.886	30496	13653	0	664
-38.154	-56.798	29045	13599	0	664
-42.193	-59.466	27835	13549	0	664
-41.507	-57.880	26464	13553	0	664
-34.043	-51.461	25416	13635	0	664
-23.945	-40.389	24851	13812	0	664
-18.067	-33.826	23400	14002	0	664
-19.221	-34.223	22835	14152	0	664
-26.506	-40.137	22432	14384	0	664
-28.597	-45.510	21787	14737	0	664
-26.073	-44.717	21384	15082	0	664
-19.690	-43.022	21222	15345	0	664
-16.480	-40.281	20819	15563	0	664
-21.060	-41.255	20819	15790	0	664
-29.318	-45.691	20577	16081	0	664
-35.233	-48.071	20819	16429	0	664
-33.574	-48.972	20980	16746	0	664
-27.155	-44.933	20819	16919	0	664
-18.500	-40.966	20819	17005	0	664
-14.461	-39.776	20819	17123	0	664
-15.723	-40.750	20819	17291	0	664
-19.473	-45.907	21222	17463	0	664
-21.818	-50.307	21384	17586	0	664
-22.431	-51.316	21625	17658	0	664
-19.185	-48.323	21787	17727	0	664
-16.625	-45.150	22029	17799	0	664
-17.887	-44.176	22190	17849	0	664
-26.433	-49.116	22432	17826	0	664
-38.911	-58.889	22190	17740	0	664
-52.975	-66.787	22029	17627	0	664
-59.430	-67.256	22029	17495	0	664
-56.581	-61.666	21787	17350	0	664
-47.277	-57.266	22029	17300	0	664
-40.462	-58.060	22432	17427	0	664
-39.199	-63.794	22996	17581	0	664
-43.960	-71.475	23238	17590	0	664
-46.087	-70.393	22996	17468	0	664
-44.969	-64.154	23238	17341	0	664
-40.570	-59.286	23400	17250	0	664
-38.226	-59.358	23238	17178	0	664
-40.101	-63.577	23642	17109	0	664
-42.157	-68.626	23400	17019	0	664
-41.147	-66.498	23400	16933	0	664
-37.072	-60.728	23642	16892	0	664
-30.833	-52.326	23803	16878	0	664
-24.558	-44.861	24045	16864	0	664
-23.008	-41.363	24045	16824	0	664
-23.549	-40.714	24045	16724	0	664
-25.027	-43.058	23642	16565	0	664
-27.047	-45.871	23400	16415	0	664
-24.666	-44.392	23400	16316	0	664
-20.627	-43.707	23238	16194	0	664
-16.841	-42.193	22432	16026	0	664
-16.805	-42.265	22029	15854	0	664
-21.637	-47.169	21625	15727	0	664
-27.732	-51.749	20980	15640	0	664
-32.492	-53.372	20416	15522	0	664
-33.141	-53.119	19367	15314	0	664
-30.256	-49.982	18400	15046	0	664
-27.443	-46.809	17351	14824	0	664
-27.010	-44.609	16384	14669	0	664
-28.237	-46.592	15175	14551	0	664
-30.364	-46.989	14207	14434	0	664
-29.787	-47.313	12997	14306	0	664
-24.234	-43.455	11143	14093	0	664
-19.690	-41.183	9530	13866	0	664
-21.132	-41.471	8562	13844	0	664
-27.371	-47.277	7917	14007	0	664
-36.351	-53.624	6707	14179	0	664
-40.281	-57.699	6143	14306	0	664
-35.701	-54.345	5094	14402	0	664
-28.561	-47.638	4530	14515	0	664
-23.657	-40.714	3481	14660	0	664
-28.814	-42.193	2514	14751	0	664
-38.298	-47.530	1304	14737	0	664
-48.107	-56.762	94	14710	0	664
-52.759	-62.351	1	14801	0	664
-50.559	-63.577	1	15037	0	664
-43.743	-59.538	1	15400	0	664
-38.262	-55.499	1	15826	0	664
-35.124	-53.011	1	16198	0	664
-35.485	-50.523	1	16479	0	664
-39.019	-50.198	1	16746	0	664
-42.625	-50.307	1	17010	0	664
-44.753	-49.153	1	17146	0	664
-45.366	-48.792	1	17173	0	664
-46.232	-47.133	1	17268	0	664
-45.114	-46.664	1	17427	0	664
-45.078	-44.392	1	17518	0	664
-42.661	-43.996	1	17540	0	664
-41.688	-42.625	1	17545	0	664
-42.589	-44.609	1	17545	0	664
-46.051	-48.323	1	17432	0	664
-50.487	-51.533	1	17178	0	664
-53.155	-52.651	1	16919	0	664
-50.126	-48.503	1	16751	0	664
-43.924	-43.238	1	16678	0	664
-37.793	-38.262	1	16706	0	664
-36.495	-38.406	1	16742	0	664
-38.478	-39.235	1	16728	0	664
-41.327	-39.704	1	16783	0	664
-40.426	-37.937	1	16969	0	664
-35.305	-33.357	1	17182	0	664
-29.823	-30.905	1	17318	0	664
-27.587	-29.427	1	17359	0	664
-30.869	-29.751	1	17377	0	664
-34.043	-31.013	1	17463	0	664
-35.377	-29.282	1	17654	0	664
-32.672	-28.777	255	17931	0	664
-28.345	-28.958	1707	18198	0	664
-25.316	-30.833	3078	18443	0	664
-25.243	-32.131	4530	18711	0	664
-26.722	-30.400	6546	19024	0	664
-29.318	-25.279	8562	19396	0	664
-31.374	-20.736	10981	19795	0	664
-31.049	-20.555	13159	20158	0	664
-29.066	-23.801	15578	20431	0	664
-26.902	-30.869	17996	20621	0	664
-23.440	-34.403	20174	20744	0	664
-24.342	-34.043	22432	20762	0	664
-24.630	-30.004	24448	20689	0	664
-26.938	-26.686	26222	20567	0	664
-28.453	-25.640	28077	20376	0	664
-31.230	-27.371	29690	20163	0	664
-33.393	-30.436	32271	20140	1	692
-35.846	-33.177	32768	20313	0	692
-37.036	-33.718	32768	20385	0	692
-36.423	-36.242	32768	20190	0	692
-36.387	-37.577	32768	19827	0	692
-35.665	-40.101	32768	19464	0	692
-34.872	-39.957	32768	19142	0	692
-32.636	-35.052	32768	18793	0	692
-26.794	-28.741	32768	18380	0	692
-21.890	-23.585	32768	17922	0	692
-17.598	-22.899	32768	17504	0	692
-16.589	-24.558	32768	17155	0	692
-17.995	-28.994	32768	16846	0	692
-18.644	-29.823	32768	16542	0	692
-16.408	-26.866	32768	16212	0	692
-11.323	-22.106	32768	15835	0	692
-6.419	-18.175	32768	15450	0	692
-6.167	-19.654	32768	15087	0	692
-11.287	-26.578	32768	14760	0	692
-20.375	-34.475	32768	14497	0	692
-27.768	-41.219	32768	14302	0	692
-30.400	-42.661	32768	14161	0	692
-30.220	-40.389	32768	14071	0	692
-28.850	-35.990	32768	14016	0	692
-28.814	-33.646	32768	13907	0	692
-29.210	-28.814	32768	13671	0	692
-24.991	-25.063	32768	13335	0	692
-20.159	-22.647	32768	13000	0	692
-17.093	-24.125	32768	12737	0	692
-17.526	-28.453	32768	12605	0	692
-24.342	-32.816	32768	12605	0	692
-30.220	-34.583	32768	12659	0	692
-33.610	-31.302	32768	12632	0	692
-35.377	-28.453	32768	12573	0	692
-34.692	-26.506	32768	12682	0	692
-34.043	-27.984	32768	12991	0	692
-33.285	-30.977	32768	13317	0	692
-28.850	-34.367	32768	13599	0	692
-25.316	-35.088	32768	13844	0	692
-22.467	-35.774	32768	14111	0	692
-24.919	-35.413	32768	14424	0	692
-27.732	-33.898	32768	14760	0	692
-30.905	-31.590	32768	15105	0	692
-32.600	-28.309	32768	15423	0	692
-30.545	-29.066	32768	15695	0	692
-30.256	-30.112	32768	15967	0	692
-31.410	-34.764	32768	16312	0	692
-33.538	-37.613	32768	16665	0	692
-34.944	-37.685	32768	16914	0	692
-33.141	-32.853	32768	17023	0	692
-27.696	-27.696	32768	17087	0	692
-22.539	-24.558	32768	17168	0	692
-19.437	-24.702	32768	17250	0	692
-20.916	-27.840	32768	17250	0	692
-24.378	-31.590	32768	17182	0	692
-27.840	-32.889	32768	17128	0	692
-28.164	-32.961	32768	17078	0	692
-27.840	-33.069	32768	17082	0	692
-29.751	-37.541	32768	17291	0	692
-31.662	-43.599	32768	17613	0	692
-33.970	-48.071	32768	17713	0	692
-31.590	-45.330	32768	17536	0	692
-25.604	-37.505	32768	17314	0	692
-19.221	-28.345	32768	17128	0	692
-15.867	-24.666	32768	16987	0	692
-19.293	-28.922	32768	16901	0	692
-24.450	-35.377	32768	16783	0	692
-29.391	-38.478	32768	16610	0	692
-28.561	-37.252	32768	16515	0	692
-24.919	-33.249	32768	16538	0	692
-20.988	-32.780	32768	16570	0	692
-21.565	-38.082	32768	16560	0	692
-27.047	-45.294	32768	16492	0	692
-32.780	-48.864	32768	16388	0	692
-35.160	-46.664	32768	16316	0	692
-33.177	-40.137	32768	16326	0	692
-29.427	-34.583	32768	16380	0	692
-25.893	-32.636	32768	16371	0	692
-24.558	-33.574	32768	16330	0	692
-25.027	-35.918	32768	16307	0	692
-25.352	-35.341	32768	16312	0	692
-25.640	-34.331	32768	16307	0	692
-25.496	-33.285	32768	16257	0	692
-21.890	-32.312	32768	16162	0	692
-19.041	-31.518	32768	16049	0	692
-17.129	-30.436	32768	15872	0	692
-18.500	-30.545	32768	15604	0	692
-24.053	-29.643	32768	15282	0	692
-26.073	-30.941	31706	14901	0	692
-26.001	-30.256	29690	14465	0	692
-20.916	-29.066	28077	14107	0	692
-14.894	-26.037	26867	13962	0	692
-12.225	-24.739	26464	14120	0	692
-12.946	-23.404	26222	14506	0	692
-14.461	-23.440	26222	14865	0	692
-16.480	-24.847	25416	15032	0	692
-15.867	-23.224	25013	15069	0	692
-13.992	-21.385	24206	15114	0	692
-14.497	-21.204	23642	15214	0	692
-18.103	-23.729	23238	15327	0	692
-24.306	-28.417	22593	15404	0	692
-29.679	-32.672	21787	15432	0	692
-32.636	-34.259	21222	15445	0	692
-32.456	-32.853	20577	15509	0	692
-29.174	-29.968	20416	15649	0	692
-28.669	-33.177	19771	15822	0	692
-29.571	-36.711	19609	15944	0	692
-29.499	-39.524	18803	15990	0	692
-28.381	-38.658	18561	16017	0	692
-26.506	-35.305	18158	16126	0	692
-25.316	-31.951	18158	16330	0	692
-27.984	-31.194	18158	16515	0	692
-30.581	-34.800	18158	16660	0	692
-32.744	-35.882	18400	16815	0	692
-29.354	-31.735	18561	17001	0	692
-22.611	-24.955	18803	17196	0	692
-18.392	-18.752	19206	17382	0	692
-17.743	-16.625	19609	17527	0	692
-20.195	-19.870	19609	17550	0	692
-23.873	-25.063	19206	17386	0	692
-24.739	-28.814	18561	17109	0	692
-25.965	-30.004	17754	16846	0	692
-23.765	-26.938	17190	16633	0	692
-23.621	-24.378	16384	16420	0	692
-21.313	-21.096	15578	16226	0	692
-19.329	-18.175	15175	16126	0	692
-18.356	-17.490	15175	16217	0	692
-19.293	-17.743	15417	16452	0	692
-22.431	-17.274	15578	16665	0	692
-22.683	-16.985	15820	16756	0	692
-22.106	-15.326	15578	16728	0	692
-19.618	-14.677	15417	16678	0	692
-20.916	-16.805	15175	16660	0	692
-25.171	-19.906	15175	16669	0	692
-32.023	-23.260	15578	16687	0	692
-34.331	-22.935	15175	16687	0	692
-30.977	-21.349	15175	16665	0	692
-22.503	-17.887	15175	16687	0	692
-18.103	-17.202	15578	16801	0	692
-16.372	-20.627	15820	16942	0	692
-19.978	-24.198	15820	16978	0	692
-24.811	-28.164	15820	16901	0	692
-26.181	-31.482	15578	16792	0	692
-27.263	-34.115	15417	16697	0	692
-28.777	-35.882	15175	16610	0	692
-31.338	-36.964	14772	16492	0	692
-34.115	-35.665	14368	16335	0	692
-34.908	-33.033	13804	16158	0	692
-35.124	-30.617	13401	16003	0	692
-31.626	-27.010	12755	15890	0	692
-26.506	-23.657	12594	15790	0	692
-20.700	-18.969	11546	15690	0	692
-16.480	-16.048	10578	15545	0	692
-16.408	-14.245	9368	15264	0	692
-21.457	-17.959	8320	14942	0	692
-28.814	-24.017	7755	14892	0	692
-35.413	-29.968	7917	15173	0	692
-37.324	-34.728	8159	15545	0	692
-34.692	-36.891	8320	15894	0	692
-30.400	-36.423	9126	16203	0	692
-25.388	-36.062	9368	16461	0	692
-23.945	-34.475	9933	16724	0	692
-23.801	-31.699	10981	17055	0	692
-26.217	-28.850	11949	17409	0	692
-29.859	-28.417	12997	17708	0	692
-35.088	-28.850	13965	17958	0	692
-40.678	-34.331	15175	18217	0	692
-43.383	-39.344	16787	18534	0	692
-43.743	-39.235	18158	18856	0	692
-39.632	-37.072	19367	19015	0	692
-33.357	-30.256	19771	18893	0	692
-29.138	-24.558	20416	18611	0	692
-26.145	-22.395	21222	18471	0	692
-26.722	-23.476	22432	18543	0	692
-30.653	-25.929	23400	18652	1	696
-35.413	-28.525	24609	18720	0	696
-39.163	-27.912	26222	18784	0	696
-38.658	-26.361	27432	18843	0	696
-35.233	-24.775	29287	18915	0	696
-31.879	-24.594	30900	19074	0	696
-31.085	-25.604	32768	19310	0	696
-32.456	-26.938	32768	19464	0	696
-34.187	-25.424	32768	19401	0	696
-32.312	-22.431	32768	19165	0	696
-27.696	-18.031	32768	18915	0	696
-23.657	-15.290	32768	18711	0	696
-20.916	-12.982	32768	18498	0	696
-22.034	-14.245	32768	18148	0	696
-22.431	-17.202	32768	17654	0	696
-22.395	-19.293	32768	17182	0	696
-19.834	-20.411	32768	16896	0	696
-18.247	-20.483	32768	16774	0	696
-18.788	-20.014	32768	16683	0	696
-21.349	-19.401	32768	16538	0	696
-23.116	-21.313	32768	16375	0	696
-24.414	-22.719	32768	16248	0	696
-21.637	-22.791	32768	16130	0	696
-20.700	-25.243	32768	15963	0	696
-23.116	-26.217	32768	15767	0	696
-28.922	-30.328	32768	15627	0	696
-33.033	-29.607	32768	15604	0	696
-32.780	-26.974	32768	15731	0	696
-28.345	-20.844	32768	15953	0	696
-24.450	-19.582	32768	16180	0	696
-25.965	-22.827	32768	16384	0	696
-34.764	-28.453	32768	16533	0	696
-41.868	-31.590	32768	16633	0	696
-42.120	-30.076	32768	16683	0	696
-32.528	-22.827	32768	16665	0	696
-20.988	-17.166	32768	16597	0	696
-14.605	-18.211	32768	16492	0	696
-17.815	-23.621	32768	16316	0	696
-26.506	-28.669	32768	16117	0	696
-33.357	-32.889	32768	16108	0	696
-34.151	-33.069	32768	16226	0	696
-31.951	-31.626	32768	16153	0	696
-28.092	-29.823	32768	15831	0	696
-28.381	-30.184	32768	15432	0	696
-30.256	-29.138	32768	15114	0	696
-30.256	-27.624	32768	14919	0	696
-31.410	-28.273	32768	14842	0	696
-32.167	-28.525	32768	14815	0	696
-34.259	-32.456	32768	14747	0	696
-35.846	-36.891	32768	14679	0	696
-37.432	-38.118	32768	14728	0	696
-36.242	-37.000	32768	14869	0	696
-35.088	-34.259	32768	14973	0	696
-34.043	-31.158	32768	14978	0	696
-34.800	-30.472	32768	14919	0	696
-35.882	-30.977	32768	14887	0	696
-36.819	-33.934	32768	14928	0	696
-39.163	-37.144	32768	14992	0	696
-39.488	-39.488	32768	14978	0	696
-37.288	-41.580	32768	14919	0	696
-32.312	-38.586	32768	14914	0	696
-26.686	-33.033	32768	15014	0	696
-20.736	-24.883	32768	15178	0	696
-18.500	-18.680	32768	15327	0	696
-15.759	-15.795	32768	15441	0	696
-16.589	-16.228	32768	15536	0	696
-17.526	-20.303	32768	15627	0	696
-24.883	-25.243	32768	15708	0	696
-32.348	-28.705	32768	15777	0	696
-37.793	-28.453	32768	15826	0	696
-37.541	-26.361	32768	15826	0	696
-31.338	-22.467	32768	15704	0	696
-25.784	-22.575	32768	15477	0	696
-21.601	-24.702	32768	15291	0	696
-23.116	-26.830	32768	15191	0	696
-25.063	-29.427	32768	15159	0	696
-26.361	-30.725	32768	15137	0	696
-27.047	-29.282	32768	15069	0	696
-27.732	-31.013	32768	15014	0	696
-32.023	-32.564	32768	15037	1	316
-38.118	-34.043	32768	15164	0	316
-44.897	-34.872	32768	15350	0	316
-46.953	-34.620	32768	15513	0	316
-42.048	-31.771	32768	15686	0	316
-34.728	-29.318	32768	15913	0	316
-28.994	-27.660	32768	16185	0	316
-28.958	-29.895	32768	16438	0	316
-33.429	-30.653	32768	16633	0	316
-36.495	-29.643	32768	16792	0	316
-35.088	-27.227	32768	16964	0	316
-31.626	-25.965	32768	17168	0	316
-30.004	-26.506	32768	17391	0	316
-33.970	-31.122	32768	17599	0	316
-38.875	-33.249	32768	17758	0	316
-43.851	-32.312	32768	17840	0	316
-41.760	-28.561	32768	17885	0	316
-35.341	-24.125	32768	17940	0	316
-28.777	-20.591	32768	17953	0	316
-25.279	-19.365	32768	17894	0	316
-25.893	-17.634	32768	17772	0	316
-30.184	-16.949	32768	17586	0	316
-33.682	-19.870	32768	17332	0	316
-36.711	-24.125	32768	17019	0	316
-37.360	-29.607	32768	16687	0	316
-39.091	-31.735	32768	16362	0	316
-39.885	-29.931	32768	15981	0	316
-40.714	-26.001	32768	15600	0	316
-39.921	-25.207	32768	15395	0	316
-40.786	-28.705	32768	15414	0	316
-42.517	-33.466	32513	15459	0	316
-48.107	-37.649	31867	15382	0	316
-52.001	-37.613	30900	15191	0	316
-52.795	-34.728	29690	15023	0	316
-45.799	-29.643	29287	14951	0	316
-34.547	-25.243	28238	14946	0	316
-23.260	-22.106	27674	14955	0	316
-18.608	-20.700	26625	14937	0	316
-19.690	-21.168	26222	14937	0	316
-24.306	-24.522	25416	15010	0	316
-26.902	-25.388	25416	15191	0	316
-27.443	-27.155	25254	15427	0	316
-24.919	-25.460	24851	15622	0	316
-24.775	-25.063	24851	15758	0	316
-25.099	-23.873	24448	15881	0	316
-25.929	-22.322	24448	16040	0	316
-23.296	-22.575	24609	16244	0	316
-18.716	-21.060	24851	16501	0	316
-13.271	-18.536	25416	16774	0	316
-10.097	-15.903	25416	16946	0	316
-10.783	-11.756	25013	16937	0	316
-14.172	-10.855	24851	16815	0	316
-19.185	-10.242	24448	16665	0	316
-21.998	-12.009	23400	16488	0	316
-23.981	-15.435	22593	16262	0	316
-28.597	-22.755	21384	15972	0	316
-37.252	-32.348	20174	15695	0	316
-46.268	-41.616	19609	15613	0	316
-51.388	-43.671	19609	15736	0	316
-46.917	-38.983	19206	15908	0	316
-36.639	-31.590	18803	15990	0	316
-27.335	-25.748	18400	15976	0	316
-23.801	-28.164	17996	15940	0	316
-27.551	-32.708	17593	15958	0	316
-30.184	-33.646	16948	16026	0	316
-30.436	-29.427	16545	16071	0	316
-30.184	-24.919	16223	16040	0	316
-30.076	-21.565	15820	16022	0	316
-31.987	-20.483	15014	16008	0	316
-33.357	-20.700	13965	15817	0	316
-29.968	-19.329	12594	15473	0	316
-26.001	-16.084	11143	15209	0	316
-21.637	-14.785	10336	15105	0	316
-20.880	-15.543	9368	15110	0	316
-22.611	-17.166	8723	15214	0	316
-25.604	-19.582	8320	15373	0	316
-27.660	-22.178	7755	15509	0	316
-31.446	-24.847	7514	15618	0	316
-37.973	-28.128	6949	15704	0	316
-43.996	-31.230	6304	15781	0	316
-48.215	-33.177	6143	15885	0	316
-47.241	-32.492	5739	16017	0	316
-41.219	-28.958	5497	16144	0	316
-34.006	-26.614	4933	16221	0	316
-32.853	-24.811	4288	16167	0	316
-38.478	-28.561	3320	16040	0	316
-47.241	-35.305	2917	15999	0	316
-53.444	-39.812	2675	16121	0	316
-53.949	-38.190	2917	16371	0	316
-48.143	-33.213	3481	16706	0	316
-41.435	-26.001	3884	17069	0	316
-35.593	-21.962	4933	17404	0	316
-34.259	-22.863	5497	17722	0	316
-36.170	-27.479	6949	18062	0	316
-39.596	-33.826	7917	18416	0	316
-42.301	-36.170	9368	18702	0	316
-42.517	-35.810	10739	18952	0	316
-37.252	-30.797	12352	19269	0	316
-28.886	-23.693	14368	19682	0	316
-21.854	-15.939	16545	20104	0	316
-17.598	-11.973	18803	20426	0	316
-17.815	-10.314	20980	20680	0	316
-21.781	-13.487	23803	20952	0	316
-25.243	-17.129	26625	21261	0	316
-25.063	-19.942	29287	21556	0	316
-21.204	-19.473	32271	21760	0	316
-14.569	-13.704	32768	21769	0	316
-10.855	-9.196	32768	21470	0	316
-11.756	-10.025	32768	20939	0	316
-17.959	-14.713	32768	20476	0	316
-23.801	-21.962	32768	20154	0	316
-29.643	-27.948	32768	19868	1	444
-30.581	-28.994	32768	19550	0	444
-30.689	-25.676	32768	19106	0	444
-29.499	-21.926	32768	18570	0	444
-25.712	-19.401	32768	18076	0	444
-22.322	-17.598	32768	17672	0	444
-19.365	-18.680	32768	17282	0	444
-19.942	-22.791	32768	16805	0	444
-23.008	-27.443	32768	16280	0	444
-29.607	-32.059	32768	15849	0	444
-32.853	-33.754	32768	15595	0	444
-35.557	-33.033	32768	15500	0	444
-36.387	-31.410	32768	15450	0	444
-37.468	-29.895	32768	15364	0	444
-38.262	-31.374	32768	15314	0	444
-38.370	-31.879	32768	15359	0	444
-34.620	-30.545	32768	15445	0	444
-27.479	-27.515	32768	15522	0	444
-21.709	-21.998	32768	15604	0	444
-19.401	-21.890	32768	15722	0	444
-25.568	-25.063	32768	15899	0	444
-34.620	-31.951	32768	16126	0	444
-43.238	-38.226	32768	16362	0	444
-45.943	-40.426	32768	16442	0	444
-41.543	-35.737	32768	16239	0	444
-33.466	-27.515	32768	15831	0	444
-22.755	-17.995	32768	15513	0	444
-15.471	-11.251	32768	15377	0	444
-13.415	-9.376	32768	15291	0	444
-16.877	-8.691	32768	15214	0	444
-23.693	-13.523	32768	15146	0	444
-30.653	-18.283	32768	15019	0	444
-31.951	-23.621	32768	14819	0	444
-30.761	-27.804	32768	14624	0	444
-28.814	-32.095	32768	14520	0	444
-28.381	-32.059	32768	14470	0	444
-30.112	-28.561	32768	14356	0	444
-33.069	-26.794	32768	14179	0	444
-35.882	-24.306	32768	14071	0	444
-38.082	-28.128	32768	14098	0	444
-39.921	-30.689	32768	14238	0	444
-39.560	-33.682	32768	14388	0	444
-37.505	-32.780	32768	14470	0	444
-35.233	-28.633	32768	14538	0	444
-31.554	-23.621	32768	14674	0	444
-23.945	-17.779	32768	14883	0	444
-18.103	-14.641	32768	15137	0	444
-13.451	-12.189	32768	15368	0	444
-17.382	-17.418	32768	15495	0	444
-26.217	-23.837	32768	15463	0	444
-36.062	-32.239	32768	15391	0	444
-39.272	-34.439	32768	15445	0	444
-34.439	-32.059	32768	15590	0	444
-27.660	-26.073	32768	15731	0	444
-25.424	-22.791	32768	15876	0	444
-28.489	-23.404	32768	16058	0	444
-35.810	-26.433	32768	16248	0	444
-40.642	-30.977	32768	16406	0	444
-37.432	-30.148	32768	16542	0	444
-27.083	-21.385	32768	16642	0	444
-14.064	-11.756	32768	16715	0	444
-3.750	-4.327	32768	16787	0	444
-3.678	-5.229	32768	16860	0	444
-12.658	-15.615	32768	16914	0	444
-23.440	-28.237	32768	16933	0	444
-28.705	-32.600	32768	16928	0	444
-26.145	-29.246	32768	16937	0	444
-17.779	-21.421	32768	17032	0	444
-12.261	-15.435	32768	17182	0	444
-13.199	-16.985	32768	17236	0	444
-16.012	-20.267	32768	17119	0	444
-16.408	-19.690	32768	16878	0	444
-11.828	-14.749	32768	16615	0	444
-4.940	-8.547	32768	16415	0	444
-4.796	-7.176	32768	16312	0	444
-12.802	-14.749	32768	16276	0	444
-27.010	-26.902	32768	16230	0	444
-38.226	-35.918	32768	16149	0	444
-40.966	-37.649	32768	16085	0	444
-36.062	-31.266	32768	16090	0	444
-27.227	-23.657	32768	16126	0	444
-24.270	-19.762	32768	16090	0	444
-26.614	-20.808	32768	16003	0	444
-33.682	-26.181	32768	15953	0	444
-39.235	-29.643	32768	16003	0	444
-41.724	-32.239	32768	16126	0	444
-42.157	-36.964	32768	16271	0	444
-43.779	-41.904	32768	16411	0	444
-45.474	-47.097	32768	16506	0	444
-46.304	-49.693	32768	16551	0	444
-44.717	-46.628	32768	16551	0	444
-40.353	-41.435	32768	16479	0	444
-36.567	-37.685	32768	16335	0	444
-35.990	-35.701	32768	16135	0	444
-36.459	-33.321	32768	15926	0	444
-36.531	-31.482	32768	15727	0	444
-33.105	-26.001	32768	15532	0	444
-25.784	-23.260	32768	15355	0	444
-21.096	-22.827	32768	15191	0	444
-18.608	-26.578	32768	14960	0	444
-22.286	-30.977	32768	14651	0	444
-27.984	-33.898	32768	14384	0	444
-31.807	-33.285	32768	14238	0	444
-31.951	-30.761	32768	14198	0	444
-31.374	-26.866	31464	14193	0	444
-30.184	-27.587	30254	14166	0	444
-30.833	-27.119	29287	14161	0	444
-31.230	-28.092	28077	14243	0	444
-30.545	-27.732	27432	14402	0	444
-27.912	-25.207	26625	14597	0	444
-26.686	-25.207	26061	14783	0	444
-24.955	-25.279	25416	14983	0	444
-23.044	-24.450	25013	15223	0	444
-19.113	-21.818	25013	15504	0	444
-16.913	-19.906	24609	15813	0	444
-20.736	-20.844	24609	16076	0	444
-29.823	-26.361	24609	16253	0	444
-39.055	-31.807	24045	16384	0	444
-41.507	-32.708	24045	16533	0	444
-36.891	-27.587	24045	16692	0	444
-28.237	-21.962	23400	16769	0	444
-22.286	-17.995	22593	16651	0	444
-21.241	-17.851	21625	16384	0	444
-23.008	-19.654	20174	16121	0	444
-22.935	-20.375	19206	15922	0	444
-25.207	-24.522	18158	15804	0	444
-30.364	-26.758	17190	15790	0	444
-33.970	-30.689	16787	15845	0	444
-35.593	-27.443	15820	15876	0	444
-33.033	-23.080	15578	15867	0	444
-30.292	-17.851	14610	15863	0	444
-28.164	-13.127	14207	15931	0	444
-27.083	-11.396	13804	16094	0	444
-23.693	-9.665	13562	16271	0	444
-19.293	-8.907	13159	16380	0	444
-18.247	-9.773	12997	16447	0	444
-23.693	-15.435	12755	16524	0	444
-33.790	-23.332	12594	16597	0	444
-39.308	-25.965	12191	16624	0	444
-34.151	-25.027	11546	16606	0	444
-21.601	-18.860	11384	16629	0	444
-12.766	-14.064	11384	16728	0	444
-14.569	-15.182	11546	16896	0	444
-25.099	-20.159	11788	17073	0	444
-33.393	-23.368	11788	17191	0	444
-31.374	-18.572	11949	17268	0	444
-20.231	-8.907	12191	17345	0	444
-9.845	-4.436	12594	17454	0	444
-8.871	-8.835	12997	17586	0	444
-16.444	-19.113	13159	17663	0	444
-23.116	-27.083	13562	17686	0	444
-23.693	-25.929	13965	17708	0	444
-18.933	-18.716	14368	17745	0	444
-16.264	-13.199	14368	17731	0	444
-16.949	-13.163	14207	17577	0	444
-23.765	-20.988	13562	17250	0	444
-32.492	-29.715	12997	16815	0	444
-37.541	-35.052	11384	16357	0	444
-38.118	-36.675	10175	15922	0	444
-34.908	-32.780	9126	15604	0	444
-30.941	-27.551	8562	15468	0	444
-29.354	-24.558	8159	15491	0	444
-30.112	-24.198	7514	15500	0	444
-30.508	-23.549	7110	15423	0	444
-28.705	-22.467	6707	15468	0	444
-24.919	-21.349	7514	15795	0	444
-24.955	-22.863	8320	16280	0	444
-28.453	-28.958	9530	16769	0	444
-33.285	-33.790	10739	17214	0	444
-34.511	-35.160	12191	17654	0	444
-30.905	-31.554	13804	18103	0	444
-23.332	-25.243	15175	18480	0	444
-17.743	-19.690	16787	18743	0	444
-13.992	-18.500	18400	18947	0	444
-13.956	-20.880	20013	19192	0	444
-18.644	-26.145	21787	19505	0	444
-23.909	-30.328	24609	19900	0	444
-28.850	-31.158	27271	20326	0	444
-30.797	-28.525	29851	20698	0	444
-28.669	-24.125	32674	20984	0	444
-27.227	-22.719	32768	21220	0	444
-29.246	-28.345	32768	21424	0	444
-34.439	-33.682	32768	21579	0	444
-38.262	-36.098	32768	21647	0	444
-37.000	-33.249	32768	21624	0	444
-31.446	-25.099	32768	21488	0	444
-26.650	-21.854	32768	21175	0	444
-25.424	-21.962	32768	20762	0	444
-27.768	-28.092	32768	20540	1	752
-30.184	-32.059	32768	20508	0	752
-26.253	-31.374	32768	20358	0	752
-20.880	-27.443	32768	19913	0	752
-16.228	-23.873	32768	19310	0	752
-18.536	-25.243	32768	18716	0	752
-27.768	-34.295	32768	18203	0	752
-41.435	-45.150	32768	17763	0	752
-51.028	-52.903	32768	17309	0	752
-51.136	-53.913	32768	16778	0	752
-43.166	-45.222	32768	16176	0	752
-29.931	-32.853	32768	15536	0	752
-19.654	-24.125	32768	14964	0	752
-15.759	-18.644	32768	14520	0	752
-16.805	-19.077	32768	14152	0	752
-18.716	-18.283	32768	13835	0	752
-17.382	-13.451	32768	13617	0	752
-13.199	-5.770	32768	13558	0	752
-6.094	1.947	32768	13576	0	752
-1.587	6.094	32768	13385	0	752
0.252	5.085	32768	12855	0	752
-1.298	0.757	32768	12274	0	752
-6.780	-6.239	32768	11988	0	752
-9.124	-11.071	32768	11988	0	752
-7.681	-9.448	32768	12088	0	752
0.000	-2.560	32768	12228	0	752
9.881	8.114	32768	12437	0	752
17.598	16.877	32768	12682	0	752
18.211	18.969	32768	12909	0	752
12.405	13.415	32768	13095	0	752
4.255	4.219	32768	13308	0	752
-2.524	-2.236	32768	13553	0	752
-2.560	-3.029	32768	13703	0	752
1.839	1.118	32768	13735	0	752
7.862	6.239	32768	13812	0	752
9.592	8.186	32768	14021	0	752
4.183	3.354	32768	14343	0	752
-3.426	-7.393	32768	14715	0	752
-11.143	-16.300	32768	15046	0	752
-11.900	-20.195	32768	15314	0	752
-7.176	-19.690	32768	15577	0	752
-0.361	-12.225	32768	15881	0	752
2.452	-8.042	32768	16171	0	752
-1.406	-7.934	32768	16388	0	752
-10.025	-16.985	32768	16565	0	752
-21.745	-28.814	32768	16787	0	752
-31.122	-42.265	32768	17073	0	752
-35.701	-48.864	32768	17359	0	752
-34.656	-47.566	32768	17545	0	752
-31.158	-41.255	32768	17636	0	752
-28.958	-34.259	32768	17717	0	752
-29.535	-33.790	32768	17826	0	752
-33.790	-38.334	32768	17953	0	752
-38.045	-45.186	32768	18076	0	752
-38.803	-49.261	32768	18171	0	752
-36.855	-48.539	32768	18189	0	752
-33.682	-43.130	32768	18135	0	752
-32.492	-40.678	32768	18058	0	752
-32.312	-38.009	32768	17949	0	752
-33.177	-39.163	32768	17804	0	752
-32.744	-39.524	32768	17599	0	752
-33.177	-42.193	32768	17255	0	752
-34.944	-42.481	32768	16855	0	752
-38.442	-43.527	32768	16656	0	752
-42.012	-45.258	32768	16687	0	752
-43.671	-44.537	32768	16710	0	752
-41.399	-43.455	32768	16574	0	752
-37.396	-41.075	32768	16307	0	752
-32.889	-39.272	32768	16017	0	752
-32.131	-39.344	32768	15817	0	752
-33.754	-40.065	32768	15718	0	752
-36.747	-41.580	32768	15636	0	752
-38.118	-42.589	32768	15491	0	752
-35.665	-40.570	32768	15309	0	752
-33.393	-40.858	32768	15178	0	752
-31.987	-41.688	32768	15137	0	752
-32.816	-44.320	32768	15141	0	752
-34.295	-44.284	32768	15114	0	752
-32.600	-38.370	32768	15069	0	752
-27.840	-32.239	32768	15060	0	752
-24.414	-26.289	32768	15114	0	752
-23.981	-26.686	32768	15200	0	752
-28.705	-31.266	32768	15255	0	752
-33.105	-37.613	32768	15264	0	752
-35.846	-41.435	32768	15277	0	752
-34.331	-41.363	32768	15314	0	752
-31.915	-39.199	32768	15377	0	752
-29.968	-35.954	32768	15450	0	752
-28.128	-30.617	32768	15432	0	752
-24.198	-24.486	32768	15286	0	752
-20.267	-20.375	32768	15155	0	752
-19.041	-22.070	32768	15082	0	752
-21.854	-28.092	32768	15014	0	752
-27.912	-35.629	32768	14973	0	752
-31.662	-38.154	32768	14960	0	752
-32.744	-37.252	32768	14842	0	752
-32.456	-34.403	32768	14606	0	752
-35.197	-34.511	31706	14411	0	752
-39.163	-38.767	30900	14388	0	752
-42.048	-43.455	29690	14502	0	752
-39.127	-43.202	28642	14633	0	752
-33.141	-38.009	28077	14733	0	752
-27.119	-34.620	27271	14874	0	752
-22.899	-31.266	26464	15064	0	752
-23.224	-30.617	25819	15218	0	752
-24.630	-32.528	24851	15323	0	752
-25.279	-34.403	24206	15423	0	752
-27.876	-36.964	23642	15550	0	752
-30.869	-40.570	22835	15727	0	752
-35.269	-44.140	22835	15976	0	752
-38.947	-46.556	22593	16239	0	752
-41.039	-48.071	22029	16353	0	752
-38.695	-46.953	20416	16189	0	752
-35.737	-46.376	19206	15876	0	752
-33.718	-46.087	18158	15718	0	752
-34.620	-45.943	17351	15763	0	752
-36.170	-46.195	16545	15835	0	752
-35.665	-43.455	15820	15876	0	752
-32.239	-41.363	15014	15908	0	752
-29.138	-39.776	13965	15931	0	752
-29.391	-42.986	13159	15949	0	752
-35.233	-51.713	12755	15972	0	752
-40.858	-58.817	11949	16053	0	752
-43.960	-59.466	11384	16176	0	752
-42.337	-56.437	10739	16226	0	752
-39.596	-51.388	10175	16203	0	752
-41.291	-50.523	9126	16167	0	752
-43.022	-52.939	7514	15990	0	752
-45.618	-55.824	6143	15631	0	752
-43.274	-55.427	4530	15359	0	752
-37.505	-52.290	3723	15327	0	752
-34.944	-50.415	2675	15427	0	752
-35.846	-53.516	2272	15600	0	752
-42.950	-58.709	2110	15826	0	752
-49.693	-64.803	1465	16049	0	752
-53.660	-67.220	1304	16221	0	752
-53.660	-67.111	659	16335	0	752
-50.956	-63.072	1	16335	0	752
-47.386	-60.981	1	16280	0	752
-44.717	-56.798	1	16366	0	752
-41.435	-55.463	1	16570	0	752
-39.993	-54.093	1	16805	0	752
-42.589	-55.283	1	17078	0	752
-44.753	-57.014	255	17436	0	752
-47.025	-58.312	901	17817	0	752
-45.005	-54.526	1868	18112	0	752
-41.507	-50.739	2675	18316	0	752
-40.065	-47.205	3320	18493	0	752
-40.714	-46.628	4288	18675	0	752
-44.392	-47.818	5094	18847	0	752
-44.284	-46.953	6304	19011	0	752
-42.193	-45.150	7514	19178	0	752
-39.668	-41.688	8723	19337	0	752
-39.055	-39.993	9772	19378	0	752
-40.858	-39.019	10739	19351	0	752
-39.344	-37.757	12997	19523	0	752
-35.305	-34.511	15417	19972	0	752
-30.112	-32.528	17754	20444	0	752
-27.876	-34.692	20174	20739	0	752
-29.643	-38.731	22432	20862	0	752
-36.026	-42.589	24609	20934	0	752
-40.894	-44.609	27271	21030	0	752
-40.678	-42.120	29448	21116	0	752
-38.334	-39.524	32109	21098	0	752
-33.862	-37.541	32768	20952	0	752
-30.545	-37.000	32768	20816	0	752
-27.840	-35.665	32768	20776	0	752
-26.794	-33.141	32768	20771	1	668
-24.162	-30.905	32768	20726	0	668
-23.873	-31.158	32768	20589	0	668
-23.332	-30.328	32768	20340	0	668
-22.539	-30.761	32768	20036	0	668
-19.546	-27.407	32768	19773	0	668
-13.848	-22.719	32768	19560	0	668
-10.097	-21.204	32768	19278	0	668
-9.917	-22.755	32768	18902	0	668
-15.579	-28.453	32768	18516	0	668
-22.575	-33.321	32768	18144	0	668
-27.804	-36.134	32768	17799	0	668
-29.535	-34.800	32768	17513	0	668
-28.669	-32.636	32768	17291	0	668
-29.715	-33.357	32768	17010	0	668
-33.213	-35.846	32768	16556	0	668
-36.026	-36.495	32768	15994	0	668
-35.629	-35.846	32768	15473	0	668
-30.905	-31.013	32768	15073	0	668
-23.909	-25.135	32768	14733	0	668
-23.585	-25.460	32768	14343	0	668
-27.515	-28.237	32768	13939	0	668
-34.944	-34.259	32768	13708	0	668
-37.108	-36.098	32768	13658	0	668
-34.908	-33.285	32768	13621	0	668
-29.787	-29.499	32768	13517	0	668
-26.902	-25.640	32768	13358	0	668
-29.354	-27.155	32768	13204	0	668
-34.547	-30.040	32768	13109	0	668
-36.387	-34.475	32768	13090	0	668
-37.108	-34.800	32768	13081	0	668
-33.429	-32.744	32768	12991	0	668
-27.696	-29.391	32768	12841	0	668
-23.008	-22.467	32768	12764	0	668
-19.834	-19.690	32768	12864	0	668
-20.447	-17.959	32768	13090	0	668
-25.171	-21.385	32768	13299	0	668
-28.273	-24.162	32768	13431	0	668
-29.968	-25.207	32768	13535	0	668
-25.460	-21.962	32768	13626	0	668
-19.041	-15.038	32768	13708	0	668
-14.353	-10.927	32768	13848	0	668
-11.107	-8.979	32768	14071	0	668
-13.235	-11.143	32768	14284	0	668
-15.182	-14.677	32768	14397	0	668
-15.867	-15.867	32768	14447	0	668
-15.975	-12.910	32768	14533	0	668
-14.353	-9.556	32768	14701	0	668
-12.333	-4.291	32768	14910	0	668
-12.622	-2.777	32768	15091	0	668
-13.920	-4.760	32768	15214	0	668
-16.408	-9.016	32768	15323	0	668
-17.093	-11.215	32768	15491	0	668
-14.749	-8.691	32768	15736	0	668
-8.511	-3.390	32768	15963	0	668
-5.013	2.524	32768	16112	0	668
-4.616	3.570	32768	16298	0	668
-8.475	0.397	32768	16579	0	668
-13.379	-3.390	32768	16883	0	668
-15.182	-3.246	32768	17096	0	668
-13.776	-0.721	32768	17200	0	668
-10.097	4.977	32768	17246	0	668
-8.150	9.665	32768	17295	0	668
-7.104	13.668	32768	17395	0	668
-6.924	15.831	32768	17518	0	668
-8.258	15.903	32768	17577	0	668
-10.386	13.956	32768	17545	0	668
-12.261	9.665	32768	17491	0	668
-11.720	10.963	32768	17463	0	668
-9.701	14.497	32768	17468	0	668
-3.390	22.214	32768	17441	0	668
3.137	30.833	32768	17354	0	668
7.753	35.088	32768	17246	0	668
8.691	37.829	32768	17168	0	668
5.445	36.639	32768	17182	0	668
0.505	34.367	32768	17341	0	668
-2.164	34.403	32768	17504	0	668
0.036	36.711	32768	17423	0	668
6.491	44.104	32768	17082	0	668
15.795	52.831	32768	16647	0	668
22.863	59.358	32768	16280	0	668
24.847	60.368	32768	16040	0	668
22.395	57.663	32768	15908	0	668
20.952	56.762	32768	15804	0	668
20.123	58.132	32768	15677	0	668
23.909	61.630	32768	15550	0	668
25.424	64.154	32768	15473	0	668
22.611	58.493	32768	15454	0	668
12.153	46.845	32768	15459	0	668
-1.515	31.338	32768	15432	0	668
-14.136	17.526	32768	15382	0	668
-17.706	12.261	32768	15359	0	668
-14.930	16.805	32768	15395	0	668
-5.121	26.830	32768	15468	0	668
2.813	35.485	32768	15500	0	668
5.013	37.144	32768	15509	0	668
0.865	32.492	32768	15581	0	668
-5.517	25.893	32768	15749	0	668
-9.412	21.854	32768	15958	0	668
-11.612	18.860	32768	16108	0	668
-12.586	17.129	32768	16117	0	668
-15.074	13.668	32768	15904	0	668
-17.959	10.674	32768	15536	0	668
-19.510	12.225	32513	15264	0	668
-20.483	11.900	31303	15159	0	668
-21.962	10.314	30658	15132	0	668
-26.542	2.957	29448	15096	0	668
-30.617	-3.570	27835	14960	0	668
-31.590	-7.573	27029	14806	0	668
-28.309	-4.111	26867	14914	0	668
-22.178	1.190	26625	15291	0	668
-19.077	5.662	26625	15627	0	668
-18.752	4.111	26061	15749	0	668
-22.683	-3.570	25658	15767	0	668
-29.246	-12.694	24851	15822	0	668
-36.459	-22.322	24851	15972	0	668
-43.166	-27.984	25013	16189	0	668
-47.422	-29.535	24609	16375	0	668
-44.356	-24.594	24206	16411	0	668
-38.334	-19.834	23642	16321	0	668
-30.725	-16.877	22593	16189	0	668
-28.525	-18.283	22029	16108	0	668
-34.403	-25.929	21384	16076	0	668
-43.310	-34.439	20577	16026	0	668
-49.946	-38.839	20013	15985	0	668
-51.785	-37.901	19609	16044	0	668
-49.044	-33.285	19609	16239	0	668
-45.691	-30.905	20013	16515	0	668
-47.061	-30.617	20416	16796	0	668
-50.270	-35.557	20577	17023	0	668
-53.119	-39.632	20980	17214	0	668
-53.588	-40.786	21384	17404	0	668
-49.910	-36.819	22029	17568	0	668
-46.123	-32.095	22190	17645	0	668
-44.428	-28.164	22432	17645	0	668
-45.438	-30.725	22432	17622	0	668
-48.756	-32.059	22593	17586	0	668
-50.162	-34.475	22835	17527	0	668
-47.854	-32.672	22432	17445	0	668
-43.491	-31.338	22835	17345	0	668
-41.255	-30.040	22432	17205	0	668
-41.147	-32.420	21625	16933	0	668
-44.428	-34.800	20819	16556	0	668
-47.999	-34.187	19771	16226	0	668
-49.441	-31.230	18964	16003	0	668
-45.150	-29.246	18561	15876	0	668
-41.580	-28.633	17996	15781	0	668
-37.541	-29.787	17351	15690	0	668
-34.620	-31.879	16948	15659	0	668
-33.646	-32.744	16787	15727	0	668
-33.213	-28.850	16948	15867	0	668
-33.249	-25.712	16948	16040	0	668
-33.574	-22.539	17351	16230	0	668
-34.620	-22.683	17754	16479	0	668
-35.377	-25.279	18561	16810	0	668
-34.079	-26.109	19771	17205	0	668
-31.230	-24.594	20980	17640	0	668
-25.929	-20.808	22432	18008	0	668
-22.503	-17.274	24045	18289	0	668
-20.988	-15.687	25254	18570	0	668
-21.313	-17.166	27271	18924	0	668
-24.991	-20.411	29045	19310	0	668
-25.856	-21.349	31303	19619	0	668
-24.739	-20.519	32674	19714	0	668
-22.683	-17.995	32768	19623	0	668
-21.529	-14.785	32768	19514	0	668
-21.349	-13.451	32768	19464	0	668
-21.601	-14.966	32768	19410	0	668
-22.286	-16.841	32768	19324	1	672
-21.313	-18.031	32768	19160	0	672
-21.241	-18.788	32768	18938	0	672
-21.781	-18.716	32768	18825	0	672
-22.755	-19.978	32768	18979	0	672
-20.159	-21.168	32768	19319	0	672
-16.264	-20.952	32768	19628	0	672
-12.550	-20.591	32768	19750	0	672
-12.045	-19.077	32768	19696	0	672
-14.497	-17.923	32768	19569	0	672
-21.854	-19.077	32768	19451	0	672
-26.506	-19.798	32768	19328	0	672
-29.246	-21.781	32768	19115	0	672
-29.102	-21.890	32768	18752	0	672
-25.820	-23.152	32768	18339	0	672
-25.352	-23.476	32768	18017	0	672
-22.539	-24.342	32768	17863	0	672
-20.014	-24.666	32768	17804	0	672
-18.788	-24.811	32768	17681	0	672
-20.880	-24.558	32768	17477	0	672
-27.587	-26.650	32768	17295	0	672
-36.855	-27.696	32768	17218	0	672
-42.878	-28.958	32768	17191	0	672
-42.734	-29.391	32768	17155	0	672
-36.026	-28.777	32768	17073	0	672
-29.535	-29.751	32768	16883	0	672
-26.758	-33.213	32768	16551	0	672
-27.299	-33.141	32768	16171	0	672
-27.299	-30.364	32768	15890	0	672
-25.099	-24.594	32768	15740	0	672
-21.385	-18.680	32768	15545	0	672
-16.949	-16.192	32768	15159	0	672
-16.805	-17.166	32768	14647	0	672
-21.673	-22.250	32768	14184	0	672
-26.253	-27.083	32768	13826	0	672
-29.968	-29.535	32768	13503	0	672
-29.354	-29.174	32768	13090	0	672
-25.748	-26.542	32768	12646	0	672
-26.073	-27.696	32768	12405	0	672
-29.354	-31.230	32768	12414	0	672
-34.367	-37.144	32768	12483	0	672
-36.242	-41.760	32768	12519	0	672
-31.699	-37.541	32768	12528	0	672
-26.109	-31.085	32768	12546	0	672
-24.378	-29.282	32768	12632	0	672
-31.662	-32.672	32768	12805	0	672
-40.750	-40.750	32768	13032	0	672
-47.926	-49.153	32768	13249	0	672
-49.297	-52.578	32768	13463	0	672
-43.166	-50.992	32768	13744	0	672
-37.216	-48.035	32768	14120	0	672
-32.744	-45.835	32768	14506	0	672
-32.816	-44.464	32768	14806	0	672
-34.728	-44.320	32768	15037	0	672
-39.055	-46.195	32768	15237	0	672
-41.904	-47.422	32768	15377	0	672
-43.887	-51.569	32768	15436	0	672
-46.628	-54.922	32768	15445	0	672
-46.556	-57.843	32768	15463	0	672
-45.907	-57.230	32768	15459	0	672
-40.353	-54.021	32768	15359	0	672
-34.872	-49.405	32768	15187	0	672
-30.076	-45.474	32768	15087	0	672
-26.001	-44.753	32768	15105	0	672
-25.135	-41.832	32768	15123	0	672
-22.647	-38.550	32768	15028	0	672
-18.211	-32.203	32768	14878	0	672
-14.641	-27.551	32768	14833	0	672
-12.405	-24.594	32768	14937	0	672
-12.802	-27.696	32768	15137	0	672
-19.437	-35.413	32768	15345	0	672
-27.912	-43.924	32768	15418	0	672
-35.233	-52.038	32768	15241	0	672
-39.885	-55.644	32768	14919	0	672
-38.767	-53.949	32768	14783	0	672
-36.387	-50.415	32768	14883	0	672
-36.639	-49.585	32768	15055	0	672
-39.127	-50.920	32768	15246	0	672
-40.353	-52.362	32768	15532	0	672
-38.442	-50.234	32768	15967	0	672
-32.492	-43.202	32768	16483	0	672
-26.361	-39.740	32768	16892	0	672
-25.676	-39.668	32768	17032	0	672
-29.679	-43.707	32768	17001	0	672
-32.816	-47.169	32768	17091	0	672
-33.898	-45.835	32768	17341	0	672
-31.230	-40.389	32768	17572	0	672
-29.715	-35.557	32768	17704	0	672
-28.958	-34.367	32768	17654	0	672
-29.679	-34.980	32768	17404	0	672
-27.984	-33.898	32768	17159	0	672
-22.575	-29.535	32768	17205	0	672
-15.903	-24.991	32768	17559	0	672
-10.855	-20.231	32768	17903	0	672
-9.953	-16.877	32768	17994	0	672
-11.323	-15.182	32768	17917	0	672
-15.867	-16.589	32768	17840	0	672
-21.890	-20.700	32768	17813	0	672
-27.515	-27.840	32768	17799	0	672
-32.564	-35.629	32768	17758	0	672
-33.646	-41.183	32768	17686	0	672
-30.905	-39.055	32768	17645	0	672
-24.847	-32.384	32768	17686	0	672
-19.221	-24.883	32768	17781	0	672
-16.372	-20.952	32768	17835	0	672
-18.752	-23.080	32768	17776	0	672
-23.693	-29.715	32768	17609	0	672
-26.938	-36.062	32768	17404	0	672
-27.119	-38.983	32768	17273	0	672
-23.116	-36.783	32768	17200	0	672
-21.457	-33.790	32768	17082	0	672
-21.421	-33.069	32768	16937	0	672
-23.404	-32.961	32768	16855	0	672
-23.765	-30.328	32768	16887	0	672
-20.303	-23.476	32768	16987	0	672
-15.975	-17.454	32768	17119	0	672
-13.631	-13.848	32768	17259	0	672
-16.012	-16.769	32768	17345	0	672
-17.851	-22.467	32768	17350	0	672
-19.293	-28.525	32768	17318	0	672
-19.473	-29.427	32768	17255	0	672
-17.815	-28.561	32768	17159	0	672
-16.300	-28.056	32768	17005	0	672
-15.615	-27.155	32768	16701	0	672
-13.163	-27.371	32768	16298	0	672
-13.559	-27.984	32768	16044	0	672
-15.218	-31.338	32768	15953	0	672
-19.293	-35.269	32768	15799	0	672
-24.017	-39.668	32768	15513	0	672
-26.109	-42.373	32768	15182	0	672
-27.876	-43.960	32768	14896	0	672
-28.381	-42.589	32768	14733	0	672
-28.958	-40.353	32768	14719	0	672
-29.102	-39.812	32768	14778	0	672
-28.814	-39.921	32768	14792	0	672
-29.751	-41.255	32768	14815	0	672
-30.256	-43.563	32768	14928	0	672
-29.535	-44.573	32768	15082	0	672
-30.905	-47.025	32768	15191	0	672
-33.826	-50.198	32768	15214	0	672
-38.406	-54.634	32674	15200	0	672
-42.157	-57.339	32271	15237	0	672
-41.868	-55.067	32271	15364	0	672
-34.764	-49.585	31867	15536	0	672
-29.895	-45.041	31867	15708	0	672
-29.823	-46.917	32109	15876	0	672
-38.298	-55.247	31867	16035	0	672
-45.041	-60.115	31867	16167	0	672
-45.546	-60.188	31867	16271	0	672
-39.091	-53.552	31867	16307	0	672
-33.105	-46.340	30900	16230	0	672
-32.276	-45.727	30093	15985	0	672
-38.226	-51.064	28642	15622	0	672
-43.887	-56.004	27674	15332	0	672
-42.553	-54.634	26222	15159	0	672
-37.432	-49.549	25416	15055	0	672
-34.187	-45.871	24206	14996	0	672
-35.269	-47.386	23238	14924	0	672
-40.822	-53.228	22190	14837	0	672
-42.950	-55.031	21222	14846	0	672
-40.029	-51.497	20819	15010	0	672
-34.547	-44.320	20819	15305	0	672
-32.239	-39.921	20819	15649	0	672
-36.783	-43.671	21222	15990	0	672
-43.347	-50.667	21625	16366	0	672
-47.313	-55.680	22593	16833	0	672
-45.402	-54.922	24045	17386	0	672
-39.272	-49.621	25658	17944	0	672
-37.036	-48.035	26867	18457	0	672
-39.921	-50.847	28884	18929	0	672
-46.700	-58.096	30658	19383	0	672
-51.316	-60.873	32768	19886	0	672
-50.018	-60.728	32768	20431	0	672
-45.402	-55.391	32768	20916	0	672
-39.127	-50.667	32768	21284	0	672
-33.826	-47.386	32768	21547	0	672
-32.023	-46.520	32768	21651	0	672
-29.931	-45.474	32768	21542	0	672
-30.472	-45.366	32768	21338	0	672
-30.833	-48.864	32768	21197	0	672
-32.564	-51.461	32768	21048	0	672
-31.518	-54.634	32768	20830	1	724
-30.797	-56.726	32768	20603	0	724
-31.302	-59.719	32768	20394	0	724
-33.682	-61.125	32768	20181	0	724
-35.882	-63.181	32768	19968	0	724
-34.872	-60.404	32768	19764	0	724
-31.013	-58.889	32768	19550	0	724
-27.263	-58.204	32768	19324	0	724
-29.210	-62.027	32768	19106	0	724
-34.980	-69.347	32768	18938	0	724
-41.507	-73.134	32768	18752	0	724
-45.186	-74.144	32768	18489	0	724
-46.736	-74.576	32768	18189	0	724
-45.366	-75.081	32768	17894	0	724
-47.999	-80.851	32768	17577	0	724
-50.956	-85.467	32768	17178	0	724
-52.723	-90.083	32768	16706	0	724
-49.838	-86.585	32768	16257	0	724
-41.832	-78.002	32768	15940	0	724
-35.557	-69.708	32768	15795	0	724
-33.574	-65.200	32768	15749	0	724
-37.973	-67.688	32768	15681	0	724
-46.159	-70.682	32768	15522	0	724
-50.343	-71.331	32768	15282	0	724
-46.556	-66.282	32768	15019	0	724
-41.724	-58.384	32768	14806	0	724
-37.036	-54.562	32768	14620	0	724
-32.853	-53.480	32768	14429	0	724
-29.643	-51.100	32768	14266	0	724
-25.965	-47.818	32768	14157	0	724
-24.414	-43.924	32768	14139	0	724
-29.931	-46.195	32768	14238	0	724
-36.855	-52.146	32768	14379	0	724
-42.301	-56.762	32768	14388	0	724
-41.219	-55.968	32768	14166	0	724
-36.351	-51.857	32768	13807	0	724
-32.961	-47.674	32768	13499	0	724
-34.728	-47.854	32768	13286	0	724
-39.019	-51.280	32768	13118	0	724
-41.760	-52.831	32768	12818	0	724
-42.914	-52.506	32768	12251	0	724
-41.075	-50.415	32768	11666	0	724
-38.190	-49.549	32768	11425	0	724
-35.485	-47.530	32768	11502	0	724
-31.699	-42.950	32768	11698	0	724
-27.335	-38.622	32768	11924	0	724
-25.965	-36.242	32768	12206	0	724
-26.289	-37.432	32768	12564	0	724
-29.138	-40.534	32768	13013	0	724
-30.617	-43.455	32768	13490	0	724
-29.787	-42.914	32768	13930	0	724
-24.847	-37.865	32768	14338	0	724
-17.562	-32.348	32768	14792	0	724
-12.225	-28.092	32768	15309	0	724
-12.261	-27.407	32768	15799	0	724
-14.677	-29.138	32768	16162	0	724
-19.510	-31.122	32768	16415	0	724
-22.142	-31.699	32768	16656	0	724
-20.447	-30.941	32768	16901	0	724
-17.995	-27.840	32768	17105	0	724
-16.985	-27.263	32768	17223	0	724
-17.670	-26.614	32768	17273	0	724
-18.536	-25.171	32768	17250	0	724
-16.192	-20.736	32768	17087	0	724
-12.189	-17.310	32768	16901	0	724
-8.402	-13.523	32768	16973	0	724
-9.592	-14.821	32768	17300	0	724
-12.477	-16.805	32768	17550	0	724
-15.146	-17.887	32768	17550	0	724
-13.487	-14.930	32768	17427	0	724
-9.917	-11.864	32768	17327	0	724
-8.763	-11.143	32768	17300	0	724
-13.740	-16.228	32768	17327	0	724
-20.844	-22.214	32768	17345	0	724
-24.739	-24.558	32768	17264	0	724
-21.637	-20.159	32768	17132	0	724
-14.461	-13.018	32768	17055	0	724
-7.970	-7.970	32768	17028	0	724
-7.429	-6.022	32768	16991	0	724
-10.891	-9.556	32768	16928	0	724
-18.103	-13.776	32768	16883	0	724
-24.522	-19.582	32768	16883	0	724
-28.922	-22.611	32768	16955	0	724
-32.420	-26.073	32768	17023	0	724
-34.187	-29.282	32768	16996	0	724
-35.557	-30.617	32768	16901	0	724
-36.819	-33.862	32768	16774	0	724
-37.901	-37.432	32768	16579	0	724
-38.009	-39.488	32768	16330	0	724
-35.774	-41.363	32768	16103	0	724
-34.331	-42.481	32768	15926	0	724
-34.403	-44.176	32768	15781	0	724
-37.108	-46.664	32768	15649	0	724
-40.894	-48.323	32768	15609	0	724
-45.510	-49.225	32768	15813	0	724
-46.520	-47.782	32768	16198	0	724
-46.232	-47.566	32768	16474	0	724
-42.517	-45.871	32768	16542	0	724
-39.849	-47.530	32768	16511	0	724
-37.577	-49.838	32768	16438	0	724
-38.262	-49.153	32768	16362	0	724
-40.173	-50.884	32768	16312	0	724
-43.202	-51.857	32768	16253	0	724
-43.563	-52.614	32768	16103	0	724
-44.428	-53.949	32768	15881	0	724
-42.517	-53.408	32768	15663	0	724
-41.435	-49.621	32768	15491	0	724
-39.019	-44.753	32768	15323	0	724
-38.334	-41.940	32768	15123	0	724
-39.272	-42.084	32768	14969	0	724
-38.658	-41.976	32768	14942	0	724
-37.360	-39.308	32768	15055	0	724
-33.610	-32.889	32768	15218	0	724
-31.374	-25.784	32768	15305	0	724
-31.158	-22.935	32768	15318	0	724
-34.187	-22.863	32768	15332	0	724
-35.629	-27.047	32768	15427	0	724
-35.593	-27.263	32768	15586	0	724
-34.439	-27.227	32768	15745	0	724
-34.331	-27.010	32768	15885	0	724
-36.170	-29.895	32768	16031	0	724
-39.199	-31.987	32768	16185	0	724
-40.822	-34.439	32768	16335	0	724
-43.599	-35.557	32768	16388	0	724
-44.969	-36.747	32768	16271	0	724
-45.041	-36.351	32768	15985	0	724
-41.688	-35.557	32768	15622	0	724
-37.360	-30.184	32271	15282	0	724
-33.754	-26.433	30658	15069	0	724
-32.167	-24.991	29851	15032	0	724
-33.574	-25.316	29045	15137	0	724
-32.384	-23.621	28642	15318	0	724
-27.804	-19.005	28642	15527	0	724
-21.818	-9.484	28238	15804	0	724
-16.408	-1.046	28884	16171	0	724
-14.497	3.787	29287	16547	0	724
-11.504	8.042	29690	16837	0	724
-9.701	12.766	29448	16973	0	724
-6.347	16.733	29851	17037	0	724
-2.488	19.582	29851	17137	0	724
-0.902	21.745	30093	17277	0	724
-0.288	21.060	30254	17368	0	724
2.524	23.873	29851	17332	0	724
8.907	28.814	30093	17255	0	724
18.969	36.531	30093	17255	0	724
27.191	41.832	30254	17345	0	724
32.239	45.005	30658	17454	0	724
30.364	43.563	30900	17518	0	724
27.263	42.265	31061	17527	0	724
25.243	43.887	31303	17463	0	724
28.164	48.503	31061	17368	0	724
34.151	54.418	31464	17332	0	724
38.118	59.286	31706	17364	0	724
39.380	60.981	31867	17409	0	724
38.118	60.476	32271	17427	0	724
35.341	59.358	32513	17354	0	724
31.807	59.322	32109	17164	0	724
29.751	57.014	31464	16892	0	724
29.174	57.483	31303	16638	0	724
29.643	58.637	31061	16542	0	724
32.492	60.260	31464	16633	0	724
33.610	61.882	32674	16855	0	724
33.177	60.801	32768	17236	0	724
30.581	59.827	32768	17763	0	724
28.922	59.034	32768	18325	0	724
29.030	59.502	32768	18797	0	724
30.545	61.486	32768	19138	0	724
27.299	57.988	32768	19392	0	724
22.683	53.480	32768	19578	0	724
17.526	46.989	32768	19682	0	724
16.805	46.809	32768	19664	0	724
24.053	52.038	32768	19541	0	724
33.970	60.079	32768	19446	0	724
39.488	64.082	32768	19464	0	724
36.314	61.197	32768	19591	1	696
25.316	50.234	32768	19741	0	696
12.369	39.488	32768	19827	0	696
4.039	32.167	32768	19755	0	696
5.265	30.040	32768	19396	0	696
9.953	32.203	32768	18843	0	696
15.759	34.367	32768	18384	0	696
17.743	35.413	32768	18080	0	696
14.677	35.305	32768	17844	0	696
10.206	35.954	32768	17649	0	696
8.871	35.593	32768	17450	0	696
8.511	35.233	32768	17241	0	696
8.907	30.653	32768	17060	0	696
8.763	25.099	32768	16928	0	696
6.671	19.473	32768	16833	0	696
4.796	16.805	32768	16706	0	696
3.642	15.651	32768	16520	0	696
4.364	15.146	32768	16330	0	696
4.291	12.766	32768	16230	0	696
4.400	10.710	32768	16262	0	696
1.046	9.665	32768	16321	0	696
-3.462	9.484	32768	16303	0	696
-10.314	8.475	32768	16189	0	696
-13.054	5.878	32768	15894	0	696
-10.566	3.570	32768	15386	0	696
-3.606	3.570	32768	14860	0	696
2.633	3.678	32768	14479	0	696
3.246	5.409	32768	14293	0	696
-0.397	4.940	32768	14252	0	696
-8.943	3.065	32768	14311	0	696
-14.930	-2.488	32768	14438	0	696
-20.123	-9.701	32768	14574	0	696
-24.162	-16.480	32768	14697	0	696
-28.958	-22.106	32768	14860	0	696
-31.662	-23.512	32768	15087	0	696
-36.098	-25.784	32768	15341	0	696
-40.426	-28.345	32768	15477	0	696
-48.503	-36.062	32768	15364	0	696
-52.470	-41.832	32768	15096	0	696
-53.408	-42.986	32768	14914	0	696
-51.352	-42.481	32768	14869	0	696
-46.159	-41.580	32768	14860	0	696
-45.907	-45.618	32768	14865	0	696
-50.811	-50.018	32768	14905	0	696
-55.824	-56.653	32768	14978	0	696
-60.981	-58.709	32768	15114	0	696
-62.568	-59.538	32768	15441	0	696
-59.466	-56.545	32768	15922	0	696
-54.418	-52.542	32768	16335	0	696
-48.359	-47.962	32768	16524	0	696
-45.438	-44.320	32768	16524	0	696
-43.563	-40.930	32768	16461	0	696
-44.032	-38.550	32768	16429	0	696
-40.714	-35.737	32768	16438	0	696
-37.216	-34.043	32768	16442	0	696
-34.439	-36.639	32768	16393	0	696
-34.511	-42.409	32768	16326	0	696
-36.423	-45.222	32768	16276	0	696
-36.278	-46.123	32768	16257	0	696
-34.187	-41.327	32768	16208	0	696
-30.148	-37.360	32768	16062	0	696
-30.364	-36.098	32768	15854	0	696
-33.646	-38.514	32768	15668	0	696
-40.389	-41.904	32768	15572	0	696
-46.412	-46.484	32768	15532	0	696
-51.965	-49.910	32768	15454	0	696
-55.283	-53.264	32768	15364	0	696
-57.339	-56.365	32768	15350	0	696
-56.978	-58.276	32768	15414	0	696
-53.083	-56.545	32768	15522	0	696
-45.258	-52.110	32768	15699	0	696
-37.324	-46.664	32768	15904	0	696
-34.656	-42.120	32768	15990	0	696
-38.190	-44.501	32768	15881	0	696
-43.455	-45.727	32768	15668	0	696
-45.438	-44.537	32768	15482	0	696
-37.360	-37.649	32768	15382	0	696
-25.171	-28.020	32768	15300	0	696
-17.670	-22.178	32768	15150	0	696
-16.913	-22.863	32768	14973	1	316
-24.486	-25.965	32768	14951	0	316
-28.669	-27.624	32768	15128	0	316
-27.696	-24.666	32768	15345	0	316
-23.512	-18.752	32768	15463	0	316
-20.447	-18.139	32768	15468	0	316
-25.856	-23.765	32768	15454	0	316
-32.744	-30.400	32768	15513	0	316
-37.252	-33.826	32768	15613	0	316
-33.898	-29.282	32768	15636	0	316
-25.893	-19.510	32768	15536	0	316
-18.103	-13.884	32768	15395	0	316
-16.048	-14.461	32768	15341	0	316
-17.562	-20.880	32768	15418	0	316
-18.139	-24.630	32768	15568	0	316
-16.300	-25.748	32768	15663	0	316
-13.956	-23.152	32768	15577	0	316
-16.949	-25.099	32768	15223	0	316
-23.152	-28.633	32768	14715	0	316
-28.958	-32.672	32768	14370	0	316
-31.013	-35.918	32768	14320	0	316
-28.705	-37.144	32768	14447	0	316
-25.460	-36.603	32768	14592	0	316
-24.775	-36.639	32768	14651	0	316
-24.702	-35.269	32768	14669	0	316
-24.522	-31.518	32768	14737	0	316
-20.700	-27.984	32768	14851	0	316
-18.644	-24.955	32768	14919	0	316
-18.211	-25.424	32768	14919	0	316
-21.204	-26.650	32768	14905	0	316
-24.450	-28.273	32109	14969	0	316
-26.758	-29.354	31303	15146	0	316
-25.568	-28.273	30900	15404	0	316
-23.657	-25.712	29851	15640	0	316
-22.431	-25.496	29690	15804	0	316
-22.539	-25.027	29045	16035	0	316
-22.827	-26.109	29287	16384	0	316
-20.664	-24.739	29287	16742	0	316
-14.785	-22.214	28884	16946	0	316
-9.809	-18.608	28642	16982	0	316
-9.592	-20.555	27835	16960	0	316
-16.300	-24.414	27674	16982	0	316
-25.279	-31.518	27271	17091	0	316
-32.600	-34.836	27432	17264	0	316
-34.367	-35.413	27271	17404	0	316
-31.374	-33.610	27674	17536	0	316
-30.040	-34.115	27674	17708	0	316
-30.400	-36.134	28480	17913	0	316
-32.672	-38.226	28884	18121	0	316
-32.672	-38.514	29690	18316	0	316
-32.312	-38.695	30254	18484	0	316
-32.131	-38.731	30900	18566	0	316
-33.033	-41.291	31303	18557	0	316
-35.665	-43.851	31303	18457	0	316
-37.793	-45.727	31464	18289	0	316
-36.495	-44.969	31303	18008	0	316
-33.898	-43.960	29690	17491	0	316
-30.869	-41.543	28238	16774	0	316
-30.292	-41.435	26625	16198	0	316
-31.338	-43.022	26464	15999	0	316
-34.944	-45.330	26061	16071	0	316
-35.774	-46.195	26061	16180	0	316
-33.610	-45.005	25819	16185	0	316
-30.256	-41.543	25254	16090	0	316
-28.958	-40.101	24851	15976	0	316
-30.941	-40.750	24206	15908	0	316
-35.882	-45.799	24206	15876	0	316
-40.209	-51.388	23642	15854	0	316
-44.104	-58.060	22996	15795	0	316
-45.727	-62.351	22432	15736	0	316
-48.936	-68.626	22190	15736	0	316
-53.336	-72.160	22190	15817	0	316
-55.463	-75.514	22029	15926	0	316
-54.814	-76.415	21625	15985	0	316
-52.542	-75.694	21384	15981	0	316
-49.657	-72.809	21222	15976	0	316
-50.992	-73.639	20980	16058	0	316
-56.040	-76.740	20980	16226	0	316
-63.000	-80.490	21222	16380	0	316
-65.777	-80.743	21384	16492	0	316
-63.181	-77.497	21787	16633	0	316
-58.204	-69.780	22190	16842	0	316
-52.903	-66.354	22835	17100	0	316
-50.920	-66.246	23803	17345	0	316
-49.333	-65.308	24609	17572	0	316
-47.313	-62.207	25416	17785	0	316
-42.084	-56.113	26625	17981	0	316
-38.190	-49.838	27674	18203	0	316
-36.314	-47.025	29690	18570	0	316
-36.387	-49.766	31464	19020	0	316
-37.180	-51.280	32768	19296	0	316
-36.423	-52.506	32768	19324	0	316
-34.043	-50.631	32768	19233	0	316
-31.951	-48.179	32768	19197	0	316
-31.951	-44.969	32768	19287	0	316
-31.013	-43.779	32768	19455	0	316
-32.203	-43.130	32768	19569	0	316
-31.338	-44.825	32768	19573	0	316
-30.328	-45.186	32768	19614	0	316
-29.535	-45.150	32768	19768	0	316
-27.948	-44.104	32768	19950	0	316
-27.479	-43.996	32768	20077	0	316
-26.470	-42.553	32768	20127	0	316
-29.679	-43.671	32768	20081	0	316
-33.357	-44.861	32768	19909	0	316
-38.911	-47.386	32768	19605	0	316
-43.202	-50.739	32768	19242	0	316
-41.904	-51.533	32768	18911	1	428
-36.314	-48.107	32768	18634	0	428
-28.958	-42.842	32768	18398	0	428
-25.640	-37.072	32768	18221	0	428
-26.470	-35.521	32768	18071	0	428
-30.328	-34.764	32768	17913	0	428
-31.590	-32.203	32768	17722	0	428
-29.066	-27.479	32768	17491	0	428
-24.630	-24.125	32768	17232	0	428
-22.791	-24.234	32768	17010	0	428
-25.748	-29.427	32768	16833	0	428
-27.047	-33.393	32768	16669	0	428
-24.739	-31.482	32768	16479	0	428
-17.779	-23.657	32768	16189	0	428
-10.530	-15.182	32768	15835	0	428
-9.520	-10.458	32768	15568	0	428
-11.792	-10.638	32768	15250	0	428
-14.713	-13.559	32768	14783	0	428
-12.189	-13.307	32768	14347	0	428
-4.400	-8.006	32768	14034	0	428
1.479	-0.252	32768	13826	0	428
0.397	3.570	32768	13739	0	428
-10.855	-2.524	32768	13776	0	428
-26.217	-14.136	32768	13853	0	428
-37.144	-28.056	32768	13930	0	428
-38.695	-32.744	32768	14057	0	428
-30.040	-27.551	32768	14252	0	428
-19.582	-13.559	32768	14483	0	428
-12.838	-3.065	32768	14733	0	428
-11.468	0.397	32768	14933	0	428
-14.894	-1.442	32768	15064	0	428
-17.093	-7.970	32768	15196	0	428
-18.572	-12.189	32768	15373	0	428
-21.241	-14.461	32768	15554	0	428
-24.594	-16.949	32768	15686	0	428
-28.237	-19.257	32768	15767	0	428
-26.542	-18.500	32768	15772	0	428
-21.673	-15.110	32768	15704	0	428
-16.985	-11.360	32768	15604	0	428
-16.192	-12.045	32768	15522	0	428
-20.591	-17.598	32768	15454	0	428
-23.657	-22.034	32768	15391	0	428
-20.159	-22.178	32768	15291	0	428
-10.602	-15.615	32768	15173	0	428
-2.488	-9.304	32768	15060	0	428
-2.560	-9.809	32768	14987	0	428
-12.261	-17.454	32768	14964	0	428
-24.739	-24.306	32768	14942	0	428
-31.626	-24.306	32768	14851	0	428
-27.624	-15.795	32768	14765	0	428
-19.473	-7.357	32768	14742	0	428
-12.802	-1.731	32768	14760	0	428
-9.773	-3.390	32768	14733	0	428
-12.333	-5.878	32768	14669	0	428
-14.136	-4.580	32768	14679	0	428
-16.012	-2.164	32768	14815	0	428
-18.103	-0.361	32768	15055	0	428
-21.385	-3.029	32768	15341	0	428
-22.431	-4.796	32768	15581	0	428
-19.113	-5.914	32768	15758	0	428
-13.235	-0.974	32768	15908	0	428
-9.304	2.056	32768	16094	0	428
-9.520	1.947	32768	16285	0	428
-11.828	0.757	32768	16393	0	428
-12.153	0.469	32768	16442	0	428
-5.842	2.164	32768	16511	0	428
-0.577	5.517	32768	16615	0	428
3.678	6.924	32768	16701	0	428
2.524	8.871	32768	16715	0	428
2.380	9.701	32768	16660	0	428
7.825	16.697	32768	16529	0	428
16.985	23.404	32768	16280	0	428
26.506	26.866	32768	15963	0	428
28.381	28.345	32768	15704	0	428
27.010	28.994	32768	15527	0	428
23.512	30.112	32768	15382	0	428
23.512	31.879	32768	15150	0	428
22.503	31.338	32768	14851	0	428
19.113	22.322	32768	14719	0	428
11.756	12.514	32768	14846	0	428
7.393	6.563	32768	15064	0	428
8.547	10.350	32768	15246	0	428
13.992	19.365	32768	15364	0	428
17.093	27.948	32768	15450	0	428
13.631	30.292	32768	15532	0	428
7.032	27.263	32768	15563	0	428
2.741	23.008	32768	15500	0	428
6.599	22.106	32768	15382	0	428
11.432	21.565	32768	15318	0	428
14.425	21.745	32768	15359	0	428
13.884	19.329	32768	15522	0	428
9.304	18.283	32768	15740	0	428
7.429	17.851	32768	15904	0	428
7.032	18.428	32768	16003	0	428
9.448	18.860	32768	16090	0	428
10.350	17.670	32768	16126	0	428
11.540	15.398	32768	16090	0	428
14.208	13.091	32768	16035	0	428
14.858	10.783	32768	16044	0	428
16.120	10.999	32768	16081	0	428
13.776	7.248	32768	16003	0	428
7.501	3.173	32768	15799	0	428
0.397	-3.895	31867	15613	0	428
-5.481	-9.809	30658	15509	0	428
-7.176	-10.999	29448	15395	0	428
-8.655	-11.071	27674	15182	0	428
-9.232	-9.160	26222	14933	0	428
-13.235	-10.206	24448	14778	0	428
-17.310	-13.415	23400	14787	0	428
-19.257	-16.372	22593	14910	0	428
-20.952	-20.627	21625	15046	0	428
-23.188	-23.260	20174	15069	0	428
-29.535	-28.922	18158	14851	0	428
-35.990	-34.079	15981	14465	0	428
-40.678	-36.206	14207	14211	0	428
-40.678	-37.577	12755	14198	0	428
-39.776	-38.839	11384	14302	0	428
-38.658	-39.272	10175	14479	0	428
-41.255	-41.904	9530	14765	0	428
-44.897	-44.140	9368	15196	0	428
