neuroNicle FX2
D3F25R12
Bluetooth SPP
2023년 11월 16일 목요일
오전 11:03
time interval = 4msec
EEG1	EEG2	PPG	sdPPG	pulse	peak_interval(msec)
-114.461	-105.734	17904	18361	1	856
-113.018	-103.354	17841	17857	0	856
-113.163	-101.659	17778	17114	0	856
-115.723	-105.734	17740	16540	0	856
-120.591	-110.891	17778	16350	0	856
-121.168	-110.566	17803	16234	0	856
-116.048	-105.337	17740	15961	0	856
-110.638	-96.538	17728	15619	0	856
-104.147	-91.958	17715	15398	0	856
-101.046	-91.129	17740	15340	0	856
-102.705	-95.420	17740	15323	0	856
-101.803	-97.981	17728	15230	0	856
-101.695	-96.033	17703	15085	0	856
-101.479	-92.535	17740	15045	0	856
-103.426	-92.860	17778	15201	0	856
-108.222	-93.869	17891	15480	0	856
-113.631	-99.351	17954	15723	0	856
-117.454	-103.895	18042	15886	0	856
-118.788	-103.318	18117	16048	0	856
-117.021	-102.056	18155	16123	0	856
-116.877	-102.164	18167	16042	0	856
-119.077	-106.816	18180	15978	0	856
-121.132	-110.746	18230	16019	0	856
-123.585	-109.737	18293	16123	0	856
-117.382	-103.354	18394	16309	0	856
-111.071	-95.240	18519	16552	0	856
-107.429	-91.489	18607	16807	0	856
-109.304	-96.718	18783	17056	0	856
-115.471	-104.183	18934	17317	0	856
-119.546	-106.852	19097	17602	0	856
-116.805	-103.137	19311	17897	0	856
-110.963	-98.269	19487	18153	0	856
-106.527	-93.437	19662	18286	0	856
-104.508	-90.840	19801	18298	0	856
-103.029	-90.696	19939	18280	0	856
-102.705	-87.739	20090	18286	0	856
-100.541	-88.532	20215	18269	0	856
-102.452	-91.237	20253	18054	0	856
-105.049	-96.682	20190	17532	0	856
-108.799	-100.938	20090	16859	0	856
-107.032	-98.233	20052	16344	0	856
-103.462	-92.391	20027	16048	0	856
-96.971	-87.450	20027	15891	0	856
-93.545	-82.510	20027	15804	0	856
-90.011	-82.871	19989	15688	0	856
-87.450	-85.287	19964	15497	0	856
-90.083	-87.126	19926	15317	0	856
-92.715	-93.292	19914	15219	0	856
-100.397	-97.692	19876	15178	0	856
-108.330	-102.200	19851	15097	0	856
-112.117	-105.265	19750	14888	0	856
-111.828	-104.255	19662	14627	0	856
-107.140	-102.957	19562	14465	0	856
-104.183	-101.551	19524	14453	0	856
-104.364	-101.515	19461	14505	0	856
-107.429	-101.587	19411	14511	0	856
-111.215	-103.534	19273	14424	0	856
-115.002	-106.239	19122	14244	0	856
-118.283	-108.835	18971	14001	0	856
-124.414	-113.920	18808	13786	0	856
-131.735	-121.818	18620	13681	0	856
-138.226	-126.866	18532	13681	0	856
-137.360	-128.453	18431	13838	0	856
-131.338	-125.460	18419	14146	0	856
-122.070	-116.552	18431	14557	0	856
-117.959	-114.281	18456	14969	0	856
-120.159	-116.120	18456	15340	0	856
-127.010	-120.736	18532	15735	0	856
-131.626	-125.748	18607	16205	0	856
-127.119	-120.772	18733	16679	0	856
-119.221	-109.484	18796	17080	0	856
-107.609	-97.404	18896	17312	0	856
-101.082	-88.424	18909	17387	0	856
-97.151	-85.683	18909	17381	0	856
-92.066	-82.041	18934	17387	0	856
-82.510	-78.543	18921	17399	0	856
-76.307	-72.557	18896	17283	0	856
-71.655	-67.761	18733	16882	0	856
-73.603	-68.518	18557	16292	0	856
-77.173	-68.049	18406	15822	0	856
-77.245	-68.049	18243	15567	0	856
-72.809	-63.613	18117	15381	0	856
-67.652	-56.401	17979	15219	0	856
-59.899	-52.542	17853	15091	0	856
-53.949	-46.989	17765	15010	0	856
-45.691	-40.029	17615	14934	0	856
-38.875	-35.954	17476	14830	0	856
-35.665	-33.682	17363	14743	0	856
-35.485	-32.528	17175	14668	0	856
-38.658	-35.305	17024	14505	0	856
-42.697	-36.134	16798	14262	0	856
-44.428	-36.026	16597	14070	0	856
-44.753	-35.485	16409	13983	0	856
-46.484	-37.613	16221	13931	0	856
-49.910	-39.812	16033	13884	0	856
-52.506	-46.015	15857	13890	0	856
-58.168	-51.352	15731	14024	0	856
-60.440	-55.031	15631	14302	0	856
-63.181	-57.339	15593	14691	0	856
-68.301	-60.512	15555	15079	0	856
-73.242	-62.604	15480	15358	0	856
-79.589	-70.213	15379	15485	0	856
-83.087	-77.642	15304	15567	0	856
-87.414	-83.087	15229	15746	0	856
-90.840	-87.811	15178	16002	0	856
-98.485	-91.886	15153	16216	0	856
-105.842	-97.295	15103	16407	0	856
-111.323	-100.252	15116	16633	0	856
-111.396	-101.551	15116	16882	0	856
-108.763	-100.757	15091	17114	0	856
-107.537	-99.712	15128	17312	0	856
-107.032	-99.964	15153	17515	0	856
-111.828	-102.633	15216	17741	0	856
-117.274	-108.511	15279	17996	0	856
-125.640	-113.451	15367	18251	0	856
-129.499	-117.057	15430	18443	0	856
-130.725	-118.644	15530	18576	0	856
-129.427	-119.329	15606	18721	0	856
-126.506	-118.139	15756	18918	0	856
-126.001	-118.392	15869	19104	0	856
-122.106	-115.362	15982	19174	0	856
-118.103	-109.665	16058	19133	0	856
-111.251	-105.085	16121	19029	0	856
-106.671	-102.669	16171	18854	0	856
-107.104	-104.508	16234	18651	0	856
-109.484	-106.491	16284	18512	1	500
-108.727	-105.698	16347	18431	0	500
-108.078	-101.370	16396	18344	0	500
-101.406	-95.709	16446	18211	0	500
-95.997	-90.840	16471	18013	0	500
-89.254	-84.313	16509	17776	0	500
-85.142	-78.976	16484	17526	0	500
-78.687	-71.511	16509	17265	0	500
-70.826	-63.397	16471	16969	0	500
-61.197	-54.237	16421	16656	0	500
-50.126	-45.366	16372	16350	0	500
-35.810	-31.915	16309	16060	0	500
-24.775	-20.411	16221	15764	0	500
-17.418	-10.386	16108	15404	0	500
-8.475	-2.669	15945	15004	0	500
-1.587	5.301	15807	14668	0	500
4.940	13.559	15681	14436	0	500
10.710	22.358	15555	14279	0	500
12.045	27.443	15430	14140	0	500
11.360	28.705	15279	13995	0	500
8.619	26.397	15166	13919	0	500
8.691	25.027	15103	13977	0	500
11.215	27.191	15040	14192	0	500
21.096	36.134	15040	14482	0	500
30.292	43.671	15040	14772	0	500
34.115	47.241	15091	15114	0	500
29.931	40.173	15116	15526	0	500
18.897	28.381	15191	15909	0	500
8.150	17.670	15241	16210	0	500
6.275	16.300	15279	16447	0	500
16.985	25.965	15342	16668	0	500
25.352	37.973	15405	16906	0	500
27.696	41.940	15530	17190	0	500
23.260	35.918	15606	17486	0	500
10.314	24.017	15681	17654	0	500
3.210	14.100	15618	17526	0	500
3.570	14.533	15593	17219	0	500
10.386	21.277	15568	17051	0	500
20.519	35.341	15606	17085	0	500
30.472	44.464	15631	17138	0	500
36.639	47.999	15656	17161	0	500
36.928	46.917	15694	17155	0	500
30.472	39.163	15668	17080	0	500
18.464	26.037	15681	16981	0	500
0.829	14.281	15719	16958	0	500
-15.074	0.144	15744	17016	0	500
-29.715	-11.792	15756	17016	0	500
-39.668	-25.712	15744	16894	0	500
-54.562	-37.468	15719	16703	0	500
-72.340	-58.637	15694	16529	0	500
-101.983	-84.782	15631	16384	0	500
-136.928	-119.113	15606	16257	0	500
-175.875	-155.427	15543	16106	0	500
-214.894	-195.889	15480	15938	0	500
-253.444	-234.511	15417	15793	0	500
-292.247	-272.232	15379	15723	0	500
-331.879	-307.862	15317	15688	0	500
-365.164	-342.986	15279	15596	0	500
-398.521	-374.107	15191	15445	0	500
-432.564	-406.852	15128	15410	0	500
-476.415	-450.415	15166	15561	0	500
-535.810	-508.763	15178	15770	0	500
-590.840	-583.520	15128	15886	0	500
-590.840	-590.840	15128	15880	0	500
-590.840	-590.840	15091	15845	0	500
-590.840	-590.840	15065	15868	0	500
-590.840	-590.840	15040	15932	0	500
-590.840	-590.840	15040	16013	0	500
-590.840	-590.840	15040	16100	0	500
-590.840	-590.840	15053	16199	0	500
-590.840	-590.840	15040	16292	0	500
-590.840	-590.840	15091	16407	0	500
-590.840	-590.840	15116	16563	0	500
-590.840	-590.840	15103	16668	0	500
-590.840	-590.840	15153	16714	0	500
-590.840	-590.840	15178	16790	0	500
-590.840	-590.840	15254	16981	0	500
-590.840	-590.840	15367	17254	0	500
-590.840	-590.840	15430	17433	0	500
-590.840	-590.840	15417	17364	0	500
-484.710	-524.775	15417	17161	0	500
-367.616	-406.563	15442	17109	0	500
-261.233	-299.712	15530	17219	0	500
-178.435	-219.726	15593	17346	0	500
-119.293	-157.230	15694	17462	0	500
-80.851	-115.038	15781	17590	0	500
-64.659	-95.132	15882	17700	0	500
-71.114	-99.026	15982	17799	0	500
-103.534	-131.122	16121	17915	0	500
-155.536	-179.300	16246	18054	0	500
-208.222	-227.551	16347	18129	0	500
-252.001	-263.036	16396	18037	0	500
-281.897	-289.939	16446	17828	0	500
-308.150	-316.012	16446	17602	0	500
-336.242	-346.195	16372	17201	0	500
-360.656	-371.799	16221	16523	0	500
-361.089	-373.783	16045	15822	0	500
-321.601	-332.456	15920	15340	0	500
-244.789	-251.713	15819	15108	0	500
-149.441	-155.716	15819	15091	0	500
-69.816	-71.872	15819	15265	0	500
-17.743	-19.185	15882	15543	0	500
4.075	2.524	15995	15822	0	500
13.920	13.956	16108	16158	0	500
34.006	36.026	16259	16604	0	500
70.934	73.783	16471	17097	0	500
119.401	123.909	16660	17549	0	500
173.819	177.786	16848	17915	0	500
222.683	226.470	17074	18222	0	500
260.837	266.823	17288	18541	0	500
293.473	301.442	17539	18878	0	500
321.277	332.672	17765	19168	0	500
352.326	363.469	18017	19371	0	500
393.761	402.633	18268	19556	0	500
442.986	450.956	18544	19765	0	500
492.932	501.334	18846	20038	0	500
524.270	535.160	19185	20339	0	500
521.709	537.324	19499	20577	0	500
486.946	507.717	19813	20693	0	500
434.403	459.611	20102	20687	0	500
384.602	415.038	20366	20600	0	500
350.451	382.762	20592	20421	0	500
332.600	364.407	20793	20107	0	500
326.542	357.988	20931	19690	1	492
327.587	357.303	21057	19220	0	492
346.736	374.648	21132	18692	0	492
384.926	412.297	21170	18118	0	492
446.592	475.189	21233	17532	0	492
527.948	555.716	21245	16998	0	492
590.804	590.804	21245	16529	0	492
590.804	590.804	21283	16112	0	492
590.804	590.804	21245	15694	0	492
590.804	590.804	21220	15277	0	492
590.804	590.804	21157	14865	0	492
590.804	590.804	21095	14447	0	492
590.804	590.804	20981	14035	0	492
590.804	590.804	20868	13652	0	492
590.804	590.804	20743	13328	0	492
590.804	590.804	20667	13072	0	492
590.804	590.804	20529	12864	0	492
590.804	590.804	20341	12614	0	492
590.804	590.804	20177	12336	0	492
590.804	590.804	20002	12179	0	492
590.804	590.804	19901	12197	0	492
590.804	590.804	19788	12330	0	492
590.804	590.804	19688	12475	0	492
590.804	590.804	19587	12579	0	492
590.804	590.804	19461	12719	0	492
590.804	590.804	19373	12939	0	492
590.804	590.804	19311	13217	0	492
590.804	590.804	19235	13490	0	492
590.804	590.804	19160	13710	0	492
509.268	535.629	19085	13855	0	492
423.044	448.828	18959	13972	0	492
344.717	373.206	18871	14128	0	492
270.032	302.885	18808	14360	0	492
201.587	235.485	18733	14615	0	492
138.622	172.521	18720	14888	0	492
82.005	117.238	18708	15213	0	492
32.023	67.111	18733	15630	0	492
-13.523	19.546	18783	16071	0	492
-64.010	-31.554	18770	16355	0	492
-121.096	-92.968	18682	16367	0	492
-177.497	-155.896	18595	16234	0	492
-232.131	-215.435	18582	16245	0	492
-279.769	-262.495	18557	16447	0	492
-318.969	-303.318	18557	16662	0	492
-359.611	-343.310	18557	16842	0	492
-399.892	-385.179	18595	17010	0	492
-441.471	-428.237	18595	17120	0	492
-478.002	-463.830	18582	17167	0	492
-504.724	-489.686	18544	17184	0	492
-525.893	-507.465	18557	17196	0	492
-545.835	-526.830	18519	17138	0	492
-571.331	-553.732	18419	16923	0	492
-590.840	-589.326	18306	16633	0	492
-590.840	-590.840	18180	16367	0	492
-590.840	-590.840	17979	15967	0	492
-590.840	-590.840	17740	15427	0	492
-590.840	-590.840	17539	15021	0	492
-590.840	-590.840	17401	14836	0	492
-590.840	-590.840	17263	14789	0	492
-590.840	-590.840	17175	14865	0	492
-590.840	-590.840	17112	15045	0	492
-590.840	-590.840	17037	15224	0	492
-590.840	-590.840	16974	15352	0	492
-590.840	-590.840	16949	15480	0	492
-590.840	-590.840	16899	15677	0	492
-590.840	-590.840	16899	15932	0	492
-590.840	-590.840	16911	16176	0	492
-590.840	-571.006	16886	16361	0	492
-555.463	-531.951	16911	16534	0	492
-525.027	-500.577	16949	16778	0	492
-506.167	-476.668	16974	17062	0	492
-493.653	-460.837	17037	17259	0	492
-484.241	-449.044	17037	17317	0	492
-479.661	-439.921	17037	17346	0	492
-474.504	-432.528	17100	17451	0	492
-474.252	-430.581	17150	17631	0	492
-468.013	-425.712	17238	17816	0	492
-460.043	-416.913	17275	17932	0	492
-445.222	-404.219	17351	17967	0	492
-429.715	-386.513	17351	17938	0	492
-413.199	-371.295	17363	17816	0	492
-396.935	-355.427	17338	17625	0	492
-380.563	-343.960	17301	17381	0	492
-368.987	-338.082	17162	16981	0	492
-364.912	-333.610	17012	16424	0	492
-365.092	-336.783	16886	16007	0	492
-367.544	-335.629	16773	15816	0	492
-366.715	-333.574	16698	15688	0	492
-355.860	-323.296	16610	15555	0	492
-340.966	-310.097	16522	15439	0	492
-317.743	-287.450	16446	15369	0	492
-291.021	-261.702	16372	15317	0	492
-263.686	-233.033	16297	15288	0	492
-238.009	-207.537	16234	15288	0	492
-218.103	-186.477	16133	15265	0	492
-199.820	-170.069	16008	15120	0	492
-181.140	-154.237	15819	14853	0	492
-160.656	-134.295	15681	14650	0	492
-137.829	-114.389	15593	14604	0	492
-113.992	-93.184	15442	14656	0	492
-92.283	-69.455	15367	14731	0	492
-68.590	-46.953	15304	14859	0	492
-45.943	-20.772	15279	15074	0	492
-24.450	-2.308	15279	15381	0	492
-10.314	11.468	15254	15706	0	492
3.642	21.601	15279	15949	0	492
14.894	30.076	15254	16112	0	492
26.109	42.914	15254	16326	0	492
41.075	58.781	15304	16598	0	492
52.434	71.006	15354	16859	0	492
59.538	78.615	15379	17039	0	492
67.905	86.405	15379	17132	0	492
76.596	92.679	15379	17184	0	492
88.604	106.058	15430	17271	0	492
103.065	123.116	15467	17404	0	492
123.693	143.707	15493	17515	0	492
140.930	162.207	15505	17538	0	492
156.401	177.858	15530	17497	0	492
168.265	186.765	15505	17416	0	492
171.980	191.273	15543	17393	0	492
169.492	188.893	15568	17457	0	492
166.354	186.188	15606	17491	0	492
165.164	183.051	15618	17428	0	492
166.751	181.500	15618	17323	0	492
169.311	184.349	15668	17283	0	492
174.576	189.650	15668	17294	0	492
178.976	196.682	15719	17300	0	492
183.628	202.524	15744	17306	0	492
184.241	203.390	15781	17300	0	492
182.546	197.872	15807	17248	0	492
170.970	184.097	15807	17155	0	492
150.487	166.246	15794	17010	0	492
131.807	146.015	15756	16807	0	492
107.898	122.395	15668	16523	0	492
80.166	94.915	15555	16152	0	492
46.268	59.683	15442	15770	0	492
6.780	21.781	15317	15462	0	492
-31.446	-12.586	15191	15219	0	492
-60.007	-38.190	15053	14992	0	492
-75.911	-53.768	14877	14697	0	492
-86.693	-62.676	14714	14360	0	492
-95.853	-74.107	14550	14146	0	492
-106.419	-84.998	14412	14070	0	492
-110.061	-93.761	14274	14030	0	492
-104.580	-90.948	14098	13954	0	492
-89.722	-76.596	13960	13850	0	492
-64.695	-52.903	13771	13803	0	492
-39.596	-22.431	13671	13873	0	492
-14.281	3.967	13545	14047	0	492
12.153	32.492	13482	14250	0	492
43.671	61.342	13369	14401	0	492
82.871	100.144	13231	14499	0	492
127.876	143.058	13143	14563	0	492
173.855	189.217	13018	14644	0	492
210.855	226.578	12905	14766	0	492
236.351	252.110	12804	14888	0	492
250.667	264.299	12716	15027	0	492
259.899	272.521	12616	15201	0	492
265.669	275.694	12515	15323	0	492
261.738	276.307	12415	15335	0	492
254.093	266.571	12239	15277	0	492
238.983	250.487	12075	15184	0	492
221.601	232.744	11950	15114	0	492
206.888	217.382	11837	15213	0	492
191.598	206.058	11787	15474	0	492
176.199	195.132	11736	15752	0	492
158.493	177.894	11673	15990	0	492
142.048	156.581	11648	16193	0	492
127.912	140.029	11611	16361	0	492
115.471	127.696	11598	16598	0	492
105.662	120.375	11711	17004	0	492
95.096	113.884	11787	17503	0	492
83.484	102.813	11925	17967	0	492
71.042	88.424	12050	18385	0	492
61.305	77.209	12214	18773	0	492
53.372	70.537	12339	19104	0	492
47.530	66.751	12515	19371	0	492
43.166	63.469	12653	19591	0	492
36.387	57.303	12842	19771	0	492
33.682	51.929	12980	19904	0	492
33.466	51.280	13143	19974	0	492
35.016	51.677	13307	20032	0	492
37.144	56.906	13470	20096	0	492
36.459	58.961	13621	20061	0	492
36.134	60.512	13771	19933	0	492
41.039	64.623	14023	19980	0	492
51.533	73.819	14274	20270	0	492
64.840	84.674	14588	20571	0	492
74.757	92.463	14839	20693	0	492
78.435	95.997	15065	20635	0	492
76.235	94.266	15279	20513	1	760
74.576	91.634	15505	20392	0	760
76.127	94.879	15731	20281	0	760
82.943	99.531	15932	20136	0	760
91.453	107.825	16108	19893	0	760
99.531	113.487	16297	19609	0	760
100.938	117.851	16459	19336	0	760
102.308	117.923	16635	19098	0	760
98.089	114.713	16823	18878	0	760
92.138	109.773	16961	18646	0	760
85.683	103.390	17100	18396	0	760
78.182	95.132	17288	18164	0	760
71.547	91.525	17426	17990	0	760
68.662	90.191	17602	17863	0	760
67.616	87.883	17703	17625	0	760
68.806	91.021	17677	17062	0	760
71.295	91.525	17602	16268	0	760
74.144	93.004	17577	15590	0	760
76.524	95.709	17514	15184	0	760
73.891	91.994	17539	14963	0	760
67.436	88.280	17602	14888	0	760
58.348	79.048	17652	14929	0	760
51.965	73.675	17765	15045	0	760
45.546	68.338	17841	15166	0	760
40.245	64.226	17954	15242	0	760
-565.525	-256.221	15440	21	0	15292
-41.003	-35.990	15342	15596	0	316
-38.370	-35.918	15379	15903	0	316
-34.259	-32.961	15417	16170	0	316
-32.131	-29.102	15493	16424	0	316
-31.807	-28.814	15568	16737	0	316
-35.160	-30.256	15719	17114	0	316
-38.442	-33.682	15869	17474	0	316
-41.111	-36.855	15982	17770	0	316
-43.743	-38.226	16133	18031	0	316
-46.628	-37.757	16297	18303	0	316
-47.746	-38.983	16471	18599	0	316
-52.687	-38.478	16672	18895	0	316
-53.841	-40.353	16886	19127	0	316
-57.158	-45.330	17024	19243	0	316
-54.526	-47.025	17150	19191	0	316
-52.434	-45.041	17275	19040	0	316
-47.386	-40.137	17426	18965	0	316
-43.743	-33.357	17539	18965	0	316
-40.353	-29.607	17715	18971	1	596
-38.154	-28.561	17904	18982	0	596
-36.639	-27.479	18105	19034	0	596
-33.141	-24.270	18268	19092	0	596
-32.239	-22.972	18469	19087	0	596
-29.859	-21.241	18645	19005	0	596
-28.525	-23.116	18796	18901	0	596
-30.076	-25.279	18934	18802	0	596
-29.895	-27.876	19097	18669	0	596
-31.879	-25.496	19210	18454	0	596
-34.079	-27.732	19311	18211	0	596
-36.459	-29.174	19424	17950	0	596
-37.757	-32.239	19424	17555	0	596
-39.235	-35.341	19411	17039	0	596
-41.363	-38.370	19436	16598	0	596
-46.953	-39.091	19424	16315	0	596
-52.038	-40.642	19436	16077	0	596
-56.221	-43.130	19436	15810	0	596
-58.961	-45.114	19424	15526	0	596
-58.889	-45.402	19424	15311	0	596
-55.680	-43.960	19411	15166	0	596
-54.850	-41.832	19424	15062	0	596
-54.418	-41.868	19399	14981	0	596
-54.814	-43.238	19399	14911	0	596
-55.824	-46.953	19436	14894	0	596
-52.795	-47.133	19461	14975	0	596
-48.648	-44.861	19524	15132	0	596
-42.914	-41.868	19549	15265	0	596
-37.468	-42.084	19612	15340	0	596
-39.308	-43.887	19662	15462	0	596
-42.337	-45.943	19750	15723	0	596
-47.061	-46.051	19876	16036	0	596
-50.667	-43.599	19989	16292	0	596
-50.307	-41.219	20090	16436	0	596
-50.054	-39.019	20127	16505	0	596
-45.510	-38.947	20165	16471	0	596
-40.606	-36.603	20152	16321	0	596
-40.642	-35.485	20152	16118	0	596
-43.022	-37.036	20115	15955	0	596
-46.917	-40.750	20102	15862	0	596
-49.261	-44.609	20115	15857	0	596
-51.569	-45.979	20177	15949	0	596
-48.035	-45.402	20228	16100	0	596
-48.359	-47.386	20253	16205	0	596
-51.605	-51.388	20240	16170	0	596
-55.067	-53.768	20152	15868	0	596
-56.978	-55.283	20002	15387	0	596
-53.985	-50.090	19876	15004	0	596
-46.845	-43.058	19775	14789	0	596
-37.901	-36.531	19675	14650	0	596
-31.987	-33.538	19537	14534	0	596
-30.364	-34.295	19411	14383	0	596
-34.367	-37.288	19336	14314	0	596
-42.120	-40.462	19373	14546	0	596
-47.241	-41.435	19411	15039	0	596
-50.090	-40.570	19436	15427	0	596
-47.710	-37.973	19424	15549	0	596
-45.474	-36.278	19361	15520	0	596
-44.897	-39.849	19336	15520	0	596
-45.510	-43.130	19336	15636	0	596
-47.133	-44.753	19311	15810	0	596
-48.648	-41.616	19286	15915	0	596
-46.376	-38.478	19248	15909	0	596
-45.438	-35.665	19210	15903	0	596
-46.159	-36.711	19185	15961	0	596
-47.566	-40.570	19160	16042	0	596
-48.864	-44.753	19160	16129	0	596
-52.939	-47.133	19160	16257	0	596
-53.191	-44.320	19185	16430	0	596
-53.228	-43.671	19273	16674	0	596
-47.169	-36.711	19298	16911	0	596
-41.471	-31.374	19361	17080	0	596
-35.016	-27.479	19411	17155	0	596
-30.833	-24.162	19424	17207	0	596
-32.131	-24.702	19487	17283	0	596
-35.088	-26.145	19562	17404	0	596
-37.360	-28.814	19612	17532	0	596
-42.193	-33.610	19662	17584	0	596
-42.337	-38.406	19713	17567	0	596
-44.897	-41.039	19775	17555	0	596
-46.015	-42.914	19851	17625	0	596
-48.071	-43.058	19926	17723	0	596
-53.877	-44.356	19976	17735	0	596
-59.142	-46.087	20002	17642	0	596
-61.305	-48.395	20027	17480	0	596
-58.997	-48.359	20027	17288	0	596
-52.578	-42.734	20002	17091	0	596
-47.025	-38.875	19976	16877	0	596
-43.563	-35.918	19926	16627	0	596
-46.484	-38.406	19851	16338	0	596
-49.802	-42.193	19725	15961	0	596
-48.720	-44.537	19650	15619	0	596
-45.799	-40.426	19650	15532	0	596
-41.832	-35.052	19587	15596	0	596
-37.613	-30.653	19487	15491	0	596
-39.091	-31.987	19348	15137	0	596
-41.147	-35.160	19185	14708	0	596
-40.462	-37.577	18984	14383	0	596
-41.075	-37.396	18896	14238	0	596
-41.219	-38.370	18745	14186	0	596
-43.527	-40.281	18557	14088	0	596
-46.592	-43.671	18419	13896	0	596
-48.143	-46.412	18243	13780	0	596
-47.890	-47.926	18142	13821	0	596
-45.691	-44.969	18029	13966	0	596
-49.802	-45.041	17916	14099	0	596
-53.228	-47.061	17841	14215	0	596
-56.149	-46.736	17728	14360	0	596
-57.916	-50.270	17652	14540	0	596
-57.988	-50.739	17577	14749	0	596
-55.644	-52.182	17539	14975	0	596
-55.427	-53.624	17476	15195	0	596
-54.201	-51.605	17451	15422	0	596
-48.684	-45.150	17426	15712	0	596
-42.842	-35.088	17476	16089	0	596
-38.658	-27.551	17539	16482	0	596
-36.531	-27.119	17527	16761	0	596
-37.505	-30.256	17539	16929	0	596
-39.235	-34.908	17590	17074	0	596
-39.524	-36.928	17602	17265	0	596
-40.173	-33.538	17652	17486	0	596
-38.983	-32.925	17715	17631	0	596
-40.606	-32.384	17715	17718	0	596
-40.426	-34.800	17765	17793	0	596
-42.120	-35.160	17778	17822	0	596
-43.202	-36.423	17791	17776	0	596
-45.078	-37.216	17778	17636	0	596
-45.294	-37.288	17715	17462	0	596
-46.881	-35.774	17665	17259	0	596
-44.753	-34.800	17577	16975	0	596
-41.868	-30.040	17464	16633	0	596
-39.488	-26.794	17351	16344	0	596
-34.511	-24.162	17263	16112	0	596
-28.309	-21.457	17137	15857	0	596
-23.188	-20.375	16949	15520	0	596
-23.512	-23.260	16773	15172	0	596
-26.578	-27.696	16635	14929	0	596
-34.043	-32.456	16522	14824	0	596
-42.084	-36.495	16384	14807	0	596
-44.032	-36.314	16259	14784	0	596
-41.363	-31.518	16183	14766	0	596
-35.016	-26.722	16133	14917	0	596
-32.023	-25.063	16133	15248	0	596
-34.295	-29.210	16158	15601	0	596
-39.921	-36.964	16158	15851	0	596
-47.169	-42.986	16158	16007	0	596
-47.674	-42.986	16121	16141	0	596
-45.943	-39.055	16121	16321	0	596
-45.258	-37.721	16171	16552	0	596
-46.845	-41.832	16183	16772	0	596
-56.185	-49.549	16183	16888	0	596
-62.315	-56.004	16196	16958	0	596
-63.830	-58.745	16234	17068	0	596
-60.512	-51.172	16297	17236	0	596
-52.614	-45.366	16309	17358	0	596
-44.284	-38.983	16309	17358	0	596
-37.973	-35.016	16297	17283	0	596
-31.771	-33.393	16297	17225	0	596
-33.141	-35.197	16309	17236	0	596
-34.547	-37.432	16347	17312	0	596
-38.478	-39.127	16409	17410	0	596
-41.435	-41.399	16396	17416	0	596
-40.750	-38.334	16297	17132	0	596
-36.964	-36.964	16183	16633	0	596
-33.502	-35.124	16070	16257	0	596
-33.898	-36.675	15982	16065	0	596
-37.000	-39.849	15945	15961	0	596
-39.849	-41.976	15857	15874	0	596
-39.055	-41.039	15794	15781	0	596
-37.144	-37.468	15756	15735	0	596
-33.502	-36.928	15794	15915	0	596
-34.620	-39.308	15844	16234	0	596
-39.163	-42.661	15819	16367	0	596
-44.284	-46.953	15781	16257	0	596
-47.061	-47.638	15731	16141	0	596
-44.609	-44.753	15694	16094	0	596
-43.815	-41.435	15668	16094	0	596
-44.320	-41.327	15656	16147	0	596
-45.510	-42.373	15631	16170	0	596
-45.366	-43.491	15606	16158	0	596
-43.058	-42.157	15656	16268	0	596
-38.226	-36.639	15694	16540	0	596
-33.574	-32.456	15794	16859	0	596
-31.915	-29.174	15882	17114	0	596
-33.429	-31.122	15945	17288	0	596
-34.620	-33.466	16045	17445	0	596
-34.367	-35.088	16133	17613	0	596
-32.636	-33.502	16246	17793	0	596
-31.085	-29.571	16384	17996	0	596
-28.345	-28.705	16522	18222	0	596
-26.217	-25.316	16672	18425	0	596
-26.181	-24.919	16823	18570	0	596
-25.856	-25.532	17012	18727	0	596
-25.929	-25.784	17162	18918	0	596
-28.886	-27.119	17326	18988	0	596
-32.600	-30.833	17338	18744	0	596
-34.583	-32.925	17363	18327	0	596
-35.269	-33.429	17464	18083	0	596
-34.800	-32.961	17552	18048	0	596
-35.016	-32.492	17640	18019	1	796
-36.278	-30.833	17765	17938	0	796
-36.351	-29.318	17841	17868	0	796
-33.682	-27.587	17966	17845	0	796
-30.653	-26.578	18079	17839	0	796
-30.292	-27.660	18180	17776	0	796
-35.197	-33.213	18280	17671	0	796
-43.202	-42.157	18368	17567	0	796
-50.667	-48.071	18469	17457	0	796
-50.270	-47.061	18544	17387	0	796
-47.277	-44.320	18770	17509	0	796
-43.527	-38.947	18909	17694	0	796
-41.291	-36.459	18921	17544	0	796
-40.930	-37.216	18921	17051	0	796
-43.743	-38.298	18896	16592	0	796
-45.005	-39.849	18896	16286	0	796
-43.815	-37.865	18871	16048	0	796
-40.137	-34.836	18846	15833	0	796
-34.439	-29.715	18808	15578	0	796
-27.191	-23.116	18783	15323	0	796
-23.945	-19.473	18745	15201	0	796
-24.811	-18.860	18708	15085	0	796
-29.174	-23.440	18620	14842	0	796
-33.610	-27.010	18544	14639	0	796
-37.396	-31.626	18519	14563	0	796
-37.180	-31.987	18481	14557	0	796
-34.764	-29.895	18481	14639	0	796
-30.184	-26.001	18494	14813	0	796
-28.741	-22.431	18481	14963	0	796
-30.581	-21.854	18469	15033	0	796
-35.449	-27.155	18494	15114	0	796
-41.327	-32.564	18532	15306	0	796
-45.871	-37.865	18607	15607	0	796
-49.441	-41.940	18657	15920	0	796
-52.074	-44.032	18682	16060	0	796
-52.687	-45.150	18620	15926	0	796
-53.011	-45.763	18582	15706	0	796
-48.539	-44.032	18557	15694	0	796
-43.419	-37.757	18607	15903	0	796
-37.829	-32.203	18657	16123	0	796
-33.574	-28.669	18720	16315	0	796
-32.348	-30.220	18770	16517	0	796
-35.124	-36.423	18833	16650	0	796
-38.947	-39.452	18796	16592	0	796
-43.058	-40.462	18783	16453	0	796
-43.419	-37.432	18808	16465	0	796
-39.632	-30.581	18846	16581	0	796
-34.583	-27.732	18909	16691	0	796
-33.213	-27.660	18934	16778	0	796
-33.466	-29.535	18984	16859	0	796
-37.252	-32.420	19022	16894	0	796
-41.255	-34.187	18984	16790	0	796
-42.697	-37.216	18959	16581	0	796
-42.770	-36.891	18934	16430	0	796
-40.678	-36.639	18934	16384	0	796
-39.776	-36.964	18934	16379	0	796
-39.308	-37.216	18934	16379	0	796
-37.829	-38.803	18909	16309	0	796
-39.091	-38.550	18846	16147	0	796
-39.235	-38.622	18808	15984	0	796
-37.468	-35.052	18796	15915	0	796
-37.360	-32.925	18783	15961	0	796
-37.468	-29.354	18796	16060	0	796
-36.531	-27.912	18796	16112	0	796
-37.577	-29.571	18796	16123	0	796
-37.288	-31.374	18796	16152	0	796
-38.370	-32.997	18796	16239	0	796
-35.629	-32.961	18858	16350	0	796
-34.151	-30.184	18896	16436	0	796
-34.115	-27.155	18921	16575	0	796
-36.711	-26.758	19034	16795	0	796
-39.524	-29.715	19122	17051	0	796
-41.976	-33.177	19235	17259	0	796
-39.416	-33.285	19298	17375	0	796
-36.567	-33.754	19361	17404	0	796
-35.052	-34.475	19411	17364	0	796
-38.875	-36.062	19373	17196	0	796
-43.996	-37.649	19348	16935	0	796
-46.340	-39.560	19348	16726	0	796
-42.914	-36.459	19311	16621	0	796
-37.505	-33.249	19311	16552	0	796
-32.961	-29.607	19348	16517	0	796
-31.482	-28.741	19348	16517	0	796
-32.564	-30.076	19336	16442	0	796
-33.826	-30.725	19311	16263	0	796
-34.295	-32.059	19223	16054	0	796
-34.223	-31.590	19172	15874	0	796
-35.629	-31.446	19122	15712	0	796
-35.737	-32.636	19034	15549	0	796
-34.115	-31.013	18984	15439	0	796
-29.210	-30.328	18909	15352	0	796
-26.217	-28.417	18770	15149	0	796
-23.549	-25.748	18620	14847	0	796
-23.765	-25.243	18494	14610	0	796
-26.722	-28.164	18368	14488	0	796
-30.292	-29.282	18243	14418	0	796
-33.033	-34.006	18092	14302	0	796
-36.603	-36.314	17916	14140	0	796
-40.714	-39.055	17791	14047	0	796
-44.825	-41.255	17677	14111	0	796
-45.799	-39.235	17640	14291	0	796
-47.169	-37.937	17514	14453	0	796
-46.664	-36.531	17426	14569	0	796
-45.438	-37.180	17414	14760	0	796
-45.582	-37.865	17389	15079	0	796
-44.681	-40.606	17389	15416	0	796
-42.914	-40.426	17351	15688	0	796
-39.524	-38.442	17351	15897	0	796
-40.426	-38.298	17338	16094	0	796
-39.812	-38.658	17351	16321	0	796
-42.373	-40.858	17401	16581	0	796
-43.851	-41.652	17414	16830	0	796
-43.815	-41.003	17451	16993	0	796
-42.770	-40.498	17426	17074	0	796
-42.048	-40.029	17451	17126	0	796
-41.832	-39.380	17464	17230	0	796
-41.039	-39.596	17514	17375	0	796
-41.183	-40.101	17539	17462	0	796
-41.003	-39.993	17527	17462	0	796
-39.055	-39.668	17527	17422	0	796
-38.009	-37.757	17527	17335	0	796
-36.314	-35.088	17464	17201	0	796
-36.206	-30.653	17426	17051	0	796
-34.547	-30.472	17326	16795	0	796
-35.485	-30.364	17200	16407	0	796
-32.564	-31.446	17049	16060	0	796
-30.184	-30.869	16949	15810	0	796
-24.630	-25.388	16848	15630	0	796
-22.214	-21.745	16723	15514	0	796
-22.755	-22.322	16647	15451	0	796
-27.263	-23.693	16534	15364	0	796
-33.970	-28.417	16409	15219	0	796
-36.855	-33.466	16284	15050	0	796
-37.072	-32.997	16171	14946	0	796
-35.088	-30.545	16045	14894	0	796
-33.970	-30.112	15882	14766	0	796
-34.259	-26.758	15719	14581	0	796
-33.970	-24.919	15530	14401	0	796
-32.925	-24.414	15229	14105	0	796
-32.312	-25.820	14940	13635	0	796
-33.826	-29.895	14613	13183	0	796
-38.839	-34.547	14312	12898	0	796
-43.671	-38.731	14098	12835	0	796
-44.537	-40.714	13910	13009	0	796
-44.320	-38.803	13809	13391	0	796
-41.471	-39.127	13784	13902	0	796
-41.327	-39.344	13746	14453	0	796
-44.392	-41.219	13784	15045	0	796
-48.539	-45.078	13797	15642	0	796
-53.155	-45.582	13859	16205	0	796
-54.129	-45.835	13922	16743	0	796
-55.067	-45.727	13998	17225	0	796
-52.614	-43.599	14098	17619	0	796
-52.723	-43.455	14173	18013	0	796
-49.333	-44.825	14312	18443	0	796
-49.405	-44.104	14437	18843	0	796
-48.071	-43.347	14538	19098	0	796
-46.845	-43.779	14588	19156	0	796
-50.487	-46.917	14550	18924	0	796
-51.352	-47.566	14488	18518	0	796
-53.047	-48.720	14475	18240	0	796
-49.657	-45.546	14475	18153	0	796
-45.402	-40.570	14425	17984	1	648
-42.734	-37.685	14349	17665	0	648
-45.582	-42.120	14299	17416	0	648
-52.218	-49.838	14287	17300	0	648
-58.961	-57.411	14274	17230	0	648
-61.486	-59.214	14249	17167	0	648
-57.194	-54.418	14299	17143	0	648
-51.533	-47.349	14312	17178	0	648
-46.340	-42.337	14362	17283	0	648
-45.114	-39.127	14462	17416	0	648
-44.032	-40.029	14538	17573	0	648
-42.229	-38.622	14626	17706	0	648
-39.993	-35.846	14676	17723	0	648
-38.045	-34.656	14726	17648	0	648
-38.586	-36.603	14852	17706	0	648
-43.924	-37.541	14990	17967	0	648
-50.307	-41.039	15153	18269	0	648
-52.362	-44.212	15317	18472	0	648
-55.103	-45.691	15467	18559	0	648
-52.867	-46.628	15631	18617	0	648
-53.696	-47.602	15781	18727	0	648
-52.975	-46.736	15995	18901	0	648
-55.463	-44.140	16183	19040	0	648
-52.398	-42.986	16359	19069	0	648
-47.818	-38.947	16534	19087	0	648
-40.966	-36.603	16735	19150	0	648
-40.065	-37.396	16949	19232	0	648
-42.734	-41.904	17137	19249	0	648
-51.100	-46.232	17338	19191	0	648
-53.264	-49.008	17489	19092	0	648
-51.749	-46.268	17703	19011	0	648
-45.618	-38.658	17891	18976	0	648
-43.383	-36.495	18092	18965	0	648
-49.946	-40.281	18230	18843	0	648
-57.266	-46.412	18293	18460	0	648
-63.145	-54.057	18343	17903	0	648
-61.450	-54.201	18394	17462	0	648
-54.201	-49.766	18494	17242	0	648
-51.064	-43.527	18557	17056	0	648
-50.162	-41.652	18645	16836	0	648
-54.418	-45.005	18682	16650	0	648
-56.076	-49.080	18808	16534	0	648
-55.067	-50.703	18909	16465	0	648
-50.198	-50.198	18971	16384	0	648
-46.123	-45.330	19059	16292	0	648
-43.347	-40.498	19097	16158	0	648
-42.048	-37.793	19110	15891	0	648
-41.219	-37.288	19059	15532	0	648
-39.488	-37.396	19059	15248	0	648
-38.983	-37.685	19047	15120	0	648
-41.724	-39.380	19085	15056	0	648
-44.969	-41.183	19059	14992	0	648
-49.261	-41.147	19085	14917	0	648
-51.100	-42.914	19085	14882	0	648
-51.785	-45.655	19122	14934	0	648
-55.247	-50.090	19160	15062	0	648
-57.771	-53.228	19210	15201	0	648
-61.414	-56.293	19248	15265	0	648
-60.656	-52.146	19273	15300	0	648
-55.211	-47.061	19273	15317	0	648
-50.992	-42.157	19172	15161	0	648
-45.871	-40.642	19059	14830	0	648
-45.582	-42.878	18971	14534	0	648
-45.150	-44.861	18896	14430	0	648
-44.645	-43.635	18846	14482	0	648
-43.202	-41.543	18846	14639	0	648
-41.399	-36.278	18846	14836	0	648
-38.298	-33.610	18846	14981	0	648
-36.819	-31.446	18783	15010	0	648
-34.223	-31.554	18733	15021	0	648
-34.115	-30.977	18796	15207	0	648
-35.629	-32.708	18846	15526	0	648
-39.668	-33.141	18858	15799	0	648
-42.770	-35.052	18934	16002	0	648
-44.897	-35.737	18984	16239	0	648
-44.573	-36.170	19097	16540	0	648
-43.094	-35.737	19172	16848	0	648
-42.481	-36.567	19223	16964	0	648
-42.481	-37.793	19122	16778	0	648
-44.609	-39.921	19085	16465	1	316
-46.592	-41.075	19034	16303	0	316
-44.392	-40.858	19047	16309	0	316
-42.265	-39.163	19034	16361	0	316
-38.695	-39.055	19047	16384	0	316
-38.875	-41.003	19034	16407	0	316
-42.337	-45.078	19059	16459	0	316
-45.294	-45.907	19110	16587	0	316
-44.032	-45.114	19286	16917	0	316
-40.137	-38.658	19436	17404	0	316
-37.000	-35.305	19600	17787	0	316
-35.593	-33.790	19675	17886	0	316
-38.586	-34.908	19713	17781	0	316
-38.731	-36.026	19750	17642	0	316
-37.901	-35.521	19801	17520	0	316
-34.944	-34.836	19775	17352	0	316
-35.197	-33.934	19713	17045	0	316
-36.098	-33.285	19625	16645	0	316
-36.098	-31.266	19612	16384	0	316
-35.846	-28.994	19612	16344	0	316
-34.692	-24.342	19650	16384	0	316
-35.521	-25.640	19650	16355	0	316
-39.199	-27.840	19600	16216	0	316
-45.691	-32.997	19587	16083	0	316
-49.982	-38.298	19562	16013	0	316
-53.191	-40.534	19549	15984	0	316
-51.316	-41.832	19549	15949	0	316
-50.307	-42.409	19499	15903	0	316
-47.602	-42.373	19499	15886	0	316
-47.962	-43.707	19487	15880	0	316
-50.775	-46.700	19524	15909	0	316
-51.749	-48.828	19499	16002	0	316
-55.788	-49.730	19524	16060	0	316
-55.896	-53.047	19499	16042	0	316
-56.906	-51.388	19499	16019	0	316
-54.165	-48.323	19487	16048	0	316
-47.854	-42.878	19524	16141	0	316
-39.885	-37.000	19562	16292	0	316
-35.197	-33.646	19650	16465	0	316
-34.692	-33.790	19662	16592	0	316
-37.973	-36.242	19688	16656	0	316
-41.327	-37.144	19738	16691	0	316
-39.199	-32.600	19750	16714	0	316
-33.177	-24.342	19713	16610	0	316
-26.866	-19.762	19600	16292	0	316
-23.909	-16.228	19474	15822	0	316
-25.965	-21.024	19286	15381	0	316
-33.934	-27.587	19160	15033	0	316
-42.445	-34.295	18984	14789	0	316
-47.746	-37.613	18858	14592	0	316
-50.703	-36.747	18645	14331	0	316
-47.169	-33.610	18456	13995	0	316
-43.274	-29.499	18280	13792	0	316
-41.652	-28.561	18167	13867	0	316
-44.969	-31.013	18092	14093	0	316
-46.989	-33.646	17979	14238	0	316
-46.159	-35.305	17853	14238	0	316
-43.130	-35.593	17728	14209	0	316
-38.478	-35.088	17590	14273	0	316
-38.190	-35.629	17514	14441	0	316
-43.383	-38.190	17414	14592	0	316
-46.772	-39.957	17288	14650	0	316
-50.162	-39.957	17200	14708	0	316
-48.684	-39.596	17087	14853	0	316
-47.277	-40.714	17037	15068	0	316
-48.359	-40.065	16961	15294	0	316
-50.198	-40.173	16899	15491	0	316
-47.422	-39.560	16848	15665	0	316
-45.510	-37.649	16823	15868	0	316
-43.599	-35.269	16836	16158	0	316
-41.616	-35.485	16823	16482	0	316
-43.707	-37.865	16848	16737	0	316
-47.277	-42.553	16836	16882	0	316
-47.999	-46.015	16848	17010	0	316
-47.422	-47.818	16848	17190	0	316
-46.772	-46.340	16911	17410	0	316
-46.195	-44.032	16924	17573	0	316
-50.631	-45.078	16886	17526	0	316
-58.637	-51.388	16786	17283	0	316
-67.039	-58.276	16735	17080	0	316
-73.494	-63.830	16698	17010	0	316
-71.114	-62.459	16647	16969	0	316
-62.892	-52.975	16610	16929	0	316
-52.542	-43.960	16572	16882	0	316
-46.195	-35.521	16509	16807	0	316
-42.625	-33.826	16509	16766	0	316
-42.265	-36.819	16572	16917	0	316
-40.822	-36.062	16660	17242	0	316
-40.065	-35.124	16698	17474	0	316
-39.091	-32.853	16672	17410	0	316
-38.695	-31.374	16610	17132	0	316
-38.334	-29.823	16522	16848	0	316
-35.701	-28.056	16471	16668	0	316
-29.282	-22.575	16459	16610	0	316
-26.289	-17.923	16409	16587	0	316
-25.568	-20.339	16396	16534	0	316
-29.246	-25.171	16359	16447	0	316
-35.774	-32.528	16347	16389	0	316
-38.442	-35.557	16309	16384	0	316
-37.973	-33.429	16284	16379	0	316
-34.043	-30.112	16221	16292	0	316
-32.312	-29.463	16158	16152	0	316
-33.970	-34.692	16108	16054	0	316
-38.983	-39.957	16045	15978	0	316
-42.697	-45.150	15945	15868	0	316
-44.356	-42.734	15869	15688	0	316
-42.950	-37.468	15756	15526	0	316
-41.652	-31.230	15694	15474	0	316
-40.426	-28.561	15681	15561	0	316
-37.468	-28.850	15656	15706	0	316
-31.879	-28.092	15631	15793	0	316
-23.260	-24.270	15555	15810	0	316
-18.031	-18.860	15530	15816	0	316
-15.867	-17.274	15480	15868	0	316
-22.431	-19.834	15480	15973	0	316
-28.922	-27.876	15442	16077	0	316
-34.187	-32.059	15467	16181	0	316
-32.816	-31.590	15442	16309	0	316
-25.496	-23.080	15480	16453	0	316
-20.591	-18.500	15530	16627	0	316
-17.382	-16.120	15555	16807	0	316
-22.395	-21.854	15568	16940	0	316
-31.626	-30.545	15618	17027	0	316
-38.154	-38.622	15593	17004	0	316
-42.625	-40.498	15606	16929	0	316
-41.976	-39.740	15593	16917	0	316
-37.973	-37.468	15618	16987	0	316
-36.531	-35.088	15681	17091	0	316
-38.118	-35.557	15744	17230	0	316
-41.760	-37.072	15807	17399	0	316
-43.743	-38.767	15920	17567	0	316
-45.582	-38.875	15982	17700	0	316
-46.087	-40.642	16096	17828	0	316
-45.366	-40.353	16196	17944	0	316
-47.926	-41.075	16297	18019	0	316
-49.730	-40.498	16409	18095	0	316
-48.035	-39.127	16534	18234	0	316
-47.602	-38.334	16723	18460	0	316
-45.727	-36.278	16911	18709	0	316
-45.150	-36.964	17049	18854	0	316
-48.467	-39.416	17263	18913	0	316
-51.569	-43.563	17414	18982	0	316
-52.146	-46.664	17615	19098	0	316
-52.326	-48.035	17803	19208	0	316
-51.136	-44.212	18017	19278	0	316
-58.312	-40.209	18218	19295	0	316
-70.321	-40.534	18356	19185	0	316
-84.061	-40.245	18431	18907	0	316
-89.217	-44.212	18519	18559	0	316
-85.972	-45.546	18620	18274	0	316
-77.209	-44.573	18720	18083	1	600
-71.186	-43.599	18846	17961	0	600
-70.393	-43.419	19022	17938	0	600
-70.826	-40.209	19172	17973	0	600
-68.554	-37.396	19348	17967	0	600
-65.344	-35.665	19461	17874	0	600
-62.928	-37.505	19612	17787	0	600
-62.063	-38.586	19775	17747	0	600
-59.827	-37.468	19914	17712	0	600
-56.762	-35.088	20052	17625	0	600
-55.463	-29.931	20177	17526	0	600
-55.319	-32.203	20303	17416	0	600
-57.916	-38.370	20378	17213	0	600
-58.312	-40.930	20429	16940	0	600
-54.021	-42.120	20529	16697	0	600
-50.775	-39.452	20554	16505	0	600
-49.297	-39.019	20554	16245	0	600
-52.326	-42.553	20542	15868	0	600
-54.670	-44.176	20542	15532	0	600
-52.001	-44.140	20592	15451	0	600
-49.297	-39.993	20718	15625	0	600
-44.897	-36.675	20818	15839	0	600
-47.674	-36.603	20919	15926	0	600
-52.795	-40.065	20944	15874	0	600
-59.611	-43.960	21007	15775	0	600
-59.070	-44.392	21007	15712	0	600
-57.591	-44.825	21057	15654	0	600
-48.395	-38.875	21044	15532	0	600
-42.337	-33.646	21032	15335	0	600
-38.586	-29.679	21044	15219	0	600
-35.918	-28.273	21044	15242	0	600
-36.855	-27.263	21069	15311	0	600
-35.810	-28.417	21107	15358	0	600
-36.855	-30.905	21107	15364	0	600
-40.462	-32.816	21107	15340	0	600
-42.770	-38.045	21132	15340	0	600
-45.330	-42.734	21157	15416	0	600
-45.655	-42.012	21170	15543	0	600
-41.868	-39.812	21220	15607	0	600
-36.891	-35.557	21195	15613	0	600
-33.718	-31.122	21220	15654	0	600
-31.049	-28.056	21283	15758	0	600
-31.085	-28.164	21296	15891	0	600
-32.167	-30.328	21358	16031	0	600
-36.170	-33.177	21384	16123	0	600
-39.127	-36.495	21371	16118	0	600
-41.147	-38.514	21371	16002	0	600
-43.238	-38.298	21308	15857	0	600
-42.048	-35.954	21258	15717	0	600
-39.452	-35.016	21195	15596	0	600
-36.242	-32.636	21157	15456	0	600
-36.170	-30.472	21007	15213	0	600
-37.396	-31.230	20906	14940	0	600
-42.157	-32.528	20843	14888	0	600
-43.202	-33.790	20806	15010	0	600
-42.229	-34.115	20693	15010	0	600
-38.839	-32.528	20567	14824	0	600
-35.305	-32.131	20429	14586	0	600
-36.278	-31.915	20278	14407	0	600
-39.740	-34.187	20177	14343	0	600
-42.337	-35.629	20064	14366	0	600
-42.012	-37.000	19926	14360	0	600
-40.065	-35.774	19788	14291	0	600
-37.288	-34.836	19725	14360	0	600
-34.836	-33.033	19688	14656	0	600
-35.774	-31.699	19662	14998	0	600
-38.226	-34.583	19662	15282	0	600
-41.363	-38.262	19612	15491	0	600
-45.763	-43.310	19587	15659	0	600
-50.559	-47.890	19600	15845	0	600
-53.155	-50.090	19562	16060	0	600
-55.680	-49.693	19587	16280	0	600
-57.014	-50.343	19587	16453	0	600
-56.365	-49.766	19562	16575	0	600
-58.168	-50.090	19587	16685	0	600
-59.394	-53.228	19587	16830	0	600
-60.224	-53.083	19600	16964	0	600
-60.620	-53.191	19587	17010	0	600
-54.165	-47.494	19549	17010	0	600
-46.989	-40.389	19562	17010	0	600
-38.839	-34.583	19537	17016	0	600
-34.944	-31.626	19524	16993	0	600
-37.360	-34.547	19461	16894	0	600
-41.796	-39.308	19424	16749	0	600
-46.268	-43.274	19348	16627	0	600
-45.546	-43.310	19298	16552	0	600
-40.534	-39.668	19298	16523	0	600
-36.855	-36.495	19248	16534	0	600
-36.206	-34.836	19235	16540	0	600
-37.829	-36.134	19160	16459	0	600
-42.301	-38.406	19097	16321	0	600
-43.130	-38.478	19034	16170	0	600
-43.960	-38.803	18934	16007	0	600
-42.481	-39.776	18808	15839	0	600
-41.868	-41.435	18682	15619	0	600
-42.770	-41.724	18494	15259	0	600
-40.245	-39.740	18243	14778	0	600
-35.990	-34.836	17966	14273	0	600
-31.049	-28.381	17677	13803	0	600
-27.876	-26.650	17414	13449	0	600
-28.020	-26.037	17150	13188	0	600
-31.266	-29.282	16861	12945	0	600
-36.278	-32.780	16597	12794	0	600
-38.911	-36.351	16409	12840	0	600
-36.351	-34.836	16259	13072	0	600
-31.843	-30.653	16045	13235	0	600
-27.876	-26.037	15744	13096	0	600
-29.643	-26.614	15480	12875	0	600
-32.925	-30.292	15254	12951	0	600
-38.803	-36.855	15128	13299	0	600
-39.019	-37.829	15028	13728	0	600
-34.079	-34.511	14927	14163	0	600
-29.679	-29.571	14852	14615	0	600
-25.027	-22.791	14839	15132	0	600
-22.431	-21.529	14877	15752	0	600
-20.014	-19.582	14915	16384	0	600
-18.716	-18.247	14965	16900	0	600
-18.175	-22.358	15028	17346	0	600
-23.008	-26.217	15091	17787	0	600
-28.381	-31.374	15229	18274	0	600
-33.790	-35.593	15342	18744	0	600
-39.812	-39.740	15417	19087	0	600
-44.897	-41.616	15530	19284	0	600
-50.523	-44.753	15593	19400	0	600
-49.946	-44.501	15681	19504	0	600
-48.179	-40.389	15807	19609	0	600
-43.815	-34.764	15869	19655	0	600
-39.921	-32.744	15945	19626	0	600
-42.697	-33.357	16033	19522	0	600
-45.330	-36.567	16033	19324	0	600
-47.566	-40.317	16033	19034	0	600
-46.989	-40.317	15982	18651	1	524
-42.409	-36.711	15819	18054	0	524
-37.757	-31.699	15631	17242	0	524
-31.230	-25.424	15379	16424	0	524
-27.732	-24.089	15166	15746	0	524
-24.306	-24.306	14977	15259	0	524
-25.532	-26.938	14814	14963	0	524
-26.001	-29.931	14676	14789	0	524
-26.361	-29.391	14525	14610	0	524
-28.056	-29.246	14349	14401	0	524
-31.410	-30.292	14211	14273	0	524
-34.944	-32.203	14086	14250	0	524
-38.731	-35.665	13998	14320	0	524
-40.498	-36.459	13922	14488	0	524
-38.695	-33.934	13872	14685	0	524
-35.377	-31.374	13834	14911	0	524
-32.816	-28.345	13834	15201	0	524
-32.276	-29.102	13859	15543	0	524
-32.853	-30.977	13897	15909	0	524
-35.052	-36.242	13935	16239	0	524
-38.695	-39.055	13960	16505	0	524
-43.166	-41.471	14035	16801	0	524
-46.376	-42.337	14173	17190	0	524
-50.992	-43.419	14274	17613	0	524
-51.821	-46.736	14412	17955	0	524
-54.706	-51.929	14488	18170	0	524
-55.932	-57.339	14488	18141	0	524
-56.653	-59.611	14462	17863	0	524
-53.047	-57.122	14425	17584	0	524
-47.097	-49.982	14425	17468	0	524
-37.865	-43.707	14475	17474	0	524
-31.807	-40.426	14538	17578	0	524
-31.122	-40.750	14651	17776	0	524
-34.439	-41.363	14802	18060	0	524
-38.009	-40.389	14977	18373	0	524
-37.685	-38.839	15128	18622	0	524
-36.278	-35.413	15241	18698	0	524
-34.547	-33.682	15367	18657	0	524
-33.429	-34.187	15493	18686	0	524
-37.432	-34.223	15681	18808	0	524
-41.111	-35.701	15857	18971	0	524
-45.294	-37.793	16045	19104	0	524
-47.782	-39.812	16196	19110	0	524
-48.720	-41.183	16372	19058	0	524
-45.041	-41.652	16597	19197	0	524
-44.537	-41.832	16911	19556	0	524
-44.032	-41.616	17175	19858	0	524
-46.087	-42.337	17414	19957	0	524
-51.316	-46.195	17652	19899	0	524
-53.047	-46.700	17866	19812	0	524
-50.631	-46.304	18142	19771	0	524
-46.520	-43.130	18343	19759	0	524
-39.235	-38.298	18544	19632	0	524
-35.197	-34.475	18708	19348	0	524
-34.367	-35.954	18896	19104	0	524
-37.000	-37.577	19122	18994	0	524
-39.452	-37.468	19311	18913	0	524
-39.812	-35.593	19537	18785	0	524
-37.432	-33.862	19688	18617	0	524
-37.973	-32.997	19876	18425	0	524
-39.235	-35.810	20064	18274	0	524
-43.671	-38.478	20291	18240	0	524
-44.212	-39.812	20554	18280	0	524
-44.284	-38.082	20755	18257	0	524
-41.688	-35.918	20931	18112	0	524
-41.363	-35.016	21120	17950	0	524
-44.248	-37.577	21346	17839	0	524
-47.566	-40.209	21509	17747	0	524
-53.264	-43.202	21685	17578	0	524
-53.768	-47.241	21811	17358	0	524
-55.896	-50.126	21936	17097	0	524
-54.778	-49.369	22037	16824	0	524
-53.119	-49.369	22112	16587	0	524
-49.838	-44.032	22238	16379	0	524
-48.215	-39.163	22313	16176	0	524
-45.763	-35.088	22376	15984	0	524
-42.842	-34.367	22476	15804	0	524
-40.498	-34.115	22476	15543	0	524
-39.668	-34.764	22351	15033	0	524
-39.416	-36.098	22238	14354	1	316
-39.849	-36.495	22125	13815	0	316
-41.904	-36.351	22012	13496	0	316
-42.661	-36.242	21936	13339	0	316
-42.373	-35.557	21974	13397	0	316
-43.779	-33.574	21949	13571	0	316
-42.806	-31.951	21873	13548	0	316
-42.842	-31.410	21723	13246	0	316
-42.770	-32.636	21597	12951	0	316
-42.697	-34.836	21534	12939	0	316
-45.402	-40.642	21497	13188	0	316
-49.297	-45.041	21547	13536	0	316
-51.533	-49.044	21534	13855	0	316
-55.860	-51.929	21509	14082	0	316
-55.103	-50.956	21484	14250	0	316
-54.995	-49.946	21484	14418	0	316
-53.732	-45.943	21446	14604	0	316
-52.903	-46.628	21421	14772	0	316
-54.526	-49.008	21421	14882	0	316
-53.949	-49.405	21358	14981	0	316
-54.093	-50.198	21346	15108	0	316
-49.874	-45.330	21371	15335	0	316
-44.753	-40.570	21384	15636	0	316
-43.491	-40.606	21434	15880	0	316
-43.996	-41.976	21421	16013	0	316
-44.032	-45.186	21434	16158	0	316
-46.845	-45.330	21509	16384	0	316
-42.770	-41.976	21559	16656	0	316
-38.875	-38.009	21622	16882	0	316
-38.875	-35.521	21685	17056	0	316
-41.363	-36.170	21760	17230	0	316
-47.890	-40.534	21848	17387	0	316
-56.076	-46.953	21911	17509	0	316
-58.709	-50.054	21974	17578	0	316
-59.106	-52.651	22012	17584	0	316
-57.086	-50.379	22037	17532	0	316
-52.687	-49.405	22049	17457	0	316
-51.316	-46.195	22074	17358	0	316
-47.674	-44.032	22062	17207	0	316
-44.609	-40.353	22049	17027	0	316
-42.120	-38.803	21999	16807	0	316
-41.363	-39.344	21873	16459	0	316
-45.041	-43.347	21760	16054	0	316
-47.386	-47.782	21660	15717	0	316
-49.730	-49.044	21547	15480	0	316
-47.422	-48.143	21421	15265	0	316
-47.854	-45.366	21296	15010	0	316
-48.107	-44.753	21120	14726	0	316
-48.539	-48.395	20994	14499	0	316
-51.641	-47.926	20868	14407	0	316
-46.772	-47.782	20806	14447	0	316
-38.731	-39.452	20693	14546	0	316
-32.167	-30.581	20630	14604	0	316
-27.804	-25.424	20542	14633	0	316
-29.354	-26.506	20441	14702	0	316
-36.206	-34.800	20378	14807	0	316
-41.904	-41.868	20253	14853	0	316
-44.212	-46.232	20127	14760	0	316
-42.589	-44.573	19989	14644	0	316
-39.921	-43.419	19876	14633	0	316
-38.731	-42.193	19801	14772	0	316
-40.426	-42.914	19738	14987	0	316
-40.570	-45.078	19662	15172	0	316
-40.606	-45.655	19625	15300	0	316
-39.380	-43.924	19549	15451	0	316
-40.029	-43.491	19524	15677	0	316
-42.878	-43.851	19524	15938	0	316
-45.546	-45.114	19524	16193	0	316
-46.556	-43.743	19549	16413	0	316
-46.592	-46.809	19524	16598	0	316
-46.845	-45.907	19537	16755	0	316
-46.809	-45.727	19537	16917	0	316
-45.727	-46.340	19549	17022	0	316
-41.904	-43.491	19436	16952	0	316
-34.944	-38.370	19273	16569	0	316
-29.787	-33.646	19047	15978	0	316
-29.427	-31.085	18783	15398	0	316
-33.718	-33.033	18532	14911	0	316
-40.858	-38.695	18280	14552	0	316
-47.926	-44.464	18054	14331	0	316
-50.920	-47.494	17828	14134	0	316
-50.847	-48.323	17602	13925	0	316
-47.818	-47.169	17389	13815	0	316
-45.005	-45.691	17238	13873	0	316
-44.068	-45.546	17074	14035	0	316
-44.825	-45.438	16961	14186	0	316
-44.537	-43.599	16798	14291	0	316
-44.284	-42.878	16672	14441	0	316
-43.563	-42.229	16585	14708	0	316
-43.455	-43.455	16547	15062	0	316
-43.815	-45.727	16484	15404	0	316
-45.150	-45.114	16446	15683	0	316
-46.015	-46.700	16446	15996	0	316
-42.012	-41.111	16421	16373	0	316
-37.505	-36.964	16446	16726	0	316
-37.468	-36.062	16471	17045	0	316
-40.353	-39.776	16484	17317	0	316
-46.845	-45.943	16509	17526	0	316
-52.831	-52.218	16534	17700	0	316
-48.900	-50.415	16610	17926	0	316
-40.245	-44.464	16698	18216	0	316
-29.895	-35.665	16698	18385	0	316
-22.683	-31.482	16660	18228	0	316
-20.087	-29.715	16585	17886	0	316
-22.503	-31.987	16547	17689	0	316
-26.109	-33.249	16547	17677	0	316
-32.889	-36.278	16534	17654	0	316
-42.120	-41.183	16522	17590	0	316
-49.477	-44.176	16534	17567	0	316
-52.038	-44.897	16547	17607	0	316
-47.926	-40.894	16597	17700	0	316
-42.265	-34.439	16698	17834	0	316
-38.262	-33.285	16786	17979	0	316
-38.983	-36.531	16836	18060	0	316
-47.313	-43.924	16899	18042	0	316
-54.706	-52.578	16911	17961	0	316
-61.017	-58.529	16961	17868	0	316
-62.964	-59.502	16987	17758	0	316
-59.394	-56.221	16974	17619	0	316
-53.119	-53.588	16974	17433	0	316
-47.962	-47.133	16961	17213	0	316
-42.517	-44.068	16899	16969	0	316
-38.947	-39.632	16886	16732	0	316
-37.829	-34.872	16823	16500	0	316
-34.620	-28.417	16710	16210	0	316
-30.689	-23.008	16585	15862	0	316
-30.761	-20.375	16522	15596	0	316
-31.230	-21.854	16446	15445	0	316
-32.203	-23.801	16384	15364	0	316
-31.338	-23.116	16309	15282	0	316
-30.689	-23.801	16196	15132	0	316
-29.931	-22.935	16108	14958	0	316
-33.105	-26.181	15995	14859	0	316
-37.757	-29.931	15932	14888	0	316
-39.704	-32.744	15857	14958	0	316
-36.495	-31.122	15807	14969	0	316
-33.213	-29.102	15681	14917	0	316
-27.551	-26.397	15606	14876	0	316
-25.856	-25.784	15543	14952	0	316
-27.696	-27.515	15530	15149	0	316
-29.751	-29.823	15493	15346	0	316
-33.466	-33.646	15480	15509	0	316
-38.983	-35.052	15480	15706	0	316
-42.157	-37.288	15530	15996	0	316
-45.150	-35.269	15568	16338	0	316
-45.114	-34.800	15606	16598	0	316
-43.166	-34.259	15606	16668	0	316
-42.084	-34.403	15555	16581	0	316
-41.255	-34.728	15593	16598	0	316
-40.101	-34.800	15606	16778	0	316
-39.921	-35.629	15656	16987	0	316
-39.704	-36.387	15719	17207	0	316
-38.622	-37.649	15819	17457	0	316
-40.714	-41.183	15945	17712	0	316
-42.589	-44.284	16096	18019	0	316
-44.104	-45.618	16347	18518	0	316
-42.770	-43.527	16610	19150	0	316
-42.770	-41.868	16823	19591	0	316
-41.760	-37.432	17024	19713	0	316
-43.563	-36.351	17175	19672	0	316
-46.123	-37.324	17326	19638	0	316
-46.881	-38.262	17476	19614	0	316
-48.287	-38.767	17652	19556	0	316
-47.710	-39.019	17791	19475	1	652
-44.609	-38.442	17966	19411	0	652
-43.166	-38.370	18117	19342	0	652
-43.455	-37.973	18293	19272	0	652
-46.195	-39.885	18481	19232	0	652
-49.693	-43.779	18645	19156	0	652
-54.814	-47.277	18770	18982	0	652
-53.660	-46.953	18934	18820	0	652
-56.004	-45.763	19110	18762	0	652
-55.463	-44.681	19298	18750	0	652
-56.653	-43.202	19461	18675	0	652
-55.463	-41.255	19600	18489	0	652
-48.071	-35.954	19725	18263	0	652
-39.019	-27.479	19876	18095	0	652
-34.079	-20.988	20039	18025	0	652
-34.259	-22.683	20190	17955	0	652
-38.658	-27.227	20316	17805	0	652
-47.458	-34.944	20441	17602	0	652
-51.280	-38.731	20542	17399	0	652
-53.119	-39.344	20667	17230	0	652
-52.578	-38.767	20780	17097	0	652
-51.208	-39.199	20881	16946	0	652
-49.441	-39.416	20944	16766	0	652
-44.645	-38.226	21057	16592	0	652
-42.157	-37.360	21120	16476	0	652
-41.471	-37.144	21233	16424	0	652
-41.796	-36.423	21358	16379	0	652
-43.347	-38.550	21421	16286	0	652
-43.527	-38.334	21497	16193	0	652
-44.464	-37.000	21572	16118	0	652
-42.950	-34.980	21660	16042	0	652
-43.202	-32.853	21723	15961	0	652
-43.635	-33.393	21760	15880	0	652
-41.616	-33.934	21786	15746	0	652
-41.039	-35.413	21748	15468	0	652
-42.229	-36.928	21685	15091	0	652
-44.717	-37.036	21635	14807	0	652
-47.999	-39.019	21610	14691	0	652
-51.064	-39.740	21597	14662	0	652
-49.657	-41.183	21534	14563	0	652
-48.720	-40.858	21446	14354	0	652
-45.979	-40.065	21384	14146	0	652
-42.481	-38.190	21258	14001	0	652
-40.281	-36.603	21182	13896	0	652
-39.921	-36.964	21057	13780	0	652
-36.711	-35.305	20919	13618	0	652
-32.095	-32.167	20843	13536	0	652
-27.407	-25.460	20743	13623	0	652
-22.755	-20.844	20730	13832	0	652
-22.070	-18.536	20667	14070	0	652
-28.020	-23.404	20667	14314	0	652
-33.177	-30.689	20667	14598	0	652
-39.055	-35.377	20718	14929	0	652
-38.803	-35.701	20755	15294	0	652
-36.711	-32.492	20806	15677	0	652
-35.593	-29.931	20868	16002	0	652
-35.846	-30.941	20906	16251	0	652
-36.819	-32.889	20981	16494	0	652
-36.891	-35.341	21107	16819	0	652
-37.072	-34.908	21220	17196	0	652
-35.810	-34.043	21296	17480	0	652
-34.836	-33.466	21321	17486	0	652
-34.944	-33.141	21283	17265	0	652
-34.547	-33.466	21283	17097	0	652
-35.197	-33.610	21283	17051	0	652
-36.495	-34.439	21283	16998	0	652
-38.190	-33.429	21245	16900	0	652
-37.324	-31.879	21233	16784	0	652
-35.088	-30.581	21195	16662	0	652
-33.754	-27.732	21220	16598	0	652
-33.357	-27.696	21258	16714	0	652
-33.213	-26.686	21308	16894	0	652
-33.466	-28.597	21296	16894	0	652
-31.771	-27.371	21283	16679	0	652
-32.600	-29.102	21182	16407	0	652
-35.521	-33.754	21120	16193	0	652
-39.596	-38.154	21069	16002	0	652
-44.609	-42.842	20931	15741	0	652
-47.926	-45.979	20743	15317	0	652
-47.313	-47.674	20542	14830	0	652
-48.792	-46.195	20366	14459	0	652
-47.241	-44.068	20215	14285	0	652
-47.386	-41.471	20102	14279	0	652
-50.379	-40.966	20002	14349	0	652
-50.018	-41.363	19901	14395	0	652
-51.929	-42.625	19801	14430	0	652
-48.612	-41.796	19725	14517	0	652
-42.481	-39.199	19650	14673	0	652
-38.695	-34.620	19612	14842	0	652
-36.783	-33.177	19524	14963	0	652
-36.531	-34.511	19474	15085	0	652
-37.144	-34.728	19436	15306	0	652
-33.466	-31.879	19487	15648	0	652
-26.145	-24.919	19499	16031	0	652
-18.031	-19.149	19524	16326	0	652
-17.166	-17.021	19524	16505	0	652
-23.296	-24.486	19524	16592	0	652
-35.305	-36.423	19487	16633	0	652
-47.025	-48.143	19461	16668	0	652
-52.975	-51.208	19411	16662	0	652
-51.785	-49.153	19373	16604	0	652
-47.349	-44.753	19311	16575	0	652
-46.087	-41.904	19298	16610	0	652
-47.205	-44.104	19298	16685	0	652
-51.965	-50.054	19298	16801	0	652
-58.889	-54.273	19336	16935	0	652
-64.371	-60.837	19298	16987	0	652
-65.705	-60.115	19286	16946	0	652
-62.171	-54.886	19273	16877	0	652
-53.408	-48.576	19223	16813	0	652
-46.917	-41.111	19172	16737	0	652
-43.996	-40.353	19147	16639	0	652
-45.402	-44.573	19085	16529	0	652
-48.503	-47.133	19059	16459	0	652
-47.710	-44.428	19059	16540	0	652
-41.904	-36.098	19122	16761	0	652
-39.452	-31.085	19122	16900	0	652
-39.163	-28.525	19097	16813	0	652
-41.616	-30.725	18997	16569	0	652
-43.166	-32.925	18921	16315	0	652
-39.921	-31.807	18808	16060	0	652
-33.898	-25.316	18620	15729	0	652
-28.958	-20.916	18419	15253	0	652
-27.119	-22.358	18155	14714	0	652
-32.600	-25.388	17954	14320	0	652
-34.800	-31.230	17765	14146	0	652
-41.760	-36.062	17640	14105	0	652
-44.212	-36.964	17464	14082	0	652
-48.251	-37.649	17301	14041	0	652
-49.477	-38.875	17150	14047	0	652
-51.497	-40.173	17037	14140	0	652
-47.818	-40.353	16961	14337	0	652
-45.618	-39.740	16861	14586	0	652
-45.150	-38.622	16798	14807	0	652
-46.268	-38.767	16723	14987	0	652
-48.539	-39.452	16698	15195	0	652
-50.090	-41.543	16647	15491	0	652
-47.710	-40.245	16647	15816	0	652
-46.412	-40.606	16635	16060	0	652
-44.897	-39.416	16585	16216	0	652
-43.022	-38.262	16572	16379	0	652
-41.399	-36.351	16534	16540	0	652
-36.783	-34.187	16409	16494	0	652
-33.790	-31.410	16171	16025	0	652
-32.059	-33.862	15882	15364	0	652
-34.223	-34.800	15681	14946	0	652
-37.288	-38.045	15467	14807	0	652
-39.596	-41.291	15292	14766	0	652
-44.464	-43.924	15153	14737	0	652
-50.667	-50.415	14990	14772	0	652
-56.906	-56.329	14902	14905	0	652
-63.289	-60.656	14802	15120	0	652
-62.243	-59.755	14789	15416	0	652
-59.106	-56.942	14839	15868	0	652
-53.805	-50.559	14915	16447	0	652
-52.578	-51.280	14940	16940	0	652
-53.264	-49.766	14977	17196	0	652
-54.454	-48.503	14965	17300	0	652
-52.254	-47.818	14977	17393	0	652
-51.244	-46.520	14965	17457	0	652
-47.638	-44.789	14814	17317	0	652
-48.467	-44.897	14663	16911	0	652
-45.294	-41.471	14500	16453	0	652
-38.875	-32.636	14349	16170	0	652
-31.338	-24.198	14236	16065	0	652
-26.902	-19.437	14173	16094	0	652
-26.974	-20.159	14111	16193	0	652
-30.869	-25.279	14098	16303	0	652
-35.846	-26.902	14048	16424	0	652
-34.475	-27.696	14048	16558	0	652
-34.079	-28.453	14035	16633	0	652
-35.665	-32.312	13960	16639	0	652
-39.452	-39.380	13922	16627	0	652
-46.340	-45.871	13922	16679	0	652
-49.982	-46.304	13910	16824	0	652
-49.153	-45.618	13972	17068	0	652
-47.458	-41.075	14086	17375	0	652
-45.005	-40.570	14173	17694	0	652
-44.320	-40.029	14287	18002	0	652
-45.041	-40.317	14412	18274	0	652
-44.428	-38.586	14563	18535	0	652
-39.163	-34.583	14714	18773	0	652
-35.918	-30.220	14839	18918	0	652
-33.610	-28.958	14965	18988	0	652
-37.288	-30.545	15091	19017	0	652
-42.697	-37.144	15178	19017	0	652
-46.448	-39.416	15304	18976	0	652
-46.015	-41.003	15379	18878	0	652
-40.317	-37.324	15405	18646	0	652
-38.370	-35.918	15417	18274	0	652
-38.334	-36.531	15354	17828	1	760
-39.776	-37.685	15342	17416	0	760
-42.842	-38.226	15342	17149	0	760
-40.822	-38.334	15379	17039	0	760
-40.678	-37.973	15405	16981	0	760
-43.058	-38.911	15405	16842	0	760
-45.835	-42.986	15417	16633	0	760
-50.992	-46.087	15430	16529	0	760
-52.254	-49.225	15505	16592	0	760
-51.857	-50.270	15606	16749	0	760
-48.900	-48.107	15719	16917	0	760
-46.051	-46.268	15819	17027	0	760
-48.071	-45.727	15920	17120	0	760
-51.064	-45.078	16070	17283	0	760
-54.454	-46.484	16221	17503	0	760
-53.480	-46.917	16384	17700	0	760
-52.362	-43.022	16534	17834	0	760
-48.143	-40.930	16710	17979	0	760
-42.806	-37.721	16924	18205	0	760
-42.770	-35.016	17150	18506	0	760
-41.652	-33.357	17426	18814	0	760
-39.776	-32.492	17640	19017	0	760
-38.622	-32.636	17866	19116	0	760
-37.901	-34.006	18054	19133	0	760
-34.764	-33.862	18230	19052	0	760
-31.482	-33.213	18368	18872	0	760
-29.823	-30.508	18494	18634	0	760
-30.833	-29.715	18645	18402	0	760
-31.807	-29.391	18745	18228	0	760
-34.259	-32.059	18909	18112	0	760
-37.685	-34.439	19059	18042	0	760
-40.678	-38.334	19223	17961	0	760
-44.897	-41.363	19286	17764	0	760
-45.979	-44.645	19361	17428	0	760
-48.251	-45.727	19436	17103	0	760
-47.422	-43.491	19487	16865	0	760
-44.537	-40.606	19549	16662	0	760
-45.258	-38.226	19625	16500	0	760
-45.474	-37.324	19713	16367	0	760
-44.861	-37.973	19713	16152	0	760
-43.635	-37.541	19738	15897	0	760
-42.229	-36.206	19851	15822	0	760
-42.193	-36.639	19926	15915	0	760
-43.960	-36.423	19989	15926	0	760
-44.753	-36.964	20027	15770	0	760
-45.727	-36.278	20039	15596	0	760
-42.553	-32.276	20064	15514	0	760
-37.901	-28.814	20127	15543	0	760
-34.908	-27.371	20215	15648	0	760
-34.151	-26.686	20303	15770	0	760
-33.429	-27.948	20404	15880	0	760
-34.115	-28.561	20529	16036	0	760
-35.413	-30.400	20630	16257	0	760
-37.685	-33.646	20780	16465	0	760
-41.760	-38.370	20881	16604	0	760
-46.195	-44.104	20994	16633	0	760
-50.126	-44.717	21032	16592	0	760
-51.893	-45.618	21095	16529	0	760
-51.280	-42.373	21132	16407	0	760
-51.172	-40.822	21132	16245	0	760
-49.477	-39.019	21120	16065	0	760
-51.280	-41.868	21120	15886	0	760
-51.569	-43.166	21107	15723	0	760
-53.444	-46.232	21120	15659	0	760
-51.316	-46.376	21170	15700	0	760
-48.936	-43.202	21170	15723	0	760
-44.573	-41.219	21170	15694	0	760
-41.435	-37.577	21182	15636	0	760
-40.462	-36.855	21132	15538	0	760
-39.524	-37.324	21107	15410	0	760
-39.272	-36.928	21069	15271	0	760
-38.226	-35.810	20969	15079	0	760
-36.423	-35.124	20793	14731	0	760
-35.954	-33.718	20605	14256	0	760
-35.197	-32.239	20429	13861	0	760
-34.728	-31.446	20253	13652	0	760
-34.367	-32.492	20102	13542	0	760
-32.600	-33.718	19914	13409	0	760
-31.771	-36.855	19738	13258	0	760
-33.105	-40.173	19612	13270	1	316
-35.629	-41.976	19562	13560	0	316
-37.505	-42.481	19562	14006	0	316
-37.757	-39.235	19499	14349	0	316
-35.737	-35.233	19424	14488	0	316
-33.646	-32.672	19336	14523	0	316
-34.728	-33.069	19235	14604	0	316
-38.875	-37.505	19172	14778	0	316
-43.166	-41.399	19147	15010	0	316
-43.599	-41.688	19047	15178	0	316
-40.678	-37.072	18971	15248	0	316
-35.341	-32.708	18896	15346	0	316
-30.400	-27.010	18871	15572	0	316
-28.309	-24.306	18871	15857	0	316
-29.751	-26.325	18846	16123	0	316
-31.951	-28.814	18858	16332	0	316
-33.934	-34.187	18858	16517	0	316
-34.620	-35.737	18846	16685	0	316
-33.321	-36.206	18833	16790	0	316
-32.636	-34.908	18796	16842	0	316
-34.331	-35.269	18783	16859	0	316
-39.740	-40.065	18745	16865	0	316
-45.438	-45.835	18720	16917	0	316
-49.549	-50.307	18783	17068	0	316
-48.648	-49.297	18808	17265	0	316
-46.015	-49.297	18808	17393	0	316
-42.661	-45.114	18858	17433	0	316
-40.317	-40.065	18858	17433	0	316
-38.695	-37.144	18833	17404	0	316
-40.498	-34.836	18846	17352	0	316
-40.642	-34.800	18833	17294	0	316
-43.094	-38.190	18846	17248	0	316
-43.960	-42.120	18833	17213	0	316
-43.491	-43.851	18808	17167	0	316
-43.022	-44.248	18858	17172	0	316
-45.041	-44.861	18934	17346	0	316
-47.025	-46.340	19047	17619	0	316
-48.792	-46.917	19097	17752	0	316
-47.818	-44.248	19172	17723	0	316
-43.599	-41.039	19223	17700	0	316
-40.065	-37.757	19336	17787	0	316
-38.045	-35.810	19399	17903	0	316
-38.695	-39.163	19436	17868	0	316
-42.048	-45.474	19424	17613	0	316
-46.232	-48.864	19348	17225	0	316
-48.792	-53.372	19273	16819	0	316
-48.215	-51.280	19210	16476	0	316
-44.681	-46.340	19097	16193	0	316
-38.009	-40.858	18971	15839	0	316
-35.341	-38.118	18783	15352	0	316
-37.036	-39.849	18620	14876	0	316
-39.849	-44.717	18469	14575	0	316
-39.740	-44.645	18356	14441	0	316
-37.036	-41.507	18218	14349	0	316
-30.400	-34.836	18079	14198	0	316
-24.306	-31.879	17916	14035	0	316
-23.729	-32.239	17778	13960	0	316
-24.919	-36.206	17652	13995	0	316
-25.496	-37.288	17552	14047	0	316
-25.929	-36.711	17401	14053	0	316
-26.361	-33.862	17275	14064	0	316
-24.811	-30.112	17162	14163	0	316
-23.657	-28.309	17112	14366	0	316
-25.027	-27.155	17087	14650	0	316
-26.578	-26.289	17037	14963	0	316
-29.210	-27.876	17012	15253	0	316
-32.203	-28.561	16961	15456	0	316
-34.656	-33.502	16899	15561	0	316
-36.423	-35.810	16798	15584	0	316
-39.235	-39.091	16723	15584	0	316
-41.904	-42.517	16635	15625	0	316
-44.248	-42.373	16547	15700	0	316
-44.464	-41.940	16471	15787	0	316
-43.563	-40.930	16421	15880	0	316
-43.274	-42.157	16359	15949	0	316
-46.015	-43.887	16284	15990	0	316
-46.268	-45.005	16183	15961	0	316
-44.320	-43.851	16008	15804	0	316
-41.291	-39.272	15857	15572	0	316
-36.891	-32.384	15731	15422	0	316
-33.033	-24.739	15606	15410	0	316
-29.066	-19.582	15493	15456	0	316
-22.106	-14.064	15417	15514	0	316
-15.326	-8.042	15342	15607	0	316
-7.429	-6.094	15279	15781	0	316
-7.753	-8.006	15254	16007	0	316
-17.779	-15.831	15216	16187	0	316
-29.282	-25.352	15153	16257	0	316
-41.291	-34.006	15053	16234	0	316
-47.277	-39.235	14990	16205	0	316
-48.648	-39.921	14915	16239	0	316
-46.376	-38.262	14852	16315	0	316
-43.563	-36.026	14802	16361	0	316
-44.176	-35.197	14726	16344	0	316
-44.897	-35.413	14663	16355	0	316
-46.340	-38.839	14651	16482	0	316
-50.956	-43.779	14676	16726	0	316
-53.877	-47.349	14714	16993	0	316
-55.427	-48.756	14726	17172	0	316
-51.569	-46.304	14676	17172	0	316
-49.802	-42.625	14563	16940	0	316
-46.484	-41.363	14437	16587	0	316
-45.366	-41.616	14312	16338	0	316
-47.674	-41.399	14186	16181	0	316
-47.782	-41.616	14111	16036	0	316
-42.445	-38.118	13998	15967	0	316
-37.468	-32.816	13960	16007	0	316
-34.079	-30.112	13935	16106	0	316
-35.377	-31.879	13872	16170	0	316
-41.616	-36.675	13797	16158	0	316
-48.576	-42.193	13671	16025	0	316
-50.270	-42.842	13545	15787	0	316
-47.674	-41.327	13420	15613	0	316
-45.546	-39.055	13344	15590	0	316
-46.953	-38.658	13281	15665	0	316
-50.054	-43.815	13219	15746	0	316
-55.247	-47.277	13093	15712	0	316
-53.516	-49.044	13018	15648	0	316
-52.867	-46.664	13043	15845	0	316
-47.818	-42.157	13106	16286	0	316
-46.232	-41.796	13106	16616	0	316
-45.114	-39.199	13080	16674	0	316
-42.373	-39.524	13055	16633	0	316
-40.029	-37.288	13080	16761	0	316
-35.088	-35.088	13156	17091	0	316
-31.987	-32.889	13281	17462	0	316
-30.545	-31.482	13369	17787	0	316
-29.463	-31.807	13470	18031	0	316
-30.400	-32.708	13596	18240	0	316
-30.436	-34.620	13721	18477	0	316
-30.869	-34.115	13897	18721	0	316
-30.617	-33.682	13998	18878	0	316
-31.158	-33.934	14098	18889	0	316
-34.439	-34.223	14186	18849	0	316
-37.072	-35.124	14349	18924	0	316
-37.613	-36.855	14550	19139	0	316
-37.793	-36.170	14751	19382	0	316
-37.541	-35.052	14940	19510	0	316
-37.360	-34.656	15091	19533	0	316
-40.245	-36.242	15304	19545	0	316
-42.265	-36.351	15480	19591	0	316
-43.455	-37.396	15731	19672	0	316
-41.291	-35.593	15945	19777	0	316
-40.317	-37.649	16183	19881	0	316
-40.570	-38.586	16421	19939	0	316
-41.255	-41.075	16660	19939	0	316
-40.389	-42.770	16886	19893	0	316
-41.976	-42.084	17074	19765	0	316
-41.255	-41.580	17288	19574	0	316
-42.986	-44.861	17451	19371	1	596
-43.743	-45.330	17640	19168	0	596
-43.707	-46.232	17791	18965	0	596
-41.075	-43.022	17966	18773	0	596
-38.045	-39.344	18142	18582	0	596
-36.062	-35.665	18268	18303	0	596
-36.242	-34.331	18306	17851	0	596
-36.423	-34.872	18356	17364	0	596
-38.226	-34.728	18481	17126	0	596
-38.262	-33.466	18670	17132	0	596
-36.206	-33.718	18783	17091	0	596
-33.177	-28.633	18858	16848	0	596
-29.571	-25.532	18909	16471	0	596
-29.715	-25.171	18934	16141	0	596
-30.256	-27.119	18997	15949	0	596
-34.006	-30.184	19097	15880	0	596
-37.505	-33.862	19160	15828	0	596
-39.885	-33.970	19210	15706	0	596
-42.445	-34.295	19286	15584	0	596
-44.645	-35.918	19336	15514	0	596
-44.717	-39.488	19399	15491	0	596
-42.373	-41.471	19474	15480	0	596
-42.517	-43.166	19499	15433	0	596
-41.940	-44.573	19549	15387	0	596
-43.527	-43.166	19612	15398	0	596
-43.166	-40.426	19738	15520	0	596
-39.524	-35.882	19801	15648	0	596
-36.819	-31.771	19788	15567	0	596
-35.954	-32.528	19688	15195	0	596
-38.550	-36.206	19600	14720	0	596
-42.445	-39.921	19524	14436	0	596
-44.825	-39.668	19487	14360	0	596
-42.950	-37.973	19411	14325	0	596
-40.209	-33.970	19361	14296	0	596
-39.632	-34.187	19336	14302	0	596
-39.596	-37.973	19298	14378	0	596
-41.760	-40.642	19298	14494	0	596
-38.875	-39.993	19286	14598	0	596
-35.774	-35.593	19248	14702	0	596
-31.085	-29.354	19235	14818	0	596
-29.823	-27.119	19235	14905	0	596
-35.629	-30.040	19172	14946	0	596
-41.507	-36.531	19122	14946	0	596
-47.710	-41.760	19047	14946	0	596
-48.612	-45.222	19034	14992	0	596
-50.920	-44.284	18971	15079	0	596
-51.100	-43.779	18959	15161	0	596
-52.614	-44.609	18909	15219	0	596
-55.608	-46.845	18871	15288	0	596
-54.345	-46.087	18833	15358	0	596
-46.448	-39.849	18733	15352	0	596
-37.036	-31.085	18657	15265	0	596
-26.938	-23.585	18532	15143	0	596
-24.017	-23.080	18356	14917	0	596
-29.535	-30.833	18167	14621	0	596
-39.596	-40.353	18017	14436	0	596
-47.025	-46.268	17891	14395	0	596
-46.123	-44.573	17778	14453	0	596
-40.858	-38.334	17703	14627	0	596
-37.468	-33.682	17703	14900	0	596
-34.151	-30.184	17652	15207	0	596
-32.564	-28.381	17665	15538	0	596
-33.970	-27.804	17728	15909	0	596
-36.964	-31.122	17791	16338	0	596
-43.599	-39.235	17904	16824	0	596
-53.191	-46.448	18054	17364	0	596
-57.555	-51.713	18180	17810	0	596
-57.194	-53.119	18306	18129	0	596
-52.326	-48.576	18431	18385	0	596
-48.323	-43.347	18557	18634	0	596
-45.546	-42.337	18720	18872	0	596
-47.494	-43.130	18808	18982	0	596
-47.674	-43.022	18833	18825	0	596
-47.241	-42.481	18808	18437	0	596
-48.936	-41.471	18796	18095	0	596
-46.304	-39.921	18770	17892	0	596
-42.445	-35.846	18770	17671	0	596
-37.577	-34.043	18733	17387	0	596
-33.141	-32.780	18670	17132	0	596
-34.295	-32.889	18670	16935	0	596
-36.387	-34.872	18645	16766	0	596
-38.767	-34.908	18620	16604	0	596
-39.416	-35.485	18582	16459	0	596
-37.685	-34.403	18544	16303	0	596
-36.134	-35.918	18419	16019	0	596
-38.334	-36.675	18306	15659	0	596
-38.370	-37.577	18218	15393	0	596
-34.043	-33.321	18142	15259	0	596
-31.338	-28.886	18054	15178	0	596
-29.282	-27.840	17979	15108	0	596
-34.620	-33.357	17891	15033	0	596
-43.671	-41.760	17791	14940	0	596
-51.100	-46.123	17728	14865	0	596
-51.136	-45.763	17615	14842	0	596
-47.999	-40.678	17527	14836	0	596
-40.822	-33.682	17426	14766	0	596
-36.964	-32.203	17288	14691	0	596
-36.206	-32.348	17213	14679	0	596
-38.839	-34.331	17137	14749	0	596
-42.084	-36.062	17074	14853	0	596
-43.274	-35.737	16987	14940	0	596
-44.284	-34.764	16861	14969	0	596
-40.606	-34.006	16735	14888	0	596
-36.747	-31.518	16597	14743	0	596
-34.331	-31.013	16484	14714	0	596
-33.141	-30.040	16384	14795	0	596
-33.862	-30.364	16309	14911	0	596
-34.620	-30.869	16259	15103	0	596
-34.079	-30.581	16246	15398	0	596
-30.833	-29.499	16234	15723	0	596
-28.381	-26.938	16183	15920	0	596
-25.532	-26.433	16096	15868	0	596
-27.010	-25.099	15920	15659	0	596
-29.030	-28.489	15819	15549	0	596
-36.964	-34.403	15744	15625	0	596
-43.202	-39.668	15694	15752	0	596
-47.422	-45.258	15618	15874	0	596
-48.287	-43.924	15593	15996	0	596
-43.707	-41.363	15543	16141	0	596
-39.055	-33.321	15593	16389	0	596
-35.016	-30.833	15681	16865	0	596
-33.321	-30.436	15844	17480	0	596
-34.439	-33.285	15945	17909	0	596
-34.620	-36.567	15970	18008	0	596
-34.656	-37.432	15970	17909	0	596
-33.574	-35.233	15970	17799	0	596
-28.922	-29.968	15995	17752	0	596
-21.060	-23.729	15945	17694	0	596
-16.264	-21.241	15882	17486	0	596
-15.507	-21.385	15781	17126	0	596
-23.512	-27.083	15694	16795	0	596
-29.066	-32.997	15631	16616	0	596
-31.662	-34.006	15593	16534	0	596
-25.207	-30.076	15505	16447	0	596
-17.490	-26.578	15442	16303	0	596
-14.713	-23.188	15354	16147	0	596
-22.575	-28.164	15317	16042	0	596
-33.213	-36.278	15254	15990	0	596
-43.815	-43.815	15166	15949	0	596
-46.628	-47.313	15128	15903	0	596
-45.114	-46.989	15116	15920	0	596
-40.029	-45.366	15103	16071	0	596
-39.055	-43.563	15166	16315	0	596
-40.570	-45.727	15191	16546	0	596
-40.209	-47.890	15216	16703	0	596
-39.308	-47.313	15241	16766	0	596
-35.882	-44.140	15241	16784	0	596
-35.377	-43.671	15241	16813	0	596
-41.255	-47.458	15279	16859	0	596
-52.110	-53.191	15241	16824	0	596
-62.928	-62.568	15103	16558	0	596
-65.669	-65.957	14965	16100	0	596
-62.279	-60.512	14814	15700	0	596
-55.319	-52.182	14689	15462	0	596
-45.727	-45.114	14563	15288	0	596
-41.832	-39.055	14412	15103	0	596
-41.616	-38.045	14211	14807	0	596
-43.094	-38.262	13985	14389	0	596
-43.274	-39.019	13797	14117	0	596
-48.431	-39.957	13771	14256	0	596
-51.136	-43.310	13746	14697	0	596
-53.119	-46.340	13721	15091	0	596
-55.319	-48.972	13658	15213	0	596
-51.388	-46.195	13545	15166	0	596
-46.989	-39.704	13457	15161	0	596
-41.580	-34.620	13395	15265	0	596
-41.435	-33.826	13332	15404	0	596
-46.232	-37.216	13206	15433	0	596
-50.307	-43.851	13106	15369	0	596
-51.929	-47.530	13030	15369	0	596
-51.208	-44.933	12955	15491	0	596
-45.294	-38.586	12905	15671	0	596
-40.894	-36.495	12854	15845	0	596
-38.875	-32.744	12829	15984	0	596
-38.875	-33.069	12766	16083	0	596
-36.531	-33.033	12641	16019	0	596
-33.898	-31.049	12477	15787	0	596
-32.492	-29.931	12390	15625	0	596
-32.925	-32.023	12264	15625	0	596
-36.747	-35.701	12201	15723	0	596
-40.678	-37.396	12176	15920	0	596
-43.058	-37.973	12201	16239	0	596
-41.183	-36.675	12239	16581	0	596
-40.462	-35.124	12226	16766	0	596
-40.858	-36.062	12101	16656	0	596
-41.291	-38.190	12013	16407	0	596
-43.887	-38.442	11988	16379	0	596
-42.661	-36.098	11988	16621	0	596
-39.127	-34.115	12050	16935	0	596
-38.082	-32.708	12088	17201	0	596
-41.111	-35.737	12163	17422	0	596
-44.464	-39.524	12226	17660	0	596
-48.576	-41.652	12339	17932	0	596
-46.736	-40.281	12465	18222	0	596
-38.983	-35.810	12641	18541	0	596
-32.167	-28.741	12804	18860	0	596
-25.676	-25.063	12955	19121	0	596
-25.604	-24.125	13143	19313	0	596
-30.977	-26.433	13307	19481	0	596
-34.692	-27.948	13457	19562	0	596
-38.009	-30.545	13533	19452	0	596
-39.740	-28.741	13646	19237	0	596
-39.308	-28.741	13734	19116	0	596
-37.721	-30.689	13897	19092	0	596
-38.045	-32.600	14035	19092	1	816
-38.478	-34.511	14186	19092	0	816
-37.252	-34.295	14299	19017	0	816
-35.774	-33.718	14425	18849	0	816
-36.603	-32.744	14550	18698	0	816
-38.695	-35.233	14714	18640	0	816
-40.065	-37.901	14902	18680	0	816
-42.445	-40.894	15065	18744	0	816
-42.517	-41.976	15254	18762	0	816
-38.118	-39.199	15430	18744	0	816
-34.295	-34.728	15631	18744	0	816
-30.292	-28.669	15819	18744	0	816
-27.840	-26.578	15995	18709	0	816
-27.768	-26.866	16158	18593	0	816
-27.696	-27.479	16322	18472	0	816
-25.748	-27.407	16522	18414	0	816
-23.801	-24.017	16723	18454	0	816
-22.250	-21.132	16924	18495	0	816
-22.611	-21.457	17100	18443	0	816
-25.496	-26.181	17263	18257	0	816
-28.092	-30.725	17288	17868	0	816
-31.158	-34.547	17351	17352	0	816
-27.587	-32.708	17401	16975	0	816
-25.532	-30.977	17476	16755	0	816
-25.820	-29.968	17539	16575	0	816
-29.859	-33.898	17640	16442	0	816
-35.557	-39.632	17740	16401	0	816
-43.779	-44.861	17916	16453	0	816
-44.789	-46.809	17992	16476	0	816
-43.996	-46.123	18017	16251	0	816
-43.310	-44.825	17979	15781	0	816
-44.681	-44.284	17929	15335	0	816
-46.953	-45.979	17891	15016	0	816
-49.044	-46.340	17841	14760	0	816
-47.746	-44.428	17828	14575	0	816
-45.366	-43.347	17791	14488	0	816
-40.209	-38.622	17791	14476	0	816
-35.954	-34.331	17803	14511	0	816
-32.780	-31.951	17803	14575	0	816
-31.807	-31.987	17891	14697	0	816
-32.816	-32.420	17916	14894	0	816
-33.429	-34.259	17929	15050	0	816
-34.006	-36.206	17966	15114	0	816
-33.682	-35.052	17992	15178	0	816
-32.095	-34.547	18029	15294	0	816
-34.115	-34.187	18054	15427	0	816
-38.190	-34.620	18079	15526	0	816
-43.707	-36.964	18105	15584	0	816
-47.674	-36.567	18117	15654	0	816
-46.881	-35.882	18167	15787	0	816
-42.445	-32.420	18243	15984	0	816
-37.216	-29.102	18306	16187	0	816
-35.990	-27.407	18356	16297	0	816
-39.272	-31.338	18394	16321	0	816
-43.202	-34.439	18419	16303	0	816
-44.320	-36.964	18431	16309	0	816
-43.635	-36.964	18419	16297	0	816
-41.507	-35.016	18406	16170	0	816
-39.885	-32.853	18343	15944	0	816
-40.642	-33.357	18280	15746	0	816
-40.930	-32.997	18230	15630	0	816
-40.173	-33.538	18205	15590	0	816
-38.911	-31.735	18180	15607	0	816
-35.810	-31.518	18167	15648	0	816
-32.889	-28.922	18142	15665	0	816
-29.931	-26.073	18105	15648	0	816
-28.777	-23.909	18079	15630	0	816
-30.004	-24.919	18017	15567	0	816
-31.915	-25.352	17929	15462	0	816
-33.898	-27.587	17866	15317	0	816
-32.456	-28.345	17715	15103	0	816
-28.417	-26.902	17527	14766	0	816
-25.712	-25.388	17225	14221	0	816
-24.270	-27.227	16848	13490	0	816
-28.633	-30.040	16509	12800	0	816
-36.567	-34.728	16133	12255	0	816
-42.661	-37.829	15794	11837	0	816
-45.150	-39.488	15467	11617	0	816
-46.664	-39.235	15229	11646	0	816
-47.710	-39.055	15028	11883	0	816
-47.710	-42.157	14839	12191	0	816
-52.001	-47.025	14676	12510	0	816
-51.893	-53.552	14588	12962	0	816
-50.847	-53.336	14550	13612	0	816
-46.304	-50.234	14550	14320	0	816
-38.370	-41.616	14563	14981	0	816
-32.564	-35.557	14588	15555	0	816
-29.931	-31.518	14613	16071	0	816
-29.968	-31.951	14651	16540	0	816
-31.987	-32.925	14689	16987	0	816
-31.158	-31.590	14714	17335	0	816
-28.741	-28.958	14714	17561	0	816
-24.378	-27.083	14739	17747	0	816
-21.168	-25.929	14789	17973	0	816
-22.178	-25.063	14864	18257	0	816
-20.339	-25.893	14915	18512	0	816
-22.683	-27.624	14965	18640	0	816
-25.027	-28.994	14965	18593	0	816
-27.191	-32.492	14839	18292	0	816
-30.400	-37.360	14739	17851	0	816
-34.836	-38.983	14663	17532	0	816
-39.488	-41.652	14588	17346	0	816
-43.166	-43.347	14538	17225	0	816
-45.835	-44.212	14500	17190	0	816
-44.428	-42.229	14500	17230	0	816
-40.750	-39.993	14525	17283	0	816
-37.721	-36.387	14525	17335	0	816
-34.151	-33.682	14550	17399	0	816
-33.393	-35.160	14563	17439	0	816
-34.980	-35.305	14550	17370	0	816
-34.475	-35.377	14550	17259	0	816
-33.321	-32.239	14601	17317	0	816
-28.994	-27.299	14663	17480	0	816
-24.089	-21.781	14651	17462	0	816
-21.024	-19.329	14588	17196	0	816
-23.080	-18.933	14500	16848	0	816
-28.092	-22.467	14425	16569	0	816
-34.728	-27.804	14400	16413	0	816
-37.288	-29.427	14349	16355	0	816
-40.426	-30.653	14287	16274	0	816
-38.550	-32.348	14224	16118	0	816
-38.442	-32.384	14236	16060	0	816
-38.839	-37.108	14249	16234	0	816
-40.642	-41.976	14349	16523	0	816
-39.308	-43.491	14412	16778	0	816
-39.344	-42.301	14475	16952	0	816
-40.389	-42.409	14563	17126	0	816
-42.878	-43.924	14663	17323	0	816
-50.667	-46.412	14739	17474	0	816
-53.155	-45.655	14814	17549	0	816
-52.218	-43.491	14902	17602	0	816
-45.655	-37.108	14977	17648	0	816
-39.055	-33.213	15040	17706	0	816
-38.442	-34.511	15178	17822	0	816
-39.235	-38.442	15292	17955	0	816
-41.796	-41.580	15367	18008	0	816
-41.255	-39.812	15480	17990	0	816
-34.620	-35.737	15555	17973	0	816
-30.292	-30.292	15681	17996	0	816
-26.001	-27.119	15781	18031	0	816
-27.624	-25.712	15882	18002	0	816
-30.508	-28.814	15945	17915	0	816
-32.600	-29.102	16058	17805	0	816
-32.889	-28.092	16108	17712	0	816
-31.230	-27.804	16171	17584	0	816
-31.735	-27.263	16183	17364	0	816
-32.889	-30.364	16183	17062	0	816
-36.675	-31.915	16171	16761	0	816
-40.714	-35.665	16158	16488	0	816
-45.655	-40.281	16121	16234	0	816
-51.677	-43.455	16058	15955	0	816
-57.230	-49.189	15982	15677	0	816
-59.034	-50.090	15882	15369	0	816
-54.237	-48.071	15744	14940	0	816
-51.136	-45.510	15568	14482	0	816
-47.530	-42.950	15505	14285	0	816
-46.448	-42.625	15467	14389	0	816
-46.051	-42.445	15442	14540	0	816
-42.229	-38.911	15367	14563	0	816
-35.882	-34.331	15292	14476	0	816
-31.446	-29.895	15191	14383	0	816
-30.581	-28.814	15116	14354	0	816
-34.547	-29.859	15028	14372	0	816
-38.370	-32.744	14927	14360	0	816
-39.668	-35.088	14814	14302	0	816
-39.885	-35.918	14714	14302	0	816
-36.964	-34.223	14651	14412	0	816
-32.997	-30.941	14563	14540	0	816
-31.230	-28.273	14488	14633	0	816
-32.744	-28.345	14374	14673	0	816
-35.629	-30.869	14299	14697	0	816
-39.668	-34.872	14173	14714	0	816
-42.878	-38.334	14048	14691	0	816
-42.012	-39.452	13922	14615	0	816
-41.543	-39.776	13771	14552	0	816
-42.120	-39.993	13646	14552	0	816
-44.428	-40.894	13533	14656	0	816
-44.068	-40.750	13482	14876	0	816
-44.464	-38.082	13432	15132	0	816
-43.743	-34.331	13395	15364	0	816
-46.304	-33.393	13357	15584	0	816
-50.559	-33.790	13332	15822	0	816
-56.581	-36.134	13294	16019	0	816
-59.719	-38.009	13219	16129	0	816
-53.841	-37.721	13156	16118	0	816
-50.811	-33.466	12980	15932	0	816
-45.763	-30.508	12766	15584	0	816
-43.671	-29.427	12528	15172	0	816
-47.277	-30.581	12352	14882	0	816
-51.821	-34.295	12163	14813	0	816
-52.146	-36.314	12075	14946	0	816
-52.038	-35.774	11988	15137	0	816
-46.159	-34.620	11887	15282	0	816
-43.310	-31.085	11862	15462	0	816
-39.272	-26.758	11862	15839	0	816
-39.127	-27.191	11862	16234	0	816
-41.111	-29.282	11837	16459	0	816
-44.248	-32.816	11862	16668	0	816
-48.539	-38.154	11912	16981	0	816
-47.313	-38.731	11975	17346	0	816
-43.743	-36.278	12101	17770	0	816
-39.921	-33.033	12289	18280	0	816
-39.993	-31.446	12465	18814	0	816
-40.173	-32.456	12666	19284	0	816
-45.366	-33.790	12892	19684	0	816
-46.736	-33.393	13156	20090	0	816
-43.996	-32.456	13407	20537	0	816
-42.697	-31.410	13734	20954	0	816
-42.589	-31.085	14023	21273	0	816
-39.849	-30.148	14299	21494	0	816
-38.154	-26.542	14613	21656	0	816
-33.970	-22.178	14927	21819	0	816
-32.059	-20.627	15241	21952	0	816
-32.095	-19.726	15543	21993	0	816
-33.502	-21.818	15857	21935	0	816
-35.305	-26.325	16108	21819	0	816
-35.269	-27.696	16396	21668	0	816
-38.082	-30.617	16647	21471	0	816
-39.091	-31.699	16861	21186	1	872
-40.894	-33.466	17074	20780	0	872
-41.219	-32.636	17150	20154	0	872
-41.147	-33.502	17175	19365	0	872
-40.894	-35.124	17238	18634	0	872
-42.661	-38.226	17275	18048	0	872
-44.717	-41.832	17351	17561	0	872
-45.655	-41.904	17389	17097	0	872
-45.438	-41.652	17363	16563	0	872
-44.609	-38.514	17401	16054	0	872
-43.563	-37.396	17489	15845	0	872
-41.363	-35.701	17640	15932	0	872
-39.416	-33.826	17728	15955	0	872
-34.980	-31.194	17778	15746	0	872
-32.203	-26.361	17778	15410	0	872
-32.312	-24.234	17778	15126	0	872
-31.410	-24.739	17841	14981	0	872
-31.410	-25.207	17866	14958	0	872
-31.013	-23.801	17929	14958	0	872
-30.941	-25.568	17979	14934	0	872
-33.177	-27.479	18042	14981	0	872
-36.098	-30.004	18117	15114	0	872
-37.505	-34.511	18205	15224	0	872
-38.550	-36.855	18243	15253	0	872
-37.649	-37.757	18293	15236	0	872
-38.731	-37.973	18343	15242	0	872
-41.147	-41.075	18406	15311	0	872
-44.356	-41.904	18456	15422	0	872
-43.851	-41.003	18494	15520	0	872
-40.786	-36.711	18557	15567	0	872
-35.233	-31.338	18582	15567	0	872
-31.338	-25.316	18620	15567	0	872
-31.194	-25.135	18645	15613	0	872
-34.764	-27.299	18720	15700	0	872
-40.678	-31.194	18745	15764	0	872
-41.327	-33.682	18783	15793	0	872
-37.541	-33.249	18808	15810	0	872
-33.285	-31.590	18858	15851	0	872
-31.554	-31.626	18858	15903	0	872
-36.098	-35.449	18896	15874	0	872
-41.327	-37.468	18846	15764	0	872
-43.527	-38.154	18846	15659	0	872
-42.986	-34.908	18833	15607	0	872
-39.235	-30.256	18783	15555	0	872
-35.521	-26.542	18770	15474	0	872
-33.429	-23.981	18720	15387	0	872
-31.230	-21.781	18620	15271	0	872
-29.571	-23.404	18494	14998	0	872
-30.004	-23.765	18306	14575	0	872
-33.141	-27.624	18117	14186	0	872
-38.731	-33.357	17954	13943	0	872
-41.399	-35.485	17803	13780	0	872
-43.455	-35.449	17577	13577	0	872
-43.743	-33.249	17351	13316	0	872
-42.265	-30.364	17112	13038	0	872
-40.966	-28.669	16861	12788	0	872
-37.144	-24.702	16647	12690	0	872
-35.269	-22.286	16446	12736	0	872
-30.076	-18.356	16309	12858	0	872
-28.273	-12.910	16171	13090	0	872
-25.965	-9.592	16070	13455	0	872
-24.414	-8.655	16033	13896	0	872
-24.089	-9.052	15970	14314	0	872
-24.053	-9.556	15920	14639	0	872
-28.056	-14.064	15869	14963	0	872
-31.049	-17.706	15869	15387	0	872
-33.321	-18.644	15907	15880	0	872
-36.206	-21.060	15945	16332	0	872
-36.423	-22.214	15945	16679	0	872
-34.439	-21.421	15970	16929	0	872
-33.502	-22.791	15945	17103	0	872
-31.951	-21.457	15995	17283	0	872
-31.374	-20.339	16033	17538	0	872
-32.384	-22.178	16070	17776	0	872
-32.997	-21.962	16121	17961	0	872
-31.446	-22.791	16196	18170	0	872
-27.083	-20.050	16309	18431	0	872
-23.224	-14.641	16409	18692	0	872
-20.339	-13.559	16509	18854	0	872
-24.847	-17.057	16509	18767	0	872
-30.508	-23.404	16446	18385	0	872
-36.242	-29.968	16384	17961	0	872
-38.586	-30.905	16322	17660	0	872
-37.721	-30.364	16284	17433	0	872
-35.846	-27.407	16246	17236	0	872
-34.223	-28.561	16171	17045	0	872
-34.692	-29.787	16108	16755	0	872
-36.026	-30.184	15970	16395	0	872
-36.495	-32.167	15869	16123	0	872
-38.370	-30.725	15781	15920	0	872
-39.091	-29.463	15668	15677	0	872
-38.045	-26.830	15480	15352	0	872
-36.567	-22.755	15342	15033	0	872
-36.062	-20.411	15191	14818	0	872
-37.000	-20.231	15065	14749	0	872
-41.363	-21.998	14990	14778	0	872
-46.628	-26.037	14877	14801	0	872
-51.280	-31.482	14789	14784	0	872
-52.578	-34.511	14726	14847	0	872
-53.516	-35.918	14689	15085	0	872
-51.641	-35.954	14714	15410	0	872
-54.634	-35.665	14714	15723	0	872
-58.637	-39.308	14726	15967	0	872
-66.462	-46.340	14726	16158	0	872
-70.754	-51.821	14751	16355	0	872
-69.347	-52.975	14789	16552	0	872
-64.515	-50.234	14751	16679	0	872
-56.690	-43.599	14726	16674	0	872
-49.225	-39.524	14676	16592	0	872
-46.664	-35.197	14651	16546	0	872
-43.924	-34.079	14626	16587	0	872
-44.789	-35.197	14626	16679	0	872
-48.720	-39.776	14626	16755	0	872
-54.706	-46.628	14626	16813	0	872
-56.834	-49.405	14613	16842	0	872
-54.093	-47.061	14601	16824	0	872
-48.143	-40.534	14601	16807	0	872
-38.947	-33.970	14626	16894	0	872
-38.658	-34.115	14676	17074	0	872
-43.887	-39.596	14726	17219	0	872
-51.172	-46.592	14776	17306	0	872
-54.670	-47.890	14814	17364	0	872
-49.766	-44.104	14814	17370	0	872
-43.491	-37.396	14814	17312	0	872
-37.973	-31.122	14839	17225	0	872
-39.019	-31.626	14852	17143	0	872
-42.697	-34.764	14814	17045	0	872
-45.150	-38.442	14802	16917	0	872
-44.969	-39.560	14776	16772	0	872
-40.317	-37.108	14726	16604	0	872
-35.233	-35.124	14613	16350	0	872
-30.617	-31.771	14488	15996	0	872
-27.515	-29.427	14400	15683	0	872
-27.696	-28.994	14312	15526	0	872
-29.535	-31.302	14249	15509	0	872
-36.170	-32.348	14211	15497	0	872
-41.976	-35.882	14148	15439	0	872
-43.455	-37.432	14060	15416	0	872
-45.294	-36.747	14048	15485	0	872
-46.989	-35.449	14048	15625	0	872
-45.655	-38.947	13998	15717	0	872
-47.602	-38.947	13972	15741	0	872
-45.691	-40.426	13972	15804	0	872
-41.291	-37.505	13960	15949	0	872
-36.819	-33.646	13972	16118	0	872
-35.990	-29.895	13998	16251	0	872
-38.803	-30.364	13985	16344	0	872
-44.068	-32.708	13972	16384	0	872
-48.179	-36.423	13985	16436	0	872
-46.917	-36.098	14023	16552	0	872
-44.104	-33.646	14023	16668	0	872
-36.891	-28.777	13972	16604	0	872
-31.879	-25.460	13784	16216	0	872
-31.194	-25.965	13596	15619	0	872
-32.564	-28.237	13420	15161	0	872
-34.764	-30.689	13269	14975	0	872
-37.865	-31.194	13156	14923	0	872
-37.649	-27.804	13043	14894	0	872
-34.547	-25.532	12930	14871	0	872
-32.528	-23.621	12829	14842	0	872
-29.643	-22.106	12729	14830	0	872
-27.299	-20.808	12678	14963	0	872
-25.568	-22.070	12666	15248	0	872
-26.974	-21.637	12616	15491	0	872
-30.833	-25.388	12528	15538	0	872
-34.800	-29.859	12452	15445	0	872
-36.423	-31.410	12327	15381	0	872
-36.711	-31.230	12264	15422	0	872
-33.357	-28.994	12176	15497	0	872
-32.095	-27.191	12038	15474	0	872
-32.564	-25.929	11912	15369	0	872
-34.439	-25.135	11837	15340	0	872
-35.918	-23.945	11787	15480	0	872
-36.603	-23.585	11736	15717	0	872
-34.836	-22.575	11724	15920	0	872
-31.518	-18.897	11673	16060	0	872
-25.784	-15.651	11673	16205	0	872
-22.106	-11.432	11648	16373	0	872
-20.231	-8.763	11661	16558	0	872
-23.693	-13.451	11711	16807	0	872
-27.732	-18.933	11761	17091	0	872
-31.266	-25.604	11837	17410	0	872
-29.787	-26.145	11975	17793	0	872
-27.515	-21.745	12138	18234	0	872
-23.368	-19.149	12339	18692	0	872
-22.719	-13.091	12528	19081	0	872
-19.870	-11.107	12704	19324	0	872
-17.706	-8.763	12854	19464	0	872
-12.838	-5.085	13055	19690	0	872
-11.107	-3.570	13307	20003	0	872
-13.307	-3.210	13545	20252	0	872
-17.526	-6.347	13771	20432	0	872
-20.087	-8.475	14060	20647	0	872
-21.168	-13.018	14374	20879	0	872
-21.277	-15.543	14651	21047	0	872
-26.217	-24.198	14915	21117	0	872
-33.790	-31.049	15153	21012	0	872
-38.262	-36.675	15304	20711	0	872
-40.245	-39.127	15467	20374	0	872
-36.387	-36.495	15668	20102	0	872
-32.780	-31.699	15819	19864	1	800
-33.177	-31.194	15982	19585	0	800
-34.692	-30.581	16058	19150	0	800
-37.613	-33.105	16121	18570	0	800
-39.596	-37.505	16234	18106	0	800
-41.255	-40.353	16384	17961	0	800
-40.786	-44.104	16572	18025	0	800
-39.885	-42.517	16773	18025	0	800
-35.485	-36.278	16886	17834	0	800
-30.112	-27.515	16987	17520	0	800
-28.092	-23.657	17074	17225	0	800
-32.672	-25.604	17175	16975	0	800
-41.760	-33.105	17275	16772	0	800
-47.422	-39.740	17338	16546	0	800
-53.191	-41.616	17351	16234	0	800
-51.461	-41.075	17401	15915	0	800
-50.198	-41.580	17426	15723	0	800
-53.047	-47.422	17514	15659	0	800
-54.814	-50.920	17590	15596	0	800
-55.103	-53.191	17602	15485	0	800
-53.228	-49.189	17665	15393	0	800
-52.759	-45.402	17778	15404	0	800
-54.598	-45.763	17841	15497	0	800
-56.942	-47.349	17954	15625	0	800
-58.096	-45.582	18042	15729	0	800
-50.775	-41.904	18142	15787	0	800
-42.048	-35.052	18230	15857	0	800
-35.197	-30.400	18356	15996	0	800
-34.259	-33.177	18494	16193	0	800
-40.786	-39.380	18557	16309	0	800
-48.179	-45.186	18595	16176	0	800
-50.775	-45.907	18544	15822	0	800
-49.044	-44.176	18532	15526	0	800
-44.320	-42.734	18519	15398	0	800
-38.262	-38.586	18494	15323	0	800
-38.406	-39.524	18494	15213	0	800
-37.937	-38.767	18469	15120	0	800
-39.921	-37.288	18481	15091	0	800
-41.111	-33.754	18494	15143	0	800
-42.517	-32.672	18544	15306	0	800
-41.832	-32.239	18645	15543	0	800
-41.075	-32.095	18657	15683	0	800
-39.488	-32.384	18620	15584	0	800
-39.740	-32.420	18532	15335	0	800
-41.796	-34.187	18469	15097	0	800
-46.664	-36.098	18394	14958	0	800
-50.126	-41.652	18293	14830	0	800
-51.569	-44.176	18155	14592	0	800
-48.395	-42.481	17979	14250	0	800
-43.707	-38.118	17828	13989	0	800
-38.947	-32.348	17728	13914	0	800
-35.990	-30.112	17615	13972	0	800
-35.341	-29.102	17539	14088	0	800
-33.754	-30.905	17476	14186	0	800
-30.472	-30.797	17389	14296	0	800
-29.427	-30.364	17288	14354	0	800
-31.410	-34.151	17087	14209	0	800
-38.875	-37.360	16861	13902	0	800
-47.386	-42.697	16698	13670	0	800
-53.119	-45.438	16522	13670	0	800
-51.280	-42.770	16421	13855	0	800
-47.494	-39.993	16384	14186	0	800
-42.806	-36.928	16372	14610	0	800
-39.235	-35.701	16309	14946	0	800
-36.639	-34.836	16133	14952	0	800
-35.449	-32.961	15882	14598	0	800
-30.472	-29.823	15668	14244	0	800
-27.263	-26.109	15543	14238	0	800
-25.712	-25.135	15405	14453	0	800
-28.886	-27.660	15342	14731	0	800
-32.853	-33.285	15317	15097	0	800
-38.442	-37.360	15317	15584	0	800
-39.740	-39.452	15417	16147	0	800
-38.009	-35.846	15493	16703	0	800
-35.197	-33.502	15606	17213	0	800
-34.187	-30.833	15668	17619	0	800
-32.059	-29.318	15731	17897	0	800
-27.191	-25.532	15781	18071	0	800
-20.231	-22.070	15819	18182	0	800
-17.490	-17.634	15869	18292	0	800
-18.752	-18.608	15945	18396	0	800
-26.397	-24.522	15932	18408	0	800
-34.800	-29.968	15945	18303	0	800
-38.586	-31.049	16008	18280	0	800
-38.478	-29.246	16133	18454	0	800
-34.764	-25.424	16221	18628	0	800
-32.059	-19.762	16246	18605	0	800
-27.876	-18.608	16297	18431	0	800
-24.666	-17.562	16309	18251	0	800
-22.611	-15.326	16322	18089	0	800
-23.909	-18.103	16322	17915	0	800
-25.352	-18.716	16322	17723	0	800
-26.325	-21.529	16309	17515	0	800
-26.397	-20.195	16297	17294	0	800
-24.847	-20.375	16297	17132	0	800
-22.827	-16.480	16309	17051	0	800
-18.897	-15.182	16309	16987	0	800
-15.471	-11.937	16297	16853	0	800
-7.645	-9.088	16284	16674	0	800
-4.147	-6.599	16297	16552	0	800
-4.364	-7.357	16322	16558	0	800
-9.376	-10.746	16359	16639	0	800
-15.290	-15.182	16384	16650	0	800
-14.245	-18.067	16372	16563	0	800
-13.235	-15.110	16347	16407	0	800
-12.586	-14.894	16322	16234	0	800
-16.769	-14.785	16284	16094	0	800
-24.162	-20.700	16234	15978	0	800
-30.436	-24.811	16183	15857	0	800
-31.302	-25.748	16171	15764	0	800
-27.840	-24.089	16133	15723	0	800
-26.253	-19.437	16096	15706	0	800
-29.463	-20.375	16070	15706	0	800
-32.348	-23.368	16070	15717	0	800
-36.062	-26.722	15995	15671	0	800
-38.334	-29.823	15932	15520	0	800
-36.711	-29.499	15819	15335	0	800
-34.944	-28.164	15756	15190	0	800
-32.167	-29.282	15631	15097	0	800
-28.669	-27.371	15530	14969	0	800
-27.696	-28.633	15342	14697	0	800
-26.938	-31.771	15178	14389	0	800
-27.479	-31.699	15103	14343	0	800
-28.273	-31.699	15028	14552	0	800
-27.083	-32.023	14990	14766	0	800
-25.388	-30.833	14877	14836	0	800
-25.063	-30.292	14776	14801	0	800
-27.227	-32.276	14663	14755	0	800
-30.508	-34.800	14588	14789	0	800
-33.790	-35.269	14500	14905	0	800
-35.449	-34.367	14374	14969	0	800
-36.206	-33.285	14236	14911	0	800
-35.160	-30.112	14123	14847	0	800
-35.485	-30.689	14023	14882	0	800
-37.000	-31.626	13935	15004	0	800
-36.855	-32.276	13847	15132	0	800
-33.141	-30.112	13734	15219	0	800
-28.525	-22.935	13646	15259	0	800
-22.034	-17.346	13470	15195	0	800
-22.106	-18.103	13357	15085	0	800
-29.391	-23.765	13231	15085	0	800
-39.993	-35.052	13143	15178	0	800
-49.693	-43.924	13030	15306	0	800
-50.523	-43.166	12993	15520	0	800
-44.212	-38.370	12993	15828	0	800
-34.764	-31.049	13030	16216	0	800
-29.859	-26.073	13080	16645	0	800
-29.246	-28.922	13118	17004	0	800
-32.853	-31.554	13156	17207	0	800
-35.521	-34.800	13156	17358	0	800
-36.891	-35.918	13219	17549	0	800
-37.793	-35.377	13244	17718	0	800
-38.839	-34.620	13269	17793	0	800
-42.229	-34.223	13269	17787	0	800
-47.277	-32.780	13219	17683	0	800
-53.480	-32.889	13244	17590	0	800
-61.774	-35.737	13294	17671	0	800
-65.489	-36.711	13332	17822	0	800
-66.751	-38.803	13294	17752	0	800
-61.269	-37.180	13206	17422	0	800
-54.526	-32.744	13106	17010	0	800
-47.566	-30.977	13018	16685	0	800
-50.090	-32.961	12917	16488	0	800
-55.499	-39.740	12867	16395	0	800
-62.568	-46.159	12829	16355	0	800
-63.289	-48.720	12792	16321	0	800
-54.886	-42.697	12792	16355	0	800
-43.527	-33.105	12804	16488	0	800
-35.197	-25.207	12829	16621	0	800
-34.944	-25.676	12804	16627	0	800
-41.760	-31.987	12766	16500	0	800
-45.979	-39.596	12704	16361	0	800
-46.412	-40.426	12653	16245	0	800
-41.724	-35.449	12591	16129	0	800
-36.423	-29.968	12528	16031	0	800
-37.396	-29.030	12490	16019	0	800
-41.760	-32.492	12490	16054	0	800
-48.071	-39.235	12477	16141	0	800
-51.280	-41.147	12528	16355	0	800
-48.035	-37.541	12603	16650	0	800
-40.894	-31.266	12678	16935	0	800
-37.144	-26.758	12792	17184	0	800
-37.000	-29.030	12930	17491	0	800
-42.337	-31.951	13106	17886	0	800
-47.386	-36.351	13307	18303	0	800
-46.015	-36.603	13470	18640	0	800
-42.806	-33.682	13683	18907	0	800
-37.685	-31.374	13872	19162	0	800
-34.620	-30.184	14111	19411	0	800
-34.259	-30.905	14374	19661	0	800
-35.701	-31.915	14613	19910	0	800
-35.954	-32.384	14864	20142	0	800
-35.701	-31.518	15153	20287	0	800
-34.620	-30.292	15379	20334	0	800
-33.069	-28.128	15593	20322	0	800
-30.905	-27.010	15819	20264	0	800
-31.699	-30.148	16058	20165	0	800
-33.033	-31.807	16196	19957	0	800
-33.682	-33.826	16297	19545	1	792
-34.980	-32.961	16384	19029	0	792
-34.331	-30.400	16534	18698	0	792
-35.160	-28.777	16660	18564	0	792
-35.701	-26.722	16786	18390	0	792
-35.377	-26.145	16924	18112	0	792
-33.069	-25.532	17024	17816	0	792
-29.210	-24.739	17100	17561	0	792
-24.017	-24.198	17225	17358	0	792
-21.926	-24.053	17326	17184	0	792
-19.546	-25.316	17401	16946	0	792
-20.772	-25.171	17426	16633	0	792
-22.431	-26.253	17527	16389	0	792
-22.791	-25.712	17640	16315	0	792
-23.657	-24.955	17715	16297	0	792
-21.313	-19.293	17828	16251	0	792
-17.743	-18.824	17904	16164	0	792
-16.661	-15.038	17979	16054	0	792
-15.146	-15.326	18029	15932	0	792
-13.704	-13.920	18079	15781	0	792
-15.795	-16.625	18079	15590	0	792
-17.887	-17.706	18092	15422	0	792
-23.188	-19.726	18117	15335	0	792
-28.381	-21.890	18180	15329	0	792
-31.626	-25.316	18243	15393	0	792
-32.312	-23.873	18306	15474	0	792
-29.174	-22.683	18356	15509	0	792
-27.407	-22.683	18394	15480	0	792
-27.443	-21.277	18368	15346	0	792
-32.636	-24.125	18331	15137	0	792
-36.603	-28.201	18293	14975	0	792
-40.822	-33.069	18268	14882	0	792
-43.924	-33.105	18243	14813	0	792
-42.120	-31.879	18205	14749	0	792
-37.180	-29.066	18142	14656	0	792
-32.600	-22.972	18054	14534	0	792
-26.037	-17.923	17979	14430	0	792
-22.286	-12.477	17866	14308	0	792
-20.123	-12.117	17728	14111	0	792
-23.621	-15.615	17590	13861	0	792
-28.777	-21.457	17414	13635	0	792
-33.177	-27.119	17288	13554	0	792
-35.846	-29.318	17200	13664	0	792
-36.891	-29.318	17150	13867	0	792
-34.728	-29.354	17037	13995	0	792
-34.800	-30.256	16949	14012	0	792
-35.485	-33.429	16886	14122	0	792
-37.505	-36.747	16861	14453	0	792
-40.786	-40.173	16861	14865	0	792
-43.130	-41.724	16899	15224	0	792
-43.996	-39.740	16886	15480	0	792
-38.803	-34.043	16848	15683	0	792
-31.410	-28.345	16899	15932	0	792
-24.991	-22.178	16949	16257	0	792
-25.856	-23.260	17012	16604	0	792
-32.167	-27.587	17087	16923	0	792
-39.488	-31.554	17150	17190	0	792
-43.202	-35.377	17225	17445	0	792
-42.229	-35.882	17351	17729	0	792
-38.622	-32.420	17451	17996	0	792
-33.249	-28.958	17539	18170	0	792
-29.895	-27.227	17615	18216	0	792
-25.893	-26.686	17615	18141	0	792
-24.270	-27.119	17665	18037	0	792
-23.008	-25.568	17728	17967	0	792
-24.089	-25.171	17715	17851	0	792
-25.099	-26.181	17703	17636	0	792
-25.388	-27.443	17677	17416	0	792
-29.463	-27.768	17703	17254	0	792
-31.049	-27.948	17677	17143	0	792
-31.302	-26.722	17677	17045	0	792
-31.482	-25.568	17652	16906	0	792
-33.105	-30.220	17602	16645	0	792
-39.344	-36.747	17489	16309	0	792
-44.032	-42.301	17426	16036	0	792
-48.071	-44.933	17389	15874	0	792
-46.123	-44.212	17326	15758	0	792
-43.996	-41.255	17263	15659	0	792
-42.986	-38.622	17150	15480	0	792
-41.652	-36.819	17024	15195	0	792
-41.796	-35.846	16911	14963	0	792
-37.793	-34.115	16823	14853	0	792
-34.439	-32.744	16723	14842	0	792
-33.285	-32.023	16647	14847	0	792
-33.790	-32.997	16547	14830	0	792
-33.610	-35.377	16509	14871	0	792
-35.124	-36.567	16459	14987	0	792
-37.144	-38.009	16421	15161	0	792
-40.065	-38.262	16396	15323	0	792
-40.678	-38.154	16384	15462	0	792
-40.678	-36.891	16384	15636	0	792
-39.272	-36.098	16396	15886	0	792
-39.235	-36.098	16421	16141	0	792
-43.960	-39.380	16446	16338	0	792
-45.871	-44.032	16459	16476	0	792
-47.710	-47.746	16471	16592	0	792
-44.717	-45.907	16509	16720	0	792
-39.452	-41.543	16547	16906	0	792
-37.360	-37.613	16610	17132	0	792
-37.937	-36.387	16610	17236	0	792
-39.452	-38.226	16547	17045	0	792
-41.183	-40.317	16459	16656	0	792
-41.111	-39.091	16396	16424	0	792
-36.928	-35.593	16359	16389	0	792
-34.151	-32.564	16322	16379	0	792
-31.194	-32.059	16284	16303	0	792
-30.004	-31.085	16171	16112	0	792
-30.977	-32.384	16058	15845	0	792
-31.915	-34.151	15945	15642	0	792
-36.206	-37.144	15882	15578	0	792
-39.308	-39.704	15819	15601	0	792
-41.147	-38.658	15781	15630	0	792
-38.334	-34.295	15656	15526	0	792
-33.429	-27.335	15568	15381	0	792
-28.309	-23.188	15568	15509	0	792
-25.460	-21.818	15631	15915	0	792
-24.162	-23.801	15631	16239	0	792
-25.496	-25.063	15606	16297	0	792
-27.335	-25.676	15593	16216	0	792
-28.994	-28.417	15543	16193	0	792
-32.600	-30.797	15543	16268	0	792
-33.754	-33.033	15505	16373	0	792
-31.374	-31.626	15493	16413	0	792
-26.542	-28.092	15442	16379	0	792
-22.214	-22.070	15405	16309	0	792
-17.779	-20.591	15354	16245	0	792
-17.887	-19.870	15279	16176	0	792
-18.824	-21.745	15191	16083	0	792
-21.565	-25.171	15103	15920	0	792
-24.053	-25.929	14940	15694	0	792
-24.270	-26.614	14852	15491	0	792
-25.388	-28.958	14689	15317	0	792
-27.010	-29.282	14525	15108	0	792
-29.138	-32.564	14312	14795	0	792
-34.043	-35.449	14111	14447	0	792
-37.432	-38.009	13897	14209	0	792
-38.839	-37.901	13771	14157	0	792
-37.613	-35.269	13608	14215	0	792
-33.898	-30.653	13470	14267	0	792
-26.902	-25.568	13332	14320	0	792
-23.440	-20.700	13231	14430	0	792
-26.145	-23.188	13106	14552	0	792
-32.276	-28.453	13018	14679	0	792
-40.245	-36.423	12955	14923	0	792
-46.015	-39.740	12917	15259	0	792
-44.609	-38.478	12905	15596	0	792
-37.757	-32.456	12892	15920	0	792
-30.869	-25.279	12892	16222	0	792
-23.729	-20.339	12867	16453	0	792
-21.529	-21.421	12842	16598	0	792
-19.654	-22.972	12804	16697	0	792
-24.089	-28.056	12766	16766	0	792
-30.184	-33.718	12704	16755	0	792
-35.774	-38.045	12578	16610	0	792
-42.517	-41.183	12452	16389	0	792
-50.451	-44.104	12327	16210	0	792
-55.355	-48.503	12239	16112	0	792
-58.637	-52.182	12101	16065	0	792
-54.634	-51.388	12038	16036	0	792
-48.756	-48.251	11950	16054	0	792
-39.560	-41.868	11912	16152	0	792
-34.439	-34.872	11837	16245	0	792
-34.908	-33.393	11787	16274	0	792
-36.639	-33.502	11724	16297	0	792
-36.387	-33.502	11699	16384	0	792
-34.295	-30.508	11699	16523	0	792
-31.554	-28.669	11673	16691	0	792
-31.915	-29.751	11673	16836	0	792
-36.531	-31.662	11699	16969	0	792
-40.101	-34.764	11724	17103	0	792
-39.235	-32.889	11736	17242	0	792
-35.197	-26.181	11736	17346	0	792
-26.830	-19.510	11774	17422	0	792
-23.368	-15.831	11799	17491	0	792
-26.073	-19.365	11862	17596	0	792
-29.535	-24.089	11912	17735	0	792
-31.807	-25.748	12013	17892	0	792
-29.535	-23.512	12050	17996	0	792
-22.142	-18.464	12138	18042	0	792
-17.815	-12.189	12163	18037	0	792
-15.867	-11.648	12226	18031	0	792
-20.555	-16.697	12302	18037	0	792
-23.909	-19.870	12302	17967	0	792
-24.955	-22.647	12339	17816	0	792
-19.942	-16.949	12339	17642	0	792
-12.261	-10.025	12364	17509	0	792
-7.645	-3.859	12339	17358	0	792
-6.996	-2.596	12339	17161	0	792
-11.143	-6.022	12352	16998	0	792
-14.569	-10.819	12327	16853	0	792
-17.670	-12.333	12264	16610	0	792
-14.461	-11.143	12176	16268	0	792
-13.343	-12.153	12101	15996	0	792
-14.353	-11.756	12050	15845	0	792
-16.805	-11.828	12013	15746	0	792
-21.132	-14.317	11912	15601	0	792
-27.515	-16.372	11862	15433	0	792
-31.230	-18.320	11824	15393	0	792
-35.413	-22.611	11862	15555	0	792
-36.891	-24.342	11925	15886	0	792
-34.331	-20.736	12038	16257	0	792
-30.400	-18.608	12138	16569	0	792
-27.984	-16.805	12226	16836	0	792
-30.436	-20.916	12276	16981	0	792
-32.203	-23.332	12327	17004	0	792
-33.754	-22.863	12402	17080	0	792
-32.600	-21.277	12528	17277	0	792
-32.276	-17.346	12653	17526	0	792
-31.915	-19.221	12804	17810	0	792
-35.197	-21.096	13030	18182	0	792
-34.583	-21.926	13269	18634	0	792
-30.472	-19.762	13533	19029	0	792
-26.037	-15.182	13683	19197	0	792
-27.732	-18.536	13897	19232	0	792
-35.269	-26.253	14123	19377	0	792
-45.727	-39.416	14400	19661	0	792
-50.739	-46.087	14676	19928	0	792
-50.847	-46.340	14977	20148	0	792
-45.294	-39.921	15292	20351	0	792
-38.911	-33.466	15568	20496	0	792
-40.714	-32.600	15869	20589	0	792
-44.212	-38.045	16183	20658	0	792
-48.828	-44.681	16421	20595	0	792
-48.431	-44.969	16647	20363	0	792
-45.510	-41.543	16861	20113	0	792
-40.966	-36.531	17112	19945	0	792
-37.829	-33.754	17338	19800	1	904
-40.678	-34.980	17539	19591	0	904
-45.799	-39.885	17677	19162	0	904
-49.946	-44.104	17740	18553	0	904
-54.309	-47.638	17853	18031	0	904
-54.237	-45.618	17966	17677	0	904
-52.182	-44.212	18079	17399	0	904
-47.602	-39.885	18167	17126	0	904
-42.265	-34.908	18243	16795	0	904
-37.360	-30.977	18306	16413	0	904
-35.052	-28.525	18331	16036	0	904
-35.629	-28.345	18280	15555	0	904
-40.173	-31.915	18230	15016	0	904
-44.464	-36.783	18205	14615	0	904
-51.028	-40.245	18180	14383	0	904
-51.244	-38.190	18180	14244	0	904
-47.025	-35.954	18218	14233	0	904
-43.924	-32.203	18293	14337	0	904
-40.534	-30.508	18343	14488	0	904
-37.685	-28.417	18368	14563	0	904
-35.557	-25.063	18331	14453	0	904
-30.905	-20.591	18293	14244	0	904
-26.217	-15.759	18306	14192	0	904
-26.217	-18.788	18343	14360	0	904
-32.384	-25.063	18394	14598	0	904
-39.308	-33.610	18481	14859	0	904
-43.887	-40.065	18607	15195	0	904
-42.229	-40.317	18733	15596	0	904
-36.314	-35.160	18909	15990	0	904
-30.581	-28.056	18997	16274	0	904
-26.506	-23.440	19047	16321	0	904
-25.460	-21.385	19034	16164	0	904
-23.657	-18.969	19085	16042	0	904
-22.647	-17.670	19085	16048	0	904
-20.808	-16.228	19147	16094	0	904
-18.320	-17.815	19172	16135	0	904
-22.647	-21.781	19235	16181	0	904
-25.352	-26.722	19235	16210	0	904
-30.076	-29.859	19286	16228	0	904
-32.131	-30.292	19411	16361	0	904
-32.023	-29.174	19499	16662	0	904
-31.662	-27.984	19612	16906	0	904
-31.518	-27.660	19650	16888	0	904
-33.502	-29.282	19662	16691	0	904
-35.701	-29.571	19625	16471	0	904
-37.468	-32.528	19612	16309	0	904
-41.724	-35.197	19600	16152	0	904
-44.104	-37.829	19537	15961	0	904
-43.274	-38.983	19499	15741	0	904
-40.173	-37.505	19411	15543	0	904
-31.987	-32.853	19373	15433	0	904
-23.981	-28.777	19361	15416	0	904
-22.575	-26.938	19298	15387	0	904
-25.243	-26.866	19248	15277	0	904
-25.316	-30.184	19223	15184	0	904
-26.542	-29.210	19172	15219	0	904
-24.594	-27.948	19172	15329	0	904
-19.762	-22.935	19160	15433	0	904
-19.149	-19.906	19147	15491	0	904
-17.526	-17.238	19147	15549	0	904
-17.923	-16.300	19147	15654	0	904
-17.166	-19.293	19172	15804	0	904
-20.808	-20.952	19185	15973	0	904
-26.974	-26.542	19210	16094	0	904
-33.069	-29.210	19185	16170	0	904
-36.964	-30.472	19210	16234	0	904
-36.964	-27.912	19248	16332	0	904
-33.249	-24.991	19273	16442	0	904
-29.030	-21.565	19273	16476	0	904
-26.722	-18.752	19235	16442	0	904
-26.830	-20.339	19235	16407	0	904
-28.345	-21.204	19248	16413	0	904
-32.023	-26.650	19235	16430	0	904
-32.961	-31.915	19223	16401	0	904
-33.646	-35.269	19172	16321	0	904
-31.122	-32.816	19147	16210	0	904
-28.489	-27.551	19047	16060	0	904
-27.155	-20.339	19022	15915	0	904
-28.092	-18.031	18997	15955	0	904
-31.951	-18.031	19059	16181	0	904
-32.167	-21.493	19034	16326	0	904
-32.564	-24.522	18971	16187	0	904
-30.653	-24.270	18833	15851	0	904
-28.345	-24.198	18733	15543	0	904
-29.427	-24.198	18645	15381	0	904
-30.941	-24.089	18532	15317	0	904
-34.295	-27.119	18431	15219	0	904
-37.288	-28.309	18306	15039	0	904
-37.721	-30.040	18180	14905	0	904
-37.613	-27.263	18092	14888	0	904
-35.521	-25.243	17992	14934	0	904
-33.718	-23.296	17916	14946	0	904
-31.049	-23.440	17803	14900	0	904
-29.282	-20.772	17665	14824	0	904
-26.433	-19.077	17527	14749	0	904
-24.847	-15.254	17401	14668	0	904
-27.551	-16.048	17213	14586	0	904
-30.292	-19.257	17100	14517	0	904
-33.502	-25.712	16974	14523	0	904
-34.006	-26.902	16848	14644	0	904
-32.708	-26.470	16823	14859	0	904
-32.961	-25.316	16760	15108	0	904
-35.629	-26.289	16698	15300	0	904
-38.658	-28.273	16610	15451	0	904
-39.957	-31.735	16572	15619	0	904
-41.616	-34.115	16572	15845	0	904
-44.392	-37.360	16547	16100	0	904
-47.169	-40.678	16509	16274	0	904
-50.379	-43.563	16459	16373	0	904
-51.461	-44.176	16421	16453	0	904
-46.195	-43.058	16384	16540	0	904
-41.652	-39.740	16322	16563	0	904
-37.541	-36.783	16196	16436	0	904
-32.636	-32.167	15995	16083	0	904
-28.597	-26.289	15794	15607	0	904
-25.352	-22.683	15530	15166	0	904
-20.411	-19.005	15304	14818	0	904
-19.546	-17.490	15091	14563	0	904
-18.860	-19.906	14864	14412	0	904
-22.467	-20.952	14689	14360	0	904
-25.063	-27.191	14538	14378	0	904
-27.407	-28.417	14437	14505	0	904
-28.489	-29.968	14362	14807	0	904
-30.797	-30.220	14312	15207	0	904
-32.023	-32.023	14287	15514	0	904
-35.269	-33.610	14211	15706	0	904
-35.341	-33.357	14111	15810	0	904
-33.285	-32.564	14035	15857	0	904
-33.357	-29.895	13910	15857	0	904
-33.538	-31.085	13734	15746	0	904
-38.082	-33.646	13533	15514	0	904
-42.012	-38.875	13369	15306	0	904
-44.104	-37.468	13219	15259	0	904
-40.498	-34.908	13106	15387	0	904
-34.980	-29.787	13043	15619	0	904
-28.633	-23.621	12993	15857	0	904
-23.729	-18.572	12930	16025	0	904
-19.293	-17.057	12867	16170	0	904
-18.680	-19.185	12842	16367	0	904
-19.690	-22.935	12854	16656	0	904
-19.221	-26.686	12892	17004	0	904
-21.637	-27.407	12930	17335	0	904
-22.827	-25.640	12993	17631	0	904
-27.804	-28.669	13093	17938	0	904
-33.790	-30.761	13206	18263	0	904
-39.272	-34.836	13294	18570	0	904
-43.094	-36.531	13432	18831	0	904
-39.344	-32.600	13545	19017	0	904
-31.951	-27.479	13608	19104	0	904
-22.899	-23.512	13709	19110	0	904
-18.031	-20.123	13746	19046	0	904
-14.172	-18.752	13797	18907	0	904
-15.687	-21.060	13809	18709	0	904
-17.598	-23.116	13809	18454	0	904
-22.358	-26.433	13746	18089	0	904
-24.702	-27.912	13683	17654	0	904
-29.282	-31.446	13621	17288	0	904
-29.895	-31.446	13596	17033	0	904
-29.679	-31.987	13520	16819	0	904
-27.155	-31.987	13470	16592	0	904
-26.253	-30.545	13407	16326	0	904
-26.145	-31.518	13294	16042	0	904
-27.732	-32.528	13244	15833	0	904
-29.643	-33.790	13181	15735	0	904
-29.535	-34.115	13143	15671	0	904
-28.453	-31.410	13043	15549	0	904
-26.614	-30.220	12967	15422	0	904
-24.198	-27.083	12930	15387	0	904
-22.431	-23.945	12905	15433	0	904
-19.437	-23.332	12854	15468	0	904
-18.860	-20.591	12804	15451	0	904
-17.743	-18.969	12766	15451	0	904
-19.906	-19.870	12729	15514	0	904
-22.791	-17.129	12716	15619	0	904
-25.388	-18.536	12704	15694	0	904
-26.253	-18.392	12653	15741	0	904
-26.289	-21.204	12641	15839	0	904
-25.748	-20.411	12666	16025	0	904
-26.830	-22.575	12741	16297	0	904
-29.968	-23.044	12804	16587	0	904
-34.836	-25.207	12854	16807	0	904
-37.685	-28.814	12917	16964	0	904
-37.613	-28.489	13018	17172	0	904
-33.790	-28.128	13118	17468	0	904
-27.732	-22.395	13294	17810	0	904
-24.378	-20.555	13432	18112	0	904
-24.702	-19.618	13583	18344	0	904
-26.974	-20.808	13746	18553	0	904
-28.633	-24.414	13935	18796	0	904
-29.174	-23.657	14161	19052	0	904
-29.174	-24.198	14337	19255	0	904
-30.617	-26.650	14538	19406	0	904
-31.338	-28.922	14726	19516	0	904
-31.446	-27.263	14864	19475	0	904
-30.328	-24.234	14977	19290	0	904
-26.325	-20.591	15116	19081	0	904
-24.811	-16.300	15216	18878	0	904
-24.558	-18.572	15254	18593	1	788
-24.847	-19.906	15342	18269	0	788
-25.171	-23.476	15417	18042	0	788
-30.581	-27.227	15593	18019	0	788
-36.855	-32.167	15744	18135	0	788
-42.048	-36.603	15945	18222	0	788
-42.157	-37.577	16070	18193	0	788
-39.668	-34.547	16183	18083	0	788
-37.216	-31.590	16322	17944	0	788
-38.550	-31.518	16459	17863	0	788
-42.409	-33.682	16635	17851	0	788
-44.717	-34.872	16723	17805	0	788
-40.173	-33.393	16848	17654	0	788
-34.620	-28.705	16961	17468	0	788
-28.922	-24.919	17074	17358	0	788
-28.705	-22.178	17238	17358	0	788
-30.545	-21.673	17363	17399	0	788
-31.735	-25.496	17539	17399	0	788
-32.708	-24.991	17665	17346	0	788
-30.941	-25.424	17791	17306	0	788
-30.040	-25.748	17966	17329	0	788
-31.122	-25.243	18117	17370	0	788
-34.764	-26.974	18243	17341	0	788
-38.947	-30.400	18368	17236	0	788
-41.255	-33.033	18481	17138	0	788
-40.426	-31.626	18645	17109	0	788
-38.045	-28.056	18783	17138	0	788
-33.718	-25.279	18971	17207	0	788
-34.151	-21.565	19085	17201	0	788
-34.043	-21.349	19097	16929	0	788
-34.908	-22.142	19097	16476	0	788
-34.259	-22.467	19122	16129	0	788
-35.485	-25.712	19147	15932	0	788
-35.593	-28.128	19172	15787	0	788
-36.819	-29.895	19160	15590	0	788
-37.072	-28.633	19097	15265	0	788
-33.321	-26.470	19034	14934	0	788
-30.977	-24.053	19085	14842	0	788
-28.597	-24.378	19097	14952	0	788
-29.318	-27.263	19097	14952	0	788
-33.898	-32.023	19034	14772	0	788
-40.966	-35.665	18971	14534	0	788
-47.494	-40.101	18858	14320	0	788
-54.634	-42.697	18808	14151	0	788
-53.264	-40.786	18708	14018	0	788
-48.359	-36.062	18544	13855	0	788
-39.488	-28.489	18431	13658	0	788
-30.184	-21.060	18343	13577	0	788
-26.433	-19.401	18268	13652	0	788
-28.705	-18.428	18205	13803	0	788
-31.158	-22.431	18155	13960	0	788
-35.737	-25.279	18079	14082	0	788
-39.199	-28.525	18029	14209	0	788
-38.731	-31.302	18017	14412	0	788
-40.101	-33.754	17992	14679	0	788
-41.507	-34.944	18017	14958	0	788
-41.652	-35.413	17979	15195	0	788
-41.616	-33.538	17992	15433	0	788
-40.426	-32.059	18017	15712	0	788
-39.560	-31.410	18042	15949	0	788
-37.541	-31.590	18054	16135	0	788
-36.134	-31.951	18042	16257	0	788
-34.511	-33.682	17966	16216	0	788
-33.538	-34.439	17853	16002	0	788
-31.843	-35.341	17791	15816	0	788
-33.466	-35.810	17703	15758	0	788
-34.475	-36.964	17665	15833	0	788
-33.357	-35.665	17652	15996	0	788
-30.076	-30.220	17677	16164	0	788
-25.063	-24.486	17652	16303	0	788
-22.142	-22.106	17665	16430	0	788
-22.395	-21.745	17652	16534	0	788
-26.470	-26.397	17665	16587	0	788
-28.489	-30.905	17615	16592	0	788
-29.643	-30.689	17602	16598	0	788
-27.191	-27.479	17602	16598	0	788
-25.388	-24.702	17552	16598	0	788
-26.145	-24.955	17552	16621	0	788
-28.201	-27.624	17552	16627	0	788
-27.660	-29.391	17451	16511	0	788
-26.470	-28.814	17401	16332	0	788
-25.063	-25.893	17389	16309	0	788
-22.647	-22.178	17389	16436	0	788
-22.467	-21.890	17401	16534	0	788
-26.253	-24.486	17363	16546	0	788
-29.391	-30.689	17351	16494	0	788
-36.387	-35.737	17288	16424	0	788
-40.894	-39.163	17275	16395	0	788
-44.104	-39.740	17213	16367	0	788
-43.238	-37.577	17175	16286	0	788
-39.993	-36.098	17137	16216	0	788
-35.413	-34.367	17137	16222	0	788
-31.843	-33.429	17112	16303	0	788
-27.371	-31.049	17112	16407	0	788
-24.991	-29.823	17137	16500	0	788
-23.909	-27.263	17100	16511	0	788
-25.424	-28.958	17100	16471	0	788
-28.345	-29.931	17087	16453	0	788
-31.302	-29.895	17100	16558	0	788
-34.043	-29.174	17150	16720	0	788
-35.810	-30.004	17137	16790	0	788
-37.937	-30.472	17150	16749	0	788
-39.776	-33.898	17150	16737	0	788
-40.101	-37.468	17175	16778	0	788
-38.803	-38.911	17162	16795	0	788
-36.819	-37.541	17137	16691	0	788
-33.862	-35.810	17087	16511	0	788
-32.131	-33.682	17012	16361	0	788
-32.059	-32.672	17012	16280	0	788
-31.410	-33.177	16974	16239	0	788
-32.636	-33.141	16911	16193	0	788
-31.987	-32.816	16899	16135	0	788
-31.987	-29.751	16836	16065	0	788
-30.581	-27.083	16735	15891	0	788
-28.814	-26.397	16635	15659	0	788
-27.768	-27.155	16635	15630	0	788
-26.794	-29.354	16660	15851	0	788
-24.630	-30.905	16647	16048	0	788
-20.736	-26.758	16597	16048	0	788
-15.471	-22.935	16534	15920	0	788
-15.867	-21.529	16484	15822	0	788
-17.238	-22.791	16421	15804	0	788
-21.998	-27.840	16396	15839	0	788
-24.378	-29.282	16347	15845	0	788
-24.991	-27.840	16259	15764	0	788
-22.142	-24.702	16196	15665	0	788
-22.647	-24.558	16121	15590	0	788
-28.597	-30.581	16008	15509	0	788
-34.836	-36.495	15920	15404	0	788
-39.524	-40.209	15794	15282	0	788
-40.462	-40.353	15681	15166	0	788
-36.531	-35.918	15543	15033	0	788
-30.761	-31.699	15317	14766	0	788
-27.299	-27.768	15116	14395	0	788
-27.371	-27.804	14915	14117	0	788
-27.984	-26.722	14726	14001	0	788
-26.073	-26.650	14588	14012	0	788
-25.604	-26.361	14475	14151	0	788
-23.909	-25.496	14374	14378	0	788
-22.286	-22.863	14274	14581	0	788
-23.512	-21.493	14186	14755	0	788
-25.532	-21.241	14148	14981	0	788
-25.568	-21.096	14086	15265	0	788
-27.263	-22.395	14060	15555	0	788
-27.335	-25.460	14048	15816	0	788
-27.010	-24.450	14023	16083	0	788
-24.955	-23.368	14023	16355	0	788
-24.342	-20.375	14023	16558	0	788
-23.801	-16.192	13985	16714	0	788
-24.089	-16.084	13985	16848	0	788
-25.352	-15.903	13960	16940	0	788
-28.237	-20.988	13910	16958	0	788
-30.292	-21.241	13872	16958	0	788
-30.220	-24.558	13872	17016	0	788
-29.823	-23.368	13847	17097	0	788
-28.020	-22.070	13859	17184	0	788
-26.289	-23.945	13847	17277	0	788
-26.397	-23.693	13834	17288	0	788
-23.693	-23.332	13797	17219	0	788
-21.890	-22.791	13809	17230	0	788
-20.880	-20.195	13847	17335	0	788
-19.870	-20.339	13847	17410	0	788
-23.368	-20.952	13859	17393	0	788
-28.164	-23.909	13797	17283	0	788
-33.610	-27.551	13784	17132	0	788
-38.009	-31.266	13734	17010	0	788
-41.039	-32.492	13721	16935	0	788
-40.173	-33.069	13658	16842	0	788
-36.314	-30.508	13621	16703	0	788
-31.915	-26.073	13558	16598	0	788
-29.427	-24.702	13596	16621	0	788
-29.463	-24.739	13646	16778	0	788
-30.400	-25.856	13683	16952	0	788
-33.357	-28.814	13683	17027	0	788
-35.485	-31.807	13721	17010	0	788
-34.403	-30.689	13721	16998	0	788
-30.328	-28.922	13784	17039	0	788
-28.273	-24.955	13809	17120	0	788
-27.732	-22.972	13859	17172	0	788
-32.672	-26.361	13847	17138	0	788
-37.216	-29.715	13859	17062	0	788
-40.101	-31.662	13872	17010	0	788
-37.036	-28.561	13872	16975	0	788
-30.869	-23.188	13872	16871	0	788
-27.119	-19.257	13797	16674	0	788
-24.594	-16.084	13771	16459	0	788
-23.224	-16.949	13683	16274	0	788
-23.909	-15.254	13646	16083	0	788
-23.909	-17.526	13545	15909	0	788
-29.318	-20.555	13495	15735	0	788
-35.016	-26.722	13369	15520	0	788
-38.983	-30.545	13206	15201	0	788
-36.423	-28.489	13055	14842	0	788
-32.095	-25.099	12917	14598	0	788
-25.820	-22.395	12792	14540	0	788
-24.306	-24.342	12716	14610	0	788
-26.722	-24.234	12641	14673	0	788
-29.102	-27.263	12578	14702	0	788
-27.660	-24.558	12528	14853	0	788
-24.847	-20.195	12528	15166	0	788
-22.755	-19.978	12553	15503	0	788
-23.765	-20.159	12578	15775	0	788
-26.217	-22.286	12578	15996	0	788
-26.433	-23.116	12616	16210	0	788
-22.935	-17.779	12666	16453	0	788
-20.050	-15.507	12741	16755	0	788
-17.418	-13.235	12829	17068	0	788
-20.952	-18.211	12905	17375	0	788
-28.561	-24.522	13043	17689	0	788
-29.354	-27.407	13219	18054	0	788
-23.657	-22.611	13420	18501	0	788
-17.274	-12.730	13658	18994	0	788
-11.864	-7.753	13910	19406	0	788
-15.867	-12.225	14111	19701	0	788
-25.640	-20.555	14362	19939	0	788
-34.836	-30.472	14613	20194	0	788
-38.947	-33.790	14864	20403	0	788
-37.541	-30.869	15053	20415	0	788
-33.790	-26.614	15116	20113	0	788
-31.735	-23.585	15216	19626	0	788
-32.131	-23.440	15304	19243	0	788
-33.466	-24.558	15405	19034	0	788
-34.403	-22.863	15505	18843	1	888
-32.708	-22.214	15618	18634	0	888
-30.941	-19.401	15731	18419	0	888
-28.056	-17.706	15781	18129	0	888
-29.282	-20.700	15819	17764	0	888
-31.338	-22.791	15882	17474	0	888
-34.331	-26.578	15970	17283	0	888
-34.872	-28.128	15982	17045	0	888
-35.882	-26.614	15995	16703	0	888
-35.557	-25.568	15995	16389	0	888
-34.692	-24.522	16058	16216	0	888
-33.898	-22.214	16096	16135	0	888
-31.735	-20.195	16171	16141	0	888
-29.427	-19.942	16246	16152	0	888
-27.840	-18.211	16309	16106	0	888
-23.476	-16.300	16372	16060	0	888
-18.933	-11.937	16446	16083	0	888
-16.264	-7.609	16534	16170	0	888
-15.146	-6.419	16635	16268	0	888
-18.644	-8.979	16710	16338	0	888
-26.361	-15.723	16823	16430	0	888
-31.085	-23.116	17012	16633	0	888
-33.610	-25.352	17162	16894	0	888
-33.213	-26.938	17301	17126	0	888
-33.357	-28.273	17426	17207	0	888
-33.646	-30.148	17489	17074	0	888
-35.449	-32.167	17527	16819	0	888
-39.091	-34.728	17590	16685	0	888
-38.839	-33.357	17677	16708	0	888
-38.478	-30.797	17765	16749	0	888
-36.783	-27.876	17866	16772	0	888
-33.862	-23.585	17966	16819	0	888
-32.059	-21.601	18042	16819	0	888
-31.302	-17.923	18117	16749	0	888
-32.528	-18.392	18218	16714	0	888
-32.889	-16.841	18306	16772	0	888
-32.059	-19.293	18406	16842	0	888
-30.148	-18.608	18532	16888	0	888
-25.893	-19.041	18645	16946	0	888
-24.991	-15.543	18720	16975	0	888
-25.748	-15.074	18833	16958	0	888
-27.479	-13.595	18896	16877	0	888
-30.148	-17.887	18921	16737	0	888
-31.807	-20.772	18997	16621	0	888
-32.672	-24.558	19110	16697	0	888
-32.600	-26.650	19273	16929	0	888
-33.213	-25.171	19373	17045	0	888
-34.115	-27.515	19399	16882	0	888
-38.262	-29.210	19373	16546	0	888
-43.455	-33.429	19311	16129	0	888
-47.710	-37.432	19110	15485	0	888
-46.304	-36.603	18858	14662	0	888
-42.337	-31.843	18607	13879	0	888
-34.439	-24.630	18331	13235	0	888
-28.381	-17.238	18079	12759	0	888
-26.974	-16.192	17891	12533	0	888
-27.984	-18.031	17740	12539	0	888
-29.895	-23.621	17615	12649	0	888
-32.420	-27.587	17527	12788	0	888
-32.239	-27.840	17401	12933	0	888
-31.302	-27.876	17263	12991	0	888
-30.328	-26.470	17087	12974	0	888
-29.138	-23.657	16974	13078	0	888
-27.984	-20.988	16899	13345	0	888
-25.784	-18.933	16823	13687	0	888
-25.496	-15.579	16823	14088	0	888
-26.001	-16.048	16848	14604	0	888
-26.289	-16.661	16899	15201	0	888
-26.938	-18.247	16987	15793	0	888
-28.633	-18.608	17074	16303	0	888
-29.102	-23.368	17150	16732	0	888
-34.764	-27.119	17275	17138	0	888
-38.334	-29.679	17363	17526	0	888
-40.281	-30.076	17464	17845	0	888
-38.082	-27.443	17539	18077	0	888
-34.872	-25.243	17615	18228	0	888
-32.239	-23.945	17715	18309	0	888
-32.239	-26.289	17728	18303	0	888
-34.151	-28.201	17728	18176	0	888
-34.403	-28.777	17677	17909	0	888
-35.088	-29.463	17602	17526	0	888
-34.692	-28.850	17464	17080	0	888
-33.213	-28.309	17326	16633	0	888
-30.797	-26.001	17225	16292	0	888
-26.109	-23.585	17150	16089	0	888
-24.594	-20.123	17037	15961	0	888
-25.604	-21.601	16961	15828	0	888
-27.660	-21.060	16886	15677	0	888
-30.184	-23.188	16786	15572	0	888
-29.859	-22.647	16773	15578	0	888
-26.938	-20.087	16723	15665	0	888
-23.260	-18.500	16660	15700	0	888
-20.519	-16.444	16597	15636	0	888
-20.087	-17.454	16534	15596	0	888
-22.719	-17.779	16509	15654	0	888
-24.883	-22.935	16471	15793	0	888
-31.122	-27.624	16484	15967	0	888
-35.557	-33.790	16471	16089	0	888
-37.901	-37.432	16459	16135	0	888
-37.829	-36.242	16459	16205	0	888
-35.485	-32.925	16471	16332	0	888
-32.636	-28.777	16459	16471	0	888
-29.066	-26.866	16471	16581	0	888
-28.994	-25.784	16446	16604	0	888
-28.669	-26.361	16372	16453	0	888
-27.912	-23.332	16297	16216	0	888
-25.135	-20.916	16221	16089	0	888
-24.594	-17.057	16158	16036	0	888
-24.522	-18.716	16108	15973	0	888
-27.804	-22.250	16058	15973	0	888
-31.735	-26.866	16045	16060	0	888
-31.446	-29.463	16045	16205	0	888
-27.047	-26.578	16058	16367	0	888
-21.565	-19.005	16096	16505	0	888
-13.595	-13.018	16108	16592	0	888
-11.287	-7.248	16070	16639	0	888
-16.733	-10.350	16096	16674	0	888
-24.162	-16.300	16070	16691	0	888
-33.069	-22.863	16058	16674	0	888
-35.016	-27.696	16045	16604	0	888
-34.043	-26.361	15932	16424	0	888
-29.751	-24.089	15844	16181	0	888
-27.119	-20.844	15807	16077	0	888
-30.869	-24.089	15819	16199	0	888
-32.816	-25.388	15756	16297	0	888
-33.466	-27.335	15694	16181	0	888
-30.256	-26.614	15618	15944	0	888
-27.696	-23.116	15530	15787	0	888
-28.705	-22.503	15480	15758	0	888
-33.357	-25.893	15430	15804	0	888
-38.586	-30.148	15354	15775	0	888
-40.426	-29.823	15241	15613	0	888
-34.079	-25.279	15116	15445	0	888
-26.109	-15.975	15053	15381	0	888
-19.546	-11.937	14990	15422	0	888
-16.841	-11.973	14965	15538	0	888
-18.392	-14.749	14915	15642	0	888
-16.733	-18.211	14852	15700	0	888
-17.815	-15.543	14852	15804	0	888
-17.706	-14.785	14864	16031	0	888
-23.404	-15.326	14902	16309	0	888
-29.427	-19.834	14915	16494	0	888
-34.656	-22.647	14927	16633	0	888
-34.511	-24.450	14977	16807	0	888
-30.797	-22.395	15053	17022	0	888
-28.850	-21.204	15103	17225	0	888
-29.427	-23.585	15153	17341	0	888
-31.626	-25.207	15153	17370	0	888
-32.276	-25.496	15178	17375	0	888
-30.004	-24.739	15229	17393	0	888
-23.837	-20.736	15241	17422	0	888
-21.349	-19.005	15279	17422	0	888
-20.375	-19.582	15279	17358	0	888
-21.096	-19.906	15279	17242	0	888
-24.089	-19.870	15241	17068	0	888
-23.621	-16.697	15178	16888	0	888
-24.306	-19.329	15178	16726	0	888
-28.381	-23.260	15128	16587	0	888
-32.816	-30.328	15091	16430	0	888
-37.901	-34.728	14990	16268	0	888
-38.839	-33.826	14990	16135	0	888
-34.439	-26.938	15003	16193	0	888
-30.004	-20.736	15065	16413	0	888
-26.037	-15.615	15065	16581	0	888
-26.866	-16.697	15065	16529	0	888
-31.482	-22.106	14990	16303	0	888
-37.937	-27.335	14915	16048	0	888
-40.714	-32.600	14814	15839	0	888
-42.157	-34.836	14689	15613	0	888
-42.157	-35.990	14563	15329	0	888
-42.084	-37.360	14425	15062	0	888
-43.996	-38.550	14287	14876	0	888
-45.005	-40.534	14186	14778	0	888
-43.779	-40.642	14098	14766	0	888
-40.353	-38.406	14023	14795	0	888
-35.305	-35.521	13897	14801	0	888
-32.600	-32.095	13809	14807	0	888
-32.023	-29.066	13721	14813	0	888
-30.112	-26.542	13596	14784	0	888
-26.830	-21.998	13432	14697	0	888
-23.332	-18.897	13332	14615	0	888
-16.552	-11.215	13219	14621	0	888
-11.215	-6.491	13118	14737	0	888
-9.196	-4.039	13080	14958	0	888
-11.720	-8.078	13055	15242	0	888
-18.608	-14.389	13030	15503	0	888
-26.650	-23.440	12955	15630	0	888
-33.069	-28.201	12792	15520	0	888
-34.547	-28.922	12641	15253	0	888
-34.764	-29.391	12490	15114	0	888
-36.459	-33.502	12415	15172	0	888
-39.235	-38.911	12327	15323	0	888
-43.130	-44.104	12289	15543	0	888
