neuroNicle FX2
D3F25R12
Bluetooth SPP
2023년 4월 6일 목요일
오후 1:29
time interval = 4msec
EEG1	EEG2	PPG	sdPPG	pulse	peak_interval(msec)
41.147	24.847	1	16285	0	1240
33.393	17.093	1	16276	0	1240
25.316	10.710	1	16272	0	1240
25.496	11.864	1	16279	0	1240
29.968	17.634	1	16292	0	1240
36.351	23.837	1	16304	0	1240
36.964	24.522	1	16311	0	1240
31.302	17.526	1	16315	0	1240
22.611	8.294	1	16322	0	1240
14.100	0.649	1	16332	0	1240
11.540	-1.551	1	16338	0	1240
14.425	2.705	1	16345	0	1240
21.565	11.143	1	16352	0	1240
31.338	18.500	1	16359	0	1240
38.118	22.972	1	16361	0	1240
40.822	23.440	1	16361	0	1240
38.803	19.942	1	16364	0	1240
34.006	16.120	1	16364	0	1240
30.761	14.461	1	16364	0	1240
31.915	16.985	1	16366	0	1240
37.072	21.096	1	16368	0	1240
40.281	24.342	1	16366	0	1240
40.353	24.053	1	16364	0	1240
35.810	21.890	1	16361	0	1240
28.453	18.608	1	16357	0	1240
23.116	16.084	1	16355	0	1240
20.267	14.894	1	16359	0	1240
19.978	13.307	1	16375	0	1240
20.627	12.225	1	16397	0	1240
21.349	10.350	1	16423	0	1240
20.411	11.504	1	16439	0	1240
20.339	13.704	1	16448	0	1240
20.087	18.283	1	16457	0	1240
21.060	20.736	1	16462	0	1240
21.673	22.034	1	16462	0	1240
23.945	18.969	1	16460	0	1240
24.053	16.120	1	16455	0	1240
24.991	17.129	1	16450	0	1240
28.741	21.745	1	16439	0	1240
33.754	28.345	1	16423	0	1240
38.478	32.312	1	16407	0	1240
39.235	30.004	1	16390	0	1240
34.728	22.395	1	16382	0	1240
27.804	13.559	1	16371	0	1240
22.322	9.881	1	16361	0	1240
24.522	10.927	1	16357	0	1240
29.679	17.274	1	16352	0	1240
35.088	21.529	1	16345	0	1240
34.259	21.349	1	16336	0	1240
28.814	15.759	1	16329	0	1240
21.998	9.881	1	16327	0	1240
20.483	10.422	1	16327	0	1240
27.299	15.182	1	16322	0	1240
33.790	19.437	1	16320	0	1240
37.829	20.014	1	16318	0	1240
37.036	16.697	1	16320	0	1240
33.538	15.398	1	16318	0	1240
31.807	17.887	1	16315	0	1240
32.780	22.791	1	16318	0	1240
33.213	23.873	1	16327	0	1240
31.158	19.690	1	16334	0	1240
27.876	12.045	1	16343	0	1240
24.847	7.393	1	16352	0	1240
24.125	6.167	1	16368	0	1240
24.739	9.845	1	16386	0	1240
26.686	11.720	1	16407	0	1240
30.184	14.749	1	16427	0	1240
32.744	15.398	1	16443	0	1240
32.816	14.172	1	16455	0	1240
29.246	12.297	1	16466	0	1240
27.299	10.819	1	16471	0	1240
27.551	12.477	1	16476	0	1240
34.908	17.166	1	16476	0	1240
43.527	24.234	1	16476	0	1240
49.549	26.686	1	16471	0	1240
49.766	25.063	1	16460	0	1240
43.599	17.995	1	16446	0	1240
39.344	12.477	1	16434	0	1240
36.639	12.297	1	16425	0	1240
39.019	18.933	1	16418	0	1240
44.320	27.335	1	16411	0	1240
49.477	35.052	1	16409	0	1240
50.343	34.908	1	16407	0	1240
43.202	26.902	1	16407	0	1240
31.085	14.894	1	16404	0	1240
19.726	7.862	1	16402	0	1240
16.408	7.898	1	16397	0	1240
20.988	16.516	1	16393	0	1240
32.203	27.948	1	16390	0	1240
42.481	35.918	1	16388	0	1240
47.566	38.839	1	16386	0	1240
48.323	37.288	1	16384	0	1240
45.799	31.374	1	16380	0	1240
40.426	24.702	1	16375	0	1240
35.341	19.906	1	16373	0	1240
34.043	19.401	1	16371	0	1240
36.387	22.070	1	16366	0	1240
39.127	26.938	1	16359	0	1240
41.255	25.352	1	16352	0	1240
38.118	22.683	1	16350	0	1240
35.124	17.779	1	16348	0	1240
34.043	16.877	1	16348	0	1240
35.485	18.716	1	16348	0	1240
36.423	21.421	1	16343	0	1240
33.754	21.818	1	16329	0	1240
29.210	18.969	1	16318	0	1240
24.486	16.697	1	16313	0	1240
24.558	15.146	1	16315	0	1240
26.830	15.723	1	16315	0	1240
29.318	16.805	1	16315	0	1240
32.708	17.454	1	16322	0	1240
33.429	19.654	1	16336	0	1240
37.360	23.476	1	16348	0	1240
42.625	30.112	1	16361	0	1240
46.700	33.393	1	16375	0	1240
46.700	31.590	1	16384	0	1240
40.281	23.260	1	16395	0	1240
31.049	13.631	1	16407	0	1240
25.424	8.727	1	16418	0	1240
24.089	9.773	1	16432	0	1240
27.515	15.218	1	16446	0	1240
33.105	20.087	1	16464	0	1240
36.170	23.224	1	16478	0	1240
39.524	24.666	1	16487	0	1240
43.202	26.830	1	16450	0	1240
44.861	26.830	1	16276	0	1240
43.455	27.371	1	16000	0	1240
38.983	24.486	1	15786	0	1240
34.980	22.611	1	15691	0	1240
35.882	22.575	1	15659	0	1240
40.894	24.702	1	15659	0	1240
49.116	29.138	1	15694	0	1240
53.696	29.715	1	15714	0	1240
52.146	26.902	1	15627	0	1240
47.097	20.231	1	15452	0	1240
41.652	14.713	1	15353	0	1240
39.055	12.225	1	15378	0	1240
39.344	15.435	1	15466	0	1240
40.786	19.690	1	15585	0	1240
41.183	21.529	1	15733	0	1240
42.589	20.231	1	15899	0	1240
42.229	18.464	1	16076	0	1240
41.255	17.202	1	16258	0	1240
40.714	17.346	1	16436	0	1240
38.406	18.824	1	16614	0	1240
37.180	18.356	1	16777	0	1240
36.314	15.867	1	16927	0	1240
34.836	13.704	1	17061	0	1240
29.715	10.061	1	17178	0	1240
25.388	9.592	1	17270	0	1240
22.431	10.097	1	17344	0	1240
26.181	14.172	1	17401	0	1240
31.049	17.743	1	17443	0	1240
35.016	19.473	1	17471	0	1240
36.314	19.113	1	17482	0	1240
34.547	17.851	1	17480	0	1240
33.862	18.392	1	17464	0	1240
36.891	21.168	1	17438	0	1240
41.327	23.332	1	17353	0	1240
45.222	24.991	1	17127	1	2040
46.628	22.539	1	16796	0	2040
45.907	18.933	1	16531	0	2040
42.481	15.254	1	16384	0	2040
40.101	14.245	1	16292	0	2040
37.505	15.182	1	16235	0	2040
37.108	18.283	1	16214	0	2040
37.432	19.726	1	16219	0	2040
36.819	18.247	1	16246	0	2040
32.816	12.910	1	16288	0	2040
26.470	6.563	1	16334	0	2040
19.437	0.865	1	16378	0	2040
14.894	-2.128	1	16418	0	2040
14.713	-1.659	1	16455	0	2040
17.310	1.334	1	16492	0	2040
21.926	6.347	1	16524	0	2040
25.099	12.622	1	16554	0	2040
28.309	20.375	1	16582	0	2040
31.879	25.316	1	16607	0	2040
34.980	27.371	1	16625	0	2040
36.964	23.693	1	16635	0	2040
37.396	17.490	32768	16641	0	2040
34.583	11.071	32768	16646	0	2040
31.771	9.268	32768	16646	0	2040
28.814	12.622	32768	16644	0	2040
27.299	17.310	32768	16639	0	2040
24.486	18.608	32768	16628	0	2040
21.204	15.110	32768	16609	0	2040
17.346	6.491	32768	16591	0	2040
15.146	1.442	32768	16568	0	2040
15.687	0.721	32768	16542	0	2040
16.697	5.445	32768	16510	0	2040
18.428	11.540	32768	16478	0	2040
19.798	15.831	32768	16448	0	2040
24.306	19.473	32768	16413	0	2040
33.321	24.991	32768	16380	0	2040
41.399	32.095	32768	16345	0	2040
45.799	36.278	32768	16318	0	2040
41.075	34.692	32768	16297	0	2040
35.557	28.489	32768	16279	0	2040
33.970	23.476	32768	16256	0	2040
39.812	24.450	32768	16228	0	2040
47.386	30.256	32768	16207	0	2040
51.172	33.249	32768	16193	0	2040
45.258	32.059	32768	16182	0	2040
37.685	25.676	32768	16180	0	2040
32.600	19.906	32768	16182	0	2040
33.682	20.087	32768	16184	0	2040
38.695	25.965	32768	16186	0	2040
42.084	31.302	32768	16191	0	2040
44.140	37.216	32768	16200	0	2040
49.477	42.842	32768	16207	0	2040
59.899	50.667	32768	16209	0	2040
73.134	60.801	32768	16207	0	2040
89.145	71.619	32768	16200	0	2040
100.252	81.897	32768	16196	0	2040
110.638	91.453	32768	16193	0	2040
118.860	99.315	32768	16196	0	2040
127.768	104.977	32768	16205	0	2040
133.970	105.229	32768	16216	0	2040
135.774	101.947	32768	16223	0	2040
136.855	100.072	32768	16226	0	2040
136.928	101.515	32768	16223	0	2040
138.514	108.114	32768	16180	0	2040
139.993	112.261	32768	16007	0	2040
138.082	112.369	1	15737	0	2040
134.692	107.609	1	15530	0	2040
130.581	102.957	1	15440	0	2040
130.292	103.137	1	15410	0	2040
132.023	106.671	1	15420	0	2040
132.816	110.061	1	15466	0	2040
128.994	108.907	1	15535	0	2040
121.313	100.938	1	15622	0	2040
114.497	94.338	1	15687	0	2040
113.595	92.102	1	15629	0	2040
119.546	95.853	1	15484	0	2040
126.650	101.010	1	15410	0	2040
128.237	100.829	1	15454	0	2040
122.178	92.138	1	15555	0	2040
111.792	79.986	1	15687	0	2040
101.082	69.600	1	15843	0	2040
94.374	63.649	1	16009	0	2040
92.030	60.079	1	16143	0	2040
90.408	60.440	1	16152	0	2040
89.614	60.945	1	16067	0	2040
88.785	61.558	1	16037	0	2040
88.785	63.217	1	16117	0	2040
90.804	65.813	1	16244	0	2040
94.663	68.013	1	16384	0	2040
97.151	71.980	1	16533	0	2040
98.521	73.891	1	16690	0	2040
95.023	75.225	1	16849	0	2040
92.138	73.530	1	16964	0	2040
91.417	73.927	1	16943	0	2040
95.564	78.291	1	16812	0	2040
104.364	86.657	1	16731	0	2040
111.432	95.961	1	16752	0	2040
113.848	101.118	1	16812	0	2040
111.071	100.721	1	16892	0	2040
107.898	98.161	1	16992	0	2040
105.662	95.312	1	17102	0	2040
108.655	98.846	1	17208	0	2040
113.631	105.085	1	17305	0	2040
116.120	110.061	1	17395	0	2040
113.884	109.520	1	17480	0	2040
105.445	99.495	1	17549	0	2040
95.276	83.808	1	17600	0	2040
84.349	69.095	1	17636	0	2040
77.605	56.726	1	17662	0	2040
72.413	52.614	1	17673	0	2040
66.895	52.362	1	17671	0	2040
58.961	53.768	1	17657	0	2040
45.799	52.146	1	17588	0	2040
31.771	44.573	1	17378	0	2040
19.726	30.725	1	17056	1	456
10.206	16.408	1	16791	0	456
6.275	4.688	1	16635	0	456
3.678	-0.793	1	16531	0	456
3.462	-1.479	1	16453	0	456
0.865	-2.380	1	16397	0	456
-4.255	-8.078	1	16364	0	456
-13.487	-17.093	1	16345	0	456
-24.558	-27.840	1	16341	0	456
-36.351	-36.928	1	16350	0	456
-42.589	-40.353	32768	16368	0	456
-44.284	-43.419	32768	16388	0	456
-43.419	-44.789	32768	16409	0	456
-43.563	-49.838	32768	16432	0	456
-48.359	-55.680	32768	16450	0	456
-56.437	-58.709	32768	16464	0	456
-63.469	-56.365	32768	16476	0	456
-66.967	-50.018	32768	16492	0	456
-68.085	-46.087	32768	16506	0	456
-67.436	-48.612	32768	16466	0	456
-67.436	-54.057	32768	16290	0	456
-66.066	-59.466	32768	16007	0	456
-60.007	-55.680	32768	15783	0	456
-51.785	-45.294	32768	15675	0	456
-45.979	-34.006	16384	15624	0	456
-45.907	-30.508	1	15613	0	456
-52.759	-35.593	1	15636	0	456
-58.348	-43.924	1	15682	0	456
-61.269	-50.018	1	15747	0	456
-58.997	-51.388	1	15825	0	456
-57.303	-50.523	1	15905	0	456
-63.433	-55.067	16384	15988	0	456
-72.665	-67.075	32768	16071	0	456
-84.638	-79.553	32768	16161	0	456
-90.876	-86.332	32768	16253	0	456
-89.145	-83.556	32768	16336	0	456
-82.871	-74.973	32768	16402	0	456
-74.144	-65.272	32768	16462	0	456
-68.121	-60.692	32768	16512	0	456
-65.344	-61.594	32768	16559	0	456
-64.551	-61.918	32768	16605	0	456
-65.489	-60.873	32768	16644	0	456
-61.305	-57.339	32768	16671	0	456
-56.004	-52.254	32768	16690	0	456
-48.179	-47.277	32768	16706	0	456
-40.858	-44.356	32768	16715	0	456
-40.750	-43.347	32768	16713	0	456
-41.832	-42.986	32768	16706	0	456
-44.464	-43.238	32768	16694	0	456
-46.772	-44.464	32768	16678	0	456
-46.412	-41.796	32768	16655	0	456
-43.347	-38.658	32768	16584	0	456
-41.183	-34.295	32768	16384	0	456
-37.937	-31.879	32768	16037	0	456
-35.918	-33.646	32768	15620	0	456
-35.197	-37.721	1	15224	0	456
-36.134	-40.642	1	14954	0	456
-37.613	-40.462	1	14848	0	456
-37.937	-38.911	1	14802	0	456
-37.000	-38.298	1	14694	0	456
-33.429	-39.812	1	14540	0	456
-27.768	-39.849	1	14491	0	456
-21.890	-38.045	1	14595	0	456
-15.975	-32.203	1	14782	0	456
-10.746	-27.479	1	15010	0	456
-5.121	-23.080	1	15263	0	456
-1.911	-18.536	1	15535	0	456
-1.298	-12.982	1	15818	0	456
-4.796	-5.481	1	16104	0	456
-10.602	-1.839	1	16382	0	456
-15.146	-3.282	1	16646	0	456
-16.228	-10.566	1	16895	0	456
-11.684	-16.552	1	17120	0	456
-3.642	-15.326	1	17279	0	456
4.940	-7.068	1	17284	0	456
9.773	4.364	1	17167	0	456
10.891	10.242	1	17084	0	456
6.671	5.662	1	17091	0	456
2.849	-4.147	1	17132	0	456
4.039	-10.097	1	17180	0	456
10.855	-7.285	1	17233	0	456
24.630	6.816	1	17286	0	456
38.082	22.683	1	17337	0	456
49.693	33.862	1	17388	0	456
53.805	37.288	1	17434	0	456
52.723	36.819	1	17473	0	456
48.431	36.639	1	17500	0	456
47.494	41.688	1	17519	0	456
49.261	49.549	1	17524	0	456
53.300	56.870	1	17514	0	456
54.778	59.971	32768	17494	0	456
54.634	56.581	32768	17464	0	456
52.506	52.001	32768	17383	0	456
52.867	46.809	32768	17125	0	456
54.778	44.897	1	16632	0	456
55.680	44.645	1	16062	0	456
53.047	42.229	1	15532	0	456
47.602	37.613	1	15042	0	456
41.976	34.872	1	14537	0	456
40.245	32.961	1	13992	0	456
40.606	35.233	1	13487	0	456
44.753	39.091	1	13116	0	456
44.609	41.543	1	12902	0	456
43.851	39.921	1	12858	0	456
39.596	36.351	1	12905	0	456
34.151	32.564	1	12948	0	456
31.662	30.472	1	13013	0	456
32.925	29.066	1	13123	0	456
35.521	29.138	1	13225	0	456
40.534	33.141	1	13271	0	456
44.717	41.147	1	13381	0	456
49.080	53.228	1	13718	0	456
50.992	64.912	1	14213	0	456
51.929	66.318	1	14678	0	456
48.323	53.372	1	15046	0	456
40.029	33.466	1	15373	0	456
34.187	18.031	1	15719	0	456
30.328	12.081	1	16136	0	456
34.583	18.175	1	16496	0	456
41.219	26.037	1	16678	0	456
48.251	31.013	1	16784	0	456
49.225	31.482	1	16932	0	456
47.349	30.292	1	17132	0	456
44.176	34.223	1	17404	0	456
40.930	39.849	1	17627	0	456
41.111	42.589	1	17682	0	456
39.488	39.993	1	17678	0	456
34.656	30.545	1	17719	0	456
27.624	18.103	1	17816	0	456
20.195	11.107	1	18028	0	456
18.392	11.576	1	18376	0	456
19.906	17.815	1	18749	0	456
23.224	23.585	1	18963	0	456
24.919	23.981	1	18945	0	456
24.630	21.060	1	18871	0	456
22.791	14.785	1	18940	0	456
22.395	11.251	1	19101	0	456
21.818	8.258	1	19175	0	456
21.241	6.888	1	19159	1	552
19.618	5.085	1	19200	0	552
21.854	5.481	1	19341	0	552
26.758	9.052	1	19467	0	552
32.528	10.206	1	19419	0	552
37.577	8.006	1	19129	0	552
40.065	1.623	1	18744	0	552
40.930	-7.681	1	18387	0	552
40.570	-12.405	1	18079	0	552
39.993	-14.461	1	17899	0	552
36.459	-16.408	1	17825	0	552
29.679	-22.431	1	17696	0	552
21.385	-32.203	1	17507	0	552
12.802	-42.878	1	17372	0	552
5.734	-48.539	1	17238	0	552
3.354	-49.585	1	17070	0	552
2.308	-45.150	1	16943	0	552
1.983	-41.471	1	16819	0	552
-0.577	-39.560	1	16616	0	552
-6.022	-40.930	1	16373	0	552
-13.523	-46.628	1	16163	0	552
-20.159	-50.631	1	16078	0	552
-25.820	-55.644	1	16097	0	552
-34.764	-63.072	1	16064	0	552
-49.116	-77.822	1	15984	0	552
-70.032	-99.171	1	15993	0	552
-91.958	-122.755	1	16090	0	552
-109.052	-138.731	1	16120	0	552
-115.218	-139.993	1	16032	0	552
-108.511	-126.289	1	15889	0	552
-87.811	-99.567	1	15763	0	552
-55.067	-65.128	1	15756	0	552
-17.743	-28.922	1	15846	0	552
17.490	2.092	1	15880	0	552
38.118	19.978	1	15809	0	552
44.032	24.378	1	15689	0	552
39.091	19.401	1	15595	0	552
32.203	14.028	1	15618	0	552
28.417	13.163	1	15742	0	552
32.203	19.257	1	15809	0	552
41.652	29.751	1	15767	0	552
57.411	45.005	1	15677	0	552
77.065	62.459	1	15574	0	552
94.122	78.291	1	15461	0	552
100.072	84.205	1	15392	0	552
93.653	77.714	1	15452	0	552
78.327	61.558	1	15657	0	552
64.803	45.655	1	15935	0	552
61.702	42.589	1	16246	0	552
67.905	51.244	1	16568	0	552
77.497	66.102	1	16851	0	552
82.871	77.173	32768	17001	0	552
80.923	79.553	32768	17042	0	552
75.730	74.865	32768	17125	0	552
70.934	69.528	32768	17289	0	552
68.013	66.174	32768	17473	0	552
64.623	63.577	32768	17648	0	552
57.627	59.791	32768	17814	0	552
50.775	53.372	32768	17968	0	552
44.104	48.431	16570	0	0	32768
27.407	15.254	32768	16341	0	444
23.945	21.601	32768	16334	0	444
21.637	22.863	32768	16332	0	444
18.572	16.156	32768	16334	0	444
17.670	11.215	32768	16343	0	444
17.851	8.258	32768	16355	0	444
19.005	12.009	32768	16361	0	444
20.808	17.490	32768	16364	0	444
24.342	22.899	32768	16361	0	444
28.922	25.063	32768	16357	0	444
31.879	24.775	32768	16352	0	444
32.276	22.755	32768	16352	0	444
27.912	18.536	32768	16350	0	444
19.870	13.668	32768	16350	0	444
12.586	8.330	32768	16348	0	444
9.665	6.671	32768	16350	0	444
12.982	7.248	32768	16352	0	444
18.356	9.376	32768	16352	0	444
21.709	8.258	32768	16352	0	444
18.824	2.128	32768	16348	0	444
14.100	-4.472	32768	16345	0	444
11.360	-5.914	32768	16348	0	444
11.396	-4.111	32768	16352	0	444
13.920	2.380	16384	16355	0	444
16.156	6.311	16384	16355	0	444
15.867	9.232	16384	16355	0	444
16.084	7.357	16384	16357	0	444
17.706	8.222	16384	16364	0	444
21.529	8.583	16384	16368	0	444
27.696	15.218	16384	16373	0	444
34.656	24.017	16384	16375	0	444
42.120	32.564	1	16380	0	444
42.914	35.665	1	16382	0	444
36.134	28.237	1	16384	0	444
26.902	15.435	1	16386	0	444
20.952	9.881	1	16384	0	444
22.467	14.208	1	16380	0	444
29.931	25.640	16384	16375	0	444
35.124	33.466	1	16375	0	444
33.285	32.059	1	16382	0	444
27.299	23.765	1	16393	0	444
22.431	17.382	1	16404	0	444
20.411	16.372	1	16413	0	444
23.368	19.942	1	16423	0	444
25.893	21.024	16384	16430	0	444
28.777	21.060	16384	16436	0	444
33.718	21.529	16384	16441	0	444
37.973	22.791	16384	16441	0	444
40.065	26.506	16384	16439	0	444
40.317	29.210	16384	16436	0	444
36.423	28.561	32768	16434	0	444
32.167	28.092	32768	16434	0	444
29.427	26.650	32768	16434	0	444
26.109	23.080	32768	16436	0	444
24.125	20.736	32768	16439	0	444
22.972	18.716	32768	16436	0	444
22.719	19.726	32768	16432	0	444
26.470	22.539	32768	16427	0	444
30.076	25.784	32768	16427	0	444
32.889	29.318	32768	16427	0	444
34.403	28.056	32768	16420	0	444
32.997	24.739	32768	16407	0	444
31.915	23.188	32768	16388	0	444
30.364	23.368	32768	16378	0	444
31.518	29.030	32768	16366	0	444
31.158	34.331	16384	16352	0	444
29.499	35.124	16384	16338	0	444
25.460	31.302	16384	16334	0	444
22.683	26.217	16384	16336	0	444
24.234	26.470	16384	16343	0	444
26.974	31.194	16384	16348	0	444
29.463	33.754	16384	16350	0	444
25.063	30.040	1	16348	0	444
15.687	20.627	1	16345	0	444
9.701	13.523	1	16350	0	444
10.783	12.730	16384	16361	0	444
20.087	17.598	16384	16380	0	444
28.886	23.332	16384	16390	0	444
31.735	23.657	32768	16400	0	444
27.299	21.132	32768	16407	0	444
22.178	18.356	32768	16409	0	444
21.457	18.464	32768	16409	0	444
28.237	22.286	32768	16404	0	444
34.187	25.640	32768	16400	0	444
35.737	26.578	32768	16402	0	444
28.994	22.503	32768	16411	0	444
19.618	17.490	32768	16420	0	444
15.579	15.218	32768	16430	0	444
20.159	18.356	32768	16430	0	444
30.689	24.775	32768	16425	0	444
39.091	27.732	32768	16416	0	444
40.065	25.604	32768	16402	0	444
31.951	16.805	32768	16388	0	444
22.827	8.330	32768	16378	0	444
17.887	4.400	32768	16366	0	444
20.014	7.176	32768	16352	0	444
27.335	13.776	32768	16345	0	444
30.941	21.241	32768	16345	0	444
27.732	22.719	32768	16352	0	444
19.077	18.752	32768	16357	0	444
9.881	12.910	32768	16357	0	444
6.635	7.104	32768	16355	0	444
8.943	4.544	32768	16350	0	444
13.307	5.698	32768	16345	0	444
18.320	5.193	32768	16338	0	444
22.070	5.914	16384	16332	0	444
26.686	7.609	16384	16325	0	444
31.879	12.730	16384	16322	0	444
32.348	18.933	1	16322	0	444
29.463	20.483	1	16325	0	444
24.270	19.365	1	16329	0	444
21.529	16.336	1	16338	0	444
22.034	12.874	1	16348	0	444
26.433	11.504	1	16364	0	444
26.289	10.674	16384	16384	0	444
24.378	9.737	16384	16402	0	444
19.113	9.196	16384	16418	0	444
14.930	10.206	32768	16427	0	444
13.559	12.586	32768	16434	0	444
15.903	12.514	32768	16434	0	444
18.320	11.432	32768	16430	0	444
22.178	11.396	32768	16425	0	444
23.945	12.477	32768	16420	0	444
24.702	14.930	32768	16418	0	444
24.955	17.706	32768	16416	0	444
22.503	18.067	32768	16418	0	444
17.995	14.208	32768	16418	0	444
14.353	10.602	32768	16413	0	444
11.973	6.888	32768	16409	0	444
14.281	7.248	32768	16402	0	444
18.824	10.638	16384	16395	0	444
24.198	16.769	16384	16388	0	444
28.020	20.916	16384	16382	0	444
32.095	25.568	16384	16373	0	444
36.639	28.958	16384	16368	0	444
41.075	32.456	16384	16368	0	444
42.986	33.610	16384	16368	0	444
41.580	31.410	16384	16368	0	444
35.882	27.263	16384	16368	0	444
31.374	22.755	16384	16371	0	444
30.761	20.555	16384	16375	0	444
29.859	22.214	16384	16384	0	444
29.968	20.447	16384	16388	0	444
27.371	16.012	16384	16395	0	444
23.837	11.973	32768	16400	0	444
21.529	7.501	32768	16402	0	444
24.342	9.088	32768	16409	0	444
25.460	10.242	32768	16416	0	444
26.181	11.828	32768	16423	0	444
24.558	13.091	32768	16430	0	444
22.972	13.271	32768	16432	0	444
27.227	18.536	32768	16430	0	444
33.069	24.306	32768	16425	0	444
41.003	29.102	32768	16423	0	444
45.510	28.237	32768	16418	0	444
44.032	27.876	32768	16411	0	444
43.347	27.335	32768	16407	0	444
42.734	30.761	32768	16402	0	444
44.537	33.610	32768	16395	0	444
44.573	35.413	32768	16390	0	444
42.589	32.636	32768	16386	0	444
37.757	29.787	32768	16384	0	444
35.016	26.181	32768	16378	0	444
35.665	27.119	32768	16364	0	444
37.541	24.883	32768	16348	0	444
38.334	21.385	32768	16336	0	444
37.216	18.608	32768	16332	0	444
35.052	19.329	32768	16327	0	444
35.629	22.935	32768	16322	0	444
36.603	26.938	16384	16315	0	444
36.891	31.554	16384	16308	0	444
35.846	32.276	1	16302	0	444
35.052	32.312	1	16302	0	444
35.088	33.213	1	16306	0	444
35.197	35.737	1	16311	0	444
32.961	34.620	1	16313	0	444
27.660	31.987	1	16318	0	444
22.755	26.506	1	16329	0	444
21.277	19.546	1	16341	0	444
23.080	13.956	1	16352	0	444
26.650	11.828	1	16364	0	444
25.135	13.595	1	16378	0	444
20.880	16.084	16384	16386	0	444
13.127	16.949	16384	16393	0	444
9.520	14.930	16384	16400	0	444
8.330	9.953	16384	16411	0	444
12.225	7.321	16384	16423	0	444
15.651	6.671	32768	16430	0	444
19.365	10.386	32768	16432	0	444
20.447	13.812	32768	16432	0	444
20.736	15.795	32768	16427	0	444
19.582	13.992	32768	16425	0	444
17.454	11.179	32768	16423	0	444
18.211	9.881	32768	16423	0	444
23.368	14.064	32768	16423	0	444
30.004	20.195	16384	16423	0	444
33.970	24.270	16384	16423	0	444
31.302	22.863	16384	16418	0	444
24.306	17.310	16384	16413	0	444
17.021	11.143	16384	16409	0	444
17.093	9.773	16384	16404	0	444
21.060	12.045	16384	16402	0	444
25.171	15.651	16384	16400	0	444
28.056	18.608	32768	16397	0	444
27.587	19.906	32768	16395	0	444
29.787	22.178	32768	16393	0	444
30.545	21.854	32768	16390	0	444
31.626	17.995	32768	16386	0	444
29.318	13.451	32768	16384	0	444
26.578	11.504	32768	16384	0	444
24.558	11.937	32768	16382	0	444
24.919	16.697	16384	16373	0	444
28.309	21.024	16384	16361	0	444
31.013	23.224	16384	16350	0	444
33.069	24.522	1	16338	0	444
33.249	24.378	1	16327	0	444
30.905	22.575	1	16318	0	444
27.876	20.375	1	16318	0	444
24.053	17.202	1	16320	0	444
23.152	16.084	1	16325	0	444
23.332	17.238	1	16336	0	444
23.476	19.077	1	16350	0	444
24.414	17.454	1	16361	0	444
24.342	15.290	1	16371	0	444
25.063	14.821	1	16382	0	444
27.984	15.615	1	16390	0	444
29.427	18.356	16384	16400	0	444
29.968	19.510	16384	16409	0	444
27.155	16.769	16384	16418	0	444
22.395	10.133	16384	16425	0	444
15.939	4.616	16384	16430	0	444
12.369	2.236	32768	16427	0	444
10.927	3.967	32768	16423	0	444
12.297	8.006	32768	16418	0	444
15.254	10.891	32768	16413	0	444
20.700	13.127	16384	16407	0	444
24.522	12.081	16384	16397	0	444
28.092	11.900	16384	16388	0	444
30.364	12.586	16384	16378	0	444
28.958	13.235	1	16359	0	444
26.938	14.245	1	16343	0	444
23.008	15.254	1	16338	0	444
20.880	14.533	1	16338	0	444
17.238	14.858	1	16343	0	444
14.894	12.946	1	16343	0	444
12.586	12.225	1	16343	0	444
10.674	12.982	1	16345	0	444
12.189	14.858	1	16348	0	444
15.435	15.831	1	16352	0	444
16.877	14.208	1	16359	0	444
17.706	11.215	1	16364	0	444
17.238	8.330	1	16368	0	444
16.552	5.770	1	16371	0	444
18.716	9.737	1	16375	0	444
24.053	14.425	1	16375	0	444
30.328	20.916	1	16378	0	444
35.990	25.532	1	16375	0	444
39.055	28.525	1	16375	0	444
39.632	28.345	1	16380	0	444
38.478	25.279	1	16390	0	444
35.557	21.457	1	16404	0	444
33.934	21.601	1	16413	0	444
35.413	23.585	1	16416	0	444
39.344	29.210	1	16418	0	444
45.510	36.711	1	16416	0	444
48.359	40.317	1	16416	0	444
47.313	37.721	1	16411	0	444
42.517	32.456	1	16407	0	444
35.701	23.873	1	16400	0	444
32.023	18.572	1	16393	0	444
30.869	17.057	1	16384	0	444
29.571	18.247	1	16382	0	444
29.931	20.808	1	16378	0	444
30.256	22.503	1	16378	0	444
31.915	24.666	1	16382	0	444
32.203	26.830	1	16386	0	444
31.699	29.210	1	16393	0	444
28.128	29.751	1	16400	0	444
22.611	23.909	1	16402	0	444
19.654	17.346	1	16404	0	444
18.464	10.458	1	16407	0	444
21.854	8.799	1	16411	0	444
27.083	14.389	1	16418	0	444
31.626	19.546	1	16423	0	444
34.511	24.739	16384	16423	0	444
34.331	25.207	1	16423	0	444
31.843	23.476	1	16423	0	444
30.977	21.637	1	16420	0	444
30.148	20.339	1	16416	0	444
30.725	19.221	1	16409	0	444
31.843	17.202	1	16409	0	444
31.013	15.074	16384	16409	0	444
31.735	14.497	16384	16413	0	444
33.141	16.805	16384	16416	0	444
37.432	22.935	16384	16416	0	444
42.806	30.581	16384	16413	0	444
47.746	36.278	32768	16409	0	444
50.451	35.593	32768	16409	0	444
50.487	30.869	32768	16413	0	444
48.648	25.856	32768	16423	0	444
48.107	25.388	32768	16434	0	444
47.349	31.049	32768	16439	0	444
50.559	40.678	32768	16439	0	444
55.463	47.277	32768	16441	0	444
62.964	52.506	32768	16443	0	444
69.816	53.300	32768	16446	0	444
75.947	56.329	32768	16448	0	444
78.651	58.673	32768	16448	0	444
79.841	62.964	32768	16446	0	444
80.310	68.229	32768	16439	0	444
83.772	72.485	32768	16430	0	444
87.270	76.668	32768	16416	0	444
88.893	78.255	32768	16402	0	444
85.287	75.009	32768	16384	0	444
76.019	68.626	32768	16368	0	444
66.246	61.017	32768	16348	0	444
60.188	55.572	32768	16329	0	444
58.853	52.398	32768	16311	0	444
61.630	53.228	32768	16297	0	444
63.253	52.542	32768	16290	0	444
62.928	53.985	32768	16288	0	444
60.801	51.569	32768	16288	0	444
57.519	49.585	32768	16288	0	444
53.191	45.943	32768	16288	0	444
46.304	39.019	32768	16285	0	444
37.649	32.348	32768	16285	0	444
28.164	24.414	32768	16288	0	444
20.411	19.618	16384	16292	0	444
19.041	17.670	16384	16292	0	444
22.755	19.473	1	16285	0	444
32.348	24.739	1	16285	0	444
40.606	28.850	1	16290	0	444
43.599	32.131	1	16299	0	444
40.606	31.879	1	16311	0	444
34.547	30.148	1	16322	0	444
30.905	24.883	1	16332	0	444
30.040	23.116	1	16338	0	444
33.177	22.286	1	16345	0	444
36.314	24.378	1	16352	0	444
39.488	30.797	1	16357	0	444
42.625	35.665	1	16361	0	444
45.366	39.199	1	16368	0	444
43.310	36.026	1	16375	0	444
36.711	28.381	1	16382	0	444
26.506	16.877	1	16390	0	444
18.247	8.330	1	16404	0	444
14.749	2.885	1	16413	0	444
16.372	3.823	1	16420	0	444
18.464	3.246	1	16423	0	444
18.103	3.282	1	16427	0	444
15.290	2.813	1	16434	0	444
12.874	-0.325	1	16443	0	444
13.163	-1.983	1	16448	0	444
10.999	-4.580	1	16455	0	444
8.186	-6.780	16384	16462	0	444
3.895	-10.494	16384	16466	0	444
0.649	-9.052	16384	16464	0	444
3.859	-7.501	16384	16460	0	444
8.583	-5.085	16384	16453	0	444
10.999	-4.508	16384	16448	0	444
10.386	-4.688	16384	16441	0	444
6.744	-8.511	16384	16430	0	444
3.065	-11.360	16384	16416	0	444
2.092	-15.038	16384	16402	0	444
0.793	-18.464	16384	16390	0	444
-0.902	-21.781	16384	16384	0	444
-2.885	-23.801	16384	16380	0	444
-2.344	-23.044	1	16375	0	444
1.334	-20.267	1	16371	0	444
4.364	-17.418	1	16368	0	444
5.950	-17.166	1	16368	0	444
1.659	-21.890	1	16366	0	444
-3.390	-28.345	1	16361	0	444
-9.412	-34.079	1	16357	0	444
-9.953	-34.223	1	16352	0	444
-9.232	-27.948	1	16350	0	444
-6.852	-19.077	1	16348	0	444
-7.248	-13.956	1	16350	0	444
-7.393	-12.982	1	16361	0	444
-10.530	-17.346	1	16378	0	444
-13.415	-24.053	1	16388	0	444
-16.552	-25.640	1	16402	0	444
-18.500	-25.496	16384	16416	0	444
-18.356	-20.988	16384	16425	0	444
-16.625	-16.589	16384	16432	0	444
-15.218	-15.759	32768	16436	0	444
-17.202	-16.733	32768	16439	0	444
-22.431	-20.159	32768	16436	0	444
-28.417	-23.981	32768	16432	0	444
-31.879	-27.083	32768	16423	0	444
-33.213	-29.318	32768	16418	0	444
-34.151	-31.482	32768	16413	0	444
-35.918	-35.269	32768	16411	0	444
-40.642	-39.668	32768	16407	0	444
-43.419	-40.930	32768	16402	0	444
-42.265	-40.498	32768	16397	0	444
-39.452	-39.199	32768	16393	0	444
-36.747	-35.016	32768	16386	0	444
-38.911	-37.216	32768	16375	0	444
-46.484	-45.330	32768	16366	0	444
-60.115	-60.188	32768	16364	0	444
-74.937	-75.550	32768	16366	0	444
-87.559	-89.037	32768	16368	0	444
-96.502	-95.312	32768	16371	0	444
-101.082	-94.338	32768	16371	0	444
-100.288	-91.381	32768	16366	0	444
-99.026	-86.585	32768	16361	0	444
-96.610	-81.789	32768	16364	0	444
-89.686	-73.494	32768	16366	0	444
-80.346	-64.731	32768	16368	0	444
-66.715	-57.194	32768	16371	0	444
-54.490	-48.431	32768	16371	0	444
-44.104	-43.887	32768	16373	0	444
-37.865	-38.370	32768	16373	0	444
-32.997	-31.266	32768	16375	0	444
-25.207	-23.837	32768	16375	0	444
-16.913	-16.084	32768	16378	0	444
-7.140	-6.563	32768	16380	0	444
2.813	2.633	32768	16380	0	444
11.648	11.684	32768	16378	0	444
22.322	21.998	32768	16375	0	444
33.718	33.249	32768	16371	0	444
47.746	45.041	16384	16359	0	444
60.368	58.240	16384	16350	0	444
76.127	71.186	16384	16345	0	444
92.247	87.414	16384	16343	0	444
111.432	103.173	1	16343	0	444
127.119	118.788	1	16348	0	444
137.144	127.227	1	16350	0	444
137.901	127.083	1	16350	0	444
131.482	122.250	1	16350	0	444
127.263	118.608	1	16345	0	444
126.506	119.149	1	16341	0	444
129.354	123.188	1	16341	0	444
130.184	125.532	1	16341	0	444
127.479	121.962	1	16343	0	444
120.591	114.497	1	16348	0	444
114.425	108.547	1	16357	0	444
110.783	102.813	1	16364	0	444
109.160	101.010	1	16373	0	444
108.366	95.853	1	16384	0	444
104.652	90.444	1	16393	0	444
99.423	81.320	1	16404	0	444
93.725	74.684	1	16416	0	444
89.398	72.521	1	16425	0	444
88.352	75.514	1	16430	0	444
88.821	80.418	16384	16430	0	444
88.713	80.490	16384	16432	0	444
83.231	75.478	16384	16436	0	444
76.091	64.335	16384	16443	0	444
68.049	55.860	32768	16446	0	444
64.443	51.461	32768	16443	0	444
64.984	52.831	32768	16439	0	444
67.075	56.076	32768	16439	0	444
70.754	58.240	32768	16441	0	444
72.701	59.358	32768	16439	0	444
72.052	61.161	32768	16427	0	444
69.852	60.873	32768	16416	0	444
63.145	56.906	32768	16404	0	444
55.391	51.424	32768	16400	0	444
49.153	43.274	32768	16397	0	444
47.458	39.560	32768	16397	0	444
48.287	39.704	32768	16400	0	444
51.064	39.380	32768	16404	0	444
51.100	39.993	32768	16409	0	444
48.287	35.882	32768	16418	0	444
44.356	30.545	32768	16425	0	444
38.442	24.089	32768	16425	0	444
32.853	19.942	32768	16423	0	444
26.217	13.163	32768	16425	0	444
18.897	8.258	32768	16425	0	444
11.287	3.246	32768	16418	0	444
5.085	-1.767	32768	16404	0	444
1.010	-4.183	32768	16386	0	444
-0.180	-4.183	32768	16371	0	444
1.154	-3.029	32768	16352	0	444
2.957	0.361	32768	16338	0	444
5.517	2.524	32768	16325	0	444
5.770	3.678	32768	16311	0	444
5.986	2.741	32768	16302	0	444
6.311	0.469	16384	16295	0	444
6.563	-0.865	16384	16288	0	444
7.321	-0.397	1	16285	0	444
10.097	3.390	1	16290	0	444
11.504	8.402	1	16297	0	444
13.451	12.189	1	16304	0	444
15.002	11.864	1	16313	0	444
13.668	8.366	1	16322	0	444
7.321	1.262	1	16336	0	444
0.577	-5.698	1	16355	0	444
-6.852	-10.097	1	16366	0	444
-11.215	-14.136	1	16375	0	444
-13.487	-16.913	1	16386	0	444
-14.208	-18.969	16384	16397	0	444
-18.824	-24.811	16384	16404	0	444
-22.719	-29.679	16384	16411	0	444
-26.974	-34.908	16384	16420	0	444
-27.335	-39.019	32768	16434	0	444
-25.856	-40.353	32768	16446	0	444
-21.673	-37.505	32768	16455	0	444
-15.398	-31.807	32768	16462	0	444
-9.124	-22.611	32768	16462	0	444
-0.216	-9.989	32768	16460	0	444
7.681	1.262	32768	16450	0	444
14.245	9.773	32768	16439	0	444
17.634	11.432	32768	16425	0	444
16.625	7.681	32768	16416	0	444
14.353	2.596	32768	16407	0	444
15.867	2.452	32768	16400	0	444
22.935	10.999	32768	16397	0	444
34.439	25.099	32768	16395	0	444
45.438	38.478	32768	16390	0	444
51.028	46.700	32768	16384	0	444
50.343	47.818	32768	16378	0	444
43.924	42.048	32768	16368	0	444
38.983	38.298	32768	16361	0	444
35.557	32.961	32768	16357	0	444
36.351	31.554	32768	16352	0	444
39.632	30.833	16384	16348	0	444
42.553	31.302	16384	16345	0	444
43.960	31.410	16384	16345	0	444
40.534	29.643	16384	16345	0	444
35.124	24.270	16384	16345	0	444
29.643	18.716	16384	16345	0	444
26.470	15.543	16384	16345	0	444
28.669	16.156	16384	16350	0	444
33.646	24.053	16384	16352	0	444
39.488	31.987	1	16355	0	444
43.635	36.098	1	16355	0	444
42.661	33.790	1	16352	0	444
38.298	28.525	1	16352	0	444
35.016	22.070	1	16352	0	444
29.643	18.247	1	16352	0	444
24.162	14.028	1	16355	0	444
17.274	8.042	1	16361	0	444
9.845	0.325	1	16364	0	444
4.183	-7.898	1	16366	0	444
3.318	-9.052	1	16368	0	444
6.167	-6.527	1	16375	0	444
10.746	-1.334	1	16384	0	444
9.881	0.613	16384	16393	0	444
6.996	-1.731	16384	16407	0	444
1.226	-7.970	16384	16413	0	444
-4.796	-11.937	16384	16416	0	444
-7.753	-14.641	16384	16413	0	444
-9.376	-16.228	16384	16411	0	444
-7.285	-16.084	16384	16407	0	444
-3.895	-15.110	16384	16400	0	444
2.380	-12.982	16384	16395	0	444
7.898	-9.268	16384	16397	0	444
9.196	-9.484	16384	16404	0	444
6.491	-14.785	16384	16411	0	444
2.128	-20.483	16384	16416	0	444
2.272	-22.034	16384	16416	0	444
6.527	-15.975	16384	16413	0	444
13.740	-7.104	16384	16407	0	444
15.975	-0.216	16384	16395	0	444
15.687	2.272	16384	16384	0	444
13.091	1.334	16384	16373	0	444
14.389	1.262	1	16361	0	444
19.870	5.229	1	16350	0	444
25.496	8.763	1	16345	0	444
26.938	9.160	1	16345	0	444
26.073	7.825	1	16343	0	444
23.404	6.455	1	16338	0	444
24.739	10.025	1	16336	0	444
25.676	17.670	1	16334	0	444
26.397	24.053	1	16332	0	444
25.856	26.974	1	16322	0	444
27.119	24.666	1	16315	0	444
33.105	20.555	1	16306	0	444
39.019	19.437	1	16299	0	444
40.065	18.824	1	16292	0	444
36.855	19.762	1	16285	0	444
32.131	21.277	1	16281	0	444
32.853	22.863	1	16281	0	444
38.767	26.073	1	16285	0	444
43.924	26.109	1	16297	0	444
39.921	21.277	1	16308	0	444
27.335	10.638	1	16322	0	444
14.713	-1.262	1	16338	0	444
5.373	-7.825	1	16355	0	444
3.210	-11.035	1	16368	0	444
3.065	-10.350	1	16382	0	444
0.865	-10.855	1	16397	0	444
-2.921	-14.136	1	16418	0	444
-4.508	-20.159	1	16434	0	444
-4.003	-21.890	1	16448	0	444
0.505	-22.322	1	16460	0	444
2.705	-20.664	1	16469	0	444
4.616	-18.716	1	16478	0	444
4.580	-17.815	1	16485	0	444
6.491	-16.336	1	16485	0	444
11.287	-12.261	1	16480	0	444
18.716	-5.986	1	16471	0	444
25.243	2.019	1	16462	0	444
31.446	9.412	1	16455	0	444
36.711	14.641	1	16446	0	444
41.580	18.860	1	16439	0	444
46.232	21.132	1	16427	0	444
50.270	22.106	1	16413	0	444
51.064	23.909	1	16400	0	444
49.297	27.587	1	16388	0	444
48.720	33.105	1	16382	0	444
53.624	43.202	1	16371	0	444
63.036	56.401	1	16357	0	444
73.314	65.994	1	16343	0	444
80.346	69.888	1	16329	0	444
81.861	68.951	1	16318	0	444
80.779	66.102	1	16315	0	444
84.746	70.177	1	16318	0	444
95.961	83.988	1	16320	0	444
114.641	107.032	1	16327	0	444
136.242	130.364	1	16336	0	444
159.502	153.624	1	16343	0	444
185.070	177.065	1	16355	0	444
216.156	205.157	1	16368	0	444
251.929	238.911	1	16382	0	444
289.975	277.028	1	16393	0	444
322.611	311.540	1	16411	0	444
346.989	338.731	1	16432	0	444
362.135	356.076	1	16446	0	444
370.069	364.587	1	16453	0	444
373.206	365.813	1	16453	0	444
374.180	363.938	1	16446	0	444
367.724	356.293	1	16439	0	444
356.906	346.304	1	16432	0	444
339.524	331.662	1	16425	0	444
316.336	312.369	1	16423	0	444
289.362	287.955	1	16423	0	444
260.476	261.738	1	16423	0	444
234.115	234.079	1	16418	0	444
208.078	208.727	1	16418	0	444
183.880	183.448	1	16420	0	444
160.007	158.565	1	16423	0	444
135.774	135.557	1	16427	0	444
110.242	112.189	1	16434	0	444
84.061	89.542	1	16443	0	444
57.916	64.803	1	16448	0	444
33.033	40.065	1	16450	0	444
13.812	16.084	1	16453	0	444
-2.380	-4.111	1	16455	0	444
-14.389	-19.401	1	16455	0	444
-30.761	-33.177	1	16448	0	444
-50.090	-48.792	1	16446	0	444
-70.032	-67.400	1	16446	0	444
-85.792	-87.883	1	16448	0	444
-96.141	-104.940	16384	16448	0	444
-104.219	-119.257	16384	16446	0	444
-111.468	-126.109	16384	16439	0	444
-120.411	-132.780	32768	16434	0	444
-130.689	-137.216	32768	16430	0	444
-135.810	-143.743	32768	16432	0	444
-136.134	-146.556	32768	16434	0	444
-131.302	-144.753	32768	16436	0	444
-124.270	-139.091	32768	16434	0	444
-119.618	-132.420	32768	16430	0	444
-120.303	-131.085	32768	16420	0	444
-123.909	-131.626	32768	16407	0	444
-126.109	-133.754	32768	16395	0	444
-123.440	-129.787	32768	16384	0	444
-117.598	-124.486	32768	16378	0	444
-111.900	-119.185	32768	16366	0	444
-110.783	-117.706	32768	16352	0	444
-110.819	-118.969	32768	16341	0	444
-107.898	-116.300	32768	16332	0	444
-100.865	-107.898	32768	16327	0	444
-93.076	-96.646	32768	16322	0	444
-88.316	-89.037	32768	16325	0	444
-88.568	-85.683	32768	16327	0	444
-89.073	-88.424	32768	16329	0	444
-86.837	-88.136	32768	16329	0	444
-81.717	-83.123	32768	16325	0	444
-77.642	-77.497	32768	16315	0	444
-77.461	-72.773	32768	16302	0	444
-79.841	-75.911	32768	16285	0	444
-81.644	-80.202	16384	16272	0	444
-80.635	-83.195	1	16265	0	444
-75.442	-80.454	1	16265	0	444
-68.338	-75.478	1	16267	0	444
-63.181	-69.852	1	16265	0	444
-62.532	-67.761	1	16262	0	444
-66.282	-71.619	1	16258	0	444
-74.504	-75.911	1	16262	0	444
-80.454	-80.635	1	16272	0	444
-82.366	-83.700	1	16281	0	444
-79.733	-84.385	1	16292	0	444
-73.927	-80.779	1	16304	0	444
-67.905	-78.363	1	16318	0	444
-64.623	-75.983	1	16338	0	444
-64.731	-75.550	1	16359	0	444
-66.859	-78.579	1	16380	0	444
-71.223	-81.825	1	16393	0	444
-73.855	-83.772	1	16409	0	444
-74.288	-80.707	1	16420	0	444
-71.006	-74.576	1	16432	0	444
-65.380	-68.338	1	16439	0	444
-57.988	-64.551	1	16446	0	444
-51.569	-63.830	1	16446	0	444
-47.710	-65.056	1	16443	0	444
-46.664	-64.263	1	16436	0	444
-46.989	-63.469	1	16434	0	444
-45.907	-61.955	1	16430	0	444
-46.159	-62.856	1	16425	0	444
-46.268	-62.964	1	16423	0	444
-46.520	-61.522	1	16418	0	444
-47.097	-56.690	1	16416	0	444
-46.520	-54.201	1	16413	0	444
-45.078	-50.992	1	16407	0	444
-42.914	-49.730	1	16402	0	444
-38.658	-45.871	1	16397	0	444
-31.554	-41.039	1	16395	0	444
-21.854	-35.269	1	16393	0	444
-12.009	-29.138	1	16390	0	444
-4.904	-25.856	1	16388	0	444
-1.406	-19.510	1	16386	0	444
-2.380	-13.559	1	16386	0	444
-5.698	-9.484	1	16390	0	444
-8.439	-9.016	1	16395	0	444
-11.215	-13.235	1	16402	0	444
-11.360	-16.084	1	16407	0	444
-8.439	-15.362	1	16413	0	444
-6.816	-11.107	1	16418	0	444
-4.436	-4.688	1	16425	0	444
-3.570	-2.056	1	16436	0	444
-1.803	-0.469	1	16448	0	444
0.469	-1.911	1	16457	0	444
4.544	-2.669	16384	16466	0	444
8.330	-2.128	16384	16469	0	444
9.052	-2.019	32768	16466	0	444
6.635	-4.327	32768	16460	0	444
4.652	-3.426	32768	16455	0	444
8.006	2.849	32768	16450	0	444
21.168	13.163	32768	16446	0	444
36.819	26.902	32768	16443	0	444
50.559	38.154	32768	16441	0	444
53.408	40.173	32768	16439	0	444
49.441	37.396	32768	16432	0	444
43.274	32.925	32768	16425	0	444
45.150	32.600	32768	16418	0	444
50.198	37.468	32768	16413	0	444
55.968	40.678	32768	16407	0	444
55.788	39.632	32768	16404	0	444
47.602	31.843	32768	16404	0	444
36.891	23.152	32768	16400	0	444
28.633	16.480	32768	16395	0	444
24.630	13.992	32768	16388	0	444
19.618	11.035	32768	16384	0	444
12.441	1.839	32768	16384	0	444
1.010	-13.018	32768	16384	0	444
-12.730	-28.273	32768	16384	0	444
-25.027	-41.688	32768	16382	0	444
-36.062	-50.307	32768	16375	0	444
-45.943	-57.988	32768	16364	0	444
-56.329	-64.082	32768	16355	0	444
-61.378	-69.564	32768	16352	0	444
-58.889	-68.518	32768	16355	0	444
-50.703	-60.584	32768	16355	0	444
-36.711	-49.153	32768	16352	0	444
-23.152	-37.360	32768	16352	0	444
-10.819	-25.532	32768	16348	0	444
5.554	-14.281	32768	16341	0	444
28.020	6.491	32768	16332	0	444
51.605	30.689	32768	16322	0	444
74.901	55.463	32768	16313	0	444
86.405	71.475	32768	16308	0	444
83.844	73.314	32768	16308	0	444
73.062	63.830	32768	16306	0	444
61.846	51.641	32768	16306	0	444
58.132	44.681	32768	16304	0	444
63.649	46.917	32768	16304	0	444
74.576	54.598	16384	16304	0	444
81.753	63.036	16384	16302	0	444
82.871	64.407	16384	16304	0	444
79.445	61.197	16384	16311	0	444
74.540	57.158	1	16320	0	444
73.747	58.060	1	16325	0	444
77.569	62.568	1	16329	0	444
79.697	70.429	1	16336	0	444
82.077	74.865	1	16343	0	444
81.644	76.343	1	16350	0	444
82.294	76.596	1	16352	0	444
84.926	76.956	1	16355	0	444
87.883	78.219	1	16352	0	444
88.677	77.101	1	16348	0	444
85.359	74.865	1	16350	0	444
80.418	70.285	1	16359	0	444
77.642	68.301	1	16368	0	444
78.868	70.357	1	16378	0	444
84.638	75.478	1	16384	0	444
89.326	82.438	1	16393	0	444
91.850	84.962	1	16404	0	444
89.181	81.320	1	16413	0	444
83.556	70.934	1	16420	0	444
76.560	60.692	1	16423	0	444
74.035	53.949	1	16427	0	444
73.783	54.382	1	16430	0	444
75.947	59.502	1	16430	0	444
77.317	63.325	1	16430	0	444
78.435	63.974	1	16427	0	444
77.353	60.368	1	16430	0	444
80.310	57.807	1	16434	0	444
83.448	60.548	1	16436	0	444
83.988	63.217	1	16439	0	444
80.130	64.948	1	16441	0	444
70.609	61.486	16384	16450	0	444
61.918	55.427	16384	16460	0	444
57.014	53.119	16384	16460	0	444
60.368	56.004	16384	16453	0	444
64.695	61.991	16384	16441	0	444
66.102	66.210	32768	16432	0	444
61.522	64.263	32768	16427	0	444
52.759	60.837	32768	16425	0	444
49.225	60.909	32768	16420	0	444
53.877	65.921	32768	16418	0	444
62.099	72.268	32768	16418	0	444
66.138	75.478	32768	16418	0	444
61.991	70.429	32768	16418	0	444
51.893	61.414	32768	16411	0	444
43.130	53.444	32768	16404	0	444
42.842	51.064	32768	16395	0	444
46.953	52.110	32768	16386	0	444
50.811	55.860	32768	16384	0	444
52.146	57.266	32768	16384	0	444
53.300	59.034	32768	16384	0	444
57.411	61.342	32768	16388	0	444
63.830	65.885	32768	16402	0	444
68.518	68.770	32768	16411	0	444
68.338	68.229	32768	16418	0	444
64.659	64.912	32768	16416	0	444
59.178	62.243	32768	16416	0	444
56.221	57.483	32768	16413	0	444
53.264	54.526	32768	16411	0	444
47.638	47.313	32768	16409	0	444
39.055	37.288	32768	16404	0	444
31.662	28.958	32768	16400	0	444
28.561	28.741	32768	16390	0	444
30.040	35.160	32768	16380	0	444
34.187	42.229	32768	16364	0	444
37.793	45.582	32768	16345	0	444
37.973	42.445	32768	16327	0	444
37.865	36.531	32768	16313	0	444
36.134	32.023	32768	16306	0	444
33.862	29.751	32768	16304	0	444
29.354	26.758	32768	16306	0	444
24.594	24.522	32768	16308	0	444
26.037	22.503	32768	16311	0	444
32.384	27.696	32768	16318	0	444
41.147	34.872	32768	16320	0	444
47.854	42.193	32768	16322	0	444
47.025	47.241	32768	16329	0	444
43.779	46.123	16384	16334	0	444
40.678	45.005	16384	16341	0	444
43.671	45.691	16384	16348	0	444
45.871	46.809	32768	16355	0	444
46.484	44.501	32768	16364	0	444
41.796	38.695	32768	16375	0	444
34.944	28.201	32768	16384	0	444
32.095	21.709	32768	16388	0	444
32.203	20.736	32768	16395	0	444
34.692	25.099	32768	16397	0	444
35.377	30.004	32768	16397	0	444
32.348	30.184	32768	16393	0	444
27.407	23.909	32768	16384	0	444
22.539	15.471	32768	16382	0	444
17.634	7.032	32768	16382	0	444
13.271	0.108	32768	16384	0	444
7.934	-5.337	32768	16386	0	444
5.013	-7.393	32768	16393	0	444
4.183	-7.537	32768	16404	0	444
4.219	-8.655	32768	16411	0	444
4.940	-7.465	32768	16413	0	444
2.092	-7.609	32768	16413	0	444
0.144	-7.537	32768	16416	0	444
0.938	-7.465	32768	16420	0	444
4.075	-4.111	32768	16425	0	444
7.465	-1.731	32768	16425	0	444
9.016	-2.056	32768	16420	0	444
6.275	-2.560	32768	16413	0	444
4.111	-2.849	32768	16402	0	444
4.327	-3.210	32768	16390	0	444
8.150	2.236	32768	16384	0	444
13.956	6.455	32768	16384	0	444
16.769	11.107	32768	16382	0	444
19.690	12.189	32768	16378	0	444
21.132	12.369	32768	16371	0	444
22.395	14.966	32768	16361	0	444
26.289	18.608	16384	16355	0	444
31.771	25.568	16384	16352	0	444
39.235	31.446	16384	16355	0	444
47.133	36.495	16384	16357	0	444
54.742	38.334	16384	16359	0	444
58.204	39.199	16384	16357	0	444
58.925	40.353	16384	16357	0	444
56.509	42.120	16384	16359	0	444
57.339	43.743	16384	16364	0	444
58.384	46.484	16384	16368	0	444
59.286	44.464	16384	16373	0	444
57.375	36.855	16384	16378	0	444
52.001	27.696	16384	16380	0	444
48.792	20.591	16384	16384	0	444
49.730	22.575	16384	16390	0	444
55.211	28.164	16384	16400	0	444
55.788	35.413	32768	16404	0	444
51.028	33.574	32768	16409	0	444
40.029	27.227	32768	16416	0	444
34.620	21.349	32768	16425	0	444
39.668	22.322	32768	16434	0	444
52.001	29.715	32768	16439	0	444
60.692	31.338	32768	16441	0	444
58.240	29.138	32768	16436	0	444
48.539	23.152	32768	16427	0	444
37.505	20.303	32768	16418	0	444
33.466	22.611	32768	16411	0	444
35.233	27.227	32768	16409	0	444
38.370	27.984	32768	16404	0	444
38.262	23.981	32768	16402	0	444
37.468	18.356	32768	16397	0	444
35.016	16.516	32768	16395	0	444
32.203	15.471	32768	16393	0	444
28.164	15.903	32768	16388	0	444
27.587	15.254	32768	16386	0	444
28.633	13.415	32768	16382	0	444
33.357	13.307	32768	16375	0	444
36.242	13.127	32768	16368	0	444
34.728	12.766	32768	16364	0	444
27.912	8.619	32768	16364	0	444
20.087	5.013	32768	16364	0	444
14.858	3.390	32768	16359	0	444
13.307	5.590	32768	16352	0	444
14.461	12.946	32768	16341	0	444
15.146	16.516	32768	16329	0	444
14.461	17.093	16384	16318	0	444
16.408	15.218	16384	16304	0	444
20.087	15.471	1	16295	0	444
25.460	18.392	1	16288	0	444
26.578	19.401	1	16290	0	444
21.313	13.956	1	16297	0	444
8.943	3.246	1	16308	0	444
-2.308	-8.439	1	16315	0	444
-4.904	-11.251	1	16320	0	444
2.560	-4.832	1	16327	0	444
15.110	7.393	1	16336	0	444
24.919	14.425	1	16348	0	444
25.460	13.199	1	16359	0	444
15.975	4.688	1	16366	0	444
3.787	-7.789	1	16380	0	444
-2.705	-13.054	1	16393	0	444
0.902	-7.681	1	16407	0	444
11.576	3.137	1	16420	0	444
23.476	14.821	1	16430	0	444
28.741	20.411	1	16436	0	444
28.958	20.303	1	16443	0	444
25.676	17.274	16384	16450	0	444
23.801	14.208	16384	16457	0	444
24.089	13.848	16384	16460	0	444
25.496	13.631	32768	16462	0	444
29.679	17.238	32768	16460	0	444
37.288	24.053	32768	16457	0	444
46.448	35.052	32768	16453	0	444
56.004	47.494	32768	16446	0	444
59.719	53.805	32768	16439	0	444
58.637	56.653	32768	16432	0	444
55.968	53.300	32768	16427	0	444
54.562	51.641	32768	16423	0	444
55.319	50.415	32768	16418	0	444
57.375	51.064	32768	16416	0	444
59.394	52.506	32768	16416	0	444
60.368	54.490	32768	16411	0	444
59.935	53.913	32768	16404	0	444
58.312	55.031	32768	16393	0	444
56.293	52.146	32768	16390	0	444
51.028	49.441	32768	16390	0	444
48.936	46.015	32768	16390	0	444
47.638	44.825	32768	16388	0	444
48.503	43.274	32768	16386	0	444
48.035	41.255	32768	16386	0	444
45.618	34.187	32768	16388	0	444
40.209	27.840	32768	16388	0	444
34.944	20.375	32768	16386	0	444
32.672	19.690	32768	16384	0	444
33.249	21.313	32768	16384	0	444
35.341	24.306	32768	16384	0	444
37.541	24.847	32768	16380	0	444
39.055	25.316	32768	16373	0	444
38.911	23.801	32768	16361	0	444
39.812	22.431	32768	16348	0	444
36.098	18.283	32768	16341	0	444
30.256	11.648	32768	16336	0	444
22.142	4.183	32768	16334	0	444
17.706	2.633	32768	16332	0	444
17.634	7.934	32768	16334	0	444
22.106	14.894	32768	16336	0	444
26.722	21.349	16384	16334	0	444
31.158	22.647	16384	16332	0	444
31.338	21.493	16384	16334	0	444
32.095	18.933	16384	16336	0	444
30.076	17.310	16384	16338	0	444
26.758	14.353	16384	16343	0	444
18.933	10.133	1	16348	0	444
9.520	2.380	1	16352	0	444
0.721	-3.967	1	16357	0	444
-3.642	-6.419	1	16359	0	444
-0.721	-4.760	1	16359	0	444
5.590	0.216	1	16357	0	444
12.514	7.032	1	16352	0	444
13.848	10.206	1	16348	0	444
11.684	9.448	1	16345	0	444
9.088	8.150	1	16345	0	444
8.835	8.547	1	16350	0	444
12.550	11.323	1	16357	0	444
18.247	14.461	1	16366	0	444
21.565	17.057	1	16375	0	444
20.591	14.533	1	16382	0	444
16.012	10.386	1	16384	0	444
8.979	6.203	1	16384	0	444
4.147	5.914	1	16380	0	444
2.885	7.681	1	16368	0	444
5.662	9.484	1	16357	0	444
5.770	8.511	1	16350	0	444
4.147	8.258	1	16345	0	444
2.560	8.655	1	16341	0	444
4.291	12.081	1	16338	0	444
8.150	16.372	1	16336	0	444
11.107	16.192	1	16343	0	444
10.746	13.812	1	16352	0	444
6.744	11.360	1	16368	0	444
4.219	11.323	1	16382	0	444
6.347	14.894	1	16390	0	444
11.540	15.543	1	16404	0	444
16.048	16.697	1	16420	0	444
21.313	17.670	1	16432	0	444
28.345	20.952	1	16439	0	444
33.826	28.453	1	16441	0	444
37.396	31.266	1	16441	0	444
35.413	28.453	1	16443	0	444
29.643	19.365	1	16441	0	444
25.856	14.677	1	16436	0	444
25.135	16.516	1	16434	0	444
29.210	22.034	1	16430	0	444
32.384	26.614	1	16425	0	444
30.256	23.765	1	16423	0	444
27.119	17.093	1	16416	0	444
24.522	13.776	1	16409	0	444
24.053	16.120	1	16404	0	444
24.883	20.483	1	16400	0	444
25.893	20.195	1	16395	0	444
22.503	16.444	1	16393	0	444
17.382	10.638	1	16393	0	444
13.343	8.511	1	16390	0	444
11.828	9.016	1	16386	0	444
13.091	10.674	1	16386	0	444
14.641	10.494	1	16390	0	444
16.372	8.366	1	16400	0	444
18.247	4.472	1	16409	0	444
20.303	4.977	1	16416	0	444
25.748	6.131	1	16416	0	444
29.751	10.530	1	16416	0	444
32.492	18.536	1	16418	0	444
32.276	25.243	1	16425	0	444
30.328	28.164	1	16432	0	444
31.338	26.650	1	16436	0	444
32.095	22.755	1	16439	0	444
31.987	16.300	1	16434	0	444
28.273	12.045	1	16425	0	444
21.601	8.258	1	16411	0	444
15.723	7.357	1	16397	0	444
13.235	5.950	1	16390	0	444
14.785	9.412	1	16386	0	444
20.014	13.307	1	16384	0	444
24.378	18.283	1	16378	0	444
28.092	22.034	1	16371	0	444
31.446	22.070	1	16368	0	444
33.754	23.873	1	16368	0	444
36.783	26.181	1	16373	0	444
40.966	30.617	1	16382	0	444
45.222	36.855	1	16390	0	444
47.241	39.812	16384	16402	0	444
47.422	39.091	16384	16404	0	444
43.635	33.682	16384	16402	0	444
41.471	28.273	16384	16397	0	444
40.534	23.549	16384	16395	0	444
41.435	25.243	16384	16393	0	444
43.166	27.407	16384	16395	0	444
42.697	31.735	32768	16397	0	444
39.560	32.348	32768	16397	0	444
36.459	28.056	32768	16397	0	444
33.177	22.755	32768	16390	0	444
28.489	17.310	32768	16384	0	444
26.433	14.425	32768	16382	0	444
25.712	14.317	32768	16380	0	444
28.850	16.336	32768	16378	0	444
34.656	15.939	32768	16373	0	444
38.983	15.110	32768	16371	0	444
39.163	12.982	32768	16364	0	444
33.357	12.045	16384	16355	0	444
24.378	12.874	16384	16343	0	444
15.651	13.018	16384	16334	0	444
10.963	12.153	1	16327	0	444
12.946	10.242	1	16327	0	444
19.401	9.196	1	16329	0	444
28.814	11.756	1	16336	0	444
33.393	16.841	1	16341	0	444
32.059	19.185	1	16345	0	444
26.037	14.497	1	16345	0	444
16.552	3.282	1	16343	0	444
9.845	-6.744	1	16343	0	444
7.537	-11.612	1	16345	0	444
8.186	-8.439	1	16352	0	444
12.658	0.361	1	16368	0	444
14.749	6.744	1	16388	0	444
14.785	6.311	1	16411	0	444
12.009	2.452	16384	16430	0	444
9.412	-2.777	16384	16441	0	444
8.186	-4.219	32768	16446	0	444
12.369	-4.111	32768	16448	0	444
17.129	2.344	32768	16443	0	444
24.522	8.078	32768	16432	0	444
30.004	14.317	32768	16413	0	444
33.754	18.788	16384	16393	0	444
34.944	19.510	16384	16378	0	444
31.951	17.454	1	16361	0	444
26.722	14.894	1	16350	0	444
24.378	13.271	1	16343	0	444
25.316	15.939	1	16341	0	444
31.626	19.942	1	16338	0	444
39.812	23.008	1	16341	0	444
43.491	22.395	1	16348	0	444
39.127	17.526	1	16350	0	444
30.364	12.081	1	16355	0	444
21.457	8.835	1	16364	0	444
18.860	10.927	1	16375	0	444
23.332	16.625	1	16384	0	444
30.617	19.690	1	16390	0	444
34.115	19.906	16384	16397	0	444
31.807	13.956	16384	16402	0	444
24.053	8.402	16384	16411	0	444
17.706	3.534	16384	16423	0	444
14.497	4.291	32768	16436	0	444
17.274	9.052	32768	16450	0	444
21.529	12.514	32768	16457	0	444
24.630	13.812	32768	16457	0	444
22.358	10.638	32768	16453	0	444
17.851	6.239	32768	16453	0	444
14.930	6.275	32768	16450	0	444
16.769	10.025	32768	16448	0	444
22.503	15.398	32768	16443	0	444
27.768	18.500	32768	16441	0	444
28.056	15.471	32768	16436	0	444
22.647	6.996	32768	16432	0	444
15.471	3.101	32768	16423	0	444
13.091	1.334	32768	16413	0	444
14.930	5.842	32768	16404	0	444
19.041	10.638	32768	16395	0	444
20.916	12.622	32768	16384	0	444
21.637	12.369	32768	16378	0	444
20.736	10.855	32768	16366	0	444
20.050	11.360	32768	16352	0	444
21.709	12.874	32768	16341	0	444
20.844	13.163	32768	16332	0	444
18.320	10.783	32768	16329	0	444
17.418	9.556	32768	16327	0	444
21.349	10.999	32768	16327	0	444
30.040	16.048	32768	16332	0	444
39.560	24.378	32768	16332	0	444
44.176	29.354	32768	16334	0	444
40.822	31.590	32768	16334	0	444
33.754	28.164	16384	16332	0	444
25.027	22.250	16384	16329	0	444
23.873	18.680	16384	16325	0	444
25.424	16.264	16384	16322	0	444
29.715	17.166	1	16322	0	444
30.761	18.933	1	16329	0	444
30.364	19.401	1	16338	0	444
28.633	18.247	1	16348	0	444
25.820	15.903	16384	16357	0	444
26.037	14.713	16384	16368	0	444
25.568	13.884	32768	16380	0	444
25.929	14.208	16384	16386	0	444
24.306	16.228	16384	16388	0	444
24.558	19.365	16384	16393	0	444
25.640	22.322	16384	16402	0	444
27.804	25.604	16384	16409	0	444
32.384	28.489	32768	16418	0	444
38.262	32.492	32768	16423	0	444
44.825	37.721	32768	16425	0	444
50.992	44.681	32768	16425	0	444
55.788	49.477	32768	16425	0	444
54.129	50.667	32768	16427	0	444
47.602	46.989	32768	16427	0	444
38.045	41.796	32768	16420	0	444
33.033	37.360	32768	16407	0	444
32.456	37.360	32768	16395	0	444
39.776	41.796	32768	16386	0	444
49.116	48.143	32768	16380	0	444
53.480	51.100	32768	16373	0	444
52.110	49.369	16384	16368	0	444
47.746	45.005	16384	16368	0	444
43.166	40.606	16384	16368	0	444
41.471	40.426	16384	16371	0	444
44.573	45.330	16384	16373	0	444
46.412	49.477	16384	16375	0	444
47.386	52.651	16384	16375	0	444
47.061	51.316	16384	16378	0	444
45.258	46.700	16384	16380	0	444
44.032	42.697	32768	16384	0	444
40.065	38.045	32768	16386	0	444
36.603	37.793	32768	16388	0	444
33.321	38.478	32768	16386	0	444
33.105	38.226	32768	16384	0	444
32.961	37.901	16384	16384	0	444
34.259	35.233	16384	16382	0	444
35.341	32.348	16384	16382	0	444
36.711	31.230	16384	16382	0	444
37.901	29.823	16384	16380	0	444
38.586	27.299	16384	16371	0	444
35.918	25.388	16384	16359	0	444
31.049	20.700	1	16350	0	444
24.053	16.625	1	16345	0	444
19.618	11.179	1	16343	0	444
15.110	7.645	1	16345	0	444
13.704	3.462	1	16352	0	444
13.415	2.921	1	16355	0	444
14.425	5.337	1	16359	0	444
14.136	6.203	1	16364	0	444
14.930	6.563	1	16368	0	444
17.021	8.511	1	16371	0	444
19.329	8.150	1	16375	0	444
20.339	8.655	1	16378	0	444
17.995	7.104	1	16384	0	444
13.523	3.967	1	16390	0	444
10.602	0.613	16384	16407	0	444
10.927	0.108	16384	16418	0	444
15.290	1.334	16384	16425	0	444
19.221	3.750	16384	16427	0	444
17.887	4.075	32768	16430	0	444
13.812	2.380	32768	16427	0	444
8.727	1.082	32768	16425	0	444
3.101	-1.695	16384	16420	0	444
-2.560	-6.491	16384	16413	0	444
-7.825	-11.756	16384	16407	0	444
-11.792	-15.398	1	16400	0	444
-10.855	-14.497	16384	16395	0	444
-6.780	-8.691	16384	16388	0	444
-0.938	-2.344	16384	16386	0	444
3.282	0.252	16384	16384	0	444
1.767	-3.029	16384	16382	0	444
-3.101	-12.117	16384	16375	0	444
-9.809	-20.627	16384	16368	0	444
-14.821	-24.306	1	16359	0	444
-17.706	-25.027	1	16355	0	444
-15.290	-18.103	1	16355	0	444
-10.855	-12.117	1	16355	0	444
-7.068	-9.412	1	16359	0	444
-6.094	-11.937	1	16366	0	444
-10.566	-19.077	1	16375	0	444
-16.516	-27.155	16384	16380	0	444
-22.358	-32.167	1	16382	0	444
-22.358	-30.689	1	16388	0	444
-15.615	-24.414	16384	16400	0	444
-5.409	-16.084	16384	16411	0	444
1.370	-9.520	16384	16418	0	444
1.515	-10.674	16384	16423	0	444
-4.940	-13.631	16384	16423	0	444
-8.186	-16.372	32768	16420	0	444
-3.750	-13.271	32768	16418	0	444
9.376	-5.229	16384	16413	0	444
21.745	2.596	32768	16413	0	444
25.460	3.787	32768	16411	0	444
23.116	-1.370	32768	16409	0	444
18.680	-5.337	32768	16413	0	444
20.267	-5.157	32768	16420	0	444
25.207	0.361	32768	16430	0	444
30.400	5.373	32768	16434	0	444
30.184	7.789	32768	16434	0	444
30.364	8.655	32768	16432	0	444
32.636	12.477	32768	16430	0	444
37.757	19.978	32768	16425	0	444
42.770	26.794	32768	16418	0	444
42.878	28.345	32768	16409	0	444
38.983	23.296	32768	16395	0	444
33.934	16.733	32768	16384	0	444
32.528	15.038	32768	16368	0	444
37.324	21.313	32768	16352	0	444
44.537	29.715	32768	16336	0	444
51.100	38.334	32768	16322	0	444
51.821	40.606	16384	16313	0	444
46.989	38.154	16384	16311	0	444
40.065	34.006	16384	16318	0	444
35.305	30.653	16384	16329	0	444
35.052	29.138	16384	16341	0	444
36.423	30.040	32768	16352	0	444
37.288	28.164	32768	16361	0	444
33.502	25.171	32768	16368	0	444
29.066	21.673	32768	16368	0	444
23.765	16.372	32768	16371	0	444
18.464	13.307	32768	16375	0	444
14.858	13.487	32768	16382	0	444
13.668	13.163	32768	16384	0	444
15.507	15.543	32768	16388	0	444
21.060	17.274	32768	16388	0	444
28.597	20.411	32768	16384	0	444
34.692	21.168	32768	16378	0	444
35.016	20.123	32768	16368	0	444
31.374	16.805	16384	16359	0	444
26.758	14.497	16384	16348	0	444
24.666	16.516	16384	16343	0	444
24.739	20.916	16384	16345	0	444
27.696	24.125	1	16345	0	444
28.345	22.863	1	16343	0	444
27.371	17.310	1	16345	0	444
25.856	11.648	1	16350	0	444
29.282	12.766	1	16359	0	444
33.574	17.995	1	16368	0	444
37.216	25.099	1	16380	0	444
36.026	27.155	1	16393	0	444
28.814	23.476	16384	16404	0	444
21.204	16.192	16384	16411	0	444
17.598	12.622	16384	16416	0	444
21.132	14.894	16384	16416	0	444
27.047	20.700	16384	16413	0	444
32.636	24.306	16384	16409	0	444
34.151	23.044	16384	16404	0	444
31.735	16.228	16384	16397	0	444
29.138	10.025	16384	16390	0	444
23.909	5.301	1	16384	0	444
18.536	5.662	1	16384	0	444
15.831	7.970	1	16382	0	444
16.372	12.586	1	16378	0	444
21.854	14.858	1	16373	0	444
28.922	17.202	1	16371	0	444
30.364	16.228	1	16371	0	444
28.669	13.559	1	16375	0	444
25.532	12.694	1	16380	0	444
24.883	12.982	1	16382	0	444
27.948	16.012	1	16384	0	444
32.997	18.283	1	16386	0	444
35.377	20.159	1	16390	0	444
35.305	19.654	1	16393	0	444
33.177	17.382	1	16397	0	444
30.833	14.785	1	16397	0	444
30.292	14.317	1	16393	0	444
30.292	14.100	1	16388	0	444
33.574	15.398	1	16384	0	444
35.124	16.625	1	16382	0	444
35.413	17.670	1	16375	0	444
34.367	17.779	1	16366	0	444
33.105	19.978	1	16359	0	444
32.312	19.906	1	16359	0	444
30.761	19.401	1	16359	0	444
27.047	17.598	1	16359	0	444
25.712	14.966	1	16364	0	444
25.171	14.172	1	16373	0	444
29.751	16.877	1	16382	0	444
33.646	20.303	1	16384	0	444
33.682	20.519	1	16388	0	444
26.902	16.480	1	16390	0	444
18.031	11.035	1	16393	0	444
14.605	6.239	1	16397	0	444
17.418	8.691	1	16404	0	444
27.083	11.973	1	16409	0	444
33.213	15.939	1	16411	0	444
33.718	14.389	1	16413	0	444
32.023	12.081	1	16413	0	444
33.249	10.494	1	16411	0	444
38.875	14.353	1	16411	0	444
44.501	17.923	16384	16416	0	444
45.078	16.444	16384	16423	0	444
37.577	9.917	16384	16425	0	444
30.076	0.252	16384	16432	0	444
30.833	-5.842	32768	16441	0	444
35.305	-5.373	32768	16450	0	444
41.435	1.731	32768	16455	0	444
40.317	5.554	32768	16455	0	444
36.603	7.789	32768	16450	0	444
34.583	5.626	32768	16448	0	444
38.226	7.248	32768	16441	0	444
43.130	10.458	32768	16432	0	444
46.376	14.785	32768	16420	0	444
43.671	17.274	32768	16411	0	444
37.396	15.362	32768	16397	0	444
34.187	14.966	32768	16386	0	444
33.538	13.631	32768	16375	0	444
33.357	15.398	32768	16364	0	444
32.023	15.038	32768	16357	0	444
28.345	12.910	32768	16359	0	444
28.201	12.586	32768	16361	0	444
31.879	15.326	32768	16364	0	444
38.695	21.277	32768	16361	0	444
43.238	27.299	32768	16357	0	444
40.426	26.397	32768	16350	0	444
33.033	23.404	32768	16343	0	444
26.830	19.510	32768	16336	0	444
28.597	20.664	32768	16329	0	444
34.656	27.587	32768	16329	0	444
40.101	30.905	32768	16332	0	444
35.882	28.561	32768	16334	0	444
26.470	15.795	32768	16341	0	444
15.975	5.481	32768	16350	0	444
14.172	2.092	32768	16357	0	444
21.637	7.862	32768	16364	0	444
32.239	19.149	32768	16366	0	444
40.642	28.237	32768	16371	0	444
42.373	31.843	32768	16375	0	444
41.399	29.391	32768	16382	0	444
39.993	26.397	32768	16386	0	444
38.118	24.125	32768	16388	0	444
36.351	20.267	32768	16390	0	444
31.951	18.464	32768	16390	0	444
25.279	14.389	32768	16393	0	444
23.801	13.163	32768	16393	0	444
24.811	13.415	32768	16393	0	444
29.174	18.464	32768	16388	0	444
35.954	25.171	32768	16384	0	444
40.317	31.554	32768	16382	0	444
42.481	34.367	32768	16380	0	444
39.055	31.987	32768	16380	0	444
32.853	28.633	32768	16382	0	444
26.902	23.368	32768	16382	0	444
24.053	20.664	32768	16378	0	444
26.470	22.791	32768	16368	0	444
28.525	23.116	32768	16359	0	444
28.705	23.801	1	16355	0	444
27.407	24.198	16384	16350	0	444
26.470	26.974	16384	16345	0	444
30.040	30.328	16384	16348	0	444
32.744	34.367	16384	16355	0	444
33.069	32.925	16384	16361	0	444
29.859	28.345	16384	16366	0	444
27.443	24.702	1	16366	0	444
26.974	24.558	1	16361	0	444
28.705	25.135	1	16355	0	444
28.309	26.109	1	16345	0	444
26.722	21.493	1	16338	0	444
25.352	17.202	1	16336	0	444
26.253	16.264	1	16338	0	444
32.059	19.113	1	16343	0	444
36.387	24.234	1	16352	0	444
40.786	29.210	1	16366	0	444
41.291	30.581	1	16378	0	444
39.235	27.732	1	16386	0	444
34.511	22.034	1	16400	0	444
30.581	13.740	1	16411	0	444
27.407	9.701	1	16425	0	444
26.073	6.924	1	16439	0	444
27.335	8.727	1	16448	0	444
27.335	9.845	1	16455	0	444
28.489	10.638	16384	16455	0	444
31.338	9.809	16384	16453	0	444
34.295	12.586	16384	16443	0	444
38.226	16.480	16384	16432	0	444
40.281	21.385	1	16423	0	444
38.118	23.729	1	16411	0	444
35.197	22.467	1	16402	0	444
32.708	17.959	1	16390	0	444
30.761	13.848	1	16384	0	444
31.518	13.848	1	16375	0	444
31.915	17.526	1	16368	0	444
33.826	24.342	1	16359	0	444
36.928	30.220	1	16355	0	444
39.452	35.413	1	16350	0	444
42.734	36.711	1	16348	0	444
39.632	33.177	1	16345	0	444
31.735	26.109	1	16345	0	444
19.834	15.939	1	16348	0	444
9.520	7.501	1	16350	0	444
5.193	4.940	1	16355	0	444
9.665	9.124	1	16357	0	444
17.562	17.274	1	16364	0	444
24.450	24.811	1	16375	0	444
27.984	26.686	1	16386	0	444
24.739	25.027	1	16397	0	444
21.781	20.303	1	16404	0	444
19.510	16.877	1	16404	0	444
20.916	18.031	1	16400	0	444
24.414	23.224	1	16393	0	444
29.859	29.787	1	16395	0	444
33.357	35.124	1	16397	0	444
36.459	38.045	1	16400	0	444
36.495	37.288	1	16400	0	444
31.987	32.348	1	16402	0	444
24.811	24.198	1	16407	0	444
16.192	15.975	1	16411	0	444
11.179	10.206	1	16409	0	444
12.946	10.206	1	16404	0	444
18.788	15.074	1	16402	0	444
23.585	20.123	1	16404	0	444
23.801	20.916	1	16407	0	444
18.644	15.146	1	16409	0	444
11.540	10.674	1	16407	0	444
9.484	6.563	16384	16409	0	444
11.792	5.590	16384	16409	0	444
15.182	9.052	16384	16407	0	444
18.211	8.871	16384	16402	0	444
17.526	9.448	16384	16397	0	444
14.353	9.520	16384	16395	0	444
10.350	10.458	16384	16395	0	444
8.150	14.317	16384	16395	0	444
6.022	15.146	16384	16395	0	444
6.058	17.959	16384	16395	0	444
9.376	19.834	16384	16390	0	444
13.199	23.080	16384	16384	0	444
18.752	29.066	16384	16382	0	444
21.601	32.708	16384	16378	0	444
19.329	32.203	16384	16378	0	444
15.507	26.470	16384	16373	0	444
7.789	19.005	1	16366	0	444
2.993	11.504	1	16359	0	444
-1.046	7.753	1	16359	0	444
-1.659	7.104	1	16364	0	444
-1.767	6.816	1	16371	0	444
0.144	8.222	1	16371	0	444
3.101	9.845	1	16368	0	444
6.599	9.881	1	16364	0	444
10.963	10.314	1	16357	0	444
12.982	9.376	1	16355	0	444
13.451	6.996	1	16355	0	444
9.665	4.760	1	16357	0	444
5.950	4.003	1	16364	0	444
4.111	4.003	1	16371	0	444
5.950	8.294	1	16378	0	444
13.451	16.012	1	16384	0	444
21.493	21.421	1	16384	0	444
25.820	25.099	1	16386	0	444
26.325	24.955	1	16386	0	444
24.306	23.729	1	16384	0	444
22.250	24.125	1	16382	0	444
22.106	23.008	1	16380	0	444
21.673	22.467	1	16380	0	444
21.421	19.906	1	16380	0	444
22.142	17.670	1	16382	0	444
23.080	19.257	1	16384	0	444
26.037	21.313	1	16388	0	444
24.125	20.844	1	16393	0	444
20.339	17.202	1	16397	0	444
16.228	12.622	1	16395	0	444
16.048	10.494	1	16388	0	444
22.106	14.894	1	16382	0	444
29.138	22.683	1	16373	0	444
33.069	27.155	1	16368	0	444
30.869	26.506	1	16366	0	444
24.739	19.185	1	16368	0	444
20.700	12.153	1	16375	0	444
23.224	12.441	1	16384	0	444
28.273	16.084	1	16388	0	444
33.069	22.863	1	16390	0	444
32.420	22.755	1	16393	0	444
26.794	18.716	1	16388	0	444
23.585	13.740	1	16384	0	444
23.188	11.756	1	16382	0	444
26.830	12.694	1	16378	0	444
28.886	16.733	1	16378	0	444
29.499	19.582	1	16378	0	444
25.532	20.087	1	16382	0	444
23.008	20.591	1	16386	0	444
20.411	16.985	1	16397	0	444
18.320	12.802	1	16409	0	444
19.077	10.783	1	16418	0	444
21.818	12.874	1	16418	0	444
29.030	20.519	1	16416	0	444
34.043	27.010	1	16416	0	444
37.577	29.354	1	16423	0	444
35.701	26.037	16384	16430	0	444
30.797	20.447	16384	16434	0	444
27.119	16.661	16384	16434	0	444
26.938	17.887	32768	16434	0	444
29.354	22.431	32768	16434	0	444
32.961	27.047	32768	16436	0	444
35.341	29.391	32768	16439	0	444
34.908	28.273	32768	16441	0	444
34.656	26.614	32768	16441	0	444
36.783	28.237	32768	16441	0	444
42.661	33.538	32768	16439	0	444
51.424	41.652	32768	16436	0	444
59.142	47.458	32768	16434	0	444
63.541	48.972	32768	16427	0	444
62.712	45.979	32768	16418	0	444
63.577	45.258	32768	16409	0	444
68.698	51.388	32768	16402	0	444
79.517	62.423	32768	16395	0	444
90.227	72.016	32768	16388	0	444
94.446	75.081	32768	16382	0	444
90.371	69.780	32768	16375	0	444
80.022	61.125	32768	16371	0	444
70.826	53.732	32768	16364	0	444
66.066	50.270	32768	16357	0	444
64.154	47.782	32768	16350	0	444
60.260	42.012	32768	16343	0	444
54.886	34.079	32768	16332	0	444
47.349	26.217	32768	16320	0	444
40.209	22.286	32768	16311	0	444
38.442	22.683	32768	16306	0	444
38.406	23.945	32768	16306	0	444
40.137	22.899	32768	16311	0	444
38.406	19.329	32768	16320	0	444
33.970	9.304	32768	16332	0	444
30.220	2.380	32768	16350	0	444
28.633	-1.082	32768	16366	0	444
31.554	-0.865	32768	16375	0	444
33.754	1.551	32768	16380	0	444
33.466	2.596	32768	16378	0	444
29.138	1.046	32768	16375	0	444
22.863	-2.633	32768	16371	0	444
16.949	-5.590	32768	16366	0	444
12.514	-6.527	32768	16361	0	444
9.809	-5.950	32768	16357	0	444
9.376	-2.849	32768	16359	0	444
13.054	0.108	32768	16368	0	444
16.733	3.859	32768	16380	0	444
21.168	6.239	32768	16384	0	444
19.329	6.203	32768	16386	0	444
10.999	1.190	32768	16390	0	444
-1.767	-6.491	32768	16397	0	444
-14.641	-15.687	32768	16400	0	444
-21.204	-20.808	32768	16402	0	444
-17.562	-18.644	32768	16402	0	444
-5.373	-9.953	32768	16402	0	444
8.835	-0.577	32768	16402	0	444
16.877	4.003	32768	16395	0	444
14.749	-0.216	32768	16386	0	444
4.436	-11.648	32768	16382	0	444
-9.376	-23.512	32768	16375	0	444
-17.634	-28.561	32768	16368	0	444
-18.139	-26.037	32768	16361	0	444
-12.081	-17.310	32768	16355	0	444
-5.265	-8.547	32768	16352	0	444
-1.334	-6.924	16384	16352	0	444
-1.479	-9.340	16384	16348	0	444
-4.327	-15.038	16384	16350	0	444
-8.258	-18.969	16384	16359	0	444
-10.638	-20.916	16384	16371	0	444
-14.677	-23.909	32768	16382	0	444
-18.897	-27.804	32768	16390	0	444
-21.060	-30.689	32768	16402	0	444
-19.726	-33.069	32768	16416	0	444
-15.903	-31.590	32768	16427	0	444
-11.864	-30.364	32768	16434	0	444
-10.891	-29.823	32768	16436	0	444
-10.169	-31.626	32768	16434	0	444
-8.114	-30.581	32768	16425	0	444
-2.560	-28.020	32768	16416	0	444
4.327	-24.955	32768	16413	0	444
6.671	-22.142	32768	16413	0	444
2.705	-20.159	32768	16404	0	444
-1.875	-19.798	32768	16390	0	444
-1.515	-14.533	32768	16380	0	444
4.255	-5.626	32768	16373	0	444
13.884	1.046	32768	16366	0	444
20.519	4.977	32768	16359	0	444
23.296	5.409	16384	16355	0	444
24.883	5.914	16384	16350	0	444
28.128	9.665	16384	16345	0	444
33.826	15.146	16384	16338	0	444
37.577	21.096	16384	16338	0	444
37.252	21.385	16384	16345	0	444
33.285	21.637	16384	16357	0	444
28.092	20.808	16384	16364	0	444
23.837	19.077	16384	16371	0	444
21.493	18.897	16384	16375	0	444
20.123	18.139	16384	16378	0	444
15.939	19.077	16384	16382	0	444
7.285	21.421	16384	16388	0	444
-10.169	23.332	16384	16395	0	444
-32.744	23.404	16384	16400	0	444
-60.224	20.627	16384	16400	0	444
-81.969	17.021	32768	16400	0	444
-94.086	15.002	16384	16400	0	444
-89.217	13.595	16384	16395	0	444
-70.321	13.992	16384	16384	0	444
-44.933	14.461	16384	16378	0	444
-23.945	12.730	16384	16373	0	444
-14.569	9.665	16384	16368	0	444
-17.995	3.137	16384	16371	0	444
-24.666	-1.190	16384	16375	0	444
-27.191	-4.652	16384	16382	0	444
-22.431	-4.688	16384	16386	0	444
-17.093	-5.554	16384	16390	0	444
-13.631	-6.888	16384	16393	0	444
-16.156	-11.648	16384	16395	0	444
-19.762	-16.120	16384	16397	0	444
-18.716	-20.700	16384	16397	0	444
-13.920	-21.565	16384	16395	0	444
-7.717	-19.005	16384	16393	0	444
-2.092	-16.516	16384	16390	0	444
-2.849	-15.182	16384	16390	0	444
-5.229	-15.687	16384	16386	0	444
-8.619	-18.644	16384	16384	0	444
-11.071	-21.385	16384	16380	0	444
-9.773	-21.349	16384	16378	0	444
-6.167	-20.375	16384	16373	0	444
-1.659	-17.490	1	16371	0	444
1.767	-13.343	1	16368	0	444
1.695	-10.963	1	16373	0	444
-1.551	-12.189	1	16378	0	444
-5.842	-17.959	16384	16384	0	444
-5.770	-22.070	16384	16395	0	444
-2.092	-23.837	16384	16402	0	444
4.147	-17.851	16384	16404	0	444
8.258	-11.612	16384	16402	0	444
5.698	-9.052	16384	16400	0	444
-1.010	-13.595	16384	16397	0	444
-6.239	-22.719	16384	16390	0	444
-6.816	-29.066	16384	16384	0	444
-3.750	-31.771	16384	16380	0	444
5.049	-28.453	16384	16380	0	444
15.651	-19.726	16384	16384	0	444
27.948	-8.871	16384	16390	0	444
38.658	0.216	16384	16395	0	444
47.025	6.094	16384	16397	0	444
47.638	7.862	32768	16400	0	444
46.268	7.645	32768	16404	0	444
46.592	10.061	32768	16411	0	444
48.756	15.903	32768	16418	0	444
54.922	24.053	32768	16418	0	444
58.997	31.410	32768	16413	0	444
61.161	33.682	32768	16413	0	444
59.322	33.033	32768	16413	0	444
59.755	31.987	32768	16411	0	444
61.846	33.718	32768	16404	0	444
65.344	39.091	32768	16395	0	444
69.347	45.222	32768	16386	0	444
69.564	47.674	32768	16380	0	444
66.462	44.681	32768	16375	0	444
63.289	38.082	32768	16375	0	444
60.368	33.538	32768	16375	0	444
63.433	34.944	32768	16380	0	444
67.400	40.462	32768	16382	0	444
74.071	48.864	32768	16384	0	444
81.140	54.418	32768	16388	0	444
88.208	61.414	32768	16393	0	444
94.086	64.803	32768	16400	0	444
100.974	70.141	32768	16407	0	444
102.777	74.180	32768	16413	0	444
102.056	76.415	32768	16423	0	444
98.017	74.216	32768	16430	0	444
92.607	72.232	32768	16434	0	444
87.919	68.770	32768	16434	0	444
84.746	65.164	32768	16427	0	444
81.248	63.253	32768	16409	0	444
79.120	61.882	32768	16393	0	444
77.065	60.656	32768	16384	0	444
77.425	61.558	32768	16375	0	444
77.389	61.486	32768	16366	0	444
76.343	59.971	32768	16361	0	444
72.088	56.690	32768	16359	0	444
66.931	51.352	32768	16359	0	444
60.512	45.330	32768	16361	0	444
53.805	37.829	32768	16364	0	444
47.602	35.629	32768	16364	0	444
43.419	34.259	32768	16366	0	444
40.209	39.055	32768	16366	0	444
38.658	43.022	32768	16361	0	444
35.701	43.815	32768	16352	0	444
31.049	40.786	32768	16345	0	444
24.270	34.800	32768	16343	0	444
16.625	29.895	32768	16350	0	444
9.160	25.640	32768	16359	0	444
2.308	23.296	32768	16366	0	444
-3.282	18.969	32768	16366	0	444
-4.616	16.192	32768	16366	0	444
-0.397	16.120	32768	16366	0	444
5.373	18.860	32768	16359	0	444
9.484	22.358	32768	16348	0	444
6.239	23.116	32768	16341	0	444
1.587	19.437	32768	16338	0	444
-4.183	13.523	32768	16341	0	444
-6.167	9.556	32768	16345	0	444
-4.147	7.573	32768	16352	0	444
-0.649	7.429	32768	16361	0	444
1.911	9.448	32768	16368	0	444
3.354	9.520	32768	16371	0	444
6.419	11.468	32768	16375	0	444
9.340	13.343	32768	16382	0	444
13.559	14.497	32768	16386	0	444
16.913	16.697	32768	16393	0	444
20.375	19.221	32768	16397	0	444
21.493	20.988	32768	16402	0	444
20.627	24.739	32768	16407	0	444
19.401	26.037	32768	16413	0	444
18.933	23.476	32768	16416	0	444
20.627	21.168	32768	16416	0	444
20.483	15.579	32768	16409	0	444
19.510	11.323	32768	16402	0	444
17.310	7.789	32768	16390	0	444
15.362	9.665	32768	16378	0	444
16.625	12.946	32768	16359	0	444
21.385	17.995	32768	16345	0	444
24.558	21.313	32768	16336	0	444
26.289	20.411	16384	16332	0	444
25.568	19.546	16384	16332	0	444
25.243	16.625	16384	16334	0	444
27.587	16.192	16384	16341	0	444
29.751	15.867	16384	16350	0	444
31.626	15.687	16384	16359	0	444
30.292	17.310	16384	16375	0	444
29.030	19.293	16384	16390	0	444
27.840	20.664	32768	16413	0	444
30.508	22.827	32768	16436	0	444
33.790	21.421	32768	16455	0	444
34.043	18.392	32768	16464	0	444
30.076	16.516	32768	16462	0	444
26.001	14.641	32768	16450	0	444
22.611	14.858	32768	16434	0	444
24.234	17.093	32768	16418	0	444
27.624	17.995	32768	16402	0	444
29.643	18.536	32768	16386	0	444
30.797	16.949	32768	16375	0	444
28.814	16.480	16384	16364	0	444
27.948	16.516	16384	16352	0	444
27.912	17.851	16384	16343	0	444
29.463	18.860	1	16334	0	444
32.816	21.818	1	16327	0	444
35.124	23.945	1	16320	0	444
34.944	25.316	1	16318	0	444
29.174	23.549	1	16318	0	444
19.113	17.382	1	16318	0	444
9.304	9.809	1	16322	0	444
3.354	3.173	1	16334	0	444
5.554	2.380	1	16343	0	444
11.504	5.409	1	16355	0	444
19.870	9.881	1	16361	0	444
25.243	14.317	1	16366	0	444
26.433	16.192	1	16368	0	444
24.198	15.543	1	16368	0	444
19.870	15.687	1	16368	0	444
16.048	15.615	1	16366	0	444
13.127	13.559	1	16371	0	444
11.828	12.225	1	16378	0	444
14.749	11.215	1	16386	0	444
20.447	13.415	1	16395	0	444
27.191	18.356	1	16400	0	444
32.636	25.171	1	16407	0	444
33.069	30.256	1	16407	0	444
29.391	27.624	1	16407	0	444
23.693	22.322	1	16407	0	444
20.195	16.733	1	16407	0	444
22.972	15.687	1	16404	0	444
30.148	21.241	1	16400	0	444
37.541	28.381	1	16393	0	444
41.616	31.699	1	16393	0	444
37.757	28.056	1	16400	0	444
30.112	19.906	1	16413	0	444
23.801	13.884	1	16427	0	444
22.899	13.343	1	16439	0	444
26.650	15.507	1	16448	0	444
28.453	16.589	1	16450	0	444
25.748	11.035	1	16448	0	444
20.700	5.481	16384	16446	0	444
17.815	1.623	16384	16443	0	444
21.926	6.058	16384	16443	0	444
29.751	16.516	16384	16446	0	444
34.079	23.945	32768	16448	0	444
32.456	24.450	32768	16448	0	444
27.515	21.890	32768	16446	0	444
24.378	16.877	32768	16446	0	444
28.958	18.788	32768	16443	0	444
36.928	23.152	32768	16441	0	444
46.195	27.407	32768	16434	0	444
50.198	28.092	32768	16427	0	444
51.136	27.083	32768	16420	0	444
50.270	27.371	32768	16404	0	444
49.008	29.823	32768	16388	0	444
47.674	32.203	32768	16378	0	444
44.753	31.266	32768	16364	0	444
42.301	28.237	32768	16350	0	444
39.344	22.395	16384	16338	0	444
36.098	20.447	16384	16332	0	444
32.889	17.166	16384	16325	0	444
29.354	13.776	16384	16318	0	444
27.083	9.773	1	16311	0	444
25.929	6.167	1	16315	0	444
29.463	5.337	1	16327	0	444
30.797	6.816	16384	16338	0	444
32.384	10.386	16384	16350	0	444
32.456	13.307	16384	16361	0	444
32.276	14.281	16384	16373	0	444
33.141	14.749	32768	16382	0	444
33.754	12.658	32768	16388	0	444
34.692	12.802	32768	16397	0	444
35.737	12.658	32768	16409	0	444
36.964	13.018	32768	16420	0	444
37.180	12.766	32768	16427	0	444
35.990	11.143	32768	16430	0	444
34.475	8.799	32768	16430	0	444
34.187	11.720	32768	16425	0	444
36.495	17.093	32768	16416	0	444
40.065	21.926	32768	16409	0	444
41.183	23.404	32768	16402	0	444
35.990	17.887	32768	16390	0	444
28.922	10.927	32768	16380	0	444
23.008	6.167	32768	16368	0	444
18.860	5.842	32768	16366	0	444
15.723	6.311	32768	16366	0	444
11.071	5.842	32768	16366	0	444
6.455	2.200	32768	16364	0	444
4.508	1.839	32768	16357	0	444
6.455	4.075	32768	16345	0	444
11.287	6.780	32768	16341	0	444
13.631	8.979	32768	16336	0	444
15.290	8.258	32768	16334	0	444
17.382	8.439	32768	16327	0	444
22.827	13.559	32768	16322	0	444
29.679	21.637	1	16320	0	444
35.413	27.119	16384	16320	0	444
38.154	29.643	16384	16327	0	444
37.072	26.866	16384	16336	0	444
34.656	22.034	16384	16345	0	444
31.049	19.510	16384	16355	0	444
28.850	18.897	16384	16361	0	444
30.220	22.034	16384	16368	0	444
34.475	29.679	16384	16368	0	444
40.822	34.764	1	16361	0	444
45.438	37.577	1	16355	0	444
43.671	34.836	1	16350	0	444
39.091	26.037	1	16350	0	444
33.393	19.942	1	16352	0	444
30.508	18.464	1	16350	0	444
33.826	23.981	1	16350	0	444
39.199	31.338	1	16352	0	444
43.815	37.000	1	16361	0	444
44.284	39.019	1	16373	0	444
42.193	35.629	1	16382	0	444
40.245	33.610	1	16386	0	444
40.930	33.826	1	16390	0	444
44.176	35.124	1	16397	0	444
44.428	36.134	1	16404	0	444
42.409	34.908	1	16409	0	444
37.829	30.797	1	16409	0	444
34.583	29.066	1	16411	0	444
35.197	28.850	1	16411	0	444
37.937	29.535	1	16411	0	444
39.560	31.302	1	16411	0	444
40.678	30.400	1	16413	0	444
38.118	29.643	1	16416	0	444
34.403	26.794	1	16420	0	444
30.869	25.424	1	16425	0	444
30.364	24.450	1	16430	0	444
31.699	26.253	16384	16439	0	444
37.829	30.725	16384	16450	0	444
44.320	36.783	16384	16453	0	444
48.936	41.652	16384	16448	0	444
49.441	42.950	16384	16443	0	444
48.287	40.173	32768	16436	0	444
43.527	35.846	32768	16432	0	444
39.849	30.869	32768	16427	0	444
37.252	28.381	32768	16420	0	444
36.351	27.371	16384	16413	0	444
36.639	28.597	16384	16402	0	444
37.288	29.354	16384	16393	0	444
37.144	27.119	16384	16388	0	444
35.774	24.739	16384	16393	0	444
33.934	20.916	16384	16404	0	444
32.384	18.969	32768	16416	0	444
30.184	16.697	32768	16420	0	444
26.470	14.245	32768	16425	0	444
20.303	10.097	32768	16427	0	444
15.579	5.409	32768	16427	0	444
14.713	4.183	32768	16420	0	444
20.627	7.285	32768	16411	0	444
30.436	14.425	32768	16404	0	444
39.776	18.752	32768	16400	0	444
43.960	20.880	32768	16395	0	444
41.039	18.031	32768	16388	0	444
33.790	13.523	32768	16384	0	444
26.938	9.989	32768	16373	0	444
23.476	11.540	32768	16364	0	444
24.089	14.425	32768	16355	0	444
27.010	16.805	32768	16350	0	444
29.715	15.507	32768	16348	0	444
29.751	12.550	32768	16348	0	444
27.840	10.855	32768	16348	0	444
27.732	11.107	32768	16350	0	444
28.020	13.740	32768	16357	0	444
29.535	17.238	32768	16364	0	444
31.374	16.012	32768	16368	0	444
32.276	15.471	32768	16364	0	444
34.403	18.103	32768	16357	0	444
38.118	26.109	32768	16348	0	444
40.498	32.564	32768	16341	0	444
41.507	34.187	32768	16336	0	444
37.613	29.643	16384	16332	0	444
30.148	19.221	16384	16329	0	444
24.883	12.730	16384	16327	0	444
23.945	12.766	16384	16329	0	444
28.381	19.185	16384	16334	0	444
32.528	24.234	1	16341	0	444
33.213	22.539	16384	16348	0	444
28.092	16.805	32768	16359	0	444
19.293	10.530	16384	16371	0	444
11.396	4.832	16384	16375	0	444
8.547	5.229	16384	16375	0	444
10.494	4.940	1	16371	0	444
14.858	4.796	16384	16371	0	444
21.890	5.445	16384	16371	0	444
26.758	7.753	16384	16373	0	444
30.725	12.153	16384	16378	0	444
31.338	13.631	16384	16386	0	444
27.660	10.855	32768	16395	0	444
23.909	4.508	16384	16402	0	444
20.952	1.370	16384	16409	0	444
19.906	0.072	16384	16418	0	444
21.926	2.741	32768	16432	0	444
21.854	2.921	32768	16443	0	444
20.123	1.262	32768	16448	0	444
19.185	0.072	32768	16446	0	444
21.060	3.787	32768	16439	0	444
27.912	10.783	32768	16434	0	444
34.980	19.149	32768	16432	0	444
38.803	21.926	32768	16432	0	444
39.957	20.700	32768	16434	0	444
39.127	21.024	32768	16430	0	444
37.649	21.096	32768	16418	0	444
35.882	24.306	32768	16407	0	444
31.266	21.132	32768	16393	0	444
24.739	16.264	32768	16382	0	444
18.031	6.635	32768	16373	0	444
15.507	1.406	32768	16366	0	444
15.723	-1.334	32768	16361	0	444
17.995	1.839	32768	16355	0	444
19.401	4.760	32768	16352	0	444
20.303	8.871	32768	16355	0	444
21.241	13.740	32768	16361	0	444
20.591	14.821	32768	16364	0	444
20.447	13.054	32768	16361	0	444
17.598	9.520	32768	16359	0	444
14.281	4.760	32768	16359	0	444
12.297	5.986	32768	16361	0	444
14.894	9.124	32768	16366	0	444
20.988	14.713	32768	16368	0	444
27.047	18.139	32768	16368	0	444
31.879	18.283	32768	16366	0	444
33.177	16.805	32768	16359	0	444
32.672	16.625	32768	16350	0	444
31.662	17.598	16384	16345	0	444
32.059	16.769	16384	16348	0	444
31.843	16.733	16384	16355	0	444
32.961	16.805	16384	16364	0	444
36.459	18.103	16384	16373	0	444
39.993	21.890	16384	16378	0	444
42.084	25.460	16384	16378	0	444
37.937	24.017	16384	16375	0	444
31.266	20.700	16384	16371	0	444
22.286	14.821	16384	16364	0	444
16.913	10.061	1	16357	0	444
18.067	11.612	1	16355	0	444
22.755	15.290	1	16359	0	444
28.345	19.113	1	16371	0	444
30.653	21.673	1	16384	0	444
30.833	22.070	16384	16390	0	444
29.210	20.231	16384	16400	0	444
27.912	19.798	16384	16407	0	444
28.994	19.618	16384	16411	0	444
29.931	19.510	16384	16409	0	444
29.282	17.238	16384	16407	0	444
27.732	14.425	16384	16407	0	444
26.650	13.487	16384	16409	0	444
26.145	15.795	16384	16409	0	444
28.814	20.700	16384	16413	0	444
29.210	24.558	32768	16420	0	444
28.453	26.794	32768	16427	0	444
25.352	21.818	32768	16432	0	444
20.447	12.982	32768	16434	0	444
18.103	8.042	32768	16434	0	444
19.906	6.527	32768	16427	0	444
24.847	11.179	32768	16423	0	444
30.436	19.618	32768	16418	0	444
33.574	24.450	32768	16418	0	444
31.843	25.171	32768	16413	0	444
29.679	23.296	32768	16402	0	444
28.201	21.168	32768	16386	0	444
30.004	22.791	32768	16378	0	444
34.043	25.712	16384	16368	0	444
35.377	28.128	16384	16361	0	444
34.187	28.201	16384	16361	0	444
32.744	27.984	16384	16361	0	444
32.889	28.777	16384	16359	0	444
33.790	29.282	16384	16357	0	444
33.826	28.417	16384	16357	0	444
29.066	25.352	16384	16361	0	444
20.844	18.139	16384	16371	0	444
14.208	14.713	16384	16378	0	444
12.766	16.552	32768	16382	0	444
17.634	22.683	32768	16384	0	444
23.657	28.850	32768	16388	0	444
27.371	31.771	32768	16395	0	444
26.794	31.518	32768	16400	0	444
22.719	28.886	32768	16397	0	444
18.572	28.381	32768	16393	0	444
16.516	29.246	32768	16388	0	444
14.461	29.210	32768	16386	0	444
15.903	28.669	32768	16384	0	444
19.690	29.607	32768	16384	0	444
24.450	34.151	32768	16384	0	444
29.679	38.803	32768	16386	0	444
31.951	42.193	32768	16386	0	444
29.895	40.750	32768	16384	0	444
27.840	36.964	32768	16382	0	444
27.587	31.374	32768	16375	0	444
28.850	28.994	32768	16368	0	444
31.085	27.551	32768	16361	0	444
32.348	24.414	32768	16355	0	444
27.948	20.591	16384	16348	0	444
24.594	19.293	16384	16336	0	444
21.709	19.293	1	16325	0	444
21.457	23.549	1	16313	0	444
26.325	28.994	1	16306	0	444
30.400	33.934	1	16299	0	444
32.528	35.593	1	16292	0	444
29.931	34.187	1	16297	0	444
23.657	30.689	1	16304	0	444
20.880	26.253	1	16311	0	444
21.962	24.630	1	16315	0	444
28.633	25.604	1	16325	0	444
36.387	28.705	1	16332	0	444
40.281	31.049	1	16336	0	444
38.947	31.482	1	16341	0	444
36.242	30.328	1	16348	0	444
32.167	28.525	1	16359	0	444
28.128	24.919	1	16371	0	444
26.145	20.411	1	16378	0	444
22.106	15.651	1	16384	0	444
20.988	13.740	1	16388	0	444
20.267	13.415	1	16400	0	444
19.582	15.254	1	16413	0	444
18.716	15.182	1	16425	0	444
14.930	12.586	1	16430	0	444
11.540	9.124	1	16430	0	444
10.169	8.799	1	16427	0	444
12.333	12.045	1	16425	0	444
16.228	16.661	1	16425	0	444
21.637	19.942	1	16430	0	444
27.299	20.808	1	16434	0	444
31.807	19.978	1	16441	0	444
33.285	19.726	1	16448	0	444
30.869	18.788	1	16457	0	444
26.578	18.572	1	16464	0	444
20.772	17.382	1	16466	0	444
19.582	16.444	1	16464	0	444
21.060	17.166	1	16462	0	444
23.476	18.788	1	16457	0	444
22.142	17.454	1	16453	0	444
20.555	14.028	1	16446	0	444
17.454	7.681	1	16436	0	444
16.913	4.003	1	16425	0	444
19.546	4.796	1	16416	0	444
22.395	8.186	1	16409	0	444
24.991	13.631	1	16404	0	444
27.479	15.867	16384	16404	0	444
28.092	16.084	16384	16404	0	444
28.850	14.930	16384	16402	0	444
26.506	12.297	16384	16393	0	444
25.063	10.710	16384	16386	0	444
22.250	7.717	16384	16384	0	444
18.788	4.868	16384	16380	0	444
17.346	4.904	16384	16373	0	444
15.867	7.248	16384	16371	0	444
15.290	10.133	16384	16368	0	444
18.247	14.461	16384	16366	0	444
22.935	17.887	16384	16368	0	444
31.122	22.611	16384	16375	0	444
36.675	27.010	16384	16386	0	444
41.435	28.705	32768	16400	0	444
40.209	28.814	32768	16413	0	444
35.954	25.748	32768	16425	0	444
29.463	20.627	32768	16430	0	444
23.044	16.372	32768	16439	0	444
18.716	13.163	32768	16450	0	444
17.238	11.648	32768	16455	0	444
19.618	11.323	32768	16453	0	444
23.044	13.776	32768	16446	0	444
26.397	14.605	32768	16441	0	444
26.145	13.992	32768	16432	0	444
25.820	13.956	32768	16418	0	444
24.847	12.730	32768	16407	0	444
24.955	14.172	32768	16395	0	444
27.660	15.579	32768	16386	0	444
28.633	16.589	32768	16380	0	444
31.122	18.500	32768	16373	0	444
34.295	19.690	32768	16361	0	444
37.396	21.313	32768	16345	0	444
39.235	19.654	32768	16329	0	444
38.190	16.697	32768	16318	0	444
35.016	12.910	32768	16311	0	444
32.203	10.386	32768	16308	0	444
27.984	9.520	32768	16299	0	444
24.630	9.376	32768	16290	0	444
19.870	6.203	32768	16285	0	444
15.290	2.452	32768	16285	0	444
13.091	-0.793	32768	16285	0	444
14.641	-1.803	16384	16283	0	444
16.192	-0.577	1	16285	0	444
16.733	0.216	16384	16290	0	444
13.884	-0.469	16384	16302	0	444
10.999	-3.462	16384	16311	0	444
10.350	-4.544	16384	16318	0	444
13.163	-2.128	1	16318	0	444
18.031	0.974	1	16315	0	444
22.106	4.327	1	16318	0	444
23.224	4.832	1	16325	0	444
24.775	4.940	1	16334	0	444
23.909	3.931	1	16343	0	444
24.306	4.760	1	16352	0	444
23.549	7.032	1	16361	0	444
22.791	8.943	1	16373	0	444
22.755	9.268	1	16388	0	444
25.135	9.917	1	16409	0	444
28.056	8.799	1	16427	0	444
29.931	5.445	1	16439	0	444
31.915	2.777	16384	16443	0	444
32.023	2.560	16384	16448	0	444
32.059	4.724	16384	16453	0	444
29.607	7.321	16384	16457	0	444
26.325	8.006	16384	16457	0	444
21.204	7.825	16384	16448	0	444
18.897	6.239	16384	16436	0	444
18.860	5.193	16384	16430	0	444
19.978	4.904	16384	16425	0	444
20.195	5.265	16384	16423	0	444
17.562	4.977	16384	16416	0	444
14.930	8.907	16384	16411	0	444
13.668	13.884	16384	16407	0	444
15.903	18.608	16384	16404	0	444
18.716	18.824	16384	16397	0	444
20.700	16.661	16384	16390	0	444
20.808	12.441	16384	16384	0	444
22.827	12.297	16384	16378	0	444
24.017	15.615	1	16371	0	444
26.506	17.743	1	16364	0	444
29.282	20.483	1	16350	0	444
29.571	19.582	1	16338	0	444
29.535	18.067	1	16327	0	444
30.725	17.670	1	16322	0	444
32.708	18.680	1	16320	0	444
31.951	17.995	1	16320	0	444
27.299	14.533	1	16322	0	444
22.106	9.737	1	16327	0	444
17.815	5.229	1	16329	0	444
18.680	5.337	1	16332	0	444
23.981	11.684	1	16338	0	444
31.807	17.995	1	16343	0	444
35.665	24.594	1	16345	0	444
36.675	27.227	1	16348	0	444
35.954	25.532	1	16355	0	444
34.656	23.188	1	16361	0	444
33.646	20.988	1	16371	0	444
33.141	20.591	1	16384	0	444
34.836	25.352	1	16402	0	444
38.442	32.312	1	16423	0	444
42.553	39.380	1	16430	0	444
45.582	40.714	1	16432	0	444
45.907	37.541	1	16439	0	444
42.842	30.653	1	16446	0	444
39.560	23.837	1	16450	0	444
39.127	23.621	1	16453	0	444
38.442	22.899	1	16453	0	444
38.334	25.063	1	16450	0	444
38.406	29.066	1	16446	0	444
37.901	31.374	1	16443	0	444
41.652	35.882	1	16441	0	444
45.366	38.767	1	16439	0	444
51.100	39.163	1	16439	0	444
54.526	38.695	1	16439	0	444
53.047	33.033	16384	16439	0	444
46.448	28.489	16384	16441	0	444
33.466	20.772	32768	16450	0	444
19.041	11.684	32768	16457	0	444
9.232	5.806	32768	16462	0	444
7.104	3.101	32768	16460	0	444
13.199	4.075	32768	16455	0	444
21.168	9.376	32768	16450	0	444
27.047	13.704	32768	16446	0	444
28.958	15.507	32768	16436	0	444
30.148	15.975	32768	16420	0	444
30.617	15.651	32768	16407	0	444
31.302	15.254	32768	16395	0	444
29.715	16.444	32768	16386	0	444
26.830	19.690	32768	16384	0	444
22.935	21.745	32768	16384	0	444
22.395	23.440	32768	16382	0	444
23.080	22.647	32768	16380	0	444
25.460	21.024	32768	16380	0	444
27.479	20.952	32768	16382	0	444
25.856	24.306	32768	16382	0	444
24.558	28.705	32768	16378	0	444
21.241	33.429	32768	16368	0	444
20.555	33.970	32768	16357	0	444
22.755	34.583	32768	16350	0	444
29.499	35.954	32768	16341	0	444
37.252	41.255	32768	16327	0	444
42.914	45.727	32768	16313	0	444
44.609	49.080	32768	16304	0	444
42.770	48.107	16384	16297	0	444
39.055	43.310	32768	16299	0	444
36.747	40.029	32768	16306	0	444
35.882	36.891	32768	16315	0	444
33.646	33.754	32768	16322	0	444
30.977	30.220	32768	16327	0	444
28.056	30.004	32768	16332	0	444
28.273	28.777	32768	16334	0	444
29.679	33.177	16384	16336	0	444
31.122	37.541	16384	16338	0	444
31.807	38.586	16384	16343	0	444
27.443	35.737	16384	16352	0	444
23.476	31.122	16384	16364	0	444
20.591	27.551	32768	16375	0	444
20.303	26.181	16384	16384	0	444
26.578	30.112	16384	16388	0	444
33.033	34.439	16384	16395	0	444
39.055	36.711	16384	16400	0	444
39.776	35.846	16384	16404	0	444
35.774	30.977	16384	16407	0	444
30.256	25.171	16384	16411	0	444
27.407	25.352	32768	16413	0	444
29.643	28.164	32768	16413	0	444
30.689	32.492	32768	16411	0	444
29.391	31.410	32768	16409	0	444
23.476	26.253	32768	16407	0	444
17.490	18.067	32768	16409	0	444
13.956	14.930	32768	16411	0	444
15.002	16.480	32768	16411	0	444
17.057	18.788	32768	16416	0	444
16.552	18.031	32768	16420	0	444
13.307	15.579	32768	16430	0	444
10.602	14.389	32768	16441	0	444
11.143	16.769	32768	16455	0	444
13.884	22.467	32768	16471	0	444
16.625	25.965	32768	16480	0	444
17.382	25.171	32768	16480	0	444
15.975	25.135	32768	16473	0	444
13.848	23.008	32768	16464	0	444
12.802	22.972	32768	16453	0	444
13.379	23.188	32768	16436	0	444
13.595	20.844	32768	16418	0	444
17.526	19.149	32768	16400	0	444
22.142	16.769	32768	16384	0	444
26.758	17.959	32768	16373	0	444
28.633	17.670	32768	16357	0	444
29.499	17.851	32768	16348	0	444
29.030	20.952	32768	16343	0	444
32.131	23.188	32768	16343	0	444
35.377	27.335	32768	16341	0	444
34.872	25.965	32768	16334	0	444
29.066	21.385	32768	16322	0	444
21.132	12.153	32768	16311	0	444
17.490	6.311	32768	16302	0	444
21.601	6.527	32768	16302	0	444
31.843	12.333	32768	16302	0	444
40.534	22.106	32768	16304	0	444
43.094	26.109	32768	16308	0	444
39.632	26.866	32768	16311	0	444
33.826	22.214	32768	16313	0	444
28.201	17.166	32768	16313	0	444
23.476	9.556	32768	16318	0	444
18.680	4.832	16384	16322	0	444
15.615	2.741	16384	16325	0	444
16.264	3.823	16384	16327	0	444
20.159	8.547	16384	16327	0	444
23.729	12.838	1	16320	0	444
22.358	12.297	1	16311	0	444
18.608	9.448	1	16304	0	444
14.425	6.708	1	16299	0	444
15.182	5.481	1	16297	0	444
19.005	6.924	1	16297	0	444
22.142	7.970	1	16302	0	444
23.657	7.032	1	16308	0	444
24.270	8.150	1	16313	0	444
28.345	13.487	1	16315	0	444
34.656	18.500	1	16318	0	444
39.344	23.765	1	16327	0	444
37.721	24.486	1	16336	0	444
32.203	20.375	1	16343	0	444
25.820	13.487	1	16350	0	444
21.060	8.943	1	16357	0	444
20.087	7.248	1	16364	0	444
19.113	8.294	1	16378	0	444
17.454	9.520	1	16390	0	444
15.615	9.953	1	16402	0	444
17.129	8.222	1	16413	0	444
18.788	6.816	1	16427	0	444
20.808	6.888	1	16439	0	444
21.745	10.783	1	16448	0	444
19.870	13.704	1	16455	0	444
19.113	16.444	1	16453	0	444
18.897	17.923	1	16448	0	444
20.375	17.923	1	16443	0	444
22.034	17.851	1	16443	0	444
23.440	17.887	1	16446	0	444
23.332	17.923	1	16453	0	444
21.421	16.913	1	16455	0	444
18.608	16.913	1	16455	0	444
17.454	17.562	1	16455	0	444
18.247	19.437	1	16457	0	444
20.483	20.952	1	16462	0	444
24.883	22.178	1	16466	0	444
26.361	25.568	1	16476	0	444
28.705	26.506	1	16483	0	444
28.597	29.030	1	16489	0	444
27.984	27.624	1	16489	0	444
25.712	25.027	1	16487	0	444
24.198	21.529	16384	16485	0	444
22.719	20.159	16384	16480	0	444
22.214	23.008	16384	16476	0	444
23.332	26.433	32768	16473	0	444
22.286	27.515	32768	16466	0	444
21.998	28.201	32768	16466	0	444
23.116	28.345	32768	16464	0	444
26.145	28.237	32768	16462	0	444
31.699	29.607	32768	16453	0	444
37.937	33.682	32768	16446	0	444
41.976	34.151	32768	16434	0	444
44.573	34.764	32768	16425	0	444
43.310	34.079	32768	16416	0	444
42.012	31.699	32768	16409	0	444
40.822	29.174	32768	16404	0	444
38.731	27.371	32768	16397	0	444
38.154	23.765	32768	16386	0	444
35.305	22.178	32768	16380	0	444
32.239	19.221	32768	16371	0	444
30.761	18.788	32768	16361	0	444
29.354	19.798	32768	16352	0	444
32.348	22.106	32768	16345	0	444
36.206	22.899	32768	16343	0	444
38.983	23.801	32768	16343	0	444
39.416	22.791	32768	16345	0	444
36.675	21.637	32768	16345	0	444
33.429	22.791	32768	16345	0	444
32.636	25.929	32768	16348	0	444
34.259	28.958	32768	16350	0	444
35.413	30.364	32768	16345	0	444
34.547	27.515	32768	16338	0	444
31.807	22.683	32768	16332	0	444
30.256	19.582	32768	16334	0	444
32.456	23.152	32768	16341	0	444
35.990	27.155	32768	16348	0	444
38.082	31.771	32768	16352	0	444
38.226	29.318	32768	16350	0	444
35.269	26.145	32768	16348	0	444
33.610	21.709	32768	16345	0	444
33.610	23.657	32768	16341	0	444
33.790	25.316	32768	16336	0	444
33.393	25.171	32768	16334	0	444
30.436	22.791	32768	16332	0	444
27.804	18.356	32768	16332	0	444
26.289	16.372	32768	16329	0	444
27.479	17.418	32768	16329	0	444
31.951	21.781	32768	16334	0	444
37.505	25.460	32768	16341	0	444
41.760	30.256	32768	16352	0	444
42.878	32.636	32768	16364	0	444
41.543	29.931	32768	16371	0	444
36.387	26.506	32768	16375	0	444
31.410	21.457	32768	16380	0	444
28.994	19.654	32768	16384	0	444
28.922	22.539	32768	16393	0	444
32.023	27.732	32768	16400	0	444
37.973	32.672	32768	16402	0	444
40.714	33.574	32768	16402	0	444
40.173	31.699	32768	16402	0	444
36.531	24.811	32768	16402	0	444
30.508	22.142	32768	16402	0	444
26.470	20.339	32768	16400	0	444
28.489	23.476	32768	16400	0	444
32.239	27.299	32768	16400	0	444
36.819	28.273	32768	16400	0	444
37.324	25.748	32768	16400	0	444
34.764	22.070	32768	16404	0	444
28.994	19.257	32768	16411	0	444
23.873	17.851	32768	16411	0	444
21.421	19.834	32768	16407	0	444
20.014	20.303	32768	16400	0	444
22.683	23.332	32768	16393	0	444
24.630	25.424	32768	16388	0	444
26.253	26.289	32768	16384	0	444
27.443	27.371	32768	16380	0	444
25.352	24.847	32768	16380	0	444
24.991	24.089	32768	16384	0	444
24.883	23.801	32768	16384	0	444
27.010	25.207	32768	16382	0	444
27.119	25.929	32768	16382	0	444
27.299	25.135	32768	16382	0	444
26.253	24.162	32768	16380	0	444
28.886	24.558	32768	16373	0	444
32.816	28.922	32768	16366	0	444
37.432	31.590	32768	16359	0	444
36.964	31.338	32768	16350	0	444
33.970	26.794	32768	16343	0	444
29.246	21.962	32768	16343	0	444
29.535	19.870	32768	16345	0	444
33.177	23.585	16384	16345	0	444
34.620	25.676	16384	16341	0	444
32.925	23.404	16384	16336	0	444
28.092	18.680	16384	16338	0	444
27.010	14.677	16384	16343	0	444
29.030	15.615	1	16348	0	444
35.665	21.241	1	16355	0	444
39.488	27.624	1	16364	0	444
40.426	29.354	16384	16378	0	444
37.216	26.974	16384	16390	0	444
35.485	20.880	32768	16409	0	444
34.259	18.500	32768	16427	0	444
34.006	18.139	32768	16441	0	444
32.961	20.195	32768	16448	0	444
31.662	23.512	32768	16450	0	444
27.083	22.755	32768	16446	0	444
23.585	21.962	32768	16439	0	444
22.827	19.906	32768	16427	0	444
24.955	21.781	32768	16413	0	444
30.797	26.578	32768	16402	0	444
35.341	31.158	32768	16395	0	444
34.980	34.295	32768	16393	0	444
31.482	34.692	32768	16393	0	444
27.191	32.023	32768	16390	0	444
28.381	32.131	32768	16388	0	444
34.079	33.321	32768	16384	0	444
40.173	34.223	32768	16382	0	444
42.878	32.672	32768	16382	0	444
39.849	29.823	32768	16382	0	444
35.954	25.316	32768	16380	0	444
33.357	27.047	32768	16380	0	444
35.413	31.013	32768	16382	0	444
38.298	35.341	32768	16384	0	444
40.462	37.216	32768	16382	0	444
39.524	36.242	32768	16384	0	444
37.505	33.826	32768	16384	0	444
33.249	32.492	32768	16386	0	444
29.787	30.292	32768	16388	0	444
26.866	30.797	32768	16390	0	444
25.712	31.735	32768	16390	0	444
28.128	32.708	32768	16388	0	444
30.400	35.593	32768	16386	0	444
33.718	37.937	32768	16384	0	444
35.629	38.334	32768	16384	0	444
36.711	40.101	32768	16384	0	444
38.731	40.317	32768	16382	0	444
39.957	39.632	32768	16380	0	444
43.455	39.055	32768	16375	0	444
44.068	39.921	32768	16375	0	444
44.609	39.704	32768	16378	0	444
42.806	40.678	32768	16380	0	444
41.003	38.550	32768	16380	0	444
38.262	34.980	32768	16380	0	444
36.531	29.535	32768	16382	0	444
34.079	25.135	32768	16382	0	444
31.915	24.017	32768	16382	0	444
30.653	24.017	32768	16382	0	444
32.492	27.660	32768	16380	0	444
35.701	33.502	32768	16380	0	444
41.832	40.281	32768	16382	0	444
44.104	44.573	32768	16384	0	444
42.445	44.428	32768	16386	0	444
38.550	41.183	32768	16390	0	444
34.223	33.934	32768	16390	0	444
34.259	28.201	32768	16390	0	444
38.514	30.112	32768	16388	0	444
43.455	35.810	32768	16388	0	444
44.681	40.389	32768	16393	0	444
39.560	40.786	32768	16395	0	444
32.384	34.980	32768	16393	0	444
27.840	27.696	32768	16390	0	444
26.181	24.955	32768	16386	0	444
27.912	25.424	32768	16384	0	444
29.282	31.446	32768	16380	0	444
27.696	32.239	32768	16373	0	444
27.624	32.528	32768	16368	0	444
27.119	31.446	32768	16366	0	444
28.633	28.741	32768	16368	0	444
30.076	26.145	32768	16371	0	444
29.066	24.125	32768	16373	0	444
29.030	22.899	16384	16371	0	444
29.643	25.135	16384	16368	0	444
29.138	26.938	16384	16366	0	444
27.840	30.436	16384	16364	0	444
23.476	30.256	16384	16361	0	444
18.500	28.345	16384	16357	0	444
14.533	27.443	1	16352	0	444
12.946	26.253	1	16350	0	444
15.218	28.741	1	16350	0	444
17.346	29.607	1	16352	0	444
18.247	31.374	1	16355	0	444
19.293	29.895	1	16352	0	444
20.591	29.138	1	16348	0	444
21.204	29.571	1	16343	0	444
26.145	32.420	1	16345	0	444
29.643	37.000	1	16350	0	444
32.600	39.993	1	16348	0	444
33.754	39.921	1	16345	0	444
32.203	35.954	1	16348	0	444
26.542	30.148	1	16355	0	444
20.844	24.486	1	16364	0	444
14.497	19.654	1	16368	0	444
10.458	18.175	1	16371	0	444
9.881	18.572	1	16373	0	444
14.064	22.899	1	16373	0	444
18.860	28.453	1	16373	0	444
24.811	34.764	1	16378	0	444
27.912	37.901	1	16382	0	444
29.282	35.629	1	16386	0	444
29.571	32.095	1	16397	0	444
29.030	25.279	1	16409	0	444
31.230	22.683	1	16418	0	444
34.511	22.899	1	16423	0	444
37.360	25.640	1	16430	0	444
39.091	30.436	1	16439	0	444
38.658	33.970	1	16453	0	444
36.026	33.646	16384	16469	0	444
33.321	32.780	16384	16478	0	444
33.610	29.571	32768	16485	0	444
36.351	27.119	32768	16489	0	444
39.524	26.325	32768	16487	0	444
40.750	26.109	32768	16480	0	444
37.288	22.863	32768	16466	0	444
31.626	21.132	16384	16448	0	444
25.568	16.012	16384	16427	0	444
21.024	13.668	16384	16409	0	444
19.365	13.812	16384	16395	0	444
20.123	14.858	16384	16386	0	444
21.673	21.060	16384	16378	0	444
26.433	25.171	1	16371	0	444
29.787	27.840	1	16359	0	444
29.571	25.243	1	16350	0	444
26.037	16.697	16384	16343	0	444
21.241	10.566	1	16336	0	444
20.483	8.835	1	16329	0	444
25.460	14.245	1	16322	0	444
32.853	24.775	1	16318	0	444
36.531	30.581	1	16315	0	444
32.239	29.463	1	16318	0	444
24.414	23.657	1	16329	0	444
18.320	17.346	1	16345	0	444
19.437	16.625	1	16357	0	444
25.460	18.933	1	16364	0	444
29.859	19.690	1	16361	0	444
27.587	17.454	1	16359	0	444
23.657	13.018	1	16357	0	444
20.952	13.704	1	16361	0	444
24.234	17.454	1	16366	0	444
32.023	24.919	1	16373	0	444
37.901	28.994	1	16380	0	444
39.524	30.761	1	16384	0	444
38.334	26.866	1	16386	0	444
36.603	24.630	1	16395	0	444
34.475	19.113	1	16402	0	444
32.348	13.379	1	16407	0	444
29.968	10.783	1	16409	0	444
30.797	13.054	1	16409	0	444
33.754	19.510	1	16404	0	444
39.488	27.804	1	16397	0	444
45.402	32.420	1	16395	0	444
45.474	31.266	1	16400	0	444
43.924	27.083	1	16411	0	444
39.452	22.863	1	16423	0	444
34.547	18.788	1	16434	0	444
29.823	16.913	32768	16446	0	444
26.938	13.920	16384	16460	0	444
25.748	15.146	32768	16466	0	444
28.056	18.500	32768	16469	0	444
32.239	22.935	32768	16469	0	444
35.160	25.243	32768	16469	0	444
33.970	21.998	32768	16469	0	444
32.023	16.985	32768	16466	0	444
29.715	12.153	32768	16462	0	444
27.479	10.025	32768	16457	0	444
25.316	9.088	32768	16450	0	444
22.214	9.773	32768	16441	0	444
18.716	7.429	32768	16427	0	444
18.175	8.799	32768	16409	0	444
22.431	10.350	32768	16388	0	444
26.325	13.848	32768	16368	0	444
28.958	17.202	32768	16348	0	444
26.397	16.805	32768	16334	0	444
19.726	14.100	32768	16325	0	444
14.605	8.150	32768	16318	0	444
13.668	5.986	32768	16308	0	444
18.392	6.383	32768	16302	0	444
25.352	10.674	32768	16299	0	444
29.715	13.559	16384	16304	0	444
30.076	15.290	16384	16311	0	444
27.984	14.172	16384	16320	0	444
26.938	16.625	16384	16332	0	444
29.715	20.195	32768	16343	0	444
33.934	21.637	32768	16359	0	444
36.062	21.421	32768	16378	0	444
36.170	17.490	32768	16393	0	444
31.771	12.514	32768	16411	0	444
23.476	7.898	32768	16425	0	444
17.779	5.590	32768	16439	0	444
13.091	3.859	32768	16450	0	444
15.759	7.681	32768	16457	0	444
21.854	11.684	32768	16457	0	444
27.047	15.579	32768	16453	0	444
29.931	14.605	32768	16443	0	444
28.345	11.468	32768	16439	0	444
24.270	6.527	32768	16434	0	444
24.306	7.573	32768	16425	0	444
26.073	11.900	32768	16411	0	444
31.302	19.473	32768	16393	0	444
34.547	23.873	32768	16378	0	444
35.052	25.171	32768	16357	0	444
31.987	23.729	32768	16341	0	444
29.066	20.267	32768	16327	0	444
29.968	20.555	32768	16320	0	444
32.312	23.368	32768	16313	0	444
35.846	27.624	32768	16308	0	444
35.413	26.830	32768	16304	0	444
31.049	24.053	32768	16306	0	444
26.397	19.257	32768	16308	0	444
21.493	15.543	32768	16313	0	444
21.241	14.821	32768	16318	0	444
22.142	17.454	32768	16329	0	444
24.702	20.952	32768	16341	0	444
26.650	23.008	32768	16350	0	444
25.460	21.168	32768	16355	0	444
21.745	17.490	32768	16361	0	444
19.582	11.973	32768	16371	0	444
18.536	6.960	32768	16378	0	444
19.942	4.796	32768	16382	0	444
22.250	6.816	32768	16380	0	444
23.368	8.366	32768	16380	0	444
25.640	12.802	32768	16382	0	444
28.633	17.526	32768	16382	0	444
33.321	24.162	32768	16378	0	444
38.695	28.309	32768	16373	0	444
38.514	29.715	32768	16371	0	444
33.466	24.558	32768	16371	0	444
23.945	18.283	32768	16373	0	444
12.730	7.104	32768	16375	0	444
4.977	1.118	32768	16380	0	444
1.803	-1.551	32768	16382	0	444
5.121	1.911	32768	16382	0	444
10.278	6.671	32768	16384	0	444
15.398	10.819	32768	16388	0	444
19.293	15.543	32768	16393	0	444
22.539	18.860	32768	16393	0	444
24.198	22.214	32768	16388	0	444
25.856	24.486	16384	16386	0	444
23.368	23.873	16384	16388	0	444
19.437	17.021	16384	16388	0	444
14.749	9.520	16384	16386	0	444
11.432	3.931	16384	16384	0	444
15.038	4.039	16384	16382	0	444
21.132	10.206	16384	16378	0	444
27.479	18.320	16384	16378	0	444
30.797	27.479	16384	16375	0	444
31.446	31.338	1	16371	0	444
27.624	30.472	1	16364	0	444
25.099	28.741	1	16357	0	444
21.421	23.873	1	16359	0	444
18.320	22.106	1	16361	0	444
16.985	21.096	1	16364	0	444
19.437	23.657	1	16361	0	444
27.479	28.669	1	16355	0	444
36.495	34.728	1	16348	0	444
41.471	38.695	1	16348	0	444
40.930	38.082	1	16352	0	444
32.203	35.413	1	16355	0	444
22.647	27.010	1	16357	0	444
15.831	22.467	1	16361	0	444
17.851	23.729	1	16371	0	444
26.253	31.410	1	16384	0	444
36.531	43.599	1	16400	0	444
42.806	51.821	1	16411	0	444
39.993	50.198	1	16420	0	444
30.905	43.274	1	16425	0	444
22.322	33.321	1	16430	0	444
18.464	27.479	1	16439	0	444
18.969	25.099	1	16450	0	444
21.349	22.575	16384	16460	0	444
22.611	21.854	16384	16466	0	444
26.722	22.863	16384	16471	0	444
30.004	31.879	32768	16473	0	444
36.964	42.337	32768	16464	0	444
40.750	49.585	32768	16455	0	444
42.409	49.585	32768	16446	0	444
40.245	43.707	32768	16432	0	444
38.045	34.692	32768	16416	0	444
35.665	30.256	32768	16402	0	444
36.639	32.456	32768	16400	0	444
38.658	37.396	32768	16395	0	444
40.894	41.796	32768	16390	0	444
39.199	42.084	16384	16384	0	444
34.006	36.314	16384	16382	0	444
27.335	28.273	32768	16382	0	444
23.296	23.729	32768	16380	0	444
24.270	22.214	16384	16378	0	444
25.676	22.467	32768	16373	0	444
24.342	19.437	32768	16375	0	444
20.123	14.064	32768	16375	0	444
18.428	11.576	16384	16368	0	444
22.395	13.415	16384	16361	0	444
32.167	23.765	16384	16361	0	444
41.399	32.925	16384	16366	0	444
45.258	37.324	16384	16368	0	444
41.003	34.187	16384	16371	0	444
34.331	25.712	32768	16373	0	444
27.804	17.021	32768	16378	0	444
23.512	10.999	32768	16375	0	444
20.808	8.655	16384	16371	0	444
21.818	10.819	16384	16366	0	444
24.053	15.326	16384	16364	0	444
31.013	22.575	16384	16364	0	444
37.829	28.309	16384	16361	0	444
40.534	28.345	16384	16357	0	444
39.957	24.630	16384	16352	0	444
33.213	16.336	1	16350	0	444
27.624	10.386	1	16350	0	444
23.873	10.494	1	16352	0	444
23.260	14.966	1	16355	0	444
27.768	20.844	1	16355	0	444
32.059	26.758	1	16352	0	444
36.314	25.207	1	16348	0	444
38.406	20.231	1	16343	0	444
38.442	16.480	1	16341	0	444
36.459	12.838	1	16336	0	444
33.466	14.245	1	16336	0	444
29.066	14.389	1	16338	0	444
22.935	13.235	1	16345	0	444
18.572	8.871	1	16352	0	444
18.716	7.501	1	16361	0	444
22.972	9.196	1	16375	0	444
26.866	13.595	1	16384	0	444
24.270	13.235	1	16388	0	444
16.552	9.052	1	16390	0	444
8.439	3.318	1	16395	0	444
4.472	1.442	1	16397	0	444
7.429	4.183	1	16402	0	444
12.802	8.114	1	16407	0	444
16.913	11.396	1	16413	0	444
17.598	11.576	1	16423	0	444
18.031	8.691	1	16430	0	444
21.385	8.583	1	16434	0	444
24.017	8.655	16384	16434	0	444
26.181	10.566	1	16430	0	444
27.407	13.379	1	16423	0	444
25.893	17.490	1	16416	0	444
25.965	21.962	1	16409	0	444
27.407	23.512	32768	16448	0	444
30.725	23.837	32768	16618	0	444
32.203	21.457	32768	16888	0	444
30.112	14.930	32768	17093	0	444
26.794	10.710	32768	17178	0	444
21.277	10.602	32768	17203	0	444
20.447	11.828	32768	17196	0	444
20.736	15.435	32768	17157	0	444
20.952	16.372	32768	17088	0	444
19.978	14.858	32768	17001	0	444
17.851	14.533	32768	16904	1	28400
16.408	14.930	32768	16798	0	28400
17.274	16.697	32768	16685	0	28400
18.356	16.120	32768	16570	0	28400
18.392	14.930	32768	16457	0	28400
18.139	14.245	32768	16352	0	28400
18.969	16.841	32768	16251	0	28400
19.546	23.152	32768	16161	0	28400
20.050	25.820	32768	16076	0	28400
16.408	23.188	32768	16002	0	28400
9.809	14.317	32768	15940	0	28400
5.842	5.265	32768	15885	0	28400
6.239	1.226	32768	15839	0	28400
11.720	5.698	32768	15802	0	28400
16.480	12.946	32768	15779	0	28400
19.870	19.005	32768	15770	0	28400
19.113	19.582	32768	15767	0	28400
18.500	19.185	32768	15772	0	28400
20.303	19.546	32768	15776	0	28400
23.188	21.204	32768	15788	0	28400
26.001	23.549	32768	15806	0	28400
27.479	24.017	32768	15839	0	28400
28.345	21.385	32768	15876	0	28400
30.220	21.493	32768	15912	0	28400
33.033	19.798	16384	15947	0	28400
31.807	19.257	1	15984	0	28400
29.030	18.608	1	16021	0	28400
24.089	17.959	1	16057	0	28400
21.457	19.257	1	16094	0	28400
20.736	22.070	1	16127	0	28400
24.522	23.729	1	16154	0	28400
25.171	19.546	1	16184	0	28400
20.808	13.199	1	16219	0	28400
13.668	5.734	1	16256	0	28400
7.717	1.983	1	16288	0	28400
5.986	3.606	1	16320	0	28400
8.979	6.744	1	16350	0	28400
13.307	11.179	1	16380	0	28400
14.858	10.999	1	16407	0	28400
13.884	9.917	1	16436	0	28400
10.746	7.140	1	16464	0	28400
10.855	7.825	1	16485	0	28400
14.894	10.530	1	16503	0	28400
20.555	15.326	1	16519	0	28400
24.198	19.005	1	16526	0	28400
23.044	16.913	1	16522	0	28400
16.805	12.982	1	16515	0	28400
10.638	6.960	1	16508	0	28400
8.222	5.554	1	16503	0	28400
11.864	7.681	1	16506	0	28400
17.057	12.586	1	16510	0	28400
22.070	16.084	1	16515	0	28400
22.935	17.202	1	16515	0	28400
22.358	15.362	1	16519	0	28400
20.808	11.648	1	16529	0	28400
18.247	9.412	1	16538	0	28400
18.356	8.475	1	16547	0	28400
18.536	9.989	1	16556	0	28400
19.906	11.648	1	16602	0	28400
22.755	13.091	1	16782	0	28400
25.748	15.398	32768	17056	0	28400
30.040	17.238	32768	17261	0	28400
30.436	18.572	32768	17346	0	28400
28.669	16.444	32768	17369	0	28400
21.241	12.297	32768	17355	0	28400
13.631	5.914	32768	17305	0	28400
8.222	1.767	32768	17226	0	28400
9.881	4.508	32768	17125	0	28400
13.091	7.789	32768	17010	0	28400
15.074	10.927	32768	16888	0	28400
15.038	9.953	32768	16761	0	28400
12.189	7.789	32768	16635	0	28400
11.504	4.327	32768	16506	0	28400
10.963	4.219	32768	16386	0	28400
11.540	4.291	32768	16274	0	28400
13.523	6.888	32768	16170	0	28400
15.362	10.638	32768	16074	0	28400
21.637	15.975	32768	15981	0	28400
28.201	21.745	32768	15901	0	28400
29.931	22.250	32768	15836	1	316
27.155	18.428	32768	15788	0	316
21.565	14.100	32768	15749	0	316
17.815	11.540	32768	15724	0	316
17.057	12.946	32768	15705	0	316
19.257	13.415	32768	15696	0	316
18.067	12.225	32768	15698	0	316
14.245	8.979	32768	15712	0	316
9.629	7.140	1	15733	0	316
10.097	11.143	1	15765	0	316
15.471	15.326	1	15804	0	316
23.476	19.113	1	15848	0	316
28.309	17.923	1	15889	0	316
28.922	13.343	1	15928	0	316
26.037	11.107	1	15972	0	316
25.856	13.992	1	16021	0	316
27.624	20.303	1	16071	0	316
30.292	23.368	1	16124	0	316
27.407	21.385	1	16177	0	316
21.854	12.622	1	16232	0	316
16.372	5.409	1	16281	0	316
16.408	5.193	1	16322	0	316
22.431	11.900	1	16357	0	316
29.895	20.555	1	16386	0	316
32.889	25.027	1	16416	0	316
30.364	22.683	1	16443	0	316
24.811	19.005	1	16469	0	316
23.404	17.490	1	16487	0	316
25.532	20.772	1	16503	0	316
30.869	25.279	1	16515	0	316
34.511	30.040	1	16526	0	316
35.413	30.004	1	16533	0	316
32.420	26.217	1	16538	0	316
31.158	24.234	1	16542	0	316
31.662	23.332	1	16549	0	316
32.997	24.558	1	16554	0	316
33.754	27.696	1	16554	0	316
30.545	26.001	1	16552	0	316
22.286	22.070	1	16554	0	316
13.776	14.966	1	16556	0	316
7.645	8.727	1	16559	0	316
7.357	6.167	1	16561	0	316
11.468	9.412	1	16561	0	316
18.175	11.179	1	16559	0	316
21.854	13.523	1	16556	0	316
21.745	13.415	1	16554	0	316
18.211	10.278	1	16554	0	316
13.884	8.294	1	16549	0	316
9.448	7.501	1	16540	0	316
6.996	7.898	1	16531	0	316
9.484	8.439	1	16519	0	316
15.435	12.550	1	16508	0	316
24.883	19.401	1	16538	0	316
34.547	28.128	16384	16697	0	316
38.911	32.816	32768	16952	0	316
37.324	33.970	32768	17148	0	316
30.508	28.453	32768	17231	0	316
23.188	23.008	32768	17252	0	316
20.808	20.700	32768	17238	0	316
22.250	23.368	32768	17187	0	316
28.309	27.515	32768	17109	0	316
30.941	29.715	32768	17015	0	316
31.302	29.859	32768	16913	0	316
28.561	25.460	32768	16800	0	316
23.801	21.457	32768	16683	0	316
23.693	20.014	32768	16565	0	316
26.361	22.575	32768	16453	0	316
34.583	30.725	32768	16348	0	316
42.012	37.360	32768	16239	0	316
45.366	41.760	32768	16140	0	316
42.986	38.370	32768	16046	0	316
35.846	31.915	32768	15958	0	316
29.895	25.820	32768	15882	0	316
27.768	22.250	32768	15816	0	316
26.506	20.591	32768	15760	0	316
25.279	20.736	32768	15714	0	316
19.978	16.625	32768	15680	0	316
13.415	11.684	32768	15664	0	316
9.629	8.150	32768	15664	0	316
9.124	9.376	32768	15671	0	316
13.163	12.622	1	15677	0	316
18.428	18.211	1	15689	0	316
22.575	21.601	1	15710	0	316
24.378	20.736	1	15742	0	316
24.017	18.824	1	15786	0	316
21.745	17.382	1	15832	0	316
20.988	17.670	1	15922	0	316
21.493	20.123	1	16150	0	316
22.972	22.827	32768	16476	0	316
24.630	23.621	32768	16736	0	316
23.224	21.421	32768	16874	0	316
21.204	18.031	32768	16945	0	316
19.618	14.533	32768	16982	0	316
18.428	11.828	32768	16985	0	316
18.067	10.386	32768	16959	0	316
15.182	7.068	32768	16913	0	316
13.091	4.219	32768	16856	0	316
11.973	4.832	32768	16784	0	316
17.021	9.953	32768	16706	0	316
22.647	14.425	32768	16618	0	316
25.279	16.625	32768	16529	0	316
24.666	13.812	32768	16439	0	316
21.277	11.612	32768	16357	0	316
18.933	10.710	32768	16276	0	316
17.815	11.756	32768	16203	0	316
15.759	11.720	32768	16138	0	316
9.448	7.321	32768	16087	0	316
5.878	2.272	32768	16048	0	316
6.455	4.580	32768	16018	0	316
14.028	9.773	16384	15993	0	316
21.601	17.562	1	15977	0	316
26.506	20.664	1	15965	0	316
23.440	16.480	1	15961	0	316
16.084	10.891	1	15965	0	316
9.773	4.724	1	15977	0	316
8.330	3.534	1	15993	0	316
10.097	9.232	1	16009	0	316
15.507	13.956	1	16030	0	316
17.887	16.444	1	16051	0	316
16.300	13.054	1	16078	0	316
13.271	7.032	1	16156	0	316
9.773	0.397	1	16371	0	316
11.648	-0.216	1	16681	0	316
16.913	5.265	32768	16922	0	316
22.034	10.206	32768	17042	0	316
24.486	11.576	32768	17100	0	316
22.034	9.304	32768	17123	0	316
18.392	4.364	32768	17114	0	316
14.533	0.361	32768	17077	0	316
12.081	-0.180	32768	17017	0	316
13.343	0.649	32768	16989	0	316
13.559	2.524	32768	17081	0	316
15.146	6.311	32768	17261	0	316
16.949	8.402	32768	17372	0	316
17.815	12.658	32768	17358	0	316
20.988	15.146	32768	17286	0	316
21.781	15.651	32768	17190	0	316
20.627	11.576	32768	17065	0	316
17.346	6.022	32768	16920	1	552
13.271	0.974	32768	16759	0	552
11.396	0.108	32768	16591	0	552
13.054	3.895	32768	16420	0	552
19.726	10.927	32768	16260	0	552
24.558	17.274	32768	16104	0	552
26.433	17.887	32768	15958	0	552
21.781	13.595	32768	15827	0	552
12.802	5.950	32768	15714	0	552
4.724	-1.839	32768	15615	0	552
2.308	-3.678	32768	15535	0	552
8.511	0.469	32768	15475	0	552
18.969	7.573	32768	15436	0	552
24.306	10.422	32768	15408	0	552
21.926	5.878	32768	15394	0	552
14.425	-1.442	1	15396	0	552
8.366	-6.491	1	15417	0	552
9.701	-5.193	1	15456	0	552
17.238	2.669	1	15507	0	552
25.820	9.809	1	15558	0	552
31.122	15.290	1	15613	0	552
29.643	15.759	1	15668	0	552
24.558	10.530	1	15724	0	552
16.336	4.472	1	15786	0	552
12.910	-0.252	1	15850	0	552
14.389	0.649	1	15922	0	552
22.358	7.068	1	15991	0	552
31.230	13.451	1	16060	0	552
33.466	14.317	1	16133	0	552
27.191	8.727	1	16207	0	552
20.700	2.056	1	16276	0	552
16.733	-0.793	1	16341	0	552
17.959	0.252	1	16395	0	552
20.483	0.505	1	16455	0	552
19.077	-2.813	1	16515	0	552
14.461	-6.419	1	16568	0	552
12.189	-8.871	1	16614	0	552
15.074	-7.068	1	16651	0	552
19.618	-2.308	1	16681	0	552
22.322	0.072	1	16708	0	552
20.880	1.190	1	16731	0	552
18.897	3.354	1	16750	0	552
18.608	5.842	1	16761	0	552
20.411	6.852	1	16764	0	552
21.277	4.436	1	16759	0	552
21.204	1.370	1	16754	0	552
19.041	-1.587	1	16747	0	552
19.870	-0.216	1	16734	0	552
22.286	4.760	1	16722	0	552
22.358	5.986	1	16713	0	552
19.437	3.750	1	16706	0	552
13.127	-1.911	1	16699	0	552
6.203	-9.304	1	16692	0	552
4.508	-11.864	1	16722	0	552
6.744	-11.720	1	16883	0	552
13.704	-6.131	1	17141	0	552
21.998	3.498	32768	17332	0	552
28.020	12.261	32768	17395	0	552
29.751	18.500	32768	17390	0	552
26.217	17.129	32768	17348	0	552
19.690	10.999	32768	17279	0	552
13.235	4.472	32768	17185	0	552
11.179	0.577	32768	17072	0	552
14.064	3.498	32768	16950	0	552
16.444	6.780	32768	16821	0	552
17.670	6.419	32768	16692	0	552
14.245	2.885	32768	16568	0	552
9.917	-1.298	32768	16450	0	552
7.176	-5.013	32768	16343	0	552
7.645	-3.210	32768	16235	0	552
9.124	-0.577	32768	16131	0	552
11.828	2.200	32768	16034	0	552
14.641	3.390	32768	15995	0	552
16.589	4.327	32768	16099	0	552
19.113	6.383	32768	16315	0	552
20.303	7.176	32768	16473	0	552
19.546	7.321	32768	16526	0	552
20.123	4.940	32768	16526	0	552
20.591	4.796	32768	16499	0	552
23.116	7.681	32768	16450	1	316
29.102	15.398	32768	16386	0	316
34.583	24.666	32768	16320	0	316
38.334	29.354	32768	16290	0	316
39.163	26.145	32768	16384	0	316
34.764	18.175	32768	16612	0	316
29.679	10.422	32768	16906	0	316
26.686	7.789	32768	17187	0	316
27.660	12.441	32768	17348	0	316
28.273	19.726	32768	17365	0	316
30.689	24.558	32768	17293	0	316
32.239	25.099	32768	17176	0	316
32.384	23.224	32768	17017	0	316
33.754	21.204	32768	16830	0	316
34.728	19.942	32768	16630	0	316
35.737	20.447	32768	16418	0	316
35.016	19.473	32768	16212	0	316
35.774	19.113	32768	16051	0	316
35.810	16.769	32768	16030	0	316
34.800	15.110	32768	16115	0	316
32.853	12.874	32768	16150	0	316
31.158	12.045	32768	16083	0	316
29.499	13.920	32768	15975	0	316
31.554	18.320	32768	15862	0	316
33.141	23.909	32768	15740	0	316
35.233	25.893	32768	15620	0	316
34.295	23.188	32768	15509	0	316
31.446	19.437	32768	15449	0	316
29.535	14.785	32768	15525	0	316
32.312	15.687	32768	15710	0	316
35.449	20.772	32768	15843	0	316
40.498	26.037	32768	15873	0	316
39.055	27.155	32768	15903	0	316
31.807	25.207	32768	16046	0	316
21.637	19.005	32768	16267	0	316
13.271	14.821	32768	16407	0	316
11.251	14.064	32768	16427	0	316
15.398	16.949	32768	16390	0	316
22.250	20.411	32768	16325	0	316
25.460	22.431	32768	16228	0	316
26.325	22.106	32768	16115	0	316
23.549	20.231	32768	15993	0	316
23.729	19.870	32768	15869	0	316
24.558	20.555	32768	15747	0	316
25.496	21.313	32768	15636	0	316
24.666	20.988	32768	15537	0	316
21.601	15.723	32768	15452	0	316
19.077	11.035	32768	15383	0	316
21.060	11.107	32768	15330	0	316
24.666	11.612	16384	15293	0	316
25.388	15.074	1	15270	0	316
24.630	15.543	1	15304	0	316
21.241	12.766	1	15484	0	316
20.988	9.809	1	15776	0	316
21.637	9.124	1	16016	0	316
23.909	9.196	1	16150	0	316
20.880	5.986	1	16239	0	316
17.418	1.731	1	16299	0	316
17.274	-1.082	1	16332	0	316
22.683	0.505	1	16343	0	316
29.174	5.770	1	16345	0	316
33.213	11.756	1	16380	0	316
31.915	16.156	1	16542	0	316
29.895	17.310	1	16807	0	316
28.958	18.031	1	17010	0	316
31.338	19.221	32768	17093	0	316
32.239	17.382	32768	17153	0	316
30.725	15.651	32768	17302	0	316
25.640	13.415	32768	17519	0	316
19.329	13.018	32768	17650	0	316
9.773	11.143	32768	17643	0	316
-1.839	9.160	32768	17604	0	316
-9.917	5.662	32768	17655	0	316
-12.982	3.426	32768	17772	0	316
-5.770	4.219	32768	17807	0	316
4.183	9.124	32768	17708	0	316
12.189	12.586	32768	17537	0	316
13.487	15.687	32768	17332	0	316
7.970	13.848	32768	17100	0	316
3.498	12.189	32768	16858	1	316
2.164	8.042	32768	16616	0	316
6.599	8.150	32768	16382	0	316
12.441	8.979	32768	16156	0	316
17.851	11.792	32768	15947	0	316
19.293	16.156	32768	15756	0	316
19.005	17.706	32768	15629	0	316
18.897	18.644	32768	15657	0	316
19.942	18.067	32768	15797	0	316
22.431	16.408	32768	15938	0	316
22.791	11.973	32768	16113	0	316
21.241	8.799	32768	16386	0	316
18.536	5.950	32768	16715	0	316
16.552	5.013	32768	17010	0	316
16.805	6.960	32768	17176	0	316
19.690	12.081	32768	17185	0	316
22.972	14.641	32768	17141	0	316
26.830	17.490	32768	17173	0	316
29.427	18.211	32768	17259	0	316
31.194	17.274	32768	17254	0	316
30.472	15.759	32768	17114	0	316
28.777	14.425	32768	16948	0	316
25.352	15.435	32768	16879	0	316
24.486	18.247	32768	16886	0	316
24.847	19.473	32768	16819	0	316
27.335	22.539	32768	16639	0	316
29.571	23.188	32768	16453	0	316
28.958	22.467	32768	16386	0	316
23.188	19.618	32768	16411	0	316
17.310	15.831	32768	16373	0	316
11.396	14.389	32768	16221	0	316
10.314	12.369	32768	16018	0	316
12.910	15.723	32768	15806	0	316
12.802	16.769	32768	15583	0	316
9.845	14.641	32768	15364	0	316
4.616	11.576	32768	15152	0	316
1.551	11.360	32768	14961	0	316
2.416	15.579	32768	14786	0	316
7.465	22.070	32768	14639	0	316
10.025	24.883	32768	14521	0	316
7.753	22.178	32768	14436	0	316
4.039	15.795	32768	14385	0	316
1.479	10.530	1	14365	0	316
2.813	7.465	1	14374	0	316
7.068	10.242	1	14404	0	316
10.242	10.422	1	14496	0	316
10.386	10.963	1	14735	0	316
7.717	9.917	1	15086	0	316
3.137	3.750	1	15387	0	316
0.577	-2.741	1	15588	0	316
1.190	-6.347	1	15742	0	316
5.734	-2.236	1	15869	0	316
13.523	7.753	1	15970	0	316
17.851	17.310	1	16048	0	316
18.139	19.726	1	16113	0	316
11.432	13.018	1	16207	0	316
5.265	0.865	1	16418	0	316
3.714	-7.032	1	16720	0	316
6.275	-7.681	1	16955	0	316
12.369	-2.705	1	17070	0	316
15.723	2.236	1	17123	0	316
15.543	4.868	1	17146	0	316
12.658	4.003	1	17137	0	316
10.278	3.570	1	17100	0	316
8.799	2.488	1	17040	0	316
6.563	4.255	1	16966	0	316
6.167	5.626	1	16888	0	316
7.176	6.888	1	16810	0	316
9.737	7.321	1	16731	0	316
14.389	8.366	1	16648	0	316
18.103	11.035	1	16568	0	316
20.375	15.615	1	16496	0	316
20.736	19.546	1	16439	0	316
21.024	23.260	1	16388	0	316
20.267	24.666	1	16350	0	316
21.601	20.700	1	16318	0	316
21.601	17.743	1	16290	0	316
22.611	14.497	1	16315	0	316
23.080	14.497	1	16476	0	316
23.909	16.264	1	16743	0	316
21.637	16.300	1	16950	0	316
18.680	15.218	1	17047	0	316
16.372	13.271	1	17086	0	316
14.894	10.494	1	17095	0	316
15.867	6.888	1	17079	0	316
18.392	5.013	1	17044	0	316
20.231	2.164	1	16992	0	316
19.546	-0.036	1	16927	0	316
15.903	-1.587	1	16851	0	316
11.973	-0.974	1	16768	0	316
10.530	2.056	1	16683	0	316
12.045	5.409	1	16600	0	316
17.851	9.665	1	16517	0	316
24.198	13.343	1	16441	0	316
28.164	16.336	1	16375	0	316
29.246	15.182	1	16318	0	316
29.427	16.516	1	16269	0	316
28.056	16.841	1	16230	0	316
27.948	17.815	1	16198	0	316
27.479	18.572	1	16173	0	316
26.578	20.339	1	16156	0	316
26.866	22.286	1	16147	0	316
25.965	20.555	1	16143	0	316
24.414	17.923	1	16140	0	316
19.293	13.343	1	16140	0	316
14.569	9.665	1	16145	0	316
12.550	9.196	1	16154	0	316
14.100	12.658	1	16170	0	316
19.870	16.913	1	16189	0	316
26.253	19.546	1	16214	0	316
29.246	20.591	1	16242	0	316
31.194	20.195	1	16272	0	316
30.076	19.870	1	16304	0	316
30.148	21.132	1	16338	0	316
28.020	21.349	1	16375	0	316
24.125	19.618	1	16409	0	316
20.772	16.589	1	16446	0	316
17.057	12.910	1	16485	0	316
15.326	8.078	1	16522	0	316
15.939	5.229	1	16552	0	316
17.202	3.714	1	16577	0	316
19.221	6.058	1	16598	0	316
20.772	8.439	1	16612	0	316
21.313	13.740	1	16664	0	316
20.844	17.598	1	16842	0	316
18.067	18.860	1	17111	0	316
15.903	18.139	1	17312	0	316
13.848	15.362	1	17390	0	316
12.838	11.468	1	17404	0	316
12.874	7.032	1	17381	0	316
11.143	5.734	1	17332	0	316
10.638	5.265	1	17259	0	316
10.819	4.724	1	17164	0	316
10.133	2.777	1	17054	0	316
10.097	-0.144	1	16936	0	316
10.638	-2.849	1	16814	0	316
13.487	-2.957	1	16697	0	316
20.195	1.334	1	16577	0	316
27.984	4.364	1	16457	0	316
34.259	8.835	1	16345	0	316
33.574	8.727	1	16239	0	316
27.371	8.583	1	16147	0	316
19.473	6.239	1	16067	0	316
15.723	5.301	1	15998	0	316
18.500	6.383	1	15938	0	316
24.414	6.960	1	15892	0	316
27.624	6.347	1	15855	0	316
24.414	1.731	1	15827	0	316
13.559	-3.137	1	15809	0	316
4.364	-4.616	1	15800	0	316
1.695	-2.993	1	15802	0	316
5.806	2.957	1	15813	0	316
13.199	9.845	1	15832	0	316
15.615	11.684	1	15852	0	316
12.694	11.792	1	15876	0	316
7.501	9.592	1	15905	0	316
3.390	7.537	1	15942	0	316
6.311	6.996	1	16025	0	316
12.550	10.242	1	16237	0	316
19.365	14.497	1	16545	0	316
23.044	16.769	1	16793	0	316
21.457	15.507	1	16920	0	316
17.021	13.054	1	16982	0	316
13.091	10.278	32768	17003	0	316
12.982	8.402	32768	16987	0	316
15.615	9.448	32768	16943	0	316
20.195	10.819	32768	16888	0	316
23.404	12.477	32768	16821	0	316
24.630	15.795	32768	16738	0	316
26.758	19.582	32768	16648	0	316
26.830	20.303	32768	16556	0	316
26.902	19.798	32768	16462	0	316
23.549	15.362	32768	16380	0	316
17.706	10.314	16384	16299	0	316
12.153	4.075	16384	16272	0	316
10.206	2.705	32768	16384	0	316
12.838	3.390	32768	16600	0	316
18.067	7.645	32768	16754	0	316
26.145	13.595	32768	16793	0	316
29.968	16.733	32768	16777	0	316
33.213	18.031	32768	16734	0	316
35.918	16.805	32768	16704	0	316
36.495	17.743	32768	16787	0	316
37.144	18.572	32768	16957	0	316
35.846	20.375	32768	17058	0	316
34.439	23.260	32768	17047	0	316
34.223	24.450	32768	16973	0	316
34.151	22.467	32768	16865	0	316
33.429	18.897	32768	16727	0	316
30.725	12.514	32768	16568	0	316
23.945	8.006	32768	16400	0	316
19.870	6.347	32768	16230	0	316
18.031	7.501	32768	16062	0	316
18.788	10.674	32768	15903	0	316
21.601	12.874	32768	15758	0	316
23.657	13.127	32768	15629	0	316
22.214	12.117	32768	15516	0	316
19.834	7.645	32768	15426	0	316
15.507	4.472	32768	15360	0	316
12.694	2.993	32768	15318	0	316
10.710	2.596	1	15293	0	316
11.107	4.652	1	15281	0	316
13.487	4.652	1	15284	0	316
14.245	6.635	1	15300	0	316
15.579	7.898	1	15323	0	316
17.490	12.297	1	15360	0	316
20.844	17.382	1	15406	0	316
25.784	18.860	1	15459	0	316
30.400	18.356	1	15525	0	316
32.961	15.398	1	15604	0	316
30.833	12.730	1	15687	0	316
28.128	11.287	1	15772	0	316
25.099	11.612	1	15850	0	316
22.467	12.153	1	15933	0	316
20.195	11.035	1	16018	0	316
17.743	7.321	1	16101	0	316
16.372	5.193	1	16177	0	316
17.887	6.094	1	16249	0	316
21.637	10.278	1	16325	0	316
26.542	15.579	1	16395	0	316
27.083	18.320	1	16466	0	316
25.784	15.831	1	16533	0	316
22.395	10.963	1	16595	0	316
20.664	8.078	1	16653	0	316
22.467	8.871	1	16701	0	316
23.188	11.792	1	16745	0	316
23.080	13.379	1	16782	0	316
19.293	11.035	1	16810	0	316
15.435	8.042	1	16833	0	316
13.992	4.580	1	16849	0	316
17.418	5.517	1	16860	0	316
22.791	10.314	1	16869	0	316
29.823	15.579	1	16874	0	316
33.574	18.716	1	16874	0	316
35.557	18.644	1	16872	0	316
33.934	15.543	1	16867	0	316
31.626	12.586	1	16858	0	316
29.354	11.179	1	16844	0	316
29.318	12.658	1	16826	0	316
31.266	17.057	1	16805	0	316
34.728	21.421	1	16780	0	316
35.990	23.765	1	16757	0	316
33.718	24.306	1	16734	0	316
28.489	20.339	1	16715	0	316
22.683	15.543	1	16699	0	316
20.808	12.369	1	16685	0	316
22.214	12.550	1	16669	0	316
26.866	16.156	1	16655	0	316
29.968	18.031	1	16646	0	316
29.859	19.690	1	16637	0	316
25.856	18.428	1	16621	0	316
23.368	17.634	1	16598	0	316
21.529	17.418	1	16570	0	316
20.808	17.057	1	16542	0	316
18.392	12.982	1	16512	0	316
15.615	6.996	1	16485	0	316
13.199	3.823	1	16462	0	316
