neuroNicle FX2
D3F25R12
Bluetooth SPP
2023년 6월 1일 목요일
오후 7:08
time interval = 4msec
EEG1	EEG2	PPG	sdPPG	pulse	peak_interval(msec)
36.170	31.626	16187	18477	0	744
35.413	29.751	16206	18784	0	744
30.905	27.119	16224	19060	0	744
21.637	22.467	16244	19327	0	744
15.795	22.178	16267	19613	0	744
17.093	23.837	16292	19908	0	744
21.890	26.037	16321	20206	0	744
28.922	28.453	16354	20529	0	744
30.833	26.037	16386	20871	0	744
31.049	26.289	16417	21117	0	744
29.499	26.830	16446	21184	0	744
29.102	29.931	16473	21121	0	744
30.256	33.069	16501	21035	0	744
29.787	35.016	16527	20960	0	744
29.968	33.862	16552	20845	0	744
32.961	33.898	16574	20636	1	676
37.505	33.141	16599	20365	0	676
41.507	34.583	16622	20149	0	676
42.589	34.692	16647	19992	0	676
40.822	32.780	16666	19763	0	676
39.812	30.761	16684	19407	0	676
39.921	29.607	16699	18995	0	676
42.697	27.479	16711	18573	0	676
39.849	26.866	16719	18100	0	676
36.062	25.496	16726	17601	0	676
31.158	26.830	16734	17173	0	676
26.758	30.508	16742	16826	0	676
26.181	36.314	16749	16531	0	676
28.273	40.786	16758	16307	0	676
28.669	39.488	16766	16143	0	676
29.282	34.079	16777	15998	0	676
26.181	27.047	16784	15841	0	676
21.854	23.260	16792	15687	0	676
20.988	22.142	16799	15553	0	676
18.933	23.368	16804	15452	0	676
18.572	26.181	16811	15370	0	676
14.389	28.705	16818	15286	0	676
10.855	28.669	16822	15209	0	676
8.619	30.472	16829	15169	0	676
8.799	29.571	16834	15181	0	676
13.379	26.758	16841	15216	0	676
17.346	26.433	16844	15188	0	676
16.192	27.335	16840	15007	0	676
18.320	29.895	16833	14708	0	676
17.057	32.203	16826	14415	0	676
18.500	32.095	16817	14185	0	676
16.552	30.148	16809	14003	0	676
16.625	28.164	16799	13876	0	676
13.956	26.866	16791	13832	0	676
14.785	26.794	16788	13869	0	676
13.704	26.902	16783	13949	0	676
15.182	24.053	16779	14029	0	676
16.913	20.014	16773	14115	0	676
17.670	20.447	16769	14232	0	676
19.473	19.726	16768	14387	0	676
22.935	19.942	16765	14567	0	676
23.621	21.565	16765	14738	0	676
25.063	23.332	16763	14888	0	676
24.702	23.512	16760	15014	0	676
20.880	24.811	16756	15080	0	676
18.211	21.493	16747	15075	0	676
13.884	15.326	16742	15078	0	676
15.579	10.674	16733	15089	0	676
18.536	10.242	16719	14993	0	676
25.171	12.802	16703	14778	0	676
30.040	19.618	16688	14607	0	676
33.321	20.988	16674	14544	0	676
35.918	23.657	16665	14558	0	676
36.495	24.991	16653	14621	0	676
36.603	28.814	16641	14684	0	676
35.305	31.879	16633	14731	0	676
31.446	31.879	16620	14799	0	676
27.479	27.515	16614	14909	0	676
26.073	22.539	16606	15054	0	676
27.660	19.005	16599	15202	0	676
31.554	19.365	16589	15326	0	676
34.547	20.411	16585	15459	0	676
34.908	22.755	16582	15656	0	676
35.737	21.565	16581	15909	0	676
37.252	21.385	16581	16183	0	676
41.471	20.700	16584	16447	0	676
45.402	21.313	16584	16672	0	676
43.635	19.365	16580	16779	0	676
41.111	16.625	16578	16798	0	676
37.324	15.038	16578	16861	0	676
35.846	14.317	16578	16995	0	676
36.459	14.785	16581	17147	0	676
37.721	16.877	16587	17313	0	676
36.423	19.149	16592	17515	0	676
35.449	20.519	16599	17711	0	676
34.259	22.286	16606	17835	0	676
34.944	23.837	16609	17901	0	676
32.961	23.260	16616	17941	0	676
32.564	20.231	16619	17941	0	676
31.879	20.087	16625	17906	0	676
32.023	19.546	16623	17821	0	676
32.564	19.185	16622	17625	0	676
30.689	18.788	16616	17351	0	676
27.407	14.245	16615	17142	0	676
23.765	11.973	16611	17023	0	676
20.050	10.566	16611	16922	0	676
20.627	12.550	16607	16819	0	676
19.257	16.048	16608	16739	0	676
20.844	16.697	16606	16686	0	676
22.755	16.805	16607	16646	0	676
20.664	13.956	16604	16597	0	676
21.421	13.307	16601	16491	0	676
19.005	14.677	16596	16328	0	676
18.356	17.959	16589	16153	0	676
20.916	21.962	16584	15991	0	676
23.296	23.260	16577	15851	0	676
24.558	23.008	16569	15740	0	676
24.089	20.591	16565	15656	0	676
21.204	18.247	16558	15588	0	676
21.385	17.959	16554	15562	0	676
22.250	17.598	16552	15630	0	676
22.214	16.841	16551	15769	0	676
23.765	16.192	16550	15858	0	676
20.844	16.697	16543	15822	0	676
19.654	17.021	16536	15710	0	676
16.805	19.546	16530	15614	0	676
16.733	22.358	16522	15558	0	676
14.749	22.611	16512	15492	0	676
15.687	19.293	16504	15403	0	676
15.110	17.238	16495	15321	0	676
17.454	12.586	16485	15265	0	676
18.824	9.989	16476	15242	0	676
22.935	10.314	16469	15260	0	676
26.866	10.602	16459	15279	0	676
30.905	13.776	16451	15260	0	676
33.213	16.949	16440	15251	0	676
32.348	18.716	16433	15288	0	676
29.823	19.582	16425	15319	0	676
25.568	19.365	16413	15293	0	676
23.368	22.503	16401	15214	0	676
24.198	25.893	16387	15143	0	676
28.489	31.590	16382	15143	0	676
31.915	32.456	16371	15207	0	676
31.158	27.191	16362	15286	0	676
27.047	21.781	16352	15342	0	676
23.512	17.815	16341	15359	0	676
24.017	17.887	16329	15317	0	676
24.450	20.664	16316	15256	0	676
26.361	22.322	16306	15253	0	676
25.352	21.962	16294	15293	0	676
22.827	19.293	16283	15338	0	676
25.207	19.906	16273	15401	0	676
30.833	22.647	16265	15516	0	676
37.072	24.666	16262	15684	0	676
38.298	25.352	16259	15883	0	676
38.009	23.152	16255	16078	0	676
35.160	20.664	16251	16232	0	676
32.239	18.572	16248	16359	0	676
32.239	18.788	16244	16463	0	676
36.242	21.277	16240	16545	0	676
39.055	24.053	16236	16599	0	676
44.104	26.650	16230	16629	0	676
45.258	27.732	16225	16639	0	676
43.851	27.047	16221	16660	0	676
41.075	24.414	16222	16735	0	676
37.036	20.880	16219	16845	0	676
36.928	22.106	16214	16880	0	676
35.810	22.034	16206	16779	0	676
35.990	22.755	16197	16599	0	676
33.862	21.024	16187	16435	0	676
31.807	17.598	16178	16305	0	676
30.292	14.749	16165	16160	0	676
29.679	14.100	16154	16017	0	676
28.777	17.021	16142	15902	0	676
27.335	18.464	16134	15827	0	676
23.188	19.510	16125	15790	0	676
22.178	18.572	16115	15778	0	676
24.811	18.788	16107	15773	0	676
31.158	20.700	16099	15762	0	676
37.288	25.856	16092	15801	0	676
40.065	29.499	16089	15928	0	676
36.964	30.040	16091	16146	0	676
31.013	27.624	16094	16405	0	676
26.217	24.234	16096	16676	0	676
24.378	21.818	16106	16976	0	676
27.624	24.089	16118	17341	0	676
33.682	27.732	16133	17746	0	676
35.377	32.023	16148	18140	0	676
39.308	33.538	16167	18505	0	676
37.216	35.052	16188	18894	0	676
36.206	33.502	16213	19313	0	676
37.577	31.410	16241	19735	0	676
39.272	30.545	16270	20131	0	676
39.452	29.535	16299	20484	0	676
36.423	25.712	16332	20784	0	676
35.305	22.611	16364	21058	0	676
32.348	20.916	16398	21332	0	676
33.069	22.322	16433	21573	0	676
33.249	26.722	16467	21681	0	676
32.816	33.682	16493	21587	0	676
29.823	35.269	16520	21376	0	676
28.128	32.600	16550	21222	0	676
26.217	26.109	16581	21147	0	676
24.414	22.899	16609	21060	1	732
25.820	20.339	16641	20934	0	732
23.152	21.096	16671	20793	0	732
22.178	20.627	16699	20636	0	732
25.027	19.690	16725	20405	0	732
26.433	17.021	16750	20088	0	732
27.443	16.589	16775	19758	0	732
26.758	14.569	16796	19451	0	732
25.171	13.956	16817	19152	0	732
22.431	14.858	16838	18840	0	732
24.342	15.579	16857	18508	0	732
31.158	19.798	16875	18170	0	732
34.764	24.306	16891	17845	0	732
35.088	23.909	16906	17512	0	732
30.869	21.421	16920	17161	0	732
23.837	15.903	16929	16805	0	732
15.831	11.612	16939	16468	0	732
13.704	8.943	16948	16141	0	732
12.369	9.412	16949	15776	0	732
14.858	11.828	16952	15375	0	732
18.752	14.930	16952	14989	0	732
21.818	18.067	16948	14595	0	732
28.886	19.870	16944	14204	0	732
33.610	22.683	16939	13881	0	732
37.577	24.342	16933	13640	0	732
38.334	24.739	16931	13473	0	732
34.692	26.109	16926	13392	0	732
31.230	24.919	16928	13403	0	732
27.768	24.017	16925	13469	0	732
27.083	23.260	16926	13553	0	732
26.578	21.890	16928	13682	0	732
23.332	20.050	16931	13846	0	732
20.880	16.733	16931	13991	0	732
17.129	13.054	16929	14099	0	732
19.546	10.855	16929	14174	0	732
23.044	12.802	16925	14235	0	732
26.433	15.795	16925	14310	0	732
26.181	18.392	16921	14403	0	732
21.962	20.375	16920	14502	0	732
17.129	21.493	16915	14586	0	732
16.012	22.935	16914	14673	0	732
17.274	22.611	16913	14804	0	732
20.988	24.198	16917	14989	0	732
21.241	23.008	16917	15190	0	732
21.745	21.818	16917	15354	0	732
19.546	24.053	16918	15483	0	732
19.041	26.253	16917	15600	0	732
17.634	26.758	16917	15691	0	732
17.166	25.893	16913	15743	0	732
12.333	23.657	16912	15769	0	732
8.727	23.044	16909	15801	0	732
4.183	23.008	16909	15860	0	732
-1.118	23.549	16909	15951	0	732
-5.698	24.270	16907	16052	0	732
-10.783	20.411	16907	16125	0	732
-15.543	16.444	16906	16174	0	732
-16.949	12.333	16906	16228	0	732
-13.740	9.701	16907	16298	0	732
-8.979	10.891	16907	16370	0	732
-0.469	16.949	16907	16423	0	732
7.068	25.856	16906	16454	0	732
11.035	32.095	16906	16456	0	732
12.766	31.122	16903	16405	0	732
12.009	26.506	16899	16345	0	732
8.799	21.132	16902	16386	0	732
7.357	20.050	16905	16533	0	732
9.520	23.116	16905	16618	0	732
14.208	26.542	16902	16554	0	732
16.661	27.155	16895	16412	0	732
20.519	23.801	16893	16288	0	732
18.969	22.250	16888	16207	0	732
19.005	22.935	16882	16136	0	732
17.021	25.929	16874	16019	0	732
19.978	28.994	16867	15874	0	732
21.421	28.994	16861	15790	0	732
19.329	26.902	16857	15797	0	732
19.437	22.070	16853	15822	0	732
15.038	18.572	16848	15804	0	732
13.920	17.418	16841	15736	0	732
12.946	16.336	16834	15668	0	732
14.641	15.759	16823	15586	0	732
17.346	15.182	16809	15387	0	732
17.202	16.949	16792	15085	0	732
18.320	20.988	16773	14836	0	732
16.444	28.020	16760	14710	0	732
15.651	29.391	16746	14673	0	732
13.054	27.768	16738	14703	0	732
13.595	21.926	16726	14762	0	732
13.379	19.798	16717	14811	0	732
14.894	20.159	16706	14865	0	732
17.093	24.198	16695	14928	0	732
18.969	26.614	16684	14975	0	732
22.286	27.299	16672	14991	0	732
26.794	24.558	16660	14998	0	732
32.239	26.001	16649	15036	0	732
36.062	28.814	16641	15127	0	732
37.288	32.095	16631	15270	0	732
33.790	33.718	16626	15434	0	732
29.030	33.141	16620	15588	0	732
23.549	28.633	16612	15731	0	732
22.791	26.397	16607	15862	0	732
22.611	25.460	16603	15989	0	732
23.188	27.010	16596	16108	0	732
26.397	27.768	16592	16197	0	732
27.840	28.741	16585	16253	0	732
30.400	29.102	16577	16293	0	732
32.456	27.912	16571	16317	0	732
32.744	27.768	16563	16314	0	732
33.285	25.712	16554	16286	0	732
32.925	27.155	16546	16256	0	732
38.334	34.692	16538	16232	0	732
48.251	47.133	16528	16209	0	732
60.007	61.522	16520	16174	0	732
74.684	75.622	16509	16113	0	732
87.234	85.828	16497	15998	0	732
97.620	94.014	16482	15829	0	732
104.580	101.046	16465	15633	0	732
109.124	105.734	16450	15443	0	732
109.304	105.914	16432	15310	0	732
107.212	104.724	16419	15251	0	732
102.164	102.019	16405	15235	0	732
96.718	96.358	16393	15232	0	732
87.559	88.713	16383	15265	0	732
78.796	80.130	16375	15377	0	732
68.518	73.026	16368	15555	0	732
62.676	70.249	16362	15726	0	732
55.968	69.311	16355	15844	0	732
47.530	62.387	16347	15911	0	732
37.829	48.792	16337	15961	0	732
26.037	33.033	16329	16005	0	732
15.795	23.801	16318	15993	0	732
11.179	24.053	16303	15888	0	732
10.494	29.499	16290	15752	0	732
8.835	29.787	16279	15694	0	732
4.508	20.591	16267	15736	0	732
0.938	7.285	16259	15806	0	732
-2.019	-1.911	16249	15853	0	732
0.144	-4.436	16240	15883	0	732
3.029	-1.983	16232	15933	0	732
3.823	-1.731	16225	16019	0	732
-1.695	-6.527	16219	16139	0	732
-9.088	-11.756	16216	16277	0	732
-16.408	-15.146	16211	16402	0	732
-18.320	-16.949	16208	16522	0	732
-20.916	-19.185	16206	16648	0	732
-23.260	-25.532	16206	16796	0	732
-28.273	-32.420	16205	16939	0	732
-32.708	-37.541	16203	17025	0	732
-35.160	-40.642	16200	17053	0	732
-35.954	-42.337	16198	17060	0	732
-35.233	-41.616	16195	17079	0	732
-32.780	-40.570	16191	17072	0	732
-27.515	-35.846	16183	16950	0	732
-19.510	-25.820	16169	16672	0	732
-12.405	-14.966	16154	16345	0	732
-5.085	-7.248	16143	16122	0	732
-3.065	-1.767	16133	16014	0	732
-2.236	-0.649	16123	15949	0	732
-0.793	-1.623	16115	15900	0	732
3.354	-1.587	16107	15881	0	732
10.061	2.019	16097	15867	0	732
17.995	10.242	16092	15869	0	732
29.066	21.241	16088	15965	0	732
36.206	32.131	16089	16155	0	732
40.353	42.337	16086	16312	0	732
47.313	47.674	16081	16349	0	732
53.047	55.139	16075	16303	0	732
66.426	64.803	16069	16265	0	732
82.871	80.490	16062	16251	0	732
98.233	95.889	16054	16171	0	732
110.602	106.275	16042	16026	0	732
112.766	111.973	16032	15930	0	732
112.045	111.612	16029	15956	0	732
110.530	109.052	16027	16085	0	732
109.845	108.727	16029	16305	0	732
113.704	110.927	16032	16569	0	732
114.208	107.717	16040	16845	0	732
106.058	99.675	16049	17149	0	732
92.463	85.683	16062	17522	0	732
79.373	73.458	16080	17953	0	732
73.458	70.826	16099	18386	0	732
75.334	74.973	16119	18786	0	732
75.911	78.615	16145	19184	0	732
69.455	70.213	16172	19597	0	732
54.562	49.982	16202	20013	0	732
41.039	29.138	16233	20402	0	732
36.206	20.375	16264	20739	0	732
38.550	22.611	16301	21058	0	732
39.272	30.869	16336	21372	0	732
34.187	34.836	16374	21643	0	732
25.063	30.797	16411	21840	0	732
14.569	23.476	16448	21955	0	732
11.720	17.202	16484	22009	0	732
14.028	13.956	16522	22030	0	732
19.077	14.461	16561	22037	0	732
25.388	17.598	16599	22006	0	732
30.653	20.050	16630	21850	0	732
32.095	19.041	16657	21491	0	732
31.662	15.723	16680	21009	0	732
24.955	11.973	16704	20569	1	796
18.356	9.484	16728	20217	0	796
13.018	9.989	16752	19864	0	796
7.717	9.124	16773	19470	0	796
5.698	6.094	16792	19056	0	796
3.570	1.190	16810	18622	0	796
1.875	1.479	16825	18182	0	796
2.308	3.318	16840	17754	0	796
3.534	7.681	16852	17351	0	796
3.318	7.104	16866	16985	0	796
2.488	3.210	16877	16669	0	796
2.596	2.993	16891	16407	0	796
4.075	5.878	16906	16209	0	796
3.931	11.684	16917	16029	0	796
3.101	13.920	16926	15787	0	796
0.397	10.386	16932	15499	0	796
-4.003	-2.777	16940	15239	0	796
-7.176	-15.218	16944	15031	0	796
-9.953	-22.503	16948	14858	0	796
-12.514	-23.837	16952	14694	0	796
-14.497	-21.241	16955	14495	0	796
-11.900	-14.821	16951	14263	0	796
-9.773	-11.251	16949	14057	0	796
-7.465	-10.242	16948	13909	0	796
-10.566	-13.018	16945	13797	0	796
-15.002	-17.093	16940	13668	0	796
-20.988	-23.116	16936	13532	0	796
-21.024	-27.732	16931	13497	0	796
-23.657	-33.213	16931	13574	0	796
-27.263	-41.147	16928	13677	0	796
-37.937	-47.566	16926	13750	0	796
-47.241	-53.011	16921	13797	0	796
-52.831	-54.129	16920	13846	0	796
-53.516	-50.379	16914	13928	0	796
-46.664	-45.186	16913	14047	0	796
-41.183	-41.363	16907	14169	0	796
-37.000	-41.868	16905	14258	0	796
-35.846	-40.065	16903	14356	0	796
-29.066	-35.521	16899	14509	0	796
-19.437	-25.929	16899	14687	0	796
-9.629	-12.441	16898	14848	0	796
-0.288	-3.137	16894	14986	0	796
3.029	-0.433	16893	15103	0	796
-0.577	-3.859	16888	15178	0	796
-5.914	-10.314	16882	15204	0	796
-8.330	-13.920	16877	15216	0	796
-8.619	-12.009	16871	15258	0	796
-7.104	-9.629	16868	15345	0	796
-4.868	-4.977	16867	15488	0	796
-5.734	-5.445	16867	15680	0	796
-10.061	-11.900	16868	15881	0	796
-18.283	-19.834	16868	16047	0	796
-26.073	-30.148	16867	16141	0	796
-28.345	-32.203	16860	16101	0	796
-27.083	-28.705	16849	15933	0	796
-19.762	-23.440	16841	15776	0	796
-15.579	-17.779	16833	15715	0	796
-13.487	-17.706	16826	15724	0	796
-20.123	-23.080	16822	15776	0	796
-28.489	-32.492	16819	15855	0	796
-37.685	-40.930	16817	15956	0	796
-43.707	-51.569	16814	16061	0	796
-48.143	-58.457	16812	16157	0	796
1.082	-3.967	16099	20533	0	772
5.878	0.902	16132	20784	0	772
5.373	2.921	16162	20974	0	772
1.983	0.577	16194	21102	0	772
0.180	-1.010	16225	21168	0	772
3.318	0.433	16257	21201	0	772
7.465	4.436	16290	21217	0	772
11.323	7.429	16318	21175	0	772
12.550	10.674	16347	21016	0	772
11.792	10.530	16374	20789	0	772
9.845	10.169	16402	20641	0	772
10.314	10.278	16433	20587	1	780
15.579	10.530	16463	20470	0	780
16.120	11.432	16486	20201	0	780
20.411	12.189	16508	19824	0	780
20.195	15.471	16525	19412	0	780
18.211	15.939	16543	18988	0	780
13.415	16.661	16558	18573	0	780
10.927	13.523	16573	18166	0	780
8.294	10.097	16584	17735	0	780
8.979	8.258	16592	17292	0	780
7.825	9.484	16603	16880	0	780
9.448	9.737	16608	16508	0	780
7.357	12.009	16616	16164	0	780
3.282	8.078	16620	15825	0	780
-1.046	4.544	16626	15511	0	780
-2.200	1.262	16630	15251	0	780
0.541	3.570	16635	15066	0	780
8.006	8.619	16642	14925	0	780
17.923	17.815	16643	14778	0	780
23.729	23.224	16645	14602	0	780
26.794	25.820	16646	14434	0	780
25.676	25.135	16646	14310	0	780
22.503	21.277	16647	14235	0	780
23.260	21.637	16646	14160	0	780
24.378	26.109	16643	14075	0	780
27.696	29.679	16641	13998	0	780
31.843	35.593	16638	13921	0	780
34.547	37.180	16630	13820	0	780
32.708	35.990	16620	13677	0	780
29.931	32.889	16607	13469	0	780
27.299	28.886	16593	13225	0	780
23.188	25.171	16576	13038	0	780
22.070	23.008	16561	12933	0	780
23.008	21.529	16547	12881	0	780
21.781	22.106	16534	12881	0	780
21.168	23.188	16520	12923	0	780
18.211	20.844	16506	12991	0	780
16.697	20.123	16498	13120	0	780
14.713	17.851	16490	13368	0	780
15.651	18.247	16485	13684	0	780
16.120	17.815	16478	13947	0	780
18.464	20.519	16469	14132	0	780
17.166	20.880	16463	14300	0	780
18.464	20.988	16455	14502	0	780
18.392	21.709	16451	14722	0	780
21.349	20.627	16443	14925	0	780
19.437	21.096	16438	15110	0	780
21.421	19.942	16433	15293	0	780
24.630	23.476	16428	15488	0	780
27.876	27.984	16427	15696	0	780
34.439	34.259	16425	15925	0	780
40.245	39.163	16422	16143	0	780
41.652	41.832	16421	16319	0	780
40.570	42.301	16422	16491	0	780
37.649	41.291	16424	16690	0	780
34.511	41.003	16427	16913	0	780
30.617	37.937	16431	17133	0	780
26.938	33.285	16435	17311	0	780
21.854	27.587	16439	17440	0	780
19.546	22.899	16443	17559	0	780
17.093	20.916	16450	17695	0	780
18.536	18.283	16455	17843	0	780
19.293	17.779	16465	17981	0	780
17.490	12.838	16470	18084	0	780
12.297	10.278	16477	18119	0	780
8.583	7.753	16481	18091	0	780
6.996	7.393	16485	18021	0	780
8.439	7.248	16485	17878	0	780
9.773	7.645	16478	17613	0	780
9.953	5.806	16473	17271	0	780
8.006	6.383	16466	16953	0	780
6.708	8.547	16457	16697	0	780
6.094	8.186	16451	16480	0	780
5.193	7.862	16446	16291	0	780
5.626	4.327	16438	16120	0	780
9.016	4.327	16431	15963	0	780
13.379	8.475	16421	15804	0	780
22.863	16.192	16413	15637	0	780
27.804	23.296	16404	15490	0	780
30.112	27.984	16394	15366	0	780
31.662	26.001	16383	15221	0	780
28.958	25.640	16371	15045	0	780
27.876	25.893	16356	14851	0	780
25.893	26.037	16333	14551	0	780
19.870	23.116	16302	14068	0	780
15.435	18.392	16272	13534	0	780
8.835	10.602	16244	13148	0	780
3.967	4.868	16218	12956	0	780
0.721	0.361	16195	12914	0	780
-1.731	-1.406	16176	12986	0	780
-3.426	-3.101	16159	13150	0	780
-3.678	-3.931	16145	13368	0	780
-2.560	-4.796	16132	13621	0	780
-1.406	-4.111	16122	13923	0	780
-0.180	-3.462	16116	14300	0	780
0.036	-3.029	16111	14717	0	780
-0.793	-3.498	16107	15103	0	780
-1.947	-2.741	16106	15450	0	780
-0.433	-2.416	16103	15797	0	780
2.200	-1.082	16104	16162	0	780
5.986	3.462	16103	16496	0	780
9.160	7.465	16103	16754	0	780
11.540	10.278	16100	16941	0	780
12.225	9.592	16100	17102	0	780
11.504	9.629	16100	17266	0	780
15.939	10.855	16102	17433	0	780
21.168	15.543	16103	17564	0	780
28.705	24.450	16102	17643	0	780
35.016	30.112	16100	17686	0	780
33.970	31.987	16102	17702	0	780
29.859	29.174	16102	17718	0	780
21.637	24.919	16106	17796	0	780
19.293	23.693	16111	17917	0	780
16.084	21.637	16111	17964	0	780
16.877	21.673	16108	17866	0	780
16.336	20.339	16106	17676	0	780
17.598	18.247	16100	17475	0	780
17.815	19.978	16096	17297	0	780
20.952	19.437	16089	17124	0	780
19.978	22.358	16081	16906	0	780
22.683	22.755	16072	16646	0	780
26.037	25.460	16062	16414	0	780
30.869	28.958	16054	16256	0	780
34.620	33.033	16048	16148	0	780
36.459	35.665	16040	16052	0	780
34.764	35.810	16031	15940	0	780
34.259	35.882	16022	15822	0	780
33.429	36.675	16015	15731	0	780
33.934	38.550	16004	15637	0	780
35.521	41.904	15993	15511	0	780
38.875	47.422	15980	15370	0	780
44.464	50.920	15970	15267	0	780
49.116	52.074	15961	15232	0	780
46.520	47.025	15953	15284	0	780
38.658	39.488	15947	15394	0	780
28.669	31.085	15943	15511	0	780
22.034	30.112	15939	15626	0	780
22.827	30.905	15937	15755	0	780
25.496	34.692	15934	15907	0	780
28.128	35.413	15934	16071	0	780
31.338	32.780	15932	16216	0	780
31.266	32.167	15931	16326	0	780
32.853	31.879	15930	16414	0	780
34.006	33.285	15930	16503	0	780
33.033	32.672	15930	16594	0	780
28.345	28.850	15927	16669	0	780
22.178	24.414	15924	16672	0	780
17.634	17.202	15920	16585	0	780
12.045	15.326	15911	16461	0	780
13.127	14.389	15902	16345	0	780
15.903	18.500	15896	16244	0	780
21.962	20.159	15888	16174	0	780
24.089	23.332	15881	16106	0	780
24.991	20.375	15873	16024	0	780
22.575	18.139	15863	15933	0	780
19.834	15.218	15856	15851	0	780
21.385	15.651	15847	15806	0	780
21.313	17.634	15842	15794	0	780
22.322	21.277	15832	15773	0	780
24.414	26.794	15824	15717	0	780
24.522	28.128	15813	15675	0	780
26.902	31.266	15808	15677	0	780
30.833	32.348	15801	15710	0	780
30.220	30.112	15793	15722	0	780
23.729	26.506	15783	15696	0	780
18.464	23.296	15777	15698	0	780
12.045	16.913	15772	15780	0	780
10.458	13.199	15771	15928	0	780
9.052	10.783	15770	16094	0	780
11.396	8.439	15767	16225	0	780
10.494	8.186	15762	16265	0	780
7.681	6.852	15758	16274	0	780
6.419	6.058	15761	16421	0	780
4.544	5.049	15767	16732	0	780
5.373	3.642	15777	17095	0	780
5.517	2.344	15790	17475	0	780
5.950	1.370	15807	17889	0	780
4.147	0.325	15829	18353	0	780
1.947	-0.938	15854	18852	0	780
0.036	-2.164	15875	19278	0	780
3.282	0.613	15896	19538	0	780
7.573	4.255	15919	19707	0	780
11.396	9.124	15945	19927	0	780
12.441	14.605	15970	20213	0	780
10.746	15.254	16000	20491	0	780
14.821	19.257	16032	20744	0	780
17.706	21.529	16064	20974	0	780
25.640	26.506	16096	21142	0	780
29.679	29.968	16129	21229	0	780
30.256	27.696	16165	21337	0	780
26.542	25.388	16205	21522	0	780
23.080	20.916	16240	21653	0	780
18.680	20.375	16272	21601	0	780
17.202	17.670	16303	21409	0	780
11.576	16.300	16332	21184	0	780
7.789	12.369	16362	20962	0	780
5.734	7.321	16387	20716	1	784
7.140	7.970	16411	20391	0	784
12.369	10.422	16433	19985	0	784
20.303	13.848	16452	19590	0	784
22.647	17.166	16476	19252	0	784
22.214	15.939	16493	18910	0	784
15.831	11.720	16509	18489	0	784
15.002	11.540	16520	17983	0	784
16.156	12.189	16528	17456	0	784
23.368	16.156	16536	16969	0	784
31.626	20.808	16543	16526	0	784
34.692	22.142	16547	16099	0	784
33.970	17.959	16550	15663	0	784
31.771	17.021	16551	15253	0	784
29.174	14.894	16551	14907	0	784
28.741	17.346	16554	14640	0	784
28.633	17.887	16554	14434	0	784
27.010	19.293	16552	14230	0	784
26.145	17.057	16551	14017	0	784
25.243	16.949	16549	13834	0	784
24.811	16.372	16547	13705	0	784
26.433	19.401	16542	13607	0	784
25.784	18.933	16539	13523	0	784
24.739	17.923	16535	13478	0	784
24.198	14.353	16531	13464	0	784
18.067	11.071	16527	13457	0	784
14.641	7.645	16522	13459	0	784
10.133	6.022	16515	13459	0	784
9.340	5.445	16505	13448	0	784
11.323	6.491	16493	13366	0	784
11.973	4.977	16476	13141	0	784
11.864	4.400	16452	12846	0	784
8.511	3.534	16432	12612	0	784
6.419	2.741	16409	12457	0	784
6.635	2.308	16387	12331	0	784
6.239	3.029	16366	12246	0	784
7.248	2.416	16344	12225	0	784
4.580	-0.144	16325	12298	0	784
2.813	-0.685	16311	12485	0	784
2.669	1.046	16297	12757	0	784
5.806	4.255	16283	13043	0	784
9.701	8.835	16273	13326	0	784
15.362	15.507	16265	13684	0	784
15.759	17.310	16262	14150	0	784
15.903	17.670	16262	14640	0	784
12.658	14.533	16259	15078	0	784
8.511	9.376	16257	15452	0	784
9.773	8.547	16256	15799	0	784
12.586	8.042	16257	16141	0	784
15.471	11.468	16259	16482	0	784
21.493	15.867	16263	16814	0	784
21.565	19.401	16267	17117	0	784
21.385	19.293	16271	17374	0	784
16.444	17.887	16273	17597	0	784
13.595	17.057	16281	17817	0	784
10.133	13.018	16289	18039	0	784
8.150	9.701	16292	18215	0	784
8.547	10.602	16301	18334	0	784
8.006	9.845	16306	18421	0	784
8.727	9.160	16314	18501	0	784
8.186	11.792	16320	18561	0	784
8.583	10.314	16328	18564	0	784
6.996	8.439	16332	18510	0	784
5.842	5.626	16336	18433	0	784
3.065	1.118	16341	18346	0	784
-0.072	-2.813	16343	18227	0	784
-1.154	-4.688	16343	18053	0	784
0.974	-3.065	16343	17845	0	784
3.606	0.144	16341	17611	0	784
8.979	6.888	16335	17311	0	784
15.002	10.566	16327	16955	0	784
18.139	14.749	16317	16594	0	784
20.880	13.271	16305	16237	0	784
19.762	14.317	16292	15876	0	784
20.772	14.245	16278	15527	0	784
21.385	17.238	16262	15209	0	784
21.601	22.214	16249	14963	0	784
23.296	27.083	16238	14822	0	784
20.303	25.676	16227	14771	0	784
16.228	23.440	16217	14722	0	784
10.458	17.562	16206	14644	0	784
5.445	12.153	16198	14644	0	784
0.613	8.330	16191	14762	0	784
-2.777	7.212	16186	14907	0	784
-3.354	4.977	16180	15010	0	784
-3.065	3.823	16172	15073	0	784
-1.695	2.452	16167	15146	0	784
-2.741	0.288	16160	15244	0	784
-3.570	-0.685	16152	15333	0	784
-2.957	-1.154	16146	15380	0	784
0.288	0.433	16138	15410	0	784
5.698	2.633	16132	15469	0	784
6.635	3.570	16127	15574	0	784
5.157	5.085	16123	15726	0	784
2.452	3.462	16121	15890	0	784
4.075	6.203	16118	16007	0	784
11.576	9.124	16114	16071	0	784
18.428	14.100	16107	16099	0	784
23.332	18.067	16097	16061	0	784
22.647	19.618	16088	15968	0	784
20.050	21.709	16078	15886	0	784
21.349	20.555	16069	15855	0	784
23.044	22.070	16062	15869	0	784
24.234	19.041	16058	15914	0	784
23.260	18.031	16051	15972	0	784
15.687	11.287	16045	16024	0	784
11.396	10.061	16040	16066	0	784
8.619	8.763	16032	16092	0	784
10.422	9.484	16026	16068	0	784
13.415	9.484	16015	16000	0	784
13.379	10.169	16008	15961	0	784
11.432	7.212	16000	15979	0	784
10.350	5.626	15995	16005	0	784
11.432	4.724	15984	15968	0	784
13.127	7.753	15973	15860	0	784
17.490	7.393	15959	15715	0	784
14.497	8.294	15946	15567	0	784
11.468	7.717	15934	15473	0	784
8.619	6.996	15921	15441	0	784
7.609	9.196	15911	15434	0	784
9.520	10.638	15902	15466	0	784
12.225	12.189	15896	15570	0	784
13.920	13.307	15891	15731	0	784
16.012	13.054	15888	15909	0	784
17.634	14.100	15885	16068	0	784
16.192	17.238	15884	16235	0	784
17.166	17.598	15882	16426	0	784
15.254	19.365	15884	16618	0	784
15.398	19.077	15885	16779	0	784
15.687	20.700	15884	16889	0	784
20.519	20.952	15882	16964	0	784
24.234	24.739	15882	17011	0	784
29.571	27.371	15880	17011	0	784
31.013	28.669	15875	16974	0	784
29.499	24.162	15873	16941	0	784
25.676	19.618	15872	16939	0	784
20.664	13.704	15870	16964	0	784
23.080	14.497	15872	17016	0	784
25.460	15.579	15873	17081	0	784
27.876	17.382	15873	17121	0	784
26.542	12.982	15873	17128	0	784
24.883	10.638	15873	17114	0	784
20.627	9.376	15872	17086	0	784
19.762	10.927	15872	17044	0	784
21.854	12.081	15870	16983	0	784
20.519	11.215	15867	16910	0	784
21.998	5.445	15863	16814	0	784
19.041	0.072	15856	16650	0	784
17.093	-1.767	15850	16465	0	784
13.307	-1.082	15848	16388	0	784
14.533	4.868	15846	16419	0	784
16.913	12.189	15845	16412	0	784
21.926	17.995	15837	16314	0	784
24.414	18.067	15832	16178	0	784
25.027	19.005	15827	16075	0	784
28.056	18.680	15821	16036	0	784
29.282	24.630	15820	16052	0	784
36.964	30.761	15817	16092	0	784
38.334	31.807	15815	16120	0	784
37.108	28.850	15815	16162	0	784
32.276	23.188	15816	16253	0	784
25.171	17.093	15817	16393	0	784
17.743	13.127	15824	16576	0	784
12.982	11.684	15832	16784	0	784
10.206	10.530	15840	17025	0	784
9.376	11.323	15854	17311	0	784
15.182	18.824	15869	17641	0	784
20.700	24.125	15884	17971	0	784
24.558	28.958	15902	18262	0	784
25.784	30.364	15923	18543	0	784
24.198	29.859	15946	18868	0	784
21.277	26.758	15973	19236	0	784
18.392	24.306	16000	19604	0	784
18.428	22.647	16030	19910	0	784
16.552	18.356	16058	20156	0	784
16.552	17.454	16088	20369	0	784
13.992	16.552	16119	20557	0	784
16.841	17.202	16152	20709	0	784
17.526	15.903	16181	20819	0	784
22.395	18.356	16214	20885	0	784
25.929	20.159	16244	20889	0	784
30.364	25.207	16273	20821	0	784
36.639	32.744	16301	20681	0	784
38.370	37.072	16324	20465	0	784
36.242	35.016	16346	20189	0	784
28.561	29.391	16367	19885	1	740
21.132	20.050	16386	19566	0	740
13.307	15.759	16404	19227	0	740
14.425	14.172	16419	18847	0	740
13.163	16.300	16431	18428	0	740
12.658	13.776	16440	17969	0	740
8.655	10.458	16444	17435	0	740
5.914	6.167	16446	16875	0	740
7.573	7.248	16452	16423	0	740
10.386	8.186	16458	16103	0	740
13.235	12.550	16460	15806	0	740
12.441	12.009	16460	15464	0	740
9.592	9.989	16459	15082	0	740
7.104	6.419	16455	14719	0	740
7.862	5.806	16450	14403	0	740
9.520	5.265	16447	14146	0	740
11.143	6.599	16439	13923	0	740
12.117	9.052	16433	13715	0	740
7.970	9.088	16427	13544	0	740
6.275	9.376	16420	13445	0	740
4.291	9.340	16416	13403	0	740
9.268	10.061	16408	13373	0	740
13.343	14.894	16400	13326	0	740
16.805	17.274	16390	13272	0	740
19.257	20.880	16382	13221	0	740
14.064	21.385	16370	13169	0	740
10.206	19.798	16356	13118	0	740
8.727	17.454	16340	13036	0	740
9.376	15.615	16318	12865	0	740
7.645	11.432	16298	12651	0	740
7.357	7.898	16276	12541	0	740
5.517	6.780	16259	12572	0	740
3.570	7.068	16244	12675	0	740
3.931	7.825	16229	12820	0	740
4.436	7.862	16216	13019	0	740
3.137	6.491	16203	13251	0	740
0.829	3.390	16192	13488	0	740
-0.144	1.298	16180	13729	0	740
-3.462	-0.361	16169	13986	0	740
-4.760	-1.767	16162	14256	0	740
-4.472	-3.606	16151	14483	0	740
-1.659	-2.777	16142	14670	0	740
2.921	-0.541	16132	14879	0	740
7.862	3.750	16126	15132	0	740
10.674	6.203	16122	15408	0	740
10.314	8.150	16118	15703	0	740
7.393	7.501	16115	16005	0	740
4.616	6.131	16116	16314	0	740
3.606	4.616	16119	16629	0	740
3.570	7.429	16122	16960	0	740
6.239	10.314	16127	17255	0	740
10.133	13.271	16130	17482	0	740
14.100	18.283	16135	17704	0	740
16.372	19.149	16143	17962	0	740
18.644	20.483	16153	18206	0	740
17.057	20.916	16160	18381	0	740
18.320	21.962	16167	18496	0	740
19.365	21.673	16175	18573	0	740
20.411	20.916	16181	18641	0	740
22.755	19.221	16191	18702	0	740
19.149	13.992	16199	18723	0	740
18.572	8.330	16202	18646	0	740
18.031	7.970	16202	18444	0	740
22.070	9.592	16202	18191	0	740
24.378	13.704	16205	17997	0	740
25.820	16.841	16206	17875	0	740
22.503	14.245	16208	17754	0	740
15.507	9.088	16208	17611	0	740
18.536	7.717	16210	17461	0	740
22.070	9.088	16208	17297	0	740
26.938	11.071	16208	17112	0	740
30.761	13.307	16206	16922	0	740
26.578	12.045	16203	16737	0	740
21.781	9.376	16203	16580	0	740
17.706	11.143	16199	16463	0	740
20.916	14.858	16198	16377	0	740
22.683	16.552	16197	16288	0	740
24.486	18.139	16195	16197	0	740
22.575	13.199	16192	16120	0	740
17.454	11.035	16190	16052	0	740
15.651	10.314	16190	16014	0	740
14.064	12.586	16191	16050	0	740
17.310	18.139	16191	16110	0	740
17.670	17.743	16188	16078	0	740
16.444	17.887	16181	15918	0	740
19.077	15.146	16175	15705	0	740
18.680	15.867	16165	15527	0	740
21.818	15.759	16160	15415	0	740
22.322	14.425	16152	15354	0	740
18.247	13.668	16145	15305	0	740
13.018	8.655	16135	15228	0	740
7.970	4.219	16127	15139	0	740
6.563	4.796	16119	15068	0	740
8.979	4.796	16110	15019	0	740
13.776	7.248	16099	14975	0	740
16.192	10.314	16089	14930	0	740
16.985	9.701	16078	14907	0	740
13.415	8.583	16070	14914	0	740
8.835	6.058	16062	14961	0	740
8.294	4.760	16054	15005	0	740
8.402	7.465	16043	15010	0	740
10.746	11.179	16032	15005	0	740
14.677	16.156	16023	15017	0	740
15.038	17.634	16012	15024	0	740
15.254	19.257	16002	15040	0	740
16.985	17.166	15995	15115	0	740
17.670	17.851	15986	15251	0	740
20.339	18.283	15984	15399	0	740
20.988	20.808	15978	15553	0	740
20.195	20.555	15973	15712	0	740
20.700	19.798	15969	15853	0	740
19.149	19.041	15965	15958	0	740
19.762	17.562	15959	16033	0	740
16.156	14.172	15953	16094	0	740
11.937	11.396	15947	16150	0	740
3.642	6.924	15943	16207	0	740
-0.397	2.885	15939	16263	0	740
-3.570	0.072	15932	16298	0	740
-1.803	-0.072	15923	16265	0	740
0.433	1.839	15913	16178	0	740
4.111	3.859	15907	16113	0	740
6.527	6.455	15897	16078	0	740
9.809	8.114	15889	16052	0	740
12.045	6.347	15882	16033	0	740
11.720	4.255	15872	16000	0	740
10.350	2.524	15862	15947	0	740
6.671	3.823	15856	15928	0	740
7.501	4.940	15847	15965	0	740
10.746	9.016	15840	16003	0	740
16.012	13.199	15832	16000	0	740
23.765	16.156	15826	15996	0	740
26.073	20.050	15820	16024	0	740
24.630	20.087	15813	16080	0	740
22.142	20.447	15808	16146	0	740
16.300	17.454	15804	16202	0	740
13.054	17.057	15801	16263	0	740
11.143	15.182	15797	16359	0	740
13.271	15.543	15797	16501	0	740
13.668	12.045	15798	16665	0	740
11.396	8.871	15796	16756	0	740
8.366	5.409	15789	16693	0	740
5.878	2.633	15781	16538	0	740
4.760	2.092	15774	16449	0	740
6.491	2.019	15771	16470	0	740
8.475	3.426	15767	16505	0	740
10.242	4.436	15764	16536	0	740
10.674	3.498	15763	16601	0	740
10.386	3.859	15763	16709	0	740
10.278	2.524	15764	16798	0	740
9.520	1.226	15767	16880	0	740
8.475	2.164	15771	17023	0	740
8.907	2.056	15778	17222	0	740
11.684	3.354	15786	17437	0	740
14.317	5.373	15797	17672	0	740
17.202	8.330	15809	17936	0	740
23.188	12.766	15827	18227	0	740
28.020	18.536	15846	18522	0	740
28.850	18.464	15863	18812	0	740
26.686	18.572	15885	19095	0	740
23.260	15.759	15908	19369	0	740
17.670	14.461	15934	19643	0	740
17.959	14.317	15961	19915	0	740
22.755	19.185	15986	20135	0	740
27.407	22.286	16016	20290	0	740
32.023	23.765	16043	20440	0	740
32.889	22.755	16075	20608	0	740
28.777	17.923	16107	20770	0	740
26.217	15.651	16138	20868	0	740
22.070	12.910	16168	20880	0	740
20.844	13.379	16198	20861	0	740
20.844	16.408	16230	20847	0	740
19.762	15.182	16262	20819	0	740
19.762	15.074	16292	20732	0	740
17.562	12.009	16318	20571	1	692
15.651	10.097	16344	20330	0	692
12.369	12.189	16364	19995	0	692
9.737	15.254	16384	19608	0	692
11.900	22.575	16402	19252	0	692
12.550	26.433	16421	18924	0	692
15.110	28.453	16440	18597	0	692
16.841	27.768	16455	18280	0	692
13.091	28.128	16474	18002	0	692
14.713	29.427	16490	17749	0	692
15.218	33.141	16504	17470	0	692
17.995	34.331	16517	17159	0	692
17.815	32.816	16528	16850	0	692
17.021	30.076	16538	16552	0	692
14.136	29.066	16547	16265	0	692
15.471	31.735	16552	15963	0	692
19.329	35.269	16558	15647	0	692
22.322	39.488	16561	15331	0	692
22.863	36.314	16561	15038	0	692
19.942	30.581	16563	14806	0	692
12.658	23.873	16569	14696	0	692
10.638	20.736	16574	14670	0	692
11.576	22.322	16576	14588	0	692
12.910	24.558	16571	14380	0	692
15.398	22.719	16565	14110	0	692
12.730	18.464	16560	13862	0	692
8.078	9.917	16552	13673	0	692
5.878	6.780	16544	13532	0	692
6.960	6.599	16536	13415	0	692
9.376	9.737	16525	13288	0	692
11.792	11.071	16513	13164	0	692
12.225	10.999	16504	13082	0	692
9.520	9.016	16492	13050	0	692
8.150	9.845	16477	13014	0	692
8.979	11.179	16463	12942	0	692
13.776	15.579	16447	12876	0	692
16.084	16.661	16433	12874	0	692
19.762	18.536	16420	12918	0	692
18.320	15.867	16404	12968	0	692
16.733	15.579	16387	13000	0	692
12.730	14.425	16374	13059	0	692
13.740	14.497	16360	13192	0	692
14.533	17.274	16349	13415	0	692
12.874	15.362	16341	13689	0	692
12.550	14.533	16335	13970	0	692
7.825	10.999	16327	14258	0	692
5.013	7.537	16322	14570	0	692
4.255	8.943	16321	14909	0	692
5.193	11.251	16317	15263	0	692
8.691	14.172	16318	15593	0	692
10.999	16.661	16317	15895	0	692
11.540	14.749	16320	16199	0	692
13.920	13.956	16321	16512	0	692
15.398	12.225	16327	16824	0	692
15.615	12.694	16332	17117	0	692
16.697	14.930	16336	17381	0	692
13.740	14.641	16340	17559	0	692
10.061	14.100	16341	17613	0	692
7.140	12.441	16340	17585	0	692
5.662	8.835	16338	17552	0	692
7.681	8.979	16340	17533	0	692
11.612	10.386	16338	17510	0	692
15.074	11.215	16336	17468	0	692
14.425	9.484	16337	17430	0	692
14.172	9.088	16340	17444	0	692
12.586	8.078	16341	17480	0	692
12.477	10.025	16341	17461	0	692
15.507	12.802	16340	17358	0	692
14.821	14.641	16336	17189	0	692
12.946	10.855	16330	17009	0	692
8.475	6.563	16328	16866	0	692
6.599	5.193	16324	16756	0	692
7.609	6.058	16317	16618	0	692
10.927	7.970	16311	16426	0	692
13.271	10.458	16301	16244	0	692
14.930	15.074	16298	16113	0	692
18.139	17.057	16291	16031	0	692
19.798	19.690	16283	15963	0	692
21.529	22.395	16278	15886	0	692
21.565	23.585	16272	15808	0	692
19.401	20.627	16265	15764	0	692
21.204	21.745	16262	15769	0	692
24.414	26.686	16257	15801	0	692
30.004	31.554	16252	15804	0	692
35.846	36.964	16245	15757	0	692
37.901	40.750	16237	15682	0	692
36.747	43.887	16230	15626	0	692
37.288	43.022	16224	15621	0	692
37.036	43.743	16217	15637	0	692
37.577	44.501	16211	15640	0	692
39.740	46.917	16205	15635	0	692
41.327	48.107	16199	15642	0	692
44.717	49.405	16194	15677	0	692
46.484	50.775	16190	15752	0	692
46.159	47.025	16186	15841	0	692
43.166	41.111	16180	15874	0	692
40.498	36.855	16169	15804	0	692
35.521	34.043	16159	15670	0	692
33.393	32.997	16149	15560	0	692
32.059	34.908	16140	15497	0	692
30.689	36.675	16127	15448	0	692
26.650	35.449	16115	15377	0	692
24.702	31.410	16104	15293	0	692
24.558	25.496	16094	15279	0	692
24.811	20.339	16088	15384	0	692
24.883	20.339	16083	15539	0	692
24.883	20.880	16077	15647	0	692
23.909	25.856	16069	15694	0	692
17.959	25.640	16062	15738	0	692
15.723	24.234	16057	15825	0	692
13.956	21.457	16053	15949	0	692
18.247	20.303	16050	16073	0	692
21.277	23.080	16046	16174	0	692
27.299	27.732	16042	16246	0	692
29.318	31.771	16034	16244	0	692
25.207	29.715	16024	16171	0	692
22.791	28.056	16018	16113	0	692
21.601	24.450	16010	16094	0	692
23.080	25.316	16004	16087	0	692
24.919	25.820	15995	16087	0	692
26.073	26.470	15991	16118	0	692
21.998	23.368	15984	16160	0	692
17.274	19.870	15976	16139	0	692
16.048	16.949	15962	15989	0	692
16.192	19.329	15949	15785	0	692
20.916	19.473	15938	15675	0	692
21.962	21.818	15928	15689	0	692
24.702	21.709	15921	15736	0	692
23.909	22.972	15913	15787	0	692
24.775	24.919	15910	15860	0	692
26.361	24.089	15904	15963	0	692
27.768	23.837	15901	16089	0	692
27.696	22.503	15900	16253	0	692
26.722	18.644	15900	16423	0	692
26.758	17.598	15897	16536	0	692
26.397	16.444	15891	16540	0	692
26.361	18.031	15886	16475	0	692
25.676	15.867	15878	16414	0	692
25.748	16.841	15872	16384	0	692
26.145	13.559	15866	16363	0	692
26.037	11.828	15858	16314	0	692
26.830	8.150	15853	16265	0	692
27.948	7.429	15848	16303	0	692
27.299	7.068	15850	16440	0	692
27.479	9.448	15848	16601	0	692
27.010	10.566	15848	16697	0	692
26.938	10.061	15845	16721	0	692
28.128	6.599	15845	16730	0	692
31.951	4.940	15843	16772	0	692
36.964	4.075	15845	16838	0	692
40.317	6.058	15842	16875	0	692
39.957	6.960	15840	16871	0	692
36.747	3.895	15839	16871	0	692
33.934	-0.721	15842	16924	0	692
33.069	-4.688	15846	17053	0	692
33.970	-4.544	15854	17236	0	692
36.639	-1.731	15861	17433	0	692
39.957	1.118	15873	17658	0	692
41.940	3.101	15888	17939	0	692
42.589	2.200	15907	18283	0	692
41.363	-1.010	15927	18648	0	692
40.029	-4.327	15950	18988	0	692
37.757	-7.104	15973	19302	0	692
37.613	-6.888	16002	19625	0	692
38.262	-4.940	16031	19976	0	692
39.452	-5.013	16064	20325	0	692
40.894	-2.380	16096	20618	0	692
39.993	-1.406	16129	20840	0	692
41.039	-1.370	16161	21021	0	692
39.776	-2.885	16197	21170	0	692
36.098	-3.750	16230	21280	0	692
35.016	-7.717	16263	21323	0	692
31.662	-8.222	16297	21302	0	692
30.436	-10.350	16327	21217	0	692
27.912	-11.792	16355	21037	0	692
27.768	-12.261	16382	20800	0	692
29.427	-15.326	16412	20629	1	704
29.463	-14.064	16443	20522	0	704
30.400	-12.838	16469	20341	0	704
26.650	-14.677	16495	20044	0	704
22.106	-13.487	16516	19683	0	704
22.575	-14.245	16538	19323	0	704
23.476	-11.287	16560	18992	0	704
28.092	-7.862	16580	18702	0	704
31.662	-4.940	16601	18442	0	704
28.561	-4.255	16620	18180	0	704
25.099	-4.291	16639	17910	0	704
21.313	-3.895	16658	17634	0	704
23.512	-2.056	16672	17332	0	704
24.089	2.560	16684	16990	0	704
28.561	4.291	16693	16611	0	704
30.292	6.094	16700	16230	0	704
29.102	3.967	16707	15876	0	704
28.850	5.554	16711	15530	0	704
27.696	6.888	16711	15155	0	704
28.814	10.602	16711	14780	0	704
27.696	12.802	16710	14452	0	704
25.965	12.297	16708	14190	0	704
23.909	9.845	16710	14012	0	704
20.159	6.167	16707	13900	0	704
20.519	4.904	16707	13799	0	704
20.087	3.498	16704	13691	0	704
19.942	6.311	16700	13588	0	704
20.375	5.301	16696	13511	0	704
15.579	5.409	16693	13476	0	704
14.245	3.318	16688	13459	0	704
14.569	1.190	16682	13452	0	704
15.362	2.488	16677	13473	0	704
18.175	4.832	16672	13518	0	704
17.743	5.049	16668	13591	0	704
16.841	7.537	16665	13712	0	704
13.163	4.400	16660	13822	0	704
13.704	4.472	16650	13811	0	704
14.208	7.609	16638	13722	0	704
17.706	10.422	16626	13673	0	704
19.401	16.084	16615	13687	0	704
21.962	16.192	16604	13733	0	704
19.798	16.336	16595	13792	0	704
19.041	11.432	16581	13820	0	704
16.625	8.294	16568	13825	0	704
16.120	7.645	16554	13862	0	704
15.759	11.648	16544	13954	0	704
19.041	15.002	16535	14099	0	704
20.267	20.231	16527	14277	0	704
21.962	20.952	16517	14455	0	704
18.320	20.267	16511	14642	0	704
15.254	14.894	16504	14865	0	704
9.881	12.477	16503	15141	0	704
8.907	11.179	16503	15450	0	704
11.540	10.710	16501	15740	0	704
14.172	15.543	16501	16003	0	704
19.329	19.870	16504	16279	0	704
20.483	25.279	16506	16578	0	704
22.755	27.191	16512	16861	0	704
23.873	29.427	16516	17091	0	704
25.207	29.138	16520	17280	0	704
26.433	26.506	16525	17463	0	704
24.558	24.775	16531	17646	0	704
18.933	20.772	16536	17793	0	704
13.487	18.103	16541	17871	0	704
7.501	13.956	16544	17889	0	704
5.193	14.785	16549	17894	0	704
9.232	16.552	16554	17906	0	704
16.697	22.791	16560	17929	0	704
23.657	28.417	16563	17953	0	704
27.479	32.997	16569	17960	0	704
26.794	35.088	16573	17915	0	704
23.188	33.898	16576	17812	0	704
19.582	33.357	16576	17672	0	704
20.916	33.141	16576	17501	0	704
19.510	32.492	16576	17323	0	704
17.851	28.886	16571	17131	0	704
12.225	25.568	16565	16873	0	704
9.268	20.159	16558	16590	0	704
7.934	18.356	16555	16400	0	704
8.006	18.139	16551	16288	0	704
8.294	19.473	16544	16125	0	704
3.534	17.779	16535	15893	0	704
-0.721	16.913	16524	15644	0	704
-4.472	15.074	16513	15424	0	704
-2.524	18.428	16505	15260	0	704
-0.902	22.539	16495	15148	0	704
0.721	28.128	16482	15026	0	704
1.659	29.354	16470	14855	0	704
0.541	27.587	16455	14694	0	704
-2.092	26.650	16446	14609	0	704
-2.272	25.712	16433	14598	0	704
0.397	30.148	16425	14616	0	704
5.265	35.774	16413	14635	0	704
11.215	42.481	16404	14661	0	704
18.788	46.448	16393	14701	0	704
18.644	49.693	16383	14731	0	704
17.418	47.999	16371	14740	0	704
9.773	42.914	16356	14717	0	704
2.813	36.314	16340	14616	0	704
-3.750	29.030	16324	14485	0	704
-7.862	22.719	16308	14457	0	704
-12.081	18.969	16298	14562	0	704
-13.992	14.569	16286	14717	0	704
-19.834	12.333	16279	14883	0	704
-20.555	8.511	16272	15073	0	704
-24.414	5.157	16267	15300	0	704
-24.847	3.931	16262	15551	0	704
-24.991	6.131	16262	15804	0	704
-25.748	8.763	16257	16033	0	704
-22.827	13.163	16255	16214	0	704
-17.490	15.471	16251	16338	0	704
-14.605	15.435	16245	16421	0	704
-13.199	10.855	16241	16491	0	704
-14.100	8.907	16236	16545	0	704
-18.103	7.176	16229	16559	0	704
-17.634	7.393	16219	16496	0	704
-16.877	9.556	16208	16384	0	704
-10.386	14.317	16199	16296	0	704
-5.049	17.706	16191	16267	0	704
-1.695	17.382	16184	16272	0	704
-0.288	18.139	16175	16251	0	704
-1.551	15.398	16164	16169	0	704
-2.705	17.634	16151	16031	0	704
-1.010	19.401	16138	15867	0	704
1.731	23.801	16125	15759	0	704
3.606	25.712	16114	15726	0	704
1.875	22.719	16104	15722	0	704
-2.308	19.473	16095	15738	0	704
-8.006	13.668	16088	15799	0	704
-11.071	11.937	16081	15890	0	704
-10.169	10.963	16075	15965	0	704
-8.150	10.206	16068	16005	0	704
-4.760	14.894	16062	16068	0	704
-0.180	16.300	16058	16195	0	704
4.219	21.745	16057	16359	0	704
8.691	23.801	16056	16522	0	704
12.622	24.089	16054	16655	0	704
12.658	20.844	16053	16756	0	704
10.025	14.713	16056	16857	0	704
6.924	11.973	16054	16976	0	704
5.698	10.242	16054	17095	0	704
4.868	9.196	16056	17196	0	704
4.904	10.494	16060	17285	0	704
7.393	12.189	16061	17360	0	704
9.160	13.127	16062	17414	0	704
12.297	17.815	16064	17444	0	704
11.287	17.274	16064	17435	0	704
9.340	17.093	16064	17353	0	704
5.986	13.595	16056	17161	0	704
5.121	9.701	16048	16894	0	704
7.357	10.061	16040	16662	0	704
9.088	11.684	16032	16508	0	704
10.638	13.415	16027	16398	0	704
9.376	15.398	16021	16305	0	704
6.311	13.271	16012	16169	0	704
0.469	11.900	16003	15993	0	704
-4.147	7.429	15996	15865	0	704
-7.068	5.481	15986	15799	0	704
-6.167	4.652	15980	15729	0	704
0.721	6.816	15966	15602	0	704
8.979	13.127	15959	15485	0	704
14.100	16.589	15954	15492	0	704
12.441	15.471	15953	15649	0	704
10.999	12.333	15956	15904	0	704
7.140	6.058	15959	16204	0	704
4.940	4.003	15967	16526	0	704
8.583	6.347	15981	16903	0	704
10.206	10.819	15995	17332	0	704
14.533	14.136	16015	17796	0	704
12.477	15.002	16037	18271	0	704
12.477	13.740	16060	18749	0	704
10.999	10.278	16088	19217	0	704
8.907	5.229	16119	19688	0	704
5.049	1.731	16153	20194	0	704
2.813	-1.659	16191	20702	0	704
-2.344	-7.032	16229	21131	0	704
-4.868	-8.475	16267	21463	0	704
-4.364	-8.799	16306	21746	0	704
0.288	-7.032	16346	22011	0	704
4.832	-3.823	16387	22234	0	704
6.599	-0.902	16427	22353	0	704
9.448	-2.128	16462	22332	0	704
10.133	-1.298	16493	22135	0	704
8.006	-0.577	16523	21807	0	704
7.681	1.731	16550	21487	0	704
7.285	2.380	16582	21238	1	740
8.294	6.671	16612	21006	0	740
11.360	10.927	16638	20725	0	740
20.447	18.500	16664	20358	0	740
25.207	26.433	16685	19932	0	740
28.814	27.335	16706	19503	0	740
27.660	24.991	16726	19084	0	740
25.135	22.286	16744	18658	0	740
22.863	20.627	16758	18213	0	740
24.450	23.368	16773	17761	0	740
23.116	25.748	16784	17330	0	740
20.339	24.991	16796	16946	0	740
14.569	17.526	16809	16611	0	740
4.652	12.189	16818	16286	0	740
-0.288	5.517	16825	15930	0	740
-2.308	2.236	16830	15577	0	740
-1.875	2.921	16836	15256	0	740
0.541	5.193	16840	14979	0	740
1.334	4.760	16842	14731	0	740
0.685	6.239	16844	14488	0	740
0.108	5.554	16845	14272	0	740
0.469	6.347	16845	14110	0	740
3.678	8.727	16847	13998	0	740
7.357	11.179	16845	13902	0	740
11.071	14.461	16845	13808	0	740
13.487	16.661	16844	13743	0	740
13.848	19.221	16842	13726	0	740
16.048	18.752	16844	13764	0	740
15.723	19.978	16844	13834	0	740
16.228	19.293	16842	13897	0	740
19.437	21.204	16841	13940	0	740
18.969	23.621	16838	13977	0	740
21.637	27.263	16837	14036	0	740
23.981	28.561	16834	14110	0	740
21.204	28.056	16831	14195	0	740
20.627	24.270	16831	14286	0	740
15.723	20.772	16828	14375	0	740
14.064	17.418	16823	14445	0	740
7.681	12.910	16818	14492	0	740
5.049	9.484	16814	14516	0	740
3.570	6.852	16806	14530	0	740
4.111	5.157	16801	14548	0	740
8.979	6.816	16792	14586	0	740
11.720	8.979	16787	14640	0	740
11.540	11.937	16780	14696	0	740
11.576	10.494	16772	14747	0	740
8.547	10.350	16766	14801	0	740
9.448	9.304	16758	14865	0	740
11.684	12.261	16754	14975	0	740
12.009	13.956	16754	15171	0	740
13.379	15.867	16754	15448	0	740
16.084	18.716	16756	15698	0	740
16.084	19.257	16752	15834	0	740
19.149	21.132	16747	15860	0	740
19.149	23.729	16744	15862	0	740
20.916	21.529	16738	15902	0	740
19.005	18.897	16736	15968	0	740
21.709	14.569	16731	16017	0	740
22.899	16.156	16725	16033	0	740
25.820	16.985	16720	16068	0	740
23.224	19.942	16719	16148	0	740
16.661	15.831	16717	16235	0	740
9.665	13.884	16714	16284	0	740
6.960	10.494	16708	16288	0	740
11.396	10.566	16706	16286	0	740
19.221	14.136	16703	16312	0	740
22.467	11.396	16701	16382	0	740
21.204	8.042	16700	16458	0	740
19.798	4.868	16695	16484	0	740
21.204	6.924	16692	16449	0	740
27.912	10.999	16688	16407	0	740
31.122	14.641	16687	16395	0	740
29.787	15.038	16681	16400	0	740
21.818	8.655	16676	16384	0	740
15.651	3.426	16672	16352	0	740
11.143	0.829	16666	16312	0	740
13.415	3.282	16662	16265	0	740
14.677	5.085	16655	16218	0	740
16.156	6.599	16653	16199	0	740
18.175	5.517	16647	16207	0	740
15.146	2.344	16641	16171	0	740
12.874	-0.938	16633	16040	0	740
5.373	-4.508	16620	15844	0	740
-0.902	-6.996	16609	15670	0	740
-2.777	-7.573	16597	15551	0	740
2.236	-4.183	16585	15434	0	740
10.314	2.019	16570	15272	0	740
16.913	7.717	16555	15089	0	740
13.668	8.511	16541	14940	0	740
5.373	5.626	16527	14853	0	740
-3.318	1.082	16513	14829	0	740
-6.816	-0.938	16500	14832	0	740
-2.957	-0.865	16487	14829	0	740
3.498	2.488	16477	14869	0	740
7.934	6.383	16467	14970	0	740
8.475	8.042	16459	15082	0	740
7.321	9.304	16447	15167	0	740
2.957	6.239	16438	15223	0	740
-2.993	1.479	16430	15286	0	740
-7.681	-4.147	16419	15387	0	740
-11.540	-7.789	16412	15518	0	740
-12.441	-8.006	16404	15621	0	740
-7.825	-6.527	16393	15649	0	740
-5.157	-4.255	16382	15600	0	740
-4.291	-6.094	16368	15534	0	740
-8.943	-9.556	16356	15520	0	740
-11.504	-10.386	16347	15570	0	740
-12.405	-11.107	16336	15633	0	740
-8.943	-6.635	16327	15694	0	740
-2.380	-0.216	16320	15776	0	740
3.246	4.508	16311	15886	0	740
5.626	7.898	16308	16022	0	740
7.573	8.691	16299	16143	0	740
11.648	10.242	16291	16178	0	740
13.163	11.468	16281	16115	0	740
17.310	13.235	16270	16054	0	740
17.346	16.480	16260	16052	0	740
15.435	15.362	16251	16064	0	740
15.362	16.985	16243	16068	0	740
12.730	15.651	16232	16082	0	740
12.802	16.480	16224	16101	0	740
9.809	12.694	16216	16122	0	740
6.888	6.419	16208	16150	0	740
2.128	2.164	16200	16197	0	740
2.092	-0.649	16194	16230	0	740
3.246	0.216	16183	16202	0	740
5.193	2.344	16172	16129	0	740
7.537	4.868	16162	16073	0	740
7.285	6.203	16153	16064	0	740
7.501	9.160	16146	16082	0	740
11.396	12.189	16134	16071	0	740
17.021	19.041	16123	16000	0	740
21.313	20.808	16114	15937	0	740
23.476	23.873	16106	15949	0	740
24.450	22.791	16100	16031	0	740
20.844	20.736	16094	16134	0	740
19.185	18.464	16088	16225	0	740
13.054	14.858	16086	16321	0	740
8.402	10.674	16083	16433	0	740
3.714	8.439	16081	16561	0	740
2.813	4.400	16080	16704	0	740
5.085	3.787	16080	16838	0	740
5.806	3.678	16080	16955	0	740
4.436	0.397	16081	17074	0	740
-0.902	-7.140	16086	17215	0	740
-6.816	-14.641	16088	17344	0	740
-10.097	-17.526	16089	17412	0	740
-9.088	-17.526	16088	17421	0	740
-3.029	-10.566	16089	17407	0	740
2.164	-5.481	16089	17388	0	740
6.022	-1.442	16089	17358	0	740
4.544	-1.046	16088	17299	0	740
2.849	-0.938	16086	17215	0	740
2.633	0.757	16084	17131	0	740
5.626	2.488	16081	17046	0	740
7.789	5.229	16076	16913	0	740
8.943	3.173	16064	16625	0	740
6.527	3.462	16048	16164	0	740
3.642	1.767	16027	15677	0	740
4.183	3.246	16010	15317	0	740
7.104	9.304	15996	15103	0	740
11.612	15.218	15983	14989	0	740
15.543	19.906	15969	14925	0	740
16.408	21.709	15959	14897	0	740
18.608	22.395	15949	14886	0	740
17.923	22.106	15938	14893	0	740
19.257	21.565	15930	14954	0	740
17.887	22.719	15924	15101	0	740
15.110	18.283	15924	15342	0	740
9.268	15.723	15924	15637	0	740
5.265	9.052	15926	15928	0	740
2.308	4.760	15930	16216	0	740
2.092	1.479	15938	16550	0	740
4.183	3.498	15949	16962	0	740
6.311	4.760	15964	17412	0	740
7.789	6.275	15981	17852	0	740
8.330	7.501	15997	18278	0	740
10.278	8.402	16022	18711	0	740
14.641	8.439	16046	19168	0	740
19.978	14.533	16073	19625	0	740
26.794	18.356	16102	20042	0	740
30.148	23.044	16133	20423	0	740
30.436	20.627	16167	20793	0	740
25.171	17.526	16203	21161	0	740
20.087	11.251	16241	21522	0	740
16.841	8.330	16282	21845	0	740
15.290	8.727	16320	22072	0	740
19.401	11.720	16351	22093	0	740
22.467	13.415	16382	21939	0	740
25.640	16.336	16412	21772	0	740
27.515	15.146	16444	21639	0	740
27.155	15.110	16473	21489	0	740
28.741	13.956	16504	21306	1	768
30.941	16.805	16532	21079	0	768
31.807	16.589	16562	20847	0	768
32.312	19.582	16596	20693	0	768
31.771	18.897	16626	20557	0	768
29.427	18.716	16652	20283	0	768
28.814	17.166	16673	19843	0	768
28.417	18.247	16691	19330	0	768
28.850	17.382	16707	18833	0	768
29.138	17.670	16723	18386	0	768
28.886	17.310	16738	17969	0	768
28.669	18.969	16752	17571	0	768
27.840	18.211	16765	17196	0	768
24.125	18.175	16779	16871	0	768
19.005	12.009	16791	16571	0	768
11.828	7.176	16799	16253	0	768
4.544	1.515	16806	15904	0	768
0.577	-1.154	16811	15548	0	768
-0.288	-1.118	16815	15218	0	768
0.469	-0.180	16817	14928	0	768
2.128	0.757	16819	14656	0	768
2.633	1.082	16819	14399	0	768
1.515	1.442	16817	14157	0	768
2.128	5.121	16818	13951	0	768
2.777	12.477	16815	13808	0	768
4.291	20.519	16814	13745	0	768
3.931	26.397	16815	13724	0	768
3.029	27.083	16812	13684	0	768
1.262	22.106	16809	13593	0	768
-0.180	19.401	16795	13389	0	768
1.010	21.565	16783	13132	0	768
1.082	24.342	16772	12968	0	768
2.272	27.083	16760	12907	0	768
2.200	26.397	16752	12886	0	768
2.308	21.421	16741	12918	0	768
1.406	17.851	16731	13026	0	768
3.318	17.346	16727	13197	0	768
2.885	14.966	16722	13406	0	768
4.472	14.389	16718	13623	0	768
5.842	16.048	16712	13834	0	768
7.645	17.238	16708	14043	0	768
8.619	21.890	16706	14256	0	768
10.278	23.188	16700	14457	0	768
9.701	24.053	16698	14640	0	768
9.556	24.053	16691	14790	0	768
12.802	24.234	16682	14862	0	768
21.421	30.977	16674	14888	0	768
29.787	38.658	16669	15000	0	768
37.793	43.815	16665	15197	0	768
40.173	48.467	16660	15373	0	768
38.478	48.900	16655	15488	0	768
35.665	45.582	16650	15565	0	768
32.853	43.347	16645	15642	0	768
31.049	38.803	16639	15759	0	768
25.279	33.574	16641	15935	0	768
21.601	28.922	16639	16139	0	768
21.529	26.614	16638	16324	0	768
21.926	23.837	16642	16501	0	768
24.053	25.460	16645	16702	0	768
24.017	27.443	16646	16894	0	768
19.690	26.253	16649	17028	0	768
18.608	25.965	16652	17088	0	768
17.490	25.856	16649	17105	0	768
22.106	25.893	16650	17112	0	768
24.919	24.919	16652	17133	0	768
23.837	26.073	16650	17149	0	768
22.034	23.873	16647	17114	0	768
16.841	19.149	16647	17049	0	768
15.939	17.706	16646	17004	0	768
16.516	17.959	16646	16995	0	768
22.034	21.709	16647	17009	0	768
22.683	26.433	16650	17037	0	768
24.883	27.912	16649	17028	0	768
25.424	29.715	16642	16887	0	768
25.676	30.508	16635	16634	0	768
25.279	31.951	16630	16407	0	768
24.306	34.403	16619	16242	0	768
20.772	31.735	16612	16089	0	768
12.586	24.378	16603	15933	0	768
7.212	13.487	16592	15743	0	768
3.065	5.662	16580	15511	0	768
1.731	4.183	16563	15258	0	768
4.544	4.616	16549	15017	0	768
5.517	6.780	16534	14832	0	768
4.760	6.708	16517	14689	0	768
1.262	3.282	16503	14567	0	768
-3.210	0.288	16489	14518	0	768
-3.895	-0.361	16479	14567	0	768
-1.875	0.685	16470	14691	0	768
2.560	4.075	16465	14855	0	768
7.104	6.311	16457	14998	0	768
8.979	7.934	16450	15108	0	768
10.746	8.402	16441	15235	0	768
10.422	6.275	16439	15403	0	768
8.186	4.039	16432	15565	0	768
6.527	3.498	16425	15675	0	768
7.068	2.993	16420	15759	0	768
8.006	7.212	16416	15858	0	768
10.530	10.494	16411	15965	0	768
12.045	11.576	16405	16054	0	768
10.458	9.520	16398	16113	0	768
5.481	4.904	16392	16153	0	768
5.481	3.210	16387	16209	0	768
5.806	4.183	16385	16310	0	768
7.753	7.321	16383	16426	0	768
7.789	7.898	16379	16508	0	768
4.652	5.950	16375	16545	0	768
0.613	2.488	16371	16559	0	768
-0.361	-0.288	16367	16578	0	768
1.334	1.082	16363	16590	0	768
4.039	2.128	16356	16569	0	768
6.924	4.147	16352	16533	0	768
7.032	6.311	16347	16519	0	768
8.871	8.763	16343	16522	0	768
12.586	15.038	16337	16522	0	768
18.103	20.159	16332	16496	0	768
25.316	28.489	16327	16440	0	768
28.453	30.905	16318	16373	0	768
27.515	31.158	16313	16298	0	768
23.512	27.660	16301	16178	0	768
21.096	23.440	16284	15909	0	768
19.690	22.755	16263	15499	0	768
22.286	22.683	16238	15064	0	768
26.361	22.322	16214	14682	0	768
26.614	22.539	16191	14387	0	768
25.784	17.851	16169	14225	0	768
26.542	17.598	16154	14207	0	768
28.922	16.877	16140	14298	0	768
31.230	19.942	16130	14450	0	768
32.708	20.483	16122	14637	0	768
30.364	20.447	16115	14902	0	768
26.361	17.238	16113	15242	0	768
24.847	17.166	16111	15581	0	768
27.407	18.175	16110	15853	0	768
30.436	22.034	16104	16033	0	768
32.816	28.345	16100	16171	0	768
32.816	30.653	16096	16326	0	768
31.049	31.194	16095	16501	0	768
35.737	32.564	16094	16658	0	768
42.661	36.891	16089	16756	0	768
48.251	41.652	16086	16805	0	768
50.667	42.697	16083	16854	0	768
41.255	37.901	16083	16953	0	768
27.912	26.650	16083	17086	0	768
17.598	13.091	16081	17196	0	768
12.694	9.773	16083	17269	0	768
16.733	12.045	16083	17318	0	768
20.303	15.398	16081	17339	0	768
21.781	20.087	16080	17316	0	768
17.490	17.887	16077	17257	0	768
16.264	18.356	16075	17187	0	768
15.038	16.769	16072	17128	0	768
18.788	19.437	16069	17088	0	768
18.897	18.752	16068	17056	0	768
17.490	19.834	16065	17023	0	768
12.514	17.274	16065	16985	0	768
11.323	18.428	16061	16920	0	768
14.569	20.231	16054	16777	0	768
18.283	23.260	16048	16573	0	768
21.132	26.902	16040	16393	0	768
21.745	27.804	16032	16274	0	768
18.680	28.381	16024	16171	0	768
20.988	27.696	16016	16033	0	768
22.972	29.102	16007	15897	0	768
26.361	32.384	16004	15860	0	768
26.217	35.413	15999	15925	0	768
21.998	33.357	15999	16010	0	768
14.245	27.551	15993	16052	0	768
7.357	15.290	15991	16054	0	768
-0.036	6.527	15985	16057	0	768
-6.960	-1.803	15984	16092	0	768
-13.523	-4.616	15983	16150	0	768
-16.552	-3.714	15977	16188	0	768
-20.952	-4.652	15975	16188	0	768
-19.870	-3.246	15970	16188	0	768
-20.664	-3.570	15967	16223	0	768
-18.464	-1.731	15967	16303	0	768
-16.012	2.344	15970	16416	0	768
-10.819	6.888	15970	16552	0	768
-8.547	9.088	15976	16700	0	768
-7.068	11.937	15983	16894	0	768
-6.563	11.360	15992	17159	0	768
-7.862	11.215	16005	17468	0	768
-3.426	14.569	16016	17749	0	768
-0.577	15.615	16027	17929	0	768
4.327	18.211	16040	18049	0	768
5.337	17.562	16056	18243	0	768
6.780	15.831	16075	18531	0	768
5.085	14.281	16095	18821	0	768
5.121	12.477	16113	19044	0	768
2.380	13.451	16132	19149	0	768
-1.515	11.864	16149	19175	0	768
-5.445	7.429	16171	19295	0	768
-7.645	6.671	16202	19599	0	768
-5.157	6.491	16234	19997	0	768
1.082	10.638	16267	20323	0	768
6.275	16.805	16298	20494	0	768
8.186	22.972	16325	20552	0	768
8.619	21.637	16355	20580	0	768
6.058	22.250	16384	20601	0	768
7.501	22.142	16413	20599	0	768
9.376	19.690	16443	20561	0	768
8.547	18.897	16470	20477	0	768
7.357	17.706	16497	20339	0	768
6.816	19.113	16523	20156	1	816
8.402	18.824	16547	19955	0	816
10.746	20.916	16570	19711	0	816
11.792	21.277	16592	19405	0	816
11.287	17.815	16609	19095	0	816
7.537	17.526	16631	18814	0	816
3.895	15.939	16647	18515	0	816
2.633	19.041	16660	18154	0	816
1.226	19.149	16673	17746	0	816
-1.839	21.962	16684	17355	0	816
-4.652	20.014	16693	17013	0	816
-9.304	18.103	16704	16714	0	816
-14.281	12.622	16712	16416	0	816
-18.933	9.052	16718	16096	0	816
-18.464	7.862	16722	15757	0	816
-16.336	10.133	16725	15452	0	816
-10.891	16.769	16728	15218	0	816
-7.357	21.168	16733	15026	0	816
-7.970	23.621	16734	14844	0	816
-13.163	20.736	16736	14673	0	816
-17.743	17.959	16737	14523	0	816
-21.241	13.956	16738	14408	0	816
-19.185	13.848	16737	14326	0	816
-18.572	11.828	16738	14246	0	816
-17.851	12.910	16736	14162	0	816
-19.221	12.333	16730	14054	0	816
-19.870	12.441	16725	13933	0	816
-18.067	14.894	16720	13865	0	816
-18.536	14.821	16720	13921	0	816
-20.519	10.278	16720	14057	0	816
-26.938	6.599	16717	14122	0	816
-30.545	2.813	16708	14040	0	816
-29.391	1.154	16696	13876	0	816
-24.125	3.714	16685	13745	0	816
-19.870	7.934	16674	13684	0	816
-16.300	7.248	16664	13666	0	816
-20.195	8.294	16652	13666	0	816
-20.916	7.681	16641	13668	0	816
-22.250	8.799	16628	13682	0	816
-21.745	9.268	16617	13733	0	816
-21.637	9.629	16609	13839	0	816
-21.998	12.189	16597	13963	0	816
-23.116	12.730	16589	14064	0	816
-19.041	15.831	16580	14174	0	816
-18.283	15.687	16571	14328	0	816
-15.146	13.631	16563	14509	0	816
-14.569	11.720	16558	14680	0	816
-13.884	9.989	16550	14844	0	816
-11.468	11.323	16544	15031	0	816
-11.035	12.586	16541	15253	0	816
-11.504	11.756	16539	15504	0	816
-13.631	7.970	16536	15750	0	816
-18.320	5.662	16534	15933	0	816
-17.995	3.282	16531	16061	0	816
-17.743	3.750	16527	16185	0	816
-14.930	6.419	16525	16326	0	816
-16.913	7.140	16524	16465	0	816
-16.877	6.419	16524	16590	0	816
-17.562	3.967	16522	16697	0	816
-11.973	7.248	16522	16798	0	816
-3.787	10.638	16520	16887	0	816
4.147	16.192	16519	16948	0	816
7.573	21.962	16516	16946	0	816
4.255	21.168	16508	16845	0	816
-1.082	20.014	16501	16674	0	816
-5.842	17.598	16490	16498	0	816
-7.212	18.320	16481	16349	0	816
-5.842	16.084	16474	16235	0	816
-3.787	17.634	16465	16171	0	816
-0.865	16.264	16459	16146	0	816
0.613	14.172	16451	16118	0	816
-0.397	9.340	16444	16052	0	816
-4.111	3.101	16433	15968	0	816
-9.268	0.505	16430	15935	0	816
-10.819	-2.308	16422	15963	0	816
-12.369	0.397	16416	15984	0	816
-7.321	4.508	16409	15963	0	816
-3.173	7.537	16401	15942	0	816
0.108	10.494	16395	15949	0	816
2.164	10.350	16392	15989	0	816
1.911	11.360	16386	16052	0	816
1.551	12.441	16382	16092	0	816
0.649	11.540	16376	16101	0	816
1.731	14.713	16373	16125	0	816
5.301	17.382	16368	16171	0	816
7.501	18.103	16364	16211	0	816
13.884	21.168	16357	16214	0	816
17.129	24.486	16351	16185	0	816
19.582	26.253	16344	16129	0	816
20.447	27.010	16338	16082	0	816
20.772	26.902	16332	16080	0	816
18.031	25.279	16327	16101	0	816
18.788	20.411	16321	16120	0	816
17.815	17.779	16316	16153	0	816
17.310	13.379	16314	16209	0	816
13.127	10.169	16310	16288	0	816
9.592	8.222	16310	16384	0	816
4.724	4.724	16309	16487	0	816
1.190	3.282	16308	16557	0	816
3.462	4.580	16305	16583	0	816
8.691	8.150	16302	16590	0	816
16.877	17.995	16298	16580	0	816
23.188	22.575	16292	16517	0	816
23.585	21.926	16282	16370	0	816
19.401	18.897	16271	16141	0	816
14.172	14.208	16257	15881	0	816
12.874	13.091	16244	15663	0	816
18.175	19.257	16232	15513	0	816
24.919	23.945	16218	15377	0	816
31.338	26.650	16202	15218	0	816
31.771	27.515	16188	15082	0	816
30.220	26.578	16178	15052	0	816
27.804	23.873	16169	15153	0	816
27.804	26.433	16164	15298	0	816
29.499	29.282	16156	15394	0	816
35.341	32.348	16148	15431	0	816
38.947	35.341	16138	15471	0	816
41.868	34.331	16133	15555	0	816
40.606	31.374	16129	15668	0	816
38.622	25.207	16118	15740	0	816
37.288	23.260	16110	15745	0	816
38.478	25.352	16103	15743	0	816
44.320	29.499	16096	15797	0	816
46.556	33.105	16089	15900	0	816
45.546	35.413	16084	16007	0	816
44.140	33.898	16080	16099	0	816
40.786	31.122	16076	16192	0	816
40.606	29.246	16073	16303	0	816
42.914	29.282	16072	16437	0	816
47.962	29.571	16070	16576	0	816
54.165	31.374	16068	16679	0	816
57.483	37.000	16067	16751	0	816
63.072	42.589	16065	16826	0	816
67.652	48.467	16067	16915	0	816
72.413	53.480	16067	16995	0	816
78.940	59.178	16065	17030	0	816
86.441	62.459	16062	17013	0	816
90.804	62.495	16060	16981	0	816
89.614	60.440	16058	16960	0	816
87.739	56.545	16056	16943	0	816
83.592	50.920	16053	16910	0	816
81.753	51.569	16049	16864	0	816
86.477	53.480	16045	16786	0	816
90.624	58.889	16037	16629	0	816
95.312	59.574	16029	16407	0	816
96.538	57.988	16018	16214	0	816
93.365	55.680	16011	16085	0	816
92.427	50.703	16002	15991	0	816
92.463	52.110	15992	15879	0	816
93.040	53.588	15983	15771	0	816
94.194	54.706	15980	15780	0	816
92.932	51.929	15978	15916	0	816
92.066	52.110	15977	16071	0	816
96.610	51.785	15976	16162	0	816
99.062	57.375	15972	16192	0	816
102.019	59.719	15967	16211	0	816
99.639	61.017	15964	16207	0	816
96.574	58.493	15953	16078	0	816
93.040	53.480	15938	15815	0	816
90.191	51.244	15924	15560	0	816
91.886	47.962	15912	15413	0	816
90.912	48.539	15902	15363	0	816
91.561	47.782	15893	15389	0	816
91.273	45.402	15888	15457	0	816
88.063	44.212	15882	15534	0	816
83.556	39.055	15877	15616	0	816
78.796	34.872	15872	15731	0	816
74.865	32.492	15873	15890	0	816
73.278	32.420	15872	16085	0	816
72.232	32.167	15872	16279	0	816
69.492	29.354	15874	16468	0	816
65.272	27.696	15880	16686	0	816
63.289	21.781	15884	16929	0	816
62.207	20.880	15892	17180	0	816
62.532	20.952	15900	17437	0	816
64.263	23.476	15911	17700	0	816
66.066	27.407	15924	17948	0	816
64.912	29.643	15937	18187	0	816
59.827	26.001	15951	18433	0	816
55.860	21.709	15969	18676	0	816
51.461	18.320	15985	18915	0	816
53.913	17.057	16008	19159	0	816
60.692	24.089	16029	19414	0	816
70.754	30.905	16054	19669	0	816
76.091	34.115	16080	19915	0	816
74.288	32.600	16108	20149	0	816
69.708	27.407	16138	20360	0	816
62.964	23.332	16164	20498	0	816
59.034	21.926	16191	20559	0	816
59.827	20.916	16221	20606	0	816
59.647	20.050	16249	20667	0	816
59.214	16.877	16279	20714	0	816
59.358	17.382	16309	20690	0	816
56.653	16.480	16335	20594	0	816
55.572	19.113	16364	20515	0	816
56.509	17.923	16394	20491	0	816
54.273	15.254	16425	20456	1	784
53.660	10.206	16452	20348	0	784
52.362	8.979	16479	20152	0	784
54.598	10.350	16504	19910	0	784
55.355	13.127	16528	19667	0	784
58.745	14.317	16550	19400	0	784
58.457	13.595	16570	19072	0	784
54.237	8.763	16587	18695	0	784
53.408	8.186	16604	18316	0	784
51.208	9.412	16617	17976	0	784
54.634	11.720	16636	17693	0	784
53.372	12.081	16650	17440	0	784
52.218	10.638	16664	17161	0	784
46.268	6.455	16676	16850	0	784
42.012	3.354	16685	16531	0	784
42.084	4.255	16695	16242	0	784
43.960	5.409	16701	15965	0	784
43.058	6.780	16707	15673	0	784
42.048	7.068	16711	15373	0	784
38.731	8.042	16712	15094	0	784
38.190	11.612	16712	14829	0	784
45.150	16.661	16710	14539	0	784
49.441	20.123	16700	14143	0	784
47.962	18.897	16690	13677	0	784
40.534	10.855	16679	13286	0	784
29.715	0.902	16662	12982	0	784
25.532	-2.633	16649	12722	0	784
27.804	0.000	16636	12562	0	784
35.701	6.311	16628	12534	0	784
40.353	13.631	16617	12586	0	784
40.894	13.415	16608	12628	0	784
38.586	11.287	16597	12659	0	784
36.134	10.278	16592	12778	0	784
33.826	7.681	16588	13022	0	784
31.662	6.563	16582	13307	0	784
27.479	3.678	16580	13572	0	784
25.027	0.469	16577	13806	0	784
23.909	-1.659	16573	14036	0	784
25.460	-1.442	16570	14279	0	784
27.263	1.118	16570	14530	0	784
29.282	4.868	16566	14752	0	784
30.004	4.977	16563	14933	0	784
28.561	8.330	16560	15103	0	784
29.030	6.419	16560	15305	0	784
28.092	3.137	16560	15553	0	784
25.856	1.515	16563	15836	0	784
25.532	1.695	16566	16094	0	784
26.974	3.606	16569	16300	0	784
28.056	6.563	16570	16475	0	784
28.164	7.357	16574	16662	0	784
25.712	3.426	16578	16852	0	784
21.745	-1.983	16582	16999	0	784
17.346	-6.203	16587	17109	0	784
17.057	-7.501	16590	17222	0	784
17.202	-4.688	16596	17330	0	784
19.437	-1.803	16600	17412	0	784
18.392	0.361	16604	17454	0	784
18.788	-0.541	16604	17395	0	784
16.625	-2.092	16597	17182	0	784
17.274	-3.570	16592	16910	0	784
17.743	-3.498	16585	16716	0	784
21.096	-3.390	16584	16594	0	784
20.880	-3.390	16580	16503	0	784
20.664	-4.436	16574	16412	0	784
20.844	-3.498	16568	16284	0	784
18.788	-5.734	16563	16136	0	784
20.591	-5.337	16561	16099	0	784
20.195	-4.760	16562	16192	0	784
21.962	-4.219	16563	16300	0	784
21.132	-1.695	16562	16345	0	784
21.781	1.911	16561	16331	0	784
25.388	5.049	16560	16319	0	784
24.919	6.419	16560	16347	0	784
24.450	7.285	16561	16388	0	784
24.847	2.524	16560	16400	0	784
20.231	0.036	16555	16361	0	784
18.969	-4.616	16554	16303	0	784
20.195	-4.075	16551	16263	0	784
20.880	-0.865	16549	16223	0	784
23.981	1.731	16543	16155	0	784
25.604	3.570	16538	16052	0	784
24.522	2.813	16531	15935	0	784
24.306	1.515	16524	15841	0	784
23.008	0.000	16519	15799	0	784
23.152	2.813	16513	15792	0	784
24.125	4.760	16508	15766	0	784
24.017	5.806	16503	15717	0	784
20.447	3.678	16497	15682	0	784
19.654	0.108	16492	15675	0	784
17.166	-3.462	16485	15694	0	784
20.411	-1.226	16484	15736	0	784
23.044	2.128	16479	15799	0	784
25.856	6.635	16476	15841	0	784
27.191	10.350	16470	15836	0	784
26.145	13.018	16462	15790	0	784
24.089	18.067	16455	15719	0	784
21.962	17.202	16444	15651	0	784
20.591	16.048	16436	15579	0	784
15.146	9.953	16424	15457	0	784
15.038	4.616	16412	15324	0	784
13.848	2.669	16404	15307	0	784
12.946	4.436	16400	15403	0	784
12.946	5.013	16390	15464	0	784
11.612	3.895	16381	15413	0	784
10.530	3.426	16368	15312	0	784
12.405	3.065	16359	15235	0	784
14.100	5.337	16346	15214	0	784
17.706	7.609	16336	15239	0	784
19.510	9.989	16327	15263	0	784
20.952	10.350	16314	15258	0	784
19.762	9.701	16305	15242	0	784
21.673	10.494	16291	15239	0	784
20.447	10.819	16282	15258	0	784
20.123	12.153	16270	15279	0	784
19.149	12.982	16257	15284	0	784
18.392	16.048	16246	15293	0	784
20.808	16.372	16237	15349	0	784
23.188	20.988	16229	15450	0	784
27.515	22.755	16221	15555	0	784
29.931	25.532	16211	15633	0	784
31.771	27.263	16205	15682	0	784
30.977	28.164	16195	15743	0	784
28.850	26.001	16188	15853	0	784
25.640	24.594	16184	16000	0	784
24.089	22.178	16180	16122	0	784
22.142	20.014	16172	16202	0	784
22.250	21.601	16168	16267	0	784
23.837	24.162	16162	16359	0	784
20.808	24.125	16159	16454	0	784
19.654	23.404	16154	16524	0	784
21.673	24.378	16151	16578	0	784
21.421	23.729	16146	16641	0	784
23.044	23.080	16145	16721	0	784
21.457	21.781	16142	16817	0	784
20.267	18.392	16143	16939	0	784
21.241	19.077	16142	17063	0	784
21.890	21.204	16142	17133	0	784
23.368	25.640	16138	17128	0	784
22.106	30.292	16137	17077	0	784
18.175	31.158	16133	16999	0	784
16.913	27.876	16126	16903	0	784
17.526	27.335	16119	16777	0	784
21.349	25.640	16110	16590	0	784
22.972	27.840	16099	16384	0	784
23.404	29.931	16092	16258	0	784
22.286	33.393	16086	16218	0	784
17.995	35.990	16078	16183	0	784
17.815	36.459	16072	16122	0	784
15.831	37.541	16064	16054	0	784
18.860	37.252	16057	16014	0	784
20.159	38.514	16053	16033	0	784
25.929	38.622	16049	16092	0	784
30.869	39.668	16043	16118	0	784
34.656	43.491	16037	16068	0	784
35.305	43.779	16029	15998	0	784
31.915	42.193	16023	15965	0	784
23.693	39.235	16019	15993	0	784
15.182	33.429	16014	16061	0	784
8.078	29.499	16011	16127	0	784
5.085	26.614	16007	16176	0	784
6.022	28.345	16005	16239	0	784
9.989	31.230	16005	16345	0	784
12.333	34.908	16002	16447	0	784
12.730	37.901	15999	16470	0	784
12.189	40.353	15989	16356	0	784
10.746	42.120	15981	16160	0	784
11.900	43.238	15973	16029	0	784
13.956	44.032	15965	15991	0	784
13.307	45.330	15958	15970	0	784
11.973	44.717	15950	15925	0	784
9.412	42.806	15939	15808	0	784
5.337	43.274	15926	15626	0	784
1.370	39.740	15915	15483	0	784
-2.560	37.468	15904	15424	0	784
-4.796	35.052	15894	15436	0	784
-4.255	36.495	15888	15481	0	784
1.154	40.966	15878	15502	0	784
5.734	46.736	15870	15527	0	784
8.006	49.730	15872	15691	0	784
5.950	48.900	15873	15993	0	784
-0.433	42.012	15874	16288	0	784
-6.888	33.682	15875	16484	0	784
-13.307	27.624	15880	16632	0	784
-14.785	23.512	15881	16814	0	784
-18.175	21.818	15889	17081	0	784
-19.005	18.860	15900	17421	0	784
-22.431	20.159	15913	17775	0	784
-22.935	17.202	15928	18086	0	784
-24.594	19.185	15943	18358	0	784
-24.234	19.293	15959	18625	0	784
-22.972	19.942	15980	18910	0	784
-25.171	20.880	16000	19217	0	784
-26.037	17.454	16024	19524	0	784
-27.479	16.877	16050	19833	0	784
-26.902	15.326	16081	20175	0	784
-25.965	11.720	16114	20559	0	784
-22.467	12.838	16152	20936	0	784
-19.185	12.369	16186	21227	0	784
-16.733	16.408	16219	21414	0	784
-15.038	17.670	16255	21536	0	784
-16.661	19.906	16291	21632	0	784
-16.841	19.149	16325	21695	0	784
-20.700	17.562	16360	21690	0	784
-21.529	14.064	16393	21615	0	784
-23.729	13.271	16425	21491	0	784
-28.020	10.819	16458	21325	0	784
-28.417	9.376	16486	21109	1	824
-27.551	9.124	16513	20826	0	824
-26.433	10.061	16541	20498	0	824
-23.945	10.242	16565	20154	0	824
-24.486	8.727	16587	19805	0	824
-28.164	7.717	16612	19472	0	824
-34.692	2.813	16638	19217	0	824
-38.009	-0.433	16662	19009	0	824
-39.452	-2.885	16682	18709	0	824
-39.272	-1.695	16696	18238	0	824
-37.252	0.829	16704	17674	0	824
-34.295	5.842	16715	17126	0	824
-31.807	9.160	16722	16643	0	824
-29.102	8.763	16728	16225	0	824
-26.902	5.554	16733	15832	0	824
-26.650	3.787	16736	15427	0	824
-28.092	2.885	16737	15024	0	824
-30.328	4.075	16738	14668	0	824
-30.436	6.780	16736	14373	0	824
-26.974	8.943	16734	14110	0	824
-22.034	8.006	16733	13858	0	824
-16.625	9.448	16730	13666	0	824
-16.012	8.150	16726	13541	0	824
-17.562	6.167	16723	13441	0	824
-24.775	5.157	16719	13333	0	824
-27.768	3.570	16714	13232	0	824
-28.922	1.262	16707	13157	0	824
-26.902	1.442	16701	13127	0	824
-25.856	1.082	16696	13157	0	824
-25.135	0.902	16692	13239	0	824
-24.053	3.101	16687	13312	0	824
-23.801	2.272	16679	13354	0	824
-22.467	1.803	16672	13389	0	824
-22.431	1.442	16665	13462	0	824
-23.404	2.596	16658	13579	0	824
-22.647	3.714	16653	13696	0	824
-20.123	5.986	16645	13797	0	824
-20.483	6.311	16636	13895	0	824
-19.113	4.724	16630	13986	0	824
-20.880	2.452	16617	14040	0	824
-19.149	2.560	16609	14082	0	824
-17.923	5.049	16600	14181	0	824
-14.100	6.852	16592	14317	0	824
-15.831	8.150	16581	14408	0	824
-16.516	9.052	16570	14459	0	824
-20.231	6.167	16561	14534	0	824
-19.834	7.357	16554	14666	0	824
-19.293	6.347	16546	14832	0	824
-15.687	6.599	16541	14998	0	824
-15.975	3.570	16535	15169	0	824
-17.310	0.469	16531	15361	0	824
-22.863	-2.488	16528	15593	0	824
-27.912	-5.265	16528	15853	0	824
-30.112	-6.058	16527	16094	0	824
-26.758	-6.058	16525	16286	0	824
-23.332	-4.688	16527	16468	0	824
-21.529	-1.839	16528	16681	0	824
-22.683	0.288	16531	16892	0	824
-24.955	-1.515	16534	17032	0	824
-24.450	-1.983	16534	17088	0	824
-19.149	-1.947	16532	17119	0	824
-13.559	1.118	16532	17168	0	824
-9.160	3.173	16534	17224	0	824
-7.068	7.176	16534	17264	0	824
-8.294	6.671	16534	17273	0	824
-8.799	7.645	16535	17278	0	824
-5.986	8.943	16536	17299	0	824
-4.760	10.314	16539	17339	0	824
-1.839	13.343	16541	17376	0	824
0.361	14.245	16542	17367	0	824
0.361	13.163	16542	17304	0	824
-3.101	12.766	16542	17229	0	824
-5.013	10.530	16542	17170	0	824
-9.484	7.717	16542	17131	0	824
-12.117	9.232	16542	17070	0	824
-10.061	10.242	16536	16906	0	824
-8.366	9.232	16530	16636	0	824
-4.904	9.592	16522	16391	0	824
-2.921	8.294	16515	16232	0	824
-2.380	6.996	16506	16092	0	824
-0.938	7.898	16500	15947	0	824
0.505	8.799	16493	15820	0	824
2.524	12.045	16485	15712	0	824
4.580	14.317	16477	15644	0	824
5.121	14.100	16476	15659	0	824
4.580	14.677	16471	15722	0	824
2.380	10.855	16465	15698	0	824
-0.072	10.350	16454	15558	0	824
-1.551	9.016	16443	15377	0	824
-0.108	9.412	16431	15246	0	824
1.839	9.412	16421	15185	0	824
6.888	12.009	16412	15153	0	824
9.484	13.812	16400	15085	0	824
9.845	15.038	16386	14965	0	824
10.999	16.913	16374	14869	0	824
11.792	17.021	16362	14839	0	824
11.864	18.428	16352	14867	0	824
13.271	20.303	16343	14911	0	824
16.156	20.447	16330	14944	0	824
16.156	20.303	16320	14982	0	824
16.192	16.192	16310	15014	0	824
13.343	15.218	16294	14986	0	824
11.360	14.172	16281	14904	0	824
10.278	14.821	16267	14844	0	824
10.566	16.516	16252	14848	0	824
12.333	17.995	16241	14921	0	824
15.182	19.762	16233	15068	0	824
13.920	18.824	16226	15263	0	824
14.894	19.582	16218	15434	0	824
15.759	16.264	16208	15525	0	824
14.028	15.759	16199	15581	0	824
14.497	11.251	16194	15684	0	824
11.864	11.648	16188	15836	0	824
12.441	9.737	16181	15989	0	824
12.225	10.386	16176	16134	0	824
10.855	10.855	16175	16286	0	824
11.215	10.458	16169	16428	0	824
13.054	12.009	16165	16531	0	824
15.435	15.074	16160	16547	0	824
22.935	20.772	16146	16461	0	824
26.361	25.604	16137	16324	0	824
28.201	25.712	16123	16174	0	824
27.804	24.486	16111	16043	0	824
27.299	23.332	16099	15970	0	824
29.427	21.962	16091	15970	0	824
31.807	24.702	16081	15996	0	824
34.331	27.768	16072	15989	0	824
33.682	25.929	16062	15972	0	824
31.951	25.820	16060	16047	0	824
30.472	25.063	16057	16237	0	824
31.554	26.902	16056	16451	0	824
33.393	28.417	16056	16629	0	824
35.665	30.220	16054	16754	0	824
36.531	28.309	16054	16859	0	824
35.990	25.099	16054	16967	0	824
33.321	21.493	16053	17044	0	824
30.725	16.841	16050	17051	0	824
28.777	15.471	16045	16997	0	824
24.739	13.740	16041	16934	0	824
21.132	12.658	16038	16903	0	824
20.952	14.894	16038	16929	0	824
22.358	15.615	16037	16992	0	824
26.325	17.959	16037	17037	0	824
30.328	18.464	16037	17065	0	824
33.574	20.808	16038	17102	0	824
33.754	21.385	16040	17159	0	824
35.377	24.558	16041	17206	0	824
38.082	30.004	16042	17206	0	824
41.760	33.610	16043	17173	0	824
46.772	35.846	16043	17149	0	824
46.304	38.370	16043	17145	0	824
45.907	36.711	16045	17131	0	824
44.212	34.908	16043	17079	0	824
41.399	33.249	16043	17002	0	824
40.606	32.564	16042	16920	0	824
39.776	26.758	16040	16831	0	824
37.396	23.440	16037	16735	0	824
35.954	21.673	16035	16641	0	824
32.708	17.887	16031	16554	0	824
33.718	20.014	16029	16449	0	824
31.049	19.798	16022	16291	0	824
30.328	20.411	16014	16118	0	824
28.381	18.608	16012	16057	0	824
25.929	15.182	16014	16118	0	824
22.395	13.523	16010	16178	0	824
18.247	9.088	16008	16160	0	824
16.805	7.321	16002	16085	0	824
14.677	7.357	15999	16010	0	824
16.552	12.297	15992	15949	0	824
18.067	17.093	15985	15851	0	824
22.683	21.673	15975	15659	0	824
25.496	25.388	15962	15438	0	824
31.049	28.922	15953	15305	0	824
38.839	32.961	15946	15284	0	824
44.717	38.370	15939	15317	0	824
48.251	43.599	15932	15363	0	824
48.323	44.789	15927	15399	0	824
43.960	43.094	15921	15438	0	824
39.885	38.442	15916	15513	0	824
35.954	34.800	15915	15635	0	824
31.951	28.128	15912	15771	0	824
27.010	20.844	15908	15874	0	824
18.139	14.858	15904	15902	0	824
10.783	7.212	15893	15815	0	824
4.075	0.505	15885	15691	0	824
-0.685	-4.003	15878	15675	0	824
-2.813	-6.203	15874	15778	0	824
-3.390	-6.022	15875	15956	0	824
-1.046	-4.616	15878	16209	0	824
4.075	1.118	15885	16540	0	824
9.340	5.013	15899	16941	0	824
12.802	7.970	15913	17391	0	824
13.235	8.366	15931	17859	0	824
12.694	7.285	15953	18325	0	824
13.235	9.809	15977	18770	0	824
19.329	15.218	15999	19184	0	824
25.784	21.241	16026	19564	0	824
32.384	28.489	16056	19934	0	824
34.944	29.354	16084	20280	0	824
35.377	28.237	16111	20531	0	824
36.387	30.472	16138	20672	0	824
40.750	31.049	16165	20749	0	824
44.861	35.377	16192	20796	0	824
46.989	36.170	16219	20817	0	824
43.491	32.312	16246	20812	0	824
35.160	24.991	16272	20761	0	824
25.712	17.851	16299	20681	0	824
19.618	11.035	16327	20611	0	824
14.425	6.131	16355	20545	1	832
8.907	1.190	16382	20430	0	832
1.911	-6.996	16405	20243	0	832
-4.003	-12.333	16431	20065	0	832
-9.124	-15.687	16458	19924	0	832
-8.150	-12.261	16481	19754	0	832
-4.616	-7.934	16503	19510	0	832
-0.325	-4.183	16524	19215	0	832
3.246	-4.039	16543	18903	0	832
5.121	-4.832	16562	18601	0	832
9.412	-3.173	16581	18330	0	832
13.848	1.154	16596	18067	0	832
20.664	7.934	16612	17782	0	832
24.522	13.776	16625	17475	0	832
24.847	15.975	16639	17173	0	832
25.171	18.860	16650	16901	0	832
23.837	18.247	16661	16641	0	832
25.388	22.034	16671	16361	0	832
28.309	27.227	16674	16029	0	832
31.230	30.436	16673	15602	0	832
30.256	31.049	16672	15115	0	832
28.273	25.135	16666	14689	0	832
23.116	17.851	16662	14373	0	832
18.608	9.989	16661	14141	0	832
18.175	8.979	16655	13951	0	832
16.228	7.609	16650	13740	0	832
16.661	8.402	16641	13504	0	832
15.290	7.537	16634	13328	0	832
12.045	6.888	16627	13239	0	832
12.802	9.304	16619	13192	0	832
14.894	13.595	16611	13127	0	832
19.293	14.930	16599	13045	0	832
20.014	17.093	16590	13017	0	832
20.988	14.245	16584	13078	0	832
20.339	14.497	16576	13192	0	832
21.457	13.451	16570	13310	0	832
20.988	16.264	16561	13406	0	832
20.447	16.120	16552	13511	0	832
19.798	15.146	16547	13656	0	832
18.969	17.202	16541	13860	0	832
22.250	16.769	16538	14110	0	832
24.883	21.168	16535	14359	0	832
28.561	22.539	16531	14579	0	832
33.538	27.299	16530	14797	0	832
36.675	30.220	16528	15026	0	832
39.163	32.708	16528	15265	0	832
40.209	33.790	16527	15492	0	832
35.557	30.256	16527	15703	0	832
29.895	27.551	16528	15923	0	832
24.270	21.060	16532	16178	0	832
21.349	20.916	16536	16437	0	832
16.372	15.687	16541	16650	0	832
14.533	13.956	16543	16800	0	832
12.189	7.862	16544	16892	0	832
12.369	5.049	16546	16948	0	832
15.831	7.140	16547	17002	0	832
18.608	9.917	16549	17051	0	832
22.250	13.451	16551	17091	0	832
20.483	12.838	16552	17131	0	832
17.959	11.432	16554	17156	0	832
18.067	8.691	16557	17182	0	832
18.644	7.537	16562	17259	0	832
23.440	10.530	16569	17362	0	832
25.171	11.396	16571	17416	0	832
23.945	10.278	16576	17400	0	832
22.791	9.737	16577	17346	0	832
20.519	11.468	16577	17264	0	832
22.178	11.684	16578	17163	0	832
23.765	14.425	16577	17042	0	832
30.508	20.231	16571	16847	0	832
35.160	24.089	16563	16587	0	832
41.183	26.866	16557	16331	0	832
43.996	28.309	16549	16096	0	832
42.012	27.479	16541	15895	0	832
37.180	26.361	16531	15722	0	832
33.502	24.811	16522	15555	0	832
32.672	27.587	16512	15415	0	832
33.285	27.768	16506	15324	0	832
33.069	27.804	16497	15270	0	832
28.922	22.863	16486	15204	0	832
23.188	18.067	16478	15099	0	832
19.077	10.710	16466	15000	0	832
16.084	8.006	16458	14956	0	832
19.906	9.016	16450	14979	0	832
20.952	11.792	16443	15043	0	832
21.385	16.192	16433	15096	0	832
20.808	16.336	16428	15122	0	832
15.615	13.307	16420	15157	0	832
14.894	13.199	16414	15239	0	832
14.461	11.215	16408	15347	0	832
14.966	10.314	16397	15389	0	832
19.293	12.802	16385	15296	0	832
18.897	10.458	16374	15132	0	832
19.834	7.789	16360	15047	0	832
23.080	7.501	16348	15066	0	832
24.270	8.258	16338	15108	0	832
27.840	11.179	16329	15157	0	832
30.076	13.704	16320	15230	0	832
31.554	17.743	16313	15328	0	832
32.925	17.923	16305	15441	0	832
32.744	18.897	16298	15553	0	832
32.889	17.815	16291	15666	0	832
30.184	17.310	16284	15766	0	832
26.217	12.225	16275	15799	0	832
24.053	10.530	16264	15769	0	832
24.702	10.025	16256	15764	0	832
26.145	10.133	16248	15815	0	832
28.777	13.523	16241	15883	0	832
28.850	13.523	16232	15921	0	832
27.010	13.127	16224	15928	0	832
24.017	12.189	16216	15956	0	832
21.385	11.432	16210	16033	0	832
24.342	12.009	16205	16146	0	832
26.938	16.408	16199	16242	0	832
29.823	15.002	16194	16296	0	832
26.470	12.225	16190	16373	0	832
19.834	4.616	16188	16498	0	832
11.215	-2.416	16187	16632	0	832
7.609	-5.301	16184	16728	0	832
12.441	-2.524	16181	16784	0	832
17.887	3.462	16180	16821	0	832
25.496	9.520	16178	16866	0	832
29.643	12.261	16178	16948	0	832
32.167	15.867	16179	17051	0	832
35.088	16.877	16176	17091	0	832
38.190	18.283	16169	16988	0	832
40.101	19.582	16162	16803	0	832
38.082	19.582	16156	16679	0	832
33.033	15.759	16153	16643	0	832
30.472	15.903	16146	16620	0	832
27.804	13.523	16143	16576	0	832
28.489	12.297	16140	16524	0	832
30.545	14.064	16132	16458	0	832
28.273	14.930	16127	16382	0	832
26.794	17.562	16122	16342	0	832
23.404	16.913	16119	16370	0	832
21.457	17.202	16116	16405	0	832
16.120	11.937	16113	16384	0	832
16.552	6.816	16106	16317	0	832
14.172	3.498	16100	16246	0	832
18.572	6.816	16095	16192	0	832
21.313	9.989	16088	16141	0	832
22.358	12.802	16083	16089	0	832
22.539	11.900	16076	16050	0	832
19.726	10.891	16070	16024	0	832
21.421	9.196	16065	16022	0	832
22.358	11.756	16061	16047	0	832
25.171	16.985	16060	16071	0	832
27.515	19.221	16053	16082	0	832
29.391	21.421	16051	16143	0	832
31.662	21.854	16051	16277	0	832
35.233	24.234	16053	16428	0	832
38.586	25.820	16053	16522	0	832
39.019	26.145	16051	16545	0	832
39.776	27.083	16050	16550	0	832
39.488	25.929	16048	16576	0	832
37.865	24.234	16048	16620	0	832
37.072	21.096	16048	16662	0	832
36.314	20.411	16046	16672	0	832
33.970	16.697	16043	16634	0	832
29.607	16.120	16040	16583	0	832
28.345	14.785	16040	16569	0	832
26.361	15.182	16037	16585	0	832
25.207	13.235	16038	16583	0	832
24.739	12.045	16032	16547	0	832
22.683	9.448	16031	16515	0	832
21.024	10.206	16031	16512	0	832
23.260	10.927	16027	16510	0	832
26.253	13.343	16019	16402	0	832
28.705	12.009	16008	16139	0	832
29.823	11.432	15995	15818	0	832
29.138	8.366	15985	15602	0	832
27.155	8.619	15975	15499	0	832
27.587	9.701	15965	15438	0	832
27.083	13.487	15958	15410	0	832
24.955	15.723	15953	15427	0	832
25.279	14.100	15946	15478	0	832
25.568	15.615	15945	15588	0	832
30.148	15.615	15945	15787	0	832
35.882	18.320	15946	16026	0	832
37.685	19.329	15947	16202	0	832
35.846	19.690	15947	16312	0	832
30.797	15.146	15949	16414	0	832
26.073	13.812	15951	16557	0	832
25.424	12.802	15956	16758	0	832
24.702	15.651	15965	17011	0	832
28.273	16.552	15975	17273	0	832
26.974	13.740	15983	17515	0	832
26.397	14.100	15997	17763	0	832
25.243	10.891	16008	17995	0	832
24.666	14.461	16018	18100	0	832
25.496	16.805	16023	18074	0	832
25.893	18.320	16034	18081	0	832
26.253	18.716	16048	18220	0	832
26.037	20.519	16067	18463	0	832
24.847	20.159	16088	18779	0	832
24.017	22.863	16111	19117	0	832
22.791	20.303	16138	19428	0	832
24.342	18.500	16165	19725	0	832
26.145	13.415	16198	20023	0	832
26.073	12.586	16230	20302	0	832
24.955	11.107	16260	20540	0	832
23.116	10.783	16292	20704	0	832
17.959	11.900	16325	20798	0	832
16.228	12.081	16356	20847	0	832
15.867	13.127	16386	20866	0	832
18.933	15.975	16416	20852	0	832
20.123	15.362	16447	20793	0	832
21.096	15.398	16476	20702	0	832
20.411	12.874	16505	20559	0	832
16.733	12.730	16531	20360	1	840
16.120	13.451	16554	20102	0	840
14.713	14.533	16576	19777	0	840
16.156	17.995	16595	19391	0	840
20.050	20.159	16609	18969	0	840
22.827	23.585	16625	18531	0	840
26.037	23.116	16636	18098	0	840
27.263	21.926	16652	17737	0	840
23.188	17.382	16666	17454	0	840
17.454	10.314	16677	17152	0	840
15.290	6.599	16682	16746	0	840
14.136	7.465	16685	16272	0	840
18.500	9.845	16687	15804	0	840
18.464	12.225	16687	15394	0	840
18.608	13.812	16685	15019	0	840
13.812	11.287	16680	14621	0	840
7.681	8.042	16672	14185	0	840
5.085	4.832	16664	13804	0	840
4.400	5.157	16657	13534	0	840
5.157	3.498	16652	13368	0	840
7.645	5.193	16643	13246	0	840
11.071	7.248	16636	13139	0	840
15.146	10.927	16628	13045	0	840
15.687	13.487	16616	12930	0	840
15.975	15.903	16606	12806	0	840
13.740	13.199	16593	12743	0	840
10.494	12.550	16584	12743	0	840
11.864	11.396	16571	12759	0	840
13.091	12.658	16561	12811	0	840
16.156	17.346	16551	12923	0	840
19.293	20.447	16539	13031	0	840
20.050	24.125	16522	13005	0	840
22.683	23.981	16503	12879	0	840
24.162	21.421	16486	12846	0	840
22.395	17.706	16474	12972	0	840
19.546	10.710	16462	13188	0	840
14.930	7.357	16452	13438	0	840
13.812	5.229	16443	13712	0	840
10.025	5.481	16439	14024	0	840
10.963	8.078	16435	14366	0	840
10.746	7.934	16431	14712	0	840
8.042	9.124	16428	15036	0	840
6.239	7.212	16425	15303	0	840
7.212	7.357	16419	15502	0	840
11.179	8.691	16412	15642	0	840
15.218	11.360	16406	15764	0	840
21.385	16.300	16402	15921	0	840
20.844	15.507	16401	16122	0	840
20.591	16.264	16401	16349	0	840
16.841	13.848	16401	16587	0	840
18.788	15.939	16405	16847	0	840
22.322	17.490	16411	17159	0	840
24.991	22.106	16422	17512	0	840
25.640	19.293	16432	17850	0	840
21.926	18.103	16440	18105	0	840
18.536	15.939	16448	18252	0	840
17.995	18.500	16457	18337	0	840
18.247	20.050	16462	18393	0	840
21.601	23.368	16469	18405	0	840
21.637	18.500	16470	18330	0	840
20.375	16.228	16471	18187	0	840
15.398	11.648	16476	18044	0	840
14.245	11.143	16476	17943	0	840
10.783	11.396	16482	17901	0	840
10.602	11.828	16486	17882	0	840
11.107	12.658	16490	17828	0	840
10.169	13.271	16495	17744	0	840
10.855	13.631	16498	17650	0	840
11.540	15.218	16501	17561	0	840
10.999	15.002	16504	17468	0	840
13.451	16.805	16505	17339	0	840
17.706	17.851	16506	17182	0	840
19.834	21.457	16505	17009	0	840
24.811	24.702	16503	16826	0	840
28.273	27.083	16500	16634	0	840
30.617	27.840	16497	16430	0	840
30.184	28.201	16490	16225	0	840
27.768	23.765	16484	16012	0	840
24.234	21.601	16477	15778	0	840
18.897	20.700	16466	15537	0	840
15.398	17.166	16460	15375	0	840
12.333	16.913	16454	15331	0	840
11.864	13.668	16448	15288	0	840
9.989	9.881	16436	15150	0	840
9.304	8.114	16425	14958	0	840
10.674	7.717	16414	14797	0	840
12.081	7.970	16404	14712	0	840
14.930	8.366	16394	14684	0	840
19.798	10.169	16383	14640	0	840
19.906	9.737	16371	14562	0	840
17.706	9.520	16362	14544	0	840
13.812	10.927	16354	14630	0	840
11.179	10.061	16347	14752	0	840
12.658	10.891	16340	14853	0	840
17.418	11.540	16330	14923	0	840
21.457	14.930	16322	14979	0	840
24.125	13.487	16314	15040	0	840
21.349	16.048	16306	15118	0	840
21.457	17.995	16301	15225	0	840
19.401	23.873	16295	15361	0	840
21.168	26.397	16290	15506	0	840
23.585	28.417	16287	15668	0	840
21.457	26.902	16283	15853	0	840
19.041	24.378	16282	16019	0	840
16.589	20.339	16278	16120	0	840
16.949	23.080	16272	16174	0	840
18.500	23.008	16267	16223	0	840
18.536	23.044	16264	16291	0	840
12.946	22.250	16262	16366	0	840
7.032	17.346	16256	16414	0	840
0.721	15.002	16252	16433	0	840
-0.216	9.520	16246	16437	0	840
1.370	10.097	16243	16442	0	840
4.111	10.891	16236	16440	0	840
5.842	13.415	16230	16421	0	840
7.789	14.894	16225	16393	0	840
8.655	15.218	16218	16354	0	840
6.455	12.225	16210	16244	0	840
3.895	10.061	16197	16073	0	840
0.433	7.176	16184	15897	0	840
0.180	8.619	16172	15724	0	840
4.472	10.494	16156	15532	0	840
9.448	15.362	16141	15342	0	840
16.264	16.120	16123	15185	0	840
17.923	17.779	16113	15125	0	840
19.185	15.290	16103	15174	0	840
16.985	16.949	16095	15293	0	840
18.860	15.651	16087	15387	0	840
18.356	18.500	16077	15429	0	840
18.247	16.589	16072	15513	0	840
13.884	15.579	16067	15675	0	840
9.989	13.956	16062	15848	0	840
6.924	12.586	16058	15998	0	840
5.626	12.802	16056	16129	0	840
5.914	12.802	16053	16263	0	840
7.898	10.710	16050	16409	0	840
7.573	11.684	16053	16569	0	840
8.114	10.133	16049	16697	0	840
6.563	7.501	16048	16779	0	840
2.380	6.780	16048	16847	0	840
-1.479	2.705	16046	16939	0	840
-4.580	1.154	16049	17058	0	840
-4.003	1.010	16050	17175	0	840
-0.829	2.092	16050	17248	0	840
4.616	4.147	16050	17276	0	840
7.321	6.311	16050	17255	0	840
9.520	6.888	16046	17175	0	840
6.816	7.393	16043	17049	0	840
6.239	8.943	16037	16920	0	840
5.013	8.475	16032	16805	0	840
6.239	9.376	16029	16711	0	840
10.133	9.845	16024	16643	0	840
11.323	10.133	16019	16587	0	840
13.487	11.648	16016	16526	0	840
13.631	12.405	16011	16456	0	840
16.985	15.398	16007	16377	0	840
18.788	15.867	15997	16253	0	840
22.358	18.572	15991	16103	0	840
22.142	20.159	15983	15993	0	840
21.745	21.277	15977	15942	0	840
13.163	16.480	15970	15911	0	840
9.556	10.927	15962	15853	0	840
4.616	6.311	15956	15785	0	840
3.931	6.888	15953	15797	0	840
6.455	8.979	15949	15900	0	840
7.068	12.766	15947	16007	0	840
6.383	11.576	15943	16073	0	840
3.029	6.996	15942	16103	0	840
1.479	2.813	15939	16141	0	840
2.705	2.885	15938	16223	0	840
5.626	6.635	15939	16352	0	840
10.710	11.504	15942	16503	0	840
14.641	13.920	15945	16653	0	840
16.048	17.562	15949	16812	0	840
17.274	16.733	15956	17006	0	840
18.175	18.031	15966	17257	0	840
19.221	19.654	15978	17545	0	840
22.503	22.683	15991	17824	0	840
26.650	24.414	16008	18093	0	840
28.273	27.191	16024	18372	0	840
28.489	28.020	16043	18639	0	840
24.594	28.128	16064	18910	0	840
20.483	22.683	16088	19222	0	840
14.245	18.788	16115	19552	0	840
13.127	13.740	16143	19857	0	840
14.497	13.307	16172	20145	0	840
17.129	12.766	16205	20409	0	840
18.211	16.120	16236	20622	0	840
19.510	15.651	16265	20765	0	840
14.894	9.520	16294	20831	0	840
10.025	5.049	16325	20828	0	840
7.321	0.325	16351	20786	0	840
8.583	0.252	16381	20711	0	840
9.376	2.488	16406	20608	0	840
10.638	5.662	16433	20465	1	776
12.225	7.176	16454	20241	0	776
12.189	6.888	16478	19962	0	776
13.812	8.655	16503	19763	0	776
19.726	10.746	16530	19665	0	776
21.637	12.514	16555	19538	0	776
22.575	12.153	16576	19306	0	776
24.198	13.920	16597	19002	0	776
23.332	12.982	16616	18690	0	776
25.099	16.589	16633	18393	0	776
26.830	17.346	16650	18107	0	776
26.614	18.860	16665	17805	0	776
23.476	17.382	16679	17487	0	776
22.647	17.202	16693	17198	0	776
19.906	15.290	16706	16936	0	776
15.579	13.523	16715	16660	0	776
13.668	12.946	16725	16368	0	776
12.730	10.133	16733	16080	0	776
9.917	11.468	16737	15818	0	776
12.622	10.530	16746	15593	0	776
14.605	10.638	16753	15429	0	776
14.641	11.323	16758	15296	0	776
17.238	14.028	16761	15103	0	776
15.254	14.461	16756	14785	0	776
15.471	16.697	16752	14410	0	776
12.910	15.507	16750	14141	0	776
11.756	10.999	16746	14017	0	776
11.540	9.809	16745	13949	0	776
11.360	8.006	16742	13904	0	776
13.451	8.763	16741	13881	0	776
18.428	11.973	16737	13839	0	776
20.808	14.353	16728	13722	0	776
23.368	17.057	16718	13553	0	776
26.758	19.365	16708	13434	0	776
25.784	19.473	16698	13370	0	776
26.325	20.772	16684	13281	0	776
29.030	23.585	16672	13171	0	776
27.696	23.585	16658	13115	0	776
27.768	25.676	16646	13139	0	776
25.820	26.722	16636	13221	0	776
23.801	24.198	16627	13349	0	776
25.099	22.539	16617	13504	0	776
23.476	22.395	16611	13687	0	776
21.709	18.572	16604	13923	0	776
21.060	17.706	16603	14223	0	776
15.326	13.595	16601	14525	0	776
13.704	12.261	16597	14799	0	776
14.713	11.071	16600	15096	0	776
17.743	11.864	16600	15429	0	776
18.031	14.713	16603	15740	0	776
18.103	15.218	16603	16007	0	776
14.100	16.264	16607	16235	0	776
10.025	13.884	16609	16437	0	776
9.701	14.136	16611	16641	0	776
14.317	16.697	16616	16843	0	776
18.428	17.382	16619	17021	0	776
22.322	21.565	16623	17154	0	776
22.575	21.204	16627	17243	0	776
20.772	21.277	16627	17309	0	776
20.447	21.457	16634	17398	0	776
18.752	18.392	16638	17503	0	776
20.050	20.339	16643	17571	0	776
17.382	18.572	16647	17585	0	776
18.356	19.077	16650	17583	0	776
17.202	18.356	16653	17590	0	776
19.473	20.014	16660	17608	0	776
18.356	19.510	16664	17606	0	776
17.851	19.329	16664	17512	0	776
14.713	19.690	16661	17320	0	776
15.002	19.834	16658	17124	0	776
14.100	22.431	16657	16967	0	776
17.815	24.234	16654	16812	0	776
18.536	24.450	16649	16634	0	776
17.995	23.440	16642	16426	0	776
15.615	18.392	16638	16223	0	776
13.956	16.048	16631	16059	0	776
12.550	13.523	16623	15933	0	776
9.809	13.235	16619	15815	0	776
9.016	13.163	16609	15694	0	776
7.934	10.422	16601	15539	0	776
7.321	12.405	16592	15359	0	776
9.989	12.189	16581	15216	0	776
12.477	11.864	16573	15136	0	776
11.684	13.163	16565	15103	0	776
10.025	12.369	16555	15085	0	776
8.619	11.287	16547	15047	0	776
6.671	11.900	16538	15014	0	776
5.698	12.730	16530	15017	0	776
8.078	11.287	16522	15059	0	776
9.665	13.631	16515	15113	0	776
12.802	11.648	16508	15160	0	776
13.740	11.107	16500	15211	0	776
15.651	9.629	16496	15286	0	776
15.939	7.934	16489	15389	0	776
15.435	9.809	16484	15499	0	776
18.175	13.884	16479	15593	0	776
18.608	17.490	16473	15675	0	776
20.627	21.637	16470	15773	0	776
19.329	21.168	16466	15890	0	776
19.906	23.152	16465	16003	0	776
20.808	21.457	16457	16059	0	776
18.428	22.034	16447	15989	0	776
18.824	22.286	16435	15825	0	776
17.598	20.916	16425	15712	0	776
19.149	21.673	16416	15687	0	776
17.021	18.716	16405	15675	0	776
18.067	18.283	16397	15654	0	776
14.749	15.435	16387	15649	0	776
14.858	13.704	16382	15675	0	776
14.100	10.783	16374	15731	0	776
15.002	10.097	16367	15790	0	776
17.634	6.275	16359	15818	0	776
16.012	4.760	16349	15792	0	776
16.084	3.462	16337	15701	0	776
16.264	5.445	16324	15577	0	776
19.077	7.248	16310	15492	0	776
19.870	12.730	16301	15464	0	776
22.899	16.372	16289	15455	0	776
25.352	17.526	16275	15415	0	776
26.109	19.041	16263	15352	0	776
27.299	20.123	16252	15335	0	776
29.787	20.880	16243	15403	0	776
30.869	24.991	16234	15520	0	776
32.059	24.630	16225	15609	0	776
30.400	24.811	16216	15637	0	776
30.653	23.080	16207	15680	0	776
26.830	20.880	16202	15792	0	776
23.729	20.123	16198	15956	0	776
20.555	18.824	16192	16108	0	776
15.903	15.435	16187	16221	0	776
13.163	14.389	16183	16324	0	776
12.369	10.819	16183	16461	0	776
10.350	8.583	16181	16650	0	776
12.910	11.107	16183	16840	0	776
13.343	12.441	16183	16974	0	776
11.504	15.579	16181	17065	0	776
14.245	18.752	16181	17161	0	776
12.550	16.697	16186	17276	0	776
11.576	15.471	16188	17402	0	776
9.917	11.900	16191	17522	0	776
8.691	9.809	16195	17613	0	776
8.727	12.261	16199	17662	0	776
12.369	12.622	16202	17695	0	776
17.202	13.884	16203	17714	0	776
19.726	16.733	16206	17700	0	776
19.510	16.769	16207	17648	0	776
19.726	21.493	16208	17576	0	776
18.644	24.342	16207	17487	0	776
21.313	26.109	16213	17428	0	776
21.277	24.378	16217	17456	0	776
20.555	21.168	16221	17531	0	776
14.749	16.300	16224	17515	0	776
12.189	17.490	16219	17332	0	776
11.179	15.975	16214	17053	0	776
11.900	16.228	16210	16782	0	776
13.704	14.461	16203	16561	0	776
13.343	12.261	16197	16359	0	776
13.054	11.468	16186	16110	0	776
12.225	10.963	16173	15813	0	776
9.448	9.629	16164	15546	0	776
7.285	9.124	16152	15366	0	776
3.390	6.094	16145	15258	0	776
-0.144	4.400	16134	15195	0	776
-0.505	5.517	16126	15134	0	776
0.974	7.609	16118	15075	0	776
3.246	9.737	16108	15036	0	776
5.157	14.245	16099	15014	0	776
5.554	15.687	16089	15000	0	776
7.176	17.490	16081	14989	0	776
5.914	16.516	16072	15003	0	776
6.744	16.264	16065	15057	0	776
6.635	14.930	16060	15162	0	776
7.970	16.012	16057	15298	0	776
8.078	15.002	16050	15420	0	776
6.239	12.405	16046	15532	0	776
5.301	11.287	16043	15663	0	776
1.587	7.068	16041	15815	0	776
-0.757	4.832	16041	15965	0	776
-0.144	3.931	16035	16080	0	776
1.406	2.560	16032	16162	0	776
3.859	3.137	16031	16244	0	776
5.806	4.003	16030	16349	0	776
7.140	5.554	16027	16454	0	776
7.717	7.032	16026	16529	0	776
7.681	8.871	16024	16543	0	776
9.268	9.701	16016	16503	0	776
9.340	13.307	16014	16451	0	776
9.232	14.713	16008	16435	0	776
9.196	13.307	16011	16515	0	776
10.169	14.389	16011	16679	0	776
11.143	12.261	16012	16828	0	776
14.389	16.264	16018	16946	0	776
17.634	17.743	16023	17126	0	776
17.310	20.988	16035	17419	0	776
19.113	19.113	16053	17800	0	776
17.382	20.700	16073	18234	0	776
18.933	18.897	16094	18667	0	776
19.113	20.736	16118	19058	0	776
20.087	17.274	16145	19435	0	776
15.254	15.146	16172	19821	0	776
12.694	10.602	16205	20198	0	776
9.016	8.943	16234	20522	0	776
9.556	9.160	16265	20758	0	776
14.100	9.412	16299	20950	0	776
15.795	5.481	16332	21140	0	776
15.723	2.452	16366	21318	0	776
13.668	-0.793	16401	21437	0	776
13.523	-0.865	16432	21468	0	776
17.670	4.255	16463	21407	0	776
21.601	10.169	16495	21287	0	776
24.883	13.595	16525	21163	0	776
26.289	13.595	16557	21032	0	776
22.899	13.235	16585	20852	1	848
21.781	12.045	16614	20618	0	848
24.125	12.153	16639	20374	0	848
24.847	16.985	16666	20138	0	848
26.217	18.897	16695	19901	0	848
27.768	22.358	16719	19629	0	848
27.732	24.017	16737	19257	0	848
28.561	23.585	16753	18782	0	848
30.545	25.424	16769	18304	0	848
32.925	27.551	16782	17875	0	848
33.502	28.128	16793	17463	0	848
30.977	28.814	16804	17065	0	848
26.794	25.676	16812	16660	0	848
21.673	21.204	16815	16216	0	848
17.562	16.372	16821	15780	0	848
16.156	15.543	16829	15492	0	848
14.172	13.054	16838	15352	0	848
13.307	12.730	16844	15207	0	848
10.783	10.530	16848	14972	0	848
8.366	9.773	16848	14698	0	848
7.176	8.330	16849	14464	0	848
8.835	9.809	16850	14305	0	848
10.530	9.809	16853	14218	0	848
11.360	9.773	16855	14160	0	848
13.271	10.855	16855	14089	0	848
13.704	10.783	16855	14012	0	848
13.199	12.874	16855	13965	0	848
15.831	18.788	16855	13968	0	848
17.202	22.214	16852	13993	0	848
20.267	26.037	16849	13991	0	848
20.303	25.748	16847	13977	0	848
21.168	25.063	16844	13989	0	848
20.195	25.135	16842	14052	0	848
20.519	27.371	16840	14129	0	848
20.123	28.345	16834	14169	0	848
17.995	28.020	16830	14192	0	848
15.543	22.647	16828	14249	0	848
9.196	15.939	16826	14368	0	848
4.940	8.799	16823	14516	0	848
2.380	4.616	16821	14633	0	848
2.344	2.705	16814	14675	0	848
2.236	1.623	16803	14602	0	848
2.308	1.947	16792	14469	0	848
-0.469	0.865	16783	14408	0	848
-2.488	0.685	16773	14452	0	848
-5.481	-1.551	16764	14485	0	848
-5.157	-0.541	16749	14415	0	848
-4.111	1.010	16736	14310	0	848
-4.327	0.325	16725	14291	0	848
-4.868	-1.551	16714	14368	0	848
-3.750	-2.993	16706	14502	0	848
-2.633	-2.885	16698	14642	0	848
3.318	-0.108	16687	14738	0	848
8.511	3.787	16680	14844	0	848
10.458	5.986	16679	15087	0	848
10.855	9.196	16679	15452	0	848
11.360	9.448	16679	15787	0	848
11.864	12.045	16679	16010	0	848
13.487	15.903	16676	16141	0	848
17.238	18.031	16673	16246	0	848
17.057	18.247	16672	16370	0	848
19.257	18.788	16672	16522	0	848
18.428	18.680	16672	16676	0	848
18.933	16.264	16672	16796	0	848
15.651	15.435	16671	16885	0	848
14.281	13.199	16672	16974	0	848
12.586	11.792	16673	17067	0	848
13.451	12.297	16673	17135	0	848
13.704	12.261	16672	17142	0	848
11.251	10.999	16672	17112	0	848
10.206	11.179	16669	17081	0	848
8.835	9.989	16666	17039	0	848
7.429	9.701	16664	16969	0	848
9.448	12.550	16661	16882	0	848
13.451	13.776	16655	16800	0	848
15.795	13.776	16655	16732	0	848
19.834	14.930	16652	16709	0	848
22.286	13.884	16650	16711	0	848
25.388	14.064	16647	16688	0	848
25.568	12.874	16646	16627	0	848
25.316	11.792	16639	16531	0	848
26.325	13.523	16634	16416	0	848
28.381	16.084	16630	16317	0	848
31.374	20.700	16622	16221	0	848
38.695	25.929	16617	16125	0	848
42.625	28.633	16608	16022	0	848
45.582	29.931	16599	15867	0	848
42.914	26.109	16589	15680	0	848
40.786	23.404	16577	15544	0	848
37.685	19.149	16569	15478	0	848
34.259	14.064	16561	15436	0	848
28.705	11.143	16550	15366	0	848
21.421	6.996	16538	15260	0	848
15.471	3.137	16527	15167	0	848
11.504	1.983	16517	15132	0	848
12.550	4.508	16508	15160	0	848
19.185	8.150	16500	15195	0	848
22.431	13.415	16489	15197	0	848
21.962	12.009	16481	15232	0	848
18.969	10.422	16477	15340	0	848
14.281	7.429	16470	15466	0	848
14.064	6.347	16465	15562	0	848
16.228	8.366	16457	15626	0	848
19.473	12.117	16451	15675	0	848
20.159	16.625	16443	15740	0	848
20.808	16.949	16439	15829	0	848
18.211	16.877	16433	15928	0	848
20.664	13.812	16427	16007	0	848
20.591	13.740	16421	16040	0	848
24.739	13.704	16416	16054	0	848
28.597	16.661	16411	16103	0	848
32.492	21.745	16405	16192	0	848
36.819	23.621	16402	16274	0	848
38.118	24.955	16398	16347	0	848
35.124	24.702	16395	16414	0	848
30.364	22.863	16392	16475	0	848
24.702	18.139	16387	16503	0	848
21.024	15.507	16383	16484	0	848
17.959	13.776	16378	16447	0	848
17.598	11.612	16373	16426	0	848
15.002	11.937	16367	16416	0	848
12.405	7.681	16362	16398	0	848
7.285	3.606	16356	16370	0	848
3.173	-1.298	16349	16345	0	848
2.813	-1.551	16343	16314	0	848
4.544	-0.288	16335	16221	0	848
5.698	3.823	16325	16094	0	848
7.609	4.147	16320	16073	0	848
5.049	4.364	16316	16136	0	848
1.731	1.154	16305	16096	0	848
-0.577	-0.144	16292	15900	0	848
-0.361	0.144	16279	15680	0	848
1.298	1.046	16265	15544	0	848
3.173	2.813	16256	15497	0	848
4.003	4.111	16248	15518	0	848
5.590	6.780	16240	15558	0	848
7.898	7.862	16233	15588	0	848
9.737	8.979	16227	15668	0	848
11.107	13.091	16225	15818	0	848
12.838	15.146	16221	15977	0	848
15.723	18.175	16217	16085	0	848
15.398	18.897	16211	16143	0	848
16.480	18.824	16207	16176	0	848
12.982	15.254	16203	16230	0	848
7.321	9.484	16200	16324	0	848
1.875	5.265	16197	16416	0	848
-2.164	0.397	16191	16433	0	848
-1.334	-2.777	16183	16326	0	848
-0.577	-2.344	16172	16169	0	848
0.865	-1.046	16165	16096	0	848
-0.469	-2.236	16160	16122	0	848
-3.354	-3.101	16152	16155	0	848
-4.472	-5.229	16151	16183	0	848
-4.652	-4.688	16145	16223	0	848
-1.010	-5.265	16138	16249	0	848
2.200	-4.580	16134	16253	0	848
1.767	-6.022	16129	16272	0	848
0.577	-5.554	16125	16319	0	848
-0.180	-4.724	16122	16363	0	848
1.406	-2.200	16118	16384	0	848
4.832	3.210	16113	16386	0	848
10.638	8.330	16108	16384	0	848
16.120	12.297	16106	16391	0	848
17.923	13.704	16100	16409	0	848
19.149	15.074	16097	16437	0	848
16.084	12.117	16095	16458	0	848
14.208	6.239	16091	16470	0	848
10.314	5.373	16088	16487	0	848
8.691	4.472	16086	16508	0	848
8.511	4.904	16078	16470	0	848
6.671	6.599	16072	16356	0	848
6.780	6.491	16065	16242	0	848
6.094	4.327	16060	16197	0	848
5.121	0.469	16057	16221	0	848
4.616	-1.010	16053	16279	0	848
3.282	-0.361	16050	16335	0	848
1.695	0.577	16050	16393	0	848
0.721	2.128	16049	16468	0	848
0.793	2.596	16049	16550	0	848
3.318	5.409	16050	16613	0	848
7.068	6.852	16048	16650	0	848
10.350	9.773	16048	16697	0	848
13.740	10.927	16051	16789	0	848
15.326	13.848	16056	16936	0	848
19.654	13.848	16062	17114	0	848
22.431	16.625	16068	17236	0	848
26.397	21.637	16068	17231	0	848
26.542	22.683	16069	17173	0	848
22.863	23.152	16076	17231	0	848
20.808	23.440	16086	17433	0	848
16.444	20.159	16096	17681	0	848
17.743	19.906	16113	17941	0	848
17.815	22.142	16132	18234	0	848
19.906	22.178	16151	18557	0	848
20.916	24.666	16175	18880	0	848
18.500	20.952	16198	19187	0	848
18.752	18.283	16226	19484	0	848
16.516	16.769	16253	19758	0	848
17.238	15.471	16278	19953	0	848
15.903	15.651	16305	20091	0	848
18.320	17.779	16337	20306	0	848
17.310	18.464	16371	20592	0	848
18.536	22.647	16402	20793	0	848
18.320	28.994	16435	20859	0	848
19.401	29.246	16465	20854	0	848
16.625	27.047	16496	20803	0	848
15.939	21.060	16523	20716	0	848
14.930	18.356	16552	20611	0	848
16.192	18.356	16578	20456	1	832
19.726	24.162	16606	20231	0	832
22.863	27.299	16627	19964	0	832
21.601	26.361	16650	19686	0	832
20.519	23.296	16671	19400	0	832
14.425	19.005	16690	19084	0	832
12.153	15.074	16706	18725	0	832
8.547	12.225	16722	18355	0	832
7.248	13.054	16737	18016	0	832
5.806	12.009	16752	17700	0	832
9.556	14.281	16763	17376	0	832
11.396	15.110	16775	17035	0	832
13.812	13.631	16783	16704	0	832
14.749	12.153	16793	16416	0	832
11.071	9.160	16802	16164	0	832
6.455	8.114	16809	15918	0	832
5.049	7.285	16815	15661	0	832
4.291	7.104	16819	15403	0	832
5.157	5.734	16826	15183	0	832
3.859	3.895	16829	15026	0	832
4.364	2.885	16831	14895	0	832
4.219	2.200	16831	14712	0	832
4.616	1.875	16826	14434	0	832
3.859	4.291	16821	14125	0	832
6.708	3.570	16815	13893	0	832
6.167	4.868	16812	13783	0	832
6.924	4.436	16810	13764	0	832
9.340	5.373	16806	13755	0	832
10.891	6.635	16799	13675	0	832
10.169	8.907	16790	13532	0	832
9.052	9.088	16779	13401	0	832
8.619	12.405	16771	13333	0	832
10.314	14.136	16761	13338	0	832
15.362	19.546	16752	13356	0	832
20.916	22.358	16737	13324	0	832
27.335	26.542	16727	13274	0	832
29.535	25.604	16715	13296	0	832
30.040	24.630	16707	13420	0	832
28.381	24.306	16700	13616	0	832
27.047	24.883	16693	13834	0	832
23.368	22.178	16687	14026	0	832
19.546	20.014	16682	14218	0	832
14.208	14.172	16679	14448	0	832
13.776	11.576	16673	14670	0	832
16.336	11.504	16668	14844	0	832
19.546	15.182	16664	14996	0	832
23.837	20.267	16660	15192	0	832
26.614	23.693	16658	15443	0	832
23.549	21.168	16661	15731	0	832
20.736	20.844	16662	16010	0	832
19.942	15.723	16665	16251	0	832
17.815	14.821	16666	16456	0	832
19.221	12.477	16669	16662	0	832
17.923	13.163	16674	16889	0	832
18.103	13.848	16680	17131	0	832
14.028	12.333	16687	17339	0	832
14.749	13.884	16693	17494	0	832
14.569	14.894	16699	17615	0	832
18.969	17.634	16706	17721	0	832
21.132	16.949	16711	17805	0	832
25.856	18.175	16715	17838	0	832
25.388	16.697	16715	17765	0	832
24.162	13.776	16714	17580	0	832
21.673	14.749	16711	17374	0	832
17.490	12.910	16708	17208	0	832
17.129	14.245	16707	17065	0	832
17.093	14.497	16704	16936	0	832
21.277	15.435	16700	16812	0	832
24.198	19.185	16696	16669	0	832
29.102	25.352	16692	16510	0	832
34.908	29.499	16691	16423	0	832
38.370	33.177	16692	16444	0	832
38.370	32.492	16692	16480	0	832
35.160	25.171	16690	16430	0	832
27.407	18.752	16685	16317	0	832
21.673	12.910	16681	16197	0	832
18.067	10.314	16677	16120	0	832
16.084	11.504	16676	16080	0	832
15.831	10.422	16673	16068	0	832
13.415	5.842	16671	16054	0	832
8.691	0.829	16666	16017	0	832
4.472	-4.904	16665	15975	0	832
4.760	-7.501	16660	15942	0	832
6.491	-6.527	16654	15904	0	832
10.169	-2.705	16649	15834	0	832
11.143	-1.370	16643	15752	0	832
12.730	-1.010	16636	15689	0	832
10.891	-0.902	16633	15670	0	832
9.629	-0.288	16627	15668	0	832
8.114	-0.433	16619	15633	0	832
9.124	2.128	16614	15562	0	832
8.042	3.282	16604	15513	0	832
9.124	6.311	16600	15509	0	832
12.910	9.340	16596	15539	0	832
20.014	13.091	16589	15584	0	832
24.053	19.870	16585	15640	0	832
29.895	21.132	16580	15689	0	832
34.187	24.342	16574	15722	0	832
33.105	25.496	16569	15733	0	832
32.059	22.250	16562	15710	0	832
28.850	21.493	16554	15666	0	832
26.650	17.887	16544	15595	0	832
21.132	13.487	16531	15471	0	832
18.752	13.054	16519	15335	0	832
14.641	10.169	16512	15310	0	832
15.254	10.422	16503	15366	0	832
12.297	8.619	16492	15338	0	832
12.982	10.422	16474	15181	0	832
13.018	11.540	16459	14993	0	832
16.228	14.100	16441	14869	0	832
21.060	19.293	16427	14785	0	832
24.811	20.519	16408	14644	0	832
24.630	20.844	16385	14441	0	832
23.044	20.050	16367	14310	0	832
19.149	16.877	16354	14345	0	832
15.254	13.523	16341	14495	0	832
13.163	12.802	16333	14701	0	832
14.858	12.045	16322	14911	0	832
14.208	13.487	16316	15096	0	832
16.913	12.189	16306	15260	0	832
18.536	11.323	16299	15429	0	832
21.529	11.179	16291	15605	0	832
22.214	11.504	16286	15776	0	832
21.168	12.622	16279	15923	0	832
21.890	12.658	16272	16059	0	832
17.670	11.973	16268	16211	0	832
17.995	10.746	16267	16398	0	832
17.887	13.992	16263	16590	0	832
22.611	18.752	16259	16725	0	832
24.666	22.503	16255	16775	0	832
24.378	22.250	16244	16695	0	832
25.063	21.709	16233	16538	0	832
22.250	18.824	16224	16437	0	832
20.700	19.077	16216	16423	0	832
20.736	21.024	16208	16435	0	832
21.781	22.827	16202	16454	0	832
24.630	25.496	16195	16491	0	832
30.653	30.040	16192	16566	0	832
34.547	31.013	16192	16702	0	832
39.308	34.800	16194	16875	0	832
37.757	36.242	16191	16992	0	832
33.538	34.511	16186	16983	0	832
29.679	34.511	16181	16885	0	832
25.604	34.692	16175	16793	0	832
23.332	33.682	16168	16744	0	832
25.243	33.646	16164	16707	0	832
21.926	31.446	16156	16625	0	832
21.673	30.472	16151	16519	0	832
20.087	27.083	16145	16489	0	832
15.254	26.758	16143	16540	0	832
14.461	22.322	16138	16583	0	832
10.999	19.654	16135	16564	0	832
7.573	16.877	16130	16496	0	832
8.042	16.589	16123	16449	0	832
10.278	18.428	16123	16470	0	832
12.766	22.575	16121	16524	0	832
13.379	25.316	16118	16571	0	832
15.759	22.539	16114	16587	0	832
12.261	20.736	16113	16583	0	832
12.441	17.706	16108	16543	0	832
12.009	15.795	16097	16402	0	832
11.937	16.913	16087	16176	0	832
11.251	17.382	16076	15970	0	832
10.278	19.582	16067	15836	0	832
10.746	18.211	16057	15757	0	832
11.432	19.618	16050	15726	0	832
12.045	18.680	16043	15731	0	832
12.586	21.565	16037	15722	0	832
15.110	22.106	16027	15689	0	832
15.651	25.965	16018	15651	0	832
18.752	27.660	16011	15628	0	832
18.464	27.984	16002	15616	0	832
16.408	21.998	15996	15626	0	832
9.917	16.985	15986	15651	0	832
5.409	10.314	15980	15649	0	832
1.875	6.744	15970	15616	0	832
1.947	4.436	15961	15595	0	832
3.498	3.173	15953	15605	0	832
5.517	1.911	15946	15628	0	832
8.294	1.731	15937	15642	0	832
11.684	4.364	15927	15623	0	832
15.579	8.366	15918	15619	0	832
20.231	11.612	15916	15733	0	832
21.457	13.812	15913	15944	0	832
22.178	12.514	15912	16132	0	832
23.260	14.821	15910	16263	0	832
22.683	16.625	15908	16384	0	832
21.962	17.959	15910	16543	0	832
22.467	18.824	15913	16777	0	832
19.978	18.933	15923	17079	0	832
21.529	18.175	15931	17386	0	832
22.214	22.899	15940	17665	0	832
26.001	27.263	15957	17988	0	832
28.525	31.915	15976	18395	0	832
29.823	33.970	15996	18824	0	832
28.164	31.771	16021	19220	0	832
27.335	30.292	16043	19569	0	832
26.397	30.689	16069	19882	0	832
28.777	32.564	16099	20206	0	832
30.400	35.269	16130	20559	0	832
31.879	36.098	16164	20901	0	832
29.895	34.295	16197	21168	0	832
24.919	29.787	16232	21353	0	832
23.260	26.145	16265	21489	0	832
21.709	23.332	16298	21597	0	832
20.916	21.890	16333	21653	0	832
24.053	20.916	16366	21625	0	832
25.496	21.962	16395	21526	0	832
28.128	23.549	16425	21381	0	832
31.122	21.854	16457	21191	0	832
32.312	22.827	16482	20953	1	840
31.230	19.185	16509	20660	0	840
29.463	17.454	16532	20339	0	840
24.378	15.002	16554	19997	0	840
19.798	15.254	16574	19587	0	840
17.382	13.054	16589	19112	0	840
15.471	13.920	16601	18634	0	840
18.103	13.415	16616	18177	0	840
19.510	12.766	16625	17688	0	840
22.647	14.172	16630	17147	0	840
24.558	13.631	16634	16622	0	840
27.191	17.454	16639	16174	0	840
29.823	18.716	16643	15808	0	840
30.040	20.087	16647	15518	0	840
28.273	18.464	16652	15256	0	840
24.270	15.543	16654	14986	0	840
19.582	11.648	16655	14740	0	840
15.471	8.727	16655	14532	0	840
12.802	8.583	16658	14361	0	840
8.835	4.760	16658	14218	0	840
7.825	3.859	16657	14089	0	840
6.599	2.596	16655	13993	0	840
6.203	4.075	16657	13965	0	840
6.131	5.878	16658	14007	0	840
6.527	9.809	16661	14089	0	840
4.616	10.566	16664	14183	0	840
5.229	8.943	16666	14305	0	840
6.491	7.465	16671	14457	0	840
9.953	7.501	16677	14644	0	840
11.071	8.330	16682	14853	0	840
14.605	10.314	16688	15033	0	840
16.733	11.900	16693	15176	0	840
20.050	14.389	16699	15317	0	840
21.565	15.074	16706	15478	0	840
25.243	19.185	16714	15661	0	840
27.083	21.781	16720	15851	0	840
29.282	23.837	16728	16026	0	840
30.040	23.981	16734	16164	0	840
28.669	23.549	16742	16256	0	840
27.227	22.503	16746	16314	0	840
26.037	18.933	16749	16338	0	840
25.893	18.644	16753	16321	0	840
27.840	18.103	16753	16277	0	840
27.083	20.123	16754	16223	0	840
20.916	19.654	16756	16167	0	840
15.651	19.401	16753	16094	0	840
10.061	16.805	16753	16014	0	840
9.556	13.884	16749	15928	0	840
11.360	11.756	16745	15792	0	840
13.812	11.900	16739	15637	0	840
14.713	10.422	16736	15562	0	840
11.107	6.419	16736	15598	0	840
6.527	4.616	16737	15675	0	840
3.101	0.541	16734	15719	0	840
3.282	0.649	16733	15719	0	840
7.429	4.327	16733	15738	0	840
14.064	10.061	16734	15820	0	840
20.123	13.523	16733	15911	0	840
21.601	17.526	16734	15958	0	840
22.395	19.005	16733	15958	0	840
21.204	22.863	16730	15949	0	840
23.368	24.739	16727	15944	0	840
25.243	25.243	16723	15916	0	840
23.909	24.125	16719	15846	0	840
22.791	20.664	16712	15731	0	840
20.591	20.303	16701	15574	0	840
19.221	22.647	16692	15408	0	840
21.781	21.096	16684	15328	0	840
20.916	20.591	16679	15347	0	840
20.195	13.920	16674	15387	0	840
13.956	10.242	16668	15415	0	840
9.592	6.960	16662	15436	0	840
5.085	5.517	16657	15452	0	840
4.039	6.888	16650	15464	0	840
5.121	5.950	16645	15504	0	840
4.977	5.049	16643	15591	0	840
3.426	2.813	16639	15691	0	840
2.596	1.442	16634	15769	0	840
3.390	1.911	16631	15811	0	840
9.629	4.724	16625	15825	0	840
16.949	10.242	16620	15836	0	840
24.522	15.182	16614	15853	0	840
25.460	18.283	16609	15874	0	840
24.162	15.975	16603	15907	0	840
22.539	12.946	16599	15940	0	840
21.277	10.530	16592	15963	0	840
23.332	10.422	16588	15972	0	840
28.128	14.930	16581	15940	0	840
29.679	17.129	16571	15860	0	840
28.453	19.077	16561	15783	0	840
26.542	15.651	16554	15750	0	840
22.358	13.235	16547	15747	0	840
19.654	9.701	16538	15722	0	840
16.697	6.491	16527	15637	0	840
16.769	4.111	16515	15544	0	840
14.821	4.327	16505	15485	0	840
14.677	4.796	16495	15455	0	840
15.110	5.698	16484	15441	0	840
12.369	6.527	16476	15431	0	840
11.179	4.977	16465	15443	0	840
9.052	5.229	16458	15490	0	840
9.737	6.167	16450	15562	0	840
13.127	11.864	16444	15640	0	840
16.625	14.208	16435	15696	0	840
16.336	14.281	16430	15733	0	840
17.923	15.723	16420	15759	0	840
17.057	15.507	16408	15738	0	840
20.627	18.211	16398	15684	0	840
23.188	20.411	16389	15677	0	840
24.775	20.700	16383	15747	0	840
23.224	15.398	16378	15846	0	840
15.290	10.278	16371	15944	0	840
10.458	4.977	16366	16033	0	840
6.996	4.508	16359	16092	0	840
8.186	7.140	16354	16129	0	840
14.461	12.333	16348	16181	0	840
18.572	16.408	16343	16239	0	840
20.303	16.913	16336	16272	0	840
17.634	18.103	16328	16260	0	840
16.372	15.687	16322	16228	0	840
15.002	17.634	16310	16181	0	840
15.831	18.320	16301	16094	0	840
18.933	20.050	16290	15977	0	840
17.454	19.618	16278	15874	0	840
17.202	20.303	16265	15773	0	840
17.166	20.519	16253	15666	0	840
19.221	20.087	16238	15567	0	840
20.267	21.060	16225	15462	0	840
18.969	18.392	16211	15389	0	840
17.418	16.697	16203	15406	0	840
12.369	14.677	16195	15513	0	840
8.475	14.821	16188	15651	0	840
9.016	14.172	16180	15755	0	840
10.638	18.933	16172	15804	0	840
12.153	19.401	16165	15836	0	840
15.110	21.096	16157	15902	0	840
16.084	18.933	16152	15991	0	840
14.930	19.618	16143	16061	0	840
18.139	19.005	16140	16127	0	840
18.860	20.447	16134	16223	0	840
20.591	22.034	16133	16375	0	840
17.346	17.202	16133	16547	0	840
16.228	15.182	16127	16641	0	840
11.468	12.514	16118	16573	0	840
12.081	12.730	16110	16426	0	840
14.389	17.526	16103	16366	0	840
15.975	18.464	16097	16407	0	840
17.418	20.195	16094	16465	0	840
16.336	17.598	16089	16519	0	840
16.300	16.336	16087	16587	0	840
13.091	13.199	16084	16646	0	840
12.225	12.189	16078	16655	0	840
11.504	12.369	16077	16672	0	840
11.973	12.946	16077	16768	0	840
14.353	15.723	16076	16873	0	840
14.136	17.382	16072	16875	0	840
14.605	17.490	16068	16791	0	840
14.713	15.398	16067	16723	0	840
13.199	15.290	16061	16704	0	840
16.120	15.615	16057	16683	0	840
17.238	17.598	16050	16601	0	840
20.087	20.375	16045	16477	0	840
20.231	22.972	16038	16395	0	840
22.214	22.034	16035	16391	0	840
21.204	24.162	16032	16437	0	840
22.719	27.660	16031	16491	0	840
26.217	28.994	16030	16505	0	840
26.073	29.679	16026	16503	0	840
27.804	27.047	16023	16519	0	840
22.250	21.637	16024	16559	0	840
17.057	14.497	16022	16592	0	840
10.025	12.369	16021	16590	0	840
7.681	11.396	16018	16573	0	840
8.619	11.828	16016	16576	0	840
13.054	17.382	16016	16620	0	840
19.185	20.014	16019	16674	0	840
25.063	23.080	16012	16655	0	840
21.998	20.447	16005	16487	0	840
18.175	17.454	15995	16239	0	840
13.307	11.360	15991	16101	0	840
10.674	11.323	15986	16122	0	840
12.009	11.504	15986	16207	0	840
16.985	16.444	15989	16324	0	840
17.129	18.392	15993	16498	0	840
18.572	17.057	16002	16739	0	840
16.480	15.759	16011	17025	0	840
16.480	10.710	16023	17323	0	840
15.939	10.566	16035	17576	0	840
15.903	11.071	16046	17770	0	840
17.238	12.117	16060	17978	0	840
14.389	14.785	16078	18236	0	840
12.622	16.048	16097	18522	0	840
9.701	17.057	16119	18824	0	840
10.710	18.175	16142	19133	0	840
15.507	21.349	16168	19423	0	840
20.700	22.503	16197	19707	0	840
26.397	26.181	16229	20056	0	840
27.768	26.397	16264	20451	0	840
24.775	23.945	16298	20758	0	840
19.978	19.978	16329	20906	0	840
17.202	13.848	16362	20939	0	840
15.435	11.540	16389	20936	0	840
14.281	10.783	16419	20920	0	840
18.572	14.317	16448	20861	0	840
17.490	16.877	16473	20723	0	840
18.428	16.516	16500	20498	1	820
16.228	17.743	16523	20241	0	820
17.526	15.939	16547	19997	0	820
17.021	17.887	16569	19765	0	820
20.014	19.149	16592	19515	0	820
20.375	21.781	16614	19227	0	820
21.313	23.837	16631	18924	0	820
20.159	20.087	16652	18639	0	820
14.605	16.877	16669	18386	0	820
13.523	11.720	16687	18145	0	820
12.333	7.862	16704	17878	0	820
12.910	9.268	16719	17594	0	820
14.821	12.910	16734	17323	0	820
14.605	14.028	16746	17070	0	820
13.307	16.589	16761	16824	0	820
13.307	13.812	16771	16557	0	820
13.091	14.821	16779	16284	0	820
16.120	14.785	16787	16024	0	820
15.398	16.084	16795	15799	0	820
15.290	16.192	16802	15600	0	820
13.776	15.290	16807	15413	0	820
13.776	18.067	16812	15230	0	820
17.706	19.546	16815	15040	0	820
18.644	21.565	16814	14797	0	820
21.890	23.657	16812	14544	0	820
22.322	22.286	16815	14410	0	820
20.050	21.709	16815	14366	0	820
19.726	19.690	16812	14256	0	820
16.408	18.247	16806	14050	0	820
15.651	16.733	16798	13827	0	820
15.038	16.661	16791	13656	0	820
17.382	18.536	16784	13567	0	820
19.690	23.476	16776	13548	0	820
24.991	28.092	16769	13518	0	820
26.397	31.554	16758	13448	0	820
23.801	29.427	16752	13431	0	820
20.988	26.217	16747	13534	0	820
14.894	19.870	16741	13684	0	820
11.828	14.100	16734	13792	0	820
11.071	13.523	16726	13827	0	820
11.251	12.586	16717	13841	0	820
11.864	14.028	16708	13904	0	820
10.819	13.812	16700	14022	0	820
10.386	10.855	16692	14153	0	820
10.061	10.061	16687	14274	0	820
10.314	7.140	16680	14415	0	820
9.665	5.698	16674	14607	0	820
7.609	4.832	16673	14858	0	820
7.068	2.921	16671	15127	0	820
8.294	3.498	16671	15354	0	820
11.504	4.724	16668	15539	0	820
15.615	9.160	16666	15724	0	820
18.464	12.261	16668	15925	0	820
16.625	10.350	16668	16134	0	820
15.615	9.340	16669	16333	0	820
12.946	7.573	16672	16519	0	820
13.559	7.934	16673	16674	0	820
13.415	10.206	16674	16786	0	820
13.054	14.100	16674	16875	0	820
14.208	14.497	16676	16939	0	820
13.415	19.437	16677	16985	0	820
17.382	22.935	16676	16999	0	820
19.870	25.496	16671	16917	0	820
24.053	27.263	16666	16777	0	820
23.440	22.575	16662	16702	0	820
20.591	21.204	16660	16681	0	820
18.103	20.411	16654	16576	0	820
14.028	22.286	16643	16368	0	820
14.749	24.883	16631	16125	0	820
14.641	24.666	16622	15911	0	820
14.208	22.935	16611	15766	0	820
16.300	22.070	16604	15698	0	820
15.507	21.168	16596	15689	0	820
16.949	20.736	16590	15694	0	820
14.677	22.503	16587	15710	0	820
15.759	20.844	16578	15745	0	820
14.245	21.529	16576	15769	0	820
16.264	20.700	16568	15771	0	820
21.277	23.152	16561	15750	0	820
24.811	26.614	16552	15712	0	820
29.174	28.741	16544	15673	0	820
31.626	34.259	16534	15614	0	820
32.528	35.774	16523	15518	0	820
32.853	35.882	16511	15417	0	820
29.318	33.934	16501	15359	0	820
28.128	31.915	16493	15354	0	820
25.604	29.246	16484	15401	0	820
22.467	26.722	16476	15471	0	820
20.447	25.676	16469	15518	0	820
15.795	22.575	16459	15546	0	820
12.297	19.401	16452	15581	0	820
6.671	15.687	16444	15633	0	820
3.282	11.035	16439	15698	0	820
-0.613	7.753	16432	15762	0	820
-2.272	3.137	16424	15811	0	820
-2.560	2.452	16417	15839	0	820
-2.380	1.659	16408	15836	0	820
-4.039	1.154	16401	15846	0	820
-5.049	0.865	16400	15965	0	820
-6.960	-0.685	16397	16176	0	820
-5.409	-1.587	16393	16326	0	820
-2.200	1.334	16387	16335	0	820
1.695	4.832	16379	16258	0	820
2.524	6.816	16371	16185	0	820
1.875	9.484	16363	16143	0	820
1.262	8.042	16355	16103	0	820
2.524	9.989	16344	16024	0	820
6.744	11.864	16332	15895	0	820
12.766	13.523	16318	15752	0	820
15.795	19.149	16306	15642	0	820
19.546	18.897	16294	15579	0	820
18.392	22.827	16283	15539	0	820
20.627	23.044	16271	15490	0	820
19.473	24.270	16259	15462	0	820
19.906	25.063	16251	15490	0	820
20.772	24.162	16243	15560	0	820
18.428	23.693	16234	15647	0	820
17.887	22.431	16227	15733	0	820
14.677	17.815	16222	15834	0	820
14.064	16.733	16217	15970	0	820
13.199	14.028	16216	16132	0	820
12.622	14.713	16213	16298	0	820
13.379	13.668	16210	16426	0	820
9.917	12.333	16207	16522	0	820
7.429	9.232	16203	16587	0	820
9.701	8.150	16198	16604	0	820
15.074	9.088	16192	16564	0	820
22.250	14.641	16187	16533	0	820
28.561	17.959	16181	16564	0	820
32.600	21.204	16180	16625	0	820
32.997	17.995	16178	16688	0	820
32.997	17.634	16175	16749	0	820
35.701	16.733	16173	16782	0	820
36.711	17.887	16169	16775	0	820
36.783	16.733	16165	16746	0	820
32.312	15.146	16161	16716	0	820
25.568	9.088	16156	16693	0	820
16.985	6.131	16153	16665	0	820
15.507	5.373	16148	16627	0	820
17.202	10.242	16143	16566	0	820
25.027	14.641	16135	16433	0	820
29.066	17.274	16125	16260	0	820
26.866	17.382	16119	16169	0	820
22.178	12.694	16115	16195	0	820
19.510	11.432	16111	16239	0	820
18.572	12.514	16107	16260	0	820
24.378	18.175	16103	16256	0	820
27.155	23.440	16099	16244	0	820
27.155	27.479	16095	16253	0	820
25.316	23.945	16092	16300	0	820
21.313	20.231	16089	16340	0	820
