neuroNicle FX2
D3F25R12
Bluetooth SPP
2023년 3월 28일 화요일
오후 4:18
time interval = 4msec
EEG1	EEG2	PPG	sdPPG	pulse	peak_interval(msec)
14.497	-4.868	16367	13854	0	816
14.389	-4.075	16366	14086	0	816
11.576	-7.104	16366	14455	0	816
13.559	-8.907	16366	14914	0	816
15.218	-5.085	16367	15433	0	816
20.591	0.072	16368	15989	0	816
20.700	1.551	16369	16553	0	816
17.310	-0.721	16370	17108	0	816
10.386	-5.662	16372	17595	0	816
6.527	-11.215	16373	17902	0	816
6.203	-12.802	16373	18054	0	816
7.068	-15.687	16374	18223	0	816
6.599	-17.346	16376	18462	0	816
3.137	-23.152	16377	18699	0	816
3.246	-26.037	16379	18909	0	816
7.321	-25.063	16380	19095	0	816
15.939	-23.188	16381	19208	0	816
21.168	-19.834	16382	19145	0	816
21.421	-21.890	16383	18935	0	816
12.117	-27.010	16383	18757	0	816
4.039	-29.571	16384	18624	0	816
0.361	-29.354	16384	18380	1	796
0.757	-25.748	16384	18028	0	796
4.436	-23.693	16384	17757	0	796
6.455	-22.899	16384	17622	0	796
6.852	-25.424	16385	17554	0	796
7.176	-27.227	16385	17516	0	796
9.701	-24.522	16386	17455	0	796
14.461	-18.356	16385	17219	0	796
14.785	-12.477	16385	16741	0	796
13.559	-6.022	16384	16187	0	796
8.511	-0.180	16383	15687	0	796
1.479	1.298	16382	15279	0	796
-0.938	3.137	16381	15035	0	796
1.731	3.029	16380	14987	0	796
8.078	3.642	16380	15059	0	796
16.120	4.760	16381	15209	0	796
21.781	6.275	16381	15373	0	796
22.214	10.314	16381	15426	0	796
17.274	15.038	16380	15395	0	796
13.091	15.254	16380	15399	0	796
7.645	15.182	16380	15397	0	796
3.642	10.206	16379	15346	0	796
2.488	7.104	16379	15387	0	796
1.370	8.402	16379	15523	0	796
-0.757	11.468	16379	15585	0	796
-4.724	11.756	16379	15523	0	796
-10.025	9.881	16378	15414	0	796
-11.287	4.832	16377	15337	0	796
-8.907	0.974	16377	15385	0	796
-5.193	1.370	16377	15588	0	796
-0.685	3.101	16377	15873	0	796
-2.019	2.019	16378	16148	0	796
-3.246	0.974	16378	16302	0	796
-2.633	-1.298	16378	16356	0	796
3.895	-0.829	16379	16466	0	796
10.350	1.731	16379	16685	0	796
14.894	4.436	16380	16946	0	796
18.392	5.698	16381	17212	0	796
18.031	3.823	16383	17472	0	796
20.375	1.010	16383	17675	0	796
21.637	0.325	16384	17711	0	796
25.929	-0.757	16384	17615	0	796
28.886	1.587	16384	17559	0	796
29.787	4.364	16385	17603	0	796
31.807	4.760	16385	17634	0	796
33.177	5.842	16385	17525	0	796
37.432	5.517	16385	17315	0	796
47.025	7.609	16386	17175	0	796
55.788	6.816	16386	17151	0	796
60.224	4.616	16387	17178	0	796
59.358	-2.488	16388	17224	0	796
58.168	-8.799	16388	17241	0	796
57.375	-9.088	16388	17072	0	796
63.866	-1.190	16387	16654	0	796
69.492	11.648	16386	16201	0	796
70.141	18.283	16385	15943	0	796
65.489	16.769	16385	15873	0	796
61.017	6.491	16385	15892	0	796
55.175	-1.623	16385	15964	0	796
55.247	-6.708	16386	16085	0	796
55.536	-5.986	16386	16237	0	796
51.641	-4.111	16387	16408	0	796
48.648	-3.534	16388	16581	0	796
43.455	-1.118	16389	16702	0	796
42.409	0.288	16388	16627	0	796
42.986	3.642	16387	16298	0	796
46.664	3.823	16386	15911	0	796
46.412	2.488	16386	15711	0	796
43.996	0.288	16386	15684	0	796
41.291	-0.757	16386	15737	0	796
38.839	0.757	16386	15841	0	796
38.622	2.416	16386	15943	0	796
38.478	4.255	16386	15931	0	796
35.882	4.219	16385	15829	0	796
32.131	2.092	16385	15805	0	796
26.001	-1.803	16385	15914	0	796
19.762	-9.160	16386	16083	0	796
12.441	-14.208	16386	16273	0	796
6.996	-16.048	16387	16473	0	796
6.960	-15.723	16388	16632	0	796
13.307	-7.753	16388	16644	0	796
22.106	-0.072	16388	16538	0	796
30.761	6.275	16388	16490	0	796
31.807	10.855	16388	16548	0	796
26.830	9.376	16388	16649	0	796
19.221	7.248	16389	16763	0	796
14.713	3.426	16390	16888	0	796
12.946	-0.072	16390	17016	0	796
16.913	-0.469	16391	17137	0	796
20.159	1.875	16392	17245	0	796
23.476	7.970	16392	17286	0	796
25.207	14.136	16392	17161	0	796
28.633	22.647	16392	16864	0	796
32.131	25.316	16391	16480	0	796
36.711	26.433	16390	16112	0	796
37.432	24.666	16389	15820	0	796
34.367	22.755	16388	15537	0	796
31.843	20.916	16386	15233	0	796
26.001	20.375	16385	15047	0	796
22.899	15.903	16385	15042	0	796
17.310	11.468	16384	15090	0	796
12.622	6.671	16384	15054	0	796
8.547	0.829	16384	14958	0	796
7.789	-1.659	16383	14965	0	796
8.619	-2.488	16383	15117	0	796
12.153	-0.902	16383	15342	0	796
12.550	-0.397	16383	15602	0	796
13.127	1.623	16384	15885	0	796
14.785	2.344	16384	16179	0	796
14.281	0.829	16384	16470	0	796
17.021	1.262	16385	16707	0	796
17.454	2.344	16385	16782	0	796
21.457	4.940	16385	16729	0	796
22.972	9.016	16385	16676	0	796
26.037	13.992	16384	16581	0	796
27.083	15.218	16384	16415	0	796
24.089	13.920	16384	16331	0	796
18.536	10.206	16384	16382	0	796
13.704	6.058	16384	16495	0	796
11.540	7.429	16384	16589	0	796
10.855	11.215	16384	16560	0	796
15.326	16.192	16384	16439	0	796
15.867	16.697	16384	16396	0	796
16.769	16.372	16384	16427	0	796
16.444	12.009	16383	16375	0	796
13.776	11.107	16383	16232	0	796
13.992	10.133	16383	16182	0	796
11.937	8.907	16383	16266	0	796
12.802	7.789	16383	16408	0	796
17.057	10.422	16383	16533	0	796
20.195	13.848	16383	16531	0	796
24.234	17.923	16382	16384	0	796
27.155	22.719	16381	16165	0	796
25.352	22.935	16381	15964	0	796
25.135	21.349	16380	15841	0	796
28.273	23.116	16379	15725	0	796
32.203	23.260	16378	15581	0	796
35.954	23.080	16378	15552	0	796
36.351	22.070	16378	15684	0	796
32.961	18.283	16378	15904	0	796
28.705	17.959	16379	16165	0	796
24.053	16.589	16379	16449	0	796
21.060	19.654	16380	16700	0	796
19.546	16.805	16380	16806	0	796
14.821	13.920	16380	16796	0	796
14.821	7.212	16380	16837	0	796
14.064	3.101	16381	16980	0	796
14.966	1.659	16381	17113	0	796
14.749	2.596	16381	17057	0	796
9.376	0.902	16380	16753	0	796
3.678	-4.472	16379	16410	0	796
-0.541	-11.143	16379	16264	0	796
-5.590	-18.320	16379	16295	0	796
-6.455	-21.637	16379	16412	0	796
-7.753	-24.450	16380	16543	0	796
-9.196	-30.869	16380	16557	0	796
-12.225	-38.406	16379	16480	0	796
-15.038	-45.763	16379	16429	0	796
-17.743	-48.684	16379	16372	0	796
-24.702	-48.720	16378	16218	0	796
-30.581	-47.422	16377	16010	0	796
-38.334	-47.097	16376	15836	0	796
-45.078	-51.929	16376	15803	0	796
-50.595	-52.362	16376	15882	0	796
-47.999	-51.100	16376	15906	0	796
-44.320	-47.854	16375	15863	0	796
-39.199	-44.717	16375	15921	0	796
-36.639	-45.871	16376	16124	0	796
-38.082	-48.936	16376	16393	0	796
-40.894	-51.100	16377	16693	0	796
-41.075	-53.083	16378	17004	0	796
-38.298	-48.792	16380	17311	0	796
-33.249	-45.402	16381	17598	0	796
-27.263	-41.435	16383	17861	0	796
-22.899	-36.891	16384	18047	0	796
-23.116	-33.898	16384	18013	0	796
-22.106	-31.230	16384	17699	0	796
-23.945	-30.184	16383	17325	0	796
-23.801	-30.977	16383	17117	0	796
-20.664	-31.807	16383	17067	0	796
-19.762	-30.436	16384	17088	0	796
-19.798	-27.912	16384	17149	0	796
-23.224	-24.883	16384	17236	0	796
-26.217	-24.558	16385	17284	0	796
-27.948	-26.614	16385	17197	0	796
-27.876	-30.689	16385	16961	0	796
-28.489	-36.134	16384	16596	0	796
-28.453	-39.235	16384	16102	0	796
-30.040	-39.488	16382	15619	0	796
-33.069	-40.317	16381	15363	0	796
-31.915	-41.003	16381	15329	0	796
-31.771	-43.202	16381	15404	0	796
-29.787	-44.753	16381	15554	0	796
-24.991	-45.366	16382	15762	0	796
-22.431	-42.409	16382	16003	0	796
-16.913	-38.983	16383	16220	0	796
-16.733	-37.036	16383	16300	0	796
-15.615	-38.334	16383	16225	0	796
-14.677	-37.721	16382	16063	0	796
-12.694	-37.000	16382	15899	0	796
-9.556	-32.672	16382	15846	0	796
-10.783	-31.158	16382	15935	0	796
-12.658	-30.941	16382	16107	0	796
-16.697	-31.915	16383	16269	0	796
-19.654	-32.348	16383	16312	0	796
-18.933	-31.843	16383	16257	0	796
-20.555	-29.391	16383	16278	0	796
-23.729	-28.597	16383	16377	0	796
-27.551	-29.391	16383	16382	0	796
-30.545	-32.961	16382	16249	0	796
-30.905	-36.170	16381	16003	0	796
-30.581	-39.488	16380	15634	0	796
-28.309	-41.363	16378	15235	0	796
-25.820	-40.209	16376	14921	0	796
-18.752	-37.865	16375	14716	0	796
-10.674	-36.567	16374	14685	0	796
-2.741	-34.223	16374	14854	0	796
1.551	-31.446	16374	15139	0	796
1.947	-30.184	16374	15445	0	796
-2.849	-29.931	16374	15658	0	796
-7.970	-31.590	16374	15783	0	796
-10.638	-33.898	16374	15991	0	796
-8.402	-32.997	16375	16324	0	796
-1.767	-29.463	16376	16705	0	796
5.626	-27.010	16377	17098	0	796
8.114	-23.440	16379	17436	0	796
7.068	-23.296	16379	17564	0	796
2.344	-25.784	16379	17366	0	796
-1.911	-26.722	16377	16951	0	796
-3.606	-30.833	16376	16591	0	796
-2.633	-33.249	16376	16458	0	796
0.433	-34.367	16376	16519	1	924
6.563	-31.735	16376	16671	0	924
12.225	-31.951	16377	16876	0	924
12.045	-31.699	16378	17122	0	924
10.350	-34.331	16379	17390	0	924
5.626	-37.505	16380	17622	0	924
2.524	-38.767	16381	17699	0	924
2.741	-39.560	16382	17653	0	924
4.039	-42.481	16383	17653	0	924
4.075	-43.707	16383	17750	0	924
4.147	-46.700	16384	17871	0	924
5.842	-45.114	16384	17941	0	924
8.655	-40.173	16385	17861	0	924
9.592	-39.163	16385	17622	0	924
5.950	-40.353	16384	17253	0	924
1.442	-45.835	16384	16697	0	924
-0.180	-45.258	16382	15964	0	924
4.508	-37.036	16379	15201	0	924
16.300	-22.034	16377	14571	0	924
25.929	-8.835	16374	14113	0	924
28.886	-3.029	16373	13816	0	924
26.397	-6.131	16371	13700	0	924
22.214	-10.386	16370	13680	0	924
20.627	-10.602	16369	13709	0	924
22.431	-6.780	16368	13907	0	924
23.801	-1.551	16368	14311	0	924
24.702	3.750	16369	14820	0	924
26.542	6.888	16370	15378	0	924
30.472	11.900	16371	15955	0	924
36.062	15.615	16372	16485	0	924
41.399	18.139	16373	16859	0	924
41.580	21.493	16374	17103	0	924
38.839	19.654	16376	17376	0	924
33.826	18.356	16377	17731	0	924
29.859	15.831	16378	18049	0	924
26.433	15.651	16379	18201	0	924
23.224	10.422	16380	18172	0	924
21.745	6.816	16380	17987	0	924
17.202	2.849	16379	17644	0	924
15.290	-0.793	16379	17284	0	924
12.514	-1.226	16379	17115	0	924
10.819	1.370	16379	17130	0	924
5.085	-1.010	16380	17233	0	924
-3.282	-6.491	16381	17388	0	924
-12.946	-14.677	16382	17581	0	924
-21.096	-22.755	16383	17740	0	924
-22.467	-27.948	16383	17709	0	924
-22.683	-29.174	16383	17373	0	924
-23.476	-30.508	16382	16840	0	924
-29.895	-36.387	16381	16382	0	924
-41.976	-45.907	16380	16165	0	924
-47.458	-57.375	16380	16107	0	924
-50.270	-60.945	16380	16015	0	924
-44.717	-57.447	16379	15887	0	924
-34.764	-45.294	16380	15885	0	924
-28.669	-36.531	16380	16044	0	924
-27.587	-34.728	16381	16283	0	924
-27.840	-39.740	16382	16553	0	924
-31.554	-47.061	16383	16842	0	924
-30.581	-48.720	16384	17134	0	924
-25.207	-43.815	16385	17371	0	924
-21.060	-35.918	16385	17443	0	924
-17.706	-28.417	16386	17388	0	924
-22.214	-28.705	16387	17373	0	924
-28.417	-33.646	16388	17458	0	924
-34.331	-40.389	16389	17518	0	924
-34.223	-45.114	16389	17436	0	924
-32.131	-43.563	16389	17243	0	924
-23.296	-36.351	16390	17122	0	924
-18.860	-30.545	16391	17122	0	924
-13.271	-25.640	16391	17171	0	924
-11.323	-26.578	16392	17231	0	924
-10.242	-27.948	16393	17303	0	924
-10.674	-29.427	16394	17378	0	924
-10.530	-28.669	16396	17453	0	924
-7.321	-21.818	16396	17470	0	924
-1.659	-11.612	16396	17277	0	924
5.842	-4.688	16396	16811	0	924
11.720	0.216	16395	16298	0	924
14.569	0.577	16394	15972	1	316
15.507	-1.911	16394	15781	0	316
12.405	-3.390	16393	15491	0	316
11.684	-4.652	16391	15006	0	316
11.900	-5.409	16389	14535	0	316
11.396	-7.321	16388	14303	0	316
12.261	-6.996	16388	14296	0	316
18.392	-1.046	16387	14407	0	316
22.503	6.455	16387	14596	0	316
27.119	15.218	16388	14844	0	316
31.446	14.208	16388	15134	0	316
28.237	7.393	16388	15404	0	316
23.260	-5.481	16388	15496	0	316
17.706	-18.572	16387	15339	0	316
16.156	-21.637	16386	15141	0	316
16.841	-19.762	16385	15081	0	316
24.630	-10.783	16384	14999	0	316
32.059	-4.977	16383	14738	0	316
39.524	-3.101	16382	14484	0	316
42.301	-3.210	16381	14468	0	316
43.996	-2.777	16380	14617	0	316
41.075	0.036	16379	14728	0	316
34.115	2.777	16378	14793	0	316
26.542	3.029	16378	14977	0	316
24.378	1.226	16378	15269	0	316
29.102	-1.082	16377	15443	0	316
43.996	1.911	16376	15349	0	316
61.414	7.321	16374	15042	0	316
69.167	13.163	16372	14690	0	316
69.239	16.480	16370	14484	0	316
67.724	17.382	16369	14518	0	316
69.023	19.834	16368	14644	0	316
76.596	22.935	16367	14789	0	316
81.861	24.234	16367	15083	0	316
79.192	23.368	16367	15515	0	316
64.082	17.706	16367	15844	0	316
48.143	10.350	16366	15955	0	316
37.685	5.301	16366	16044	0	316
33.718	3.498	16366	16327	0	316
36.170	0.216	16367	16779	0	316
37.216	0.577	16368	17299	0	316
35.665	-2.056	16370	17837	0	316
33.898	-6.275	16372	18373	0	316
32.853	-11.143	16374	18887	0	316
36.891	-13.054	16376	19365	0	316
38.622	-16.769	16378	19749	0	316
41.868	-14.569	16380	19930	0	316
42.697	-9.016	16381	19940	0	316
42.301	-5.626	16383	19959	0	316
42.661	-4.508	16384	19995	0	316
42.986	-5.698	16385	19887	0	316
43.743	-7.465	16385	19597	0	316
46.376	-8.835	16385	19165	0	316
49.657	-8.655	16385	18578	0	316
47.926	-8.547	16384	17987	0	316
44.032	-8.511	16384	17557	0	316
36.531	-7.753	16384	17192	0	316
30.148	-3.101	16384	16777	0	316
27.227	5.085	16382	16312	0	316
34.583	13.668	16381	15766	0	316
40.462	16.985	16379	15240	0	316
43.310	17.093	16378	14832	0	316
43.491	11.900	16377	14564	0	316
37.721	8.763	16376	14509	0	316
33.429	11.179	16376	14673	0	316
35.197	17.021	16377	14977	0	316
39.993	20.375	16377	15361	0	316
43.851	20.664	16379	15788	0	316
42.806	14.641	16380	16240	0	316
37.360	7.321	16382	16693	0	316
31.049	5.373	16384	17139	0	316
28.741	8.366	16385	17562	0	316
29.066	12.694	16387	17948	0	316
31.771	14.713	16389	18291	0	316
31.699	13.848	16391	18581	0	316
28.922	9.520	16393	18815	0	316
24.089	3.210	16395	18947	0	316
17.202	-1.623	16396	18882	0	316
13.668	-6.058	16397	18653	0	316
10.530	-6.708	16398	18443	1	316
10.927	-4.724	16398	18313	0	316
14.064	-1.406	16400	18206	0	316
15.795	5.157	16400	18057	0	316
18.572	6.852	16400	17719	0	316
17.418	8.222	16399	17122	0	316
18.428	8.042	16398	16449	0	316
16.264	9.917	16397	15839	0	316
15.579	12.838	16395	15267	0	316
15.182	14.497	16393	14723	0	316
16.516	15.615	16392	14277	0	316
18.644	13.595	16391	14038	0	316
18.788	7.825	16390	13968	0	316
17.526	3.354	16388	13845	0	316
13.559	0.505	16386	13553	0	316
11.323	0.541	16385	13289	0	316
9.989	3.354	16384	13277	0	316
12.550	8.258	16384	13487	0	316
17.454	13.235	16384	13811	0	316
20.483	14.821	16384	14204	0	316
23.008	17.238	16384	14653	0	316
26.902	18.067	16384	15136	0	316
25.135	18.283	16385	15626	0	316
22.431	14.894	16387	16109	0	316
18.897	9.088	16388	16562	0	316
10.999	0.685	16389	16989	0	316
5.590	-4.291	16391	17378	0	316
5.049	-3.606	16392	17721	0	316
7.609	2.669	16394	17972	0	316
11.864	10.097	16394	17982	0	316
14.317	10.891	16393	17690	0	316
14.461	7.032	16393	17265	0	316
10.710	-1.334	16391	16852	0	316
5.626	-3.859	16391	16485	0	316
4.400	-1.406	16389	16213	0	316
2.957	4.255	16388	15916	0	316
4.652	6.888	16386	15467	0	316
7.609	2.344	16385	15040	0	316
9.448	-4.436	16384	14863	0	316
7.537	-8.511	16384	14873	0	316
6.311	-7.934	16383	14861	0	316
6.491	-4.075	16381	14769	0	316
9.088	0.649	16380	14617	0	316
15.795	3.787	16378	14335	0	316
20.988	5.337	16375	13912	0	316
19.401	2.272	16372	13490	0	316
14.100	-3.426	16370	13260	0	316
4.472	-10.061	16368	13306	0	316
-3.787	-12.333	16367	13470	0	316
-9.989	-9.989	16366	13678	0	316
-13.054	-6.347	16365	14055	0	316
-14.533	-4.652	16365	14576	0	316
-14.389	-8.006	16365	15047	0	316
-10.602	-9.412	16366	15450	0	316
-7.825	-10.314	16366	15899	0	316
-4.436	-6.383	16366	16327	0	316
-4.219	-3.606	16367	16632	0	316
-4.652	-4.255	16366	16813	0	316
-3.029	-10.999	16366	16857	0	316
-0.865	-19.221	16366	16891	0	316
2.993	-25.388	16366	17067	0	316
6.491	-29.787	16366	17274	0	316
9.629	-26.650	16367	17441	0	316
12.946	-20.591	16367	17653	0	316
17.670	-15.831	16367	17810	0	316
18.356	-11.107	16367	17723	0	316
21.060	-10.494	16366	17417	0	316
20.519	-7.898	16365	17052	0	316
20.483	-8.366	16364	16775	0	316
22.899	-12.081	16363	16572	0	316
20.988	-14.497	16362	16341	0	316
21.349	-15.939	16361	16189	0	316
6.563	-11.828	16384	16370	0	904
6.816	-13.127	16384	16363	0	904
8.150	-12.477	16384	16360	0	904
10.891	-7.573	16384	16363	0	904
14.749	-4.147	16384	16365	0	904
17.706	-0.685	16384	16368	0	904
22.972	0.902	16384	16370	0	904
21.962	0.577	16384	16370	0	904
17.454	-2.452	16384	16368	0	904
12.405	-6.167	16384	16365	0	904
5.626	-9.953	16384	16360	0	904
-2.741	-14.245	16384	16358	0	904
-6.744	-16.480	16384	16353	0	904
-10.674	-20.375	16384	16346	0	904
-13.920	-23.729	16384	16334	0	904
-13.199	-23.909	16384	16324	0	904
-12.874	-26.578	16384	16327	0	904
-12.333	-27.407	16384	16336	0	904
-11.540	-25.496	16384	16346	0	904
-11.035	-24.053	16384	16351	0	904
-9.665	-22.503	16384	16356	0	904
-7.032	-18.500	16384	16358	0	904
-5.049	-16.625	16384	16360	0	904
-2.019	-12.658	16384	16360	0	904
0.505	-11.071	16384	16363	0	904
1.370	-10.746	16384	16368	0	904
-0.216	-10.710	16384	16375	0	904
-2.741	-13.992	16384	16384	0	904
-3.714	-14.136	16384	16386	0	904
-1.226	-10.927	16384	16393	0	904
2.344	-7.934	16384	16398	0	904
7.609	-4.219	16384	16403	0	904
10.169	-2.272	16384	16408	0	904
7.501	-4.796	16384	16415	0	904
5.806	-8.042	16384	16417	0	904
3.678	-13.163	16384	16415	0	904
-1.118	-18.788	16384	16417	0	904
-2.524	-21.096	16384	16425	0	904
-7.862	-24.125	16384	16432	0	904
-12.766	-25.460	16384	16437	0	904
-15.002	-26.253	16384	16441	0	904
-17.598	-25.316	16384	16446	0	904
-15.074	-25.820	16384	16451	0	904
-12.261	-22.575	16384	16451	0	904
-6.275	-16.372	16384	16449	0	904
0.505	-10.963	16384	16444	0	904
5.193	-6.347	16384	16437	0	904
8.511	-3.065	16384	16429	0	904
7.321	-4.255	16384	16422	0	904
6.852	-5.662	16384	16415	0	904
8.511	-4.940	16384	16403	0	904
10.710	-3.029	16384	16391	0	904
13.595	0.397	16384	16384	0	904
15.146	3.029	16384	16380	0	904
13.127	3.678	16384	16370	0	904
12.982	2.885	16384	16363	0	904
14.317	2.416	16384	16358	0	904
15.290	3.823	16384	16356	0	904
21.277	6.960	16384	16353	0	904
24.486	9.953	16384	16351	0	904
27.191	11.828	16384	16353	0	904
29.968	10.819	16384	16360	0	904
28.092	8.475	16384	16375	0	904
23.296	3.318	16384	16386	0	904
18.824	0.108	16384	16398	0	904
15.182	-4.147	16384	16403	0	904
10.314	-7.898	16384	16400	0	904
8.042	-9.809	16384	16396	0	904
5.734	-11.107	16384	16393	0	904
2.308	-13.704	16384	16388	0	904
-0.108	-13.776	16384	16382	0	904
1.298	-13.956	16384	16370	0	904
4.868	-12.982	16384	16363	0	904
8.691	-8.943	16384	16358	0	904
10.206	-8.655	16384	16360	0	904
10.746	-9.376	16384	16365	0	904
8.727	-10.422	16384	16368	0	904
8.114	-10.097	16384	16370	0	904
12.297	-6.744	16384	16372	0	904
19.546	-0.072	16384	16370	0	904
21.673	4.616	16384	16370	0	904
22.791	5.085	16384	16368	0	904
17.490	2.813	16384	16363	0	904
15.579	-1.479	16384	16358	0	904
12.189	-2.921	16384	16360	0	904
13.523	-3.895	16384	16360	0	904
11.179	-4.868	16384	16358	0	904
8.402	-6.022	16384	16356	0	904
6.022	-6.311	16384	16356	0	904
5.770	-6.635	16384	16356	0	904
7.357	-4.580	16384	16358	0	904
10.638	-2.308	16384	16360	0	904
13.523	-1.659	16384	16365	0	904
16.012	-2.236	16384	16372	0	904
15.939	-2.741	16384	16380	0	904
18.283	-2.416	16384	16384	0	904
15.435	-2.019	16384	16393	0	904
16.625	-2.200	16384	16405	0	904
18.464	-1.479	16384	16415	0	904
24.414	1.442	16384	16420	0	904
28.092	6.671	16384	16425	0	904
31.951	10.530	16384	16429	0	904
32.384	15.939	16384	16434	0	904
30.653	15.254	16384	16439	0	904
28.417	12.514	16384	16446	0	904
28.633	12.946	16384	16456	0	904
30.040	12.730	16384	16463	0	904
32.744	16.228	16384	16473	0	904
32.889	16.516	16384	16475	0	904
29.318	15.290	16384	16473	0	904
24.378	11.251	16384	16466	0	904
22.683	8.006	16384	16458	0	904
21.926	6.744	16384	16451	0	904
21.277	6.131	16384	16441	0	904
22.178	6.131	16384	16432	0	904
18.644	3.678	16384	16422	0	904
16.769	0.685	16385	16412	0	904
14.353	-2.488	16385	16408	0	904
13.884	-4.327	16384	16403	0	904
11.684	-6.131	16384	16396	0	904
9.845	-5.842	16384	16386	0	904
13.271	-5.554	16384	16377	0	904
13.559	-2.813	16384	16370	0	904
13.307	-1.118	16385	16370	0	904
13.271	0.902	16384	16375	0	904
12.261	3.714	16385	16377	0	904
16.012	4.255	16384	16372	0	904
18.644	6.167	16384	16365	0	904
21.204	7.753	16384	16358	0	904
18.536	6.491	16384	16346	0	904
14.785	3.570	16384	16331	0	904
10.602	1.515	16384	16319	0	904
9.232	1.370	16384	16312	0	904
12.117	3.570	16384	16310	0	904
14.930	5.806	16384	16314	0	904
16.913	7.429	16384	16322	0	904
18.067	4.940	16384	16327	0	904
10.963	-1.154	16384	16329	0	904
4.364	-9.088	16384	16331	0	904
-3.534	-15.543	16384	16334	0	904
-6.996	-19.077	16384	16336	0	904
-5.554	-17.851	16384	16341	0	904
-2.200	-12.441	16384	16346	0	904
-0.108	-7.212	16384	16351	0	904
-1.262	-9.809	16384	16356	0	904
-6.563	-12.333	16384	16358	0	904
-9.737	-15.543	16384	16358	0	904
-10.206	-17.995	16384	16363	0	904
-9.124	-14.785	16384	16370	0	904
-8.583	-16.841	16384	16377	0	904
-9.088	-16.913	16384	16377	0	904
-12.441	-20.447	16384	16370	0	904
-13.307	-20.591	16384	16365	0	904
-10.097	-19.221	16384	16365	0	904
-5.590	-14.136	16384	16365	0	904
-0.902	-12.117	16384	16363	0	904
2.885	-9.737	16384	16360	0	904
6.455	-5.301	16384	16356	0	904
9.629	-3.137	16384	16348	0	904
10.133	-0.325	16384	16341	0	904
9.088	-1.623	16384	16334	0	904
2.019	-7.321	16384	16334	0	904
-6.996	-18.103	16384	16336	0	904
-16.841	-26.938	16384	16343	0	904
-20.519	-31.410	16384	16353	0	904
-21.709	-31.410	16384	16360	0	904
-13.415	-24.414	16384	16372	0	904
-5.734	-15.543	16384	16384	0	904
2.308	-9.592	16384	16386	0	904
5.986	-6.780	16384	16386	0	904
2.488	-7.789	16384	16386	0	904
-3.895	-13.668	16384	16386	0	904
-8.402	-16.949	16384	16388	0	904
-8.186	-16.048	16384	16393	0	904
-2.380	-10.025	16384	16400	0	904
7.321	-1.875	16384	16408	0	904
13.307	5.878	16384	16410	0	904
18.500	9.196	16384	16410	0	904
19.149	8.763	16384	16410	0	904
20.339	8.366	16384	16408	0	904
18.933	7.573	16384	16403	0	904
21.168	6.852	16384	16398	0	904
19.113	9.448	16384	16393	0	904
21.385	9.881	16384	16384	0	904
23.801	12.874	16384	16380	0	904
22.286	11.684	16384	16375	0	904
18.860	7.862	16384	16372	0	904
10.278	1.046	16384	16372	0	904
3.750	-6.275	16384	16370	0	904
1.587	-8.619	16384	16372	0	904
2.993	-8.547	16384	16377	0	904
6.563	-6.780	16384	16384	0	904
5.878	-7.645	16384	16388	0	904
2.560	-8.835	16384	16396	0	904
-1.046	-10.350	16384	16403	0	904
-1.911	-11.540	16384	16410	0	904
0.541	-8.511	16384	16415	0	904
4.183	-6.708	16384	16415	0	904
6.491	-4.940	16384	16412	0	904
5.950	-2.164	16384	16408	0	904
6.311	-2.416	16384	16403	0	904
7.573	-0.433	16384	16403	0	904
13.018	4.508	16384	16400	0	904
20.844	9.845	16384	16396	0	904
28.886	15.254	16384	16396	0	904
34.403	19.618	16384	16400	0	904
31.915	19.834	16384	16408	0	904
26.253	15.795	16384	16415	0	904
15.290	9.881	16384	16422	0	904
10.278	5.878	16384	16427	0	904
7.789	2.921	16384	16427	0	904
10.169	1.587	16384	16429	0	904
13.091	0.865	16384	16437	0	904
10.710	-1.875	16384	16439	0	904
4.868	-6.275	16384	16439	0	904
-1.406	-10.422	16384	16439	0	904
-4.400	-12.333	16384	16441	0	904
-5.049	-12.333	16384	16441	0	904
-2.921	-9.088	16384	16434	0	904
-1.370	-8.222	16384	16427	0	904
-1.839	-7.429	16384	16415	0	904
-0.974	-7.825	16384	16398	0	904
0.252	-6.491	16384	16384	0	904
6.347	-3.606	16384	16377	0	904
13.271	3.210	16384	16368	0	904
19.870	8.294	16384	16358	0	904
19.221	7.717	16384	16348	0	904
16.841	2.344	16384	16341	0	904
9.412	-2.236	16384	16334	0	904
5.878	-5.590	16384	16327	0	904
5.049	-3.534	16384	16327	0	904
9.448	0.793	16384	16331	0	904
13.992	5.301	16384	16341	0	904
15.867	5.373	16384	16353	0	904
17.743	2.344	16384	16363	0	904
14.533	-3.498	16384	16368	0	904
11.251	-10.278	16384	16372	0	904
7.609	-14.136	16384	16380	0	904
4.904	-17.346	16384	16384	0	904
4.472	-16.625	16384	16380	0	904
4.364	-16.336	16384	16370	0	904
6.635	-13.920	16384	16358	0	904
8.655	-13.163	16384	16348	0	904
9.016	-11.864	16384	16339	0	904
8.727	-9.412	16384	16334	0	904
8.511	-8.439	16384	16327	0	904
7.609	-8.186	16384	16322	0	904
7.681	-5.842	16384	16322	0	904
8.402	-5.085	16384	16317	0	904
6.491	-4.832	16384	16307	0	904
5.013	-5.229	16384	16298	0	904
4.291	-5.337	16384	16295	0	904
5.193	-6.131	16384	16302	0	904
4.760	-6.167	16384	16307	0	904
4.327	-7.501	16384	16310	0	904
2.705	-7.321	16384	16314	0	904
2.813	-6.491	16384	16317	0	904
4.796	-5.842	16384	16322	0	904
9.629	-3.426	16384	16324	0	904
13.271	-2.705	16384	16327	0	904
13.884	-5.301	16384	16331	0	904
12.405	-7.825	16384	16334	0	904
8.114	-11.937	16384	16331	0	904
3.246	-16.985	16384	16329	0	904
0.288	-18.933	16384	16339	0	904
-0.361	-20.483	16384	16358	0	904
0.649	-18.356	16384	16377	0	904
3.101	-15.254	16384	16391	0	904
3.462	-10.710	16384	16410	0	904
4.724	-6.058	16384	16429	0	904
6.347	-2.488	16384	16449	0	904
10.242	2.164	16384	16468	0	904
13.992	5.662	16384	16487	0	904
20.195	8.294	16384	16504	0	904
21.529	11.612	16384	16516	0	904
24.089	13.668	16384	16521	0	904
22.250	16.372	16384	16521	0	904
19.546	15.038	16384	16516	0	904
15.975	11.251	16384	16509	0	904
11.900	9.268	16384	16499	0	904
9.412	4.904	16384	16487	0	904
11.215	3.318	16384	16473	0	904
9.016	1.515	16384	16463	0	904
6.960	-2.200	16384	16456	0	904
1.839	-8.691	16384	16454	0	904
-4.652	-12.946	16384	16449	0	904
-8.114	-18.356	16384	16439	0	904
-8.655	-17.490	16384	16432	0	904
-6.203	-19.618	16384	16422	0	904
-3.823	-18.139	16384	16412	0	904
-4.472	-19.510	16384	16405	0	904
-1.190	-17.743	16384	16403	0	904
2.957	-13.018	16384	16398	0	904
9.304	-5.554	16384	16393	0	904
17.274	3.967	16384	16384	0	904
19.005	7.717	16384	16382	0	904
17.562	8.150	16384	16380	0	904
10.494	4.688	16384	16377	0	904
6.455	1.262	16384	16372	0	904
3.426	-0.397	16384	16368	0	904
2.272	-0.974	16384	16365	0	904
2.524	-0.649	16384	16360	0	904
1.406	-1.190	16384	16358	0	904
1.190	-1.515	16384	16356	0	904
2.849	-0.216	16384	16358	0	904
5.878	0.036	16384	16363	0	904
6.744	0.216	16384	16368	0	904
2.921	-4.796	16384	16368	0	904
-0.433	-8.763	16384	16368	0	904
-7.789	-14.172	16384	16363	0	904
-7.645	-14.497	16384	16356	0	904
-5.554	-11.864	16384	16348	0	904
1.226	-5.770	16384	16336	0	904
4.760	-1.623	16384	16324	0	904
7.970	0.180	16384	16312	0	904
6.599	-1.659	16384	16305	0	904
5.337	-4.904	16384	16302	0	904
3.282	-6.635	16384	16298	0	904
2.092	-7.429	16384	16295	0	904
2.596	-6.203	16384	16295	0	904
0.541	-5.590	16384	16295	0	904
-0.757	-4.436	16384	16300	0	904
0.649	-2.993	16384	16307	0	904
4.219	0.036	16384	16322	0	904
7.140	4.868	16384	16334	0	904
9.809	6.744	16384	16346	0	904
7.970	6.491	16384	16358	0	904
2.164	3.354	16384	16372	0	904
-2.524	-1.442	16384	16388	0	904
-6.383	-4.255	16384	16408	0	904
-4.183	-2.993	16384	16427	0	904
-1.659	-1.118	16384	16444	0	904
0.793	-0.902	16384	16454	0	904
0.288	-2.957	16384	16461	0	904
-4.147	-9.845	16384	16466	0	904
-8.835	-16.372	16384	16468	0	904
-9.917	-21.493	16384	16463	0	904
-6.816	-24.847	16384	16458	0	904
-2.092	-25.171	16384	16458	0	904
1.767	-23.837	16384	16458	0	904
4.436	-22.719	16384	16458	0	904
6.563	-17.779	16384	16456	0	904
8.547	-15.579	16384	16454	0	904
9.088	-10.206	16384	16449	0	904
8.835	-9.773	16384	16446	0	904
5.554	-7.537	16384	16441	0	904
-0.180	-10.710	16384	16437	0	904
-5.698	-13.199	16384	16434	0	904
-9.556	-17.887	16384	16432	0	904
-12.694	-19.149	16384	16432	0	904
-12.045	-19.906	16384	16432	0	904
-8.907	-15.182	16384	16429	0	904
-6.383	-12.730	16384	16429	0	904
-6.491	-10.025	16384	16427	0	904
-6.167	-11.504	16384	16425	0	904
-7.176	-14.389	16384	16420	0	904
-4.652	-13.523	16384	16417	0	904
-1.082	-12.730	16384	16412	0	904
2.200	-7.393	16384	16405	0	904
3.787	-5.806	16384	16396	0	904
1.515	-6.455	16384	16388	0	904
-1.587	-7.573	16384	16384	0	904
-3.931	-11.143	16384	16377	0	904
-6.708	-12.333	16384	16368	0	904
-7.068	-11.792	16384	16358	0	904
-7.104	-12.009	16384	16351	0	904
-4.940	-12.405	16384	16339	0	904
-4.904	-12.117	16384	16327	0	904
-4.364	-15.759	16384	16317	0	904
-6.275	-15.975	16384	16307	0	904
-4.760	-16.480	16384	16298	0	904
-0.721	-10.602	16384	16288	0	904
7.862	-3.462	16384	16281	0	904
17.815	5.157	16384	16276	0	904
20.916	10.206	16384	16271	0	904
20.159	9.304	16384	16269	0	904
13.163	4.940	16384	16266	0	904
6.671	-0.433	16384	16261	0	904
3.498	-2.488	16384	16261	0	904
3.065	-3.787	16384	16261	0	904
6.275	-2.200	16384	16264	0	904
8.583	-1.226	16384	16264	0	904
9.304	-0.433	16384	16269	0	904
10.746	-0.180	16384	16278	0	904
9.232	-1.623	16384	16290	0	904
7.248	-3.606	16384	16307	0	904
6.383	-7.537	16384	16329	0	904
3.823	-9.232	16384	16358	0	904
2.416	-10.494	16384	16386	0	904
2.236	-12.153	16384	16412	0	904
2.200	-12.153	16384	16437	0	904
4.255	-13.992	16384	16449	0	904
5.265	-12.189	16384	16458	0	904
4.868	-8.979	16384	16466	0	904
3.318	-7.248	16384	16475	0	904
0.649	-8.330	16384	16480	0	904
-0.361	-10.386	16384	16485	0	904
0.433	-9.845	16384	16485	0	904
4.039	-9.665	16384	16480	0	904
8.439	-4.111	16384	16470	0	904
13.704	-0.144	16384	16458	0	904
17.490	1.911	16384	16454	0	904
21.745	4.940	16384	16449	0	904
21.132	4.472	16384	16446	0	904
20.231	5.409	16384	16451	0	904
16.733	3.859	16384	16461	0	904
14.353	0.216	16384	16468	0	904
9.917	-1.659	16384	16470	0	904
9.665	-4.003	16384	16466	0	904
10.674	-2.813	16384	16458	0	904
12.658	-1.262	16384	16454	0	904
18.824	3.750	16384	16454	0	904
22.431	7.609	16384	16451	0	904
26.037	8.150	16384	16449	0	904
21.637	5.626	16384	16439	0	904
17.382	2.380	16384	16427	0	904
9.701	-2.849	16384	16410	0	904
3.606	-6.563	16384	16396	0	904
3.895	-4.868	16384	16382	0	904
8.006	-3.390	16384	16363	0	904
11.756	0.252	16384	16348	0	904
15.002	4.255	16384	16334	0	904
14.461	6.671	16384	16319	0	904
14.100	7.825	16384	16305	0	904
16.228	9.016	16384	16295	0	904
19.293	10.169	16384	16288	0	904
23.801	12.261	16384	16288	0	904
26.722	12.477	16384	16288	0	904
27.515	14.966	16384	16293	0	904
26.397	14.785	16384	16298	0	904
27.840	15.002	16384	16302	0	904
26.614	14.208	16384	16307	0	904
22.755	9.232	16384	16319	0	904
18.860	5.950	16384	16331	0	904
13.704	2.452	16384	16341	0	904
12.261	0.649	16384	16346	0	904
9.845	-0.793	16384	16348	0	904
8.150	-3.282	16384	16343	0	904
7.068	-7.104	16384	16339	0	904
2.236	-13.271	16384	16336	0	904
-0.108	-15.579	16384	16341	0	904
-0.577	-16.228	16384	16348	0	904
2.019	-14.713	16384	16356	0	904
3.210	-10.350	16384	16368	0	904
3.390	-8.439	16384	16384	0	904
3.787	-9.340	16384	16393	0	904
0.757	-11.540	16384	16403	0	904
-1.659	-12.009	16384	16410	0	904
0.361	-11.756	16384	16412	0	904
3.931	-6.563	16384	16408	0	904
7.465	-2.669	16384	16398	0	904
11.937	0.685	16384	16391	0	904
13.415	2.813	16384	16386	0	904
14.208	3.390	16384	16384	0	904
14.208	4.868	16384	16380	0	904
12.658	6.455	16384	16370	0	904
13.631	8.258	16384	16363	0	904
12.658	8.150	16384	16363	0	904
10.097	6.094	16384	16368	0	904
7.032	0.469	16384	16375	0	904
3.895	-5.013	16384	16380	0	904
0.938	-9.124	16384	16380	0	904
1.082	-11.287	16384	16382	0	904
1.298	-11.251	16384	16386	0	904
2.236	-8.763	16384	16403	0	904
2.019	-9.881	16384	16412	0	904
1.334	-8.619	16384	16420	0	904
1.551	-8.691	16384	16427	0	904
1.082	-7.717	16384	16439	0	904
1.839	-6.780	16384	16458	0	904
2.128	-6.455	16384	16470	0	904
2.633	-6.888	16384	16480	0	904
2.488	-8.114	16384	16482	0	904
1.154	-8.943	16384	16482	0	904
2.164	-7.212	16384	16485	0	904
4.003	-2.669	16384	16485	0	904
7.176	1.010	16384	16480	0	904
10.855	3.750	16384	16466	0	904
11.648	4.219	16384	16446	0	904
10.169	4.364	16384	16429	0	904
12.514	3.931	16384	16417	0	904
13.307	6.599	16384	16408	0	904
19.401	12.730	16384	16398	0	904
22.935	14.821	16384	16384	0	904
24.775	16.661	16384	16377	0	904
21.421	12.405	16384	16368	0	904
16.192	7.176	16384	16356	0	904
10.674	1.226	16384	16343	0	904
6.419	-2.993	16384	16331	0	904
4.291	-4.760	16384	16324	0	904
1.370	-7.717	16384	16319	0	904
0.036	-7.429	16384	16314	0	904
-2.777	-9.304	16384	16312	0	904
-3.931	-9.520	16384	16307	0	904
-4.977	-10.133	16384	16300	0	904
-4.147	-10.963	16384	16298	0	904
-2.380	-11.504	16384	16300	0	904
-3.029	-10.999	16384	16310	0	904
-0.325	-11.612	16384	16317	0	904
0.108	-10.927	16384	16324	0	904
-0.721	-11.432	16384	16331	0	904
0.000	-10.999	16384	16339	0	904
0.505	-8.763	16384	16343	0	904
1.839	-4.219	16384	16346	0	904
4.472	-1.875	16384	16346	0	904
4.616	0.974	16384	16346	0	904
1.911	0.433	16384	16346	0	904
-2.056	-2.560	16384	16351	0	904
-6.131	-6.058	16384	16360	0	904
-9.340	-10.855	16384	16370	0	904
-6.599	-12.333	16384	16377	0	904
-3.462	-10.169	16384	16382	0	904
1.479	-8.294	16384	16386	0	904
4.327	-6.671	16384	16400	0	904
2.993	-9.629	16384	16412	0	904
-0.865	-15.579	16384	16427	0	904
-6.816	-24.486	16384	16444	0	904
-11.071	-28.273	16384	16456	0	904
-9.052	-27.083	16384	16468	0	904
-5.265	-22.647	16384	16480	0	904
3.101	-15.687	16384	16487	0	904
10.386	-7.862	16384	16492	0	904
15.435	-3.787	16384	16492	0	904
15.326	-3.282	16384	16492	0	904
14.858	-2.164	16384	16492	0	904
12.910	-0.685	16384	16487	0	904
13.091	3.282	16384	16475	0	904
15.326	6.167	16384	16463	0	904
14.353	7.573	16384	16456	0	904
12.009	2.813	16384	16456	0	904
6.924	-1.118	16384	16456	0	904
2.452	-4.868	16384	16454	0	904
1.911	-3.318	16384	16441	0	904
5.914	0.288	16384	16427	0	904
9.268	5.157	16384	16410	0	904
13.451	5.698	16384	16393	0	904
13.199	5.337	16384	16382	0	904
10.350	2.993	16384	16372	0	904
9.520	1.190	16384	16363	0	904
8.402	-0.180	16384	16353	0	904
8.871	0.108	16384	16348	0	904
12.694	-0.829	16384	16339	0	904
12.405	-2.957	16384	16329	0	904
9.809	-6.167	16384	16322	0	904
5.301	-9.556	16384	16324	0	904
4.075	-9.412	16384	16331	0	904
4.940	-6.239	16384	16334	0	904
11.432	-1.551	16384	16334	0	904
16.913	2.308	16384	16336	0	904
21.493	3.210	16384	16341	0	904
17.743	-1.442	16384	16346	0	904
15.507	-2.128	16384	16348	0	904
12.153	-3.029	16384	16348	0	904
11.648	-0.649	16384	16346	0	904
11.035	0.108	16384	16339	0	904
9.520	-1.334	16384	16329	0	904
8.114	-4.796	16384	16322	0	904
5.193	-9.773	16384	16314	0	904
2.164	-9.412	16384	16302	0	904
0.325	-10.927	16384	16288	0	904
-1.442	-10.133	16384	16276	0	904
-6.022	-10.891	16384	16264	0	904
-9.665	-14.389	16384	16254	0	904
-14.281	-18.752	16384	16252	0	904
-14.785	-18.320	16384	16257	0	904
-13.668	-18.428	16384	16266	0	904
-10.458	-15.831	16384	16281	0	904
-6.203	-15.543	16384	16302	0	904
-7.321	-17.166	16384	16324	0	904
-9.196	-24.198	16384	16348	0	904
-14.317	-29.030	16384	16370	0	904
-13.163	-30.112	16384	16386	0	904
-10.819	-26.974	16384	16400	0	904
-4.796	-22.395	16384	16417	0	904
2.524	-15.579	16384	16437	0	904
8.186	-11.792	16384	16454	0	904
11.864	-5.878	16384	16466	0	904
17.706	-1.767	16384	16478	0	904
20.014	2.957	16384	16487	0	904
22.899	6.203	16384	16492	0	904
23.296	6.852	16384	16495	0	904
21.313	6.455	16384	16495	0	904
19.077	5.986	16384	16492	0	904
14.605	5.337	16384	16485	0	904
13.235	3.750	16384	16475	0	904
7.465	0.252	16384	16466	0	904
1.695	-4.472	16384	16458	0	904
-5.878	-12.694	16384	16451	0	904
-16.589	-20.123	16384	16449	0	904
-24.125	-29.174	16384	16446	0	904
-31.482	-33.934	16384	16439	0	904
-37.000	-35.521	16384	16427	0	904
-36.747	-33.285	16384	16420	0	904
-32.167	-27.371	16384	16415	0	904
-21.890	-18.211	16384	16417	0	904
-10.314	-13.451	16384	16422	0	904
-2.452	-8.799	16384	16432	0	904
0.541	-9.052	16384	16441	0	904
-0.108	-10.458	16384	16449	0	904
-0.433	-11.360	16384	16454	0	904
1.911	-9.412	16384	16458	0	904
8.979	-2.019	16384	16463	0	904
17.021	6.203	16384	16466	0	904
24.775	13.848	16384	16463	0	904
30.184	18.283	16384	16461	0	904
30.869	17.057	16384	16454	0	904
26.181	10.963	16384	16441	0	904
23.657	7.753	16384	16420	0	904
23.765	6.996	16384	16396	0	904
21.529	5.229	16384	16375	0	904
18.788	3.029	16384	16351	0	904
12.802	-1.442	16384	16329	0	904
2.849	-8.727	16384	16312	0	904
-4.940	-13.631	16384	16295	0	904
-7.898	-17.454	16384	16281	0	904
-7.429	-16.949	16384	16273	0	904
-6.383	-15.290	16384	16273	0	904
-4.652	-15.687	16384	16278	0	904
-4.291	-13.812	16384	16283	0	904
-4.544	-14.461	16384	16288	0	904
-5.806	-13.884	16384	16290	0	904
-5.662	-14.461	16384	16295	0	904
-7.645	-13.848	16384	16305	0	904
-8.691	-13.343	16384	16314	0	904
-8.330	-14.785	16384	16327	0	904
-3.895	-12.261	16384	16341	0	904
4.508	-7.465	16384	16360	0	904
12.225	-2.488	16384	16375	0	904
15.471	1.226	16384	16384	0	904
16.228	0.938	16384	16388	0	904
11.900	-1.623	16384	16393	0	904
11.143	-2.596	16384	16400	0	904
15.038	-1.983	16384	16403	0	904
19.401	1.659	16384	16400	0	904
26.614	5.265	16384	16396	0	904
30.472	6.708	16384	16386	0	904
29.499	6.131	16384	16377	0	904
28.886	4.255	16384	16365	0	904
23.657	1.695	16384	16353	0	904
21.998	0.974	16384	16343	0	904
16.805	0.685	16384	16336	0	904
13.199	-1.695	16384	16334	0	904
6.167	-2.272	16384	16336	0	904
-1.190	-7.465	16384	16346	0	904
-6.167	-11.107	16384	16360	0	904
-8.042	-12.441	16384	16375	0	904
-5.626	-9.989	16384	16382	0	904
-2.416	-6.239	16384	16386	0	904
-0.072	-5.878	16384	16388	0	904
-2.092	-8.186	16384	16391	0	904
-6.563	-15.110	16384	16393	0	904
-13.054	-20.591	16384	16398	0	904
-15.002	-23.873	16384	16408	0	904
-17.454	-23.044	16384	16417	0	904
-16.012	-20.555	16384	16429	0	904
-14.245	-21.132	16384	16444	0	904
-14.317	-21.854	16384	16461	0	904
-11.684	-19.546	16384	16470	0	904
-10.602	-20.123	16384	16470	0	904
-8.547	-14.894	16384	16473	0	904
-4.400	-11.504	16384	16475	0	904
-1.046	-9.304	16384	16473	0	904
1.983	-7.609	16384	16470	0	904
3.714	-7.176	16384	16466	0	904
2.669	-8.439	16384	16463	0	904
1.370	-9.665	16384	16458	0	904
0.072	-11.648	16384	16449	0	904
-0.974	-13.740	16384	16439	0	904
-1.010	-15.398	16384	16429	0	904
-1.262	-13.992	16384	16415	0	904
-1.298	-11.900	16384	16398	0	904
1.803	-9.917	16384	16384	0	904
2.777	-7.393	16384	16370	0	904
4.580	-4.832	16384	16356	0	904
4.977	-5.662	16384	16339	0	904
2.741	-6.347	16384	16324	0	904
2.452	-6.708	16384	16314	0	904
0.072	-5.409	16384	16307	0	904
1.226	-4.364	16384	16302	0	904
0.902	-1.190	16384	16293	0	904
-1.803	-0.793	16384	16288	0	904
-4.364	-1.010	16384	16288	0	904
-8.366	-5.301	16384	16290	0	904
-11.648	-5.121	16384	16288	0	904
-8.979	-4.147	16384	16286	0	904
-7.717	-3.462	16384	16288	0	904
-4.544	-1.082	16384	16293	0	904
-5.301	-2.380	16384	16300	0	904
-5.554	-2.993	16384	16307	0	904
-5.157	-5.193	16384	16319	0	904
-3.137	-3.895	16384	16329	0	904
-1.406	-2.308	16384	16339	0	904
0.288	-1.190	16384	16348	0	904
-0.902	-2.236	16384	16356	0	904
-3.101	-3.967	16384	16365	0	904
-3.282	-7.176	16384	16377	0	904
-5.662	-9.917	16384	16386	0	904
-6.491	-9.665	16384	16396	0	904
-8.691	-10.783	16384	16400	0	904
-7.212	-9.917	16384	16403	0	904
-4.868	-7.140	16384	16398	0	904
-2.993	-6.852	16384	16396	0	904
0.505	-5.878	16384	16396	0	904
-1.695	-6.852	16384	16398	0	904
-5.121	-10.422	16384	16398	0	904
-6.563	-11.792	16384	16396	0	904
-6.275	-12.405	16384	16393	0	904
-2.452	-10.530	16384	16391	0	904
1.262	-6.094	16384	16386	0	904
5.626	-4.436	16384	16384	0	904
5.049	-2.633	16384	16384	0	904
2.092	-2.741	16384	16384	0	904
-2.380	-5.878	16384	16384	0	904
-7.212	-10.674	16384	16382	0	904
-8.150	-12.405	16384	16377	0	904
-7.825	-11.287	16384	16377	0	904
-4.255	-9.232	16384	16380	0	904
-0.469	-5.914	16384	16382	0	904
1.983	-4.183	16384	16384	0	904
1.334	-5.590	16384	16384	0	904
-0.288	-6.888	16384	16384	0	904
0.144	-6.924	16384	16384	0	904
1.983	-4.039	16384	16384	0	904
8.402	-0.216	16384	16388	0	904
15.038	3.606	16384	16396	0	904
17.634	6.960	16384	16405	0	904
18.103	6.419	16384	16415	0	904
13.307	4.111	16384	16422	0	904
11.900	2.416	16384	16429	0	904
14.100	2.921	16384	16434	0	904
15.939	5.986	16384	16437	0	904
20.411	6.708	16384	16437	0	904
17.418	3.823	16384	16439	0	904
10.566	-2.380	16384	16444	0	904
-0.036	-12.189	16384	16446	0	904
-9.124	-17.851	16384	16446	0	904
-12.730	-23.837	16384	16446	0	904
-13.415	-23.801	16384	16449	0	904
-10.819	-21.601	16384	16441	0	904
-5.373	-19.798	16384	16434	0	904
-1.406	-14.425	16384	16420	0	904
1.623	-12.658	16384	16403	0	904
2.019	-13.379	16384	16386	0	904
0.072	-15.507	16384	16372	0	904
-4.183	-19.942	16384	16363	0	904
-3.065	-19.510	16384	16356	0	904
-1.226	-16.625	16384	16346	0	904
3.895	-8.258	16384	16339	0	904
10.602	-0.433	16384	16331	0	904
13.812	5.698	16384	16327	0	904
13.127	6.311	16384	16324	0	904
11.143	2.092	16384	16327	0	904
4.832	-5.157	16384	16331	0	904
2.092	-9.124	16384	16331	0	904
4.255	-10.169	16384	16334	0	904
8.979	-5.698	16384	16339	0	904
11.648	-0.974	16384	16348	0	904
9.665	0.108	16384	16358	0	904
2.056	-2.921	16384	16368	0	904
-3.606	-5.770	16384	16380	0	904
-5.481	-6.924	16384	16388	0	904
0.252	-4.075	16384	16400	0	904
3.570	-1.118	16384	16412	0	904
5.806	-1.911	16384	16417	0	904
3.678	-4.904	16384	16417	0	904
0.000	-8.366	16384	16417	0	904
-0.721	-9.340	16384	16420	0	904
1.803	-8.979	16384	16422	0	904
4.327	-8.222	16384	16425	0	904
2.741	-7.393	16384	16420	0	904
5.950	-6.960	16384	16412	0	904
7.753	-4.760	16384	16408	0	904
12.189	-2.164	16384	16408	0	904
17.959	2.272	16384	16410	0	904
21.926	5.409	16384	16410	0	904
21.818	10.097	16384	16403	0	904
24.811	14.677	16384	16398	0	904
28.705	23.152	16384	16393	0	904
34.403	29.751	16384	16388	0	904
41.543	35.629	16384	16380	0	904
46.448	39.957	16384	16370	0	904
46.448	39.849	16384	16365	0	904
45.150	37.865	16384	16370	0	904
39.308	34.043	16384	16370	0	904
29.427	24.702	16384	16365	0	904
19.870	16.733	16384	16363	0	904
9.160	6.563	16384	16365	0	904
1.947	-0.793	16384	16368	0	904
0.361	-3.678	16384	16370	0	904
1.370	-2.488	16384	16375	0	904
3.570	-3.390	16384	16380	0	904
4.075	-5.013	16384	16384	0	904
2.524	-7.212	16384	16393	0	904
2.056	-10.169	16384	16403	0	904
2.056	-8.799	16384	16410	0	904
6.311	-4.868	16384	16417	0	904
10.206	0.108	16384	16422	0	904
16.012	4.327	16384	16422	0	904
19.221	4.832	16384	16420	0	904
18.283	4.904	16384	16412	0	904
17.202	4.508	16384	16400	0	904
12.802	6.275	16384	16391	0	904
14.353	10.386	16384	16384	0	904
18.247	17.923	16384	16384	0	904
25.965	23.909	16384	16382	0	904
31.194	28.561	16384	16380	0	904
32.853	27.515	16384	16377	0	904
27.479	19.546	16384	16380	0	904
18.572	9.629	16384	16377	0	904
8.547	-3.534	16384	16372	0	904
-0.144	-11.468	16384	16368	0	904
-6.924	-20.050	16384	16365	0	904
-14.461	-23.296	16384	16363	0	904
-20.411	-28.020	16384	16360	0	904
-28.922	-33.610	16384	16360	0	904
-33.682	-38.118	16384	16360	0	904
-35.665	-40.137	16384	16363	0	904
-34.403	-40.137	16384	16365	0	904
-29.174	-36.819	16384	16368	0	904
-23.224	-31.879	16384	16375	0	904
-20.880	-29.210	16384	16377	0	904
-16.985	-26.722	16384	16377	0	904
-16.733	-24.702	16384	16377	0	904
-11.828	-21.637	16384	16375	0	904
-7.212	-20.123	16384	16375	0	904
-0.721	-14.317	16384	16372	0	904
4.039	-11.540	16384	16372	0	904
5.409	-9.701	16384	16375	0	904
6.960	-8.547	16384	16375	0	904
7.970	-6.852	16384	16380	0	904
8.799	-5.878	16384	16384	0	904
10.097	-1.334	16384	16382	0	904
12.441	4.904	16384	16380	0	904
16.372	8.691	16384	16377	0	904
17.634	12.261	16384	16377	0	904
19.942	12.586	16384	16380	0	904
17.238	10.133	16384	16384	0	904
14.641	7.032	16384	16384	0	904
8.619	2.885	16384	16388	0	904
1.659	-1.911	16384	16393	0	904
-5.734	-7.789	16384	16403	0	904
-13.668	-15.074	16384	16412	0	904
-16.589	-17.851	16384	16422	0	904
-17.093	-20.952	16384	16427	0	904
-12.117	-17.202	16384	16427	0	904
-8.727	-15.867	16384	16429	0	904
-8.186	-16.264	16384	16432	0	904
-9.448	-18.103	16384	16432	0	904
-9.845	-20.014	16384	16427	0	904
-8.222	-18.897	16384	16422	0	904
-4.183	-14.569	16384	16417	0	904
1.659	-12.369	16384	16410	0	904
5.842	-8.439	16384	16403	0	904
6.708	-6.131	16384	16396	0	904
10.566	-3.029	16384	16388	0	904
12.802	1.226	16384	16382	0	904
16.012	4.003	16384	16370	0	904
17.562	5.986	16384	16358	0	904
15.398	5.121	16384	16348	0	904
16.228	5.662	16384	16341	0	904
14.641	5.229	16384	16339	0	904
16.985	8.655	16384	16343	0	904
16.264	10.927	16384	16348	0	904
15.687	8.691	16384	16348	0	904
10.350	5.409	16384	16343	0	904
3.895	-0.865	16384	16341	0	904
-2.128	-5.698	16384	16339	0	904
-5.590	-6.383	16384	16336	0	904
-5.517	-4.940	16384	16334	0	904
-3.173	-3.390	16384	16331	0	904
2.777	-2.416	16384	16331	0	904
4.147	-1.551	16384	16334	0	904
4.977	-1.298	16384	16336	0	904
3.101	-3.787	16384	16343	0	904
-2.344	-7.717	16384	16356	0	904
-7.862	-13.776	16384	16368	0	904
-11.937	-16.120	16384	16382	0	904
-9.304	-16.012	16384	16396	0	904
-3.823	-9.592	16384	16412	0	904
7.104	1.118	16384	16425	0	904
17.202	7.393	16384	16434	0	904
17.598	9.052	16384	16441	0	904
15.723	5.013	16384	16451	0	904
9.556	-1.082	16384	16461	0	904
6.708	-5.517	16384	16470	0	904
6.816	-4.400	16384	16473	0	904
10.819	-1.190	16384	16470	0	904
12.874	1.154	16384	16466	0	904
12.189	0.902	16384	16466	0	904
9.773	-0.757	16384	16461	0	904
6.239	-2.560	16384	16451	0	904
5.914	-4.327	16384	16437	0	904
6.347	-4.111	16384	16422	0	904
7.537	-3.931	16384	16412	0	904
7.357	-4.039	16384	16403	0	904
5.662	-3.065	16384	16393	0	904
2.849	-5.950	16384	16388	0	904
2.921	-4.688	16384	16386	0	904
3.750	-5.698	16384	16384	0	904
4.724	-6.527	16384	16384	0	904
5.337	-6.708	16384	16382	0	904
5.626	-6.167	16384	16382	0	904
6.960	-6.203	16384	16384	0	904
7.645	-5.554	16384	16384	0	904
9.845	-6.347	16384	16388	0	904
5.626	-7.753	16384	16388	0	904
3.101	-9.268	16384	16388	0	904
1.010	-10.350	16384	16388	0	904
3.498	-9.196	16384	16386	0	904
7.898	-6.527	16384	16382	0	904
12.153	-5.445	16384	16375	0	904
12.225	-3.354	16384	16368	0	904
10.278	-4.940	16384	16363	0	904
6.275	-3.426	16384	16363	0	904
4.580	-3.498	16384	16363	0	904
5.337	-0.757	16384	16368	0	904
5.517	1.406	16384	16370	0	904
7.068	0.649	16384	16375	0	904
5.049	-2.777	16384	16377	0	904
1.082	-7.212	16384	16380	0	904
-0.469	-8.835	16384	16384	0	904
-1.803	-9.737	16384	16386	0	904
-0.829	-10.566	16384	16388	0	904
0.216	-10.746	16384	16391	0	904
-1.262	-11.179	16384	16391	0	904
-3.931	-15.038	16384	16388	0	904
-6.888	-16.625	16384	16384	0	904
-7.140	-16.841	16384	16384	0	904
-6.058	-18.788	16384	16380	0	904
-3.895	-16.769	16384	16377	0	904
0.252	-15.326	16384	16375	0	904
2.633	-12.802	16384	16372	0	904
3.678	-13.776	16384	16368	0	904
2.236	-12.586	16384	16368	0	904
0.541	-13.848	16384	16368	0	904
0.397	-10.891	16384	16370	0	904
3.318	-6.203	16384	16368	0	904
9.304	-0.505	16384	16365	0	904
13.307	4.219	16384	16363	0	904
12.225	3.426	16384	16360	0	904
10.530	0.252	16384	16358	0	904
8.222	-5.157	16384	16356	0	904
5.265	-6.094	16384	16356	0	904
5.986	-4.436	16384	16358	0	904
6.167	-1.803	16384	16358	0	904
2.741	-0.793	16384	16358	0	904
1.659	-1.515	16384	16360	0	904
-0.865	-4.255	16384	16363	0	904
-3.101	-8.727	16384	16363	0	904
-7.176	-10.674	16384	16365	0	904
-12.333	-13.415	16384	16363	0	904
-17.310	-17.995	16384	16360	0	904
-23.657	-19.942	16384	16360	0	904
-27.083	-22.647	16384	16363	0	904
-26.578	-24.306	16384	16363	0	904
-23.368	-21.493	16384	16358	0	904
-17.021	-17.526	16384	16346	0	904
-6.491	-10.674	16384	16336	0	904
0.902	-6.527	16384	16322	0	904
1.623	-4.255	16384	16310	0	904
0.685	-6.058	16384	16300	0	904
-1.875	-5.770	16384	16295	0	904
0.288	-3.750	16384	16293	0	904
5.806	0.829	16384	16288	0	904
12.333	6.419	16384	16288	0	904
15.687	7.321	16384	16298	0	904
13.127	7.429	16384	16312	0	904
9.737	3.787	16384	16327	0	904
7.537	1.695	16384	16336	0	904
4.003	-0.649	16384	16346	0	904
2.633	-2.128	16384	16356	0	904
0.216	-3.462	16384	16360	0	904
1.082	-3.426	16384	16363	0	904
1.695	-4.472	16384	16368	0	904
4.039	-3.462	16384	16377	0	904
7.609	-1.803	16384	16386	0	904
9.845	0.325	16384	16400	0	904
13.199	1.190	16384	16415	0	904
13.631	0.865	16384	16422	0	904
16.300	1.262	16384	16425	0	904
16.949	0.325	16384	16425	0	904
15.975	1.911	16384	16429	0	904
15.651	2.705	16384	16434	0	904
12.514	3.642	16384	16437	0	904
10.710	4.003	16384	16439	0	904
9.845	4.219	16384	16439	0	904
12.910	7.934	16384	16441	0	904
17.454	11.684	16384	16441	0	904
19.329	12.982	16384	16437	0	904
19.257	13.451	16384	16427	0	904
14.172	11.720	16384	16417	0	904
11.215	6.419	16384	16412	0	904
8.691	2.669	16384	16408	0	904
5.770	-0.505	16384	16410	0	904
5.806	-2.813	16384	16415	0	904
3.967	-3.570	16384	16420	0	904
5.698	-1.046	16384	16425	0	904
9.701	1.334	16384	16425	0	904
13.451	3.570	16384	16422	0	904
12.946	3.101	16384	16425	0	904
10.530	-0.325	16384	16422	0	904
4.832	-4.940	16384	16420	0	904
0.469	-8.547	16384	16422	0	904
-1.406	-11.251	16384	16422	0	904
-3.173	-9.737	16384	16422	0	904
-3.895	-10.819	16384	16420	0	904
-3.714	-10.819	16384	16425	0	904
-2.236	-9.989	16384	16432	0	904
0.613	-9.160	16384	16439	0	904
3.462	-5.950	16384	16444	0	904
7.321	-2.560	16384	16451	0	904
9.268	0.252	16384	16458	0	904
10.602	2.813	16384	16458	0	904
12.189	4.616	16384	16454	0	904
13.091	6.744	16384	16449	0	904
12.982	9.484	16384	16441	0	904
13.487	7.104	16384	16432	0	904
7.789	3.354	16384	16420	0	904
1.623	-3.750	16384	16408	0	904
-6.167	-9.953	16384	16396	0	904
-10.819	-14.028	16384	16384	0	904
-9.520	-14.713	16384	16377	0	904
-5.481	-9.989	16384	16375	0	904
0.541	-7.501	16384	16375	0	904
4.832	-7.717	16384	16377	0	904
4.616	-8.258	16384	16377	0	904
4.544	-10.169	16384	16377	0	904
4.580	-10.061	16384	16372	0	904
4.580	-7.789	16384	16360	0	904
6.563	-3.787	16384	16346	0	904
6.599	-1.442	16384	16336	0	904
8.150	1.623	16384	16329	0	904
10.025	2.849	16384	16322	0	904
12.802	5.698	16384	16317	0	904
14.497	7.825	16384	16314	0	904
18.500	9.665	16384	16312	0	904
17.310	10.169	16384	16314	0	904
17.490	9.989	16384	16322	0	904
15.435	8.727	16384	16331	0	904
15.290	7.753	16384	16339	0	904
9.809	5.590	16384	16346	0	904
8.078	3.462	16384	16348	0	904
4.111	-0.757	16384	16353	0	904
2.200	-4.219	16384	16356	0	904
0.000	-7.357	16384	16358	0	904
-1.515	-6.960	16384	16363	0	904
-3.787	-8.583	16384	16368	0	904
-8.619	-11.648	16384	16370	0	904
-12.946	-14.389	16384	16377	0	904
-17.382	-19.293	16384	16384	0	904
-16.408	-18.428	16384	16388	0	904
-13.559	-17.021	16384	16391	0	904
-3.642	-10.819	16384	16388	0	904
7.176	-4.039	16384	16388	0	904
12.189	3.426	16384	16391	0	904
12.874	7.645	16384	16403	0	904
8.475	10.422	16384	16412	0	904
4.832	10.422	16384	16422	0	904
2.741	12.261	16384	16429	0	904
5.301	13.163	16384	16439	0	904
8.799	12.009	16384	16449	0	904
8.042	10.602	16384	16451	0	904
9.592	7.465	16384	16451	0	904
9.124	5.265	16384	16454	0	904
9.881	6.419	16384	16454	0	904
10.242	8.042	16384	16449	0	904
9.809	8.294	16384	16441	0	904
4.760	5.265	16384	16434	0	904
-0.721	0.288	16384	16425	0	904
-6.094	-6.419	16384	16417	0	904
-8.330	-11.828	16384	16403	0	904
-10.530	-16.084	16384	16393	0	904
-13.704	-17.274	16384	16384	0	904
-15.903	-18.175	16384	16375	0	904
-16.841	-15.398	16384	16363	0	904
-10.819	-10.025	16384	16351	0	904
1.442	-2.344	16384	16341	0	904
12.081	4.796	16384	16331	0	904
16.697	8.511	16384	16322	0	904
17.382	9.556	16384	16317	0	904
12.045	9.773	16384	16314	0	904
11.323	9.845	16384	16312	0	904
12.982	12.694	16384	16312	0	904
15.471	15.651	16384	16314	0	904
19.329	15.615	16384	16317	0	904
15.723	15.543	16384	16319	0	904
11.251	10.819	16384	16319	0	904
4.039	5.049	16384	16327	0	904
-0.865	0.469	16384	16336	0	904
-1.010	-1.623	16384	16346	0	904
1.370	-0.505	16384	16356	0	904
3.570	1.046	16384	16358	0	904
1.190	0.469	16384	16356	0	904
-3.210	-1.551	16384	16356	0	904
-7.573	-4.183	16384	16360	0	904
-6.708	-5.806	16384	16365	0	904
-3.787	-4.003	16384	16370	0	904
0.613	-1.911	16384	16377	0	904
3.678	0.757	16384	16384	0	904
5.481	2.272	16384	16398	0	904
6.167	3.426	16384	16410	0	904
5.914	3.318	16384	16415	0	904
5.590	3.462	16384	16417	0	904
3.823	2.560	16384	16417	0	904
0.036	0.577	16384	16417	0	904
3.173	2.200	16384	16415	0	904
6.635	3.390	16384	16412	0	904
12.225	8.042	16384	16415	0	904
15.867	12.225	16384	16420	0	904
19.978	14.028	16384	16422	0	904
18.356	15.074	16384	16422	0	904
19.329	13.704	16384	16415	0	904
20.447	16.841	16384	16408	0	904
22.719	17.743	16384	16400	0	904
22.899	18.608	16384	16396	0	904
20.483	15.218	16384	16396	0	904
17.526	8.835	16384	16396	0	904
10.350	1.370	16384	16393	0	904
2.596	-4.147	16384	16391	0	904
-1.190	-9.773	16384	16388	0	904
-6.671	-12.694	16384	16391	0	904
-10.927	-14.641	16384	16393	0	904
-12.874	-18.572	16384	16393	0	904
-13.884	-17.238	16384	16396	0	904
-13.668	-15.507	16384	16398	0	904
-9.124	-12.622	16384	16396	0	904
-5.301	-8.871	16384	16388	0	904
-1.515	-6.888	16384	16384	0	904
0.757	-6.491	16384	16375	0	904
2.019	-6.888	16384	16365	0	904
1.442	-6.275	16384	16360	0	904
0.613	-6.022	16384	16358	0	904
-0.902	-9.304	16384	16356	0	904
-6.239	-11.251	16384	16360	0	904
-8.042	-12.982	16384	16370	0	904
-8.330	-12.910	16384	16382	0	904
-0.541	-5.914	16384	16384	0	904
12.117	3.859	16384	16384	0	904
22.503	11.720	16384	16382	0	904
27.912	14.858	16384	16380	0	904
25.893	13.631	16384	16380	0	904
20.916	8.547	16384	16382	0	904
19.041	5.229	16384	16382	0	904
21.457	3.642	16384	16380	0	904
19.978	4.075	16384	16380	0	904
18.608	2.488	16384	16377	0	904
11.792	-1.659	16384	16377	0	904
6.708	-6.527	16384	16375	0	904
2.524	-8.655	16384	16375	0	904
0.216	-10.206	16384	16372	0	904
0.252	-10.638	16384	16365	0	904
-1.154	-10.494	16384	16358	0	904
-1.190	-10.206	16384	16356	0	904
-3.065	-11.323	16384	16353	0	904
-3.967	-12.441	16384	16358	0	904
-5.626	-12.550	16384	16360	0	904
-6.131	-12.910	16384	16363	0	904
-5.914	-11.937	16384	16365	0	904
-3.570	-8.727	16384	16368	0	904
-0.829	-6.419	16384	16375	0	904
4.255	-1.803	16384	16384	0	904
11.143	3.354	16384	16396	0	904
19.365	8.907	16384	16403	0	904
23.440	11.323	16384	16405	0	904
24.739	12.550	16384	16405	0	904
21.096	7.970	16384	16408	0	904
16.264	5.049	16384	16408	0	904
9.881	3.246	16384	16412	0	904
8.258	3.246	16384	16417	0	904
6.780	3.570	16384	16415	0	904
4.039	1.731	16384	16403	0	904
0.361	-3.282	16384	16393	0	904
-6.491	-9.773	16384	16388	0	904
-12.802	-18.067	16384	16384	0	904
-16.048	-22.467	16384	16380	0	904
-16.625	-23.693	16384	16372	0	904
-11.504	-19.798	16384	16365	0	904
-7.212	-16.012	16384	16358	0	904
-2.885	-9.773	16384	16353	0	904
-1.767	-9.376	16384	16353	0	904
-5.626	-10.710	16384	16358	0	904
-9.340	-12.910	16384	16363	0	904
-9.773	-14.028	16384	16368	0	904
-5.517	-9.809	16384	16368	0	904
5.409	-3.246	16384	16365	0	904
16.264	4.652	16384	16358	0	904
22.575	9.124	16384	16353	0	904
23.152	8.655	16384	16348	0	904
17.851	5.590	16384	16343	0	904
13.415	0.938	16384	16339	0	904
9.052	-1.911	16384	16334	0	904
8.186	-3.606	16384	16334	0	904
6.455	-3.606	16384	16336	0	904
5.193	-4.327	16384	16343	0	904
2.416	-5.265	16384	16351	0	904
0.288	-5.734	16384	16356	0	904
-0.685	-8.078	16384	16363	0	904
-2.128	-8.727	16384	16375	0	904
-3.426	-10.963	16384	16384	0	904
-4.364	-11.504	16384	16398	0	904
-6.383	-10.999	16384	16410	0	904
-5.734	-8.763	16384	16417	0	904
-4.436	-7.104	16384	16422	0	904
-1.046	-3.678	16384	16427	0	904
2.957	-2.885	16384	16432	0	904
4.652	-2.380	16384	16434	0	904
4.868	-2.849	16384	16434	0	904
2.741	-4.147	16384	16432	0	904
1.515	-4.832	16384	16434	0	904
-0.938	-5.986	16384	16439	0	904
-1.046	-6.419	16384	16446	0	904
-0.325	-4.616	16384	16446	0	904
3.534	-0.541	16384	16439	0	904
13.631	7.789	16384	16434	0	904
20.664	14.749	16384	16432	0	904
28.561	20.988	16384	16427	0	904
25.027	16.408	16384	16425	0	904
17.743	10.242	16384	16425	0	904
10.278	2.488	16384	16432	0	904
5.157	-2.272	16384	16439	0	904
4.400	-2.849	16384	16444	0	904
4.255	-2.380	16384	16444	0	904
2.993	-3.787	16384	16444	0	904
1.046	-6.058	16384	16444	0	904
-1.154	-9.989	16384	16437	0	904
-1.731	-12.405	16384	16429	0	904
-4.003	-11.648	16384	16420	0	904
-5.554	-12.982	16384	16412	0	904
-4.111	-12.441	16384	16408	0	904
-3.173	-9.520	16384	16403	0	904
-1.154	-10.025	16384	16393	0	904
-0.577	-10.097	16384	16384	0	904
-2.019	-9.520	16384	16372	0	904
-1.587	-9.556	16384	16363	0	904
2.200	-7.248	16384	16353	0	904
7.717	-2.380	16384	16348	0	904
13.992	2.957	16384	16348	0	904
15.182	5.590	16384	16346	0	904
14.858	3.931	16384	16346	0	904
10.169	2.128	16384	16343	0	904
8.330	0.252	16384	16341	0	904
9.448	1.334	16384	16346	0	904
11.612	2.596	16384	16351	0	904
11.973	5.878	16384	16353	0	904
10.746	3.173	16384	16353	0	904
4.652	-2.921	16384	16356	0	904
-2.488	-7.825	16384	16363	0	904
-6.094	-13.559	16384	16375	0	904
-8.078	-16.192	16384	16384	0	904
-7.573	-14.100	16384	16393	0	904
-5.229	-12.261	16384	16400	0	904
-2.596	-9.845	16384	16405	0	904
-1.262	-7.140	16384	16403	0	904
-0.108	-6.852	16384	16398	0	904
-0.072	-7.681	16384	16396	0	904
1.046	-7.862	16384	16396	0	904
2.921	-6.455	16384	16391	0	904
5.049	-4.472	16384	16382	0	904
6.744	-2.452	16384	16372	0	904
8.258	0.252	16384	16365	0	904
9.016	0.757	16384	16360	0	904
11.792	1.695	16384	16358	0	904
17.995	8.150	16384	16353	0	904
23.837	14.281	16384	16353	0	904
27.515	17.634	16384	16356	0	904
25.676	17.634	16384	16360	0	904
17.454	9.665	16384	16368	0	904
7.898	-0.144	16384	16375	0	904
-0.288	-7.609	16384	16386	0	904
-2.669	-10.783	16384	16400	0	904
0.000	-5.698	16384	16410	0	904
6.527	-0.541	16384	16412	0	904
12.550	3.823	16384	16415	0	904
14.028	6.347	16384	16415	0	904
13.018	3.354	16384	16415	0	904
8.078	0.613	16384	16415	0	904
1.803	-4.255	16384	16415	0	904
-2.669	-7.212	16384	16415	0	904
-3.173	-7.753	16384	16417	0	904
-1.190	-4.868	16384	16415	0	904
3.931	0.252	16384	16412	0	904
9.448	5.157	16384	16408	0	904
12.946	7.753	16384	16405	0	904
11.179	6.383	16384	16398	0	904
6.852	1.587	16384	16384	0	904
4.075	0.505	16384	16370	0	904
3.931	1.731	16384	16358	0	904
6.708	6.275	16384	16348	0	904
11.792	11.323	16384	16336	0	904
12.009	15.218	16384	16329	0	904
14.425	14.749	16384	16329	0	904
15.110	12.081	16384	16334	0	904
15.218	12.261	16384	16341	0	904
15.903	9.124	16384	16343	0	904
11.179	4.255	16384	16341	0	904
0.036	-2.056	16384	16336	0	904
-10.386	-12.441	16384	16336	0	904
-18.464	-18.103	16384	16343	0	904
-21.277	-18.897	16384	16348	0	904
-14.858	-14.064	16384	16353	0	904
-5.121	-6.635	16384	16360	0	904
3.210	-1.118	16384	16368	0	904
6.563	-0.216	16384	16372	0	904
2.993	-3.859	16384	16372	0	904
-2.308	-8.402	16384	16372	0	904
-5.013	-10.061	16384	16370	0	904
-1.623	-4.255	16384	16370	0	904
6.094	2.705	16384	16372	0	904
12.694	9.701	16384	16377	0	904
14.425	10.999	16384	16384	0	904
13.884	8.150	16384	16388	0	904
11.576	6.131	16384	16391	0	904
12.730	5.950	16384	16388	0	904
17.166	8.294	16384	16382	0	904
18.428	10.494	16384	16372	0	904
19.510	11.937	16384	16360	0	904
14.785	10.350	16384	16346	0	904
13.920	8.366	16384	16331	0	904
14.028	7.537	16384	16327	0	904
17.490	8.835	16384	16324	0	904
21.493	11.215	16384	16324	0	904
24.089	12.333	16384	16327	0	904
21.313	13.812	16384	16327	0	904
17.634	10.206	16384	16324	0	904
10.819	5.157	16384	16327	0	904
7.429	2.741	16384	16334	0	904
5.085	2.236	16384	16341	0	904
5.445	2.849	16384	16346	0	904
9.124	6.203	16384	16353	0	904
10.891	9.737	16384	16356	0	904
12.189	10.314	16384	16358	0	904
10.097	8.006	16384	16360	0	904
7.357	5.770	16384	16368	0	904
4.868	2.344	16384	16370	0	904
3.570	0.793	16384	16372	0	904
4.291	1.190	16384	16380	0	904
5.337	0.469	16384	16388	0	904
4.003	0.252	16384	16396	0	904
3.210	-1.298	16384	16403	0	904
3.967	-1.226	16384	16408	0	904
5.445	0.829	16384	16412	0	904
8.907	2.741	16384	16415	0	904
8.006	4.255	16384	16422	0	904
4.724	4.003	16384	16425	0	904
-0.469	1.082	16384	16425	0	904
-5.121	-1.659	16384	16422	0	904
-5.626	-4.616	16384	16422	0	904
-5.445	-4.796	16384	16420	0	904
-2.993	-5.662	16384	16417	0	904
-2.957	-5.445	16384	16420	0	904
-4.688	-7.717	16384	16425	0	904
-6.708	-9.845	16384	16429	0	904
-6.527	-10.278	16384	16432	0	904
-7.140	-10.819	16384	16434	0	904
-7.212	-10.494	16384	16439	0	904
-5.770	-10.025	16384	16444	0	904
-4.796	-7.357	16384	16451	0	904
-2.957	-6.852	16384	16454	0	904
0.325	-2.813	16384	16461	0	904
2.993	-3.029	16384	16468	0	904
2.741	-4.760	16384	16478	0	904
1.911	-8.511	16384	16485	0	904
0.144	-9.376	16384	16487	0	904
0.577	-5.986	16384	16487	0	904
3.642	-0.613	16384	16487	0	904
11.107	5.950	16384	16487	0	904
19.726	13.163	16384	16487	0	904
23.440	16.336	16384	16485	0	904
26.542	17.202	16384	16478	0	904
24.017	17.093	16384	16466	0	904
19.762	13.631	16384	16449	0	904
15.615	10.674	16384	16429	0	904
12.766	7.140	16384	16410	0	904
9.773	4.327	16384	16400	0	904
6.780	2.957	16384	16396	0	904
5.914	0.938	16384	16396	0	904
6.058	-0.144	16384	16396	0	904
3.678	-0.649	16384	16391	0	904
0.793	-1.803	16384	16384	0	904
-1.406	-1.479	16384	16377	0	904
-1.515	2.092	16384	16370	0	904
3.642	7.609	16384	16360	0	904
13.415	15.903	16384	16351	0	904
22.647	19.113	16384	16346	0	904
24.991	20.375	16384	16334	0	904
21.745	14.353	16384	16319	0	904
13.307	12.405	16384	16302	0	904
12.297	14.353	16384	16290	0	904
19.654	22.250	16384	16286	0	904
33.790	32.708	16384	16286	0	904
46.628	38.334	16384	16286	0	904
47.205	34.331	16384	16288	0	904
36.783	23.729	16384	16288	0	904
21.565	14.605	16384	16290	0	904
14.569	8.835	16384	16293	0	904
15.795	11.035	16384	16290	0	904
25.604	19.005	16384	16290	0	904
30.977	21.565	16384	16290	0	904
27.551	20.231	16384	16298	0	904
18.103	10.855	16384	16307	0	904
5.626	0.974	16384	16319	0	904
-1.803	-7.465	16384	16334	0	904
-6.960	-10.602	16384	16346	0	904
-5.626	-10.602	16384	16356	0	904
-5.914	-9.268	16384	16360	0	904
-5.878	-9.232	16384	16370	0	904
-3.714	-9.196	16384	16377	0	904
-0.865	-6.347	16384	16388	0	904
1.442	-3.534	16384	16405	0	904
0.613	-2.524	16384	16422	0	904
-2.705	-5.193	16384	16437	0	904
-8.006	-9.665	16384	16454	0	904
-12.766	-15.831	16384	16468	0	904
-15.110	-16.877	16384	16478	0	904
-14.605	-16.552	16384	16482	0	904
-16.841	-13.740	16384	16487	0	904
-14.245	-12.910	16384	16490	0	904
-11.937	-10.963	16384	16485	0	904
-6.022	-8.727	16384	16475	0	904
-0.649	-6.167	16384	16461	0	904
-0.613	-5.662	16384	16449	0	904
-3.210	-7.285	16384	16437	0	904
-6.239	-9.629	16384	16422	0	904
-9.556	-9.629	16384	16408	0	904
-6.563	-9.160	16384	16393	0	904
-3.246	-6.131	16384	16382	0	904
-0.397	-4.364	16384	16370	0	904
1.334	-3.534	16384	16358	0	904
0.361	-3.859	16384	16346	0	904
1.082	-3.426	16384	16336	0	904
1.623	-4.111	16384	16327	0	904
2.092	-5.373	16384	16319	0	904
1.875	-8.799	16384	16317	0	904
-2.236	-11.828	16384	16317	0	904
-6.996	-12.405	16384	16317	0	904
-7.212	-13.379	16384	16314	0	904
-1.298	-7.212	16384	16314	0	904
7.501	1.226	16384	16314	0	904
14.425	6.708	16384	16317	0	904
11.720	6.094	16384	16319	0	904
3.246	-1.226	16384	16322	0	904
-7.825	-11.612	16384	16324	0	904
-16.012	-17.743	16384	16327	0	904
-15.290	-19.654	16384	16334	0	904
-9.592	-11.396	16384	16343	0	904
-4.291	-4.111	16384	16356	0	904
0.721	0.938	16384	16368	0	904
-0.793	1.911	16384	16372	0	904
-5.085	-4.255	16384	16377	0	904
-10.025	-8.835	16384	16384	0	904
-9.304	-11.756	16384	16398	0	904
-4.111	-6.960	16384	16410	0	904
-0.613	-0.974	16384	16420	0	904
1.046	1.010	16384	16425	0	904
-3.137	-1.875	16384	16429	0	904
-8.402	-9.232	16384	16434	0	904
-10.602	-13.343	16384	16437	0	904
-9.016	-11.396	16384	16439	0	904
-5.481	-9.520	16384	16441	0	904
-5.481	-5.806	16384	16444	0	904
-6.780	-4.977	16384	16444	0	904
-10.674	-5.698	16384	16444	0	904
-10.927	-5.409	16384	16439	0	904
-11.323	-3.967	16384	16434	0	904
-10.097	-2.128	16384	16434	0	904
-8.655	-4.039	16384	16437	0	904
-9.520	-4.255	16384	16437	0	904
-8.727	-6.924	16384	16432	0	904
-7.176	-6.852	16384	16427	0	904
-4.724	-5.049	16384	16427	0	904
-3.823	-3.137	16384	16432	0	904
-5.445	-2.380	16384	16441	0	904
-12.802	-2.596	16384	16446	0	904
-18.392	-7.032	16384	16441	0	904
-23.260	-9.809	16384	16434	0	904
-17.851	-8.835	16384	16420	0	904
-9.809	-4.219	16384	16405	0	904
-0.577	1.911	16384	16388	0	904
3.101	7.753	16384	16377	0	904
3.570	10.530	16384	16365	0	904
3.678	10.314	16384	16360	0	904
6.058	12.189	16384	16358	0	904
9.052	14.208	16384	16358	0	904
7.681	12.045	16384	16360	0	904
6.635	12.838	16384	16363	0	904
7.357	12.261	16384	16365	0	904
14.569	16.228	16384	16363	0	904
20.916	22.431	16384	16358	0	904
25.135	23.909	16384	16351	0	904
18.211	16.120	16384	16343	0	904
7.465	6.455	16384	16334	0	904
0.216	-1.298	16384	16327	0	904
-0.613	-1.947	16384	16327	0	904
2.416	0.577	16384	16329	0	904
3.390	1.479	16384	16331	0	904
0.649	-1.983	16384	16329	0	904
-3.101	-4.832	16384	16327	0	904
-2.596	-6.671	16384	16324	0	904
1.767	-4.652	16384	16324	0	904
3.642	-6.022	16384	16322	0	904
2.019	-11.179	16384	16319	0	904
-2.200	-13.235	16384	16322	0	904
-2.452	-12.946	16384	16329	0	904
3.029	-6.816	16384	16339	0	904
10.169	-0.974	16384	16353	0	904
12.658	0.938	16384	16368	0	904
8.006	-1.983	16384	16380	0	904
-0.649	-5.409	16384	16384	0	904
-3.570	-7.501	16384	16393	0	904
-0.829	-4.219	16384	16400	0	904
7.970	1.154	16384	16410	0	904
16.012	6.708	16384	16415	0	904
23.837	12.802	16384	16420	0	904
23.152	15.831	16384	16425	0	904
20.736	13.668	16384	16427	0	904
17.346	9.773	16384	16429	0	904
13.054	5.373	16384	16429	0	904
8.475	0.036	16384	16427	0	904
6.635	-0.865	16384	16422	0	904
2.056	-1.947	16384	16412	0	904
-2.560	-5.193	16384	16400	0	904
-7.176	-9.268	16384	16388	0	904
-13.776	-14.821	16384	16384	0	904
-15.471	-19.906	16384	16384	0	904
-15.939	-21.962	16384	16388	0	904
-12.946	-19.546	16384	16396	0	904
-7.681	-17.238	16384	16403	0	904
-3.750	-13.884	16384	16412	0	904
-2.452	-13.343	16384	16422	0	904
-0.288	-14.677	16384	16429	0	904
-0.288	-12.261	16384	16439	0	904
4.039	-9.592	16384	16444	0	904
6.924	-6.311	16384	16446	0	904
7.898	-3.029	16384	16441	0	904
7.068	-3.318	16384	16432	0	904
7.393	-2.813	16384	16417	0	904
8.655	2.128	16384	16405	0	904
17.021	9.520	16384	16393	0	904
24.017	14.930	16384	16388	0	904
29.282	21.781	16384	16384	0	904
29.499	22.935	16384	16384	0	904
27.732	23.008	16384	16384	0	904
23.476	18.356	16384	16384	0	904
17.959	15.507	16384	16382	0	904
13.271	8.907	16384	16377	0	904
9.160	6.816	16384	16372	0	904
9.196	7.357	16384	16368	0	904
13.884	10.746	16384	16368	0	904
18.897	15.290	16384	16365	0	904
19.762	16.949	16384	16360	0	904
20.303	14.894	16384	16351	0	904
16.661	13.848	16384	16343	0	904
18.103	12.153	16384	16339	0	904
18.608	13.668	16384	16339	0	904
20.627	17.815	16384	16341	0	904
22.322	16.949	16384	16341	0	904
20.916	17.166	16384	16343	0	904
24.558	15.687	16384	16348	0	904
31.230	20.123	16384	16351	0	904
41.255	27.840	16384	16353	0	904
52.326	37.577	16384	16353	0	904
58.348	43.238	16384	16351	0	904
60.620	46.376	16384	16341	0	904
58.384	46.340	16384	16331	0	904
54.742	45.005	16384	16329	0	904
55.247	46.051	16384	16331	0	904
55.752	46.953	16384	16341	0	904
58.312	47.169	16384	16356	0	904
60.007	46.628	16384	16375	0	904
56.401	46.520	16384	16386	0	904
50.487	44.897	16384	16391	0	904
41.291	43.924	16384	16391	0	904
36.423	43.130	16384	16393	0	904
33.718	41.904	16384	16396	0	904
34.151	39.488	16384	16398	0	904
33.321	35.521	16384	16400	0	904
30.292	30.400	16384	16393	0	904
24.919	25.352	16384	16384	0	904
23.909	21.962	16384	16377	0	904
22.611	20.411	16384	16372	0	904
24.378	22.791	16384	16370	0	904
26.397	24.847	16384	16370	0	904
29.931	28.128	16384	16368	0	904
33.285	31.590	16384	16365	0	904
36.783	32.239	16384	16365	0	904
36.639	31.915	16384	16365	0	904
35.269	30.545	16384	16365	0	904
31.338	30.653	16384	16365	0	904
31.158	30.472	16384	16370	0	904
31.951	32.420	16384	16382	0	904
34.006	33.646	16384	16393	0	904
34.511	32.312	16384	16403	0	904
34.115	29.463	16384	16408	0	904
28.958	25.568	16384	16410	0	904
25.352	21.709	16384	16412	0	904
22.972	19.401	16384	16412	0	904
23.296	21.962	16384	16412	0	904
24.919	23.476	16384	16405	0	904
23.008	21.926	16384	16396	0	904
16.264	18.283	16384	16391	0	904
7.862	9.520	16384	16391	0	904
1.479	3.967	16384	16398	0	904
0.216	3.029	16384	16408	0	904
3.642	2.957	16384	16415	0	904
5.662	4.760	16384	16420	0	904
6.383	2.957	16384	16425	0	904
4.003	0.721	16384	16427	0	904
1.479	-2.019	16384	16425	0	904
0.144	-4.400	16384	16422	0	904
-2.019	-4.436	16384	16420	0	904
-4.904	-7.681	16384	16417	0	904
-9.196	-12.441	16384	16415	0	904
-12.153	-14.966	16384	16415	0	904
-13.235	-18.716	16384	16415	0	904
-11.287	-16.192	16384	16417	0	904
-5.626	-13.595	16384	16417	0	904
-0.108	-9.340	16384	16412	0	904
2.849	-6.131	16384	16408	0	904
5.013	-5.265	16384	16400	0	904
4.977	-1.695	16384	16391	0	904
6.275	-0.325	16384	16386	0	904
8.114	0.216	16384	16384	0	904
11.179	1.298	16384	16380	0	904
11.035	-1.118	16384	16370	0	904
5.157	-7.681	16384	16360	0	904
-2.452	-12.622	16384	16356	0	904
-10.242	-17.959	16384	16351	0	904
-13.992	-22.647	16384	16341	0	904
-14.605	-20.952	16384	16331	0	904
-14.785	-21.421	16384	16324	0	904
-12.261	-21.529	16384	16322	0	904
-12.225	-20.267	16384	16322	0	904
-9.232	-18.464	16384	16324	0	904
-1.479	-12.550	16384	16331	0	904
2.344	-11.684	16384	16336	0	904
3.029	-11.648	16384	16341	0	904
0.649	-13.163	16384	16346	0	904
-4.796	-16.408	16384	16346	0	904
-8.294	-15.435	16384	16351	0	904
-6.599	-14.064	16384	16358	0	904
-4.147	-11.756	16384	16363	0	904
-0.325	-8.871	16384	16365	0	904
1.911	-6.635	16384	16370	0	904
4.111	-3.678	16384	16370	0	904
6.419	-1.226	16384	16370	0	904
9.773	1.551	16384	16372	0	904
11.143	3.678	16384	16375	0	904
9.881	4.724	16384	16380	0	904
10.963	6.347	16384	16384	0	904
9.737	6.527	16384	16391	0	904
6.960	4.327	16384	16405	0	904
4.147	0.433	16384	16420	0	904
-1.587	-4.652	16384	16432	0	904
-10.530	-9.881	16384	16449	0	904
-14.497	-13.487	16384	16463	0	904
-18.139	-14.785	16384	16470	0	904
-16.408	-12.117	16384	16473	0	904
-10.061	-11.251	16384	16466	0	904
-4.544	-11.215	16384	16456	0	904
0.036	-9.773	16384	16446	0	904
1.406	-10.710	16384	16444	0	904
-0.793	-11.756	16384	16449	0	904
-1.983	-11.179	16384	16451	0	904
0.361	-6.635	16384	16449	0	904
5.121	-3.173	16384	16441	0	904
11.396	2.560	16384	16432	0	904
18.824	8.078	16384	16420	0	904
23.224	13.776	16384	16408	0	904
24.089	14.821	16384	16396	0	904
23.224	15.002	16384	16388	0	904
14.785	11.504	16384	16384	0	904
9.448	6.347	16384	16377	0	904
6.383	3.714	16384	16365	0	904
5.049	6.239	16384	16351	0	904
8.150	9.953	16384	16339	0	904
8.222	12.189	16384	16334	0	904
9.124	10.819	16384	16331	0	904
6.131	7.465	16384	16331	0	904
3.498	3.354	16384	16336	0	904
2.633	0.577	16384	16341	0	904
1.479	0.541	16384	16343	0	904
-0.829	-1.298	16384	16346	0	904
-2.885	-5.121	16384	16353	0	904
-4.183	-6.852	16384	16363	0	904
-4.904	-6.311	16384	16368	0	904
-0.216	-2.344	16384	16363	0	904
6.131	3.246	16384	16353	0	904
10.746	6.491	16384	16341	0	904
12.441	7.645	16384	16327	0	904
10.350	3.462	16384	16322	0	904
5.193	-0.288	16384	16319	0	904
3.570	-3.318	16384	16322	0	904
4.111	-2.849	16384	16324	0	904
8.078	1.118	16384	16327	0	904
15.543	5.698	16384	16334	0	904
21.601	9.953	16384	16336	0	904
26.289	10.783	16384	16336	0	904
26.181	8.835	16384	16341	0	904
21.096	5.301	16384	16348	0	904
16.300	0.793	16384	16358	0	904
8.871	-3.606	16384	16370	0	904
4.327	-9.268	16384	16382	0	904
1.695	-12.081	16384	16391	0	904
-0.072	-16.048	16384	16396	0	904
-1.226	-16.084	16384	16400	0	904
-2.885	-18.211	16384	16405	0	904
-4.904	-19.113	16384	16412	0	904
-7.645	-22.467	16384	16422	0	904
-10.278	-22.863	16384	16434	0	904
-9.412	-21.637	16384	16441	0	904
-6.671	-20.483	16384	16441	0	904
-5.337	-16.300	16384	16441	0	904
-3.137	-16.012	16384	16441	0	904
-3.065	-13.127	16384	16441	0	904
-1.731	-12.441	16384	16437	0	904
1.947	-7.645	16384	16434	0	904
8.799	-2.200	16384	16429	0	904
13.163	1.262	16384	16417	0	904
16.408	4.436	16384	16400	0	904
13.523	2.164	16384	16388	0	904
10.278	0.036	16384	16384	0	904
6.347	-4.364	16384	16384	0	904
2.596	-4.003	16384	16384	0	904
2.452	-1.046	16384	16384	0	904
4.977	3.570	16384	16386	0	904
7.898	7.537	16384	16388	0	904
11.071	6.419	16384	16391	0	904
10.278	3.787	16384	16396	0	904
4.327	-1.334	16384	16396	0	904
-3.895	-7.465	16384	16396	0	904
-11.684	-11.720	16384	16393	0	904
-13.018	-12.333	16384	16391	0	904
-13.595	-13.487	16384	16393	0	904
-10.602	-12.081	16384	16398	0	904
-8.114	-9.232	16384	16400	0	904
-4.400	-8.222	16384	16410	0	904
-1.370	-6.347	16384	16422	0	904
1.983	-5.085	16384	16429	0	904
2.019	-4.400	16384	16427	0	904
2.705	-5.193	16384	16422	0	904
1.515	-4.724	16384	16417	0	904
1.875	-5.265	16384	16410	0	904
3.823	-1.731	16384	16398	0	904
4.616	0.613	16384	16386	0	904
6.131	3.101	16384	16375	0	904
7.465	5.445	16384	16368	0	904
10.350	8.547	16384	16363	0	904
12.405	10.746	16384	16360	0	904
12.369	11.612	16384	16360	0	904
11.973	11.251	16384	16365	0	904
11.035	7.717	16384	16372	0	904
6.383	2.056	16384	16384	0	904
1.262	-2.344	16384	16393	0	904
-4.219	-7.176	16384	16400	0	904
-8.619	-8.150	16384	16405	0	904
-6.996	-7.862	16384	16408	0	904
-2.128	-4.291	16384	16410	0	904
4.652	-1.442	16384	16415	0	904
7.357	-0.865	16384	16417	0	904
6.744	-2.777	16384	16422	0	904
3.823	-6.131	16384	16422	0	904
3.101	-8.799	16384	16420	0	904
4.977	-9.484	16384	16410	0	904
5.554	-9.629	16384	16398	0	904
6.419	-9.088	16384	16386	0	904
5.121	-7.934	16384	16382	0	904
3.354	-7.393	16384	16377	0	904
1.262	-8.222	16384	16372	0	904
2.596	-7.537	16384	16370	0	904
4.977	-4.075	16384	16365	0	904
9.737	0.108	16384	16363	0	904
15.867	7.429	16384	16358	0	904
19.582	11.576	16384	16351	0	904
21.385	11.648	16384	16343	0	904
16.877	9.773	16384	16339	0	904
12.658	1.767	16384	16339	0	904
5.013	-4.688	16384	16341	0	904
-2.741	-10.746	16384	16339	0	904
-9.160	-16.228	16384	16331	0	904
-12.766	-18.067	16384	16329	0	904
-14.317	-15.290	16384	16322	0	904
-12.766	-13.920	16384	16310	0	904
-8.619	-9.917	16384	16295	0	904
-4.940	-8.943	16384	16278	0	904
-1.983	-5.878	16384	16264	0	904
0.505	-6.527	16384	16254	0	904
-0.433	-7.573	16384	16252	0	904
-3.173	-11.937	16384	16257	0	904
-6.491	-16.120	16384	16266	0	904
-7.573	-18.103	16384	16281	0	904
-7.248	-19.221	16384	16298	0	904
-8.475	-16.877	16384	16312	0	904
-5.698	-16.012	16384	16324	0	904
-2.957	-13.704	16384	16334	0	904
0.829	-14.317	16384	16341	0	904
5.806	-10.097	16384	16353	0	904
10.169	-4.868	16384	16363	0	904
13.595	-1.010	16384	16375	0	904
13.451	3.354	16384	16384	0	904
13.091	5.698	16384	16388	0	904
11.323	5.517	16384	16393	0	904
8.583	4.796	16384	16398	0	904
6.780	5.013	16384	16403	0	904
5.734	2.596	16384	16410	0	904
5.085	1.479	16384	16417	0	904
3.895	1.118	16384	16425	0	904
2.380	0.865	16384	16429	0	904
1.226	-0.793	16384	16437	0	904
0.325	-1.442	16384	16439	0	904
-0.829	-5.229	16384	16444	0	904
-0.216	-4.904	16384	16454	0	904
0.505	-3.354	16384	16463	0	904
1.046	-2.596	16384	16470	0	904
-0.325	-2.452	16384	16470	0	904
0.397	-3.895	16384	16466	0	904
1.154	-5.121	16384	16461	0	904
3.426	-4.291	16384	16458	0	904
8.871	-1.442	16384	16454	0	904
11.323	1.983	16384	16451	0	904
13.451	4.868	16384	16446	0	904
13.668	6.383	16384	16441	0	904
14.100	6.419	16384	16437	0	904
15.903	8.366	16384	16434	0	904
16.552	8.222	16384	16437	0	904
20.159	12.622	16384	16441	0	904
20.736	13.740	16384	16444	0	904
19.293	13.812	16384	16444	0	904
17.093	11.215	16384	16446	0	904
14.100	9.052	16384	16449	0	904
11.540	7.753	16384	16451	0	904
11.648	9.232	16384	16449	0	904
10.566	9.304	16384	16446	0	904
8.619	8.330	16384	16449	0	904
6.455	6.311	16384	16446	0	904
3.823	4.003	16384	16437	0	904
1.370	1.479	16384	16427	0	904
0.325	0.216	16384	16420	0	904
-1.875	-1.983	16384	16410	0	904
-3.137	-3.065	16384	16396	0	904
-2.633	-3.534	16384	16384	0	904
0.108	-1.839	16384	16377	0	904
3.606	1.370	16384	16372	0	904
6.708	3.101	16384	16370	0	904
7.321	2.056	16384	16368	0	904
7.176	2.921	16384	16360	0	904
6.635	4.400	16384	16348	0	904
8.583	7.429	16384	16339	0	904
11.864	12.405	16384	16336	0	904
13.523	15.471	16384	16336	0	904
16.264	16.913	16384	16334	0	904
17.021	15.579	16384	16327	0	904
20.880	18.500	16384	16319	0	904
23.224	19.437	16384	16317	0	904
25.568	20.411	16384	16314	0	904
24.125	16.877	16384	16314	0	904
19.582	12.441	16384	16322	0	904
16.589	3.173	16384	16331	0	904
11.792	-4.544	16384	16339	0	904
9.016	-11.900	16384	16348	0	904
4.652	-14.461	16384	16360	0	904
0.685	-15.290	16384	16365	0	904
0.649	-12.586	16384	16365	0	904
0.288	-9.989	16384	16363	0	904
0.469	-11.756	16384	16363	0	904
-4.868	-15.290	16384	16368	0	904
-12.658	-22.827	16384	16370	0	904
-20.880	-26.433	16384	16370	0	904
-20.700	-25.388	16384	16368	0	904
-14.281	-20.087	16384	16363	0	904
-1.695	-9.989	16384	16360	0	904
8.727	-5.698	16384	16365	0	904
12.982	-0.829	16384	16372	0	904
12.766	0.144	16384	16382	0	904
13.595	3.426	16384	16386	0	904
15.362	8.475	16384	16391	0	904
20.555	14.064	16384	16393	0	904
23.549	14.677	16384	16391	0	904
21.168	12.009	16384	16386	0	904
16.192	6.671	16384	16388	0	904
10.783	0.505	16384	16391	0	904
7.248	-1.767	16384	16393	0	904
5.193	-4.255	16384	16391	0	904
3.859	-5.554	16384	16386	0	904
-0.613	-8.691	16384	16384	0	904
-3.570	-12.658	16384	16384	0	904
-6.347	-14.389	16384	16391	0	904
-6.347	-11.792	16384	16398	0	904
-5.481	-10.783	16384	16400	0	904
-6.383	-9.448	16384	16403	0	904
-7.753	-10.819	16384	16403	0	904
-12.982	-16.661	16384	16400	0	904
-17.021	-18.897	16384	16391	0	904
-14.533	-17.923	16384	16384	0	904
-9.989	-12.514	16384	16377	0	904
-2.885	-5.301	16384	16370	0	904
4.904	-0.216	16384	16368	0	904
10.819	4.652	16384	16368	0	904
16.985	7.032	16384	16372	0	904
19.690	8.475	16384	16377	0	904
22.467	9.737	16384	16384	0	904
19.762	10.710	16384	16386	0	904
19.726	12.802	16384	16388	0	904
19.365	14.966	16384	16396	0	904
24.198	17.382	16384	16400	0	904
28.489	20.844	16384	16403	0	904
27.299	21.204	16384	16400	0	904
23.512	16.913	16384	16398	0	904
20.375	13.848	16384	16398	0	904
14.894	8.907	16384	16398	0	904
17.021	7.898	16384	16396	0	904
17.959	6.383	16384	16393	0	904
21.385	8.186	16384	16393	0	904
19.798	6.419	16384	16398	0	904
14.641	2.236	16384	16403	0	904
8.114	-2.344	16384	16403	0	904
-1.154	-6.311	16384	16400	0	904
-3.714	-7.212	16384	16398	0	904
-2.344	-5.554	16384	16396	0	904
4.291	-1.010	16384	16393	0	904
10.278	3.787	16384	16391	0	904
19.437	9.448	16384	16384	0	904
21.096	11.937	16384	16377	0	904
21.745	12.045	16384	16368	0	904
22.719	13.379	16384	16356	0	904
18.175	12.189	16384	16343	0	904
17.418	9.196	16384	16336	0	904
14.785	9.196	16384	16336	0	904
15.362	8.402	16384	16346	0	904
15.110	7.248	16384	16356	0	904
16.552	8.727	16384	16368	0	904
18.824	8.655	16384	16382	0	904
19.834	9.665	16384	16393	0	904
17.310	8.655	16384	16403	0	904
17.562	7.898	16384	16400	0	904
15.362	3.823	16384	16396	0	904
11.287	0.613	16384	16398	0	904
11.937	-1.587	16384	16403	0	904
10.710	-3.534	16384	16408	0	904
13.018	1.875	16384	16410	0	904
15.903	1.442	16384	16410	0	904
13.523	1.767	16384	16410	0	904
7.825	-2.741	16384	16408	0	904
-1.262	-10.855	16384	16403	0	904
-10.206	-17.454	16384	16398	0	904
-14.785	-19.726	16384	16388	0	904
-13.559	-18.428	16384	16382	0	904
-5.626	-10.133	16384	16372	0	904
1.262	-2.128	16384	16365	0	904
9.629	3.137	16384	16356	0	904
11.937	3.570	16384	16346	0	904
8.186	0.902	16384	16341	0	904
3.642	-2.416	16384	16341	0	904
1.190	-3.570	16384	16341	0	904
2.164	-2.308	16384	16339	0	904
6.744	1.370	16384	16334	0	904
11.107	4.436	16384	16331	0	904
12.009	4.940	16384	16331	0	904
11.973	3.931	16384	16334	0	904
10.278	2.524	16384	16339	0	904
8.258	1.118	16384	16343	0	904
7.573	-0.829	16384	16351	0	904
6.058	-0.685	16384	16358	0	904
4.544	-2.272	16384	16368	0	904
3.570	-2.488	16384	16384	0	904
0.793	-2.416	16384	16396	0	904
-1.406	-4.111	16384	16408	0	904
-3.390	-5.013	16384	16417	0	904
-3.029	-5.914	16384	16425	0	904
2.164	-4.508	16384	16429	0	904
7.753	0.000	16384	16434	0	904
11.143	2.092	16384	16439	0	904
12.369	4.003	16384	16446	0	904
11.973	3.534	16384	16451	0	904
10.927	2.056	16384	16454	0	904
10.169	1.442	16384	16454	0	904
10.097	-1.334	16384	16449	0	904
7.753	-2.813	16384	16449	0	904
6.744	-2.993	16384	16451	0	904
9.160	-0.180	16384	16461	0	904
15.615	3.859	16384	16470	0	904
17.923	5.986	16384	16478	0	904
19.618	3.390	16384	16478	0	904
14.281	0.938	16384	16473	0	904
9.989	-1.370	16384	16468	0	904
8.583	-0.829	16384	16461	0	904
10.422	0.829	16384	16449	0	904
14.461	3.534	16384	16429	0	904
17.238	4.327	16384	16405	0	904
16.408	3.390	16384	16386	0	904
15.471	2.885	16384	16372	0	904
12.117	3.606	16384	16358	0	904
11.792	1.839	16384	16348	0	904
10.133	2.344	16384	16341	0	904
8.402	1.695	16384	16334	0	904
7.717	1.334	16384	16329	0	904
8.871	1.731	16384	16327	0	904
10.097	1.911	16384	16324	0	904
12.261	3.678	16384	16324	0	904
13.595	3.606	16384	16327	0	904
14.100	3.354	16384	16327	0	904
9.160	2.416	16384	16329	0	904
4.940	1.623	16384	16336	0	904
1.659	-2.596	16384	16348	0	904
-4.364	-5.842	16384	16358	0	904
-10.927	-9.809	16384	16368	0	904
-11.504	-11.612	16384	16372	0	904
-8.114	-7.032	16384	16372	0	904
-1.226	-1.010	16384	16370	0	904
8.186	3.714	16384	16363	0	904
15.543	3.787	16384	16358	0	904
13.163	-0.288	16384	16356	0	904
9.989	-8.258	16384	16358	0	904
7.501	-11.540	16384	16363	0	904
10.422	-11.035	16384	16370	0	904
16.048	-3.967	16384	16380	0	904
21.998	3.498	16384	16386	0	904
25.099	8.475	16384	16391	0	904
22.034	7.537	16384	16388	0	904
17.995	2.272	16384	16384	0	904
13.199	-4.039	16384	16375	0	904
13.812	-5.626	16384	16368	0	904
15.038	-2.344	16384	16365	0	904
18.644	0.793	16384	16363	0	904
19.978	1.731	16384	16365	0	904
22.322	-0.325	16384	16365	0	904
24.125	-3.065	16384	16368	0	904
27.335	-2.813	16384	16372	0	904
30.184	-0.974	16384	16375	0	904
29.066	3.823	16384	16377	0	904
31.915	7.465	16384	16382	0	904
34.367	11.900	16384	16384	0	904
43.022	18.139	16384	16388	0	904
50.234	22.863	16384	16391	0	904
51.316	27.443	16384	16391	0	904
50.487	32.095	16384	16388	0	904
45.727	32.708	16384	16386	0	904
44.032	34.403	16384	16384	0	904
48.179	34.043	16384	16382	0	904
52.326	32.889	16384	16375	0	904
56.437	31.158	16384	16368	0	904
53.732	30.905	16384	16360	0	904
50.018	29.174	16384	16353	0	904
44.969	26.542	16384	16348	0	904
42.445	23.873	16384	16346	0	904
40.029	19.762	16384	16348	0	904
38.045	17.598	16384	16353	0	904
33.033	14.641	16384	16363	0	904
28.489	12.297	16384	16365	0	904
24.919	9.484	16384	16370	0	904
23.116	6.131	16384	16380	0	904
22.791	4.183	16384	16388	0	904
16.372	0.685	16384	16396	0	904
12.730	-1.839	16384	16398	0	904
12.117	-3.390	16384	16398	0	904
15.254	-3.678	16384	16400	0	904
21.565	-1.659	16384	16396	0	904
26.542	2.488	16384	16391	0	904
26.325	9.809	16384	16388	0	904
25.712	16.625	16384	16391	0	904
27.551	20.447	16384	16398	0	904
31.699	21.890	16384	16410	0	904
32.564	20.267	16384	16417	0	904
30.112	15.146	16384	16422	0	904
22.755	13.271	16384	16425	0	904
18.283	12.982	16384	16427	0	904
21.060	11.287	16384	16427	0	904
29.895	14.425	16384	16425	0	904
35.990	13.595	16384	16420	0	904
35.197	9.592	16384	16415	0	904
26.361	3.606	16384	16408	0	904
13.127	-3.462	16384	16400	0	904
3.318	-12.297	16384	16388	0	904
-2.380	-15.218	16384	16384	0	904
-4.364	-17.815	16384	16384	0	904
-7.068	-22.611	16384	16384	0	904
-13.415	-24.666	16384	16384	0	904
-18.356	-25.352	16384	16380	0	904
-20.014	-25.063	16384	16375	0	904
-13.992	-22.611	16384	16372	0	904
-6.058	-16.841	16384	16370	0	904
1.731	-15.687	16384	16368	0	904
3.462	-13.740	16384	16365	0	904
-0.902	-14.425	16384	16368	0	904
-7.104	-15.759	16384	16375	0	904
-13.018	-14.461	16384	16384	0	904
-13.631	-13.668	16384	16391	0	904
-10.674	-9.629	16384	16403	0	904
-4.472	-5.193	16384	16415	0	904
6.167	-0.252	16384	16420	0	904
12.730	3.426	16384	16422	0	904
16.300	8.907	16384	16420	0	904
10.963	5.554	16384	16420	0	904
3.714	-2.921	16384	16420	0	904
-3.498	-10.278	16384	16417	0	904
-10.494	-19.401	16384	16415	0	904
-14.245	-19.510	16384	16417	0	904
-15.074	-19.942	16384	16420	0	904
-20.375	-20.555	16384	16420	0	904
-23.729	-25.929	16384	16415	0	904
-26.830	-32.456	16384	16405	0	904
-27.515	-36.747	16384	16393	0	904
-27.407	-35.305	16384	16384	0	904
-23.080	-33.321	16384	16377	0	904
-20.159	-27.407	16384	16372	0	904
-20.087	-25.748	16384	16365	0	904
-18.103	-23.981	16384	16360	0	904
-20.267	-22.142	16384	16356	0	904
-14.930	-16.733	16384	16356	0	904
-9.629	-12.261	16384	16356	0	904
-2.524	-6.131	16384	16353	0	904
2.741	-1.190	16384	16351	0	904
5.734	-0.613	16384	16351	0	904
4.039	-1.118	16384	16353	0	904
1.983	-1.442	16384	16353	0	904
1.190	-3.065	16384	16358	0	904
1.442	-2.921	16384	16363	0	904
4.868	-1.875	16384	16360	0	904
9.629	0.974	16384	16351	0	904
12.225	4.183	16384	16343	0	904
16.805	6.131	16384	16336	0	904
17.851	6.888	16384	16331	0	904
13.776	3.678	16384	16329	0	904
9.412	-3.570	16384	16327	0	904
-1.406	-12.045	16384	16327	0	904
-12.225	-17.923	16384	16329	0	904
-18.536	-20.123	16384	16329	0	904
-22.827	-17.129	16384	16334	0	904
-26.289	-15.471	16384	16343	0	904
-28.056	-14.389	16384	16348	0	904
-31.482	-17.418	16384	16351	0	904
-35.233	-19.257	16384	16353	0	904
-36.783	-19.293	16384	16360	0	904
-37.180	-16.120	16384	16372	0	904
-36.134	-14.064	16384	16388	0	904
-33.898	-11.251	16384	16410	0	904
-29.751	-9.737	16384	16425	0	904
-25.460	-8.907	16384	16437	0	904
-20.555	-6.996	16384	16446	0	904
-17.562	-4.580	16384	16456	0	904
-17.923	-3.967	16384	16466	0	904
-18.933	-3.678	16384	16473	0	904
-23.657	-3.065	16384	16478	0	904
-25.893	-6.167	16384	16482	0	904
-25.640	-8.511	16384	16485	0	904
-25.135	-9.340	16384	16485	0	904
-20.447	-9.845	16384	16490	0	904
-13.956	-8.330	16384	16492	0	904
-9.412	-8.799	16384	16487	0	904
-6.960	-8.763	16384	16475	0	904
-7.934	-12.405	16384	16461	0	904
-9.629	-16.372	16384	16446	0	904
-12.117	-15.759	16384	16434	0	904
-11.071	-16.084	16384	16425	0	904
-8.294	-13.668	16384	16417	0	904
-5.049	-10.386	16384	16408	0	904
-5.013	-9.052	16384	16396	0	904
-4.255	-8.402	16384	16384	0	904
-4.255	-7.429	16384	16370	0	904
-5.842	-6.924	16384	16360	0	904
-7.789	-10.422	16384	16348	0	904
-9.520	-14.497	16384	16336	0	904
-12.117	-17.021	16384	16327	0	904
-12.009	-18.428	16384	16317	0	904
-7.393	-12.910	16384	16307	0	904
-1.695	-7.898	16384	16295	0	904
4.039	-4.688	16384	16286	0	904
7.104	-3.173	16384	16281	0	904
7.104	-2.596	16384	16283	0	904
5.878	-1.803	16384	16286	0	904
6.780	-1.190	16384	16281	0	904
5.626	-1.551	16384	16278	0	904
5.121	-4.904	16384	16273	0	904
3.065	-6.671	16384	16269	0	904
-0.541	-9.340	16384	16269	0	904
-3.101	-10.061	16384	16266	0	904
-4.508	-10.097	16384	16261	0	904
-3.750	-9.665	16384	16264	0	904
-2.813	-8.727	16384	16269	0	904
-3.318	-8.006	16384	16276	0	904
-3.823	-7.573	16384	16286	0	904
-4.436	-9.016	16384	16298	0	904
-3.318	-9.412	16384	16317	0	904
1.875	-9.412	16384	16339	0	904
5.049	-7.248	16384	16363	0	904
7.573	-4.291	16384	16384	0	904
6.455	-1.911	16384	16405	0	904
4.580	0.036	16384	16422	0	904
4.219	-0.577	16384	16434	0	904
4.544	-1.875	16384	16439	0	904
6.852	-2.524	16384	16439	0	904
7.609	-0.721	16384	16437	0	904
9.845	2.560	16384	16441	0	904
12.225	5.301	16384	16449	0	904
13.631	7.068	16384	16454	0	904
15.975	8.114	16384	16451	0	904
17.887	7.753	16384	16444	0	904
17.202	7.032	16384	16432	0	904
16.949	5.445	16384	16420	0	904
10.746	3.101	16384	16403	0	904
6.058	-1.767	16384	16396	0	904
0.433	-5.049	16384	16393	0	904
-2.344	-10.422	16384	16400	0	904
-4.255	-13.992	16384	16408	0	904
-5.157	-15.218	16384	16408	0	904
-4.796	-16.841	16384	16408	0	904
-0.505	-12.982	16384	16410	0	904
5.950	-7.934	16384	16412	0	904
13.812	-2.885	16384	16417	0	904
16.444	1.479	16384	16422	0	904
12.189	4.977	16384	16429	0	904
9.412	6.888	16384	16434	0	904
7.140	5.337	16384	16439	0	904
8.799	9.845	16384	16446	0	904
13.451	11.828	16384	16451	0	904
17.418	13.595	16384	16458	0	904
16.156	15.362	16384	16463	0	904
17.274	13.163	16384	16468	0	904
15.182	12.838	16384	16468	0	904
15.398	13.235	16384	16463	0	904
13.956	12.514	16384	16456	0	904
14.749	13.343	16384	16451	0	904
13.704	10.999	16384	16446	0	904
12.261	8.366	16384	16439	0	904
11.143	4.147	16384	16427	0	904
11.071	4.039	16384	16417	0	904
9.737	1.046	16384	16405	0	904
9.845	-0.902	16384	16398	0	904
8.042	-2.560	16384	16388	0	904
1.154	-5.157	16384	16382	0	904
-3.462	-6.996	16384	16370	0	904
-6.671	-8.222	16384	16358	0	904
-8.475	-8.835	16384	16346	0	904
-9.124	-8.907	16384	16329	0	904
-9.629	-13.379	16384	16312	0	904
-11.179	-15.218	16384	16305	0	904
-10.963	-14.136	16384	16302	0	904
-9.953	-16.012	16384	16302	0	904
-7.104	-12.766	16384	16307	0	904
-4.796	-13.199	16384	16312	0	904
-3.895	-12.550	16384	16317	0	904
-2.560	-10.458	16384	16319	0	904
-1.190	-10.025	16384	16324	0	904
-1.154	-7.393	16384	16334	0	904
-1.118	-6.563	16384	16348	0	904
-0.144	-7.573	16384	16368	0	904
-2.164	-8.222	16384	16386	0	904
-4.724	-9.340	16384	16408	0	904
-9.052	-11.756	16384	16427	0	904
-13.199	-12.982	16384	16441	0	904
-17.202	-15.362	16384	16446	0	904
-19.221	-14.497	16384	16451	0	904
-20.303	-16.661	16384	16451	0	904
-17.959	-18.211	16384	16449	0	904
-18.320	-18.716	16384	16441	0	904
-15.939	-19.726	16384	16429	0	904
-13.631	-19.329	16384	16415	0	904
-11.432	-17.562	16384	16403	0	904
-7.321	-17.887	16384	16393	0	904
-4.904	-16.192	16384	16386	0	904
-5.554	-16.913	16384	16384	0	904
-5.193	-16.084	16384	16384	0	904
-4.977	-16.589	16384	16382	0	904
-0.613	-14.317	16384	16382	0	904
7.140	-9.160	16384	16384	0	904
12.117	-3.931	16384	16384	0	904
15.651	1.370	16384	16384	0	904
14.136	4.724	16384	16377	0	904
15.579	6.924	16384	16370	0	904
15.543	9.340	16384	16363	0	904
16.480	11.684	16384	16353	0	904
21.421	14.966	16384	16346	0	904
21.745	17.346	16384	16336	0	904
20.339	16.012	16384	16331	0	904
15.435	13.487	16384	16334	0	904
5.734	7.681	16384	16343	0	904
-1.731	1.623	16384	16358	0	904
-5.013	-2.344	16384	16370	0	904
-3.967	-2.236	16384	16382	0	904
-0.613	-1.479	16384	16391	0	904
-1.082	-4.255	16384	16400	0	904
-7.068	-9.376	16384	16405	0	904
-15.543	-17.310	16384	16405	0	904
-23.296	-23.765	16384	16403	0	904
-26.433	-28.128	16384	16396	0	904
-25.063	-27.479	16384	16388	0	904
-18.969	-25.496	16384	16384	0	904
-13.091	-23.152	16384	16384	0	904
-6.491	-18.572	16384	16384	0	904
2.164	-17.129	16384	16388	0	904
8.222	-16.372	16384	16393	0	904
14.930	-13.523	16384	16393	0	904
21.637	-9.376	16384	16396	0	904
22.863	-5.481	16384	16400	0	904
21.204	-2.272	16384	16403	0	904
20.447	-0.938	16384	16403	0	904
17.562	-1.334	16384	16400	0	904
16.985	-1.406	16384	16400	0	904
16.120	-0.108	16384	16400	0	904
15.651	-0.938	16384	16405	0	904
12.369	-2.777	16384	16405	0	904
7.789	-5.121	16384	16405	0	904
5.157	-5.878	16384	16408	0	904
5.301	-6.275	16384	16408	0	904
4.075	-5.734	16384	16405	0	904
1.226	-9.232	16384	16400	0	904
-6.383	-16.300	16384	16396	0	904
-15.146	-23.585	16384	16393	0	904
-25.748	-30.617	16384	16386	0	904
-28.705	-33.574	16384	16377	0	904
-27.227	-34.547	16384	16365	0	904
-23.296	-30.472	16384	16353	0	904
-18.356	-26.974	16384	16341	0	904
-12.225	-21.096	16384	16329	0	904
-6.888	-14.641	16384	16319	0	904
-1.442	-7.898	16384	16314	0	904
3.714	-3.606	16384	16317	0	904
6.852	-0.433	16384	16322	0	904
9.196	0.577	16384	16324	0	904
10.855	1.370	16384	16329	0	904
11.143	0.541	16384	16336	0	904
13.018	0.938	16384	16341	0	904
12.838	1.551	16384	16348	0	904
10.566	1.334	16384	16356	0	904
11.684	0.902	16384	16365	0	904
12.189	0.072	16384	16377	0	904
11.323	0.361	16384	16384	0	904
12.117	-1.010	16384	16388	0	904
10.819	-3.137	16384	16398	0	904
6.275	-6.022	16384	16410	0	904
0.397	-11.360	16384	16422	0	904
-6.094	-14.317	16384	16434	0	904
-12.802	-18.500	16384	16441	0	904
-14.389	-16.516	16384	16441	0	904
-11.864	-12.730	16384	16432	0	904
-3.967	-6.383	16384	16420	0	904
4.147	0.829	16384	16403	0	904
7.609	2.488	16384	16384	0	904
4.183	-2.272	16384	16368	0	904
-3.895	-9.160	16384	16358	0	904
-12.369	-14.894	16384	16358	0	904
-15.975	-17.310	16384	16360	0	904
-13.271	-12.369	16384	16363	0	904
-5.806	-7.645	16384	16365	0	904
1.298	-3.173	16384	16370	0	904
6.960	1.370	16384	16372	0	904
11.756	7.934	16384	16380	0	904
18.500	14.461	16384	16384	0	904
23.909	20.736	16384	16391	0	904
28.128	23.260	16384	16393	0	904
28.489	20.988	16384	16393	0	904
25.640	16.300	16384	16391	0	904
19.473	10.927	16384	16388	0	904
14.533	6.311	16384	16388	0	904
9.989	2.236	16384	16388	0	904
5.590	-1.334	16384	16388	0	904
3.859	-3.462	16384	16386	0	904
1.983	-4.977	16384	16384	0	904
0.216	-4.508	16384	16384	0	904
-0.325	-5.301	16384	16380	0	904
-1.082	-5.626	16384	16375	0	904
-0.793	-5.085	16384	16370	0	904
-0.325	-5.950	16384	16365	0	904
-1.370	-7.212	16384	16360	0	904
-5.445	-11.323	16384	16360	0	904
-11.540	-16.300	16384	16360	0	904
-15.687	-21.421	16384	16360	0	904
-14.605	-21.024	16384	16358	0	904
-11.864	-22.431	16384	16351	0	904
-7.609	-19.618	16384	16348	0	904
-4.364	-18.608	16384	16346	0	904
-6.347	-15.759	16384	16346	0	904
-5.734	-14.605	16384	16343	0	904
-3.498	-9.629	16384	16341	0	904
1.767	-7.465	16384	16336	0	904
6.203	-8.006	16384	16339	0	904
7.609	-9.376	16384	16346	0	904
5.698	-9.953	16384	16356	0	904
3.642	-10.206	16384	16360	0	904
3.750	-7.934	16384	16363	0	904
6.058	-5.698	16384	16368	0	904
8.114	-4.183	16384	16372	0	904
8.619	-5.734	16384	16375	0	904
4.291	-8.799	16384	16370	0	904
0.000	-11.576	16384	16365	0	904
-2.921	-11.432	16384	16360	0	904
-2.993	-10.674	16384	16356	0	904
-1.082	-6.924	16384	16353	0	904
2.957	-4.364	16384	16351	0	904
4.652	-3.895	16384	16348	0	904
2.957	-5.662	16384	16346	0	904
-1.082	-8.979	16384	16351	0	904
-6.780	-13.595	16384	16358	0	904
-8.006	-15.146	16384	16360	0	904
-6.239	-12.117	16384	16365	0	904
1.334	-6.491	16384	16375	0	904
9.016	1.262	16384	16388	0	904
13.704	6.527	16384	16405	0	904
13.451	4.255	16384	16417	0	904
7.357	0.577	16384	16427	0	904
0.649	-1.947	16384	16434	0	904
-3.065	-4.436	16384	16439	0	904
0.288	0.288	16384	16441	0	904
7.609	3.931	16384	16441	0	904
16.156	8.439	16384	16439	0	904
16.372	9.989	16384	16441	0	904
10.710	3.173	16384	16444	0	904
0.757	-3.606	16384	16446	0	904
-8.366	-10.819	16384	16449	0	904
-11.396	-13.343	16384	16449	0	904
-10.963	-13.235	16384	16444	0	904
-8.799	-10.278	16384	16437	0	904
-8.042	-10.242	16384	16429	0	904
-10.422	-13.343	16384	16417	0	904
-12.838	-15.326	16384	16408	0	904
-11.323	-18.031	16384	16403	0	904
-8.943	-16.769	16384	16396	0	904
-1.190	-15.038	16384	16391	0	904
5.157	-8.114	16384	16388	0	904
8.691	-1.442	16384	16391	0	904
13.054	4.544	16384	16398	0	904
15.362	7.862	16384	16405	0	904
19.185	10.602	16384	16412	0	904
21.565	14.064	16384	16417	0	904
23.873	14.966	16384	16417	0	904
21.204	15.615	16384	16420	0	904
20.664	16.192	16384	16425	0	904
18.572	12.694	16384	16425	0	904
16.913	12.153	16384	16422	0	904
16.408	12.622	16384	16420	0	904
11.828	12.081	16384	16415	0	904
5.481	10.855	16384	16412	0	904
-2.056	6.419	16384	16415	0	904
-7.645	1.370	16384	16425	0	904
-11.360	-4.327	16384	16429	0	904
-8.475	-9.701	16384	16429	0	904
-8.799	-9.737	16384	16429	0	904
-6.816	-9.088	16384	16434	0	904
-6.527	-8.042	16384	16439	0	904
-6.022	-6.311	16384	16441	0	904
-5.301	-5.085	16384	16441	0	904
-1.731	-5.481	16384	16437	0	904
2.596	-3.426	16384	16429	0	904
5.950	-2.056	16384	16417	0	904
7.934	-2.452	16384	16403	0	904
6.780	-2.452	16384	16391	0	904
5.409	-3.173	16384	16384	0	904
4.075	-2.236	16384	16380	0	904
6.816	0.216	16384	16377	0	904
11.648	4.364	16384	16372	0	904
14.749	8.511	16384	16365	0	904
19.293	13.559	16384	16363	0	904
22.972	17.526	16384	16368	0	904
27.479	17.923	16384	16375	0	904
29.895	18.211	16384	16382	0	904
29.931	16.048	16384	16384	0	904
27.371	14.785	16384	16386	0	904
24.234	10.350	16384	16388	0	904
21.962	9.376	16384	16393	0	904
17.418	4.688	16384	16396	0	904
13.343	0.397	16384	16396	0	904
7.681	-3.210	16384	16393	0	904
5.337	-5.157	16384	16388	0	904
2.344	-7.537	16384	16382	0	904
1.226	-12.009	16384	16372	0	904
-3.318	-15.110	16384	16365	0	904
-5.626	-15.074	16384	16365	0	904
-3.714	-15.146	16384	16370	0	904
2.560	-10.278	16384	16377	0	904
9.232	-4.183	16384	16377	0	904
15.867	-2.633	16384	16375	0	904
15.218	-2.921	16384	16370	0	904
11.612	-4.868	16384	16375	0	904
6.275	-8.619	16384	16377	0	904
0.902	-9.340	16384	16377	0	904
-1.442	-8.799	16384	16375	0	904
0.180	-6.347	16384	16375	0	904
2.777	-4.652	16384	16372	0	904
2.813	-6.239	16384	16370	0	904
0.252	-8.366	16384	16365	0	904
-4.688	-13.163	16384	16360	0	904
-8.943	-16.661	16384	16358	0	904
-12.441	-18.175	16384	16356	0	904
-16.228	-20.736	16384	16353	0	904
-16.625	-18.680	16384	16356	0	904
-16.192	-16.012	16384	16356	0	904
-9.304	-8.727	16384	16356	0	904
-0.829	-4.724	16384	16353	0	904
4.436	0.216	16384	16351	0	904
3.750	-1.442	16384	16346	0	904
-1.767	-6.780	16384	16339	0	904
-7.357	-11.540	16384	16329	0	904
-7.717	-10.963	16384	16322	0	904
-2.056	-6.960	16384	16312	0	904
6.022	0.433	16384	16302	0	904
13.992	5.770	16384	16295	0	904
17.382	6.744	16384	16293	0	904
17.779	4.003	16384	16288	0	904
18.320	1.226	16384	16283	0	904
15.002	0.108	16384	16288	0	904
14.677	-2.813	16384	16300	0	904
7.357	-6.780	16384	16312	0	904
-1.118	-12.477	16384	16324	0	904
-11.648	-20.591	16384	16331	0	904
-18.680	-24.486	16384	16339	0	904
-20.411	-24.883	16384	16346	0	904
-15.687	-22.286	16384	16358	0	904
-10.494	-19.077	16384	16368	0	904
-6.708	-16.733	16384	16375	0	904
-7.176	-15.975	16384	16380	0	904
-6.960	-16.733	16384	16384	0	904
-5.878	-12.477	16384	16388	0	904
-3.210	-11.035	16384	16398	0	904
-1.803	-9.917	16384	16408	0	904
-2.452	-9.737	16384	16415	0	904
-3.498	-11.612	16384	16420	0	904
-1.370	-8.042	16384	16417	0	904
6.996	-1.010	16384	16417	0	904
15.326	5.337	16384	16420	0	904
20.519	8.583	16384	16422	0	904
18.969	8.294	16384	16425	0	904
16.336	3.967	16384	16427	0	904
13.199	5.878	16384	16432	0	904
16.733	9.665	16384	16434	0	904
18.969	12.333	16384	16437	0	904
21.709	9.124	16384	16437	0	904
17.382	5.554	16384	16439	0	904
15.398	1.551	16384	16439	0	904
14.245	2.596	16384	16441	0	904
16.444	5.481	16384	16444	0	904
15.507	7.140	16384	16446	0	904
12.297	3.354	16384	16451	0	904
3.282	-3.823	16384	16454	0	904
-9.304	-12.009	16384	16454	0	904
-17.743	-18.680	16384	16451	0	904
-25.748	-25.712	16384	16441	0	904
-26.830	-29.066	16384	16427	0	904
-21.457	-25.352	16384	16410	0	904
-13.018	-19.257	16384	16396	0	904
-0.072	-9.088	16384	16384	0	904
7.934	-0.433	16384	16375	0	904
11.864	4.327	16384	16370	0	904
11.323	4.291	16384	16365	0	904
11.396	4.003	16384	16363	0	904
11.540	2.921	16384	16365	0	904
14.425	4.904	16384	16370	0	904
17.382	7.609	16384	16368	0	904
18.392	10.242	16384	16365	0	904
22.106	12.369	16384	16363	0	904
22.286	12.441	16384	16365	0	904
24.702	10.963	16384	16370	0	904
24.739	8.078	16384	16380	0	904
20.123	6.239	16384	16384	0	904
17.166	4.147	16384	16384	0	904
10.602	1.442	16384	16384	0	904
5.806	-3.750	16384	16384	0	904
-1.370	-9.448	16384	16386	0	904
-4.904	-15.795	16384	16386	0	904
-4.940	-19.942	16384	16386	0	904
-0.757	-16.589	16384	16386	0	904
5.121	-14.641	16384	16388	0	904
9.304	-11.973	16384	16388	0	904
8.402	-11.287	16384	16384	0	904
5.517	-12.153	16384	16377	0	904
2.993	-10.783	16384	16365	0	904
2.849	-9.268	16384	16351	0	904
6.599	-5.337	16384	16339	0	904
9.701	-2.416	16384	16331	0	904
12.009	1.731	16384	16329	0	904
16.697	2.596	16384	16329	0	904
22.791	6.599	16384	16329	0	904
29.210	9.881	16384	16329	0	904
34.872	13.884	16384	16331	0	904
36.531	17.490	16384	16334	0	904
34.656	19.726	16384	16341	0	904
29.499	17.310	16384	16348	0	904
23.909	12.910	16384	16353	0	904
21.637	9.629	16384	16358	0	904
15.687	5.662	16384	16360	0	904
15.326	4.977	16384	16363	0	904
11.612	2.957	16384	16370	0	904
9.917	-0.397	16384	16377	0	904
7.645	-4.832	16384	16384	0	904
1.983	-9.412	16384	16391	0	904
-2.236	-14.208	16384	16396	0	904
-8.078	-15.903	16384	16391	0	904
-10.169	-18.500	16384	16386	0	904
-13.054	-17.346	16384	16386	0	904
-10.602	-16.552	16384	16393	0	904
-6.635	-12.514	16384	16405	0	904
-3.570	-9.124	16384	16417	0	904
-0.361	-5.085	16384	16427	0	904
0.613	-2.452	16384	16434	0	904
1.334	-0.361	16384	16441	0	904
3.390	2.669	16384	16446	0	904
7.645	6.022	16384	16449	0	904
13.127	10.746	16384	16446	0	904
17.202	12.405	16384	16441	0	904
19.293	17.021	16384	16439	0	904
18.392	14.858	16384	16439	0	904
17.923	15.579	16384	16437	0	904
15.651	12.261	16384	16434	0	904
15.939	10.783	16384	16432	0	904
12.550	7.140	16384	16427	0	904
10.530	2.344	16384	16417	0	904
2.272	-2.813	16384	16408	0	904
-5.049	-8.294	16384	16396	0	904
-11.251	-14.641	16384	16386	0	904
-17.129	-19.654	16384	16384	0	904
-16.697	-21.998	16384	16382	0	904
-15.471	-25.424	16384	16382	0	904
-15.867	-25.856	16384	16384	0	904
-14.677	-26.361	16384	16388	0	904
-16.264	-27.010	16384	16391	0	904
-16.120	-27.551	16384	16391	0	904
-16.156	-26.253	16384	16391	0	904
-11.468	-24.053	16384	16396	0	904
-5.590	-18.103	16384	16398	0	904
0.000	-14.677	16384	16400	0	904
6.744	-8.006	16384	16400	0	904
15.543	0.288	16384	16398	0	904
21.457	9.124	16384	16393	0	904
28.201	15.254	16384	16388	0	904
31.158	21.168	16384	16384	0	904
30.400	18.933	16384	16375	0	904
26.361	15.687	16384	16365	0	904
21.060	11.360	16384	16358	0	904
17.995	8.727	16384	16353	0	904
13.740	6.780	16384	16351	0	904
13.848	5.590	16384	16346	0	904
13.884	4.075	16384	16339	0	904
10.963	1.118	16384	16336	0	904
8.150	-3.642	16384	16334	0	904
0.397	-10.422	16384	16334	0	904
-6.491	-14.966	16384	16331	0	904
-10.963	-19.113	16384	16329	0	904
-13.163	-19.005	16384	16324	0	904
-9.160	-18.139	16384	16324	0	904
-3.787	-13.307	16384	16329	0	904
1.334	-10.963	16384	16341	0	904
5.590	-9.340	16384	16351	0	904
6.996	-6.022	16384	16358	0	904
6.888	-4.364	16384	16368	0	904
9.773	-1.839	16384	16382	0	904
15.579	3.931	16384	16393	0	904
20.375	8.042	16384	16403	0	904
26.253	12.766	16384	16410	0	904
24.125	13.920	16384	16417	0	904
19.185	13.776	16384	16422	0	904
12.802	9.088	16384	16425	0	904
12.045	8.114	16384	16422	0	904
13.271	9.160	16384	16415	0	904
20.736	15.579	16384	16412	0	904
23.044	17.923	16384	16412	0	904
21.962	16.769	16384	16415	0	904
10.746	8.511	16384	16412	0	904
2.705	-2.524	16384	16410	0	904
-6.347	-11.684	16384	16408	0	904
-11.828	-14.930	16384	16403	0	904
-12.297	-16.444	16384	16398	0	904
-12.261	-17.021	16384	16396	0	904
-15.867	-17.779	16384	16391	0	904
-17.779	-19.365	16384	16384	0	904
-19.221	-20.916	16384	16384	0	904
-16.120	-16.949	16384	16382	0	904
-11.360	-14.966	16384	16377	0	904
-5.626	-10.819	16384	16368	0	904
-1.839	-9.124	16384	16358	0	904
-0.865	-9.052	16384	16343	0	904
-0.685	-9.304	16384	16329	0	904
0.505	-6.491	16384	16312	0	904
3.318	-3.498	16384	16295	0	904
9.376	2.380	16384	16278	0	904
17.021	10.133	16384	16266	0	904
24.486	14.821	16384	16259	0	904
32.059	19.293	16384	16257	0	904
31.987	19.149	16384	16261	0	904
28.814	18.031	16384	16271	0	904
21.998	14.172	16384	16283	0	904
19.149	10.963	16384	16302	0	904
16.877	11.684	16384	16322	0	904
20.772	12.802	16384	16341	0	904
23.368	13.235	16384	16351	0	904
21.781	13.668	16384	16358	0	904
18.247	8.619	16384	16368	0	904
9.592	2.452	16384	16382	0	904
5.049	-2.957	16384	16388	0	904
3.967	-3.750	16384	16398	0	904
6.022	-3.967	16384	16408	0	904
5.986	-3.318	16384	16415	0	904
3.859	-4.940	16384	16422	0	904
0.000	-6.347	16384	16429	0	904
-4.652	-8.330	16384	16437	0	904
-5.013	-10.350	16384	16434	0	904
-0.757	-8.835	16384	16429	0	904
2.380	-8.439	16384	16427	0	904
5.337	-6.708	16384	16427	0	904
10.097	-2.092	16384	16427	0	904
9.953	0.649	16384	16429	0	904
9.629	0.541	16384	16432	0	904
4.977	-2.200	16384	16432	0	904
1.334	-6.058	16384	16432	0	904
-0.505	-7.285	16384	16427	0	904
0.793	-5.770	16384	16425	0	904
5.986	-1.947	16384	16425	0	904
9.196	1.046	16384	16429	0	904
11.576	2.380	16384	16439	0	904
11.251	1.262	16384	16454	0	904
10.530	2.272	16384	16468	0	904
10.746	2.957	16384	16480	0	904
9.340	3.246	16384	16485	0	904
7.248	1.911	16384	16482	0	904
5.337	-3.029	16384	16478	0	904
1.875	-7.970	16384	16468	0	904
0.252	-11.540	16384	16458	0	904
-0.325	-12.189	16384	16444	0	904
-0.216	-10.674	16384	16429	0	904
0.180	-11.071	16384	16417	0	904
-0.757	-9.124	16384	16408	0	904
0.902	-9.953	16384	16396	0	904
0.469	-8.475	16384	16391	0	904
5.121	-5.842	16384	16388	0	904
7.393	-3.931	16384	16388	0	904
8.186	-4.760	16384	16384	0	904
4.832	-5.013	16384	16372	0	904
0.397	-8.330	16384	16360	0	904
-4.255	-10.133	16384	16353	0	904
-5.265	-8.943	16384	16348	0	904
-4.039	-5.842	16384	16351	0	904
-4.183	-4.688	16384	16360	0	904
-5.842	-5.554	16384	16377	0	904
-8.655	-10.169	16384	16384	0	904
-10.602	-12.658	16384	16396	0	904
-10.710	-16.552	16384	16405	0	904
-7.393	-15.723	16384	16410	0	904
-6.275	-12.874	16384	16412	0	904
-3.642	-13.559	16384	16415	0	904
-4.400	-10.674	16384	16412	0	904
-5.265	-11.107	16384	16405	0	904
-4.724	-8.186	16384	16396	0	904
-3.282	-4.111	16384	16384	0	904
0.180	-1.406	16384	16370	0	904
5.085	1.839	16384	16353	0	904
7.645	1.190	16384	16341	0	904
9.232	-1.118	16384	16329	0	904
8.439	-2.813	16384	16327	0	904
8.294	-0.325	16384	16322	0	904
8.763	1.839	16384	16317	0	904
9.809	2.200	16384	16312	0	904
11.504	1.803	16384	16310	0	904
12.766	-2.380	16384	16310	0	904
10.638	-5.121	16384	16314	0	904
6.888	-8.114	16384	16322	0	904
3.570	-8.186	16384	16329	0	904
1.118	-8.078	16384	16336	0	904
4.183	-5.157	16384	16339	0	904
10.674	0.577	16384	16339	0	904
17.454	3.390	16384	16343	0	904
21.926	5.517	16384	16346	0	904
20.303	4.688	16384	16348	0	904
18.175	2.164	16384	16353	0	904
13.343	1.551	16384	16363	0	904
10.855	1.334	16384	16372	0	904
8.330	1.911	16384	16384	0	904
6.203	1.118	16384	16396	0	904
4.039	0.649	16384	16410	0	904
4.508	1.118	16384	16422	0	904
8.763	3.390	16384	16434	0	904
15.182	6.960	16384	16449	0	904
19.185	10.242	16384	16458	0	904
19.005	8.835	16384	16463	0	904
12.477	7.789	16384	16461	0	904
9.484	3.823	16384	16456	0	904
8.727	2.344	16384	16444	0	904
11.648	4.977	16384	16432	0	904
14.461	6.094	16384	16420	0	904
13.668	6.419	16384	16405	0	904
8.691	3.787	16384	16393	0	904
6.167	1.479	16384	16384	0	904
5.590	-0.721	16384	16375	0	904
5.409	-0.072	16384	16368	0	904
6.888	-0.469	16384	16363	0	904
5.121	-1.839	16384	16356	0	904
0.216	-4.472	16384	16351	0	904
-1.442	-8.366	16384	16343	0	904
-2.128	-7.645	16384	16343	0	904
2.669	-3.210	16384	16348	0	904
11.900	4.940	16384	16351	0	904
20.447	13.740	16384	16353	0	904
22.070	17.129	16384	16358	0	904
20.339	16.120	16384	16365	0	904
12.369	8.907	16384	16372	0	904
2.669	-0.216	16384	16375	0	904
-5.517	-6.996	16384	16377	0	904
-5.734	-8.655	16384	16382	0	904
-1.334	-3.246	16384	16382	0	904
7.393	4.652	16384	16384	0	904
17.310	11.864	16384	16386	0	904
16.552	12.622	16384	16393	0	904
12.874	7.717	16384	16398	0	904
1.515	-1.659	16384	16405	0	904
-5.950	-10.133	16384	16412	0	904
-8.943	-14.425	16384	16417	0	904
-8.727	-16.516	16384	16417	0	904
-8.547	-14.569	16384	16410	0	904
-11.432	-15.975	16384	16405	0	904
-13.379	-16.156	16384	16400	0	904
-19.329	-20.014	16384	16396	0	904
-15.290	-20.087	16384	16393	0	904
-4.580	-15.651	16384	16388	0	904
6.203	-5.950	16384	16384	0	904
18.644	2.777	16384	16384	0	904
19.401	8.042	16384	16384	0	904
15.759	6.167	16384	16384	0	904
9.232	3.462	16384	16384	0	904
5.626	0.613	16384	16384	0	904
8.042	3.210	16384	16382	0	904
13.487	8.150	16384	16375	0	904
17.743	14.317	16384	16365	0	904
22.899	16.805	16384	16358	0	904
22.899	19.437	16384	16351	0	904
23.224	17.670	16384	16346	0	904
21.313	15.939	16384	16346	0	904
15.254	10.350	16384	16351	0	904
11.828	5.734	16384	16360	0	904
8.042	1.659	16384	16365	0	904
8.258	0.829	16384	16372	0	904
11.828	-0.288	16384	16377	0	904
12.802	2.344	16384	16382	0	904
8.619	2.164	16384	16384	0	904
6.094	2.272	16384	16393	0	904
3.787	3.390	16384	16400	0	904
6.167	5.229	16384	16405	0	904
10.819	6.347	16384	16405	0	904
12.441	6.131	16384	16403	0	904
9.376	4.508	16384	16403	0	904
6.203	2.705	16384	16403	0	904
4.183	1.695	16384	16405	0	904
11.107	8.655	16384	16410	0	904
24.089	19.942	16384	16415	0	904
37.757	32.672	16384	16417	0	904
47.602	42.697	16384	16425	0	904
55.139	46.881	16384	16432	0	904
53.191	44.933	16384	16437	0	904
51.677	39.921	16384	16439	0	904
48.143	35.341	16384	16437	0	904
46.340	31.951	16384	16434	0	904
41.003	29.246	16384	16427	0	904
39.235	27.696	16384	16420	0	904
37.973	28.525	16384	16412	0	904
39.127	29.571	16384	16410	0	904
38.118	30.004	16384	16410	0	904
36.531	28.453	16384	16410	0	904
33.321	23.368	16384	16408	0	904
26.542	19.510	16384	16408	0	904
19.978	13.127	16384	16408	0	904
16.949	12.838	16384	16408	0	904
13.487	11.360	16384	16400	0	904
10.602	9.665	16384	16391	0	904
10.278	7.862	16384	16384	0	904
6.491	4.183	16384	16375	0	904
2.741	-1.479	16384	16372	0	904
0.397	-4.760	16384	16370	0	904
-1.911	-6.744	16384	16363	0	904
-4.147	-6.563	16384	16353	0	904
-4.472	-6.167	16384	16348	0	904
-4.003	-5.193	16384	16343	0	904
0.000	-3.462	16384	16334	0	904
6.455	0.541	16384	16324	0	904
11.612	5.049	16384	16317	0	904
13.163	9.304	16384	16307	0	904
15.579	10.350	16384	16300	0	904
15.290	10.350	16384	16293	0	904
21.241	12.261	16384	16293	0	904
27.263	18.897	16384	16295	0	904
32.095	24.486	16384	16300	0	904
31.085	26.073	16384	16305	0	904
23.981	20.519	16384	16307	0	904
15.867	12.550	16384	16310	0	904
6.888	2.488	16384	16310	0	904
2.633	-0.902	16384	16312	0	904
1.010	-0.865	16384	16319	0	904
0.072	-1.442	16384	16329	0	904
-0.685	-2.272	16384	16336	0	904
-1.947	-5.626	16384	16348	0	904
-1.479	-6.167	16384	16358	0	904
-0.685	-4.147	16384	16370	0	904
0.938	-0.902	16384	16382	0	904
1.479	2.885	16384	16386	0	904
1.406	1.803	16384	16393	0	904
1.911	-0.902	16384	16396	0	904
2.849	-3.210	16384	16396	0	904
4.472	-3.354	16384	16391	0	904
3.931	-1.731	16384	16386	0	904
7.753	0.325	16384	16386	0	904
9.809	4.075	16384	16393	0	904
13.920	7.501	16384	16396	0	904
20.519	9.809	16384	16391	0	904
19.726	8.547	16384	16384	0	904
17.202	4.183	16384	16377	0	904
8.078	-3.714	16384	16370	0	904
0.072	-12.514	16384	16368	0	904
-5.517	-15.002	16384	16365	0	904
-5.157	-15.939	16384	16370	0	904
0.541	-12.297	16384	16380	0	904
5.373	-8.547	16384	16386	0	904
6.599	-8.042	16384	16396	0	904
2.416	-11.504	16384	16405	0	904
-4.364	-15.723	16384	16412	0	904
-9.448	-21.241	16384	16422	0	904
-12.658	-20.447	16384	16434	0	904
-10.169	-18.716	16384	16444	0	904
-6.996	-12.405	16384	16449	0	904
-2.849	-10.494	16384	16449	0	904
0.938	-9.845	16384	16439	0	904
2.993	-11.143	16384	16429	0	904
3.246	-11.756	16384	16425	0	904
4.760	-9.989	16384	16425	0	904
4.580	-5.626	16384	16425	0	904
8.366	-1.947	16384	16417	0	904
9.412	-0.974	16384	16410	0	904
8.835	-1.479	16384	16405	0	904
6.383	-4.111	16384	16400	0	904
1.875	-5.806	16384	16400	0	904
-2.452	-7.934	16384	16398	0	904
-2.380	-9.629	16384	16398	0	904
0.613	-7.140	16384	16400	0	904
2.524	-6.167	16384	16403	0	904
7.357	-4.003	16384	16410	0	904
8.979	-3.462	16384	16415	0	904
5.698	-7.717	16384	16417	0	904
0.865	-13.018	16384	16415	0	904
-5.626	-17.093	16384	16412	0	904
-11.323	-21.313	16384	16412	0	904
-11.900	-22.322	16384	16412	0	904
-10.855	-20.375	16384	16415	0	904
-8.402	-18.897	16384	16415	0	904
-6.131	-13.451	16384	16410	0	904
-4.977	-11.360	16384	16405	0	904
-4.580	-11.071	16384	16400	0	904
-6.239	-11.540	16384	16398	0	904
-8.402	-15.795	16384	16400	0	904
-8.330	-15.435	16384	16405	0	904
-8.042	-13.487	16384	16403	0	904
-4.147	-9.989	16384	16393	0	904
-1.262	-5.481	16384	16386	0	904
0.974	0.072	16384	16384	0	904
2.813	0.902	16384	16386	0	904
3.173	0.974	16384	16388	0	904
5.878	0.397	16384	16386	0	904
5.662	0.288	16384	16384	0	904
4.724	-1.298	16384	16384	0	904
2.019	-4.039	16384	16382	0	904
-3.137	-6.744	16384	16375	0	904
-8.078	-10.783	16384	16368	0	904
-10.494	-14.894	16384	16365	0	904
-12.117	-14.028	16384	16365	0	904
-11.360	-16.048	16384	16368	0	904
-8.186	-15.651	16384	16370	0	904
-5.842	-15.218	16384	16372	0	904
-3.246	-15.579	16384	16375	0	904
-1.803	-13.920	16384	16377	0	904
-5.373	-16.516	16384	16375	0	904
-15.038	-19.510	16384	16368	0	904
-21.385	-23.549	16384	16363	0	904
-23.837	-23.621	16384	16363	0	904
-19.798	-17.166	16384	16368	0	904
-8.294	-7.465	16384	16370	0	904
1.839	1.911	16384	16372	0	904
5.770	7.248	16384	16370	0	904
5.770	6.708	16384	16375	0	904
3.029	4.868	16384	16382	0	904
4.724	5.049	16384	16391	0	904
7.393	8.186	16384	16396	0	904
10.242	12.009	16384	16396	0	904
14.569	15.795	16384	16391	0	904
11.612	15.182	16384	16386	0	904
12.369	15.507	16384	16386	0	904
12.369	11.973	16384	16391	0	904
11.900	8.835	16384	16393	0	904
12.045	5.481	16384	16396	0	904
11.360	5.626	16384	16396	0	904
7.248	2.921	16384	16393	0	904
2.957	0.000	16384	16386	0	904
-2.813	-4.652	16384	16384	0	904
-9.737	-10.494	16384	16380	0	904
-13.704	-15.362	16384	16372	0	904
-11.937	-15.362	16384	16360	0	904
-10.206	-13.848	16384	16348	0	904
-5.481	-9.917	16384	16339	0	904
0.216	-5.157	16384	16336	0	904
2.705	-1.154	16384	16336	0	904
4.688	3.534	16384	16336	0	904
7.970	8.655	16384	16336	0	904
9.412	10.169	16384	16339	0	904
10.963	12.514	16384	16341	0	904
12.045	12.550	16384	16346	0	904
9.160	8.114	16384	16353	0	904
8.439	6.094	16384	16358	0	904
7.248	3.137	16384	16360	0	904
9.592	3.462	16384	16360	0	904
12.477	5.554	16384	16358	0	904
14.894	6.383	16384	16358	0	904
10.999	3.065	16384	16358	0	904
3.570	-3.210	16384	16358	0	904
-5.337	-10.638	16384	16358	0	904
-12.081	-16.264	16384	16360	0	904
-9.232	-16.264	16384	16365	0	904
-0.938	-8.547	16384	16370	0	904
8.979	-3.642	16384	16375	0	904
12.514	0.108	16384	16384	0	904
7.898	-3.029	16384	16393	0	904
-0.505	-9.556	16384	16400	0	904
-6.419	-15.398	16384	16405	0	904
-8.619	-15.002	16384	16405	0	904
-7.393	-13.992	16384	16408	0	904
-1.875	-8.258	16384	16408	0	904
1.118	-3.967	16384	16408	0	904
5.049	-2.128	16384	16410	0	904
5.157	-2.128	16384	16415	0	904
5.481	-2.272	16384	16417	0	904
4.291	-3.354	16384	16415	0	904
5.806	-2.416	16384	16415	0	904
10.494	2.128	16384	16417	0	904
13.487	6.419	16384	16425	0	904
12.369	6.347	16384	16432	0	904
9.448	4.544	16384	16441	0	904
4.291	0.649	16384	16446	0	904
-0.685	-4.147	16384	16449	0	904
-2.957	-5.409	16384	16446	0	904
-5.337	-8.835	16384	16441	0	904
-8.655	-13.704	16384	16437	0	904
-14.749	-18.103	16384	16429	0	904
-18.247	-24.630	16384	16417	0	904
-21.024	-24.630	16384	16408	0	904
-14.966	-17.346	16384	16396	0	904
-5.409	-8.727	16384	16384	0	904
3.246	0.036	16384	16377	0	904
7.789	3.282	16384	16370	0	904
4.940	-0.649	16384	16368	0	904
-0.288	-7.898	16384	16368	0	904
-3.426	-11.251	16384	16368	0	904
-1.911	-9.376	16384	16370	0	904
5.121	-3.246	16384	16370	0	904
12.802	5.337	16384	16372	0	904
19.762	10.999	16384	16380	0	904
25.352	15.903	16384	16384	0	904
26.433	15.831	16384	16386	0	904
25.460	16.372	16384	16388	0	904
22.791	12.550	16384	16384	0	904
21.493	11.251	16384	16375	0	904
16.444	8.907	16384	16365	0	904
14.461	5.806	16384	16360	0	904
9.232	2.705	16384	16356	0	904
2.813	-2.813	16384	16356	0	904
-4.255	-9.556	16384	16356	0	904
-11.576	-12.694	16384	16358	0	904
-15.579	-17.887	16384	16360	0	904
-18.428	-17.526	16384	16360	0	904
-16.661	-18.824	16384	16360	0	904
-14.677	-16.300	16384	16360	0	904
-12.946	-14.461	16384	16360	0	904
-10.314	-9.268	16384	16356	0	904
-11.540	-4.652	16384	16348	0	904
-11.360	-1.515	16384	16346	0	904
-8.619	3.137	16384	16343	0	904
-6.924	5.950	16384	16339	0	904
-3.931	6.635	16384	16334	0	904
-1.010	9.556	16384	16329	0	904
-2.092	9.989	16384	16329	0	904
-2.200	12.838	16384	16327	0	904
-1.515	11.684	16384	16324	0	904
1.406	13.631	16384	16324	0	904
5.806	16.264	16384	16329	0	904
9.665	16.733	16384	16336	0	904
13.559	20.916	16384	16343	0	904
15.759	18.824	16384	16356	0	904
12.117	15.903	16384	16372	0	904
9.773	11.504	16384	16386	0	904
2.560	7.573	16384	16403	0	904
-0.865	2.813	16384	16415	0	904
-3.823	-1.226	16384	16420	0	904
-2.416	-6.708	16384	16429	0	904
-4.183	-12.730	16384	16439	0	904
-5.049	-16.805	16384	16446	0	904
-7.753	-16.625	16384	16444	0	904
-6.347	-15.867	16384	16434	0	904
-4.580	-12.081	16384	16425	0	904
-1.587	-8.547	16384	16422	0	904
-0.649	-9.196	16384	16422	0	904
-2.633	-11.540	16384	16422	0	904
-6.311	-12.045	16384	16415	0	904
-5.986	-13.559	16384	16412	0	904
-4.580	-11.360	16384	16412	0	904
1.983	-5.373	16384	16417	0	904
9.845	-0.072	16384	16420	0	904
16.048	5.517	16384	16422	0	904
17.634	9.773	16384	16420	0	904
17.418	10.891	16384	16417	0	904
11.396	9.953	16384	16415	0	904
8.511	8.186	16384	16412	0	904
7.645	8.691	16384	16412	0	904
8.619	9.845	16384	16417	0	904
11.251	10.530	16384	16425	0	904
14.533	11.828	16384	16427	0	904
15.615	10.350	16384	16425	0	904
15.290	10.350	16384	16410	0	904
16.625	10.350	16384	16396	0	904
12.874	9.412	16384	16384	0	904
10.999	6.599	16384	16377	0	904
6.816	4.364	16384	16370	0	904
3.210	-0.613	16384	16368	0	904
-0.757	-3.029	16384	16363	0	904
-3.210	-5.373	16384	16363	0	904
-7.248	-8.619	16384	16368	0	904
-10.386	-11.828	16384	16377	0	904
-13.415	-14.497	16384	16386	0	904
-14.353	-16.228	16384	16393	0	904
-7.501	-10.602	16384	16400	0	904
-0.180	-6.599	16384	16403	0	904
6.924	-1.587	16384	16403	0	904
10.999	1.803	16384	16400	0	904
11.035	2.200	16384	16396	0	904
11.900	2.596	16384	16391	0	904
17.490	6.131	16384	16386	0	904
22.719	11.756	16384	16384	0	904
26.001	14.245	16384	16380	0	904
25.568	15.362	16384	16372	0	904
22.214	13.740	16384	16368	0	904
18.356	9.989	16384	16365	0	904
18.716	5.157	16384	16365	0	904
15.615	0.974	16384	16368	0	904
14.497	-2.488	16384	16372	0	904
9.809	-5.554	16384	16377	0	904
7.573	-7.104	16384	16384	0	904
2.993	-9.845	16384	16388	0	904
0.685	-10.602	16384	16391	0	904
-1.983	-16.552	16384	16391	0	904
-4.400	-17.995	16384	16396	0	904
-5.481	-19.798	16384	16405	0	904
-5.734	-16.985	16384	16412	0	904
-5.013	-13.776	16384	16415	0	904
-1.010	-9.809	16384	16415	0	904
3.282	-5.085	16384	16417	0	904
7.429	-2.056	16384	16420	0	904
10.494	2.416	16384	16420	0	904
13.487	6.239	16384	16417	0	904
15.110	10.025	16384	16410	0	904
14.966	11.323	16384	16398	0	904
16.985	12.586	16384	16384	0	904
16.084	13.631	16384	16372	0	904
19.365	14.677	16384	16360	0	904
22.791	16.877	16384	16356	0	904
24.594	16.192	16384	16353	0	904
25.424	15.759	16384	16353	0	904
19.293	10.422	16384	16348	0	904
14.713	5.842	16384	16341	0	904
9.124	1.659	16384	16331	0	904
8.366	1.731	16384	16319	0	904
9.232	3.570	16384	16307	0	904
9.665	5.554	16384	16295	0	904
9.304	5.445	16384	16283	0	904
6.203	1.226	16384	16278	0	904
1.551	-2.669	16384	16281	0	904
-0.433	-5.770	16384	16290	0	904
0.757	-5.121	16384	16305	0	904
3.101	-4.904	16384	16322	0	904
6.311	-2.308	16384	16334	0	904
7.645	-0.505	16384	16343	0	904
10.278	3.426	16384	16351	0	904
14.136	7.032	16384	16356	0	904
17.166	11.251	16384	16363	0	904
18.500	12.766	16384	16375	0	904
18.572	12.802	16384	16384	0	904
12.730	10.710	16384	16393	0	904
9.665	6.852	16384	16408	0	904
4.868	3.462	16384	16422	0	904
4.039	2.128	16384	16437	0	904
3.462	-0.577	16384	16446	0	904
2.056	3.318	16384	16454	0	904
4.472	5.229	16384	16456	0	904
8.294	7.393	16384	16458	0	904
12.297	8.114	16384	16456	0	904
11.792	8.619	16384	16451	0	904
11.287	6.167	16384	16444	0	904
7.717	4.796	16384	16441	0	904
3.787	3.570	16384	16446	0	904
4.255	3.498	16384	16451	0	904
5.193	3.318	16384	16456	0	904
2.056	1.515	16384	16461	0	904
0.433	-0.216	16384	16461	0	904
-2.416	-3.859	16384	16461	0	904
1.515	-5.698	16384	16461	0	904
3.426	-8.114	16384	16461	0	904
8.655	-10.674	16384	16458	0	904
12.333	-9.881	16384	16451	0	904
11.612	-9.304	16384	16446	0	904
12.982	-7.032	16384	16444	0	904
12.514	-5.301	16384	16439	0	904
8.583	-7.609	16384	16429	0	904
3.246	-13.668	16384	16417	0	904
-0.829	-18.067	16384	16410	0	904
-8.078	-21.890	16384	16410	0	904
-10.242	-21.781	16384	16415	0	904
-10.999	-19.077	16384	16412	0	904
-7.573	-18.211	16384	16405	0	904
-6.239	-14.172	16384	16396	0	904
-2.669	-14.749	16384	16384	0	904
-1.442	-15.471	16384	16370	0	904
-2.921	-15.074	16384	16351	0	904
-5.770	-16.697	16384	16334	0	904
-8.691	-16.985	16384	16317	0	904
-11.576	-19.582	16384	16298	0	904
-14.425	-20.303	16384	16278	0	904
-12.514	-19.690	16384	16264	0	904
-5.878	-16.516	16384	16257	0	904
0.505	-9.989	16384	16259	0	904
5.950	-6.131	16384	16266	0	904
7.717	-5.662	16384	16278	0	904
5.806	-6.383	16384	16290	0	904
4.364	-8.727	16384	16300	0	904
8.511	-7.321	16384	16305	0	904
12.441	-2.885	16384	16310	0	904
18.428	1.911	16384	16314	0	904
18.752	5.842	16384	16319	0	904
17.670	3.750	16384	16324	0	904
10.674	-0.793	16384	16336	0	904
4.508	-7.321	16384	16348	0	904
-1.442	-12.189	16384	16365	0	904
-5.085	-15.471	16384	16375	0	904
-10.710	-17.851	16384	16380	0	904
-13.920	-21.421	16384	16382	0	904
-16.913	-23.729	16384	16382	0	904
-20.736	-27.155	16384	16382	0	904
-20.591	-27.515	16384	16382	0	904
-20.772	-26.145	16384	16384	0	904
-22.827	-23.116	16384	16391	0	904
-20.736	-21.096	16384	16398	0	904
-16.552	-14.281	16384	16408	0	904
-8.402	-9.881	16384	16415	0	904
-0.505	-5.950	16384	16420	0	904
4.868	-0.974	16384	16425	0	904
5.445	0.325	16384	16434	0	904
5.517	1.695	16384	16437	0	904
7.825	5.554	16384	16434	0	904
13.487	10.314	16384	16427	0	904
21.745	16.516	16384	16420	0	904
25.784	17.310	16384	16410	0	904
25.135	17.057	16384	16400	0	904
23.404	14.533	16384	16391	0	904
20.736	10.602	16384	16384	0	904
18.788	11.396	16384	16382	0	904
19.726	10.206	16384	16380	0	904
15.435	5.842	16384	16380	0	904
10.999	0.000	16384	16382	0	904
4.111	-6.744	16384	16382	0	904
0.180	-10.783	16384	16380	0	904
-1.947	-10.206	16384	16377	0	904
-1.118	-6.383	16384	16375	0	904
0.325	-3.714	16384	16370	0	904
1.695	-2.308	16384	16368	0	904
2.669	-3.210	16384	16365	0	904
-0.108	-4.255	16384	16363	0	904
-2.669	-5.590	16384	16356	0	904
-4.760	-5.842	16384	16346	0	904
-7.032	-5.878	16384	16336	0	904
-3.642	-3.823	16384	16331	0	904
0.865	0.036	16384	16324	0	904
8.186	5.409	16384	16322	0	904
14.821	10.602	16384	16322	0	904
17.779	14.785	16384	16319	0	904
21.168	15.182	16384	16319	0	904
19.978	17.166	16384	16324	0	904
20.375	15.831	16384	16336	0	904
21.313	16.408	16384	16353	0	904
18.175	12.550	16384	16370	0	904
15.687	9.340	16384	16382	0	904
10.927	3.173	16384	16391	0	904
6.708	-1.551	16384	16398	0	904
3.210	-6.094	16384	16405	0	904
0.325	-7.681	16384	16415	0	904
-2.200	-11.396	16384	16425	0	904
-3.173	-13.199	16384	16434	0	904
-5.337	-14.533	16384	16441	0	904
-5.554	-17.238	16384	16444	0	904
