neuroNicle FX2
D3F25R12
Bluetooth SPP
2023년 11월 5일 일요일
오전 10:08
time interval = 4msec
EEG1	EEG2	PPG	sdPPG	pulse	peak_interval(msec)
38.803	55.572	16389	17468	0	592
39.524	52.290	16389	17332	0	592
42.337	51.461	16390	17269	1	588
43.924	47.782	16392	17281	0	588
40.137	49.261	16394	17307	0	588
36.206	48.864	16396	17341	0	588
32.853	52.759	16398	17387	0	588
37.216	54.959	16400	17428	0	588
47.097	61.017	16402	17428	0	588
58.817	64.335	16404	17389	0	588
60.224	66.138	16406	17345	0	588
53.588	65.020	16408	17307	0	588
40.894	57.916	16409	17267	0	588
32.276	52.759	16410	17180	0	588
30.869	48.756	16411	17019	0	588
33.033	47.349	16411	16792	0	588
33.429	48.179	16410	16534	0	588
31.158	47.313	16410	16279	0	588
30.617	46.809	16409	16063	0	588
35.701	47.349	16409	15912	0	588
43.815	49.477	16409	15804	0	588
47.494	51.028	16408	15681	0	588
44.284	53.660	16407	15499	0	588
34.006	48.828	16406	15345	0	588
25.171	46.051	16406	15343	0	588
23.152	44.284	16406	15417	0	588
27.155	46.989	16406	15442	0	588
32.600	52.110	16406	15423	0	588
33.033	52.434	16406	15423	0	588
30.436	52.074	16405	15459	0	588
29.030	46.881	16406	15527	0	588
30.436	42.048	16406	15586	0	588
36.170	41.688	16405	15609	0	588
41.327	43.094	16405	15631	0	588
41.543	47.169	16405	15686	0	588
40.930	51.100	16406	15770	0	588
42.445	57.122	16406	15868	0	588
45.546	61.233	16406	15957	0	588
49.549	60.981	16406	16044	0	588
46.809	61.233	16407	16141	0	588
37.396	59.466	16408	16251	0	588
28.453	57.158	16408	16338	0	588
26.758	56.401	16408	16378	0	588
29.643	56.185	16408	16405	0	588
34.908	51.893	16409	16466	0	588
36.314	49.116	16410	16564	0	588
32.853	49.044	16411	16672	0	588
29.607	49.766	16412	16758	0	588
30.689	53.768	16413	16822	0	588
34.908	52.506	16414	16885	0	588
36.351	48.936	16415	16955	0	588
33.718	42.986	16416	17025	0	588
30.725	38.370	16418	17078	0	588
32.203	36.495	16419	17112	0	588
34.043	38.767	16420	17125	0	588
34.259	41.075	16421	17123	0	588
27.660	43.419	16422	17101	0	588
18.752	48.648	16422	17036	0	588
16.949	57.627	16422	16934	0	588
25.424	68.482	16422	16826	0	588
39.380	74.144	16423	16729	0	588
43.924	73.927	16423	16661	0	588
33.069	66.390	16424	16665	0	588
16.336	60.332	16425	16718	0	588
7.501	60.188	16425	16712	0	588
16.156	67.111	16425	16589	0	588
39.632	71.475	16424	16388	0	588
53.877	72.953	16423	16192	0	588
51.388	68.013	16422	16008	0	588
29.354	59.935	16420	15794	0	588
5.157	55.463	16418	15525	0	588
-4.977	54.237	16416	15264	0	588
1.442	53.264	16414	15084	0	588
22.250	57.050	16412	14991	0	588
38.767	58.745	16411	14968	0	588
47.205	60.115	16409	14980	0	588
43.851	58.060	16408	14997	0	588
32.203	52.290	16407	15046	0	588
21.673	47.890	16407	15139	0	588
11.900	43.924	16406	15241	0	588
12.153	42.878	16405	15311	0	588
15.939	47.566	16404	15336	0	588
26.470	49.297	16402	15355	0	588
33.682	49.153	16401	15391	0	588
37.324	47.133	16400	15429	0	588
29.787	43.238	16399	15463	0	588
18.644	40.570	16398	15529	0	588
9.917	39.308	16397	15614	0	588
12.117	37.360	16396	15656	0	588
21.745	36.351	16394	15667	0	588
34.223	34.692	16394	15713	0	588
37.865	35.269	16393	15781	0	588
33.429	38.370	16392	15840	0	588
23.909	40.930	16391	15914	0	588
22.719	43.743	16391	16037	0	588
27.948	44.933	16391	16209	0	588
36.531	43.960	16391	16384	0	588
39.235	44.140	16392	16540	0	588
29.968	42.842	16392	16674	0	588
16.480	39.776	16392	16799	0	588
7.717	35.882	16393	16907	0	588
12.441	32.203	16393	16953	0	588
26.145	31.771	16392	16926	0	588
38.983	36.026	16391	16803	0	588
44.681	43.130	16390	16608	0	588
40.822	49.153	16388	16436	0	588
35.629	53.264	16387	16351	0	588
31.230	51.028	16386	16321	0	588
30.905	50.090	16385	16291	0	588
31.122	46.736	16384	16213	0	588
29.427	41.543	16383	16105	0	588
26.397	41.039	16382	16018	0	588
24.630	40.498	16381	15972	0	588
25.604	44.573	16380	15955	0	588
27.660	49.874	16379	15950	0	588
30.004	54.129	16378	15948	0	588
27.876	51.533	16377	15952	0	588
24.414	46.736	16376	15978	0	588
21.781	40.678	16375	16018	0	588
25.820	35.052	16375	16041	0	588
31.410	35.233	16374	16035	0	588
34.800	39.055	16373	16037	0	588
30.364	42.806	16372	16071	0	588
24.198	45.222	16372	16149	0	588
20.014	46.700	16371	16243	0	588
22.827	44.933	16371	16323	0	588
28.777	41.832	16371	16400	0	588
32.095	39.272	16371	16502	0	588
29.246	35.629	16372	16629	0	588
23.873	33.393	16373	16760	0	588
18.788	35.737	16373	16890	0	588
20.447	38.154	16375	17046	0	588
21.024	44.501	16376	17235	0	588
24.847	46.845	16378	17432	0	588
26.506	45.438	16380	17605	0	588
27.696	41.940	16382	17752	0	588
29.463	39.957	16384	17881	0	588
33.466	37.288	16385	17963	0	588
37.072	38.586	16386	17944	0	588
38.298	40.570	16387	17819	0	588
36.026	39.740	16387	17663	0	588
30.400	37.468	16387	17512	0	588
25.965	35.088	16387	17349	1	560
23.765	32.672	16387	17188	0	560
22.863	33.249	16388	17074	0	560
22.647	34.908	16388	17036	0	560
23.368	39.380	16390	17051	0	560
21.385	42.157	16391	17078	0	560
20.844	43.058	16392	17114	0	560
21.385	43.202	16394	17150	0	560
20.808	41.543	16395	17156	0	560
21.313	41.327	16396	17114	0	560
20.664	42.409	16396	17002	0	560
23.332	41.652	16396	16839	0	560
25.712	42.986	16397	16695	0	560
28.633	42.481	16396	16593	0	560
31.915	42.409	16397	16515	0	560
33.934	43.779	16397	16451	0	560
33.646	42.914	16397	16353	0	560
33.177	43.960	16397	16245	0	560
34.259	43.491	16398	16249	0	560
36.495	45.655	16399	16363	0	560
38.695	47.926	16400	16417	0	560
40.173	52.326	16400	16357	0	560
39.704	51.713	16400	16240	0	560
39.596	51.749	16399	16156	0	560
38.875	49.297	16400	16126	0	560
39.885	49.153	16400	16126	0	560
39.488	49.657	16400	16105	0	560
39.812	50.811	16400	16041	0	560
41.976	52.614	16400	15974	0	560
46.448	49.874	16399	15931	0	560
51.749	48.576	16399	15910	0	560
52.795	48.431	16399	15897	0	560
49.441	48.323	16398	15866	0	560
38.983	51.388	16398	15832	0	560
30.400	50.523	16397	15821	0	560
25.712	50.415	16398	15844	0	560
25.604	49.116	16397	15876	0	560
29.859	49.044	16397	15893	0	560
38.803	53.732	16397	15921	0	560
46.484	56.653	16397	15993	0	560
52.074	57.555	16398	16111	0	560
50.956	55.788	16398	16240	0	560
46.376	48.251	16399	16327	0	560
38.226	45.402	16399	16376	0	560
33.249	43.599	16400	16422	0	560
32.925	44.609	16401	16483	0	560
35.485	45.005	16401	16557	0	560
36.783	47.313	16402	16629	0	560
36.062	46.917	16403	16695	0	560
35.160	47.241	16403	16752	0	560
34.620	48.612	16404	16809	0	560
33.177	49.369	16405	16858	0	560
34.620	48.323	16406	16866	0	560
34.656	48.828	16406	16820	0	560
33.646	46.700	16406	16735	0	560
29.787	42.445	16406	16642	0	560
22.791	38.118	16406	16564	0	560
19.618	34.151	16405	16492	0	560
22.142	32.167	16405	16411	0	560
30.797	31.915	16404	16296	0	560
40.930	33.357	16403	16096	0	560
42.337	31.626	16401	15859	0	560
38.622	32.636	16400	15675	0	560
28.633	32.780	16398	15546	0	560
22.935	33.898	16396	15421	0	560
22.935	35.846	16394	15281	0	560
26.001	35.197	16392	15150	0	560
26.109	31.951	16390	15076	0	560
28.958	30.400	16389	15080	0	560
30.725	30.545	16388	15156	0	560
34.439	35.377	16387	15266	0	560
36.242	40.173	16387	15376	0	560
36.819	42.914	16387	15510	0	560
35.665	44.609	16387	15694	0	560
35.016	43.599	16387	15893	0	560
35.665	44.176	16387	16044	0	560
37.216	43.960	16387	16128	0	560
35.990	43.707	16387	16188	0	560
32.997	40.029	16386	16264	0	560
31.735	40.101	16387	16355	0	560
34.583	39.524	16387	16426	0	560
37.396	40.462	16386	16458	0	560
38.550	40.101	16386	16466	0	560
36.855	38.550	16386	16494	0	560
33.033	35.737	16386	16555	0	560
29.138	35.737	16386	16619	0	560
26.866	36.711	16386	16659	0	560
24.811	38.695	16386	16674	0	560
21.565	39.019	16386	16674	0	560
20.952	38.695	16386	16676	0	560
21.096	39.416	16386	16686	0	560
23.404	38.586	16385	16676	0	560
25.424	38.082	16385	16640	0	560
23.945	37.793	16385	16614	0	560
22.575	37.180	16385	16625	0	560
25.388	40.137	16385	16661	0	560
32.853	46.268	16386	16697	0	560
37.757	53.985	16386	16710	0	560
43.743	57.771	16385	16676	0	560
41.580	58.493	16385	16612	0	560
37.252	53.949	16385	16549	0	560
35.629	51.352	16384	16481	0	560
33.682	47.530	16384	16415	0	560
30.076	49.333	16384	16355	0	560
23.837	50.054	16383	16274	0	560
13.631	49.766	16381	16137	0	560
7.032	47.494	16379	15893	0	560
2.200	39.957	16377	15599	0	560
-0.108	34.728	16374	15366	0	560
-1.479	31.879	16371	15192	0	560
-5.626	33.285	16368	15040	0	560
-11.540	35.341	16367	14951	0	560
-18.428	36.639	16364	14947	0	560
-21.204	33.357	16363	14972	0	560
-23.440	29.427	16360	14972	0	560
-21.601	27.624	16359	14970	0	560
-18.031	27.371	16358	15076	0	560
-19.221	26.758	16358	15311	0	560
-19.582	26.073	16358	15582	0	560
-22.683	25.496	16357	15796	0	560
-21.673	26.758	16357	15946	0	560
-20.627	29.066	16357	16092	0	560
-15.362	31.230	16357	16257	0	560
-13.054	30.761	16357	16400	0	560
-6.960	30.256	16357	16485	0	560
-1.875	29.427	16356	16530	0	560
4.616	30.689	16357	16606	0	560
9.088	33.285	16357	16744	0	560
10.602	36.351	16358	16915	0	560
9.448	39.416	16359	17087	0	560
9.268	42.120	16360	17239	0	560
9.016	42.048	16361	17383	0	560
9.196	40.317	16362	17512	0	560
10.422	35.485	16364	17608	0	560
12.189	32.672	16365	17667	0	560
13.199	32.925	16366	17716	0	560
14.966	33.826	16368	17771	0	560
15.362	36.711	16370	17841	0	560
13.163	36.242	16372	17942	0	560
12.838	35.233	16374	18069	0	560
14.245	34.511	16377	18177	0	560
18.283	37.036	16379	18249	0	560
25.135	41.363	16381	18296	0	560
33.105	44.573	16384	18338	0	560
40.101	49.513	16386	18376	0	560
44.392	51.172	16388	18383	0	560
45.582	52.542	16390	18355	0	560
44.609	55.355	16393	18317	0	560
43.671	55.427	16395	18273	0	560
44.212	53.516	16397	18198	0	560
45.799	51.605	16399	18052	1	600
45.582	50.884	16400	17815	0	600
47.494	51.064	16400	17510	0	600
47.494	56.401	16400	17176	0	600
50.920	62.171	16399	16845	0	600
53.913	62.459	16399	16561	0	600
51.749	61.666	16399	16351	0	600
50.775	57.591	16399	16181	0	600
46.304	52.038	16398	16014	0	600
45.763	51.821	16398	15864	0	600
45.943	49.838	16399	15808	0	600
45.474	52.001	16400	15868	0	600
44.501	50.487	16400	15950	0	600
43.743	51.857	16401	15974	0	600
43.274	49.044	16402	15942	0	600
43.851	50.126	16402	15902	0	600
46.232	50.018	16402	15870	0	600
48.720	53.047	16402	15819	0	600
49.874	56.040	16401	15722	0	600
52.182	58.997	16401	15603	0	600
51.533	57.014	16400	15523	0	600
52.831	56.942	16400	15493	0	600
52.110	53.300	16400	15497	0	600
54.129	55.247	16399	15510	0	600
56.726	56.762	16399	15518	0	600
56.293	58.348	16399	15552	0	600
53.552	61.305	16399	15626	0	600
50.054	58.276	16399	15724	0	600
45.078	56.293	16400	15800	0	600
42.517	55.427	16399	15834	0	600
43.851	51.749	16399	15844	0	600
49.441	51.424	16399	15868	0	600
55.391	49.225	16399	15919	0	600
63.325	51.352	16399	15984	0	600
69.960	52.651	16399	16037	0	600
77.101	58.961	16399	16092	0	600
83.267	61.161	16400	16175	0	600
88.172	62.820	16401	16287	0	600
92.752	61.305	16401	16394	0	600
95.168	56.113	16402	16494	0	600
94.915	55.283	16403	16580	0	600
95.312	54.886	16403	16631	0	600
94.519	55.319	16404	16648	0	600
93.112	58.565	16404	16652	0	600
92.715	56.473	16404	16644	0	600
89.903	53.408	16404	16619	0	600
85.395	46.051	16404	16572	0	600
82.402	44.104	16404	16506	0	600
84.313	44.104	16404	16458	0	600
86.188	48.323	16405	16492	0	600
88.965	55.283	16406	16597	0	600
84.169	55.427	16406	16659	0	600
72.629	54.670	16406	16602	0	600
64.118	48.756	16405	16456	0	600
59.899	47.169	16404	16298	0	600
62.604	48.071	16403	16166	0	600
65.777	51.064	16402	16052	0	600
65.272	53.624	16401	15908	0	600
57.375	49.838	16399	15724	0	600
49.730	46.123	16398	15573	0	600
45.186	41.688	16396	15501	0	600
45.438	42.084	16395	15497	0	600
46.700	43.274	16394	15518	0	600
47.674	47.999	16393	15516	0	600
46.917	50.090	16392	15512	0	600
44.176	49.730	16392	15554	0	600
42.697	51.316	16391	15648	0	600
42.625	50.595	16390	15734	0	600
43.635	52.254	16390	15777	0	600
43.671	52.759	16389	15802	0	600
43.058	55.608	16389	15840	0	600
42.120	56.293	16388	15885	0	600
42.481	57.158	16387	15923	0	600
45.871	60.584	16386	15914	0	600
49.477	59.935	16384	15796	0	600
54.129	60.656	16382	15605	0	600
54.742	62.135	16381	15508	0	600
55.391	61.414	16380	15546	0	600
51.929	64.263	16379	15618	0	600
51.533	64.912	16378	15684	0	600
49.080	64.010	16377	15770	0	600
46.376	63.541	16377	15906	0	600
44.176	62.063	16377	16077	0	600
43.094	62.351	16377	16228	0	600
41.652	62.495	16377	16342	0	600
41.435	62.351	16377	16436	0	600
42.445	63.145	16377	16542	0	600
44.501	62.243	16378	16655	0	600
44.753	61.774	16378	16750	0	600
44.428	60.548	16378	16784	0	600
44.356	61.738	16377	16754	0	600
46.340	62.387	16377	16724	0	600
48.143	67.472	16377	16722	0	600
49.838	71.980	16377	16729	0	600
50.847	73.386	16376	16748	0	600
45.763	73.242	16377	16771	0	600
42.012	72.340	16377	16780	0	600
39.596	69.419	16376	16771	0	600
39.235	68.049	16376	16756	0	600
40.858	68.121	16376	16733	0	600
45.979	68.085	16376	16688	0	600
46.772	67.075	16375	16585	0	600
48.287	65.236	16373	16428	0	600
44.969	63.036	16373	16291	0	600
39.921	62.243	16371	16196	0	600
37.216	62.676	16370	16122	0	600
34.764	66.138	16369	16056	0	600
33.754	68.842	16368	16012	0	600
31.662	71.367	16367	15995	0	600
33.321	71.475	16367	16018	0	600
36.495	72.665	16367	16090	0	600
42.048	72.557	16366	16171	0	600
47.854	72.701	16366	16226	0	600
48.179	72.809	16366	16262	0	600
46.195	71.763	16365	16234	0	600
43.887	70.718	16364	16143	0	600
45.005	71.403	16363	16080	0	600
47.530	73.026	16362	16069	0	600
52.759	75.442	16362	16109	0	600
51.136	79.264	16362	16224	0	600
50.559	78.651	16364	16409	0	600
45.763	77.028	16364	16629	0	600
40.245	72.665	16366	16816	0	600
35.774	69.780	16367	16968	0	600
32.780	68.770	16368	17112	0	600
31.807	68.734	16370	17231	0	600
31.879	69.564	16371	17313	0	600
33.610	65.813	16372	17370	0	600
32.708	61.414	16373	17353	0	600
31.482	58.997	16373	17256	0	600
29.138	55.968	16374	17203	0	600
29.931	59.611	16375	17258	0	600
29.535	63.686	16376	17349	0	600
32.925	67.003	16378	17387	0	600
37.072	71.078	16379	17372	0	600
40.534	72.737	16380	17394	0	600
43.599	71.908	16382	17472	0	600
41.363	69.852	16384	17546	0	600
38.406	66.498	16385	17591	0	600
34.944	63.974	16387	17610	0	600
36.711	63.289	16389	17622	0	600
39.993	64.010	16390	17646	0	600
45.727	64.515	16392	17669	0	600
44.717	64.154	16394	17684	0	600
43.743	61.882	16396	17675	0	600
42.337	60.151	16398	17599	0	600
42.734	61.558	16399	17468	0	600
44.753	62.676	16400	17334	0	600
46.628	63.758	16401	17205	0	600
47.241	64.154	16402	17068	0	600
44.825	60.440	16402	16911	0	600
44.428	59.106	16402	16739	0	600
41.291	55.788	16403	16604	0	600
36.747	53.841	16403	16528	0	600
31.122	50.343	16404	16492	0	600
25.424	48.720	16405	16453	0	600
21.457	48.071	16406	16388	0	600
18.500	48.179	16406	16302	0	600
18.320	51.677	16406	16207	0	600
16.480	50.631	16406	16124	0	600
16.661	50.198	16406	16005	0	600
19.834	48.071	16404	15760	0	600
32.095	48.251	16403	15459	0	600
50.090	52.506	16401	15264	0	600
65.164	58.096	16400	15207	0	600
72.881	67.977	16400	15209	0	600
69.780	74.937	16399	15224	0	600
64.118	79.841	16399	15247	0	600
64.695	86.765	16399	15304	0	600
73.170	92.030	16399	15415	0	600
81.861	99.892	16399	15546	0	600
-0.397	2.993	16417	15169	0	508
3.823	6.816	16416	15235	0	508
8.042	9.629	16415	15345	0	508
11.107	11.792	16415	15491	0	508
12.946	14.785	16414	15641	0	508
12.730	16.264	16414	15768	0	508
10.638	13.271	16414	15880	0	508
8.943	13.271	16413	15995	0	508
9.232	13.271	16413	16113	0	508
11.107	15.002	16413	16221	0	508
18.788	21.890	16413	16304	0	508
22.539	26.614	16412	16365	0	508
25.171	28.777	16412	16436	0	508
22.575	26.650	16412	16540	0	508
17.851	24.198	16413	16652	0	508
13.812	18.716	16413	16712	0	508
12.045	19.293	16412	16720	0	508
11.756	17.238	16412	16727	0	508
15.939	17.887	16412	16754	0	508
16.264	18.428	16412	16790	0	508
18.320	16.877	16412	16803	0	508
17.129	17.454	16412	16786	0	508
17.562	17.634	16412	16758	0	508
16.444	17.202	16412	16733	0	508
16.192	19.005	16411	16705	0	508
16.949	20.231	16411	16657	0	508
17.021	20.014	16410	16589	0	508
19.437	21.241	16409	16511	0	508
18.500	18.464	16408	16396	0	508
18.897	19.437	16408	16285	0	508
17.526	18.392	16407	16276	0	508
16.156	18.752	16407	16321	0	508
15.182	15.687	16406	16266	0	508
17.166	16.408	16404	16124	0	508
16.769	14.461	16403	16003	0	508
19.293	17.779	16401	15923	0	508
19.618	18.247	16401	15866	0	508
20.880	21.926	16399	15830	0	508
20.627	22.503	16398	15783	0	508
19.690	22.827	16396	15705	0	508
20.880	25.424	16395	15648	0	508
18.608	23.296	16394	15662	0	508
18.788	20.555	16393	15730	0	508
16.444	19.149	16392	15775	0	508
15.326	16.012	16391	15766	0	508
12.081	16.913	16390	15787	0	508
9.989	17.166	16390	15887	0	508
9.268	18.572	16390	16010	0	508
11.504	20.339	16389	16092	0	508
18.716	25.099	16389	16139	0	508
24.053	28.705	16388	16202	0	508
28.092	31.410	16388	16310	0	508
23.657	29.174	16389	16443	0	508
17.959	25.388	16389	16576	0	508
15.903	23.765	16389	16661	0	508
16.552	23.224	16389	16699	0	508
20.916	24.450	16389	16744	0	508
20.844	25.063	16390	16830	0	508
17.129	19.401	16391	16930	0	508
9.268	15.002	16391	17008	0	508
3.750	10.061	16392	17063	0	508
6.094	12.009	16392	17093	0	508
11.792	17.166	16393	17110	0	508
17.021	22.647	16393	17123	0	508
23.116	27.191	16393	17104	0	508
22.539	27.515	16394	17051	0	508
22.142	25.243	16393	16993	0	508
18.608	21.926	16393	16926	0	508
18.860	20.591	16393	16854	0	508
18.356	20.014	16394	16849	0	508
15.218	16.985	16395	16924	0	508
15.723	18.356	16395	16953	0	508
16.841	18.464	16395	16860	0	508
19.185	22.322	16394	16697	0	508
26.181	25.171	16394	16557	0	508
33.502	29.391	16394	16477	0	508
37.505	32.384	16394	16430	0	508
38.406	31.410	16393	16372	0	508
34.764	28.489	16392	16296	0	508
30.256	23.368	16393	16281	0	508
26.758	19.473	16393	16376	0	508
24.847	18.897	16394	16494	0	508
27.227	19.510	16394	16536	0	508
31.554	25.893	16394	16498	0	508
34.764	30.400	16395	16460	0	508
35.737	30.833	16395	16470	0	508
34.692	29.859	16395	16504	0	508
29.138	25.748	16396	16525	0	508
23.981	22.395	16396	16536	0	508
20.844	19.185	16397	16549	0	508
21.349	21.493	16396	16525	0	508
23.512	24.739	16397	16466	0	508
25.207	25.063	16396	16426	0	508
25.820	23.981	16396	16388	0	508
23.657	21.890	16395	16312	0	508
20.267	17.634	16395	16232	0	508
20.736	18.933	16395	16224	0	508
21.024	20.808	16395	16281	0	508
23.585	24.883	16396	16344	0	508
27.407	27.624	16397	16413	0	508
27.624	26.794	16398	16506	0	508
25.063	24.919	16398	16576	0	508
24.017	25.424	16398	16564	0	508
22.683	26.542	16398	16494	0	508
22.286	28.128	16398	16456	0	508
22.358	27.587	16398	16470	0	508
18.933	23.765	16399	16513	0	508
12.117	17.238	16400	16564	0	508
7.501	12.838	16400	16602	0	508
9.052	12.369	16401	16638	0	508
14.930	17.274	16402	16688	0	508
20.808	20.555	16403	16739	0	508
23.981	24.125	16404	16801	0	508
21.998	24.991	16406	16924	0	508
18.680	24.378	16408	17087	0	508
20.736	26.578	16409	17188	0	508
23.909	28.850	16410	17209	0	508
26.578	31.338	16411	17195	0	508
24.702	27.083	16412	17154	0	508
17.093	20.627	16413	17108	0	508
13.343	17.562	16414	17080	0	508
13.343	16.733	16415	17036	0	508
19.654	23.585	16415	16930	0	508
25.712	28.345	16414	16760	0	508
27.551	30.689	16413	16500	0	508
26.433	30.364	16412	16183	0	508
25.893	31.410	16410	15893	0	508
27.371	35.341	16408	15650	0	508
31.662	39.596	16407	15461	0	508
30.941	40.065	16405	15360	0	508
27.191	35.377	16404	15334	0	508
20.808	28.164	16404	15345	0	508
17.274	24.378	16403	15353	0	508
21.493	24.234	16402	15374	0	508
24.847	27.804	16402	15432	0	508
28.056	31.013	16401	15493	0	508
27.010	32.600	16401	15510	0	508
19.870	30.364	16400	15495	0	508
15.579	28.273	16399	15504	0	508
12.550	23.945	16399	15556	0	508
12.550	23.440	16398	15645	0	508
11.792	22.431	16398	15756	0	508
9.016	21.745	16398	15842	0	508
8.547	20.664	16398	15910	0	508
8.330	20.231	16397	15974	0	508
9.484	18.897	16397	16029	0	508
13.740	20.988	16396	16039	0	508
16.913	21.998	16395	16008	0	508
15.867	22.647	16394	15986	0	508
16.661	22.972	16394	16012	0	508
17.382	23.332	16394	16084	0	508
20.591	28.814	16394	16226	0	508
25.784	34.439	16395	16468	0	508
30.508	39.524	16398	16767	0	508
32.023	40.714	16399	16993	0	508
28.886	34.403	16400	17104	0	508
21.962	26.794	16401	17146	0	508
15.254	20.303	16402	17169	0	508
14.100	16.444	16402	17195	0	508
13.668	19.906	16403	17224	0	508
18.356	24.558	16404	17216	0	508
20.772	27.191	16404	17159	0	508
24.486	30.905	16404	17118	0	508
22.755	31.013	16405	17114	0	508
21.168	31.302	16406	17097	1	868
22.431	30.328	16406	17034	0	868
21.421	32.095	16406	16934	0	868
22.431	31.662	16406	16847	0	868
23.260	30.436	16406	16786	0	868
20.700	27.047	16406	16712	0	868
21.096	26.001	16406	16606	0	868
19.762	24.162	16405	16487	0	868
22.358	25.676	16405	16378	0	868
25.316	31.049	16404	16293	0	868
26.506	33.970	16404	16251	0	868
26.433	35.124	16404	16240	0	868
25.640	35.088	16404	16217	0	868
23.729	31.446	16403	16168	0	868
19.401	26.650	16403	16111	0	868
16.913	20.339	16402	16037	0	868
12.982	19.654	16401	15938	0	868
14.569	20.880	16401	15844	0	868
17.202	26.181	16399	15745	0	868
19.077	32.312	16397	15548	0	868
20.447	32.708	16394	15288	0	868
19.221	30.545	16392	15116	0	868
15.182	25.424	16390	15048	0	868
15.002	19.906	16388	14985	0	868
15.831	18.500	16385	14875	0	868
14.966	17.382	16384	14762	0	868
17.382	19.365	16382	14756	0	868
19.906	21.132	16382	14932	0	868
23.909	24.594	16382	15216	0	868
29.030	29.210	16381	15472	0	868
30.328	32.672	16381	15662	0	868
27.948	30.617	16382	15859	0	868
21.241	27.479	16383	16130	0	868
16.877	21.060	16384	16445	0	868
15.435	19.978	16384	16714	0	868
22.214	23.188	16386	16907	0	868
29.066	31.771	16386	17044	0	868
35.305	37.577	16387	17127	0	868
36.675	38.658	16387	17173	0	868
35.305	33.826	16388	17205	0	868
32.239	31.049	16388	17178	0	868
32.095	27.299	16387	17057	0	868
33.249	28.128	16387	16917	0	868
33.393	30.833	16386	16818	0	868
31.735	32.312	16385	16735	0	868
27.804	31.410	16385	16631	0	868
22.106	29.463	16384	16515	0	868
18.897	31.013	16384	16411	0	868
21.673	33.177	16382	16255	0	868
26.650	35.918	16380	16029	0	868
31.662	36.639	16378	15840	0	868
33.466	32.059	16377	15736	0	868
28.201	25.676	16375	15692	0	868
22.935	19.834	16375	15707	0	868
22.395	22.070	16374	15789	0	868
29.643	29.895	16374	15912	0	868
40.678	37.144	16374	16050	0	868
47.674	42.770	16375	16183	0	868
44.428	39.055	16374	16266	0	868
33.033	31.302	16374	16302	0	868
18.464	23.945	16375	16386	0	868
14.136	21.168	16375	16532	0	868
16.985	24.162	16375	16629	0	868
26.902	28.128	16376	16644	0	868
32.167	30.184	16376	16684	0	868
31.482	28.561	16377	16790	0	868
25.893	25.135	16378	16909	0	868
21.241	24.162	16379	17021	0	868
21.926	22.503	16380	17146	0	868
22.214	24.234	16381	17277	0	868
21.998	23.549	16383	17430	0	868
20.050	20.411	16385	17656	0	868
16.120	18.969	16389	17938	0	868
19.113	22.899	16391	18145	0	868
22.719	26.578	16393	18203	0	868
26.686	30.833	16395	18171	0	868
25.496	31.626	16398	18165	0	868
18.933	26.830	16400	18209	0	868
15.687	22.142	16402	18211	0	868
12.153	20.339	16403	18099	0	868
14.317	21.601	16405	17898	0	868
14.064	22.034	16405	17692	1	324
13.668	21.277	16406	17497	0	324
13.812	20.014	16406	17256	0	324
14.785	20.375	16405	16947	0	324
19.546	24.053	16404	16633	0	324
20.014	24.847	16404	16380	0	324
17.959	23.549	16403	16177	0	324
10.855	20.231	16402	15999	0	324
5.265	14.064	16402	15840	0	324
6.022	13.235	16401	15705	0	324
10.674	13.559	16400	15614	0	324
14.172	16.192	16400	15578	0	324
20.050	17.959	16400	15607	0	324
19.618	19.041	16401	15686	0	324
21.204	18.788	16402	15766	0	324
20.483	20.087	16402	15834	0	324
22.467	17.274	16403	15908	0	324
23.945	18.356	16403	16005	0	324
24.414	19.257	16404	16126	0	324
26.289	21.349	16405	16243	0	324
28.056	22.755	16406	16306	0	324
26.794	22.395	16406	16304	0	324
23.621	19.582	16407	16293	0	324
21.601	15.831	16407	16310	0	324
17.851	11.864	16407	16315	0	324
18.211	14.389	16407	16240	0	324
18.788	16.012	16406	16080	0	324
21.493	21.132	16404	15897	0	324
26.001	22.106	16403	15745	0	324
26.073	21.673	16402	15635	0	324
26.974	22.863	16401	15569	0	324
27.010	21.926	16400	15523	0	324
25.243	23.080	16399	15478	0	324
23.260	23.008	16398	15444	0	324
22.647	20.339	16397	15423	0	324
22.070	19.221	16396	15429	0	324
20.411	18.031	16395	15463	0	324
22.755	20.808	16394	15489	0	324
23.909	22.683	16393	15495	0	324
28.128	24.630	16392	15527	0	324
32.131	28.164	16392	15605	0	324
37.000	31.662	16391	15705	0	324
38.262	31.230	16391	15794	0	324
38.009	30.004	16390	15855	0	324
35.197	27.407	16390	15912	0	324
34.223	27.984	16390	15991	0	324
37.000	29.571	16390	16094	0	324
41.543	34.187	16390	16204	0	324
44.645	36.242	16389	16240	0	324
45.582	36.026	16387	16128	0	324
44.428	34.475	16385	15902	0	324
40.750	34.583	16384	15692	0	324
38.586	33.718	16381	15559	0	324
37.252	33.682	16379	15472	0	324
35.774	32.348	16378	15419	0	324
32.780	29.427	16375	15381	0	324
32.925	27.479	16373	15307	0	324
32.961	27.515	16371	15207	0	324
35.629	27.696	16368	15156	0	324
37.577	30.617	16367	15175	0	324
36.928	28.705	16365	15218	0	324
31.843	22.034	16363	15283	0	324
23.512	16.589	16362	15408	0	324
19.041	12.081	16361	15571	0	324
18.716	15.507	16360	15684	0	324
24.594	23.549	16358	15703	0	324
30.761	32.095	16357	15717	0	324
35.701	35.521	16356	15762	0	324
34.547	33.646	16354	15808	0	324
30.184	30.328	16353	15897	0	324
26.001	25.604	16353	16024	0	324
24.955	25.784	16351	16113	0	324
27.696	28.958	16351	16149	0	324
31.374	31.807	16349	16198	0	324
34.547	32.708	16349	16298	0	324
35.016	32.816	16348	16417	0	324
33.790	32.059	16348	16492	0	324
31.410	30.869	16347	16489	0	324
29.354	29.535	16346	16487	0	324
29.066	27.624	16346	16561	0	324
29.427	27.479	16346	16701	0	324
30.545	26.614	16346	16837	0	324
30.400	27.696	16346	16926	0	324
28.814	27.587	16346	17000	0	324
24.053	23.981	16347	17104	0	324
20.159	21.024	16348	17243	0	324
20.411	18.500	16349	17387	0	324
21.024	19.546	16350	17489	0	324
24.811	21.313	16351	17561	0	324
25.532	23.512	16352	17622	0	324
28.777	27.191	16353	17673	0	324
31.085	28.561	16354	17701	0	324
32.636	29.030	16355	17694	0	324
31.302	27.227	16356	17675	0	324
27.515	24.919	16357	17673	0	324
23.440	24.125	16359	17697	0	324
23.729	26.542	16360	17718	0	324
29.318	30.977	16361	17694	0	324
34.187	34.295	16362	17631	0	324
34.547	33.357	16363	17548	0	324
31.338	30.184	16364	17461	0	324
27.948	27.804	16364	17381	0	324
26.974	26.794	16365	17264	0	324
30.256	29.391	16364	17038	0	324
33.033	32.167	16362	16722	0	324
32.853	32.456	16361	16428	0	324
28.092	30.545	16360	16200	0	324
24.306	29.354	16359	16010	0	324
21.565	30.545	16358	15861	0	324
23.981	32.239	16357	15749	0	324
27.804	34.439	16356	15624	0	324
30.220	34.439	16355	15514	0	324
29.751	31.951	16355	15542	0	324
26.109	27.984	16355	15684	0	324
24.342	23.801	16355	15779	0	324
20.880	22.683	16355	15792	0	324
22.178	22.539	16354	15794	0	324
26.542	28.056	16354	15844	0	324
31.266	33.934	16355	15942	0	324
38.009	39.055	16355	16018	0	324
40.858	41.075	16354	16016	0	324
44.176	40.498	16354	15984	0	324
43.960	39.885	16354	16008	0	324
42.517	39.235	16354	16116	0	324
41.868	38.803	16355	16285	0	324
36.242	36.459	16356	16472	0	324
29.787	31.879	16357	16638	0	324
25.748	27.587	16359	16782	0	324
24.162	25.784	16360	16928	0	324
26.938	28.633	16362	17074	0	324
31.987	32.672	16364	17218	0	324
33.970	35.701	16366	17343	0	324
32.636	34.187	16367	17436	0	324
25.604	30.256	16369	17525	0	324
18.716	25.243	16371	17639	0	324
14.497	22.863	16374	17743	0	324
17.995	25.352	16376	17790	0	324
23.801	28.056	16377	17794	0	324
26.578	28.309	16379	17796	0	324
25.820	27.551	16381	17807	0	324
19.978	24.486	16383	17805	0	324
14.389	21.024	16384	17766	0	324
11.468	17.202	16386	17701	0	324
14.353	19.618	16387	17622	0	324
16.336	21.168	16389	17540	1	576
22.142	25.279	16390	17474	0	576
22.827	29.210	16392	17413	0	576
21.890	28.453	16393	17296	0	576
19.582	24.883	16393	17089	0	576
14.208	20.519	16393	16832	0	576
12.766	15.975	16393	16593	0	576
15.471	18.860	16393	16394	0	576
18.320	21.926	16393	16236	0	576
24.306	25.856	16392	16084	0	576
28.273	29.787	16392	15955	0	576
28.128	29.066	16392	15864	0	576
24.558	27.263	16392	15808	0	576
21.709	23.909	16392	15787	0	576
20.050	23.188	16393	15823	0	576
18.933	22.431	16393	15897	0	576
20.267	20.952	16394	15950	0	576
19.257	21.637	16395	15967	0	576
19.221	18.788	16395	16001	0	576
18.752	19.185	16396	16082	0	576
22.683	19.077	16397	16162	0	576
26.001	21.781	16398	16196	0	576
30.148	25.820	16398	16196	0	576
33.682	27.804	16399	16175	0	576
36.675	29.931	16398	16145	0	576
37.252	29.643	16399	16135	0	576
35.269	28.201	16399	16137	0	576
32.961	26.397	16399	16139	0	576
30.292	24.378	16400	16160	0	576
29.859	24.666	16401	16224	0	576
31.662	27.010	16401	16304	0	576
34.908	31.590	16402	16359	0	576
39.524	33.862	16403	16376	0	576
42.120	37.757	16403	16355	0	576
41.039	35.305	16403	16321	0	576
39.416	31.590	16403	16323	0	576
36.170	28.381	16404	16357	0	576
35.088	27.912	16404	16380	0	576
35.341	29.030	16405	16388	0	576
35.269	30.364	16405	16400	0	576
34.259	30.725	16406	16411	0	576
30.328	27.984	16406	16392	0	576
28.994	22.791	16406	16344	0	576
29.715	21.673	16406	16293	0	576
31.590	24.125	16405	16240	0	576
33.069	26.758	16405	16164	0	576
35.774	29.174	16405	16116	0	576
35.701	28.561	16405	16141	0	576
32.853	25.856	16405	16149	0	576
30.112	21.241	16404	16046	0	576
25.243	20.159	16402	15874	0	576
22.142	19.473	16401	15722	0	576
22.431	18.247	16400	15603	0	576
23.585	20.664	16397	15440	0	576
26.397	20.519	16395	15196	0	576
30.545	24.702	16392	14974	0	576
31.446	24.811	16390	14896	0	576
31.590	23.981	16389	14940	0	576
27.263	23.044	16388	14989	0	576
23.296	20.555	16386	14997	0	576
23.116	21.024	16384	15014	0	576
23.585	27.587	16384	15103	0	576
27.768	28.237	16383	15237	0	576
25.856	27.876	16382	15319	0	576
20.159	20.880	16380	15336	0	576
11.612	15.146	16379	15370	0	576
9.448	10.819	16379	15480	0	576
12.225	13.631	16378	15635	0	576
18.536	20.627	16378	15779	0	576
25.604	23.693	16377	15893	0	576
26.361	22.935	16377	16003	0	576
20.627	20.952	16376	16126	0	576
17.166	16.408	16376	16264	0	576
13.956	17.598	16377	16422	0	576
17.093	19.690	16377	16587	0	576
19.473	23.837	16377	16722	0	576
22.431	22.575	16377	16824	0	576
18.933	19.834	16378	16911	0	576
17.743	16.733	16378	16987	0	576
15.146	14.497	16379	17046	0	576
15.975	14.605	16379	17112	0	576
14.894	16.300	16380	17188	0	576
17.310	15.326	16380	17239	0	576
18.933	19.005	16381	17250	0	576
24.919	22.395	16381	17250	0	576
29.679	27.624	16381	17226	0	576
32.528	32.348	16382	17154	0	576
32.348	31.807	16380	17010	0	576
29.391	29.535	16379	16820	0	576
28.345	28.777	16379	16693	0	576
29.318	28.273	16379	16693	0	576
33.934	29.787	16379	16727	0	576
38.190	34.151	16379	16661	0	576
40.894	37.901	16378	16494	0	576
38.118	38.695	16376	16317	0	576
30.581	38.334	16375	16188	0	576
24.702	34.980	16375	16111	0	576
21.709	32.167	16374	16073	0	576
25.496	31.266	16373	16018	0	576
30.581	34.187	16372	15925	0	576
31.302	37.901	16371	15859	0	576
29.931	36.928	16370	15861	0	576
28.201	37.360	16370	15904	0	576
30.725	37.937	16369	15931	0	576
35.846	40.389	16368	15919	0	576
38.298	40.966	16368	15910	0	576
36.026	42.481	16367	15929	0	576
31.338	40.173	16366	15944	0	576
30.689	37.973	16365	15914	0	576
35.593	40.426	16364	15864	0	576
41.904	44.789	16363	15851	0	576
45.691	47.097	16363	15902	0	576
39.704	46.304	16363	16020	0	576
34.187	41.904	16363	16168	0	576
29.138	37.396	16363	16302	0	576
30.653	37.252	16364	16413	0	576
36.170	39.272	16364	16521	0	576
39.344	41.507	16365	16606	0	576
38.622	42.301	16365	16663	0	576
34.439	40.714	16365	16708	0	576
30.941	37.108	16366	16769	0	576
28.850	36.242	16366	16866	0	576
29.282	36.819	16368	16987	0	576
30.725	36.351	16368	17112	0	576
30.508	35.052	16370	17224	0	576
29.571	32.600	16371	17324	0	576
27.804	31.518	16373	17400	0	576
29.282	30.076	16374	17425	0	576
30.364	33.646	16375	17406	0	576
32.348	35.737	16376	17381	0	576
33.754	36.351	16376	17334	0	576
30.436	33.033	16376	17241	0	576
27.479	29.643	16377	17110	0	576
23.909	25.965	16376	16970	0	576
21.024	22.431	16376	16871	0	576
22.467	24.017	16377	16828	0	576
24.378	23.476	16378	16813	0	576
27.263	26.217	16378	16756	0	576
30.977	29.607	16378	16650	0	576
31.951	30.617	16378	16595	0	576
31.302	31.266	16379	16623	0	576
29.715	28.705	16380	16676	0	576
24.342	23.404	16381	16727	0	576
19.654	21.277	16382	16765	0	576
19.329	20.808	16383	16782	0	576
19.365	22.142	16384	16792	0	576
22.539	25.568	16384	16809	0	576
24.739	25.784	16385	16818	0	576
23.621	23.440	16386	16807	0	576
22.935	21.277	16386	16792	0	576
21.637	19.906	16387	16784	0	576
22.142	18.428	16388	16796	0	576
23.152	20.411	16389	16809	0	576
22.755	20.411	16390	16788	0	576
23.945	22.935	16391	16731	0	576
27.119	23.909	16390	16640	0	576
28.237	25.135	16391	16540	0	576
30.040	27.407	16391	16470	0	576
30.328	29.391	16391	16411	0	576
30.004	29.787	16391	16351	0	576
28.741	29.499	16392	16308	0	576
29.066	28.381	16392	16296	0	576
28.958	28.381	16392	16296	0	576
30.617	28.056	16393	16296	0	576
32.564	32.023	16393	16285	0	576
34.403	34.295	16393	16247	0	576
34.151	33.502	16393	16168	0	576
31.987	32.023	16393	16096	0	576
29.174	27.732	16393	16101	0	576
28.597	25.748	16393	16143	0	576
29.499	26.578	16393	16092	0	576
30.905	26.902	16392	15933	0	576
31.374	30.400	16390	15751	0	576
31.410	30.328	16389	15616	0	576
32.961	29.751	16388	15523	0	576
33.754	30.725	16387	15434	0	576
35.701	31.085	16385	15345	0	576
35.305	31.446	16384	15298	0	576
32.059	30.328	16384	15338	0	576
28.381	27.119	16384	15432	0	576
26.650	25.929	16383	15489	0	576
27.119	25.099	16382	15504	0	576
28.309	24.919	16382	15544	0	576
30.040	23.657	16382	15624	0	576
28.345	23.873	16381	15728	0	576
27.155	22.683	16381	15853	0	576
26.289	23.368	16381	15969	0	576
27.948	27.191	16381	16041	0	576
33.393	29.679	16381	16088	0	576
36.206	30.977	16381	16156	0	576
34.583	28.381	16381	16264	0	576
28.994	24.666	16381	16392	0	576
21.277	20.519	16382	16504	0	576
16.048	18.031	16382	16593	0	576
19.221	20.772	16383	16676	0	576
23.729	26.397	16384	16763	0	576
29.571	31.374	16384	16847	0	576
30.581	34.475	16384	16915	0	576
28.561	32.131	16385	16966	0	576
21.926	28.128	16385	16983	0	576
18.428	22.791	16385	16966	0	576
14.136	19.546	16386	16926	0	576
14.533	19.293	16385	16860	0	576
15.471	21.529	16385	16773	0	576
18.175	20.772	16385	16686	0	576
17.634	22.250	16384	16612	0	576
20.700	20.808	16384	16559	0	576
21.890	21.673	16385	16564	0	576
24.558	25.496	16385	16606	0	576
27.768	27.804	16385	16610	0	576
28.020	28.237	16385	16551	0	576
25.784	27.840	16385	16489	0	576
25.568	26.433	16385	16494	0	576
26.974	26.470	16386	16555	0	576
27.083	28.417	16386	16561	0	576
28.237	30.545	16385	16456	0	576
27.335	30.256	16384	16281	0	576
26.397	29.679	16383	16107	0	576
25.893	29.787	16382	15972	0	576
24.666	30.184	16381	15876	0	576
21.313	26.325	16380	15775	0	576
19.257	23.260	16378	15654	0	576
15.471	20.952	16377	15588	0	576
16.769	20.808	16376	15607	0	576
18.500	24.306	16376	15654	0	576
19.654	30.436	16375	15681	0	576
18.500	32.023	16374	15681	0	576
16.733	31.735	16374	15667	0	576
13.631	28.741	16372	15671	0	576
10.927	24.053	16372	15705	0	576
11.071	24.053	16371	15745	0	576
12.802	23.260	16370	15772	0	576
15.615	24.234	16369	15787	0	576
18.464	25.965	16368	15796	0	576
17.598	23.368	16367	15821	0	576
17.598	23.044	16367	15889	0	576
15.146	23.801	16367	15963	0	576
16.084	25.893	16366	16022	0	576
15.831	28.381	16365	16075	0	576
19.113	29.931	16365	16152	0	576
19.257	30.220	16365	16266	0	576
21.890	27.155	16365	16374	0	576
20.880	27.010	16364	16380	0	576
23.945	28.056	16363	16276	0	576
27.443	31.879	16362	16183	0	576
30.076	36.062	16361	16156	0	576
29.859	36.567	16360	16132	0	576
25.424	33.898	16359	16088	0	576
20.591	27.624	16358	16050	0	576
16.480	25.352	16357	16029	0	576
19.618	26.578	16356	16054	0	576
24.558	29.102	16356	16166	0	576
25.460	31.446	16356	16329	0	576
21.313	28.850	16356	16428	0	576
16.841	25.279	16356	16441	0	576
12.622	21.060	16355	16422	0	576
13.487	21.457	16355	16432	0	576
18.392	25.279	16355	16500	0	576
20.916	26.974	16356	16610	0	576
21.601	27.479	16356	16699	0	576
18.897	26.470	16356	16720	0	576
15.362	23.981	16356	16733	0	576
15.218	22.539	16357	16811	0	576
15.651	24.342	16358	16960	0	576
14.785	25.424	16359	17118	0	576
15.615	24.198	16360	17248	0	576
13.307	22.503	16362	17360	0	576
13.595	23.332	16363	17461	0	576
16.048	22.431	16365	17523	0	576
15.867	22.791	16366	17521	0	576
19.221	24.558	16366	17474	0	576
18.428	24.306	16367	17430	0	576
18.860	23.945	16369	17428	0	576
20.375	25.135	16370	17474	1	1092
19.185	23.476	16371	17527	0	1092
18.247	20.772	16373	17540	0	1092
15.146	19.041	16374	17506	0	1092
15.651	15.867	16375	17430	0	1092
14.749	16.048	16376	17339	0	1092
15.507	14.389	16377	17284	0	1092
16.264	15.326	16378	17241	0	1092
14.641	16.372	16379	17186	0	1092
17.959	16.589	16380	17135	0	1092
18.067	19.870	16381	17118	0	1092
20.772	20.808	16383	17131	0	1092
19.834	18.500	16384	17135	0	1092
20.808	17.923	16384	17110	0	1092
19.401	16.516	16385	17051	0	1092
23.585	20.700	16386	16947	0	1092
27.479	23.476	16386	16818	0	1092
29.427	27.587	16387	16703	0	1092
26.974	26.902	16387	16614	0	1092
22.899	22.178	16387	16515	0	1092
20.519	18.608	16387	16361	0	1092
19.041	19.690	16387	16194	0	1092
22.647	22.972	16388	16145	0	1092
25.929	27.263	16389	16224	0	1092
26.433	28.164	16389	16291	0	1092
24.089	25.279	16390	16274	0	1092
23.693	20.664	16390	16190	0	1092
19.473	18.608	16390	16096	0	1092
17.851	15.903	16390	16048	0	1092
15.867	17.382	16390	16054	0	1092
16.841	17.346	16391	16084	0	1092
16.228	19.185	16391	16094	0	1092
17.706	19.185	16392	16113	0	1092
16.228	20.916	16392	16164	0	1092
16.084	19.978	16393	16213	0	1092
15.074	20.664	16393	16230	0	1092
17.129	20.303	16393	16209	0	1092
15.939	21.781	16393	16160	0	1092
16.516	21.096	16393	16109	0	1092
13.415	18.211	16393	16080	0	1092
10.133	16.769	16393	16060	0	1092
9.340	14.713	16393	16005	0	1092
11.468	17.526	16392	15927	0	1092
14.785	20.880	16392	15872	0	1092
22.178	26.830	16392	15861	0	1092
23.945	30.436	16391	15885	0	1092
23.837	30.256	16391	15891	0	1092
21.673	26.938	16390	15800	0	1092
15.759	22.250	16388	15620	0	1092
11.432	16.589	16387	15495	0	1092
5.842	12.874	16386	15484	0	1092
1.947	9.989	16385	15529	0	1092
0.793	9.701	16385	15592	0	1092
4.327	11.612	16385	15667	0	1092
9.953	14.569	16385	15751	0	1092
17.382	22.070	16385	15874	0	1092
21.385	26.938	16386	16060	0	1092
24.125	30.617	16386	16247	0	1092
23.332	30.256	16386	16334	0	1092
19.510	28.705	16386	16308	0	1092
17.166	25.063	16385	16236	0	1092
12.910	22.142	16385	16181	0	1092
10.530	20.736	16384	16166	0	1092
13.487	21.709	16384	16154	0	1092
14.064	20.736	16383	16082	0	1092
17.923	23.080	16381	15961	0	1092
19.582	24.739	16380	15870	0	1092
22.791	27.840	16380	15853	0	1092
22.503	32.528	16379	15887	0	1092
23.260	33.429	16378	15925	0	1092
24.522	32.312	16377	15950	0	1092
21.998	28.850	16377	15997	0	1092
21.096	25.496	16377	16056	0	1092
20.952	24.811	16376	16099	0	1092
20.519	26.181	16376	16141	0	1092
21.565	27.732	16376	16188	0	1092
19.978	26.830	16375	16224	0	1092
21.313	25.784	16375	16266	0	1092
22.286	27.299	16375	16334	0	1092
23.152	28.850	16375	16405	1	316
27.479	31.735	16375	16445	0	316
28.922	31.843	16374	16422	0	316
28.886	30.941	16373	16289	0	316
28.850	29.787	16371	16096	0	316
28.814	28.273	16369	15972	0	316
27.840	29.138	16368	15921	0	316
27.912	28.381	16367	15880	0	316
25.712	25.820	16366	15855	0	316
22.719	22.431	16365	15857	0	316
19.401	20.231	16364	15872	0	316
13.631	18.644	16363	15887	0	316
12.982	20.123	16362	15916	0	316
12.910	21.168	16361	15963	0	316
16.156	24.089	16361	16014	0	316
19.293	25.388	16360	16067	0	316
19.185	24.342	16360	16166	0	316
16.156	22.539	16361	16310	0	316
11.287	20.339	16360	16411	0	316
9.304	17.598	16359	16411	0	316
8.691	17.129	16359	16363	0	316
11.973	19.005	16358	16342	0	316
17.310	21.241	16358	16359	0	316
18.933	23.873	16357	16365	0	316
22.214	22.467	16356	16323	0	316
20.195	22.683	16355	16285	0	316
19.834	19.654	16356	16353	0	316
20.123	21.277	16356	16500	0	316
21.277	26.253	16356	16623	0	316
25.063	29.030	16357	16691	0	316
23.404	27.804	16356	16712	0	316
20.880	24.198	16356	16710	0	316
20.087	21.926	16357	16731	0	316
19.582	22.034	16357	16794	0	316
23.909	27.443	16357	16873	0	316
26.397	31.590	16358	16917	0	316
25.604	31.049	16358	16928	0	316
23.008	27.155	16359	16938	0	316
19.437	23.476	16359	16960	0	316
20.050	24.053	16359	16968	0	316
25.424	27.515	16360	16955	0	316
27.984	30.076	16360	16953	0	316
29.318	31.807	16361	16985	0	316
27.732	32.059	16362	17053	0	316
26.650	29.751	16363	17120	0	316
23.657	28.525	16364	17159	0	316
24.450	28.237	16365	17178	0	316
24.702	28.128	16366	17207	0	316
25.063	27.299	16368	17248	0	316
24.811	29.282	16368	17275	0	316
23.657	30.833	16370	17254	0	316
23.981	31.446	16370	17192	0	316
19.798	28.561	16371	17127	0	316
18.572	26.253	16372	17099	0	316
16.589	22.286	16373	17104	0	316
16.444	21.781	16374	17110	0	316
13.920	19.654	16375	17101	0	316
14.028	19.185	16376	17072	0	316
13.812	20.664	16377	16989	0	316
15.579	21.709	16377	16902	0	316
18.608	25.496	16379	16924	0	316
19.437	28.886	16381	17019	0	316
20.411	29.354	16381	17029	0	316
17.923	26.974	16382	16924	0	316
14.208	25.604	16382	16771	0	316
9.160	25.207	16382	16636	0	316
7.862	23.224	16382	16528	0	316
4.364	19.762	16382	16415	0	316
0.361	17.310	16382	16293	0	316
-0.938	12.730	16382	16204	0	316
-2.092	12.297	16383	16200	0	316
-0.505	15.507	16384	16279	0	316
4.111	17.743	16384	16376	0	316
9.052	21.457	16385	16426	0	316
10.927	21.926	16385	16426	0	316
10.458	22.322	16386	16411	0	316
8.078	20.050	16387	16409	0	316
4.508	16.841	16387	16405	0	316
1.334	15.507	16387	16372	0	316
-2.056	12.730	16387	16296	0	316
-4.868	9.773	16387	16219	0	316
-6.455	8.835	16388	16194	0	316
-5.409	8.871	16388	16232	0	316
-5.337	11.287	16389	16298	0	316
-2.200	16.084	16390	16327	0	316
1.659	21.421	16390	16317	0	316
4.364	24.053	16390	16289	0	316
3.787	22.358	16390	16281	0	316
1.082	20.591	16391	16289	0	316
-2.452	14.894	16391	16262	0	316
-5.662	12.153	16390	16200	0	316
-6.203	12.117	16391	16162	0	316
-4.940	11.937	16391	16164	0	316
-4.472	15.939	16391	16188	0	316
-6.311	15.218	16391	16213	0	316
-8.511	15.435	16392	16234	0	316
-8.294	12.982	16392	16236	0	316
-9.845	13.704	16392	16217	0	316
-8.979	13.379	16392	16181	0	316
-8.727	11.973	16391	16132	0	316
-9.340	12.369	16391	16082	0	316
-10.566	10.314	16390	16012	0	316
-11.107	7.934	16389	15874	0	316
-9.268	9.448	16388	15720	0	316
-9.917	10.133	16387	15694	0	316
-12.153	9.016	16387	15794	0	316
-13.451	7.681	16387	15880	0	316
-15.903	5.626	16387	15908	0	316
-15.218	9.304	16387	15921	0	316
-7.789	14.317	16386	15963	0	316
-0.469	21.529	16386	16027	0	316
4.327	26.289	16386	16073	0	316
4.436	26.361	16386	16088	0	316
-0.757	19.077	16386	16071	0	316
-4.868	15.038	16385	16039	0	316
-6.419	13.163	16384	16024	0	316
-4.652	14.821	16384	16022	0	316
-0.541	16.084	16384	15988	0	316
1.298	20.988	16383	15919	0	316
3.354	22.142	16382	15859	0	316
4.904	24.486	16381	15857	0	316
8.294	26.542	16381	15925	0	316
10.206	26.974	16381	16022	0	316
9.953	26.686	16380	16099	0	316
7.753	24.414	16380	16147	0	316
8.799	24.450	16380	16164	0	316
10.025	25.929	16379	16122	0	316
11.287	26.938	16377	16033	0	316
10.783	27.047	16376	15938	0	316
8.114	25.424	16375	15878	0	316
4.291	23.260	16374	15859	0	316
3.967	25.316	16373	15880	0	316
9.556	27.696	16373	15942	0	316
14.677	34.079	16373	16014	0	316
19.654	36.423	16372	16077	0	316
22.070	39.921	16372	16122	0	316
18.788	38.370	16371	16156	0	316
15.218	34.908	16370	16188	0	316
8.619	31.158	16370	16200	0	316
7.032	29.607	16369	16145	0	316
7.573	29.102	16367	16031	0	316
10.602	30.112	16365	15895	0	316
11.323	31.626	16363	15775	0	316
10.386	29.102	16361	15711	0	316
8.943	26.109	16360	15709	0	316
7.429	21.890	16359	15753	0	316
8.294	21.926	16359	15830	0	316
9.448	22.827	16358	15931	0	316
9.953	21.890	16358	16065	0	316
10.097	22.358	16358	16221	0	316
10.602	24.955	16358	16365	0	316
10.494	25.316	16359	16475	0	316
11.287	25.568	16359	16553	0	316
6.527	24.666	16359	16612	0	316
4.039	19.654	16359	16678	0	316
2.308	17.093	16359	16741	0	316
0.974	16.480	16359	16786	0	316
1.262	19.257	16359	16818	0	316
1.370	21.818	16359	16868	0	316
0.144	21.854	16360	16945	0	316
0.000	23.981	16361	17023	0	316
2.741	23.873	16362	17080	0	316
2.849	24.378	16362	17097	0	316
3.029	23.621	16362	17084	0	316
1.154	20.339	16362	17072	0	316
-1.046	16.949	16364	17091	0	316
-2.813	12.333	16364	17133	0	316
-5.157	11.720	16365	17163	0	316
-6.708	8.979	16366	17161	0	316
-9.989	8.439	16366	17142	0	316
-9.088	11.396	16367	17131	0	316
-4.075	12.586	16367	17118	0	316
1.154	13.487	16367	17068	1	688
2.813	14.821	16368	16981	0	688
1.442	10.386	16368	16892	0	688
-2.705	7.429	16368	16820	0	688
-5.950	8.402	16368	16752	0	688
-3.173	12.189	16368	16665	0	688
0.036	18.356	16368	16564	0	688
6.058	23.765	16367	16470	0	688
5.842	23.549	16367	16413	0	688
2.813	17.959	16368	16384	0	688
-3.750	11.287	16368	16365	0	688
-8.619	5.265	16368	16355	0	688
-9.268	1.839	16368	16334	0	688
-6.058	5.950	16367	16266	0	688
-0.577	12.189	16367	16192	0	688
3.282	20.087	16368	16228	0	688
4.364	23.729	16369	16382	0	688
3.606	24.378	16370	16547	0	688
1.911	21.890	16371	16657	0	688
-3.354	16.372	16372	16708	0	688
-6.996	13.163	16373	16737	0	688
-13.235	10.206	16374	16786	0	688
-14.713	7.537	16375	16862	0	688
-15.326	9.520	16376	16928	0	688
-10.422	13.127	16378	16955	0	688
-6.167	16.661	16379	16983	0	688
-1.695	20.267	16380	17040	0	688
-0.541	17.959	16381	17095	0	688
-1.587	18.283	16383	17123	0	688
-2.488	16.769	16384	17114	0	688
-1.947	20.411	16384	17091	0	688
2.524	22.539	16385	17084	0	688
5.157	24.955	16387	17127	0	688
8.078	27.371	16389	17197	0	688
7.248	25.676	16390	17241	0	688
5.193	25.063	16392	17235	0	688
1.875	22.395	16393	17205	0	688
1.334	20.772	16394	17171	0	688
1.587	19.546	16395	17127	0	688
4.760	22.647	16396	17051	0	688
9.520	25.424	16397	16945	0	688
14.208	28.164	16397	16820	0	688
15.867	31.230	16397	16688	0	688
18.536	30.328	16398	16570	0	688
15.435	29.246	16398	16458	0	688
11.720	24.017	16398	16340	0	688
5.157	18.969	16397	16209	0	688
0.829	15.687	16397	16039	0	688
0.216	15.074	16395	15838	0	688
4.039	18.211	16394	15652	0	688
8.439	22.611	16393	15476	0	688
10.963	25.496	16391	15277	0	688
10.927	22.539	16389	15059	0	688
10.999	19.654	16387	14862	0	688
10.855	20.591	16385	14739	0	688
15.723	21.277	16384	14711	0	688
17.851	26.506	16383	14754	0	688
19.365	31.194	16382	14809	0	688
18.969	29.607	16381	14841	0	688
17.923	25.460	16380	14915	0	688
13.271	20.664	16380	15055	0	688
12.081	17.562	16379	15207	0	688
8.439	14.894	16379	15332	0	688
4.327	14.172	16378	15429	0	688
3.029	16.084	16378	15540	0	688
2.849	14.569	16378	15673	0	688
4.544	17.129	16377	15804	0	688
5.734	16.300	16377	15910	0	688
7.681	17.490	16377	15997	0	688
6.888	15.110	16377	16099	0	688
4.436	15.254	16377	16234	0	688
6.924	15.867	16378	16398	0	688
8.547	16.661	16378	16574	0	688
13.631	19.221	16379	16703	0	688
16.444	21.637	16379	16760	0	688
19.870	20.880	16379	16752	0	688
17.021	22.178	16379	16729	0	688
15.651	20.736	16379	16760	0	688
13.631	21.745	16380	16847	0	688
14.425	23.657	16380	16938	1	316
17.743	24.919	16381	17002	0	316
19.257	27.551	16381	17048	0	316
21.962	27.696	16382	17076	0	316
19.942	24.919	16382	17065	0	316
19.005	23.909	16382	17019	0	316
20.375	23.765	16382	16953	0	316
20.880	27.191	16382	16883	0	316
23.909	30.184	16382	16820	0	316
22.683	31.049	16382	16748	0	316
16.877	25.316	16382	16663	0	316
10.927	17.887	16381	16559	0	316
5.986	10.855	16380	16447	0	316
5.878	11.864	16380	16370	0	316
10.242	17.562	16380	16382	0	316
16.300	21.854	16381	16468	0	316
19.293	24.089	16381	16525	0	316
17.129	24.198	16381	16487	0	316
18.067	20.483	16381	16392	0	316
17.382	23.116	16380	16308	0	316
19.473	26.650	16380	16266	0	316
24.017	28.850	16379	16249	0	316
22.719	25.640	16379	16194	0	316
20.664	22.322	16377	16031	0	316
15.651	17.490	16375	15753	0	316
14.966	16.589	16371	15444	0	316
15.362	22.827	16369	15232	0	316
22.647	30.292	16367	15135	0	316
29.210	36.747	16365	15086	0	316
33.033	39.596	16364	15074	0	316
34.583	38.226	16363	15135	0	316
32.997	35.233	16362	15275	0	316
30.761	34.043	16362	15457	0	316
29.787	34.980	16362	15618	0	316
28.489	34.944	16361	15749	0	316
24.450	30.653	16361	15889	0	316
16.625	23.044	16362	16065	0	316
13.523	17.057	16362	16257	0	316
12.730	14.172	16363	16415	0	316
16.661	18.175	16363	16547	0	316
22.286	23.224	16364	16652	0	316
25.676	26.506	16364	16737	0	316
23.765	27.010	16364	16794	0	316
21.385	23.729	16364	16807	0	316
20.664	22.358	16364	16788	0	316
18.320	23.549	16364	16763	0	316
20.808	23.404	16364	16741	0	316
21.493	26.614	16363	16724	0	316
24.558	27.804	16363	16714	0	316
27.047	29.427	16363	16676	0	316
27.912	28.525	16361	16540	0	316
27.299	27.515	16360	16348	0	316
25.712	26.289	16359	16209	0	316
25.027	25.856	16358	16152	0	316
24.089	26.542	16357	16132	0	316
25.640	30.797	16357	16124	0	316
30.184	35.305	16355	16084	0	316
31.879	37.216	16355	16033	0	316
30.797	37.108	16354	16056	0	316
26.109	32.997	16354	16145	0	316
15.218	24.378	16354	16226	0	316
4.580	17.418	16354	16287	0	316
2.056	11.432	16354	16336	0	316
4.364	11.215	16354	16380	0	316
10.025	15.362	16354	16445	0	316
13.595	16.552	16355	16536	0	316
14.749	19.690	16355	16606	0	316
12.225	18.933	16355	16631	0	316
8.366	17.598	16355	16672	0	316
8.150	14.281	16356	16756	0	316
10.746	14.245	16357	16860	0	316
12.730	13.559	16358	16972	0	316
15.903	12.477	16359	17076	0	316
17.670	16.949	16360	17146	0	316
15.471	16.733	16361	17201	0	316
15.146	19.473	16362	17290	0	316
13.668	19.690	16365	17411	0	316
18.716	22.611	16366	17504	0	316
22.575	26.289	16367	17519	0	316
25.965	27.155	16368	17415	0	316
24.522	24.883	16368	17254	0	316
19.437	22.539	16368	17169	0	316
15.398	17.021	16370	17173	0	316
11.756	18.392	16371	17192	1	332
12.586	20.231	16372	17220	0	332
12.405	21.457	16374	17269	0	332
7.104	19.401	16376	17345	0	332
3.354	14.641	16378	17447	0	332
0.938	13.884	16380	17542	0	332
0.397	15.074	16382	17582	0	332
4.111	15.615	16384	17569	0	332
5.626	17.995	16385	17548	0	332
4.075	13.812	16386	17514	0	332
1.118	12.009	16388	17455	0	332
0.180	9.917	16389	17366	0	332
1.046	10.133	16390	17218	0	332
2.596	12.658	16390	17046	0	332
3.173	10.566	16391	16953	0	332
-0.613	7.934	16393	16934	0	332
-7.825	2.669	16394	16904	0	332
-12.189	-0.505	16394	16820	0	332
-14.245	-0.974	16395	16688	0	332
-11.287	2.056	16396	16549	0	332
-3.967	6.419	16396	16451	0	332
-0.144	9.340	16397	16386	0	332
1.803	8.330	16397	16291	0	332
-0.649	6.311	16397	16145	0	332
-5.914	3.101	16396	16016	0	332
-9.268	0.541	16397	15952	0	332
-10.674	-1.154	16396	15912	0	332
-12.225	-2.344	16397	15864	0	332
-13.018	-5.013	16397	15806	0	332
-17.743	-8.979	16396	15753	0	332
-19.257	-12.009	16396	15711	0	332
-19.077	-12.405	16395	15671	0	332
-16.156	-11.432	16395	15618	0	332
-15.182	-9.088	16394	15567	0	332
-14.028	-9.520	16394	15540	0	332
-15.723	-10.133	16394	15552	0	332
-14.749	-8.114	16394	15614	0	332
-10.783	-3.029	16394	15692	0	332
-8.475	1.479	16394	15732	0	332
-8.042	3.210	16394	15728	0	332
-9.520	-0.721	16393	15686	0	332
-14.858	-4.977	16392	15635	0	332
-16.877	-9.340	16391	15614	0	332
-17.057	-11.323	16391	15652	0	332
-17.670	-11.071	16391	15739	0	332
-13.631	-10.674	16391	15804	0	332
-13.235	-8.078	16390	15785	0	332
-11.071	-7.393	16389	15705	0	332
-11.251	-5.085	16388	15635	0	332
-14.713	-6.455	16387	15603	0	332
-15.579	-9.124	16385	15563	0	332
-20.050	-13.091	16384	15465	0	332
-23.332	-19.906	16382	15349	0	332
-27.984	-25.856	16381	15298	0	332
-30.617	-31.049	16380	15328	0	332
-32.456	-33.033	16379	15393	0	332
-32.636	-30.436	16378	15463	0	332
-32.239	-29.895	16377	15529	0	332
-32.997	-29.571	16376	15605	0	332
-33.285	-30.941	16376	15709	0	332
-32.889	-31.302	16376	15842	0	332
-30.761	-30.436	16375	15974	0	332
-30.004	-31.085	16375	16080	0	332
-31.302	-31.518	16375	16183	0	332
-33.754	-34.980	16375	16304	0	332
-34.908	-36.747	16375	16415	0	332
-34.403	-35.449	16375	16502	0	332
-32.600	-35.233	16375	16551	0	332
-30.833	-35.016	16374	16576	0	332
-32.997	-35.016	16375	16610	0	332
-34.223	-36.278	16374	16680	0	332
-36.711	-37.360	16375	16767	0	332
-37.865	-38.334	16375	16818	0	332
-38.983	-39.416	16375	16826	0	332
-39.163	-40.786	16375	16835	0	332
-41.363	-42.157	16375	16868	0	332
-42.193	-39.199	16376	16915	0	332
-41.652	-40.173	16376	16926	0	332
-42.120	-41.147	16376	16898	0	332
-41.507	-42.373	16376	16858	1	316
-43.022	-43.779	16376	16818	0	316
-44.392	-44.933	16376	16782	0	316
-46.340	-45.835	16375	16733	0	316
-48.431	-45.943	16375	16665	0	316
-50.884	-46.376	16374	16580	0	316
-50.343	-46.412	16373	16470	0	316
-50.775	-44.104	16373	16376	0	316
-47.349	-43.058	16374	16403	0	316
-46.953	-42.697	16374	16530	0	316
-48.107	-45.330	16374	16566	0	316
-52.218	-47.422	16373	16470	0	316
-57.447	-50.559	16372	16357	0	316
-56.726	-52.146	16371	16270	0	316
-54.165	-48.107	16370	16202	0	316
-50.739	-46.087	16370	16156	0	316
-48.395	-42.914	16369	16096	0	316
-47.746	-41.219	16368	16018	0	316
-52.362	-44.392	16368	15980	0	316
-55.716	-48.503	16367	16014	0	316
-59.358	-51.172	16367	16073	0	316
-58.132	-51.388	16367	16103	0	316
-56.798	-51.677	16366	16077	0	316
-54.598	-47.494	16366	16037	0	316
-51.388	-46.232	16365	16031	0	316
-52.903	-46.159	16364	16054	0	316
-53.300	-46.087	16364	16075	0	316
-53.264	-46.159	16363	16080	0	316
-50.054	-46.268	16363	16092	0	316
-47.205	-44.248	16362	16126	0	316
-43.563	-41.255	16362	16181	0	316
-37.685	-38.839	16362	16232	0	316
-34.331	-34.944	16362	16232	0	316
-31.590	-32.672	16361	16183	0	316
-33.754	-32.420	16359	16094	0	316
-37.468	-32.997	16357	15944	0	316
-42.878	-36.062	16355	15749	0	316
-47.313	-37.613	16353	15592	0	316
-49.513	-39.488	16352	15506	0	316
-48.287	-39.452	16349	15429	0	316
-47.782	-40.065	16347	15324	0	316
-49.585	-41.940	16345	15232	0	316
-48.828	-43.455	16343	15220	0	316
-51.533	-43.238	16342	15294	0	316
-50.198	-41.399	16341	15408	0	316
-48.431	-39.488	16340	15552	0	316
-49.261	-41.543	16340	15720	0	316
-48.323	-45.618	16340	15908	0	316
-52.651	-51.172	16340	16120	0	316
-53.444	-53.480	16341	16334	0	316
-54.454	-52.651	16341	16496	0	316
-54.814	-52.867	16341	16616	0	316
-57.880	-53.264	16342	16760	0	316
-59.538	-56.978	16343	16947	0	316
-60.548	-57.843	16344	17133	0	316
-60.512	-56.401	16345	17275	0	316
-59.683	-55.788	16347	17385	0	316
-61.450	-55.608	16348	17527	0	316
-67.833	-60.728	16350	17656	0	316
-73.494	-65.813	16351	17718	0	316
-77.028	-69.275	16352	17752	0	316
-78.146	-66.931	16354	17785	0	316
-75.694	-62.604	16355	17821	0	316
-74.829	-60.188	16357	17883	0	316
-75.406	-61.918	16359	17970	0	316
-76.992	-65.453	16361	18035	0	316
-75.730	-69.383	16363	18057	0	316
-74.793	-66.210	16365	18063	0	316
-72.665	-63.541	16367	18078	0	316
-75.009	-61.594	16370	18114	0	316
-79.300	-67.003	16372	18158	0	316
-87.523	-75.153	16374	18160	0	316
-88.640	-80.454	16377	18114	0	316
-87.054	-79.084	16379	18071	0	316
-79.589	-72.593	16381	18067	0	316
-72.701	-65.489	16384	18071	0	316
-71.763	-64.803	16385	18033	0	316
-74.360	-67.616	16387	17951	0	316
-79.950	-73.134	16389	17843	0	316
-82.366	-74.360	16390	17675	1	316
-80.599	-73.567	16391	17417	0	316
-81.753	-72.629	16391	17125	0	316
-83.628	-73.927	16391	16896	0	316
-86.621	-75.514	16392	16733	0	316
-89.614	-76.776	16393	16589	0	316
-86.765	-74.865	16393	16449	0	316
-83.628	-71.944	16393	16321	0	316
-80.454	-69.203	16394	16196	0	316
-78.687	-67.292	16394	16050	0	316
-78.146	-65.417	16393	15887	0	316
-75.514	-61.918	16394	15781	0	316
-74.829	-60.224	16395	15804	0	316
-76.488	-60.548	16396	15893	0	316
-78.868	-63.577	16396	15897	0	316
-80.815	-65.380	16395	15783	0	316
-81.248	-68.338	16395	15624	0	316
-76.956	-63.217	16394	15499	0	316
-69.852	-58.312	16394	15442	0	316
-63.145	-53.083	16394	15423	0	316
-59.142	-46.556	16393	15379	0	316
-56.690	-46.195	16392	15294	0	316
-53.624	-45.835	16392	15252	0	316
-52.723	-44.140	16391	15290	0	316
-47.097	-42.625	16391	15366	0	316
-45.510	-42.806	16391	15436	0	316
-49.189	-44.537	16391	15474	0	316
-52.218	-47.241	16391	15495	0	316
-56.762	-51.172	16390	15540	0	316
-52.939	-51.424	16390	15614	0	316
-50.739	-47.674	16390	15696	0	316
-45.402	-44.501	16390	15745	0	316
-43.851	-42.229	16389	15751	0	316
-43.743	-39.488	16389	15751	0	316
-45.799	-39.127	16389	15800	0	316
-45.799	-40.029	16389	15897	0	316
-46.376	-40.209	16389	15984	0	316
-48.395	-43.527	16389	16044	0	316
-46.953	-45.366	16389	16088	0	316
-51.388	-45.979	16388	16084	0	316
-52.326	-49.693	16387	15995	0	316
-54.237	-50.126	16386	15889	0	316
-56.617	-50.487	16385	15842	0	316
-56.221	-52.254	16384	15834	0	316
-54.490	-49.080	16384	15836	0	316
-53.949	-46.881	16383	15855	0	316
-51.208	-46.123	16382	15878	0	316
-51.497	-44.609	16382	15906	0	316
-51.316	-45.150	16381	15929	0	316
-55.067	-46.268	16380	15908	0	316
-55.283	-45.907	16379	15861	0	316
-57.591	-47.999	16379	15912	0	316
-59.358	-52.110	16379	16067	0	316
-61.558	-55.463	16378	16164	0	316
-65.236	-58.601	16377	16135	0	316
-66.751	-60.332	16377	16065	0	316
-67.184	-58.132	16375	16031	0	316
-67.111	-57.843	16375	16052	0	316
-65.741	-55.427	16374	16105	0	316
-64.840	-54.670	16374	16147	0	316
-62.928	-55.391	16373	16166	0	316
-61.594	-54.850	16373	16185	0	316
-62.820	-56.293	16371	16158	0	316
-63.613	-56.762	16370	16050	0	316
-64.840	-57.735	16368	15927	0	316
-64.479	-57.339	16367	15836	0	316
-63.613	-56.690	16365	15800	0	316
-61.738	-57.988	16364	15830	0	316
-60.368	-56.473	16364	15908	0	316
-57.952	-54.598	16363	15997	0	316
-55.031	-52.795	16362	16071	0	316
-49.766	-49.189	16362	16116	0	316
-50.703	-48.395	16361	16141	0	316
-53.300	-50.775	16361	16209	0	316
-58.420	-54.165	16361	16327	0	316
-62.604	-58.493	16361	16432	0	316
-63.145	-58.276	16361	16519	0	316
-60.368	-53.444	16362	16619	0	316
-56.004	-49.730	16362	16754	0	316
-52.903	-47.926	16364	16915	0	316
-54.850	-49.297	16364	17053	0	316
-55.031	-53.552	16364	17072	0	316
-54.814	-53.841	16364	16966	0	316
-51.965	-52.975	16363	16852	0	316
-52.001	-49.730	16363	16799	0	316
-53.660	-52.074	16363	16794	0	316
-58.384	-55.175	16363	16824	0	316
-63.361	-58.529	16363	16824	0	316
-58.420	-55.716	16362	16724	0	316
-51.244	-48.684	16361	16555	0	316
-40.858	-40.786	16360	16415	0	316
-34.800	-35.557	16359	16340	0	316
-34.980	-35.990	16358	16274	0	316
-36.278	-37.757	16357	16166	0	316
-36.351	-37.649	16356	16039	0	316
-33.682	-34.620	16355	15950	0	316
-30.653	-32.636	16354	15936	0	316
-30.292	-31.590	16354	15974	0	316
-33.213	-33.862	16353	16016	0	316
-36.495	-36.639	16353	16031	0	316
-37.649	-36.206	16353	16060	0	316
-34.475	-34.331	16353	16147	0	316
-28.777	-29.751	16353	16255	0	316
-25.027	-26.073	16353	16340	0	316
-23.981	-25.279	16353	16382	0	316
-22.575	-24.811	16353	16411	0	316
-22.467	-23.440	16353	16458	0	316
-21.601	-21.060	16353	16511	0	316
-18.680	-21.024	16353	16553	0	316
-20.123	-20.447	16353	16593	0	316
-19.185	-24.270	16354	16650	0	316
-19.257	-23.909	16354	16729	0	316
-16.192	-20.591	16355	16824	0	316
-16.048	-16.913	16356	16919	0	316
-15.975	-14.930	16357	16989	0	316
-20.880	-18.211	16358	17044	0	316
-22.070	-19.798	16359	17123	0	316
-21.854	-21.781	16360	17235	0	316
-19.113	-19.690	16362	17358	0	316
-18.031	-21.926	16364	17438	0	316
-20.736	-23.188	16365	17419	0	316
-23.476	-25.784	16365	17328	0	316
-25.748	-26.145	16366	17271	0	316
-25.893	-24.270	16367	17273	0	316
-23.224	-21.854	16368	17267	0	316
-22.070	-22.214	16369	17231	0	316
-21.998	-22.972	16370	17186	0	316
-19.870	-22.719	16370	17125	0	316
-19.978	-24.125	16370	17021	0	316
-19.437	-24.270	16371	16883	0	316
-20.267	-24.306	16371	16771	0	316
-21.637	-25.207	16371	16691	0	316
-23.080	-26.109	16371	16574	0	316
-26.037	-27.371	16371	16417	0	316
-26.902	-28.777	16370	16285	0	316
-28.814	-30.869	16370	16196	0	316
-29.282	-30.869	16369	16094	0	316
-27.984	-28.417	16368	15921	0	316
-26.614	-26.614	16367	15732	0	316
-23.621	-23.404	16367	15645	0	316
-21.673	-21.565	16366	15654	0	316
-21.781	-20.844	16365	15603	0	316
-20.050	-20.231	16363	15442	0	316
-20.988	-20.808	16362	15317	0	316
-20.375	-18.211	16361	15304	0	316
-17.779	-17.815	16360	15379	0	316
-15.254	-12.874	16361	15514	0	316
-13.127	-10.278	16361	15684	0	316
-10.927	-8.691	16362	15851	0	316
-11.432	-10.278	16362	16012	0	316
-12.874	-14.281	16363	16190	0	316
-13.451	-19.221	16365	16394	0	316
-15.507	-18.500	16366	16619	0	316
-14.208	-19.077	16368	16811	0	316
-15.651	-19.437	16369	16957	0	316
-17.418	-16.949	16371	17084	0	316
-18.320	-16.841	16373	17205	0	316
-14.425	-11.937	16374	17313	0	316
-9.160	-5.121	16376	17396	0	316
-6.780	-1.587	16377	17455	0	316
-7.970	-1.190	16379	17483	0	316
-12.477	-6.455	16380	17478	0	316
-16.985	-9.773	16381	17449	0	316
-18.031	-13.199	16381	17383	0	316
-15.651	-10.025	16382	17286	0	316
-15.687	-9.520	16383	17182	0	316
-13.523	-8.583	16383	17076	0	316
-12.730	-8.871	16384	16993	0	316
-10.314	-8.727	16385	17004	0	316
-9.629	-8.655	16386	17093	0	316
-13.163	-9.556	16387	17118	0	316
-16.661	-9.412	16388	16991	0	316
-15.362	-9.953	16387	16771	0	316
-12.153	-8.330	16387	16561	0	316
-7.176	-5.013	16386	16407	0	316
-4.219	-2.957	16386	16291	0	316
-4.616	-4.219	16386	16181	0	316
-6.744	-5.698	16385	16065	0	316
-8.583	-4.003	16385	15955	0	316
-8.078	-4.977	16384	15870	0	316
-10.638	-7.898	16384	15819	0	316
-17.634	-12.802	16384	15768	0	316
-21.637	-16.805	16384	15688	0	316
-24.883	-19.654	16383	15601	0	316
-20.519	-14.028	16382	15533	0	316
-13.379	-8.979	16381	15489	0	316
-7.357	-5.878	16380	15457	0	316
-6.167	-4.400	16379	15410	0	316
-9.340	-5.626	16378	15368	0	316
-10.350	-5.734	16377	15370	0	316
-10.278	-3.967	16377	15442	0	316
-8.619	-1.010	16377	15552	0	316
-4.580	2.633	16376	15637	0	316
-0.865	5.554	16376	15681	0	316
3.029	8.943	16375	15698	0	316
6.347	9.809	16374	15692	0	316
5.806	8.475	16374	15677	0	316
1.731	6.058	16373	15698	0	316
-2.885	1.154	16372	15768	0	316
-4.219	-0.252	16372	15859	0	316
-2.164	-0.938	16372	15969	0	316
-1.082	0.036	16373	16090	0	316
-2.236	-2.164	16372	16188	0	316
-5.806	-4.688	16372	16253	0	316
-6.275	-6.275	16372	16298	0	316
-5.986	-5.770	16372	16338	0	316
-3.642	-3.642	16372	16405	0	316
-4.472	-4.688	16373	16557	0	316
-8.943	-7.934	16374	16758	0	316
-14.389	-13.235	16375	16877	0	316
-12.477	-14.100	16375	16852	0	316
-9.881	-9.629	16374	16733	0	316
-4.219	-5.121	16374	16612	0	316
-0.902	-2.128	16372	16521	0	316
0.108	-1.154	16372	16428	0	316
0.613	-1.334	16370	16289	0	316
1.767	-1.298	16369	16109	0	316
4.400	1.767	16367	15965	0	316
5.626	4.796	16366	15904	0	316
4.796	3.714	16366	15908	0	316
2.056	2.633	16364	15923	0	316
1.659	2.344	16364	15908	0	316
1.406	2.957	16363	15889	0	316
4.544	5.085	16362	15900	0	316
7.717	7.681	16361	15906	0	316
7.681	7.285	16360	15878	0	316
5.590	6.491	16359	15834	0	316
3.570	3.787	16358	15828	0	316
0.938	2.344	16357	15870	0	316
1.334	2.236	16357	15933	0	316
2.272	4.147	16356	15993	0	316
5.878	7.104	16355	16037	0	316
11.900	11.684	16355	16080	0	316
17.202	14.569	16355	16137	0	316
21.060	17.346	16355	16232	0	316
19.582	16.336	16355	16368	0	316
17.851	16.372	16355	16470	0	316
13.776	15.074	16354	16451	0	316
15.831	17.887	16353	16332	0	316
17.706	18.716	16352	16245	0	316
21.204	20.772	16351	16247	0	316
21.926	19.401	16351	16266	0	316
21.529	17.021	16349	16211	0	316
18.139	13.956	16348	16090	0	316
17.382	13.523	16347	16010	0	316
16.661	13.704	16346	16010	0	316
19.077	12.117	16345	16050	0	316
17.743	11.143	16345	16103	0	316
19.185	7.321	16344	16166	0	316
16.120	5.950	16344	16243	0	316
17.887	4.652	16345	16372	0	316
17.021	6.599	16346	16619	0	316
15.038	6.491	16348	16960	0	316
11.900	7.176	16351	17241	0	316
8.258	4.400	16352	17368	0	316
7.212	3.931	16352	17385	0	316
10.674	2.777	16354	17387	0	316
15.398	3.967	16354	17417	0	316
19.942	5.842	16356	17468	0	316
21.529	8.979	16357	17527	0	316
25.279	11.540	16358	17578	0	316
28.020	15.146	16360	17622	0	316
29.282	18.320	16361	17671	0	316
28.525	16.949	16363	17728	0	316
28.741	16.805	16365	17781	0	316
28.092	15.651	16367	17798	0	316
30.653	17.490	16368	17777	0	316
32.167	18.320	16370	17733	0	316
32.636	21.168	16371	17690	0	316
30.689	19.654	16373	17652	0	316
27.227	21.457	16374	17599	1	1080
25.532	19.473	16375	17521	0	1080
25.099	18.392	16376	17428	0	1080
22.431	15.038	16378	17362	0	1080
16.913	8.871	16379	17324	0	1080
12.946	2.308	16381	17256	0	1080
6.924	-2.164	16381	17144	0	1080
3.714	-5.445	16382	17029	0	1080
3.967	-5.409	16383	16953	0	1080
7.068	-2.236	16384	16883	0	1080
13.668	3.570	16384	16771	0	1080
17.418	9.268	16384	16616	0	1080
22.791	12.153	16384	16468	0	1080
22.250	14.172	16384	16346	0	1080
21.385	14.100	16384	16232	0	1080
16.877	9.737	16384	16120	0	1080
16.516	10.819	16384	16014	0	1080
16.589	12.730	16384	15904	0	1080
20.591	15.651	16384	15751	0	1080
20.591	20.339	16383	15601	0	1080
21.060	18.608	16383	15580	0	1080
17.238	15.507	16384	15681	0	1080
13.776	8.763	16384	15743	0	1080
13.307	5.806	16383	15684	0	1080
19.582	10.386	16382	15552	0	1080
22.827	13.307	16381	15440	0	1080
23.549	16.192	16380	15387	0	1080
22.539	16.408	16380	15389	0	1080
18.067	10.494	16379	15425	0	1080
17.490	8.258	16379	15457	0	1080
18.536	8.222	16379	15484	0	1080
20.050	9.737	16378	15529	0	1080
20.519	9.953	16378	15599	0	1080
16.552	9.088	16378	15669	0	1080
15.110	5.914	16377	15705	0	1080
17.743	5.337	16377	15739	0	1080
19.582	7.465	16377	15794	0	1080
23.765	8.907	16377	15851	0	1080
24.630	9.556	16376	15885	0	1080
21.781	9.556	16375	15900	0	1080
20.123	9.016	16375	15914	0	1080
23.909	12.766	16375	15961	0	1080
27.732	18.969	16375	16041	0	1080
32.095	22.250	16375	16130	0	1080
33.718	23.116	16375	16188	0	1080
30.761	21.962	16374	16226	0	1080
27.479	15.326	16375	16270	0	1080
25.496	13.091	16375	16340	0	1080
23.909	10.855	16375	16422	0	1080
21.529	8.511	16375	16489	0	1080
21.601	9.124	16375	16528	0	1080
21.096	10.638	16375	16553	0	1080
24.919	12.081	16376	16572	0	1080
29.246	16.985	16375	16578	0	1080
30.581	17.995	16375	16542	0	1080
30.617	20.483	16374	16432	0	1080
28.741	19.762	16372	16266	0	1080
25.712	20.014	16371	16077	0	1080
24.017	17.598	16369	15902	0	1080
23.188	17.454	16367	15775	0	1080
24.342	17.093	16366	15713	0	1080
28.741	20.988	16365	15698	0	1080
28.886	23.188	16364	15696	0	1080
29.968	22.575	16362	15694	0	1080
24.234	20.339	16362	15747	0	1080
21.457	15.795	16363	15895	0	1080
21.168	17.995	16363	16069	0	1080
27.732	22.863	16362	16179	0	1080
36.855	31.230	16362	16228	0	1080
40.353	34.043	16362	16274	0	1080
38.226	32.384	16362	16310	0	1080
34.836	28.381	16360	16213	0	1080
29.210	23.476	16358	15965	0	1080
26.506	21.313	16355	15724	0	1080
26.650	20.880	16353	15607	0	1080
26.614	20.411	16352	15597	0	1080
26.433	21.637	16351	15658	0	1080
29.354	22.899	16351	15756	0	1080
32.348	26.001	16350	15866	0	1080
37.216	30.941	16350	15999	0	1080
40.065	35.557	16350	16141	0	1080
41.652	39.993	16350	16213	0	1080
39.740	41.832	16349	16207	0	1080
40.570	40.786	16348	16211	0	1080
39.812	40.426	16348	16287	0	1080
42.084	39.055	16348	16407	0	1080
42.697	39.308	16349	16561	0	1080
41.291	38.406	16349	16731	0	1080
36.062	34.439	16350	16885	0	1080
30.148	30.184	16351	17010	0	1080
28.777	27.010	16353	17129	0	1080
28.705	25.893	16354	17250	0	1080
34.547	28.994	16355	17353	0	1080
39.596	33.718	16356	17406	0	1080
43.455	37.468	16356	17417	0	1080
42.986	38.226	16357	17408	0	1080
38.442	34.800	16357	17375	0	1080
32.961	28.489	16358	17305	0	1080
27.227	22.935	16358	17201	0	1080
25.893	19.293	16357	17061	0	1080
27.840	22.034	16357	16881	0	1080
29.787	22.611	16356	16686	0	1080
31.590	23.873	16355	16504	0	1080
32.203	25.496	16354	16384	0	1080
33.718	26.361	16354	16327	0	1080
37.072	29.968	16353	16264	0	1080
40.029	34.367	16352	16179	0	1080
40.786	35.954	16353	16147	0	1080
39.812	34.908	16353	16221	0	1080
36.278	33.754	16354	16359	0	1080
35.882	32.420	16354	16477	0	1080
33.429	31.266	16355	16547	0	1080
31.843	31.302	16355	16568	0	1080
28.741	29.174	16356	16570	0	1080
26.866	28.164	16356	16580	0	1080
26.866	27.624	16357	16604	0	1080
28.128	26.361	16357	16621	0	1080
30.184	26.794	16357	16612	0	1080
29.463	25.748	16357	16572	0	1080
28.994	24.450	16357	16487	0	1080
29.391	24.198	16356	16400	0	1080
31.554	26.001	16357	16374	0	1080
31.338	25.171	16357	16376	0	1080
29.102	24.017	16357	16384	0	1080
25.424	21.854	16357	16430	0	1080
23.801	22.467	16358	16538	0	1080
28.020	25.640	16360	16682	0	1080
35.918	32.961	16361	16832	0	1080
41.039	36.891	16363	16943	0	1080
40.786	35.990	16363	16930	0	1080
34.475	31.410	16363	16828	0	1080
30.508	27.876	16364	16775	0	1080
29.643	29.787	16364	16788	0	1080
33.249	34.115	16366	16816	0	1080
36.062	36.891	16366	16845	0	1080
34.836	36.170	16367	16866	0	1080
30.941	32.312	16369	16913	0	1080
28.633	28.669	16370	17057	0	1080
28.201	26.325	16373	17237	0	1080
28.886	26.974	16374	17303	0	1080
28.417	23.837	16375	17245	0	1080
23.152	19.546	16376	17152	0	1080
16.625	17.779	16377	17082	0	1080
15.290	15.687	16378	17032	0	1080
13.704	17.815	16378	16974	0	1080
19.473	19.365	16379	16862	0	1080
21.709	20.916	16378	16701	0	1080
23.729	18.860	16378	16549	0	1080
19.329	16.805	16379	16449	0	1080
16.913	15.290	16379	16400	0	1080
14.930	14.677	16379	16370	0	1080
15.471	13.740	16379	16310	0	1080
17.887	18.139	16379	16253	0	1080
22.467	19.690	16380	16221	0	1080
22.755	23.476	16380	16217	0	1080
23.549	24.486	16381	16232	0	1080
23.404	22.935	16381	16257	0	1080
20.844	23.188	16382	16281	0	1080
21.854	22.106	16383	16315	0	1080
24.558	23.837	16383	16372	0	1080
23.801	26.686	16384	16422	0	1080
23.116	26.506	16384	16434	0	1080
20.880	24.558	16384	16403	0	1080
16.264	21.781	16384	16338	0	1080
15.723	21.132	16384	16260	0	1080
15.038	19.005	16384	16202	0	1080
15.543	20.447	16384	16145	0	1080
15.074	20.087	16384	16067	0	1080
13.668	19.113	16384	15988	0	1080
12.982	16.444	16383	15936	0	1080
11.107	16.084	16383	15925	0	1080
10.602	15.903	16383	15948	0	1080
13.740	20.988	16383	15986	0	1080
15.867	23.981	16383	16005	0	1080
20.627	27.407	16383	16005	0	1080
19.401	29.427	16383	15999	0	1080
17.202	27.984	16383	15980	0	1080
14.966	28.453	16382	15957	0	1080
18.175	30.364	16382	15938	0	1080
22.539	32.925	16381	15914	0	1080
25.424	32.672	16380	15872	0	1080
23.729	30.112	16380	15815	0	1080
16.913	25.424	16378	15726	0	1080
11.973	21.204	16376	15590	0	1080
11.576	19.401	16374	15415	0	1080
14.894	23.260	16372	15239	0	1080
22.142	27.407	16370	15114	0	1080
23.837	31.626	16368	15071	0	1080
22.899	34.764	16367	15105	0	1080
20.808	32.889	16366	15188	0	1080
15.471	28.814	16365	15294	0	1080
12.910	25.243	16365	15448	0	1080
8.835	21.096	16365	15660	0	1080
4.868	16.661	16365	15880	0	1080
-1.082	14.785	16366	16063	0	1080
-6.203	11.973	16366	16200	0	1080
-9.016	9.268	16366	16315	0	1080
-7.501	8.294	16366	16411	0	1080
-5.626	12.117	16366	16483	0	1080
-3.642	12.658	16365	16502	0	1080
-2.813	14.028	16365	16487	0	1080
-7.104	14.821	16365	16479	0	1080
-12.550	9.953	16364	16504	0	1080
-14.497	9.304	16364	16574	0	1080
-16.805	8.655	16364	16663	0	1080
-14.533	10.025	16365	16739	0	1080
-9.953	12.550	16365	16803	0	1080
-7.573	16.480	16366	16883	0	1080
-6.780	16.625	16367	16970	0	1080
-7.357	17.887	16367	17036	0	1080
-10.819	13.054	16368	17055	0	1080
-15.362	10.278	16368	17046	0	1080
-15.867	8.547	16368	17038	0	1080
-18.716	8.294	16369	17038	0	1080
-18.356	10.602	16369	17063	0	1080
-21.132	11.937	16371	17133	0	1080
-21.349	11.323	16372	17224	0	1080
-25.388	8.330	16373	17239	0	1080
-27.227	3.967	16372	17131	0	1080
-29.210	1.262	16372	16957	1	876
-28.958	0.180	16371	16801	0	876
-28.705	2.777	16371	16674	0	876
-25.965	8.439	16370	16521	0	876
-24.089	13.668	16368	16304	0	876
-22.972	12.838	16367	16046	0	876
-23.332	13.163	16365	15819	0	876
-22.214	12.622	16363	15641	0	876
-19.077	14.136	16361	15520	0	876
-16.012	18.464	16360	15451	0	876
-14.172	18.536	16359	15396	0	876
-16.120	16.697	16357	15351	0	876
-18.283	10.855	16356	15334	0	876
-21.024	8.042	16354	15315	0	876
-19.726	7.970	16353	15256	0	876
-18.788	9.845	16351	15184	0	876
-16.552	11.107	16349	15148	0	876
-20.050	9.953	16348	15175	0	876
-22.611	8.042	16347	15275	0	876
-24.198	6.708	16346	15412	0	876
-24.522	7.032	16346	15554	0	876
-21.421	8.042	16346	15709	0	876
-21.132	8.835	16346	15889	0	876
-22.178	6.167	16346	16094	0	876
-27.155	2.777	16347	16291	0	876
-37.144	-4.075	16347	16441	0	876
-43.455	-9.556	16347	16555	0	876
-47.494	-10.891	16348	16665	0	876
-47.313	-7.321	16348	16777	0	876
-43.455	-3.462	16349	16885	0	876
-39.524	1.190	16349	16962	0	876
-38.190	1.587	16349	16981	0	876
-39.957	-1.695	16348	16896	0	876
-43.743	-5.950	16347	16746	0	876
-46.412	-8.511	16347	16646	0	876
-46.845	-7.609	16347	16646	0	876
-45.222	-6.058	16347	16699	0	876
-42.878	-3.642	16347	16748	0	876
-42.806	-1.587	16347	16767	0	876
-44.320	-2.236	16348	16765	0	876
-46.520	-4.760	16348	16813	0	876
-48.539	-5.301	16349	16949	0	876
-46.917	-6.419	16350	17068	0	876
-44.537	-4.147	16351	17070	0	876
-42.806	-1.551	16351	16991	0	876
-42.481	1.731	16351	16928	0	876
-43.455	2.092	16351	16913	0	876
-47.566	0.000	16352	16945	0	876
-53.805	-4.219	16353	17010	0	876
-53.985	-5.878	16354	17078	0	876
-55.644	-6.022	16356	17163	0	876
-53.552	-3.823	16357	17269	0	876
-52.290	-2.669	16359	17349	0	876
-49.802	-0.252	16360	17377	0	876
-48.828	-0.144	16361	17360	0	876
-46.664	0.144	16362	17343	0	876
-44.320	0.180	16364	17347	0	876
-44.825	-0.072	16365	17358	0	876
-46.376	-0.180	16366	17345	0	876
-46.051	0.000	16368	17296	0	876
-48.035	1.118	16369	17228	0	876
-46.340	1.983	16369	17169	0	876
-43.887	4.039	16371	17150	0	876
-42.193	4.400	16372	17150	0	876
-43.851	5.049	16373	17118	0	876
-46.772	1.010	16374	17055	0	876
-51.424	-3.318	16375	16981	0	876
-56.437	-6.455	16375	16862	0	876
-56.293	-7.573	16375	16699	0	876
-55.788	-5.445	16376	16564	0	876
-53.805	-3.606	16376	16494	0	876
-54.057	-3.967	16377	16458	0	876
-58.348	-7.104	16377	16434	0	876
-62.027	-13.704	16378	16428	0	876
-64.948	-15.471	16379	16443	0	876
-66.498	-15.038	16380	16451	0	876
-64.551	-13.956	16380	16380	0	876
-62.423	-11.071	16379	16217	0	876
-61.702	-11.612	16379	16065	0	876
-65.056	-14.677	16378	15967	1	316
-68.446	-14.461	16378	15914	0	316
-68.193	-14.389	16378	15857	0	316
-66.102	-11.540	16377	15739	0	316
-63.361	-9.520	16376	15603	0	316
-59.647	-9.592	16376	15563	0	316
-58.493	-9.016	16376	15609	0	316
-60.260	-6.058	16375	15643	0	316
-57.230	-3.678	16375	15639	0	316
-53.119	-0.793	16375	15628	0	316
-52.254	-1.298	16374	15628	0	316
-52.939	-6.022	16374	15654	0	316
-57.266	-12.550	16374	15717	0	316
-60.909	-16.300	16374	15802	0	316
-62.027	-17.851	16374	15868	0	316
-62.495	-17.166	16374	15906	0	316
-60.512	-14.966	16373	15931	0	316
-62.063	-17.346	16373	15957	0	316
-65.489	-17.923	16373	15974	0	316
-67.328	-20.159	16372	15959	0	316
-69.852	-21.781	16371	15883	0	316
-70.573	-21.204	16370	15781	0	316
-68.878	-21.096	16369	15739	0	316
-66.462	-18.572	16368	15768	0	316
-65.633	-17.670	16367	15804	0	316
-64.226	-13.523	16367	15842	0	316
-63.866	-12.261	16367	15908	0	316
-62.063	-11.179	16367	16012	0	316
-62.351	-10.963	16367	16124	0	316
-63.361	-13.668	16367	16213	0	316
-63.072	-13.884	16367	16274	0	316
-63.613	-13.054	16367	16321	0	316
-61.053	-10.061	16367	16357	0	316
-56.617	-6.671	16367	16392	0	316
-53.372	-3.787	16367	16430	0	316
-53.516	-2.164	16367	16462	0	316
-51.893	-3.210	16366	16485	0	316
-55.680	-6.239	16366	16472	0	316
-57.663	-10.314	16366	16458	0	316
-61.882	-15.074	16367	16549	0	316
-63.577	-16.300	16368	16733	0	316
-63.722	-17.057	16369	16871	0	316
-60.584	-12.261	16369	16879	0	316
-57.483	-9.737	16369	16805	0	316
-54.778	-8.114	16369	16733	0	316
-50.054	-4.904	16369	16699	0	316
-47.133	-3.246	16369	16688	0	316
-44.501	-1.587	16369	16646	0	316
-43.455	-0.649	16368	16566	0	316
-46.195	-2.669	16368	16523	0	316
-49.838	-6.239	16368	16540	0	316
-50.018	-5.013	16369	16570	0	316
-48.648	-0.793	16368	16555	0	316
-44.645	6.058	16368	16494	0	316
-40.570	10.242	16368	16432	0	316
-39.308	10.674	16368	16392	0	316
-39.235	7.789	16368	16376	0	316
-40.137	4.327	16367	16359	0	316
-37.324	7.140	16367	16325	0	316
-34.836	12.405	16366	16232	0	316
-32.853	16.408	16364	16033	0	316
-32.420	15.903	16362	15768	0	316
-35.665	11.432	16360	15540	0	316
-38.983	2.921	16357	15402	0	316
-40.786	-3.967	16356	15338	0	316
-39.524	-6.022	16355	15338	0	316
-37.288	-5.229	16354	15404	0	316
-35.160	-2.777	16354	15516	0	316
-34.728	-1.262	16354	15643	0	316
-36.134	-1.911	16353	15764	0	316
-39.344	-6.816	16353	15895	0	316
-40.353	-9.268	16354	16048	0	316
-41.183	-11.900	16354	16200	0	316
-39.560	-12.297	16354	16319	0	316
-39.849	-11.360	16354	16392	0	316
-41.796	-10.963	16354	16449	0	316
-43.563	-8.691	16354	16492	0	316
-43.383	-7.212	16354	16513	0	316
-42.301	-6.780	16355	16580	0	316
-42.265	-6.563	16355	16733	0	316
-41.796	-8.763	16356	16871	0	316
-43.851	-10.133	16356	16932	0	316
-44.392	-8.727	16357	16960	0	316
-42.048	-5.770	16358	16974	0	316
-40.570	-4.652	16358	16983	0	316
-41.111	-5.662	16358	16974	0	316
-43.058	-9.340	16358	16917	0	316
-45.691	-13.559	16358	16809	0	316
-47.349	-14.966	16357	16693	0	316
-47.530	-17.093	16356	16585	0	316
-43.419	-13.163	16356	16479	0	316
-39.524	-7.789	16355	16380	0	316
-35.521	-4.724	16354	16264	0	316
-34.115	-3.354	16353	16149	0	316
-34.800	-4.327	16352	16077	0	316
-36.855	-7.285	16351	16044	0	316
-34.620	-7.825	16351	16005	0	316
-31.374	-5.878	16350	15952	0	316
-27.876	-3.426	16349	15936	0	316
-29.895	-3.642	16349	15986	0	316
-32.167	-7.212	16349	16099	0	316
-33.934	-8.150	16350	16236	0	316
-31.699	-6.852	16350	16340	0	316
-28.489	-3.426	16351	16413	0	316
-23.909	0.757	16351	16492	0	316
-22.142	4.400	16351	16551	0	316
-23.512	4.400	16351	16574	0	316
-22.791	3.787	16352	16604	0	316
-23.693	1.911	16353	16678	0	316
-26.145	0.433	16354	16780	0	316
-30.364	-1.298	16355	16896	0	316
-31.590	-2.308	16356	17008	0	316
-32.744	-2.056	16357	17097	0	316
-30.040	1.587	16358	17167	0	316
-24.342	4.219	16359	17228	0	316
-18.356	9.484	16361	17275	0	316
-14.461	12.694	16362	17311	0	316
-15.543	14.028	16364	17347	0	316
-17.093	10.855	16365	17381	0	316
-20.375	10.891	16366	17396	0	316
-20.519	10.963	16367	17349	0	316
-18.320	12.766	16367	17231	0	316
-12.261	17.706	16368	17099	0	316
-10.783	19.473	16368	16996	0	316
-9.052	21.962	16368	16911	1	496
-9.052	20.700	16368	16818	0	496
-10.350	21.926	16369	16705	0	496
-14.208	18.897	16369	16604	0	496
-15.182	18.067	16369	16544	0	496
-17.454	16.264	16370	16517	0	496
-15.038	18.644	16370	16466	0	496
-10.566	20.772	16370	16374	0	496
-8.222	21.204	16370	16304	0	496
-10.061	20.952	16370	16293	0	496
-12.586	14.821	16371	16306	0	496
-20.303	10.963	16371	16315	0	496
-24.522	6.311	16371	16300	0	496
-28.850	1.226	16371	16268	0	496
-30.797	-0.325	16372	16234	0	496
-31.843	-2.777	16371	16196	0	496
-29.607	-0.938	16372	16162	0	496
-27.840	1.767	16371	16118	0	496
-26.325	1.659	16370	16003	0	496
-27.479	1.875	16369	15842	0	496
-27.624	1.839	16369	15768	0	496
-25.965	2.416	16369	15802	0	496
-22.070	5.409	16369	15853	0	496
-18.283	9.124	16368	15887	0	496
-13.054	11.900	16369	15921	0	496
-12.694	12.153	16368	15957	0	496
-15.326	10.350	16368	15952	0	496
-18.356	8.402	16368	15900	0	496
-22.467	3.678	16367	15864	0	496
-24.450	2.885	16367	15874	0	496
-20.736	4.111	16366	15893	0	496
-14.533	9.592	16366	15912	0	496
-5.409	14.605	16365	15904	0	496
0.180	18.644	16363	15802	0	496
0.902	19.221	16361	15599	0	496
-1.803	15.615	16359	15421	0	496
-7.285	10.350	16358	15351	0	496
-11.468	4.904	16357	15357	0	496
-14.569	1.587	16356	15406	0	496
-16.408	-2.416	16355	15487	0	496
-21.998	-6.816	16354	15563	0	496
-27.551	-9.881	16354	15648	0	496
-27.660	-10.963	16354	15811	0	496
-26.109	-8.042	16355	16056	0	496
-23.116	-4.291	16356	16300	0	496
-16.084	-0.252	16357	16492	0	496
-13.199	4.003	16358	16642	0	496
-9.484	8.835	16359	16788	0	496
-4.688	11.684	16360	16957	0	496
-1.298	13.487	16361	17123	0	496
-0.577	13.631	16362	17220	0	496
-0.902	12.189	16362	17237	0	496
-0.577	12.838	16364	17250	0	496
-0.469	14.894	16364	17286	0	496
0.361	11.720	16365	17275	0	496
-0.541	10.458	16365	17188	0	496
-2.092	7.537	16365	17080	0	496
-2.596	8.150	16365	16987	0	496
-2.560	11.215	16365	16917	0	496
-0.180	14.894	16365	16885	0	496
1.767	14.749	16366	16890	0	496
2.056	11.251	16366	16877	0	496
0.757	8.511	16366	16839	0	496
-1.298	3.065	16367	16820	0	496
-2.416	1.911	16368	16822	0	496
-1.190	4.580	16367	16773	0	496
2.452	8.222	16367	16655	0	496
4.652	11.396	16367	16538	0	496
4.327	12.982	16367	16477	0	496
2.813	10.783	16367	16453	0	496
0.902	10.566	16367	16443	0	496
3.750	11.973	16367	16424	0	496
7.970	13.054	16367	16396	0	496
14.894	19.041	16367	16355	0	496
20.772	23.116	16367	16270	0	496
25.748	27.660	16366	16154	0	496
30.508	30.833	16366	16075	0	496
30.040	31.735	16365	16018	0	496
29.787	29.571	16363	15864	0	496
27.191	26.938	16360	15582	0	496
27.155	27.335	16359	15338	0	496
29.823	28.092	16358	15288	0	496
31.807	29.823	16357	15398	0	496
31.194	27.515	16357	15548	0	496
27.047	22.539	16357	15669	0	496
19.618	18.247	16357	15760	0	496
16.444	12.658	16357	15855	0	496
15.579	12.658	16357	15980	0	496
18.716	14.605	16358	16130	0	496
20.411	15.579	16358	16274	0	496
21.313	17.202	16359	16390	0	496
17.274	14.677	16359	16511	0	496
14.641	13.595	16361	16661	0	496
11.504	11.360	16362	16820	0	496
11.251	10.025	16363	16955	0	496
13.451	11.612	16364	17044	0	496
12.658	11.612	16365	17099	0	496
15.146	11.504	16366	17146	0	496
14.677	13.451	16367	17207	0	496
14.821	13.451	16369	17273	0	496
18.103	15.038	16369	17275	0	496
17.995	16.120	16369	17140	0	496
19.690	15.002	16368	16904	0	496
20.772	15.254	16367	16712	0	496
17.634	13.054	16367	16608	0	496
17.887	13.884	16367	16525	1	420
17.129	16.300	16367	16439	0	420
22.611	18.536	16366	16357	0	420
25.929	21.854	16366	16279	0	420
30.184	25.279	16365	16209	0	420
31.085	23.945	16364	16145	0	420
28.092	22.575	16364	16084	0	420
25.352	21.601	16364	16020	0	420
23.476	16.625	16362	15923	0	420
21.529	15.362	16361	15811	0	420
18.031	12.946	16360	15745	0	420
16.408	13.740	16360	15732	0	420
16.733	16.300	16359	15715	0	420
18.716	15.759	16358	15658	0	420
21.529	17.129	16357	15601	0	420
21.313	13.668	16356	15614	0	420
21.385	11.612	16356	15709	0	420
20.375	11.937	16356	15859	0	420
21.204	16.192	16356	16027	0	420
22.935	20.880	16357	16202	0	420
23.476	21.962	16359	16428	0	420
24.234	21.890	16361	16710	0	420
19.870	21.096	16363	16981	0	420
20.411	17.959	16365	17201	0	420
20.447	20.447	16367	17368	0	420
19.906	20.736	16369	17514	0	420
22.899	21.060	16371	17652	0	420
21.457	19.870	16373	17773	0	420
20.411	16.733	16375	17853	0	420
20.339	16.552	16377	17862	0	420
20.880	16.697	16378	17779	0	420
24.811	19.618	16378	17656	0	420
28.453	23.476	16380	17584	0	420
29.679	26.433	16381	17588	0	420
29.174	26.794	16383	17591	0	420
27.371	22.827	16383	17489	0	420
24.775	19.690	16384	17305	0	420
21.096	13.559	16384	17167	0	420
18.067	11.756	16385	17118	0	420
17.670	10.097	16386	17078	0	420
17.670	12.297	16387	17017	0	420
22.719	17.310	16388	16949	0	420
26.686	19.654	16389	16888	0	420
30.148	22.178	16390	16847	0	420
31.410	21.709	16391	16849	0	420
28.994	18.933	16393	16890	0	420
28.092	19.113	16394	16900	0	420
26.830	18.031	16394	16816	0	420
26.397	20.916	16395	16667	0	420
27.299	19.798	16395	16538	0	420
28.561	20.736	16396	16460	0	420
29.895	19.510	16396	16392	0	420
30.977	20.772	16395	16274	0	420
31.049	20.664	16395	16099	0	420
30.364	19.834	16394	15931	0	420
29.318	21.890	16394	15828	0	420
28.777	21.385	16394	15775	0	420
29.427	23.801	16393	15728	0	420
29.823	26.217	16393	15667	0	420
29.463	26.506	16393	15641	0	420
26.361	23.909	16393	15662	0	420
23.657	21.818	16393	15684	0	420
21.781	17.670	16393	15692	0	420
22.539	18.031	16392	15690	0	420
25.784	18.860	16392	15694	0	420
26.325	19.654	16392	15722	0	420
26.181	20.231	16392	15775	0	420
25.856	18.716	16392	15834	0	420
25.748	19.185	16392	15870	0	420
25.893	17.202	16392	15880	0	420
25.171	17.021	16392	15893	0	420
25.243	14.605	16392	15952	0	420
25.532	16.516	16392	16046	0	420
31.049	21.854	16392	16116	0	420
38.658	29.210	16393	16149	0	420
42.878	34.620	16393	16185	0	420
41.868	33.754	16393	16245	0	420
35.088	28.092	16394	16327	0	420
30.725	23.585	16394	16384	0	420
28.309	24.306	16393	16357	1	316
31.230	28.273	16393	16238	0	316
32.095	29.931	16392	16132	0	316
30.292	28.525	16391	16084	0	316
26.830	23.549	16390	16052	0	316
25.929	22.250	16390	16035	0	316
27.047	24.378	16390	16041	0	316
31.662	30.220	16389	16031	0	316
34.043	34.908	16388	15963	0	316
33.898	35.882	16387	15866	0	316
32.167	32.564	16386	15802	0	316
30.220	29.895	16385	15775	0	316
31.410	28.273	16384	15722	0	316
32.744	28.056	16383	15641	0	316
35.774	29.138	16382	15595	0	316
39.740	31.302	16381	15612	0	316
38.695	30.653	16380	15684	0	316
35.160	27.263	16379	15747	0	316
31.085	25.784	16379	15785	0	316
28.381	26.001	16379	15876	0	316
31.915	26.866	16379	16044	0	316
35.737	30.725	16379	16215	0	316
38.478	30.328	16379	16327	0	316
36.062	27.696	16379	16376	0	316
31.194	23.080	16379	16403	0	316
25.820	19.906	16379	16453	0	316
24.234	17.166	16379	16523	0	316
25.027	16.444	16379	16576	0	316
26.109	15.507	16379	16604	0	316
25.640	14.028	16379	16633	0	316
24.017	12.730	16379	16686	0	316
25.316	15.651	16380	16752	0	316
26.181	19.329	16380	16809	0	316
32.023	27.010	16380	16835	0	316
38.370	31.410	16381	16845	0	316
42.265	33.141	16381	16860	0	316
40.894	29.282	16381	16896	0	316
40.245	25.063	16382	16940	0	316
36.206	23.621	16382	16953	0	316
32.636	21.529	16383	16930	0	316
30.653	22.683	16383	16888	0	316
29.210	24.270	16383	16835	0	316
33.357	26.181	16383	16784	0	316
39.993	30.833	16383	16756	0	316
45.943	35.449	16384	16750	0	316
52.434	36.351	16383	16714	0	316
47.530	33.285	16383	16612	0	316
42.084	28.705	16382	16468	0	316
36.567	25.784	16381	16351	0	316
34.223	25.893	16381	16260	0	316
35.016	27.912	16380	16179	0	316
35.810	29.895	16379	16103	0	316
36.423	29.607	16378	16037	0	316
33.862	27.263	16378	15980	0	316
33.357	25.460	16377	15925	0	316
35.052	26.974	16376	15834	0	316
38.298	30.040	16374	15673	0	316
41.075	33.898	16371	15499	0	316
38.983	32.961	16370	15417	0	316
34.331	30.508	16369	15391	0	316
28.886	26.181	16366	15279	0	316
25.027	22.755	16363	15069	0	316
25.676	22.755	16361	14913	0	316
27.479	27.155	16359	14891	0	316
29.138	28.092	16358	14968	0	316
28.922	28.056	16357	15101	0	316
27.696	27.587	16356	15271	0	316
27.804	26.542	16356	15470	0	316
28.633	27.660	16356	15694	0	316
30.508	29.318	16357	15942	0	316
32.853	30.689	16357	16207	0	316
34.511	28.705	16358	16479	0	316
34.908	26.722	16360	16733	0	316
35.737	25.965	16361	16957	0	316
36.351	28.201	16363	17176	0	316
35.737	30.761	16365	17406	0	316
34.439	32.239	16367	17639	0	316
29.174	30.581	16369	17830	0	316
25.135	25.676	16370	17915	0	316
20.808	20.014	16372	17913	0	316
21.493	17.454	16373	17927	0	316
22.575	19.185	16375	17991	0	316
24.162	20.844	16377	18054	0	316
25.460	25.748	16379	18112	0	316
27.191	26.722	16381	18162	0	316
27.191	26.181	16383	18184	0	316
27.083	26.397	16384	18190	0	316
26.253	24.811	16387	18273	0	316
25.243	21.854	16391	18438	0	316
23.693	20.087	16394	18548	0	316
24.450	19.005	16397	18539	0	316
26.578	20.087	16399	18484	0	316
24.053	23.837	16402	18486	0	316
23.621	23.260	16406	18544	1	372
21.529	21.745	16409	18556	0	372
16.913	20.159	16411	18467	0	372
14.461	16.120	16414	18304	0	372
12.730	16.264	16415	18120	0	372
15.254	15.254	16417	17929	0	372
17.346	17.057	16419	17724	0	372
22.539	17.634	16420	17491	0	372
23.188	18.392	16420	17224	0	372
21.601	19.113	16421	16955	0	372
18.247	17.634	16422	16710	0	372
16.336	16.048	16422	16498	0	372
18.500	17.995	16422	16304	0	372
21.673	20.050	16422	16080	0	372
28.092	24.522	16420	15781	0	372
29.931	26.109	16419	15455	0	372
29.499	26.037	16418	15224	0	372
27.263	25.027	16418	15110	0	372
26.470	23.981	16417	15031	0	372
26.902	24.522	16416	14970	0	372
30.364	27.227	16416	14944	0	372
35.016	29.859	16416	14963	0	372
39.452	30.004	16416	15031	0	372
40.137	28.237	16416	15110	0	372
42.120	27.191	16415	15116	0	372
42.589	27.299	16414	15035	0	372
42.048	29.823	16413	14970	0	372
43.671	31.735	16412	14968	0	372
43.166	34.079	16411	14980	0	372
42.120	32.816	16410	14989	0	372
37.577	29.174	16410	15002	0	372
34.403	27.119	16409	15019	0	372
32.636	25.712	16408	15076	0	372
31.735	24.125	16409	15260	0	372
32.961	21.277	16409	15542	0	372
34.656	21.493	16410	15764	0	372
34.800	21.385	16409	15849	0	372
33.646	23.008	16409	15855	0	372
34.511	27.047	16408	15857	0	372
34.259	30.941	16408	15872	0	372
35.593	31.085	16407	15897	0	372
36.819	29.427	16406	15916	0	372
36.891	27.443	16405	15893	0	372
36.062	26.542	16404	15813	0	372
36.026	26.758	16402	15692	0	372
37.468	29.318	16399	15533	0	372
39.380	31.266	16397	15336	0	372
41.363	30.545	16394	15167	0	372
41.147	29.246	16392	15101	0	372
40.822	28.669	16390	15133	0	372
38.875	28.489	16389	15230	0	372
37.108	29.895	16388	15353	0	372
37.577	30.112	16387	15480	0	372
35.882	31.085	16387	15641	0	372
37.432	30.905	16387	15861	0	372
38.550	30.184	16388	16126	0	372
37.505	26.542	16389	16396	0	372
35.016	24.198	16389	16629	0	372
30.869	22.647	16391	16813	0	372
30.436	24.991	16391	16976	0	372
34.006	29.968	16393	17152	0	372
41.147	34.403	16394	17341	0	372
48.648	36.964	16396	17525	0	372
48.756	35.810	16397	17684	0	372
43.743	34.006	16399	17794	0	372
34.944	28.020	16400	17864	0	372
26.542	21.601	16402	17900	0	372
21.637	17.851	16403	17879	0	372
23.440	15.182	16404	17805	0	372
28.741	20.555	16404	17694	0	372
33.429	25.424	16404	17546	0	372
35.774	27.768	16403	17358	0	372
34.656	27.515	16403	17133	0	372
31.049	23.909	16402	16864	0	372
27.804	20.988	16400	16564	0	372
30.148	25.316	16398	16274	0	372
35.233	30.112	16396	16018	0	372
39.452	35.016	16395	15830	0	372
40.137	35.918	16394	15722	0	372
37.432	33.682	16393	15667	0	372
32.925	27.984	16391	15599	0	372
30.617	26.397	16390	15516	0	372
29.751	26.397	16390	15510	0	372
29.607	26.578	16390	15620	0	372
27.407	24.775	16390	15777	0	372
23.512	22.755	16390	15910	0	372
24.919	24.811	16390	15997	0	372
32.276	30.797	16390	16065	0	372
39.993	37.144	16391	16147	0	372
46.845	43.130	16391	16240	0	372
45.835	42.914	16391	16310	0	372
41.183	37.721	16390	16338	0	372
33.826	31.879	16391	16351	0	372
31.915	30.545	16391	16388	0	372
30.148	28.597	16392	16475	0	372
32.600	29.535	16392	16583	0	372
34.800	30.977	16392	16650	0	372
37.793	34.223	16393	16663	0	372
41.219	37.036	16392	16646	0	372
44.140	37.757	16393	16638	0	372
41.904	36.062	16393	16646	0	372
37.937	31.771	16392	16633	0	372
35.557	26.902	16393	16591	0	372
33.249	25.712	16393	16551	0	372
33.826	30.004	16393	16538	0	372
35.557	31.843	16392	16536	0	372
36.170	33.970	16392	16485	0	372
33.069	29.895	16391	16353	0	372
32.672	28.381	16390	16179	0	372
29.859	24.162	16389	16035	0	372
29.102	23.224	16387	15938	0	372
27.227	22.358	16387	15876	0	372
28.741	23.008	16386	15857	0	372
30.869	25.424	16385	15883	0	372
36.495	26.830	16385	15927	0	372
38.082	28.309	16385	15995	0	372
37.432	26.542	16386	16137	0	372
33.538	25.460	16386	16315	0	372
29.787	24.486	16387	16426	0	372
29.318	26.181	16387	16487	0	372
30.004	28.922	16388	16591	0	372
31.518	27.840	16390	16786	0	372
31.085	27.876	16392	17044	0	372
31.843	27.587	16394	17300	0	372
34.980	28.453	16397	17500	0	372
36.459	31.590	16398	17618	0	372
36.423	31.085	16400	17684	0	372
33.574	30.004	16402	17735	0	372
28.633	27.479	16404	17794	0	372
24.630	24.162	16407	17849	0	372
25.063	21.926	16408	17883	0	372
24.847	23.296	16410	17885	0	372
25.568	22.863	16412	17877	0	372
26.794	23.873	16414	17889	0	372
27.227	26.145	16416	17910	0	372
26.289	27.371	16418	17896	0	372
26.109	25.820	16420	17843	0	372
25.820	25.135	16422	17794	0	372
25.856	23.224	16424	17771	0	372
27.876	23.512	16426	17737	0	372
31.807	28.633	16428	17652	0	372
34.367	31.374	16429	17531	0	372
33.718	31.987	16431	17402	0	372
32.023	29.318	16432	17271	0	372
32.384	25.856	16433	17150	0	372
34.295	24.486	16434	17044	0	372
37.865	27.804	16435	16943	0	372
40.714	29.823	16436	16816	0	372
37.468	29.679	16436	16657	0	372
33.574	27.407	16436	16489	0	372
30.725	25.388	16437	16332	0	372
30.256	24.847	16437	16188	0	372
31.338	23.368	16437	16044	0	372
31.879	21.024	16436	15855	0	372
32.095	22.070	16435	15662	0	372
32.528	22.358	16436	15597	0	372
34.259	27.335	16436	15667	0	372
34.115	30.364	16437	15730	0	372
32.131	29.138	16437	15703	0	372
29.246	24.162	16436	15616	0	372
26.542	18.933	16436	15544	0	372
27.479	19.293	16436	15510	0	372
29.391	19.906	16436	15510	0	372
31.735	24.630	16436	15529	0	372
33.357	26.289	16435	15533	0	372
34.656	27.876	16435	15525	0	372
35.485	29.643	16435	15531	0	372
37.505	30.400	16435	15565	0	372
39.812	31.194	16434	15601	0	372
37.505	32.708	16434	15624	0	372
38.009	31.158	16434	15650	0	372
34.692	32.023	16434	15700	0	372
33.213	31.158	16434	15775	0	372
33.538	30.581	16434	15851	0	372
34.583	29.282	16434	15902	0	372
36.351	29.607	16434	15929	0	372
36.567	30.400	16433	15952	0	372
41.219	34.079	16433	15997	0	372
44.861	38.442	16434	16056	0	372
46.520	41.760	16433	16094	0	372
47.169	41.760	16433	16105	0	372
44.212	38.622	16433	16116	0	372
40.678	34.764	16433	16141	0	372
38.622	31.843	16432	16160	0	372
40.101	32.384	16432	16141	0	372
40.606	32.492	16431	16092	0	372
38.695	31.410	16430	16054	0	372
34.547	27.551	16430	16048	0	372
31.915	24.234	16430	16054	0	372
30.689	23.765	16429	16065	0	372
31.410	26.037	16429	16080	0	372
34.331	28.417	16428	16082	0	372
34.944	29.895	16427	16020	0	372
34.872	31.158	16425	15893	0	372
33.429	31.013	16424	15770	0	372
32.492	30.148	16423	15703	0	372
31.590	28.453	16421	15664	0	372
29.318	26.109	16419	15590	0	372
27.984	22.322	16417	15495	0	372
24.666	20.952	16416	15495	0	372
22.683	19.726	16415	15576	0	372
22.034	18.716	16414	15573	0	372
21.349	20.519	16411	15459	0	372
22.755	22.106	16410	15357	0	372
22.358	26.686	16408	15383	0	372
12.766	29.571	16408	15520	0	372
-1.298	27.515	16408	15705	0	372
-19.978	25.676	16408	15883	0	372
-30.184	23.044	16407	16039	0	372
-27.624	24.053	16407	16147	0	372
-12.117	25.820	16406	16139	0	372
10.746	28.273	16404	16024	0	372
24.847	30.148	16402	15921	0	372
29.968	28.273	16400	15893	0	372
28.128	27.912	16399	15895	0	372
25.243	28.309	16397	15851	0	372
26.145	26.614	16395	15775	0	372
29.174	25.316	16394	15781	0	372
29.787	21.673	16393	15880	0	372
25.027	15.795	16393	16022	0	372
18.680	11.540	16393	16200	0	372
16.841	10.530	16394	16411	0	372
20.916	12.225	16395	16631	0	372
28.020	20.808	16395	16826	0	372
35.233	26.578	16397	16998	0	372
38.370	31.482	16397	17159	0	372
38.226	32.456	16399	17317	0	372
36.928	31.013	16399	17434	0	372
37.000	30.328	16400	17432	0	372
34.980	27.335	16399	17303	0	372
31.158	25.893	16399	17127	0	372
25.784	23.152	16397	16951	0	372
22.467	23.152	16396	16790	1	928
21.096	22.899	16395	16646	0	928
25.243	25.820	16394	16517	0	928
30.148	29.030	16393	16398	0	928
33.285	30.977	16391	16274	0	928
33.898	29.715	16391	16179	0	928
32.744	28.453	16391	16204	0	928
31.230	26.397	16391	16355	0	928
30.977	26.181	16392	16525	0	928
32.059	23.621	16393	16659	0	928
32.239	24.883	16393	16741	0	928
30.617	24.739	16394	16809	0	928
30.508	23.729	16395	16888	0	928
28.597	22.863	16396	16970	0	928
29.571	22.719	16397	17015	0	928
28.994	22.322	16397	17021	0	928
29.391	20.339	16398	17042	0	928
28.814	22.575	16399	17082	0	928
31.338	24.919	16399	17091	0	928
32.636	27.227	16400	17051	0	928
34.908	29.571	16400	17002	0	928
35.160	29.030	16401	16985	0	928
32.564	28.453	16402	17017	0	928
31.338	23.909	16403	17091	0	928
28.237	20.411	16405	17184	0	928
27.155	20.591	16406	17262	0	928
28.345	21.854	16408	17324	0	928
30.833	25.568	16410	17383	0	928
35.846	30.689	16412	17457	0	928
41.075	33.105	16414	17529	0	928
43.563	35.377	16416	17576	0	928
44.861	36.603	16417	17601	0	928
45.041	37.000	16420	17631	0	928
44.104	36.242	16422	17658	0	928
39.199	35.052	16424	17705	0	928
36.098	31.590	16428	17821	0	928
32.528	28.525	16431	17997	0	928
33.429	27.010	16434	18103	0	928
36.819	29.030	16436	18052	0	928
37.360	28.958	16437	17889	0	928
35.341	29.679	16439	17711	0	928
27.155	27.047	16440	17563	0	928
21.529	21.637	16442	17419	0	928
19.185	22.250	16442	17239	0	928
21.962	22.827	16443	17040	0	928
28.525	28.345	16444	16911	0	928
34.475	33.033	16446	16868	0	928
35.918	35.088	16447	16837	0	928
34.944	35.701	16448	16775	0	928
29.066	33.357	16450	16682	0	928
25.712	31.085	16451	16589	0	928
26.614	28.741	16452	16521	0	928
30.761	28.164	16453	16470	0	928
34.151	29.751	16454	16396	0	928
36.459	30.256	16454	16287	0	928
34.151	31.230	16455	16183	0	928
32.420	28.922	16455	16120	0	928
30.941	27.191	16456	16107	0	928
32.167	24.955	16457	16120	0	928
33.249	23.188	16458	16111	0	928
32.420	24.702	16458	16080	0	928
31.735	23.873	16459	16046	0	928
29.391	23.909	16459	15999	0	928
27.876	22.719	16459	15931	0	928
24.594	16.769	16459	15849	0	928
18.897	14.605	16459	15783	0	928
16.372	11.792	16459	15753	0	928
13.271	14.172	16460	15766	0	928
16.733	17.057	16460	15792	0	928
21.818	22.286	16460	15796	0	928
26.433	22.358	16460	15772	0	928
28.958	24.739	16459	15698	0	928
28.669	23.621	16459	15590	0	928
29.715	26.686	16457	15499	0	928
31.807	30.364	16457	15446	0	928
34.980	34.151	16456	15410	0	928
35.593	33.754	16455	15349	0	928
33.502	29.282	16453	15230	0	928
30.256	25.676	16452	15086	0	928
26.650	21.673	16450	14974	1	316
25.820	23.044	16447	14885	0	316
26.361	26.830	16445	14796	0	316
28.958	27.948	16443	14716	0	316
28.633	27.443	16441	14665	0	316
27.840	25.712	16440	14673	0	316
25.207	22.972	16438	14760	0	316
20.880	19.257	16437	14906	0	316
16.841	17.418	16436	15046	0	316
12.910	12.189	16434	15127	0	316
11.756	10.422	16433	15194	0	316
12.477	10.999	16432	15317	0	316
13.235	11.179	16432	15497	0	316
13.812	13.884	16432	15688	0	316
15.326	13.848	16431	15853	0	316
12.910	10.927	16431	15997	0	316
13.812	10.999	16431	16149	0	316
15.435	11.900	16431	16315	0	316
17.670	12.730	16431	16462	0	316
21.457	17.057	16431	16568	0	316
25.820	18.536	16431	16661	0	316
29.030	22.358	16432	16780	0	316
32.853	25.135	16433	16896	0	316
36.495	27.407	16433	16976	0	316
37.757	30.508	16433	17057	0	316
38.226	29.931	16434	17165	0	316
38.370	31.590	16435	17286	0	316
37.000	30.977	16436	17400	0	316
34.944	30.869	16437	17495	0	316
34.980	28.489	16438	17555	0	316
35.377	28.489	16440	17578	0	316
36.206	28.994	16440	17576	0	316
40.822	31.843	16441	17529	0	316
43.238	34.583	16441	17434	0	316
42.084	34.692	16441	17320	0	316
38.658	32.780	16442	17220	0	316
35.521	30.725	16442	17118	0	316
33.718	29.030	16441	16955	0	316
34.728	27.515	16441	16763	0	316
38.118	28.741	16441	16684	0	316
37.541	27.804	16441	16727	0	316
36.242	27.948	16441	16748	0	316
35.557	28.633	16441	16667	0	316
37.252	30.400	16441	16525	0	316
40.642	33.754	16440	16392	0	316
45.402	36.459	16440	16315	0	316
48.035	38.154	16440	16279	0	316
47.710	39.308	16439	16236	0	316
46.917	39.957	16439	16156	0	316
45.150	40.065	16438	16063	0	316
42.697	39.704	16437	15969	0	316
42.950	39.776	16436	15876	0	316
43.635	37.973	16435	15806	0	316
45.366	36.855	16434	15753	0	316
46.845	38.118	16433	15713	0	316
48.684	39.885	16433	15700	0	316
48.648	39.957	16432	15732	0	316
45.438	39.812	16432	15794	0	316
41.652	35.954	16432	15855	0	316
36.098	30.220	16432	15904	0	316
29.859	22.142	16431	15927	0	316
23.873	18.211	16430	15874	0	316
21.385	14.894	16428	15751	0	316
24.414	18.464	16427	15654	0	316
27.876	21.745	16425	15626	0	316
30.761	26.217	16425	15645	0	316
31.699	26.073	16424	15696	0	316
27.804	24.017	16423	15766	0	316
23.981	21.132	16423	15815	0	316
21.637	20.447	16422	15847	0	316
22.395	21.349	16421	15885	0	316
25.063	25.784	16421	15927	0	316
26.397	28.128	16420	15963	0	316
28.453	30.004	16419	15999	0	316
29.607	31.374	16419	16039	0	316
31.158	30.977	16418	16054	0	316
30.220	30.977	16416	15997	0	316
31.122	29.354	16415	15885	0	316
30.869	27.479	16413	15811	0	316
29.318	24.666	16412	15811	0	316
28.453	23.945	16411	15844	0	316
29.463	25.784	16410	15849	0	316
29.030	25.316	16409	15842	0	316
30.400	24.234	16408	15883	0	316
27.840	22.719	16408	15995	0	316
24.955	18.392	16408	16173	0	316
21.818	14.497	16409	16376	0	316
17.887	11.756	16410	16568	0	316
15.182	10.566	16411	16792	0	316
14.966	9.340	16413	17065	0	316
16.769	11.071	16415	17330	0	316
15.867	13.054	16416	17525	0	316
17.743	13.884	16418	17658	0	316
16.480	12.477	16420	17779	0	316
17.959	13.848	16422	17900	0	316
16.733	13.740	16424	18016	0	316
20.736	16.697	16426	18120	0	316
21.637	18.752	16428	18186	0	316
23.693	22.575	16430	18209	0	316
26.938	24.089	16432	18192	0	316
28.417	26.361	16433	18097	0	316
30.220	28.237	16434	17927	0	316
32.131	28.597	16435	17766	0	316
33.682	29.282	16436	17663	1	412
36.206	29.066	16437	17599	0	412
37.180	29.535	16438	17569	0	412
35.629	29.643	16440	17563	0	412
32.997	31.266	16442	17544	0	412
30.977	31.230	16444	17510	0	412
31.699	33.033	16445	17470	0	412
29.246	31.085	16447	17430	0	412
27.047	27.984	16449	17385	0	412
21.998	22.647	16450	17324	0	412
20.303	19.834	16451	17250	0	412
20.664	18.356	16453	17161	0	412
24.811	24.089	16453	17051	0	412
28.669	27.155	16454	16928	0	412
29.751	29.282	16455	16813	0	412
28.056	28.273	16456	16712	0	412
27.335	26.650	16456	16608	0	412
26.506	27.155	16457	16462	0	412
28.814	28.273	16457	16306	0	412
31.302	31.013	16458	16238	0	412
33.718	32.203	16458	16245	0	412
36.026	33.177	16459	16228	0	412
34.295	33.321	16459	16149	0	412
37.505	34.656	16459	16029	0	412
39.596	34.583	16459	15906	0	412
41.291	34.583	16459	15821	0	412
42.986	33.682	16459	15785	0	412
40.858	31.771	16459	15758	0	412
36.747	29.535	16458	15692	0	412
29.463	23.008	16458	15607	0	412
23.585	18.752	16457	15546	0	412
21.673	14.461	16457	15527	0	412
22.467	16.192	16457	15540	0	412
27.660	18.067	16456	15540	0	412
31.302	20.916	16456	15529	0	412
29.859	20.880	16456	15533	0	412
25.460	16.985	16455	15533	0	412
21.385	14.858	16455	15508	0	412
22.286	15.435	16454	15497	0	412
24.017	16.877	16453	15529	0	412
27.443	20.555	16453	15578	0	412
29.391	21.565	16453	15645	0	412
27.948	21.890	16453	15739	0	412
28.489	25.099	16453	15834	0	412
29.391	24.775	16453	15906	0	412
31.951	26.578	16453	15959	0	412
34.295	27.840	16453	16003	0	412
34.511	27.479	16452	16044	0	412
33.934	25.640	16452	16069	0	412
31.843	26.001	16452	16090	0	412
31.194	25.279	16452	16092	0	412
32.564	25.856	16451	16039	0	412
34.872	28.309	16449	15938	0	412
37.937	30.905	16448	15849	0	412
38.406	30.256	16447	15796	0	412
35.377	29.499	16445	15722	0	412
31.194	26.037	16443	15590	0	412
27.371	21.637	16441	15470	0	412
23.296	18.211	16441	15480	0	412
20.087	16.300	16440	15628	0	412
18.139	12.730	16440	15802	0	412
13.523	10.242	16440	15919	0	412
11.900	8.907	16439	15976	0	412
13.054	9.484	16439	16031	0	412
15.975	12.153	16438	16109	0	412
22.070	18.644	16439	16200	0	412
26.001	19.906	16438	16276	0	412
26.794	22.395	16438	16312	0	412
28.020	21.457	16437	16336	0	412
26.397	22.467	16437	16384	0	412
24.486	24.089	16437	16449	0	412
21.854	24.522	16437	16506	0	412
23.188	25.388	16437	16528	0	412
21.854	25.965	16436	16528	0	412
24.775	27.227	16436	16532	0	412
28.814	27.876	16436	16574	0	412
31.662	29.102	16436	16642	0	412
33.682	29.571	16437	16682	0	412
36.603	30.508	16436	16672	0	412
39.163	32.167	16436	16640	0	412
39.091	33.574	16435	16597	0	412
38.370	31.518	16435	16544	0	412
34.583	28.597	16434	16456	0	412
29.246	23.188	16432	16293	0	412
24.991	19.329	16431	16092	0	412
21.745	16.192	16429	15961	0	412
22.647	17.743	16428	15919	0	412
22.935	18.933	16427	15906	0	412
25.352	22.791	16426	15908	0	412
28.056	25.965	16425	15919	0	412
30.220	29.102	16424	15921	0	412
34.187	32.672	16423	15887	0	412
37.649	36.423	16422	15832	0	412
38.839	36.964	16421	15804	0	412
39.416	36.423	16420	15811	0	412
37.649	34.115	16418	15789	0	412
38.154	33.357	16417	15734	0	412
38.298	34.872	16415	15709	0	412
41.796	39.235	16414	15700	0	412
43.707	41.219	16412	15588	0	412
45.294	43.202	16408	15362	0	412
45.005	39.957	16406	15165	0	412
43.851	41.435	16403	15099	0	412
45.943	42.481	16402	15141	0	412
49.585	46.268	16400	15252	0	412
52.001	49.657	16400	15396	0	412
52.651	48.179	16398	15501	0	412
46.304	40.101	16396	15497	0	412
37.144	30.400	16394	15436	0	412
25.748	20.303	16392	15455	0	412
20.195	15.038	16391	15580	0	412
15.290	13.091	16390	15739	0	412
17.166	13.884	16390	15908	0	412
19.618	17.310	16390	16122	0	412
25.063	19.654	16391	16388	0	412
32.167	23.981	16392	16693	0	412
37.216	26.325	16393	16947	0	412
40.245	30.328	16393	17057	0	412
41.724	31.590	16393	17059	0	412
40.534	32.636	16393	17108	0	412
39.452	33.754	16394	17239	0	412
37.396	32.167	16395	17377	0	412
37.216	29.499	16396	17512	0	412
37.541	30.508	16398	17661	0	412
39.488	31.122	16399	17807	0	412
41.291	35.341	16401	17944	0	412
42.048	36.098	16404	18112	0	412
38.947	34.331	16407	18296	0	412
36.423	30.833	16409	18438	0	412
33.574	27.984	16412	18510	0	412
33.321	27.371	16414	18556	0	412
34.295	29.391	16417	18597	0	412
35.485	29.859	16419	18624	0	412
34.836	31.446	16421	18620	0	412
33.141	30.148	16423	18546	0	412
29.715	26.145	16425	18400	0	412
23.044	20.339	16427	18247	0	412
16.697	12.405	16429	18137	1	548
13.451	8.439	16431	18069	0	548
11.756	7.825	16432	18006	0	548
16.805	13.415	16434	17904	0	548
19.978	18.824	16436	17779	0	548
23.585	20.050	16438	17673	0	548
22.467	20.375	16440	17586	0	548
22.791	19.401	16441	17457	0	548
24.342	19.906	16442	17269	0	548
27.948	23.512	16443	17095	0	548
29.968	24.306	16444	16979	0	548
31.554	23.909	16445	16883	0	548
30.112	23.332	16446	16769	0	548
29.859	22.431	16447	16636	0	548
32.744	25.676	16448	16508	0	548
34.872	30.292	16449	16411	0	548
36.855	31.987	16450	16359	0	548
38.442	31.843	16451	16344	0	548
36.062	29.787	16452	16312	0	548
32.997	25.893	16452	16175	0	548
27.912	24.270	16451	15955	0	548
26.073	21.096	16451	15802	0	548
22.611	21.313	16452	15751	0	548
22.827	21.529	16452	15734	0	548
21.493	19.329	16452	15722	0	548
20.447	20.267	16452	15713	0	548
19.329	19.906	16453	15715	0	548
21.854	22.972	16453	15692	0	548
26.433	26.037	16451	15561	0	548
27.768	27.948	16450	15311	0	548
26.794	26.109	16447	15019	0	548
24.017	21.962	16445	14762	0	548
22.431	20.014	16443	14631	0	548
23.152	19.690	16443	14701	0	548
27.299	24.053	16443	14911	0	548
28.922	25.460	16443	15105	0	548
29.030	23.512	16442	15196	0	548
26.902	23.512	16442	15226	0	548
25.784	21.745	16441	15279	0	548
30.148	24.594	16441	15372	0	548
34.620	30.725	16440	15474	0	548
40.426	35.557	16440	15559	0	548
41.543	36.314	16439	15622	0	548
36.783	33.249	16439	15698	0	548
28.201	26.938	16439	15804	0	548
22.467	20.050	16439	15938	0	548
18.428	18.320	16439	16071	0	548
19.473	16.264	16439	16168	0	548
19.473	18.572	16439	16217	0	548
22.683	19.041	16439	16245	0	548
24.522	20.267	16439	16300	0	548
23.260	20.916	16439	16382	0	548
21.277	20.231	16439	16449	0	548
18.356	20.772	16439	16508	0	548
15.507	19.185	16440	16587	0	548
17.346	22.611	16441	16708	0	548
19.401	23.729	16442	16843	0	548
24.198	25.352	16443	16940	0	548
23.729	27.587	16443	16979	0	548
24.234	28.273	16444	16993	0	548
26.542	27.696	16444	17027	0	548
24.198	25.460	16445	17068	0	548
21.745	22.070	16445	17065	0	548
18.608	18.572	16446	17025	0	548
14.317	15.831	16446	16985	0	548
13.379	18.283	16446	16949	0	548
15.362	20.231	16447	16915	0	548
17.021	22.431	16447	16898	0	548
17.706	22.106	16448	16890	0	548
16.625	21.673	16447	16818	0	548
15.146	17.995	16446	16627	0	548
13.848	19.185	16445	16378	0	548
17.743	19.618	16444	16164	0	548
19.546	23.657	16443	16012	0	548
23.765	26.470	16441	15887	0	548
24.630	26.650	16440	15764	0	548
24.666	24.739	16438	15650	0	548
23.981	24.558	16437	15563	0	548
23.873	24.775	16436	15525	0	548
23.404	23.909	16435	15525	0	548
24.522	24.919	16434	15523	0	548
23.837	26.506	16433	15497	0	548
24.955	25.604	16432	15484	0	548
24.486	26.470	16431	15506	0	548
26.722	27.299	16430	15548	0	548
24.053	26.650	16429	15569	0	548
23.549	22.106	16428	15554	0	548
23.440	20.700	16427	15552	0	548
21.745	18.969	16426	15592	0	548
20.844	16.841	16425	15662	0	548
24.053	20.916	16424	15730	0	548
25.496	25.279	16424	15783	0	548
27.155	28.345	16423	15847	0	548
29.246	30.400	16423	15950	0	548
28.201	28.381	16423	16086	0	548
24.739	25.929	16423	16215	0	548
24.450	23.332	16423	16315	0	548
24.811	23.981	16423	16398	0	548
25.929	26.722	16423	16479	0	548
27.732	28.201	16423	16534	0	548
28.020	29.354	16422	16523	0	548
29.643	27.479	16421	16432	0	548
29.318	25.676	16420	16329	0	548
29.246	21.962	16419	16264	0	548
27.660	21.277	16418	16240	0	548
25.748	23.837	16417	16232	0	548
27.624	26.109	16416	16213	0	548
31.699	29.246	16415	16179	0	548
37.324	32.744	16414	16143	0	548
40.606	32.564	16413	16111	0	548
41.688	32.023	16412	16099	0	548
41.255	31.158	16412	16164	0	548
41.363	31.518	16412	16293	0	548
40.750	33.069	16412	16380	0	548
42.697	33.754	16411	16355	0	548
43.058	36.639	16410	16260	0	548
44.537	36.242	16409	16164	0	548
45.366	37.180	16408	16103	0	548
45.438	35.485	16407	16094	0	548
43.851	33.826	16406	16135	0	548
38.911	29.246	16406	16173	0	548
37.108	25.568	16405	16190	0	548
34.656	21.781	16404	16200	0	548
36.675	22.214	16404	16224	0	548
39.272	23.801	16403	16238	0	548
40.029	25.604	16402	16234	0	548
37.468	24.630	16402	16238	0	548
31.158	21.493	16402	16279	0	548
30.725	21.096	16401	16351	0	548
33.790	22.106	16401	16422	0	548
41.832	25.243	16401	16470	0	548
45.871	29.571	16401	16513	0	548
43.635	28.525	16401	16572	0	548
37.000	24.630	16401	16659	0	548
28.525	17.562	16402	16754	0	548
26.001	15.254	16402	16832	0	548
25.965	14.028	16403	16892	0	548
27.840	16.552	16404	16955	0	548
28.958	19.546	16404	17044	0	548
30.545	22.791	16406	17169	0	548
30.653	22.575	16408	17326	0	548
30.617	22.286	16409	17480	0	548
27.732	21.565	16411	17608	0	548
25.820	18.860	16413	17699	0	548
26.614	20.195	16415	17758	0	548
28.741	20.014	16416	17773	0	548
30.292	21.096	16417	17747	0	548
28.164	18.536	16419	17707	0	548
21.349	15.867	16420	17658	0	548
18.680	12.586	16421	17614	0	548
16.264	13.271	16423	17629	0	548
19.077	13.631	16425	17699	0	548
20.050	13.343	16427	17709	0	548
21.132	13.199	16428	17574	0	548
18.356	11.287	16428	17345	0	548
18.536	10.314	16428	17118	0	548
18.536	11.720	16428	16932	0	548
18.428	12.405	16428	16741	0	548
19.401	12.369	16427	16492	0	548
20.411	15.759	16425	16219	0	548
22.611	16.769	16425	15999	0	548
23.909	20.267	16424	15857	0	548
24.414	21.601	16424	15770	0	548
25.496	23.080	16423	15707	0	548
26.037	23.152	16422	15650	0	548
30.076	23.080	16423	15631	0	548
35.521	24.991	16423	15662	0	548
39.596	27.840	16423	15715	0	548
40.858	29.463	16423	15753	0	548
36.278	30.545	16423	15764	0	548
28.633	27.624	16422	15764	0	548
22.899	24.883	16423	15794	0	548
23.981	22.827	16423	15874	0	548
25.784	22.683	16423	15976	0	548
30.148	25.135	16423	16020	0	548
30.256	26.289	16422	15923	0	548
27.191	25.568	16419	15662	0	548
23.981	22.935	16417	15368	0	548
20.159	20.483	16415	15196	0	548
20.555	17.346	16413	15131	0	548
19.293	18.933	16412	15114	0	548
18.860	20.087	16411	15144	0	548
22.683	21.998	16410	15220	0	548
23.008	21.349	16410	15332	0	548
22.431	17.129	16409	15495	0	548
18.464	13.668	16410	15698	0	548
14.930	11.576	16410	15900	0	548
12.586	9.953	16411	16082	0	548
12.946	12.441	16412	16274	0	548
13.668	14.569	16413	16517	0	548
15.543	13.812	16414	16775	0	548
15.939	14.389	16415	16921	0	548
15.543	12.982	16415	16934	0	548
19.185	13.451	16416	16894	0	548
21.421	17.238	16415	16860	0	548
24.739	20.772	16416	16847	0	548
28.092	24.162	16416	16847	0	548
30.689	25.748	16416	16835	0	548
28.453	22.431	16415	16773	0	548
25.820	17.418	16414	16652	0	548
22.467	16.805	16413	16468	0	548
21.096	16.156	16412	16253	0	548
23.296	17.418	16410	16069	0	548
26.289	20.050	16408	15936	0	548
27.876	21.241	16407	15849	0	548
28.777	20.303	16406	15819	0	548
28.525	23.260	16406	15849	0	548
29.787	25.856	16406	15914	0	548
30.977	26.830	16405	15988	0	548
29.210	26.181	16405	16050	0	548
28.489	24.558	16404	16065	0	548
23.801	19.942	16403	16014	0	548
20.339	18.139	16402	15959	0	548
18.716	13.631	16402	15944	0	548
16.156	11.937	16401	15969	0	548
17.274	11.035	16401	16029	0	548
18.067	11.107	16401	16130	0	548
21.168	14.749	16401	16260	0	548
24.522	15.759	16401	16376	0	548
27.263	19.077	16401	16462	0	548
27.948	18.356	16402	16528	0	548
25.207	20.014	16402	16589	0	548
22.791	18.608	16402	16650	0	548
23.549	20.339	16403	16693	0	548
24.017	21.204	16403	16718	0	548
25.568	21.962	16402	16712	0	548
24.594	20.591	16402	16629	0	548
21.565	16.264	16401	16504	0	548
18.103	14.172	16401	16456	0	548
19.077	13.018	16401	16506	0	548
21.529	14.389	16400	16532	0	548
23.837	18.320	16400	16451	0	548
25.171	19.365	16399	16308	0	548
24.558	20.519	16398	16183	0	548
24.594	18.824	16397	16116	0	548
24.017	19.077	16396	16094	0	548
22.972	16.336	16395	16054	0	548
24.414	17.057	16394	15976	0	548
24.125	16.949	16393	15944	0	548
25.027	20.339	16393	16012	0	548
27.227	21.421	16393	16107	0	548
30.472	23.981	16393	16160	0	548
33.754	27.155	16392	16168	0	548
37.432	30.148	16392	16171	0	548
40.101	31.879	16391	16188	0	548
40.534	32.925	16391	16224	0	548
37.757	31.771	16391	16253	0	548
33.610	28.994	16390	16262	0	548
29.643	25.856	16390	16260	0	548
27.515	25.856	16389	16247	0	548
29.102	24.089	16389	16251	0	548
32.564	24.991	16389	16283	0	548
35.449	27.227	16388	16296	0	548
35.160	27.551	16388	16274	0	548
32.276	26.145	16387	16262	0	548
28.525	23.080	16387	16281	0	548
27.443	23.008	16387	16319	0	548
28.922	22.899	16386	16336	0	548
30.653	22.972	16386	16334	0	548
30.797	25.279	16385	16325	0	548
26.830	21.385	16385	16329	0	548
20.844	17.706	16385	16346	0	548
19.510	16.444	16384	16351	0	548
19.510	15.975	16384	16351	0	548
24.342	17.815	16384	16338	0	548
31.338	22.034	16383	16266	0	548
34.836	27.587	16382	16168	0	548
35.918	30.508	16382	16192	0	548
38.478	32.708	16383	16348	0	548
38.586	33.718	16383	16479	0	548
40.606	33.970	16383	16496	0	548
42.553	34.151	16383	16451	0	548
42.265	34.079	16382	16422	0	548
39.993	31.230	16382	16436	0	548
38.190	28.309	16382	16481	0	548
35.737	27.155	16382	16498	0	548
35.990	27.083	16382	16468	0	548
33.862	28.020	16382	16466	0	548
32.780	26.325	16382	16536	0	548
29.354	23.729	16383	16629	0	548
26.145	20.844	16383	16710	0	548
26.578	20.591	16384	16773	0	548
29.607	25.496	16384	16830	0	548
34.115	29.535	16385	16911	0	548
37.036	31.085	16386	17025	0	548
34.223	28.597	16387	17154	0	548
26.470	23.729	16389	17250	0	548
16.589	13.523	16390	17294	0	548
10.963	10.927	16391	17328	0	548
10.783	9.088	16393	17406	0	548
10.746	9.881	16395	17495	0	548
15.002	13.199	16396	17525	0	548
17.021	14.641	16397	17497	0	548
16.877	18.175	16398	17447	0	548
19.437	18.139	16399	17364	0	548
17.634	19.654	16399	17241	0	548
17.887	18.752	16400	17106	1	1184
18.067	18.644	16400	16981	0	1184
16.805	16.264	16400	16866	0	1184
16.805	16.408	16400	16765	0	1184
16.805	15.146	16401	16686	0	1184
13.776	11.107	16402	16650	0	1184
12.730	11.107	16402	16636	0	1184
10.999	7.934	16402	16574	0	1184
10.746	8.835	16402	16424	0	1184
12.838	11.973	16401	16230	0	1184
14.821	15.218	16401	16071	0	1184
18.356	16.084	16400	15967	0	1184
18.139	16.913	16399	15878	0	1184
17.706	15.362	16398	15762	0	1184
15.795	15.579	16398	15648	0	1184
15.975	13.668	16397	15624	0	1184
15.398	13.704	16397	15684	0	1184
16.336	14.100	16397	15743	0	1184
19.618	14.821	16397	15768	0	1184
24.594	22.214	16397	15766	0	1184
29.174	24.702	16396	15758	0	1184
29.931	27.696	16396	15781	0	1184
27.984	25.171	16396	15840	0	1184
25.316	22.863	16396	15885	0	1184
25.316	21.493	16395	15878	0	1184
27.155	24.089	16395	15853	0	1184
30.328	25.135	16394	15817	0	1184
30.184	26.325	16393	15772	0	1184
28.850	26.578	16392	15739	0	1184
25.965	26.650	16391	15703	0	1184
22.106	24.558	16390	15643	0	1184
20.267	19.762	16388	15554	0	1184
16.913	18.356	16387	15476	0	1184
19.005	14.569	16386	15461	0	1184
21.349	18.320	16385	15493	0	1184
25.820	22.935	16384	15556	0	1184
31.049	29.210	16384	15662	0	1184
33.754	31.987	16384	15813	0	1184
36.062	31.590	16384	15988	0	1184
35.341	30.725	16384	16156	0	1184
32.780	27.984	16384	16266	0	1184
31.230	26.542	16384	16276	0	1184
30.941	28.417	16383	16226	0	1184
32.961	33.249	16383	16204	0	1184
35.160	36.783	16382	16232	0	1184
35.774	36.567	16382	16287	0	1184
32.384	32.492	16382	16353	0	1184
28.128	24.811	16381	16372	0	1184
26.506	19.546	16381	16370	0	1184
29.138	22.575	16382	16470	0	1184
37.901	30.040	16383	16684	0	1184
47.926	40.750	16384	16858	0	1184
50.920	46.556	16384	16902	0	1184
50.162	45.222	16384	16856	0	1184
42.193	38.442	16384	16830	0	1184
32.780	30.472	16384	16860	0	1184
29.391	25.135	16384	16879	0	1184
28.922	24.594	16384	16858	0	1184
31.158	27.371	16384	16811	0	1184
34.583	28.850	16384	16771	0	1184
37.072	28.994	16384	16750	0	1184
37.613	29.859	16384	16741	0	1184
39.704	32.564	16384	16714	0	1184
41.255	34.800	16384	16642	0	1184
43.779	37.000	16384	16574	0	1184
42.770	36.639	16384	16544	0	1184
42.048	35.016	16384	16508	0	1184
41.724	34.151	16383	16451	0	1184
41.111	35.197	16383	16386	0	1184
40.389	36.855	16382	16308	0	1184
37.108	34.295	16381	16234	0	1184
31.843	30.328	16382	16230	0	1184
27.155	26.217	16381	16279	0	1184
24.739	23.873	16381	16317	0	1184
26.902	24.630	16382	16342	0	1184
28.705	28.273	16382	16394	0	1184
30.220	30.761	16383	16483	0	1184
30.977	30.256	16383	16572	0	1184
29.823	31.518	16384	16644	0	1184
30.292	30.797	16384	16708	0	1184
29.174	30.797	16384	16756	0	1184
26.001	30.472	16385	16777	0	1184
21.926	27.624	16386	16773	0	1184
18.247	23.008	16385	16737	0	1184
16.048	19.041	16385	16676	0	1184
14.605	19.185	16385	16597	0	1184
17.202	17.923	16385	16508	0	1184
16.264	19.906	16384	16417	0	1184
17.418	19.906	16384	16325	0	1184
17.093	20.411	16384	16228	0	1184
19.149	21.277	16383	16120	0	1184
19.365	19.978	16381	15957	0	1184
20.916	21.529	16380	15770	0	1184
23.729	21.349	16379	15673	0	1184
23.512	23.044	16378	15688	0	1184
24.558	25.135	16377	15715	0	1184
21.926	22.214	16376	15679	0	1184
18.320	20.014	16375	15584	0	1184
17.093	15.975	16373	15491	0	1184
17.418	16.228	16372	15438	0	1184
21.168	18.031	16370	15427	0	1184
21.132	20.988	16369	15438	0	1184
21.673	17.959	16368	15442	0	1184
16.769	15.903	16367	15436	0	1184
16.228	12.045	16365	15455	0	1184
14.677	13.307	16365	15525	0	1184
18.933	15.939	16364	15609	0	1184
21.998	22.863	16363	15667	0	1184
25.856	26.938	16362	15709	0	1184
29.679	29.102	16361	15777	0	1184
29.968	29.318	16361	15887	0	1184
29.354	26.830	16361	16022	0	1184
25.279	23.657	16361	16141	0	1184
21.781	21.493	16360	16240	0	1184
21.565	22.683	16360	16340	0	1184
21.854	23.080	16360	16426	0	1184
26.902	25.207	16360	16492	0	1184
30.725	28.020	16360	16555	0	1184
34.079	31.374	16360	16636	0	1184
36.314	34.151	16361	16733	0	1184
37.901	37.721	16361	16858	0	1184
37.360	37.937	16363	17006	0	1184
35.377	35.593	16364	17150	0	1184
31.879	32.456	16365	17277	0	1184
31.194	31.951	16366	17394	0	1184
32.456	32.059	16368	17502	0	1184
34.836	32.528	16370	17605	0	1184
37.072	31.626	16371	17697	0	1184
35.593	27.407	16373	17758	0	1184
30.184	23.116	16374	17775	0	1184
25.279	21.096	16375	17722	0	1184
24.991	20.050	16376	17618	0	1184
27.191	23.368	16376	17525	0	1184
31.302	25.063	16377	17485	0	1184
33.934	24.847	16379	17485	1	536
35.124	25.748	16380	17472	0	536
35.124	25.748	16381	17421	0	536
37.036	26.902	16382	17379	0	536
39.993	29.931	16383	17368	0	536
41.760	31.230	16384	17343	0	536
40.786	28.201	16385	17281	0	536
37.613	25.388	16385	17188	0	536
34.331	21.565	16386	17087	0	536
32.564	21.421	16387	17006	0	536
31.843	22.034	16388	16951	0	536
32.095	24.162	16389	16904	0	536
32.672	27.732	16390	16837	0	536
34.439	29.138	16390	16718	0	536
35.882	30.508	16390	16566	0	536
36.603	29.679	16390	16434	0	536
35.774	26.902	16390	16342	0	536
34.367	24.486	16390	16257	0	536
29.968	21.349	16390	16173	0	536
29.859	22.034	16390	16080	0	536
27.083	23.260	16389	15950	0	536
25.279	20.880	16388	15800	0	536
22.395	19.149	16388	15688	0	536
18.680	18.824	16387	15616	0	536
18.644	15.939	16386	15542	0	536
17.274	15.218	16385	15465	0	536
18.320	14.461	16384	15404	0	536
17.382	12.009	16384	15336	0	536
19.546	13.379	16382	15237	0	536
20.087	14.930	16380	15086	0	536
22.503	18.933	16378	14908	0	536
25.171	20.916	16376	14777	0	536
26.433	23.080	16374	14714	0	536
28.453	23.549	16372	14692	0	536
31.410	25.929	16370	14699	0	536
33.934	27.587	16368	14688	0	536
33.934	26.037	16366	14661	0	536
33.285	25.965	16364	14673	0	536
31.302	24.955	16362	14745	0	536
30.617	25.820	16361	14849	0	536
29.030	26.578	16359	14930	0	536
27.732	25.171	16357	14974	0	536
24.017	23.765	16356	15042	0	536
23.801	19.690	16355	15175	0	536
22.286	18.644	16354	15364	0	536
23.440	18.572	16353	15556	0	536
25.676	17.382	16353	15715	0	536
25.784	19.401	16352	15828	0	536
26.073	20.123	16351	15923	0	536
28.020	23.549	16351	16054	0	536
28.814	24.125	16350	16236	0	536
26.506	22.863	16350	16403	0	536
24.089	20.591	16350	16538	0	536
21.818	14.497	16351	16686	0	536
18.464	15.038	16352	16881	0	536
18.031	15.254	16353	17095	0	536
21.349	19.690	16353	17264	0	536
20.627	20.627	16354	17375	0	536
20.411	19.690	16355	17455	0	536
16.192	15.254	16356	17508	0	536
14.317	12.802	16356	17506	0	536
14.064	12.694	16356	17480	0	536
18.139	15.326	16357	17468	0	536
21.385	19.473	16356	17394	0	536
22.719	18.788	16356	17243	0	536
19.582	17.887	16356	17142	0	536
18.500	15.398	16356	17120	0	536
17.526	15.867	16356	17110	0	536
