neuroNicle FX2
D3F25R12
Bluetooth SPP
2023년 6월 6일 화요일
오후 1:29
time interval = 4msec
EEG1	EEG2	PPG	sdPPG	pulse	peak_interval(msec)
-2.993	-0.649	16383	15009	0	316
0.865	3.318	16383	15509	0	316
0.144	6.239	16383	15634	0	316
-0.505	5.698	16383	15759	0	316
-0.974	3.678	16383	16009	0	316
0.252	1.875	16383	16384	0	316
1.479	2.164	16383	16884	0	316
0.793	2.560	16383	17259	0	316
0.180	3.462	16383	17509	0	316
-7.248	0.252	16383	17634	0	316
-12.730	-2.344	16383	17634	0	316
-12.514	-2.092	16383	17384	0	316
-11.864	-0.469	16382	17134	0	316
-8.150	2.236	16382	16884	0	316
-5.445	4.219	16382	16884	0	316
-5.878	1.587	16383	17259	0	316
-6.852	-2.705	16383	17384	0	316
-7.717	-3.029	16383	17384	0	316
-5.157	-0.361	16383	17509	0	316
-2.524	3.787	16383	17884	0	316
-0.361	7.104	16383	18009	0	316
0.793	6.383	16383	18134	0	316
1.226	3.967	16383	18384	0	316
0.433	1.406	16383	18509	0	316
-0.793	0.144	16383	18884	0	316
-0.252	0.036	16383	19384	0	316
1.442	1.875	16383	19634	0	316
2.957	4.724	16383	19759	0	316
4.868	5.409	16383	20009	0	316
3.931	8.547	16383	20009	0	316
1.623	8.078	16383	19634	0	316
2.164	7.717	16383	19259	0	316
3.606	8.006	16383	18759	0	316
7.140	9.304	16383	18384	0	316
8.258	8.150	16383	18134	1	548
5.013	5.337	16383	17884	0	548
-1.551	0.361	16383	17634	0	548
-8.186	-3.534	16383	17634	0	548
-11.648	-8.042	16383	17634	0	548
-12.081	-8.366	16383	17884	0	548
-11.540	-8.150	16384	18259	0	548
-11.107	-8.835	16384	18509	0	548
-14.317	-11.792	16384	18759	0	548
-20.519	-15.182	16384	19009	0	548
-25.063	-20.087	16384	19134	0	548
-29.679	-21.709	16384	19509	0	548
-33.466	-23.260	16384	20009	0	548
-38.009	-27.912	16384	20384	0	548
-42.048	-33.466	16384	20509	0	548
-44.861	-39.019	16384	20384	0	548
-46.232	-42.337	16384	20134	0	548
-43.347	-42.553	16384	19509	0	548
-40.317	-40.101	16384	18634	0	548
-41.219	-40.750	16384	17509	0	548
-44.212	-41.435	16384	16509	0	548
-47.494	-43.094	16384	15634	0	548
-47.566	-40.750	16384	14759	0	548
-45.474	-37.649	16384	14009	0	548
-41.471	-34.367	16384	13759	0	548
-36.855	-33.466	16384	13759	0	548
-34.692	-31.771	16384	13884	0	548
-32.131	-29.607	16384	13759	0	548
-26.866	-26.037	16384	13509	0	548
-21.854	-19.726	16384	13509	0	548
-18.536	-18.103	16384	13759	0	548
-18.933	-16.480	16384	13884	0	548
-19.221	-18.608	16384	13759	0	548
-20.123	-17.959	16384	13509	0	548
-17.166	-17.490	16384	13384	0	548
-14.533	-14.966	16384	13259	0	548
-11.504	-14.208	16384	13259	0	548
-11.323	-13.091	16384	13634	0	548
-15.398	-11.684	16384	14134	0	548
-16.480	-14.389	16384	14509	0	548
-20.555	-14.245	16384	14759	0	548
-19.870	-18.247	16384	14759	0	548
-20.988	-17.490	16384	14509	0	548
-17.526	-17.779	16384	14134	0	548
-16.733	-14.317	16384	14009	0	548
-12.333	-9.232	16384	14259	0	548
-10.927	-6.780	16384	14634	0	548
-10.025	-5.373	16384	15259	0	548
-8.943	-7.825	16384	15884	0	548
-11.576	-9.773	16384	16509	0	548
-12.369	-14.136	16384	17134	0	548
-11.504	-13.848	16384	17759	0	548
-12.009	-11.756	16384	18259	0	548
-11.612	-10.963	16384	18509	0	548
-11.143	-11.360	16384	18634	0	548
-11.468	-10.855	16384	18259	0	548
-12.838	-13.595	16384	17759	0	548
-11.576	-13.992	16384	17384	0	548
-11.648	-13.054	16384	17259	0	548
-9.592	-12.838	16384	17134	0	548
-2.813	-7.645	16384	17009	0	548
4.400	-1.082	16384	16759	0	548
14.389	7.934	16384	16509	0	548
20.339	14.281	16384	16384	0	548
25.279	18.067	16384	16384	0	548
27.948	20.555	16384	16259	0	548
34.079	24.486	16384	16259	0	548
44.825	34.223	16384	16259	0	548
56.149	46.159	16384	16384	0	548
69.383	60.115	16384	16384	0	548
78.255	68.554	16384	16384	0	548
85.719	74.612	16384	16634	0	548
88.388	80.490	16384	16884	0	548
93.004	83.015	16384	17009	0	548
97.908	85.755	16384	17384	0	548
104.327	90.984	16384	17634	0	548
110.746	92.896	16384	17634	0	548
117.202	96.069	16384	17509	0	548
118.680	100.649	16384	17259	0	548
117.166	101.406	16384	16884	1	316
116.192	101.262	16384	16384	0	316
116.120	97.908	16384	15884	0	316
117.634	94.050	16384	15509	0	316
119.654	91.417	16384	15384	0	316
117.887	88.136	16384	15384	0	316
109.845	87.126	16384	15509	0	316
101.334	85.503	16384	15634	0	316
92.968	84.205	16384	16009	0	316
89.831	80.418	16384	16384	0	316
85.900	73.711	16384	16759	0	316
83.448	65.705	16384	17009	0	316
77.461	57.555	16384	17009	0	316
68.301	50.162	16384	17134	0	316
59.755	44.140	16384	17259	0	316
51.497	36.747	16384	17009	0	316
41.760	27.335	16384	16634	0	316
31.843	19.618	16384	16384	0	316
22.070	11.323	16384	16259	0	316
14.245	8.871	16384	15884	0	316
7.176	5.842	16384	15634	0	316
0.865	1.695	16384	15259	0	316
-3.859	-2.957	16384	15009	0	316
-7.285	-8.799	16384	15134	0	316
-12.982	-15.435	16384	15384	0	316
-19.365	-22.178	16384	15384	0	316
-23.945	-25.352	16384	15259	0	316
-30.364	-30.508	16384	15384	0	316
-33.321	-33.213	16384	15634	0	316
-32.853	-34.511	16384	16009	0	316
-32.636	-35.629	16384	16259	0	316
-34.728	-35.701	16384	16384	0	316
-37.793	-36.855	16384	16759	0	316
-43.274	-38.695	16384	17259	0	316
-47.025	-42.734	16384	17634	0	316
-49.080	-43.455	16384	17634	0	316
-49.513	-45.691	16384	17634	0	316
-45.294	-43.274	16384	17509	0	316
-41.111	-43.563	16384	17509	0	316
-41.904	-44.176	16384	17384	0	316
-44.501	-49.730	16384	17259	0	316
-49.802	-52.290	16384	16634	0	316
-51.316	-56.365	16384	16134	0	316
-50.775	-55.716	16384	15634	0	316
-46.628	-55.752	16384	15384	0	316
-46.736	-55.139	16384	15259	0	316
-49.513	-57.952	16384	15009	0	316
-52.470	-62.243	16384	14759	0	316
-54.634	-63.289	16384	14634	0	316
-50.703	-63.469	16384	14759	0	316
-47.277	-59.899	16384	15134	0	316
-44.068	-56.726	16384	15884	0	316
-43.347	-53.191	16384	16384	0	316
-43.563	-51.533	16384	16509	0	316
-41.327	-48.215	16384	16384	0	316
-36.495	-41.616	16384	16384	0	316
-30.220	-36.134	16384	16384	0	316
-25.532	-30.833	16384	16384	0	316
-23.837	-26.686	16384	16259	0	316
-26.145	-26.470	16384	16134	0	316
-28.381	-28.345	16384	16009	0	316
-28.741	-30.400	16384	16009	0	316
-30.220	-32.059	16384	15884	0	316
-29.895	-33.718	16384	15884	0	316
-29.823	-30.653	16384	16009	0	316
-28.164	-26.578	16384	16259	0	316
-25.352	-20.916	16384	16634	0	316
-20.700	-16.841	16384	17259	0	316
-15.723	-12.838	16384	17884	0	316
-13.992	-10.783	16384	18259	0	316
-15.362	-13.559	16384	18509	0	316
-17.454	-14.858	16384	18759	0	316
-21.529	-18.788	16384	19009	0	316
-23.116	-18.067	16384	19134	0	316
-21.313	-17.454	16384	19009	0	316
-20.231	-12.045	16384	18884	0	316
-15.579	-6.491	16384	18759	0	316
-13.379	-4.436	16384	18634	0	316
-10.746	-1.370	16384	18509	0	316
-8.294	-1.767	16384	18259	0	316
-8.186	-4.832	16384	17759	0	316
-8.871	-7.465	16384	16884	0	316
-7.934	-10.278	16384	16134	0	316
-8.547	-10.530	16384	15259	0	316
-10.169	-11.504	16384	14634	0	316
-10.566	-11.215	16384	14134	0	316
-8.511	-7.609	16384	14009	0	316
-6.563	-6.058	16384	13884	0	316
-2.128	-0.757	16384	13634	0	316
1.623	3.210	16384	13384	0	316
2.596	3.534	16384	13134	0	316
1.839	1.803	16384	13009	0	316
-0.865	-0.397	16384	13134	0	316
-0.216	-4.147	16384	13634	0	316
-3.282	-6.527	16384	14259	0	316
-5.698	-6.852	16384	14509	0	316
-8.402	-7.248	16384	14509	0	316
-9.665	-8.006	16384	14634	0	316
-8.907	-8.583	16384	14884	0	316
-7.140	-9.989	16384	15384	0	316
-2.705	-9.701	16384	15884	0	316
-0.902	-6.924	16384	16384	0	316
-2.921	-2.236	16384	17134	0	316
-6.058	0.829	16384	17634	0	316
-9.556	-0.288	16384	18009	0	316
-11.468	-2.344	16384	18009	0	316
-11.107	-5.590	16384	18259	0	316
-2.957	-3.390	16384	18634	0	316
4.508	-0.252	16384	19009	0	316
11.612	3.246	16384	19634	0	316
15.507	4.219	16384	20134	0	316
16.589	2.813	16384	20509	0	316
14.677	1.983	16384	20509	0	316
17.670	3.787	16384	20259	0	316
19.906	4.364	16385	20009	0	316
21.890	4.291	16385	19634	0	316
21.529	2.056	16384	19009	0	316
16.264	-0.974	16384	18509	1	468
13.523	-0.541	16384	18384	0	468
15.002	4.400	16384	18384	0	468
17.706	9.917	16385	18384	0	468
23.621	12.514	16385	18259	0	468
25.929	15.723	16385	18009	0	468
23.837	12.910	16385	17634	0	468
22.214	13.487	16385	17134	0	468
22.503	13.451	16385	16384	0	468
23.476	14.064	16385	15634	0	468
25.352	15.146	16384	14884	0	468
23.909	12.766	16384	14259	0	468
17.815	12.009	16384	13509	0	468
10.999	8.799	16384	12884	0	468
5.337	6.383	16384	12384	0	468
4.039	6.635	16384	12384	0	468
6.852	5.265	16384	12509	0	468
8.799	7.068	16384	12634	0	468
11.900	7.140	16384	12634	0	468
11.612	8.799	16384	12384	0	468
8.402	8.655	16384	12259	0	468
6.671	10.494	16384	12134	0	468
4.003	8.691	16384	12134	0	468
3.173	6.527	16384	12384	0	468
3.029	5.806	16384	12509	0	468
5.554	4.183	16384	12509	0	468
6.635	6.599	16383	12384	0	468
7.862	7.825	16383	12134	0	468
10.061	7.176	16383	12009	0	468
11.107	5.445	16383	12134	0	468
10.566	2.921	16383	12509	0	468
10.927	3.029	16383	13134	0	468
10.350	2.741	16383	14009	0	468
8.979	6.635	16383	14759	0	468
7.465	6.888	16383	15509	0	468
8.511	7.176	16383	16384	0	468
7.537	8.006	16383	17259	0	468
7.681	5.770	16383	18509	0	468
8.439	3.282	16384	19634	0	468
9.340	2.957	16384	20509	0	468
11.684	2.596	16384	21384	0	468
14.858	3.606	16384	22384	0	468
21.060	7.898	16384	23134	0	468
24.775	10.206	16384	23509	0	468
29.354	11.143	16384	23509	0	468
33.610	17.310	16384	23634	0	468
40.065	23.296	16384	23634	0	468
50.703	34.547	16385	23634	0	468
63.722	46.159	16385	23259	0	468
74.035	55.067	16385	22634	0	468
80.923	60.837	16385	22009	0	468
81.753	65.417	16385	21509	0	468
81.789	71.078	16385	21009	0	468
83.880	78.471	16385	20259	0	468
91.489	87.270	16385	19634	0	468
96.935	92.102	16385	18884	0	468
104.616	97.872	16385	17884	0	468
107.753	103.173	16385	16884	0	468
110.133	110.602	16385	16134	0	468
110.855	117.743	16385	15759	0	468
112.261	121.709	16385	15384	0	468
112.730	120.880	16385	15134	0	468
113.595	116.084	16385	14759	0	468
113.271	111.648	16385	14509	0	468
111.828	111.973	16385	14134	0	468
107.285	110.097	16385	13634	0	468
101.442	108.979	16385	13259	0	468
91.814	102.705	16384	13009	0	468
85.215	94.735	16384	13009	0	468
75.261	81.428	16384	12884	0	468
67.075	71.259	16384	12634	0	468
59.322	62.856	16384	12384	0	468
53.228	54.165	16384	11884	0	468
44.897	50.234	16384	11259	0	468
39.452	45.546	16384	10884	0	468
30.581	40.462	16384	10884	0	468
17.779	33.069	16384	11009	0	468
6.491	25.929	16384	11134	0	468
-6.203	15.362	16384	11259	0	468
-14.245	8.511	16384	11384	1	316
-21.168	2.128	16384	11634	0	316
-24.270	-2.993	16384	11759	0	316
-30.112	-5.337	16383	12134	0	316
-35.774	-9.629	16383	12509	0	316
-41.543	-16.697	16383	13009	0	316
-45.510	-22.395	16383	13384	0	316
-47.422	-27.371	16383	13634	0	316
-47.638	-29.535	16383	13884	0	316
-46.304	-26.145	16383	14134	0	316
-47.097	-25.532	16383	14634	0	316
-49.874	-27.624	16383	15134	0	316
-51.208	-32.816	16383	15634	0	316
-54.345	-40.245	16383	16009	0	316
-54.490	-43.707	16383	16384	0	316
-54.201	-41.616	16383	17134	0	316
-52.074	-37.360	16383	17884	0	316
-50.379	-31.843	16383	18509	0	316
-47.061	-26.830	16383	19134	0	316
-41.399	-26.722	16383	19884	0	316
-36.855	-28.201	16383	20634	0	316
-34.836	-31.158	16384	21134	0	316
-33.934	-31.194	16384	21509	0	316
-35.341	-32.276	16384	21634	0	316
-36.098	-30.292	16384	21759	0	316
-34.223	-29.354	16384	21759	0	316
-31.771	-29.715	16384	21634	0	316
-30.040	-29.499	16384	21384	0	316
-31.626	-29.318	16384	20884	0	316
-35.665	-27.479	16384	20259	0	316
-39.488	-27.515	16384	19759	0	316
-39.812	-27.804	16384	19134	0	316
-40.245	-26.830	16384	18509	0	316
-35.990	-25.748	16384	17884	0	316
-35.557	-23.512	16384	17634	0	316
-35.557	-23.188	16384	17384	0	316
-34.944	-21.745	16384	17259	0	316
-32.131	-19.113	16384	17134	0	316
-27.732	-16.408	16384	17134	0	316
-19.906	-12.297	16384	17259	0	316
-15.074	-7.176	16384	17509	0	316
-11.612	-7.104	16384	17884	0	316
-14.785	-7.717	16384	18259	0	316
-17.093	-8.655	16384	18509	0	316
-19.005	-9.268	16384	18384	0	316
-20.591	-10.674	16384	18134	0	316
-18.175	-12.117	16384	18009	0	316
-14.966	-11.071	16384	17759	0	316
-11.900	-12.117	16384	17634	0	316
-8.366	-9.088	16384	17384	0	316
-4.544	-6.347	16384	16884	0	316
-2.885	-4.472	16384	16259	0	316
-6.491	-4.291	16384	15634	0	316
-8.619	-8.511	16384	15009	0	316
-13.018	-11.576	16384	14509	0	316
-14.569	-12.622	16384	14134	0	316
-15.398	-13.631	16384	13759	0	316
-13.415	-11.864	16384	13509	0	316
-9.953	-10.061	16384	13259	0	316
-10.350	-11.251	16384	13009	0	316
-12.514	-14.461	16384	12759	0	316
-16.012	-13.595	16384	12509	0	316
-19.618	-15.435	16384	12259	0	316
-17.454	-13.163	16384	12009	0	316
-14.028	-8.907	16384	11759	0	316
-9.448	-7.573	16384	11884	0	316
-7.753	-7.501	16384	12259	0	316
-10.927	-10.206	16384	13009	0	316
-15.038	-12.261	16384	13884	0	316
-16.733	-14.461	16384	14884	0	316
-19.906	-13.127	16384	16009	0	316
-19.726	-9.592	16384	16759	0	316
-19.401	-10.458	16384	17259	0	316
-19.510	-10.819	16384	17759	0	316
-18.788	-13.127	16384	18259	0	316
-19.726	-17.851	16384	18509	0	316
-18.247	-19.221	16384	18759	0	316
-19.510	-20.808	16384	19134	0	316
-18.608	-19.005	16384	19384	0	316
-19.690	-19.834	16384	19634	0	316
-19.329	-18.067	16384	19884	0	316
-20.519	-17.418	16384	20009	0	316
-18.824	-17.815	16384	20009	0	316
-19.077	-17.274	16384	19884	0	316
-22.106	-18.860	16384	19759	0	316
-22.719	-23.044	16384	19759	0	316
-27.551	-26.830	16385	20009	0	316
-31.194	-29.931	16385	20134	0	316
-29.787	-28.453	16385	19884	0	316
-28.273	-26.325	16385	19384	0	316
-25.424	-23.332	16385	18759	0	316
-23.440	-23.657	16385	18009	0	316
-19.473	-22.827	16385	17509	0	316
-17.995	-23.693	16385	16884	0	316
-17.851	-21.421	16385	16384	0	316
-16.769	-15.903	16385	16134	0	316
-15.867	-12.622	16385	16259	0	316
-15.795	-7.609	16385	16259	0	316
-9.701	-3.967	16385	15884	0	316
-4.868	-0.613	16385	15259	0	316
-2.128	-0.252	16384	14759	0	316
-2.308	-1.442	16384	14259	0	316
-5.157	-3.570	16384	13759	0	316
-6.203	-5.770	16384	13384	0	316
-5.373	-7.393	16384	13509	0	316
-3.642	-4.868	16384	13759	0	316
-3.029	-4.652	16384	14134	0	316
-7.068	-4.400	16384	14134	0	316
-12.369	-7.429	16384	14134	0	316
-13.595	-8.583	16384	14259	0	316
-15.038	-11.468	16384	14634	0	316
-11.251	-10.710	16384	14884	0	316
-6.239	-9.701	16384	15259	0	316
-3.967	-8.258	16384	15384	0	316
-5.409	-8.871	16384	15509	0	316
-3.931	-8.871	16384	15509	0	316
-5.013	-8.475	16384	15259	0	316
-6.203	-7.645	16384	14884	0	316
-5.301	-7.862	16384	14509	0	316
-8.258	-9.232	16384	14009	0	316
-9.881	-10.025	16384	13509	0	316
-10.927	-11.251	16384	13134	0	316
-7.970	-7.898	16384	12884	0	316
-5.265	-3.065	16384	12884	0	316
-2.308	-1.406	16384	13009	0	316
-2.128	-2.633	16384	13009	0	316
0.649	-3.750	16384	12884	0	316
3.282	-4.075	16384	12884	0	316
8.150	-1.551	16383	13009	0	316
9.448	2.669	16383	13509	0	316
7.248	4.075	16383	14384	0	316
1.515	4.183	16383	15259	0	316
-3.967	1.154	16383	16134	0	316
-7.970	-0.974	16384	16759	0	316
-9.052	-3.714	16384	17509	0	316
-9.124	-6.058	16384	18134	0	316
-7.429	-6.203	16384	18509	0	316
-4.508	-6.671	16384	19009	0	316
-0.865	-3.642	16384	19634	0	316
3.101	-1.262	16384	20259	0	316
2.596	-0.397	16384	20634	0	316
-0.036	-2.019	16384	20759	0	316
-5.517	-5.445	16384	20634	0	316
-11.576	-8.222	16384	20384	0	316
-13.740	-9.917	16384	19884	0	316
-15.507	-11.035	16384	19759	0	316
-13.054	-7.825	16384	19759	0	316
-9.809	-6.022	16384	19384	0	316
-6.671	-3.462	16384	19134	0	316
-3.029	1.154	16384	18884	0	316
-1.262	3.282	16384	18634	0	316
-1.731	2.200	16384	18634	0	316
-3.137	-5.590	16384	21384	0	316
-1.803	-2.524	16384	20634	0	316
1.226	-0.938	16384	19884	0	316
3.246	-1.082	16384	19134	0	316
5.914	-2.272	16384	18384	1	552
7.393	-3.173	16384	17509	0	552
7.681	-3.282	16384	16884	0	552
4.868	-3.678	16384	16759	0	552
-2.200	-4.580	16384	16759	0	552
-9.088	-5.229	16384	16759	0	552
-13.054	-6.563	16384	16634	0	552
-14.281	-6.131	16384	16384	0	552
-8.763	-7.248	16384	16009	0	552
-3.065	-4.580	16384	15384	0	552
2.056	-3.787	16384	14634	0	552
2.272	-1.767	16384	14134	0	552
-0.216	-0.325	16384	13759	0	552
-3.462	-0.721	16384	13634	0	552
-3.859	-1.623	16384	13759	0	552
-2.596	-4.327	16384	14009	0	552
-0.288	-5.698	16384	14384	0	552
0.865	-4.868	16384	14759	0	552
1.190	-5.914	16384	15009	0	552
2.344	-2.488	16384	15509	0	552
3.029	0.180	16384	15759	0	552
6.131	4.472	16384	16134	0	552
9.520	7.573	16384	16509	0	552
11.287	10.602	16384	16759	0	552
12.009	10.494	16384	17009	0	552
11.828	9.268	16384	17134	0	552
9.304	6.419	16384	17134	0	552
6.455	6.347	16384	17259	0	552
1.479	4.327	16384	17134	0	552
-6.203	1.442	16384	16759	0	552
-14.497	-1.911	16384	16259	0	552
-16.192	-6.671	16384	15384	0	552
-14.677	-6.491	16384	14634	0	552
-5.770	-5.409	16384	14009	0	552
3.137	-0.613	16384	13384	0	552
7.934	3.750	16384	12759	0	552
7.753	4.436	16384	12384	0	552
3.498	3.282	16383	12009	0	552
-3.282	-1.046	16384	12009	0	552
-7.212	-5.049	16383	12259	0	552
-9.484	-10.855	16383	12634	0	552
-7.862	-11.179	16383	13259	0	552
-5.265	-8.330	16383	14009	0	552
-1.442	-6.167	16383	14884	0	552
-2.164	-1.983	16383	15509	0	552
-2.813	-4.364	16383	16259	0	552
-6.203	-6.347	16383	17134	0	552
-8.763	-7.753	16383	18134	0	552
-8.439	-8.366	16383	18884	0	552
-4.832	-5.445	16383	19384	0	552
-0.216	-4.003	16384	19634	0	552
3.282	-1.154	16384	20009	0	552
3.210	-1.118	16384	20134	0	552
-0.108	-0.144	16384	19884	0	552
-6.022	-1.154	16384	19509	0	552
-9.665	-2.813	16384	19259	0	552
-14.389	-6.924	16384	19134	0	552
-12.838	-9.629	16384	19134	0	552
-12.586	-9.845	16384	19134	0	552
-7.862	-11.107	16384	19384	0	552
-3.101	-6.960	16384	19634	0	552
-0.469	-4.977	16384	19759	0	552
1.226	-3.967	16384	19759	0	552
0.397	-5.301	16384	19384	0	552
1.118	-6.924	16384	19134	0	552
1.587	-8.907	16384	18884	0	552
4.003	-7.970	16384	18634	0	552
5.698	-4.760	16384	18384	0	552
5.085	0.469	16384	18259	0	552
2.019	2.308	16384	18009	0	552
0.505	0.829	16384	17509	0	552
0.505	-1.406	16384	17009	0	552
2.380	-3.498	16384	16509	0	552
7.321	-2.128	16384	16134	0	552
10.999	2.272	16384	15509	0	552
11.540	7.248	16384	14884	0	552
10.999	10.133	16384	14634	0	552
11.612	10.638	16384	14634	0	552
10.855	11.612	16384	14509	0	552
10.458	8.294	16384	14509	0	552
10.169	5.698	16384	14509	0	552
8.511	2.200	16384	14759	0	552
5.662	0.000	16384	15259	0	552
6.780	1.298	16384	15759	0	552
8.727	3.714	16384	16384	0	552
9.845	7.825	16384	16884	0	552
8.655	8.222	16384	17509	0	552
6.058	6.419	16384	18009	0	552
1.947	1.298	16384	18259	0	552
2.560	-1.442	16384	18384	0	552
6.203	-2.885	16384	18509	0	552
11.684	-1.118	16385	18384	0	552
13.343	1.875	16385	18134	0	552
12.658	5.662	16385	17759	0	552
10.422	8.439	16385	17134	0	552
8.727	10.638	16384	16384	0	552
8.294	12.694	16384	15509	0	552
9.629	12.189	16384	14759	0	552
10.891	8.907	16384	14134	0	552
9.845	7.285	16384	13384	0	552
11.973	4.544	16384	12759	0	552
12.766	5.590	16384	12384	0	552
12.189	8.475	16384	12134	0	552
14.605	10.710	16384	12134	0	552
14.930	14.605	16384	12009	0	552
13.343	12.153	16384	12009	0	552
12.261	10.566	16384	12134	0	552
8.439	6.419	16384	12134	0	552
7.140	3.426	16384	12259	0	552
5.806	4.255	16384	12509	0	552
3.859	4.364	16384	13134	0	552
1.010	4.904	16384	13884	0	552
0.361	4.904	16384	14634	0	552
1.118	5.373	16384	15259	0	552
4.364	6.239	16384	15884	0	552
6.996	5.013	16384	16384	0	552
7.862	4.652	16384	17009	0	552
5.085	3.462	16384	17384	0	552
4.291	4.436	16384	17384	0	552
4.219	6.167	16384	17134	0	552
4.796	9.629	16384	16884	0	552
3.029	7.573	16384	16759	0	552
-1.190	3.246	16384	17134	0	552
-1.010	1.695	16384	17384	0	552
-1.298	2.524	16384	17634	0	552
2.416	5.409	16384	17759	0	552
3.823	10.819	16384	18134	0	552
3.426	13.884	16384	18384	0	552
0.397	12.117	16384	18634	0	552
-2.380	10.061	16384	18884	0	552
-3.282	5.373	16384	19259	0	552
-3.210	1.875	16384	19634	0	552
-3.570	-1.731	16384	19509	0	552
-5.590	-4.219	16384	19259	0	552
-9.160	-5.626	16384	19259	0	552
-14.497	-5.914	16384	19259	0	552
-16.012	-6.888	16384	19259	0	552
-16.480	-6.635	16384	19134	0	552
-14.533	-7.862	16384	19009	0	552
-10.061	-9.052	16384	19009	0	552
-9.376	-7.285	16384	18884	0	552
-7.681	-4.580	16384	18509	0	552
-4.327	-0.974	16384	18009	0	552
-2.633	3.137	16384	17384	0	552
-2.813	4.616	16384	16759	0	552
-3.823	2.777	16384	16384	0	552
-4.832	2.741	16384	16009	0	552
-1.442	1.010	16384	15384	0	552
2.092	2.885	16384	14759	0	552
4.904	6.022	16384	14384	0	552
4.652	9.629	16384	14009	0	552
-0.288	11.432	16384	13884	0	552
-4.183	13.884	16384	14009	0	552
-3.750	12.622	16384	14259	0	552
-2.128	10.927	16384	14384	0	552
1.515	7.970	16384	14384	0	552
4.364	4.291	16384	14259	0	552
6.816	2.308	16384	13884	0	552
5.770	0.865	16384	13759	0	552
3.173	0.325	16384	14009	0	552
-1.875	-1.515	16384	14759	0	552
-5.950	-4.003	16384	15509	0	552
-8.511	-7.681	16384	16259	0	552
-10.674	-10.891	16384	16759	0	552
-8.763	-13.199	16384	17384	0	552
-6.275	-12.982	16384	17634	0	552
-5.770	-12.441	16384	17384	0	552
-4.508	-9.701	16384	17009	0	552
-7.573	-8.006	16384	16509	0	552
-9.376	-6.924	16384	16134	0	552
-10.386	-6.167	16384	15759	0	552
-8.402	-7.934	16384	15384	0	552
-2.741	-7.429	16384	15134	0	552
0.938	-7.176	16384	14759	0	552
1.010	-4.724	16384	14509	0	552
0.433	0.865	16384	14384	0	552
-1.623	4.111	16384	14509	0	552
-1.298	8.222	16384	14759	0	552
0.036	7.032	16384	15259	0	552
2.777	4.147	16384	15634	0	552
5.806	1.082	16384	16134	0	552
5.914	-0.902	16384	16759	0	552
3.895	-0.829	16384	17259	0	552
0.938	2.452	16384	17509	0	552
-0.649	4.364	16384	17759	0	552
-0.757	6.167	16384	18009	0	552
1.262	5.878	16384	18134	0	552
3.426	4.580	16384	18134	0	552
3.137	1.803	16384	18009	0	552
0.649	-1.118	16384	18009	0	552
-4.039	-4.039	16384	18009	0	552
-6.239	-6.996	16384	18009	0	552
-7.970	-6.058	16384	18009	1	768
-8.475	-5.986	16384	17884	0	768
-8.186	-3.642	16384	17759	0	768
-6.780	-1.695	16384	17509	0	768
-4.111	-2.380	16384	17384	0	768
-3.246	-1.731	16384	17009	0	768
-1.082	-2.200	16384	16384	0	768
-0.577	-0.757	16384	15884	0	768
-1.154	1.406	16384	15134	0	768
-2.596	3.390	16384	14384	0	768
-2.164	2.993	16384	13884	0	768
-1.118	1.731	16384	13634	0	768
0.469	-1.046	16383	13509	0	768
2.633	-2.236	16383	13384	0	768
5.481	-1.298	16383	13259	0	768
6.022	0.505	16383	13509	0	768
5.049	3.787	16383	14009	0	768
4.688	6.419	16383	14509	0	768
5.229	6.167	16383	14634	0	768
5.409	6.419	16383	14759	0	768
7.104	1.731	16384	14884	0	768
9.016	-1.442	16383	15134	0	768
9.665	-2.164	16383	15384	0	768
13.199	-0.108	16383	15884	0	768
15.687	4.219	16383	16384	0	768
15.290	8.763	16383	16759	0	768
13.704	9.845	16383	17259	0	768
11.035	6.780	16383	17759	0	768
9.016	6.022	16384	18384	0	768
10.783	4.977	16384	19134	0	768
14.136	6.383	16384	19509	0	768
14.930	10.169	16384	19509	0	768
16.661	11.251	16384	19509	0	768
13.199	12.514	16384	19384	0	768
10.025	10.783	16384	19384	0	768
6.563	7.068	16384	19384	0	768
3.823	5.409	16384	19634	0	768
2.272	1.947	16384	19759	0	768
4.111	1.983	16384	20134	0	768
8.078	4.436	16384	20509	0	768
10.674	7.357	16384	20759	0	768
12.009	9.556	16384	20759	0	768
8.475	8.583	16384	20634	0	768
2.669	8.150	16384	20634	0	768
-2.849	4.868	16385	20384	0	768
-5.806	3.101	16385	20009	0	768
-4.977	5.337	16385	19759	0	768
0.000	7.501	16385	19384	0	768
3.282	9.917	16385	19009	0	768
7.753	14.353	16385	19009	0	768
7.573	14.605	16385	19134	0	768
5.517	16.408	16385	19009	0	768
2.669	15.326	16385	18634	0	768
1.046	14.100	16385	17884	0	768
1.010	10.927	16385	17134	0	768
3.137	10.783	16385	16384	0	768
6.094	10.927	16385	15884	0	768
7.537	14.858	16385	15384	0	768
6.563	16.769	16385	15009	0	768
2.813	17.129	16385	14759	0	768
-0.433	12.045	16385	14759	0	768
-5.878	5.950	16385	14884	0	768
-7.573	-1.406	16385	14759	0	768
-11.504	-5.121	16385	14759	0	768
-13.199	-9.773	16385	14884	0	768
-16.408	-9.124	16385	15009	0	768
-14.425	-7.934	16385	14759	0	768
-13.199	-5.590	16385	14259	0	768
-9.592	-2.416	16385	14134	0	768
-8.402	-2.885	16385	14134	0	768
-8.943	-5.013	16385	14009	0	768
-12.658	-10.602	16385	13759	0	768
-16.120	-13.091	16385	13384	0	768
-16.589	-14.208	16385	13259	0	768
-15.398	-10.638	16385	13134	0	768
-9.268	-4.039	16385	12759	0	768
-5.049	3.246	16385	12509	0	768
-1.334	8.583	16384	12259	0	768
0.649	12.441	16384	12134	0	768
1.803	11.684	16384	12384	1	316
2.416	11.937	16384	12634	0	316
1.767	10.458	16384	12884	0	316
1.370	8.330	16384	12884	0	316
-0.252	9.412	16384	12884	0	316
3.787	10.783	16384	13134	0	316
6.816	11.864	16384	13509	0	316
9.052	13.992	16384	14009	0	316
6.203	11.468	16384	14509	0	316
0.865	7.104	16384	15009	0	316
-6.094	0.974	16384	15259	0	316
-10.422	-2.921	16384	15259	0	316
-10.530	-5.590	16384	15259	0	316
-10.422	-4.868	16384	15384	0	316
-10.278	-4.003	16384	15384	0	316
-10.278	-2.524	16384	15384	0	316
-11.396	-3.065	16384	15384	0	316
-12.405	-4.977	16384	15384	0	316
-12.586	-7.537	16384	15384	0	316
-11.900	-9.232	16384	15634	0	316
-9.917	-6.599	16384	16134	0	316
-5.554	-0.649	16384	16384	0	316
-2.056	6.275	16384	16634	0	316
0.902	11.143	16384	16884	0	316
1.515	13.379	16384	17134	0	316
0.433	9.088	16384	17384	0	316
-0.072	5.517	16384	17634	0	316
1.587	3.498	16384	17884	0	316
4.796	2.885	16384	18134	0	316
5.662	6.239	16384	18259	0	316
5.590	7.717	16384	18384	0	316
1.154	8.439	16384	18509	0	316
-4.688	6.491	16384	18634	0	316
-8.547	4.003	16384	18634	0	316
-11.432	-0.541	16384	18509	0	316
-11.720	-2.705	16384	18259	0	316
-9.701	-5.445	16384	18009	0	316
-7.573	-6.924	16384	17509	0	316
-4.111	-5.049	16384	16634	0	316
-3.570	-3.101	16384	16009	0	316
-3.895	0.469	16384	15509	0	316
-8.114	0.216	16383	15134	0	316
-11.828	-1.154	16383	14759	0	316
-11.973	-3.895	16383	14509	0	316
-7.645	-3.173	16383	14509	0	316
-0.793	-0.505	16383	14634	0	316
4.219	3.967	16383	15009	0	316
6.563	6.275	16383	15634	0	316
4.111	4.291	16383	16384	0	316
1.370	0.685	16383	17134	0	316
1.010	-1.947	16383	17509	0	316
1.875	-2.488	16384	17634	0	316
5.085	-0.685	16384	17634	0	316
7.429	0.685	16384	18009	0	316
8.186	0.505	16384	18634	0	316
4.724	-1.334	16384	19009	0	316
-0.541	-4.183	16384	19259	0	316
-6.996	-4.940	16384	19259	0	316
-12.297	-4.075	16384	19134	0	316
-13.812	-5.409	16384	18884	0	316
-11.107	-6.816	16384	18509	0	316
-9.124	-9.737	16384	18384	0	316
-6.022	-10.927	16384	18384	0	316
-2.452	-11.035	16384	18259	0	316
-1.731	-6.203	16384	18384	0	316
-0.288	-1.226	16384	18384	0	316
0.252	2.236	16384	18259	0	316
-0.721	4.724	16384	18134	0	316
-4.039	5.409	16384	18009	0	316
-5.301	3.678	16384	18134	0	316
-9.845	1.154	16384	18134	0	316
-12.910	-2.488	16384	18009	0	316
-14.569	-5.554	16384	17634	0	316
-17.454	-8.943	16384	17259	0	316
-15.362	-7.934	16384	17009	0	316
-13.379	-4.760	16384	16884	0	316
-10.963	-0.541	16384	16884	0	316
-8.294	1.370	16384	16759	0	316
-7.032	1.515	16384	16384	0	316
-7.898	-1.839	16384	16009	0	316
-9.737	-3.967	16384	15634	0	316
-11.035	-6.527	16384	15384	0	316
-11.828	-7.970	16384	15009	0	316
-13.920	-8.150	16384	14634	0	316
-12.333	-7.248	16384	14134	0	316
-12.802	-5.193	16384	13884	0	316
-12.009	-0.902	16384	14009	0	316
-9.773	-0.325	16384	14509	0	316
-7.357	2.633	16384	14884	0	316
-5.013	2.236	16384	15259	0	316
-2.705	2.056	16384	15259	0	316
-1.406	3.354	16384	14759	0	316
0.865	4.400	16384	14134	0	316
0.938	5.445	16384	13509	0	316
2.344	6.708	16384	13009	0	316
2.308	5.085	16384	12634	0	316
1.298	3.282	16384	12634	0	316
1.334	1.442	16384	12759	0	316
1.046	4.472	16384	13009	0	316
2.921	7.537	16384	13634	0	316
4.075	11.432	16384	14384	0	316
7.681	12.514	16384	15009	0	316
11.792	12.730	16384	15634	0	316
15.074	11.792	16384	16134	0	316
17.202	11.540	16384	16384	0	316
15.074	12.369	16384	16384	0	316
10.783	9.701	16384	16634	0	316
5.337	6.167	16384	17134	0	316
1.298	4.075	16384	17759	0	316
2.056	1.587	16384	17884	0	316
3.859	3.967	16384	17759	0	316
7.285	4.688	16384	17384	0	316
9.016	6.960	16384	17009	0	316
8.691	5.626	16384	16884	0	316
7.537	2.164	16384	16509	0	316
3.823	0.108	16384	16134	0	316
1.659	-0.613	16384	15509	0	316
1.298	-0.252	16383	15009	0	316
1.695	0.433	16383	14634	0	316
3.895	-0.649	16383	14759	0	316
5.662	-1.190	16383	15134	0	316
7.104	-2.560	16383	15759	0	316
5.878	-2.164	16383	16384	0	316
2.957	-2.092	16383	16884	0	316
-1.947	-1.370	16383	17259	0	316
-5.806	-1.551	16384	17634	0	316
-8.439	-0.108	16384	18134	0	316
-8.835	-0.865	16384	18509	0	316
-5.986	-1.767	16384	18509	0	316
-5.590	-5.157	16384	18384	0	316
-7.501	-8.511	16384	18384	0	316
-11.612	-12.946	16384	18509	0	316
-16.156	-15.507	16384	18634	0	316
-18.320	-20.267	16384	18759	0	316
-19.221	-20.519	16384	18509	0	316
-14.785	-21.168	16384	18384	0	316
-11.215	-18.139	16384	18259	0	316
-8.366	-17.634	16384	18384	0	316
-6.816	-13.776	16384	18634	0	316
-5.842	-14.172	16384	18759	0	316
-5.085	-11.973	16384	18759	0	316
-5.770	-9.773	16384	18509	0	316
-6.167	-8.366	16384	18259	0	316
-6.635	-6.924	16384	18134	0	316
-5.554	-3.967	16384	18009	0	316
-4.400	-3.101	16384	17759	0	316
-4.003	-2.200	16384	17259	0	316
-3.606	-2.633	16384	17134	0	316
-4.003	-2.308	16384	17134	0	316
-2.560	-1.190	16384	17259	0	316
2.560	1.406	16384	17384	0	316
5.626	4.688	16384	17634	0	316
5.193	6.924	16384	17634	0	316
5.049	6.563	16384	17259	0	316
1.298	5.950	16384	17009	0	316
-1.587	3.318	16384	17009	0	316
-3.714	0.865	16385	17384	0	316
-5.662	-3.210	16385	17634	0	316
-6.275	-4.508	16385	17634	0	316
-5.986	-4.688	16385	17259	0	316
-5.409	-2.813	16385	16884	0	316
-3.606	0.252	16385	16634	0	316
-4.075	1.911	16385	16384	0	316
-3.426	1.803	16385	16259	0	316
-2.993	-1.190	16385	15759	0	316
-2.452	-4.039	16385	15259	0	316
-1.875	-7.934	16385	15009	0	316
-2.272	-8.006	16385	14884	0	316
-0.613	-8.258	16385	14759	0	316
2.524	-5.265	16385	14634	0	316
4.183	-0.216	16384	14509	0	316
7.898	2.488	16384	14384	0	316
7.934	2.128	16384	14259	0	316
2.524	-0.469	16384	14259	0	316
-2.344	-5.157	16384	14259	0	316
-4.652	-7.573	16384	14259	0	316
-2.524	-4.472	16384	14009	0	316
1.947	1.154	16384	13759	0	316
6.599	6.924	16384	13759	0	316
7.573	8.979	16384	14259	0	316
6.311	8.006	16384	14759	0	316
2.560	3.714	16384	15134	0	316
0.541	1.370	16384	15134	0	316
-0.757	-1.659	16384	15134	0	316
-4.291	-1.046	16384	15009	0	316
-4.364	-0.793	16384	15009	0	316
-3.859	-0.216	16384	15009	0	316
-3.931	-0.433	16384	15134	0	316
-3.210	-0.865	16384	15634	0	316
-2.092	-1.623	16384	16384	0	316
-1.695	-1.334	16384	16884	0	316
0.361	-1.839	16384	17384	0	316
4.003	1.803	16384	17759	0	316
6.527	5.085	16384	18009	0	316
9.917	6.491	16385	18259	0	316
7.212	7.321	16385	18509	0	316
6.924	4.436	16385	18634	0	316
2.921	0.865	16385	18759	0	316
-0.902	-3.065	16385	19009	0	316
-2.957	-5.481	16385	19259	0	316
-5.193	-5.698	16385	19384	0	316
-5.770	-5.085	16385	19134	0	316
-5.229	-5.914	16385	18509	0	316
-2.921	-4.219	16385	17759	0	316
0.613	-3.678	16385	17009	0	316
2.957	-3.029	16385	16259	1	820
3.498	-1.442	16384	15259	0	820
1.010	-0.793	16384	14509	0	820
0.649	0.108	16384	13759	0	820
0.180	0.505	16384	13259	0	820
1.298	2.741	16384	12759	0	820
3.750	4.472	16384	12384	0	820
5.049	6.924	16384	12134	0	820
4.255	8.619	16384	12009	0	820
5.229	12.694	16384	12134	0	820
6.744	15.362	16384	12384	0	820
7.104	18.536	16384	12634	0	820
8.078	17.779	16384	12759	0	820
8.763	16.589	16384	12759	0	820
8.042	17.923	16384	12759	0	820
9.556	15.723	16383	12634	0	820
7.176	15.939	16383	12759	0	820
7.104	12.766	16383	13259	0	820
3.859	9.592	16383	13884	0	820
0.974	5.734	16383	14759	0	820
-0.649	4.075	16383	15259	0	820
1.262	4.868	16383	15509	0	820
3.137	4.940	16384	16009	0	820
6.816	5.337	16384	16509	0	820
6.744	8.294	16384	17134	0	820
1.370	7.104	16384	17509	0	820
0.397	6.996	16384	17759	0	820
-4.003	5.878	16384	18134	0	820
-3.354	2.019	16384	18384	0	820
-4.003	0.902	16384	18384	0	820
-3.426	-2.308	16384	18384	0	820
-3.173	-2.633	16384	18509	0	820
-1.695	-0.433	16384	18634	0	820
-0.757	0.757	16384	18884	0	820
0.325	2.236	16384	19134	0	820
-0.433	2.488	16384	19509	0	820
0.649	4.327	16384	20009	0	820
0.216	3.029	16384	20509	0	820
0.613	3.859	16384	21009	0	820
-0.072	4.832	16384	21509	0	820
0.505	4.147	16384	21634	0	820
0.902	5.337	16384	21384	0	820
2.596	6.852	16384	21009	0	820
2.380	7.068	16384	20759	0	820
1.190	7.032	16384	20509	0	820
0.288	3.931	16384	20134	0	820
0.144	3.029	16384	19634	0	820
0.757	2.200	16384	18884	0	820
4.724	3.678	16384	18259	0	820
9.088	6.167	16384	17634	0	820
15.146	9.160	16384	17134	0	820
17.129	11.396	16384	16759	0	820
17.995	11.251	16384	16384	0	820
12.730	9.737	16384	16009	0	820
7.212	8.907	16384	15634	0	820
3.967	5.986	16384	15134	0	820
2.705	4.580	16384	14634	0	820
3.931	2.705	16384	14134	0	820
5.878	0.793	16384	13884	0	820
4.183	-0.829	16384	13634	0	820
0.974	-3.462	16384	13384	0	820
-1.839	-6.239	16384	13134	0	820
-5.590	-8.258	16384	13009	0	820
-7.573	-9.340	16384	13009	0	820
-8.763	-10.963	16384	13134	0	820
-12.297	-9.196	16384	13259	0	820
-11.504	-8.006	16384	13634	0	820
-9.196	-7.321	16384	14009	0	820
-6.888	-7.140	16384	14384	0	820
-5.337	-7.573	16384	14759	0	820
-5.770	-7.681	16384	15259	0	820
-9.845	-7.501	16384	15759	0	820
-10.674	-4.544	16384	16134	0	820
-12.802	-3.678	16384	16509	0	820
-12.153	-2.633	16384	17009	0	820
-9.665	-3.173	16384	17384	0	820
-8.330	-2.092	16384	17759	0	820
-4.219	0.072	16384	18009	0	820
-2.056	2.308	16384	18259	0	820
-2.849	3.931	16384	18259	1	316
-3.354	4.364	16384	18009	0	316
-1.983	3.101	16384	17884	0	316
0.144	3.787	16384	18134	0	316
1.298	2.741	16384	18384	0	316
1.046	1.370	16384	18259	0	316
0.252	2.056	16384	17884	0	316
-1.803	3.823	16384	17384	0	316
-2.272	5.265	16384	16884	0	316
-3.570	7.140	16384	16384	0	316
-7.032	6.275	16384	16134	0	316
-10.133	3.895	16384	15759	0	316
-7.970	2.488	16384	15009	0	316
-3.029	4.075	16384	14259	0	316
4.327	5.986	16384	13759	0	316
7.970	6.888	16384	13759	0	316
7.934	7.645	16384	14009	0	316
5.373	5.085	16384	14009	0	316
4.255	3.534	16384	13884	0	316
5.878	5.193	16384	13634	0	316
6.708	5.229	16384	13634	0	316
9.665	6.131	16384	13884	0	316
10.097	7.248	16384	14134	0	316
13.740	7.465	16384	14509	0	316
15.290	7.537	16384	15134	0	316
17.815	10.422	16384	15884	0	316
13.054	9.484	16384	16509	0	316
6.491	6.563	16384	17134	0	316
-1.046	1.406	16384	17634	0	316
-3.606	-4.400	16384	18134	0	316
-3.426	-7.789	16384	18509	0	316
-0.577	-8.763	16384	18759	0	316
0.469	-7.429	16384	19009	0	316
-1.406	-4.724	16384	19009	0	316
-2.200	-4.580	16384	18884	0	316
-2.056	-2.560	16384	18634	0	316
1.370	-1.731	16384	18634	0	316
5.229	0.685	16384	18509	0	316
7.862	3.101	16384	18509	0	316
8.186	5.373	16384	18259	0	316
8.294	7.609	16384	18134	0	316
7.032	7.934	16384	18259	0	316
5.950	8.439	16384	18384	0	316
7.825	8.222	16385	18384	0	316
8.511	5.914	16385	18384	0	316
8.186	6.996	16385	18259	0	316
7.898	6.599	16385	18009	0	316
8.114	8.763	16385	17509	0	316
9.088	10.061	16385	17009	0	316
11.756	13.451	16385	16384	0	316
12.261	14.461	16384	15509	0	316
10.638	15.074	16384	14384	0	316
5.373	14.497	16384	13509	0	316
-0.469	10.206	16384	12884	0	316
-2.777	3.750	16384	12634	0	316
-0.721	0.902	16384	12259	0	316
0.757	-4.580	16384	12009	0	316
3.354	-6.527	16384	12134	0	316
1.587	-7.537	16384	12384	0	316
-2.092	-6.239	16384	12759	0	316
-4.940	-4.688	16384	13134	0	316
-4.580	-1.659	16384	13384	0	316
-1.659	-0.613	16384	13634	0	316
2.128	-0.685	16384	13884	0	316
4.147	-0.505	16384	14259	0	316
3.462	-0.613	16384	15009	0	316
1.118	0.288	16384	15634	0	316
-0.361	2.452	16384	16134	0	316
-0.793	1.767	16384	16384	0	316
0.108	2.200	16384	16509	0	316
1.442	2.705	16384	16509	0	316
4.868	3.354	16384	16509	0	316
6.780	3.931	16384	16634	0	316
10.169	6.419	16384	16759	0	316
12.802	6.996	16384	17009	0	316
12.586	4.400	16384	17259	0	316
8.871	3.137	16384	17634	0	316
7.032	-0.036	16384	17884	0	316
4.544	-1.298	16384	18009	0	316
4.760	-1.010	16384	18009	0	316
4.688	-1.010	16384	17759	0	316
5.554	-1.190	16384	17509	0	316
5.517	-0.288	16384	17259	0	316
4.868	-2.164	16384	17259	0	316
4.039	-3.642	16384	17634	0	316
2.596	-5.157	16384	17884	0	316
2.128	-7.248	16384	18134	0	316
4.868	-6.311	16384	18134	0	316
7.140	-2.921	16384	18134	0	316
10.278	0.397	16384	18134	0	316
10.819	2.957	16384	18259	0	316
9.556	4.616	16384	18259	0	316
8.114	3.823	16384	18259	0	316
7.032	3.714	16384	18259	0	316
7.104	2.272	16384	17884	0	316
5.878	3.282	16384	17509	0	316
5.806	4.219	16384	17259	0	316
5.698	5.481	16384	17009	0	316
8.619	8.799	16384	16759	0	316
8.655	8.871	16384	16384	0	316
11.576	8.583	16384	15884	0	316
7.789	5.734	16384	15384	0	316
1.947	2.019	16384	15259	0	316
-5.121	-0.036	16384	15509	0	316
-11.071	-0.541	16384	15759	0	316
-8.366	0.865	16384	16009	0	316
-2.452	3.318	16384	16259	0	316
5.517	4.291	16384	16384	0	316
10.530	4.544	16384	16509	0	316
10.061	1.947	16384	16634	0	316
5.554	-2.019	16384	16384	0	316
0.938	-5.085	16384	16009	0	316
-2.849	-5.517	16384	15634	0	316
-4.580	-2.596	16384	15634	0	316
-4.904	1.695	16384	15634	0	316
-5.626	3.787	16384	15759	0	316
-4.400	1.947	16384	15884	0	316
-5.842	-0.541	16384	16259	0	316
-4.796	-2.344	16384	16634	0	316
-1.839	-1.695	16384	17009	0	316
-0.721	-0.397	16384	17134	0	316
0.288	0.216	16384	16634	0	316
-0.325	0.361	16384	16134	0	316
-1.082	-1.118	16384	15259	0	316
-1.839	-1.226	16384	14509	0	316
-1.298	-2.164	16384	13884	0	316
-0.649	-4.940	16384	13634	0	316
-0.974	-8.150	16384	13634	0	316
-2.488	-12.081	16384	13884	0	316
-3.282	-12.946	16384	14009	0	316
-4.111	-12.261	16384	14134	0	316
-3.570	-9.701	16384	14134	0	316
-2.092	-8.078	16383	14134	0	316
-0.577	-9.773	16383	14509	0	316
1.442	-10.891	16384	15134	0	316
0.505	-13.704	16384	15759	0	316
-3.787	-15.939	16383	15884	0	316
-8.979	-18.752	16383	16134	0	316
-14.821	-21.060	16384	16384	0	316
-17.202	-20.195	16384	16759	0	316
-16.228	-16.877	16384	17134	0	316
-9.809	-9.701	16384	17509	0	316
-2.633	-3.065	16384	17884	0	316
0.865	1.875	16384	18009	0	316
0.072	0.252	16384	18134	0	316
-3.246	-1.154	16384	18259	0	316
-7.789	-2.993	16384	18509	0	316
-11.540	-6.094	16384	18634	0	316
-11.215	-5.806	16384	18759	0	316
-8.619	-6.455	16384	18759	0	316
-5.085	-6.708	16384	18759	0	316
-2.019	-7.248	16384	18759	0	316
0.649	-5.193	16384	18759	0	316
1.551	-5.770	16384	18634	0	316
0.541	-2.272	16384	18509	0	316
2.705	0.036	16384	18134	0	316
6.347	4.327	16384	17884	0	316
8.799	5.734	16384	17509	0	316
9.340	7.862	16384	17384	0	316
8.691	5.914	16384	17259	0	316
7.285	5.265	16384	16884	0	316
5.662	6.563	16384	16384	0	316
4.724	6.996	16384	15509	0	316
2.993	8.186	16384	14634	0	316
0.721	6.924	16384	13759	0	316
-1.082	4.147	16384	13009	0	316
-2.488	2.092	16384	12259	0	316
-1.226	1.046	16383	11759	0	316
-1.226	0.433	16384	11634	0	316
-0.144	-0.757	16383	11634	0	316
-3.029	-3.101	16383	12009	0	316
-4.652	-7.104	16383	12509	0	316
-6.599	-8.583	16383	13259	0	316
-5.662	-7.934	16383	13884	0	316
-2.452	-4.003	16383	14634	0	316
1.875	-0.433	16383	15384	0	316
3.714	0.865	16383	16259	0	316
3.678	0.397	16383	17259	0	316
0.433	-1.515	16384	18634	0	316
-2.488	-3.173	16384	19509	0	316
-7.068	-1.911	16384	20134	0	316
-7.032	2.056	16384	20634	0	316
-5.986	6.022	16384	20884	0	316
0.721	9.268	16384	21009	0	316
4.977	11.576	16384	21259	0	316
8.330	9.268	16384	21384	0	316
7.501	6.708	16384	21509	0	316
3.137	1.515	16384	21134	0	316
-2.164	-2.524	16384	20509	0	316
-5.986	-6.852	16384	19509	0	316
-8.258	-6.131	16384	18259	0	316
-6.708	-3.246	16384	17134	1	764
-0.361	2.128	16384	16509	0	764
5.409	7.032	16384	16384	0	764
9.953	10.242	16384	16134	0	764
11.071	8.871	16384	15884	0	764
7.934	5.770	16384	15634	0	764
2.200	0.865	16384	15259	0	764
-2.452	-2.957	16384	15009	0	764
-4.436	-5.517	16384	14884	0	764
-4.255	-2.921	16384	14759	0	764
-1.010	-1.190	16384	14509	0	764
3.823	1.947	16384	14259	0	764
8.475	7.681	16384	13759	0	764
10.999	10.278	16384	13634	0	764
10.746	12.189	16384	13884	0	764
10.097	11.576	16384	14634	0	764
7.285	10.314	16384	15384	0	764
4.724	5.698	16384	16009	0	764
6.635	5.481	16384	16384	0	764
7.357	6.744	16384	16509	0	764
12.874	10.746	16384	16884	0	764
13.415	11.828	16384	17259	0	764
14.605	11.179	16384	17634	0	764
11.396	9.629	16384	17884	0	764
4.652	3.137	16384	18009	0	764
0.072	-0.793	16384	18384	0	764
-4.147	-1.190	16384	18634	0	764
-6.960	-0.541	16384	18634	0	764
-5.986	0.721	16384	18509	0	764
-5.950	2.344	16384	18134	0	764
-3.714	2.524	16384	17634	0	764
-2.741	1.334	16384	17009	0	764
-1.370	0.216	16384	16134	0	764
-1.983	-0.902	16384	15384	0	764
-3.823	-1.082	16384	14759	0	764
-4.436	0.577	16384	14259	0	764
-4.255	2.596	16384	13884	0	764
-2.957	3.462	16384	13384	0	764
-0.974	3.210	16384	13009	0	764
-1.767	0.685	16384	12759	0	764
-4.111	-2.200	16384	12759	0	764
-6.527	-2.488	16384	12634	0	764
-5.013	-2.452	16384	12759	0	764
-2.488	0.721	16384	13134	0	764
1.370	4.544	16384	13884	0	764
4.688	7.176	16384	14509	0	764
6.960	8.583	16384	14884	0	764
6.527	8.835	16384	15384	0	764
4.940	5.842	16384	15759	0	764
2.452	2.669	16384	15884	0	764
-0.361	0.865	16384	16009	0	764
-3.642	0.144	16384	15884	0	764
-2.777	1.262	16384	15884	0	764
-0.505	2.705	16384	16009	0	764
1.839	4.977	16384	16134	0	764
4.255	5.049	16384	16259	0	764
5.590	6.347	16384	16509	0	764
4.904	6.203	16384	16884	0	764
4.003	6.311	16384	17259	0	764
0.613	6.563	16384	17759	0	764
-1.695	5.481	16384	18259	0	764
-3.318	4.219	16384	18634	0	764
-2.813	5.950	16384	19009	0	764
-0.721	4.868	16384	19384	0	764
0.938	2.777	16384	19759	0	764
-0.397	-1.262	16384	19759	0	764
-3.426	-4.724	16384	19634	0	764
-6.455	-7.934	16384	19509	0	764
-7.465	-10.458	16384	19509	0	764
-7.393	-11.035	16384	19384	0	764
-5.626	-10.278	16384	19259	0	764
-7.501	-13.884	16384	18634	0	764
-8.691	-13.379	16384	17884	0	764
-8.475	-12.766	16384	16884	0	764
-6.852	-12.333	16384	16009	0	764
-5.013	-9.845	16384	15384	0	764
-3.931	-5.193	16384	15009	0	764
-4.183	-1.046	16384	14759	0	764
-5.085	1.551	16384	14509	0	764
-3.101	2.705	16384	14634	0	764
-1.442	1.983	16384	15009	0	764
0.216	0.180	16384	15509	0	764
-0.865	-2.380	16384	16134	0	764
-3.029	-2.092	16384	16759	0	764
-6.203	-1.298	16384	17509	0	764
-6.671	-0.577	16384	18134	0	764
-5.554	-0.108	16384	18634	0	764
-4.327	0.433	16384	18884	0	764
-2.056	-0.865	16384	18634	0	764
-3.714	-2.236	16384	18134	0	764
-6.239	-3.282	16384	17384	0	764
-9.088	-6.203	16384	16884	0	764
-10.386	-5.481	16384	16509	0	764
-10.350	-4.544	16384	16009	0	764
-9.412	-1.262	16384	15259	0	764
-8.439	3.065	16384	14634	0	764
-8.150	4.796	16384	14134	0	764
-6.852	4.796	16384	13884	0	764
-4.147	3.570	16384	13884	0	764
-4.111	0.613	16384	14009	0	764
-3.931	-1.442	16384	14134	0	764
-3.859	-2.308	16384	14259	0	764
-7.032	-0.072	16384	14134	0	764
-3.282	4.327	16384	14009	0	764
1.731	10.602	16384	13884	0	764
6.924	15.543	16384	14009	0	764
11.504	15.182	16384	14509	0	764
11.973	12.874	16384	15134	0	764
6.852	6.275	16384	16009	0	764
3.570	0.974	16384	16759	0	764
1.154	-1.406	16384	17509	0	764
0.325	-1.767	16384	18009	0	764
2.056	-0.108	16384	18634	0	764
3.678	-0.685	16384	19009	0	764
2.524	-0.793	16384	19009	0	764
0.469	-1.442	16384	19134	0	764
-1.659	-1.515	16384	19259	0	764
-4.183	-1.010	16384	19384	0	764
-5.698	-0.829	16384	19259	0	764
-7.825	-2.164	16384	18884	0	764
-9.629	-3.318	16384	18259	0	764
-9.196	-1.479	16384	17884	0	764
-5.193	3.137	16384	17884	0	764
-1.731	8.655	16385	17759	0	764
3.534	10.458	16385	17634	0	764
2.344	6.960	16385	17384	0	764
-2.236	0.938	16385	17134	0	764
-7.357	-6.635	16385	16884	0	764
-10.206	-11.540	16385	16634	0	764
-9.701	-10.133	16385	16384	0	764
-6.744	-7.717	16384	16009	0	764
-3.137	-3.859	16384	15509	0	764
-3.137	-2.524	16384	14884	0	764
-4.544	-3.065	16384	14384	0	764
-9.376	-5.842	16384	13884	0	764
-11.468	-9.520	16384	13509	0	764
-12.153	-10.674	16384	13384	0	764
-9.809	-9.124	16384	13509	0	764
-6.311	-9.232	16384	13384	0	764
-2.993	-7.321	16384	13009	0	764
-2.488	-6.275	16384	12509	0	764
-3.750	-4.760	16384	12009	0	764
-4.039	-5.445	16384	12009	0	764
-4.255	-5.373	16384	12259	0	764
-3.210	-5.914	16384	12884	0	764
-1.983	-7.104	16384	13509	0	764
-2.524	-6.708	16384	14009	0	764
-2.416	-4.832	16384	14634	0	764
-0.288	-3.173	16384	15384	0	764
4.364	0.288	16384	16134	0	764
7.898	1.154	16384	16634	0	764
7.898	2.813	16384	16884	0	764
4.580	0.325	16384	17009	0	764
0.505	-1.875	16384	17259	0	764
-1.334	-3.137	16384	17509	0	764
0.469	-1.695	16384	18134	0	764
4.724	3.029	16384	18884	0	764
7.393	5.914	16384	19384	0	764
8.439	8.655	16384	19759	0	764
5.734	8.763	16384	19759	0	764
3.101	7.717	16384	19634	0	764
-1.010	5.590	16384	19634	0	764
-3.173	5.409	16384	19634	0	764
-3.246	3.029	16384	19509	0	764
-2.705	2.164	16384	19134	1	656
-0.757	3.714	16384	18759	0	656
3.714	7.104	16384	18259	0	656
7.212	10.963	16384	17759	0	656
10.097	11.720	16384	17259	0	656
11.684	13.091	16384	16509	0	656
9.701	9.484	16384	15634	0	656
7.573	6.563	16384	14884	0	656
4.075	7.140	16384	14509	0	656
1.623	7.140	16384	14634	0	656
2.056	7.609	16384	14884	0	656
2.633	8.763	16384	15134	0	656
3.354	7.537	16384	15384	0	656
4.111	8.619	16384	15759	0	656
2.669	8.330	16384	16384	0	656
0.072	8.583	16384	16884	0	656
-1.839	6.094	16384	17259	0	656
-1.983	4.003	16384	17634	0	656
-2.633	0.649	16384	17759	0	656
-1.623	1.947	16384	17759	0	656
0.793	3.354	16384	17509	0	656
3.029	5.481	16384	17134	0	656
4.291	4.580	16384	16634	0	656
4.760	5.049	16384	16384	0	656
1.046	3.642	16384	16384	0	656
0.721	2.344	16384	16384	0	656
-4.616	1.442	16384	16384	0	656
-5.409	0.361	16384	16384	0	656
-5.554	-1.010	16384	16384	0	656
-5.121	-0.288	16384	16134	0	656
-1.154	1.659	16384	15759	0	656
2.452	4.039	16384	15259	0	656
4.652	6.599	16384	14884	0	656
6.239	7.934	16384	14634	0	656
5.626	8.186	16384	14384	0	656
2.524	6.311	16384	14009	0	656
1.046	3.210	16384	13759	0	656
-0.685	3.498	16384	13759	0	656
-0.793	2.560	16384	14009	0	656
-0.613	3.354	16384	14384	0	656
1.479	5.085	16384	14884	0	656
6.275	5.517	16384	15384	0	656
8.583	5.193	16384	15884	0	656
11.143	5.914	16384	16384	0	656
12.730	5.229	16384	16509	0	656
11.937	6.671	16384	16759	0	656
10.674	8.006	16384	16884	0	656
12.117	10.891	16384	16884	0	656
13.091	12.045	16384	16759	0	656
12.153	11.143	16384	16759	0	656
10.602	8.402	16384	16759	0	656
12.117	5.013	16384	16884	0	656
13.956	4.904	16384	16884	0	656
17.779	4.255	16384	16759	0	656
18.716	9.196	16384	16509	0	656
16.228	10.602	16384	16134	0	656
9.737	11.215	16384	15759	0	656
1.587	10.422	16384	15509	0	656
-4.688	5.085	16384	15259	0	656
-9.845	-2.236	16384	15134	0	656
-11.432	-8.222	16384	14884	0	656
-13.776	-12.009	16383	14759	0	656
-12.586	-15.903	16383	14509	0	656
-10.963	-13.307	16383	14134	0	656
-9.917	-12.477	16383	13634	0	656
-9.052	-11.287	16383	13384	0	656
-6.744	-8.907	16383	13134	0	656
-6.419	-6.960	16383	13134	0	656
-6.167	-2.741	16383	13259	0	656
-4.327	-0.108	16382	13634	0	656
-4.508	0.974	16383	14259	0	656
-2.849	3.065	16383	15009	0	656
-0.865	5.085	16383	15634	0	656
1.875	6.527	16383	16259	0	656
2.560	10.133	16383	16759	0	656
4.652	13.091	16383	17509	0	656
5.085	12.441	16383	18509	0	656
5.481	14.389	16383	19259	0	656
8.186	12.946	16383	19759	0	656
8.907	11.576	16383	20134	0	656
8.006	12.514	16383	20134	0	656
6.599	10.458	16383	19884	0	656
4.291	11.828	16383	19759	0	656
0.361	10.386	16383	19634	0	656
-1.010	7.465	16384	19634	0	656
-1.226	1.731	16384	19884	1	340
-3.282	-4.003	16384	20009	0	340
-5.914	-8.907	16384	20134	0	340
-8.294	-10.999	16384	19884	0	340
-10.530	-8.655	16384	19509	0	340
-11.973	-7.104	16384	19259	0	340
-11.323	-5.662	16384	19009	0	340
-12.117	-5.698	16384	18884	0	340
-15.471	-7.789	16384	19009	0	340
-20.808	-11.648	16384	19509	0	340
-23.368	-15.939	16384	20134	0	340
-25.676	-17.202	16384	20884	0	340
-24.955	-16.480	16385	21509	0	340
-22.358	-9.881	16385	22009	0	340
-17.923	-3.426	16385	22009	0	340
-14.894	3.931	16385	21634	0	340
-9.160	8.258	16385	20884	0	340
-3.462	12.802	16385	19884	0	340
1.334	14.713	16385	19009	0	340
3.354	15.615	16385	18509	0	340
2.164	11.504	16385	18009	0	340
-1.154	5.950	16385	17384	0	340
-5.337	4.796	16385	16759	0	340
-6.131	4.472	16385	16134	0	340
-5.229	7.212	16385	15509	0	340
-4.616	8.655	16385	15009	0	340
-4.147	5.950	16385	14384	0	340
-6.491	1.010	16385	13759	0	340
-6.888	-0.180	16385	13009	0	340
-6.311	-3.750	16385	12134	0	340
-6.094	-1.875	16384	11259	0	340
-6.311	-0.288	16384	10634	0	340
-6.383	1.226	16384	10259	0	340
-6.383	3.029	16384	10134	0	340
-5.481	8.871	16384	10384	0	340
-3.462	11.504	16384	10509	0	340
-1.983	14.281	16384	10384	0	340
-3.390	16.516	16384	10509	0	340
-6.383	14.641	16384	10759	0	340
-7.357	12.081	16384	11134	0	340
-5.373	12.369	16384	11634	0	340
-1.983	12.982	16384	12259	0	340
3.534	12.802	16384	12884	0	340
8.222	12.586	16384	13509	0	340
7.429	6.960	16384	13884	0	340
6.167	2.164	16384	14259	0	340
4.652	-1.875	16384	14634	0	340
5.409	-1.623	16384	14759	0	340
6.419	1.154	16384	14884	0	340
5.049	3.967	16384	15134	0	340
1.623	3.137	16384	15759	0	340
-6.203	-1.515	16384	16259	0	340
-11.756	-6.816	16384	16384	0	340
-14.317	-9.665	16384	16509	0	340
-15.435	-8.222	16384	16634	0	340
-13.559	-4.255	16384	16884	0	340
-15.579	-1.154	16384	17259	0	340
-17.851	-0.829	16384	17634	0	340
-21.349	-2.056	16384	17759	0	340
-21.818	-2.416	16384	17509	0	340
-22.431	-3.534	16384	16884	0	340
-23.008	-2.236	16384	16384	0	340
-21.493	-1.442	16384	16259	0	340
-24.053	-0.469	16384	16259	0	340
-22.286	1.875	16384	16384	0	340
-18.608	5.157	16384	16634	0	340
-15.038	7.429	16384	17009	0	340
-12.550	9.088	16384	17384	0	340
-9.953	7.609	16384	17509	0	340
-11.756	4.580	16384	17509	0	340
-10.710	0.721	16384	17634	0	340
-6.599	-1.226	16384	17634	0	340
-2.524	0.325	16384	17634	0	340
1.515	2.633	16383	17259	0	340
2.813	4.616	16383	17009	0	340
1.082	2.236	16383	16634	0	340
-1.839	0.865	16383	16384	0	340
-2.705	-3.462	16383	16259	0	340
-0.793	-4.580	16383	16134	0	340
2.741	-3.462	16383	16384	1	316
5.373	-2.705	16383	16759	0	316
5.013	-0.577	16384	17384	0	316
3.246	0.865	16384	17884	0	316
-0.433	2.380	16384	18634	0	316
-0.325	4.291	16384	19384	0	316
1.118	6.094	16384	19884	0	316
5.914	8.655	16384	20134	0	316
7.970	9.448	16384	20259	0	316
8.691	7.789	16384	20259	0	316
7.321	5.337	16384	20009	0	316
4.760	1.515	16384	19509	0	316
2.741	-0.793	16384	18884	0	316
1.623	-1.082	16384	18134	0	316
2.993	1.442	16384	17259	0	316
6.563	3.534	16384	16384	0	316
10.422	7.717	16384	15509	0	316
13.018	8.330	16384	14759	0	316
11.540	5.517	16384	14384	0	316
6.816	3.210	16384	14009	0	316
3.787	0.108	16384	13634	0	316
1.983	-1.334	16384	13634	0	316
4.075	0.829	16384	13884	0	316
9.268	4.760	16384	14259	0	316
11.720	8.078	16384	14634	0	316
16.949	13.199	16384	14759	0	316
17.274	15.867	16384	14884	0	316
16.661	13.415	16384	15009	0	316
12.586	10.710	16384	15384	0	316
8.150	5.517	16384	15884	0	316
3.065	2.308	16384	16384	0	316
1.190	1.947	16384	16634	0	316
1.695	4.183	16384	16634	0	316
3.931	6.419	16384	16384	0	316
7.537	8.799	16384	16384	0	316
10.927	10.206	16384	16134	0	316
12.369	11.504	16384	16009	0	316
14.930	12.441	16384	15884	0	316
13.920	11.540	16384	15884	0	316
15.074	9.989	16383	15759	0	316
15.759	8.727	16383	15884	0	316
14.894	5.770	16383	15884	0	316
15.471	3.714	16383	16009	0	316
11.287	1.911	16384	16134	0	316
7.970	-0.541	16384	16509	0	316
3.029	-4.219	16384	16884	0	316
0.325	-8.366	16384	16884	0	316
-2.128	-9.701	16384	16884	0	316
-1.226	-10.855	16384	16884	0	316
-1.479	-10.025	16384	16884	0	316
-3.065	-6.239	16384	16884	0	316
-3.750	-3.823	16384	17009	0	316
-5.590	-2.560	16384	17259	0	316
-5.265	-1.226	16384	17134	0	316
-1.154	0.793	16384	16634	0	316
3.498	3.678	16384	16134	0	316
7.573	9.052	16384	15884	0	316
9.376	12.009	16384	16009	0	316
8.547	11.396	16384	16134	0	316
5.301	10.458	16384	16259	0	316
2.921	6.816	16384	16384	0	316
1.226	6.311	16384	16884	0	316
-1.082	4.977	16384	17384	0	316
-2.777	3.570	16384	17759	0	316
-5.013	-0.325	16384	18009	0	316
-5.842	-3.390	16384	18134	0	316
-6.383	-5.698	16384	18509	0	316
-4.832	-5.517	16384	19009	0	316
-4.364	-5.806	16384	19384	0	316
-2.488	-5.914	16384	19759	0	316
-2.849	-5.734	16384	20009	0	316
-2.236	-7.609	16384	20259	0	316
-1.911	-5.770	16384	20259	0	316
-1.370	-3.570	16384	20009	0	316
-0.685	0.865	16384	19509	0	316
0.865	3.318	16384	18759	0	316
4.327	4.400	16384	18009	0	316
6.167	2.777	16384	17259	0	316
7.717	2.813	16384	16884	0	316
9.448	4.724	16384	16759	0	316
10.314	11.504	16384	16634	0	316
9.052	14.208	16384	16509	0	316
9.520	14.605	16385	16384	0	316
9.412	11.864	16385	16384	0	316
6.094	5.662	16385	16259	0	316
4.291	0.613	16385	16134	0	316
1.767	0.000	16385	16134	0	316
-1.983	-0.505	16385	15884	0	316
-5.121	0.865	16385	15634	0	316
-7.357	2.308	16384	15259	0	316
-7.176	2.380	16384	14884	0	316
-5.770	2.308	16384	14759	0	316
-2.019	-0.685	16384	14509	0	316
1.983	-0.541	16384	14134	0	316
5.337	-2.416	16384	13759	0	316
5.445	-1.659	16384	13634	0	316
6.094	-0.361	16384	13884	0	316
3.137	1.118	16384	14509	0	316
0.757	1.262	16384	14884	0	316
-1.154	0.288	16384	15134	0	316
-0.613	-0.829	16384	15384	0	316
2.596	-0.216	16384	15884	0	316
6.167	2.416	16384	16384	0	316
7.032	4.904	16384	16759	0	316
5.662	7.104	16385	17134	0	316
1.154	6.491	16385	17384	0	316
-2.885	3.967	16385	17134	0	316
-3.787	3.354	16385	16759	0	316
-1.082	2.993	16385	16384	0	316
0.505	2.488	16384	15884	0	316
4.652	1.911	16384	15384	0	316
4.616	-0.613	16384	15009	0	316
3.642	-4.219	16384	14634	0	316
1.731	-4.472	16384	14509	0	316
1.406	-3.029	16384	14259	0	316
2.633	0.036	16384	13634	0	316
4.724	3.967	16384	12884	0	316
9.809	5.842	16384	12134	0	316
15.218	7.068	16384	11759	0	316
17.526	7.681	16384	11509	0	316
18.788	10.638	16384	11134	0	316
16.372	13.091	16383	10884	0	316
9.629	13.127	16383	10759	0	316
3.462	12.586	16383	10759	0	316
-2.705	7.681	16383	10884	0	316
-5.337	4.003	16383	11509	0	316
-6.022	2.452	16383	12134	0	316
-4.183	2.056	16383	12759	0	316
-3.678	4.111	16383	13634	0	316
-2.885	4.400	16383	14634	0	316
-4.183	5.950	16383	15884	0	316
-2.885	6.744	16383	17009	0	316
-1.118	7.537	16383	18009	0	316
1.875	7.032	16383	18634	0	316
3.714	5.590	16383	19134	0	316
2.741	0.180	16383	19509	0	316
0.469	-4.688	16383	19759	0	316
-3.787	-8.835	16383	20134	0	316
-7.068	-7.609	16383	20259	0	316
-8.078	-2.885	16383	20134	0	316
-5.950	4.075	16383	19759	0	316
1.442	7.825	16383	19259	0	316
6.816	7.140	16383	18884	0	316
10.746	4.580	16383	18634	1	572
9.232	-0.974	16383	18509	0	572
2.560	-3.210	16383	18634	0	572
-4.291	-6.167	16383	18634	0	572
-8.547	-4.580	16383	18634	0	572
-8.835	-3.642	16383	18509	0	572
-6.960	-0.902	16383	18509	0	572
-3.750	0.541	16384	18884	0	572
-1.010	1.731	16384	19384	0	572
1.659	0.649	16384	19884	0	572
3.534	1.659	16384	20009	0	572
4.652	3.354	16384	19759	0	572
5.445	5.662	16384	19259	0	572
4.688	5.517	16384	18759	0	572
4.039	8.799	16384	18259	0	572
5.445	8.799	16384	17634	0	572
7.862	9.448	16384	17134	0	572
8.907	7.681	16384	16884	0	572
10.206	6.311	16384	16759	0	572
10.458	2.488	16384	16634	0	572
7.573	0.469	16384	16509	0	572
4.580	1.226	16384	16509	0	572
3.678	2.560	16384	16634	0	572
3.570	5.842	16384	16759	0	572
6.022	8.871	16384	16884	0	572
9.160	8.691	16384	17134	0	572
7.681	6.744	16384	17259	0	572
4.616	1.947	16384	17259	0	572
2.596	-2.669	16384	17134	0	572
0.577	-4.291	16384	17134	0	572
0.072	-4.075	16384	16884	0	572
-1.262	-2.993	16384	16759	0	572
-2.813	-2.092	16384	16509	0	572
-5.986	-3.678	16384	16259	0	572
-4.003	-4.291	16384	15759	0	572
1.082	-3.354	16384	15134	0	572
7.465	-1.154	16384	14634	0	572
8.907	1.262	16384	14134	0	572
10.638	1.875	16384	14134	0	572
3.859	1.226	16384	14134	0	572
0.541	-0.361	16384	14009	0	572
0.144	1.010	16384	14009	0	572
4.219	3.101	16384	14009	0	572
9.484	4.183	16384	14384	0	572
13.704	4.724	16384	14884	0	572
13.091	5.950	16384	15384	0	572
8.258	6.419	16384	15759	0	572
4.760	6.563	16384	15884	0	572
0.180	5.373	16384	15759	0	572
-2.380	4.400	16384	15634	0	572
-2.092	2.128	16384	15759	0	572
-4.183	0.793	16384	16134	0	572
-2.416	1.442	16384	16384	0	572
-2.993	0.469	16384	16509	0	572
-1.334	0.974	16384	16509	0	572
-0.829	0.577	16384	16634	0	572
-1.947	1.262	16384	16759	0	572
-4.219	-0.361	16384	17009	0	572
-4.472	-0.757	16384	17259	0	572
-5.914	-2.669	16384	17759	0	572
-5.734	-6.311	16384	18134	0	572
-8.511	-8.763	16384	18259	0	572
-9.556	-13.054	16384	18009	0	572
-9.737	-13.487	16384	17634	0	572
-8.258	-12.622	16384	16884	0	572
-5.121	-7.429	16384	16134	0	572
0.829	-1.082	16384	15509	0	572
2.524	2.128	16384	15134	0	572
3.282	2.741	16384	14759	0	572
3.246	-0.288	16384	14259	0	572
-0.144	-6.527	16384	14134	0	572
-3.137	-9.520	16384	14009	0	572
-4.796	-11.251	16384	13884	0	572
-4.724	-8.222	16384	13634	0	572
-4.544	-4.940	16384	13509	0	572
-2.596	-2.128	16384	13634	0	572
1.118	-0.505	16384	14384	0	572
5.517	-0.469	16384	15509	0	572
8.871	-1.515	16384	16634	0	572
10.927	-3.498	16384	17759	0	572
9.665	-4.796	16384	18634	0	572
7.140	-4.472	16384	19134	0	572
6.960	-2.633	16384	19509	0	572
9.592	1.046	16384	19634	0	572
15.507	7.537	16384	19509	0	572
20.519	11.828	16384	19259	0	572
25.352	17.202	16384	19259	0	572
26.902	16.336	16384	19134	0	572
23.585	15.579	16384	18759	0	572
19.582	11.251	16384	18259	0	572
16.012	6.816	16384	17884	0	572
11.828	4.940	16384	17759	0	572
11.323	5.013	16384	17759	0	572
13.235	7.176	16384	17759	0	572
14.533	9.124	16384	17509	0	572
19.077	10.710	16384	16884	0	572
19.221	11.360	16384	16384	0	572
21.024	11.107	16384	15884	0	572
17.057	8.691	16384	15384	0	572
11.973	8.042	16384	14884	0	572
6.924	4.868	16384	14759	0	572
3.462	4.147	16384	14634	0	572
2.885	5.301	16384	14634	0	572
5.301	5.806	16384	14509	0	572
5.806	6.167	16384	14384	0	572
7.176	6.816	16384	14384	0	572
6.780	6.419	16384	14634	0	572
4.760	6.888	16384	15134	0	572
4.147	6.347	16384	15634	0	572
0.721	5.121	16384	16134	0	572
-1.803	2.488	16384	16384	0	572
-2.452	1.298	16384	16509	0	572
-0.829	0.180	16384	16759	0	572
1.587	0.108	16384	17009	0	572
2.524	-2.019	16384	17009	0	572
1.010	-2.957	16384	16884	0	572
-1.623	-2.524	16384	16634	0	572
-3.642	0.000	16384	16509	0	572
-2.885	4.508	16384	16384	0	572
0.469	5.806	16384	16134	0	572
3.859	7.753	16384	15884	0	572
5.517	5.842	16384	15634	0	572
5.229	4.400	16384	15759	0	572
2.164	2.741	16384	16009	0	572
-2.524	2.849	16384	16509	0	572
-3.426	2.019	16384	17134	0	572
-4.219	2.849	16384	17634	0	572
-2.633	2.488	16384	17884	0	572
-0.974	2.957	16384	17884	0	572
-0.072	2.236	16384	17634	0	572
-1.262	0.865	16384	17384	0	572
-2.849	0.397	16384	17259	0	572
-4.868	-0.577	16384	17259	0	572
-5.770	-0.252	16384	17259	0	572
-6.455	-0.613	16384	17384	0	572
-7.789	0.144	16384	17759	0	572
-6.203	-1.479	16384	18259	0	572
-7.285	-1.983	16384	18634	0	572
-4.616	-1.911	16385	18884	0	572
-3.859	-2.633	16385	18759	0	572
-3.606	-2.596	16385	18384	0	572
-6.888	-3.895	16385	17884	0	572
-11.973	-6.924	16385	17384	0	572
-13.776	-8.042	16385	17009	0	572
-13.343	-7.970	16385	16759	0	572
-11.143	-5.265	16385	16509	0	572
-6.419	-4.327	16385	16384	0	572
-4.003	-0.288	16385	16009	0	572
-2.416	2.957	16385	15634	0	572
-2.092	3.029	16385	15384	0	572
-3.137	3.859	16385	15259	0	572
-5.301	2.957	16385	15009	0	572
-8.511	0.288	16385	14759	0	572
-9.989	-2.056	16384	14509	0	572
-7.825	-1.154	16384	14134	0	572
-5.986	0.397	16384	13759	0	572
0.397	2.596	16384	13509	0	572
4.111	5.517	16384	13509	0	572
6.563	7.032	16384	13509	0	572
6.996	6.996	16384	13509	0	572
6.275	4.940	16384	13634	0	572
4.003	4.003	16384	13759	0	572
4.472	2.452	16384	13884	0	572
5.950	5.013	16384	14259	0	572
10.422	5.950	16384	14759	0	572
16.228	8.186	16384	15634	0	572
18.139	7.717	16384	16509	0	572
19.149	7.140	16384	17509	0	572
15.939	4.436	16384	18134	0	572
13.163	5.734	16384	18509	0	572
9.448	6.635	16384	18759	0	572
9.448	7.681	16385	19009	0	572
10.025	8.114	16385	19259	0	572
9.989	8.402	16385	19384	0	572
9.665	9.016	16385	19384	0	572
9.809	8.763	16385	19134	0	572
7.032	8.439	16385	18509	0	572
3.967	4.796	16385	17759	0	572
1.082	3.101	16385	17009	0	572
-1.659	-0.433	16385	16509	1	716
-1.767	1.623	16385	16384	0	716
0.974	5.049	16384	16134	0	716
6.888	8.547	16385	16009	0	716
9.989	9.196	16385	16009	0	716
10.963	6.960	16385	15759	0	716
7.934	3.570	16384	15634	0	716
4.255	0.108	16384	15509	0	716
1.334	0.325	16384	15134	0	716
2.813	2.705	16384	14509	0	716
3.823	5.554	16384	14009	0	716
5.806	5.950	16384	13884	0	716
6.203	5.049	16384	13634	0	716
5.806	3.750	16384	13259	0	716
3.498	2.344	16384	13009	0	716
0.938	1.262	16384	13259	0	716
-0.361	0.361	16384	13759	0	716
-0.649	-1.767	16384	14509	0	716
1.046	-3.137	16384	15384	0	716
5.193	-4.652	16384	16009	0	716
7.068	-0.829	16384	16384	0	716
7.212	3.065	16384	16384	0	716
7.862	7.248	16384	16384	0	716
9.556	7.717	16384	16384	0	716
10.999	7.898	16384	16634	0	716
11.937	5.481	16384	17009	0	716
12.081	5.157	16384	17634	0	716
9.376	5.878	16384	18134	0	716
7.248	7.212	16384	18259	0	716
7.176	5.734	16384	18009	0	716
5.734	5.770	16384	17384	0	716
2.885	3.823	16384	16634	0	716
-2.849	0.938	16384	16259	0	716
-7.645	-1.551	16384	16134	0	716
-11.684	-3.534	16384	16134	0	716
-12.441	-2.957	16384	16134	0	716
-9.629	-3.534	16384	16134	0	716
-6.094	-2.777	16384	16384	0	716
-3.101	-2.308	16384	16634	0	716
-3.606	-4.003	16384	17384	0	716
-4.580	-3.390	16384	18134	0	716
-8.078	-3.065	16384	18509	0	716
-11.432	-4.436	16384	18509	0	716
-12.982	-4.688	16384	18259	0	716
-13.631	-5.734	16384	18134	0	716
-12.514	-5.590	16384	17759	0	716
-14.966	-4.796	16384	17509	0	716
-14.713	-5.914	16384	17009	0	716
-14.028	-5.445	16384	16509	0	716
-14.353	-3.750	16384	16134	0	716
-10.855	0.685	16384	15759	0	716
-5.698	6.275	16384	15384	0	716
-2.380	9.196	16384	15134	0	716
0.938	10.458	16384	15509	0	716
2.705	7.501	16384	16259	0	716
0.469	4.508	16384	16759	0	716
0.144	2.596	16384	16884	0	716
-0.397	2.741	16384	16884	0	716
-0.180	2.128	16384	17009	0	716
1.262	1.046	16384	17384	0	716
4.075	-1.406	16384	17634	0	716
4.868	-2.596	16384	17509	0	716
5.914	-3.931	16384	17259	0	716
5.554	-2.236	16384	16884	0	716
5.770	0.649	16384	16384	0	716
5.842	1.515	16384	16009	0	716
6.563	0.613	16384	15509	0	716
8.691	-0.938	16384	15134	0	716
6.311	-3.354	16384	14884	0	716
1.911	-4.291	16384	14634	0	716
-1.334	-3.570	16384	14384	0	716
-2.308	0.000	16384	14134	0	716
-2.164	2.308	16384	14134	0	716
0.505	3.859	16384	14509	0	716
-0.397	3.426	16384	15009	0	716
0.757	2.380	16384	15634	0	716
0.252	1.479	16384	16384	0	716
-0.685	2.128	16384	16884	0	716
-0.144	3.859	16384	17384	0	716
-1.334	3.498	16384	17759	0	716
-4.724	2.272	16384	18134	0	716
-7.862	3.426	16384	18259	0	716
-8.402	1.262	16384	18259	0	716
-11.143	0.613	16384	18009	0	716
-11.756	-0.721	16384	17759	0	716
-9.881	-2.344	16384	17384	0	716
-8.547	-2.524	16384	17009	0	716
-4.977	-1.370	16384	16634	0	716
-3.859	-3.101	16384	16384	0	716
-3.354	-4.760	16384	16134	0	716
-5.049	-7.537	16384	16009	0	716
-6.419	-8.475	16384	16009	0	716
-6.275	-5.662	16384	16009	0	716
-4.436	-3.029	16384	15884	0	716
-2.560	0.000	16384	15634	0	716
-2.741	0.216	16384	15509	0	716
-5.878	-1.839	16384	15384	0	716
-7.717	-5.914	16384	15134	0	716
-7.717	-8.402	16384	14759	0	716
-5.626	-9.592	16384	14384	0	716
-0.613	-7.032	16384	14134	0	716
5.842	-2.308	16384	14134	0	716
11.071	4.760	16384	14134	0	716
14.353	8.366	16384	14259	0	716
13.920	12.333	16384	14384	0	716
10.855	11.864	16384	14384	0	716
6.167	10.097	16384	14634	0	716
3.137	6.563	16384	15009	0	716
4.364	4.760	16384	15509	0	716
5.590	6.131	16384	15759	0	716
5.806	8.222	16384	15759	0	716
4.039	11.287	16384	15634	0	716
1.911	11.973	16384	15634	0	716
0.144	9.917	16384	15884	0	716
0.577	8.366	16384	16134	0	716
3.714	5.806	16384	16134	0	716
6.311	5.878	16384	16134	0	716
8.150	7.681	16384	16384	0	716
8.402	8.547	16384	16384	0	716
8.114	11.215	16384	16509	0	716
5.878	11.684	16384	16634	0	716
4.147	8.943	16384	16884	0	716
0.938	6.708	16384	17134	0	716
-0.829	3.642	16384	17384	0	716
-1.695	3.065	16384	17509	0	716
2.344	4.219	16384	17884	0	716
5.878	8.547	16384	18509	0	716
10.061	9.701	16384	18759	0	716
11.648	11.648	16384	18634	0	716
8.727	9.016	16384	18009	0	716
2.813	4.796	16384	17384	0	716
-2.885	-0.252	16384	16634	0	716
-7.717	-4.291	16384	16384	1	528
-7.934	-4.796	16384	16009	0	528
-3.678	-4.940	16384	15759	0	528
-0.505	-3.534	16384	15384	0	528
2.633	-2.416	16384	15134	0	528
5.337	-0.505	16384	15134	0	528
3.967	1.587	16383	15259	0	528
3.137	2.272	16383	15384	0	528
-1.551	0.000	16383	15509	0	528
-8.727	-5.229	16383	15634	0	528
-12.514	-8.655	16383	15509	0	528
-13.668	-11.143	16383	15259	0	528
-8.186	-6.924	16383	15009	0	528
-0.469	1.659	16383	15009	0	528
7.501	10.422	16383	15009	0	528
13.920	15.362	16383	15259	0	528
15.326	17.382	16383	15634	0	528
15.903	13.091	16383	16259	0	528
11.035	9.592	16384	16759	0	528
9.556	6.491	16384	17509	0	528
6.960	5.950	16384	18134	0	528
5.085	4.327	16384	18509	0	528
4.075	3.823	16384	18884	0	528
2.416	0.938	16384	19134	0	528
1.046	-0.721	16384	19384	0	528
-1.695	-2.560	16384	19384	0	528
-3.534	-4.291	16384	19634	0	528
-4.580	-4.111	16384	20134	0	528
-1.623	-1.082	16384	20384	0	528
2.849	2.669	16384	20384	0	528
5.878	4.616	16384	20259	0	528
6.094	5.157	16384	20259	0	528
2.056	1.839	16384	20009	0	528
-3.210	-1.587	16384	19634	0	528
-6.347	-4.183	16384	19134	0	528
-6.563	-2.849	16384	18384	0	528
-4.436	0.793	16384	17634	0	528
-1.479	6.599	16384	16884	0	528
3.895	11.071	16384	16384	0	528
7.825	15.038	16384	16134	0	528
7.140	12.009	16384	16134	0	528
5.481	9.268	16384	16009	0	528
1.046	5.481	16384	15884	0	528
1.082	4.291	16384	15884	0	528
0.072	3.895	16384	15759	0	528
1.118	3.823	16384	15634	0	528
1.046	2.308	16384	15384	0	528
-1.623	-1.515	16384	15134	0	528
-2.669	-5.409	16384	14884	0	528
-3.823	-7.753	16384	14634	0	528
-3.065	-8.006	16384	14259	0	528
-2.200	-7.393	16384	14134	0	528
-2.777	-7.176	16384	14009	0	528
-0.469	-5.590	16384	13884	0	528
1.839	-3.823	16384	13884	0	528
4.147	-2.092	16384	13759	0	528
4.580	1.587	16384	13884	0	528
3.137	3.426	16384	14134	0	528
0.865	2.849	16384	14509	0	528
-1.190	0.685	16384	14759	0	528
-0.685	0.036	16384	15134	0	528
0.757	-0.541	16384	15509	0	528
3.390	1.767	16384	16009	0	528
4.364	6.167	16384	16384	0	528
7.393	8.475	16384	16759	0	528
9.592	11.360	16384	17134	0	528
12.405	10.783	16384	17384	0	528
14.821	8.835	16384	17384	0	528
12.946	8.258	16384	17509	0	528
10.386	5.590	16384	17759	0	528
5.842	4.977	16384	17884	0	528
-0.288	3.029	16384	17884	0	528
-4.003	0.541	16384	17759	0	528
-5.662	-2.056	16384	17634	0	528
-7.068	-4.291	16384	17509	0	528
-3.967	-6.383	16384	17384	0	528
-2.993	-6.744	16384	17259	0	528
-2.128	-10.206	16384	17134	0	528
-4.616	-10.891	16384	17009	0	528
-7.140	-12.441	16384	16884	1	316
-10.422	-10.097	16384	16634	0	316
-11.720	-9.124	16384	16384	0	316
-11.360	-4.760	16384	16009	0	316
-8.511	-3.426	16384	15759	0	316
-4.940	-3.498	16384	15759	0	316
-1.118	-4.400	16384	16134	0	316
2.416	-5.337	16384	16384	0	316
2.813	-6.708	16384	16509	0	316
2.344	-4.147	16384	16384	0	316
0.974	-0.397	16384	16384	0	316
1.262	3.678	16384	16384	0	316
3.173	7.104	16384	16384	0	316
5.878	7.321	16384	16634	0	316
9.412	8.835	16384	16884	0	316
9.592	9.484	16384	16759	0	316
8.258	10.350	16384	16384	0	316
5.265	12.045	16384	16009	0	316
2.128	9.556	16384	15634	0	316
1.154	6.383	16384	15634	0	316
0.469	3.210	16384	15759	0	316
0.252	1.442	16384	16009	0	316
-1.226	1.623	16384	16134	0	316
-1.154	1.839	16384	16384	0	316
-3.101	0.865	16384	16384	0	316
-5.013	-2.092	16384	16134	0	316
-5.554	-6.311	16384	15884	0	316
-6.347	-6.383	16384	15634	0	316
-4.147	-2.705	16384	15634	0	316
-0.613	1.226	16384	15509	0	316
1.875	5.770	16384	15134	0	316
3.390	7.104	16384	14759	0	316
2.669	4.868	16384	14509	0	316
1.587	4.832	16384	14384	0	316
0.144	4.400	16384	14509	0	316
-0.108	4.436	16384	14759	0	316
-0.144	5.770	16384	15134	0	316
0.036	6.671	16384	15384	0	316
0.144	9.592	16384	15634	0	316
0.000	12.874	16384	15634	0	316
-1.046	15.759	16384	15634	0	316
-1.947	13.631	16384	15634	0	316
-4.111	11.756	16384	15759	0	316
-7.321	6.311	16384	15634	0	316
-9.773	2.596	16384	15509	0	316
-11.540	1.442	16384	15509	0	316
-12.838	1.082	16384	15759	0	316
-12.514	1.875	16384	16134	0	316
-9.665	2.164	16384	16509	0	316
-9.016	3.570	16384	17134	0	316
-7.068	1.442	16384	17759	0	316
-5.409	-1.406	16384	18009	0	316
-4.832	-3.787	16384	18384	0	316
-3.173	-5.842	16384	18884	0	316
-0.685	-4.364	16384	19259	0	316
2.164	-0.974	16384	19509	0	316
1.479	1.983	16384	19759	0	316
-2.308	1.731	16384	20009	0	316
-4.760	-1.226	16384	20009	0	316
-8.186	-4.977	16384	19759	0	316
-7.573	-6.960	16384	19134	0	316
-6.167	-7.393	16384	18009	0	316
-4.508	-5.049	16384	16759	0	316
-4.472	-2.705	16384	15884	0	316
-3.714	-1.406	16384	15134	0	316
-4.760	-3.931	16384	14384	0	316
-2.308	-5.698	16384	14009	0	316
-2.596	-8.907	16384	13884	0	316
-3.282	-9.773	16384	14009	0	316
-4.940	-6.671	16384	14384	0	316
-6.419	-6.022	16384	14759	0	316
-8.330	-4.111	16384	15009	0	316
-7.357	-4.508	16384	15259	0	316
-5.986	-2.092	16384	15509	0	316
-3.714	0.000	16384	15759	0	316
-1.731	4.255	16384	16009	0	316
-0.397	6.888	16384	16134	0	316
1.190	5.914	16384	16259	0	316
1.262	4.075	16384	16509	0	316
0.180	0.865	16384	17009	0	316
-1.803	1.082	16384	17634	0	316
-2.019	3.173	16384	18134	0	316
-1.767	7.789	16384	18509	0	316
-0.685	12.333	16384	18384	0	316
1.190	11.287	16384	17884	0	316
-0.433	8.330	16384	17759	0	316
-2.669	2.128	16384	17884	0	316
-5.517	-2.813	16384	18134	0	316
-6.022	-3.498	16384	18259	0	316
-3.137	-2.056	16384	18259	0	316
0.108	1.298	16384	18509	0	316
3.101	4.291	16384	18509	0	316
2.957	4.977	16384	18259	0	316
-0.036	2.993	16384	17759	0	316
-4.832	-1.334	16384	17259	0	316
-9.665	-5.878	16384	16634	0	316
-13.199	-8.799	16384	16259	0	316
-11.900	-6.780	16384	16009	0	316
-11.504	-4.832	16384	15884	0	316
-7.501	-0.288	16384	15634	0	316
-2.777	1.479	16384	15509	0	316
-1.659	0.288	16384	15384	0	316
-2.921	-3.823	16384	15634	0	316
-6.455	-6.924	16384	15884	0	316
-11.468	-9.989	16384	16009	0	316
-16.985	-9.953	16384	16009	0	316
-16.552	-8.835	16385	16009	0	316
-14.749	-3.931	16385	16009	0	316
-8.222	0.180	16384	15759	0	316
-2.633	4.544	16384	15259	0	316
0.757	6.708	16384	14634	0	316
0.974	6.744	16384	14009	0	316
-3.246	3.318	16384	13384	0	316
-10.278	-0.649	16384	13009	0	316
-12.333	-3.282	16384	12759	0	316
-13.523	-3.498	16384	12759	0	316
-13.127	-5.626	16384	13009	0	316
-12.081	-4.364	16384	13509	0	316
-8.366	-1.983	16384	14009	0	316
-3.534	2.813	16384	14259	0	316
1.551	6.996	16384	14259	0	316
7.285	10.783	16384	14259	0	316
6.996	10.025	16384	14259	0	316
2.019	6.347	16384	14259	0	316
-5.698	2.849	16384	14259	0	316
-8.150	-0.469	16384	14134	0	316
-7.862	-0.974	16384	14009	0	316
-5.337	0.252	16384	14009	0	316
0.433	3.426	16383	14259	0	316
5.662	5.554	16383	14634	0	316
5.554	9.412	16383	14884	0	316
6.852	8.907	16383	15134	0	316
6.924	9.088	16383	15509	0	316
5.950	6.563	16383	16259	0	316
4.977	6.491	16383	17009	0	316
3.787	2.344	16383	17884	0	316
1.515	-1.515	16384	18634	0	316
1.262	-4.400	16384	19134	0	316
1.803	-3.823	16384	19384	0	316
1.983	-4.003	16384	19634	0	316
6.563	2.452	16384	20134	0	316
8.330	5.662	16384	20509	0	316
9.989	8.078	16384	20884	0	316
10.927	8.835	16384	21009	0	316
10.783	9.052	16384	20884	0	316
9.052	6.599	16384	20759	0	316
7.140	7.501	16384	20384	0	316
5.517	7.140	16384	20009	0	316
4.940	7.393	16384	19384	1	592
4.904	8.727	16384	18759	0	592
5.229	6.708	16384	17884	0	592
6.383	5.806	16384	17009	0	592
4.327	4.111	16384	16384	0	592
2.524	3.714	16384	15759	0	592
1.839	4.003	16384	15259	0	592
2.056	4.291	16384	14759	0	592
2.596	4.039	16384	14384	0	592
1.623	3.823	16384	14259	0	592
-0.721	2.128	16384	14259	0	592
-1.118	1.334	16384	14259	0	592
-1.551	-0.469	16384	14009	0	592
-1.226	-0.974	16384	14009	0	592
-0.793	-1.623	16384	14259	0	592
-1.046	-2.200	16384	14759	0	592
-0.469	-1.803	16384	15009	0	592
-1.298	-0.505	16384	15134	0	592
-0.577	1.154	16384	15134	0	592
-0.974	3.282	16384	15134	0	592
-0.613	3.137	16384	15009	0	592
1.515	6.527	16384	14884	0	592
4.255	6.491	16384	15009	0	592
3.859	7.176	16384	15134	0	592
2.092	6.383	16384	15384	0	592
-0.577	4.940	16384	15759	0	592
-0.505	2.380	16384	16134	0	592
-0.721	1.442	16384	16509	0	592
3.210	2.272	16384	17009	0	592
5.409	3.859	16384	17384	0	592
4.616	4.183	16384	17759	0	592
0.288	4.183	16384	18259	0	592
-5.878	1.190	16384	19009	0	592
-11.720	-2.741	16384	19509	0	592
-17.490	-4.724	16384	20009	0	592
-15.471	-5.085	16384	20509	0	592
-13.415	-0.757	16384	21009	0	592
-9.917	1.479	16384	21259	0	592
-5.373	1.551	16384	21259	0	592
-2.957	-0.865	16384	21009	0	592
-1.226	-2.885	16384	20509	0	592
0.144	-5.337	16384	19884	0	592
-0.072	-2.056	16384	19134	0	592
3.787	3.534	16384	18509	0	592
6.708	7.176	16384	18134	0	592
10.927	13.163	16384	17384	0	592
12.982	14.605	16384	16384	0	592
15.038	16.300	16384	15384	0	592
15.362	16.300	16384	14384	0	592
14.858	14.172	16384	13384	0	592
15.795	14.172	16384	12384	0	592
12.297	11.684	16384	11634	0	592
11.576	11.612	16384	10759	0	592
11.900	12.405	16384	10134	0	592
9.412	12.405	16384	9884	0	592
10.458	12.910	16383	10134	0	592
8.294	11.937	16383	10634	0	592
5.409	8.727	16383	11009	0	592
4.940	8.402	16383	11009	0	592
2.164	4.688	16383	11009	0	592
-2.308	1.983	16383	11134	0	592
-8.150	0.793	16383	11634	0	592
-12.009	-0.397	16383	12134	0	592
-12.045	1.262	16383	12884	0	592
-11.396	3.065	16383	13759	0	592
-9.304	4.039	16383	14634	0	592
-7.645	2.921	16383	15634	0	592
-7.212	0.216	16383	16384	0	592
-8.475	-2.019	16383	17134	0	592
-8.655	-3.101	16383	17884	0	592
-7.717	-2.524	16383	18384	0	592
-8.727	-2.777	16383	18634	0	592
-8.439	-2.200	16383	18759	0	592
-6.635	-0.974	16383	18884	0	592
-4.904	-0.469	16383	19009	0	592
-3.318	-1.298	16383	19134	0	592
-2.524	-2.524	16383	19134	0	592
-1.515	-4.832	16383	19134	0	592
-1.082	-4.111	16383	19259	0	592
-0.974	-4.652	16383	19384	1	316
0.649	-1.154	16383	19384	0	316
-0.252	-0.649	16383	19384	0	316
-3.210	-3.029	16383	19134	0	316
-9.376	-7.248	16384	18884	0	316
-12.369	-10.494	16384	18759	0	316
-13.127	-11.612	16384	18509	0	316
-13.091	-10.494	16384	18384	0	316
-12.369	-5.806	16384	18259	0	316
-9.376	-1.587	16384	18384	0	316
-11.035	0.108	16384	18759	0	316
-9.232	-1.731	16384	19384	0	316
-7.934	-2.849	16384	20009	0	316
-8.222	-5.626	16384	20509	0	316
-8.186	-5.914	16384	20884	0	316
-7.032	-5.914	16384	21009	0	316
-7.068	-3.714	16384	20759	0	316
-5.878	-0.829	16384	20134	0	316
-6.780	1.442	16384	19384	0	316
-7.609	4.436	16384	18759	0	316
-9.917	4.940	16384	18134	0	316
-11.287	1.947	16384	17509	0	316
-8.799	0.577	16384	17134	0	316
-5.085	-0.397	16384	16634	0	316
0.036	0.433	16384	16259	0	316
4.472	5.049	16384	15759	0	316
1.118	4.544	16384	15384	0	316
-0.902	2.488	16384	15259	0	316
-5.590	-1.911	16384	14884	0	316
-8.294	-7.465	16384	14384	0	316
-8.871	-7.537	16384	13634	0	316
-7.898	-7.717	16384	13009	0	316
-7.573	-5.554	16384	12884	0	316
-7.321	-4.327	16384	13134	0	316
-6.455	-5.878	16384	13509	0	316
-4.652	-5.806	16384	13884	0	316
-5.337	-5.734	16384	14009	0	316
-4.652	-3.823	16384	14009	0	316
-3.101	-2.921	16384	13884	0	316
-2.633	-1.298	16384	13884	0	316
-1.839	1.046	16384	13759	0	316
0.829	3.750	16384	13759	0	316
3.173	5.986	16384	13634	0	316
2.344	7.140	16384	13384	0	316
3.714	8.655	16384	13134	0	316
2.344	6.780	16384	13009	0	316
1.298	4.760	16384	13384	0	316
-0.649	3.173	16384	14134	0	316
-2.741	0.685	16384	14759	0	316
-3.390	-1.226	16384	15384	0	316
-4.039	-0.541	16384	15884	0	316
-4.580	-0.216	16384	16509	0	316
-5.914	0.361	16384	17134	0	316
-9.340	-0.757	16384	17884	0	316
-10.494	-3.101	16384	18384	0	316
-11.251	-5.301	16384	18759	0	316
-8.511	-4.724	16384	18759	0	316
-4.904	-4.255	16384	18509	0	316
-0.974	-1.695	16384	18384	0	316
-0.577	-0.938	16384	18509	0	316
-1.226	-1.695	16384	18509	0	316
-6.203	-3.173	16384	18134	0	316
-8.727	-1.767	16384	17634	0	316
-10.458	0.108	16384	17134	0	316
-5.950	4.039	16384	16884	0	316
-0.721	6.744	16384	16884	0	316
3.137	8.006	16384	16884	0	316
4.508	8.042	16384	16759	0	316
5.662	8.114	16384	16634	0	316
5.590	10.963	16384	16384	0	316
3.895	10.891	16384	16009	0	316
1.190	10.025	16384	15634	0	316
-1.551	5.373	16384	15384	0	316
-2.849	2.019	16384	15134	0	316
-1.082	0.108	16384	15009	0	316
1.839	1.298	16384	15384	0	316
3.750	4.724	16384	15884	0	316
1.767	6.022	16384	16384	0	316
-1.515	3.642	16384	16884	0	316
-5.049	0.829	16384	17259	0	316
-9.665	-3.426	16384	17509	0	316
-12.081	-7.357	16384	17759	0	316
-12.838	-9.340	16384	17884	0	316
-14.172	-9.592	16384	17634	0	316
-14.533	-8.258	16384	17134	0	316
-11.612	-5.121	16384	16759	0	316
-9.556	-0.216	16384	16634	0	316
-3.895	3.426	16384	16634	0	316
2.596	6.924	16384	16509	0	316
4.652	6.491	16384	16384	0	316
6.131	4.147	16384	16384	0	316
5.662	1.442	16384	16509	0	316
6.419	0.036	16384	16259	0	316
7.681	-0.144	16384	15634	0	316
9.232	-0.036	16384	15134	0	316
8.439	3.065	16384	14759	0	316
6.419	5.806	16384	14134	0	316
3.967	7.501	16384	13634	0	316
0.469	7.753	16384	13634	0	316
-1.731	4.832	16384	14009	0	316
-2.236	0.649	16384	14634	0	316
-2.777	-3.390	16384	15259	0	316
-0.505	-3.462	16384	15759	0	316
0.938	-1.623	16384	16134	0	316
1.370	0.361	16384	16384	0	316
1.370	1.082	16384	16884	0	316
1.010	1.767	16384	17634	0	316
1.911	0.288	16384	18384	0	316
4.111	-1.190	16384	18759	0	316
4.472	-1.190	16384	19009	0	316
5.013	-0.180	16384	19259	0	316
2.849	3.678	16384	19884	0	316
1.442	7.789	16385	20634	0	316
1.911	11.035	16385	21384	0	316
4.724	14.172	16385	21884	0	316
8.294	12.946	16385	21884	0	316
12.333	12.694	16385	21509	0	316
13.812	8.655	16385	20884	0	316
12.045	4.977	16385	20134	0	316
9.124	0.036	16385	19509	0	316
4.472	-3.390	16385	18759	1	480
0.577	-4.977	16385	18009	0	480
-1.154	-3.606	16385	17134	0	480
-0.505	-0.505	16385	16384	0	480
1.659	3.390	16385	15634	0	480
5.157	7.104	16385	15009	0	480
7.609	8.366	16385	14634	0	480
8.150	8.871	16385	14259	0	480
11.360	8.943	16384	13634	0	480
10.891	9.412	16384	13009	0	480
9.665	10.278	16384	12509	0	480
9.232	13.018	16384	12259	0	480
7.068	12.441	16384	12009	0	480
6.203	13.451	16384	12259	0	480
7.681	14.749	16384	12759	0	480
10.314	14.064	16384	13259	0	480
12.225	14.245	16384	13634	0	480
10.422	10.891	16384	14009	0	480
7.285	8.763	16384	14384	0	480
3.714	5.157	16384	14759	0	480
-1.118	6.599	16384	15134	0	480
-3.642	8.042	16384	15259	0	480
-2.200	9.016	16384	15384	0	480
-0.469	8.186	16384	15384	0	480
0.433	3.750	16384	15509	0	480
0.361	1.298	16384	15384	0	480
-0.144	-2.669	16384	15134	0	480
-5.049	-3.895	16384	15134	0	480
-9.592	-4.868	16384	15259	0	480
-11.071	-3.101	16384	15634	0	480
-9.088	-0.721	16384	15759	0	480
-5.301	3.859	16384	16009	0	480
2.200	7.321	16384	16259	0	480
6.599	7.248	16384	16384	0	480
10.278	5.770	16384	16634	0	480
9.124	3.750	16384	16759	0	480
6.599	4.724	16384	16884	0	480
5.554	6.094	16384	17009	0	480
1.298	6.455	16384	17134	0	480
1.947	6.599	16384	17384	0	480
1.947	2.488	16384	17634	0	480
3.498	0.433	16384	17759	0	480
5.481	0.180	16384	17759	0	480
7.321	3.390	16384	17634	0	480
7.862	5.554	16384	17509	0	480
4.796	3.606	16384	17384	0	480
1.623	-0.577	16384	17134	0	480
-3.173	-6.239	16384	16884	0	480
-5.157	-9.484	16384	16884	0	480
-4.760	-6.635	16384	17134	0	480
-2.344	-5.265	16384	17259	0	480
-1.551	-2.200	16384	17259	0	480
-2.272	-2.164	16384	17009	0	480
-0.829	-2.416	16384	16759	0	480
-0.433	-1.479	16384	16384	0	480
2.416	0.649	16384	16134	0	480
5.121	0.974	16384	15884	0	480
10.025	2.488	16384	15759	0	480
12.009	2.308	16384	15884	0	480
15.471	3.137	16384	16134	0	480
15.146	5.157	16384	16009	0	480
14.785	6.527	16384	15509	0	480
11.107	10.061	16384	15009	0	480
6.419	10.133	16384	14634	0	480
6.022	7.717	16384	14634	0	480
6.203	4.868	16384	14759	0	480
8.330	3.534	16384	14884	0	480
8.402	2.344	16384	14884	0	480
6.167	3.282	16384	14634	0	480
0.288	3.354	16384	14134	0	480
-3.246	2.741	16384	13509	0	480
-6.167	0.613	16384	13009	0	480
-5.662	-0.036	16384	13009	0	480
-4.508	0.541	16384	13509	0	480
-2.921	0.036	16384	14009	0	480
-1.839	-0.361	16383	14134	0	480
1.010	-0.036	16383	14134	0	480
3.210	0.216	16383	14134	0	480
3.210	0.000	16383	14384	0	480
2.705	0.829	16383	14634	0	480
1.767	0.974	16383	15009	0	480
-1.839	1.334	16383	15384	0	480
-4.111	-0.649	16383	15884	0	480
-5.517	-0.829	16383	16384	0	480
-6.924	-2.452	16383	16634	0	480
-8.907	-4.364	16383	17009	0	480
-12.658	-4.147	16383	17134	0	480
-15.146	-2.813	16383	17509	0	480
-16.625	-1.154	16383	17884	0	480
-18.031	-0.108	16384	18509	0	480
-15.903	0.865	16384	19009	0	480
-17.670	-1.731	16384	19509	0	480
-16.264	-3.462	16384	20009	0	480
-17.166	-5.662	16384	20384	0	480
-12.369	-6.419	16384	20634	0	480
-11.612	-6.780	16384	20884	0	480
-11.828	-7.248	16384	21009	0	480
-11.323	-6.058	16384	20759	0	480
-11.432	-4.832	16384	20509	0	480
-8.006	-5.590	16384	20134	0	480
-1.010	-3.426	16384	19759	0	480
2.560	-3.931	16384	19384	1	404
3.678	-2.633	16384	18884	0	404
1.334	-1.226	16384	18384	0	404
-1.406	-0.108	16384	17759	0	404
-3.859	-0.108	16384	17134	0	404
-2.092	-0.902	16384	16759	0	404
0.577	-2.813	16384	16634	0	404
3.354	-3.210	16384	16634	0	404
4.544	-3.931	16384	16759	0	404
2.633	-2.741	16384	16759	0	404
-0.108	-2.236	16384	16634	0	404
-5.590	-0.974	16384	16509	0	404
-8.583	-4.255	16384	16384	0	404
-8.871	-5.085	16384	16134	0	404
-6.960	-5.842	16384	15884	0	404
-1.839	-6.347	16384	15884	0	404
-1.046	-6.744	16384	16009	0	404
-4.364	-8.150	16384	16384	0	404
-11.684	-13.740	16384	16509	0	404
-16.336	-15.759	16384	16634	0	404
-18.428	-15.002	16384	16759	0	404
-13.379	-12.766	16384	17009	0	404
-6.960	-8.258	16384	17259	0	404
-1.515	-3.787	16384	17009	0	404
2.921	-1.154	16384	16384	0	404
4.940	-0.397	16384	15759	0	404
5.734	1.803	16384	15259	0	404
4.472	1.334	16384	15009	0	404
2.056	-1.226	16384	14884	0	404
-2.019	-0.902	16384	14884	0	404
-3.390	-2.092	16384	15009	0	404
-2.596	-0.433	16384	15259	0	404
0.288	1.370	16384	15884	0	404
4.616	6.058	16384	16384	0	404
7.573	6.816	16384	16759	0	404
8.547	6.599	16384	16884	0	404
6.599	5.229	16384	17009	0	404
3.967	1.334	16384	17259	0	404
0.361	-0.721	16384	17384	0	404
-2.741	-3.823	16384	17009	0	404
-5.085	-6.239	16384	16759	0	404
-5.878	-8.006	16384	16509	0	404
-4.364	-7.465	16384	16384	0	404
-1.010	-7.285	16384	16134	0	404
1.947	-4.616	16384	16009	0	404
2.705	-2.741	16384	16009	0	404
-0.180	-2.705	16384	15759	0	404
-2.741	-2.056	16384	15384	0	404
-2.849	-1.010	16384	14884	0	404
-2.200	-0.541	16384	14509	0	404
1.911	0.649	16384	14384	0	404
6.419	1.334	16384	14634	0	404
9.340	1.551	16384	14884	0	404
10.133	1.082	16384	14884	0	404
10.242	0.865	16384	14884	0	404
6.852	0.216	16384	15134	0	404
2.741	1.370	16384	15634	0	404
3.029	2.777	16384	15759	0	404
4.760	3.859	16384	15759	0	404
6.563	4.904	16384	15634	0	404
8.475	4.255	16384	15259	0	404
5.373	3.534	16384	14884	0	404
1.082	1.911	16384	14884	0	404
-2.669	1.442	16384	15009	0	404
-3.714	1.623	16384	15384	0	404
-1.226	2.921	16384	15759	0	404
3.354	4.652	16384	16134	0	404
7.609	6.671	16384	16634	0	404
9.448	8.511	16384	17134	0	404
7.573	7.176	16384	17509	0	404
5.301	6.852	16384	17759	0	404
0.685	5.770	16384	18009	0	404
-2.669	4.003	16384	18384	0	404
-3.354	4.832	16384	18759	0	404
-1.190	5.049	16384	19009	0	404
2.092	4.400	16384	19134	0	404
7.537	5.301	16385	19384	0	404
8.366	2.921	16385	19759	0	404
4.724	1.262	16385	19634	0	404
2.236	0.938	16385	19384	0	404
-1.334	1.947	16385	19009	0	404
-1.695	3.173	16385	18634	0	404
-2.056	2.633	16385	18134	0	404
-2.596	-0.072	16385	17759	0	404
-3.390	-3.642	16385	17509	0	404
-4.147	-5.842	16385	17134	0	404
-2.669	-3.498	16385	16384	0	404
-0.108	0.902	16384	15509	0	404
-0.108	6.203	16384	14884	0	404
0.108	8.150	16384	14509	0	404
0.108	7.573	16384	14259	0	404
0.865	6.203	16384	14009	0	404
2.777	4.508	16384	13634	0	404
8.078	7.285	16384	13259	0	404
9.701	10.386	16384	12884	0	404
9.088	11.504	16384	12509	0	404
5.265	10.530	16384	12509	0	404
-0.252	9.773	16384	12884	0	404
-2.705	10.169	16384	13634	0	404
-0.072	11.540	16384	14634	0	404
5.554	14.389	16384	15384	0	404
10.674	14.641	16384	15884	0	404
12.838	11.612	16384	16134	0	404
14.208	11.360	16384	16384	0	404
12.622	9.484	16384	16634	0	404
7.753	4.904	16384	17134	0	404
5.121	2.452	16384	17759	0	404
1.623	-1.334	16384	18134	0	404
0.216	-3.823	16384	18384	0	404
3.570	-1.118	16384	18509	0	404
9.484	2.596	16385	18634	0	404
11.143	3.642	16385	18759	0	404
10.133	6.996	16384	18634	0	404
6.203	5.373	16384	18134	0	404
0.938	3.065	16384	17759	0	404
-2.380	2.236	16384	17259	0	404
-4.616	1.695	16384	17009	0	404
-3.246	0.288	16384	16759	0	404
-4.580	-0.108	16384	16509	0	404
-1.695	-0.072	16384	16384	0	404
2.092	0.938	16384	16384	0	404
5.878	5.662	16384	16009	0	404
10.242	9.953	16384	15509	0	404
10.674	13.740	16384	15384	0	404
6.708	13.740	16384	15259	0	404
3.498	10.097	16384	15009	0	404
1.226	8.186	16384	14759	0	404
0.361	3.823	16384	14759	0	404
2.921	1.190	16384	14884	0	404
3.678	-2.633	16384	14884	0	404
1.010	-6.563	16384	14759	0	404
-3.318	-8.835	16384	14509	0	404
-7.393	-11.143	16384	14509	0	404
-9.484	-9.629	16384	14759	0	404
-7.717	-7.970	16384	15134	0	404
-3.354	-5.049	16384	15509	0	404
1.370	-4.255	16384	15634	0	404
6.167	-1.406	16384	15634	0	404
8.799	1.911	16384	15509	0	404
8.439	1.875	16384	15384	0	404
6.744	3.606	16384	15384	0	404
3.065	2.741	16384	15384	0	404
1.190	2.380	16384	15259	0	404
3.606	4.832	16384	15259	0	404
10.638	8.943	16384	15259	0	404
15.831	13.127	16384	15384	0	404
19.978	15.326	16384	15509	0	404
15.687	10.602	16384	15884	0	404
7.970	6.275	16384	16134	0	404
0.072	1.587	16384	16259	0	404
-4.580	-0.577	16384	16384	0	404
-6.058	0.685	16384	16509	0	404
-3.714	3.318	16384	16634	0	404
-0.721	6.383	16384	16759	0	404
-0.397	6.455	16384	16759	0	404
-0.433	5.373	16384	16759	0	404
-1.551	4.472	16384	16634	0	404
-4.544	1.262	16384	16509	0	404
-5.806	0.721	16384	16384	0	404
-6.635	1.010	16384	16384	0	404
-6.708	0.469	16384	16384	0	404
-8.078	0.397	16384	16384	0	404
-7.032	-1.226	16384	16759	0	404
-5.193	-1.298	16384	17259	0	404
-3.065	-0.180	16384	17509	0	404
-0.361	1.803	16384	17759	0	404
1.190	4.977	16384	18259	0	404
3.210	6.491	16384	18884	0	404
5.914	10.206	16384	19134	0	404
7.429	11.107	16384	19009	0	404
9.629	9.556	16384	18884	0	404
7.681	7.140	16384	18634	0	404
2.272	2.344	16384	18634	0	404
-2.272	-1.010	16384	18634	1	692
-6.383	-3.642	16384	18259	0	692
-7.321	-3.246	16384	17634	0	692
-5.481	-4.327	16384	17259	0	692
-1.875	-1.659	16384	16884	0	692
1.803	0.902	16384	16634	0	692
5.193	2.957	16384	16384	0	692
5.590	5.265	16384	16259	0	692
4.291	2.993	16384	15634	0	692
-1.731	-0.613	16384	15134	0	692
-5.698	-4.904	16384	14884	0	692
-9.556	-9.304	16384	15009	0	692
-8.943	-11.215	16384	15009	0	692
-5.265	-9.268	16384	15134	0	692
-1.695	-6.131	16384	15259	0	692
0.721	-3.498	16384	15509	0	692
1.190	-1.479	16384	15509	0	692
2.452	-2.308	16384	15509	0	692
4.003	-2.921	16384	15384	0	692
5.986	-1.442	16384	15134	0	692
7.934	0.974	16384	15134	0	692
9.556	1.983	16384	15134	0	692
7.248	2.308	16384	15134	0	692
6.131	-0.325	16384	15259	0	692
4.760	-3.462	16384	15634	0	692
4.472	-6.527	16384	16009	0	692
5.409	-6.419	16384	16384	0	692
6.635	-4.436	16384	16634	0	692
6.996	0.361	16384	17009	0	692
8.114	4.003	16384	17259	0	692
9.737	7.609	16384	17384	0	692
13.776	8.979	16384	17509	0	692
14.641	8.402	16384	17509	0	692
14.966	8.511	16384	17384	0	692
9.629	7.898	16384	17134	0	692
2.524	5.806	16384	16759	0	692
-1.695	6.239	16384	16259	0	692
-1.875	4.796	16384	15759	0	692
-0.036	8.330	16384	15384	0	692
3.173	9.232	16384	15134	0	692
4.039	11.720	16384	15134	0	692
3.787	10.314	16384	15259	0	692
3.029	7.681	16384	15634	0	692
-0.721	1.731	16384	16009	0	692
-2.921	-3.318	16384	16009	0	692
-9.052	-6.960	16384	16009	0	692
-13.559	-7.501	16384	16009	0	692
-13.343	-7.068	16384	16134	0	692
-11.323	-2.777	16384	16384	0	692
-7.465	-1.947	16384	16384	0	692
-2.885	-1.875	16384	16259	0	692
-0.685	-3.426	16384	16259	0	692
0.036	-5.554	16384	16259	0	692
-2.344	-6.455	16384	16134	0	692
-5.698	-4.977	16384	15884	0	692
-9.953	-6.311	16383	15509	0	692
-10.783	-3.390	16383	15009	0	692
-8.907	-3.462	16383	14759	0	692
-6.311	-2.560	16383	14509	0	692
-7.429	-3.426	16383	14509	0	692
-10.999	-6.888	16383	14509	0	692
-15.182	-9.196	16383	14759	0	692
-18.788	-13.740	16383	15259	0	692
-15.074	-12.261	16383	15759	0	692
-12.550	-8.222	16383	16009	0	692
-8.150	-6.347	16383	15884	0	692
-4.904	-4.003	16383	15634	0	692
-3.173	-4.219	16383	15384	0	692
-0.613	-5.013	16383	15509	0	692
2.164	-5.986	16383	16009	0	692
0.469	-6.311	16383	16509	0	692
-2.308	-4.544	16383	17134	0	692
-5.049	-6.383	16383	17509	0	692
-5.301	-4.724	16383	17759	0	692
-1.659	-1.479	16383	17884	0	692
3.498	1.226	16383	17884	0	692
6.996	2.885	16383	17634	0	692
5.554	2.164	16383	17509	0	692
1.190	-0.829	16383	17384	0	692
-4.688	-5.301	16383	17384	0	692
-8.583	-8.222	16383	17509	0	692
-11.432	-8.114	16383	17759	0	692
-11.684	-6.094	16383	17884	0	692
-7.753	-6.167	16383	17759	0	692
-5.734	-4.508	16383	17634	0	692
-0.577	-4.472	16383	17509	0	692
2.993	-3.787	16383	17634	0	692
6.239	-0.938	16384	17884	0	692
7.645	2.524	16384	18134	0	692
7.429	4.508	16384	18009	0	692
6.527	4.183	16384	17884	0	692
4.688	3.823	16384	17884	0	692
5.193	3.931	16384	18009	0	692
7.357	5.013	16384	18384	0	692
10.963	9.881	16384	18759	0	692
11.504	12.081	16384	18884	0	692
13.992	11.756	16384	18759	0	692
13.523	11.323	16384	18509	0	692
11.756	7.573	16384	18009	0	692
10.242	5.842	16384	17384	0	692
7.645	4.508	16384	17009	1	400
4.652	4.724	16384	16759	0	400
3.426	4.688	16384	16509	0	400
1.659	3.534	16384	16384	0	400
0.613	3.606	16384	16259	0	400
-1.082	2.452	16384	16134	0	400
-1.442	0.433	16384	16259	0	400
1.623	-0.649	16384	16134	0	400
3.823	-2.200	16384	15759	0	400
4.724	-0.577	16384	15509	0	400
6.275	1.370	16384	15384	0	400
4.580	3.246	16384	15384	0	400
1.479	5.950	16384	15509	0	400
-0.144	5.626	16384	15884	0	400
0.036	4.652	16384	16384	0	400
0.938	3.931	16384	16884	0	400
5.626	3.642	16384	17384	0	400
10.025	5.049	16384	17759	0	400
9.881	5.157	16384	17759	0	400
6.960	5.301	16384	17634	0	400
4.075	5.337	16384	17259	0	400
1.947	6.094	16384	16759	0	400
4.832	6.852	16384	16384	0	400
7.285	10.314	16384	16384	0	400
7.429	9.016	16384	16384	0	400
5.878	4.796	16384	16509	0	400
1.839	-0.180	16384	16509	0	400
-1.154	-3.318	16384	16509	0	400
-2.308	-2.993	16384	16509	0	400
-4.075	1.154	16384	16634	0	400
-5.157	2.993	16384	16759	0	400
-7.862	4.183	16384	16884	0	400
-7.176	2.957	16384	16884	0	400
-6.383	0.072	16384	16884	0	400
-3.895	-2.019	16384	16509	0	400
-4.327	-3.895	16384	16009	0	400
-5.950	-6.347	16384	15509	0	400
-7.609	-5.121	16384	14759	0	400
-6.708	-1.623	16384	14134	0	400
-3.750	3.318	16384	13884	0	400
2.560	5.950	16384	13634	0	400
3.570	6.671	16384	13384	0	400
3.282	4.832	16384	13509	0	400
1.587	2.200	16384	14134	0	400
0.613	0.505	16384	14634	0	400
1.659	3.390	16384	15134	0	400
4.400	5.409	16384	15259	0	400
5.698	9.196	16384	15384	0	400
7.717	12.802	16384	15634	0	400
9.665	13.235	16384	15634	0	400
10.169	14.641	16384	15634	0	400
9.989	11.323	16384	15759	0	400
7.753	11.360	16384	16259	0	400
4.868	8.871	16384	16509	0	400
3.354	8.763	16384	16384	0	400
6.275	7.465	16384	16134	0	400
8.294	9.520	16384	15884	0	400
11.215	9.484	16384	15634	0	400
10.963	8.114	16384	15384	0	400
7.032	6.239	16384	15384	0	400
2.344	3.282	16384	15634	0	400
-2.813	1.551	16384	16134	0	400
-5.554	0.613	16384	16384	0	400
-6.888	0.829	16384	16509	0	400
-6.924	0.577	16384	16759	0	400
-8.871	0.469	16384	17009	0	400
-7.825	0.577	16384	17259	0	400
-7.573	1.551	16384	17634	0	400
-6.419	2.488	16384	17759	0	400
-3.570	3.823	16384	17634	0	400
-4.291	2.236	16384	17509	0	400
-5.265	2.272	16384	17134	0	400
-4.832	2.344	16384	16759	0	400
-4.291	2.272	16384	16384	0	400
-2.633	2.272	16384	16259	0	400
-0.902	1.442	16384	16259	0	400
-1.983	0.433	16384	16259	0	400
-3.210	-1.010	16384	16009	0	400
-4.472	-0.361	16384	16009	0	400
-3.678	1.623	16384	16259	0	400
-2.849	5.049	16384	16384	0	400
-0.433	6.599	16384	16759	0	400
2.921	8.258	16384	17259	0	400
6.058	9.160	16384	17634	0	400
7.681	9.881	16384	17884	0	400
8.547	8.222	16384	18259	0	400
4.580	10.783	16384	18634	0	400
2.019	10.927	16384	19134	0	400
-2.200	11.937	16384	19509	0	400
-2.452	13.884	16384	19759	0	400
-3.426	13.271	16384	20009	0	400
-0.252	9.088	16385	20134	0	400
2.272	7.573	16385	20134	0	400
6.852	6.383	16385	19759	0	400
11.973	6.275	16385	19259	0	400
14.749	9.232	16385	18759	0	400
15.218	10.386	16385	18259	0	400
15.254	10.242	16385	17759	1	388
10.025	8.439	16385	17134	0	388
7.140	5.698	16385	16509	0	388
2.957	2.128	16385	16134	0	388
0.902	0.000	16385	15509	0	388
-0.180	-1.551	16385	14759	0	388
0.325	-2.019	16385	14259	0	388
2.092	0.144	16385	14134	0	388
5.554	1.370	16385	14134	0	388
9.088	3.678	16385	14259	0	388
12.694	7.753	16385	14384	0	388
15.290	8.222	16384	14384	0	388
11.828	6.455	16384	14134	0	388
9.088	4.255	16384	13759	0	388
4.616	2.380	16384	13509	0	388
0.577	1.803	16384	13509	0	388
-1.226	2.200	16384	13384	0	388
2.452	7.537	16384	13259	0	388
8.402	10.061	16384	13259	0	388
13.668	14.136	16384	13259	0	388
18.608	14.569	16384	13634	0	388
14.208	12.910	16384	14384	0	388
7.898	6.708	16384	15384	0	388
1.046	2.813	16384	16509	0	388
-3.606	1.154	16384	17509	0	388
-2.813	1.839	16384	18509	0	388
-0.541	3.029	16384	19259	0	388
2.885	6.527	16385	19759	0	388
4.255	8.583	16385	20259	0	388
5.878	9.088	16385	20634	0	388
5.878	8.799	16385	20634	0	388
3.750	7.501	16385	20509	0	388
2.849	5.662	16385	20134	0	388
1.334	3.534	16385	19509	0	388
0.902	2.957	16385	18509	0	388
1.911	2.524	16385	17634	0	388
3.246	1.839	16385	16634	0	388
5.481	2.092	16385	15884	0	388
4.580	1.695	16385	15134	0	388
1.154	-0.361	16384	14509	0	388
-1.983	-1.082	16384	14134	0	388
-4.652	-0.793	16384	13759	0	388
-3.678	2.524	16384	13634	0	388
1.010	5.337	16384	13509	0	388
4.400	8.042	16384	13509	0	388
4.327	7.140	16384	13384	0	388
2.056	6.203	16384	13259	0	388
-1.911	3.859	16384	13634	0	388
-3.426	2.560	16384	14259	0	388
-2.669	3.173	16384	14884	0	388
-0.613	4.003	16384	15634	0	388
1.803	7.465	16384	16259	0	388
5.265	10.819	16384	16634	0	388
7.465	14.317	16384	17009	0	388
9.016	13.018	16384	17259	0	388
7.609	12.694	16385	17509	0	388
5.626	8.691	16385	17509	0	388
1.659	4.904	16385	17509	0	388
-0.974	4.724	16385	17259	0	388
-3.101	2.416	16385	16884	0	388
-2.272	2.596	16384	16384	0	388
-0.865	4.219	16384	16009	0	388
1.442	5.914	16384	15509	0	388
5.445	6.744	16384	15009	0	388
6.816	5.770	16384	14759	0	388
6.996	2.380	16384	14634	0	388
5.121	-1.911	16384	14634	0	388
4.003	-3.678	16384	14509	0	388
1.334	-1.731	16384	14759	0	388
1.082	1.442	16384	15259	0	388
1.983	5.049	16384	15884	0	388
4.039	7.789	16384	16509	0	388
7.321	7.248	16384	17259	0	388
8.871	6.419	16384	18009	0	388
6.744	4.832	16384	18634	0	388
2.885	2.380	16384	19259	0	388
-3.498	2.488	16385	19509	0	388
-6.888	2.236	16385	19759	0	388
-7.465	1.190	16385	19759	0	388
-6.094	0.469	16385	19509	1	316
-3.642	-1.731	16385	19134	0	316
-1.623	-3.246	16385	18759	0	316
-0.433	-2.741	16385	18259	0	316
-1.803	-2.705	16385	18134	0	316
-3.462	-2.019	16385	18009	0	316
-6.455	-1.010	16385	17759	0	316
-7.393	-0.577	16385	17384	0	316
-4.508	-0.361	16385	16759	0	316
-0.902	0.397	16385	16509	0	316
2.092	0.288	16385	16384	0	316
3.678	-2.200	16385	16384	0	316
1.551	-4.075	16385	16384	0	316
-2.488	-6.239	16385	16384	0	316
-6.816	-5.986	16385	15759	0	316
-8.943	-4.616	16385	15009	0	316
-8.078	-1.839	16384	14259	0	316
-3.823	1.226	16384	13634	0	316
1.551	0.361	16384	13009	0	316
3.678	-1.731	16384	12384	0	316
3.967	-4.039	16384	11759	0	316
-0.505	-6.599	16384	11009	0	316
-3.678	-7.032	16384	10259	0	316
-6.455	-6.203	16384	9634	0	316
-6.275	-3.967	16384	9384	0	316
-4.472	-1.623	16383	9259	0	316
-1.623	-0.216	16383	9509	0	316
0.144	0.180	16383	9884	0	316
1.190	0.252	16383	10509	0	316
1.875	-1.082	16383	11384	0	316
1.046	-2.128	16383	12384	0	316
0.685	-1.190	16383	13509	0	316
-1.587	0.469	16383	14509	0	316
-2.344	2.669	16383	15384	0	316
-1.911	2.596	16383	16134	0	316
1.442	3.173	16383	16384	0	316
6.094	1.226	16383	16634	0	316
9.701	1.659	16383	16884	0	316
10.458	2.921	16383	17134	0	316
10.927	5.626	16383	17259	0	316
10.350	7.753	16383	17259	0	316
9.953	6.852	16383	17134	0	316
10.386	4.472	16383	17009	0	316
10.710	1.262	16383	17134	0	316
9.448	-1.082	16383	17259	0	316
8.258	-2.921	16383	17634	0	316
9.088	-0.325	16383	18259	0	316
10.783	1.947	16383	19009	0	316
11.143	5.049	16383	19634	0	316
13.091	6.455	16383	20134	0	316
12.874	7.285	16383	20384	0	316
10.458	7.321	16383	20509	0	316
8.655	5.698	16383	20509	0	316
7.465	2.777	16383	20509	0	316
4.760	0.072	16384	20634	0	316
-0.252	-3.787	16384	20634	0	316
-2.164	-4.003	16384	20634	0	316
-4.652	-1.442	16384	20384	0	316
-2.560	4.508	16384	20134	0	316
1.046	8.727	16384	19759	0	316
5.626	11.576	16384	19509	0	316
6.203	8.763	16384	19259	0	316
1.190	3.895	16384	19259	0	316
-4.075	-2.957	16384	19384	0	316
-8.511	-6.527	16384	19634	0	316
-10.025	-5.878	16384	19759	0	316
-7.970	-1.587	16384	20009	0	316
-2.921	2.921	16384	20259	0	316
0.577	4.111	16384	20509	0	316
2.957	3.065	16384	20634	0	316
3.534	0.180	16384	20509	0	316
0.974	-3.173	16385	20259	0	316
-4.219	-4.977	16385	20259	0	316
-9.304	-5.554	16385	20384	0	316
-10.746	-5.373	16385	20634	0	316
-10.350	-2.200	16385	20634	0	316
-6.419	-0.325	16385	20134	0	316
-2.633	1.587	16385	19259	0	316
-0.397	2.308	16385	18259	0	316
1.803	2.777	16385	16884	0	316
3.173	0.252	16385	15634	1	320
3.606	-1.803	16385	14259	0	320
3.750	-3.859	16385	12759	0	320
2.452	-6.599	16384	11509	0	320
1.298	-4.364	16384	10634	0	320
2.164	-0.469	16384	10384	0	320
2.957	3.967	16384	10134	0	320
5.265	7.140	16384	10134	0	320
6.744	9.917	16384	10134	0	320
5.157	10.674	16384	10259	0	320
3.282	10.783	16384	10634	0	320
0.433	10.278	16384	11259	0	320
-0.361	11.071	16384	11884	0	320
1.479	11.323	16384	12384	0	320
4.039	8.943	16384	12884	0	320
4.832	8.943	16384	13259	0	320
7.068	6.563	16384	13634	0	320
6.383	7.321	16384	13884	0	320
4.796	8.979	16384	13884	0	320
3.498	9.629	16384	14009	0	320
1.731	9.520	16384	14259	0	320
1.442	7.032	16384	14509	0	320
3.498	5.085	16384	14759	0	320
6.708	2.957	16384	15259	0	320
7.429	0.469	16384	16009	0	320
5.265	-2.019	16384	16634	0	320
2.777	-1.334	16384	16884	0	320
1.190	2.200	16384	16759	0	320
3.787	7.537	16384	16509	0	320
7.789	15.903	16384	16259	0	320
11.900	20.087	16384	16134	0	320
14.172	23.188	16384	16009	0	320
11.432	19.437	16384	15884	0	320
9.881	15.398	16384	15759	0	320
6.744	9.160	16384	15759	0	320
5.770	7.862	16384	15884	0	320
4.111	8.114	16384	16134	0	320
3.931	9.088	16384	16259	0	320
2.056	9.124	16384	16259	0	320
3.065	8.511	16384	16134	0	320
4.327	6.347	16384	15884	0	320
6.635	5.734	16384	15509	0	320
7.753	6.383	16383	15259	0	320
5.229	6.816	16383	15134	0	320
3.534	6.275	16383	15134	0	320
-0.613	7.934	16383	15134	0	320
-4.400	7.357	16383	14884	0	320
-5.445	5.301	16383	14509	0	320
-4.796	3.787	16383	14384	0	320
-3.210	2.200	16383	14384	0	320
-1.623	1.190	16383	14634	0	320
-0.649	2.344	16383	14884	0	320
-0.721	3.101	16383	15384	0	320
-2.488	6.131	16383	15884	0	320
-1.479	7.501	16383	16384	0	320
-0.288	9.376	16383	16884	0	320
1.947	7.609	16383	17509	0	320
4.039	7.321	16383	18134	0	320
5.481	5.445	16383	18759	0	320
6.022	6.527	16383	19509	0	320
4.075	7.898	16383	20259	0	320
1.767	8.222	16384	20884	0	320
-2.741	9.232	16384	21134	0	320
-6.022	6.022	16384	21134	0	320
-8.835	4.400	16384	20884	0	320
-8.583	0.829	16384	20384	0	320
-8.655	-1.046	16384	19509	0	320
-6.780	-2.596	16384	18509	0	320
-4.724	-1.298	16383	17759	0	320
-4.147	0.793	16383	17259	0	320
-3.606	1.839	16383	16884	0	320
-2.921	3.354	16383	16634	0	320
-2.344	5.554	16383	16509	0	320
-2.921	5.445	16384	16384	0	320
-1.334	4.003	16384	16509	0	320
-0.902	4.183	16384	16759	0	320
-1.010	1.154	16384	17009	0	320
-1.298	-0.036	16384	17009	0	320
-1.262	2.092	16384	16884	0	320
0.865	3.859	16384	16759	1	316
3.714	7.212	16384	16509	0	316
5.157	9.989	16384	16384	0	316
8.222	9.701	16384	16259	0	316
8.186	9.809	16384	16259	0	316
6.022	7.970	16384	16384	0	316
6.094	6.816	16384	16259	0	316
5.590	7.176	16384	15884	0	316
3.534	7.970	16384	15759	0	316
6.852	10.602	16384	15759	0	316
10.169	13.884	16384	16009	0	316
11.648	18.933	16384	16259	0	316
15.435	18.716	16384	16384	0	316
14.533	18.320	16384	16634	0	316
10.891	13.595	16384	16759	0	316
7.609	7.898	16384	17009	0	316
5.193	4.327	16384	17384	0	316
3.498	1.370	16384	17509	0	316
2.236	1.839	16384	17634	0	316
1.515	1.875	16384	17759	0	316
0.469	1.623	16384	17884	0	316
-0.108	0.757	16384	17759	0	316
0.577	0.865	16384	17509	0	316
3.895	3.246	16384	17259	0	316
5.373	6.960	16384	16884	0	316
4.183	8.475	16384	16634	0	316
1.370	9.989	16384	16384	0	316
-1.767	6.960	16384	16259	0	316
-2.019	6.671	16384	16009	0	316
0.000	5.842	16384	15884	0	316
3.246	5.157	16384	16134	0	316
5.950	3.895	16384	16384	0	316
7.573	4.255	16384	16759	0	316
7.537	4.977	16384	16884	0	316
9.376	6.708	16384	17134	0	316
8.511	8.330	16384	17384	0	316
6.311	7.176	16384	17884	0	316
2.019	5.986	16384	18759	0	316
-2.308	1.875	16384	19384	0	316
-7.176	-0.144	16384	19884	0	316
-8.150	-3.173	16385	19884	0	316
-7.825	-2.885	16385	19759	0	316
-6.203	-0.902	16385	19384	0	316
-3.390	0.938	16385	19009	0	316
-1.515	5.554	16385	18509	0	316
-1.587	7.140	16385	17884	0	316
-1.875	6.816	16385	17259	0	316
-1.767	5.878	16385	16384	0	316
-2.596	3.282	16385	15884	0	316
-2.741	0.829	16385	15384	0	316
-2.128	0.541	16385	14884	0	316
-2.957	1.262	16385	14384	0	316
-3.354	3.534	16385	13759	0	316
-2.849	5.950	16384	13134	0	316
0.288	8.186	16384	12884	0	316
4.724	10.458	16384	12884	0	316
8.511	9.088	16384	13134	0	316
12.405	6.635	16384	13134	0	316
10.783	1.659	16384	13009	0	316
7.176	-0.685	16384	12634	0	316
2.488	-0.252	16384	12384	0	316
-1.947	2.308	16384	12259	0	316
-5.662	4.003	16384	12259	0	316
-6.491	4.327	16384	12259	0	316
-5.842	3.246	16384	12509	0	316
-3.390	-0.036	16384	13009	0	316
-1.911	-1.298	16384	13884	0	316
-2.524	-1.947	16384	14759	0	316
-5.301	-3.967	16384	15509	0	316
-9.809	-6.383	16384	16009	0	316
-14.894	-8.871	16384	16384	0	316
-15.723	-12.153	16384	17009	0	316
-19.005	-13.415	16384	17759	0	316
-19.329	-13.091	16384	18509	0	316
-20.988	-13.235	16384	19009	0	316
-19.906	-13.415	16384	19134	0	316
-19.726	-13.235	16384	19134	0	316
-16.516	-15.110	16384	19009	0	316
-15.615	-14.317	16384	18884	0	316
-12.045	-14.966	16384	18509	0	316
-10.746	-12.550	16384	18134	0	316
-8.294	-11.143	16384	17759	0	316
-6.203	-8.979	16384	17384	0	316
-5.986	-5.013	16384	17009	0	316
-6.455	-1.659	16384	16634	0	316
-6.527	1.442	16384	16384	0	316
-7.248	3.101	16384	16259	0	316
-4.364	3.967	16384	16134	0	316
-1.983	2.813	16384	15884	0	316
0.036	-0.757	16384	15884	0	316
1.479	-3.787	16384	16134	0	316
0.072	-6.239	16384	16384	0	316
-1.983	-7.176	16384	17009	0	316
-2.957	-3.678	16384	17384	0	316
-3.462	2.813	16384	17384	0	316
-2.849	7.285	16384	17259	0	316
0.361	9.845	16384	17134	0	316
3.823	8.835	16384	17134	0	316
5.554	5.013	16384	16884	0	316
4.327	1.731	16384	16509	0	316
1.262	-0.541	16384	16259	0	316
-1.947	-0.216	16384	15884	0	316
-2.921	-0.685	16384	15509	0	316
-2.669	1.082	16384	15009	0	316
-0.902	2.416	16384	14384	0	316
-0.036	2.164	16384	13884	0	316
0.577	4.183	16384	13634	0	316
2.885	6.239	16384	13384	0	316
5.409	7.753	16384	13259	0	316
5.806	8.366	16384	13134	0	316
5.157	6.491	16384	13259	0	316
2.921	6.022	16384	13384	0	316
-0.577	4.219	16384	13634	0	316
-2.019	2.596	16384	13759	0	316
-2.560	3.029	16384	14009	0	316
-1.587	1.226	16384	14509	0	316
-2.164	-1.154	16384	15259	0	316
-3.678	-1.839	16384	16134	0	316
-5.193	-2.092	16384	16884	0	316
-7.212	-0.721	16384	17634	0	316
-5.301	1.334	16384	18509	0	316
-0.036	5.301	16384	19259	0	316
4.472	7.862	16384	20009	0	316
11.684	9.052	16384	20259	0	316
11.540	10.242	16384	20259	0	316
7.717	7.429	16384	20259	0	316
2.092	4.724	16384	20259	0	316
-4.255	2.813	16384	20009	0	316
-3.570	2.524	16384	19509	0	316
2.596	4.688	16384	19134	0	316
10.025	11.756	16384	18759	0	316
16.733	14.245	16384	18634	1	524
19.546	15.362	16384	18384	0	524
20.700	15.687	16384	17884	0	524
17.706	11.864	16384	17134	0	524
15.074	8.655	16384	16384	0	524
9.412	7.501	16384	15759	0	524
6.239	5.734	16384	15009	0	524
5.085	6.419	16384	14259	0	524
7.176	7.645	16384	13634	0	524
8.150	9.196	16384	13134	0	524
6.888	7.465	16384	12884	0	524
0.469	2.560	16384	12759	0	524
-7.501	-2.056	16384	12759	0	524
-13.884	-5.626	16384	12759	0	524
-14.389	-6.527	16383	12759	0	524
-14.064	-4.075	16383	12884	0	524
-10.674	-2.344	16383	13009	0	524
-6.780	-1.046	16384	13259	0	524
-3.354	-0.288	16383	13509	0	524
-1.298	-0.288	16383	13759	0	524
2.272	1.118	16383	14134	0	524
1.983	3.137	16383	14759	0	524
0.541	3.101	16383	15384	0	524
-1.334	4.688	16383	16259	0	524
-2.380	4.724	16384	16884	0	524
-1.082	4.544	16384	17634	0	524
-0.325	3.606	16384	18259	0	524
-0.216	2.741	16384	18759	0	524
-1.659	-0.469	16384	19259	0	524
-4.652	-1.839	16384	19884	0	524
-6.563	-3.570	16384	20259	0	524
-8.547	-4.616	16384	20634	0	524
-6.275	-4.364	16384	20634	0	524
-2.993	-3.642	16384	20509	0	524
2.272	-1.911	16384	20259	0	524
7.825	0.469	16384	20009	0	524
12.045	1.298	16384	19884	0	524
10.242	1.695	16384	19634	0	524
5.590	0.180	16384	19259	0	524
-1.911	-1.190	16384	19009	0	524
-6.744	-1.118	16384	18884	0	524
-8.619	-0.216	16384	18509	0	524
-6.239	0.757	16384	18134	0	524
-1.911	1.118	16384	17509	0	524
1.334	0.505	16384	16884	0	524
5.157	0.252	16384	16509	0	524
5.878	-0.361	16384	16384	0	524
6.275	-0.216	16384	16384	0	524
3.859	0.252	16384	16384	0	524
2.524	1.154	16384	16384	0	524
2.164	2.705	16384	16259	0	524
3.065	4.977	16384	16134	0	524
4.364	6.852	16384	15884	0	524
5.734	8.294	16384	15634	0	524
4.832	5.085	16384	15509	0	524
1.947	3.173	16384	15634	0	524
-1.226	-2.452	16384	15634	0	524
-4.183	-4.111	16384	15384	0	524
-4.111	-5.193	16384	15009	0	524
0.721	-2.164	16384	14759	0	524
6.527	2.488	16384	14759	0	524
12.117	6.275	16384	14759	0	524
16.048	9.052	16384	14884	0	524
15.110	8.439	16384	15259	0	524
12.405	5.590	16384	15634	0	524
8.258	0.144	16384	16009	0	524
3.246	-3.750	16384	16259	0	524
0.180	-6.924	16384	16384	0	524
-1.334	-8.222	16384	16384	0	524
-1.154	-6.996	16384	16509	0	524
-1.983	-8.943	16384	16509	0	524
-4.003	-8.727	16384	16509	0	524
-7.321	-9.376	16384	16509	0	524
-8.907	-6.780	16384	16259	0	524
-9.665	-2.488	16384	15884	0	524
-6.635	4.544	16384	15759	0	524
-1.262	7.537	16384	15884	0	524
1.551	9.592	16384	16134	0	524
2.849	6.635	16384	16384	0	524
1.082	2.272	16384	16509	1	316
-2.813	-0.613	16384	16509	0	316
-5.626	-3.570	16384	16509	0	316
-7.862	-4.544	16384	16634	0	316
-10.710	-5.301	16384	16884	0	316
-10.097	-5.590	16384	17259	0	316
-7.321	-5.157	16385	17884	0	316
-2.128	-4.039	16385	18259	0	316
4.868	-2.344	16385	18134	0	316
6.419	-2.019	16385	17759	0	316
0.829	-6.094	16385	17259	0	316
-7.032	-12.081	16385	16759	0	316
-14.136	-15.146	16385	16384	0	316
-15.795	-16.156	16384	16134	0	316
-10.999	-9.376	16385	15759	0	316
-2.957	-1.803	16384	15384	0	316
3.570	6.419	16384	14884	0	316
6.960	8.186	16384	14509	0	316
6.455	8.402	16384	14384	0	316
2.164	6.094	16384	14009	0	316
-0.469	4.904	16384	13759	0	316
-1.551	6.455	16384	13509	0	316
0.144	7.248	16384	13259	0	316
4.832	9.160	16384	12759	0	316
8.619	10.638	16384	12384	0	316
12.261	9.304	16384	12259	0	316
13.559	10.242	16384	12259	0	316
10.133	7.248	16384	12634	0	316
8.366	4.724	16384	13134	0	316
3.823	1.010	16384	13884	0	316
1.947	-2.236	16384	14884	0	316
1.190	-2.705	16384	16009	0	316
1.587	-1.515	16384	17134	0	316
1.190	0.829	16384	18384	0	316
0.829	2.019	16384	19634	0	316
1.118	2.380	16384	20759	0	316
0.397	1.551	16384	21259	0	316
-1.695	0.325	16385	21509	0	316
-4.075	0.865	16384	21759	0	316
-6.599	1.695	16384	21884	0	316
-6.996	2.272	16385	22009	0	316
-6.275	4.724	16385	21759	0	316
-2.056	6.239	16385	21259	0	316
3.246	8.366	16385	20634	0	316
6.167	10.278	16385	20009	0	316
7.573	8.907	16385	19509	0	316
6.671	6.708	16385	19009	0	316
2.669	1.767	16385	18384	0	316
0.252	-0.721	16385	17884	0	316
-1.875	-1.298	16385	17634	0	316
-2.128	-0.577	16385	17259	0	316
-2.596	0.865	16385	16759	0	316
-2.488	0.469	16385	16259	0	316
-1.154	-1.479	16385	15509	0	316
-1.226	-3.173	16385	14759	0	316
-0.180	-4.832	16384	14134	0	316
-1.082	-2.741	16384	13509	0	316
-1.803	-1.623	16384	12884	0	316
-3.101	-0.072	16384	12384	0	316
-1.695	1.190	16384	12009	0	316
-1.839	1.046	16384	11884	0	316
-0.829	0.144	16384	12134	0	316
-0.577	0.252	16384	12634	0	316
-0.361	-0.072	16384	13134	0	316
1.298	-0.180	16384	13509	0	316
3.065	1.947	16384	13884	0	316
4.003	1.046	16384	14009	0	316
0.974	-1.262	16384	13884	0	316
-3.570	-3.462	16384	13634	0	316
-10.314	-9.773	16384	13384	0	316
-13.127	-12.261	16384	13509	0	316
-12.477	-10.855	16384	13759	0	316
-12.586	-12.153	16384	14134	0	316
-12.838	-11.035	16384	14134	0	316
-12.550	-10.025	16384	13884	0	316
-16.444	-9.989	16384	13509	0	316
-14.858	-8.835	16383	13259	0	316
-14.136	-6.780	16384	13134	0	316
-11.215	-5.554	16383	13259	0	316
-10.674	-6.022	16383	13509	1	316
-9.809	-6.888	16383	13884	0	316
-10.206	-6.563	16383	14509	0	316
-7.862	-5.986	16383	15384	0	316
-5.698	-2.416	16383	16259	0	316
-1.515	2.993	16383	16509	0	316
2.849	8.366	16383	16759	0	316
6.888	10.638	16383	17009	0	316
8.763	11.937	16383	17384	0	316
8.907	10.278	16383	17634	0	316
9.592	9.268	16383	18009	0	316
11.360	7.501	16383	18384	0	316
9.845	8.294	16383	18759	0	316
8.799	6.527	16383	19009	0	316
7.032	5.950	16383	19009	0	316
4.688	5.301	16383	19009	0	316
3.750	5.662	16383	19134	0	316
7.393	8.943	16384	19509	0	316
10.025	11.504	16384	19884	0	316
12.441	11.360	16384	20134	0	316
12.586	10.855	16384	20259	0	316
10.999	6.960	16384	20134	0	316
9.917	4.111	16384	19759	0	316
9.917	3.895	16384	19509	0	316
8.619	3.029	16384	19259	0	316
8.763	2.272	16384	18884	0	316
6.888	1.803	16384	18509	0	316
2.813	3.210	16384	18134	0	316
1.082	4.508	16384	17759	0	316
0.938	8.511	16384	17509	0	316
4.039	9.556	16384	17134	0	316
7.032	11.648	16384	16634	0	316
9.845	10.025	16384	16259	0	316
10.819	10.566	16384	15884	0	316
9.881	8.691	16384	15634	0	316
6.239	7.285	16384	15509	0	316
2.993	4.796	16384	15134	0	316
0.613	4.832	16384	14509	0	316
-0.144	4.436	16384	13884	0	316
1.406	6.239	16383	13009	0	316
5.842	9.592	16383	12134	0	316
9.665	10.386	16383	11509	0	316
15.435	11.937	16383	11259	0	316
15.723	11.323	16383	11259	0	316
14.785	8.366	16383	11384	0	316
9.845	5.049	16382	11884	0	316
3.606	-0.757	16382	12634	0	316
-1.911	-3.498	16382	13759	0	316
-4.508	-6.419	16383	15134	0	316
-3.642	-6.383	16383	16509	0	316
-2.849	-7.212	16383	17759	0	316
-0.469	-8.258	16383	18759	0	316
0.974	-8.691	16383	19384	0	316
1.298	-11.828	16384	19759	0	316
1.298	-11.468	16384	20259	0	316
0.108	-9.448	16384	20759	0	316
-0.865	-6.924	16384	20884	0	316
-1.983	-2.380	16384	20634	0	316
-3.318	0.000	16384	20259	0	316
-2.524	-1.190	16384	20009	0	316
-4.580	-2.885	16384	19884	0	316
-4.075	-4.039	16384	19634	0	316
-2.669	-4.868	16384	19259	0	316
-1.226	-2.128	16384	18759	0	316
1.731	1.298	16384	18259	0	316
3.787	7.176	16384	17759	0	316
5.698	9.737	16384	17509	0	316
6.131	10.746	16384	17509	0	316
5.770	10.999	16384	17759	0	316
4.616	7.248	16384	18259	0	316
2.019	5.049	16384	18634	0	316
-0.252	4.796	16384	19009	0	316
-0.505	3.318	16384	18884	0	316
1.046	4.436	16384	18634	0	316
1.298	4.472	16384	18384	0	316
0.361	4.760	16384	18259	0	316
-2.741	3.787	16384	18009	0	316
-4.111	1.623	16384	17634	0	316
-4.039	-1.587	16384	17134	0	316
-0.252	-2.056	16384	16509	0	316
5.590	-0.902	16384	16134	0	316
8.907	3.173	16384	15634	0	316
11.828	9.232	16384	14884	0	316
12.477	12.405	16384	14509	0	316
11.360	14.208	16384	14509	0	316
9.917	9.124	16384	14634	0	316
6.888	2.092	16384	14759	0	316
1.082	-5.121	16384	14759	0	316
-0.757	-8.258	16384	14759	0	316
-0.865	-6.455	16384	14884	0	316
2.236	0.505	16384	15134	0	316
6.347	7.248	16384	15384	0	316
7.357	11.432	16384	15384	0	316
2.669	8.799	16384	15009	0	316
0.000	4.977	16384	14634	0	316
-1.875	-0.108	16384	14384	0	316
-0.216	-1.551	16384	14134	0	316
2.164	0.865	16384	14134	0	316
6.094	4.796	16384	14134	0	316
6.347	9.124	16384	14134	0	316
4.544	9.448	16384	14134	0	316
0.613	5.554	16384	14134	0	316
-2.885	1.442	16384	14134	0	316
-7.212	-3.750	16384	14384	0	316
-7.898	-7.862	16384	14884	0	316
-3.967	-8.150	16384	15509	0	316
0.505	-6.311	16384	16009	0	316
2.669	-2.308	16384	16009	0	316
6.527	3.246	16384	15259	0	316
7.898	7.393	16384	14384	0	316
8.114	7.609	16384	13634	0	316
5.337	5.806	16384	13009	0	316
3.354	0.721	16383	12884	0	316
1.262	-0.108	16383	12884	0	316
0.433	0.325	16384	13134	0	316
1.911	2.849	16384	13509	0	316
1.695	5.590	16384	14134	0	316
3.678	6.852	16384	15009	0	316
2.669	5.914	16384	15884	0	316
2.236	5.049	16384	16509	0	316
2.164	3.750	16384	17134	0	316
0.541	1.406	16384	17509	0	316
-1.515	-0.577	16384	17884	0	316
-2.416	-3.859	16384	18009	0	316
-2.849	-4.436	16384	18134	0	316
-3.137	-3.282	16384	18259	0	316
-1.947	-1.010	16384	18384	0	316
-2.813	0.288	16384	18509	0	316
-0.613	-0.144	16384	18384	0	316
-1.875	-2.957	16384	18009	0	316
-2.452	-6.708	16384	17759	0	316
-3.570	-7.717	16384	18009	0	316
-3.210	-9.052	16384	18134	0	316
-2.416	-7.357	16384	18134	0	316
-1.731	-3.606	16384	18009	0	316
0.685	-0.938	16384	17884	0	316
2.128	2.452	16384	18009	0	316
3.390	3.678	16384	18384	0	316
1.515	3.246	16384	18759	0	316
-1.226	2.308	16384	19134	0	316
-4.832	1.659	16384	19384	0	316
-6.996	0.397	16384	19384	0	316
-4.616	-0.108	16384	19509	0	316
-1.190	-0.288	16384	19509	0	316
3.101	0.974	16384	19509	0	316
6.708	2.128	16384	19509	0	316
6.671	3.246	16384	19384	0	316
8.078	6.347	16384	19259	0	316
8.078	6.455	16384	18884	0	316
9.016	7.321	16385	18634	0	316
9.016	7.357	16385	18134	0	316
9.412	6.708	16385	17384	0	316
9.412	5.590	16384	16634	0	316
10.999	7.032	16384	16134	0	316
9.989	6.888	16384	15509	0	316
9.052	4.940	16384	14884	0	316
5.950	2.200	16384	14259	0	316
2.596	-0.397	16384	13884	0	316
1.659	-1.551	16384	13509	0	316
3.895	-0.829	16384	13134	0	316
9.484	2.921	16384	13009	0	316
11.828	5.409	16384	13259	0	316
15.903	6.744	16384	13759	0	316
16.264	7.068	16384	14384	0	316
11.504	6.131	16384	15259	0	316
9.412	3.931	16384	15884	0	316
4.832	1.659	16384	16384	0	316
4.111	0.252	16384	16634	0	316
6.275	0.793	16384	16634	0	316
9.737	3.570	16384	16509	0	316
15.110	7.104	16384	16384	0	316
17.598	13.091	16384	16509	0	316
20.772	13.631	16384	16759	0	316
18.175	9.629	16384	16884	0	316
13.163	4.544	16384	17134	0	316
5.265	-2.560	16384	17134	0	316
0.757	-5.193	16384	17134	0	316
-0.865	-5.265	16384	17009	0	316
1.190	-1.370	16384	17009	0	316
5.409	1.659	16384	17134	0	316
6.058	3.859	16384	17009	0	316
6.131	4.688	16385	16884	0	316
6.563	6.167	16385	17134	0	316
6.419	5.554	16385	17509	0	316
7.140	4.508	16385	17884	0	316
5.409	2.092	16385	18259	0	316
3.967	0.902	16385	18509	0	316
5.013	1.442	16385	18384	0	316
7.789	5.013	16385	18009	0	316
9.088	7.609	16385	17759	0	316
8.475	10.278	16385	17509	0	316
3.787	7.609	16385	17009	1	764
-0.865	2.741	16385	16259	0	764
-0.829	0.649	16385	15384	0	764
2.344	-0.974	16385	14634	0	764
6.311	-1.515	16384	14009	0	764
7.248	0.649	16384	13509	0	764
2.669	1.983	16384	13009	0	764
-0.902	2.416	16384	12509	0	764
-4.760	0.613	16384	12134	0	764
-3.462	-1.515	16384	12134	0	764
-1.767	-5.193	16384	12259	0	764
1.406	-7.753	16384	12634	0	764
4.183	-6.239	16384	12884	0	764
6.744	-1.623	16384	13259	0	764
10.602	1.226	16384	13634	0	764
13.848	5.986	16384	14134	0	764
15.182	5.121	16384	14634	0	764
12.982	3.750	16384	15134	0	764
12.045	3.318	16384	15509	0	764
11.504	4.147	16384	15884	0	764
12.045	7.357	16384	16259	0	764
15.398	9.773	16384	16759	0	764
15.074	12.514	16384	17259	0	764
13.848	12.802	16384	17509	0	764
10.242	9.917	16384	17384	0	764
5.157	7.862	16384	17009	0	764
2.705	4.940	16384	16759	0	764
3.210	2.308	16384	16509	0	764
3.859	4.327	16384	16384	0	764
8.439	7.068	16384	16134	0	764
11.937	12.477	16384	16009	0	764
12.658	19.401	16384	15634	0	764
12.333	19.618	16384	15134	0	764
8.006	18.031	16384	14634	0	764
2.344	11.179	16384	14134	0	764
-2.524	4.255	16384	14134	0	764
-4.580	0.938	16384	14384	0	764
-1.334	2.741	16383	14634	0	764
6.816	8.943	16383	14759	0	764
13.343	14.569	16383	15134	0	764
18.716	21.096	16383	15509	0	764
14.461	20.231	16383	16009	0	764
7.898	15.939	16383	16134	0	764
-0.072	7.789	16383	16134	0	764
-3.606	-0.144	16383	16009	0	764
-2.092	-3.534	16384	16009	0	764
2.344	-1.082	16383	16134	0	764
6.275	3.210	16384	16384	0	764
9.124	7.501	16383	16759	0	764
8.402	10.530	16384	17384	0	764
8.402	9.520	16384	18009	0	764
5.914	7.429	16384	18259	0	764
4.940	3.282	16384	18384	0	764
2.777	-1.118	16384	18384	0	764
1.515	-4.147	16384	18509	0	764
1.983	-4.183	16384	18634	0	764
4.688	-3.137	16384	18884	0	764
8.222	1.839	16384	19134	0	764
11.360	6.022	16384	19134	0	764
14.894	7.429	16384	18884	0	764
12.694	8.583	16384	18634	0	764
12.189	5.734	16384	18509	0	764
10.819	1.983	16384	18384	0	764
9.124	-0.036	16384	18134	0	764
9.052	0.469	16384	17759	0	764
12.189	3.750	16384	17384	0	764
14.100	9.304	16384	17009	0	764
16.841	12.946	16384	16884	0	764
16.661	16.985	16384	16634	0	764
12.910	13.559	16384	16384	0	764
10.097	10.891	16384	16259	0	764
8.583	6.383	16384	16134	0	764
8.439	3.137	16384	16134	0	764
9.629	2.308	16384	16134	0	764
9.881	3.642	16384	16009	0	764
8.078	4.291	16384	16009	0	764
7.753	4.291	16384	16134	0	764
8.979	3.895	16384	16384	0	764
10.169	1.010	16384	16634	0	764
10.386	-2.560	16384	16759	1	316
8.655	-5.481	16384	16884	0	316
6.563	-8.006	16384	17134	0	316
4.760	-7.970	16384	17384	0	316
4.183	-5.229	16384	17384	0	316
6.419	-2.380	16384	17509	0	316
6.852	0.613	16384	17509	0	316
5.373	1.695	16384	17509	0	316
2.272	-0.288	16384	17509	0	316
-0.649	-4.904	16384	17384	0	316
-2.596	-7.501	16384	17259	0	316
-0.649	-9.340	16384	17009	0	316
2.669	-6.671	16384	16884	0	316
8.186	-1.479	16384	16759	0	316
10.783	2.560	16384	16634	0	316
9.016	4.003	16384	16384	0	316
6.455	2.308	16384	16009	0	316
1.767	-0.649	16384	15759	0	316
-1.623	-3.570	16384	15759	0	316
0.577	-3.534	16384	16009	0	316
1.010	-1.515	16384	16384	0	316
3.534	1.406	16384	17009	0	316
4.219	4.904	16384	17634	0	316
3.390	6.816	16384	18259	0	316
1.983	6.419	16384	18634	0	316
-0.252	6.167	16384	18884	0	316
-2.272	3.390	16384	19009	0	316
-2.813	0.613	16385	19009	0	316
-2.452	-0.325	16385	19009	0	316
-1.010	-0.433	16385	18759	0	316
-1.154	0.108	16385	18384	0	316
-0.252	2.164	16385	17759	0	316
1.695	4.796	16385	17134	0	316
4.904	5.337	16385	16509	0	316
8.511	6.419	16385	16134	0	316
10.278	5.121	16385	15884	0	316
9.809	5.409	16385	15634	0	316
7.609	2.344	16385	15259	0	316
4.003	0.180	16385	15009	0	316
-0.325	-0.613	16385	14884	0	316
-2.705	-2.092	16384	14884	0	316
-4.688	-2.560	16385	14634	0	316
-3.137	-0.541	16385	14509	0	316
0.180	1.695	16385	14384	0	316
4.039	2.236	16384	14384	0	316
6.671	3.750	16384	14634	0	316
7.970	4.364	16384	14884	0	316
7.140	4.219	16384	15134	0	316
6.239	3.750	16384	15384	0	316
5.806	3.029	16384	15384	0	316
6.347	1.406	16384	15384	0	316
7.609	-0.144	16384	15259	0	316
9.232	-0.072	16384	15134	0	316
9.412	1.010	16384	15134	0	316
10.242	2.921	16384	15134	0	316
12.009	3.173	16384	15134	0	316
12.369	5.770	16384	15009	0	316
14.136	4.616	16384	14759	0	316
13.018	2.849	16384	14384	0	316
8.835	-1.082	16384	14009	0	316
7.717	-4.760	16384	13884	0	316
4.616	-8.042	16384	13759	0	316
3.390	-9.484	16384	13634	0	316
2.705	-7.176	16384	13259	0	316
2.596	-5.193	16384	12759	0	316
1.046	-3.895	16384	12509	0	316
1.082	-4.183	16384	12384	0	316
0.288	-4.977	16384	12509	0	316
-0.721	-8.727	16383	12759	0	316
-4.039	-10.206	16383	13259	0	316
-6.275	-11.540	16383	13634	0	316
-5.013	-8.619	16383	14259	0	316
-3.642	-7.753	16383	14884	0	316
-0.613	-5.806	16383	15384	0	316
1.623	-3.354	16383	15884	0	316
1.515	-0.902	16383	16259	0	316
1.839	1.190	16383	16634	0	316
2.741	4.472	16384	17009	0	316
6.455	4.147	16384	17384	0	316
7.825	2.885	16384	17884	0	316
6.347	1.082	16384	18759	0	316
5.481	0.865	16384	19634	0	316
3.462	2.092	16384	20259	0	316
2.921	5.229	16384	20884	0	316
4.364	6.311	16384	21509	0	316
4.832	8.114	16384	22134	0	316
3.859	7.393	16384	22509	0	316
1.587	5.193	16384	22759	0	316
-0.685	1.803	16384	22759	0	316
-2.056	-0.577	16385	22634	0	316
-1.551	-1.298	16385	22384	0	316
-0.613	-1.659	16385	22134	0	316
1.010	-0.144	16385	21634	0	316
1.442	1.190	16385	21134	1	372
0.325	2.019	16385	20259	0	372
0.000	4.003	16385	19509	0	372
1.659	5.373	16385	18509	0	372
4.724	8.943	16385	17634	0	372
8.511	8.943	16384	16509	0	372
12.333	8.475	16384	15384	0	372
11.756	7.573	16384	14509	0	372
8.186	6.852	16384	13634	0	372
3.787	4.436	16384	13009	0	372
-0.685	3.101	16384	12509	0	372
-2.705	2.885	16384	12259	0	372
0.325	3.678	16384	12259	0	372
2.705	4.652	16384	12384	0	372
4.616	7.176	16384	12509	0	372
4.111	6.671	16384	12634	0	372
1.803	5.914	16384	12509	0	372
-0.865	5.085	16384	12634	0	372
-2.236	4.616	16384	13259	0	372
-2.344	6.239	16384	14009	0	372
-2.380	5.662	16384	14634	0	372
-3.246	2.560	16384	15259	0	372
-3.210	2.019	16384	15634	0	372
-4.580	0.216	16384	16009	0	372
-1.731	0.433	16384	16134	0	372
1.082	1.731	16384	16384	0	372
4.003	3.570	16384	16634	0	372
7.104	4.652	16384	17134	0	372
7.104	4.327	16384	17884	0	372
4.904	4.616	16384	18384	0	372
1.046	3.859	16384	18634	0	372
-2.272	3.642	16384	18634	0	372
-3.606	3.173	16384	18759	0	372
-4.436	2.344	16384	19009	0	372
-2.488	0.793	16385	19134	0	372
-1.767	-0.577	16385	19134	0	372
-1.118	-1.551	16385	18884	0	372
-2.669	-2.596	16385	18509	0	372
-2.164	-2.813	16385	18009	0	372
-3.967	-5.914	16385	17509	0	372
-5.265	-7.717	16385	17134	0	372
-6.960	-8.619	16384	16759	0	372
-7.140	-7.501	16384	16384	0	372
-6.996	-7.789	16384	16134	0	372
-5.842	-9.340	16384	15759	0	372
-5.878	-10.061	16384	15384	0	372
-6.671	-10.206	16384	15134	0	372
-6.671	-9.845	16384	14884	0	372
-7.140	-5.662	16384	14509	0	372
