neuroNicle FX2
D3F25R12
Bluetooth SPP
2023년 11월 19일 일요일
오후 1:47
time interval = 4msec
EEG1	EEG2	PPG	sdPPG	pulse	peak_interval(msec)
-47.169	-39.668	16384	16382	0	544
-43.996	-37.721	16384	16460	0	544
-37.000	-34.223	16384	16511	0	544
-31.049	-29.643	16384	16582	0	544
-26.974	-27.083	16385	16673	0	544
-27.371	-26.289	16385	16730	0	544
-25.352	-25.135	16385	16735	0	544
-22.070	-23.837	16386	16712	0	544
-19.654	-21.781	16386	16676	0	544
-17.021	-17.743	16386	16625	0	544
-17.598	-19.041	16385	16565	0	544
-20.231	-21.709	16385	16494	0	544
-25.712	-25.676	16385	16420	0	544
-26.001	-26.001	16384	16350	0	544
-23.440	-24.486	16384	16280	0	544
-20.339	-17.382	16384	16214	0	544
-15.002	-14.353	16384	16152	0	544
-17.021	-13.235	16383	16090	0	544
-20.700	-19.149	16383	16038	0	544
-28.092	-24.811	16383	16013	0	544
-34.331	-28.669	16383	16041	0	544
-40.029	-30.833	16383	16115	0	544
-42.661	-32.997	16383	16177	0	544
-41.688	-31.266	16383	16223	0	544
-37.000	-29.859	16383	16311	0	544
-29.931	-24.522	16384	16457	0	544
-21.457	-18.680	16384	16613	0	544
-19.365	-13.271	16385	16718	0	544
-20.050	-16.120	16386	16800	0	544
-23.404	-19.834	16386	16883	0	544
-27.119	-24.883	16387	16925	0	544
-25.027	-26.397	16387	16908	0	544
-22.395	-22.935	16387	16857	0	544
-20.736	-21.890	16387	16786	0	544
-20.483	-18.283	16387	16704	0	544
-23.621	-18.933	16387	16616	0	544
-25.856	-23.404	16387	16528	0	544
-27.551	-25.820	16386	16440	0	544
-29.931	-29.643	16386	16362	0	544
-30.689	-31.987	16385	16282	0	544
-30.040	-33.213	16385	16211	0	544
-30.617	-31.554	16385	16143	0	544
-29.030	-31.735	16384	16078	0	544
-28.561	-28.994	16384	16019	0	544
-29.679	-29.787	16384	15976	0	544
-30.040	-30.617	16384	15987	0	544
-30.220	-31.049	16384	16038	0	544
-30.977	-31.590	16384	16081	0	544
-31.771	-31.338	16384	16104	0	544
-32.203	-30.833	16384	16158	0	544
-32.708	-31.879	16384	16240	0	544
-32.420	-30.400	16384	16291	0	544
-33.970	-30.797	16384	16314	0	544
-35.052	-30.761	16384	16367	0	544
-35.990	-29.318	16384	16452	0	544
-36.351	-30.400	16385	16514	0	544
-34.764	-29.607	16385	16528	0	544
-34.367	-29.787	16385	16514	0	544
-34.439	-29.210	16385	16483	0	544
-37.649	-32.961	16385	16435	0	544
-41.471	-36.351	16384	16384	0	544
-42.229	-36.747	16384	16331	0	544
-42.661	-33.574	16384	16277	0	544
-38.370	-29.499	16384	16229	0	544
-33.105	-23.729	16384	16177	0	544
-27.227	-21.457	16383	16129	0	544
-24.955	-19.618	16383	16087	0	544
-19.257	-21.277	16382	16053	0	544
-19.906	-20.627	16382	16024	0	544
-19.834	-19.401	16381	16016	0	544
-22.178	-19.942	16381	16056	0	544
-24.270	-16.877	16381	16143	0	544
-23.801	-17.490	16381	16217	0	544
-23.404	-17.562	16381	16257	0	544
-23.512	-19.978	16382	16299	0	544
-20.736	-19.077	16382	16379	0	544
-21.854	-17.598	16382	16480	0	544
-19.005	-13.379	16383	16568	0	544
-16.156	-10.278	16383	16670	0	544
-12.225	-9.196	16384	16832	0	544
-10.386	-7.465	16385	16988	0	544
-8.222	-5.481	16386	17084	0	544
-7.429	-3.750	16387	17149	0	544
-8.871	-2.019	16387	17212	0	544
-13.307	-6.022	16388	17223	0	544
-15.254	-11.107	16388	17180	0	544
-17.129	-14.281	16388	17098	0	544
-18.824	-18.752	16389	16993	0	544
-19.365	-18.500	16388	16866	0	544
-21.998	-22.106	16388	16730	1	1520
-27.479	-23.188	16388	16591	0	1520
-30.581	-24.702	16387	16454	0	1520
-29.859	-24.125	16387	16331	0	1520
-25.965	-20.123	16386	16217	0	1520
-21.529	-20.411	16386	16115	0	1520
-20.014	-20.123	16385	16021	0	1520
-20.014	-20.916	16385	15939	0	1520
-22.178	-21.313	16384	15865	0	1520
-18.536	-14.028	16384	15817	0	1520
-13.235	-9.881	16384	15829	0	1520
-7.789	-5.986	16384	15888	0	1520
-6.347	-7.573	16384	15934	0	1520
-10.963	-13.163	16384	15962	0	1520
-15.903	-20.014	16384	16021	0	1520
-17.815	-19.293	16384	16107	0	1520
-18.536	-16.697	16384	16160	0	1520
-15.146	-13.235	16384	16186	0	1520
-17.346	-13.704	16384	16240	0	1520
-20.519	-17.851	16384	16319	0	1520
-24.955	-18.716	16384	16379	0	1520
-24.955	-17.238	16384	16392	0	1520
-19.149	-6.022	16384	16389	0	1520
-14.245	2.921	16384	16376	0	1520
-11.143	7.176	16384	16350	0	1520
-14.245	6.058	16384	16322	0	1520
-19.365	3.029	16384	16294	0	1520
-23.332	2.524	16384	16263	0	1520
-22.899	3.534	16383	16226	0	1520
-23.044	4.075	16383	16186	0	1520
-21.168	2.669	16383	16149	0	1520
-19.149	2.236	16382	16118	0	1520
-15.795	4.760	16382	16095	0	1520
-10.422	11.756	16382	16081	0	1520
-6.671	16.084	16381	16084	0	1520
-8.222	12.658	16381	16132	0	1520
-11.756	7.862	16381	16214	0	1520
-13.812	2.056	16381	16277	0	1520
-13.523	1.046	16381	16319	0	1520
-13.054	5.157	16382	16386	0	1520
-10.097	8.078	16382	16483	0	1520
-13.271	6.347	16382	16554	0	1520
-11.540	6.239	16383	16602	0	1520
-8.547	6.275	16384	16676	0	1520
-4.003	7.212	16384	16766	0	1520
-0.974	9.304	16384	16817	0	1520
-0.938	6.888	16384	16817	0	1520
-4.039	3.498	16384	16792	0	1520
-6.203	-0.793	16384	16752	0	1520
-5.157	-1.515	16384	16698	0	1520
-3.606	-0.541	16384	16636	0	1520
-3.246	1.947	16384	16565	0	1520
-7.104	0.397	16384	16488	0	1520
-11.251	-3.101	16384	16412	0	1520
-18.392	-6.924	16383	16342	0	1520
-21.493	-12.477	16383	16274	0	1520
-23.440	-12.874	16382	16209	0	1520
-22.322	-11.937	16382	16152	0	1520
-19.005	-11.648	16381	16101	0	1520
-16.841	-10.278	16381	16070	0	1520
-10.350	-6.599	16381	16092	0	1520
-4.111	-1.875	16381	16163	0	1520
-0.829	2.416	16381	16226	0	1520
0.000	3.318	16381	16268	0	1520
-1.082	2.524	16382	16339	0	1520
-3.823	-0.252	16382	16429	0	1520
-5.265	-1.911	16382	16497	0	1520
-4.255	0.036	16383	16539	0	1520
-3.101	3.282	16383	16599	0	1520
1.947	9.629	16384	16681	0	1520
10.602	17.959	16384	16730	0	1520
22.611	27.227	16384	16727	0	1520
32.528	31.518	16384	16701	0	1520
34.331	29.318	16384	16661	0	1520
32.528	24.414	16384	16608	0	1520
31.951	21.709	16384	16548	0	1520
34.764	21.890	16384	16486	0	1520
41.003	26.758	16384	16426	0	1520
44.320	29.787	16384	16373	0	1520
41.291	29.463	16383	16316	0	1520
35.052	26.361	16383	16260	0	1520
30.040	20.736	16383	16211	0	1520
28.309	16.985	16383	16172	0	1520
27.948	11.107	16382	16143	0	1520
25.424	10.710	16382	16132	0	1520
21.890	8.835	16382	16169	0	1520
15.687	11.071	16382	16234	0	1520
13.163	10.458	16383	16280	0	1520
13.487	10.963	16383	16305	0	1520
12.261	9.412	16383	16376	0	1520
15.110	8.042	16384	16517	0	1520
12.081	8.114	16384	16667	0	1520
8.222	6.167	16385	16769	0	1520
5.481	5.193	16385	16851	0	1520
5.049	6.491	16386	16934	0	1520
7.681	7.032	16387	16965	0	1520
10.963	10.025	16387	16931	0	1520
11.360	9.845	16387	16863	0	1520
8.294	5.950	16387	16772	0	1520
1.082	0.252	16387	16670	0	1520
-4.688	-4.039	16387	16565	0	1520
-8.547	-5.193	16386	16466	0	1520
-9.484	-4.219	16386	16376	0	1520
-9.773	-4.255	16385	16282	0	1520
-11.035	-6.671	16385	16194	0	1520
-12.622	-13.451	16385	16112	0	1520
-17.598	-16.769	16384	16041	0	1520
-20.483	-17.166	16384	15979	0	1520
-21.060	-15.002	16384	15928	0	1520
-17.238	-9.701	16384	15900	0	1520
-13.920	-6.203	16384	15928	0	1520
-9.592	-4.977	16384	15996	0	1520
-6.888	-3.534	16384	16050	0	1520
-7.032	-3.390	16384	16084	0	1520
-5.986	-3.426	16384	16143	0	1520
-4.904	-4.472	16384	16234	0	1520
-6.563	-7.321	16384	16302	0	1520
-9.160	-11.432	16384	16345	0	1520
-11.900	-14.353	16384	16409	0	1520
-12.225	-13.631	16384	16497	0	1520
-10.530	-11.756	16385	16551	0	1520
-9.232	-8.294	16385	16565	0	1520
-8.186	-7.393	16385	16599	0	1520
-10.025	-7.789	16386	16653	0	1520
-11.900	-9.520	16386	16673	0	1520
-13.631	-10.314	16386	16647	0	1520
-13.235	-9.052	16386	16599	0	1520
-14.894	-11.396	16386	16542	0	1520
-16.228	-13.163	16386	16471	0	1520
-16.048	-13.523	16385	16392	0	1520
-18.103	-15.398	16385	16316	0	1520
-17.166	-14.172	16384	16240	0	1520
-17.706	-11.792	16384	16163	0	1520
-16.480	-13.631	16384	16092	0	1520
-17.057	-14.208	16384	16027	0	1520
-14.930	-15.867	16383	15979	0	1520
-14.533	-14.605	16383	15945	0	1520
-12.225	-10.674	16382	15917	0	1520
-13.415	-10.530	16382	15911	0	1520
-14.821	-11.937	16382	15959	0	1520
-16.913	-15.795	16382	16041	0	1520
-18.103	-20.952	16382	16107	0	1520
-13.884	-18.572	16382	16155	0	1520
-9.160	-11.179	16382	16234	0	1520
-4.111	0.865	16383	16345	0	1520
-2.344	10.458	16383	16426	0	1520
-2.921	15.038	16383	16463	0	1520
-7.068	15.471	16383	16480	0	1520
-12.477	11.287	16383	16486	0	1520
-16.444	7.862	16383	16483	0	1520
-14.858	11.540	16382	16469	0	1520
-10.458	17.706	16382	16449	0	1520
-3.678	24.955	16382	16420	0	1520
-0.505	25.893	16382	16398	0	1520
-5.914	24.089	16382	16379	0	1520
-14.930	19.401	16381	16353	0	1520
-26.001	15.435	16381	16328	0	1520
-29.715	17.598	16381	16305	0	1520
-29.102	17.562	16381	16288	0	1520
-25.568	18.175	16381	16274	0	1520
-22.863	16.264	16380	16268	0	1520
-19.257	17.634	16380	16263	0	1520
-17.382	17.851	16380	16260	0	1520
-13.271	22.863	16380	16277	0	1520
-8.619	21.854	16380	16342	0	1520
-7.357	20.411	16381	16435	0	1520
-10.422	13.415	16381	16511	0	1520
-17.166	5.626	16381	16559	0	1520
-20.988	-2.308	16382	16625	0	1520
-23.368	-6.816	16382	16712	0	1520
-21.781	-5.373	16383	16775	0	1520
-19.077	-4.291	16383	16806	0	1520
-15.218	1.695	16384	16854	0	1520
-13.199	4.904	16384	16914	0	1520
-11.973	7.573	16384	16937	0	1520
-13.271	6.383	16384	16914	0	1520
-14.028	3.714	16384	16863	0	1520
-13.271	0.649	16384	16798	0	1520
-12.946	-0.649	16384	16715	0	1520
-9.484	-0.649	16384	16630	0	1520
-6.599	1.370	16384	16542	0	1520
-6.094	2.488	16384	16463	0	1520
-9.088	1.082	16384	16384	0	1520
-11.287	-1.695	16384	16314	0	1520
-11.179	-3.606	16384	16246	0	1520
-11.900	-3.678	16383	16180	0	1520
-8.114	-2.524	16383	16121	0	1520
-3.534	0.433	16382	16067	0	1520
-5.049	2.705	16382	16036	0	1520
-8.114	1.767	16382	16058	0	1520
-13.884	-0.757	16383	16126	0	1520
-16.769	-4.075	16383	16186	0	1520
-19.798	-6.311	16383	16229	0	1520
-16.805	-5.986	16383	16302	0	1520
-12.730	-4.508	16384	16409	0	1520
-5.121	3.029	16384	16494	0	1520
2.741	8.763	16384	16545	0	1520
7.357	14.389	16384	16610	0	1520
7.068	12.658	16385	16698	0	1520
1.118	7.970	16385	16749	0	1520
-8.547	0.252	16386	16747	0	1520
-17.310	-5.554	16386	16712	0	1520
-19.510	-9.052	16386	16661	0	1520
-20.411	-9.809	16386	16599	0	1520
-13.054	-8.366	16386	16531	0	1520
-4.652	-6.058	16386	16460	0	1520
4.904	-3.173	16385	16389	0	1520
7.104	-2.596	16385	16325	0	1520
3.787	-9.232	16385	16251	0	1520
-2.524	-15.435	16384	16183	0	1520
-8.439	-17.995	16384	16121	0	1520
-6.383	-17.995	16384	16070	0	1520
-1.334	-14.136	16384	16030	0	1520
5.301	-13.776	16384	16010	0	1520
9.773	-11.468	16384	16038	0	1520
14.821	-11.107	16384	16101	0	1520
18.428	-6.058	16384	16152	0	1520
18.969	-0.216	16384	16186	0	1520
17.779	-0.541	16384	16246	0	1520
12.514	-4.472	16384	16319	0	1520
6.275	-12.117	16384	16367	0	1520
2.993	-15.398	16384	16386	0	1520
4.400	-15.218	16384	16432	0	1520
9.484	-8.186	16384	16500	0	1520
13.271	1.479	16385	16542	0	1520
17.815	8.475	16385	16545	0	1520
14.497	10.783	16385	16520	0	1520
10.422	7.104	16385	16480	0	1520
4.688	2.524	16384	16426	0	1520
0.505	-3.895	16384	16373	0	1520
-3.246	-8.619	16384	16314	0	1520
-6.058	-11.864	16384	16263	0	1520
-7.465	-10.602	16384	16220	0	1520
-4.796	-9.556	16384	16183	0	1520
0.036	-3.642	16383	16152	0	1520
2.308	-0.288	16383	16126	0	1520
1.190	-1.226	16383	16107	0	1520
-1.334	-5.409	16382	16090	0	1520
-1.875	-6.852	16382	16095	0	1520
1.587	-5.265	16382	16146	0	1520
5.986	-1.406	16382	16223	0	1520
5.842	3.606	16383	16277	0	1520
1.082	7.970	16382	16311	0	1520
-4.796	9.196	16383	16384	0	1520
-5.734	9.989	16383	16517	0	1520
-1.875	9.340	16384	16659	0	1520
5.662	8.871	16384	16755	0	1520
10.061	8.186	16385	16837	0	1520
10.891	8.294	16386	16922	0	1520
6.888	8.943	16386	16968	0	1520
2.344	7.104	16386	16956	0	1520
-1.803	2.777	16386	16911	0	1520
-2.633	0.000	16387	16846	0	1520
-1.803	-1.046	16387	16769	0	1520
-1.190	-1.046	16386	16678	0	1520
2.236	0.721	16386	16585	0	1520
2.741	3.642	16386	16491	0	1520
7.176	6.203	16386	16401	0	1520
7.789	7.176	16385	16316	0	1520
3.931	5.626	16385	16231	0	1520
-2.092	1.154	16384	16152	0	1520
-10.242	-3.787	16384	16081	0	1520
-13.271	-5.734	16384	16019	0	1520
-10.783	-4.364	16384	15990	0	1520
1.082	2.849	16384	16016	0	1520
12.081	9.629	16384	16078	0	1520
17.670	13.559	16384	16121	0	1520
10.530	8.222	16384	16146	0	1520
-5.590	-4.868	16384	16203	0	1520
-21.349	-18.824	16384	16288	0	1520
-28.561	-27.876	16384	16350	0	1520
-21.096	-27.443	16384	16386	0	1520
-9.088	-19.149	16384	16443	0	1520
-1.911	-14.281	16385	16522	0	1520
-5.914	-12.910	16385	16562	0	1520
-12.910	-16.228	16385	16559	0	1520
-17.418	-14.497	16385	16545	0	1520
-13.920	-12.477	16386	16565	0	1520
-9.773	-8.763	16386	16596	0	1520
-8.799	-8.763	16386	16596	0	1520
-11.360	-13.127	16386	16554	0	1520
-20.087	-19.149	16386	16494	0	1520
-21.529	-18.392	16386	16432	0	1520
-19.546	-14.389	16385	16370	0	1520
-11.684	-6.996	16385	16308	0	1520
-8.078	-3.678	16384	16251	0	1520
-8.402	-3.750	16384	16197	0	1520
-12.622	-9.917	16384	16146	0	1520
-19.365	-14.821	16384	16109	0	1520
-22.575	-14.641	16384	16118	0	1520
-23.909	-14.425	16384	16166	0	1520
-18.644	-10.530	16384	16203	0	1520
-14.785	-7.501	16384	16226	0	1520
-9.701	-9.196	16384	16274	0	1520
-4.508	-8.475	16384	16350	0	1520
-4.977	-7.393	16384	16395	0	1520
-9.340	-6.924	16384	16420	0	1520
-13.848	-5.590	16384	16469	0	1520
-16.985	-7.789	16385	16539	0	1520
-17.057	-9.737	16385	16585	0	1520
-15.687	-11.179	16385	16591	0	1520
-17.310	-11.864	16385	16576	0	1520
-18.211	-12.766	16385	16542	0	1520
-19.329	-11.251	16385	16494	0	1520
-15.939	-12.622	16385	16443	0	1520
-10.206	-11.756	16385	16386	0	1520
-5.590	-7.898	16384	16333	0	1520
-4.616	-4.688	16384	16274	0	1520
-5.770	-0.505	16384	16220	0	1520
-9.376	-0.577	16384	16166	0	1520
-10.602	-2.380	16384	16118	0	1520
-7.321	-6.275	16383	16081	0	1520
-3.678	-8.150	16383	16053	0	1520
0.072	-6.527	16382	16033	0	1520
2.705	0.577	16382	16016	0	1520
4.904	7.212	16382	16004	0	1520
6.744	11.215	16381	15999	0	1520
8.186	10.819	16381	16013	0	1520
10.133	10.061	16381	16070	0	1520
11.071	8.078	16381	16163	0	1520
12.405	8.402	16381	16240	0	1520
12.658	12.874	16381	16294	0	1520
13.992	11.828	16382	16365	0	1520
10.025	7.825	16382	16454	0	1520
5.085	4.724	16382	16522	0	1520
2.849	1.442	16383	16574	0	1520
3.210	4.364	16383	16647	0	1520
6.671	9.484	16384	16735	0	1520
10.350	14.425	16384	16786	0	1520
11.035	15.038	16384	16786	0	1520
8.655	14.641	16384	16764	0	1520
5.229	10.133	16384	16730	0	1520
2.813	7.393	16384	16687	0	1520
3.065	8.619	16384	16639	0	1520
5.770	8.475	16384	16582	0	1520
7.645	10.530	16384	16525	0	1520
9.701	12.658	16384	16466	0	1520
13.235	14.208	16384	16409	0	1520
15.615	13.704	16383	16350	0	1520
13.307	13.595	16383	16291	0	1520
10.927	11.071	16382	16240	0	1520
5.698	7.285	16382	16192	0	1520
5.013	6.094	16382	16160	0	1520
10.350	8.511	16382	16180	0	1520
19.618	15.939	16382	16240	0	1520
24.017	21.204	16382	16291	0	1520
21.854	23.296	16382	16325	0	1520
14.064	19.870	16383	16384	0	1520
5.590	13.343	16383	16463	0	1520
-0.072	9.629	16383	16520	0	1520
-0.108	9.196	16383	16548	0	1520
2.885	9.881	16384	16591	0	1520
5.878	10.242	16384	16656	0	1520
6.744	10.783	16384	16693	0	1520
7.753	9.484	16384	16687	0	1520
6.167	7.212	16384	16656	0	1520
3.462	6.203	16384	16613	0	1520
1.623	7.717	16384	16554	0	1520
-2.308	8.222	16384	16488	0	1520
-3.029	10.169	16384	16426	0	1520
-3.354	8.150	16384	16373	0	1520
-1.010	3.967	16384	16316	0	1520
1.262	-2.560	16384	16263	0	1520
2.705	0.288	840	65534	0	354
13.559	25.279	16393	17135	1	1284
8.294	23.188	16392	16942	0	1284
1.695	19.870	16392	16752	0	1284
-2.849	15.290	16392	16562	0	1284
-0.505	16.372	16391	16382	0	1284
5.590	19.437	16390	16203	0	1284
13.956	23.693	16390	16041	0	1284
17.598	28.561	16389	15902	0	1284
20.627	26.614	16389	15806	0	1284
15.254	22.322	16388	15746	0	1284
7.501	15.074	16388	15692	0	1284
-2.380	7.212	16387	15644	0	1284
-8.078	2.272	16387	15639	0	1284
-7.429	2.633	16387	15684	0	1284
-4.508	4.111	16387	15741	0	1284
-1.659	6.960	16387	15780	0	1284
-3.462	6.022	16387	15817	0	1284
-5.554	6.022	16387	15863	0	1284
-2.669	9.412	16387	15897	0	1284
2.488	13.163	16386	15902	0	1284
9.484	19.654	16386	15894	0	1284
11.107	22.178	16386	15880	0	1284
9.304	21.709	16385	15860	0	1284
6.094	18.933	16384	15834	0	1284
5.157	17.202	16384	15809	0	1284
8.294	21.926	16384	15783	0	1284
14.821	25.929	16383	15769	0	1284
20.483	30.581	16383	15758	0	1284
21.926	31.013	16382	15752	0	1284
20.231	27.912	16381	15755	0	1284
17.310	23.549	16381	15766	0	1284
10.422	18.716	16380	15789	0	1284
5.590	16.913	16380	15826	0	1284
2.669	13.487	16380	15897	0	1284
2.056	10.819	16379	15996	0	1284
4.760	13.091	16379	16087	0	1284
10.999	15.723	16379	16163	0	1284
15.182	21.962	16379	16254	0	1284
16.012	23.296	16379	16356	0	1284
10.242	20.195	16380	16440	0	1284
4.724	14.425	16380	16505	0	1284
0.757	6.635	16380	16579	0	1284
-0.469	4.580	16380	16659	0	1284
2.272	5.986	16380	16721	0	1284
3.173	9.340	16381	16752	0	1284
5.337	13.343	16381	16761	0	1284
4.688	16.012	16381	16755	0	1284
7.970	15.218	16381	16738	0	1284
11.215	17.274	16381	16712	0	1284
14.858	15.795	16381	16687	0	1284
15.759	17.274	16381	16667	0	1284
10.422	15.471	16380	16650	0	1284
6.888	16.408	16380	16630	0	1284
5.445	14.677	16380	16605	0	1284
6.671	16.877	16380	16582	0	1284
9.737	17.129	16380	16557	0	1284
12.081	19.582	16380	16531	0	1284
13.884	18.428	16380	16511	0	1284
13.018	19.654	16380	16514	0	1284
13.740	19.437	16380	16531	0	1284
16.444	21.457	16380	16537	0	1284
13.956	18.752	16380	16542	0	1284
11.143	18.464	16381	16568	0	1284
6.131	12.550	16381	16602	0	1284
3.173	8.763	16381	16622	0	1284
1.551	4.977	16381	16622	0	1284
3.462	2.705	16381	16636	0	1284
4.724	1.442	16382	16659	0	1284
6.491	2.957	16382	16667	0	1284
5.626	3.787	16382	16656	0	1284
4.255	3.750	16383	16659	0	1284
1.010	3.390	16383	16676	0	1284
-1.803	-1.479	16383	16678	0	1284
-5.445	-4.219	16383	16656	0	1284
-6.635	-5.842	16383	16622	0	1284
-3.246	-4.039	16383	16585	0	1284
1.515	-0.938	16383	16539	0	1284
6.094	1.767	16384	16494	0	1284
7.789	3.642	16384	16446	0	1284
5.662	1.803	16383	16401	0	1284
2.596	-0.469	16383	16362	0	1284
0.036	-0.216	16383	16322	0	1284
1.983	3.101	16383	16291	0	1284
7.537	7.681	16383	16263	0	1284
13.091	13.379	16383	16243	0	1284
14.389	13.343	16383	16231	0	1284
10.746	13.379	16383	16231	0	1284
8.835	11.287	16383	16260	0	1284
7.068	11.107	16383	16302	0	1284
7.285	13.595	16383	16333	0	1284
7.862	11.864	16383	16353	0	1284
4.977	10.242	16384	16386	0	1284
1.551	7.537	16384	16435	0	1284
1.298	7.501	16384	16457	0	1284
4.544	8.258	16384	16460	0	1284
8.763	10.350	16384	16474	0	1284
9.629	9.989	16384	16497	0	1284
8.727	9.556	16384	16503	0	1284
5.157	6.744	16384	16480	0	1284
1.767	5.085	16384	16452	0	1284
0.361	4.183	16384	16420	0	1284
0.685	3.354	16384	16389	0	1284
2.560	5.806	16384	16359	0	1284
5.265	9.232	16384	16319	0	1284
6.058	12.477	16384	16285	0	1284
6.239	13.235	16384	16254	0	1284
5.626	12.982	16384	16226	0	1284
6.347	11.360	16384	16194	0	1284
8.655	10.458	16383	16169	0	1284
11.179	12.622	16383	16152	0	1284
11.612	12.261	16383	16138	0	1284
10.891	10.819	16383	16132	0	1284
6.708	8.258	16383	16155	0	1284
1.370	2.416	16383	16206	0	1284
-2.560	-1.731	16383	16254	0	1284
-4.868	-4.616	16383	16285	0	1284
-3.282	-3.787	16384	16331	0	1284
-0.685	-2.777	16384	16384	0	1284
1.298	-0.325	16384	16423	0	1284
2.560	0.036	16384	16443	0	1284
1.082	-1.659	16384	16471	0	1284
0.180	-1.911	16384	16508	0	1284
-1.695	-4.724	16384	16528	0	1284
-4.904	-6.491	16384	16525	0	1284
-9.448	-9.340	16384	16511	0	1284
-15.074	-12.982	16384	16491	0	1284
-16.841	-18.860	16384	16463	0	1284
-17.995	-17.346	16384	16435	0	1284
-11.937	-13.487	16384	16406	0	1284
-3.426	-3.065	16384	16379	0	1284
7.032	9.016	16384	16348	0	1284
13.018	14.785	16384	16325	0	1284
11.937	16.480	16384	16302	0	1284
8.943	10.566	16383	16277	0	1284
4.544	5.265	16383	16257	0	1284
5.265	5.301	16383	16243	0	1284
9.268	6.852	16383	16231	0	1284
11.973	9.845	16383	16217	0	1284
11.360	9.989	16382	16200	0	1284
6.563	9.953	16382	16186	0	1284
2.921	7.717	16382	16180	0	1284
2.236	7.645	16382	16203	0	1284
4.652	7.321	16382	16251	0	1284
6.131	8.475	16382	16294	0	1284
6.599	4.724	16382	16331	0	1284
2.813	1.983	16382	16382	0	1284
-1.479	0.721	16383	16443	0	1284
-3.895	-1.406	16383	16486	0	1284
-2.092	-0.613	16383	16500	0	1284
3.498	2.849	16383	16497	0	1284
10.061	7.176	16383	16494	0	1284
14.136	10.602	16383	16488	0	1284
16.552	14.533	16383	16483	0	1284
13.812	13.235	16383	16474	0	1284
8.222	9.629	16383	16466	0	1284
6.203	8.547	16383	16457	0	1284
7.862	9.773	16383	16446	0	1284
11.973	16.156	16383	16435	0	1284
17.815	24.234	16383	16418	0	1284
22.106	27.912	16383	16401	0	1284
23.909	26.397	16383	16384	0	1284
22.755	23.837	16383	16384	0	1284
22.503	18.824	16383	16401	0	1284
20.483	17.598	16383	16435	0	1284
15.795	18.211	16383	16454	0	1284
12.261	18.031	16383	16466	0	1284
8.619	17.670	16384	16488	0	1284
5.157	13.992	16384	16520	0	1284
4.796	7.501	16384	16531	0	1284
4.219	5.121	16384	16537	0	1284
5.373	3.462	16384	16559	0	1284
6.780	7.862	16384	16599	0	1284
9.953	14.064	16384	16622	0	1284
11.864	19.906	16384	16616	0	1284
16.444	21.529	16385	16599	0	1284
20.988	23.368	16385	16576	0	1284
23.693	22.250	16385	16545	0	1284
22.683	20.952	16385	16505	0	1284
20.916	20.772	16384	16457	0	1284
16.625	18.680	16384	16406	0	1284
16.661	20.772	16384	16359	0	1284
16.661	20.195	16384	16314	0	1284
19.654	21.709	16384	16277	0	1284
16.877	20.231	16384	16246	0	1284
13.884	17.310	16384	16220	0	1284
8.979	13.451	16384	16192	0	1284
3.101	9.556	16384	16175	0	1284
0.649	7.285	16384	16183	0	1284
-1.190	7.032	16384	16214	0	1284
-1.479	4.724	16384	16237	0	1284
-4.075	3.967	16384	16251	0	1284
-5.698	2.669	16384	16288	0	1284
-7.825	2.092	16384	16345	0	1284
-5.950	2.957	16384	16384	0	1284
-2.669	6.311	16384	16406	0	1284
2.993	8.655	16384	16443	0	1284
6.780	11.215	16384	16494	0	1284
6.780	13.559	16385	16534	0	1284
7.104	12.766	16385	16554	0	1284
6.996	12.189	16385	16579	0	1284
7.717	13.668	16386	16610	0	1284
10.710	13.884	16386	16616	0	1284
12.153	16.769	16386	16596	0	1284
13.091	17.743	16386	16559	0	1284
13.127	18.752	16386	16517	0	1284
10.530	16.048	16386	16469	0	1284
9.484	16.300	16386	16412	0	1284
8.330	14.281	16385	16362	0	1284
5.157	9.304	16385	16308	0	1284
3.101	7.862	16385	16257	0	1284
1.406	6.275	16385	16209	0	1284
2.633	8.006	16384	16169	0	1284
4.652	10.169	16384	16141	0	1284
8.835	14.064	16384	16118	0	1284
11.468	14.497	16384	16098	0	1284
11.504	14.605	16384	16092	0	1284
12.550	19.185	16384	16118	0	1284
15.398	21.024	16384	16166	0	1284
17.526	23.765	16384	16203	0	1284
19.582	23.621	16384	16220	0	1284
16.300	18.860	16384	16254	0	1284
14.028	16.048	16384	16305	0	1284
11.215	12.333	16384	16342	0	1284
10.602	14.136	16384	16362	0	1284
11.648	13.812	16384	16395	0	1284
10.350	14.713	16384	16446	0	1284
6.780	11.107	16384	16486	0	1284
4.652	7.501	16384	16503	0	1284
2.056	5.013	16384	16508	0	1284
2.560	1.587	16384	16503	0	1284
2.524	3.390	16384	16486	0	1284
2.200	1.803	16384	16463	0	1284
-0.757	-0.397	16384	16432	0	1284
-4.364	-4.003	16384	16395	0	1284
-9.052	-9.304	16384	16367	0	1284
-12.514	-10.891	16384	16339	0	1284
-11.396	-8.439	16384	16311	0	1284
-8.186	-3.462	16384	16277	0	1284
-3.967	-1.046	16384	16248	0	1284
-2.056	-0.325	16383	16223	0	1284
-4.904	-2.056	16383	16211	0	1284
-9.160	-3.750	16383	16231	0	1284
-12.189	-5.517	16384	16277	0	1284
-14.245	-6.094	16383	16316	0	1284
-13.127	-6.816	16384	16353	0	1284
-12.622	-8.547	16384	16406	0	1284
-12.369	-7.104	16384	16471	0	1284
-15.579	-7.753	16384	16522	0	1284
-14.785	-6.708	16384	16554	0	1284
-14.677	-6.347	16384	16596	0	1284
-10.494	-5.229	16385	16642	0	1284
-7.537	-5.409	16385	16661	0	1284
-8.258	-5.049	16385	16653	0	1284
-13.054	-8.835	16385	16622	0	1284
-16.552	-9.196	16385	16588	0	1284
-17.454	-9.592	16385	16551	0	1284
-12.297	-6.455	16385	16503	0	1284
-5.698	-5.121	16385	16452	0	1284
-0.252	-1.370	16384	16398	0	1284
2.092	2.524	16384	16348	0	1284
3.137	4.688	16384	16294	0	1284
3.390	7.970	16384	16246	0	1284
2.705	5.662	16384	16203	0	1284
0.685	2.488	16384	16163	0	1284
0.180	0.072	16383	16132	0	1284
0.433	1.046	16383	16112	0	1284
3.606	5.590	16383	16126	0	1284
7.393	8.943	16383	16163	0	1284
8.294	8.979	16383	16192	0	1284
7.717	6.708	16383	16211	0	1284
4.147	3.642	16383	16254	0	1284
2.488	2.092	16383	16316	0	1284
2.921	5.193	16383	16365	0	1284
5.950	9.196	16383	16392	0	1284
10.530	11.937	16384	16435	0	1284
12.441	15.146	16384	16488	0	1284
16.228	13.307	16384	16522	0	1284
14.858	13.054	16384	16531	0	1284
13.199	11.287	16384	16534	0	1284
14.172	11.396	16384	16551	0	1284
13.271	14.569	16384	16585	0	1284
17.382	16.444	16384	16605	0	1284
19.978	21.096	16384	16593	0	1284
23.080	21.781	16385	16574	0	1284
21.421	23.549	16385	16548	0	1284
18.356	18.211	16385	16514	0	1284
12.658	15.110	16384	16474	0	1284
12.694	10.927	16384	16432	0	1284
11.576	9.917	16384	16389	0	1284
15.471	12.766	16384	16356	0	1284
16.408	13.523	16384	16331	0	1284
15.795	14.677	16384	16333	0	1284
13.163	12.261	16384	16353	0	1284
9.629	7.465	16384	16359	0	1284
5.590	5.229	16384	16353	0	1284
4.147	2.669	16384	16367	0	1284
1.010	0.288	16384	16392	0	1284
0.000	-1.803	16384	16406	0	1284
-0.685	-2.092	16384	16409	0	1284
-0.974	-1.767	16384	16432	0	1284
-1.479	0.325	16385	16466	0	1284
-1.298	2.128	16385	16480	0	1284
-0.902	2.777	16385	16471	0	1284
0.902	2.524	16385	16449	0	1284
3.462	2.921	16385	16423	0	1284
7.068	5.950	16385	16392	0	1284
8.294	8.583	16385	16356	0	1284
9.845	8.619	16384	16316	0	1284
9.917	10.819	16384	16280	0	1284
13.559	10.638	16384	16240	0	1284
18.283	13.812	16384	16200	0	1284
24.666	20.808	16384	16166	0	1284
25.460	23.549	16384	16141	0	1284
23.188	24.739	16383	16118	0	1284
20.664	22.935	16383	16104	0	1284
16.156	18.139	16383	16098	0	1284
14.894	15.398	16383	16104	0	1284
12.297	11.864	16382	16118	0	1284
11.323	11.828	16382	16135	0	1284
9.088	9.376	16382	16163	0	1284
5.770	9.376	16382	16217	0	1284
5.481	8.186	16383	16288	0	1284
4.904	10.097	16383	16345	0	1284
4.904	10.855	16383	16384	0	1284
6.239	10.566	16383	16429	0	1284
7.321	12.117	16383	16488	0	1284
6.527	9.376	16383	16522	0	1284
2.849	6.275	16384	16537	0	1284
-0.541	4.364	16384	16568	0	1284
-1.947	0.613	16384	16619	0	1284
-2.633	0.865	16384	16650	0	1284
-0.721	2.380	16384	16650	0	1284
3.714	8.006	16384	16630	0	1284
6.275	10.927	16384	16599	0	1284
8.150	13.091	16384	16568	0	1284
9.412	11.143	16384	16531	0	1284
6.167	9.592	16384	16483	0	1284
3.318	4.940	16384	16432	0	1284
-0.252	1.226	16384	16384	0	1284
-3.246	-2.272	16384	16333	0	1284
-5.698	-5.662	16383	16291	0	1284
-5.554	-8.294	16383	16248	0	1284
-6.816	-7.825	16383	16209	0	1284
-6.888	-8.871	16383	16175	0	1284
-7.934	-8.222	16382	16158	0	1284
-8.871	-8.547	16382	16175	0	1284
-8.150	-7.068	16382	16214	0	1284
-6.635	-3.895	16382	16246	0	1284
-3.246	-2.957	16382	16268	0	1284
0.613	0.721	16382	16311	0	1284
3.210	2.056	16383	16373	0	1284
5.445	2.416	16383	16415	0	1284
7.537	2.560	16383	16446	0	1284
7.898	2.272	16383	16488	0	1284
8.475	4.039	16384	16551	0	1284
9.232	8.979	16384	16593	0	1284
12.622	13.595	16384	16602	0	1284
14.894	16.228	16384	16593	0	1284
20.447	19.041	16384	16579	0	1284
21.962	18.103	16384	16562	0	1284
20.123	16.985	16384	16542	0	1284
14.281	15.795	16384	16517	0	1284
9.701	12.802	16384	16488	0	1284
6.744	9.665	16384	16452	0	1284
5.770	8.691	16384	16412	0	1284
7.934	10.710	16384	16376	0	1284
10.674	13.415	16384	16342	0	1284
12.081	15.038	16384	16314	0	1284
13.054	18.139	16383	16285	0	1284
16.012	16.877	16383	16271	0	1284
15.398	18.644	16383	16288	0	1284
13.415	14.749	16383	16328	0	1284
10.963	12.658	16384	16356	0	1284
9.304	9.412	16384	16370	0	1284
7.934	6.780	16384	16398	0	1284
9.124	8.042	16384	16443	0	1284
7.248	7.032	16384	16474	0	1284
-0.252	5.265	16384	16488	0	1284
-5.698	1.118	16384	16517	0	1284
-9.520	-0.649	16385	16557	0	1284
-7.140	2.019	16385	16579	0	1284
2.272	5.986	16385	16576	0	1284
9.665	13.091	16385	16551	0	1284
14.136	16.408	16385	16511	0	1284
12.081	15.507	16385	16469	0	1284
11.792	15.110	16385	16426	0	1284
11.071	11.720	16384	16389	0	1284
10.242	11.973	16384	16356	0	1284
10.025	12.405	16384	16325	0	1284
10.638	11.215	16384	16299	0	1284
8.619	15.795	16384	16271	0	1284
10.061	17.526	16384	16243	0	1284
11.612	17.274	16384	16214	0	1284
10.674	17.346	16384	16189	0	1284
7.681	12.658	16384	16166	0	1284
5.409	9.520	16384	16172	0	1284
2.524	6.780	16384	16203	0	1284
2.056	7.032	16384	16231	0	1284
1.154	4.147	16384	16260	0	1284
0.541	2.092	16384	16316	0	1284
-1.695	-1.803	16384	16412	0	1284
-2.272	-1.479	16384	16508	0	1284
-1.839	-0.865	16385	16574	0	1284
0.469	1.875	16385	16622	0	1284
1.226	3.534	16386	16664	0	1284
-1.154	-0.216	16386	16681	0	1284
-6.455	-5.157	16386	16667	0	1284
-12.694	-12.333	16386	16633	0	1284
-15.074	-14.930	16386	16591	0	1284
-15.795	-13.127	16386	16539	0	1284
-14.064	-11.396	16386	16477	0	1284
-11.504	-9.412	16386	16406	0	1284
-13.668	-10.422	16385	16345	0	1284
-14.425	-13.884	16385	16282	0	1284
-12.982	-12.441	16384	16226	0	1284
-9.701	-6.275	16384	16172	0	1284
-2.993	2.488	16384	16126	0	1284
0.757	6.167	16384	16084	0	1284
0.288	6.347	16384	16047	0	1284
-6.058	0.000	16383	16030	0	1284
-10.746	-7.140	16383	16053	0	1284
-13.487	-8.871	16384	16107	0	1284
-10.386	-7.970	16383	16152	0	1284
-9.304	-4.724	16383	16175	0	1284
-11.179	-6.094	16383	16200	0	1284
-17.634	-11.143	16383	16246	0	1284
-20.447	-13.163	16384	16308	0	1284
-21.241	-16.841	16384	16362	0	1284
-18.356	-13.559	16384	16423	0	1284
-13.631	-10.855	16384	16525	0	1284
-12.550	-8.150	16385	16630	0	1284
-13.018	-7.104	16385	16690	0	1284
-9.953	-5.157	16385	16715	0	1284
-7.753	-2.993	16386	16738	0	1284
-3.931	-1.370	16386	16761	0	1284
-2.416	-0.793	16386	16752	0	1284
-4.003	-3.823	16386	16710	0	1284
-7.970	-8.078	16386	16659	0	1284
-9.809	-10.927	16386	16605	0	1284
-13.091	-12.045	16386	16548	0	1284
-13.776	-13.091	16386	16486	0	1284
-13.379	-13.127	16386	16420	0	1284
-13.884	-12.297	16385	16362	0	1284
-13.235	-13.379	16385	16299	0	1284
-11.937	-12.117	16385	16248	0	1284
-11.360	-9.340	16385	16226	0	1284
-10.278	-9.160	16385	16223	0	1284
-9.701	-7.176	16384	16214	0	1284
-7.609	-4.436	16384	16203	0	1284
-4.147	-2.019	16384	16211	0	1284
-0.685	1.046	16384	16237	0	1284
-0.072	0.505	16384	16254	0	1284
-2.308	-1.551	16384	16260	0	1284
-5.626	-4.183	16384	16282	0	1284
-9.124	-2.921	16384	16319	0	1284
-7.970	-1.190	16384	16339	0	1284
-5.590	2.885	16384	16350	0	1284
-0.433	8.655	16385	16376	0	1284
4.796	12.550	16385	16418	0	1284
9.953	15.362	16385	16446	0	1284
16.084	18.680	16385	16446	0	1284
16.516	17.779	16385	16437	0	1284
16.408	15.435	16385	16420	0	1284
13.163	14.100	16385	16398	0	1284
11.071	12.730	16384	16373	0	1284
14.136	15.543	16385	16339	0	1284
14.641	14.533	16384	16305	0	1284
14.713	14.677	16384	16271	0	1284
12.550	11.612	16384	16237	0	1284
8.439	8.475	16384	16206	0	1284
10.710	11.360	16384	16183	0	1284
15.362	15.326	16384	16169	0	1284
17.815	22.178	16384	16160	0	1284
19.798	22.683	16383	16166	0	1284
16.264	21.998	16383	16194	0	1284
13.704	17.634	16383	16240	0	1284
13.018	18.824	16383	16277	0	1284
15.759	17.851	16383	16305	0	1284
16.336	19.221	16383	16348	0	1284
14.605	17.166	16384	16401	0	1284
12.297	14.136	16384	16443	0	1284
8.475	11.504	16384	16466	0	1284
6.094	9.701	16384	16500	0	1284
6.816	8.691	16384	16545	0	1284
7.465	8.006	16384	16574	0	1284
7.934	5.662	16384	16574	0	1284
6.599	6.167	16384	16554	0	1284
3.462	4.904	16384	16525	0	1284
-0.541	3.570	16384	16491	0	1284
-0.469	2.488	16384	16452	0	1284
-0.793	0.469	16384	16406	0	1284
1.226	0.252	16384	16362	0	1284
5.517	1.587	16383	16314	0	1284
8.835	7.465	16383	16271	0	1284
13.559	11.360	16383	16237	0	1284
14.317	16.264	16383	16211	0	1284
13.343	14.785	16382	16192	0	1284
7.934	8.511	16382	16177	0	1284
3.498	5.590	16382	16175	0	1284
3.173	3.750	16382	16203	0	1284
7.176	7.573	16382	16257	0	1284
14.245	12.874	16382	16297	0	1284
18.320	18.211	16382	16328	0	1284
22.395	17.526	16382	16370	0	1284
19.726	16.805	16383	16429	0	1284
15.939	13.343	16383	16474	0	1284
9.881	7.970	16383	16505	0	1284
5.590	4.544	16383	16545	0	1284
2.921	2.344	16383	16591	0	1284
3.859	2.596	16384	16613	0	1284
7.573	6.022	16384	16610	0	1284
11.792	11.756	16384	16599	0	1284
16.192	13.343	16384	16593	0	1284
15.362	14.389	16384	16579	0	1284
9.484	10.458	16384	16554	0	1284
4.255	7.717	16384	16528	0	1284
-0.649	4.436	16384	16500	0	1284
-3.101	4.327	16384	16466	0	1284
-1.623	3.714	16384	16423	0	1284
-0.757	1.947	16384	16386	0	1284
0.180	1.442	16384	16356	0	1284
1.479	2.488	16383	16331	0	1284
4.616	7.573	16383	16308	0	1284
8.619	12.694	16383	16288	0	1284
10.458	16.264	16383	16294	0	1284
11.684	15.795	16383	16316	0	1284
12.369	14.281	16383	16325	0	1284
11.396	11.504	16383	16328	0	1284
8.078	7.645	16383	16359	0	1284
4.075	5.878	16384	16426	0	1284
-1.479	0.685	16384	16500	0	1284
-4.796	-4.039	16384	16551	0	1284
-6.924	-6.311	16384	16591	0	1284
-7.429	-9.881	16384	16625	0	1284
-5.842	-8.330	16385	16636	0	1284
-2.741	-4.039	16385	16616	0	1284
2.777	2.524	16385	16582	0	1284
8.547	7.501	16385	16537	0	1284
8.907	8.186	16385	16483	0	1284
4.147	1.983	16385	16426	0	1284
-2.019	-5.409	16384	16382	0	1284
-7.789	-9.196	16384	16336	0	1284
-8.547	-8.222	16384	16294	0	1284
-4.508	-4.616	16384	16254	0	1284
-2.019	-1.154	16384	16217	0	1284
2.128	0.397	16384	16194	0	1284
5.301	2.777	16384	16177	0	1284
8.222	5.409	16384	16169	0	1284
9.917	9.629	16384	16172	0	1284
9.989	9.953	16384	16194	0	1284
5.049	5.301	16384	16237	0	1284
0.144	-0.757	16384	16271	0	1284
-4.400	-4.616	16384	16294	0	1284
-5.121	-7.465	16384	16333	0	1284
-2.993	-4.760	16384	16384	0	1284
0.541	-0.685	16384	16412	0	1284
2.056	0.288	16384	16423	0	1284
2.633	2.416	16384	16449	0	1284
1.551	2.813	16384	16486	0	1284
0.180	2.272	16384	16505	0	1284
-0.072	0.974	16384	16503	0	1284
-1.118	1.334	16384	16486	0	1284
-1.875	2.236	16385	16514	0	1284
-4.039	1.947	16386	16707	0	1284
-5.445	5.265	16388	17027	0	1284
-5.986	6.419	16390	17257	0	1284
-2.200	8.006	16390	17331	0	1284
4.904	12.153	16391	17325	0	1284
13.018	15.831	16392	17277	0	1284
21.890	21.673	16392	17180	0	1284
24.234	27.010	16392	17047	0	1284
21.168	25.099	16392	16897	1	2284
15.759	21.637	16392	16744	0	2284
7.970	15.110	16391	16588	0	2284
3.714	9.412	16391	16429	0	2284
2.200	6.022	16391	16282	0	2284
2.272	4.255	16390	16138	0	2284
3.354	3.750	16389	16013	0	2284
6.203	3.823	16389	15905	0	2284
11.179	6.996	16388	15812	0	2284
15.038	11.828	16387	15732	0	2284
20.555	14.641	16387	15664	0	2284
19.942	15.326	16386	15610	0	2284
16.192	11.504	16386	15590	0	2284
10.783	7.140	16385	15605	0	2284
6.455	5.770	16385	15636	0	2284
7.068	7.573	16385	15684	0	2284
11.828	12.333	16384	15744	0	2284
14.425	14.245	16384	15792	0	2284
15.398	14.136	16384	15826	0	2284
10.855	8.943	16384	15860	0	2284
7.032	3.931	16384	15891	0	2284
6.960	5.445	16384	15917	0	2284
10.494	8.763	16383	15939	0	2284
12.694	13.595	16383	15953	0	2284
14.389	15.471	16382	15962	0	2284
13.812	17.166	16382	15968	0	2284
12.441	13.776	16381	15982	0	2284
13.812	13.451	16381	16004	0	2284
12.910	11.937	16381	16036	0	2284
9.124	10.314	16380	16070	0	2284
6.852	10.350	16380	16101	0	2284
6.347	8.402	16380	16135	0	2284
7.681	9.340	16380	16194	0	2284
11.071	9.845	16380	16268	0	2284
13.307	10.133	16380	16339	0	2284
12.946	10.710	16380	16395	0	2284
10.350	9.520	16380	16469	0	2284
8.619	10.242	16380	16551	0	2284
9.484	7.140	16380	16613	0	2284
8.619	5.626	16381	16659	0	2284
9.016	5.770	16381	16712	0	2284
8.763	6.780	16381	16772	0	2284
11.396	9.556	16382	16812	0	2284
12.333	11.864	16382	16829	0	2284
14.425	12.910	16382	16832	0	2284
16.949	13.343	16382	16826	0	2284
12.622	10.638	16382	16806	0	2284
6.996	6.455	16382	16778	0	2284
2.164	2.560	16382	16744	0	2284
-0.938	-0.469	16382	16701	0	2284
1.262	-0.902	16382	16659	0	2284
4.364	0.180	16382	16616	0	2284
4.940	1.587	16382	16582	0	2284
4.075	0.036	16382	16548	0	2284
-2.236	-3.895	16382	16520	0	2284
-8.583	-8.727	16382	16488	0	2284
-9.196	-9.016	16382	16463	0	2284
-5.950	-7.789	16382	16457	0	2284
-2.669	-4.688	16382	16474	0	2284
2.128	-1.479	16382	16486	0	2284
3.967	0.397	16382	16486	0	2284
4.436	0.108	16382	16503	0	2284
4.977	1.623	16383	16531	0	2284
7.573	3.750	16383	16548	0	2284
8.258	5.626	16383	16545	0	2284
6.599	5.265	16383	16548	0	2284
4.183	4.039	16383	16562	0	2284
3.282	2.272	16384	16565	0	2284
3.787	3.931	16384	16557	0	2284
7.357	6.094	16384	16534	0	2284
10.025	9.881	16384	16503	0	2284
10.602	10.494	16384	16463	0	2284
10.710	10.855	16384	16423	0	2284
10.242	8.402	16384	16384	0	2284
11.035	10.999	16383	16350	0	2284
14.317	12.586	16383	16314	0	2284
15.723	14.749	16383	16277	0	2284
15.507	17.706	16383	16243	0	2284
13.668	14.317	16383	16209	0	2284
9.881	13.199	16382	16183	0	2284
9.088	11.612	16383	16166	0	2284
10.602	11.287	16382	16160	0	2284
14.064	15.290	16382	16175	0	2284
18.969	17.490	16382	16209	0	2284
19.582	20.627	16382	16231	0	2284
18.247	19.221	16382	16243	0	2284
12.982	17.129	16382	16280	0	2284
9.953	13.163	16383	16356	0	2284
10.458	13.523	16383	16435	0	2284
12.369	15.146	16383	16500	0	2284
16.084	15.903	16384	16559	0	2284
16.949	16.949	16384	16622	0	2284
12.477	14.569	16384	16656	0	2284
9.845	12.694	16384	16656	0	2284
7.934	11.323	16384	16636	0	2284
7.681	9.737	16384	16602	0	2284
6.239	10.819	16384	16554	0	2284
5.590	9.845	16384	16500	0	2284
3.570	9.016	16384	16449	0	2284
3.823	7.862	16384	16403	0	2284
7.104	10.458	16384	16365	0	2284
10.927	11.035	16384	16322	0	2284
13.631	14.028	16384	16288	0	2284
15.903	18.716	16384	16254	0	2284
12.081	16.733	16384	16223	0	2284
10.638	14.533	16383	16194	0	2284
8.366	11.937	16383	16175	0	2284
8.150	9.448	16383	16180	0	2284
10.638	12.117	16383	16211	0	2284
11.900	11.937	16383	16240	0	2284
8.439	9.268	16383	16268	0	2284
2.777	6.671	16383	16311	0	2284
-1.803	1.515	16384	16367	0	2284
-2.092	0.108	16384	16409	0	2284
0.974	1.695	16384	16437	0	2284
4.255	3.787	16384	16474	0	2284
4.364	1.839	16384	16531	0	2284
0.216	-1.479	16384	16571	0	2284
-1.947	-5.049	16384	16579	0	2284
-3.173	-4.904	16385	16568	0	2284
-0.793	-3.534	16385	16548	0	2284
1.190	-1.587	16385	16520	0	2284
-0.325	-0.361	16385	16497	0	2284
-3.570	-1.695	16385	16474	0	2284
-6.527	-2.705	16385	16446	0	2284
-6.419	-2.849	16385	16409	0	2284
-3.498	-1.082	16384	16370	0	2284
-1.551	0.974	16384	16328	0	2284
-1.370	-2.200	16384	16285	0	2284
-5.554	-4.436	16384	16248	0	2284
-8.691	-7.104	16384	16214	0	2284
-8.943	-6.780	16384	16180	0	2284
-4.977	-2.236	16384	16152	0	2284
2.092	3.462	16384	16186	0	2284
2.416	5.517	16385	16392	0	2284
-1.154	0.829	16386	16741	0	2284
-9.088	-6.455	16388	17033	0	2284
-14.713	-11.251	16389	17195	0	2284
-15.435	-10.422	16390	17266	0	2284
-7.753	-3.282	16391	17280	0	2284
0.721	5.013	16392	17266	0	2284
6.311	10.061	16392	17237	0	2284
7.465	11.360	16393	17172	0	2284
4.616	6.888	16393	17073	0	2284
0.793	2.993	16393	16971	1	576
-1.262	0.108	16393	16871	0	576
-0.649	0.757	16393	16752	0	576
1.731	3.678	16393	16616	0	576
3.354	4.291	16393	16474	0	576
1.803	2.452	16392	16333	0	576
-1.154	-1.731	16392	16189	0	576
-4.075	-5.517	16391	16044	0	576
-3.210	-4.832	16390	15905	0	576
0.613	0.613	16390	15786	0	576
5.950	6.094	16389	15690	0	576
7.429	7.465	16388	15610	0	576
4.904	5.806	16387	15542	0	576
-0.072	-0.072	16386	15488	0	576
-3.354	-3.029	16386	15454	0	576
-2.056	-2.019	16385	15437	0	576
0.180	0.902	16385	15437	0	576
2.380	3.282	16384	15468	0	576
2.957	4.400	16384	15525	0	576
1.370	2.777	16384	15582	0	576
0.829	0.865	16384	15639	0	576
2.849	1.911	16383	15715	0	576
6.167	5.157	16383	15814	0	576
7.753	8.330	16383	15905	0	576
9.448	11.035	16383	15987	0	576
10.314	13.812	16383	16081	0	576
9.989	11.937	16383	16186	0	576
7.501	8.114	16383	16265	0	576
6.888	6.563	16383	16311	0	576
3.678	4.147	16383	16339	0	576
4.904	6.960	16383	16356	0	576
9.953	10.638	16383	16362	0	576
14.930	16.589	16382	16362	0	576
21.385	18.031	16382	16365	0	576
22.935	20.772	16382	16370	0	576
24.306	19.762	16381	16376	0	576
23.224	19.834	16381	16382	0	576
20.303	16.625	16381	16384	0	576
17.274	14.677	16381	16384	0	576
12.441	10.999	16381	16384	0	576
5.698	6.455	16381	16384	0	576
2.200	4.147	16380	16392	0	576
-1.010	0.469	16380	16420	0	576
-2.560	0.036	16380	16471	0	576
-1.298	0.577	16380	16517	0	576
1.731	3.787	16381	16551	0	576
3.750	7.321	16381	16596	0	576
5.626	9.088	16381	16656	0	576
5.337	8.691	16381	16701	0	576
2.092	5.590	16382	16727	0	576
-0.685	3.823	16382	16755	0	576
-0.505	3.859	16382	16789	0	576
2.236	4.977	16382	16809	0	576
6.022	8.006	16383	16800	0	576
6.275	7.357	16383	16778	0	576
2.921	2.416	16383	16741	0	576
-2.128	-1.010	16383	16693	0	576
-5.914	-5.517	16383	16642	0	576
-6.527	-6.275	16382	16588	0	576
-5.770	-6.022	16382	16542	0	576
-5.157	-6.383	16382	16503	0	576
-7.609	-7.429	16383	16466	0	576
-8.114	-10.169	16382	16435	0	576
-6.563	-9.556	16382	16406	0	576
-2.380	-4.832	16382	16384	0	576
2.452	0.505	16382	16370	0	576
4.580	6.131	16382	16356	0	576
5.265	8.547	16382	16362	0	576
3.750	6.671	16382	16382	0	576
4.147	6.852	16382	16395	0	576
7.032	5.049	16382	16398	0	576
9.701	6.888	16382	16420	0	576
11.720	8.258	16383	16480	0	576
13.884	9.917	16383	16537	0	576
15.290	13.704	16384	16565	0	576
16.625	16.408	16384	16596	0	576
18.680	17.851	16384	16636	0	576
15.975	19.077	16384	16659	0	576
13.595	15.074	16384	16647	0	576
11.468	12.225	16384	16619	0	576
10.927	9.160	16384	16582	0	576
14.389	7.212	16384	16534	0	576
10.999	6.311	16384	16477	0	576
6.924	5.662	16384	16415	0	576
1.479	6.383	16384	16356	0	576
-1.911	6.852	16384	16294	0	576
-0.325	4.364	16384	16234	0	576
3.137	6.022	16384	16189	0	576
3.282	4.796	16384	16160	0	576
3.895	6.491	16383	16138	0	576
6.455	10.278	16383	16118	0	576
10.638	15.831	16383	16107	0	576
18.752	22.034	16383	16121	0	576
20.050	21.241	16383	16160	0	576
18.536	19.221	16383	16194	0	576
13.668	14.858	16383	16226	0	576
9.629	9.088	16383	16274	0	576
8.979	7.140	16383	16339	0	576
6.960	4.508	16383	16384	0	576
5.590	4.940	16384	16415	0	576
4.111	2.705	16384	16454	0	576
1.947	2.308	16384	16500	0	576
0.000	4.039	16384	16528	0	576
2.596	3.318	16384	16528	0	576
1.947	2.092	16384	16514	0	576
0.108	1.623	16384	16488	0	576
-2.200	-0.397	16384	16463	0	576
-4.760	-3.029	16384	16435	0	576
-8.258	-6.491	16384	16406	0	576
-11.432	-8.583	16384	16384	0	576
-12.766	-10.169	16384	16359	0	576
-16.372	-13.631	16384	16336	0	576
-18.464	-13.379	16384	16314	0	576
-19.005	-15.903	16384	16294	0	576
-15.651	-15.182	16383	16280	0	576
-13.307	-11.576	16383	16268	0	576
-9.701	-7.248	16383	16257	0	576
-5.409	0.072	16383	16246	0	576
-3.137	3.967	16383	16231	0	576
-2.164	4.868	16382	16211	0	576
-1.623	2.308	16383	16206	0	576
-5.193	-1.226	16383	16234	0	576
-6.635	-4.508	16383	16291	0	576
-8.150	-5.121	16383	16336	0	576
-7.176	-3.787	16383	16370	0	576
-7.068	-3.282	16383	16409	0	576
-6.708	-5.085	16383	16471	0	576
-9.701	-8.330	16384	16525	0	576
-12.838	-11.035	16384	16557	0	576
-12.766	-12.802	16384	16591	0	576
-12.730	-10.061	16384	16627	0	576
-8.943	-5.950	16384	16642	0	576
-8.763	-5.806	16384	16630	0	576
-12.153	-8.366	16384	16608	0	576
-18.031	-14.172	16384	16576	0	576
-20.808	-17.562	16384	16542	0	576
-20.952	-18.752	16384	16508	0	576
-18.031	-13.451	16384	16469	0	576
-12.838	-10.494	16384	16423	0	576
-9.917	-7.212	16384	16379	0	576
-9.737	-6.383	16384	16333	0	576
-7.789	-3.895	16384	16297	0	576
-4.940	-2.488	16384	16268	0	576
-1.587	0.721	16384	16246	0	576
3.246	3.642	16384	16229	0	576
5.914	5.265	16384	16226	0	576
6.671	5.301	16384	16248	0	576
1.947	3.354	16384	16291	0	576
0.361	1.370	16384	16316	0	576
-0.433	0.541	16384	16325	0	576
0.541	3.750	16384	16328	0	576
5.121	7.285	16384	16353	0	576
7.429	11.071	16384	16384	0	576
11.071	15.471	16384	16412	0	576
14.317	18.608	16384	16446	0	576
15.723	23.296	16384	16511	0	576
19.401	25.171	16385	16579	0	576
19.401	25.965	16385	16616	0	576
20.700	24.666	16385	16622	0	576
17.851	18.175	16385	16605	0	576
17.021	16.228	16385	16574	0	576
13.127	11.900	16385	16534	0	576
12.586	12.117	16385	16491	0	576
12.297	13.091	16385	16443	0	576
13.704	15.002	16385	16398	0	576
18.788	18.320	16385	16365	0	576
18.716	17.923	16385	16331	0	576
18.247	18.536	16384	16297	0	576
15.615	15.975	16384	16265	0	576
10.963	14.641	16384	16237	0	576
7.681	10.458	16384	16217	0	576
6.960	12.261	16384	16226	0	576
10.278	14.100	16384	16254	0	576
11.720	15.795	16384	16274	0	576
9.448	16.697	16384	16288	0	576
6.780	11.720	16384	16325	0	576
-0.433	6.203	16385	16392	0	576
-6.563	-0.216	16385	16460	0	576
-9.556	-2.380	16385	16500	0	576
-9.232	-1.947	16386	16525	0	576
-6.167	-0.433	16386	16554	0	576
-6.347	1.334	16386	16559	0	576
-7.357	-1.551	16386	16537	0	576
-10.999	-3.714	16386	16500	0	576
-14.317	-7.645	16386	16457	0	576
-14.930	-9.196	16386	16409	0	576
-13.704	-8.439	16385	16365	0	576
-10.242	-7.357	16385	16314	0	576
-12.874	-7.825	16385	16268	0	576
-16.156	-8.475	16384	16223	0	576
-17.310	-9.160	16384	16180	0	576
-18.283	-7.898	16384	16143	0	576
-13.631	-7.465	16384	16112	0	576
-11.792	-6.239	16384	16087	0	576
-10.927	-7.357	16384	16067	0	576
-13.163	-11.215	16383	16058	0	576
-17.779	-13.415	16383	16078	0	576
-20.159	-16.625	16383	16126	0	576
-20.844	-17.057	16384	16172	0	576
-21.277	-16.841	16383	16209	0	576
-15.939	-13.704	16383	16260	0	576
-15.651	-10.927	16384	16322	0	576
-14.281	-9.088	16384	16365	0	576
-12.405	-8.943	16384	16384	0	576
-14.569	-8.294	16384	16420	0	576
-13.018	-9.520	16384	16466	0	576
-10.422	-7.970	16384	16494	0	576
-11.468	-8.042	16384	16497	0	576
-11.287	-8.114	16384	16488	0	576
-11.540	-9.088	16384	16474	0	576
-10.819	-7.104	16384	16452	0	576
-5.806	-3.606	16384	16426	0	576
-0.505	1.803	16384	16395	0	576
4.868	6.311	16383	16373	0	576
6.275	8.583	16383	16350	0	576
6.563	7.501	16383	16331	0	576
5.517	8.763	16383	16314	0	576
9.953	12.225	16383	16294	0	576
17.346	18.067	16382	16274	0	576
21.241	24.630	16382	16260	0	576
21.421	23.729	16382	16254	0	576
17.923	20.339	16382	16280	0	576
12.622	16.012	16382	16325	0	576
12.730	13.163	16382	16362	0	576
17.418	16.048	16382	16384	0	576
20.411	18.139	16383	16426	0	576
23.188	20.231	16383	16483	0	576
24.053	20.772	16383	16522	0	576
24.883	23.044	16383	16545	0	576
28.164	24.486	16383	16576	0	576
28.633	27.948	16384	16616	0	576
28.453	27.083	16384	16642	0	576
25.279	26.650	16384	16644	0	576
23.332	24.198	16384	16633	0	576
23.440	23.512	16384	16616	0	576
21.818	22.322	16384	16591	0	576
19.041	17.021	16384	16559	0	576
14.497	10.169	16384	16517	0	576
10.350	4.075	16384	16474	0	576
10.278	2.669	16384	16432	0	576
17.959	7.573	16384	16395	0	576
22.935	15.362	16384	16365	0	576
26.650	21.096	16384	16333	0	576
21.529	18.933	16384	16308	0	576
13.163	11.143	16383	16280	0	576
4.832	3.714	16383	16260	0	576
-0.397	-0.938	16383	16246	0	576
-3.498	-3.714	16383	16237	0	576
-4.580	-4.255	16383	16229	0	576
-8.150	-7.032	16383	16231	0	576
-10.458	-8.691	16383	16257	0	576
-11.035	-7.934	16383	16299	0	576
-9.520	-7.862	16383	16328	0	576
-8.006	-3.318	16383	16345	0	576
-8.006	-3.282	16383	16382	0	576
-9.016	-5.481	16384	16432	0	576
-12.982	-8.366	16384	16469	0	576
-15.182	-9.773	16384	16486	0	576
-21.204	-13.740	16384	16514	0	576
-20.700	-14.713	16384	16551	0	576
-23.476	-15.795	16384	16571	0	576
-20.952	-16.156	16384	16562	0	576
-19.870	-14.533	16384	16539	0	576
-19.654	-16.228	16384	16511	0	576
-19.401	-14.281	16384	16477	0	576
-19.618	-16.012	16384	16446	0	576
-16.913	-14.605	16384	16415	0	576
-13.884	-12.477	16384	16384	0	576
-10.819	-9.520	16384	16348	0	576
-7.934	-8.907	16384	16311	0	576
-9.052	-9.917	16384	16280	0	576
-10.061	-12.333	16384	16257	0	576
-6.419	-10.746	16383	16243	0	576
-3.029	-6.311	16383	16237	0	576
1.298	-1.587	16383	16240	0	576
5.121	1.442	16383	16263	0	576
4.183	2.308	16383	16297	0	576
2.380	1.082	16383	16319	0	576
3.859	2.164	16383	16333	0	576
6.960	5.878	16383	16362	0	576
8.943	8.186	16384	16398	0	576
10.891	9.701	16384	16432	0	576
10.530	7.140	16384	16454	0	576
11.937	9.881	16384	16488	0	576
15.975	12.405	16384	16522	0	576
18.933	16.408	16384	16537	0	576
20.267	18.788	16384	16528	0	576
13.523	13.307	16384	16511	0	576
4.868	6.816	16384	16491	0	576
-2.344	-0.288	16384	16466	0	576
-3.534	-0.938	16384	16440	0	576
0.288	3.823	16384	16409	0	576
9.052	10.133	16384	16384	0	576
16.336	15.867	16384	16359	0	576
17.202	18.500	16384	16331	0	576
18.139	15.471	16384	16302	0	576
13.631	14.641	16384	16274	0	576
11.900	12.730	16384	16248	0	576
12.009	11.287	16383	16226	0	576
13.091	14.569	16383	16203	0	576
17.995	16.516	16383	16183	0	576
19.221	19.077	16383	16175	0	576
22.719	19.834	16383	16172	0	576
23.801	23.008	16383	16175	0	576
23.332	22.322	16382	16192	0	576
23.621	24.017	16382	16231	0	576
19.113	24.630	16383	16288	0	576
16.949	22.539	16383	16339	0	576
15.110	20.159	16383	16389	0	576
18.392	19.582	16383	16454	0	576
20.555	18.175	16384	16508	0	576
23.368	20.555	16384	16534	0	576
25.965	19.654	16384	16539	0	576
21.962	19.978	16384	16537	0	576
17.238	15.759	16384	16528	0	576
15.254	13.595	16384	16520	0	576
13.487	12.550	16384	16508	0	576
13.631	12.910	16384	16497	0	576
16.913	16.552	16384	16483	0	576
16.985	17.382	16384	16466	0	576
15.795	17.959	16384	16452	0	576
11.756	13.487	16384	16435	0	576
8.619	13.018	16384	16412	0	576
7.501	11.107	16384	16386	0	576
6.671	9.448	16384	16373	0	576
5.517	10.963	16384	16384	0	576
8.078	12.045	16384	16409	0	576
11.720	14.677	16384	16423	0	576
16.625	19.798	16384	16429	0	576
19.113	22.070	16384	16452	0	576
20.880	19.654	16384	16497	0	576
14.389	16.228	16384	16525	0	576
10.097	10.891	16384	16539	0	576
5.662	8.222	16385	16562	0	576
5.590	8.042	16385	16588	0	576
4.796	8.907	16385	16599	0	576
3.029	7.140	16385	16582	0	576
1.695	5.662	16385	16551	0	576
0.829	2.993	16385	16508	0	576
1.587	1.947	16385	16460	0	576
4.219	1.731	16385	16409	0	576
5.770	2.524	16385	16365	0	576
4.977	0.829	16385	16316	0	576
4.832	1.298	16384	16268	0	576
4.327	2.272	16384	16223	0	576
3.426	3.787	16384	16183	0	576
3.895	7.176	16384	16155	0	576
5.481	8.222	16384	16132	0	576
5.986	7.789	16384	16112	0	576
6.888	7.970	16384	16109	0	576
4.760	9.196	16384	16135	0	576
2.272	8.150	16384	16183	0	576
-2.272	5.445	16384	16220	0	576
-5.554	2.344	16384	16243	0	576
-7.176	-2.741	16384	16282	0	576
-9.773	-5.554	16384	16336	0	576
-11.576	-6.924	16384	16373	0	576
-11.828	-4.977	16384	16398	0	576
-8.691	-2.164	16384	16443	0	576
-6.599	0.361	16384	16497	0	576
-6.671	1.515	16384	16531	0	576
-6.960	-0.072	16385	16539	0	576
-8.943	-2.885	16385	16542	0	576
-9.953	-4.868	16385	16539	0	576
-8.583	-5.914	16385	16517	0	576
-6.780	-5.445	16385	16486	0	576
-5.734	-4.652	16385	16452	0	576
-5.085	-3.137	16385	16423	0	576
-2.921	-0.793	16384	16398	0	576
-2.380	2.092	16384	16376	0	576
-0.865	4.472	16384	16350	0	576
-1.226	4.436	16384	16319	0	576
-0.397	5.734	16384	16288	0	576
-0.180	5.698	16384	16265	0	576
1.226	6.744	16384	16257	0	576
2.092	6.780	16384	16251	0	576
3.029	6.131	16384	16251	0	576
5.337	6.094	16384	16251	0	576
8.547	5.517	16384	16265	0	576
10.855	8.402	16384	16299	0	576
14.569	12.658	16384	16345	0	576
16.877	15.579	16384	16376	0	576
18.175	18.608	16384	16386	0	576
17.634	15.723	16384	16420	0	576
16.805	14.605	16384	16466	0	576
14.245	10.638	16384	16491	0	576
11.792	9.376	16384	16500	0	576
11.612	11.143	16385	16520	0	576
10.350	11.035	16385	16551	0	576
10.530	10.855	16385	16571	0	576
11.396	10.061	16385	16568	0	576
13.163	12.045	16385	16554	0	576
13.523	13.343	16385	16525	0	576
14.389	14.966	16385	16491	0	576
12.261	17.274	16385	16454	0	576
9.665	14.208	16385	16415	0	576
11.035	15.362	16385	16382	0	576
13.631	17.310	16384	16342	0	576
18.536	21.421	16384	16302	0	576
20.808	22.214	16384	16263	0	576
20.519	19.546	16384	16229	0	576
15.074	16.084	16384	16194	0	576
11.287	10.891	16384	16169	0	576
7.140	8.330	16384	16158	0	576
2.885	6.167	16384	16175	0	576
1.010	5.049	16384	16214	0	576
-0.938	3.570	16384	16248	0	576
-0.793	3.282	16384	16280	0	576
2.452	4.327	16384	16331	0	576
5.337	5.517	16384	16389	0	576
6.167	5.770	16384	16432	0	576
3.318	5.013	16384	16460	0	576
-0.216	4.868	16384	16500	0	576
-4.219	1.442	16384	16545	0	576
-8.691	-0.397	16385	16574	0	576
-11.648	-3.859	16385	16574	0	576
-14.389	-5.554	16385	16554	0	576
-18.283	-9.052	16384	16522	0	576
-17.418	-6.888	16385	16483	0	576
-16.697	-5.517	16385	16443	0	576
-13.415	-3.173	16384	16401	0	576
-10.963	-2.993	16384	16362	0	576
-10.242	-3.462	16384	16319	0	576
-11.828	-4.688	16384	16282	0	576
-13.307	-7.465	16384	16248	0	576
-15.218	-6.563	16384	16223	0	576
-13.343	-6.491	16384	16206	0	576
-12.982	-8.150	16384	16197	0	576
-12.189	-6.275	16384	16200	0	576
-10.422	-7.104	16383	16234	0	576
-12.117	-6.419	16384	16294	0	576
-13.307	-7.681	16384	16345	0	576
-13.956	-10.133	16384	16376	0	576
-18.031	-10.278	16384	16420	0	576
-16.733	-11.612	16384	16508	0	576
-16.012	-10.494	16384	16599	0	576
-11.035	-5.662	16385	16656	0	576
-7.501	-5.554	16385	16704	0	576
-6.960	-3.895	16386	16749	0	576
-8.330	-5.734	16386	16772	0	576
-9.701	-7.934	16386	16758	0	576
-10.855	-7.825	16386	16718	0	576
-9.016	-3.498	16387	16670	0	576
-5.265	-0.613	16387	16610	0	576
-0.649	1.515	16386	16551	0	576
3.570	4.472	16386	16488	0	576
7.248	5.698	16386	16426	0	576
9.232	8.402	16386	16367	0	576
10.674	10.710	16386	16308	0	576
10.206	9.989	16385	16254	0	576
7.285	9.304	16385	16209	0	576
6.708	5.734	16385	16175	0	576
3.787	5.265	16384	16141	0	576
4.075	4.904	16384	16107	0	576
7.032	6.094	16384	16081	0	576
10.710	10.133	16384	16064	0	576
13.631	14.136	16384	16050	0	576
16.084	15.471	16384	16047	0	576
14.064	16.769	16384	16078	0	576
15.290	14.749	16384	16132	0	576
16.552	17.562	16384	16183	0	576
18.536	18.897	16384	16217	0	576
22.647	21.998	16384	16263	0	576
25.279	22.214	16384	16316	0	576
23.404	19.978	16384	16353	0	576
19.726	17.851	16384	16370	0	576
18.139	15.471	16384	16379	0	576
15.579	15.002	16384	16384	0	576
18.464	19.473	16384	16384	0	576
23.224	23.549	16384	16386	0	576
27.191	28.345	16384	16382	0	576
27.912	29.751	16384	16367	0	576
22.358	26.506	16384	16348	0	576
17.093	21.529	16384	16328	0	576
10.999	17.779	16383	16308	0	576
10.494	17.274	16383	16285	0	576
13.595	15.939	16383	16263	0	576
15.074	16.372	16382	16246	0	576
15.182	14.425	16382	16248	0	576
12.225	13.127	16382	16280	0	576
12.910	15.362	16382	16328	0	576
16.625	17.093	16383	16359	0	576
17.238	20.483	16383	16379	0	576
18.031	18.536	16383	16409	0	576
9.917	15.362	16383	16457	0	576
5.229	10.746	16383	16491	0	576
3.714	9.773	16383	16508	0	576
8.763	14.785	16383	16542	0	576
12.910	18.428	16384	16588	0	576
17.454	21.998	16384	16622	0	576
13.704	16.769	16384	16633	0	576
6.671	11.432	16384	16630	0	576
-2.380	3.173	16384	16619	0	576
-8.402	-2.128	16384	16596	0	576
-11.179	-2.272	16384	16562	0	576
-10.061	-1.551	16384	16528	0	576
-6.960	-1.442	16384	16494	0	576
-7.609	-1.803	16384	16457	0	576
-8.691	-2.777	16384	16418	0	576
-8.402	-2.669	16384	16382	0	576
-6.816	-3.101	16384	16336	0	576
-5.085	-1.118	16384	16299	0	576
-4.940	-1.695	16383	16268	0	576
-7.970	-2.092	16383	16246	0	576
-11.107	-5.662	16383	16229	0	576
-13.091	-6.347	16383	16214	0	576
-13.884	-7.753	16382	16206	0	576
-11.432	-8.330	16382	16209	0	576
-9.917	-6.419	16382	16243	0	576
-7.825	-2.128	16383	16297	0	576
-4.904	-0.577	16383	16342	0	576
-2.380	1.515	16383	16382	0	576
-3.426	2.488	16383	16432	0	576
-5.085	0.902	16384	16497	0	576
-6.311	0.216	16384	16542	0	576
-8.222	0.361	16384	16565	0	576
-7.429	-0.108	16384	16599	0	576
-6.058	-0.288	16384	16636	0	576
-3.642	1.983	16384	16659	0	576
-1.695	4.039	16385	16659	0	576
-0.469	6.347	16385	16639	0	576
0.216	6.996	16385	16605	0	576
-0.577	6.419	16385	16565	0	576
-4.940	3.065	16385	16522	0	576
-6.347	-0.469	16385	16483	0	576
-8.294	-3.029	16385	16449	0	576
-6.491	-2.633	16384	16418	0	576
-3.173	-1.947	16384	16389	0	576
-1.406	-0.216	16384	16359	0	576
-2.596	0.433	16384	16325	0	576
-3.714	0.216	16384	16294	0	576
-4.075	0.649	16384	16268	0	576
-1.551	1.695	16384	16246	0	576
2.633	5.337	16384	16243	0	576
8.871	7.573	16384	16260	0	576
11.828	11.864	16384	16280	0	576
12.369	15.146	16384	16294	0	576
13.343	15.182	16384	16325	0	576
12.982	16.985	16384	16370	0	576
10.278	14.028	16384	16395	0	576
10.566	14.569	16384	16412	0	576
8.547	11.720	16385	16435	0	576
4.472	12.405	16385	16471	0	576
2.019	9.556	16385	16486	0	576
0.865	8.979	16385	16471	0	576
2.344	9.881	16385	16446	0	576
6.058	14.136	16385	16415	0	576
10.061	16.444	16385	16384	0	576
12.477	21.457	16385	16356	0	576
10.674	20.880	16384	16325	0	576
10.963	21.349	16384	16294	0	576
8.258	15.903	16384	16265	0	576
3.210	11.756	16384	16246	0	576
1.298	6.708	16384	16226	0	576
-2.164	3.570	16384	16209	0	576
-2.993	3.065	16384	16192	0	576
-1.551	1.406	16384	16175	0	576
-1.803	2.849	16384	16172	0	576
-1.767	1.983	16384	16189	0	576
-1.659	2.813	16384	16223	0	576
-0.865	4.436	16384	16246	0	576
-0.865	3.967	16384	16257	0	576
-2.200	1.947	16384	16299	0	576
-6.022	-1.659	16384	16379	0	576
-11.107	-4.219	16384	16463	0	576
-14.389	-4.760	16384	16522	0	576
-13.812	-5.950	16384	16576	0	576
-15.507	-6.419	16385	16625	0	576
-14.858	-9.448	16385	16650	0	576
-14.569	-12.045	16385	16644	0	576
-14.172	-11.107	16385	16619	0	576
-9.592	-7.501	16385	16582	0	576
-6.022	-2.308	16385	16539	0	576
-3.173	1.298	16385	16500	0	576
-4.436	-0.180	16385	16454	0	576
-11.251	-6.527	16385	16409	0	576
-14.353	-11.396	16384	16359	0	576
-16.733	-12.117	16384	16308	0	576
-12.766	-10.927	16384	16263	0	576
-9.088	-5.445	16384	16226	0	576
-5.770	-1.190	16384	16192	0	576
-5.301	-1.046	16384	16160	0	576
-6.671	-2.993	16384	16149	0	576
-7.104	-4.075	16384	16166	0	576
-5.193	-1.875	16384	16200	0	576
-2.019	1.623	16383	16229	0	576
1.551	5.986	16383	16246	0	576
4.291	9.701	16384	16277	0	576
4.868	8.691	16384	16325	0	576
3.967	6.058	16384	16359	0	576
1.587	3.787	16384	16373	0	576
0.216	5.517	16384	16398	0	576
-1.082	5.085	16384	16449	0	576
0.793	7.825	16384	16488	0	576
2.633	9.232	16384	16505	0	576
6.167	10.206	16384	16505	0	576
8.907	12.081	16384	16517	0	576
11.360	13.379	16384	16534	0	576
14.317	14.100	16384	16537	0	576
14.533	16.192	16384	16525	0	576
16.444	14.605	16384	16505	0	576
14.461	14.172	16384	16483	0	576
10.206	12.441	16384	16454	0	576
9.629	9.809	16384	16420	0	576
10.422	10.891	16384	16384	0	576
11.648	14.497	16384	16353	0	576
15.218	16.697	16384	16322	0	576
13.559	17.418	16384	16291	0	576
9.160	12.189	16384	16260	0	576
3.426	6.708	16383	16234	0	576
0.541	2.272	16383	16217	0	576
0.469	2.993	16383	16214	0	576
4.327	6.094	16383	16234	0	576
10.242	8.619	16383	16282	0	576
12.586	11.432	16384	16322	0	576
13.559	10.674	16384	16353	0	576
10.999	7.789	16384	16398	0	576
7.285	5.445	16384	16454	0	576
4.111	1.515	16384	16491	0	576
0.865	0.108	16384	16511	0	576
0.144	-1.082	16384	16545	0	576
-1.623	-1.046	16384	16588	0	576
-0.180	-0.180	16385	16610	0	576
1.082	1.623	16385	16602	0	576
1.118	1.983	16385	16574	0	576
1.226	3.787	16384	16537	0	576
1.226	2.633	16384	16488	0	576
-0.865	-0.613	16384	16437	0	576
-2.741	-3.678	16384	16386	0	576
-6.094	-5.373	16384	16345	0	576
-9.737	-10.169	16384	16308	0	576
-12.369	-10.855	16384	16271	0	576
-13.812	-11.468	16384	16234	0	576
-12.946	-11.143	16384	16203	0	576
-10.999	-9.737	16383	16177	0	576
-8.727	-8.871	16383	16166	0	576
-8.042	-7.825	16383	16177	0	576
-9.484	-11.396	16384	16220	0	576
-9.917	-10.169	16384	16280	0	576
-8.150	-8.727	16384	16331	0	576
-6.094	-4.868	16384	16370	0	576
-3.210	-3.823	16384	16418	0	576
-4.364	-3.318	16384	16477	0	576
-8.294	-6.888	16384	16517	0	576
-10.638	-10.350	16384	16537	0	576
-11.035	-10.025	16384	16568	0	576
-8.402	-9.592	16384	16605	0	576
-6.996	-7.717	16385	16622	0	576
-5.842	-6.960	16385	16610	0	576
-4.904	-5.409	16385	16585	0	576
-2.885	-3.137	16385	16559	0	576
1.334	1.695	16385	16525	0	576
3.895	2.164	16385	16486	0	576
4.003	1.875	16385	16437	0	576
4.291	0.613	16385	16386	0	576
5.049	2.524	16384	16339	0	576
9.484	8.078	16384	16294	0	576
14.821	15.543	16384	16260	0	576
19.762	21.709	16384	16226	0	576
18.247	20.664	16384	16197	0	576
15.831	19.365	16384	16172	0	576
13.776	16.012	16384	16155	0	576
16.192	19.618	16384	16160	0	576
20.483	22.827	16384	16186	0	576
25.820	26.361	16383	16203	0	576
25.965	26.361	16383	16217	0	576
24.306	24.883	16383	16248	0	576
24.089	22.755	16384	16299	0	576
24.017	24.594	16384	16339	0	576
27.083	28.092	16384	16367	0	576
29.282	28.850	16384	16403	0	576
28.237	28.525	16384	16452	0	576
27.660	27.047	16384	16483	0	576
26.325	27.083	16384	16494	0	576
26.686	25.099	16384	16494	0	576
26.686	26.217	16384	16483	0	576
25.532	22.827	16384	16469	0	576
21.637	20.988	16384	16452	0	576
18.572	14.461	16384	16432	0	576
13.415	13.848	16384	16403	0	576
11.540	9.556	16384	16382	0	576
9.232	8.907	16384	16356	0	576
7.609	6.996	16384	16333	0	576
3.462	7.537	16384	16311	0	576
3.606	7.862	16384	16294	0	576
4.327	8.366	16384	16274	0	576
7.970	8.186	16383	16263	0	576
8.655	8.943	16383	16277	0	576
5.517	4.183	16383	16308	0	576
-1.731	-2.128	16383	16331	0	576
-8.619	-6.599	16383	16348	0	576
-10.638	-8.294	16384	16384	0	576
-8.871	-9.340	16384	16457	0	576
-7.357	-6.094	16384	16534	0	576
-7.429	-6.131	16384	16588	0	576
-9.412	-6.383	16384	16633	0	576
-8.511	-7.501	16385	16676	0	576
-7.357	-7.393	16385	16693	0	576
-4.039	-6.563	16385	16676	0	576
-4.580	-7.501	16385	16644	0	576
-8.655	-9.052	16385	16605	0	576
-12.261	-11.396	16385	16559	0	576
-13.631	-10.350	16385	16508	0	576
-12.261	-7.862	16385	16454	0	576
-10.133	-5.662	16385	16409	0	576
-8.979	-6.239	16385	16370	0	576
-12.405	-7.537	16384	16331	0	576
-13.271	-11.179	16384	16291	0	576
-12.946	-10.530	16384	16248	0	576
-12.405	-8.114	16384	16209	0	576
-10.602	-5.481	16384	16180	0	576
-11.828	-5.950	16384	16163	0	576
-17.887	-10.638	16384	16175	0	576
-21.890	-13.343	16384	16203	0	576
-24.702	-18.067	16384	16223	0	576
-25.099	-15.254	16384	16234	0	576
-19.185	-13.956	16384	16268	0	576
-14.930	-9.088	16384	16316	0	576
-8.258	-4.075	16384	16350	0	576
-5.337	-0.613	16384	16367	0	576
-4.977	0.865	16384	16401	0	576
-4.904	0.541	16384	16449	0	576
-6.239	1.442	16384	16480	0	576
-2.596	1.479	16384	16480	0	576
1.154	4.724	16384	16469	0	576
5.626	8.655	16384	16449	0	576
6.167	9.448	16384	16423	0	576
6.022	6.816	16384	16395	0	576
3.534	3.426	16384	16365	0	576
0.685	-0.721	16384	16331	0	576
-1.370	-2.416	16384	16302	0	576
-3.282	-1.551	16384	16282	0	576
-2.092	0.649	16384	16271	0	576
2.993	6.888	16384	16263	0	576
9.016	12.081	16384	16254	0	576
16.444	16.552	16383	16243	0	576
19.185	21.962	16383	16231	0	576
20.880	21.818	16383	16226	0	576
19.978	20.952	16383	16223	0	576
20.736	19.149	16383	16220	0	576
20.303	18.716	16382	16214	0	576
21.709	19.870	16382	16209	0	576
23.008	20.123	16382	16209	0	576
20.159	21.385	16382	16211	0	576
20.339	20.375	16382	16217	0	576
20.231	21.349	16382	16254	0	576
23.801	23.801	16382	16336	0	576
29.715	27.984	16382	16420	0	576
34.259	31.338	16383	16486	0	576
34.259	30.545	16383	16545	0	576
33.105	29.246	16384	16610	0	576
29.066	29.607	16384	16659	0	576
26.830	29.391	16384	16678	0	576
23.837	29.246	16384	16681	0	576
23.476	26.722	16384	16667	0	576
19.618	21.962	16384	16642	0	576
17.923	15.723	16384	16613	0	576
13.848	13.091	16384	16579	0	576
10.169	10.602	16384	16542	0	576
6.094	8.547	16384	16500	0	576
5.626	9.304	16384	16466	0	576
6.419	9.629	16384	16432	0	576
9.665	10.061	16384	16406	0	576
11.143	11.937	16384	16384	0	576
9.989	11.648	16384	16362	0	576
8.078	10.278	16384	16353	0	576
7.789	9.520	16384	16370	0	576
7.898	11.432	16384	16398	0	576
7.212	9.953	16384	16420	0	576
4.508	6.744	16384	16429	0	576
-1.731	2.164	16384	16457	0	576
-6.924	-3.498	16384	16497	0	576
-6.780	-5.481	16385	16525	0	576
-1.334	-2.741	16385	16534	0	576
4.508	2.633	16385	16554	0	576
6.816	5.806	16385	16579	0	576
4.940	3.246	16385	16582	0	576
-1.515	0.108	16385	16559	0	576
-8.186	-5.085	16386	16525	0	576
-11.648	-8.907	16386	16486	0	576
-9.124	-8.222	16386	16446	0	576
-6.816	-5.626	16385	16403	0	576
-6.419	-5.157	16385	16367	0	576
-9.665	-6.780	16385	16328	0	576
-15.759	-12.694	16385	16285	0	576
-23.512	-18.500	16385	16243	0	576
-24.342	-23.476	16384	16197	0	576
-22.935	-21.601	16384	16158	0	576
-20.411	-20.014	16384	16129	0	576
-16.372	-14.353	16384	16107	0	576
-15.146	-12.514	16384	16101	0	576
-13.091	-9.701	16384	16126	0	576
-13.956	-6.996	16384	16172	0	576
-12.369	-7.934	16384	16209	0	576
-9.881	-5.842	16384	16234	0	576
-7.248	-4.327	16384	16274	0	576
-4.977	-2.957	16384	16333	0	576
-5.590	-2.849	16384	16379	0	576
-8.042	-4.580	16384	16403	0	576
-8.799	-4.724	16384	16440	0	576
-6.419	-4.832	16385	16486	0	576
-2.921	-0.865	16385	16514	0	576
-0.397	2.344	16385	16517	0	576
-1.659	2.669	16385	16500	0	576
-2.560	1.406	16385	16469	0	576
-1.911	2.993	16385	16435	0	576
1.587	4.724	16385	16401	0	576
3.246	6.599	16384	16365	0	576
3.895	6.635	16384	16319	0	576
1.803	3.426	16384	16280	0	576
-1.695	0.361	16384	16246	0	576
-3.173	-0.505	16384	16220	0	576
-2.741	0.577	16384	16197	0	576
-0.829	4.183	16383	16172	0	576
2.741	5.445	16383	16149	0	576
5.409	8.799	16383	16141	0	576
7.898	10.855	16383	16163	0	576
11.900	13.343	16383	16211	0	576
14.894	17.851	16383	16257	0	576
17.995	19.041	16383	16291	0	576
18.103	19.906	16383	16345	0	576
17.021	16.264	16384	16435	0	576
14.858	15.651	16384	16534	0	576
12.514	14.064	16384	16608	0	576
14.100	14.353	16384	16664	0	576
13.812	18.536	16385	16721	0	576
16.589	19.365	16385	16749	0	576
16.697	20.339	16385	16744	0	576
19.726	23.693	16385	16718	0	576
20.700	24.883	16385	16681	0	576
24.378	28.453	16385	16636	0	576
26.542	31.590	16385	16582	0	576
28.922	32.997	16385	16528	0	576
28.597	34.764	16385	16471	0	576
26.037	32.853	16385	16418	0	576
20.339	27.840	16384	16367	0	576
16.228	23.368	16384	16316	0	576
12.333	19.834	16384	16271	0	576
10.242	14.966	16384	16234	0	576
8.006	15.543	16384	16209	0	576
8.547	12.225	16384	16200	0	576
8.114	12.730	16384	16223	0	576
9.629	11.973	16384	16263	0	576
10.927	14.497	16384	16294	0	576
14.749	19.005	16384	16311	0	576
18.716	21.132	16384	16339	0	576
18.969	22.935	16384	16373	0	576
21.277	23.512	16384	16389	0	576
16.336	20.339	16384	16395	0	576
11.792	17.021	16384	16415	0	576
3.498	10.458	16385	16449	0	576
-2.164	6.888	16385	16463	0	576
-6.275	1.551	16385	16454	0	576
-7.393	0.072	16385	16437	0	576
-3.642	0.829	16385	16415	0	576
1.046	3.750	16384	16382	0	576
5.373	6.131	16384	16333	0	576
8.114	9.124	16384	16282	0	576
8.078	9.484	16384	16237	0	576
6.167	8.402	16384	16194	0	576
4.255	6.167	16384	16160	0	576
1.659	3.029	16383	16135	0	576
-1.947	0.685	16383	16121	0	576
-4.977	-2.056	16383	16112	0	576
-8.330	-4.400	16382	16101	0	576
-12.153	-7.321	16382	16092	0	576
-12.766	-7.609	16382	16101	0	576
-12.153	-10.566	16382	16121	0	576
-11.756	-10.386	16382	16141	0	576
-10.097	-9.304	16381	16166	0	576
-9.376	-6.563	16381	16211	0	576
-7.681	-4.436	16382	16277	0	576
-5.337	-0.397	16382	16328	0	576
-0.649	2.092	16382	16367	0	576
-0.252	2.236	16382	16415	0	576
-0.433	2.488	16382	16480	0	576
-0.685	3.390	16382	16528	0	576
0.216	7.934	16383	16557	0	576
4.147	13.018	16383	16593	0	576
9.448	15.867	16383	16636	0	576
13.740	19.473	16383	16656	0	576
15.975	16.516	16384	16659	0	576
14.894	15.795	16384	16653	0	576
14.389	14.858	16384	16644	0	576
10.278	14.461	16384	16630	0	576
6.780	12.261	16384	16610	0	576
5.626	8.655	16384	16582	0	576
7.862	10.061	16384	16551	0	576
12.441	10.422	16384	16514	0	576
12.081	10.494	16384	16480	0	576
9.268	7.645	16384	16449	0	576
2.705	4.760	16383	16420	0	576
-1.551	2.452	16383	16389	0	576
-0.216	5.157	16383	16365	0	576
6.671	11.756	16383	16350	0	576
11.756	15.975	16383	16367	0	576
14.966	19.293	16383	16401	0	576
15.398	18.247	16384	16423	0	576
13.127	16.949	16384	16432	0	576
10.855	13.848	16384	16449	0	576
7.573	10.855	16384	16480	0	576
2.344	7.032	16384	16488	0	576
-1.226	5.157	16384	16477	0	576
-1.659	5.878	16384	16474	0	576
2.560	7.068	16384	16483	0	576
9.629	12.405	16384	16480	0	576
16.661	14.497	16384	16463	0	576
16.913	15.903	16384	16446	0	576
13.163	11.648	16384	16426	0	576
6.131	5.806	16384	16403	0	576
-0.252	0.793	16384	16384	0	576
-3.318	-2.128	16384	16365	0	576
-0.902	-1.623	16384	16339	0	576
3.065	1.406	16384	16308	0	576
7.321	4.940	16384	16280	0	576
8.655	7.753	16384	16257	0	576
5.914	6.383	16384	16237	0	576
0.072	2.669	16384	16214	0	576
-3.029	-2.236	16384	16197	0	576
-5.049	-4.796	16384	16197	0	576
-3.895	-4.508	16384	16226	0	576
-0.433	-1.695	16384	16277	0	576
2.633	1.190	16384	16316	0	576
4.111	1.262	16384	16342	0	576
4.075	1.154	16384	16379	0	576
1.226	1.082	16384	16426	0	576
0.252	0.144	16384	16463	0	576
-2.885	-0.721	16384	16488	0	576
-1.262	-1.983	16384	16520	0	576
-1.875	-3.390	16385	16562	0	576
-1.983	-0.649	16385	16585	0	576
-2.560	-0.685	16385	16582	0	576
-1.659	1.406	16385	16559	0	576
0.685	3.498	16385	16525	0	576
2.056	2.921	16385	16488	0	576
3.462	2.416	16385	16449	0	576
1.551	1.010	16385	16406	0	576
-2.308	-1.515	16384	16367	0	576
-5.842	-4.580	16384	16333	0	576
-7.140	-2.921	16384	16308	0	576
-2.993	1.046	16384	16285	0	576
3.642	5.734	16384	16257	0	576
11.648	12.910	16384	16231	0	576
15.146	15.543	16384	16209	0	576
16.516	17.454	16384	16194	0	576
12.081	13.776	16384	16211	0	576
10.097	11.540	16384	16248	0	576
9.232	8.114	16384	16280	0	576
9.520	8.475	16384	16294	0	576
12.045	9.845	16384	16336	0	576
15.795	14.569	16384	16412	0	576
15.110	16.589	16384	16488	0	576
15.507	16.264	16385	16534	0	576
13.091	16.913	16385	16568	0	576
11.720	14.208	16385	16608	0	576
12.369	15.579	16386	16627	0	576
13.307	15.471	16386	16616	0	576
15.831	19.401	16386	16588	0	576
16.192	17.634	16386	16554	0	576
14.497	17.923	16386	16514	0	576
13.307	14.281	16386	16471	0	576
11.504	14.894	16385	16423	0	576
15.074	15.398	16385	16379	0	576
17.238	17.887	16385	16339	0	576
21.709	18.680	16385	16299	0	576
21.385	19.942	16384	16257	0	576
21.241	16.372	16384	16220	0	576
19.365	18.428	16384	16189	0	576
20.339	17.887	16384	16163	0	576
19.762	20.339	16384	16152	0	576
18.247	18.860	16384	16172	0	576
14.821	18.283	16384	16214	0	576
11.864	12.477	16384	16257	0	576
9.232	10.855	16384	16288	0	576
11.251	9.845	16384	16333	0	576
15.002	11.864	16384	16384	0	576
15.507	13.631	16384	16415	0	576
15.110	14.317	16384	16429	0	576
9.088	9.268	16385	16452	0	576
1.515	4.904	16385	16483	0	576
-5.265	-0.469	16385	16494	0	576
-7.970	-2.488	16385	16480	0	576
-8.186	-1.767	16385	16457	0	576
-7.248	-3.210	16385	16432	0	576
-7.970	-3.534	16385	16401	0	576
-5.698	-3.534	16385	16373	0	576
-3.354	-2.596	16384	16339	0	576
2.741	3.173	16384	16305	0	576
9.953	9.448	16384	16265	0	576
15.651	16.336	16384	16220	0	576
19.546	18.824	16384	16177	0	576
19.510	20.952	16384	16143	0	576
16.805	18.320	16383	16112	0	576
16.877	16.877	16383	16092	0	576
15.651	14.677	16382	16078	0	576
15.507	15.543	16382	16075	0	576
17.454	16.120	16382	16081	0	576
16.661	15.651	16382	16092	0	576
18.211	17.274	16381	16121	0	576
17.670	16.444	16382	16175	0	576
18.608	17.202	16382	16246	0	576
15.218	15.038	16382	16311	0	576
11.756	11.756	16382	16365	0	576
7.140	8.294	16382	16426	0	576
5.445	7.357	16383	16500	0	576
3.750	6.780	16383	16554	0	576
0.216	7.645	16383	16593	0	576
-4.291	4.291	16383	16639	0	576
-10.746	-0.252	16384	16695	0	576
-12.694	-2.921	16384	16730	0	576
-9.376	-2.849	16384	16738	0	576
-6.094	-1.046	16384	16730	0	576
-1.370	1.911	16384	16707	0	576
1.406	3.678	16384	16673	0	576
2.885	4.580	16384	16639	0	576
2.849	3.318	16384	16599	0	576
2.921	3.714	16384	16559	0	576
3.029	3.570	16384	16520	0	576
1.911	3.246	16384	16480	0	576
0.721	2.380	16384	16443	0	576
0.649	2.705	16384	16409	0	576
-0.397	0.325	16384	16382	0	576
-1.406	-0.902	16384	16353	0	576
-2.705	-1.190	16384	16333	0	576
-1.983	-0.397	16384	16331	0	576
-1.046	-0.216	16384	16350	0	576
-3.534	0.288	16384	16365	0	576
-3.137	-0.721	16384	16376	0	576
-5.301	-1.118	16384	16403	0	576
-8.583	-2.452	16384	16449	0	576
-9.917	-3.137	16384	16477	0	576
-9.665	-2.164	16384	16491	0	576
-8.871	-1.767	16384	16503	0	576
-5.157	-0.541	16385	16528	0	576
-0.757	2.128	16385	16559	0	576
1.587	4.255	16385	16565	0	576
1.515	4.364	16385	16539	0	576
2.921	6.816	16385	16494	0	576
4.796	7.681	16385	16437	0	576
7.537	9.845	16385	16384	0	576
13.163	12.189	16385	16331	0	576
16.300	15.615	16384	16282	0	576
14.425	15.939	16384	16251	0	576
11.360	15.579	16384	16229	0	576
7.717	12.550	16384	16214	0	576
5.770	8.871	16384	16197	0	576
5.265	6.924	16384	16177	0	576
7.681	7.429	16384	16149	0	576
10.963	10.674	16384	16135	0	576
12.189	13.343	16384	16146	0	576
14.821	16.048	16384	16177	0	576
14.100	13.307	16384	16203	0	576
9.376	10.494	16384	16226	0	576
6.058	5.590	16384	16268	0	576
3.318	3.462	16384	16331	0	576
4.400	4.796	16384	16379	0	576
7.285	8.150	16384	16409	0	576
9.665	10.314	16384	16454	0	576
10.710	13.992	16384	16508	0	576
10.927	13.415	16384	16542	0	576
12.009	12.730	16384	16551	0	576
11.900	13.235	16385	16539	0	576
10.386	10.783	16385	16520	0	576
7.573	11.360	16384	16488	0	576
7.465	12.009	16384	16446	0	576
9.196	13.487	16384	16403	0	576
13.199	17.057	16384	16367	0	576
13.235	16.048	16384	16333	0	576
10.638	15.615	16384	16302	0	576
7.609	13.379	16384	16280	0	576
8.114	13.595	16384	16260	0	576
12.009	17.887	16384	16243	0	576
20.555	22.575	16383	16223	0	576
22.935	24.666	16383	16209	0	576
21.096	22.719	16383	16220	0	576
11.828	12.550	16383	16254	0	576
3.246	5.986	16383	16280	0	576
-2.308	-0.938	16383	16297	0	576
-0.613	-0.397	16384	16333	0	576
6.131	2.452	16384	16406	0	576
13.920	8.006	16384	16491	0	576
17.274	10.927	16384	16551	0	576
17.851	11.107	16384	16599	0	576
12.586	10.206	16385	16639	0	576
11.179	6.094	16385	16653	0	576
10.746	4.652	16385	16639	0	576
10.602	6.419	16385	16610	0	576
14.966	8.366	16385	16574	0	576
16.120	11.107	16385	16534	0	576
13.127	11.864	16385	16494	0	576
12.405	8.042	16385	16457	0	576
7.609	2.705	16385	16420	0	576
4.111	-0.541	16384	16384	0	576
1.623	-5.806	16384	16348	0	576
0.108	-4.580	16384	16305	0	576
0.793	-2.885	16384	16271	0	576
4.688	1.118	16384	16243	0	576
6.167	3.859	16384	16220	0	576
7.537	5.121	16384	16203	0	576
4.724	3.354	16384	16209	0	576
1.767	0.469	16384	16237	0	576
-0.397	0.613	16384	16260	0	576
-1.334	-0.469	16384	16277	0	576
-2.633	-1.406	16384	16314	0	576
-6.708	-5.301	16384	16365	0	576
-10.710	-9.556	16384	16401	0	576
-13.884	-13.920	16384	16426	0	576
-14.208	-12.117	16384	16460	0	576
-10.025	-10.999	16384	16500	0	576
-7.825	-7.248	16384	16522	0	576
-3.823	-4.075	16385	16522	0	576
-3.318	-1.911	16385	16508	0	576
-4.147	-2.128	16384	16486	0	576
-6.383	-1.479	16385	16454	0	576
-8.763	-5.229	16384	16418	0	576
-9.232	-4.832	16384	16382	0	576
-9.629	-5.301	16384	16342	0	576
-9.268	-4.544	16384	16305	0	576
-9.845	-5.986	16384	16274	0	576
-13.018	-9.340	16384	16248	0	576
-15.543	-13.343	16384	16237	0	576
-16.408	-15.038	16384	16240	0	576
-16.697	-14.281	16384	16246	0	576
-16.048	-15.002	16384	16248	0	576
-16.697	-13.487	16384	16246	0	576
-14.245	-13.992	16383	16240	0	576
-12.045	-11.251	16383	16231	0	576
-7.934	-6.131	16383	16226	0	576
-2.452	-3.101	16383	16243	0	576
-3.210	-0.577	16383	16274	0	576
-5.013	-2.560	16383	16299	0	576
-5.481	-4.364	16383	16316	0	576
-5.445	-3.210	16383	16348	0	576
-3.210	-0.108	16383	16384	0	576
-0.180	2.128	16383	16412	0	576
0.361	3.137	16383	16423	0	576
1.154	3.570	16384	16452	0	576
5.517	7.465	16384	16491	0	576
12.586	16.661	16384	16517	0	576
22.286	24.811	16384	16517	0	576
24.450	29.535	16384	16497	0	576
22.034	26.181	16384	16474	0	576
15.687	19.870	16384	16443	0	576
9.196	13.163	16383	16415	0	576
6.491	10.566	16383	16389	0	576
9.124	11.323	16383	16367	0	576
12.081	14.100	16383	16339	0	576
11.251	14.533	16383	16316	0	576
12.225	15.651	16382	16299	0	576
11.828	13.487	16383	16291	0	576
9.088	11.684	16382	16291	0	576
8.439	10.169	16382	16294	0	576
9.412	10.386	16382	16305	0	576
10.638	12.441	16382	16342	0	576
11.900	15.182	16383	16392	0	576
17.021	17.670	16383	16437	0	576
19.113	20.700	16383	16471	0	576
21.349	22.935	16384	16520	0	576
19.005	19.870	16384	16582	0	576
17.634	19.401	16384	16622	0	576
14.317	17.562	16384	16636	0	576
13.091	17.670	16384	16650	0	576
12.405	16.048	16384	16670	0	576
13.451	18.139	16384	16670	0	576
13.956	15.362	16385	16647	0	576
14.064	17.634	16385	16610	0	576
18.500	20.411	16384	16568	0	576
21.385	25.676	16384	16522	0	576
24.306	29.787	16384	16474	0	576
21.493	26.253	16384	16426	0	576
18.536	24.522	16384	16384	0	576
17.418	22.899	16384	16342	0	576
15.326	19.906	16384	16299	0	576
13.271	19.221	16384	16263	0	576
10.169	16.733	16384	16234	0	576
1.839	9.376	16384	16211	0	576
-4.003	3.137	16384	16194	0	576
-5.265	-0.613	16383	16180	0	576
-4.255	-1.262	16383	16172	0	576
-0.361	1.298	16383	16160	0	576
1.983	2.705	16383	16158	0	576
0.288	3.065	16383	16158	0	576
-3.173	0.252	16383	16169	0	576
-6.888	-2.957	16383	16200	0	576
-10.458	-6.058	16383	16254	0	576
-10.963	-6.816	16383	16308	0	576
-8.475	-5.590	16383	16370	0	576
-5.193	-6.022	16384	16446	0	576
-3.931	-3.931	16384	16517	0	576
-3.173	-1.767	16384	16557	0	576
-4.003	-2.236	16384	16574	0	576
-6.563	-1.623	16384	16579	0	576
-7.970	-3.210	16384	16574	0	576
-9.124	-4.724	16384	16565	0	576
-9.124	-4.688	16384	16545	0	576
-8.366	-2.633	16384	16520	0	576
-4.508	-0.685	16384	16494	0	576
-5.049	-0.144	16384	16466	0	576
-6.527	-2.344	16384	16443	0	576
-13.776	-6.563	16384	16415	0	576
-18.680	-9.953	16384	16386	0	576
-18.897	-13.091	16384	16362	0	576
-18.644	-12.766	16384	16339	0	576
-15.290	-11.468	16384	16348	0	576
-18.031	-15.507	16384	16376	0	576
-23.332	-17.238	16384	16392	0	576
-23.657	-20.411	16384	16401	0	576
-22.214	-18.500	16384	16432	0	576
-15.146	-15.435	16385	16497	0	576
-9.088	-7.825	16385	16562	0	576
-3.173	-2.993	16386	16602	0	576
-0.613	0.505	16386	16633	0	576
0.216	3.029	16386	16659	0	576
-0.433	2.633	16387	16661	0	576
-1.010	0.938	16387	16633	0	576
-1.731	0.216	16387	16591	0	576
0.541	0.252	16387	16539	0	576
4.039	3.570	16387	16480	0	576
6.455	6.563	16386	16418	0	576
6.996	9.268	16386	16362	0	576
9.232	10.169	16386	16305	0	576
11.684	12.117	16386	16254	0	576
13.956	14.317	16385	16206	0	576
14.389	15.002	16385	16166	0	576
15.903	18.464	16385	16126	0	576
15.435	19.870	16385	16090	0	576
19.077	22.214	16384	16056	0	576
23.296	25.207	16384	16038	0	576
24.883	22.791	16384	16053	0	576
21.241	19.870	16384	16092	0	576
14.317	14.677	16384	16121	0	576
10.783	13.523	16384	16141	0	576
11.360	15.038	16384	16175	0	576
14.677	21.709	16384	16226	0	576
23.296	26.578	16384	16260	0	576
27.912	30.833	16384	16282	0	576
30.689	33.393	16384	16314	0	576
32.456	33.357	16384	16356	0	576
33.502	31.590	16384	16384	0	576
30.292	30.689	16384	16395	0	576
27.696	28.922	16384	16398	0	576
24.089	27.515	16384	16398	0	576
17.021	24.883	16384	16395	0	576
13.668	21.132	16384	16389	0	576
9.737	15.182	16384	16384	0	576
8.042	11.792	16384	16379	0	576
8.799	8.943	16384	16367	0	576
12.874	10.278	16384	16353	0	576
15.254	13.271	16384	16342	0	576
16.444	15.254	16384	16325	0	576
15.002	18.103	16384	16305	0	576
12.189	18.752	16383	16282	0	576
13.018	20.700	16383	16257	0	576
13.776	20.195	16383	16237	0	576
19.185	21.781	16383	16220	0	576
17.887	19.257	16382	16220	0	576
13.343	17.274	16382	16237	0	576
4.544	9.268	16382	16285	0	576
-3.210	4.796	16382	16350	0	576
-6.131	0.433	16383	16403	0	576
-6.780	-0.505	16383	16449	0	576
-4.652	-0.433	16383	16500	0	576
-4.003	0.397	16384	16551	0	576
-5.481	1.334	16384	16582	0	576
-5.049	0.649	16384	16593	0	576
-3.173	1.947	16384	16608	0	576
1.370	4.400	16384	16633	0	576
2.128	5.481	16384	16642	0	576
2.128	4.760	16384	16630	0	576
-2.236	4.111	16384	16605	0	576
-6.275	0.721	16384	16574	0	576
-10.206	-2.813	16384	16534	0	576
-13.235	-6.311	16384	16488	0	576
-15.326	-10.674	16384	16443	0	576
-16.192	-13.127	16384	16403	0	576
-17.815	-15.074	16384	16370	0	576
-16.192	-15.398	16384	16339	0	576
-15.975	-13.054	16384	16314	0	576
-14.172	-13.776	16383	16297	0	576
-14.389	-11.396	16383	16277	0	576
-13.631	-12.910	16383	16263	0	576
-10.530	-9.737	16383	16263	0	576
-10.169	-5.842	16383	16288	0	576
-8.402	-3.173	16383	16328	0	576
-7.537	-2.741	16383	16350	0	576
-8.727	-4.400	16384	16362	0	576
-13.271	-9.665	16384	16389	0	576
-14.353	-11.612	16384	16435	0	576
-13.307	-10.025	16384	16469	0	576
-10.819	-4.832	16384	16488	0	576
-5.626	-1.983	16384	16520	0	576
-1.298	1.442	16384	16551	0	576
-0.902	2.452	16384	16559	0	576
-1.947	1.911	16384	16542	0	576
-1.298	4.075	16384	16514	0	576
1.262	6.419	16384	16477	0	576
4.616	7.898	16384	16435	0	576
7.862	8.294	16384	16392	0	576
7.645	7.321	16384	16359	0	576
5.481	6.996	16384	16322	0	576
2.560	5.626	16384	16285	0	576
1.046	5.878	16384	16251	0	576
3.967	7.825	16384	16223	0	576
9.845	10.494	16384	16203	0	576
17.526	15.903	16383	16189	0	576
21.385	19.978	16383	16177	0	576
25.135	23.188	16383	16186	0	576
24.414	22.431	16383	16226	0	576
22.611	21.132	16383	16285	0	576
22.106	21.565	16383	16333	0	576
22.467	20.411	16383	16367	0	576
19.906	22.178	16384	16415	0	576
19.654	21.096	16384	16500	0	576
16.516	20.844	16384	16579	0	576
18.608	21.457	16384	16627	0	576
18.752	20.664	16385	16659	0	576
20.231	23.224	16385	16695	0	576
23.188	21.854	16385	16718	0	576
22.142	21.998	16386	16715	0	576
21.096	21.024	16386	16695	0	576
17.959	18.969	16386	16664	0	576
18.680	18.716	16386	16630	0	576
15.795	16.156	16386	16591	0	576
15.326	15.362	16386	16539	0	576
8.799	10.350	16386	16486	0	576
0.469	3.246	16386	16426	0	576
-6.816	-1.082	16386	16370	0	576
-11.179	-6.203	16385	16311	0	576
-8.258	-4.364	16385	16254	0	576
-2.200	0.216	16385	16209	0	576
0.793	1.983	16384	16175	0	576
-0.288	2.885	16384	16152	0	576
-2.272	0.721	16384	16158	0	576
-3.678	-0.036	16384	16189	0	576
-2.560	2.272	16384	16209	0	576
1.370	4.724	16384	16217	0	576
4.688	10.097	16384	16240	0	576
5.013	10.458	16384	16280	0	576
4.616	10.674	16384	16308	0	576
4.327	10.386	16385	16325	0	576
6.491	11.107	16385	16348	0	576
8.619	11.251	16385	16376	0	576
10.133	10.891	16385	16392	0	576
10.674	11.828	16385	16392	0	576
9.665	10.999	16385	16384	0	576
9.196	11.215	16385	16367	0	576
8.907	12.910	16384	16339	0	576
10.169	11.828	16384	16308	0	576
8.511	9.701	16384	16280	0	576
8.655	10.422	16384	16246	0	576
6.852	9.809	16384	16214	0	576
5.698	9.304	16384	16194	0	576
2.128	6.058	16384	16180	0	576
0.144	3.534	16383	16172	0	576
-1.406	0.721	16383	16155	0	576
-0.252	1.226	16383	16138	0	576
3.678	4.255	16383	16129	0	576
6.960	6.022	16383	16146	0	576
6.347	5.950	16382	16189	0	576
6.058	5.662	16382	16226	0	576
6.311	5.590	16382	16257	0	576
8.294	8.691	16382	16305	0	576
11.143	9.701	16383	16367	0	576
10.963	10.602	16383	16415	0	576
11.973	9.016	16383	16452	0	576
8.979	9.340	16383	16497	0	576
8.258	8.294	16384	16548	0	576
9.448	10.999	16384	16582	0	576
10.891	11.828	16384	16599	0	576
9.953	12.946	16384	16622	0	576
10.097	9.448	16384	16647	0	576
6.924	6.744	16384	16653	0	576
3.859	5.265	16384	16639	0	576
1.046	5.013	16384	16616	0	576
3.101	5.950	16384	16582	0	576
5.013	9.196	16384	16542	0	576
6.599	10.566	16384	16497	0	576
9.268	11.215	16384	16449	0	576
8.186	11.215	16384	16401	0	576
5.301	8.871	16384	16359	0	576
3.246	8.006	16384	16319	0	576
2.236	5.626	16383	16285	0	576
4.436	8.006	16383	16254	0	576
9.917	12.514	16383	16226	0	576
15.326	19.654	16383	16203	0	576
16.661	21.565	16382	16194	0	576
15.002	22.683	16383	16211	0	576
11.071	17.526	16383	16248	0	576
7.176	14.677	16383	16285	0	576
6.924	9.304	16383	16319	0	576
8.619	11.251	16383	16367	0	576
9.773	12.982	16383	16420	0	576
12.550	14.533	16383	16460	0	576
14.749	18.356	16383	16486	0	576
14.713	19.257	16384	16514	0	576
16.192	20.483	16384	16554	0	576
16.192	20.844	16384	16574	0	576
14.208	20.988	16384	16568	0	576
15.182	18.824	16384	16551	0	576
12.622	17.743	16384	16531	0	576
11.937	15.290	16384	16511	0	576
9.881	13.091	16384	16491	0	576
5.481	9.953	16384	16469	0	576
2.056	8.619	16384	16440	0	576
-1.803	5.806	16384	16406	0	576
-5.337	4.724	16384	16379	0	576
-5.590	3.823	16384	16353	0	576
-4.147	2.633	16384	16328	0	576
-2.128	2.272	16384	16308	0	576
0.865	2.993	16384	16294	0	576
1.515	3.246	16384	16294	0	576
0.505	2.813	16384	16316	0	576
-1.947	2.741	16384	16353	0	576
-5.193	-0.938	16384	16376	0	576
-7.393	-2.849	16384	16384	0	576
-10.999	-8.042	16384	16403	0	576
-14.353	-12.514	16384	16440	0	576
-14.785	-12.910	16384	16466	0	576
-14.569	-13.992	16384	16477	0	576
-11.396	-10.746	16384	16497	0	576
-8.547	-7.862	16384	16520	0	576
-8.655	-7.140	16384	16525	0	576
-10.530	-9.196	16385	16511	0	576
-10.530	-9.665	16385	16488	0	576
-10.422	-8.294	16384	16460	0	576
-7.537	-6.167	16384	16420	0	576
-4.508	-5.157	16384	16376	0	576
-4.472	-2.452	16384	16328	0	576
-6.563	-4.111	16384	16282	0	576
-7.573	-5.121	16384	16243	0	576
-10.097	-5.013	16384	16206	0	576
-11.360	-5.265	16384	16177	0	576
-9.592	-5.265	16383	16158	0	576
-8.835	-4.147	16383	16146	0	576
-8.078	-5.229	16383	16143	0	576
-6.527	-3.029	16383	16155	0	576
-5.085	-2.200	16383	16194	0	576
-3.426	-0.865	16383	16260	0	576
-0.505	2.416	16383	16314	0	576
3.318	5.409	16383	16359	0	576
5.265	6.131	16384	16412	0	576
4.544	6.131	16384	16497	0	576
3.282	3.678	16384	16582	0	576
1.839	2.596	16384	16636	0	576
1.587	2.272	16385	16676	0	576
4.436	4.977	16385	16712	0	576
8.511	8.114	16385	16727	0	576
13.487	10.169	16386	16712	0	576
15.615	12.946	16386	16678	0	576
15.110	13.487	16386	16636	0	576
15.651	12.514	16386	16588	0	576
13.956	16.048	16385	16534	0	576
13.523	15.651	16385	16480	0	576
12.802	17.129	16385	16426	0	576
12.189	14.641	16385	16376	0	576
10.710	13.704	16385	16325	0	576
7.212	8.439	16385	16274	0	576
6.347	6.094	16384	16226	0	576
3.859	5.914	16384	16186	0	576
2.416	8.402	16384	16155	0	576
5.085	10.386	16384	16129	0	576
7.970	13.631	16384	16132	0	576
10.025	17.310	16384	16160	0	576
12.117	16.913	16384	16180	0	576
12.694	15.362	16384	16180	0	576
14.966	16.697	16384	16183	0	576
19.329	16.697	16384	16206	0	576
25.568	21.457	16384	16246	0	576
31.482	29.246	16384	16280	0	576
34.043	32.853	16384	16325	0	576
32.961	33.610	16384	16395	0	576
30.292	29.354	16384	16471	0	576
26.145	22.791	16384	16522	0	576
21.024	20.627	16385	16562	0	576
20.014	18.247	16385	16610	0	576
16.661	18.897	16385	16639	0	576
15.471	15.831	16386	16639	0	576
12.946	14.389	16386	16619	0	576
12.766	12.441	16386	16599	0	576
11.504	8.511	16386	16571	0	576
8.727	9.088	16386	16531	0	576
4.904	5.914	16386	16480	0	576
0.974	3.426	16385	16423	0	576
-2.452	0.793	16385	16367	0	576
-4.724	-1.298	16385	16316	0	576
-7.068	-3.426	16385	16285	0	576
-8.294	-5.049	16385	16277	0	576
-9.737	-2.596	16385	16282	0	576
-9.088	-0.505	16384	16280	0	576
-6.094	0.757	16384	16265	0	576
-4.400	0.397	16384	16265	0	576
-3.534	-1.370	16384	16285	0	576
-2.813	-4.111	16384	16302	0	576
-4.436	-5.914	16384	16314	0	576
-5.806	-6.924	16385	16333	0	576
-7.501	-5.698	16385	16365	0	576
-9.665	-5.013	16385	16379	0	576
-8.583	-2.019	16385	16382	0	576
-6.131	-0.505	16385	16386	0	576
-5.806	-0.541	16385	16403	0	576
-8.330	-2.416	16385	16406	0	576
-10.458	-6.347	16385	16384	0	576
-12.766	-9.016	16384	16350	0	576
-13.451	-11.251	16384	16316	0	576
-13.668	-11.360	16384	16282	0	576
-11.107	-9.809	16384	16246	0	576
-12.045	-9.773	16384	16209	0	576
-11.937	-7.862	16384	16175	0	576
-8.294	-6.852	16383	16146	0	576
-6.419	-7.248	16383	16126	0	576
-6.058	-5.049	16383	16115	0	576
-5.229	-5.734	16383	16112	0	576
-5.481	-4.327	16383	16121	0	576
-6.167	-4.796	16382	16135	0	576
-5.085	-2.885	16382	16163	0	576
-0.685	-0.685	16382	16211	0	576
3.426	2.885	16382	16277	0	576
5.229	3.390	16382	16333	0	576
4.580	3.029	16383	16382	0	576
0.541	0.721	16383	16440	0	576
-1.118	-0.144	16383	16514	0	576
4.255	4.219	16384	16568	0	576
12.009	10.566	16384	16602	0	576
23.188	18.392	16384	16636	0	576
27.948	21.998	16384	16670	0	576
26.181	21.637	16384	16684	0	576
23.765	18.139	16384	16678	0	576
19.942	17.274	16384	16664	0	576
18.608	15.615	16384	16642	0	576
20.339	18.211	16384	16605	0	576
19.293	17.526	16384	16557	0	576
22.034	19.690	16384	16508	0	576
23.729	20.014	16384	16457	0	576
26.614	24.270	16384	16409	0	576
28.453	27.047	16384	16373	0	576
27.551	28.128	16384	16342	0	576
24.450	24.450	16384	16316	0	576
21.096	19.762	16384	16297	0	576
20.123	16.336	16383	16274	0	576
20.411	14.497	16383	16260	0	576
21.168	13.992	16383	16265	0	576
18.247	14.461	16383	16288	0	576
16.733	9.953	16383	16302	0	576
12.766	7.681	16383	16314	0	576
11.756	3.895	16383	16350	0	576
9.737	2.452	16384	16403	0	576
7.609	2.164	16384	16443	0	576
5.085	2.164	16384	16469	0	576
6.383	3.390	16384	16500	0	576
8.979	4.327	16384	16539	0	576
9.124	2.524	16384	16562	0	576
5.734	0.072	16384	16557	0	576
-3.931	-6.419	16384	16542	0	576
-13.487	-12.586	16384	16520	0	576
-16.877	-14.100	16384	16497	0	576
-15.398	-12.982	16384	16471	0	576
-10.999	-9.989	16384	16443	0	576
-9.773	-7.573	16384	16412	0	576
-13.631	-11.432	16384	16382	0	576
-16.480	-14.100	16384	16342	0	576
-18.969	-16.516	16384	16299	0	576
-16.156	-15.831	16384	16257	0	576
-11.432	-10.206	16384	16220	0	576
-6.455	-5.734	16384	16186	0	576
-2.849	-1.767	16383	16169	0	576
-1.406	-0.865	16383	16183	0	576
-1.875	-2.560	16383	16220	0	576
-4.760	-6.094	16383	16254	0	576
-6.383	-8.907	16383	16280	0	576
-10.422	-9.520	16384	16328	0	576
-9.304	-9.556	16384	16401	0	576
-7.501	-8.078	16384	16477	0	576
-7.321	-7.970	16384	16525	0	576
-6.491	-8.042	16384	16565	0	576
-7.501	-6.239	16385	16602	0	576
-8.186	-6.239	16385	16613	0	576
-6.635	-4.472	16385	16605	0	576
-5.193	-1.479	16385	16579	0	576
-3.246	-0.902	16385	16545	0	576
-2.164	0.000	16385	16505	0	576
-4.580	-1.226	16385	16463	0	576
-5.301	-3.714	16385	16418	0	576
-7.537	-5.950	16384	16379	0	576
-8.042	-6.311	16384	16339	0	576
-8.511	-3.787	16384	16299	0	576
-9.124	-4.436	16384	16263	0	576
-8.727	-4.111	16384	16231	0	576
-10.242	-6.599	16384	16209	0	576
-9.592	-7.898	16384	16197	0	576
-7.609	-5.265	16384	16197	0	576
-5.193	-0.577	16384	16223	0	576
-0.649	3.462	16384	16265	0	576
1.623	7.248	16384	16294	0	576
3.390	7.501	16384	16308	0	576
5.734	7.717	16384	16336	0	576
7.393	8.402	16384	16376	0	576
11.540	14.028	16384	16395	0	576
16.264	16.516	16384	16406	0	576
19.293	20.555	16384	16423	0	576
21.998	20.880	16384	16449	0	576
24.739	23.873	16384	16463	0	576
25.712	24.450	16384	16466	0	576
27.732	27.335	16384	16480	0	576
30.076	29.968	16385	16508	0	576
31.590	31.879	16385	16525	0	576
33.754	32.853	16385	16525	0	576
35.701	35.485	16385	16511	0	576
34.295	35.846	16385	16488	0	576
32.095	35.052	16385	16466	0	576
28.128	31.915	16385	16435	0	576
27.551	31.446	16385	16401	0	576
30.148	29.607	16384	16367	0	576
35.413	32.780	16384	16331	0	576
35.701	35.088	16384	16294	0	576
32.384	34.908	16384	16260	0	576
25.460	33.502	16384	16229	0	576
20.627	29.715	16384	16200	0	576
19.221	26.650	16384	16175	0	576
25.496	28.128	16384	16158	0	576
28.597	27.335	16383	16163	0	576
26.433	26.470	16383	16189	0	576
21.565	21.385	16383	16206	0	576
13.163	17.021	16383	16217	0	576
8.511	11.504	16383	16246	0	576
5.409	9.629	16383	16291	0	576
6.744	10.602	16383	16322	0	576
6.996	9.917	16383	16342	0	576
7.032	9.232	16384	16370	0	576
5.914	6.888	16384	16409	0	576
2.993	4.508	16384	16440	0	576
0.902	1.118	16384	16452	0	576
-1.082	-0.252	16384	16446	0	576
-1.695	0.144	16384	16432	0	576
-1.262	1.118	16384	16415	0	576
-0.757	-0.108	16383	16398	0	576
-3.931	-2.633	16383	16384	0	576
-7.176	-6.599	16383	16367	0	576
-10.855	-12.694	16383	16350	0	576
-14.569	-14.930	16383	16336	0	576
-14.966	-15.723	16383	16328	0	576
-17.274	-17.093	16383	16322	0	576
-17.887	-16.372	16383	16319	0	576
-20.159	-18.320	16382	16314	0	576
-18.860	-17.021	16382	16314	0	576
-18.392	-15.795	16382	16339	0	576
-15.362	-13.704	16382	16382	0	576
-19.401	-17.238	16383	16409	0	576
-22.286	-20.519	16383	16426	0	576
-26.470	-24.089	16383	16457	0	576
-25.820	-20.231	16383	16505	0	576
-18.139	-13.992	16383	16537	0	576
-13.595	-7.645	16384	16554	0	576
-11.720	-5.734	16384	16579	0	576
-15.615	-10.025	16384	16613	0	576
-19.077	-14.461	16384	16633	0	576
-21.565	-13.668	16384	16625	0	576
-16.336	-11.720	16384	16602	0	576
-11.612	-6.311	16384	16576	0	576
-7.285	-3.534	16384	16542	0	576
-4.580	-2.380	16384	16503	0	576
-5.662	-2.416	16384	16463	0	576
-5.590	-1.298	16384	16426	0	576
-9.701	-1.298	16384	16401	0	576
-13.595	-2.957	16384	16382	0	576
-16.589	-7.717	16384	16362	0	576
-19.906	-11.432	16384	16345	0	576
-16.985	-11.287	16384	16325	0	576
-12.730	-9.953	16384	16297	0	576
-5.986	-4.075	16384	16274	0	576
-0.072	2.019	16384	16280	0	576
5.085	5.734	16384	16308	0	576
8.835	8.258	16384	16333	0	576
10.169	12.622	16384	16350	0	576
11.504	12.838	16384	16384	0	576
12.514	10.855	16384	16435	0	576
10.566	10.746	16384	16466	0	576
10.927	10.025	16384	16483	0	576
16.084	12.874	16384	16508	0	576
20.447	18.283	16385	16539	0	576
26.686	21.277	16385	16548	0	576
28.922	22.575	16385	16534	0	576
23.837	18.644	16385	16505	0	576
19.257	15.759	16385	16477	0	576
16.589	12.477	16385	16443	0	576
14.749	14.353	16385	16406	0	576
16.805	14.677	16384	16373	0	576
17.274	17.418	16384	16333	0	576
16.661	16.300	16384	16294	0	576
17.238	17.274	16384	16257	0	576
16.805	15.038	16384	16220	0	576
14.533	12.477	16384	16186	0	576
9.052	10.278	16384	16149	0	576
7.609	5.121	16383	16118	0	576
5.373	2.633	16383	16107	0	576
5.337	2.272	16383	16129	0	576
6.094	3.931	16383	16180	0	576
8.114	5.193	16383	16229	0	576
8.366	8.979	16384	16265	0	576
11.828	10.061	16384	16322	0	576
13.704	11.323	16384	16409	0	576
13.379	9.701	16384	16508	0	576
13.091	9.845	16384	16582	0	576
7.357	6.022	16385	16639	0	576
4.724	3.931	16385	16687	0	576
0.865	2.741	16386	16710	0	576
-0.361	2.128	16386	16704	0	576
3.137	1.947	16386	16681	0	576
5.914	2.416	16386	16650	0	576
8.583	4.544	16386	16608	0	576
8.799	6.094	16386	16557	0	576
8.799	8.439	16386	16505	0	576
9.412	12.333	16386	16454	0	576
11.360	12.730	16385	16406	0	576
9.196	13.018	16385	16365	0	576
5.121	8.871	16385	16316	0	576
1.623	3.823	16385	16265	0	576
0.216	3.714	16384	16214	0	576
4.436	5.914	16384	16166	0	576
10.422	11.720	16384	16132	0	576
14.497	16.300	16384	16126	0	576
17.238	18.464	16384	16149	0	576
14.425	13.343	16384	16169	0	576
11.612	11.684	16384	16189	0	576
9.665	12.153	16384	16223	0	576
11.396	14.172	16384	16268	0	576
12.586	18.860	16384	16302	0	576
18.392	19.510	16384	16322	0	576
18.752	20.231	16384	16356	0	576
17.634	15.867	16384	16401	0	576
12.514	13.415	16384	16432	0	576
10.350	11.540	16385	16443	0	576
8.907	10.169	16385	16440	0	576
10.242	13.415	16384	16435	0	576
12.261	14.389	16384	16420	0	576
14.425	16.120	16384	16395	0	576
11.143	14.569	16384	16370	0	576
8.691	12.369	16384	16339	0	576
8.907	10.458	16384	16314	0	576
10.350	8.943	16384	16291	0	576
9.304	7.393	16384	16271	0	576
7.717	4.652	16384	16257	0	576
3.642	1.839	16384	16246	0	576
-1.442	-1.226	16383	16231	0	576
-1.731	-1.370	16383	16223	0	576
0.902	0.757	16383	16217	0	576
4.111	4.724	16383	16217	0	576
7.140	7.176	16383	16217	0	576
6.888	8.475	16383	16226	0	576
6.852	6.888	16383	16260	0	576
3.210	4.039	16383	16308	0	576
0.216	0.144	16383	16345	0	576
-0.325	-0.829	16383	16373	0	576
-1.226	-1.118	16383	16412	0	576
2.128	-0.469	16383	16463	0	576
4.724	2.669	16384	16503	0	576
8.186	4.183	16384	16514	0	576
10.350	7.862	16384	16517	0	576
8.114	5.914	16384	16531	0	576
2.849	2.524	16384	16554	0	576
-5.373	-2.849	16384	16565	0	576
-11.684	-8.475	16384	16559	0	576
-13.920	-9.845	16384	16548	0	576
-11.648	-8.943	16384	16522	0	576
-8.078	-4.977	16384	16491	0	576
-2.741	-0.649	16384	16454	0	576
2.633	3.354	16384	16420	0	576
5.698	8.150	16384	16386	0	576
7.898	10.314	16383	16356	0	576
5.950	11.035	16383	16325	0	576
5.445	7.645	16383	16297	0	576
2.669	5.157	16383	16271	0	576
2.921	4.472	16382	16254	0	576
4.940	5.085	16383	16251	0	576
5.842	8.511	16383	16282	0	576
7.285	11.107	16383	16336	0	576
8.583	12.658	16383	16382	0	576
12.477	14.785	16383	16409	0	576
13.523	15.579	16383	16452	0	576
14.821	15.146	16384	16503	0	576
15.110	14.713	16384	16534	0	576
12.261	11.107	16384	16554	0	576
12.045	10.350	16384	16582	0	576
12.009	10.783	16384	16625	0	576
13.054	12.225	16384	16647	0	576
14.100	16.913	16384	16647	0	576
13.523	15.939	16385	16627	0	576
11.828	13.776	16385	16596	0	576
13.091	13.559	16385	16551	0	576
13.127	10.927	16385	16505	0	576
17.202	14.821	16384	16457	0	576
19.257	19.618	16384	16409	0	576
24.198	24.811	16384	16362	0	576
26.578	25.496	16384	16316	0	576
28.092	23.981	16384	16271	0	576
27.660	20.591	16384	16231	0	576
25.640	16.625	16384	16200	0	576
21.854	15.975	16384	16172	0	576
22.214	13.812	16384	16163	0	576
23.873	15.326	16384	16186	0	576
23.621	13.920	16384	16226	0	576
24.522	13.776	16384	16257	0	576
25.712	15.723	16384	16280	0	576
22.034	12.874	16384	16319	0	576
16.480	11.684	16384	16386	0	576
8.511	4.977	16384	16454	0	576
0.577	-3.029	16384	16497	0	576
-5.950	-8.186	16384	16534	0	576
-10.314	-11.612	16385	16571	0	576
-11.432	-14.930	16385	16591	0	576
-13.235	-14.353	16385	16582	0	576
-15.579	-16.913	16385	16557	0	576
-14.389	-14.497	16385	16522	0	576
-9.809	-11.900	16385	16477	0	576
-5.806	-5.770	16385	16429	0	576
-1.118	0.361	16385	16382	0	576
1.118	2.056	16384	16333	0	576
-0.072	-0.144	16384	16288	0	576
-3.534	-2.200	16384	16248	0	576
-4.760	-3.787	16384	16214	0	576
-3.534	-1.623	16384	16186	0	576
-0.829	1.442	16384	16166	0	576
0.469	3.137	16384	16152	0	576
-3.101	-0.757	16383	16152	0	576
-6.888	-7.789	16383	16175	0	576
-11.504	-10.133	16383	16214	0	576
-12.009	-11.396	16384	16251	0	576
-8.763	-7.862	16384	16280	0	576
-6.383	-4.832	16384	16328	0	576
-6.599	-4.219	16384	16395	0	576
-7.176	-5.337	16384	16460	0	576
-8.078	-4.904	16384	16508	0	576
-7.825	-5.193	16384	16557	0	576
-7.212	-2.524	16385	16610	0	576
-8.186	-3.210	16385	16642	0	576
-11.432	-5.013	16385	16639	0	576
-13.740	-9.376	16385	16619	0	576
-15.615	-10.133	16385	16588	0	576
-12.117	-9.268	16385	16545	0	576
-7.862	-5.914	16385	16491	0	576
-4.364	-1.479	16385	16432	0	576
-3.318	-1.659	16385	16373	0	576
-5.626	-4.652	16384	16314	0	576
-9.268	-7.501	16384	16260	0	576
-9.773	-6.635	16384	16220	0	576
-9.376	-4.796	16384	16189	0	576
-5.121	0.541	16384	16163	0	576
-2.308	4.327	16384	16143	0	576
-0.288	5.517	16383	16138	0	576
2.560	7.717	16383	16160	0	576
7.862	9.809	16383	16200	0	576
12.658	13.127	16383	16234	0	576
16.985	14.641	16383	16263	0	576
16.805	17.310	16384	16311	0	576
16.733	16.264	16384	16370	0	576
14.713	18.283	16384	16409	0	576
17.562	17.995	16384	16432	0	576
19.978	21.457	16384	16469	0	576
24.883	25.568	16384	16517	0	576
26.181	25.099	16384	16548	0	576
22.863	24.414	16384	16559	0	576
21.168	21.926	16384	16557	0	576
17.490	19.221	16384	16542	0	576
19.329	22.683	16384	16517	0	576
24.702	28.417	16384	16488	0	576
31.374	34.944	16384	16460	0	576
34.692	37.973	16384	16429	0	576
35.088	36.495	16384	16392	0	576
33.682	33.429	16384	16356	0	576
33.285	31.410	16384	16325	0	576
33.213	29.499	16384	16299	0	576
32.600	28.020	16384	16282	0	576
28.886	24.666	16384	16271	0	576
25.460	20.844	16384	16260	0	576
22.034	16.156	16383	16248	0	576
22.286	15.759	16383	16234	0	576
22.719	15.074	16383	16214	0	576
21.745	13.559	16383	16200	0	576
18.680	11.215	16383	16214	0	576
10.530	5.373	16383	16251	0	576
4.796	1.082	16383	16288	0	576
1.515	-2.705	16383	16319	0	576
1.442	-5.626	16383	16367	0	576
1.731	-7.898	16383	16426	0	576
1.046	-7.789	16384	16474	0	576
-1.947	-10.169	16384	16508	0	576
-5.481	-11.179	16384	16554	0	576
-6.563	-10.458	16384	16610	0	576
-5.157	-7.970	16384	16647	0	576
-4.291	-7.573	16384	16659	0	576
-4.147	-6.131	16385	16647	0	576
-5.734	-5.301	16385	16619	0	576
-4.003	-3.606	16385	16582	0	576
-0.144	1.442	16385	16539	0	576
4.544	8.114	16384	16491	0	576
8.871	11.720	16384	16440	0	576
9.665	11.179	16384	16395	0	576
7.645	8.655	16384	16356	0	576
5.085	4.977	16384	16319	0	576
4.472	3.750	16384	16280	0	576
3.246	4.364	16384	16246	0	576
4.688	5.193	16384	16220	0	576
4.580	5.734	16384	16200	0	576
4.580	6.203	16383	16183	0	576
2.705	4.868	16383	16166	0	576
2.741	4.508	16383	16149	0	576
3.931	7.285	16383	16138	0	576
6.744	8.439	16382	16143	0	576
9.845	11.504	16382	16177	0	576
10.061	11.864	16382	16231	0	576
9.953	10.674	16383	16285	0	576
7.717	12.297	16383	16356	0	576
7.681	13.920	16384	16452	0	576
9.232	15.795	16384	16551	0	576
11.287	17.779	16384	16616	0	576
12.153	13.595	16384	16647	0	576
11.756	11.251	16384	16661	0	576
7.321	7.212	16384	16653	0	576
4.760	4.868	16385	16630	0	576
0.829	4.760	16384	16602	0	576
2.416	5.373	16384	16571	0	576
7.032	8.330	16384	16531	0	576
11.864	13.704	16384	16488	0	576
16.589	16.552	16384	16443	0	576
17.238	19.834	16384	16395	0	576
16.913	16.985	16384	16353	0	576
15.471	15.687	16384	16311	0	576
11.756	12.658	16384	16280	0	576
10.819	11.504	16384	16268	0	576
9.448	11.756	16384	16271	0	576
5.157	9.665	16384	16277	0	576
4.291	5.662	16384	16277	0	576
3.354	5.121	16384	16302	0	576
8.583	6.708	16384	16365	0	576
15.867	12.730	16384	16426	0	576
21.204	20.483	16384	16469	0	576
22.431	26.325	16384	16511	0	576
19.870	27.912	16385	16554	0	576
15.759	23.909	16385	16574	0	576
16.300	20.844	16385	16559	0	576
17.274	19.618	16385	16531	0	576
20.014	17.634	16385	16497	0	576
16.480	19.546	16385	16452	0	576
15.507	18.175	16385	16403	0	576
13.992	16.877	16385	16367	0	576
14.569	11.900	16385	16333	0	576
15.651	11.792	16384	16302	0	576
14.389	11.251	16384	16271	0	576
15.651	11.287	16384	16240	0	576
13.451	13.704	16384	16209	0	576
13.487	14.677	16384	16183	0	576
15.110	12.946	16384	16158	0	576
10.242	11.432	16384	16143	0	576
5.373	4.868	16384	16155	0	576
-2.921	-2.813	16384	16192	0	576
-10.458	-10.025	16384	16223	0	576
-15.579	-13.668	16384	16246	0	576
-15.326	-14.677	16384	16288	0	576
-14.749	-11.215	16384	16345	0	576
-11.937	-7.465	16384	16384	0	576
-10.278	-5.914	16384	16409	0	576
-9.304	-4.544	16384	16443	0	576
-6.599	-3.678	16384	16486	0	576
-3.462	-1.803	16384	16508	0	576
-0.433	0.505	16384	16505	0	576
0.469	1.226	16384	16488	0	576
-0.541	0.757	16384	16466	0	576
-3.173	-0.757	16384	16440	0	576
-5.481	-3.462	16384	16415	0	576
-5.662	-5.373	16384	16395	0	576
-7.934	-6.347	16384	16382	0	576
-10.638	-7.970	16384	16362	0	576
-13.884	-13.163	16384	16342	0	576
-18.933	-15.831	16384	16328	0	576
-20.664	-19.077	16384	16316	0	576
-20.159	-18.464	16384	16302	0	576
-14.172	-14.389	16384	16291	0	576
-8.763	-5.986	16383	16291	0	576
-2.056	1.046	16384	16314	0	576
2.200	6.058	16384	16359	0	576
2.488	7.176	16384	16392	0	576
1.479	6.708	16384	16418	0	576
0.252	4.868	16384	16446	0	576
-0.036	4.111	16384	16483	0	576
1.695	6.311	16384	16497	0	576
4.796	8.799	16384	16491	0	576
7.501	11.215	16384	16491	0	576
10.350	13.451	16384	16505	0	576
10.494	13.740	16384	16505	0	576
10.458	13.163	16384	16491	0	576
10.314	13.018	16384	16494	0	576
11.287	13.307	16384	16511	0	576
10.386	12.405	16384	16514	0	576
11.756	15.182	16385	16497	0	576
10.422	11.937	16385	16471	0	576
6.527	10.097	16384	16446	0	576
2.705	5.554	16384	16420	0	576
-2.380	1.875	16384	16392	0	576
-4.796	1.010	16384	16359	0	576
-6.311	-0.397	16384	16322	0	576
-3.606	-0.685	16384	16282	0	576
-3.462	-2.524	16384	16248	0	576
-2.344	-3.390	16384	16217	0	576
1.370	-1.298	16384	16189	0	576
7.248	5.013	16383	16169	0	576
13.415	12.405	16383	16158	0	576
17.418	15.038	16383	16155	0	576
18.283	16.048	16383	16177	0	576
13.487	11.287	16383	16214	0	576
10.819	9.412	16383	16251	0	576
8.186	7.717	16383	16282	0	576
8.078	9.989	16383	16331	0	576
9.917	11.251	16383	16384	0	576
11.900	13.595	16384	16423	0	576
12.622	13.668	16384	16449	0	576
15.254	12.081	16384	16483	0	576
14.749	14.064	16384	16528	0	576
11.900	13.054	16384	16559	0	576
9.448	14.569	16384	16565	0	576
6.527	14.425	16384	16551	0	576
3.173	12.514	16384	16522	0	576
5.121	13.523	16384	16491	0	576
7.429	13.631	16384	16463	0	576
9.088	16.805	16384	16432	0	576
9.556	17.959	16384	16398	0	576
9.448	15.867	16384	16370	0	576
10.927	16.949	16384	16345	0	576
15.723	17.129	16384	16325	0	576
20.555	22.214	16384	16302	0	576
24.270	27.119	16384	16282	0	576
24.053	25.712	16383	16265	0	576
19.510	23.404	16383	16263	0	576
15.687	18.500	16383	16288	0	576
10.927	12.117	16383	16333	0	576
8.691	8.691	16384	16373	0	576
6.131	5.337	16384	16392	0	576
3.787	1.839	16384	16423	0	576
0.685	-1.731	16384	16469	0	576
-1.551	-3.173	16384	16497	0	576
-3.390	-3.714	16384	16508	0	576
-3.859	-2.777	16384	16531	0	576
-2.596	-0.433	16384	16562	0	576
-0.288	1.911	16384	16576	0	576
1.767	3.210	16384	16571	0	576
3.101	2.596	16385	16551	0	576
3.714	0.793	16385	16522	0	576
1.839	-1.695	16384	16483	0	576
-1.479	-4.436	16384	16443	0	576
-5.085	-5.698	16384	16409	0	576
-6.744	-7.681	16384	16379	0	576
-9.232	-8.691	16384	16350	0	576
-9.016	-9.268	16384	16322	0	576
-7.248	-7.717	16384	16297	0	576
-5.554	-3.498	16384	16274	0	576
-2.921	-2.560	16384	16251	0	576
-1.983	-1.334	16384	16229	0	576
-2.741	-2.921	16384	16209	0	576
-6.311	-5.914	16384	16194	0	576
-9.737	-7.789	16383	16192	0	576
-11.251	-7.609	16383	16197	0	576
-11.864	-7.285	16383	16206	0	576
-11.792	-7.501	16383	16223	0	576
-9.376	-5.734	16383	16263	0	576
-8.475	-5.517	16383	16316	0	576
-9.160	-6.744	16383	16362	0	576
-9.665	-6.852	16384	16403	0	576
-9.196	-5.121	16384	16463	0	576
-9.052	-5.157	16384	16503	0	576
-8.402	-4.255	16384	16517	0	576
-8.330	-4.111	16384	16520	0	576
-7.681	-3.859	16384	16517	0	576
-6.996	-3.137	16384	16508	0	576
-4.652	-0.361	16384	16486	0	576
-3.029	-0.721	16384	16452	0	576
-4.400	-2.524	16384	16426	0	576
-8.439	-5.229	16384	16409	0	576
-10.602	-7.068	16384	16398	0	576
-10.927	-8.186	16384	16384	0	576
-10.350	-8.763	16384	16365	0	576
-10.891	-9.845	16384	16339	0	576
-12.189	-12.441	16384	16305	0	576
-15.831	-15.615	16384	16277	0	576
-15.074	-13.812	16384	16271	0	576
-13.559	-12.730	16384	16288	0	576
-10.206	-7.212	16383	16294	0	576
-6.311	-2.056	16383	16291	0	576
-4.688	1.082	16383	16302	0	576
-4.400	1.515	16383	16336	0	576
-2.560	2.272	16383	16356	0	576
0.036	5.698	16383	16367	0	576
5.481	10.855	16384	16386	0	576
9.592	16.408	16384	16418	0	576
13.848	18.933	16384	16429	0	576
12.045	15.254	16384	16426	0	576
7.176	10.530	16384	16418	0	576
5.481	6.094	16384	16406	0	576
2.813	4.327	16383	16392	0	576
1.911	2.560	16383	16382	0	576
2.019	2.957	16383	16367	0	576
-2.128	-0.721	16384	16356	0	576
-4.183	-1.046	16383	16348	0	576
-5.409	-2.488	16383	16336	0	576
-4.111	-0.325	16383	16331	0	576
-1.190	1.659	16383	16322	0	576
-0.036	4.075	16383	16314	0	576
-2.019	3.750	16383	16308	0	576
-1.839	1.226	16383	16314	0	576
-4.472	-2.416	16383	16342	0	576
-5.590	-5.662	16383	16382	0	576
-6.599	-9.124	16383	16406	0	576
-5.878	-8.763	16383	16432	0	576
-4.327	-6.383	16383	16474	0	576
0.974	-0.938	16384	16531	0	576
7.753	5.157	16384	16571	0	576
12.910	11.323	16384	16596	0	576
13.235	12.189	16384	16622	0	576
12.766	9.953	16384	16659	0	576
6.635	7.285	16385	16676	0	576
3.895	3.823	16385	16676	0	576
2.200	2.741	16385	16681	0	576
3.029	2.272	16386	16693	0	576
5.265	2.019	16386	16693	0	576
7.645	3.246	16386	16667	0	576
9.989	6.347	16386	16633	0	576
10.314	7.429	16386	16585	0	576
9.737	9.304	16386	16534	0	576
9.556	9.592	16386	16486	0	576
8.871	8.222	16386	16443	0	576
7.934	9.917	16386	16398	0	576
7.573	9.881	16385	16356	0	576
8.258	10.674	16385	16308	0	576
9.340	12.730	16385	16263	0	576
10.710	12.081	16385	16220	0	576
12.081	12.622	16385	16180	0	576
12.261	12.189	16384	16143	0	576
9.304	9.881	16384	16118	0	576
6.167	7.248	16384	16121	0	576
6.275	4.904	16384	16143	0	576
6.419	7.645	16384	16163	0	576
8.222	8.150	16384	16183	0	576
10.169	10.242	16384	16220	0	576
11.937	10.133	16384	16274	0	576
12.514	9.629	16384	16319	0	576
11.251	8.547	16384	16345	0	576
9.953	8.835	16385	16379	0	576
9.881	7.789	16385	16423	0	576
5.806	6.744	16385	16457	0	576
2.957	2.488	16385	16460	0	576
1.983	0.216	16385	16449	0	576
1.839	1.190	16385	16435	0	576
2.344	2.705	16385	16415	0	576
2.596	3.967	16385	16386	0	576
0.541	4.039	16385	16359	0	576
-3.534	1.334	16385	16325	0	576
-7.212	-1.695	16384	16291	0	576
-7.429	-2.921	16384	16257	0	576
-2.957	-0.938	16384	16223	0	576
0.144	3.823	16384	16192	0	576
4.904	8.366	16384	16163	0	576
7.717	10.999	16384	16141	0	576
9.304	13.776	16383	16138	0	576
8.366	11.937	16383	16158	0	576
6.347	8.114	16384	16197	0	576
4.075	6.527	16384	16231	0	576
1.479	5.085	16384	16260	0	576
3.931	6.022	16384	16302	0	576
5.626	9.052	16384	16353	0	576
6.022	7.645	16384	16384	0	576
4.111	6.599	16384	16401	0	576
-0.974	2.596	16384	16432	0	576
-3.787	1.226	16384	16471	0	576
-5.337	1.082	16384	16494	0	576
-2.380	3.029	16384	16497	0	576
-1.190	4.111	16384	16488	0	576
-2.200	3.750	16384	16480	0	576
-2.993	5.049	16384	16474	0	576
-2.380	2.308	16384	16466	0	576
-1.010	3.354	16384	16452	0	576
-0.397	2.272	16384	16432	0	576
0.793	0.613	16384	16412	0	576
-1.515	-2.416	16384	16395	0	576
-2.524	-4.219	16384	16376	0	576
-4.868	-8.114	16383	16348	0	576
-5.085	-8.835	16383	16319	0	576
-6.311	-9.953	16383	16297	0	576
-8.186	-8.511	16383	16291	0	576
-8.366	-7.862	16383	16311	0	576
-4.147	-4.003	16383	16348	0	576
-1.226	0.505	16383	16376	0	576
2.777	4.652	16383	16389	0	576
5.770	6.455	16384	16429	0	576
5.013	8.547	16384	16503	0	576
3.859	8.294	16384	16571	0	576
3.390	6.780	16384	16610	0	576
3.137	6.960	16384	16642	0	576
4.436	7.032	16385	16681	0	576
5.626	7.825	16385	16701	0	576
5.698	7.789	16385	16693	0	576
4.940	8.294	16385	16667	0	576
4.904	8.330	16385	16633	0	576
4.364	7.898	16385	16591	0	576
4.364	8.835	16385	16542	0	576
5.770	10.133	16385	16486	0	576
6.744	8.547	16385	16429	0	576
5.770	7.753	16385	16382	0	576
3.210	3.967	16385	16331	0	576
1.046	1.515	16384	16285	0	576
-1.190	1.154	16384	16243	0	576
0.108	2.741	16384	16200	0	576
4.544	3.967	16384	16160	0	576
7.645	7.862	16384	16138	0	576
10.566	8.979	16384	16149	0	576
13.343	13.054	16384	16183	0	576
14.064	16.120	16384	16209	0	576
17.021	18.247	16384	16220	0	576
16.661	19.185	16384	16246	0	576
14.713	13.920	16384	16288	0	576
10.097	9.340	16384	16319	0	576
5.517	4.147	16384	16336	0	576
2.777	1.298	16384	16362	0	576
1.983	0.974	16384	16392	0	576
1.911	1.983	16384	16412	0	576
4.436	5.157	16384	16420	0	576
8.366	8.294	16384	16418	0	576
13.343	14.858	16384	16412	0	576
16.516	17.598	16384	16401	0	576
19.149	20.014	16384	16386	0	576
15.110	15.362	16384	16367	0	576
8.439	8.835	16384	16342	0	576
1.442	1.262	16384	16311	0	576
-3.823	-3.210	16384	16282	0	576
-5.950	-2.957	16383	16251	0	576
-4.327	0.072	16383	16223	0	576
-1.839	3.895	16383	16209	0	576
-0.902	4.868	16383	16197	0	576
-1.551	3.318	16382	16194	0	576
-3.173	0.685	16383	16206	0	576
-1.875	-1.334	16382	16234	0	576
1.983	0.397	16382	16260	0	576
5.013	3.678	16382	16280	0	576
8.439	6.491	16382	16316	0	576
7.429	6.311	16382	16367	0	576
4.977	6.419	16383	16403	0	576
2.669	4.436	16383	16432	0	576
1.442	4.255	16383	16463	0	576
0.108	4.688	16383	16505	0	576
-0.974	4.904	16383	16534	0	576
-3.931	3.642	16384	16548	0	576
-4.147	1.515	16384	16574	0	576
-3.173	1.406	16384	16605	0	576
-0.252	1.839	16384	16625	0	576
4.039	2.813	16384	16622	0	576
5.085	5.517	16384	16605	0	576
7.104	5.878	16384	16582	0	576
6.239	6.960	16384	16557	0	576
8.655	7.645	16384	16531	0	576
9.268	8.799	16384	16497	0	576
8.727	11.251	16384	16460	0	576
8.366	12.441	16384	16420	0	576
10.494	13.704	16384	16386	0	576
14.461	15.795	16384	16359	0	576
16.012	14.894	16384	16331	0	576
14.641	12.550	16383	16299	0	576
7.862	6.527	16383	16271	0	576
2.669	2.272	16383	16260	0	576
3.101	2.236	16383	16277	0	576
8.547	4.904	16383	16314	0	576
12.369	8.042	16384	16348	0	576
10.927	9.520	16384	16376	0	576
5.481	5.409	16384	16412	0	576
-0.577	4.147	16384	16460	0	576
-1.046	4.832	16384	16497	0	576
0.144	6.744	16384	16517	0	576
0.685	5.554	16384	16545	0	576
-1.803	4.364	16385	16579	0	576
-4.183	1.082	16385	16591	0	576
-4.760	1.695	16385	16579	0	576
-1.298	5.914	16385	16562	0	576
4.147	9.448	16385	16542	0	576
6.816	11.540	16385	16511	0	576
6.022	13.054	16385	16471	0	576
7.068	11.576	16385	16426	0	576
6.491	9.520	16385	16384	0	576
5.770	9.629	16385	16342	0	576
5.373	8.078	16384	16299	0	576
2.019	5.986	16384	16260	0	576
-0.721	3.282	16384	16226	0	576
-2.380	1.839	16384	16194	0	576
-0.541	1.587	16384	16166	0	576
3.498	4.364	16384	16149	0	576
6.094	7.573	16384	16160	0	576
9.304	9.737	16384	16192	0	576
7.609	8.583	16384	16223	0	576
4.436	5.049	16384	16243	0	576
0.685	1.911	16384	16282	0	576
-3.065	-0.541	16384	16342	0	576
-4.400	-1.334	16384	16384	0	576
-4.724	-0.685	16384	16412	0	576
-4.796	-1.082	16384	16443	0	576
-4.544	-1.406	16384	16483	0	576
-4.472	-4.003	16385	16511	0	576
-5.626	-5.806	16384	16520	0	576
-6.635	-6.058	16385	16517	0	576
-6.816	-3.895	16385	16508	0	576
-6.167	-2.705	16385	16494	0	576
-5.121	-0.216	16385	16480	0	576
-2.596	0.938	16385	16463	0	576
-2.308	1.082	16385	16443	0	576
1.803	3.246	16385	16420	0	576
1.515	4.111	16385	16398	0	576
3.606	4.580	16384	16373	0	576
3.931	4.039	16384	16339	0	576
3.390	3.714	16384	16305	0	576
4.075	4.003	16384	16271	0	576
6.347	7.068	16384	16243	0	576
9.773	13.668	16384	16240	0	576
14.100	17.418	16384	16263	0	576
17.562	22.755	16384	16282	0	576
19.510	22.214	16384	16299	0	576
20.123	23.368	16384	16336	0	576
21.673	21.709	16384	16398	0	576
20.195	20.880	16385	16463	0	576
20.123	21.168	16385	16503	0	576
17.418	18.788	16385	16537	0	576
18.392	20.483	16385	16565	0	576
20.988	23.008	16385	16571	0	576
26.974	27.624	16385	16551	0	576
33.213	31.843	16385	16517	0	576
34.187	32.708	16385	16474	0	576
31.915	32.780	16385	16426	0	576
30.148	33.033	16385	16376	0	576
28.561	33.790	16385	16322	0	576
26.866	32.708	16384	16271	0	576
26.253	31.446	16384	16231	0	576
22.575	26.397	16384	16200	0	576
16.048	19.293	16384	16172	0	576
11.792	14.028	16384	16143	0	576
5.590	7.248	16384	16118	0	576
2.633	3.101	16384	16098	0	576
0.938	1.803	16383	16095	0	576
1.010	2.560	16383	16124	0	576
2.236	6.419	16383	16172	0	576
3.246	7.032	16383	16214	0	576
2.380	6.419	16383	16237	0	576
-1.190	4.039	16383	16260	0	576
-4.400	-1.479	16383	16305	0	576
-8.835	-3.714	16383	16365	0	576
-11.648	-6.708	16383	16418	0	576
-7.681	-2.416	16384	16474	0	576
-2.921	0.469	16384	16551	0	576
4.147	9.268	16384	16622	0	576
8.835	13.343	16384	16659	0	576
9.953	12.261	16384	16670	0	576
3.823	8.583	16385	16684	0	576
-4.688	0.505	16385	16698	0	576
-13.163	-5.842	16385	16690	0	576
-15.326	-7.212	16385	16656	0	576
-12.730	-5.914	16385	16608	0	576
-3.426	-0.108	16385	16559	0	576
2.849	4.003	16385	16514	0	576
2.560	4.075	16385	16471	0	576
-3.534	-0.577	16385	16429	0	576
-10.314	-6.491	16385	16386	0	576
-15.182	-9.340	16384	16348	0	576
-13.559	-9.412	16384	16314	0	576
-8.222	-4.472	16384	16282	0	576
-7.285	-1.370	16384	16251	0	576
-6.852	-1.695	16384	16220	0	576
-9.376	-3.750	16384	16197	0	576
-10.891	-7.537	16384	16206	0	576
-11.251	-9.124	16384	16231	0	576
-11.071	-10.458	16384	16248	0	576
-11.612	-8.330	16384	16263	0	576
-15.651	-9.376	16384	16299	0	576
-15.398	-6.924	16384	16353	0	576
-10.855	-4.291	16384	16386	0	576
-7.212	-0.252	16384	16409	0	576
-3.246	1.911	16384	16446	0	576
-2.596	3.210	16384	16491	0	576
-5.409	1.767	16385	16520	0	576
-7.032	-0.252	16385	16522	0	576
-7.068	0.649	16385	16511	0	576
-4.940	2.993	16385	16491	0	576
-1.010	7.285	16385	16466	0	576
4.219	11.540	16385	16437	0	576
7.393	15.398	16385	16403	0	576
10.783	16.444	16384	16370	0	576
10.638	16.769	16384	16328	0	576
10.133	15.074	16384	16285	0	576
11.107	14.713	16384	16246	0	576
14.353	16.805	16384	16211	0	576
15.651	17.995	16384	16183	0	576
20.339	20.591	16383	16152	0	576
22.322	23.693	16383	16124	0	576
23.909	22.791	16383	16124	0	576
25.568	23.657	16383	16149	0	576
22.611	23.368	16383	16172	0	576
18.572	19.798	16383	16192	0	576
15.723	18.031	16383	16231	0	576
12.477	14.677	16383	16288	0	576
13.415	13.884	16383	16333	0	576
16.661	14.172	16383	16365	0	576
18.933	16.625	16383	16403	0	576
22.575	20.375	16383	16452	0	576
23.981	24.558	16383	16483	0	576
24.414	24.919	16384	16488	0	576
25.424	27.010	16383	16483	0	576
23.116	26.758	16383	16471	0	576
20.555	23.296	16383	16463	0	576
19.293	20.627	16383	16457	0	576
16.048	19.185	16383	16446	0	576
15.867	15.939	16383	16432	0	576
14.245	14.966	16383	16412	0	576
10.638	12.477	16383	16389	0	576
4.977	6.455	16383	16370	0	576
-1.334	2.308	16383	16353	0	576
-3.462	-0.577	16383	16342	0	576
-1.190	1.118	16383	16331	0	576
3.137	6.094	16382	16325	0	576
7.609	10.891	16382	16342	0	576
6.744	9.484	16382	16376	0	576
0.865	5.373	16383	16401	0	576
-8.294	-0.433	16383	16418	0	576
-13.163	-6.599	16383	16457	0	576
-14.930	-7.645	16384	16534	0	576
-12.622	-5.337	16384	16616	0	576
-8.294	-2.596	16384	16673	0	576
-5.842	-1.154	16384	16724	0	576
-4.977	-0.072	16385	16775	0	576
-5.734	-2.092	16385	16798	0	576
-5.337	-3.823	16385	16786	0	576
-6.708	-4.327	16386	16758	0	576
-8.006	-7.140	16386	16715	0	576
-8.042	-5.806	16386	16659	0	576
-8.186	-4.868	16386	16593	0	576
-8.150	-3.859	16386	16525	0	576
-6.058	-2.488	16385	16463	0	576
-5.121	-0.216	16385	16403	0	576
-3.678	1.659	16385	16348	0	576
-0.361	3.967	16385	16285	0	576
2.488	7.609	16384	16229	0	576
6.996	8.979	16384	16177	0	576
9.917	10.350	16384	16132	0	576
11.792	10.386	16384	16104	0	576
10.819	9.448	16384	16101	0	576
11.432	10.422	16384	16118	0	576
12.910	14.858	16384	16138	0	576
15.362	16.949	16384	16152	0	576
20.303	23.801	16384	16186	0	576
24.522	26.397	16384	16231	0	576
25.929	27.479	16384	16265	0	576
27.948	27.624	16384	16288	0	576
28.994	29.787	16384	16325	0	576
29.463	31.554	16384	16370	0	576
29.679	32.023	16384	16395	0	576
32.312	34.836	16384	16398	0	576
34.115	34.475	16384	16392	0	576
34.187	34.403	16384	16382	0	576
33.105	32.780	16384	16365	0	576
29.246	30.004	16384	16336	0	576
24.089	25.316	16384	16305	0	576
20.772	22.250	16384	16274	0	576
19.365	19.546	16384	16248	0	576
22.611	19.690	16384	16226	0	576
22.647	19.654	16383	16211	0	576
22.467	19.582	16383	16203	0	576
19.690	18.644	16383	16206	0	576
14.858	14.821	16383	16209	0	576
6.924	8.763	16383	16223	0	576
2.560	1.659	16383	16260	0	576
-3.714	-4.977	16383	16308	0	576
-5.698	-6.131	16383	16350	0	576
-6.311	-7.465	16383	16384	0	576
-3.967	-3.642	16383	16426	0	576
-1.515	-1.659	16384	16486	0	576
-1.154	-0.433	16384	16528	0	576
-1.803	-0.793	16384	16559	0	576
-3.029	-2.524	16384	16602	0	576
-5.554	-6.131	16384	16650	0	576
-10.566	-8.943	16384	16676	0	576
-16.444	-13.343	16384	16684	0	576
-19.834	-14.281	16385	16695	0	576
-21.926	-13.235	16385	16710	0	576
-17.815	-11.756	16385	16707	0	576
-14.281	-8.547	16385	16678	0	576
-11.973	-6.491	16385	16639	0	576
-12.405	-6.671	16385	16593	0	576
-14.136	-9.124	16385	16545	0	576
-10.097	-8.042	16385	16488	0	576
-7.032	-4.544	16385	16435	0	576
-2.849	-0.541	16385	16384	0	576
0.072	4.039	16385	16339	0	576
0.108	6.347	16384	16294	0	576
-0.072	6.094	16384	16254	0	576
-0.108	5.373	16384	16220	0	576
0.072	3.534	16384	16194	0	576
0.072	5.121	16384	16169	0	576
-1.010	3.426	16384	16149	0	576
-2.957	3.246	16384	16132	0	576
-5.049	3.498	16384	16124	0	576
-5.734	1.695	16383	16118	0	576
-7.321	-0.397	16383	16126	0	576
-6.816	-2.056	16383	16158	0	576
-5.626	-1.695	16383	16209	0	576
-4.075	-0.649	16383	16251	0	576
-3.029	2.056	16383	16280	0	576
-2.092	1.479	16384	16325	0	576
-2.669	0.649	16384	16376	0	576
-2.380	-0.974	16384	16406	0	576
-3.101	-2.452	16384	16415	0	576
-2.344	-2.308	16384	16412	0	576
-3.642	-3.137	16384	16403	0	576
-4.111	-4.183	16384	16395	0	576
-4.327	-2.705	16384	16392	0	576
-1.262	-2.128	16384	16386	0	576
3.787	1.767	16383	16384	0	576
5.734	3.426	16383	16376	0	576
7.285	5.662	16384	16370	0	576
3.967	3.498	16384	16365	0	576
0.865	2.019	16383	16362	0	576
-2.705	0.613	16383	16359	0	576
-3.498	-1.406	16383	16356	0	576
-4.039	-0.505	16383	16362	0	576
-2.560	-0.036	16383	16384	0	576
-1.118	0.397	16383	16423	0	576
-0.144	1.046	16383	16449	0	576
-0.180	1.659	16384	16463	0	576
0.108	2.128	16384	16491	0	576
-1.839	1.803	16384	16537	0	576
-1.947	-0.361	16384	16571	0	576
-2.596	-2.128	16384	16585	0	576
-0.685	-1.767	16384	16596	0	576
2.633	0.325	16384	16610	0	576
4.291	4.039	16384	16610	0	576
5.085	6.599	16385	16591	0	576
4.940	7.032	16385	16557	0	576
5.229	7.176	16384	16517	0	576
6.203	8.763	16384	16471	0	576
9.989	11.504	16384	16420	0	576
14.245	12.369	16384	16376	0	576
15.471	13.595	16384	16336	0	576
12.658	11.107	16384	16297	0	576
11.035	7.248	16384	16263	0	576
9.881	8.907	16384	16231	0	576
11.576	12.369	16384	16206	0	576
18.247	16.048	16383	16180	0	576
21.241	21.673	16383	16158	0	576
22.755	22.214	16383	16155	0	576
19.618	22.178	16383	16186	0	576
18.392	20.772	16383	16237	0	576
19.546	21.709	16383	16274	0	576
19.437	23.657	16383	16299	0	576
20.700	22.034	16384	16350	0	576
18.860	22.791	16384	16432	0	576
19.870	21.962	16384	16511	0	576
18.139	21.241	16384	16559	0	576
20.375	21.818	16385	16605	0	576
20.664	20.519	16385	16653	0	576
18.139	17.274	16385	16678	0	576
15.146	13.271	16385	16670	0	576
11.035	10.494	16385	16639	0	576
6.167	8.330	16385	16596	0	576
4.075	6.419	16385	16551	0	576
2.560	6.996	16385	16503	0	576
4.940	7.212	16385	16457	0	576
6.852	8.655	16385	16412	0	576
10.133	9.629	16385	16367	0	576
9.953	10.710	16384	16319	0	576
6.816	9.016	16384	16271	0	576
5.950	6.239	16384	16229	0	576
3.967	4.580	16384	16203	0	576
2.596	1.623	16384	16192	0	576
0.325	-0.252	16384	16189	0	576
-4.472	-2.128	16384	16209	0	576
-8.907	-1.767	16384	16248	0	576
-8.763	-2.416	16384	16291	0	576
-7.717	-2.705	16384	16322	0	576
-5.662	-2.236	16384	16367	0	576
-4.291	-2.019	16384	16415	0	576
-4.832	-2.380	16385	16446	0	576
-5.878	-2.488	16385	16452	0	576
-4.472	-2.236	16385	16460	0	576
-6.635	-3.173	16385	16474	0	576
-7.573	-4.291	16385	16480	0	576
-7.104	-2.669	16385	16469	0	576
-7.573	-1.983	16385	16446	0	576
-5.878	-0.216	16385	16420	0	576
-6.419	-0.541	16385	16384	0	576
