neuroNicle FX2
D3F25R12
Bluetooth SPP
2023년 6월 6일 화요일
오전 10:40
time interval = 4msec
EEG1	EEG2	PPG	sdPPG	pulse	peak_interval(msec)
-89.975	-92.535	15687	16635	0	692
-84.926	-88.785	15670	16544	0	692
-89.794	-89.001	15659	16465	0	692
-101.442	-99.856	15636	16404	0	692
-110.206	-106.924	15615	16323	0	692
-106.131	-102.308	15594	16217	0	692
-88.857	-86.152	15572	16140	0	692
-74.432	-72.196	15558	16107	0	692
-77.461	-72.593	15543	16110	0	692
-94.771	-88.677	15530	16145	0	692
-113.776	-104.436	15524	16194	0	692
-114.533	-105.986	15514	16239	0	692
-96.141	-91.742	15508	16298	0	692
-72.917	-72.809	15506	16399	0	692
-58.384	-61.342	15509	16541	0	692
-59.178	-61.269	15516	16686	0	692
-72.232	-69.455	15527	16844	0	692
-90.624	-75.730	15543	17030	0	692
-104.147	-79.950	15566	17261	0	692
-110.963	-80.346	15599	17531	0	692
-111.684	-79.373	15634	17814	0	692
-106.167	-82.149	15675	18099	0	692
-98.666	-82.690	15719	18394	0	692
-93.437	-85.539	15779	18719	0	692
-94.591	-88.208	15838	19060	0	692
-99.171	-85.395	15902	19366	0	692
-108.114	-81.717	15968	19620	0	692
-115.687	-76.740	16037	19844	0	692
-119.401	-74.216	16110	20068	0	692
-114.497	-74.648	16189	20284	0	692
-110.097	-79.373	16264	20465	0	692
-109.196	-82.979	16348	20590	0	692
-113.668	-88.532	16419	20658	0	692
-121.241	-92.896	16497	20671	0	692
-119.726	-96.827	16573	20648	0	692
-110.061	-94.843	16656	20648	0	692
-97.295	-85.611	16731	20646	0	692
-92.571	-76.451	16803	20544	0	692
-100.000	-72.665	16869	20328	1	704
-111.143	-80.238	16928	20040	0	704
-111.504	-91.525	16984	19745	0	704
-100.577	-97.764	17036	19457	0	704
-86.621	-93.581	17090	19172	0	704
-76.740	-79.373	17137	18875	0	704
-79.950	-70.970	17182	18557	0	704
-91.886	-71.619	17222	18236	0	704
-100.865	-79.300	17260	17928	0	704
-108.366	-91.778	17297	17620	0	704
-115.615	-100.252	17326	17289	0	704
-124.811	-104.436	17348	16941	0	704
-134.511	-108.402	17366	16597	0	704
-142.084	-115.074	17387	16283	0	704
-143.347	-123.765	17395	15970	0	704
-138.118	-126.109	17406	15647	0	704
-128.525	-121.709	17409	15336	0	704
-121.421	-110.638	17412	15069	0	704
-117.995	-104.364	17414	14850	0	704
-118.752	-107.357	17419	14687	0	704
-121.241	-113.595	17419	14563	0	704
-119.113	-115.254	17420	14440	0	704
-113.668	-105.698	17414	14323	0	704
-107.140	-92.607	17412	14227	0	704
-104.760	-86.801	17406	14161	0	704
-108.150	-91.489	17401	14102	0	704
-111.864	-102.560	17379	13977	0	704
-112.658	-106.599	17356	13799	0	704
-110.278	-105.157	17334	13664	0	704
-102.849	-99.351	17308	13586	0	704
-93.653	-92.211	17284	13542	0	704
-86.152	-86.405	17260	13532	0	704
-81.717	-79.913	17241	13555	0	704
-86.621	-76.127	17214	13586	0	704
-101.046	-81.212	17185	13593	0	704
-114.245	-90.191	17158	13601	0	704
-118.572	-102.488	17129	13641	0	704
-110.169	-107.681	17106	13736	0	704
-97.331	-104.291	17084	13873	0	704
-86.729	-93.689	17061	14031	0	704
-88.316	-86.044	17044	14191	0	704
-93.906	-81.572	17028	14377	0	704
-100.036	-85.755	17020	14593	0	704
-102.092	-92.571	17005	14812	0	704
-102.560	-102.416	16994	15021	0	704
-104.003	-104.832	16988	15219	0	704
-107.645	-101.334	16980	15420	0	704
-110.530	-96.718	16976	15619	0	704
-113.848	-91.886	16968	15792	0	704
-111.973	-90.948	16957	15921	0	704
-108.871	-92.571	16952	16028	0	704
-107.212	-100.180	16941	16138	0	704
-111.900	-114.281	16940	16262	0	704
-123.440	-129.138	16940	16424	0	704
-130.148	-136.459	16948	16623	0	704
-125.820	-128.128	16956	16816	0	704
-107.140	-102.993	16964	16981	0	704
-90.335	-82.762	16973	17129	0	704
-90.480	-80.527	16988	17277	0	704
-107.068	-96.754	17000	17417	0	704
-132.708	-118.247	17012	17513	0	704
-143.815	-128.525	17020	17544	0	704
-133.718	-126.902	17020	17488	0	704
-114.245	-117.454	17013	17368	0	704
-100.865	-115.975	17009	17246	0	704
-102.849	-121.313	17004	17149	0	704
-118.788	-129.391	17002	17063	0	704
-135.449	-132.925	16996	16979	0	704
-138.622	-128.453	16984	16862	0	704
-119.870	-112.441	16978	16730	0	704
-96.466	-97.115	16973	16663	0	704
-76.632	-83.556	16973	16666	0	704
-71.259	-78.976	16976	16668	0	704
-75.983	-78.399	16965	16615	0	704
-85.323	-83.880	16962	16523	0	704
-89.398	-94.230	16956	16455	0	704
-93.329	-107.537	16952	16424	0	704
-100.721	-122.539	16946	16391	0	704
-107.825	-132.420	16940	16344	0	704
-109.160	-129.607	16928	16275	0	704
-105.554	-118.969	16922	16201	0	704
-102.308	-114.425	16914	16145	0	704
-104.219	-112.369	16904	16115	0	704
-106.491	-112.838	16896	16087	0	704
-103.859	-105.301	16884	16036	0	704
-93.906	-92.535	16872	15975	0	704
-83.700	-85.431	16861	15939	0	704
-82.113	-89.542	16853	15947	0	704
-89.831	-102.200	16848	15975	0	704
-99.098	-110.783	16840	15985	0	704
-98.197	-108.511	16829	15972	0	704
-91.165	-97.692	16819	15962	0	704
-81.717	-86.116	16810	15952	0	704
-76.343	-83.520	16795	15934	0	704
-76.884	-82.690	16781	15888	0	704
-77.966	-87.631	16768	15830	0	704
-79.733	-92.138	16749	15784	0	704
-81.753	-98.305	16733	15753	0	704
-88.063	-102.993	16717	15718	0	704
-93.509	-103.859	16698	15675	0	704
-93.401	-94.122	16674	15626	0	704
-85.142	-82.907	16656	15586	0	704
-77.389	-72.737	16635	15558	0	704
-76.632	-75.081	16616	15545	0	704
-88.280	-90.552	16597	15542	0	704
-107.357	-109.448	16577	15550	0	704
-121.313	-121.745	16557	15560	0	704
-119.437	-121.962	16537	15558	0	704
-110.061	-110.674	16513	15532	0	704
-99.279	-99.423	16496	15535	0	704
-93.437	-95.060	16475	15580	0	704
-98.810	-100.649	16459	15634	0	704
-107.934	-108.619	16441	15659	0	704
-116.048	-114.821	16417	15654	0	704
-115.723	-114.461	16395	15644	0	704
-111.323	-109.232	16376	15659	0	704
-101.911	-102.524	16357	15692	0	704
-91.057	-98.197	16336	15723	0	704
-88.532	-96.899	16316	15736	0	704
-86.152	-95.060	16296	15748	0	704
-87.991	-90.227	16277	15779	0	704
-83.087	-84.854	16263	15837	0	704
-77.065	-78.291	16247	15916	0	704
-71.547	-74.973	16232	15977	0	704
-69.528	-79.373	16215	16018	0	704
-75.153	-86.477	16200	16064	0	704
-81.500	-91.345	16191	16122	0	704
-85.647	-94.555	16176	16191	0	704
-89.254	-94.230	16163	16239	0	704
-91.093	-93.689	16143	16229	0	704
-98.125	-95.673	16120	16171	0	704
-103.642	-96.141	16101	16115	0	704
-108.799	-95.060	16078	16087	0	704
-111.035	-94.771	16059	16069	0	704
-111.251	-100.974	16040	16044	0	704
-111.468	-111.540	16019	16018	0	704
-112.369	-122.070	15992	15988	0	704
-114.281	-123.224	15974	15970	0	704
-111.684	-116.300	15963	16018	0	704
-104.580	-99.675	15952	16120	0	704
-91.994	-82.726	15939	16201	0	704
-74.612	-66.931	15925	16232	0	704
-60.620	-58.168	15907	16224	0	704
-54.634	-57.014	15893	16211	0	704
-60.079	-62.712	15875	16206	0	704
-68.193	-71.475	15859	16199	0	704
-76.488	-75.838	15838	16183	0	704
-74.144	-71.006	15820	16166	0	704
-64.623	-63.036	15804	16148	0	704
-50.631	-60.224	15787	16133	0	704
-44.248	-62.459	15764	16117	0	704
-47.602	-68.301	15748	16097	0	704
-58.529	-71.980	15726	16072	0	704
-72.160	-72.124	15710	16059	0	704
-82.618	-71.403	15694	16079	0	704
-88.857	-77.714	15683	16138	0	704
-91.129	-89.686	15670	16201	0	704
-96.538	-101.118	15660	16245	0	704
-98.954	-106.022	15647	16275	0	704
-99.243	-101.370	15639	16329	0	704
-97.620	-92.968	15636	16409	0	704
-95.420	-91.886	15634	16516	0	704
-93.509	-96.322	15636	16638	0	704
-95.961	-104.904	15643	16775	0	704
-99.171	-109.124	15652	16946	0	704
-99.459	-104.544	15670	17149	0	704
-100.397	-96.718	15695	17394	0	704
-100.216	-94.555	15732	17717	0	704
-104.147	-99.531	15780	18096	0	704
-108.979	-104.977	15827	18437	0	704
-111.360	-102.200	15868	18684	0	704
-104.580	-88.244	15917	18887	0	704
-92.427	-70.501	15971	19104	0	704
-80.202	-60.945	16029	19340	0	704
-73.494	-62.892	16093	19574	0	704
-75.947	-78.291	16147	19724	0	704
-83.628	-93.833	16192	19737	0	704
-94.699	-104.904	16248	19694	0	704
-106.852	-108.979	16304	19722	0	704
-112.910	-106.311	16367	19803	0	704
-112.694	-98.594	16432	19867	0	704
-104.977	-93.545	16492	19885	0	704
-97.115	-95.709	16553	19864	0	704
-100.865	-106.563	16617	19821	0	704
-115.543	-121.601	16682	19763	1	736
-130.689	-133.033	16741	19691	0	736
-138.911	-132.023	16802	19592	0	736
-134.800	-123.332	16859	19460	0	736
-123.008	-112.982	16917	19310	0	736
-113.668	-106.780	16972	19165	0	736
-107.068	-105.121	17028	19012	0	736
-100.108	-100.938	17076	18814	0	736
-92.211	-95.528	17122	18577	0	736
-88.063	-92.391	17166	18328	0	736
-94.987	-95.636	17204	18081	0	736
-110.133	-112.189	17242	17829	0	736
-125.099	-123.729	17275	17559	0	736
-132.925	-129.463	17302	17282	0	736
-125.893	-120.123	17329	17007	0	736
-121.277	-111.143	17353	16745	0	736
-119.582	-108.042	17379	16508	0	736
-127.299	-114.641	17403	16339	0	736
-128.922	-121.096	17428	16222	0	736
-126.253	-121.241	17451	16077	0	736
-117.382	-114.064	17460	15863	0	736
-114.605	-111.360	17468	15611	0	736
-120.231	-114.749	17475	15384	0	736
-126.289	-121.673	17478	15206	0	736
-128.994	-121.962	17483	15056	0	736
-122.070	-116.516	17478	14898	0	736
-113.018	-108.150	17476	14725	0	736
-102.921	-102.705	17473	14598	0	736
-96.610	-99.748	17475	14530	0	736
-87.198	-95.096	17467	14476	0	736
-77.858	-86.549	17457	14392	0	736
-73.458	-79.841	17444	14285	0	736
-72.845	-78.579	17428	14194	0	736
-75.838	-81.103	17412	14133	0	736
-81.320	-87.991	17398	14097	0	736
-88.100	-90.371	17382	14082	0	736
-95.853	-94.410	17363	14074	0	736
-106.635	-100.361	17342	14064	0	736
-114.100	-105.193	17324	14066	0	736
-114.785	-109.124	17307	14105	0	736
-108.943	-106.203	17286	14176	0	736
-103.390	-103.462	17268	14242	0	736
-103.065	-105.986	17250	14311	0	736
-108.583	-114.281	17234	14402	0	736
-113.956	-123.476	17222	14527	0	736
-112.586	-126.181	17206	14675	0	736
-106.131	-119.149	17196	14817	0	736
-98.017	-109.268	17182	14944	0	736
-95.312	-102.019	17172	15069	0	736
-99.784	-103.750	17161	15201	0	736
-104.688	-108.763	17153	15339	0	736
-114.425	-115.507	17138	15458	0	736
-118.860	-117.093	17130	15558	0	736
-118.969	-114.569	17116	15641	0	736
-115.218	-109.556	17101	15697	0	736
-102.633	-104.327	17085	15736	0	736
-91.453	-100.829	17073	15787	0	736
-83.267	-100.541	17061	15871	0	736
-80.923	-98.125	17053	15975	0	736
-78.904	-90.696	17042	16059	0	736
-76.019	-81.825	17036	16120	0	736
-73.567	-76.127	17033	16219	0	736
-76.127	-78.796	17033	16372	0	736
-86.188	-88.244	17034	16523	0	736
-97.223	-99.387	17037	16648	0	736
-102.524	-101.262	17036	16727	0	736
-101.118	-98.666	17034	16780	0	736
-96.250	-96.033	17034	16826	0	736
-94.843	-100.216	17034	16875	0	736
-98.089	-108.799	17033	16900	0	736
-100.252	-112.225	17029	16895	0	736
-97.331	-107.753	17029	16887	0	736
-93.004	-100.505	17028	16897	0	736
-93.725	-98.161	17028	16918	0	736
-99.207	-106.563	17029	16941	0	736
-106.527	-116.048	17029	16943	0	736
-103.390	-112.946	17028	16923	0	736
-85.287	-94.483	17029	16890	0	736
-64.082	-70.285	17026	16852	0	736
-47.494	-55.716	17021	16814	0	736
-53.552	-58.853	17021	16783	0	736
-68.698	-74.829	17020	16758	0	736
-87.486	-86.044	17018	16717	0	736
-96.250	-85.431	17012	16661	0	736
-88.388	-71.944	17005	16597	0	736
-75.478	-57.411	16997	16523	0	736
-64.046	-49.730	16988	16427	0	736
-61.774	-51.677	16972	16308	0	736
-67.472	-62.784	16957	16173	0	736
-78.904	-76.199	16938	16041	0	736
-90.876	-85.287	16920	15919	0	736
-97.656	-89.939	16900	15807	0	736
-101.154	-91.525	16880	15715	0	736
-101.406	-88.172	16856	15616	0	736
-100.974	-88.929	16829	15489	0	736
-101.623	-91.201	16805	15379	0	736
-105.662	-97.404	16786	15329	0	736
-108.186	-102.669	16762	15321	0	736
-108.547	-105.373	16739	15303	0	736
-104.075	-103.931	16714	15245	0	736
-98.882	-100.108	16685	15181	0	736
-96.827	-94.086	16658	15148	0	736
-94.446	-91.778	16635	15145	0	736
-94.086	-89.145	16609	15171	0	736
-90.119	-84.926	16587	15206	0	736
-80.599	-77.137	16569	15252	0	736
-67.761	-66.498	16547	15321	0	736
-57.735	-54.273	16531	15420	0	736
-52.723	-46.809	16517	15530	0	736
-50.523	-43.347	16492	15588	0	736
-52.182	-43.563	16465	15550	0	736
-52.074	-46.123	16433	15461	0	736
-52.903	-50.884	16408	15420	0	736
-56.581	-55.788	16383	15451	0	736
-66.462	-63.145	16359	15494	0	736
-73.783	-69.636	16335	15537	0	736
-76.235	-70.573	16312	15596	0	736
-71.439	-69.167	16296	15669	0	736
-68.554	-72.304	16280	15771	0	736
-72.268	-81.608	16272	15916	0	736
-83.736	-92.860	16259	16066	0	736
-92.247	-100.577	16245	16138	0	736
-90.840	-96.430	16221	16133	0	736
-82.330	-84.349	16200	16100	0	736
-72.124	-74.035	16181	16089	0	736
-68.662	-73.999	16163	16115	0	736
-72.701	-81.031	16147	16161	0	736
-78.327	-88.244	16131	16211	0	736
-80.635	-91.561	16115	16260	0	736
-80.635	-90.480	16104	16303	0	736
-81.825	-86.044	16088	16341	0	736
-81.753	-82.871	16077	16384	0	736
-79.084	-80.166	16064	16417	0	736
-72.557	-73.567	16046	16424	0	736
-64.695	-64.767	16035	16419	0	736
-56.293	-58.673	16016	16411	0	736
-55.608	-55.716	16005	16401	0	736
-57.483	-57.663	15987	16382	0	736
-52.290	-60.765	15965	16336	0	736
-44.645	-55.968	15942	16257	0	736
-37.505	-50.234	15920	16171	0	736
-40.101	-47.349	15901	16125	0	736
-55.139	-57.375	15880	16120	0	736
-73.098	-70.862	15864	16122	0	736
-81.140	-82.185	15848	16125	0	736
-73.206	-80.490	15835	16150	0	736
-59.719	-70.682	15827	16211	0	736
-55.680	-65.380	15819	16298	0	736
-63.361	-70.609	15814	16391	0	736
-78.868	-81.103	15806	16475	0	736
-86.982	-85.864	15800	16516	0	736
-79.841	-83.051	15788	16518	0	736
-62.676	-71.908	15776	16506	0	736
-52.398	-66.534	15766	16483	0	736
-52.723	-67.977	15750	16460	0	736
-65.453	-75.586	15739	16422	0	736
-79.373	-83.700	15716	16341	0	736
-83.808	-90.299	15692	16217	0	736
-84.097	-93.401	15668	16092	0	736
-77.786	-93.653	15646	15990	0	736
-73.530	-88.821	15618	15904	0	736
-76.956	-85.864	15591	15827	0	736
-82.690	-84.998	15570	15756	0	736
-90.840	-89.506	15546	15713	0	736
-93.004	-92.211	15527	15728	0	736
-90.804	-92.607	15514	15807	0	736
-80.635	-83.195	15506	15914	0	736
-72.990	-76.740	15500	16028	0	736
-73.783	-76.884	15500	16183	0	736
-80.851	-82.113	15509	16394	0	736
-89.290	-92.066	15524	16661	0	736
-93.509	-91.706	15543	16964	0	736
-88.857	-88.929	15574	17289	0	736
-83.988	-83.195	15610	17633	0	736
-80.094	-87.631	15655	18009	0	736
-84.097	-92.247	15711	18419	0	736
-85.864	-99.207	15771	18824	0	736
-84.493	-98.558	15832	19188	0	736
-81.644	-89.975	15899	19518	0	736
-77.317	-83.303	15968	19834	0	736
-73.999	-77.137	16043	20129	0	736
-73.314	-74.035	16120	20384	0	736
-68.229	-70.790	16199	20585	0	736
-63.794	-69.059	16277	20727	0	736
-62.964	-68.013	16352	20819	0	736
-63.830	-68.157	16424	20854	0	736
-63.794	-67.220	16499	20829	0	736
-57.807	-64.443	16568	20747	0	736
-53.841	-62.892	16632	20605	0	736
-58.312	-66.426	16691	20399	0	736
-70.321	-78.074	16741	20132	1	760
-86.080	-89.434	16792	19821	0	760
-93.112	-96.286	16840	19508	0	760
-90.335	-96.538	16885	19210	0	760
-79.409	-92.788	16928	18908	0	760
-71.295	-88.460	16962	18574	0	760
-68.915	-85.034	16996	18226	0	760
-72.485	-84.241	17034	17900	0	760
-80.887	-87.667	17061	17610	0	760
-93.076	-92.788	17089	17317	0	760
-101.010	-101.983	17109	17012	0	760
-103.606	-108.439	17130	16709	0	760
-103.246	-111.215	17150	16424	0	760
-101.262	-109.737	17164	16171	0	760
-100.180	-110.422	17180	15939	0	760
-99.675	-110.278	17190	15720	0	760
-95.889	-109.052	17201	15507	0	760
-88.568	-104.652	17206	15308	0	760
-86.044	-97.620	17212	15148	0	760
-87.703	-93.509	17222	15036	0	760
-94.302	-92.319	17228	14960	0	760
-93.581	-89.506	17234	14883	0	760
-84.674	-80.923	17236	14804	0	760
-68.662	-69.383	17242	14743	0	760
-57.735	-63.289	17238	14687	0	760
-60.404	-65.777	17238	14639	0	760
-70.609	-78.543	17238	14619	0	760
-82.834	-90.840	17242	14631	0	760
-88.063	-100.072	17236	14644	0	760
-87.559	-104.291	17234	14647	0	760
-89.398	-108.294	17226	14641	0	760
-100.974	-114.966	17220	14619	0	760
-110.386	-116.336	17204	14588	0	760
-115.687	-108.258	17193	14552	0	760
-107.825	-93.942	17174	14519	0	760
-89.506	-81.644	17158	14489	0	760
-74.035	-75.334	17137	14466	0	760
-68.662	-80.671	17122	14461	0	760
-73.242	-90.119	17101	14484	0	760
-78.074	-91.634	17081	14496	0	760
-77.389	-84.493	17058	14486	0	760
-67.616	-68.013	17036	14502	0	760
-55.247	-55.139	17013	14555	0	760
-47.818	-48.431	16996	14614	0	760
-48.287	-52.110	16972	14669	0	760
-50.631	-56.004	16954	14736	0	760
-48.756	-58.817	16933	14822	0	760
-45.402	-55.283	16922	14952	0	760
-113.307	-562.423	358	5452	1	37438
-43.960	-68.626	16916	13308	0	788
-31.338	-55.427	16884	13334	0	788
-14.821	-39.668	16851	13369	0	788
-5.734	-31.915	16824	13453	0	788
-4.183	-31.915	16797	13591	0	788
-10.314	-39.055	16773	13751	0	788
-18.320	-47.926	16747	13898	0	788
-25.063	-55.896	16722	14041	0	788
-26.506	-57.771	16701	14209	0	788
-24.775	-58.132	16683	14423	0	788
-19.834	-56.726	16672	14659	0	788
-17.129	-54.418	16650	14850	0	788
-10.710	-54.490	16624	14949	0	788
-7.717	-53.191	16595	14990	0	788
-7.285	-54.995	16573	15074	0	788
-10.097	-56.798	16553	15224	0	788
-15.182	-63.325	16539	15387	0	788
-25.063	-67.977	16521	15558	0	788
-30.436	-71.331	16515	15753	0	788
-32.456	-71.186	16509	15980	0	788
-29.895	-66.967	16507	16217	0	788
-25.604	-62.171	16512	16434	0	788
-23.296	-58.168	16507	16633	0	788
-25.063	-62.279	16509	16796	0	788
-33.357	-68.770	16505	16900	0	788
-37.144	-71.836	16504	16953	0	788
-30.869	-65.020	16497	17007	0	788
-18.933	-50.667	16499	17083	0	788
-2.596	-35.521	16496	17149	0	788
5.409	-28.128	16492	17165	0	788
2.308	-33.393	16484	17137	0	788
-8.186	-44.645	16483	17114	0	788
-19.005	-53.985	16475	17104	0	788
-25.604	-58.024	16475	17093	0	788
-26.001	-56.509	16472	17076	0	788
-21.529	-51.821	16464	17032	0	788
-14.461	-43.130	16459	16981	0	788
-12.550	-39.452	16456	16946	0	788
-16.084	-40.281	16448	16918	0	788
-23.080	-47.494	16441	16862	0	788
-32.636	-55.788	16433	16786	0	788
-34.980	-62.820	16420	16696	0	788
-33.321	-65.056	16404	16567	0	788
-28.669	-61.125	16387	16406	0	788
-26.722	-58.565	16375	16295	0	788
-23.044	-54.418	16359	16229	0	788
-18.716	-48.359	16343	16166	0	788
-14.569	-43.563	16333	16117	0	788
-13.451	-40.858	16324	16117	0	788
-15.975	-43.887	16320	16153	0	788
-24.522	-49.441	16309	16181	0	788
-29.859	-57.303	16303	16186	0	788
-30.112	-57.735	16293	16166	0	788
-26.470	-56.293	16277	16120	0	788
-22.214	-50.956	16263	16061	0	788
-22.539	-51.713	16245	16003	0	788
-24.450	-52.398	16232	15962	0	788
-28.237	-56.870	16216	15926	0	788
-28.092	-57.483	16195	15868	0	788
-25.532	-51.569	16175	15789	0	788
-20.736	-47.386	16157	15741	0	788
-22.358	-46.376	16141	15736	0	788
-26.361	-49.766	16123	15733	0	788
-33.970	-58.276	16101	15697	0	788
-36.387	-62.207	16078	15641	0	788
-34.439	-58.673	16061	15608	0	788
-28.850	-54.922	16038	15616	0	788
-27.840	-52.038	16024	15652	0	788
-31.410	-54.382	16006	15680	0	788
-34.187	-55.644	15987	15687	0	788
-31.266	-52.470	15971	15705	0	788
-22.791	-44.861	15955	15746	0	788
-14.713	-38.947	15942	15804	0	788
-17.093	-39.957	15928	15876	0	788
-23.404	-44.897	15917	15939	0	788
-31.915	-49.333	15904	15998	0	788
-32.925	-48.251	15896	16079	0	788
-29.066	-45.258	15894	16206	0	788
-27.010	-44.681	15894	16344	0	788
-28.381	-48.359	15886	16432	0	788
-30.869	-51.821	15880	16483	0	788
-29.354	-49.766	15875	16521	0	788
-26.830	-47.566	15868	16539	0	788
-25.604	-46.592	15859	16546	0	788
-29.859	-52.470	15854	16574	0	788
-36.603	-62.063	15851	16620	0	788
-40.894	-66.282	15846	16656	0	788
-37.505	-63.866	15843	16674	0	788
-28.633	-55.968	15836	16681	0	788
-22.034	-53.444	15827	16661	0	788
-25.893	-54.706	15819	16618	0	788
-33.033	-64.226	15803	16539	0	788
-45.150	-73.206	15780	16394	0	788
-49.477	-75.658	15758	16211	0	788
-46.304	-71.691	15732	16059	0	788
-38.370	-65.200	15708	15957	0	788
-34.331	-59.755	15691	15876	0	788
-33.682	-60.043	15662	15779	0	788
-37.541	-64.803	15638	15690	0	788
-42.084	-67.761	15620	15664	0	788
-41.435	-64.695	15604	15695	0	788
-33.502	-54.995	15588	15733	0	788
-24.450	-42.481	15574	15771	0	788
-16.156	-37.252	15558	15807	0	788
-17.995	-38.586	15546	15837	0	788
-23.368	-47.890	15534	15878	0	788
-29.282	-53.155	15524	15939	0	788
-27.227	-52.182	15509	16000	0	788
-18.356	-42.842	15498	16041	0	788
-9.629	-32.456	15487	16074	0	788
-9.448	-30.725	15474	16110	0	788
-19.257	-35.737	15466	16158	0	788
-32.131	-46.700	15458	16217	0	788
-43.094	-55.175	15450	16255	0	788
-47.205	-58.565	15436	16270	0	788
-44.681	-55.788	15423	16283	0	788
-39.812	-51.424	15418	16323	0	788
-41.255	-52.146	15413	16384	0	788
-50.126	-58.781	15404	16432	0	788
-63.649	-69.924	15388	16406	0	788
-74.468	-78.255	15372	16316	0	788
-80.166	-79.733	15356	16247	0	788
-75.730	-75.117	15343	16229	0	788
-68.734	-67.075	15325	16219	0	788
-58.997	-59.286	15316	16196	0	788
-52.110	-55.103	15301	16178	0	788
-46.159	-54.670	15287	16173	0	788
-46.845	-53.552	15274	16168	0	788
-51.749	-57.699	15259	16161	0	788
-53.228	-57.555	15253	16189	0	788
-53.228	-55.860	15247	16260	0	788
-43.743	-49.297	15243	16341	0	788
-38.586	-46.448	15245	16434	0	788
-38.767	-45.727	15253	16590	0	788
-46.917	-48.576	15269	16808	0	788
-52.074	-53.228	15293	17081	0	788
-52.831	-51.497	15327	17396	0	788
-44.501	-47.349	15364	17727	0	788
-32.925	-39.704	15413	18076	0	788
-23.909	-32.744	15466	18442	0	788
-23.080	-30.184	15524	18808	0	788
-28.092	-32.816	15588	19154	0	788
-36.278	-40.281	15654	19465	0	788
-45.763	-49.261	15726	19745	0	788
-52.146	-58.961	15800	20004	0	788
-53.408	-63.577	15878	20251	0	788
-59.538	-70.465	15957	20467	0	788
-69.131	-76.884	16032	20610	0	788
-79.481	-84.782	16110	20686	0	788
-84.890	-89.254	16191	20740	0	788
-79.192	-84.097	16271	20788	0	788
-67.797	-74.468	16352	20816	0	788
-55.788	-64.190	16435	20821	0	788
-53.372	-58.637	16515	20788	0	788
-57.591	-61.558	16593	20696	0	788
-66.318	-70.429	16667	20541	0	788
-74.396	-79.336	16736	20330	0	788
-76.163	-83.988	16797	20068	1	772
-75.478	-86.693	16853	19760	0	772
-71.475	-84.565	16908	19414	0	772
-67.075	-77.858	16946	18997	0	772
-65.741	-76.379	16978	18526	0	772
-69.492	-78.723	17013	18099	0	772
-77.245	-84.385	17044	17719	0	772
-83.592	-88.857	17066	17300	0	772
-90.119	-92.247	17076	16819	0	772
-93.509	-91.994	17082	16336	0	772
-94.735	-88.352	17089	15901	0	772
-92.535	-86.621	17092	15532	0	772
-86.982	-83.556	17093	15211	0	772
-83.592	-78.868	17090	14898	0	772
-79.300	-74.937	17081	14573	0	772
-77.678	-72.268	17069	14283	0	772
-77.966	-72.160	17060	14061	0	772
-79.120	-71.078	17050	13893	0	772
-79.697	-69.167	17037	13759	0	772
-75.983	-64.154	17028	13662	0	772
-68.193	-53.949	17013	13591	0	772
-56.365	-44.825	17004	13545	0	772
-46.736	-36.928	16986	13514	0	772
-43.671	-35.124	16970	13499	0	772
-44.392	-36.711	16957	13519	0	772
-49.838	-39.127	16940	13565	0	772
-53.336	-39.163	16928	13629	0	772
-57.158	-40.317	16912	13710	0	772
-59.538	-43.058	16896	13802	0	772
-67.833	-50.920	16875	13876	0	772
-73.963	-59.755	16856	13939	0	772
-81.680	-68.121	16837	14013	0	772
-84.385	-70.970	16818	14105	0	772
-82.402	-63.469	16802	14209	0	772
-70.970	-52.903	16781	14318	0	772
-58.529	-39.416	16762	14425	0	772
-55.319	-34.620	16746	14530	0	772
-58.601	-38.695	16722	14619	0	772
-69.564	-50.703	16699	14687	0	772
-75.514	-57.014	16675	14753	0	772
-72.304	-53.155	16651	14825	0	772
-61.558	-41.327	16627	14888	0	772
-50.775	-28.958	16597	14916	0	772
-47.999	-24.811	16569	14924	0	772
-52.290	-30.184	16545	14972	0	772
-60.260	-39.199	16523	15087	0	772
-64.407	-45.546	16509	15257	0	772
-64.912	-46.268	16497	15440	0	772
-61.017	-42.806	16489	15621	0	772
-55.716	-37.432	16481	15817	0	772
-51.605	-32.997	16480	16031	0	772
-47.422	-27.804	16475	16239	0	772
-46.304	-27.912	16476	16424	0	772
-52.975	-35.269	16473	16582	0	772
-60.332	-42.770	16476	16714	0	772
-69.455	-51.497	16481	16854	0	772
-74.504	-57.411	16484	17012	0	772
-73.278	-56.365	16492	17157	0	772
-71.619	-55.031	16491	17226	0	772
-69.275	-55.608	16484	17185	0	772
-69.419	-54.562	16472	17078	0	772
-67.364	-53.408	16465	16999	0	772
-66.390	-50.343	16460	16976	0	772
-66.607	-51.893	16452	16966	0	772
-70.934	-53.696	16451	16959	0	772
-75.730	-59.538	16451	16959	0	772
-76.956	-60.548	16444	16951	0	772
-72.881	-57.663	16440	16895	0	772
-68.049	-55.896	16427	16788	0	772
-64.695	-51.749	16416	16676	0	772
-64.984	-52.001	16401	16579	0	772
-65.453	-49.225	16385	16465	0	772
-64.515	-45.258	16368	16339	0	772
-59.358	-41.219	16352	16239	0	772
-56.004	-37.937	16343	16189	0	772
-54.526	-36.783	16328	16155	0	772
-50.956	-33.357	16316	16100	0	772
-49.297	-29.427	16295	16018	0	772
-46.015	-25.856	16285	15972	0	772
-44.897	-26.361	16272	15998	0	772
-50.847	-31.590	16268	16049	0	772
-53.588	-35.269	16255	16069	0	772
-54.742	-32.023	16243	16046	0	772
-47.313	-23.945	16229	16018	0	772
-40.534	-17.202	16221	16018	0	772
-39.380	-15.398	16211	16041	0	772
-46.628	-27.551	16200	16074	0	772
-63.072	-48.359	16192	16105	0	772
-79.697	-65.453	16183	16140	0	772
-86.152	-72.990	16181	16194	0	772
-82.907	-65.633	16179	16260	0	772
-67.977	-47.890	16175	16334	0	772
-54.382	-32.095	16171	16384	0	772
-47.530	-27.119	16165	16404	0	772
-56.473	-35.701	16157	16401	0	772
-69.960	-51.965	16143	16351	0	772
-80.815	-63.000	16126	16255	0	772
-83.772	-64.876	16115	16183	0	772
-76.343	-59.394	16102	16171	0	772
-69.131	-52.001	16091	16171	0	772
-65.200	-49.549	16083	16163	0	772
-65.200	-47.710	16075	16166	0	772
-63.217	-46.809	16061	16168	0	772
-58.637	-39.596	16051	16158	0	772
-50.270	-30.400	16037	16130	0	772
-42.517	-21.493	16024	16092	0	772
-34.511	-16.012	16008	16066	0	772
-30.184	-11.504	16006	16094	0	772
-28.922	-9.520	16000	16176	0	772
-24.919	-8.655	15990	16237	0	772
-25.820	-8.907	15982	16229	0	772
-27.696	-11.504	15965	16158	0	772
-31.807	-15.290	15947	16072	0	772
-37.216	-22.178	15931	16005	0	772
-41.363	-23.404	15915	15970	0	772
-37.865	-19.906	15894	15929	0	772
-30.364	-14.569	15875	15860	0	772
-27.696	-8.871	15854	15809	0	772
-31.302	-11.973	15836	15799	0	772
-42.661	-23.512	15822	15804	0	772
-55.175	-34.367	15803	15802	0	772
-61.486	-40.534	15787	15787	0	772
-62.640	-41.940	15771	15781	0	772
-61.918	-42.265	15751	15804	0	772
-61.918	-43.960	15743	15868	0	772
-62.568	-45.835	15732	15942	0	772
-62.712	-47.818	15719	15985	0	772
-60.260	-43.635	15707	16000	0	772
-55.211	-38.262	15694	16023	0	772
-53.119	-33.393	15683	16061	0	772
-49.730	-28.273	15670	16105	0	772
-44.248	-24.739	15655	16128	0	772
-40.858	-22.431	15644	16130	0	772
-38.803	-20.952	15626	16120	0	772
-38.983	-23.512	15610	16102	0	772
-42.193	-23.476	15598	16097	0	772
-42.265	-21.818	15590	16148	0	772
-38.442	-16.264	15582	16234	0	772
-31.662	-9.629	15567	16270	0	772
-30.004	-8.258	15550	16214	0	772
-38.154	-19.221	15530	16122	0	772
-54.742	-35.593	15509	16056	0	772
-66.967	-49.802	15490	16023	0	772
-71.727	-55.716	15474	16005	0	772
-66.498	-47.169	15455	15998	0	772
-59.971	-38.947	15437	15982	0	772
-57.266	-34.620	15418	15952	0	772
-61.594	-37.973	15399	15921	0	772
-66.643	-45.078	15380	15906	0	772
-69.744	-49.946	15362	15909	0	772
-72.088	-53.913	15346	15916	0	772
-73.639	-54.201	15330	15932	0	772
-74.937	-56.293	15316	15975	0	772
-74.107	-53.372	15306	16041	0	772
-68.518	-49.225	15293	16100	0	772
-60.260	-42.373	15282	16143	0	772
-56.149	-38.154	15274	16194	0	772
-57.699	-37.865	15268	16283	0	772
-58.493	-37.937	15269	16409	0	772
-56.762	-36.351	15271	16551	0	772
-50.811	-31.554	15274	16686	0	772
-43.058	-26.758	15284	16839	0	772
-42.734	-27.912	15301	17043	0	772
-50.703	-32.889	15324	17305	0	772
-58.889	-37.973	15359	17602	0	772
-59.827	-37.937	15396	17913	0	772
-54.490	-32.780	15439	18223	0	772
-49.621	-26.722	15492	18539	0	772
-45.943	-26.866	15543	18857	0	772
-50.270	-29.931	15606	19167	0	772
-53.155	-33.105	15675	19475	0	772
-52.290	-32.348	15742	19775	0	772
-50.234	-28.092	15816	20035	0	772
-43.887	-23.476	15884	20210	0	772
-41.471	-22.467	15952	20315	0	772
-40.930	-21.818	16027	20409	0	772
-40.462	-23.512	16101	20501	0	772
-41.868	-23.873	16175	20569	0	772
-43.347	-24.666	16245	20577	0	772
-45.294	-28.417	16319	20518	0	772
-50.884	-31.626	16388	20452	0	772
-55.283	-34.836	16460	20401	0	772
-56.545	-35.737	16537	20328	0	772
-49.044	-30.797	16603	20190	1	732
-41.399	-22.467	16666	19992	0	732
-35.377	-16.913	16730	19763	0	732
-36.351	-16.480	16786	19526	0	732
-40.642	-17.274	16840	19272	0	732
-41.363	-18.824	16890	18976	0	732
-37.649	-15.687	16930	18628	0	732
-34.006	-12.586	16965	18241	0	732
-37.180	-16.300	16996	17857	0	732
-48.215	-24.919	17028	17518	0	732
-59.791	-35.233	17060	17223	0	732
-66.246	-39.524	17085	16933	0	732
-64.443	-36.603	17108	16638	0	732
-59.899	-32.420	17130	16362	0	732
-60.728	-33.069	17153	16115	0	732
-65.489	-39.668	17169	15896	0	732
-70.934	-44.284	17188	15703	0	732
-69.203	-43.058	17202	15524	0	732
-57.916	-32.348	17214	15341	0	732
-42.409	-20.411	17222	15153	0	732
-35.160	-15.687	17225	14960	0	732
-38.586	-18.572	17225	14781	0	732
-48.287	-28.705	17225	14616	0	732
-58.024	-35.882	17217	14458	0	732
-58.637	-36.062	17206	14306	0	732
-57.880	-34.043	17198	14171	0	732
-57.014	-34.547	17185	14059	0	732
-60.043	-38.586	17174	13982	0	732
-64.840	-40.353	17158	13932	0	732
-63.181	-38.045	17142	13876	0	732
-54.201	-29.210	17124	13812	0	732
-45.402	-20.736	17105	13789	0	732
-43.419	-20.555	17090	13820	0	732
-51.100	-29.138	17073	13855	0	732
-62.207	-40.065	17049	13868	0	732
-68.987	-44.284	17026	13858	0	732
-68.662	-40.101	16996	13843	0	732
-62.027	-33.285	16970	13848	0	732
-59.899	-28.850	16941	13871	0	732
-60.188	-30.220	16909	13886	0	732
-63.758	-33.466	16872	13873	0	732
-62.063	-32.997	16834	13835	0	732
-59.719	-29.895	16797	13820	0	732
-54.706	-28.922	16763	13881	0	732
-56.040	-28.777	16736	14013	0	732
-54.778	-31.590	16709	14161	0	732
-53.155	-29.138	16683	14308	0	732
-47.349	-24.342	16658	14474	0	732
-47.205	-22.827	16635	14634	0	732
-50.847	-28.705	16605	14746	0	732
-58.709	-37.432	16577	14827	0	732
-64.371	-45.438	16553	14947	0	732
-63.181	-45.655	16533	15120	0	732
-56.365	-38.262	16517	15308	0	732
-46.268	-28.201	16499	15491	0	732
-42.084	-23.332	16489	15682	0	732
-42.084	-22.286	16480	15896	0	732
-46.772	-26.578	16476	16125	0	732
-50.739	-31.302	16473	16349	0	732
-53.624	-32.384	16473	16546	0	732
-50.054	-29.282	16475	16732	0	732
-46.051	-25.640	16476	16923	0	732
-44.428	-22.683	16488	17119	0	732
-43.130	-23.044	16491	17292	0	732
-41.507	-22.250	16499	17414	0	732
-37.793	-20.339	16504	17503	0	732
-35.918	-19.005	16512	17579	0	732
-37.108	-18.031	16517	17643	0	732
-42.120	-22.683	16523	17681	0	732
-45.510	-24.486	16528	17684	0	732
-41.471	-19.726	16531	17668	0	732
-32.420	-11.864	16537	17661	0	732
-23.260	-4.111	16547	17661	0	732
-21.313	-0.325	16549	17646	0	732
-26.506	-6.599	16553	17582	0	732
-34.728	-15.182	16549	17467	0	732
-44.068	-25.532	16547	17325	0	732
-53.083	-36.206	16541	17203	0	732
-59.178	-45.618	16539	17109	0	732
-67.544	-52.001	16536	17002	0	732
-69.383	-52.506	16528	16877	0	732
-63.830	-45.366	16521	16755	0	732
-54.021	-35.341	16517	16656	0	732
-45.907	-29.282	16507	16572	0	732
-43.419	-30.905	16500	16488	0	732
-49.802	-36.855	16488	16374	0	732
-54.670	-41.940	16472	16206	0	732
-54.598	-39.308	16451	16023	0	732
-48.539	-32.925	16427	15853	0	732
-40.534	-25.604	16409	15718	0	732
-39.488	-24.847	16387	15621	0	732
-42.842	-27.948	16372	15547	0	732
-50.523	-31.554	16352	15476	0	732
-51.424	-30.545	16332	15412	0	732
-45.438	-25.243	16316	15407	0	732
-35.160	-18.175	16304	15468	0	732
-28.273	-10.927	16296	15540	0	732
-27.119	-10.783	16279	15578	0	732
-34.692	-15.579	16268	15586	0	732
-45.402	-24.450	16248	15593	0	732
-52.110	-30.076	16239	15616	0	732
-48.828	-30.148	16223	15644	0	732
-40.570	-23.512	16199	15619	0	732
-31.987	-15.543	16165	15481	0	732
-27.479	-12.946	16128	15293	0	732
-29.174	-13.343	16099	15191	0	732
-27.732	-14.317	16075	15189	0	732
-25.135	-12.477	16051	15222	0	732
-25.063	-10.855	16024	15250	0	732
-31.951	-17.490	16003	15280	0	732
-46.232	-29.859	15981	15321	0	732
-56.690	-41.111	15958	15372	0	732
-57.411	-44.104	15936	15418	0	732
-47.386	-37.685	15915	15468	0	732
-39.488	-26.433	15896	15545	0	732
-38.082	-24.450	15883	15649	0	732
-46.484	-31.049	15872	15787	0	732
-53.552	-38.406	15867	15947	0	732
-56.762	-43.996	15860	16112	0	732
-53.985	-42.048	15854	16257	0	732
-52.651	-39.055	15846	16351	0	732
-50.415	-38.190	15830	16384	0	732
-50.270	-36.242	15819	16374	0	732
-47.241	-34.151	15800	16367	0	732
-40.714	-30.905	15788	16382	0	732
-34.908	-27.227	15772	16401	0	732
-33.177	-25.279	15759	16396	0	732
-35.088	-28.850	15747	16384	0	732
-38.442	-30.364	15739	16419	0	732
-41.255	-31.843	15732	16516	0	732
-43.743	-35.593	15727	16602	0	732
-48.359	-39.272	15718	16638	0	732
-51.533	-44.537	15710	16623	0	732
-57.339	-49.946	15699	16587	0	732
-59.106	-49.297	15687	16559	0	732
-56.004	-46.592	15676	16549	0	732
-52.939	-40.317	15663	16529	0	732
-48.359	-36.206	15651	16490	0	732
-48.287	-36.423	15639	16467	0	732
-52.182	-39.091	15634	16480	0	732
-53.228	-40.137	15626	16503	0	732
-50.054	-36.711	15618	16511	0	732
-39.885	-24.378	15606	16485	0	732
-27.191	-14.930	15594	16447	0	732
-21.132	-9.448	15582	16404	0	732
-22.827	-11.756	15566	16349	0	732
-28.994	-18.536	15551	16283	0	732
-36.819	-26.938	15540	16242	0	732
-39.524	-32.131	15526	16229	0	732
-36.170	-28.309	15516	16222	0	732
-27.624	-22.935	15503	16211	0	732
-20.159	-17.815	15492	16204	0	732
-16.012	-12.369	15479	16189	0	732
-15.038	-12.802	15468	16178	0	732
-17.057	-16.697	15455	16168	0	732
-19.978	-17.526	15444	16155	0	732
-20.483	-18.824	15431	16155	0	732
-19.293	-18.175	15426	16178	0	732
-22.863	-22.034	15418	16222	0	732
-25.640	-27.263	15413	16290	0	732
-31.879	-33.393	15412	16362	0	732
-40.642	-38.731	15413	16452	0	732
-47.061	-44.284	15429	16643	0	732
-52.903	-45.402	15453	16931	0	732
-48.648	-41.616	15484	17238	0	732
-41.832	-36.314	15516	17526	0	732
-37.829	-31.987	15551	17806	0	732
-36.242	-31.302	15599	18104	0	732
-40.786	-35.990	15651	18432	0	732
-45.114	-38.767	15710	18783	0	732
-41.363	-35.990	15774	19129	0	732
-31.699	-25.388	15843	19447	0	732
-17.598	-14.353	15917	19745	0	732
-7.501	-2.957	15995	20032	0	732
-1.406	2.092	16077	20302	0	732
-3.390	2.056	16159	20536	0	732
-11.468	-5.049	16243	20709	0	732
-19.798	-15.615	16325	20821	0	732
-28.056	-26.542	16408	20895	0	732
-30.328	-30.328	16492	20943	0	732
-28.633	-27.876	16573	20946	0	732
-18.283	-15.435	16651	20875	0	732
-12.658	-6.383	16725	20740	0	732
-9.845	-3.029	16797	20567	0	732
-15.254	-9.773	16864	20348	0	732
-28.814	-25.568	16928	20083	1	740
-43.779	-43.563	16984	19788	0	740
-53.228	-55.499	17034	19439	0	740
-59.683	-59.899	17073	19015	0	740
-59.935	-59.430	17101	18526	0	740
-61.197	-58.168	17129	18020	0	740
-63.902	-61.269	17148	17544	0	740
-68.806	-65.957	17170	17121	0	740
-73.783	-71.691	17185	16717	0	740
-79.228	-77.389	17194	16295	0	740
-82.690	-80.238	17194	15868	0	740
-82.834	-80.202	17198	15486	0	740
-79.589	-76.379	17198	15171	0	740
-67.941	-65.885	17201	14906	0	740
-54.742	-51.064	17196	14659	0	740
-44.068	-41.543	17193	14430	0	740
-39.055	-39.596	17190	14245	0	740
-44.248	-43.924	17185	14120	0	740
-46.953	-46.592	17182	14038	0	740
-44.789	-43.238	17174	13980	0	740
-35.413	-32.744	17170	13929	0	740
-23.044	-21.998	17164	13901	0	740
-16.444	-14.281	17156	13921	0	740
-15.002	-15.867	17156	13990	0	740
-19.654	-17.382	17154	14094	0	740
-20.844	-19.221	17153	14191	0	740
-19.762	-16.372	17148	14252	0	740
-13.163	-12.333	17134	14283	0	740
-7.970	-7.393	17129	14326	0	740
-7.465	-6.022	17121	14397	0	740
-11.756	-12.189	17108	14466	0	740
-24.739	-22.827	17097	14507	0	740
-35.521	-31.338	17077	14530	0	740
-41.435	-35.052	17060	14542	0	740
-41.147	-34.295	17037	14522	0	740
-38.009	-30.617	17010	14476	0	740
-33.970	-29.823	16978	14428	0	740
-34.980	-34.223	16946	14364	0	740
-37.901	-37.793	16906	14273	0	740
-38.298	-38.911	16869	14191	0	740
-35.449	-34.620	16834	14166	0	740
-29.354	-27.984	16803	14206	0	740
-25.424	-24.919	16773	14283	0	740
-24.522	-23.440	16746	14387	0	740
-27.047	-26.506	16723	14522	0	740
-32.672	-30.581	16701	14687	0	740
-32.095	-27.624	16688	14893	0	740
-26.506	-21.096	16680	15133	0	740
-17.202	-12.477	16667	15377	0	740
-12.045	-5.986	16664	15596	0	740
-9.340	-4.796	16656	15797	0	740
-12.874	-6.383	16653	16005	0	740
-14.028	-7.429	16650	16211	0	740
-12.802	-6.527	16645	16384	0	740
-14.821	-6.635	16643	16516	0	740
-20.159	-15.723	16640	16625	0	740
-32.167	-28.994	16642	16752	0	740
-48.215	-46.268	16648	16913	0	740
-58.709	-56.076	16653	17078	0	740
-62.423	-59.106	16658	17198	0	740
-58.276	-52.326	16653	17236	0	740
-49.838	-43.274	16645	17172	0	740
-43.815	-37.144	16634	17060	0	740
-42.481	-36.387	16625	16984	0	740
-48.395	-40.389	16617	16946	0	740
-54.309	-48.720	16613	16923	0	740
-55.463	-50.090	16609	16915	0	740
-48.756	-44.753	16608	16923	0	740
-40.101	-38.082	16609	16953	0	740
-34.620	-31.518	16613	17007	0	740
-35.377	-31.843	16619	17071	0	740
-40.209	-37.468	16625	17106	0	740
-45.763	-41.435	16627	17101	0	740
-48.431	-43.527	16629	17091	0	740
-46.484	-40.678	16637	17111	0	740
-38.875	-34.439	16640	17134	0	740
-31.626	-25.820	16642	17086	0	740
-27.948	-21.313	16632	16956	0	740
-29.535	-20.988	16621	16793	0	740
-36.783	-27.732	16609	16633	0	740
-45.835	-34.079	16597	16495	0	740
-48.900	-37.613	16587	16389	0	740
-47.566	-36.278	16577	16293	0	740
-45.294	-33.574	16560	16181	0	740
-44.176	-34.331	16544	16066	0	740
-44.753	-38.118	16529	15970	0	740
-48.467	-42.553	16517	15893	0	740
-50.956	-46.809	16496	15820	0	740
-52.326	-44.825	16480	15736	0	740
-48.864	-41.039	16460	15652	0	740
-42.157	-33.682	16440	15586	0	740
-36.675	-29.282	16417	15517	0	740
-35.124	-29.246	16393	15428	0	740
-38.731	-36.062	16368	15339	0	740
-47.674	-42.950	16348	15288	0	740
-51.208	-47.277	16327	15285	0	740
-47.277	-43.779	16309	15323	0	740
-41.147	-34.079	16293	15377	0	740
-33.862	-26.578	16276	15412	0	740
-31.807	-25.099	16253	15425	0	740
-34.836	-28.994	16235	15428	0	740
-39.452	-33.177	16211	15428	0	740
-41.399	-36.747	16189	15433	0	740
-43.996	-37.757	16167	15448	0	740
-44.464	-35.954	16144	15468	0	740
-44.681	-35.233	16123	15491	0	740
-42.625	-31.951	16094	15481	0	740
-38.586	-28.597	16072	15451	0	740
-35.954	-25.712	16053	15491	0	740
-37.613	-28.777	16038	15606	0	740
-40.317	-32.744	16019	15695	0	740
-42.265	-35.774	15998	15725	0	740
-44.464	-36.098	15976	15736	0	740
-45.979	-36.819	15955	15761	0	740
-47.169	-41.219	15941	15817	0	740
-52.001	-44.537	15925	15896	0	740
-49.441	-44.717	15909	15949	0	740
-43.419	-42.806	15884	15949	0	740
-40.317	-38.586	15860	15932	0	740
-38.118	-37.541	15840	15937	0	740
-42.914	-40.389	15824	15962	0	740
-46.736	-42.337	15804	15998	0	740
-42.878	-36.783	15787	16023	0	740
-37.432	-28.669	15768	16041	0	740
-28.020	-21.565	15750	16079	0	740
-23.729	-19.041	15739	16153	0	740
-23.512	-17.057	15731	16247	0	740
-21.673	-17.166	15711	16298	0	740
-18.969	-15.759	15691	16252	0	740
-19.257	-11.576	15667	16161	0	740
-19.978	-15.326	15651	16122	0	740
-25.460	-20.087	15630	16155	0	740
-28.994	-23.404	15615	16204	0	740
-32.239	-25.316	15607	16255	0	740
-27.984	-22.142	15594	16318	0	740
-28.561	-24.522	15583	16377	0	740
-33.141	-29.246	15570	16396	0	740
-37.396	-35.377	15558	16394	0	740
-36.639	-36.495	15543	16384	0	740
-33.249	-30.689	15526	16367	0	740
-24.811	-22.935	15503	16313	0	740
-26.506	-24.414	15484	16237	0	740
-36.855	-34.295	15463	16178	0	740
-54.382	-51.857	15447	16161	0	740
-64.226	-61.125	15429	16158	0	740
-62.279	-57.266	15407	16128	0	740
-45.078	-40.498	15388	16069	0	740
-24.955	-19.582	15370	16028	0	740
-9.052	-5.265	15351	16041	0	740
-8.655	-3.606	15341	16094	0	740
-17.454	-10.494	15330	16153	0	740
-28.814	-20.700	15316	16189	0	740
-35.954	-26.001	15303	16214	0	740
-36.026	-26.866	15290	16224	0	740
-34.728	-27.010	15276	16229	0	740
-34.511	-25.316	15268	16275	0	740
-35.449	-25.207	15263	16367	0	740
-34.764	-25.496	15259	16478	0	740
-29.354	-21.709	15268	16628	0	740
-21.096	-14.713	15279	16821	0	740
-14.064	-7.717	15293	17040	0	740
-10.746	-4.544	15316	17256	0	740
-12.477	-7.068	15338	17480	0	740
-22.539	-14.966	15372	17740	0	740
-31.158	-28.056	15412	18043	0	740
-37.973	-36.423	15460	18368	0	740
-39.163	-36.314	15509	18679	0	740
-36.459	-32.744	15566	18969	0	740
-32.564	-25.965	15626	19259	0	740
-31.266	-23.188	15694	19554	0	740
-31.013	-24.666	15771	19862	0	740
-30.148	-27.696	15851	20190	0	740
-26.578	-27.047	15936	20501	0	740
-24.162	-25.063	16019	20714	0	740
-23.512	-22.322	16096	20814	0	740
-19.293	-18.608	16173	20847	0	740
-17.129	-15.831	16251	20870	0	740
-13.271	-11.828	16335	20890	0	740
-12.477	-11.540	16412	20895	0	740
-17.779	-15.867	16499	20872	0	740
-22.358	-22.827	16577	20806	0	740
-24.919	-25.171	16658	20707	0	740
-25.820	-27.551	16733	20574	0	740
-28.597	-27.587	16805	20396	1	732
-29.643	-28.417	16875	20162	0	732
-31.879	-29.571	16938	19875	0	732
-27.696	-23.657	16994	19546	0	732
-19.329	-14.245	17045	19200	0	732
-11.179	-7.212	17092	18829	0	732
-13.740	-7.321	17132	18424	0	732
-23.080	-17.021	17164	18002	0	732
-33.970	-27.876	17196	17582	0	732
-41.616	-33.177	17222	17185	0	732
-40.317	-30.761	17249	16834	0	732
-30.220	-23.296	17273	16511	0	732
-20.195	-12.153	17292	16186	0	732
-12.297	-7.357	17300	15850	0	732
-12.189	-6.996	17313	15527	0	732
-13.704	-12.153	17321	15239	0	732
-18.788	-14.533	17323	14980	0	732
-17.887	-16.192	17326	14738	0	732
-18.392	-12.622	17326	14524	0	732
-15.038	-10.314	17323	14344	0	732
-13.559	-7.717	17318	14183	0	732
-13.956	-7.501	17315	14046	0	732
-13.054	-7.429	17305	13932	0	732
-14.749	-8.475	17297	13832	0	732
-15.326	-11.287	17286	13748	0	732
-17.021	-13.523	17270	13677	0	732
-17.706	-13.776	17257	13644	0	732
-20.483	-14.245	17249	13672	0	732
-21.854	-12.910	17241	13746	0	732
-27.660	-19.185	17228	13809	0	732
-32.564	-24.017	17210	13830	0	732
-32.600	-27.660	17188	13815	0	732
-29.463	-24.630	17166	13797	0	732
-20.736	-15.398	17146	13807	0	732
-12.982	-7.609	17117	13840	0	732
-8.042	-2.957	17092	13863	0	732
-7.465	-4.219	17061	13858	0	732
-9.953	-8.511	17029	13855	0	732
-12.369	-8.835	17002	13886	0	732
-11.648	-7.032	16972	13947	0	732
-9.160	-3.823	16944	14023	0	732
-7.717	-3.859	16914	14115	0	732
-8.258	-9.773	16890	14227	0	732
-10.999	-17.562	16866	14351	0	732
-20.447	-26.289	16840	14471	0	732
-22.575	-28.922	16813	14578	0	732
-23.080	-24.017	16787	14692	0	732
-19.798	-17.454	16768	14830	0	732
-19.221	-15.723	16747	15000	0	732
-25.027	-18.788	16733	15201	0	732
-29.246	-25.748	16725	15420	0	732
-33.466	-29.030	16714	15629	0	732
-28.994	-24.630	16706	15815	0	732
-22.070	-18.356	16696	15985	0	732
-16.985	-14.064	16688	16158	0	732
-21.529	-20.087	16683	16326	0	732
-29.859	-28.958	16680	16467	0	732
-35.665	-34.836	16674	16597	0	732
-37.108	-33.898	16672	16702	0	732
-30.400	-27.047	16661	16760	0	732
-24.342	-21.637	16656	16791	0	732
-22.755	-20.159	16656	16877	0	732
-25.712	-22.755	16658	17025	0	732
-27.047	-26.974	16664	17165	0	732
-25.460	-23.512	16667	17251	0	732
-23.585	-19.726	16669	17279	0	732
-22.250	-19.906	16666	17277	0	732
-25.279	-20.159	16666	17259	0	732
-27.515	-23.080	16661	17226	0	732
-21.890	-18.536	16656	17160	0	732
-10.710	-8.943	16643	17055	0	732
2.200	4.724	16635	16964	0	732
9.376	14.028	16632	16905	0	732
10.422	14.497	16625	16864	0	732
4.508	11.035	16617	16811	0	732
-5.986	0.974	16608	16732	0	732
-13.668	-7.429	16597	16638	0	732
-11.540	-7.465	16587	16562	0	732
1.082	4.652	16584	16518	0	732
22.791	27.732	16573	16490	0	732
44.681	48.864	16568	16462	0	732
50.775	53.300	16561	16432	0	732
36.278	38.550	16552	16394	0	732
14.713	13.956	16545	16357	0	732
-2.308	-4.075	16533	16313	0	732
0.829	1.298	16520	16245	0	732
22.863	22.250	16505	16143	0	732
47.494	46.268	16483	16023	0	732
59.502	56.040	16465	15906	0	732
50.992	49.802	16443	15804	0	732
36.747	33.249	16420	15720	0	732
25.316	24.198	16401	15652	0	732
30.545	30.076	16380	15583	0	732
46.159	47.782	16352	15489	0	732
62.459	62.748	16327	15402	0	732
65.921	68.806	16311	15397	0	732
60.837	63.649	16300	15486	0	732
56.293	58.024	16287	15596	0	732
54.273	57.194	16276	15667	0	732
59.142	62.928	16259	15708	0	732
64.876	65.813	16247	15746	0	732
59.971	61.269	16232	15802	0	732
47.386	49.657	16224	15873	0	732
35.016	37.000	16211	15921	0	732
29.643	30.040	16195	15937	0	732
29.030	31.699	16181	15947	0	732
34.872	35.521	16168	15982	0	732
39.524	39.524	16157	16033	0	732
40.426	39.091	16141	16064	0	732
36.134	35.305	16125	16061	0	732
30.761	28.669	16109	16049	0	732
25.965	24.450	16093	16038	0	732
27.479	26.073	16078	16041	0	732
35.269	32.564	16062	16059	0	732
47.854	41.075	16048	16074	0	732
52.687	46.700	16032	16074	0	732
50.379	43.238	16019	16082	0	732
39.272	36.495	16005	16112	0	732
31.626	32.600	15997	16150	0	732
32.059	34.836	15984	16191	0	732
37.252	40.570	15973	16224	0	732
39.235	41.399	15958	16229	0	732
35.160	34.872	15941	16191	0	732
25.063	27.335	15920	16122	0	732
20.664	22.647	15899	16064	0	732
19.365	24.630	15878	16023	0	732
22.467	28.056	15859	15977	0	732
21.926	27.047	15835	15914	0	732
15.146	20.988	15811	15853	0	732
10.422	17.598	15790	15817	0	732
9.773	15.507	15771	15812	0	732
11.937	16.805	15750	15835	0	732
11.828	14.749	15732	15858	0	732
9.701	10.242	15715	15858	0	732
2.777	2.669	15694	15850	0	732
-2.885	-0.397	15675	15855	0	732
-4.904	-0.108	15655	15881	0	732
-3.823	2.164	15643	15911	0	732
-4.472	0.144	15622	15934	0	732
-4.219	-4.219	15606	15957	0	732
-10.422	-11.612	15591	15995	0	732
-19.185	-22.286	15582	16059	0	732
-29.571	-30.833	15567	16133	0	732
-40.353	-41.075	15558	16194	0	732
-48.864	-49.802	15546	16252	0	732
-54.922	-58.348	15542	16331	0	732
-64.623	-67.905	15535	16427	0	732
-76.019	-80.490	15530	16508	0	732
-89.722	-91.345	15516	16523	0	732
-99.459	-98.413	15498	16437	0	732
-100.108	-98.161	15471	16298	0	732
-95.709	-91.489	15452	16204	0	732
-90.191	-88.460	15439	16194	0	732
-89.686	-91.561	15426	16224	0	732
-95.240	-99.351	15418	16288	0	732
-98.918	-101.587	15415	16384	0	732
-91.706	-97.872	38207	15098	0	15319
-43.779	-37.288	16834	14601	0	728
-43.094	-37.757	16816	14713	0	728
-41.003	-36.639	16802	14827	0	728
-39.524	-35.485	16781	14952	0	728
-37.108	-32.348	16765	15079	0	728
-35.197	-30.112	16747	15176	0	728
-32.925	-27.371	16731	15265	0	728
-31.302	-27.010	16728	15438	0	728
-31.879	-26.001	16725	15697	0	728
-33.934	-29.066	16725	15937	0	728
-34.475	-27.804	16717	16084	0	728
-34.151	-27.804	16712	16168	0	728
-32.925	-24.919	16701	16245	0	728
-29.138	-21.854	16698	16336	0	728
-26.974	-17.851	16691	16445	0	728
-27.624	-19.041	16693	16559	0	728
-31.987	-23.693	16690	16640	0	728
-39.199	-33.357	16683	16691	0	728
-47.926	-42.770	16683	16737	0	728
-51.893	-47.205	16682	16793	0	728
-50.054	-45.005	16677	16842	0	728
-47.386	-38.983	16674	16872	0	728
-45.402	-37.108	16672	16875	0	728
-49.838	-41.940	16667	16859	0	728
-56.149	-47.241	16661	16852	0	728
-60.224	-52.110	16661	16859	0	728
-56.149	-48.648	16658	16862	0	728
-50.415	-43.238	16656	16852	0	728
-44.212	-36.675	16653	16842	0	728
-39.163	-34.475	16651	16844	0	728
-35.810	-28.309	16653	16852	0	728
-31.699	-25.099	16653	16859	0	728
-30.977	-25.460	16653	16854	0	728
-35.413	-27.263	16653	16834	0	728
-40.642	-32.780	16650	16798	0	728
-42.842	-30.977	16643	16752	0	728
-35.846	-23.729	16640	16679	0	728
-24.558	-15.146	16627	16577	0	728
-14.353	-8.799	16613	16452	0	728
-12.009	-12.514	16597	16321	0	728
-16.156	-19.077	16579	16189	0	728
-21.818	-23.585	16565	16061	0	728
-26.902	-26.001	16541	15937	0	728
-28.850	-27.587	16521	15812	0	728
-29.246	-27.804	16492	15672	0	728
-27.948	-29.679	16464	15509	0	728
-27.660	-27.696	16435	15359	0	728
-27.479	-27.407	16403	15232	0	728
-28.597	-24.775	16375	15138	0	728
-28.777	-22.972	16344	15074	0	728
-27.155	-21.926	16317	15023	0	728
-27.047	-23.188	16288	14998	0	728
-28.958	-26.686	16264	15005	0	728
-34.692	-29.607	16240	15051	0	728
-41.219	-36.134	16219	15120	0	728
-43.419	-37.180	16200	15199	0	728
-40.101	-32.708	16183	15293	0	728
-33.682	-26.289	16167	15405	0	728
-33.718	-27.263	16155	15535	0	728
-41.652	-36.026	16143	15669	0	728
-56.149	-53.552	16128	15779	0	728
-66.571	-65.489	16112	15850	0	728
-64.984	-64.010	16099	15909	0	728
-56.149	-52.290	16086	15977	0	728
-44.248	-37.144	16075	16069	0	728
-43.815	-36.603	16067	16173	0	728
-51.713	-46.772	16059	16270	0	728
-60.115	-56.293	16043	16323	0	728
-55.355	-55.896	16030	16326	0	728
-44.176	-44.789	16013	16306	0	728
-29.499	-32.023	15995	16280	0	728
-23.801	-23.440	15976	16250	0	728
-23.981	-25.279	15957	16201	0	728
-27.407	-26.614	15931	16120	0	728
-26.686	-24.666	15902	16005	0	728
-23.188	-21.926	15875	15916	0	728
-21.421	-20.952	15852	15873	0	728
-25.712	-24.522	15827	15848	0	728
-33.790	-34.980	15800	15797	0	728
-40.570	-43.419	15771	15725	0	728
-43.960	-45.150	15743	15685	0	728
-42.445	-41.543	15724	15700	0	728
-36.278	-34.511	15708	15766	0	728
-32.239	-28.922	15691	15840	0	728
-31.374	-25.712	15671	15896	0	728
-35.052	-28.633	15660	15965	0	728
-38.731	-32.925	15651	16064	0	728
-40.245	-34.764	15636	16153	0	728
-40.678	-35.810	15623	16217	0	728
-38.550	-32.708	15614	16278	0	728
-36.278	-29.102	15602	16334	0	728
-35.846	-28.128	15594	16384	0	728
-36.387	-27.479	15583	16450	0	728
-37.541	-29.210	15580	16531	0	728
-34.331	-27.984	15572	16602	0	728
-30.905	-21.998	15567	16656	0	728
-25.316	-15.939	15562	16712	0	728
-23.440	-16.012	15562	16775	0	728
-30.905	-20.844	15559	16834	0	728
-40.930	-31.482	15554	16870	0	728
-49.693	-39.091	15551	16882	0	728
-49.044	-39.957	15550	16890	0	728
-43.202	-32.961	15542	16890	0	728
-35.629	-25.352	15542	16892	0	728
-32.420	-22.972	15543	16925	0	728
-34.620	-26.001	15543	16981	0	728
-38.947	-30.725	15543	16987	0	728
-43.455	-35.810	15534	16903	0	728
-44.320	-36.459	15519	16768	0	728
-42.193	-36.711	15506	16643	0	728
-38.803	-34.295	15495	16546	0	728
-33.466	-31.374	15484	16467	0	728
-29.787	-29.174	15466	16379	0	728
-27.515	-28.020	15452	16265	0	728
-26.217	-26.506	15439	16176	0	728
-24.017	-23.621	15429	16168	0	728
-20.087	-21.024	15428	16245	0	728
-16.625	-15.975	15434	16372	0	728
-15.362	-15.543	15444	16521	0	728
-16.697	-16.120	15460	16707	0	728
-19.510	-20.483	15477	16903	0	728
-22.539	-22.034	15501	17091	0	728
-26.542	-24.811	15527	17312	0	728
-28.309	-27.660	15566	17579	0	728
-28.453	-31.626	15607	17887	0	728
-32.203	-32.564	15663	18244	0	728
-35.882	-33.790	15727	18646	0	728
-39.957	-36.098	15800	19060	0	728
-45.366	-38.009	15875	19442	0	728
-52.434	-42.193	15955	19778	0	728
-54.454	-48.756	16035	20096	0	728
-59.322	-51.785	16125	20399	0	728
-61.882	-56.076	16213	20671	0	728
-65.380	-58.817	16304	20882	0	728
-66.462	-61.666	16392	21015	0	728
-62.207	-60.837	16476	21086	0	728
-56.798	-55.175	16563	21099	0	728
-49.982	-50.956	16645	21058	0	728
-49.441	-46.772	16725	20956	0	728
-52.867	-51.316	16800	20801	0	728
-65.994	-58.096	16869	20597	0	728
-72.629	-67.833	16936	20343	1	712
-79.373	-73.098	16996	20032	0	712
-80.707	-76.127	17049	19671	0	712
-78.832	-75.406	17097	19277	0	712
-75.045	-71.403	17137	18872	0	712
-68.662	-66.174	17172	18437	0	712
-61.522	-60.079	17198	17971	0	712
-57.014	-56.726	17228	17536	0	712
-55.860	-53.985	17250	17144	0	712
-55.103	-53.480	17268	16760	0	712
-56.113	-48.684	17284	16382	0	712
-52.831	-46.159	17294	16016	0	712
-51.064	-43.419	17305	15672	0	712
-45.402	-43.058	17313	15372	0	712
-42.842	-42.120	17318	15110	0	712
-38.045	-40.678	17318	14860	0	712
-34.836	-35.449	17310	14593	0	712
-35.088	-32.420	17302	14318	0	712
-36.278	-32.961	17292	14077	0	712
-41.039	-34.980	17284	13916	0	712
-45.150	-41.507	17276	13822	0	712
-47.674	-45.979	17265	13748	0	712
-51.713	-49.333	17252	13687	0	712
-51.965	-50.234	17241	13657	0	712
-54.057	-50.920	17233	13664	0	712
-52.903	-46.304	17225	13710	0	712
-52.434	-42.950	17217	13781	0	712
-50.343	-40.353	17209	13876	0	712
-51.605	-41.471	17198	13962	0	712
-55.788	-46.917	17185	14018	0	712
-58.745	-54.021	17169	14046	0	712
-54.237	-48.684	17145	14054	0	712
-43.924	-36.531	17124	14049	0	712
-29.427	-20.700	17097	14041	0	712
-21.313	-10.783	17068	14026	0	712
-21.132	-9.520	17042	14028	0	712
-25.929	-15.615	17020	14107	0	712
-30.400	-20.880	17005	14265	0	712
-29.174	-20.627	16988	14435	0	712
-24.955	-19.762	16965	14547	0	712
-19.906	-15.002	16946	14614	0	712
-15.038	-9.917	16925	14703	0	712
-10.746	-5.481	16906	14832	0	712
-12.009	-7.681	16885	14954	0	712
-22.503	-17.202	16866	15046	0	712
-33.141	-29.282	16845	15122	0	712
-39.885	-37.865	16826	15211	0	712
-41.940	-37.757	16810	15336	0	712
-35.341	-33.718	16797	15491	0	712
-32.456	-33.357	16787	15659	0	712
-36.675	-39.704	16779	15815	0	712
-43.599	-45.907	16770	15960	0	712
-45.943	-46.917	16763	16102	0	712
-39.560	-39.055	16762	16245	0	712
-31.122	-27.515	16754	16377	0	712
-24.414	-21.745	16749	16488	0	712
-25.929	-24.522	16749	16590	0	712
-37.360	-35.269	16744	16694	0	712
-49.080	-46.232	16747	16808	0	712
-57.050	-54.670	16749	16925	0	712
-58.997	-54.093	16754	17037	0	712
-51.641	-50.307	16763	17139	0	712
-44.356	-41.868	16763	17213	0	712
-35.629	-32.672	16763	17228	0	712
-29.787	-26.758	16763	17195	0	712
-26.145	-23.260	16755	17142	0	712
-27.227	-22.358	16754	17083	0	712
-29.571	-26.722	16744	17007	0	712
-34.620	-31.266	16731	16900	0	712
-39.019	-33.141	16722	16770	0	712
-36.711	-32.203	16712	16679	0	712
-30.905	-28.092	16709	16656	0	712
-23.657	-20.844	16704	16651	0	712
-22.503	-18.644	16691	16602	0	712
-24.270	-18.608	16683	16523	0	712
-31.013	-22.070	16674	16439	0	712
-36.891	-25.135	16658	16367	0	712
-40.137	-27.732	16645	16273	0	712
-42.770	-33.357	16624	16140	0	712
-49.189	-41.039	16600	15980	0	712
-52.218	-44.969	16577	15848	0	712
-48.071	-44.032	16561	15764	0	712
-40.534	-34.872	16541	15728	0	712
-31.554	-25.532	16525	15710	0	712
-29.354	-20.591	16507	15682	0	712
-36.170	-25.784	16488	15649	0	712
-45.727	-33.321	16472	15631	0	712
-51.244	-39.776	16456	15636	0	712
-50.667	-43.455	16436	15657	0	712
-50.595	-47.638	16420	15662	0	712
-52.578	-52.687	16403	15654	0	712
-57.447	-57.663	16385	15657	0	712
-58.312	-58.312	16372	15680	0	712
-52.398	-52.182	16356	15713	0	712
-47.890	-45.871	16340	15738	0	712
-42.734	-41.976	16320	15753	0	712
-42.661	-39.235	16303	15774	0	712
-41.652	-36.351	16288	15794	0	712
-35.269	-28.886	16269	15799	0	712
-29.138	-22.106	16251	15797	0	712
-29.138	-20.844	16227	15781	0	712
-34.908	-29.030	16207	15753	0	712
-41.003	-37.901	16181	15715	0	712
-41.580	-41.580	16157	15675	0	712
-35.629	-37.757	16134	15657	0	712
-27.047	-30.112	16115	15685	0	712
-24.919	-25.532	16099	15746	0	712
-27.876	-26.794	16078	15794	0	712
-31.446	-28.092	16062	15825	0	712
-33.466	-30.364	16051	15883	0	712
-33.033	-30.436	16035	15970	0	712
-33.466	-31.662	16022	16033	0	712
-33.682	-33.466	16006	16069	0	712
-34.367	-34.656	15989	16094	0	712
-33.393	-34.547	15976	16120	0	712
-33.934	-34.692	15960	16150	0	712
-37.288	-37.468	15950	16204	0	712
-42.553	-43.094	15941	16270	0	712
-48.215	-46.195	15928	16318	0	712
-49.802	-47.494	15917	16341	0	712
-46.953	-46.376	15904	16364	0	712
-47.602	-46.159	15893	16394	0	712
-50.198	-48.684	15883	16432	0	712
-50.775	-49.008	15875	16447	0	712
-51.388	-49.513	15859	16447	0	712
-46.268	-45.366	15848	16450	0	712
-41.652	-39.957	15838	16460	0	712
-36.170	-34.079	15827	16467	0	712
-30.797	-25.279	15816	16462	0	712
-27.010	-18.644	15803	16442	0	712
-24.630	-13.740	15788	16404	0	712
-28.814	-18.031	15768	16323	0	712
-37.216	-25.243	15743	16206	0	712
-40.534	-32.239	15724	16105	0	712
-35.197	-34.439	15702	16038	0	712
-24.270	-27.804	15679	15990	0	712
-15.831	-23.296	15663	15954	0	712
-15.074	-22.647	15644	15942	0	712
-24.630	-29.318	15631	15975	0	712
-33.249	-36.711	15622	16033	0	712
-36.783	-39.380	15607	16077	0	712
-35.918	-35.557	15596	16100	0	712
-33.249	-33.538	15583	16107	0	712
-35.485	-34.656	15570	16120	0	712
-41.147	-43.671	15551	16128	0	712
-47.566	-51.965	15530	16077	0	712
-50.667	-56.834	15503	15947	0	712
-44.428	-50.234	15476	15822	0	712
-39.452	-42.986	15453	15779	0	712
-35.774	-36.639	15437	15812	0	712
-38.767	-37.396	15428	15898	0	712
-46.087	-41.616	15418	16000	0	712
-48.287	-43.310	15412	16087	0	712
-44.717	-40.858	15399	16166	0	712
-36.351	-31.987	15396	16262	0	712
-30.581	-27.443	15402	16396	0	712
-33.033	-31.230	15405	16587	0	712
-41.940	-39.091	15421	16829	0	712
-44.392	-44.645	15444	17106	0	712
-41.616	-43.599	15474	17396	0	712
-33.249	-36.891	15508	17694	0	712
-28.922	-31.410	15543	18002	0	712
-31.230	-32.744	15588	18297	0	712
-40.966	-38.442	15636	18577	0	712
-49.513	-43.635	15683	18836	0	712
-50.018	-45.799	15734	19073	0	712
-49.044	-44.176	15792	19305	0	712
-45.438	-45.402	15867	19595	0	712
-43.022	-45.402	15942	19938	0	712
-41.832	-44.681	16019	20231	0	712
-40.714	-42.048	16091	20401	0	712
-40.353	-39.560	16165	20488	0	712
-43.851	-39.127	16240	20562	0	712
-47.061	-40.678	16317	20640	0	712
-46.881	-39.344	16395	20712	0	712
-39.055	-33.718	16475	20740	0	712
-28.489	-23.909	16549	20704	0	712
-19.041	-15.795	16627	20630	0	712
-13.343	-15.471	16701	20529	0	712
-15.903	-16.156	16770	20373	0	712
-18.897	-20.447	16835	20162	1	720
-22.178	-20.159	16893	19903	0	720
-20.231	-17.238	16948	19613	0	720
-19.005	-17.346	17004	19320	0	720
-21.132	-17.238	17057	19043	0	720
-21.745	-22.935	17105	18758	0	720
-28.164	-27.984	17145	18406	0	720
-31.879	-31.951	17169	17953	0	720
-30.364	-31.518	17185	17442	0	720
-26.902	-27.840	17204	16979	0	720
-24.053	-25.207	17218	16595	0	720
-25.243	-23.621	17230	16247	0	720
-26.037	-23.368	17242	15911	0	720
-26.397	-24.630	17250	15601	0	720
-23.332	-22.034	17254	15306	0	720
-19.113	-21.168	17252	15010	0	720
-16.949	-22.719	17252	14746	0	720
-23.512	-26.073	17250	14550	0	720
-29.968	-35.810	17246	14384	0	720
-35.485	-41.435	17238	14196	0	720
-36.098	-43.563	17222	13998	0	720
-33.213	-40.822	17210	13845	0	720
-29.751	-36.495	17201	13756	0	720
-28.741	-32.312	17185	13700	0	720
-27.227	-30.256	17170	13657	0	720
-27.948	-31.230	17154	13631	0	720
-26.109	-31.843	17142	13636	0	720
-23.693	-30.220	17129	13677	0	720
-21.060	-27.840	17114	13753	0	720
-15.903	-24.089	17100	13837	0	720
-11.864	-17.959	17085	13904	0	720
-8.619	-13.776	17068	13967	0	720
-6.383	-9.088	17052	14044	0	720
-6.635	-7.970	17041	14138	0	720
-9.196	-6.347	17018	14222	0	720
-11.937	-8.186	16996	14273	0	720
-16.985	-11.179	16972	14311	0	720
-23.801	-17.526	16954	14377	0	720
-29.102	-25.207	16938	14494	0	720
-30.400	-29.787	16920	14649	0	720
-29.859	-32.528	16908	14797	0	720
-29.895	-34.151	16892	14926	0	720
-28.958	-34.006	16875	15049	0	720
-28.958	-32.925	16866	15178	0	720
-28.922	-27.479	16851	15323	0	720
-25.099	-22.467	16842	15458	0	720
-21.998	-17.166	16829	15580	0	720
-18.680	-15.435	16819	15700	0	720
-18.933	-20.195	16813	15820	0	720
-23.188	-25.388	16802	15934	0	720
-27.696	-32.780	16792	16031	0	720
-33.502	-38.875	16779	16089	0	720
-35.557	-41.724	16762	16092	0	720
-31.771	-40.678	16741	16044	0	720
-26.433	-36.819	16717	15985	0	720
-24.847	-34.367	16699	15965	0	720
-29.210	-36.783	16683	15995	0	720
-38.082	-44.284	16667	16049	0	720
-46.051	-47.638	16653	16084	0	720
-44.104	-45.727	16640	16107	0	720
-34.980	-38.767	16634	16183	0	720
-23.621	-29.138	16632	16326	0	720
-16.805	-24.847	16634	16488	0	720
-17.418	-27.407	16632	16623	0	720
-27.010	-35.269	16629	16704	0	720
-35.593	-43.347	16627	16755	0	720
-40.894	-49.766	16627	16806	0	720
-47.710	-57.880	16624	16857	0	720
-52.614	-62.099	16621	16882	0	720
-55.608	-66.246	16616	16862	0	720
-53.552	-64.515	16609	16819	0	720
-46.953	-58.961	16603	16791	0	720
-37.468	-50.343	16601	16796	0	720
-36.675	-50.920	16597	16814	0	720
-43.851	-56.473	16593	16816	0	720
-53.264	-65.813	16589	16796	0	720
-57.627	-67.400	16585	16768	0	720
-47.638	-57.591	16579	16740	0	720
-32.997	-38.983	16577	16712	0	720
-16.156	-21.926	16569	16668	0	720
-9.232	-14.821	16563	16607	0	720
-8.006	-13.740	16552	16539	0	720
-10.025	-18.860	16541	16470	0	720
-9.232	-16.012	16529	16394	0	720
-3.101	-11.684	16517	16301	0	720
1.298	-5.770	16497	16191	0	720
3.210	-2.560	16480	16079	0	720
1.334	-3.570	16457	15942	0	720
-2.128	-4.039	16428	15789	0	720
-5.878	-6.455	16408	15664	0	720
-8.330	-7.970	16385	15591	0	720
-8.511	-8.979	16365	15547	0	720
-5.986	-6.167	16341	15494	0	720
-0.252	-0.036	16317	15425	0	720
1.947	2.957	16296	15410	0	720
-4.400	-4.472	16285	15474	0	720
-20.123	-20.627	16272	15570	0	720
-37.396	-39.272	16261	15654	0	720
-43.815	-45.582	16245	15708	0	720
-37.324	-38.983	16232	15743	0	720
-24.955	-24.630	16219	15779	0	720
-13.271	-16.949	16205	15832	0	720
-14.569	-16.769	16192	15893	0	720
-25.532	-27.912	16183	15949	0	720
-40.281	-41.760	16168	15990	0	720
-51.461	-51.749	16155	16023	0	720
-54.309	-54.201	16144	16064	0	720
-44.933	-43.743	16131	16107	0	720
-29.391	-28.525	16120	16128	0	720
-17.057	-16.877	16102	16122	0	720
-13.595	-11.179	16086	16110	0	720
-16.949	-16.156	16069	16074	0	720
-23.512	-20.411	16046	16018	0	720
-24.594	-23.188	16027	15960	0	720
-22.142	-19.293	16003	15916	0	720
-18.175	-17.166	15984	15893	0	720
-15.759	-14.858	15965	15871	0	720
-14.713	-14.425	15941	15850	0	720
-12.694	-11.287	15920	15837	0	720
-12.369	-12.586	15901	15832	0	720
-18.356	-17.382	15883	15827	0	720
-25.171	-21.168	15860	15835	0	720
-32.997	-26.001	15844	15850	0	720
-34.583	-27.624	15822	15863	0	720
-33.105	-25.135	15806	15876	0	720
-27.876	-21.781	15790	15909	0	720
-25.820	-21.637	15774	15944	0	720
-25.604	-23.044	15751	15952	0	720
-25.099	-22.070	15732	15934	0	720
-24.234	-23.044	15710	15919	0	720
-19.798	-19.005	15691	15919	0	720
-16.589	-14.533	15668	15916	0	720
-12.766	-10.422	15646	15888	0	720
-15.687	-13.199	15626	15873	0	720
-20.123	-17.779	15606	15896	0	720
-24.125	-21.962	15590	15942	0	720
-22.431	-19.221	15575	15995	0	720
-14.966	-11.648	15562	16044	0	720
-3.318	-1.551	15546	16094	0	720
0.577	3.282	15535	16171	0	720
2.524	3.210	15530	16270	0	720
-0.144	0.793	15524	16384	0	720
-3.714	-1.262	15518	16480	0	720
-1.010	0.325	15516	16559	0	720
2.416	4.616	15509	16630	0	720
10.314	12.261	15508	16699	0	720
20.591	22.935	15503	16755	0	720
28.741	30.364	15495	16775	0	720
36.423	35.882	15487	16768	0	720
35.954	31.987	15479	16750	0	720
29.787	26.289	15471	16737	0	720
25.171	23.873	15463	16717	0	720
27.047	28.309	15453	16686	0	720
37.649	39.560	15444	16646	0	720
52.001	52.362	15434	16592	0	720
60.765	57.627	15415	16506	0	720
60.079	56.798	15404	16424	0	720
50.198	48.287	15399	16432	0	720
39.668	42.842	15397	16513	0	720
33.538	39.740	15394	16567	0	720
32.853	38.478	15386	16551	0	720
35.233	40.786	15383	16546	0	720
37.757	41.796	15391	16628	0	720
41.039	44.933	15402	16801	0	720
42.157	47.061	15428	17050	0	720
42.842	46.953	15458	17338	0	720
41.219	43.851	15498	17640	0	720
40.786	41.940	15542	17974	0	720
40.750	42.697	15598	18343	0	720
42.878	45.727	15662	18735	0	720
41.075	45.582	15731	19132	0	720
37.973	41.075	15800	19490	0	720
28.525	28.453	15870	19768	0	720
19.762	19.510	15941	19971	0	720
17.310	16.264	16016	20170	0	720
16.372	18.464	16096	20368	0	720
16.228	16.949	16175	20526	0	720
10.386	12.874	16255	20625	0	720
4.796	5.265	16328	20671	0	720
-1.226	-1.983	16404	20668	0	720
-2.596	-3.859	16475	20618	0	720
-0.325	-2.741	16549	20506	0	720
-1.983	-3.137	16609	20330	0	720
-7.248	-6.635	16664	20078	1	732
-18.824	-16.156	16717	19752	0	732
-31.843	-28.381	16762	19409	0	732
-49.189	-47.999	16810	19106	0	732
-66.390	-65.777	16856	18831	0	732
-80.887	-85.575	16893	18511	0	732
-88.821	-95.132	16924	18129	0	732
-92.715	-99.171	16948	17732	0	732
-91.922	-99.351	16973	17358	0	732
-90.948	-97.295	16992	17002	0	732
-90.624	-94.266	17005	16638	0	732
-87.559	-91.922	17018	16280	0	732
-81.969	-87.234	17026	15952	0	732
-81.067	-87.667	17029	15649	0	732
-81.680	-86.837	17034	15374	0	732
-84.241	-89.542	17042	15155	0	732
-85.070	-85.503	17044	14982	0	732
-78.723	-78.940	17045	14825	0	732
-71.295	-72.845	17045	14677	0	732
-69.492	-73.098	17044	14545	0	732
-73.242	-79.950	17041	14402	0	732
-82.330	-85.792	17026	14250	0	732
-84.061	-86.477	17013	14122	0	732
-81.140	-77.822	17004	14049	0	732
-73.026	-70.321	16997	14031	0	732
-69.708	-67.003	16989	14061	0	732
-72.088	-71.944	16984	14112	0	732
-76.451	-79.300	16976	14150	0	732
-80.058	-84.025	16964	14181	0	732
-75.261	-82.979	16954	14217	0	732
-67.869	-76.776	16941	14265	0	732
-66.174	-75.442	16930	14318	0	732
-70.862	-78.471	16914	14367	0	732
-79.625	-85.972	16901	14405	0	732
-83.592	-88.063	16882	14440	0	732
-81.103	-84.421	16866	14481	0	732
-70.646	-73.422	16850	14552	0	732
-61.125	-63.794	16842	14682	0	732
-60.151	-61.125	16829	14835	0	732
-57.050	-60.007	16813	14926	0	732
-54.273	-55.499	16795	14942	0	732
-43.996	-46.881	16771	14937	0	732
-34.944	-35.124	16752	14954	0	732
-31.879	-30.869	16731	15013	0	732
-36.928	-34.872	16717	15110	0	732
-45.005	-42.734	16701	15232	0	732
-49.585	-45.150	16691	15357	0	732
-46.268	-43.960	16685	15491	0	732
-38.334	-35.485	16675	15649	0	732
-32.564	-31.158	16674	15807	0	732
-31.843	-32.816	16666	15937	0	732
-37.613	-38.586	16659	16031	0	732
-43.202	-45.474	16650	16107	0	732
-47.313	-49.549	16640	16171	0	732
-47.386	-47.782	16629	16217	0	732
-45.402	-45.871	16619	16252	0	732
-46.268	-44.068	16611	16293	0	732
-47.602	-44.320	16603	16344	0	732
-47.962	-46.520	16597	16396	0	732
-50.090	-50.307	16593	16473	0	732
-50.775	-53.624	16593	16559	0	732
-54.093	-57.880	16592	16620	0	732
-51.641	-58.529	16584	16640	0	732
-50.631	-55.752	16571	16615	0	732
-46.556	-51.533	16560	16562	0	732
-43.058	-47.458	16549	16511	0	732
-42.770	-44.284	16537	16467	0	732
-43.347	-43.238	16523	16422	0	732
-38.911	-37.865	16512	16374	0	732
-30.869	-30.941	16491	16290	0	732
-25.027	-25.712	16476	16204	0	732
-21.457	-24.306	16465	16196	0	732
-23.404	-26.794	16460	16260	0	732
-28.958	-34.800	16456	16311	0	732
-34.547	-39.993	16440	16290	0	732
-38.478	-43.202	16425	16229	0	732
-41.471	-43.671	16411	16173	0	732
-42.697	-42.481	16400	16153	0	732
-42.661	-43.058	16388	16166	0	732
-41.760	-43.635	16381	16186	0	732
-42.697	-44.284	16372	16196	0	732
-43.274	-48.972	16365	16219	0	732
-48.467	-53.264	16357	16265	0	732
-55.824	-61.450	16351	16306	0	732
-64.803	-71.186	16348	16331	0	732
-70.537	-76.560	16336	16339	0	732
-71.475	-75.009	16327	16339	0	732
-69.636	-71.295	16320	16344	0	732
-63.902	-67.256	16317	16372	0	732
-58.168	-60.837	16311	16406	0	732
-50.559	-52.254	16300	16396	0	732
-40.173	-42.337	16279	16285	0	732
-28.777	-30.508	16255	16115	0	732
-20.087	-23.296	16235	15990	0	732
-17.959	-21.637	16216	15932	0	732
-19.113	-22.863	16197	15881	0	732
-15.903	-19.293	16176	15830	0	732
-14.389	-16.589	16160	15797	0	732
-12.550	-12.153	16143	15769	0	732
-14.172	-13.776	16120	15736	0	732
-21.204	-15.759	16099	15697	0	732
-28.164	-24.450	16078	15669	0	732
-35.160	-31.951	16056	15639	0	732
-40.029	-38.586	16027	15575	0	732
-40.930	-40.317	16000	15496	0	732
-38.803	-38.947	15976	15446	0	732
-34.511	-33.862	15950	15435	0	732
-31.843	-32.636	15925	15435	0	732
-36.314	-36.783	15894	15402	0	732
-44.825	-46.340	15867	15349	0	732
-52.831	-51.533	15843	15334	0	732
-51.280	-47.313	15819	15384	0	732
-47.818	-42.012	15804	15491	0	732
-43.635	-37.649	15787	15611	0	732
-44.681	-40.714	15774	15720	0	732
-50.559	-47.674	15764	15843	0	732
-50.126	-51.965	15751	15982	0	732
-42.553	-42.697	15747	16115	0	732
-30.256	-27.083	15735	16222	0	732
-19.582	-15.651	15727	16301	0	732
-16.877	-10.314	15718	16367	0	732
-17.346	-12.153	15711	16439	0	732
-20.483	-16.192	15703	16531	0	732
-17.562	-14.281	15699	16610	0	732
-10.458	-7.681	15687	16633	0	732
-0.721	1.875	15670	16574	0	732
7.104	8.186	15651	16470	0	732
8.294	9.520	15636	16409	0	732
6.094	6.239	15620	16406	0	732
1.406	3.390	15607	16414	0	732
0.613	5.337	15598	16422	0	732
10.278	15.759	15586	16437	0	732
25.388	33.790	15578	16452	0	732
42.337	51.208	15566	16467	0	732
51.785	60.584	15559	16480	0	732
55.860	60.620	15550	16480	0	732
51.280	55.103	15535	16470	0	732
45.474	46.051	15524	16437	0	732
43.671	44.753	15506	16377	0	732
41.616	45.078	15490	16293	0	732
38.983	43.130	15471	16232	0	732
33.934	39.344	15455	16194	0	732
28.020	32.023	15436	16138	0	732
26.289	26.542	15415	16056	0	732
28.056	26.433	15396	15993	0	732
32.312	27.299	15378	15965	0	732
30.617	27.660	15364	15972	0	732
23.945	23.404	15349	16008	0	732
19.041	19.113	15341	16054	0	732
19.257	18.860	15333	16105	0	732
27.371	25.496	15325	16178	0	732
39.127	33.502	15324	16283	0	732
44.501	37.000	15325	16401	0	732
42.517	34.764	15325	16531	0	732
36.928	29.427	15333	16668	0	732
32.239	23.801	15343	16836	0	732
31.807	25.279	15367	17060	0	732
34.043	28.237	15391	17325	0	732
34.656	28.417	15423	17605	0	732
31.410	25.604	15463	17895	0	732
24.089	19.618	15511	18213	0	732
20.267	15.507	15564	18557	0	732
16.408	13.631	15623	18913	0	732
17.129	16.480	15692	19269	0	732
16.949	15.903	15763	19613	0	732
17.418	16.985	15836	19918	0	732
14.641	12.550	15917	20180	0	732
11.468	7.898	15992	20401	0	732
6.635	3.137	16072	20569	0	732
1.911	-0.541	16149	20679	0	732
2.200	-0.252	16221	20724	0	732
6.275	2.164	16292	20681	0	732
8.006	4.940	16359	20574	0	732
6.527	1.515	16432	20488	0	732
-2.164	-5.950	16499	20417	0	732
-14.858	-15.326	16563	20282	1	700
-22.863	-22.250	16621	20040	0	700
-25.099	-24.811	16672	19727	0	700
-23.476	-23.765	16720	19396	0	700
-25.568	-27.587	16755	19040	0	700
-35.124	-36.928	16792	18648	0	700
-52.074	-52.723	16824	18274	0	700
-69.023	-67.797	16856	17933	0	700
-80.130	-80.527	16884	17600	0	700
-80.454	-82.149	16912	17287	0	700
-71.908	-75.514	16933	16992	0	700
-62.748	-64.623	16957	16702	0	700
-58.565	-59.106	16973	16411	0	700
-61.666	-61.342	16984	16117	0	700
-76.199	-75.694	16988	15774	0	700
-93.545	-95.673	16981	15405	0	700
-108.042	-108.439	16981	15097	0	700
-112.081	-112.658	16976	14850	0	700
-107.393	-106.167	16965	14608	0	700
-99.603	-99.098	16948	14318	0	700
-93.509	-94.266	16928	14016	0	700
-93.761	-94.122	16906	13797	0	700
-93.365	-94.879	16890	13677	0	700
-90.624	-91.381	16875	13626	0	700
-89.903	-87.811	16861	13624	0	700
-88.388	-87.955	16850	13652	0	700
-87.847	-85.431	16843	13725	0	700
-83.556	-81.825	16842	13876	0	700
-75.442	-75.081	16840	14059	0	700
-67.364	-68.518	16829	14173	0	700
-66.607	-66.859	16813	14204	0	700
-70.105	-71.331	16795	14206	0	700
-73.927	-75.694	16778	14219	0	700
-73.783	-76.740	16762	14265	0	700
-73.963	-74.721	16741	14334	0	700
-69.852	-69.960	16723	14390	0	700
-67.833	-64.515	16698	14415	0	700
-61.305	-59.142	16675	14446	0	700
-50.090	-51.172	16653	14509	0	700
-44.645	-48.972	16635	14601	0	700
-43.166	-49.369	16617	14703	0	700
-49.693	-54.670	16597	14794	0	700
-54.922	-58.457	16579	14896	0	700
-56.581	-58.997	16565	15038	0	700
-54.995	-55.499	16557	15211	0	700
-48.756	-49.116	16547	15390	0	700
-45.871	-45.546	16539	15537	0	700
-46.340	-45.041	16525	15657	0	700
-48.179	-48.395	16520	15781	0	700
-54.562	-53.588	16517	15952	0	700
-54.418	-55.247	16517	16148	0	700
-52.326	-54.850	16517	16329	0	700
-45.763	-48.972	16520	16478	0	700
-41.940	-46.087	16523	16618	0	700
-47.025	-49.838	16523	16740	0	700
-55.427	-59.394	16525	16829	0	700
-65.885	-70.609	16528	16903	0	700
-67.256	-71.295	16529	16974	0	700
-60.188	-63.000	16531	17025	0	700
-50.487	-49.874	16531	17040	0	700
-41.507	-39.452	16528	17030	0	700
-40.065	-37.360	16528	17022	0	700
-46.087	-45.546	16528	17012	0	700
-53.985	-54.995	16521	16974	0	700
-58.889	-58.276	16517	16908	0	700
-55.644	-56.870	16509	16839	0	700
-48.467	-45.979	16507	16791	0	700
-36.891	-34.223	16504	16770	0	700
-29.968	-25.893	16504	16770	0	700
-28.056	-23.909	16500	16752	0	700
-29.823	-28.633	16496	16709	0	700
-32.203	-33.105	16497	16679	0	700
-34.115	-34.980	16492	16676	0	700
-32.528	-34.872	16492	16663	0	700
-32.059	-33.429	16488	16610	0	700
-33.069	-33.357	16480	16534	0	700
-35.269	-34.439	16475	16475	0	700
-38.586	-37.432	16467	16447	0	700
-41.003	-40.534	16465	16419	0	700
-42.625	-42.301	16457	16374	0	700
-42.878	-43.238	16444	16301	0	700
-43.743	-45.041	16435	16219	0	700
-45.474	-48.107	16425	16150	0	700
-50.631	-52.506	16417	16115	0	700
-53.264	-56.401	16408	16100	0	700
-56.726	-57.555	16396	16064	0	700
-52.182	-54.922	16376	15954	0	700
-45.005	-46.195	16356	15792	0	700
-35.377	-37.324	16333	15672	0	700
-28.453	-30.761	16316	15614	0	700
-23.260	-23.981	16295	15560	0	700
-22.286	-24.414	16271	15499	0	700
-23.909	-26.181	16251	15443	0	700
-25.460	-28.958	16229	15395	0	700
-29.246	-30.761	16208	15387	0	700
-32.167	-32.672	16199	15456	0	700
-34.475	-35.233	16191	15583	0	700
-39.199	-41.688	16179	15675	0	700
-46.232	-50.595	16160	15692	0	700
-53.624	-58.781	16143	15675	0	700
-53.913	-59.647	16123	15652	0	700
-45.330	-50.559	16104	15644	0	700
-31.662	-37.505	16088	15669	0	700
-20.591	-24.811	16069	15697	0	700
-16.805	-21.529	16048	15697	0	700
-24.342	-29.210	16029	15675	0	700
-34.006	-39.452	15995	15591	0	700
-39.776	-47.133	15949	15384	0	700
-42.048	-48.972	15901	15122	0	700
-37.072	-45.691	15856	14942	0	700
-30.653	-38.550	15822	14888	0	700
-25.243	-31.987	15790	14926	0	700
-18.824	-27.083	15771	15044	0	700
-16.661	-23.693	15755	15209	0	700
-14.317	-19.329	15735	15382	0	700
-15.795	-17.887	15723	15547	0	700
-16.372	-16.949	15711	15713	0	700
-20.195	-19.654	15707	15896	0	700
-20.880	-24.162	15699	16089	0	700
-23.188	-29.282	15694	16262	0	700
-20.772	-29.282	15691	16401	0	700
-17.202	-23.909	15687	16534	0	700
-9.268	-12.297	15684	16663	0	700
-2.993	-3.282	15675	16740	0	700
0.505	1.659	15652	16684	0	700
-2.524	-0.288	15620	16480	0	700
-10.746	-8.619	15583	16242	0	700
-16.661	-17.238	15551	16069	0	700
-21.024	-20.447	15527	16005	0	700
-16.985	-20.483	15514	16054	0	700
-13.884	-18.211	15501	16150	0	700
-10.710	-14.136	15485	16199	0	700
-7.898	-10.819	15468	16186	0	700
-7.248	-9.809	15450	16163	0	700
-10.169	-11.973	15434	16178	0	700
-16.264	-18.320	15421	16234	0	700
-26.722	-29.427	15407	16270	0	700
-33.429	-37.901	15386	16250	0	700
-37.360	-40.281	15372	16211	0	700
-30.941	-34.692	15354	16214	0	700
-23.224	-27.119	15346	16265	0	700
-19.582	-21.890	15335	16346	0	700
-17.887	-20.988	15332	16442	0	700
-22.395	-25.640	15330	16539	0	700
-26.614	-30.328	15325	16620	0	700
-28.417	-32.059	15325	16704	0	700
-29.463	-33.754	15327	16803	0	700
-32.131	-35.413	15330	16908	0	700
-33.177	-38.009	15333	16984	0	700
-34.295	-37.865	15333	17040	0	700
-32.816	-38.262	15343	17104	0	700
-30.220	-35.485	15351	17200	0	700
-29.066	-33.069	15367	17322	0	700
-30.581	-33.898	15378	17419	0	700
-34.367	-34.620	15383	17424	0	700
-36.495	-35.160	15380	17345	0	700
-34.980	-33.754	15388	17282	0	700
-32.456	-32.348	15402	17335	0	700
-30.472	-32.239	15428	17498	0	700
-31.158	-32.203	15460	17719	0	700
-31.554	-35.269	15500	17964	0	700
-34.079	-37.216	15542	18198	0	700
-35.737	-38.983	15586	18414	0	700
-37.865	-43.527	15643	18653	0	700
-42.553	-46.159	15700	18925	0	700
-45.907	-47.890	15764	19195	0	700
-44.753	-45.294	15835	19452	0	700
-36.891	-36.495	15909	19709	0	700
-28.056	-26.614	15990	19979	0	700
-19.510	-19.762	16077	20246	0	700
-21.241	-21.313	16165	20470	0	700
-29.030	-28.850	16245	20623	0	700
-37.757	-36.747	16333	20696	0	700
-45.402	-42.589	16411	20719	0	700
-49.116	-45.005	16491	20714	0	700
-46.700	-44.681	16571	20671	0	700
-44.212	-42.012	16648	20572	0	700
-38.226	-39.524	16720	20401	0	700
-34.908	-37.468	16786	20193	1	712
-35.882	-37.000	16851	19971	0	712
-42.842	-42.120	16916	19745	0	712
-48.143	-48.395	16978	19483	0	712
-50.523	-47.061	17025	19160	0	712
-45.150	-42.084	17066	18755	0	712
-35.665	-35.160	17092	18259	0	712
-33.249	-33.249	17114	17719	0	712
-36.495	-39.596	17130	17233	0	712
-43.924	-48.864	17153	16824	0	712
-47.926	-50.775	17169	16465	0	712
-49.044	-50.595	17182	16140	0	712
-46.159	-46.123	17201	15845	0	712
-43.996	-42.878	17210	15573	0	712
-44.032	-42.120	17217	15316	0	712
-40.930	-38.875	17222	15056	0	712
-34.295	-32.672	17218	14781	0	712
-28.525	-29.823	17209	14494	0	712
-27.840	-31.807	17202	14250	0	712
-33.574	-39.524	17193	14064	0	712
-39.055	-43.274	17182	13916	0	712
-39.416	-40.317	17166	13784	0	712
-31.049	-29.174	17150	13647	0	712
-21.926	-17.346	17129	13514	0	712
-16.552	-11.937	17109	13425	0	712
-22.503	-18.788	17090	13392	0	712
-32.023	-27.371	17074	13405	0	712
-40.930	-40.534	17053	13433	0	712
-47.349	-47.530	17033	13451	0	712
-50.847	-52.975	17012	13479	0	712
-52.975	-55.860	16989	13537	0	712
-59.358	-61.882	16968	13606	0	712
-65.777	-66.679	16941	13672	0	712
-70.141	-70.321	16920	13736	0	712
-68.734	-70.069	16896	13840	0	712
-63.036	-62.928	16880	13993	0	712
-49.513	-50.523	16866	14181	0	712
-37.721	-39.740	16853	14382	0	712
-32.095	-33.285	16840	14568	0	712
-28.273	-30.797	16824	14725	0	712
-29.427	-32.492	16811	14881	0	712
-31.338	-34.439	16797	15044	0	712
-35.269	-35.124	16787	15211	0	712
-38.514	-36.603	16776	15364	0	712
-42.806	-38.118	16757	15474	0	712
-42.878	-37.216	16744	15535	0	712
-39.019	-34.295	16725	15601	0	712
-30.977	-28.092	16714	15700	0	712
-23.837	-21.313	16699	15809	0	712
-16.769	-15.795	16690	15914	0	712
-11.937	-9.665	16680	16016	0	712
-8.835	-6.671	16669	16112	0	712
-10.169	-9.881	16661	16206	0	712
-18.103	-16.552	16656	16301	0	712
-25.893	-26.938	16651	16399	0	712
-32.203	-35.269	16645	16501	0	712
-34.944	-38.190	16640	16582	0	712
-32.672	-36.387	16635	16628	0	712
-30.581	-35.124	16627	16663	0	712
-29.931	-36.134	16624	16712	0	712
-32.384	-38.045	16624	16770	0	712
-32.023	-38.514	16624	16839	0	712
-29.499	-35.377	16624	16900	0	712
-24.847	-30.112	16624	16941	0	712
-21.601	-25.352	16624	16979	0	712
-18.860	-24.017	16625	17017	0	712
-23.044	-25.279	16624	17035	0	712
-26.794	-29.102	16624	17020	0	712
-34.620	-34.151	16621	16992	0	712
-39.957	-38.370	16617	16959	0	712
-40.534	-39.812	16617	16936	0	712
-38.009	-38.947	16616	16915	0	712
-32.672	-34.151	16611	16877	0	712
-27.443	-29.823	16605	16806	0	712
-27.083	-30.004	16600	16730	0	712
-31.590	-32.780	16592	16658	0	712
-32.816	-34.692	16579	16564	0	712
-30.040	-30.292	16568	16442	0	712
-20.736	-20.447	16555	16341	0	712
-10.855	-7.681	16544	16262	0	712
-8.943	-6.239	16529	16183	0	712
-21.168	-17.526	16515	16102	0	712
-38.983	-34.944	16500	16026	0	712
-56.293	-54.886	16484	15954	0	712
-62.135	-60.945	16468	15893	0	712
-54.309	-56.257	16451	15827	0	712
-44.356	-42.301	16432	15756	0	712
-31.807	-34.475	16411	15695	0	712
-29.643	-30.004	16400	15664	0	712
-29.535	-32.384	16383	15662	0	712
-32.095	-35.810	16364	15647	0	712
-35.233	-38.262	16348	15603	0	712
-38.262	-39.668	16325	15563	0	712
-40.894	-41.688	16304	15542	0	712
-41.832	-44.681	16279	15499	0	712
-39.235	-44.464	16248	15410	0	712
-34.728	-41.507	16221	15311	0	712
-34.403	-39.632	16195	15262	0	712
-41.039	-45.294	16171	15275	0	712
-48.936	-50.234	16149	15313	0	712
-47.746	-48.612	16126	15354	0	712
-36.206	-37.216	16107	15390	0	712
-19.546	-17.995	16080	15405	0	712
-8.150	-6.635	16048	15364	0	712
-12.081	-9.268	16021	15306	0	712
-26.866	-24.811	15992	15306	0	712
-39.272	-39.199	15971	15372	0	712
-41.291	-43.707	15952	15461	0	712
-36.711	-38.767	15934	15568	0	712
-29.246	-30.472	15923	15692	0	712
-25.243	-25.820	15910	15832	0	712
-23.549	-24.630	15896	15957	0	712
-25.496	-25.027	15883	16028	0	712
-21.890	-24.017	15862	16051	0	712
-16.697	-18.969	15844	16074	0	712
-16.228	-18.644	15828	16110	0	712
-17.562	-19.942	15811	16150	0	712
-24.486	-25.784	15798	16201	0	712
-27.732	-30.004	15780	16247	0	712
-27.263	-31.158	15764	16252	0	712
-24.125	-28.345	15747	16237	0	712
-21.132	-27.263	15739	16283	0	712
-22.070	-29.931	15727	16394	0	712
-27.191	-32.636	15723	16495	0	712
-31.626	-35.954	15711	16549	0	712
-32.925	-36.170	15702	16564	0	712
-31.843	-31.807	15692	16569	0	712
-26.181	-27.732	15679	16574	0	712
-21.168	-25.929	15663	16551	0	712
-19.041	-21.818	15646	16498	0	712
-17.310	-22.972	15634	16460	0	712
-20.844	-20.988	15623	16465	0	712
-17.418	-16.408	15614	16490	0	712
-12.261	-9.196	15607	16526	0	712
-3.823	-0.613	15598	16549	0	712
0.685	3.462	15586	16541	0	712
-2.957	-1.226	15578	16521	0	712
-11.792	-14.605	15570	16523	0	712
-22.034	-25.135	15564	16564	0	712
-27.010	-31.915	15562	16618	0	712
-25.099	-28.958	15551	16635	0	712
-20.700	-21.204	15548	16615	0	712
-17.779	-17.093	15538	16587	0	712
-21.529	-23.044	15532	16577	0	712
-30.328	-32.600	15522	16577	0	712
-34.764	-39.488	15519	16577	0	712
-34.872	-42.193	15511	16574	0	712
-32.925	-38.478	15506	16567	0	712
-33.466	-39.127	15495	16521	0	712
-41.183	-46.159	15479	16445	0	712
-54.454	-56.437	15469	16382	0	712
-59.286	-61.774	15460	16351	0	712
-56.545	-58.060	15452	16336	0	712
-47.422	-49.477	15442	16321	0	712
-43.887	-46.736	15436	16318	0	712
-49.621	-51.208	15429	16351	0	712
-58.889	-59.899	15429	16386	0	712
-67.220	-69.023	15428	16437	0	712
-68.987	-70.105	15437	16557	0	712
-63.000	-63.794	15453	16752	0	712
-55.788	-56.149	15479	17017	0	712
-47.349	-44.861	15519	17361	0	712
-39.740	-34.583	15570	17765	0	712
-29.823	-23.801	15623	18182	0	712
-21.349	-16.192	15683	18577	0	712
-20.411	-16.625	15751	18964	0	712
-22.142	-21.673	15824	19358	0	712
-28.453	-31.085	15907	19750	0	712
-33.321	-36.675	15990	20119	0	712
-35.197	-36.351	16077	20437	0	712
-29.931	-31.590	16163	20684	0	712
-25.568	-27.660	16248	20864	0	712
-26.037	-25.784	16333	20976	0	712
-25.027	-25.640	16412	21015	0	712
-27.840	-29.102	16497	21017	0	712
-29.679	-31.085	16577	20997	0	712
-35.305	-39.163	16653	20920	0	712
-44.501	-49.405	16730	20770	0	712
-52.362	-56.653	16797	20574	0	712
-56.221	-57.771	16866	20356	1	716
-51.136	-53.011	16932	20116	0	716
-44.428	-47.133	16988	19826	0	716
-41.652	-45.186	17036	19460	0	716
-45.979	-50.054	17077	19027	0	716
-49.008	-53.516	17116	18590	0	716
-47.494	-48.539	17146	18177	0	716
-37.901	-38.731	17177	17763	0	716
-26.073	-26.361	17194	17315	0	716
-20.591	-19.942	17212	16852	0	716
-19.726	-20.411	17218	16414	0	716
-22.683	-26.001	17228	16026	0	716
-24.522	-27.912	17241	15690	0	716
-23.512	-28.092	17242	15384	0	716
-24.053	-27.587	17246	15107	0	716
-23.621	-28.273	17252	14878	0	716
-22.395	-28.633	17254	14703	0	716
-21.926	-26.433	17260	14550	0	716
-18.788	-23.404	17257	14410	0	716
-19.870	-22.755	17254	14280	0	716
-25.784	-25.496	17252	14171	0	716
-30.941	-30.797	17249	14102	0	716
-36.819	-36.062	17250	14097	0	716
-41.183	-40.353	17249	14125	0	716
-43.779	-41.363	17242	14138	0	716
-48.467	-47.061	17238	14128	0	716
-55.499	-56.113	17228	14128	0	716
-64.912	-66.787	17222	14140	0	716
-71.727	-76.163	17209	14150	0	716
-72.232	-75.875	17194	14140	0	716
-65.994	-67.869	17177	14120	0	716
-54.057	-57.411	17158	14110	0	716
-48.179	-50.667	17137	14117	0	716
-47.133	-54.418	17117	14122	0	716
-51.172	-57.266	17090	14105	0	716
-49.549	-55.391	17058	14049	0	716
-40.317	-44.068	17020	13965	0	716
-31.554	-33.285	16981	13873	0	716
-23.657	-25.856	16940	13802	0	716
-20.808	-23.476	16904	13774	0	716
-22.719	-25.171	16867	13804	0	716
-19.005	-23.008	16832	13873	0	716
-15.615	-20.627	16800	13965	0	716
-11.287	-22.034	16770	14069	0	716
-13.559	-22.719	16741	14189	0	716
-16.444	-24.775	16715	14359	0	716
-18.752	-26.289	16699	14583	0	716
-21.890	-26.758	16682	14820	0	716
-22.322	-26.686	16664	15036	0	716
-21.890	-28.381	16653	15255	0	716
-23.476	-29.354	16645	15496	0	716
-21.926	-26.217	16642	15756	0	716
-17.166	-19.906	16637	16023	0	716
-17.238	-18.320	16640	16273	0	716
-23.008	-22.142	16640	16501	0	716
-38.118	-36.387	16648	16717	0	716
-52.903	-53.372	16651	16925	0	716
-58.709	-59.827	16659	17114	0	716
-50.956	-52.651	16667	17266	0	716
-37.108	-39.344	16672	17389	0	716
-30.184	-30.004	16682	17485	0	716
-30.436	-33.682	16688	17567	0	716
-40.137	-46.015	16693	17638	0	716
-50.090	-53.660	16704	17681	0	716
-47.602	-52.542	16709	17684	0	716
-38.009	-41.580	16712	17671	0	716
-28.056	-30.328	16720	17653	0	716
-22.467	-26.722	16725	17643	0	716
-23.080	-31.302	16733	17630	0	716
-29.030	-37.829	16733	17572	0	716
-31.013	-38.947	16730	17429	0	716
-28.056	-33.790	16715	17216	0	716
-21.673	-25.135	16699	16971	0	716
-17.670	-21.493	16682	16750	0	716
-19.041	-21.313	16666	16562	0	716
-18.860	-25.929	16648	16379	0	716
-19.077	-26.361	16621	16166	0	716
-18.392	-24.306	16595	15934	0	716
-18.103	-24.811	16569	15741	0	716
-19.293	-26.866	16545	15619	0	716
-20.519	-28.453	16529	15552	0	716
-19.978	-27.479	16505	15512	0	716
-14.389	-22.719	16489	15484	0	716
-11.684	-18.211	16472	15468	0	716
-15.218	-21.096	16457	15466	0	716
-25.604	-32.816	16440	15471	0	716
-40.786	-46.556	16420	15479	0	716
-51.461	-56.257	16403	15481	0	716
-53.985	-58.781	16387	15496	0	716
-47.782	-54.165	16373	15535	0	716
-41.075	-46.448	16364	15606	0	716
-39.127	-44.537	16352	15700	0	716
-43.383	-48.612	16344	15792	0	716
-48.756	-53.768	16333	15868	0	716
-53.083	-59.070	16324	15926	0	716
-48.576	-55.860	16311	15972	0	716
-46.412	-53.155	16301	16013	0	716
-42.445	-47.241	16288	16038	0	716
-42.914	-46.051	16276	16056	0	716
-40.029	-44.428	16264	16079	0	716
-36.891	-41.507	16251	16112	0	716
-33.934	-40.642	16245	16166	0	716
-32.889	-40.462	16243	16252	0	716
-31.987	-42.914	16235	16346	0	716
-28.128	-40.353	16224	16374	0	716
-19.257	-32.203	16208	16311	0	716
-5.337	-18.464	16187	16204	0	716
4.400	-7.212	16165	16112	0	716
3.859	-5.554	16149	16044	0	716
-6.419	-15.939	16123	15975	0	716
-21.637	-28.814	16096	15888	0	716
-36.351	-43.455	16070	15779	0	716
-39.885	-44.681	16043	15680	0	716
-32.889	-38.658	16016	15619	0	716
-20.700	-23.260	15997	15596	0	716
-13.559	-16.444	15973	15593	0	716
-15.579	-18.716	15949	15580	0	716
-29.030	-32.744	15925	15563	0	716
-45.366	-49.946	15896	15540	0	716
-56.040	-63.325	15862	15458	0	716
-58.745	-65.380	15822	15316	0	716
-55.247	-62.856	15784	15191	0	716
-55.031	-62.135	15751	15138	0	716
-54.273	-63.686	15723	15148	0	716
-56.473	-64.263	15695	15217	0	716
-52.470	-64.443	15676	15326	0	716
-50.054	-59.250	15659	15446	0	716
-46.700	-57.050	15638	15555	0	716
-49.982	-59.358	15618	15649	0	716
-53.336	-60.765	15604	15748	0	716
-52.434	-60.512	15590	15881	0	716
-44.573	-54.057	15580	16021	0	716
-34.403	-42.481	15566	16150	0	716
-24.847	-34.872	15558	16262	0	716
-22.899	-30.941	15546	16349	0	716
-22.683	-32.312	15535	16427	0	716
-26.109	-35.197	15535	16557	0	716
-32.095	-41.039	15538	16727	0	716
-37.360	-46.700	15534	16864	0	716
-43.996	-54.382	15534	16943	0	716
-48.359	-57.483	15532	17009	0	716
-51.677	-60.151	15538	17099	0	716
-53.372	-61.810	15540	17216	0	716
-58.781	-65.597	15543	17300	0	716
-62.495	-69.275	15543	17307	0	716
-62.820	-70.826	15535	17256	0	716
-58.565	-65.633	15534	17188	0	716
-49.585	-58.709	15526	17124	0	716
-46.448	-55.175	15522	17063	0	716
-49.333	-57.663	15514	16999	0	716
-58.168	-64.912	15503	16920	0	716
-61.378	-66.462	15495	16826	0	716
-54.959	-60.909	15485	16732	0	716
-42.229	-47.313	15471	16635	0	716
-24.739	-34.259	15458	16539	0	716
-14.569	-26.722	15450	16447	0	716
-12.009	-23.873	15434	16374	0	716
-11.323	-23.440	15428	16351	0	716
-10.242	-21.709	15429	16404	0	716
-11.756	-17.129	15436	16518	0	716
-15.254	-20.087	15439	16628	0	716
-20.880	-24.919	15447	16696	0	716
-29.246	-33.574	15458	16783	0	716
-35.305	-41.291	15482	16979	0	716
-41.327	-46.232	15514	17284	0	716
-44.825	-49.549	15559	17633	0	716
-48.395	-54.706	15607	17984	0	716
-48.071	-53.444	15667	18340	0	716
-41.940	-51.280	15726	18707	0	716
-34.475	-42.517	15798	19091	0	716
-30.581	-38.803	15883	19526	0	716
-34.367	-38.586	15971	19981	0	716
-41.832	-45.041	16061	20353	0	716
-51.280	-51.352	16141	20572	0	716
-59.034	-61.594	16215	20661	0	716
-66.931	-66.751	16293	20699	0	716
-72.088	-77.209	16367	20709	0	716
-82.402	-86.477	16436	20679	0	716
-88.749	-91.994	16507	20590	0	716
-86.513	-92.499	16573	20442	0	716
-81.392	-85.972	16635	20246	0	716
-71.367	-79.877	16696	20022	1	724
-65.849	-76.271	16749	19783	0	724
-66.462	-79.084	16800	19506	0	724
-71.150	-81.608	16845	19180	0	724
-75.045	-85.070	16888	18836	0	724
-75.081	-83.448	16930	18511	0	724
-73.206	-79.769	16965	18210	0	724
-72.845	-80.707	17002	17908	0	724
-73.134	-78.471	17033	17585	0	724
-68.842	-70.321	17058	17249	0	724
-62.099	-63.289	17077	16920	0	724
-57.050	-57.843	17100	16613	0	724
-59.214	-59.286	17116	16329	0	724
-67.364	-67.869	17130	16046	0	724
-77.858	-78.904	17138	15771	0	724
-83.375	-82.907	17145	15507	0	724
-79.192	-78.399	17150	15260	0	724
-70.465	-68.987	17148	15026	0	724
-66.426	-62.243	17148	14804	0	724
-67.220	-65.272	17142	14603	0	724
-76.560	-72.449	17130	14410	0	724
-84.962	-85.287	17116	14194	0	724
-89.686	-88.713	17100	13990	0	724
-84.169	-83.988	17090	13883	0	724
-74.035	-73.639	17081	13865	0	724
-66.823	-66.931	17065	13832	0	724
-64.731	-66.030	17042	13741	0	724
-66.715	-67.652	17013	13629	0	724
-67.436	-67.508	16989	13545	0	724
-64.407	-65.705	16960	13496	0	724
-60.007	-57.988	16928	13430	0	724
-55.968	-57.050	16888	13341	0	724
-56.870	-59.178	16856	13288	0	724
-58.781	-61.738	16826	13321	0	724
-54.490	-60.728	16802	13435	0	724
-48.539	-53.408	16778	13606	0	724
-41.652	-47.097	16757	13789	0	724
-42.409	-46.772	16736	13957	0	724
-48.792	-53.768	16714	14115	0	724
-56.257	-59.142	16696	14283	0	724
-60.115	-59.755	16682	14479	0	724
-57.122	-58.096	16664	14680	0	724
-55.175	-54.309	16648	14858	0	724
-55.896	-58.024	16632	15018	0	724
-59.178	-61.810	16619	15194	0	724
-60.945	-61.558	16609	15390	0	724
-58.925	-57.158	16603	15596	0	724
-56.581	-57.086	16597	15802	0	724
-59.611	-58.673	16589	15977	0	724
-63.974	-66.498	16573	16061	0	724
-67.977	-72.629	16560	16079	0	724
-69.239	-72.340	16547	16143	0	724
-64.515	-68.121	16541	16280	0	724
-58.565	-61.378	16541	16439	0	724
-54.959	-57.375	16536	16577	0	724
-52.218	-53.191	16529	16661	0	724
-48.864	-50.126	16528	16714	0	724
-44.969	-44.356	16523	16778	0	724
-42.445	-41.616	16523	16870	0	724
-43.996	-41.507	16525	16964	0	724
-50.379	-48.936	16528	17050	0	724
-56.113	-53.913	16531	17132	0	724
-60.837	-57.014	16539	17205	0	724
-57.158	-52.001	16531	17205	0	724
-52.867	-47.710	16520	17086	0	724
-52.146	-45.835	16505	16905	0	724
-51.965	-48.612	16488	16742	0	724
-58.457	-53.155	16472	16628	0	724
-59.791	-54.382	16460	16559	0	724
-62.135	-56.040	16449	16521	0	724
-64.984	-58.853	16441	16490	0	724
-70.032	-65.417	16432	16455	0	724
-75.911	-73.350	16419	16401	0	724
-79.409	-75.802	16400	16298	0	724
-79.445	-73.458	16383	16168	0	724
-74.107	-66.967	16365	16082	0	724
-67.220	-59.683	16352	16041	0	724
-62.099	-57.050	16336	16010	0	724
-61.774	-58.060	16320	15972	0	724
-67.039	-63.830	16301	15909	0	724
-74.071	-70.970	16285	15855	0	724
-78.507	-73.855	16271	15858	0	724
-74.973	-72.052	16259	15906	0	724
-64.226	-64.479	16255	15967	0	724
-54.814	-56.870	16248	16038	0	724
-47.241	-47.133	16240	16117	0	724
-44.825	-42.553	16239	16191	0	724
-45.366	-40.678	16232	16260	0	724
-46.159	-38.947	16227	16308	0	724
-50.559	-43.960	16221	16334	0	724
-58.565	-54.706	16215	16346	0	724
-66.210	-60.981	16203	16349	0	724
-68.842	-62.856	16197	16344	0	724
-64.948	-55.031	16187	16339	0	724
-50.451	-40.930	16175	16313	0	724
-42.193	-31.302	16163	16273	0	724
-40.101	-31.915	16157	16275	0	724
-46.412	-39.380	16152	16329	0	724
-52.975	-46.953	16149	16384	0	724
-58.817	-53.877	16143	16411	0	724
-58.312	-54.598	16134	16406	0	724
-58.853	-57.375	16126	16394	0	724
-60.945	-57.699	16123	16389	0	724
-60.692	-57.880	16112	16384	0	724
-56.726	-53.119	16101	16359	0	724
-51.136	-46.159	16091	16318	0	724
-45.691	-42.337	16083	16295	0	724
-46.340	-43.960	16077	16303	0	724
-52.110	-49.477	16072	16341	0	724
-54.778	-52.506	16069	16379	0	724
-55.860	-53.805	16061	16384	0	724
-50.198	-46.881	16053	16354	0	724
-42.589	-38.154	16043	16321	0	724
-33.790	-30.220	16035	16301	0	724
-30.148	-24.414	16019	16255	0	724
-31.122	-25.784	16006	16183	0	724
-35.449	-28.741	15995	16128	0	724
-39.849	-33.754	15979	16087	0	724
-41.003	-34.872	15968	16054	0	724
-39.019	-35.413	15955	16036	0	724
-37.072	-32.564	15941	16016	0	724
-38.262	-33.033	15923	15965	0	724
-43.455	-37.901	15899	15868	0	724
-52.398	-46.232	15875	15743	0	724
-61.486	-57.447	15851	15641	0	724
-73.855	-70.285	15827	15583	0	724
-81.248	-79.264	15806	15550	0	724
-81.717	-79.373	15787	15532	0	724
-73.098	-69.564	15759	15512	0	724
-59.250	-56.942	15735	15476	0	724
-49.189	-49.621	15715	15451	0	724
-50.415	-49.910	15691	15443	0	724
-58.096	-57.843	15662	15420	0	724
-65.453	-64.010	15634	15362	0	724
-66.571	-62.856	15602	15301	0	724
-61.558	-57.555	15580	15301	0	724
-54.562	-49.297	15559	15374	0	724
-51.929	-46.015	15543	15481	0	724
-46.159	-40.137	15527	15583	0	724
-38.550	-31.807	15509	15675	0	724
-25.099	-21.385	15498	15769	0	724
-15.507	-12.369	15487	15878	0	724
-13.668	-11.432	15477	16018	0	724
-17.129	-14.425	15471	16173	0	724
-21.601	-21.096	15466	16293	0	724
-20.627	-20.447	15458	16374	0	724
-19.582	-18.969	15453	16437	0	724
-16.877	-16.192	15444	16506	0	724
-23.152	-19.726	15437	16574	0	724
-30.004	-24.558	15429	16625	0	724
-34.764	-29.318	15423	16661	0	724
-36.062	-31.049	15415	16696	0	724
-36.567	-31.482	15413	16735	0	724
-40.281	-34.944	15412	16793	0	724
-46.664	-42.445	15420	16920	0	724
-53.011	-48.900	15429	17086	0	724
-50.847	-47.818	15442	17218	0	724
-42.806	-41.724	15450	17302	0	724
-30.653	-29.859	15463	17396	0	724
-23.152	-20.087	15484	17534	0	724
-25.316	-22.034	15511	17727	0	724
-33.285	-29.499	15546	17971	0	724
-41.832	-38.118	15590	18246	0	724
-43.563	-42.229	15636	18516	0	724
-37.829	-37.505	15691	18786	0	724
-30.653	-30.581	15755	19096	0	724
-24.594	-26.722	15819	19424	0	724
-23.512	-26.433	15888	19696	0	724
-23.873	-28.237	15955	19897	0	724
-23.801	-26.722	16029	20055	0	724
-17.815	-23.657	16099	20193	0	724
-16.877	-19.690	16171	20310	0	724
-18.788	-24.450	16245	20394	0	724
-26.902	-30.905	16316	20419	0	724
-34.511	-36.567	16384	20386	0	724
-36.242	-36.495	16452	20322	0	724
-32.239	-30.797	16520	20251	0	724
-28.814	-30.508	16587	20152	0	724
-33.934	-34.836	16650	19994	1	712
-45.799	-48.612	16707	19773	0	712
-60.115	-61.594	16757	19511	0	712
-66.066	-66.102	16805	19226	0	712
-62.279	-65.092	16848	18918	0	712
-57.122	-59.899	16885	18574	0	712
-52.542	-56.473	16920	18210	0	712
-50.992	-56.040	16944	17836	0	712
-50.487	-55.572	16968	17445	0	712
-51.821	-57.916	16986	17065	0	712
-53.877	-62.063	17010	16763	0	712
-61.414	-68.013	17028	16516	0	712
-66.823	-72.052	17037	16224	0	712
-67.039	-69.311	17042	15843	0	712
-58.781	-60.007	17034	15443	0	712
-47.746	-50.992	17026	15089	0	712
-39.308	-42.301	17020	14797	0	712
-33.141	-37.721	17010	14547	0	712
-25.640	-32.384	16996	14316	0	712
-18.500	-26.001	16978	14089	0	712
-16.516	-25.460	16962	13893	0	712
-20.844	-31.338	16946	13748	0	712
-33.862	-44.284	16928	13647	0	712
-44.969	-54.309	16906	13578	0	712
-46.159	-55.572	16885	13522	0	712
-37.685	-47.818	16866	13491	0	712
-27.948	-38.983	16848	13504	0	712
-25.604	-37.108	16832	13563	0	712
-29.931	-39.993	16813	13647	0	712
-38.478	-47.241	16792	13705	0	712
-45.691	-50.523	16770	13746	0	712
-43.996	-50.559	16747	13804	0	712
-37.937	-45.222	16728	13911	0	712
-32.167	-39.272	16712	14041	0	712
-27.407	-35.197	16690	14148	0	712
-22.647	-29.535	16664	14227	0	712
-18.247	-23.512	16642	14293	0	712
-13.776	-22.575	16613	14359	0	712
-18.536	-24.630	16589	14446	0	712
-22.250	-29.968	16569	14550	0	712
-27.912	-35.449	16545	14659	0	712
-26.902	-32.167	16523	14769	0	712
-16.408	-24.811	16499	14863	0	712
-9.989	-17.129	16476	14962	0	712
-10.783	-16.733	16467	15138	0	712
-18.824	-25.604	16457	15367	0	712
-28.417	-35.918	16440	15540	0	712
-31.194	-40.065	16425	15626	0	712
-28.525	-37.036	16408	15703	0	712
-21.457	-29.174	16393	15812	0	712
-19.257	-22.250	16385	15949	0	712
-18.283	-22.683	16381	16112	0	712
-20.772	-27.335	16373	16265	0	712
-25.316	-33.790	16367	16386	0	712
-28.453	-38.622	16365	16521	0	712
-31.266	-40.281	16367	16679	0	712
-36.026	-43.671	16368	16839	0	712
-44.573	-52.831	16375	16981	0	712
-52.759	-61.991	16381	17096	0	712
-59.791	-68.770	16384	17193	0	712
-57.519	-64.010	16388	17287	0	712
-47.999	-54.526	16401	17396	0	712
-40.498	-45.655	16411	17495	0	712
-42.625	-48.756	16412	17518	0	712
-53.300	-57.699	16404	17424	0	712
-65.741	-68.518	16396	17261	0	712
-68.770	-68.662	16392	17139	0	712
-60.584	-62.423	16388	17086	0	712
-49.549	-49.549	16384	17032	0	712
-39.091	-42.734	16381	16964	0	712
-35.737	-38.731	16375	16890	0	712
-35.377	-37.649	16365	16786	0	712
-35.882	-37.757	16349	16628	0	712
-35.088	-37.505	16333	16467	0	712
-32.708	-36.242	16325	16374	0	712
-29.499	-34.511	16309	16311	0	712
-25.388	-31.735	16293	16209	0	712
-25.496	-30.004	16277	16074	0	712
-28.994	-32.564	16259	15962	0	712
-35.737	-37.432	16240	15891	0	712
-38.514	-41.760	16224	15837	0	712
-37.108	-40.786	16208	15789	0	712
-32.203	-36.855	16191	15751	0	712
-28.994	-32.348	16179	15731	0	712
-28.273	-32.816	16167	15748	0	712
-34.475	-37.937	16157	15797	0	712
-41.796	-46.448	16147	15845	0	712
-46.268	-53.624	16134	15868	0	712
-48.251	-54.670	16128	15888	0	712
-42.517	-51.028	16110	15891	0	712
-31.410	-38.803	16083	15807	0	712
-19.654	-26.506	16054	15634	0	712
-13.415	-21.962	16024	15479	0	712
-14.461	-23.224	15998	15412	0	712
-19.654	-31.302	15976	15412	0	712
-27.912	-38.514	15963	15471	0	712
-30.400	-40.966	15949	15573	0	712
-28.705	-37.937	15939	15667	0	712
-22.142	-32.348	15926	15748	0	712
-16.408	-25.604	15918	15840	0	712
-11.071	-23.549	15912	15949	0	712
-12.910	-24.089	15904	16064	0	712
-16.516	-27.371	15896	16163	0	712
-23.080	-32.059	15891	16250	0	712
-26.650	-33.862	15888	16341	0	712
-29.066	-33.538	15886	16439	0	712
-30.436	-34.151	15886	16534	0	712
-31.518	-32.384	15878	16579	0	712
-29.679	-29.174	15864	16544	0	712
-27.227	-24.702	15846	16452	0	712
-18.788	-18.067	15828	16334	0	712
-15.435	-17.021	15800	16204	0	712
-15.146	-18.536	15784	16105	0	712
-21.204	-25.099	15764	16049	0	712
-26.433	-29.066	15742	16008	0	712
-29.354	-33.466	15719	15947	0	712
-28.814	-31.735	15702	15891	0	712
-28.561	-30.617	15687	15901	0	712
-28.705	-30.797	15671	15944	0	712
-32.816	-33.321	15644	15896	0	712
-34.800	-36.098	15614	15733	0	712
-34.006	-36.495	15583	15583	0	712
-32.636	-35.774	15559	15527	0	712
-33.069	-36.314	15535	15547	0	712
-34.836	-38.442	15519	15606	0	712
-37.505	-41.976	15506	15690	0	712
-38.406	-43.779	15493	15781	0	712
-38.622	-42.517	15479	15878	0	712
-34.980	-39.127	15471	15985	0	712
-30.905	-35.918	15466	16112	0	712
-24.775	-32.492	15461	16252	0	712
-18.860	-27.119	15460	16369	0	712
-10.314	-21.673	15455	16455	0	712
-6.491	-15.435	15452	16539	0	712
-6.491	-16.156	15453	16648	0	712
-10.891	-17.490	15455	16768	0	712
-14.821	-21.890	15455	16862	0	712
-20.772	-24.017	15458	16915	0	712
-21.096	-25.929	15458	16941	0	712
-22.791	-28.309	15453	16953	0	712
-24.378	-29.787	15450	16956	0	712
-25.099	-34.006	15445	16931	0	712
-29.030	-37.000	15437	16887	0	712
-29.535	-38.983	15431	16826	0	712
-29.679	-37.901	15418	16732	0	712
-29.391	-35.593	15405	16607	0	712
-21.601	-29.607	15388	16493	0	712
-17.057	-22.395	15375	16406	0	712
-9.629	-17.670	15364	16349	0	712
-7.573	-12.766	15356	16318	0	712
-8.799	-13.054	15349	16334	0	712
-10.314	-13.595	15354	16404	0	712
-10.602	-14.353	15362	16554	0	712
-10.530	-16.949	15381	16770	0	712
-9.232	-16.408	15404	17015	0	712
-10.206	-20.483	15436	17272	0	712
-14.064	-23.693	15474	17574	0	712
-19.149	-27.624	15524	17936	0	712
-23.296	-29.499	15575	18322	0	712
-21.962	-26.001	15643	18702	0	712
-19.365	-20.880	15707	19060	0	712
-11.432	-15.290	15776	19401	0	712
-8.078	-14.713	15852	19722	0	712
-10.422	-18.500	15931	20007	0	712
-12.730	-21.854	16008	20254	0	712
-18.139	-24.342	16094	20475	0	712
-17.670	-26.037	16176	20656	0	712
-21.673	-28.994	16263	20786	0	712
-24.702	-34.439	16348	20864	0	712
-31.590	-39.272	16425	20890	0	712
-33.646	-40.714	16504	20852	0	712
-33.069	-37.577	16581	20745	0	712
-31.662	-34.439	16648	20590	0	712
-33.574	-37.216	16720	20394	0	712
-36.278	-40.245	16779	20152	1	696
-36.314	-39.668	16835	19862	0	696
-31.987	-33.177	16890	19539	0	696
-23.080	-24.739	16936	19185	0	696
-18.788	-20.880	16970	18773	0	696
-19.798	-21.493	17004	18333	0	696
-21.998	-27.335	17037	17946	0	696
-24.522	-31.158	17074	17628	0	696
-25.929	-31.951	17100	17305	0	696
-23.945	-30.148	17121	16936	0	696
-24.017	-26.758	17138	16549	0	696
-22.647	-24.234	17148	16191	0	696
-18.644	-21.565	17161	15871	0	696
-19.473	-22.106	17169	15575	0	696
-20.123	-27.804	17174	15285	0	696
-24.414	-33.357	17174	15013	0	696
-27.083	-35.413	17174	14781	0	696
-24.234	-32.780	17169	14563	0	696
-17.670	-26.542	17150	14283	0	696
-11.792	-21.385	17129	13962	0	696
-13.054	-24.378	17108	13697	0	696
-21.601	-34.511	17084	13517	0	696
-36.351	-47.133	17065	13400	0	696
-44.501	-51.280	17049	13357	0	696
-40.678	-47.926	17033	13374	0	696
-29.427	-35.341	17018	13407	0	696
-16.156	-24.594	17002	13453	0	696
-10.674	-19.293	16989	13530	0	696
-9.881	-18.860	16970	13619	0	696
-12.045	-20.772	16956	13700	0	696
-12.910	-19.293	16938	13789	0	696
-13.235	-22.791	16924	13901	0	696
-14.281	-24.522	16906	14010	0	696
-17.959	-27.912	16885	14102	0	696
-17.562	-28.994	16866	14186	0	696
-16.120	-26.866	16845	14278	0	696
-13.307	-23.008	16824	14364	0	696
-15.975	-25.171	16797	14418	0	696
-21.745	-29.679	16773	14451	0	696
-28.814	-38.009	16746	14504	0	696
-34.764	-44.825	16722	14586	0	696
-34.800	-45.005	16699	14690	0	696
-29.823	-37.577	16682	14827	0	696
-19.221	-26.001	16664	14970	0	696
-13.848	-19.185	16643	15092	0	696
-13.848	-19.726	16624	15211	0	696
-24.955	-30.941	16611	15351	0	696
-35.810	-44.537	16601	15514	0	696
-42.409	-48.035	16589	15685	0	696
-41.147	-43.887	16579	15848	0	696
-32.456	-35.485	16573	16018	0	696
-27.155	-29.138	16573	16201	0	696
-24.306	-29.823	16573	16394	0	696
-26.037	-33.321	16573	16567	0	696
-26.109	-35.990	16576	16696	0	696
-24.955	-31.807	16573	16798	0	696
-19.221	-25.171	16573	16905	0	696
-15.182	-21.096	16579	17025	0	696
-10.169	-18.536	16585	17139	0	696
-5.950	-18.356	16589	17226	0	696
-4.724	-17.526	16593	17284	0	696
-2.813	-12.009	16600	17335	0	696
-3.534	-8.547	16605	17381	0	696
-10.494	-12.009	16609	17399	0	696
-20.591	-22.827	16611	17378	0	696
-30.581	-35.160	16613	17335	0	696
-31.735	-39.921	16611	17277	0	696
-26.145	-33.826	16605	17177	0	696
-17.526	-23.693	16595	17032	0	696
-16.012	-19.546	16595	16933	0	696
-22.467	-25.965	16593	16913	0	696
-35.269	-40.534	16589	16887	0	696
-43.960	-48.287	16579	16786	0	696
-41.399	-48.539	16569	16643	0	696
-35.449	-39.344	16560	16516	0	696
-28.092	-32.925	16547	16406	0	696
-27.912	-32.997	16531	16293	0	696
-32.961	-39.272	16517	16173	0	696
-38.154	-45.366	16504	16074	0	696
-38.803	-45.258	16489	16016	0	696
-34.403	-40.209	16481	15998	0	696
-31.915	-35.233	16472	15995	0	696
-29.751	-33.538	16467	15998	0	696
-32.348	-35.882	16456	15985	0	696
-35.954	-38.226	16441	15944	0	696
-36.278	-37.793	16427	15891	0	696
-32.853	-35.233	16412	15850	0	696
-28.705	-31.518	16400	15825	0	696
-24.198	-29.246	16385	15799	0	696
-20.159	-25.099	16375	15787	0	696
-15.507	-18.969	16360	15789	0	696
-4.796	-10.242	16351	15809	0	696
7.393	0.252	16343	15837	0	696
17.634	7.032	16325	15845	0	696
20.447	6.780	16308	15807	0	696
10.819	0.361	16280	15692	0	696
-1.911	-6.311	16248	15535	0	696
-7.465	-9.088	16223	15423	0	696
-0.216	-0.974	16197	15372	0	696
17.093	15.471	16171	15346	0	696
34.908	31.518	16144	15321	0	696
41.075	38.190	16115	15280	0	696
30.184	30.472	16088	15232	0	696
11.396	12.405	16062	15222	0	696
-7.789	-5.950	16038	15257	0	696
-14.930	-13.595	16016	15311	0	696
-8.871	-9.160	15992	15346	0	696
5.878	4.904	15968	15379	0	696
17.598	16.877	15957	15474	0	696
21.529	19.257	15944	15636	0	696
8.835	8.330	15934	15804	0	696
-4.508	-6.888	15923	15926	0	696
-17.598	-19.185	15910	16010	0	696
-14.894	-19.978	15899	16092	0	696
-2.236	-5.013	15891	16173	0	696
17.562	13.163	15875	16232	0	696
25.929	23.837	15864	16275	0	696
23.476	20.736	15852	16318	0	696
8.114	4.796	15838	16362	0	696
-9.917	-14.858	15830	16409	0	696
-23.116	-26.758	15824	16485	0	696
-20.772	-24.234	15816	16567	0	696
-7.068	-7.501	15812	16625	0	696
16.589	17.021	15803	16661	0	696
36.675	36.928	15800	16684	0	696
44.284	43.094	15792	16704	0	696
32.925	28.994	15782	16717	0	696
7.429	1.442	15774	16709	0	696
-16.300	-21.457	15768	16686	0	696
-24.847	-29.643	15756	16674	0	696
-15.038	-17.346	15751	16679	0	696
4.580	0.180	15747	16689	0	696
13.271	9.088	15739	16679	0	696
9.340	3.606	15726	16635	0	696
-9.268	-13.307	15711	16551	0	696
-26.686	-29.643	15692	16424	0	696
-34.836	-34.980	15670	16278	0	696
-30.725	-29.679	15647	16150	0	696
-21.132	-21.024	15628	16064	0	696
-12.117	-10.855	15610	15988	0	696
-10.710	-7.862	15582	15896	0	696
-18.536	-19.510	15559	15794	0	696
-34.006	-33.898	15534	15700	0	696
-46.376	-48.467	15500	15578	0	696
-47.962	-53.949	15468	15435	0	696
-40.858	-45.258	15439	15351	0	696
-29.751	-32.492	15413	15334	0	696
-23.332	-24.306	15391	15359	0	696
-23.909	-23.044	15378	15425	0	696
-25.712	-24.955	15359	15535	0	696
-24.702	-24.234	15351	15667	0	696
-20.555	-24.017	15341	15815	0	696
-24.811	-27.083	15348	16008	0	696
-30.184	-32.708	15356	16273	0	696
-37.180	-38.622	15373	16597	0	696
-39.885	-42.048	15399	16964	0	696
-40.065	-42.878	15431	17330	0	696
-38.695	-43.960	15469	17679	0	696
-39.272	-44.212	15500	17974	0	696
-37.649	-42.914	15538	18213	0	696
-30.869	-37.216	15580	18462	0	696
-24.089	-31.049	15630	18755	0	696
-22.395	-29.643	15692	19093	0	696
-28.669	-36.747	15759	19462	0	696
-43.671	-46.592	15832	19826	0	696
-54.201	-57.447	15912	20167	0	696
-61.558	-63.361	15995	20467	0	696
-61.269	-63.830	16078	20719	0	696
-54.309	-58.024	16165	20928	0	696
-48.648	-51.821	16253	21099	0	696
-44.428	-46.736	16340	21210	0	696
-46.123	-47.854	16425	21261	0	696
-50.992	-53.336	16509	21274	0	696
-53.011	-55.644	16593	21238	0	696
-51.821	-54.995	16674	21121	0	696
-45.582	-49.621	16746	20928	0	696
-39.452	-44.104	16816	20707	0	696
-39.632	-40.750	16884	20473	1	708
-40.786	-41.543	16952	20216	0	708
-40.786	-41.039	17009	19900	0	708
-37.468	-35.882	17058	19521	0	708
-29.787	-30.508	17105	19119	0	708
-24.919	-26.037	17148	18735	0	708
-22.106	-26.433	17186	18358	0	708
-24.558	-31.482	17222	17974	0	708
-25.784	-34.367	17257	17582	0	708
-25.099	-34.043	17283	17200	0	708
-24.162	-32.059	17307	16847	0	708
-26.506	-30.112	17329	16523	0	708
-29.968	-34.259	17353	16227	0	708
-36.170	-41.399	17364	15924	0	708
-41.652	-47.386	17377	15611	0	708
-43.310	-49.549	17382	15321	0	708
-39.704	-44.609	17393	15079	0	708
-35.665	-38.226	17395	14873	0	708
-32.167	-33.610	17395	14647	0	708
-31.735	-32.889	17379	14362	0	708
-34.187	-36.098	17364	14051	0	708
-37.577	-40.642	17347	13797	0	708
-38.875	-42.409	17332	13631	0	708
-41.363	-43.202	17316	13527	0	708
-40.426	-42.950	17300	13463	0	708
-42.661	-43.310	17286	13433	0	708
-41.399	-46.340	17270	13425	0	708
-43.707	-49.008	17254	13438	0	708
-44.501	-50.884	17236	13461	0	708
-46.772	-52.110	17220	13494	0	708
-48.323	-50.775	17201	13542	0	708
-47.746	-49.874	17177	13580	0	708
-44.753	-46.881	17150	13586	0	708
-40.281	-44.681	17117	13570	0	708
-35.521	-40.894	17085	13570	0	708
-29.787	-36.495	17057	13601	0	708
-27.191	-32.276	17025	13647	0	708
-27.155	-31.410	16992	13690	0	708
-30.797	-35.124	16962	13759	0	708
-36.675	-42.337	16932	13878	0	708
-39.163	-48.648	16912	14049	0	708
-38.262	-47.999	16892	14245	0	708
-32.744	-41.003	16872	14443	0	708
-25.424	-29.643	16850	14616	0	708
-21.277	-21.421	16824	14728	0	708
-18.428	-17.382	16795	14799	0	708
-19.365	-21.168	16773	14916	0	708
-21.385	-23.981	16757	15092	0	708
-16.877	-24.342	16741	15288	0	708
-13.740	-19.762	16730	15494	0	708
-6.167	-11.828	16725	15718	0	708
0.649	-6.022	16720	15954	0	708
-3.390	-9.124	16720	16183	0	708
-12.730	-21.601	16715	16389	0	708
-28.345	-37.144	16717	16569	0	708
-42.697	-48.431	16715	16717	0	708
-45.943	-47.854	16712	16834	0	708
-40.281	-42.157	16712	16938	0	708
-29.210	-29.643	16712	17045	0	708
-20.050	-21.637	16714	17134	0	708
-15.687	-20.411	16707	17172	0	708
-19.113	-23.837	16706	17180	0	708
-25.135	-29.535	16712	17231	0	708
-30.545	-36.134	16722	17345	0	708
-35.233	-38.226	16728	17447	0	708
-35.557	-37.613	16733	17483	0	708
-32.420	-35.160	16736	17473	0	708
-30.220	-32.564	16741	17455	0	708
-26.325	-29.391	16738	17424	0	708
-25.893	-26.361	16731	17310	0	708
-23.801	-25.604	16715	17111	0	708
-23.188	-27.551	16706	16925	0	708
-23.549	-26.974	16693	16798	0	708
-24.811	-29.823	16688	16719	0	708
-28.525	-30.292	16683	16676	0	708
-30.689	-30.076	16680	16653	0	708
-30.112	-29.679	16675	16623	0	708
-28.669	-30.977	16666	16554	0	708
-26.109	-29.354	16648	16404	0	708
-27.948	-32.239	16627	16219	0	708
-35.377	-37.036	16611	16087	0	708
-41.796	-43.779	16595	15998	0	708
-45.763	-47.566	16577	15914	0	708
-46.592	-49.946	16563	15858	0	708
-45.655	-51.100	16552	15837	0	708
-44.681	-53.119	16541	15830	0	708
-46.304	-52.362	16525	15820	0	708
-47.277	-52.290	16515	15817	0	708
-47.205	-47.999	16500	15825	0	708
-44.392	-44.825	16492	15843	0	708
-41.471	-39.885	16481	15871	0	708
-35.846	-34.511	16473	15901	0	708
-28.237	-28.381	16460	15926	0	708
-22.178	-23.080	16451	15939	0	708
-23.260	-24.053	16435	15911	0	708
-29.174	-30.545	16412	15843	0	708
-35.413	-36.855	16393	15766	0	708
-37.541	-39.488	16373	15697	0	708
-35.413	-37.216	16349	15639	0	708
-32.708	-35.305	16328	15596	0	708
-32.889	-35.629	16308	15563	0	708
-33.754	-33.934	16287	15555	0	708
-29.138	-28.237	16269	15580	0	708
-15.290	-16.156	16255	15629	0	708
0.072	0.505	16240	15687	0	708
10.530	9.196	16223	15743	0	708
8.258	8.799	16211	15799	0	708
-3.750	-0.974	16199	15863	0	708
-16.120	-12.658	16191	15949	0	708
-25.784	-17.887	16179	16036	0	708
-20.375	-15.939	16165	16074	0	708
-7.068	-2.705	16143	16028	0	708
9.592	12.550	16118	15934	0	708
14.533	16.372	16101	15891	0	708
6.744	9.484	16083	15916	0	708
-14.894	-12.333	16070	15952	0	708
-35.449	-31.374	16051	15980	0	708
-41.760	-38.622	16037	16003	0	708
-29.968	-29.859	16016	16013	0	708
-11.864	-11.035	16003	16005	0	708
2.993	2.957	15984	15998	0	708
5.662	4.039	15966	16000	0	708
-5.409	-7.321	15949	16005	0	708
-20.087	-22.755	15926	15982	0	708
-29.354	-32.889	15907	15952	0	708
-28.417	-33.466	15896	16003	0	708
-16.372	-22.683	15891	16130	0	708
-3.246	-11.360	15880	16232	0	708
4.472	-5.734	15872	16288	0	708
-0.216	-8.366	15862	16331	0	708
-11.323	-19.041	15851	16369	0	708
-24.017	-31.049	15844	16399	0	708
-28.453	-36.567	15835	16434	0	708
-23.765	-32.492	15824	16465	0	708
-12.874	-23.044	15816	16478	0	708
-4.255	-10.061	15803	16455	0	708
-3.678	-6.419	15779	16367	0	708
-14.100	-15.038	15755	16222	0	708
-28.092	-29.066	15734	16107	0	708
-41.760	-41.075	15710	16046	0	708
-44.320	-44.645	15691	16005	0	708
-41.796	-40.426	15670	15972	0	708
-38.767	-35.665	15659	15972	0	708
-42.048	-37.108	15644	16023	0	708
-49.910	-45.222	15636	16084	0	708
-55.716	-52.254	15623	16140	0	708
-57.447	-55.752	15615	16209	0	708
-57.375	-53.913	15614	16295	0	708
-53.913	-52.326	15607	16386	0	708
-56.762	-53.372	15604	16460	0	708
-62.135	-59.214	15591	16470	0	708
-65.056	-64.407	15580	16422	0	708
-60.584	-60.656	15567	16386	0	708
-52.074	-50.667	15559	16401	0	708
-38.550	-36.675	15554	16437	0	708
-29.463	-26.506	15548	16480	0	708
-28.705	-25.965	15546	16536	0	708
-32.925	-33.970	15546	16602	0	708
-36.639	-39.452	15550	16709	0	708
-34.079	-37.252	15567	16903	0	708
-25.820	-26.902	15590	17167	0	708
-16.697	-19.546	15620	17429	0	708
-18.139	-16.300	15646	17651	0	708
-24.053	-23.945	15679	17844	0	708
-32.925	-32.312	15716	18058	0	708
-37.216	-35.341	15759	18302	0	708
-35.233	-30.833	15804	18551	0	708
-30.076	-27.479	15854	18770	0	708
-30.112	-28.201	15907	18969	0	708
-31.626	-31.374	15965	19182	0	708
-35.737	-36.134	16029	19419	0	708
-39.704	-39.019	16096	19653	0	708
-44.501	-42.337	16168	19857	0	708
-49.405	-46.881	16239	20020	0	708
-56.942	-53.516	16312	20149	0	708
-60.512	-57.447	16385	20256	0	708
-59.322	-56.870	16465	20353	0	708
-55.932	-49.261	16544	20432	0	708
-47.962	-39.993	16621	20470	0	708
-40.498	-32.564	16699	20452	0	708
-36.170	-28.850	16773	20399	0	708
-33.393	-29.895	16848	20317	0	708
-32.456	-33.574	16920	20198	0	708
-33.538	-34.115	16981	20007	1	732
-31.302	-29.715	17034	19704	0	732
-24.775	-23.440	17082	19335	0	732
-18.644	-15.651	17129	18987	0	732
-13.271	-12.117	17170	18668	0	732
-10.386	-8.619	17212	18343	0	732
-8.222	-8.150	17246	18004	0	732
-4.688	-3.859	17278	17656	0	732
-0.505	0.577	17302	17289	0	732
-0.685	-0.361	17326	16936	0	732
-7.970	-6.888	17353	16648	0	732
-20.483	-15.795	17377	16429	0	732
-28.525	-23.440	17401	16214	0	732
-25.279	-19.762	17412	15949	0	732
-17.923	-11.648	17425	15667	0	732
-8.078	-3.065	17433	15410	0	732
-8.799	-4.327	17436	15183	0	732
-18.320	-13.054	17441	14960	0	732
-32.564	-26.902	17430	14713	0	732
-43.815	-39.632	17425	14468	0	732
-51.749	-48.684	17414	14270	0	732
-52.795	-50.739	17409	14130	0	732
-52.110	-50.451	17398	14036	0	732
-46.556	-46.123	17388	13965	0	732
-39.344	-38.406	17374	13896	0	732
-34.367	-34.583	17363	13832	0	732
-30.292	-31.987	17350	13809	0	732
-31.626	-33.502	17339	13832	0	732
-34.547	-37.216	17323	13865	0	732
-37.685	-39.272	17308	13876	0	732
-36.675	-38.803	17291	13881	0	732
-33.574	-34.547	17275	13914	0	732
-26.578	-26.974	17254	13972	0	732
-19.942	-19.221	17234	14033	0	732
-13.884	-12.694	17214	14082	0	732
-9.556	-8.186	17193	14117	0	732
-8.907	-6.744	17164	14150	0	732
-11.900	-10.819	17140	14186	0	732
-19.942	-20.483	17116	14234	0	732
-29.427	-27.335	17092	14311	0	732
-36.783	-34.547	17069	14412	0	732
-40.389	-36.964	17049	14524	0	732
-40.209	-38.695	17025	14608	0	732
-43.238	-40.606	17002	14685	0	732
-47.025	-47.133	16988	14827	0	732
-47.097	-47.999	16976	15051	0	732
-45.943	-44.789	16970	15283	0	732
-39.993	-39.380	16962	15484	0	732
-35.485	-35.413	16954	15672	0	732
-34.583	-32.997	16954	15868	0	732
-33.033	-34.006	16949	16064	0	732
-30.004	-28.164	16948	16234	0	732
-26.109	-22.683	16941	16364	0	732
-20.195	-17.706	16940	16457	0	732
-18.031	-14.353	16936	16539	0	732
-15.362	-16.877	16932	16623	0	732
-15.867	-17.454	16932	16712	0	732
-13.668	-17.670	16924	16778	0	732
-13.415	-12.405	16917	16791	0	732
-8.294	-9.376	16912	16773	0	732
-3.642	-3.246	16901	16763	0	732
-1.154	-2.308	16901	16793	0	732
-2.128	-5.373	16900	16839	0	732
-4.832	-9.845	16893	16854	0	732
-6.383	-10.891	16890	16844	0	732
-4.724	-9.124	16885	16836	0	732
-3.498	-7.393	16884	16831	0	732
-7.285	-7.140	16880	16824	0	732
-12.838	-12.081	16874	16803	0	732
-22.142	-19.329	16867	16775	0	732
-28.237	-23.945	16864	16735	0	732
-33.502	-29.571	16851	16661	0	732
-37.937	-34.006	16840	16564	0	732
-42.120	-39.885	16827	16467	0	732
-43.094	-41.940	16816	16394	0	732
-40.353	-39.019	16805	16323	0	732
-35.810	-35.629	16787	16242	0	732
-29.751	-31.590	16770	16150	0	732
-28.886	-29.895	16754	16061	0	732
-31.013	-32.744	16738	15985	0	732
-37.396	-36.819	16720	15929	0	732
-39.921	-37.757	16701	15871	0	732
-37.757	-34.187	16680	15789	0	732
-34.259	-27.948	16658	15700	0	732
-28.633	-21.493	16632	15614	0	732
-28.777	-18.572	16605	15517	0	732
-30.725	-21.926	16581	15435	0	732
-29.931	-22.214	16555	15392	0	732
-24.955	-19.293	16531	15384	0	732
-21.529	-17.166	16513	15400	0	732
-19.690	-15.831	16492	15433	0	732
-28.633	-25.712	16475	15481	0	732
-37.757	-34.547	16457	15535	0	732
-40.678	-36.928	16443	15593	0	732
-33.898	-28.453	16428	15672	0	732
-24.198	-16.985	16419	15776	0	732
-17.598	-9.592	16409	15891	0	732
-20.808	-15.002	16401	15995	0	732
-31.230	-23.080	16393	16097	0	732
-33.429	-27.732	16387	16196	0	732
-29.715	-25.532	16383	16285	0	732
-21.277	-18.247	16373	16349	0	732
-20.303	-17.310	16364	16384	0	732
-23.729	-23.080	16349	16374	0	732
-31.518	-27.768	16327	16301	0	732
-27.840	-26.253	16303	16178	0	732
-15.939	-14.605	16280	16072	0	732
-3.642	-2.813	16259	16010	0	732
-1.406	0.469	16240	15985	0	732
-9.484	-9.088	16219	15965	0	732
-23.909	-21.168	16192	15906	0	732
-27.696	-26.974	16165	15809	0	732
-22.142	-22.142	16139	15728	0	732
-10.674	-9.196	16112	15690	0	732
-0.361	0.649	16093	15687	0	732
2.777	1.767	16069	15680	0	732
0.433	0.793	16040	15641	0	732
-4.796	-2.200	16016	15616	0	732
-7.068	-4.580	15992	15636	0	732
-7.393	-3.318	15979	15692	0	732
-4.039	0.252	15958	15761	0	732
4.832	8.871	15944	15830	0	732
18.103	21.818	15933	15921	0	732
26.650	30.689	15923	16041	0	732
25.676	30.112	15917	16173	0	732
16.336	18.500	15910	16298	0	732
3.318	6.022	15902	16394	0	732
1.262	2.633	15896	16473	0	732
13.487	18.464	15893	16541	0	732
34.367	36.387	15886	16613	0	732
49.044	51.497	15883	16694	0	732
49.044	52.578	15883	16780	0	732
39.993	42.157	15880	16854	0	732
29.751	33.105	15880	16895	0	732
27.624	32.059	15875	16913	0	732
31.735	38.154	15870	16918	0	732
37.432	42.084	15862	16897	0	732
36.783	43.166	15856	16844	0	732
30.977	34.692	15840	16768	0	732
24.558	26.974	15824	16646	0	732
22.467	22.827	15804	16501	0	732
22.791	22.106	15792	16411	0	732
24.306	24.089	15776	16372	0	732
27.299	26.758	15759	16293	0	732
28.164	29.246	15734	16150	0	732
32.708	34.079	15710	15995	0	732
37.829	41.039	15686	15871	0	732
43.671	43.707	15662	15794	0	732
45.222	45.041	15643	15746	0	732
43.166	40.317	15615	15685	0	732
41.039	37.252	15590	15596	0	732
38.442	36.387	15567	15532	0	732
39.885	40.426	15548	15532	0	732
38.767	43.022	15530	15593	0	732
34.980	40.462	15522	15695	0	732
30.076	36.928	15514	15820	0	732
24.775	32.708	15514	15982	0	732
21.060	30.869	15519	16194	0	732
22.719	30.833	15532	16462	0	732
17.634	29.499	15556	16778	0	732
10.963	19.041	15580	17091	0	732
-5.878	2.488	15610	17401	0	732
-25.712	-20.519	15651	17740	0	732
-43.455	-37.468	15699	18134	0	732
-48.612	-43.455	15756	18557	0	732
-40.786	-35.269	15820	18959	0	732
-24.775	-16.625	15880	19307	0	732
-11.143	-4.183	15941	19567	0	732
-13.595	-8.439	16000	19758	0	732
-33.321	-27.299	16070	19951	0	732
-56.185	-52.001	16141	20165	0	732
-74.468	-70.898	16216	20366	0	732
-78.723	-74.721	16293	20529	0	732
-72.917	-71.403	16368	20623	0	732
-68.662	-66.571	16440	20640	0	732
-68.410	-66.607	16507	20615	0	732
-73.206	-68.842	16577	20551	0	732
-74.648	-70.032	16643	20429	0	732
-72.665	-68.770	16704	20259	0	732
-66.787	-64.984	16760	20053	1	716
-63.938	-63.649	16818	19839	0	716
-63.866	-63.217	16875	19633	0	716
-63.036	-62.387	16932	19424	0	716
-59.538	-59.971	16980	19172	0	716
-53.372	-53.660	17025	18864	0	716
-51.569	-52.218	17066	18554	0	716
-54.490	-55.427	17109	18289	0	716
-68.338	-65.994	17153	18043	0	716
-81.103	-78.435	17185	17773	0	716
-86.405	-84.061	17218	17473	0	716
-83.880	-81.789	17244	17170	0	716
-73.494	-72.232	17267	16872	0	716
-67.075	-65.597	17286	16569	0	716
-66.931	-66.787	17302	16267	0	716
-74.144	-74.144	17315	15990	0	716
-80.454	-82.474	17326	15748	0	716
-81.680	-84.602	17337	15527	0	716
-79.373	-84.746	17348	15329	0	716
-76.271	-82.979	17355	15163	0	716
-74.757	-78.904	17361	15005	0	716
-72.160	-75.514	17358	14853	0	716
-67.616	-67.761	17358	14697	0	716
-62.604	-60.188	17353	14532	0	716
-61.522	-57.483	17340	14364	0	716
-61.810	-59.647	17326	14209	0	716
-61.810	-62.568	17313	14077	0	716
-58.132	-59.394	17292	13954	0	716
-51.316	-54.742	17270	13822	0	716
-44.717	-47.025	17249	13697	0	716
-42.409	-43.022	17225	13641	0	716
-42.229	-42.409	17206	13657	0	716
-41.039	-40.534	17185	13677	0	716
-37.288	-37.288	17154	13657	0	716
-34.151	-32.672	17129	13608	0	716
-32.780	-29.787	17100	13611	0	716
-33.862	-30.905	17077	13692	0	716
-36.747	-33.970	17057	13807	0	716
-41.904	-38.118	17033	13914	0	716
-45.799	-40.894	17009	14013	0	716
-49.080	-45.835	16988	14120	0	716
-56.113	-53.588	16964	14250	0	716
-60.548	-59.827	16946	14402	0	716
-62.604	-62.423	16924	14552	0	716
-55.031	-56.581	16908	14680	0	716
-44.140	-44.248	16884	14789	0	716
-34.439	-33.393	16866	14906	0	716
-33.538	-32.564	16850	15061	0	716
-39.055	-39.776	16837	15250	0	716
-48.828	-47.386	16824	15430	0	716
-49.369	-49.874	16811	15586	0	716
-44.681	-42.878	16803	15736	0	716
-36.387	-33.141	16794	15886	0	716
-28.669	-25.929	16784	16010	0	716
-23.621	-22.791	16771	16102	0	716
-21.168	-22.034	16755	16166	0	716
-18.824	-20.447	16744	16204	0	716
-20.447	-22.863	16728	16242	0	716
-25.856	-24.702	16720	16306	0	716
-29.535	-28.886	16709	16391	0	716
-28.994	-29.823	16707	16498	0	716
-22.935	-24.234	16704	16620	0	716
-17.418	-15.831	16704	16735	0	716
-12.297	-11.648	16704	16839	0	716
-13.956	-10.278	16707	16933	0	716
-16.805	-14.136	16712	17030	0	716
-16.877	-19.221	16715	17137	0	716
-17.779	-19.618	16722	17221	0	716
-16.516	-19.041	16722	17251	0	716
-19.762	-18.680	16723	17254	0	716
-20.808	-17.021	16720	17226	0	716
-22.503	-21.168	16712	17127	0	716
-21.745	-22.286	16693	16953	0	716
-19.582	-23.368	16680	16770	0	716
-19.221	-21.781	16666	16633	0	716
-20.591	-23.008	16651	16546	0	716
-26.470	-26.722	16643	16501	0	716
-28.453	-28.669	16634	16470	0	716
-24.847	-23.585	16624	16417	0	716
-14.136	-15.975	16608	16318	0	716
-5.662	-5.554	16592	16199	0	716
-5.517	-4.219	16576	16122	0	716
-14.894	-14.064	16563	16097	0	716
-23.188	-22.106	16552	16082	0	716
-23.296	-23.765	16541	16072	0	716
-12.946	-14.605	16536	16082	0	716
-1.767	-5.373	16523	16105	0	716
-1.515	-4.327	16520	16133	0	716
-10.855	-12.297	16507	16138	0	716
-21.926	-20.988	16492	16087	0	716
-27.768	-26.794	16472	15990	0	716
-28.237	-26.866	16449	15878	0	716
-23.909	-21.565	16425	15769	0	716
-18.392	-17.454	16403	15682	0	716
-14.749	-14.425	16384	15634	0	716
-7.068	-7.645	16364	15611	0	716
0.180	0.036	16341	15583	0	716
4.940	4.255	16319	15555	0	716
3.029	2.092	16303	15552	0	716
-2.200	-2.596	16287	15598	0	716
-7.825	-6.167	16276	15677	0	716
-8.330	-8.186	16263	15748	0	716
-2.633	-0.938	16248	15794	0	716
8.294	10.314	16229	15815	0	716
22.034	18.969	16205	15771	0	716
26.397	21.168	16175	15664	0	716
19.293	13.631	16147	15563	0	716
