neuroNicle FX2
D3F25R12
Bluetooth SPP
2023년 11월 7일 화요일
오후 7:17
time interval = 4msec
EEG1	EEG2	PPG	sdPPG	pulse	peak_interval(msec)
-9.881	12.081	16384	16046	0	1372
-11.251	9.809	16381	16016	0	1372
-8.835	10.566	16377	15992	0	1372
-4.868	15.146	16381	15986	0	1372
3.029	23.296	16377	16010	0	1372
9.881	28.273	16377	16069	0	1372
9.592	28.345	16377	16135	0	1372
-1.839	19.041	16384	16188	0	1372
-18.536	7.825	16381	16254	0	1372
-28.777	2.921	16384	16337	0	1372
-24.486	9.556	16384	16401	0	1372
-8.330	24.198	16387	16449	0	1372
6.347	33.285	16384	16496	0	1372
8.150	31.590	16391	16544	0	1372
-1.226	22.935	16391	16562	0	1372
-11.179	14.425	16391	16556	0	1372
-16.480	13.091	16391	16538	0	1372
-15.110	14.100	16387	16508	0	1372
-15.435	13.992	16387	16467	0	1372
-19.437	7.717	16384	16419	0	1372
-25.171	0.325	16384	16384	0	1372
-29.138	-3.498	16381	16349	0	1372
-26.794	-2.452	16381	16313	0	1372
-23.404	0.325	16377	16277	0	1372
-21.457	1.298	16381	16254	0	1372
-23.693	-2.488	16381	16248	0	1372
-29.895	-9.016	16377	16248	0	1372
-37.108	-16.192	16377	16248	0	1372
-42.661	-19.618	16381	16248	0	1372
-45.655	-19.690	16377	16266	0	1372
-47.746	-16.408	16377	16313	0	1372
-48.395	-14.245	16377	16349	0	1372
-47.890	-15.326	16377	16367	0	1372
-47.602	-18.247	16377	16401	0	1372
-46.123	-22.503	16381	16479	0	1372
-44.176	-24.053	16384	16556	0	1372
-43.635	-22.106	16384	16598	0	1372
-43.599	-20.087	16387	16633	0	1372
-45.041	-18.392	16391	16675	0	1372
-46.412	-19.690	16391	16699	0	1372
-48.251	-20.339	16394	16687	0	1372
-47.458	-20.591	16394	16651	0	1372
-43.491	-18.788	16399	16716	0	1372
-39.668	-16.589	16425	17139	0	1372
-39.163	-16.192	16452	17822	0	1372
-42.517	-18.644	16478	18322	0	1372
-49.802	-22.358	16498	18494	0	1372
-56.473	-25.135	16506	18494	0	1372
-58.817	-27.984	16521	18393	0	1372
-57.158	-28.020	16524	18209	0	1372
-53.228	-27.047	16524	17965	0	1372
-47.962	-25.604	16529	17686	0	1372
-43.274	-21.854	16529	17382	1	2240
-39.488	-18.969	16521	17067	0	2240
-39.380	-17.634	16516	16758	0	2240
-39.993	-19.978	16513	16449	0	2240
-43.383	-24.666	16506	16153	0	2240
-47.854	-29.968	16493	15861	0	2240
-50.018	-32.780	16486	15600	0	2240
-49.982	-32.167	16478	15392	0	2240
-48.503	-31.122	16471	15237	0	2240
-45.510	-29.931	16463	15118	0	2240
-42.589	-28.705	16455	15041	0	2240
-40.822	-27.227	16452	15017	0	2240
-38.406	-26.145	16448	15023	0	2240
-35.233	-22.647	16445	15011	0	2240
-31.590	-20.952	16432	14975	0	2240
-28.958	-20.014	16429	14970	0	2240
-27.912	-21.132	16425	14999	0	2240
-27.191	-23.585	16417	15029	0	2240
-25.604	-24.811	16409	15053	0	2240
-20.952	-26.253	16406	15077	0	2240
-16.661	-25.460	16394	15100	0	2240
-15.218	-25.243	16391	15130	0	2240
-15.543	-24.270	16384	15172	0	2240
-17.202	-24.053	16377	15225	0	2240
-15.326	-20.483	16374	15285	0	2240
-11.251	-16.192	16366	15350	0	2240
-4.616	-11.756	16362	15421	0	2240
-0.036	-10.242	16362	15499	0	2240
2.200	-11.323	16354	15576	0	2240
1.551	-14.245	16346	15659	0	2240
-0.397	-18.428	16343	15754	0	2240
-1.479	-19.401	16339	15873	0	2240
-2.272	-19.077	16339	16016	0	2240
-0.072	-15.507	16339	16141	0	2240
3.967	-11.287	16339	16260	0	2240
7.789	-6.419	16339	16384	0	2240
9.376	-5.878	16339	16514	0	2240
8.835	-8.619	16343	16621	0	2240
4.472	-14.677	16343	16699	0	2240
-0.108	-23.621	16343	16776	0	2240
-3.606	-32.239	16343	16841	0	2240
-4.436	-37.324	16343	16883	0	2240
-4.400	-38.731	16343	16901	0	2240
-2.741	-35.846	16346	16913	0	2240
-0.397	-30.076	16343	16919	0	2240
1.767	-26.073	16343	16913	0	2240
2.669	-23.981	16343	16895	0	2240
0.865	-27.660	16343	16871	0	2240
-5.049	-34.006	16346	16853	0	2240
-11.179	-42.229	16343	16829	0	2240
-16.480	-50.487	16343	16806	0	2240
-16.733	-55.139	16351	16907	0	2240
-12.694	-55.499	16374	17370	0	2240
-8.150	-52.398	16402	18096	0	2240
-2.993	-48.612	16429	18649	0	2240
-1.118	-46.628	16452	18881	0	2240
-1.731	-46.304	16467	18964	0	2240
-1.154	-47.782	16483	18958	0	2240
0.144	-49.982	16493	18839	0	2240
5.517	-54.201	16498	18625	0	2240
8.547	-64.226	16501	18357	0	2240
8.439	-73.963	16506	18054	0	2240
4.147	-82.798	16506	17709	0	2240
-0.216	-81.320	16501	17347	0	2240
-0.072	-73.026	16493	16996	0	2240
4.147	-60.837	16490	16663	0	2240
8.655	-52.975	16486	16343	0	2240
10.494	-50.847	16475	16010	0	2240
6.996	-52.434	16463	15701	0	2240
2.092	-54.201	16455	15421	0	2240
-2.416	-54.165	16448	15189	0	2240
-4.832	-52.326	16437	15005	0	2240
-7.068	-49.838	16429	14839	0	2240
-5.013	-44.464	16414	14690	0	2240
2.200	-34.151	16406	14565	0	2240
14.785	-19.401	16394	14488	0	2240
30.797	-1.118	16387	14464	0	2240
43.743	13.668	16377	14476	0	2240
49.549	21.277	16369	14506	0	2240
45.727	20.627	16362	14553	1	316
41.724	16.913	16354	14631	0	316
40.065	15.002	16351	14738	0	316
42.481	16.264	16343	14874	0	316
46.736	19.654	16343	15011	0	316
48.431	21.096	16339	15148	0	316
45.078	18.860	16336	15326	0	316
42.697	17.166	16336	15546	0	316
43.347	17.057	16343	15766	0	316
46.881	18.788	16339	15939	0	316
49.044	22.358	16339	16093	0	316
50.667	23.621	16339	16236	0	316
49.153	24.522	16336	16361	0	316
47.926	26.650	16339	16443	0	316
46.015	26.938	16339	16514	0	316
44.501	28.886	16336	16574	0	316
42.445	28.705	16336	16621	0	316
40.966	29.859	16339	16651	0	316
41.327	30.905	16336	16657	0	316
44.284	31.482	16331	16657	0	316
44.573	34.223	16331	16663	0	316
45.582	38.226	16328	16669	0	316
45.402	45.474	16331	16675	0	316
46.989	58.132	16328	16681	0	316
49.946	70.177	16323	16681	0	316
51.388	80.238	16328	16681	0	316
51.965	81.969	16328	16693	0	316
49.044	79.481	16328	16734	0	316
44.645	75.694	16328	16794	0	316
42.229	72.773	16331	16835	0	316
41.327	73.927	16336	16859	0	316
41.471	73.098	16336	16889	0	316
41.652	69.528	16336	16925	0	316
40.678	63.397	16343	16930	0	316
40.570	57.014	16343	16919	0	316
39.668	55.644	16343	16925	0	316
40.642	56.942	16346	16954	0	316
40.389	59.935	16351	16978	0	316
38.875	60.765	16354	17002	0	316
37.072	59.755	16362	17043	0	316
36.531	57.591	16366	17085	0	316
37.685	55.211	16369	17091	0	316
40.534	57.771	16374	17067	0	316
43.238	60.801	16377	17032	0	316
45.655	64.299	16377	16978	0	316
45.727	67.688	16377	16895	0	316
46.556	68.842	16377	16788	0	316
46.015	67.977	16377	16675	0	316
45.402	67.544	16374	16574	0	316
44.789	66.138	16374	16485	0	316
43.779	66.066	16374	16395	0	316
44.681	65.092	16369	16325	0	316
45.294	64.587	16369	16260	0	316
45.150	62.315	16366	16218	0	316
41.039	59.863	16366	16176	0	316
35.918	56.617	16366	16147	0	316
29.354	55.247	16369	16147	0	316
25.820	54.886	16374	16170	0	316
27.840	56.870	16369	16188	0	316
30.797	56.293	16369	16194	0	316
33.898	52.578	16369	16206	0	316
33.429	47.638	16369	16230	0	316
31.879	42.806	16369	16248	0	316
32.095	41.652	16369	16254	0	316
33.898	44.392	16369	16266	0	316
37.613	48.612	16369	16283	0	316
40.498	51.280	16369	16295	0	316
39.560	49.513	16369	16289	0	316
37.541	48.179	16369	16283	0	316
36.531	46.736	16369	16272	0	316
36.387	48.467	16369	16242	0	316
37.649	49.549	16369	16194	0	316
37.829	50.523	16366	16147	0	316
37.937	49.297	16362	16105	0	316
34.836	47.061	16359	16081	0	316
31.951	44.464	16359	16058	0	316
26.325	41.724	16354	16052	0	316
23.368	38.190	16354	16058	0	316
23.188	36.567	16351	16081	0	316
26.073	37.865	16359	16105	0	316
32.131	44.753	16351	16135	0	316
37.072	49.730	16351	16170	0	316
38.298	52.038	16351	16206	0	316
37.468	49.369	16346	16224	0	316
35.124	44.789	16346	16230	0	316
34.115	41.471	16351	16242	0	316
34.151	42.517	16346	16272	0	316
34.439	44.392	16346	16295	0	316
36.459	48.720	16346	16307	0	316
38.658	50.775	16346	16349	0	316
38.586	52.110	16346	16419	0	316
37.252	49.874	16359	16496	0	316
30.725	44.248	16354	16562	0	316
21.421	36.567	16359	16603	0	316
13.992	31.915	16359	16627	0	316
11.432	32.095	16359	16633	0	316
13.992	36.711	16359	16633	0	316
20.231	42.084	16359	16621	0	316
24.883	45.402	16366	16716	0	316
26.542	42.265	16394	17186	0	316
25.893	38.586	16432	18054	0	316
24.198	35.305	16483	19106	0	316
24.955	35.629	16532	20081	0	316
27.515	38.298	16577	20700	0	316
30.941	42.157	16608	20908	0	316
31.771	41.940	16638	20866	0	316
30.941	38.370	16658	20676	0	316
28.381	34.079	16674	20349	0	316
28.381	33.466	16684	19909	0	316
31.013	39.127	16689	19380	1	436
35.341	47.710	16692	18803	0	436
37.541	54.742	16692	18191	0	436
36.242	56.545	16681	17543	0	436
31.879	55.175	16669	16907	0	436
28.201	54.598	16666	16325	0	436
25.207	57.194	16651	15778	0	436
25.316	63.505	16635	15249	0	436
25.063	65.417	16620	14738	0	436
26.938	66.571	16600	14268	0	436
26.974	65.128	16585	13858	0	436
30.112	67.075	16559	13495	0	436
33.069	69.960	16544	13192	0	436
34.295	74.071	16529	12948	0	436
32.780	75.153	16501	12764	0	436
25.784	68.482	16486	12627	0	436
17.202	59.647	16463	12544	0	436
9.665	51.497	16448	12502	0	436
11.792	50.379	16425	12514	0	436
19.654	53.732	16406	12585	0	436
25.207	56.690	16391	12710	0	436
22.358	52.975	16381	12883	0	436
10.602	43.815	16366	13097	0	436
-6.239	36.242	16354	13341	0	436
-15.687	37.144	16343	13590	0	436
-13.631	46.159	16336	13852	0	436
-6.635	56.545	16328	14137	0	436
-0.469	60.440	16316	14440	0	436
0.433	58.348	16313	14732	0	436
-1.803	54.526	16308	15011	0	436
-5.157	52.290	16301	15302	0	436
-4.291	52.867	16297	15600	0	436
-1.947	54.057	16297	15861	0	436
0.541	53.372	16293	16093	0	436
0.902	49.621	16297	16331	0	436
-1.803	45.618	16293	16562	0	436
-4.940	42.337	16290	16770	0	436
-8.907	41.147	16293	16930	0	436
-8.799	41.399	16293	17073	0	436
-6.744	42.229	16293	17198	0	436
-3.390	42.625	16293	17287	0	436
-0.685	42.120	16293	17347	0	436
0.036	44.248	16293	17400	0	436
-0.469	45.366	16293	17454	0	436
-0.613	48.359	16293	17513	0	436
0.757	51.136	16293	17561	0	436
4.291	53.949	16297	17584	0	436
8.619	57.230	16297	17579	0	436
12.946	61.594	16301	17555	0	436
17.454	64.371	16301	17525	0	436
18.464	65.380	16301	17513	0	436
17.310	64.876	16305	17525	0	436
15.110	63.109	16308	17555	0	436
11.504	61.991	16313	17561	0	436
10.097	61.810	16316	17537	0	436
10.061	61.053	16320	17525	0	436
11.432	61.630	16320	17519	0	436
13.487	60.260	16328	17489	0	436
15.543	58.024	16331	17448	0	436
17.057	57.483	16336	17412	0	436
18.464	55.932	16336	17370	0	436
21.349	57.735	16346	17299	0	436
25.712	58.889	16343	17198	0	436
30.977	62.099	16343	17091	0	436
35.269	61.197	16343	16990	0	436
35.233	59.574	16343	16901	0	436
31.049	55.968	16346	16812	0	436
25.207	53.588	16343	16710	0	436
19.546	53.877	16343	16609	0	436
16.120	55.896	16339	16514	0	436
12.369	57.411	16339	16425	0	436
8.583	55.752	16346	16373	0	436
5.193	50.775	16339	16319	0	436
5.662	48.359	16339	16260	0	436
8.835	47.710	16336	16200	0	436
12.081	50.847	16336	16165	0	436
12.550	53.300	16339	16159	0	436
7.970	53.228	16336	16165	0	436
3.210	50.667	16336	16153	0	436
2.741	48.215	16336	16129	0	436
7.248	50.270	16339	16141	0	436
15.326	54.201	16339	16206	0	436
19.798	60.224	16343	16295	0	436
17.959	60.728	16343	16367	0	436
10.602	57.194	16346	16419	0	436
1.911	50.487	16351	16467	0	436
-4.472	43.455	16354	16491	0	436
-7.753	40.209	16354	16485	0	436
-8.619	39.668	16354	16449	0	436
-9.737	38.947	16354	16413	0	436
-8.691	39.957	16354	16384	0	436
-7.501	38.514	16354	16361	0	436
-4.832	36.819	16351	16331	0	436
-3.101	31.013	16359	16289	0	436
-5.373	19.690	16351	16254	0	436
-9.376	1.983	16351	16224	0	436
-15.146	-18.464	16351	16200	0	436
-21.277	-36.747	16346	16194	0	436
-28.525	-47.313	16346	16188	0	436
-32.492	-49.946	16346	16188	0	436
-36.351	-47.530	16346	16188	0	436
-38.658	-43.635	16346	16206	0	436
-42.734	-43.202	16346	16248	0	436
-47.241	-45.763	16346	16277	0	436
-53.191	-49.008	16346	16307	0	436
-58.132	-50.847	16359	16355	0	436
-59.502	-47.818	16354	16413	0	436
-57.014	-43.635	16359	16467	0	436
-54.562	-37.793	16359	16496	0	436
-51.893	-35.197	16362	16532	0	436
-51.100	-35.305	16362	16586	0	436
-52.326	-37.541	16366	16627	0	436
-55.283	-39.921	16366	16639	0	436
-57.447	-39.452	16374	16645	0	436
-58.457	-37.937	16374	16651	0	436
-57.952	-33.826	16377	16657	0	436
-58.132	-29.895	16377	16639	0	436
-56.978	-26.397	16377	16609	0	436
-57.880	-23.801	16377	16574	0	436
-58.204	-23.729	16381	16544	0	436
-59.466	-22.972	16381	16526	0	436
-57.807	-21.132	16381	16502	0	436
-55.644	-19.437	16381	16473	0	436
-54.382	-17.238	16381	16455	0	436
-55.139	-16.697	16381	16431	0	436
-59.214	-17.670	16381	16419	0	436
-63.722	-17.743	16381	16401	0	436
-66.498	-17.238	16381	16384	0	436
-66.859	-17.526	16381	16349	0	436
-63.830	-19.113	16381	16307	0	436
-62.099	-22.358	16381	16295	0	436
-58.889	-23.440	16381	16301	0	436
-56.653	-21.818	16381	16295	0	436
-52.001	-17.598	16381	16272	0	436
-47.277	-13.740	16381	16260	0	436
-42.734	-11.756	16381	16272	0	436
-41.976	-12.405	16381	16289	0	436
-41.976	-13.235	16381	16295	0	436
-44.501	-15.795	16384	16325	0	436
-43.779	-17.202	16384	16373	0	436
-39.740	-17.382	16384	16395	0	436
-33.321	-16.444	16387	16395	0	436
-26.758	-13.451	16387	16384	0	436
-22.358	-8.763	16384	16373	0	436
-19.077	-3.029	16384	16337	0	436
-15.290	3.534	16384	16307	0	436
-11.756	6.924	16384	16283	0	436
-9.520	7.862	16384	16272	0	436
-8.907	3.714	16381	16266	0	436
-11.792	-2.741	16381	16260	0	436
-16.156	-6.383	16381	16254	0	436
-16.264	-6.094	16381	16254	0	436
-12.477	0.216	16381	16254	0	436
-6.131	8.402	16377	16248	0	436
1.190	15.903	16377	16236	0	436
6.239	20.087	16377	16254	0	436
7.501	18.392	16377	16295	0	436
9.376	14.641	16381	16331	0	436
12.802	12.333	16381	16349	0	436
19.690	12.658	16381	16373	0	436
27.984	17.995	16381	16395	0	436
37.000	24.270	16381	16413	0	436
42.120	30.040	16381	16413	0	436
44.789	32.095	16384	16425	0	436
43.166	33.393	16384	16455	0	436
39.885	32.961	16384	16467	0	436
36.134	31.626	16384	16455	0	436
32.961	30.941	16384	16431	0	436
30.617	29.823	16384	16401	0	436
26.506	27.371	16381	16367	0	436
23.368	25.820	16381	16319	0	436
18.392	22.683	16384	16384	0	436
14.100	19.726	16406	16823	0	436
10.206	16.985	16437	17543	0	436
5.950	13.740	16460	18084	0	436
0.902	10.819	16478	18298	0	436
-6.455	7.609	16490	18340	0	436
-14.641	3.750	16501	18286	0	436
-20.772	1.154	16509	18149	0	436
-24.522	-0.577	16513	17953	0	436
-25.820	-3.282	16513	17721	0	436
-30.905	-10.783	16513	17477	0	436
-43.238	-24.198	16513	17210	0	436
-58.493	-35.918	16509	16936	0	436
-73.278	-39.885	16506	16675	0	436
-78.435	-33.466	16501	16431	0	436
-78.074	-20.411	16501	16200	0	436
-79.012	-15.831	16486	15956	0	436
-87.559	-24.198	16486	15748	0	436
-102.416	-39.127	16478	15570	0	436
-116.336	-48.143	16471	15409	0	436
-124.017	-49.116	16463	15255	0	436
-126.217	-47.133	16452	15112	0	436
-128.525	-48.720	16448	14993	0	436
-131.085	-58.529	16437	14904	0	436
-133.466	-68.518	16425	14833	0	436
-134.006	-70.537	16417	14779	0	436
-128.092	-64.840	16409	14744	0	436
-122.214	-55.932	16402	14738	0	436
-114.894	-49.766	16391	14755	0	436
-110.242	-46.592	16384	14791	0	436
-105.121	-45.618	16377	14839	0	436
-102.452	-43.527	16369	14904	0	436
-102.380	-43.130	16366	14981	0	436
-105.157	-42.517	16362	15077	0	436
-108.222	-45.691	16359	15213	0	436
-110.819	-48.612	16354	15380	0	436
-111.143	-50.343	16351	15540	0	436
-107.393	-47.962	16346	15689	0	436
-100.000	-41.075	16346	15855	0	436
-91.489	-33.970	16354	16046	0	436
-82.762	-27.263	16351	16206	0	436
-78.651	-25.640	16351	16331	0	436
-76.812	-26.866	16351	16437	0	436
-77.822	-30.040	16351	16550	0	436
-80.166	-32.167	16351	16633	0	436
-80.346	-33.393	16351	16693	0	436
-80.202	-31.951	16354	16752	0	436
-79.733	-31.194	16354	16823	0	436
-78.327	-30.148	16354	16865	0	436
-77.065	-29.102	16351	16865	0	436
-78.507	-27.912	16351	16841	0	436
-79.373	-27.804	16346	16818	0	436
-80.887	-26.109	16354	16800	0	436
-78.399	-24.162	16346	16782	0	436
-72.088	-21.024	16346	16752	0	436
-65.164	-19.077	16343	16722	0	436
-59.574	-19.618	16343	16693	0	436
-60.151	-23.621	16339	16669	0	436
32.600	9.340	16478	18185	0	316
32.456	10.927	16498	18417	0	316
34.043	10.206	16513	18482	0	316
33.177	8.294	16532	18470	0	316
30.689	5.265	16536	18375	0	316
26.974	2.452	16544	18185	0	316
24.775	3.606	16547	17917	0	316
27.551	7.032	16544	17608	1	1172
31.338	11.035	16544	17281	0	1172
34.511	15.002	16536	16942	0	1172
34.223	17.274	16536	16598	0	1172
31.518	15.651	16524	16272	0	1172
31.410	13.595	16513	15950	0	1172
33.538	12.117	16509	15665	0	1172
36.242	15.326	16498	15415	0	1172
38.947	21.637	16490	15201	0	1172
39.921	27.299	16475	15005	0	1172
40.245	28.056	16471	14833	0	1172
40.173	21.493	16455	14708	0	1172
40.642	9.809	16448	14637	0	1172
38.226	0.469	16445	14613	0	1172
36.747	-4.977	16432	14607	0	1172
35.990	-4.472	16425	14607	0	1172
34.656	-3.967	16417	14619	0	1172
31.338	-5.049	16406	14672	0	1172
27.876	-8.763	16406	14755	0	1172
24.270	-12.550	16399	14857	0	1172
25.568	-11.612	16391	14958	0	1172
29.859	-4.255	16387	15059	0	1172
37.649	5.229	16381	15172	0	1172
40.750	11.071	16377	15261	0	1172
37.649	12.225	16369	15326	0	1172
27.443	6.888	16369	15398	0	1172
19.618	1.442	16366	15487	0	1172
17.454	-1.479	16359	15582	0	1172
24.017	1.262	16354	15677	0	1172
34.439	6.275	16346	15772	0	1172
43.383	11.720	16343	15873	0	1172
42.734	14.136	16343	15974	0	1172
34.295	13.956	16339	16081	0	1172
23.549	11.396	16339	16194	0	1172
14.028	8.006	16336	16295	0	1172
9.881	7.176	16336	16373	0	1172
11.035	7.032	16331	16425	0	1172
11.179	5.301	16336	16485	0	1172
11.071	1.190	16331	16562	0	1172
10.927	-4.904	16331	16651	0	1172
13.668	-9.052	16331	16734	0	1172
22.863	-6.058	16331	16794	0	1172
32.708	0.541	16331	16841	0	1172
38.803	7.357	16336	16901	0	1172
40.570	8.078	16336	16954	0	1172
36.387	4.580	16343	16990	0	1172
31.085	-2.452	16339	17026	0	1172
27.551	-6.203	16343	17079	0	1172
23.404	-7.753	16343	17127	0	1172
21.998	-5.481	16346	17150	0	1172
21.385	-3.931	16351	17156	0	1172
21.277	-0.216	16351	17150	0	1172
21.745	2.596	16354	17121	0	1172
21.493	4.075	16354	17079	0	1172
24.053	5.193	16354	17026	0	1172
25.965	5.517	16354	16972	0	1172
30.040	6.527	16354	16919	0	1172
29.463	8.799	16359	16853	0	1172
25.388	6.275	16354	16788	0	1172
16.516	0.974	16354	16740	0	1172
8.871	-6.022	16354	16716	0	1172
6.094	-9.917	16354	16699	0	1172
11.684	-6.816	16354	16669	0	1172
23.152	2.524	16354	16633	0	1172
33.538	11.756	16354	16592	0	1172
39.199	14.425	16359	16556	0	1172
37.757	13.199	16359	16526	0	1172
34.151	11.179	16359	16508	0	1172
31.338	9.665	16362	16502	0	1172
31.302	10.602	16362	16491	0	1172
30.581	10.530	16362	16479	0	1172
29.318	6.094	16362	16479	0	1172
25.748	0.649	16362	16491	0	1172
24.991	-1.839	16369	16491	0	1172
26.037	1.803	16374	16479	0	1172
29.535	8.294	16369	16467	0	1172
31.230	16.589	16369	16473	0	1172
29.859	19.618	16369	16455	0	1172
25.496	16.156	16369	16431	0	1172
19.149	11.179	16369	16407	0	1172
15.579	7.429	16369	16395	0	1172
15.326	9.052	16369	16384	0	1172
18.788	12.189	16369	16355	0	1172
24.955	16.228	16369	16331	0	1172
33.754	20.952	16369	16301	0	1172
45.366	26.181	16369	16277	0	1172
54.418	34.944	16369	16266	0	1172
52.687	39.849	16374	16272	0	1172
38.262	36.639	16374	16283	0	1172
14.208	26.181	16369	16283	0	1172
-7.032	16.012	16369	16272	0	1172
-18.392	10.530	16369	16260	0	1172
-18.536	13.415	16369	16277	0	1172
-15.290	16.913	16374	16313	0	1172
-15.290	17.743	16374	16355	0	1172
-16.985	16.408	16374	16384	0	1172
-16.769	17.454	16377	16431	0	1172
-14.425	20.050	16381	16496	0	1172
-12.009	21.962	16384	16568	0	1172
-16.625	17.706	16387	16615	0	1172
-26.361	8.222	16387	16639	0	1172
-36.026	-0.361	16391	16651	0	1172
-40.029	-2.524	16391	16627	0	1172
-36.495	2.813	16391	16580	0	1172
-30.148	9.809	16391	16520	0	1172
-28.381	14.677	16391	16461	0	1172
-30.581	13.884	16391	16419	0	1172
-33.898	9.556	16391	16384	0	1172
-34.115	4.183	16391	16355	0	1172
-31.482	-1.226	16387	16319	0	1172
-30.653	-5.806	16387	16289	0	1172
-33.105	-9.340	16387	16266	0	1172
-37.577	-12.081	16387	16242	0	1172
-39.596	-10.710	16384	16224	0	1172
-37.288	-9.881	16384	16200	0	1172
-32.853	-8.258	16384	16182	0	1172
-31.230	-9.160	16384	16176	0	1172
-32.708	-12.189	16384	16188	0	1172
-34.403	-14.605	16384	16206	0	1172
-36.062	-16.012	16381	16218	0	1172
-33.429	-15.831	16381	16218	0	1172
-30.256	-15.290	16381	16230	0	1172
-28.633	-14.894	16381	16254	0	1172
-27.371	-15.290	16381	16272	0	1172
-24.594	-11.215	16381	16283	0	1172
-19.762	-4.760	16381	16301	0	1172
-13.487	2.596	16381	16325	0	1172
-10.314	3.787	16381	16343	0	1172
-11.432	-2.813	16381	16349	0	1172
-16.444	-14.245	16381	16337	0	1172
-17.923	-22.322	16381	16319	0	1172
-9.989	-21.277	16377	16307	0	1172
7.357	-11.468	16377	16301	0	1172
28.309	-0.180	16377	16307	0	1172
45.510	5.554	16377	16319	0	1172
49.946	2.849	16377	16325	0	1172
45.618	-2.596	16377	16331	0	1172
36.603	-9.196	16377	16331	0	1172
29.499	-8.583	16374	16319	0	1172
26.686	-5.626	16374	16301	0	1172
29.246	1.839	16369	16283	0	1172
30.797	7.717	16369	16260	0	1172
32.023	11.432	16366	16236	0	1172
30.977	10.819	16366	16218	0	1172
31.085	9.809	16369	16218	0	1172
32.708	9.160	16366	16242	0	1172
37.360	11.612	16366	16283	0	1172
42.589	14.425	16366	16337	0	1172
42.012	16.336	16366	16373	0	1172
36.278	14.641	16366	16395	0	1172
26.542	11.792	16369	16431	0	1172
20.880	12.261	16369	16461	0	1172
19.401	15.471	16369	16491	0	1172
24.775	18.680	16369	16520	0	1172
28.489	18.716	16374	16562	0	1172
26.506	14.677	16374	16592	0	1172
19.654	11.107	16374	16598	0	1172
12.153	11.179	16381	16592	0	1172
6.888	17.382	16381	16574	0	1172
7.032	23.296	16381	16556	0	1172
8.727	24.162	16377	16526	0	1172
10.746	20.375	16377	16502	0	1172
9.701	14.821	16377	16473	0	1172
6.347	11.684	16377	16449	0	1172
0.721	14.353	16377	16425	0	1172
-3.787	18.572	16374	16389	0	1172
-5.373	21.818	16374	16361	0	1172
-4.868	20.447	16374	16331	0	1172
-0.397	16.769	16374	16325	0	1172
2.813	12.297	16369	16319	0	1172
3.750	9.412	16369	16313	0	1172
3.534	8.475	16369	16319	0	1172
3.282	9.484	16369	16331	0	1172
3.318	11.179	16369	16343	0	1172
5.986	12.009	16369	16355	0	1172
8.907	13.740	16369	16367	0	1172
10.927	16.516	16369	16379	0	1172
10.927	17.706	16374	16384	0	1172
8.655	17.418	16374	16384	0	1172
7.212	16.228	16377	16401	0	1172
6.167	13.415	16377	16443	0	1172
7.032	12.622	16377	16473	0	1172
10.819	13.091	16377	16496	0	1172
13.668	15.146	16377	16502	0	1172
15.435	15.362	16381	16508	0	1172
17.851	13.487	16381	16508	0	1172
19.582	11.937	16381	16496	0	1172
20.808	11.684	16381	16479	0	1172
23.044	14.028	16381	16455	0	1172
20.267	16.120	16381	16443	0	1172
15.975	19.113	16381	16425	0	1172
11.107	20.700	16381	16407	0	1172
7.501	22.358	16381	16395	0	1172
9.160	24.558	16381	16384	0	1172
12.658	26.974	16377	16367	0	1172
18.031	28.958	16377	16361	0	1172
20.555	29.679	16381	16379	0	1172
19.293	28.237	16381	16401	0	1172
16.661	26.397	16381	16413	0	1172
9.809	22.647	16381	16419	0	1172
4.255	17.490	16384	16431	0	1172
1.046	14.100	16384	16455	0	1172
0.793	12.261	16384	16461	0	1172
3.065	11.215	16384	16455	0	1172
3.354	10.566	16384	16455	0	1172
3.859	10.783	16387	16467	0	1172
2.128	10.242	16387	16479	0	1172
1.190	8.655	16391	16496	0	1172
1.406	8.114	16391	16496	0	1172
-0.325	5.770	16391	16491	0	1172
-3.787	3.642	16391	16473	0	1172
-7.429	1.442	16391	16455	0	1172
-10.061	0.433	16391	16431	0	1172
-9.665	-0.541	16391	16407	0	1172
-10.710	-3.282	16391	16384	0	1172
-13.668	-7.285	16391	16349	0	1172
-18.139	-12.622	16387	16301	0	1172
-20.736	-14.461	16387	16260	0	1172
-20.880	-13.956	16387	16224	0	1172
-18.067	-8.799	16384	16194	0	1172
-16.228	-5.986	16384	16165	0	1172
-15.651	-5.986	16381	16153	0	1172
-15.146	-8.871	16381	16159	0	1172
-13.235	-13.848	16381	16170	0	1172
-13.018	-15.831	16381	16188	0	1172
-14.605	-14.425	16381	16224	0	1172
-20.519	-12.189	16381	16266	0	1172
-28.777	-10.133	16381	16313	0	1172
-36.459	-11.900	16384	16367	0	1172
-42.986	-16.661	16384	16425	0	1172
-47.494	-21.890	16387	16485	0	1172
-52.759	-26.109	16391	16520	0	1172
-58.817	-26.433	16391	16532	0	1172
-65.308	-26.866	16391	16538	0	1172
-68.085	-24.666	16391	16538	0	1172
-65.344	-20.988	16394	16526	0	1172
-55.824	-12.910	16387	16496	0	1172
-45.871	-4.291	16391	16461	0	1172
-40.426	1.479	16391	16419	0	1172
-43.094	1.731	16391	16389	0	1172
-47.386	-1.190	16391	16367	0	1172
-48.792	-4.075	16384	16337	0	1172
-47.133	-1.406	16384	16307	0	1172
-41.616	3.029	16384	16277	0	1172
-35.160	8.258	16381	16254	0	1172
-28.309	9.304	16384	16242	0	1172
-19.906	9.016	16381	16224	0	1172
-11.468	8.655	16381	16212	0	1172
-8.619	9.304	16381	16218	0	1172
-8.799	10.566	16381	16242	0	1172
-9.953	14.028	16381	16277	0	1172
-4.472	17.454	16381	16319	0	1172
6.852	21.385	16381	16355	0	1172
16.985	23.549	16381	16367	0	1172
21.781	24.342	16384	16384	0	1172
21.781	23.801	16384	16395	0	1172
19.654	24.594	16384	16401	0	1172
22.791	30.220	16384	16407	0	1172
31.013	40.317	16384	16419	0	1172
39.668	50.992	16384	16443	0	1172
45.402	62.243	16384	16461	0	1172
48.828	68.229	16384	16473	0	1172
49.189	68.842	16384	16479	0	1172
47.674	63.794	16387	16485	0	1172
40.750	54.670	16387	16467	0	1172
32.780	46.881	16384	16431	0	1172
23.837	45.114	16384	16389	0	1172
18.716	51.100	16381	16355	0	1172
20.772	60.079	16381	16313	0	1172
23.945	66.102	16381	16266	0	1172
26.686	66.643	16377	16224	0	1172
25.099	63.397	16374	16188	0	1172
18.788	57.807	16369	16159	0	1172
10.169	52.723	16369	16141	0	1172
2.849	50.451	16366	16129	0	1172
2.200	52.398	16366	16141	0	1172
6.888	58.925	16362	16176	0	1172
11.756	68.698	16362	16212	0	1172
10.530	74.396	16362	16236	0	1172
-1.623	71.006	16362	16277	0	1172
-16.480	62.243	16366	16355	0	1172
-24.775	55.427	16369	16419	0	1172
-17.959	57.158	16369	16473	0	1172
-1.659	68.554	16374	16520	0	1172
17.382	81.608	16374	16562	0	1172
30.472	89.686	16377	16592	0	1172
37.000	89.794	16377	16603	0	1172
39.524	84.277	16377	16609	0	1172
40.714	78.110	16377	16615	0	1172
44.825	78.182	16381	16609	0	1172
48.431	83.808	16381	16592	0	1172
55.716	93.040	16381	16562	0	1172
63.902	101.010	16381	16538	0	1172
71.078	106.022	16381	16526	0	1172
73.026	106.455	16381	16514	0	1172
67.833	104.436	16381	16496	0	1172
56.762	100.180	16381	16467	0	1172
45.078	96.213	16377	16437	0	1172
38.334	91.850	16377	16425	0	1172
44.681	92.571	16377	16407	0	1172
57.807	96.358	16377	16407	0	1172
71.078	103.534	16381	16419	0	1172
76.812	107.970	16381	16437	0	1172
70.537	107.717	16381	16455	0	1172
60.115	103.750	16384	16485	0	1172
52.182	98.846	16384	16508	0	1172
51.749	97.440	16384	16508	0	1172
54.959	99.387	16387	16491	0	1172
55.536	104.796	16387	16496	0	1172
50.559	108.294	16387	16508	0	1172
37.072	107.609	16387	16496	0	1172
23.476	99.639	16387	16449	0	1172
12.658	88.568	16387	16395	0	1172
11.828	79.192	16387	16355	0	1172
18.536	78.543	16384	16313	0	1172
26.614	83.844	16384	16283	0	1172
29.787	89.939	16384	16272	0	1172
23.044	88.208	16384	16260	0	1172
11.035	81.248	16381	16230	0	1172
1.767	73.927	16377	16170	0	1172
-1.911	71.944	16377	16123	0	1172
0.433	77.822	16374	16099	0	1172
3.606	83.736	16374	16093	0	1172
2.741	84.890	16369	16081	0	1172
-3.642	81.031	16366	16075	0	1172
-12.838	71.836	16369	16075	0	1172
-22.755	63.145	16374	16099	0	1172
-30.617	57.699	16366	16135	0	1172
-38.370	55.355	16366	16170	0	1172
-45.078	55.139	16366	16212	0	1172
-54.345	54.850	16366	16272	0	1172
-63.830	52.723	16369	16325	0	1172
-72.052	48.648	16369	16367	0	1172
-74.432	44.176	16369	16395	0	1172
-70.032	42.914	16369	16449	0	1172
-62.135	42.048	16374	16514	0	1172
-54.670	40.101	16374	16574	0	1172
-52.470	36.531	16377	16621	0	1172
-56.581	28.128	16381	16663	0	1172
-63.577	18.320	16381	16699	0	1172
-70.105	9.484	16384	16716	0	1172
-73.134	5.409	16384	16716	0	1172
-70.718	6.419	16387	16699	0	1172
-67.292	10.097	16387	16669	0	1172
-63.469	13.523	16387	16639	0	1172
-67.003	11.792	16387	16615	0	1172
-75.766	3.173	16387	16598	0	1172
-85.106	-4.003	16387	16574	0	1172
-88.713	-6.167	16391	16550	0	1172
-84.061	-2.019	16391	16520	0	1172
-77.137	4.868	16391	16485	0	1172
-74.540	6.311	16391	16455	0	1172
-78.471	1.442	16391	16425	0	1172
-85.719	-4.977	16391	16401	0	1172
-90.263	-8.439	16391	16384	0	1172
-92.752	-7.176	16391	16379	0	1172
-97.115	-5.986	16387	16355	0	1172
-107.681	-5.986	16387	16319	0	1172
-119.293	-5.445	16387	16319	0	1172
-128.020	-1.515	16391	16343	0	1172
-131.085	2.416	16391	16367	0	1172
-132.672	2.633	16391	16367	0	1172
-134.079	-3.570	16391	16379	0	1172
-138.803	-11.215	16394	16389	0	1172
-142.048	-15.795	16394	16407	0	1172
-140.389	-11.179	16394	16419	0	1172
-135.737	-6.347	16399	16413	0	1172
-131.843	-3.895	16394	16401	0	1172
-132.492	-9.953	16399	16389	0	1172
-135.521	-17.490	16394	16367	0	1172
-137.108	-23.729	16391	16325	0	1172
-132.456	-24.702	16391	16283	0	1172
-121.349	-18.536	16387	16242	0	1172
-109.340	-10.963	16387	16200	0	1172
-101.479	-4.327	16384	16153	0	1172
-101.226	-3.534	16381	16105	0	1172
-105.265	-4.147	16381	16069	0	1172
-106.671	-6.239	16377	16052	0	1172
-102.164	-7.465	16377	16063	0	1172
-90.119	-4.580	16377	16105	0	1172
-75.658	-0.793	16381	16159	0	1172
-61.378	4.544	16381	16206	0	1172
-51.136	11.179	16381	16236	0	1172
-46.304	17.202	16381	16277	0	1172
-45.546	20.014	16381	16337	0	1172
-49.333	17.093	16384	16395	0	1172
-55.175	12.333	16384	16437	0	1172
-57.519	13.595	16384	16473	0	1172
-55.247	20.267	16387	16502	0	1172
-48.467	32.492	16387	16520	0	1172
-39.596	39.163	16387	16532	0	1172
-31.843	38.514	16387	16520	0	1172
-23.837	35.305	16387	16479	0	1172
-11.937	36.603	16384	16437	0	1172
2.849	44.320	16384	16401	0	1172
16.733	52.975	16384	16379	0	1172
26.397	56.437	16381	16349	0	1172
32.528	53.552	16381	16331	0	1172
35.882	51.352	16377	16301	0	1172
41.688	55.391	16377	16266	0	1172
46.304	63.613	16377	16236	0	1172
46.412	68.951	16374	16212	0	1172
40.534	67.580	16369	16200	0	1172
30.689	63.541	16369	16200	0	1172
21.421	61.594	16369	16224	0	1172
11.937	67.364	16369	16266	0	1172
6.239	77.028	16369	16301	0	1172
4.977	85.142	16369	16343	0	1172
12.550	88.460	16369	16384	0	1172
26.217	88.640	16369	16431	0	1172
42.048	89.506	16374	16467	0	1172
53.624	91.778	16374	16491	0	1172
61.486	94.230	16377	16544	0	1172
66.859	95.204	16377	16609	0	1172
77.137	93.040	16381	16657	0	1172
87.126	91.850	16384	16681	0	1172
91.634	91.309	16384	16699	0	1172
88.027	94.446	16387	16716	0	1172
76.632	96.286	16387	16722	0	1172
65.236	97.223	16391	16705	0	1172
57.771	96.105	16391	16675	0	1172
60.620	95.348	16391	16639	0	1172
73.350	100.252	16391	16592	0	1172
93.617	110.314	16391	16532	0	1172
116.156	121.168	16387	16473	0	1172
131.302	129.138	16387	16419	0	1172
135.197	130.184	16387	16373	0	1172
132.203	128.561	16387	16331	0	1172
126.289	125.207	16384	16307	0	1172
123.585	123.296	16384	16295	0	1172
127.155	120.375	16384	16272	0	1172
131.590	116.480	16384	16248	0	1172
136.026	109.701	16384	16236	0	1172
135.449	102.056	16384	16260	0	1172
128.164	95.023	16384	16295	0	1172
111.323	85.251	16384	16319	0	1172
90.119	77.461	16384	16337	0	1172
73.170	70.465	16387	16361	0	1172
63.361	64.479	16387	16389	0	1172
58.312	57.663	16387	16425	0	1172
53.877	48.864	16391	16443	0	1172
40.209	39.488	16391	16467	0	1172
21.349	29.715	16394	16479	0	1172
-1.118	19.510	16394	16491	0	1172
-24.306	6.022	16394	16491	0	1172
-45.222	-11.035	16394	16491	0	1172
-64.840	-29.571	16399	16485	0	1172
-78.904	-42.553	16399	16467	0	1172
-85.106	-47.602	16399	16443	0	1172
-84.277	-48.900	16394	16413	0	1172
-83.339	-54.814	16399	16384	0	1172
-89.903	-68.662	16394	16367	0	1172
-106.708	-85.936	16391	16331	0	1172
-129.859	-102.596	16391	16289	0	1172
-153.228	-109.160	16387	16242	0	1172
-169.383	-110.422	16387	16200	0	1172
-179.661	-108.583	16384	16170	0	1172
-185.900	-108.943	16384	16159	0	1172
-191.814	-111.684	16384	16170	0	1172
-196.899	-116.408	16384	16200	0	1172
-199.712	-122.755	16384	16230	0	1172
-200.649	-128.633	16384	16260	0	1172
-198.161	-134.115	16384	16295	0	1172
-196.105	-134.656	16387	16343	0	1172
-193.437	-133.429	16387	16384	0	1172
-193.256	-131.951	16387	16401	0	1172
-197.944	-133.970	16387	16419	0	1172
-204.291	-136.928	16391	16449	0	1172
-208.979	-139.127	16391	16479	0	1172
-210.710	-136.855	16391	16496	0	1172
-208.078	-128.994	16394	16502	0	1172
-204.760	-122.214	16394	16508	0	1172
-204.400	-118.175	16394	16520	0	1172
-203.246	-117.815	16394	16514	0	1172
-199.387	-116.300	16399	16502	0	1172
-190.227	-113.884	16399	16479	0	1172
-178.219	-107.753	16399	16461	0	1172
-166.715	-100.938	16399	16437	0	1172
-157.807	-96.250	16394	16407	0	1172
-148.792	-91.706	16394	16373	0	1172
-137.108	-84.890	16394	16337	0	1172
-123.368	-75.947	16394	16319	0	1172
-106.527	-65.020	16391	16313	0	1172
-89.145	-54.959	16391	16313	0	1172
-74.973	-46.845	16391	16319	0	1172
-61.955	-38.190	16391	16325	0	1172
-52.110	-29.282	16387	16319	0	1172
-41.652	-17.274	16387	16313	0	1172
-31.554	-6.816	16387	16319	0	1172
-21.709	-0.793	16387	16325	0	1172
-16.228	0.036	16387	16325	0	1172
-12.622	-2.633	16391	16343	0	1172
-11.648	-6.311	16391	16367	0	1172
-11.396	-9.484	16391	16384	0	1172
-11.504	-10.278	16391	16384	0	1172
-12.441	-9.989	16391	16373	0	1172
-13.415	-8.583	16391	16373	0	1172
-12.982	-4.003	16391	16373	0	1172
-11.396	0.433	16391	16361	0	1172
-13.451	4.219	16387	16337	0	1172
-19.113	5.626	16387	16319	0	1172
-24.089	4.977	16387	16301	0	1172
-22.539	6.347	16384	16277	0	1172
-12.694	8.655	16384	16272	0	1172
4.832	14.461	16384	16266	0	1172
18.356	21.204	16384	16272	0	1172
26.578	26.037	16384	16283	0	1172
26.578	26.902	16384	16301	0	1172
24.198	23.657	16384	16319	0	1172
22.142	18.716	16384	16337	0	1172
24.162	17.346	16381	16349	0	1172
29.391	21.926	16381	16361	0	1172
32.384	29.102	16381	16373	0	1172
32.456	35.449	16384	16384	0	1172
28.669	35.737	16384	16395	0	1172
27.479	35.774	16384	16413	0	1172
34.980	40.534	16384	16443	0	1172
49.621	53.228	16384	16479	0	1172
61.342	66.138	16387	16496	0	1172
62.171	70.682	16387	16496	0	1172
49.153	63.253	16387	16508	0	1172
30.797	46.881	16387	16526	0	1172
16.805	34.475	16391	16532	0	1172
11.107	28.814	16391	16532	0	1172
11.107	30.508	16391	16514	0	1172
12.838	32.239	16391	16491	0	1172
11.432	31.302	16391	16473	0	1172
8.258	25.279	16391	16461	0	1172
4.868	20.952	16391	16443	0	1172
0.685	19.546	16387	16425	0	1172
-1.839	22.395	16391	16413	0	1172
-3.931	28.237	16391	16395	0	1172
-7.501	32.780	16387	16379	0	1172
-14.713	31.807	16387	16337	0	1172
-24.739	25.929	16384	16295	0	1172
-33.502	17.346	16384	16248	0	1172
-36.675	11.468	16384	16224	0	1172
-36.711	7.825	16384	16230	0	1172
-39.127	2.705	16384	16254	0	1172
-46.881	-5.590	16381	16272	0	1172
-56.365	-15.074	16381	16272	0	1172
-60.837	-19.978	16381	16277	0	1172
-59.178	-15.975	16381	16301	0	1172
-54.850	-7.681	16381	16307	0	1172
-56.365	-3.570	16381	16301	0	1172
-63.072	-6.419	16381	16307	0	1172
-69.708	-11.360	16384	16325	0	1172
-69.419	-11.396	16381	16337	0	1172
-63.433	-3.895	16377	16337	0	1172
-57.988	5.626	16377	16325	0	1172
-59.863	9.629	16377	16331	0	1172
-65.885	2.849	16377	16349	0	1172
-74.504	-9.629	16377	16379	0	1172
-78.940	-19.798	16377	16389	0	1172
-79.445	-23.765	16377	16401	0	1172
-76.812	-16.048	16377	16395	0	1172
-74.360	-5.445	16377	16389	0	1172
-74.216	3.642	16377	16395	0	1172
-71.078	5.950	16377	16413	0	1172
-66.426	5.085	16377	16431	0	1172
-61.846	3.714	16377	16437	0	1172
-58.529	5.517	16377	16431	0	1172
-59.034	8.943	16377	16443	0	1172
-63.253	9.412	16377	16461	0	1172
-63.072	7.717	16381	16473	0	1172
-59.502	5.301	16381	16479	0	1172
-51.893	4.327	16381	16508	0	1172
-45.835	7.393	16384	16556	0	1172
-46.845	8.691	16384	16592	0	1172
-48.539	11.071	16387	16603	0	1172
-48.143	12.081	16391	16627	0	1172
-42.012	13.235	16391	16651	0	1172
-34.439	13.054	16394	16663	0	1172
-31.843	8.583	16394	16657	0	1172
-37.685	2.957	16399	16639	0	1172
-46.881	-3.823	16399	16609	0	1172
-54.418	-7.032	16399	16574	0	1172
-56.149	-8.222	16399	16526	0	1172
-53.805	-7.357	16399	16479	0	1172
-50.956	-8.871	16399	16425	0	1172
-49.621	-8.547	16391	16373	0	1172
-47.710	-7.140	16394	16319	0	1172
-41.940	-3.534	16391	16266	0	1172
-38.947	-2.452	16391	16212	0	1172
-37.360	-5.662	16387	16165	0	1172
-41.580	-11.612	16384	16123	0	1172
-47.061	-15.507	16381	16099	0	1172
-49.874	-9.845	16384	16099	0	1172
-46.340	-0.577	16384	16117	0	1172
-40.966	6.563	16384	16135	0	1172
-34.800	7.140	16381	16159	0	1172
-32.564	-0.613	16384	16194	0	1172
-32.023	-7.717	16384	16236	0	1172
-33.141	-9.592	16384	16272	0	1172
-38.298	-7.609	16384	16289	0	1172
-44.609	-7.501	16384	16301	0	1172
-46.051	-8.619	16384	16319	0	1172
-40.245	-9.809	16384	16343	0	1172
-24.955	-5.517	16384	16379	0	1172
-8.727	1.983	16387	16413	0	1172
-1.154	6.599	16387	16467	0	1172
-4.147	5.301	16387	16508	0	1172
-12.441	1.226	16387	16532	0	1172
-16.661	-1.731	16387	16532	0	1172
-14.245	2.164	16387	16520	0	1172
-7.825	9.665	16387	16491	0	1172
-3.787	15.579	16387	16437	0	1172
-3.137	20.303	16384	16384	0	1172
-3.101	24.306	16384	16343	0	1172
0.505	32.997	16381	16313	0	1172
8.150	44.356	16381	16295	0	1172
16.048	55.572	16381	16289	0	1172
19.798	63.974	16381	16301	0	1172
19.365	67.544	16381	16313	0	1172
15.723	67.111	16381	16325	0	1172
10.061	63.722	16381	16331	0	1172
5.806	60.584	16384	16349	0	1172
2.885	59.394	16384	16384	0	1172
3.246	60.945	16384	16401	0	1172
8.511	66.102	16384	16413	0	1172
13.595	71.944	16384	16419	0	1172
17.526	74.793	16387	16431	0	1172
17.166	72.413	16384	16455	0	1172
14.389	65.200	16384	16479	0	1172
12.045	55.139	16387	16496	0	1172
11.900	47.241	16387	16526	0	1172
15.507	44.248	16391	16562	0	1172
20.916	48.071	16391	16586	0	1172
24.270	52.146	16394	16598	0	1172
24.125	52.182	16394	16586	0	1172
17.706	47.277	16394	16556	0	1172
9.556	39.452	16394	16508	0	1172
1.479	35.629	16394	16461	0	1172
-2.849	36.314	16391	16407	0	1172
-5.013	39.560	16391	16367	0	1172
-6.239	42.337	16391	16325	0	1172
-6.239	41.652	16387	16283	0	1172
-5.590	40.534	16387	16242	0	1172
-4.147	42.337	16384	16200	0	1172
-2.452	42.157	16381	16153	0	1172
-2.416	40.606	16381	16117	0	1172
-3.173	35.521	16381	16117	0	1172
-3.750	30.148	16377	16141	0	1172
-7.501	23.765	16377	16165	0	1172
-11.828	22.070	16377	16182	0	1172
-17.093	21.132	16377	16230	0	1172
-17.743	22.286	16381	16307	0	1172
-13.379	23.873	16381	16384	0	1172
-4.652	28.922	16384	16461	0	1172
4.688	34.583	16387	16538	0	1172
9.556	40.353	16391	16598	0	1172
10.566	42.445	16391	16633	0	1172
5.301	40.642	16394	16639	0	1172
-1.731	35.810	16394	16627	0	1172
-10.314	29.571	16399	16621	0	1172
-18.247	25.496	16399	16615	0	1172
-21.168	22.972	16399	16603	0	1172
-22.647	23.837	16399	16580	0	1172
-22.539	24.053	16402	16568	0	1172
-25.243	23.008	16402	16550	0	1172
-31.013	19.149	16402	16526	0	1172
-32.167	14.605	16399	16473	0	1172
-29.571	12.153	16394	16401	0	1172
-20.231	12.117	16394	16349	0	1172
-11.035	16.769	16394	16301	0	1172
-5.409	20.411	16391	16272	0	1172
-4.327	24.522	16391	16254	0	1172
-1.659	29.246	16391	16254	0	1172
1.731	31.662	16391	16254	0	1172
1.983	31.049	16391	16248	0	1172
-5.734	24.306	16391	16260	0	1172
-19.257	15.975	16391	16301	0	1172
-32.816	11.035	16394	16343	0	1172
-34.800	14.461	16394	16373	0	1172
-27.227	23.152	16394	16389	0	1172
-18.283	30.833	16399	16425	0	1172
-13.668	34.944	16399	16449	0	1172
-14.245	35.990	16399	16467	0	1172
-17.815	36.278	16402	16473	0	1172
-18.680	36.891	16402	16461	0	1172
-18.536	35.485	16399	16449	0	1172
-19.618	30.400	16399	16419	0	1172
-23.116	26.433	16399	16384	0	1172
-24.486	25.640	16399	16355	0	1172
-26.145	30.653	16394	16325	0	1172
-30.869	35.269	16394	16283	0	1172
-40.101	37.973	16391	16230	0	1172
-51.424	38.767	16387	16176	0	1172
-60.981	37.144	16387	16135	0	1172
-63.758	33.646	16384	16111	0	1172
-57.663	30.112	16384	16105	0	1172
-45.943	25.316	16381	16093	0	1172
-32.636	24.991	16381	16081	0	1172
-19.726	29.968	16377	16063	0	1172
-10.674	36.531	16374	16052	0	1172
-8.655	37.432	16374	16052	0	1172
-12.369	28.417	16369	16069	0	1172
-16.733	15.651	16366	16081	0	1172
-19.762	5.337	16366	16105	0	1172
-19.365	2.993	16366	16147	0	1172
-18.139	5.698	16366	16200	0	1172
-19.690	8.186	16374	16254	0	1172
-23.332	9.448	16369	16301	0	1172
-26.289	10.963	16369	16379	0	1172
-28.381	16.589	16374	16455	0	1172
-27.335	23.801	16374	16514	0	1172
-28.633	27.083	16374	16532	0	1172
-30.689	25.352	16374	16538	0	1172
-33.754	21.565	16374	16538	0	1172
-32.059	19.942	16374	16532	0	1172
-28.164	23.801	16374	16520	0	1172
-27.263	29.931	16374	16508	0	1172
-35.846	32.853	16374	16496	0	1172
-52.182	30.761	16369	16496	0	1172
-67.436	24.847	16369	16485	0	1172
-72.990	19.834	16369	16461	0	1172
-66.354	15.939	16369	16425	0	1172
-55.427	12.081	16369	16389	0	1172
-48.648	9.124	16369	16379	0	1172
-50.559	6.455	16366	16367	0	1172
-54.959	4.400	16366	16379	0	1172
-55.463	6.094	16366	16395	0	1172
-49.189	11.504	16366	16419	0	1172
-37.613	17.129	16369	16449	0	1172
-24.342	22.214	16369	16491	0	1172
-14.172	26.181	16374	16544	0	1172
-12.369	24.739	16374	16586	0	1172
-15.254	22.575	16377	16621	0	1172
-21.385	21.024	16381	16657	0	1172
-24.630	20.844	16381	16699	0	1172
-24.017	21.421	16384	16728	0	1172
-21.673	18.392	16387	16746	0	1172
-18.428	14.785	16387	16752	0	1172
-14.749	14.677	16391	16746	0	1172
-8.439	21.096	16391	16728	0	1172
-0.397	30.833	16394	16693	0	1172
8.150	38.045	16394	16645	0	1172
10.638	35.233	16394	16592	0	1172
11.612	25.424	16394	16526	0	1172
12.189	17.779	16391	16467	0	1172
14.208	14.858	16391	16407	0	1172
16.805	19.546	16391	16361	0	1172
16.625	26.181	16391	16313	0	1172
15.435	28.994	16387	16272	0	1172
14.389	28.886	16387	16254	0	1172
17.887	24.486	16387	16248	0	1172
21.024	20.123	16387	16260	0	1172
22.827	15.326	16387	16266	0	1172
19.401	14.858	16387	16260	0	1172
17.093	16.589	16387	16260	0	1172
17.670	20.736	16387	16260	0	1172
21.998	23.621	16387	16248	0	1172
26.217	21.926	16387	16242	0	1172
28.886	17.598	16387	16254	0	1172
25.965	10.855	16387	16277	0	1172
22.070	3.498	16387	16295	0	1172
19.654	-4.003	16387	16313	0	1172
20.808	-11.973	16391	16349	0	1172
25.748	-15.182	16391	16384	0	1172
33.646	-14.858	16391	16389	0	1172
38.658	-10.819	16391	16395	0	1172
35.990	-6.419	16394	16401	0	1172
26.001	-6.455	16387	16384	0	1172
13.595	-7.068	16387	16361	0	1172
6.888	-5.842	16387	16319	0	1172
5.373	0.180	16384	16283	0	1172
6.708	4.327	16384	16254	0	1172
5.265	3.967	16384	16230	0	1172
-0.865	-1.587	16381	16200	0	1172
-6.419	-10.783	16381	16182	0	1172
-10.278	-14.605	16377	16165	0	1172
-13.740	-16.661	16377	16153	0	1172
-18.067	-15.831	16377	16141	0	1172
-24.378	-16.661	16377	16141	0	1172
-27.479	-19.221	16374	16159	0	1172
-29.282	-22.142	16374	16206	0	1172
-29.427	-23.801	16374	16248	0	1172
-35.124	-27.119	16374	16283	0	1172
-43.166	-28.345	16377	16331	0	1172
-51.677	-30.040	16377	16384	0	1172
-54.742	-33.141	16377	16425	0	1172
-51.893	-32.853	16377	16449	0	1172
-45.727	-31.735	16381	16479	0	1172
-35.954	-26.758	16381	16491	0	1172
-27.155	-18.356	16377	16485	0	1172
-22.142	-12.405	16377	16461	0	1172
-26.397	-12.514	16377	16437	0	1172
-34.836	-16.408	16377	16419	0	1172
-46.304	-18.500	16377	16401	0	1172
-48.828	-13.884	16374	16389	0	1172
-44.609	-4.832	16374	16379	0	1172
-41.147	2.633	16374	16361	0	1172
-49.261	1.767	16369	16337	0	1172
-64.912	-5.229	16369	16325	0	1172
-80.635	-10.386	16369	16319	0	1172
-82.834	-8.907	16369	16319	0	1172
-70.537	-0.577	16369	16325	0	1172
-52.218	9.376	16374	16331	0	1172
-38.118	15.074	16369	16349	0	1172
-35.737	15.615	16369	16379	0	1172
-42.084	10.278	16369	16413	0	1172
-48.323	3.065	16374	16461	0	1172
-53.877	-0.649	16374	16502	0	1172
-57.447	1.118	16377	16550	0	1172
-58.817	9.304	16377	16598	0	1172
-57.843	20.375	16381	16633	0	1172
-52.723	30.617	16384	16669	0	1172
-44.284	36.242	16384	16705	0	1172
-35.016	37.468	16387	16734	0	1172
-32.239	35.052	16391	16746	0	1172
-36.459	30.869	16391	16746	0	1172
-42.770	27.624	16394	16728	0	1172
-45.078	26.397	16394	16699	0	1172
-41.580	29.030	16394	16657	0	1172
-32.636	32.348	16399	16621	0	1172
-23.585	33.646	16399	16592	0	1172
-18.824	32.456	16399	16562	0	1172
-15.831	29.066	16394	16526	0	1172
-14.353	26.866	16399	16485	0	1172
-11.107	26.181	16399	16437	0	1172
-7.248	28.164	16394	16389	0	1172
-3.606	28.201	16394	16349	0	1172
-0.361	27.912	16391	16307	0	1172
5.373	25.532	16391	16260	0	1172
14.208	25.604	16391	16224	0	1172
27.624	27.083	16391	16200	0	1172
42.517	31.374	16387	16182	0	1172
52.975	33.429	16387	16176	0	1172
55.716	32.131	16387	16188	0	1172
51.100	26.397	16391	16242	0	1172
44.212	22.322	16391	16295	0	1172
38.839	20.195	16391	16325	0	1172
39.019	22.863	16394	16349	0	1172
43.707	29.282	16394	16367	0	1172
50.920	33.862	16394	16361	0	1172
56.040	37.829	16394	16331	0	1172
56.076	36.675	16391	16289	0	1172
50.847	34.475	16391	16242	0	1172
43.058	31.374	16387	16182	0	1172
35.197	29.354	16384	16141	0	1172
31.085	29.463	16384	16105	0	1172
30.220	30.400	16381	16081	0	1172
30.220	32.348	16377	16058	0	1172
32.312	35.088	16374	16040	0	1172
33.177	38.045	16374	16016	0	1172
32.744	41.039	16369	16010	0	1172
28.489	41.075	16366	16016	0	1172
21.096	37.216	16362	16022	0	1172
15.110	32.780	16362	16040	0	1172
14.028	30.869	16362	16087	0	1172
14.641	30.292	16362	16159	0	1172
15.146	33.177	16362	16236	0	1172
11.648	35.197	16369	16307	0	1172
4.436	35.665	16369	16384	0	1172
-2.633	36.639	16369	16473	0	1172
-3.642	38.695	16374	16550	0	1172
-3.210	42.409	16374	16609	0	1172
-1.479	43.455	16377	16663	0	1172
-2.560	39.632	16381	16699	0	1172
-6.094	34.656	16381	16710	0	1172
-7.898	26.974	16381	16710	0	1172
-6.671	26.181	16381	16705	0	1172
-2.633	27.443	16384	16687	0	1172
-0.829	30.545	16381	16657	0	1172
-3.787	29.499	16381	16615	0	1172
-12.694	25.496	16381	16580	0	1172
-18.680	23.621	16381	16556	0	1172
-22.142	26.037	16381	16532	0	1172
-19.582	31.158	16381	16514	0	1172
-17.959	35.629	16381	16502	0	1172
-21.385	35.774	16381	16485	0	1172
-28.237	33.646	16381	16461	0	1172
-36.242	30.869	16381	16431	0	1172
-41.543	31.230	16381	16407	0	1172
-42.409	28.886	16381	16384	0	1172
-44.032	22.539	16381	16367	0	1172
-43.779	13.559	16377	16355	0	1172
-43.202	4.111	16377	16337	0	1172
-40.173	2.705	16377	16331	0	1172
-34.295	6.094	16377	16343	0	1172
-28.453	12.045	16381	16361	0	1172
-24.558	16.805	16381	16384	0	1172
-22.214	19.149	16381	16419	0	1172
-19.618	19.618	16384	16467	0	1172
-16.480	20.303	16387	16514	0	1172
-10.458	22.034	16387	16550	0	1172
-1.442	23.585	16391	16586	0	1172
9.412	25.712	16394	16615	0	1172
18.320	27.047	16394	16633	0	1172
23.765	28.056	16399	16621	0	1172
21.781	25.352	16399	16586	0	1172
14.641	20.339	16399	16544	0	1172
5.157	14.317	16399	16496	0	1172
-4.688	9.376	16399	16443	0	1172
-11.287	6.167	16394	16395	0	1172
-14.317	4.724	16394	16367	0	1172
-8.979	8.871	16394	16331	0	1172
3.101	14.064	16394	16295	0	1172
15.038	22.395	16391	16254	0	1172
20.844	28.273	16387	16224	0	1172
16.949	29.571	16391	16200	0	1172
5.626	28.958	16387	16176	0	1172
-1.875	29.318	16387	16159	0	1172
-5.626	31.482	16387	16153	0	1172
-4.327	32.312	16387	16165	0	1172
-4.796	30.653	16384	16182	0	1172
-5.085	27.263	16387	16206	0	1172
-5.481	25.640	16387	16248	0	1172
-1.154	27.696	16387	16283	0	1172
4.508	32.816	16384	16307	0	1172
7.609	35.088	16384	16319	0	1172
8.294	34.620	16384	16355	0	1172
5.121	30.508	16387	16407	0	1172
3.029	26.830	16391	16467	0	1172
4.183	22.863	16391	16508	0	1172
6.599	20.050	16394	16544	0	1172
9.701	19.834	16394	16574	0	1172
11.540	24.017	16399	16603	0	1172
9.484	26.578	16399	16603	0	1172
2.452	28.309	16399	16580	0	1172
-5.301	24.883	16399	16532	0	1172
-9.412	19.726	16399	16473	0	1172
-10.242	16.913	16399	16419	0	1172
-5.986	16.877	16399	16384	0	1172
-7.068	16.048	16394	16355	0	1172
-13.018	11.504	16394	16325	0	1172
-23.476	3.895	16394	16295	0	1172
-29.499	-1.515	16394	16283	0	1172
-27.587	-1.010	16394	16295	0	1172
-20.050	6.058	16394	16319	0	1172
-12.766	14.136	16391	16337	0	1172
-10.819	17.310	16391	16349	0	1172
-16.264	13.415	16394	16367	0	1172
-23.044	2.056	16394	16384	0	1172
-26.289	-9.448	16394	16384	0	1172
-24.270	-16.012	16394	16384	0	1172
-17.779	-15.254	16394	16373	0	1172
-10.710	-10.746	16394	16373	0	1172
-7.645	-5.626	16394	16379	0	1172
-8.006	-3.606	16394	16379	0	1172
-10.710	-6.708	16394	16373	0	1172
-14.497	-9.196	16394	16379	0	1172
-19.401	-14.317	16394	16373	0	1172
-25.424	-18.392	16394	16349	0	1172
-33.249	-23.657	16394	16319	0	1172
-40.894	-25.352	16394	16301	0	1172
-45.799	-25.279	16391	16289	0	1172
-50.307	-26.506	16387	16283	0	1172
-53.696	-28.273	16391	16283	0	1172
-56.870	-32.672	16391	16277	0	1172
-59.935	-37.000	16387	16260	0	1172
-60.728	-38.514	16387	16248	0	1172
-61.594	-39.416	16387	16248	0	1172
-60.981	-41.616	16384	16260	0	1172
-62.748	-48.612	16384	16283	0	1172
-63.145	-54.922	16384	16301	0	1172
-63.000	-56.185	16384	16307	0	1172
-59.430	-51.713	16384	16331	0	1172
-57.086	-43.996	16384	16373	0	1172
-53.552	-36.964	16387	16413	0	1172
-49.766	-32.348	16387	16443	0	1172
-45.078	-28.128	16387	16473	0	1172
-39.019	-24.234	16391	16508	0	1172
-35.737	-18.752	16391	16532	0	1172
-36.242	-15.831	16391	16526	0	1172
-36.531	-12.297	16391	16520	0	1172
-34.583	-4.364	16394	16526	0	1172
-26.397	4.183	16394	16526	0	1172
-19.329	11.143	16394	16496	0	1172
-17.238	10.133	16391	16455	0	1172
-19.401	-0.361	16391	16425	0	1172
-20.664	-10.566	16391	16401	0	1172
-15.759	-15.002	16391	16384	0	1172
-7.212	-11.648	16391	16367	0	1172
-2.813	-4.580	16391	16337	0	1172
-6.744	-0.685	16387	16313	0	1172
-17.562	-2.885	16387	16295	0	1172
-25.496	-5.157	16387	16283	0	1172
-27.191	-5.914	16387	16277	0	1172
-21.745	0.325	16384	16266	0	1172
-14.533	9.196	16384	16248	0	1172
-10.314	15.795	16384	16236	0	1172
-12.261	16.264	16384	16248	0	1172
-20.916	9.412	16384	16277	0	1172
-32.131	-1.118	16381	16295	0	1172
-40.966	-10.206	16381	16307	0	1172
-41.904	-9.629	16381	16319	0	1172
-34.151	-2.669	16381	16337	0	1172
-22.647	7.717	16381	16355	0	1172
-13.054	13.595	16381	16367	0	1172
-10.025	10.206	16381	16384	0	1172
-12.225	-1.154	16384	16395	0	1172
-15.398	-11.179	16384	16407	0	1172
-12.586	-13.956	16381	16407	0	1172
-4.796	-8.799	16381	16389	0	1172
6.347	1.911	16381	16373	0	1172
13.451	8.907	16377	16343	0	1172
11.071	7.248	16377	16313	0	1172
-0.433	-0.361	16377	16283	0	1172
-15.038	-8.691	16374	16272	0	1172
-26.470	-13.054	16374	16272	0	1172
-30.797	-9.881	16374	16283	0	1172
-30.184	-6.275	16369	16289	0	1172
-25.171	-4.327	16369	16283	0	1172
-21.637	-5.698	16369	16272	0	1172
-18.752	-10.494	16369	16266	0	1172
-18.644	-12.658	16374	16266	0	1172
-21.529	-11.864	16369	16277	0	1172
-26.470	-8.511	16369	16307	0	1172
-31.374	-4.580	16366	16343	0	1172
-33.898	-0.469	16369	16373	0	1172
-33.069	-0.721	16369	16407	0	1172
-32.780	-3.967	16369	16455	0	1172
-34.187	-11.468	16374	16508	0	1172
-36.639	-19.437	16374	16550	0	1172
-37.757	-22.791	16377	16598	0	1172
-35.882	-21.493	16377	16651	0	1172
-30.292	-16.769	16381	16687	0	1172
-26.470	-13.451	16381	16699	0	1172
-28.597	-15.002	16384	16705	0	1172
-35.052	-18.788	16384	16705	0	1172
-41.039	-22.322	16387	16699	0	1172
-45.186	-23.729	16387	16669	0	1172
-43.058	-22.683	16387	16621	0	1172
-40.642	-22.611	16387	16562	0	1172
-39.993	-22.827	16387	16514	0	1172
-42.481	-21.926	16384	16485	0	1172
-45.871	-20.880	16384	16455	0	1172
-43.383	-15.218	16384	16419	0	1172
-37.432	-8.186	16384	16389	0	1172
-28.922	-1.875	16384	16373	0	1172
-23.873	0.325	16384	16355	0	1172
-28.453	-3.787	16384	16343	0	1172
-36.747	-11.576	16384	16331	0	1172
-44.573	-19.185	16384	16313	0	1172
-47.962	-22.863	16384	16307	0	1172
-46.051	-22.539	16384	16325	0	1172
-43.996	-22.791	16384	16361	0	1172
-48.503	-24.270	16384	16379	0	1172
-57.050	-28.958	16384	16379	0	1172
-63.289	-33.393	16387	16384	0	1172
-61.774	-32.744	16387	16395	0	1172
-47.638	-26.902	16387	16401	0	1172
-30.617	-19.185	16387	16395	0	1172
-24.198	-17.093	16387	16389	0	1172
-33.213	-22.935	16391	16401	0	1172
-56.942	-37.793	16391	16407	0	1172
-79.012	-50.198	16391	16395	0	1172
-88.280	-53.660	16391	16384	0	1172
-82.221	-46.412	16391	16367	0	1172
-67.869	-34.583	16387	16349	0	1172
-58.384	-28.381	16387	16325	0	1172
-58.601	-30.400	16387	16295	0	1172
-63.613	-36.134	16387	16277	0	1172
-61.450	-34.656	16387	16277	0	1172
-50.811	-24.378	16387	16289	0	1172
-32.925	-8.907	16387	16313	0	1172
-24.053	0.649	16387	16349	0	1172
-28.273	-2.056	16387	16367	0	1172
-42.553	-10.999	16387	16373	0	1172
-54.922	-17.057	16387	16367	0	1172
-58.384	-13.415	16387	16355	0	1172
-56.149	-7.717	16387	16349	0	1172
-53.228	-4.724	16387	16355	0	1172
-51.172	-5.842	16387	16349	0	1172
-48.179	-7.393	16387	16343	0	1172
-40.209	-3.246	16387	16361	0	1172
-33.321	3.246	16387	16395	0	1172
-32.961	5.770	16391	16443	0	1172
-39.885	-0.288	16394	16485	0	1172
-48.648	-9.016	16394	16514	0	1172
-50.667	-13.992	16391	16520	0	1172
-45.366	-12.658	16391	16508	0	1172
-36.026	-9.088	16391	16479	0	1172
-32.997	-7.753	16391	16461	0	1172
-36.675	-11.468	16394	16449	0	1172
-43.635	-16.877	16394	16437	0	1172
-48.792	-17.959	16394	16425	0	1172
-48.179	-16.408	16391	16401	0	1172
-43.130	-14.569	16391	16367	0	1172
-41.363	-15.831	16391	16331	0	1172
-39.740	-18.897	16391	16301	0	1172
-38.190	-19.293	16387	16272	0	1172
-35.701	-14.136	16387	16254	0	1172
-31.879	-7.537	16387	16236	0	1172
-30.869	-1.442	16384	16218	0	1172
-31.843	-0.865	16384	16224	0	1172
-32.780	-1.298	16384	16242	0	1172
-31.879	1.406	16384	16254	0	1172
-25.856	9.845	16384	16260	0	1172
-22.899	17.815	16384	16289	0	1172
-20.555	23.476	16384	16337	0	1172
-18.716	28.345	16387	16379	0	1172
-14.713	32.059	16387	16395	0	1172
-10.242	37.216	16387	16407	0	1172
-6.491	41.147	16387	16413	0	1172
-8.330	42.265	16387	16419	0	1172
-12.802	37.685	16387	16419	0	1172
-16.589	34.800	16387	16413	0	1172
-15.759	36.242	16387	16401	0	1172
-10.746	43.419	16387	16395	0	1172
-5.337	52.254	16387	16395	0	1172
-0.325	59.214	16387	16395	0	1172
1.803	61.125	16387	16384	0	1172
2.164	57.807	16387	16379	0	1172
0.757	50.162	16384	16361	0	1172
-2.813	43.166	16384	16343	0	1172
-11.071	35.197	16384	16319	0	1172
-16.913	28.741	16381	16289	0	1172
-18.716	23.044	16381	16260	0	1172
-12.550	20.700	16377	16230	0	1172
-1.695	15.290	16377	16224	0	1172
4.580	9.196	16377	16230	0	1172
1.046	-0.505	16374	16242	0	1172
-10.314	-8.042	16374	16248	0	1172
-22.827	-9.989	16374	16283	0	1172
-27.299	-3.210	16374	16331	0	1172
-25.640	5.986	16377	16367	0	1172
-25.640	9.592	16377	16389	0	1172
-28.237	8.042	16377	16425	0	1172
-34.620	4.868	16377	16455	0	1172
-37.685	4.436	16377	16467	0	1172
-37.865	10.350	16377	16479	0	1172
-37.937	13.451	16381	16485	0	1172
-40.389	13.163	16377	16485	0	1172
-42.373	10.494	16377	16461	0	1172
-38.190	11.287	16377	16437	0	1172
-28.345	18.644	16377	16413	0	1172
-18.788	27.010	16377	16401	0	1172
-12.874	33.033	16381	16401	0	1172
-13.018	33.321	16377	16389	0	1172
-13.018	31.951	16377	16384	0	1172
-12.694	29.102	16377	16384	0	1172
-12.045	30.508	16381	16395	0	1172
-12.946	31.122	16377	16401	0	1172
-17.815	31.122	16377	16401	0	1172
-21.313	27.371	16377	16401	0	1172
-19.077	24.522	16377	16389	0	1172
-11.396	22.178	16377	16367	0	1172
-0.325	21.962	16374	16349	0	1172
9.124	24.522	16377	16367	0	1172
10.566	23.368	16377	16407	0	1172
3.895	16.516	16377	16449	0	1172
-4.940	8.150	16381	16473	0	1172
-9.088	1.839	16381	16491	0	1172
-8.727	1.875	16381	16508	0	1172
-7.140	5.229	16381	16514	0	1172
-9.773	9.917	16384	16514	0	1172
-18.500	11.215	16384	16526	0	1172
-25.784	8.366	16384	16544	0	1172
-28.417	4.977	16384	16538	0	1172
-23.981	1.154	16384	16508	0	1172
-20.014	-1.911	16384	16473	0	1172
-19.906	-3.750	16384	16443	0	1172
-26.361	-5.121	16384	16431	0	1172
-35.701	-7.140	16384	16431	0	1172
-43.130	-8.042	16384	16425	0	1172
-40.858	-5.806	16387	16413	0	1172
-32.600	-0.108	16384	16407	0	1172
-23.837	7.609	16384	16389	0	1172
-17.851	14.677	16387	16389	0	1172
-20.195	16.408	16387	16407	0	1172
-26.902	14.425	16387	16419	0	1172
-37.216	6.852	16387	16425	0	1172
-46.664	-0.505	16387	16419	0	1172
-56.509	-7.934	16391	16407	0	1172
-62.279	-11.396	16391	16401	0	1172
-62.640	-9.376	16391	16389	0	1172
-55.896	-2.164	16391	16384	0	1172
-47.710	3.426	16391	16379	0	1172
-41.868	5.013	16391	16384	0	1172
-38.082	3.750	16391	16379	0	1172
-36.423	1.551	16391	16361	0	1172
-32.384	2.128	16391	16349	0	1172
-27.660	5.517	16387	16349	0	1172
-25.929	10.169	16391	16355	0	1172
-26.542	13.307	16391	16349	0	1172
-29.210	17.382	16391	16343	0	1172
-29.499	25.243	16391	16337	0	1172
-25.893	36.928	16387	16325	0	1172
-23.693	49.116	16387	16313	0	1172
-25.893	56.906	16384	16301	0	1172
-33.934	58.961	16384	16295	0	1172
-43.743	53.660	16384	16283	0	1172
-44.464	48.215	16384	16272	0	1172
-38.118	46.340	16384	16260	0	1172
-30.689	46.448	16381	16236	0	1172
-28.597	46.412	16381	16212	0	1172
-35.737	43.707	16377	16188	0	1172
-43.310	35.124	16381	16182	0	1172
-43.887	28.994	16377	16188	0	1172
-35.088	25.352	16377	16200	0	1172
-25.135	28.489	16377	16194	0	1172
-20.916	33.538	16377	16182	0	1172
-22.719	34.006	16374	16194	0	1172
-27.804	31.230	16374	16230	0	1172
-28.381	25.099	16374	16272	0	1172
-26.361	19.005	16374	16301	0	1172
-22.899	18.139	16374	16337	0	1172
-22.647	22.286	16374	16373	0	1172
-24.053	28.237	16374	16389	0	1172
-25.279	32.816	16374	16413	0	1172
-25.893	36.170	16377	16449	0	1172
-22.142	37.865	16377	16496	0	1172
-18.788	40.786	16377	16538	0	1172
-17.923	42.950	16381	16562	0	1172
-21.962	42.553	16381	16568	0	1172
-32.131	39.344	16381	16580	0	1172
-41.111	32.312	16381	16586	0	1172
-43.238	27.515	16384	16592	0	1172
-37.973	26.325	16384	16592	0	1172
-28.128	30.040	16384	16586	0	1172
-23.008	31.951	16384	16568	0	1172
-26.506	30.581	16384	16538	0	1172
-34.944	25.532	16384	16508	0	1172
-42.120	18.572	16384	16479	0	1172
-43.887	15.507	16384	16443	0	1172
-39.452	19.113	16384	16413	0	1172
-32.276	27.047	16381	16389	0	1172
-28.417	34.872	16381	16384	0	1172
-29.751	36.531	16384	16384	0	1172
-34.187	31.879	16381	16384	0	1172
-38.262	25.820	16381	16379	0	1172
-37.036	23.296	16381	16373	0	1172
-30.040	26.181	16384	16379	0	1172
-24.378	30.977	16384	16384	0	1172
-22.935	32.276	16384	16384	0	1172
-28.128	29.174	16384	16395	0	1172
-35.160	22.755	16384	16407	0	1172
-38.695	21.241	16384	16413	0	1172
-35.954	23.116	16384	16407	0	1172
-29.102	26.614	16384	16401	0	1172
-22.142	31.338	16384	16389	0	1172
-17.923	31.951	16384	16379	0	1172
-17.238	34.006	16384	16373	0	1172
-16.769	38.334	16384	16373	0	1172
-12.586	46.015	16384	16373	0	1172
-4.832	54.237	16384	16361	0	1172
2.560	56.040	16384	16355	0	1172
6.347	52.146	16384	16349	0	1172
4.400	46.520	16384	16337	0	1172
4.075	48.720	16384	16319	0	1172
8.871	61.342	16381	16289	0	1172
20.555	78.363	16381	16254	0	1172
32.564	89.758	16381	16242	0	1172
37.144	86.441	16377	16248	0	1172
32.564	72.845	16377	16260	0	1172
24.955	59.611	16377	16277	0	1172
17.995	54.309	16381	16301	0	1172
14.749	56.401	16384	16343	0	1172
13.379	60.837	16384	16379	0	1172
7.537	60.260	16384	16389	0	1172
2.741	54.382	16384	16401	0	1172
-1.767	46.845	16384	16419	0	1172
-0.649	42.878	16384	16431	0	1172
2.452	43.094	16387	16449	0	1172
6.780	48.251	16387	16467	0	1172
5.734	52.542	16387	16479	0	1172
1.839	52.074	16384	16485	0	1172
-5.265	46.917	16384	16491	0	1172
-13.307	38.514	16387	16491	0	1172
-21.132	32.059	16387	16491	0	1172
-26.361	31.699	16387	16485	0	1172
-26.938	37.072	16387	16479	0	1172
-21.060	43.779	16387	16467	0	1172
-9.052	49.513	16387	16443	0	1172
5.409	50.811	16387	16413	0	1172
14.894	51.244	16387	16384	0	1172
15.543	50.775	16387	16367	0	1172
8.258	50.415	16387	16379	0	1172
-3.065	49.297	16387	16389	0	1172
-11.540	47.205	16387	16384	0	1172
-14.172	41.183	16387	16379	0	1172
-13.668	38.226	16387	16384	0	1172
-9.737	36.855	16391	16431	0	1172
-10.097	38.262	16391	16473	0	1172
-12.225	40.750	16391	16479	0	1172
-18.680	38.586	16391	16461	0	1172
-24.017	32.600	16394	16449	0	1172
-26.145	26.253	16394	16443	0	1172
-20.339	24.739	16394	16425	0	1172
-8.691	27.876	16394	16407	0	1172
-0.325	35.341	16394	16384	0	1172
3.246	38.334	16391	16367	0	1172
-1.803	35.377	16391	16349	0	1172
-13.163	27.515	16391	16325	0	1172
-23.008	18.644	16391	16301	0	1172
-32.348	12.189	16391	16277	0	1172
-39.235	9.953	16387	16248	0	1172
-42.012	11.035	16384	16218	0	1172
-38.875	13.992	16384	16200	0	1172
-31.807	18.608	16384	16188	0	1172
-23.224	22.431	16384	16200	0	1172
-20.375	20.844	16384	16212	0	1172
-29.354	15.975	16384	16242	0	1172
-42.409	7.862	16384	16277	0	1172
-50.739	5.590	16384	16307	0	1172
-49.693	8.366	16384	16319	0	1172
-41.652	15.254	16384	16325	0	1172
-35.052	18.608	16384	16337	0	1172
-38.550	13.776	16384	16349	0	1172
-49.838	3.210	16384	16349	0	1172
-59.971	-6.419	16384	16349	0	1172
-62.892	-8.763	16384	16373	0	1172
-58.457	-7.573	16384	16401	0	1172
-53.336	-5.734	16384	16425	0	1172
-53.588	-8.186	16384	16449	0	1172
-58.420	-14.281	16384	16467	0	1172
-66.679	-20.591	16387	16473	0	1172
-75.225	-26.794	16387	16461	0	1172
-84.133	-33.538	16387	16461	0	1172
-92.211	-41.724	16387	16455	0	1172
-96.358	-47.818	16384	16437	0	1172
-95.060	-46.953	16384	16407	0	1172
-87.523	-41.616	16384	16384	0	1172
-81.861	-39.488	16384	16367	0	1172
-82.690	-44.464	16384	16355	0	1172
-89.794	-55.463	16381	16343	0	1172
-97.295	-65.705	16381	16325	0	1172
-101.587	-70.357	16381	16301	0	1172
-100.829	-68.049	16381	16266	0	1172
-100.541	-66.931	16374	16224	0	1172
-106.203	-68.878	16374	16188	0	1172
-117.021	-70.790	16369	16188	0	1172
-131.662	-72.016	16369	16206	0	1172
-141.904	-69.744	16369	16242	0	1172
-141.399	-63.974	16369	16272	0	1172
-133.754	-58.781	16369	16307	0	1172
-124.234	-55.896	16369	16343	0	1172
-119.654	-57.266	16369	16367	0	1172
-123.873	-59.178	16369	16384	0	1172
-130.220	-58.493	16369	16395	0	1172
-132.167	-50.739	16369	16425	0	1172
-126.542	-39.560	16369	16443	0	1172
-116.300	-28.958	16377	16467	0	1172
-107.285	-24.666	16377	16496	0	1172
-104.003	-28.994	16377	16520	0	1172
-106.671	-38.767	16377	16544	0	1172
-111.792	-47.999	16381	16556	0	1172
-115.939	-52.218	16381	16562	0	1172
-115.146	-51.533	16381	16550	0	1172
-111.900	-46.195	16381	16526	0	1172
-107.825	-43.455	16381	16491	0	1172
-105.481	-45.366	16377	16455	0	1172
-104.436	-48.756	16377	16413	0	1172
-102.849	-52.110	16377	16384	0	1172
-99.675	-52.362	16374	16361	0	1172
-98.233	-49.441	16374	16355	0	1172
-97.836	-47.710	16374	16373	0	1172
-99.856	-44.861	16374	16389	0	1172
-98.774	-44.681	16377	16419	0	1172
-95.096	-42.193	16377	16431	0	1172
-87.126	-40.353	16377	16443	0	1172
-79.373	-39.199	16377	16455	0	1172
-75.406	-38.009	16377	16467	0	1172
-77.642	-36.783	16381	16467	0	1172
-79.373	-36.170	16381	16473	0	1172
-76.668	-33.646	16381	16496	0	1172
-68.085	-29.751	16384	16520	0	1172
-59.611	-27.587	16384	16526	0	1172
-57.663	-27.660	16384	16526	0	1172
-64.551	-31.446	16387	16520	0	1172
-74.396	-33.898	16387	16508	0	1172
-76.560	-34.006	16387	16491	0	1172
-72.052	-30.040	16387	16473	0	1172
-66.426	-24.955	16387	16449	0	1172
-67.003	-24.522	16387	16425	0	1172
-75.045	-27.371	16387	16401	0	1172
-84.205	-31.194	16387	16384	0	1172
-87.342	-33.357	16387	16367	0	1172
-83.159	-30.833	16387	16367	0	1172
-77.930	-25.856	16387	16361	0	1172
-74.180	-22.683	16387	16361	0	1172
-75.694	-21.096	16387	16373	0	1172
-78.363	-21.781	16387	16384	0	1172
-78.471	-20.988	16391	16395	0	1172
-77.245	-19.257	16391	16389	0	1172
-74.648	-11.540	16391	16389	0	1172
-73.855	-5.914	16391	16395	0	1172
-77.533	-0.325	16391	16401	0	1172
-80.058	1.767	16391	16395	0	1172
-80.599	2.741	16391	16384	0	1172
-75.658	5.085	16394	16384	0	1172
-64.659	8.691	16394	16384	0	1172
-51.929	14.425	16394	16384	0	1172
-39.416	21.745	16394	16384	0	1172
-30.941	26.506	16394	16384	0	1172
-26.866	31.266	16394	16379	0	1172
-26.830	32.961	16391	16379	0	1172
-28.164	34.547	16391	16373	0	1172
-33.105	34.295	16391	16349	0	1172
-37.973	33.646	16391	16319	0	1172
-41.904	32.961	16387	16277	0	1172
-44.032	32.420	16387	16248	0	1172
-41.940	32.780	16387	16218	0	1172
-37.072	35.052	16384	16188	0	1172
-33.574	38.226	16381	16159	0	1172
-30.436	40.173	16381	16135	0	1172
-32.312	40.966	16377	16129	0	1172
-35.449	39.127	16377	16117	0	1172
-37.613	38.118	16374	16093	0	1172
-38.478	36.891	16374	16081	0	1172
-37.072	35.593	16374	16105	0	1172
-35.449	35.990	16374	16147	0	1172
-34.331	35.449	16374	16182	0	1172
-33.502	34.656	16374	16212	0	1172
-32.889	32.600	16374	16248	0	1172
-32.059	30.292	16374	16289	0	1172
-31.410	24.414	16374	16319	0	1172
-33.862	21.132	16374	16349	0	1172
-38.154	15.831	16374	16384	0	1172
-44.753	12.189	16377	16449	0	1172
-51.100	7.176	16377	16520	0	1172
-54.418	5.337	16377	16562	0	1172
-53.119	5.698	16381	16568	0	1172
-47.097	10.638	16381	16556	0	1172
-39.632	16.805	16381	16544	0	1172
-35.774	19.510	16381	16538	0	1172
-35.810	16.949	16381	16538	0	1172
-38.009	11.648	16381	16538	0	1172
-40.642	8.799	16381	16520	0	1172
-38.298	8.799	16381	16496	0	1172
-34.511	12.261	16377	16461	0	1172
-31.158	13.415	16377	16425	0	1172
-31.194	10.746	16377	16389	0	1172
-31.482	6.058	16374	16355	0	1172
-34.475	1.406	16374	16325	0	1172
-35.846	0.577	16374	16319	0	1172
-36.675	2.777	16374	16343	0	1172
-36.206	4.868	16374	16355	0	1172
-35.665	6.924	16374	16361	0	1172
-34.079	5.986	16377	16367	0	1172
-32.456	4.544	16374	16379	0	1172
-31.085	3.714	16374	16379	0	1172
-29.751	5.085	16374	16361	0	1172
-25.929	8.511	16374	16355	0	1172
-22.539	13.415	16374	16361	0	1172
-20.700	15.543	16374	16379	0	1172
-22.322	14.281	16374	16389	0	1172
-30.292	8.547	16374	16419	0	1172
-36.567	0.577	16374	16443	0	1172
-41.543	-4.832	16374	16455	0	1172
-42.265	-6.852	16374	16443	0	1172
-41.183	-4.652	16374	16425	0	1172
-45.294	-3.678	16374	16407	0	1172
-50.270	-3.498	16374	16395	0	1172
-56.798	-6.058	16374	16389	0	1172
-61.450	-7.789	16369	16384	0	1172
-61.378	-9.124	16374	16379	0	1172
-59.538	-7.357	16374	16384	0	1172
-59.070	-6.852	16374	16389	0	1172
-57.375	-5.121	16374	16395	0	1172
-55.319	-2.164	16377	16413	0	1172
-54.598	-0.505	16377	16437	0	1172
-55.896	0.541	16377	16449	0	1172
-60.115	-0.938	16377	16449	0	1172
-68.951	-6.563	16377	16449	0	1172
-80.707	-12.874	16381	16473	0	1172
-92.175	-19.257	16381	16502	0	1172
-98.774	-21.781	16381	16520	0	1172
-99.892	-19.546	16384	16538	0	1172
-96.502	-13.559	16384	16556	0	1172
-92.138	-10.566	16384	16568	0	1172
-92.175	-12.333	16387	16556	0	1172
-94.591	-18.608	16387	16538	0	1172
-95.781	-22.575	16387	16526	0	1172
-90.552	-21.132	16387	16514	0	1172
-84.457	-14.569	16391	16508	0	1172
-82.798	-9.845	16391	16502	0	1172
-88.027	-11.107	16391	16485	0	1172
-94.086	-14.858	16391	16449	0	1172
-94.483	-15.795	16391	16419	0	1172
-87.342	-11.071	16391	16395	0	1172
-78.507	-4.544	16391	16384	0	1172
-78.399	-2.524	16391	16367	0	1172
-85.179	-7.212	16391	16349	0	1172
-92.391	-14.966	16391	16349	0	1172
-89.326	-19.437	16391	16361	0	1172
-77.786	-16.805	16391	16384	0	1172
-66.931	-9.809	16391	16384	0	1172
-61.594	-3.606	16391	16389	0	1172
-66.462	-1.839	16391	16395	0	1172
-75.261	-5.085	16391	16407	0	1172
-78.038	-8.330	16391	16395	0	1172
-73.675	-9.196	16391	16384	0	1172
-64.984	-9.520	16391	16361	0	1172
-58.060	-7.825	16391	16355	0	1172
-54.454	-8.907	16391	16349	0	1172
-55.752	-9.629	16391	16337	0	1172
-58.420	-9.520	16394	16349	0	1172
-58.673	-7.645	16394	16379	0	1172
-58.240	-7.609	16394	16389	0	1172
-57.014	-10.133	16399	16389	0	1172
-58.240	-15.471	16399	16384	0	1172
-59.106	-20.231	16399	16384	0	1172
-56.870	-21.601	16399	16384	0	1172
-53.985	-18.897	16394	16384	0	1172
-47.746	-14.497	16399	16379	0	1172
-40.858	-10.891	16399	16373	0	1172
-37.288	-9.953	16399	16355	0	1172
-38.045	-10.891	16394	16337	0	1172
-40.858	-14.497	16394	16319	0	1172
-44.789	-16.805	16394	16295	0	1172
-48.864	-18.247	16391	16266	0	1172
-49.621	-17.238	16391	16236	0	1172
-50.631	-15.290	16391	16218	0	1172
-52.975	-13.992	16391	16224	0	1172
-56.581	-13.271	16387	16242	0	1172
-58.457	-15.615	16387	16260	0	1172
-58.060	-17.598	16391	16283	0	1172
-53.011	-19.437	16391	16325	0	1172
-45.474	-22.467	16391	16355	0	1172
-39.560	-27.443	16391	16361	0	1172
-38.767	-32.095	16391	16355	0	1172
-40.245	-35.124	16391	16355	0	1172
-43.815	-34.115	16391	16361	0	1172
-44.969	-29.643	16391	16367	0	1172
-42.120	-23.873	16391	16361	0	1172
-39.812	-21.890	16391	16337	0	1172
-40.101	-21.926	16387	16307	0	1172
-42.986	-21.890	16387	16283	0	1172
-47.277	-21.529	16384	16266	0	1172
-47.458	-18.680	16384	16254	0	1172
-46.592	-17.346	16384	16254	0	1172
-46.304	-19.185	16384	16266	0	1172
-46.159	-21.998	16384	16277	0	1172
-47.890	-22.322	16381	16289	0	1172
-49.189	-19.185	16381	16295	0	1172
-47.530	-14.605	16381	16307	0	1172
-49.405	-12.586	16381	16337	0	1172
-53.768	-14.497	16381	16361	0	1172
-60.260	-18.392	16381	16384	0	1172
-65.705	-19.834	16384	16407	0	1172
-65.344	-15.831	16384	16431	0	1172
-61.666	-9.917	16384	16449	0	1172
-54.562	-4.688	16384	16491	0	1172
-47.710	-4.255	16387	16544	0	1172
-41.363	-4.436	16387	16592	0	1172
-33.466	-3.390	16391	16603	0	1172
-27.191	0.902	16391	16603	0	1172
-23.260	5.517	16394	16615	0	1172
-24.919	4.796	16394	16621	0	1172
-28.994	0.000	16394	16615	0	1172
-31.013	-9.809	16399	16603	0	1172
-27.587	-13.668	16394	16580	0	1172
-20.411	-11.612	16394	16544	0	1172
-11.323	-4.075	16394	16508	0	1172
-7.753	4.508	16394	16473	0	1172
-5.734	10.206	16391	16431	0	1172
-8.763	9.665	16391	16389	0	1172
-11.107	5.337	16391	16373	0	1172
-15.795	-2.524	16391	16355	0	1172
-18.572	-7.898	16391	16331	0	1172
-17.923	-10.097	16391	16307	0	1172
-12.802	-5.590	16387	16289	0	1172
-4.003	-0.072	16387	16277	0	1172
2.849	3.859	16387	16272	0	1172
7.248	5.590	16387	16272	0	1172
6.022	4.724	16387	16283	0	1172
2.921	6.311	16387	16289	0	1172
-1.190	11.684	16387	16295	0	1172
-6.347	15.471	16387	16307	0	1172
-12.694	19.257	16387	16319	0	1172
-19.834	19.221	16387	16325	0	1172
-26.253	16.589	16387	16337	0	1172
-29.282	13.127	16387	16355	0	1172
-28.345	9.088	16387	16367	0	1172
-25.784	4.688	16391	16379	0	1172
-23.873	-0.793	16391	16384	0	1172
-24.991	-3.210	16391	16384	0	1172
-26.758	-3.426	16387	16373	0	1172
-29.535	-0.433	16387	16361	0	1172
-29.427	3.246	16387	16349	0	1172
-30.869	4.219	16387	16337	0	1172
-33.213	-0.577	16387	16325	0	1172
-37.505	-7.032	16384	16313	0	1172
-41.868	-13.595	16384	16301	0	1172
-44.897	-16.697	16384	16283	0	1172
-46.736	-16.156	16384	16272	0	1172
-46.484	-13.415	16384	16266	0	1172
-45.294	-11.756	16381	16272	0	1172
-43.635	-9.737	16381	16283	0	1172
-41.940	-7.537	16381	16295	0	1172
-45.330	-6.996	16381	16301	0	1172
-54.598	-8.366	16381	16301	0	1172
-64.912	-13.956	16381	16319	0	1172
-73.386	-19.365	16381	16349	0	1172
-74.396	-20.627	16381	16373	0	1172
-69.636	-14.749	16381	16389	0	1172
-61.991	-3.750	16381	16413	0	1172
-60.151	5.626	16381	16437	0	1172
-60.837	9.592	16381	16443	0	1172
-63.145	6.708	16381	16437	0	1172
-59.106	4.255	16381	16443	0	1172
-51.461	5.445	16381	16455	0	1172
-40.462	12.297	16381	16473	0	1172
-33.682	19.437	16384	16479	0	1172
-33.285	22.791	16384	16473	0	1172
-36.062	20.519	16384	16467	0	1172
-38.478	18.572	16384	16461	0	1172
-39.596	18.860	16384	16455	0	1172
-36.459	24.378	16384	16449	0	1172
-34.656	31.158	16384	16461	0	1172
-33.862	33.934	16384	16467	0	1172
-36.423	31.879	16384	16461	0	1172
-38.406	27.010	16384	16449	0	1172
-39.235	23.837	16384	16425	0	1172
-35.160	26.073	16381	16384	0	1172
-26.361	34.475	16381	16349	0	1172
-15.939	44.609	16381	16319	0	1172
-8.691	50.739	16377	16301	0	1172
-7.429	51.352	16377	16289	0	1172
-8.366	43.887	16377	16272	0	1172
-10.855	38.370	16374	16248	0	1172
-10.458	36.387	16374	16254	0	1172
-10.242	39.957	16374	16295	0	1172
-8.799	45.907	16377	16343	0	1172
-10.314	50.992	16377	16379	0	1172
-11.937	52.759	16377	16407	0	1172
-11.035	51.136	16381	16455	0	1172
-9.448	48.035	16381	16491	0	1172
-6.058	46.268	16381	16496	0	1172
-4.688	45.799	16381	16485	0	1172
-1.190	48.323	16381	16467	0	1172
1.695	52.110	16381	16455	0	1172
4.147	53.011	16381	16437	0	1172
6.671	52.470	16381	16407	0	1172
10.314	48.828	16377	16379	0	1172
12.838	46.664	16381	16337	0	1172
15.182	44.789	16377	16301	0	1172
13.668	41.940	16377	16260	0	1172
8.799	40.389	16374	16224	0	1172
2.957	36.928	16374	16194	0	1172
-0.288	35.521	16369	16170	0	1172
2.596	34.006	16369	16159	0	1172
9.701	31.122	16366	16165	0	1172
12.225	25.460	16366	16188	0	1172
8.150	15.362	16366	16218	0	1172
-3.065	5.121	16366	16254	0	1172
-15.507	-2.705	16366	16301	0	1172
-19.942	-2.272	16366	16349	0	1172
-10.819	4.904	16366	16395	0	1172
6.780	15.831	16369	16443	0	1172
24.666	24.342	16374	16485	0	1172
32.997	26.325	16377	16550	0	1172
30.256	21.060	16381	16603	0	1172
22.034	14.749	16381	16639	0	1172
17.670	12.261	16384	16657	0	1172
20.014	14.894	16384	16681	0	1172
25.460	17.129	16387	16693	0	1172
28.633	17.166	16384	16699	0	1172
25.712	10.530	16391	16705	0	1172
20.014	4.508	16391	16699	0	1172
16.805	2.813	16391	16675	0	1172
15.687	7.717	16391	16627	0	1172
14.713	13.920	16391	16574	0	1172
10.855	20.087	16387	16514	0	1172
5.698	22.719	16384	16437	0	1172
2.705	25.063	16384	16367	0	1172
2.705	29.066	16381	16301	0	1172
0.974	30.400	16381	16266	0	1172
-4.039	28.850	16381	16254	0	1172
-14.425	26.073	16384	16260	0	1172
-22.863	22.539	16384	16272	0	1172
-28.237	22.827	16384	16295	0	1172
-27.371	27.155	16384	16319	0	1172
-24.991	31.446	16384	16325	0	1172
-20.555	36.351	16384	16319	0	1172
-16.949	42.157	16387	16331	0	1172
-8.439	49.838	16384	16349	0	1172
-2.200	56.509	16381	16343	0	1172
-1.947	58.240	16384	16319	0	1172
-10.242	52.542	16384	16313	0	1172
-26.325	41.688	16384	16325	0	1172
-40.426	31.194	16384	16337	0	1172
-49.766	25.171	16384	16349	0	1172
-53.336	22.647	16384	16355	0	1172
-54.886	20.195	16384	16343	0	1172
-57.086	17.238	16384	16331	0	1172
-56.653	18.247	16384	16331	0	1172
-48.215	27.227	16384	16337	0	1172
-36.495	39.524	16384	16349	0	1172
-26.938	51.208	16384	16373	0	1172
-25.676	52.506	16387	16384	0	1172
-32.095	45.150	16384	16401	0	1172
-39.127	35.737	16384	16407	0	1172
-41.471	29.210	16384	16413	0	1172
-37.649	28.705	16384	16413	0	1172
-33.898	28.994	16384	16425	0	1172
-31.915	30.040	16387	16455	0	1172
-31.085	32.708	16387	16479	0	1172
-29.282	37.072	16387	16479	0	1172
-24.594	46.845	16387	16467	0	1172
-20.880	52.290	16387	16461	0	1172
-18.536	54.634	16391	16467	0	1172
-16.661	53.913	16391	16455	0	1172
-12.189	52.975	16387	16425	0	1172
-3.462	52.795	16387	16395	0	1172
4.724	52.146	16387	16373	0	1172
10.278	46.268	16387	16331	0	1172
8.727	39.921	16384	16289	0	1172
4.832	33.429	16384	16266	0	1172
-0.649	31.699	16384	16254	0	1172
-4.327	32.384	16381	16236	0	1172
-5.842	34.259	16381	16218	0	1172
-6.275	35.233	16377	16194	0	1172
-3.895	37.685	16377	16182	0	1172
-1.659	40.858	16374	16170	0	1172
-0.216	45.114	16374	16165	0	1172
-0.649	48.359	16374	16170	0	1172
-1.226	50.775	16377	16194	0	1172
2.272	50.956	16374	16224	0	1172
8.366	50.379	16377	16248	0	1172
14.821	48.792	16374	16266	0	1172
15.759	46.195	16374	16277	0	1172
8.691	44.320	16374	16289	0	1172
-3.173	41.291	16369	16295	0	1172
-11.179	38.731	16369	16301	0	1172
-13.668	36.387	16369	16325	0	1172
-7.789	35.124	16374	16379	0	1172
-3.426	35.774	16374	16425	0	1172
-1.262	35.233	16374	16461	0	1172
-2.236	35.341	16374	16485	0	1172
0.829	34.259	16374	16508	0	1172
9.881	36.026	16377	16526	0	1172
23.368	42.517	16377	16538	0	1172
33.069	53.336	16377	16532	0	1172
36.314	63.505	16377	16508	0	1172
35.052	68.049	16374	16473	0	1172
34.872	67.688	16374	16431	0	1172
39.885	62.063	16374	16395	0	1172
48.287	60.512	16374	16373	0	1172
50.956	60.765	16374	16361	0	1172
48.431	64.876	16374	16361	0	1172
44.176	70.249	16374	16361	0	1172
42.553	76.560	16369	16367	0	1172
47.566	82.474	16369	16367	0	1172
52.254	84.565	16369	16384	0	1172
48.359	78.940	16374	16407	0	1172
34.836	66.030	16374	16443	0	1172
20.772	53.119	16374	16491	0	1172
13.343	48.395	16377	16520	0	1172
15.795	53.047	16377	16556	0	1172
19.726	60.332	16381	16598	0	1172
16.733	63.000	16384	16645	0	1172
6.491	56.870	16384	16675	0	1172
-2.019	45.691	16387	16687	0	1172
-2.416	37.360	16391	16699	0	1172
4.724	33.610	16391	16716	0	1172
12.225	32.095	16394	16722	0	1172
13.127	31.049	16399	16705	0	1172
8.511	25.352	16399	16675	0	1172
2.236	21.601	16399	16633	0	1172
-1.118	18.536	16399	16574	0	1172
-3.065	18.608	16399	16508	0	1172
-6.924	19.329	16399	16449	0	1172
-12.766	18.897	16399	16407	0	1172
-17.526	16.985	16399	16379	0	1172
-23.404	14.785	16394	16349	0	1172
-27.443	13.127	16391	16319	0	1172
-33.898	11.215	16391	16289	0	1172
-44.212	4.688	16391	16254	0	1172
-55.824	-5.013	16391	16224	0	1172
-64.479	-15.110	16387	16200	0	1172
-70.285	-21.890	16387	16188	0	1172
-71.223	-22.539	16387	16182	0	1172
-69.564	-19.762	16387	16176	0	1172
-66.931	-20.014	16387	16176	0	1172
-64.190	-23.152	16387	16194	0	1172
-61.125	-29.859	16387	16224	0	1172
-59.574	-34.728	16387	16272	0	1172
-58.204	-34.656	16391	16319	0	1172
-58.312	-30.833	16391	16367	0	1172
-59.286	-26.938	16394	16407	0	1172
-61.125	-25.027	16394	16431	0	1172
-64.335	-26.578	16399	16455	0	1172
-65.957	-29.859	16399	16485	0	1172
-66.823	-31.879	16399	16502	0	1172
-65.777	-32.167	16402	16491	0	1172
-67.508	-33.177	16399	16443	0	1172
-71.908	-38.118	16394	16395	0	1172
-83.267	-46.015	16399	16367	0	1172
-95.384	-55.391	16399	16349	0	1172
-104.796	-60.909	16394	16331	0	1172
-109.845	-61.955	16391	16295	0	1172
-107.825	-58.565	16391	16242	0	1172
-103.823	-55.788	16387	16194	0	1172
-100.216	-54.129	16384	16159	0	1172
-99.423	-55.499	16384	16129	0	1172
-100.865	-57.663	16381	16105	0	1172
-104.868	-57.230	16377	16075	0	1172
-108.799	-54.959	16377	16063	0	1172
-112.369	-50.415	16374	16058	0	1172
-116.985	-45.546	16374	16075	0	1172
-117.454	-45.078	16377	16111	0	1172
-113.920	-46.412	16374	16147	0	1172
-106.022	-46.340	16377	16188	0	1172
-94.771	-45.655	16374	16236	0	1172
-90.227	-44.753	16377	16295	0	1172
-92.247	-47.349	16377	16343	0	1172
-100.613	-54.093	16377	16379	0	1172
-109.737	-61.197	16377	16407	0	1172
-113.559	-65.164	16377	16449	0	1172
-111.756	-64.299	16377	16479	0	1172
-104.147	-59.502	16377	16491	0	1172
-97.548	-53.155	16377	16485	0	1172
-91.057	-46.809	16377	16479	0	1172
-88.172	-39.055	16377	16473	0	1172
-87.234	-33.610	16377	16461	0	1172
-86.801	-28.597	16374	16443	0	1172
-86.152	-28.886	16374	16425	0	1172
-84.025	-31.843	16374	16419	0	1172
-82.943	-35.485	16374	16419	0	1172
-80.923	-38.911	16374	16407	0	1172
-79.769	-39.452	16369	16395	0	1172
-76.415	-39.127	16369	16389	0	1172
-73.783	-39.091	16369	16401	0	1172
-69.672	-40.137	16374	16419	0	1172
-66.571	-44.104	16377	16449	0	1172
-66.066	-46.376	16377	16479	0	1172
-66.643	-47.133	16377	16520	0	1172
-70.285	-47.061	16381	16550	0	1172
-74.793	-44.068	16381	16586	0	1172
-76.812	-43.130	16384	16615	0	1172
-75.802	-41.724	16384	16633	0	1172
-71.042	-42.337	16387	16633	0	1172
-64.840	-43.779	16387	16633	0	1172
-59.755	-43.924	16387	16627	0	1172
-55.211	-44.428	16391	16609	0	1172
-49.982	-42.878	16387	16568	0	1172
-43.455	-41.543	16387	16514	0	1172
-35.918	-39.199	16387	16461	0	1172
-28.128	-36.242	16387	16413	0	1172
-24.450	-33.970	16387	16384	0	1172
-21.926	-31.085	16384	16361	0	1172
-21.096	-29.210	16384	16331	0	1172
-18.103	-28.273	16384	16307	0	1172
-15.795	-26.650	16384	16289	0	1172
-14.821	-26.830	16381	16272	0	1172
-15.723	-25.965	16381	16248	0	1172
-16.949	-27.299	16381	16236	0	1172
-13.631	-24.486	16381	16236	0	1172
-4.760	-22.250	16381	16248	0	1172
5.662	-18.860	16381	16277	0	1172
9.629	-20.159	16381	16313	0	1172
2.380	-28.561	16381	16343	0	1172
-11.396	-40.245	16381	16367	0	1172
-23.801	-47.422	16384	16395	0	1172
-23.657	-46.195	16384	16437	0	1172
-11.576	-36.567	16387	16473	0	1172
4.075	-23.981	16387	16485	0	1172
14.389	-19.041	16387	16496	0	1172
9.881	-21.601	16391	16508	0	1172
-1.551	-27.010	16391	16508	0	1172
-12.441	-31.879	16391	16496	0	1172
-18.175	-30.400	16391	16502	0	1172
-17.093	-29.391	16394	16514	0	1172
-15.290	-31.554	16391	16508	0	1172
-15.831	-37.360	16391	16473	0	1172
-16.625	-42.373	16387	16419	0	1172
-14.533	-41.291	16387	16379	0	1172
-10.746	-36.495	16387	16349	0	1172
-7.609	-30.617	16387	16331	0	1172
-12.333	-31.590	16387	16313	0	1172
-21.132	-39.957	16384	16295	0	1172
-33.141	-50.595	16384	16283	0	1172
-39.127	-56.257	16384	16277	0	1172
-38.839	-55.536	16384	16283	0	1172
-34.692	-47.890	16384	16295	0	1172
-33.177	-38.947	16384	16319	0	1172
-37.252	-36.603	16384	16331	0	1172
-45.510	-44.392	16384	16337	0	1172
-53.624	-54.201	16387	16361	0	1172
-55.499	-61.882	16387	16389	0	1172
-49.657	-57.122	16387	16419	0	1172
-41.507	-43.743	16391	16437	0	1172
-36.026	-27.768	16391	16443	0	1172
-40.281	-21.854	16391	16437	0	1172
-50.703	-25.171	16391	16419	0	1172
-60.656	-32.744	16391	16407	0	1172
-63.686	-35.377	16391	16425	0	1172
-57.122	-28.597	16394	16455	0	1172
-45.186	-19.437	16394	16473	0	1172
-34.295	-13.379	16394	16473	0	1172
-28.705	-13.992	16394	16461	0	1172
-26.433	-17.815	16394	16449	0	1172
-26.470	-20.195	16394	16431	0	1172
-26.181	-19.618	16399	16431	0	1172
-24.666	-17.779	16394	16443	0	1172
-23.404	-17.526	16399	16455	0	1172
-26.830	-16.913	16402	16461	0	1172
-32.384	-15.326	16399	16461	0	1172
-41.183	-10.927	16399	16467	0	1172
-49.693	-3.210	16402	16473	0	1172
-51.172	7.393	16402	16479	0	1172
-47.422	18.031	16402	16467	0	1172
-42.986	29.318	16402	16449	0	1172
-39.416	33.898	16406	16455	0	1172
-42.229	31.699	16406	16467	0	1172
-43.815	24.739	16406	16461	0	1172
-43.166	18.247	16406	16443	0	1172
-35.954	14.966	16409	16431	0	1172
-27.515	17.887	16406	16443	0	1172
-21.493	23.657	16409	16467	0	1172
-20.772	30.004	16409	16473	0	1172
-23.044	33.393	16409	16467	0	1172
-24.630	34.475	16414	16455	0	1172
-24.198	34.151	16414	16443	0	1172
-23.549	34.764	16409	16419	0	1172
-21.818	36.747	16414	16395	0	1172
-20.267	40.209	16409	16373	0	1172
-20.123	42.445	16409	16337	0	1172
-17.310	43.563	16409	16289	0	1172
-13.487	43.887	16406	16248	0	1172
-8.655	46.376	16406	16194	0	1172
-6.888	49.549	16402	16141	0	1172
-6.131	50.379	16402	16105	0	1172
-7.248	49.838	16399	16081	0	1172
-9.376	47.782	16399	16081	0	1172
-8.258	46.015	16399	16093	0	1172
-7.285	44.464	16391	16105	0	1172
-8.402	43.383	16391	16117	0	1172
-13.271	41.111	16391	16135	0	1172
-20.303	39.812	16391	16165	0	1172
-23.945	41.724	16391	16206	0	1172
-20.375	47.890	16391	16230	0	1172
-9.268	58.276	16391	16260	0	1172
4.400	67.688	16391	16289	0	1172
17.490	72.376	16391	16295	0	1172
23.404	71.042	16391	16283	0	1172
21.277	58.709	16387	16277	0	1172
14.389	44.537	16399	16407	0	1172
8.943	31.374	16425	16930	0	1172
7.032	26.650	16452	17709	0	1172
11.504	28.705	16478	18304	0	1172
18.283	34.006	16501	18565	0	1172
20.375	35.341	16521	18649	0	1172
17.923	32.889	16524	18613	0	1172
11.540	27.515	16536	18464	0	1172
2.308	23.585	16544	18238	0	1172
-7.393	22.322	16539	17959	0	1172
-18.897	24.630	16539	17656	1	7764
-27.804	26.506	16536	17323	0	7764
-30.941	30.256	16532	16972	0	7764
-26.578	31.374	16524	16615	0	7764
-16.552	32.312	16516	16272	0	7764
-9.052	30.148	16506	15939	0	7764
-6.419	28.020	16498	15641	0	7764
-9.124	24.522	16486	15368	0	7764
-11.576	24.522	16475	15130	0	7764
-12.838	23.981	16463	14940	0	7764
-13.595	24.017	16452	14797	0	7764
-15.939	24.919	16445	14708	0	7764
-25.424	23.909	16437	14660	0	7764
-38.839	24.270	16425	14631	0	7764
-51.424	28.309	16417	14637	0	7764
-60.007	34.223	16409	14666	0	7764
-63.722	45.041	16402	14708	0	7764
-61.630	55.175	16399	14755	0	7764
-59.935	63.469	16391	14827	0	7764
-57.916	67.328	16387	14922	0	7764
-57.122	65.561	16381	15023	0	7764
-54.634	60.981	16377	15124	0	7764
-49.405	56.329	16369	15219	0	7764
-41.507	54.418	16366	15320	0	7764
-32.925	55.067	16359	15415	0	7764
-29.895	54.021	16354	15499	0	7764
-33.069	47.566	16351	15594	0	7764
-42.842	35.846	16343	15695	0	7764
-52.542	22.106	16343	15790	0	7764
-57.807	13.271	16339	15879	0	7764
-56.185	13.235	16336	15980	0	7764
-48.612	17.346	16331	16087	0	7764
-38.947	23.404	16336	16200	0	7764
-29.968	28.092	16331	16295	0	7764
-24.342	28.741	16328	16384	0	7764
-21.637	28.417	16328	16485	0	7764
-23.044	27.479	16331	16592	0	7764
-22.070	27.227	16331	16675	0	7764
-18.392	28.741	16328	16728	0	7764
-12.838	30.364	16328	16794	0	7764
-5.950	30.833	16339	16883	0	7764
-5.157	28.453	16336	16972	0	7764
-7.357	24.739	16339	17049	0	7764
-12.369	23.765	16339	17115	0	7764
-18.788	24.162	16343	17174	0	7764
-22.178	25.856	16346	17222	0	7764
-25.027	25.856	16351	17246	0	7764
-22.322	23.332	16354	17246	0	7764
-16.120	22.142	16354	17234	0	7764
-10.242	21.781	16354	17198	0	7764
-7.825	22.142	16359	17156	0	7764
-8.691	25.532	16359	17121	0	7764
-10.494	30.040	16366	17085	0	7764
-5.950	39.091	16362	17032	0	7764
2.885	48.648	16362	16972	0	7764
8.799	53.949	16362	16907	0	7764
7.609	53.552	16362	16835	0	7764
2.236	50.343	16362	16758	0	7764
-2.272	50.703	16362	16681	0	7764
0.000	54.598	16359	16609	0	7764
5.626	58.457	16359	16568	0	7764
8.871	57.158	16362	16538	0	7764
7.681	51.713	16362	16508	0	7764
4.291	45.510	16362	16473	0	7764
4.291	43.599	16362	16449	0	7764
8.511	43.960	16362	16449	0	7764
12.009	46.484	16362	16443	0	7764
11.828	45.366	16362	16431	0	7764
4.688	43.058	16366	16425	0	7764
-5.878	37.505	16366	16413	0	7764
-17.670	34.295	16366	16395	0	7764
-24.198	32.672	16366	16379	0	7764
-23.585	37.541	16369	16361	0	7764
-19.690	46.340	16366	16337	0	7764
-14.136	54.814	16366	16319	0	7764
-10.710	57.880	16366	16289	0	7764
-12.045	57.555	16362	16260	0	7764
-14.461	54.273	16362	16224	0	7764
-17.526	52.795	16359	16194	0	7764
-21.204	54.093	16359	16176	0	7764
-25.352	55.247	16359	16165	0	7764
-31.049	54.886	16359	16159	0	7764
-35.088	52.146	16359	16159	0	7764
-36.639	50.451	16359	16182	0	7764
-34.944	48.359	16359	16206	0	7764
-33.321	47.999	16354	16224	0	7764
-35.774	48.972	16354	16242	0	7764
-41.075	49.766	16354	16254	0	7764
-48.215	50.090	16354	16266	0	7764
-51.172	50.523	16362	16283	0	7764
-48.431	48.828	16359	16313	0	7764
-40.570	46.628	16359	16325	0	7764
-29.643	42.986	16354	16331	0	7764
-19.906	41.976	16354	16337	0	7764
-13.235	42.373	16354	16367	0	7764
-11.071	43.058	16354	16389	0	7764
-11.612	42.481	16362	16419	0	7764
-16.120	36.855	16362	16449	0	7764
-22.142	28.453	16362	16479	0	7764
-27.299	20.050	16362	16485	0	7764
-31.446	14.461	16362	16485	0	7764
-33.862	12.874	16362	16473	0	7764
-31.590	14.281	16362	16449	0	7764
-27.984	17.346	16359	16425	0	7764
-23.621	21.313	16359	16407	0	7764
-19.185	25.496	16362	16395	0	7764
-14.930	29.607	16366	16384	0	7764
-11.720	32.564	16359	16367	0	7764
-9.232	32.276	16359	16349	0	7764
-9.376	32.239	16359	16331	0	7764
-11.035	31.879	16354	16313	0	7764
-11.540	33.177	16354	16307	0	7764
-11.504	35.413	16354	16301	0	7764
-12.586	35.160	16354	16301	0	7764
-14.821	31.338	16354	16325	0	7764
-21.781	22.791	16359	16361	0	7764
-28.597	16.084	16359	16389	0	7764
-32.780	10.097	16359	16425	0	7764
-32.095	10.206	16362	16479	0	7764
-29.751	10.927	16362	16532	0	7764
-29.535	6.635	16362	16568	0	7764
-33.393	-1.334	16366	16586	0	7764
-39.812	-15.362	16369	16603	0	7764
-46.592	-26.722	16377	16627	0	7764
-47.746	-30.977	16374	16639	0	7764
-45.078	-29.679	16374	16633	0	7764
-39.885	-24.162	16377	16609	0	7764
-37.180	-19.978	16377	16586	0	7764
-36.711	-20.267	16377	16556	0	7764
-39.055	-22.647	16377	16526	0	7764
-43.851	-29.282	16377	16496	0	7764
-50.523	-32.528	16377	16467	0	7764
-56.329	-33.934	16377	16437	0	7764
-63.036	-30.941	16374	16401	0	7764
-65.994	-25.063	16374	16373	0	7764
-67.797	-20.627	16374	16349	0	7764
-68.590	-19.618	16374	16319	0	7764
-71.547	-23.585	16369	16295	0	7764
-76.848	-32.564	16369	16272	0	7764
-82.185	-43.455	16369	16260	0	7764
-85.936	-53.372	16369	16248	0	7764
-83.808	-57.303	16369	16236	0	7764
-77.461	-53.696	16369	16236	0	7764
-67.292	-45.222	16369	16254	0	7764
-62.243	-38.658	16374	16295	0	7764
-63.000	-38.767	16374	16337	0	7764
-69.708	-46.051	16374	16384	0	7764
-76.271	-50.090	16377	16437	0	7764
-75.983	-48.972	16381	16496	0	7764
-67.724	-39.091	16381	16526	0	7764
-57.086	-26.506	16384	16532	0	7764
-47.386	-16.408	16384	16544	0	7764
-44.356	-12.297	16384	16550	0	7764
-44.681	-12.946	16387	16550	0	7764
-47.782	-14.353	16387	16550	0	7764
-50.090	-15.435	16387	16532	0	7764
-49.477	-15.038	16387	16496	0	7764
-45.078	-11.396	16387	16455	0	7764
-39.704	-4.400	16387	16419	0	7764
-31.915	3.787	16387	16384	0	7764
-26.758	11.684	16384	16355	0	7764
-23.801	15.471	16384	16325	0	7764
-26.325	16.012	16384	16289	0	7764
-31.158	13.379	16384	16260	0	7764
-38.658	10.422	16381	16254	0	7764
-46.195	5.373	16384	16277	0	7764
-50.379	3.173	16384	16289	0	7764
-49.189	1.731	16384	16295	0	7764
-43.960	5.445	16384	16313	0	7764
-34.583	13.559	16384	16343	0	7764
-26.397	23.801	16384	16379	0	7764
-19.041	32.528	16387	16407	0	7764
-15.831	35.341	16387	16443	0	7764
-15.074	35.197	16391	16491	0	7764
-14.425	32.276	16394	16532	0	7764
-13.992	28.922	16394	16562	0	7764
-11.071	26.974	16399	16598	0	7764
-10.422	26.794	16402	16621	0	7764
-13.776	29.571	16402	16615	0	7764
-21.745	32.600	16399	16580	0	7764
-35.449	34.151	16399	16532	0	7764
-48.143	34.187	16399	16485	0	7764
-55.536	31.194	16399	16437	0	7764
-55.283	27.191	16399	16389	0	7764
-50.198	25.748	16399	16361	0	7764
-43.419	26.001	16399	16325	0	7764
-37.036	28.922	16399	16295	0	7764
-32.925	29.787	16394	16272	0	7764
-28.633	30.797	16394	16254	0	7764
-21.277	32.636	16394	16230	0	7764
-13.127	33.754	16394	16206	0	7764
-4.508	36.314	16391	16200	0	7764
-2.633	38.154	16391	16206	0	7764
-7.285	35.521	16391	16212	0	7764
-16.769	30.905	16391	16218	0	7764
-25.027	25.352	16387	16212	0	7764
-27.191	24.486	16387	16200	0	7764
-22.070	25.207	16387	16194	0	7764
-17.021	26.830	16384	16206	0	7764
-14.858	23.693	16384	16224	0	7764
-18.211	16.949	16384	16242	0	7764
-22.719	10.674	16384	16260	0	7764
-26.001	9.088	16384	16283	0	7764
-23.981	10.819	16384	16307	0	7764
-22.683	14.100	16384	16325	0	7764
-22.431	12.730	16384	16331	0	7764
-27.010	6.599	16384	16337	0	7764
-32.095	2.056	16384	16337	0	7764
-34.980	-1.731	16384	16325	0	7764
-31.771	-1.046	16381	16313	0	7764
-23.945	-0.325	16381	16301	0	7764
-19.185	1.262	16381	16283	0	7764
-17.418	1.695	16377	16283	0	7764
-23.008	-0.397	16381	16283	0	7764
-34.043	-4.472	16381	16277	0	7764
-48.720	-12.153	16377	16272	0	7764
-62.027	-17.202	16377	16260	0	7764
-72.521	-18.067	16381	16254	0	7764
-77.786	-11.432	16374	16254	0	7764
-77.930	-3.462	16374	16254	0	7764
-78.507	1.587	16369	16248	0	7764
-79.156	-0.721	16369	16242	0	7764
-83.628	-9.556	16369	16272	0	7764
-90.624	-22.214	16369	16355	0	7764
-96.718	-33.718	16374	16449	0	7764
-99.243	-39.235	16377	16532	0	7764
-99.171	-36.495	16381	16615	0	7764
-93.689	-29.463	16384	16681	0	7764
-91.634	-29.102	16384	16716	0	7764
-94.050	-39.524	16387	16728	0	7764
-100.180	-58.997	16387	16728	0	7764
-105.157	-73.819	16391	16722	0	7764
-103.787	-72.521	16391	16699	0	7764
-99.423	-59.214	16391	16651	0	7764
-95.636	-44.933	16387	16592	0	7764
-97.872	-37.685	16387	16526	0	7764
-100.505	-37.757	16387	16461	0	7764
-101.731	-33.105	16384	16395	0	7764
-97.692	-20.447	16384	16343	0	7764
-89.470	-3.065	16381	16283	0	7764
-79.913	10.674	16377	16242	0	7764
-72.449	14.641	16377	16212	0	7764
-66.823	13.848	16377	16194	0	7764
-65.525	10.386	16374	16194	0	7764
-66.823	6.960	16374	16212	0	7764
-68.734	5.590	16374	16224	0	7764
-66.607	4.075	16374	16248	0	7764
-60.656	4.796	16374	16277	0	7764
-51.785	7.753	16374	16307	0	7764
-46.881	9.773	16374	16325	0	7764
-46.448	12.297	16374	16331	0	7764
-50.307	11.360	16377	16349	0	7764
-54.165	11.468	16377	16379	0	7764
-56.040	11.143	16377	16401	0	7764
-55.355	10.602	16381	16425	0	7764
-52.578	11.360	16381	16443	0	7764
-47.205	15.038	16381	16449	0	7764
-40.426	19.257	16381	16455	0	7764
-31.518	25.063	16381	16449	0	7764
-23.909	26.758	16381	16431	0	7764
-19.185	26.289	16377	16407	0	7764
-17.995	23.116	16377	16395	0	7764
-18.824	22.791	16377	16389	0	7764
-20.267	25.352	16377	16384	0	7764
-23.585	27.047	16377	16373	0	7764
-25.893	27.912	16377	16355	0	7764
-26.073	24.955	16374	16325	0	7764
-20.844	24.234	16374	16289	0	7764
-10.242	26.001	16369	16266	0	7764
0.902	31.266	16369	16248	0	7764
6.167	37.036	16366	16242	0	7764
5.121	38.045	16366	16254	0	7764
0.902	35.593	16366	16289	0	7764
-0.216	31.410	16366	16337	0	7764
2.488	27.587	16374	16379	0	7764
6.816	27.010	16374	16401	0	7764
6.203	26.253	16377	16431	0	7764
0.974	27.191	16377	16485	0	7764
-4.075	27.732	16377	16544	0	7764
-2.777	30.941	16381	16592	0	7764
5.265	36.783	16384	16627	0	7764
15.687	42.337	16384	16657	0	7764
21.277	45.294	16387	16681	0	7764
18.356	44.645	16387	16687	0	7764
9.124	39.668	16391	16675	0	7764
-0.325	37.000	16391	16651	0	7764
-6.347	36.351	16387	16603	0	7764
-11.576	35.774	16391	16556	0	7764
-16.949	33.538	16391	16508	0	7764
-24.919	29.210	16387	16455	0	7764
-32.961	22.827	16387	16389	0	7764
-38.406	18.788	16384	16325	0	7764
-41.724	17.346	16381	16254	0	7764
-45.186	14.821	16381	16194	0	7764
-52.398	9.124	16377	16153	0	7764
-62.099	2.705	16377	16129	0	7764
-70.465	-5.662	16377	16105	0	7764
-71.872	-12.117	16374	16111	0	7764
-63.902	-14.172	16374	16141	0	7764
-47.422	-14.641	16374	16170	0	7764
-29.931	-13.199	16374	16194	0	7764
-16.156	-11.396	16374	16242	0	7764
-13.271	-9.917	16374	16307	0	7764
-20.591	-13.054	16377	16379	0	7764
-31.374	-19.798	16377	16431	0	7764
-39.849	-28.705	16381	16485	0	7764
-43.960	-38.839	16381	16526	0	7764
-45.330	-43.130	16384	16544	0	7764
-46.592	-42.157	16384	16550	0	7764
-49.910	-38.731	16384	16544	0	7764
-52.218	-36.747	16384	16532	0	7764
-52.038	-38.875	16384	16508	0	7764
-50.884	-42.661	16384	16485	0	7764
-50.811	-45.330	16384	16443	0	7764
-53.480	-41.471	16381	16395	0	7764
-56.509	-36.783	16381	16367	0	7764
-56.293	-32.384	16381	16349	0	7764
-54.273	-30.977	16381	16343	0	7764
-50.523	-34.043	16381	16343	0	7764
-47.854	-36.134	16381	16349	0	7764
-49.369	-35.593	16381	16355	0	7764
-51.208	-34.187	16381	16361	0	7764
-54.129	-34.475	16381	16384	0	7764
-54.454	-39.127	16384	16413	0	7764
-52.470	-46.592	16384	16443	0	7764
-48.828	-57.158	16384	16467	0	7764
-45.799	-63.361	16387	16491	0	7764
-47.205	-66.931	16387	16514	0	7764
-51.064	-65.633	16391	16532	0	7764
-56.906	-62.135	16391	16544	0	7764
-55.968	-54.814	16391	16550	0	7764
-48.900	-48.467	16394	16544	0	7764
-40.317	-45.150	16394	16520	0	7764
-37.865	-46.304	16394	16479	0	7764
-44.248	-51.893	16394	16443	0	7764
-57.699	-58.096	16391	16407	0	7764
-66.931	-59.358	16391	16384	0	7764
-66.823	-57.158	16391	16355	0	7764
-61.486	-51.821	16391	16331	0	7764
-54.922	-49.261	16391	16313	0	7764
-54.382	-48.467	16391	16301	0	7764
-59.358	-49.261	16391	16283	0	7764
-66.643	-49.008	16384	16260	0	7764
-70.682	-46.087	16387	16230	0	7764
-71.655	-41.399	16384	16200	0	7764
-68.410	-38.478	16384	16182	0	7764
-61.846	-34.259	16384	16170	0	7764
-53.841	-30.040	16381	16165	0	7764
-45.258	-23.837	16384	16165	0	7764
-38.514	-18.969	16381	16176	0	7764
-36.459	-18.103	16377	16182	0	7764
-38.514	-21.709	16377	16194	0	7764
-42.878	-25.820	16377	16218	0	7764
-43.166	-26.614	16377	16242	0	7764
-41.363	-20.591	16377	16266	0	7764
-38.190	-14.064	16377	16307	0	7764
-38.622	-11.071	16377	16355	0	7764
-41.111	-10.494	16381	16384	0	7764
-43.960	-9.845	16381	16401	0	7764
-42.553	-4.255	16381	16425	0	7764
-40.137	3.967	16381	16455	0	7764
-43.202	11.648	16381	16479	0	7764
-48.900	11.648	16384	16491	0	7764
-54.742	10.314	16384	16514	0	7764
-56.726	9.052	16384	16532	0	7764
-54.778	7.285	16384	16538	0	7764
-55.391	5.445	16384	16532	0	7764
-62.676	-1.262	16387	16526	0	7764
-67.724	-10.746	16387	16508	0	7764
-66.751	-14.749	16384	16467	0	7764
-55.860	-12.441	16384	16413	0	7764
-41.652	-6.780	16381	16379	0	7764
-32.528	-0.685	16381	16349	0	7764
-30.905	0.505	16381	16319	0	7764
-33.934	-0.865	16377	16289	0	7764
-36.242	-2.813	16377	16266	0	7764
-36.170	-4.291	16377	16254	0	7764
-33.574	-3.859	16374	16260	0	7764
-30.689	-4.832	16374	16266	0	7764
-28.561	-4.688	16374	16260	0	7764
-30.941	-7.393	16374	16272	0	7764
-38.045	-14.136	16374	16289	0	7764
-46.087	-21.890	16369	16301	0	7764
-50.703	-26.217	16369	16319	0	7764
-46.087	-23.224	16377	16349	0	7764
-35.233	-17.959	16377	16395	0	7764
-25.496	-13.307	16377	16437	0	7764
-23.224	-17.887	16381	16479	0	7764
-29.210	-28.381	16381	16514	0	7764
-38.803	-38.695	16381	16538	0	7764
-48.576	-42.517	16384	16550	0	7764
-52.290	-41.363	16384	16556	0	7764
-51.857	-35.160	16384	16562	0	7764
-46.520	-28.561	16387	16562	0	7764
-38.118	-23.621	16387	16562	0	7764
-29.066	-18.860	16387	16544	0	7764
-22.935	-15.867	16387	16514	0	7764
-20.303	-12.838	16387	16496	0	7764
-20.159	-10.097	16387	16491	0	7764
-19.654	-6.347	16387	16491	0	7764
-18.824	-3.787	16387	16479	0	7764
-17.202	-1.911	16391	16473	0	7764
-13.848	0.685	16391	16485	0	7764
-11.107	3.173	16387	16485	0	7764
-9.052	6.239	16387	16485	0	7764
-8.366	5.626	16391	16502	0	7764
-10.674	0.325	16394	16544	0	7764
-16.012	-9.412	16399	16580	0	7764
-20.808	-19.041	16399	16586	0	7764
-20.664	-24.775	16402	16580	0	7764
-14.677	-18.320	16402	16574	0	7764
-0.793	-2.452	16402	16538	0	7764
10.746	14.028	16402	16496	0	7764
14.281	21.637	16402	16449	0	7764
4.868	11.504	16402	16401	0	7764
-9.232	-9.520	16399	16361	0	7764
-19.834	-33.826	16399	16313	0	7764
-19.473	-47.782	16399	16277	0	7764
-12.694	-54.598	16394	16242	0	7764
-4.183	-55.319	16394	16212	0	7764
2.164	-53.336	16391	16194	0	7764
8.727	-45.871	16391	16176	0	7764
16.192	-34.908	16391	16147	0	7764
21.096	-23.296	16387	16123	0	7764
18.897	-19.546	16387	16105	0	7764
12.333	-20.988	16384	16105	0	7764
5.626	-22.935	16384	16117	0	7764
8.186	-19.510	16384	16129	0	7764
16.120	-11.864	16384	16141	0	7764
27.335	-3.173	16381	16147	0	7764
37.685	3.931	16381	16165	0	7764
43.960	7.032	16381	16212	0	7764
47.530	8.402	16384	16260	0	7764
48.756	7.934	16384	16289	0	7764
48.828	6.599	16384	16313	0	7764
48.756	8.655	16384	16355	0	7764
50.956	13.631	16384	16401	0	7764
53.011	21.998	16387	16431	0	7764
54.165	29.607	16387	16455	0	7764
55.680	30.328	16387	16485	0	7764
59.034	30.436	16387	16508	0	7764
63.686	30.725	16391	16502	0	7764
68.374	33.429	16387	16485	0	7764
67.905	37.144	16387	16449	0	7764
63.758	43.743	16387	16407	0	7764
58.096	47.962	16384	16373	0	7764
54.922	53.083	16384	16337	0	7764
58.240	58.997	16381	16301	0	7764
62.820	62.315	16381	16283	0	7764
68.374	64.154	16381	16283	0	7764
70.826	62.423	16381	16283	0	7764
69.528	57.771	16377	16289	0	7764
68.265	52.614	16377	16277	0	7764
70.429	49.405	16377	16266	0	7764
72.593	48.431	16374	16266	0	7764
77.101	50.595	16374	16283	0	7764
77.786	53.300	16374	16319	0	7764
77.101	55.824	16377	16367	0	7764
77.930	57.807	16377	16401	0	7764
78.759	58.493	16381	16449	0	7764
79.264	57.158	16384	16502	0	7764
77.461	51.965	16384	16526	0	7764
74.216	44.212	16384	16538	0	7764
75.225	36.964	16387	16550	0	7764
82.041	33.790	16387	16562	0	7764
92.499	32.312	16387	16574	0	7764
99.315	30.761	16384	16556	0	7764
98.810	21.854	16384	16532	0	7764
90.371	12.838	16384	16496	0	7764
81.753	6.491	16384	16455	0	7764
78.435	8.294	16384	16419	0	7764
78.327	17.959	16381	16389	0	7764
79.373	25.316	16384	16373	0	7764
77.353	26.902	16384	16349	0	7764
73.711	22.899	16384	16331	0	7764
75.261	21.024	16381	16319	0	7764
80.851	27.227	16381	16307	0	7764
90.588	36.711	16381	16283	0	7764
96.358	48.323	16377	16266	0	7764
97.187	52.398	16377	16266	0	7764
95.060	51.749	16381	16289	0	7764
92.824	49.261	16381	16325	0	7764
92.283	49.513	16381	16361	0	7764
95.348	54.526	16381	16384	0	7764
98.125	61.197	16384	16425	0	7764
101.803	64.659	16384	16496	0	7764
104.364	65.669	16387	16562	0	7764
103.390	63.361	16391	16603	0	7764
100.288	60.043	16391	16645	0	7764
94.555	59.538	16394	16687	0	7764
89.794	60.368	16399	16710	0	7764
86.873	61.774	16399	16705	0	7764
86.693	60.296	16399	16669	0	7764
87.234	59.863	16399	16633	0	7764
87.414	58.853	16399	16592	0	7764
85.215	59.070	16399	16556	0	7764
80.743	61.233	16399	16508	0	7764
74.432	61.161	16399	16455	0	7764
68.193	61.161	16399	16401	0	7764
64.695	60.765	16394	16349	0	7764
63.541	60.620	16394	16283	0	7764
61.558	62.315	16391	16230	0	7764
59.574	60.548	16391	16176	0	7764
55.247	58.096	16387	16129	0	7764
52.110	53.480	16387	16093	0	7764
51.929	49.657	16384	16087	0	7764
54.021	47.349	16384	16093	0	7764
54.814	46.664	16381	16087	0	7764
52.614	44.428	16381	16075	0	7764
49.657	42.986	16377	16075	0	7764
47.494	41.471	16377	16093	0	7764
47.962	40.966	16377	16105	0	7764
48.576	40.606	16374	16105	0	7764
45.582	37.144	16374	16117	0	7764
40.353	33.105	16374	16147	0	7764
35.954	30.040	16369	16170	0	7764
33.934	31.158	16369	16188	0	7764
36.423	35.557	16369	16212	0	7764
39.885	40.281	16366	16230	0	7764
41.219	42.842	16366	16242	0	7764
43.743	42.589	16366	16260	0	7764
45.150	43.563	16366	16283	0	7764
46.736	43.563	16369	16307	0	7764
42.553	42.048	16366	16325	0	7764
34.439	35.088	16366	16349	0	7764
22.719	27.912	16366	16373	0	7764
15.290	22.611	16366	16384	0	7764
12.802	25.712	16366	16395	0	7764
16.480	31.338	16366	16407	0	7764
20.375	35.882	16362	16419	0	7764
20.447	37.144	16362	16431	0	7764
19.726	37.288	16362	16443	0	7764
16.192	38.550	16362	16467	0	7764
13.235	40.858	16369	16502	0	7764
11.323	42.229	16369	16550	0	7764
12.802	38.839	16369	16592	0	7764
16.877	31.518	16374	16621	0	7764
20.700	23.549	16374	16633	0	7764
21.565	16.372	16377	16657	0	7764
18.716	10.133	16377	16687	0	7764
13.127	7.212	16381	16710	0	7764
9.448	8.042	16381	16710	0	7764
7.357	12.369	16384	16728	0	7764
7.140	17.670	16387	16758	0	7764
2.885	20.195	16387	16764	0	7764
-2.308	17.743	16391	16746	0	7764
-6.311	11.215	16391	16716	0	7764
-6.311	4.003	16391	16681	0	7764
-3.678	-0.469	16391	16633	0	7764
1.298	-1.442	16391	16580	0	7764
4.977	-0.252	16391	16508	0	7764
4.544	-0.469	16391	16425	0	7764
0.613	-4.580	16387	16355	0	7764
-3.462	-10.674	16387	16301	0	7764
-7.681	-18.103	16384	16260	0	7764
-8.439	-21.890	16384	16224	0	7764
-6.527	-20.339	16381	16182	0	7764
-5.481	-18.283	16381	16147	0	7764
-5.662	-16.192	16381	16141	0	7764
-5.842	-15.471	16381	16159	0	7764
-6.852	-16.084	16381	16182	0	7764
-6.311	-12.910	16377	16194	0	7764
-6.491	-8.619	16377	16200	0	7764
-13.487	-4.796	16377	16212	0	7764
-26.794	-6.563	16377	16248	0	7764
-39.993	-9.592	16381	16277	0	7764
-50.198	-14.389	16381	16301	0	7764
-53.191	-17.346	16381	16331	0	7764
-53.372	-18.897	16381	16384	0	7764
-54.345	-22.070	16384	16425	0	7764
-59.394	-24.378	16384	16467	0	7764
-63.289	-24.739	16387	16496	0	7764
-63.577	-24.342	16387	16526	0	7764
-61.414	-19.149	16391	16532	0	7764
-59.034	-16.841	16391	16520	0	7764
-61.738	-17.418	16391	16502	0	7764
-68.265	-21.349	16391	16485	0	7764
-73.819	-25.388	16391	16461	0	7764
-74.865	-28.164	16387	16419	0	7764
-70.718	-24.594	16387	16384	0	7764
-63.181	-19.365	16387	16367	0	7764
-56.617	-12.441	16387	16361	0	7764
-51.857	-6.094	16387	16361	0	7764
-51.064	-5.986	16387	16355	0	7764
-52.903	-6.924	16387	16349	0	7764
-55.860	-10.855	16387	16343	0	7764
-59.899	-16.589	16387	16313	0	7764
-63.289	-19.762	16384	16272	0	7764
-66.462	-20.808	16384	16248	0	7764
-70.898	-20.664	16384	16242	0	7764
-76.812	-22.214	16381	16230	0	7764
-83.952	-23.116	16381	16212	0	7764
-86.909	-21.673	16381	16224	0	7764
-84.710	-14.605	16381	16266	0	7764
-79.805	-5.481	16381	16313	0	7764
-75.189	0.252	16381	16355	0	7764
-74.901	-3.101	16384	16384	0	7764
-80.022	-14.785	16384	16407	0	7764
-84.241	-26.866	16384	16419	0	7764
-86.693	-31.879	16384	16407	0	7764
-83.916	-30.076	16384	16401	0	7764
-79.805	-25.568	16384	16401	0	7764
-75.766	-23.080	16384	16389	0	7764
-75.009	-26.001	16381	16373	0	7764
-77.750	-33.069	16381	16355	0	7764
-80.274	-39.488	16381	16337	0	7764
-83.375	-41.580	16377	16313	0	7764
-82.185	-39.740	16377	16283	0	7764
-80.995	-38.767	16377	16260	0	7764
-78.868	-40.245	16374	16260	0	7764
-77.678	-48.936	16374	16283	0	7764
-77.642	-61.558	16374	16307	0	7764
-78.038	-71.872	16374	16319	0	7764
-74.180	-77.101	16374	16337	0	7764
-68.734	-76.956	16374	16373	0	7764
-62.640	-78.038	16377	16407	0	7764
-61.774	-80.779	16377	16443	0	7764
-61.774	-86.765	16377	16485	0	7764
-63.974	-90.480	16381	16526	0	7764
-63.397	-88.568	16381	16550	0	7764
-58.060	-85.106	16384	16562	0	7764
-54.814	-81.284	16384	16586	0	7764
-57.230	-82.474	16387	16609	0	7764
-64.226	-85.575	16387	16633	0	7764
-66.174	-86.946	16387	16639	0	7764
-61.846	-83.051	16391	16633	0	7764
-47.566	-72.449	16391	16621	0	7764
-33.285	-61.918	16391	16609	0	7764
-27.984	-53.913	16394	16586	0	7764
-32.564	-50.703	16394	16562	0	7764
-45.078	-52.290	16394	16526	0	7764
-55.427	-53.696	16394	16485	0	7764
-58.348	-52.759	16394	16437	0	7764
-58.096	-47.962	16391	16384	0	7764
-57.807	-46.592	16391	16325	0	7764
-61.558	-48.179	16387	16272	0	7764
-68.085	-52.867	16387	16224	0	7764
-72.088	-54.418	16384	16194	0	7764
-71.727	-50.162	16394	16313	0	7764
-68.013	-40.930	16417	16812	0	7764
-64.118	-34.259	16452	17590	0	7764
-64.587	-32.384	16475	18191	0	7764
-67.724	-35.990	16493	18470	0	7764
-71.836	-40.534	16513	18577	0	7764
-73.711	-38.226	16529	18542	0	7764
-73.891	-33.213	16532	18387	0	7764
-71.619	-28.381	16539	18179	0	7764
-70.465	-26.253	16544	17947	0	7764
-71.908	-29.463	16539	17674	1	2592
-76.524	-35.774	16544	17364	0	2592
-83.303	-41.976	16539	17037	0	2592
-87.054	-45.546	16532	16705	0	2592
-86.008	-46.700	16529	16384	0	2592
-78.759	-44.717	16516	16075	0	2592
-70.141	-44.861	16509	15772	0	2592
-65.128	-47.097	16501	15499	0	2592
-69.744	-53.191	16493	15261	0	2592
-78.940	-57.014	16483	15065	0	2592
-88.172	-55.572	16467	14892	0	2592
-93.906	-45.979	16460	14750	0	2592
-95.420	-32.312	16452	14637	0	2592
-96.574	-24.414	16440	14547	0	2592
-98.774	-24.125	16429	14470	0	2592
-101.983	-27.587	16417	14428	0	2592
-103.570	-29.715	16409	14428	0	2592
-100.902	-26.686	16399	14464	0	2592
-99.279	-20.700	16391	14512	0	2592
-97.584	-18.536	16384	14583	0	2592
-97.692	-20.050	16381	14708	0	2592
-99.820	-25.568	16374	14868	0	2592
-102.236	-27.660	16369	15017	0	2592
-104.652	-27.335	16366	15178	0	2592
-108.366	-23.945	16366	15344	0	2592
-110.097	-20.195	16362	15511	0	2592
-113.920	-18.103	16359	15665	0	2592
-114.677	-18.175	16354	15796	0	2592
-114.966	-17.670	16351	15909	0	2592
-113.054	-16.733	16354	16010	0	2592
-110.891	-14.281	16351	16105	0	2592
-109.232	-12.441	16346	16200	0	2592
-109.665	-13.920	16343	16283	0	2592
-110.783	-17.526	16339	16343	0	2592
-110.097	-20.988	16346	16401	0	2592
-107.537	-21.673	16339	16479	0	2592
-102.164	-17.923	16339	16556	0	2592
-94.591	-13.451	16336	16621	0	2592
-90.444	-9.088	16336	16669	0	2592
-86.369	-6.275	16339	16705	0	2592
-85.719	-6.888	16336	16758	0	2592
-86.621	-8.258	16336	16818	0	2592
-86.585	-10.206	16336	16877	0	2592
-85.106	-8.943	16339	16913	0	2592
-81.320	-5.842	16339	16936	0	2592
-76.451	-1.839	16339	16942	0	2592
-71.691	-1.226	16339	16942	0	2592
-69.600	-5.265	16339	16942	0	2592
-69.455	-13.559	16343	16954	0	2592
-72.304	-19.221	16346	16972	0	2592
-76.776	-24.847	16346	16984	0	2592
-79.228	-26.758	16346	16966	0	2592
-80.202	-27.191	16346	16954	0	2592
-77.605	-27.912	16346	16948	0	2592
-74.937	-28.561	16354	16925	0	2592
-72.196	-28.020	16351	16883	0	2592
-73.026	-29.499	16351	16853	0	2592
-77.317	-32.348	16351	16823	0	2592
-84.962	-36.098	16351	16788	0	2592
-90.732	-40.462	16351	16752	0	2592
-91.561	-42.373	16354	16705	0	2592
-86.008	-38.082	16354	16651	0	2592
-78.110	-30.076	16354	16603	0	2592
-73.242	-22.719	16351	16556	0	2592
-75.442	-20.087	16351	16502	0	2592
-83.195	-24.450	16351	16455	0	2592
-87.847	-34.115	16346	16431	0	2592
-88.568	-41.543	16354	16425	0	2592
-83.988	-43.383	16354	16443	0	2592
-77.966	-42.301	16354	16485	0	2592
-72.737	-37.468	16359	16532	0	2592
-69.564	-36.098	16359	16568	0	2592
-66.823	-36.928	16362	16574	0	2592
-64.190	-40.786	16362	16568	0	2592
-63.613	-47.566	16362	16568	0	2592
-64.371	-53.119	16366	16562	0	2592
-70.032	-58.781	16369	16556	0	2592
-75.802	-59.466	16369	16550	0	2592
-78.868	-56.185	16374	16556	0	2592
-78.543	-50.343	16374	16556	0	2592
-74.540	-45.655	16374	16556	0	2592
-70.682	-43.166	16377	16544	0	2592
-69.347	-41.543	16377	16526	0	2592
-69.131	-40.462	16377	16496	0	2592
-67.292	-40.209	16377	16449	0	2592
-64.154	-38.334	16374	16395	0	2592
-61.882	-39.921	16374	16355	0	2592
-60.440	-40.786	16374	16313	0	2592
-62.459	-42.193	16374	16283	0	2592
-61.666	-40.678	16369	16254	0	2592
-61.378	-38.226	16369	16218	0	2592
-60.368	-38.298	16369	16182	0	2592
-62.820	-39.344	16369	16165	0	2592
-67.328	-40.678	16374	16170	0	2592
-72.124	-40.173	16369	16188	0	2592
-73.098	-36.567	16369	16218	0	2592
-70.357	-25.207	16369	16230	0	2592
-64.299	-13.992	16369	16236	0	2592
-60.260	-2.777	16369	16242	0	2592
-57.952	3.318	16369	16277	0	2592
-58.240	7.429	16369	16313	0	2592
-59.394	7.068	16369	16331	0	2592
-57.411	9.484	16374	16343	0	2592
-52.326	12.514	16374	16373	0	2592
-46.881	17.238	16374	16401	0	2592
-41.940	20.627	16374	16413	0	2592
-39.704	22.322	16374	16419	0	2592
-38.298	21.421	16374	16419	0	2592
-40.426	20.736	16377	16407	0	2592
-42.770	18.897	16377	16401	0	2592
-45.078	16.444	16377	16384	0	2592
-47.494	16.264	16377	16355	0	2592
-46.556	18.320	16374	16319	0	2592
-41.039	23.188	16374	16301	0	2592
-35.774	28.597	16374	16283	0	2592
-31.662	34.692	16369	16277	0	2592
-28.381	37.360	16369	16266	0	2592
-25.893	36.567	16369	16254	0	2592
-26.325	32.348	16366	16242	0	2592
-30.797	25.207	16366	16248	0	2592
-38.983	14.028	16366	16266	0	2592
-48.143	5.698	16366	16283	0	2592
-54.562	1.010	16366	16301	0	2592
-53.877	1.190	16366	16343	0	2592
-50.343	3.029	16369	16384	0	2592
-46.664	4.111	16377	16425	0	2592
-42.229	3.426	16374	16449	0	2592
-40.534	3.029	16374	16479	0	2592
-40.678	0.433	16377	16514	0	2592
-45.474	-1.587	16377	16526	0	2592
-50.054	-2.560	16377	16514	0	2592
-51.497	-1.875	16377	16508	0	2592
-48.287	0.974	16377	16514	0	2592
-43.779	5.013	16381	16532	0	2592
-47.818	2.416	16381	16538	0	2592
-57.411	-4.508	16381	16526	0	2592
-63.722	-9.737	16381	16496	0	2592
-58.925	-9.809	16381	16461	0	2592
-44.176	-1.551	16377	16425	0	2592
-29.391	7.465	16377	16401	0	2592
-29.030	8.547	16377	16384	0	2592
-38.911	2.164	16377	16373	0	2592
-54.634	-11.323	16377	16349	0	2592
-63.974	-21.349	16374	16325	0	2592
-66.931	-28.922	16374	16301	0	2592
-65.200	-30.256	16374	16283	0	2592
-63.938	-31.735	16369	16272	0	2592
-62.279	-30.292	16369	16266	0	2592
-58.384	-26.001	16374	16283	0	2592
-55.680	-20.808	16377	16331	0	2592
-58.132	-17.274	16377	16373	0	2592
-63.577	-17.598	16377	16389	0	2592
-71.691	-21.926	16377	16419	0	2592
-76.632	-25.352	16381	16455	0	2592
-76.596	-27.443	16381	16485	0	2592
-73.567	-26.974	16384	16514	0	2592
-74.793	-28.741	16384	16544	0	2592
-78.687	-30.472	16387	16568	0	2592
-83.772	-32.816	16387	16580	0	2592
-86.657	-33.213	16387	16574	0	2592
-85.251	-31.085	16391	16556	0	2592
-82.221	-29.751	16391	16538	0	2592
-79.661	-30.184	16391	16526	0	2592
-80.166	-32.997	16391	16496	0	2592
-83.375	-37.072	16391	16455	0	2592
-86.008	-41.039	16391	16407	0	2592
-90.191	-43.671	16384	16373	0	2592
-92.283	-43.419	16384	16343	0	2592
-96.177	-42.084	16384	16307	0	2592
-97.620	-39.344	16381	16277	0	2592
-99.423	-37.288	16384	16248	0	2592
-96.069	-36.242	16384	16224	0	2592
-92.463	-36.134	16384	16218	0	2592
-87.378	-36.423	16384	16230	0	2592
-84.890	-38.442	16384	16266	0	2592
-85.359	-40.173	16384	16295	0	2592
-85.647	-42.625	16384	16337	0	2592
-86.405	-44.428	16387	16384	0	2592
-87.739	-47.638	16387	16437	0	2592
-89.001	-51.172	16387	16485	0	2592
-91.922	-58.601	16391	16520	0	2592
-94.050	-68.301	16394	16556	0	2592
-94.158	-77.858	16394	16609	0	2592
-94.158	-85.467	16399	16645	0	2592
-95.384	-88.713	16402	16657	0	2592
-101.082	-87.919	16402	16645	0	2592
-108.979	-84.205	16402	16609	0	2592
-114.930	-80.346	16406	16568	0	2592
-114.605	-74.540	16406	16526	0	2592
-106.816	-70.429	16402	16479	0	2592
-93.437	-63.253	16399	16431	0	2592
-80.130	-54.922	16402	16395	0	2592
-72.521	-49.153	16402	16373	0	2592
-77.533	-49.297	16399	16337	0	2592
-91.309	-57.807	16399	16313	0	2592
-109.304	-69.347	16399	16295	0	2592
-122.142	-77.028	16399	16283	0	2592
-121.457	-76.884	16399	16272	0	2592
-110.422	-67.292	16399	16260	0	2592
-95.564	-57.339	16399	16254	0	2592
-85.142	-50.992	16399	16236	0	2592
-80.995	-48.503	16394	16212	0	2592
-77.173	-46.700	16394	16224	0	2592
-72.593	-47.566	16399	16254	0	2592
-66.498	-50.631	16399	16272	0	2592
-62.495	-55.608	16399	16289	0	2592
-65.957	-59.466	16399	16319	0	2592
-74.071	-60.332	16399	16367	0	2592
-82.077	-56.329	16399	16395	0	2592
-87.378	-51.136	16399	16407	0	2592
-87.342	-49.261	16402	16413	0	2592
-84.169	-47.962	16402	16401	0	2592
-78.796	-47.962	16399	16384	0	2592
-77.966	-46.989	16399	16343	0	2592
-77.605	-47.782	16394	16283	0	2592
-81.067	-52.218	16394	16230	0	2592
-81.969	-57.519	16391	16170	0	2592
-80.743	-59.502	16387	16111	0	2592
-76.271	-58.565	16384	16052	0	2592
-73.062	-55.211	16381	16004	0	2592
-70.646	-53.660	16377	15962	0	2592
-68.951	-55.788	16374	15933	0	2592
-68.842	-59.863	16369	15927	0	2592
-67.075	-61.017	16366	15927	0	2592
-66.534	-57.375	16362	15939	0	2592
-66.282	-50.307	16362	15956	0	2592
-64.299	-41.976	16359	15998	0	2592
-57.807	-35.521	16359	16040	0	2592
-51.929	-30.977	16359	16093	0	2592
-44.537	-27.660	16359	16141	0	2592
-42.048	-25.496	16359	16182	0	2592
-40.822	-23.873	16354	16242	0	2592
-43.094	-23.801	16354	16313	0	2592
-44.969	-23.440	16354	16379	0	2592
-48.648	-23.116	16359	16419	0	2592
-52.723	-21.457	16359	16473	0	2592
-59.466	-24.522	16366	16538	0	2592
-65.417	-30.256	16362	16586	0	2592
-69.564	-39.776	16362	16609	0	2592
-70.970	-46.772	16362	16627	0	2592
-68.734	-49.802	16362	16633	0	2592
-63.361	-46.953	16362	16639	0	2592
-58.457	-40.822	16362	16633	0	2592
-55.247	-35.918	16362	16627	0	2592
-53.696	-31.338	16362	16621	0	2592
-51.569	-27.407	16362	16615	0	2592
-49.802	-27.587	16366	16609	0	2592
-47.890	-28.273	16366	16598	0	2592
-48.936	-31.049	16369	16592	0	2592
-54.995	-34.079	16369	16592	0	2592
-62.495	-36.603	16369	16586	0	2592
-70.177	-37.432	16369	16580	0	2592
-73.530	-38.118	16369	16592	0	2592
-75.081	-39.524	16374	16621	0	2592
-77.966	-44.789	16374	16645	0	2592
-82.077	-47.638	16377	16651	0	2592
-87.414	-49.008	16377	16651	0	2592
-89.722	-46.881	16377	16651	0	2592
-86.188	-39.596	16381	16639	0	2592
-79.264	-32.564	16381	16621	0	2592
-68.446	-27.227	16384	16627	0	2592
-60.476	-25.279	16384	16645	0	2592
-59.502	-25.063	16387	16645	0	2592
-66.138	-29.751	16387	16633	0	2592
-79.336	-36.603	16387	16615	0	2592
-90.588	-42.625	16387	16580	0	2592
-91.778	-44.068	16387	16514	0	2592
-81.933	-35.810	16387	16431	0	2592
-65.921	-23.693	16384	16361	0	2592
-56.185	-13.018	16384	16289	0	2592
-56.004	-10.206	16381	16224	0	2592
-63.109	-14.966	16381	16170	0	2592
-73.314	-22.935	16377	16147	0	2592
-79.445	-27.768	16377	16135	0	2592
-81.644	-30.653	16377	16123	0	2592
-81.248	-28.669	16374	16111	0	2592
-78.759	-27.119	16374	16111	0	2592
-72.809	-22.719	16377	16129	0	2592
-66.318	-18.500	16377	16176	0	2592
-61.955	-15.110	16377	16224	0	2592
-59.863	-12.477	16381	16260	0	2592
-59.466	-8.547	16381	16313	0	2592
-56.798	-4.255	16384	16384	0	2592
-51.893	3.210	16384	16461	0	2592
-47.241	7.285	16387	16514	0	2592
-46.917	8.186	16387	16550	0	2592
-51.965	4.436	16391	16580	0	2592
-58.601	2.200	16394	16598	0	2592
-62.640	0.721	16394	16592	0	2592
-63.072	1.262	16391	16580	0	2592
-58.853	2.452	16391	16550	0	2592
-56.040	0.180	16391	16514	0	2592
-53.480	-2.092	16391	16479	0	2592
-51.461	-4.003	16391	16449	0	2592
-48.972	-5.445	16391	16407	0	2592
-42.697	-3.642	16391	16384	0	2592
-36.134	-2.128	16391	16361	0	2592
-29.138	-0.938	16391	16331	0	2592
-23.801	-0.433	16387	16313	0	2592
-22.791	-1.226	16387	16283	0	2592
-23.512	-3.065	16387	16260	0	2592
-27.515	-4.508	16387	16236	0	2592
-32.384	-7.140	16387	16230	0	2592
-36.531	-8.547	16387	16260	0	2592
-36.711	-10.169	16387	16289	0	2592
-34.439	-8.799	16387	16319	0	2592
-30.869	-8.727	16387	16349	0	2592
-25.027	-8.078	16391	16384	0	2592
-20.700	-9.953	16391	16413	0	2592
-16.480	-12.838	16391	16419	0	2592
-14.497	-15.579	16394	16425	0	2592
-15.326	-16.048	16394	16437	0	2592
-16.661	-14.677	16394	16431	0	2592
-15.795	-12.874	16394	16419	0	2592
-14.569	-9.917	16394	16395	0	2592
-13.091	-9.665	16394	16379	0	2592
-14.605	-9.160	16391	16349	0	2592
-19.005	-10.314	16391	16313	0	2592
-22.539	-9.773	16391	16289	0	2592
-23.116	-7.609	16384	16272	0	2592
-21.168	-7.465	16384	16272	0	2592
-21.565	-7.321	16384	16272	0	2592
-21.818	-7.393	16384	16272	0	2592
-22.575	-7.681	16384	16254	0	2592
-20.195	-5.806	16381	16248	0	2592
-16.336	-2.560	16381	16248	0	2592
-10.025	-3.246	16384	16242	0	2592
-8.186	-5.409	16381	16224	0	2592
-8.078	-9.809	16381	16212	0	2592
-11.287	-14.245	16377	16194	0	2592
-15.290	-16.661	16377	16188	0	2592
-17.021	-15.579	16377	16194	0	2592
-18.752	-12.550	16374	16224	0	2592
-18.572	-10.819	16374	16248	0	2592
-18.247	-12.225	16374	16266	0	2592
-20.303	-15.182	16374	16301	0	2592
-23.873	-20.195	16374	16349	0	2592
-26.866	-24.198	16377	16389	0	2592
-30.328	-23.188	16377	16431	0	2592
-30.761	-21.385	16377	16479	0	2592
-31.807	-20.159	16381	16544	0	2592
-32.384	-20.303	16384	16598	0	2592
-32.131	-20.123	16384	16621	0	2592
-30.869	-16.733	16384	16609	0	2592
-25.784	-11.287	16384	16586	0	2592
-23.729	-3.823	16384	16562	0	2592
-23.044	0.505	16384	16550	0	2592
-27.227	0.469	16384	16544	0	2592
-33.646	-2.128	16384	16532	0	2592
-36.819	-4.255	16387	16520	0	2592
-37.396	-3.498	16387	16508	0	2592
-35.665	-2.488	16387	16496	0	2592
-33.213	0.000	16387	16491	0	2592
-30.977	4.580	16387	16485	0	2592
-28.814	8.619	16387	16473	0	2592
-28.417	10.891	16387	16467	0	2592
-32.167	7.898	16391	16479	0	2592
-38.118	2.092	16391	16496	0	2592
-42.445	-2.416	16391	16496	0	2592
-40.209	1.190	16394	16502	0	2592
-30.689	10.927	16394	16520	0	2592
-19.906	23.729	16399	16550	0	2592
-15.290	30.076	16399	16550	0	2592
-18.031	30.725	16402	16544	0	2592
-21.349	27.732	16399	16550	0	2592
-21.421	27.479	16402	16568	0	2592
-14.966	31.771	16402	16574	0	2592
-9.304	34.475	16406	16562	0	2592
-11.864	32.853	16406	16550	0	2592
-23.260	24.919	16406	16532	0	2592
-35.774	12.766	16409	16514	0	2592
-43.491	6.203	16409	16473	0	2592
-42.048	6.022	16406	16425	0	2592
-34.223	10.999	16409	16384	0	2592
-29.066	14.749	16402	16337	0	2592
-29.318	12.153	16402	16289	0	2592
-29.895	8.691	16402	16248	0	2592
-27.660	6.780	16399	16200	0	2592
-19.762	11.179	16399	16153	0	2592
-10.494	19.329	16394	16105	0	2592
-7.212	22.503	16394	16075	0	2592
-13.271	17.310	16391	16058	0	2592
-24.306	6.419	16391	16069	0	2592
-33.177	-2.524	16391	16081	0	2592
-35.629	-3.714	16391	16093	0	2592
-32.492	3.750	16391	16111	0	2592
-29.607	13.018	16387	16141	0	2592
-25.712	21.313	16387	16170	0	2592
-22.935	25.279	16387	16194	0	2592
-18.536	25.352	16391	16236	0	2592
-16.012	22.106	16391	16295	0	2592
-17.743	17.310	16391	16355	0	2592
-23.657	11.720	16394	16384	0	2592
-29.030	8.547	16394	16395	0	2592
-30.689	6.383	16387	16384	0	2592
-29.030	6.708	16387	16373	0	2592
-25.171	5.445	16387	16361	0	2592
-25.171	3.787	16387	16343	0	2592
-23.512	3.065	16384	16319	0	2592
-19.365	7.970	16384	16301	0	2592
-11.360	15.651	16381	16283	0	2592
0.938	25.460	16381	16254	0	2592
10.638	32.997	16377	16224	0	2592
15.471	33.285	16377	16200	0	2592
13.848	27.263	16377	16182	0	2592
7.212	20.231	16374	16165	0	2592
1.803	15.326	16374	16165	0	2592
-0.721	15.507	16369	16170	0	2592
1.406	18.464	16369	16188	0	2592
5.265	21.493	16369	16218	0	2592
4.940	22.503	16369	16254	0	2592
1.947	20.303	16369	16301	0	2592
-2.741	18.608	16369	16343	0	2592
-5.734	18.680	16369	16367	0	2592
-2.669	20.736	16369	16401	0	2592
2.236	24.450	16369	16467	0	2592
5.157	29.463	16374	16532	0	2592
1.623	30.436	16374	16580	0	2592
-6.058	29.102	16377	16615	0	2592
-12.622	24.486	16377	16645	0	2592
-14.569	21.890	16377	16663	0	2592
-11.612	20.050	16384	16657	0	2592
-7.068	21.349	16384	16639	0	2592
-7.898	21.709	16384	16621	0	2592
-10.999	20.447	16384	16592	0	2592
-14.966	19.257	16384	16568	0	2592
-16.408	16.625	16384	16550	0	2592
-16.625	15.435	16384	16532	0	2592
-13.091	12.441	16381	16496	0	2592
-10.530	8.979	16381	16455	0	2592
-7.645	4.724	16381	16419	0	2592
-5.914	1.118	16377	16384	0	2592
-5.878	-0.397	16377	16331	0	2592
-7.537	0.649	16377	16283	0	2592
-7.645	1.695	16374	16254	0	2592
-5.157	3.390	16374	16260	0	2592
-1.731	4.688	16374	16301	0	2592
0.108	4.977	16374	16343	0	2592
-2.019	6.527	16374	16373	0	2592
-8.114	6.275	16377	16413	0	2592
-16.480	3.318	16377	16461	0	2592
-21.204	-0.685	16381	16496	0	2592
-20.447	-7.934	16381	16514	0	2592
-14.425	-9.268	16384	16538	0	2592
-8.078	-6.491	16384	16562	0	2592
-6.094	-1.226	16387	16586	0	2592
-13.054	0.613	16387	16598	0	2592
-29.391	-4.183	16387	16603	0	2592
-48.612	-14.172	16391	16592	0	2592
-64.371	-26.686	16391	16568	0	2592
-73.350	-37.000	16391	16538	0	2592
-74.793	-44.428	16391	16514	0	2592
-72.449	-49.513	16391	16485	0	2592
-69.347	-51.280	16391	16455	0	2592
-66.967	-51.280	16391	16413	0	2592
-65.777	-49.044	16387	16361	0	2592
-64.515	-47.530	16387	16295	0	2592
-67.220	-50.415	16384	16230	0	2592
-70.862	-56.726	16384	16182	0	2592
-74.829	-64.407	16381	16159	0	2592
-74.071	-69.059	16381	16165	0	2592
-65.777	-68.410	16381	16194	0	2592
-53.624	-62.856	16381	16230	0	2592
-44.464	-60.188	16381	16248	0	2592
-43.202	-61.702	16381	16272	0	2592
-46.917	-66.859	16384	16319	0	2592
-50.487	-69.996	16387	16384	0	2592
-47.386	-65.849	16387	16449	0	2592
-35.846	-55.499	16391	16514	0	2592
-23.693	-45.474	16394	16574	0	2592
-17.166	-41.543	16394	16615	0	2592
-18.392	-43.383	16399	16639	0	2592
-24.883	-49.153	16402	16639	0	2592
-29.174	-49.585	16399	16633	0	2592
-29.859	-45.366	16402	16621	0	2592
-25.460	-36.783	16402	16603	0	2592
-22.358	-28.777	16402	16574	0	2592
-22.286	-25.207	16402	16532	0	2592
-25.316	-28.669	16402	16479	0	2592
-29.859	-33.069	16402	16425	0	2592
-32.276	-37.180	16402	16379	0	2592
-30.689	-36.819	16399	16331	0	2592
