neuroNicle FX2
D3F25R12
Bluetooth SPP
2023년 11월 6일 월요일
오후 7:15
time interval = 4msec
EEG1	EEG2	PPG	sdPPG	pulse	peak_interval(msec)
-113.163	-106.816	18259	14515	0	820
-111.035	-101.551	17884	13674	0	820
-106.852	-97.512	17634	12833	0	820
-103.787	-93.365	17259	12179	0	820
-103.606	-94.987	16634	11665	0	820
-103.823	-99.639	16384	11338	0	820
-104.039	-106.311	16384	11431	0	820
-101.551	-109.701	16384	11805	0	820
-95.096	-105.373	16134	12319	0	820
-89.073	-96.286	16384	13113	0	820
-82.726	-87.414	16634	14515	0	820
-77.930	-83.592	17259	15964	0	820
-76.451	-83.231	17259	16804	0	820
-74.432	-84.133	17259	17271	0	820
-72.124	-80.743	17884	17739	0	820
-69.636	-76.776	18259	18253	0	820
-69.203	-72.052	18259	18533	0	820
-68.878	-69.744	18259	18486	0	820
-67.256	-71.150	18259	18393	0	820
-67.184	-73.783	18509	18206	0	820
-61.955	-74.684	18509	17879	0	820
-57.050	-73.891	18259	17505	0	820
-54.345	-69.095	18259	17131	0	820
-51.280	-61.918	18259	16711	0	820
-49.261	-54.850	17884	16291	0	820
-47.061	-51.785	17634	15824	0	820
-43.166	-52.182	17259	15403	0	820
-39.776	-52.434	17259	14983	0	820
-36.062	-51.388	17009	14609	0	820
-32.059	-48.323	16634	14282	0	820
-29.318	-46.989	16634	14048	0	820
-27.660	-45.979	16384	13814	0	820
-29.859	-48.395	16134	13534	0	820
-32.384	-48.720	15759	13207	0	820
-33.970	-42.337	15509	13067	0	820
-30.076	-33.502	15509	13300	0	820
-21.241	-22.286	15134	13768	0	820
-11.648	-16.877	15134	14142	0	820
-9.196	-17.995	15134	14469	0	820
-11.143	-23.621	15509	15076	0	820
-17.238	-28.958	15759	15870	0	820
-21.565	-31.158	15759	16430	0	820
-20.519	-30.905	15759	16757	0	820
-16.552	-29.643	15759	16804	0	820
-15.110	-31.230	15759	16757	0	820
-15.687	-31.194	15509	16570	0	820
-16.733	-27.804	15509	16338	0	820
-18.536	-20.195	15134	16011	0	820
-16.877	-12.730	14884	15637	0	820
-15.471	-9.448	14509	15403	0	820
-13.668	-12.333	14509	15216	0	820
-15.146	-20.447	14259	15029	0	820
-12.982	-26.470	13884	14936	0	820
-13.451	-27.984	14259	14889	0	820
-9.629	-22.467	13884	14936	0	820
-5.950	-17.923	13634	15123	0	820
-2.741	-14.641	13634	15216	0	820
-3.642	-16.156	13259	15216	0	820
-8.078	-17.562	13009	15216	0	820
-14.317	-14.353	13009	15216	0	820
-16.877	-6.275	13259	15543	0	820
-13.307	3.282	13259	16198	0	820
-4.796	6.816	13259	16757	0	820
4.147	2.993	13634	17458	0	820
9.701	-4.327	13884	18533	0	820
13.848	-8.366	14259	19655	0	820
13.776	-4.219	15134	20262	0	820
18.139	2.921	15134	20542	0	820
23.044	10.169	15509	20683	0	820
31.194	11.396	15759	20729	0	820
35.160	9.773	15759	20589	0	820
36.603	10.133	15759	20215	0	820
33.538	12.045	15759	19748	0	820
25.676	14.858	15759	19234	0	820
24.666	16.192	15759	18673	0	820
27.876	14.749	15509	18112	0	820
35.737	11.756	15509	17598	0	820
43.491	11.720	15509	17178	0	820
46.664	14.245	15509	16804	0	820
43.383	18.572	15134	16477	0	820
38.190	23.657	15134	16151	0	820
33.502	25.712	14884	15777	0	820
33.033	26.253	14884	15403	0	820
36.206	26.722	14884	15029	0	820
44.284	30.941	14884	14842	0	820
47.025	33.934	14884	15076	0	820
47.566	34.259	14884	15497	0	820
42.048	28.669	15134	15917	0	820
35.629	21.060	15509	16617	0	820
31.374	15.254	16134	17832	0	820
29.823	15.867	16384	18954	0	820
34.367	20.483	16634	19561	0	820
36.891	25.568	17259	19795	0	820
39.091	29.751	17634	20122	0	820
40.894	32.528	17884	20496	0	820
39.921	31.158	18259	20542	0	820
37.216	26.974	18509	20215	0	820
33.934	19.257	18509	19655	0	820
31.915	12.730	18259	18954	0	820
30.220	10.494	18259	18159	0	820
32.997	12.405	17884	17225	1	528
35.557	16.012	17884	16384	0	528
38.586	16.877	17634	15684	0	528
38.947	15.939	17634	15076	0	528
36.423	16.192	17259	14469	0	528
32.708	19.978	17009	13908	0	528
30.941	26.578	17009	13441	0	528
30.040	31.482	16634	13113	0	528
32.708	29.643	16384	12880	0	528
36.711	23.476	16384	12786	0	528
39.740	13.415	16384	12880	0	528
39.560	6.239	16384	13207	0	528
37.144	3.823	16384	13627	0	528
33.826	5.770	16384	14282	0	528
32.780	11.828	16634	15356	0	528
34.944	17.815	17259	16477	0	528
38.695	21.060	17634	17225	0	528
40.281	18.572	17634	17645	0	528
39.740	12.586	18259	18112	0	528
37.613	6.383	18259	18673	0	528
35.954	3.895	18509	18954	0	528
35.413	7.501	18509	18860	0	528
34.656	12.225	18509	18580	0	528
32.167	11.468	18509	18066	0	528
28.886	6.058	18509	17412	0	528
25.171	-3.173	18259	16664	0	528
23.404	-10.025	18259	16057	0	528
24.955	-11.684	17884	15497	0	528
29.066	-7.465	17259	14983	0	528
34.331	0.108	17259	14562	0	528
36.459	9.376	17009	14188	0	528
33.502	16.841	16634	13768	0	528
23.945	19.365	16384	13207	0	528
14.749	14.533	16134	12646	0	528
7.357	4.616	15509	12179	0	528
9.016	-4.940	15134	11852	0	528
14.136	-7.248	14884	11712	0	528
21.926	-3.318	14884	11758	0	528
27.335	4.724	14884	12179	0	528
27.840	9.160	14884	13113	0	528
27.083	9.160	15134	14235	0	528
25.748	3.642	15134	14983	0	528
24.198	-0.361	15134	15450	0	528
22.611	-2.092	15134	16057	0	528
22.863	-0.902	15509	16711	0	528
25.352	2.777	15509	17178	0	528
28.886	8.366	15509	17458	0	528
34.439	10.206	15509	17505	0	528
38.586	11.323	15509	17505	0	528
37.829	8.727	15509	17458	0	528
34.980	5.517	15509	17318	0	528
31.482	2.272	15134	17084	0	528
29.931	1.479	15509	16804	0	528
27.010	3.210	15134	16617	0	528
27.696	6.708	15509	16524	0	528
29.607	10.855	14884	16384	0	528
30.436	17.202	14884	16291	0	528
31.699	21.673	14509	16011	0	528
31.807	23.729	14509	15777	0	528
32.348	20.808	14259	15590	0	528
32.492	13.631	13884	15497	0	528
35.557	6.816	13884	15450	0	528
37.108	2.741	13884	15543	0	528
36.531	5.301	14259	15824	0	528
34.944	10.530	14259	16384	0	528
33.285	16.733	14509	17271	0	528
32.420	19.149	14884	18066	0	528
33.105	16.877	15134	18626	0	528
33.177	13.271	15509	19281	0	528
33.718	7.934	15759	19935	0	528
33.682	5.950	16134	20309	0	528
34.295	6.131	16134	20355	0	528
36.206	8.439	16384	20262	0	528
38.658	11.792	16384	20028	0	528
42.229	13.199	16384	19608	0	528
43.058	10.458	16384	19047	0	528
42.157	7.140	16384	18393	0	528
37.252	3.137	16384	17879	0	528
32.492	1.839	16384	17318	0	528
29.895	5.445	16134	16757	1	316
30.076	10.242	16134	16244	0	316
33.790	14.208	15759	15684	0	316
37.685	13.523	15509	15216	0	316
41.039	12.333	15509	14749	0	316
42.301	12.622	15134	14328	0	316
41.435	14.172	14884	14001	0	316
41.111	19.401	15134	13814	0	316
39.235	22.899	14884	13861	0	316
38.875	23.296	14884	14142	0	316
38.731	19.401	14884	14749	0	316
41.399	13.343	15134	15497	0	316
41.976	8.222	15509	16198	0	316
41.147	6.383	15759	16991	0	316
38.514	9.665	16384	18206	0	316
34.692	14.858	17009	19421	0	316
33.862	19.618	17259	20122	0	316
37.252	19.690	17634	20355	0	316
40.786	15.903	17884	20262	0	316
42.120	13.307	17884	19935	0	316
41.363	13.307	18259	19514	0	316
38.767	17.887	17884	19000	0	316
39.560	22.322	18259	18440	0	316
39.885	24.234	17884	17879	0	316
41.039	19.942	17634	17271	0	316
39.416	11.360	17634	16711	0	316
35.124	2.488	17634	16198	0	316
27.479	-6.383	17259	15730	0	316
19.401	-10.530	17259	15356	0	316
11.504	-9.304	17259	14983	0	316
8.979	-1.298	17009	14702	0	316
15.615	12.297	17009	14422	0	316
22.683	22.034	16634	14095	0	316
25.784	24.883	16634	13814	0	316
21.890	18.031	16384	13674	0	316
9.989	8.547	16384	13814	0	316
0.144	3.029	16384	14282	0	316
-5.121	6.888	16634	14749	0	316
-5.662	12.261	17009	15403	0	316
-9.124	14.785	17259	16384	0	316
-14.317	13.307	17634	17412	0	316
-18.320	5.626	17884	18066	0	316
-18.572	1.118	18259	18346	0	316
-14.064	-2.019	18509	18720	0	316
-8.294	-5.229	18509	19141	0	316
-7.645	-8.727	18884	19281	0	316
-11.071	-12.766	19134	19094	0	316
-15.579	-14.966	19134	18673	0	316
-16.841	-12.369	19134	18159	0	316
-18.139	-9.412	18884	17645	0	316
-19.041	-8.979	18884	16991	0	316
-24.306	-15.615	18509	16384	0	316
-28.597	-24.198	18259	15730	0	316
-31.049	-28.669	18259	15123	0	316
-26.361	-26.578	17884	14609	0	316
-22.719	-21.096	17634	14095	0	316
-23.188	-18.716	17259	13627	0	316
-25.352	-22.575	17259	13160	0	316
-28.201	-28.201	17009	12927	0	316
-25.279	-27.479	17009	12973	0	316
-15.615	-20.087	17009	13394	0	316
-8.547	-11.612	17009	14048	0	316
-9.412	-9.809	17009	14609	0	316
-16.552	-18.247	17259	15216	0	316
-23.512	-27.948	17634	16057	0	316
-24.883	-32.853	17634	16898	0	316
-17.382	-27.479	17634	17365	0	316
-6.563	-15.759	17884	17598	0	316
-0.216	-7.501	18259	17832	0	316
1.334	-3.534	18259	18159	0	316
-0.577	-6.744	18509	18206	0	316
-2.885	-8.691	18509	17879	0	316
-3.642	-9.629	18259	17365	0	316
-1.947	-7.357	17884	16804	0	316
-1.334	-4.580	17884	16291	0	316
-0.613	-6.058	17884	15684	0	316
2.813	-7.934	17259	15123	0	316
6.131	-11.828	17009	14562	0	316
8.222	-13.054	16634	14048	0	316
9.989	-13.379	16384	13581	0	316
8.583	-11.540	16134	13207	0	316
6.311	-8.366	15759	12927	0	316
3.823	-7.176	15134	12646	0	316
5.914	-5.445	14884	12459	0	316
10.386	-2.344	14884	12319	0	316
17.093	-0.252	14884	12272	0	316
23.909	2.019	14259	12226	0	316
29.715	4.580	13884	12272	0	316
31.843	4.508	13634	12506	0	316
31.662	2.705	13634	13160	0	316
26.866	-0.108	13634	14048	0	316
24.234	-2.272	13634	14842	0	316
22.972	-1.911	13884	15403	0	316
26.361	4.255	13884	16151	0	316
37.865	14.136	14259	16944	0	316
48.395	25.099	14259	17645	0	316
54.345	31.662	14259	18019	0	316
49.802	31.662	14259	18112	0	316
43.383	24.270	14259	18112	0	316
35.521	17.887	14259	18066	0	316
36.134	13.920	14884	18019	0	316
40.894	16.625	14509	18019	0	316
47.566	22.286	14509	18019	0	316
49.477	27.515	14259	17972	0	316
46.412	28.164	14259	17879	0	316
46.412	27.984	14259	17739	0	316
50.126	27.840	14259	17692	0	316
52.975	30.256	14259	17739	0	316
57.591	32.853	14509	17879	0	316
54.922	33.790	14509	17972	0	316
51.136	32.600	14509	17972	0	316
49.333	28.958	14509	17832	0	316
50.343	27.732	14509	17692	0	316
53.119	26.758	14509	17739	0	316
54.562	28.092	14884	18112	0	316
56.076	30.761	14884	18626	0	316
56.401	33.682	15134	18954	0	316
57.735	38.154	15509	19281	0	316
58.096	42.986	16134	20028	0	316
58.745	43.383	16384	20823	0	316
58.889	44.104	17009	21197	0	316
61.233	44.284	17259	21103	0	316
66.967	47.926	17259	20729	0	316
75.586	56.401	17634	20262	0	316
85.719	69.059	17634	19748	0	316
102.633	82.294	17634	19187	1	500
124.739	95.564	17634	18580	0	500
150.451	111.251	17634	17926	0	500
181.608	130.689	17634	17225	0	500
212.261	152.903	17259	16570	0	500
245.330	178.543	17259	16104	0	500
281.608	204.760	17259	15684	0	500
322.503	229.030	17259	15216	0	500
364.226	254.814	17009	14656	0	500
401.587	278.976	16634	14235	0	500
422.467	301.695	16634	13908	0	500
428.886	319.293	16384	13627	0	500
420.988	326.758	16384	13487	0	500
405.554	326.073	16384	13441	0	500
389.326	316.625	16384	13814	0	500
375.081	304.760	16384	14375	0	500
360.007	290.696	16634	14889	0	500
343.058	275.009	17009	15590	0	500
318.969	255.175	17259	16664	0	500
290.912	231.013	17884	17785	0	500
258.348	206.131	17884	18440	0	500
229.210	182.113	18259	18720	0	500
204.544	159.214	18884	19094	0	500
185.575	135.954	19134	19655	0	500
165.741	110.963	19509	19935	0	500
144.428	86.008	19509	19748	0	500
120.123	63.072	19759	19374	0	500
92.247	39.740	19759	18954	0	500
65.200	15.795	19759	18440	0	500
40.570	-8.402	19759	17926	0	500
19.546	-27.191	19759	17318	0	500
4.616	-37.793	19759	16664	0	500
-2.849	-37.252	19134	15964	0	500
-12.477	-35.557	19134	15263	0	500
-20.736	-39.452	18884	14562	0	500
-34.944	-52.434	18509	13908	0	500
-49.297	-70.285	18259	13254	0	500
-62.532	-90.335	17884	12693	0	500
-74.684	-103.570	17634	12366	0	500
-84.061	-111.287	17634	12413	0	500
-91.201	-113.451	17634	12693	0	500
-96.069	-113.487	17259	12927	0	500
-98.558	-114.317	17259	13394	0	500
-101.010	-118.969	17634	14282	0	500
-103.498	-123.729	17884	15263	0	500
-108.583	-128.958	17884	15824	0	500
-109.953	-128.814	18259	16151	0	500
-109.520	-126.217	18259	16524	0	500
-106.671	-121.349	18509	17084	0	500
-104.796	-115.254	18884	17318	0	500
-105.662	-108.475	18884	17365	0	500
-107.970	-102.993	18509	17225	0	500
-110.891	-101.659	18509	16991	0	500
-112.766	-106.599	18509	16617	0	500
-113.631	-113.271	18259	16244	0	500
-113.307	-119.473	18259	15824	0	500
-110.350	-121.493	17884	15403	0	500
-107.248	-117.670	17634	14936	0	500
-101.406	-115.110	17259	14515	0	500
-96.177	-113.307	17259	14188	0	500
-90.480	-114.100	16634	14001	0	500
-85.828	-112.946	16634	13814	0	500
-81.933	-109.556	16384	13581	0	500
-79.697	-101.226	16134	13394	0	500
-79.913	-90.948	16134	13207	0	500
-81.969	-83.375	16134	13113	0	500
-83.736	-81.392	15509	13160	0	500
-81.933	-84.962	15509	13581	0	500
-80.851	-88.460	15509	14515	0	500
-77.173	-87.342	15759	15590	0	500
-74.829	-84.097	15759	16244	0	500
-74.901	-80.743	15759	16664	0	500
-75.586	-84.529	16134	17131	0	500
-76.055	-91.634	16134	17645	0	500
-76.091	-97.584	16384	17926	0	500
-76.235	-97.440	16384	17926	0	500
-74.757	-89.542	16134	17739	0	500
-72.268	-79.769	16134	17505	0	500
-68.013	-69.419	16134	17225	0	500
-60.945	-60.512	15759	16944	0	500
-55.103	-56.040	15759	16617	0	500
-51.569	-53.300	15509	16338	0	500
-50.595	-56.185	15134	16057	0	500
-50.090	-61.017	15134	15824	0	500
-49.513	-66.462	14884	15684	0	500
-44.609	-67.688	14884	15543	0	500
-40.065	-67.400	14509	15497	0	500
-36.026	-64.046	14884	15403	0	500
-34.656	-60.765	14509	15263	0	500
-34.547	-56.293	14259	15076	0	500
-32.672	-52.290	13884	14842	0	500
-30.400	-48.467	13634	14656	0	500
-27.299	-44.825	13634	14609	0	500
-25.784	-40.173	13634	14889	0	500
-24.955	-36.964	13634	15450	0	500
-27.010	-34.764	14259	15964	0	500
-29.571	-38.190	13884	16338	0	500
-31.482	-47.349	13884	16851	0	500
-30.292	-57.194	14259	17598	0	500
-24.811	-57.122	14259	18206	0	500
-14.064	-46.448	14509	18626	0	500
-6.996	-28.128	14509	18860	0	500
-5.193	-15.471	15134	19000	0	500
-9.845	-16.156	15134	19047	0	500
-14.245	-27.551	15134	19000	0	500
-14.930	-38.298	15134	18954	0	500
-10.494	-41.363	15134	18767	0	500
-3.931	-34.115	15134	18533	0	500
-0.469	-24.342	15134	18206	0	500
2.741	-18.752	15134	17832	0	500
6.058	-19.113	15134	17412	0	500
8.222	-22.503	14884	17084	0	500
8.547	-27.191	14884	16757	0	500
5.265	-28.309	14509	16430	0	500
3.029	-25.243	14509	16104	0	500
3.534	-16.841	14509	15777	0	500
8.366	-6.275	14884	15543	0	500
15.398	1.298	14509	15356	0	500
19.618	2.092	14509	15450	0	500
19.762	-4.436	14509	15777	0	500
19.257	-12.369	14509	16104	0	500
17.562	-17.887	14884	16570	0	500
16.877	-15.110	15134	17505	0	500
19.113	-5.554	15509	18580	0	500
21.457	6.239	15759	19234	0	500
26.181	13.992	16134	19514	0	500
30.869	15.398	16384	19655	0	500
31.699	9.196	16634	19701	0	500
31.049	0.829	17009	19561	0	500
28.489	-4.868	17009	19281	0	500
28.201	-3.210	17009	19000	0	500
31.338	4.003	17259	18673	0	500
35.016	13.199	17259	18299	0	500
38.875	20.159	17259	17879	0	500
39.308	20.339	17259	17412	0	500
39.055	16.084	17259	16991	0	500
37.252	10.530	17009	16430	0	500
35.990	6.924	17009	15964	0	500
35.737	7.212	17009	15730	0	500
36.567	11.648	17009	15777	0	500
41.543	16.372	17009	15777	0	500
45.330	21.168	17009	15590	0	500
47.854	22.863	17259	15637	0	500
45.474	18.175	17259	15824	0	500
38.947	10.855	17259	15870	0	500
33.141	1.406	17009	15777	0	500
31.554	-2.633	17634	15917	0	500
34.403	1.154	17634	16244	0	500
39.488	10.638	17634	16384	0	500
41.652	21.421	17634	16338	0	500
39.740	22.503	17259	16057	0	500
35.810	16.841	17259	15637	0	500
32.095	3.931	17009	15076	0	500
30.761	-3.210	17009	14515	0	500
34.800	0.325	16634	14095	0	500
38.118	11.287	16384	13721	0	500
39.812	22.827	16384	13581	0	500
39.199	27.083	16134	13534	0	500
37.541	20.844	16134	13534	0	500
36.314	12.802	15759	13581	0	500
37.288	7.465	15759	13627	0	500
40.678	6.058	15509	13674	0	500
43.527	7.970	15509	13814	0	500
44.104	7.609	15509	14282	0	500
45.078	8.691	15509	14983	0	500
43.707	8.330	15509	15543	0	500
42.084	9.016	16134	15917	0	500
39.632	7.501	16134	16477	0	500
38.262	5.157	16384	17178	0	500
36.964	7.537	16634	17645	0	500
55.752	43.924	17009	15590	0	904
58.817	49.225	17009	15450	0	904
57.627	53.300	17009	15356	0	904
59.863	56.690	17009	15263	0	904
61.594	56.113	16634	15123	0	904
66.751	55.175	16634	14983	0	904
68.554	57.663	16634	14936	0	904
65.741	60.115	16384	14889	0	904
58.889	61.125	16384	14842	0	904
50.920	56.401	16384	14889	0	904
48.936	47.854	16384	15076	0	904
52.290	41.543	16384	15263	0	904
55.752	39.416	16384	15450	0	904
55.752	38.947	16384	15684	0	904
51.569	37.757	16384	15964	0	904
45.546	32.816	16384	16291	0	904
42.806	27.227	16384	16477	0	904
42.048	26.542	16634	16617	0	904
42.084	28.741	16634	16570	0	904
40.353	32.203	16384	16477	0	904
35.918	33.393	16384	16338	0	904
33.646	31.662	16134	16057	0	904
35.557	31.158	16134	15824	0	904
40.894	31.085	16134	15684	0	904
46.953	34.403	15759	15637	0	904
52.254	38.514	15759	15590	0	904
55.463	40.678	15759	15543	0	904
56.545	44.537	15509	15543	0	904
55.788	48.359	15509	15543	0	904
58.529	53.047	15509	15590	0	904
59.502	56.329	15509	15637	0	904
61.378	57.519	15134	15684	0	904
65.669	57.735	15134	15730	0	904
67.364	55.896	15134	15730	0	904
65.885	54.778	14884	15730	0	904
66.282	54.526	14884	15870	0	904
64.263	54.309	14884	16104	0	904
63.397	53.516	14884	16244	0	904
64.335	52.326	14884	16384	0	904
64.984	52.362	15134	16617	0	904
63.830	55.463	15759	17084	0	904
65.849	62.099	15509	17505	0	904
68.013	70.249	15759	17785	0	904
68.518	73.170	15759	17832	0	904
67.724	69.816	15759	17785	0	904
64.154	63.000	15759	17598	0	904
64.046	58.204	15509	17365	0	904
68.554	57.663	15509	17178	0	904
76.307	61.450	15509	17084	0	904
83.772	65.525	15509	16991	0	904
89.470	66.931	15509	16944	0	904
93.365	67.436	15509	16851	0	904
96.502	68.301	15509	16757	0	904
100.252	69.924	15509	16617	0	904
101.298	71.836	15134	16384	0	904
100.180	74.612	15134	16151	0	904
97.295	74.216	15134	16011	0	904
93.184	72.881	14884	16011	0	904
87.090	68.482	15134	16057	0	904
81.248	62.964	15134	16244	0	904
79.805	61.955	15509	16384	0	904
80.130	62.604	15509	16524	0	904
82.726	64.371	15509	16851	0	904
84.818	65.164	15759	17225	0	904
83.520	62.532	15759	17552	0	904
86.188	63.325	16134	17832	0	904
92.247	68.265	16134	18112	0	904
95.817	77.822	16384	18346	0	904
95.492	84.854	16634	18486	0	904
88.893	83.051	16634	18626	0	904
82.546	74.576	17009	18673	0	904
78.399	64.443	17009	18626	0	904
76.379	59.538	17259	18486	0	904
73.783	60.945	17259	18393	0	904
68.554	65.020	17634	18253	0	904
63.289	65.849	17634	18019	1	328
63.145	61.161	17634	17692	0	328
65.777	55.175	17634	17365	0	328
62.748	49.008	17259	17038	0	328
57.375	46.232	17259	16711	0	328
53.047	45.582	17259	16384	0	328
53.732	47.494	17009	16011	0	328
61.810	48.936	17009	15590	0	328
72.376	50.595	17009	15216	0	328
78.868	49.657	16634	14983	0	328
79.012	45.655	16634	14842	0	328
75.875	41.471	16634	14842	0	328
74.216	38.298	16634	14936	0	328
74.829	40.462	16634	15029	0	328
77.389	43.996	16634	15170	0	328
74.612	47.566	16634	15310	0	328
69.744	48.323	17009	15450	0	328
63.938	45.871	17009	15637	0	328
60.548	44.645	17009	15777	0	328
61.810	44.753	17009	15777	0	328
68.662	46.628	16634	15637	0	328
74.360	50.523	16634	15497	0	328
76.488	52.614	16634	15356	0	328
75.514	56.221	16634	15356	0	328
72.160	58.276	16634	15403	0	328
69.924	59.250	16634	15450	0	328
69.095	58.817	16384	15450	0	328
72.953	57.158	16384	15497	0	328
77.930	52.578	16384	15497	0	328
76.956	47.962	16384	15450	0	328
72.340	41.868	16384	15403	0	328
62.315	36.170	16134	15403	0	328
53.083	30.148	16134	15450	0	328
48.539	25.820	16134	15543	0	328
47.999	24.594	16134	15590	0	328
53.624	25.424	16134	15590	0	328
59.863	29.174	16134	15637	0	328
64.263	30.689	15759	15824	0	328
62.135	28.814	15759	15917	0	328
53.552	21.493	15759	16104	0	328
42.409	11.035	16134	16384	0	328
35.737	4.291	16134	16757	0	328
36.639	5.409	16134	17084	0	328
39.812	11.215	16384	17271	0	328
39.199	18.860	16384	17365	0	328
33.502	21.168	16384	17412	0	328
29.715	19.077	16384	17318	0	328
37.396	15.290	16384	17225	0	328
49.910	16.805	16384	17178	0	328
64.118	24.198	16384	17178	0	328
66.426	33.069	16384	17225	0	328
60.656	37.937	16384	17225	0	328
52.362	36.855	16384	17084	0	328
51.497	33.538	16384	16944	0	328
57.086	28.273	16384	16711	0	328
62.243	27.479	16384	16477	0	328
62.207	30.040	16134	16291	0	328
53.516	32.564	16134	16151	0	328
41.796	33.429	16134	16011	0	328
34.800	31.843	16134	15964	0	328
34.728	28.273	16134	15964	0	328
39.993	23.873	16134	15964	0	328
43.707	22.899	16134	16057	0	328
46.268	21.060	16134	16198	0	328
45.078	19.762	16134	16384	0	328
42.120	17.743	16384	16757	0	328
41.976	14.713	16384	17084	0	328
41.183	13.631	16634	17365	0	328
42.229	14.605	16634	17645	0	328
44.140	18.247	17009	17926	0	328
47.277	22.503	17009	18159	0	328
48.035	25.929	17259	18159	0	328
43.130	27.912	17259	18019	0	328
34.944	28.958	17259	17879	0	328
28.958	29.499	17634	17785	0	328
30.292	29.246	17634	17692	0	328
37.072	30.364	17634	17598	0	328
44.176	30.508	17634	17505	0	328
47.313	31.662	17884	17412	0	328
47.386	33.033	17634	17412	0	328
48.684	37.577	18259	17458	0	328
51.749	39.993	17884	17412	0	328
54.057	42.301	17884	17318	0	328
54.309	39.849	17884	17131	0	328
49.730	35.413	17884	16757	0	328
46.304	31.122	17884	16384	0	328
46.917	28.128	17884	15917	0	328
49.405	29.607	17634	15450	0	328
49.549	30.256	17634	15076	0	328
49.369	30.328	17259	14749	0	328
47.818	27.984	17259	14562	0	328
45.438	24.486	17259	14469	0	328
43.058	22.178	17259	14422	0	328
40.858	18.644	17009	14469	0	328
36.206	15.939	17009	14609	0	328
32.348	14.028	17009	14796	0	328
31.590	10.963	16634	14983	0	328
33.574	10.746	16634	15076	0	328
37.973	12.369	16634	15076	0	328
42.625	13.956	16634	15029	0	328
45.078	17.743	16384	14936	0	328
46.700	20.050	16384	14796	0	328
44.969	21.385	16134	14749	0	328
42.950	23.729	16134	14796	0	328
40.317	24.702	16134	14889	0	328
40.570	26.433	16134	15076	0	328
40.750	27.768	16134	15356	0	328
42.625	28.128	16134	15590	0	328
44.140	25.748	16384	15730	0	328
42.337	24.522	16384	15870	0	328
40.245	22.683	16384	16057	0	328
37.144	22.503	16384	16198	0	328
36.170	24.270	16134	16291	0	328
34.800	27.299	16384	16384	0	328
37.324	28.994	16384	16570	0	328
38.298	28.489	16384	16804	0	328
38.658	27.912	16384	17038	0	328
38.045	26.217	16384	17225	0	328
38.190	27.876	16634	17552	0	328
38.947	29.066	16634	17926	0	328
38.442	30.040	16634	18159	0	328
37.613	28.381	16634	18253	0	328
37.000	25.207	17009	18299	0	328
37.324	24.270	17009	18206	0	328
40.065	24.414	17009	18112	0	328
43.419	28.020	17009	17879	0	328
43.635	29.427	17009	17598	0	328
42.337	29.463	17009	17225	1	508
41.580	26.181	16634	16851	0	508
43.310	23.188	16634	16524	0	508
47.674	20.916	16634	16291	0	508
52.903	20.411	16634	16057	0	508
54.886	24.486	16384	15870	0	508
54.273	26.794	16384	15730	0	508
52.001	30.328	16384	15590	0	508
46.953	29.823	16384	15543	0	508
38.803	28.453	16134	15590	0	508
32.203	23.476	16134	15590	0	508
26.001	19.942	16134	15637	0	508
23.008	16.949	16134	15684	0	508
21.385	14.966	16134	15730	0	508
20.267	15.146	16134	15777	0	508
17.634	15.002	16134	15777	0	508
14.353	15.326	16134	15870	0	508
11.179	13.559	16134	16011	0	508
11.035	8.114	16134	16244	0	508
11.828	1.623	16134	16430	0	508
14.245	-3.065	16384	16757	0	508
18.031	-2.272	16384	16991	0	508
25.171	3.246	16384	17084	0	508
29.895	11.143	16384	17084	0	508
33.790	17.274	16384	17038	0	508
36.026	17.310	16634	16991	0	508
36.242	15.074	16384	16898	0	508
37.541	13.523	16384	16617	0	508
39.740	14.821	16384	16384	0	508
44.176	20.627	16134	16104	0	508
48.576	28.561	16134	15824	0	508
52.831	35.449	16134	15637	0	508
56.149	41.760	15759	15497	0	508
58.601	44.284	15759	15403	0	508
58.781	45.763	15759	15403	0	508
56.690	45.618	16134	15590	0	508
55.103	44.573	16134	15824	0	508
52.542	41.183	16134	16057	0	508
50.667	37.072	16134	16291	0	508
49.585	33.646	16134	16477	0	508
48.467	27.155	16134	16524	0	508
44.789	22.647	16134	16570	0	508
39.776	18.392	16384	16757	0	508
32.203	15.615	16384	16944	0	508
25.856	15.074	16384	17038	0	508
22.575	14.497	16384	16991	0	508
25.784	14.461	16384	16944	0	508
32.889	12.045	16384	16944	0	508
42.012	13.018	16384	16944	0	508
45.078	15.903	16384	16944	0	508
42.409	20.952	16384	16944	0	508
36.062	23.585	16634	16944	0	508
33.249	21.421	16634	16851	0	508
33.321	16.697	16384	16664	0	508
37.180	13.487	16384	16384	0	508
37.577	13.559	16384	16244	0	508
32.276	13.956	16134	16011	0	508
27.948	11.792	16134	15777	0	508
27.732	5.806	16134	15590	0	508
33.898	2.669	15759	15450	0	508
43.058	5.986	15759	15403	0	508
50.270	14.281	15759	15356	0	508
54.237	21.998	15509	15216	0	508
54.057	22.539	15509	14983	0	508
52.362	17.887	15134	14842	0	508
47.205	8.547	15134	14702	0	508
39.127	3.678	14884	14656	0	508
32.420	2.236	14884	14749	0	508
26.145	3.678	14509	14889	0	508
29.174	6.203	14509	15123	0	508
36.711	10.097	14509	15310	0	508
47.277	13.668	14509	15543	0	508
51.641	15.398	15134	15730	0	508
49.189	15.074	14884	15870	0	508
39.452	10.530	14509	16011	0	508
29.138	4.400	14509	16151	0	508
24.811	-0.865	14509	16384	0	508
25.496	-1.154	14509	16570	0	508
28.561	1.875	14884	16851	0	508
25.424	6.924	14884	17084	0	508
20.591	11.828	14884	17178	0	508
11.973	13.343	14884	17225	0	508
8.186	10.963	15134	17225	0	508
11.468	4.616	15134	17365	0	508
17.454	-1.046	15134	17552	0	508
22.250	-2.669	15134	17692	0	508
20.375	-1.983	15509	17785	0	508
13.271	0.144	15509	17926	0	508
3.246	-1.406	15509	18019	0	508
-3.318	-6.563	15509	18112	0	508
-5.301	-13.487	15759	18159	0	508
0.613	-16.084	15759	18159	0	508
5.842	-17.202	15759	18159	0	508
11.215	-15.218	16134	18066	0	508
8.835	-13.415	16134	17972	0	508
3.318	-12.477	16134	17879	0	508
-2.488	-13.271	16134	17832	0	508
-2.452	-17.093	16134	17739	1	388
3.282	-20.808	16384	17645	0	388
9.737	-24.270	16384	17645	0	388
14.425	-22.467	16634	17692	0	388
11.107	-20.519	16634	17739	0	388
7.789	-19.546	16634	17692	0	388
2.596	-22.142	17009	17552	0	388
0.397	-28.309	17009	17318	0	388
-1.767	-30.076	17009	17038	0	388
-3.137	-30.328	17009	16711	0	388
-3.642	-26.686	16634	16477	0	388
-2.813	-22.539	16634	16291	0	388
0.469	-18.644	16634	16104	0	388
4.796	-16.156	16634	15964	0	388
7.898	-14.461	16634	15917	0	388
9.376	-14.172	17009	15917	0	388
6.852	-15.326	17009	15964	0	388
2.957	-17.923	17009	15870	0	388
0.252	-20.123	16634	15637	0	388
0.288	-20.303	16634	15450	0	388
4.508	-17.454	16634	15356	0	388
12.802	-12.009	16634	15356	0	388
21.637	-5.662	16634	15310	0	388
28.597	-0.541	16634	15356	0	388
30.472	2.524	16634	15450	0	388
30.725	4.796	16634	15497	0	388
29.823	6.960	16634	15497	0	388
29.859	9.737	16384	15356	0	388
32.853	11.287	16384	15216	0	388
34.980	8.979	16384	15170	0	388
33.538	6.527	16384	15170	0	388
29.643	3.101	16134	15170	0	388
26.686	1.731	16134	15170	0	388
24.342	1.695	16134	15170	0	388
24.414	2.200	16134	15216	0	388
25.099	1.803	16134	15263	0	388
24.162	0.433	15759	15356	0	388
22.250	0.252	15759	15450	0	388
22.863	3.065	15759	15590	0	388
25.460	7.934	15759	15777	0	388
28.850	11.360	15759	16057	0	388
33.574	15.074	16134	16338	0	388
38.658	17.166	16134	16477	0	388
43.022	19.762	16134	16664	0	388
47.710	23.512	16134	16851	0	388
51.713	26.289	16384	17131	0	388
53.011	27.804	16384	17552	0	388
50.270	25.856	16634	17972	0	388
47.349	23.693	16634	18206	0	388
44.825	22.106	17009	18299	0	388
43.383	20.736	17009	18299	0	388
45.041	21.818	17009	18159	0	388
44.104	22.142	17259	18066	0	388
43.094	22.899	17259	17972	0	388
38.550	21.854	17259	17879	0	388
34.728	22.358	17259	17739	0	388
34.728	23.332	17259	17458	0	388
39.163	25.784	17259	17178	0	388
42.661	27.263	17259	16898	0	388
47.169	25.316	17259	16524	0	388
47.746	21.385	16634	16198	0	388
45.979	17.166	16634	15777	0	388
43.635	16.372	16634	15450	0	388
41.003	18.283	16384	15216	0	388
35.810	18.897	16384	15123	0	388
31.735	17.202	16384	15123	0	388
28.489	13.992	16384	15216	0	388
32.095	12.117	16384	15403	0	388
42.409	16.480	16384	15590	0	388
51.028	22.935	16384	15684	0	388
54.165	27.047	16384	15777	0	388
48.251	23.044	16384	15870	0	388
36.783	13.559	16384	16057	0	388
29.571	7.645	16634	16244	0	388
30.292	7.321	16634	16384	0	388
33.898	13.307	16634	16477	0	388
38.190	18.824	16634	16477	0	388
38.731	17.923	16634	16477	0	388
35.124	12.658	16634	16524	0	388
27.912	5.770	16634	16430	1	316
18.464	2.921	16634	16291	0	316
9.809	0.829	16384	16011	0	316
6.708	0.397	16384	15824	0	316
9.881	-2.416	16384	15684	0	316
16.012	-7.465	16384	15684	0	316
12.874	-15.218	16384	15777	0	316
3.210	-20.555	16384	15917	0	316
-8.402	-21.709	16384	16057	0	316
-14.100	-17.779	16384	16198	0	316
-10.350	-12.117	16384	16338	0	316
-6.131	-12.045	16384	16384	0	316
-7.176	-16.589	16384	16570	0	316
-16.192	-25.929	16384	16757	0	316
-25.063	-29.066	16634	16851	0	316
-27.551	-26.866	16634	16898	0	316
-25.027	-20.231	16634	16944	0	316
-20.591	-17.021	16634	17038	0	316
-17.706	-18.897	16634	17038	0	316
-17.851	-22.647	16634	16991	0	316
-16.120	-26.506	16634	16898	0	316
-11.287	-23.585	16634	16711	0	316
-4.183	-17.995	16634	16524	0	316
0.397	-13.595	16634	16477	0	316
0.072	-12.838	16634	16524	0	316
-3.895	-13.307	16634	16617	0	316
-7.212	-14.497	16634	16664	0	316
-7.248	-11.035	17009	16617	0	316
-4.580	-7.321	16634	16524	0	316
0.072	-2.633	16634	16384	0	316
2.308	-2.092	16634	16244	0	316
1.983	-3.462	16634	16104	0	316
1.334	-5.373	16634	16011	0	316
0.577	-7.357	16634	15964	0	316
0.072	-8.907	16634	15870	0	316
-0.397	-9.520	16634	15917	0	316
-2.993	-10.963	16634	16011	0	316
-5.481	-10.999	16634	16151	0	316
-6.131	-11.900	16634	16244	0	316
-4.147	-10.927	16634	16384	0	316
4.868	-7.501	16634	16477	0	316
16.661	-3.390	16634	16477	0	316
25.712	0.685	16634	16477	0	316
27.191	0.505	16634	16477	0	316
19.726	-6.094	16634	16477	0	316
8.006	-14.677	16634	16430	0	316
-1.298	-20.555	16634	16430	0	316
1.046	-19.329	16634	16430	0	316
11.540	-11.143	16634	16524	0	316
24.702	-1.082	17009	16664	0	316
30.617	7.212	17009	16804	0	316
28.777	10.674	17009	16944	0	316
24.558	8.294	17259	17038	0	316
25.784	8.294	17009	17178	0	316
34.656	8.402	17009	17271	0	316
45.222	11.179	17259	17318	0	316
45.041	12.622	17259	17318	0	316
38.658	13.343	17259	17225	0	316
27.840	14.389	17259	17178	0	316
24.775	18.969	17259	17084	0	316
32.384	26.253	17634	17038	0	316
43.924	33.502	17634	16991	0	316
53.696	34.259	17634	16898	0	316
59.142	30.436	17634	16757	0	316
59.070	26.722	17634	16477	0	316
55.752	25.532	17259	16198	0	316
49.153	29.102	17259	15777	0	316
44.212	34.043	17009	15403	0	316
42.120	37.000	17009	14983	0	316
44.717	36.459	16634	14702	0	316
51.100	34.006	16634	14609	0	316
54.526	31.554	16634	14609	0	316
58.060	28.741	16384	14609	0	316
55.499	29.751	16384	14702	0	316
50.631	29.282	16384	14889	0	316
43.419	24.919	16384	15170	0	316
35.124	18.644	16384	15497	0	316
30.508	12.730	16634	15824	0	316
33.934	11.287	16634	16151	0	316
41.003	15.723	16634	16477	0	316
45.294	21.313	16634	16711	0	316
43.202	22.395	16634	16804	0	316
37.865	20.159	16634	16757	0	316
31.662	15.903	16634	16711	0	316
31.194	11.864	16384	16524	0	316
35.449	12.838	16384	16384	0	316
37.865	12.694	16384	16151	0	316
38.082	13.559	16134	15917	0	316
36.459	12.261	16134	15730	0	316
37.108	13.091	16134	15590	0	316
38.478	13.884	15759	15497	0	316
42.517	17.166	16134	15356	0	316
42.301	20.555	15759	15216	0	316
37.216	23.260	15759	15076	0	316
32.456	23.404	15509	14983	0	316
29.859	20.591	15509	14936	0	316
32.925	19.546	15134	14936	0	316
38.622	18.897	15134	15029	0	316
40.642	19.510	15134	15216	0	316
36.062	21.998	15134	15543	0	316
28.886	23.657	15134	15917	0	316
22.503	22.395	15134	16244	0	316
22.214	19.329	15134	16524	0	316
26.614	14.425	15134	16804	0	316
33.826	11.648	15509	17084	0	316
36.278	10.422	15509	17271	0	316
32.384	11.287	15509	17458	0	316
27.443	13.235	15509	17598	0	316
25.099	12.333	15509	17739	0	316
31.446	12.874	15759	17739	0	316
44.969	16.228	15759	17645	0	316
52.110	21.529	16134	17598	0	316
49.910	27.191	16134	17598	0	316
39.452	33.033	16384	17598	0	316
32.492	34.439	16134	17645	0	316
35.521	33.754	16134	17739	0	316
43.743	32.889	16384	17832	0	316
49.730	32.889	16384	17879	0	316
45.474	33.321	16384	17832	0	316
38.190	34.692	16384	17785	0	316
32.348	33.105	16634	17739	0	316
29.463	28.994	16634	17552	0	316
26.506	22.719	16384	17365	0	316
22.863	18.500	16634	17178	0	316
22.214	20.231	16634	16944	0	316
27.227	25.532	16384	16664	0	316
36.387	29.318	16384	16384	0	316
40.173	30.292	16384	16244	0	316
36.278	26.361	16384	16151	0	316
25.929	20.231	16384	16104	0	316
20.844	17.851	16384	15964	0	316
21.168	18.500	16384	15824	0	316
23.765	19.221	16384	15730	0	316
22.647	16.120	16384	15777	0	316
14.353	9.989	16384	15870	0	316
5.121	3.210	16384	15964	0	316
4.508	-0.180	16384	16057	0	316
9.629	3.390	16384	16151	0	316
19.510	12.550	16384	16198	0	316
22.719	23.260	16384	16151	0	316
19.077	28.777	16384	16151	0	316
11.973	27.551	16384	16198	0	316
9.737	19.113	16384	16291	0	316
13.812	10.061	16384	16338	0	316
19.726	6.167	16384	16338	0	316
19.834	8.294	16384	16384	0	316
15.182	12.586	16384	16477	0	316
7.609	15.362	16634	16570	0	316
4.904	12.045	16634	16570	0	316
8.006	9.520	16634	16570	0	316
12.081	8.691	16634	16524	0	316
12.730	10.783	16634	16430	0	316
9.917	11.973	16634	16384	0	316
5.409	6.419	16384	16384	0	316
0.938	-0.541	16384	16430	0	316
-0.757	-8.619	16384	16384	0	316
-1.587	-10.566	16384	16291	0	316
1.370	-8.511	16384	16198	0	316
5.301	-4.508	16134	16104	0	316
11.143	-2.777	16384	16057	0	316
14.425	-3.137	16384	16011	0	316
9.989	-6.852	16384	15964	0	316
4.003	-9.448	16384	15964	0	316
-5.157	-14.136	16384	15917	0	316
-10.097	-18.283	16384	15917	0	316
-10.783	-20.014	16384	16011	0	316
-9.304	-19.654	16384	16104	0	316
-5.698	-16.552	16384	16198	0	316
-4.724	-14.317	16384	16198	0	316
-4.868	-12.477	16384	16151	0	316
-5.986	-14.858	16384	16057	0	316
-7.753	-20.014	16134	15964	0	316
-13.812	-26.145	16134	15917	0	316
-18.897	-32.925	16134	15964	0	316
-21.601	-37.505	16134	16104	0	316
-21.241	-39.704	16384	16384	0	316
-19.473	-39.055	16384	16804	0	316
-17.562	-37.577	16634	17178	0	316
-19.510	-36.964	16634	17505	0	316
-23.296	-37.829	17009	17739	0	316
-25.568	-37.324	17009	17926	0	316
-25.063	-35.449	17009	18019	0	316
-24.378	-31.987	17009	18112	0	316
-24.053	-30.653	17259	18253	0	316
-25.460	-29.391	17259	18253	0	316
-26.325	-31.410	17634	18206	0	316
-24.450	-31.987	17634	18019	0	316
-22.899	-30.581	17634	17785	0	316
-17.779	-27.227	17634	17505	0	316
-13.523	-24.775	17634	17131	1	756
-10.783	-22.719	17634	16664	0	756
-8.186	-19.437	17259	16198	0	756
-7.104	-17.995	17259	15590	0	756
-5.590	-16.841	17009	15076	0	756
-4.003	-14.389	16634	14702	0	756
-3.498	-13.704	16634	14469	0	756
-5.878	-13.992	16384	14328	0	756
-8.114	-13.920	16384	14328	0	756
-11.576	-15.182	16384	14469	0	756
-11.107	-16.697	16384	14562	0	756
-7.717	-15.362	16384	14656	0	756
-3.642	-13.451	16134	14656	0	756
-0.577	-11.432	16134	14702	0	756
-0.361	-10.674	16134	14842	0	756
-0.938	-9.520	16134	15029	0	756
0.757	-9.737	16134	15216	0	756
5.770	-7.248	16134	15450	0	756
9.917	-6.022	16134	15777	0	756
13.631	-5.157	16134	16244	0	756
10.999	-4.544	16384	16617	0	756
8.330	-4.327	16384	16898	0	756
5.950	-0.902	16384	17084	0	756
10.638	3.895	16634	17225	0	756
16.192	8.330	16634	17318	0	756
21.818	13.343	16634	17365	0	756
26.902	14.713	16634	17271	0	756
25.965	15.759	16634	17178	0	756
25.424	13.848	16634	17084	0	756
22.647	13.992	16634	17038	0	756
21.926	14.749	16634	17084	0	756
24.234	16.589	16634	17178	0	756
26.650	18.608	17009	17225	0	756
30.977	20.772	17009	17225	0	756
32.348	21.745	17009	17178	0	756
31.843	21.241	17009	17131	0	756
30.400	22.106	17009	17038	0	756
31.158	21.926	17009	16944	0	756
31.554	22.683	16634	16804	0	756
33.502	21.421	16634	16664	0	756
34.836	21.024	16634	16617	0	756
34.475	18.969	16634	16570	0	756
31.590	17.129	16634	16477	0	756
29.931	18.067	16634	16477	0	756
30.400	21.277	16634	16570	0	756
32.816	24.955	17009	16664	0	756
37.793	29.102	17009	16804	0	756
41.183	29.607	17009	16944	0	756
43.310	29.823	17259	16991	0	756
43.815	30.833	17259	16898	0	756
44.140	31.410	17259	16757	0	756
41.868	32.744	17259	16617	0	756
38.009	30.689	17259	16430	0	756
32.816	26.902	17259	16244	0	756
27.407	21.781	17009	16057	0	756
25.965	18.392	17009	15917	0	756
23.909	15.687	17009	15824	0	756
22.178	12.297	17009	15684	0	756
17.310	8.799	17009	15637	0	756
13.992	6.131	17009	15637	0	756
12.874	6.996	16634	15497	0	756
12.658	7.393	16634	15263	0	756
13.992	7.357	16634	15076	0	756
12.802	6.708	16384	14936	0	756
9.448	3.318	16384	14889	0	756
5.445	1.695	16384	14889	0	756
4.688	3.029	16134	14936	0	756
7.789	5.986	16134	15029	0	756
10.169	6.635	16134	15263	0	756
13.163	4.291	16134	15543	0	756
11.720	2.524	16134	15684	0	756
10.061	-0.072	16134	15777	0	756
9.845	0.974	16134	15870	0	756
11.432	4.327	16134	16011	0	756
16.048	8.619	16134	16104	0	756
18.464	11.143	16134	16104	0	756
18.211	10.097	15759	16011	0	756
15.651	9.484	15759	15917	0	756
13.415	7.321	15759	15824	0	756
12.586	6.563	15509	15824	0	756
13.487	5.517	15509	15917	0	756
14.641	4.760	15509	16011	0	756
14.208	3.173	15509	16104	0	756
11.035	-0.757	15509	16011	0	756
7.789	-3.210	15134	15917	0	756
6.960	-3.390	15134	15870	0	756
7.681	-5.590	15134	15964	0	756
8.330	-5.914	15134	16057	0	756
7.465	-7.321	15134	16151	0	756
4.147	-9.088	15134	16244	0	756
1.767	-10.061	15134	16384	0	756
1.479	-11.251	15134	16524	0	756
1.551	-13.054	15134	16664	0	756
2.885	-13.163	15509	16898	0	756
3.931	-13.451	15509	17038	0	756
4.364	-11.468	15509	17131	0	756
6.924	-7.429	15509	17225	0	756
10.530	-3.895	15509	17412	0	756
15.687	0.685	15759	17598	0	756
19.510	5.085	15759	17785	0	756
24.702	10.133	15759	17832	0	756
27.443	14.425	15759	17785	0	756
32.203	17.851	15759	17692	0	756
34.692	20.339	15759	17552	0	756
38.154	21.313	15759	17365	0	756
38.442	19.582	15759	17178	0	756
39.127	17.562	15759	16991	0	756
38.875	14.894	15759	16711	0	756
39.704	13.704	15509	16524	0	756
43.238	13.956	15759	16384	0	756
45.691	16.336	15759	16384	0	756
46.304	18.211	15759	16384	0	756
43.707	18.969	16134	16477	0	756
40.317	18.175	16134	16617	0	756
34.764	15.723	16134	16757	0	756
30.761	13.451	16134	16898	0	756
29.174	11.576	16134	16944	0	756
27.443	11.576	16384	16991	0	756
24.666	10.963	16384	17084	0	756
19.762	7.248	16384	17131	0	756
12.477	2.452	16384	17084	0	756
6.455	-1.983	16384	16898	0	756
8.763	-1.839	16384	16711	0	756
20.952	4.472	16384	16570	0	756
36.783	12.730	16384	16430	0	756
48.720	19.762	16384	16291	0	756
48.612	19.618	16134	16104	0	756
37.793	13.018	16134	16011	0	756
25.352	5.301	16134	16011	0	756
17.166	-1.623	16134	16057	0	756
17.238	-4.832	16134	16057	0	756
17.310	-3.859	16134	16057	0	756
15.651	-4.904	16134	15964	0	756
11.720	-5.517	16134	15870	0	756
10.133	-7.753	16134	15730	0	756
9.232	-11.323	15759	15543	0	756
9.556	-16.480	15759	15403	0	756
3.137	-20.772	15759	15497	0	756
-9.124	-27.083	15759	15637	0	756
-19.437	-30.581	15759	15730	0	756
-21.637	-32.059	15759	15870	0	756
-14.461	-31.590	15759	16011	0	756
-5.049	-32.059	15759	16198	0	756
-4.508	-31.338	15759	16291	0	756
-13.343	-31.482	15759	16338	0	756
-24.162	-32.961	15759	16291	0	756
-27.587	-34.800	15759	16291	0	756
-21.096	-35.701	15759	16338	0	756
-12.982	-34.511	15759	16384	0	756
-11.937	-30.653	15759	16430	0	756
-17.310	-27.551	15759	16430	0	756
-26.217	-26.073	15759	16477	0	756
-25.856	-29.968	15759	16570	0	756
-20.339	-33.502	16134	16524	0	756
-13.595	-36.423	16134	16384	0	756
-11.215	-36.062	15759	16198	0	756
-13.740	-34.403	15759	15964	0	756
-18.428	-35.016	15759	15777	0	756
-21.781	-37.577	15509	15637	0	756
-23.476	-40.606	15509	15590	0	756
-24.414	-43.274	15509	15543	0	756
-25.640	-40.786	15134	15543	0	756
-25.099	-37.108	15134	15543	0	756
-23.440	-32.492	15134	15684	0	756
-18.428	-29.427	15134	15870	0	756
-15.074	-30.581	15134	15964	0	756
-12.153	-32.239	15134	16057	0	756
-8.114	-33.069	15134	16244	0	756
-5.373	-31.049	15134	16477	0	756
-1.803	-25.604	15509	16851	0	756
3.714	-20.627	15509	17271	0	756
7.537	-15.038	15759	17645	0	756
10.025	-10.602	15759	18019	0	756
12.369	-6.239	16384	18253	0	756
14.100	-1.551	16384	18440	0	756
16.733	2.272	16634	18440	0	756
22.250	4.039	16634	18299	0	756
28.741	6.347	16384	18112	0	756
36.711	9.845	16384	17832	0	756
42.517	16.841	16384	17458	0	756
43.419	23.224	16384	17038	1	720
42.986	26.001	16134	16664	0	720
39.957	26.181	16384	16338	0	720
34.728	22.178	16134	15964	0	720
30.941	20.411	16134	15684	0	720
30.725	20.664	16134	15403	0	720
35.088	23.873	15759	15263	0	720
44.248	30.004	15759	15216	0	720
56.870	36.459	16134	15216	0	720
63.036	40.137	15759	15216	0	720
58.168	39.380	15509	15123	0	720
47.277	34.043	15509	15029	0	720
34.295	26.650	15134	14936	0	720
27.660	22.286	15134	15076	0	720
30.112	22.395	15134	15310	0	720
34.295	23.008	15134	15543	0	720
35.341	23.585	15134	15730	0	720
30.292	21.313	15134	15917	0	720
23.188	18.933	15509	16244	0	720
18.572	18.860	15509	16524	0	720
21.709	19.437	15509	16804	0	720
28.309	20.591	15759	17084	0	720
35.124	19.870	15759	17505	0	720
35.233	19.077	16134	17879	0	720
29.715	18.897	16384	18206	0	720
23.224	19.365	16384	18393	0	720
20.916	20.591	16634	18486	0	720
23.152	20.844	16634	18626	0	720
27.263	18.969	17009	18767	0	720
27.047	17.815	17009	18767	0	720
21.565	12.802	17259	18673	0	720
17.129	7.862	17259	18486	0	720
18.067	1.587	17259	18299	0	720
20.880	1.370	17634	18112	0	720
21.637	5.445	17634	17879	0	720
16.300	13.343	17634	17598	0	720
9.376	18.608	17634	17458	0	720
4.219	16.877	17884	17365	0	720
9.701	10.927	17884	17271	0	720
17.743	4.580	17884	17178	0	720
26.902	5.409	17884	17038	0	720
29.787	9.196	18259	16991	0	720
30.328	14.641	17884	16898	0	720
28.309	15.759	17884	16757	0	720
26.397	13.992	17884	16524	0	720
24.811	11.107	17884	16198	0	720
22.286	9.737	17884	15917	0	720
21.962	9.340	17884	15824	0	720
22.142	10.386	18259	15777	0	720
27.587	8.222	18259	15730	0	720
28.417	8.475	18259	15684	0	720
27.912	8.943	18259	15590	0	720
21.745	11.612	18259	15450	0	720
15.543	15.182	17634	15263	0	720
9.737	13.451	17634	14889	0	720
8.619	9.304	17259	14515	0	720
3.101	2.705	17259	14235	0	720
-2.272	-3.967	17259	14142	0	720
-12.658	-8.835	17009	14142	0	720
-17.887	-10.927	17009	14142	0	720
-17.743	-14.749	17009	14142	0	720
-12.838	-18.716	16634	14095	0	720
-5.986	-21.493	16634	14001	0	720
-2.308	-22.719	16384	13861	0	720
-9.232	-24.198	16134	13814	0	720
-20.880	-31.049	16134	13908	0	720
-36.134	-41.940	16134	14095	0	720
-47.458	-52.795	15759	14235	0	720
-51.316	-56.906	15759	14422	0	720
-46.556	-50.415	15759	14749	0	720
-41.868	-37.865	15759	15123	0	720
-40.966	-28.201	15759	15450	0	720
-45.835	-28.561	15759	15777	0	720
-50.451	-32.276	15759	16011	0	720
-52.867	-37.324	15759	16198	0	720
-49.441	-39.452	15759	16384	0	720
-44.104	-41.543	15759	16477	0	720
-43.743	-45.618	15759	16570	0	720
-48.756	-52.506	15509	16617	0	720
-58.276	-56.798	15509	16711	1	316
-64.226	-57.086	15759	16898	0	316
-64.263	-53.624	15759	17038	0	316
-59.394	-51.316	15759	17084	0	316
-54.382	-52.146	15759	16991	0	316
-53.877	-56.076	15759	16757	0	316
-58.601	-57.988	15509	16524	0	316
-60.692	-58.457	15509	16384	0	316
-60.296	-53.841	15509	16384	0	316
-53.552	-49.513	15509	16430	0	316
-48.143	-47.133	15134	16477	0	316
-48.684	-46.592	15134	16617	0	316
-50.884	-48.359	15134	16757	0	316
-53.155	-49.297	15509	16851	0	316
-52.326	-49.044	15509	16991	0	316
-49.333	-45.979	15509	17131	0	316
-45.835	-44.284	15509	17225	0	316
-45.330	-40.498	15509	17412	0	316
-44.392	-38.190	15759	17692	0	316
-43.851	-36.387	15759	17926	0	316
-42.625	-35.124	15759	18019	0	316
-42.842	-36.314	15759	18019	0	316
-44.537	-37.108	16384	17926	0	316
-48.359	-38.226	16384	17879	0	316
-49.225	-39.308	16384	17739	0	316
-51.064	-39.019	16384	17645	0	316
-52.795	-42.048	16384	17505	0	316
-54.345	-45.546	16384	17318	0	316
-57.122	-50.343	16384	17131	0	316
-58.601	-52.975	16384	16991	0	316
-60.079	-52.687	16384	16944	0	316
-60.909	-51.785	16384	16898	0	316
-61.846	-52.362	16384	16898	0	316
-62.315	-54.345	16634	16991	0	316
-62.676	-58.348	16384	17084	0	316
-62.279	-60.981	16384	17178	0	316
-63.938	-63.145	16634	17271	0	316
-67.147	-63.758	16634	17318	0	316
-70.357	-62.243	17009	17458	0	316
-70.682	-55.572	17009	17598	0	316
-64.767	-47.602	17259	17692	0	316
-54.490	-41.832	17259	17739	0	316
-43.347	-39.596	17634	17785	0	316
-35.016	-41.471	17634	17692	0	316
-36.170	-44.789	17634	17505	0	316
-43.310	-44.248	17634	17225	0	316
-53.264	-44.284	17634	16898	0	316
-62.171	-46.809	17634	16570	0	316
-65.741	-52.506	17634	16384	0	316
-66.498	-58.276	17634	16244	0	316
-68.301	-60.404	17634	16104	0	316
-72.845	-61.342	17634	15964	0	316
-79.841	-60.692	17634	15777	0	316
-88.604	-64.803	17634	15590	0	316
-97.981	-70.573	17259	15310	0	316
-105.481	-78.002	17009	15029	0	316
-114.064	-84.854	17009	14749	0	316
-117.382	-90.480	17009	14562	0	316
-116.552	-94.987	17009	14515	0	316
-111.396	-96.466	16634	14609	0	316
-106.888	-95.925	16634	14796	0	316
-106.816	-93.040	17009	14983	0	316
-111.251	-91.345	17009	15356	0	316
-117.706	-92.643	17009	15730	0	316
-122.611	-92.319	17009	16011	0	316
-123.657	-90.263	17259	16151	0	316
-122.250	-86.296	17259	16244	0	316
-117.093	-83.087	17259	16430	0	316
-109.340	-82.077	17634	16664	0	316
-100.829	-80.995	17634	16804	0	316
-97.764	-80.563	17634	16851	0	316
-99.820	-79.877	17634	16898	0	316
-108.547	-80.274	17259	16898	0	316
-115.254	-83.087	17634	16757	0	316
-115.543	-84.061	17634	16570	0	316
-113.920	-83.844	17259	16384	0	316
-112.838	-82.510	17259	16198	0	316
-114.569	-84.277	17259	16011	0	316
-119.437	-85.719	17009	15870	0	316
-120.555	-86.729	17009	15684	0	316
-115.759	-83.988	17009	15543	0	316
-111.973	-77.786	17009	15543	0	316
-109.737	-70.321	17009	15543	0	316
-111.251	-63.000	16634	15450	0	316
-115.759	-56.473	16634	15356	0	316
-118.716	-50.667	16634	15170	0	316
-117.202	-47.241	16384	14842	0	316
-115.254	-45.943	16134	14515	0	316
-112.297	-45.438	15759	14328	0	316
-113.379	-43.887	15759	14328	0	316
-116.372	-44.717	15759	14469	0	316
-120.123	-45.727	15509	14656	0	316
-122.611	-48.035	15509	15029	0	316
-121.493	-48.864	15509	15356	0	316
-117.346	-46.953	15509	15637	0	316
-115.218	-44.464	15509	15917	0	316
-115.038	-44.176	15759	16244	0	316
-119.654	-47.566	15759	16617	0	316
-125.135	-55.067	16134	16991	0	316
-130.004	-61.197	16134	17178	0	316
-130.797	-65.453	16134	17225	0	316
-129.823	-65.164	16134	17178	0	316
-130.076	-65.056	16134	17178	0	316
-131.626	-66.174	16134	17271	0	316
-135.413	-68.085	16384	17412	0	316
-137.829	-72.232	16384	17552	0	316
-139.632	-74.865	16384	17645	0	316
-140.389	-75.983	16384	17739	0	316
-139.632	-76.632	16634	17832	0	316
-138.658	-75.802	16634	17832	0	316
-137.721	-76.776	16634	17739	0	316
-137.360	-76.884	16634	17598	0	316
-136.964	-77.173	16634	17458	0	316
-136.819	-77.642	16634	17131	0	316
-132.780	-75.947	16384	16757	0	316
-131.013	-73.747	16384	16477	0	316
-129.246	-73.927	16384	16430	0	316
-130.256	-74.829	16384	16477	0	316
-133.033	-77.028	16384	16430	0	316
-134.439	-79.517	16384	16384	0	316
-133.105	-79.120	16384	16291	0	316
-132.997	-77.389	16384	16291	0	316
-130.436	-77.533	16384	16244	0	316
-130.545	-78.110	16384	16151	0	316
-129.968	-81.464	16134	16057	0	316
-130.761	-82.618	16134	16011	0	316
-134.475	-83.772	16134	16011	0	316
-135.846	-83.952	16134	16057	0	316
-137.865	-83.556	16134	16011	0	316
-137.505	-85.864	16134	15917	0	316
-137.432	-87.595	16134	15870	0	316
-135.124	-87.955	16384	15917	0	316
-135.810	-86.909	16134	16104	0	316
-136.459	-84.746	16134	16338	0	316
-136.351	-83.375	16134	16477	0	316
-136.351	-80.887	16134	16524	0	316
-133.718	-79.481	16134	16477	0	316
-127.515	-76.920	16134	16384	0	316
-123.404	-72.953	16134	16338	0	316
-118.644	-69.311	16134	16291	0	316
-116.589	-66.679	16134	16338	0	316
-115.182	-65.813	16134	16384	0	316
-111.792	-64.587	16134	16477	0	316
-107.789	-64.731	16134	16477	0	316
-104.724	-65.164	16134	16430	0	316
-103.570	-64.551	16134	16430	0	316
-102.272	-67.147	16134	16570	0	316
-103.534	-70.393	16134	16711	0	316
-103.967	-73.494	16134	16711	0	316
-106.960	-76.776	16134	16757	0	316
-112.946	-78.579	16384	16851	0	316
-120.519	-81.572	16384	17038	0	316
-124.739	-85.575	16384	17178	0	316
-123.765	-86.982	16634	17365	0	316
-116.697	-86.405	16634	17505	0	316
-108.402	-82.113	16634	17598	0	316
-105.590	-76.992	17009	17645	0	316
-107.212	-76.343	17009	17692	0	316
-111.720	-80.238	17259	17692	0	316
-114.317	-87.486	17259	17552	0	316
-112.730	-92.283	17259	17271	0	316
-108.475	-90.912	17009	16991	0	316
-102.705	-86.369	17259	16757	0	316
-99.784	-78.868	17009	16617	0	316
-99.748	-77.786	17009	16384	0	316
-106.419	-80.346	17009	16151	0	316
-114.172	-86.044	16634	15964	0	316
-115.182	-88.424	16634	15870	0	316
-109.881	-85.179	16634	15870	0	316
-100.505	-78.687	16634	15824	0	316
-96.754	-75.875	16634	15777	0	316
-101.190	-76.632	16634	15730	0	316
-110.242	-81.428	16634	15777	0	316
-114.136	-85.070	16634	15730	0	316
-110.710	-86.873	16634	15637	0	316
-105.301	-85.287	16384	15543	0	316
-101.875	-83.808	16384	15450	0	316
-103.065	-81.536	16384	15356	0	316
-104.291	-80.743	16384	15310	0	316
-105.049	-79.373	16134	15263	0	316
-102.633	-78.291	16134	15263	0	316
-101.010	-78.759	16134	15263	0	316
-98.413	-78.651	16134	15310	0	316
-94.266	-76.920	16134	15310	0	316
-91.165	-75.478	15759	15310	0	316
-88.496	-73.675	15759	15263	0	316
-87.162	-71.295	15759	15310	0	316
-87.126	-68.229	15759	15356	0	316
-85.719	-63.541	15759	15310	0	316
-78.435	-57.843	15759	15263	0	316
-71.763	-51.316	15759	15310	0	316
-65.994	-48.395	15509	15450	0	316
-62.495	-47.422	15509	15637	0	316
-63.938	-49.766	15509	15964	0	316
-66.498	-50.559	15509	16244	0	316
-66.138	-49.189	15509	16384	0	316
-65.885	-44.825	15759	16617	0	316
-66.498	-42.193	15759	16851	0	316
-69.419	-42.517	15759	16991	0	316
-74.865	-47.710	15759	16944	0	316
-78.832	-53.408	15759	16898	0	316
-79.589	-56.329	15759	16851	0	316
-77.425	-55.427	15509	16804	0	316
-75.334	-53.913	15509	16757	0	316
-75.694	-53.877	15509	16711	0	316
-78.507	-55.211	15509	16664	0	316
-79.336	-56.834	15509	16664	0	316
-79.589	-56.617	15509	16664	0	316
-76.596	-55.067	15509	16711	0	316
-72.376	-51.136	15759	16757	0	316
-68.554	-46.340	15759	16757	0	316
-60.873	-39.993	15759	16757	0	316
-55.319	-32.131	15759	16757	0	316
-48.287	-26.109	15759	16944	0	316
-46.051	-24.017	15759	17084	0	316
-46.484	-24.739	16134	17178	0	316
-49.585	-27.263	16134	17225	0	316
-53.696	-31.194	16134	17225	0	316
-56.401	-34.223	16134	17131	0	316
-57.519	-35.918	16134	16944	0	316
-58.709	-36.423	15759	16757	0	316
-57.411	-34.872	15759	16664	0	316
-57.952	-35.810	15759	16664	1	888
-58.312	-38.154	16134	16711	0	888
-58.997	-42.878	16134	16757	0	888
-60.224	-45.330	16134	16944	0	888
-57.303	-44.212	16134	17178	0	888
-53.119	-39.596	16384	17365	0	888
-48.431	-34.908	16384	17458	0	888
-44.825	-32.600	16634	17505	0	888
-42.481	-31.879	16634	17505	0	888
-42.120	-32.564	16634	17458	0	888
-40.498	-32.636	16634	17412	0	888
-36.423	-31.230	16634	17318	0	888
-33.538	-30.148	16634	17131	0	888
-32.312	-26.758	16634	16804	0	888
-32.312	-25.099	16634	16384	0	888
-33.285	-23.008	16384	16011	0	888
-33.321	-22.142	16384	15730	0	888
-32.672	-21.132	16384	15450	0	888
-32.095	-21.818	16384	15310	0	888
-30.112	-21.024	16134	15263	0	888
-27.191	-17.598	16134	15216	0	888
-21.781	-11.973	16134	15123	0	888
-14.064	-5.193	16134	15076	0	888
-8.006	-1.082	15759	15123	0	888
-1.515	-1.551	15759	15263	0	888
1.659	-5.301	15759	15356	0	888
1.082	-9.629	15759	15497	0	888
-4.868	-10.638	15759	15684	0	888
-12.586	-10.999	16134	16011	0	888
-17.454	-11.107	16134	16338	0	888
-15.975	-10.855	16134	16524	0	888
-9.412	-10.458	16134	16711	0	888
-3.282	-8.727	16384	16804	0	888
-3.462	-7.429	16384	16991	0	888
-10.025	-6.094	16384	17225	0	888
-15.038	-7.537	16634	17412	0	888
-18.139	-8.979	16634	17598	0	888
-14.208	-10.819	17009	17692	0	888
-9.556	-9.412	17009	17785	0	888
-5.806	-6.347	17009	17879	0	888
-6.996	-1.046	17259	17879	0	888
-7.537	3.823	17259	17785	0	888
-4.940	7.140	17259	17645	0	888
3.390	10.061	17259	17552	0	888
11.287	9.124	17634	17458	0	888
16.733	9.160	17634	17271	0	888
17.021	8.006	17634	17038	0	888
15.939	11.684	17634	16804	0	888
17.238	19.005	17634	16617	0	888
23.765	31.013	17259	16617	0	888
30.436	40.389	17259	16617	0	888
33.898	42.661	17259	16570	0	888
34.656	37.829	17259	16430	0	888
34.151	29.823	17634	16384	0	888
31.662	23.657	17634	16291	0	888
28.705	19.762	17259	16104	0	888
26.037	18.211	17259	15870	0	888
24.089	16.192	17259	15777	0	888
23.873	13.379	17259	15777	0	888
27.155	13.668	17259	15777	0	888
30.256	15.939	17259	15730	0	888
32.420	20.591	17259	15637	0	888
31.338	25.532	17259	15450	0	888
29.463	27.768	17009	15310	0	888
28.633	28.273	17009	15216	0	888
32.167	28.669	17009	15170	0	888
40.389	27.768	17009	15170	0	888
49.225	30.400	17009	15310	0	888
54.526	33.393	16634	15450	0	888
54.995	37.901	16634	15543	0	888
51.316	42.734	16634	15543	0	888
46.917	47.458	16634	15450	0	888
45.943	48.503	16384	15310	0	888
45.546	45.835	16384	15123	0	888
48.720	40.426	16134	14983	0	888
52.362	37.288	16134	14889	0	888
53.083	38.226	16134	14889	0	888
51.244	43.599	15759	14936	0	888
45.582	46.159	16134	15029	0	888
41.832	44.825	16134	15170	1	316
40.498	37.757	16134	15310	0	316
43.960	31.049	16134	15543	0	316
44.176	27.443	16134	15824	0	316
42.120	26.758	16134	16104	0	316
39.488	26.938	16134	16384	0	316
39.055	28.381	16384	16570	0	316
41.183	28.633	16134	16664	0	316
45.186	29.607	16134	16664	0	316
44.897	29.066	16134	16664	0	316
43.094	25.532	16134	16664	0	316
42.120	23.909	16134	16664	0	316
44.212	22.827	15759	16524	0	316
45.907	23.801	15759	16338	0	316
48.035	27.083	15759	16198	0	316
46.953	27.479	15509	16104	0	316
43.960	29.138	15509	16011	0	316
46.592	31.230	15134	15870	0	316
49.405	33.826	15134	15730	0	316
53.949	36.387	14884	15684	0	316
55.680	35.774	14884	15637	0	316
53.732	32.600	14884	15590	0	316
50.487	30.004	14509	15590	0	316
49.621	29.066	14509	15637	0	316
51.749	30.364	14884	15684	0	316
55.355	34.511	14509	15777	0	316
56.473	38.478	14509	15917	0	316
56.509	39.488	14509	16151	0	316
53.264	40.317	14509	16477	0	316
52.687	38.731	14884	16851	0	316
55.824	39.957	14884	17131	0	316
59.971	43.274	14884	17318	0	316
64.226	48.287	14884	17505	0	316
65.525	50.595	15134	17739	0	316
65.561	50.739	15134	17832	0	316
65.957	48.576	15509	17879	0	316
70.069	50.198	15759	17879	0	316
75.694	54.526	15509	17879	0	316
79.373	59.286	15509	17926	0	316
78.110	60.945	15759	17972	0	316
73.206	57.339	15759	17972	0	316
68.121	52.290	15759	17972	0	316
65.489	50.126	16134	18019	0	316
66.931	52.398	16134	18066	0	316
67.797	56.329	16134	18112	0	316
69.924	57.519	16384	18159	0	316
71.295	56.942	16384	18206	0	316
73.530	54.057	16384	18112	0	316
76.451	53.696	16384	17879	0	316
80.382	56.185	16634	17598	0	316
80.923	60.404	16634	17365	0	316
78.219	62.171	16634	17084	0	316
73.963	62.243	16634	16851	0	316
66.607	59.142	16634	16711	0	316
61.702	53.768	16634	16617	0	316
58.853	50.956	16634	16477	0	316
63.000	51.064	16634	16430	0	316
71.727	52.398	16634	16524	0	316
76.740	53.949	17009	16617	0	316
77.461	51.785	17009	16570	0	316
69.888	48.287	17009	16384	0	316
60.476	45.691	16634	16198	0	316
57.483	47.422	17009	16104	0	316
60.728	53.083	17009	16151	0	316
66.787	57.843	17009	16198	0	316
68.410	59.502	17009	16244	0	316
65.957	58.781	16634	16198	0	316
59.286	57.050	16634	16198	0	316
54.814	52.975	17009	16291	0	316
51.172	47.494	17009	16384	0	316
46.628	39.812	17009	16384	0	316
42.914	34.259	17009	16291	0	316
39.993	30.400	17009	16151	0	316
38.947	32.167	17009	16151	0	316
39.632	34.079	17009	16198	0	316
37.613	33.069	17009	16244	0	316
35.233	29.318	17259	16198	0	316
33.538	25.965	17259	16198	0	316
35.990	26.506	17259	16291	0	316
38.586	29.210	17259	16384	1	316
42.445	34.223	17259	16338	0	316
42.265	37.360	17259	16291	0	316
39.091	38.406	17259	16291	0	316
39.632	37.721	17634	16291	0	316
44.032	37.360	17634	16291	0	316
48.395	37.757	17634	16244	0	316
51.965	35.629	17634	16151	0	316
51.749	34.547	17634	16104	0	316
48.215	35.918	17009	15964	0	316
48.539	40.750	17009	15730	0	316
50.343	47.999	17009	15450	0	316
55.608	55.211	17009	15263	0	316
58.457	57.266	16634	15123	0	316
58.240	54.706	16634	15123	0	316
55.788	50.270	16634	15216	0	316
50.595	47.133	16634	15356	0	316
46.484	46.232	16634	15543	0	316
45.510	46.845	16634	15684	0	316
44.753	48.972	16634	15730	0	316
45.510	49.585	16634	15637	0	316
43.383	49.189	16384	15497	0	316
39.019	47.277	16384	15356	0	316
34.980	44.104	16384	15263	0	316
34.403	42.048	16134	15216	0	316
40.029	42.697	16134	15216	0	316
48.684	45.907	16134	15310	0	316
57.988	52.218	16134	15450	0	316
64.876	56.004	16134	15543	0	316
68.338	56.257	16134	15777	0	316
69.924	54.237	16134	16057	0	316
70.790	53.336	16134	16291	0	316
74.504	55.968	16134	16384	0	316
78.327	61.450	16134	16524	0	316
82.618	68.085	16134	16524	0	316
84.926	71.727	16134	16570	0	316
84.457	72.557	16134	16664	0	316
83.411	71.980	16134	16851	0	316
82.654	72.845	16134	17084	0	316
80.815	74.576	16134	17225	0	316
81.897	76.379	16134	17178	0	316
83.231	78.255	16134	16991	0	316
84.818	80.959	16134	16851	0	316
87.270	80.995	16384	16851	0	316
88.713	82.041	16384	16898	0	316
87.126	82.618	16384	16944	0	316
83.267	80.959	16384	16944	0	316
80.851	80.490	16384	16851	0	316
78.976	79.156	16384	16851	0	316
80.599	78.543	16634	16944	0	316
80.995	77.065	16384	17084	0	316
81.464	76.992	16384	17225	0	316
76.343	76.451	16384	17271	0	316
66.390	75.550	16634	17271	0	316
55.391	77.497	16634	17271	0	316
47.962	78.507	16634	17225	0	316
47.313	80.959	16634	17178	0	316
52.759	85.647	16634	17131	0	316
60.260	88.929	16634	17178	0	316
65.128	91.525	17009	17131	0	316
64.876	91.273	17009	16991	0	316
64.335	90.047	16634	16757	0	316
65.344	88.749	16634	16617	0	316
68.085	88.496	17009	16524	0	316
70.862	91.237	16634	16430	0	316
71.042	93.401	16634	16291	0	316
71.186	95.528	16634	16104	0	316
71.908	95.564	16634	16011	0	316
75.983	96.935	16634	15964	0	316
83.267	95.853	16634	15964	0	316
88.857	96.466	16634	15870	0	316
91.850	96.322	16634	15684	0	316
90.948	98.666	16384	15497	0	316
85.936	99.171	16384	15310	0	316
81.176	100.108	16384	15216	0	316
75.838	98.053	16134	15123	0	316
69.816	92.499	16134	15170	0	316
63.794	85.539	16134	15497	0	316
59.683	81.031	16384	16057	0	316
60.296	79.445	16634	16524	0	316
68.157	82.366	16634	16944	0	316
81.284	89.254	16634	17178	0	316
93.617	94.627	17009	17318	0	316
95.240	94.555	17009	17318	0	316
86.116	87.667	17009	17271	0	316
72.845	79.409	17009	17225	0	316
59.647	73.098	17009	17131	0	316
54.309	74.576	17009	17038	0	316
55.139	78.940	17009	16898	0	316
58.493	81.608	17009	16757	0	316
61.414	78.435	17009	16711	0	316
62.964	71.259	17009	16617	0	316
62.928	66.390	17009	16477	0	316
59.034	66.138	17009	16384	0	316
57.230	66.571	17009	16291	0	316
55.319	68.049	16634	16291	0	316
58.745	69.347	17009	16338	0	316
61.594	72.881	17259	16384	0	316
62.892	79.517	17259	16430	0	316
61.161	85.034	17009	16477	0	316
62.459	85.792	17009	16430	0	316
66.210	79.228	17009	16430	0	316
69.708	74.576	17009	16384	0	316
69.095	74.324	17009	16338	0	316
64.515	79.300	17009	16198	0	316
61.197	85.070	17009	16011	0	316
63.325	84.421	17009	15870	0	316
68.049	77.209	16634	15824	0	316
71.475	69.744	16634	15824	0	316
68.482	66.102	16634	15684	0	316
64.479	68.049	16634	15497	0	316
61.810	73.603	16384	15310	0	316
66.895	78.363	16384	15263	0	316
73.242	77.569	16384	15310	0	316
76.632	74.324	16384	15403	0	316
76.415	71.403	16384	15450	0	316
72.196	70.537	16384	15497	0	316
66.390	72.917	16134	15590	0	316
61.342	74.071	16134	15684	0	316
58.024	71.727	16134	15730	0	316
52.831	66.246	16134	15777	0	316
50.775	62.279	16134	15684	0	316
51.244	61.342	15759	15590	0	316
53.444	64.984	15759	15403	0	316
57.122	66.859	15509	15263	0	316
60.728	67.977	15509	15170	0	316
59.647	66.607	15509	15263	0	316
57.591	65.128	15134	15356	0	316
54.959	63.722	15509	15497	0	316
52.975	63.397	15509	15684	0	316
52.723	63.830	15759	15964	0	316
53.985	62.892	15509	16198	0	316
53.300	62.676	15509	16430	0	316
50.667	59.647	15509	16617	0	316
48.287	58.312	15509	16711	0	316
48.323	57.230	15509	16711	0	316
50.270	59.502	15509	16617	0	316
53.805	62.820	15509	16524	0	316
52.290	62.423	15134	16524	0	316
46.051	59.683	15134	16570	0	316
39.704	55.067	15134	16524	0	316
36.928	51.965	15134	16430	0	316
40.101	51.136	14884	16338	0	316
45.438	51.785	14884	16244	0	316
47.386	51.497	14884	16198	0	316
44.032	50.198	14884	16057	0	316
38.298	46.989	14884	16011	0	316
32.997	47.241	14884	16057	0	316
32.853	49.333	14884	16104	0	316
35.557	52.578	14509	16198	0	316
35.846	52.795	14509	16291	0	316
34.115	50.234	14509	16384	0	316
31.013	44.248	14509	16430	0	316
30.545	41.399	14509	16570	0	316
32.023	42.445	14509	16757	0	316
36.783	47.710	14884	17038	0	316
39.812	53.480	15509	17365	0	316
40.065	57.807	15509	17832	0	316
37.505	59.719	15509	18299	0	316
34.836	59.574	15759	18626	0	316
31.662	58.240	16134	18860	0	316
31.554	55.031	16134	18907	0	316
33.646	52.578	16134	18813	0	316
35.629	51.244	16384	18626	0	316
38.154	50.379	16384	18486	0	316
36.964	50.415	16384	18299	0	316
34.295	50.198	16384	18066	1	664
34.006	50.090	16384	17645	0	664
34.692	52.001	16384	17225	0	664
36.855	53.552	16134	16851	0	664
38.550	54.850	16134	16524	0	664
39.055	55.319	16134	16291	0	664
37.757	56.221	16134	16151	0	664
36.387	60.620	16134	16011	0	664
35.449	64.371	16134	15870	0	664
37.324	68.374	15759	15777	0	664
40.209	69.780	15759	15777	0	664
45.691	69.383	16134	15824	0	664
47.818	67.364	16134	15917	0	664
42.373	63.866	16134	16011	0	664
29.859	58.529	16134	16057	0	664
16.480	48.756	16134	16151	0	664
7.681	39.740	16134	16384	0	664
11.648	36.639	16384	16524	0	664
25.316	40.065	16384	16570	0	664
39.776	48.864	16384	16570	0	664
42.120	53.588	16384	16664	0	664
30.833	52.939	16634	16804	0	664
12.694	43.491	16634	16851	0	664
-1.659	34.331	16634	16804	0	664
-2.488	28.814	16634	16711	0	664
5.914	26.325	16634	16524	0	664
15.218	25.063	16634	16384	0	664
14.749	20.519	16634	16244	0	664
6.527	14.064	16384	15964	0	664
-3.534	7.825	16384	15730	0	664
-10.386	2.524	16384	15543	0	664
-10.963	-1.479	16134	15310	0	664
-10.061	-2.272	16134	15216	0	664
-8.475	-0.072	16134	15123	0	664
-6.094	4.796	15759	15076	0	664
-1.154	8.691	15759	15076	0	664
6.816	10.891	15759	15170	0	664
13.776	10.746	15759	15310	0	664
16.444	7.176	15759	15497	0	664
14.208	6.203	15759	15777	0	664
14.569	6.708	16134	16104	0	664
16.769	10.242	16134	16477	0	664
27.155	17.166	16134	16711	0	664
36.026	23.476	16134	16804	0	664
38.839	26.650	16134	16804	0	664
38.839	27.407	16134	16711	0	664
35.341	25.171	16134	16664	0	664
33.069	25.856	16134	16617	0	664
32.023	27.263	16134	16570	0	664
31.338	30.833	16134	16570	0	664
27.840	32.023	16134	16664	0	664
24.775	28.597	16384	16711	0	664
23.116	25.316	16634	16711	0	664
26.145	19.870	16384	16711	0	664
30.256	18.139	16384	16711	0	664
30.184	18.860	16384	16804	0	664
22.755	21.421	16384	16851	0	664
11.828	22.034	16384	16851	0	664
5.517	20.519	16384	16617	0	664
7.970	17.670	16134	16338	0	664
20.339	16.516	16384	16104	0	664
31.735	18.320	16384	15964	0	664
32.672	21.168	16384	15870	0	664
26.974	23.981	16384	15964	0	664
20.014	23.044	16384	16057	0	664
18.103	20.087	16384	16104	0	664
19.041	16.372	16384	16198	0	664
16.913	13.054	16384	16244	0	664
9.701	11.107	16384	16338	0	664
-0.216	9.448	16384	16384	0	664
-6.744	8.439	16384	16477	0	664
-4.940	5.770	16384	16664	0	664
4.796	5.914	16634	16804	0	664
15.254	6.635	16384	16944	0	664
21.962	8.439	16384	17038	0	664
21.962	9.592	16384	17084	0	664
14.028	6.527	16634	17131	0	664
5.049	1.370	16634	17225	0	664
-2.885	-4.400	16634	17365	0	664
-6.491	-5.842	17009	17458	0	664
-8.294	-5.878	17009	17458	0	664
-8.691	-4.868	17009	17365	0	664
-13.271	-7.032	17009	17225	0	664
-21.096	-12.946	17009	17084	0	664
-31.951	-19.798	17009	16851	0	664
-42.265	-24.702	17009	16664	0	664
-46.772	-27.407	17009	16524	0	664
-45.727	-29.282	17009	16384	0	664
-41.580	-31.194	17009	16291	0	664
-37.180	-32.853	17009	16151	0	664
-38.478	-36.531	17009	16057	0	664
-43.887	-39.704	17009	16104	0	664
-49.802	-44.825	17009	16151	0	664
-55.463	-47.566	17009	16151	0	664
-56.401	-48.179	17009	16198	0	664
-54.562	-45.907	17259	16384	0	664
-48.972	-39.993	17259	16570	0	664
-43.851	-34.151	17259	16711	0	664
-41.291	-30.977	17634	16757	0	664
-39.849	-27.660	17259	16804	0	664
-39.199	-24.414	17634	16757	0	664
-37.901	-22.899	17634	16711	0	664
-36.459	-21.709	17259	16617	0	664
-35.269	-21.204	17259	16570	0	664
-36.134	-23.909	17634	16570	0	664
-37.973	-26.217	17634	16524	0	664
-39.921	-29.318	17634	16384	0	664
-41.111	-31.662	17634	16198	0	664
-40.209	-34.331	17634	16104	0	664
-38.947	-35.629	17634	16057	0	664
-37.180	-35.810	17259	15964	0	664
-35.557	-34.511	17259	15870	0	664
-34.259	-32.420	17259	15777	0	664
-32.492	-30.761	17259	15730	0	664
-28.164	-28.814	17259	15637	0	664
-25.532	-28.056	17259	15637	0	664
-21.998	-26.506	17259	15730	0	664
-17.851	-23.549	17259	15870	0	664
-15.651	-19.798	17259	15964	0	664
-11.756	-16.552	17009	16011	0	664
-11.107	-11.720	17009	15964	0	664
-11.684	-9.989	17009	15870	0	664
-12.694	-9.881	17009	15730	0	664
-14.028	-10.097	17009	15590	0	664
-13.776	-11.179	16634	15543	0	664
-14.100	-11.107	16634	15543	0	664
-14.749	-10.819	16634	15543	0	664
-16.156	-10.855	16634	15543	0	664
-15.254	-10.025	16634	15543	0	664
-11.323	-9.088	16384	15497	0	664
-7.609	-7.789	16384	15310	0	664
-3.534	-7.393	16384	15170	0	664
-2.524	-7.212	16134	15123	0	664
-3.714	-8.943	16134	15216	0	664
-7.825	-8.691	16134	15356	0	664
-7.681	-8.547	16134	15497	0	664
-5.049	-7.681	16134	15637	0	664
-0.757	-6.708	16134	15777	0	664
2.488	-6.888	15759	15870	0	664
5.517	-6.131	15759	15964	0	664
6.563	-4.544	15759	15964	0	664
9.196	-0.685	15759	16011	0	664
13.415	4.977	15759	16104	0	664
17.021	13.920	15759	16151	0	664
19.041	18.860	15759	16198	0	664
20.483	23.657	15759	16151	0	664
23.909	24.702	15759	16104	0	664
30.076	26.578	15509	16057	0	664
38.370	31.013	15509	16104	0	664
45.907	38.045	15509	16198	0	664
51.100	44.825	15509	16384	0	664
54.237	52.218	15509	16524	0	664
54.418	57.266	15509	16570	0	664
55.175	58.997	15509	16664	0	664
54.165	58.168	15509	16804	0	664
53.660	53.119	15509	16898	0	664
54.273	46.809	15509	16944	0	664
55.031	42.337	15509	16898	0	664
57.050	40.281	15509	16851	0	664
57.158	41.868	15509	16804	0	664
55.319	41.868	15509	16804	0	664
54.237	39.921	15509	16851	0	664
56.365	39.091	15509	16898	0	664
62.279	39.235	15509	16898	0	664
69.600	42.481	15509	16944	0	664
72.088	46.845	15759	16944	0	664
68.338	46.845	15759	16898	0	664
62.279	42.589	15759	16804	0	664
57.194	36.134	15509	16664	0	664
58.132	31.049	15509	16477	0	664
59.286	30.508	15509	16384	0	664
61.882	34.511	15134	16291	0	664
64.551	40.209	15134	16198	0	664
65.380	44.789	15134	16198	0	664
66.931	47.854	15134	16291	0	664
65.200	46.268	15134	16384	0	664
60.909	44.140	15134	16430	0	664
54.129	39.776	15134	16430	0	664
50.523	36.351	15134	16430	0	664
52.218	32.131	15134	16477	0	664
55.680	28.633	15134	16524	0	664
57.483	27.551	15509	16617	0	664
55.319	26.433	15509	16711	0	664
49.369	26.289	15509	16757	0	664
40.570	24.775	15509	16757	0	664
33.718	21.962	15509	16804	0	664
31.410	19.005	15509	16944	0	664
34.115	17.959	15759	17038	0	664
41.507	19.942	15759	17131	0	664
48.864	23.080	15759	17084	0	664
53.696	26.614	15759	17038	0	664
53.300	26.542	15759	16944	0	664
48.071	25.676	15759	16991	0	664
45.222	24.702	15759	17084	0	664
48.035	25.063	15759	17131	0	664
54.742	28.597	16134	17225	0	664
62.712	32.384	16134	17412	0	664
64.731	33.934	16384	17645	0	664
60.404	33.357	16384	17879	0	664
52.651	34.151	16634	18112	0	664
48.107	36.855	17009	18346	0	664
50.198	39.127	17009	18393	0	664
56.149	42.337	17259	18299	0	664
61.774	41.904	17259	18066	0	664
63.361	40.137	17259	17785	0	664
60.981	40.750	17259	17458	0	664
56.762	39.452	17259	16991	1	824
55.355	38.226	17259	16524	0	824
54.886	33.970	17009	16291	0	824
52.470	28.417	17009	16057	0	824
48.576	21.926	17009	15870	0	824
38.118	14.064	17009	15730	0	824
28.669	8.006	17009	15497	0	824
19.618	1.659	17009	15356	0	824
17.129	0.216	17009	15263	0	824
20.339	2.993	17009	15263	0	824
27.479	8.475	16384	15216	0	824
37.036	15.939	16384	15170	0	824
41.904	20.411	16384	15076	0	824
41.832	23.585	16384	15029	0	824
38.190	23.044	16384	15029	0	824
33.754	23.368	16384	15076	0	824
35.846	22.106	16134	15170	0	824
40.678	21.781	16134	15310	0	824
44.825	18.933	16384	15403	0	824
45.366	14.497	16384	15497	0	824
41.543	10.530	16384	15590	0	824
39.849	9.376	16384	15684	0	824
38.839	11.504	16384	15777	0	824
40.678	13.956	16384	15870	0	824
40.137	12.694	16384	16011	0	824
39.308	7.176	16384	16057	0	824
38.045	1.623	16384	16151	0	824
39.055	-2.056	16384	16244	0	824
38.586	-2.236	16384	16244	0	824
38.478	-1.154	16384	16291	0	824
35.377	-0.865	16384	16384	0	824
33.429	-2.019	16384	16384	0	824
31.194	-4.688	16384	16430	0	824
30.076	-4.977	16384	16477	0	824
30.184	-5.121	16384	16524	0	824
29.427	-3.895	16384	16524	0	824
28.922	-5.698	16384	16524	0	824
27.551	-7.934	16384	16524	0	824
24.017	-11.071	16384	16384	0	824
21.060	-14.533	16384	16384	0	824
19.041	-14.353	16384	16430	0	824
20.483	-12.514	16384	16524	0	824
22.322	-9.737	16384	16617	0	824
26.758	-8.475	16384	16757	0	824
25.604	-9.773	16384	16757	0	824
22.683	-11.576	16384	16664	0	824
17.166	-14.677	16634	16617	0	824
11.251	-15.975	16384	16757	0	824
9.520	-15.254	16384	16944	0	824
10.602	-12.910	16634	17225	0	824
11.828	-11.973	16634	17458	0	824
12.730	-12.982	16634	17598	0	824
11.937	-13.523	17009	17739	0	824
9.773	-13.920	17009	17879	0	824
10.746	-12.297	17259	17972	0	824
13.127	-7.645	17259	17972	0	824
15.903	-1.298	17259	17832	0	824
19.690	2.813	17634	17645	0	824
18.824	5.734	17634	17412	0	824
17.274	5.445	17634	17131	0	824
14.930	6.383	17634	16851	0	824
17.743	6.455	17634	16570	0	824
24.017	9.556	17259	16384	0	824
31.843	15.398	17259	16057	0	824
39.019	21.132	17259	15824	0	824
43.527	26.397	17259	15637	0	824
45.727	29.787	17009	15497	0	824
47.386	32.023	17259	15497	0	824
48.395	30.220	17259	15637	0	824
48.828	28.705	17009	15777	0	824
46.628	27.948	17009	15964	0	824
43.347	25.929	17009	16011	0	824
37.649	26.037	17009	16057	0	824
33.682	26.073	17009	16104	0	824
31.554	27.371	17009	16104	0	824
32.131	27.263	17009	16057	0	824
34.620	26.938	17009	15964	0	824
36.423	24.270	17009	15824	0	824
36.711	21.529	17009	15684	0	824
37.252	21.204	17009	15497	0	824
37.937	25.388	16634	15310	0	824
40.101	31.951	16634	15123	0	824
44.068	36.531	16384	14936	0	824
46.340	39.957	16384	14796	0	824
48.972	38.298	16134	14749	0	824
51.929	36.855	16134	14749	0	824
52.110	37.432	16134	14749	0	824
52.867	40.245	15759	14796	0	824
55.644	44.212	15759	14889	0	824
58.961	49.693	15759	15076	0	824
61.486	53.841	15759	15356	0	824
66.571	55.860	15759	15543	0	824
67.761	57.447	15759	15684	0	824
70.573	56.581	15759	15824	0	824
72.232	57.916	15759	16011	0	824
73.675	56.942	15759	16151	0	824
73.999	56.076	15509	16244	0	824
71.619	53.011	15509	16291	0	824
69.023	50.234	15759	16384	0	824
67.184	48.215	15759	16477	0	824
63.433	47.566	16134	16477	0	824
59.971	46.195	15759	16477	0	824
50.595	41.507	15759	16524	0	824
41.327	34.656	15759	16617	0	824
33.934	30.905	15759	16664	0	824
36.531	30.977	15759	16757	0	824
44.861	36.459	15759	16944	0	824
56.870	40.894	15759	17131	0	824
62.207	42.697	15759	17271	0	824
60.548	42.193	15759	17365	0	824
54.454	39.344	15759	17412	0	824
52.831	40.029	16134	17412	0	824
55.211	41.940	16134	17458	0	824
60.728	42.553	16134	17598	0	824
60.981	39.452	16134	17692	0	824
53.119	38.154	16384	17739	0	824
46.051	38.514	16384	17739	0	824
47.025	44.032	16384	17739	0	824
58.204	51.172	16384	17739	0	824
73.747	54.526	16384	17692	0	824
77.930	52.254	16634	17598	0	824
69.816	44.068	16634	17552	0	824
55.644	39.127	16634	17505	0	824
47.818	38.695	16634	17458	0	824
54.490	42.914	16634	17365	0	824
66.823	47.710	17009	17271	0	824
71.655	48.035	17009	17131	0	824
64.299	43.455	17009	16944	0	824
53.119	35.810	16634	16664	0	824
46.232	29.499	16634	16338	0	824
48.539	27.371	16634	16057	0	824
55.499	28.777	16634	15824	0	824
60.296	28.814	16634	15637	0	824
56.149	28.958	16384	15543	0	824
52.146	27.083	16384	15356	0	824
50.884	24.450	16384	15170	0	824
52.542	22.250	16134	15123	0	824
53.552	22.611	16384	15263	0	824
49.766	21.241	16384	15450	0	824
44.789	20.988	16384	15637	0	824
40.317	22.431	16384	15684	0	824
39.560	27.768	16134	15684	0	824
45.078	32.059	16134	15684	0	824
50.631	36.855	16134	15824	0	824
55.175	36.567	16134	15917	0	824
56.293	32.312	16134	15964	0	824
53.696	27.047	16134	15964	0	824
48.143	24.486	16134	16104	0	824
40.678	24.125	16134	16244	0	824
37.036	24.450	16134	16198	0	824
37.577	25.316	16134	16104	0	824
40.498	23.693	16134	15964	0	824
41.796	22.070	16134	15870	0	824
37.649	22.611	15759	15824	0	824
29.066	21.745	15759	15824	0	824
22.431	19.510	15759	15777	0	824
19.257	15.939	15759	15730	0	824
21.781	12.514	15509	15777	0	824
24.630	10.855	15509	15824	0	824
24.594	11.648	15509	15870	0	824
22.178	14.894	15509	15917	0	824
21.601	16.841	15509	15964	0	824
24.486	17.490	15509	15964	0	824
28.741	18.572	15134	15964	0	824
34.259	20.087	15509	15917	0	824
37.793	22.214	15509	15964	0	824
37.829	23.585	15509	16104	0	824
36.351	26.109	15509	16198	0	824
37.360	27.119	15509	16338	0	824
38.731	29.715	15509	16430	0	824
45.186	32.853	15509	16524	0	824
48.143	34.511	15509	16617	0	824
48.395	32.528	15509	16851	0	824
45.655	28.597	15509	17131	0	824
39.380	22.575	15759	17365	0	824
37.613	18.247	15759	17505	0	824
38.478	16.552	15759	17692	0	824
42.265	16.625	16134	17832	0	824
41.724	16.841	16134	17972	0	824
40.173	16.805	16134	17972	0	824
35.269	16.192	16384	17972	0	824
31.374	16.228	16384	17926	0	824
28.273	15.146	16384	17832	0	824
28.453	12.694	16384	17739	0	824
28.705	11.612	16634	17645	0	824
29.138	11.756	16634	17552	1	740
28.489	13.740	16634	17365	0	740
29.102	17.057	16634	17131	0	740
30.004	19.329	16634	17038	0	740
32.023	19.582	16634	16898	0	740
36.783	19.870	16634	16664	0	740
41.147	22.395	16634	16430	0	740
43.274	25.135	16384	16151	0	740
46.772	27.479	16384	15777	0	740
46.268	30.040	16134	15403	0	740
49.080	31.230	16134	15170	0	740
52.759	33.249	15759	14936	0	740
56.726	34.043	15759	14749	0	740
59.214	36.170	15759	14702	0	740
57.050	37.901	15509	14749	0	740
54.850	41.652	15509	14889	0	740
49.441	42.012	15509	15076	0	740
45.041	39.740	15509	15310	0	740
42.986	34.692	15509	15543	0	740
40.101	29.174	15509	15637	0	740
38.586	27.587	15759	15684	0	740
38.190	29.931	15759	15777	0	740
40.642	31.158	16134	15964	0	740
42.265	32.059	15759	16151	0	740
45.005	30.292	15759	16244	0	740
44.068	29.607	15759	16338	0	740
41.291	27.335	15759	16338	0	740
34.547	25.893	15759	16291	0	740
28.633	21.709	15759	16338	0	740
28.814	17.851	15759	16291	0	740
38.442	18.644	15509	16198	0	740
56.978	23.945	15509	16198	0	740
72.881	32.600	15509	16338	0	740
77.894	38.009	15509	16430	0	740
69.023	37.757	15509	16570	0	740
50.307	33.574	15759	16711	0	740
39.668	29.571	15759	16804	0	740
42.770	29.751	15759	16991	0	740
54.382	30.148	15759	17318	0	740
65.344	29.282	16134	17739	0	740
65.236	25.279	16384	18066	0	740
54.490	19.906	16384	18346	0	740
42.157	17.093	16634	18673	0	740
34.944	16.877	17009	18907	0	740
33.898	15.002	17259	19047	0	740
33.285	11.937	17259	19094	0	740
31.013	6.924	17634	18954	0	740
27.984	3.967	17634	18673	0	740
26.722	3.859	17634	18299	0	740
26.217	4.436	17634	17879	0	740
24.522	5.698	17634	17505	0	740
17.923	1.983	17634	17225	0	740
10.169	-3.282	17634	16991	0	740
8.943	-7.104	17259	16757	0	740
17.382	-8.042	17634	16570	0	740
27.047	-3.606	17634	16384	0	740
34.295	2.380	17259	16151	0	740
32.925	5.842	17259	15917	0	740
24.486	5.373	17259	15730	0	740
17.382	1.551	17259	15450	0	740
14.641	-0.757	17259	15170	0	740
18.933	-1.262	17259	15076	0	740
27.696	3.787	17259	15076	0	740
35.990	11.937	17259	15123	0	740
43.238	19.149	17259	15170	0	740
45.943	23.368	17009	15170	0	740
45.871	22.106	17009	15170	0	740
43.455	18.824	17009	15216	0	740
42.445	15.038	17009	15310	0	740
41.616	15.543	17009	15356	0	740
41.363	20.123	17009	15497	0	740
43.455	24.811	17259	15637	0	740
44.501	28.092	17259	15730	0	740
45.041	26.325	17009	15730	0	740
41.075	24.162	17009	15730	0	740
33.610	20.014	17009	15730	0	740
24.594	17.959	17009	15730	0	740
19.221	17.779	17009	15730	0	740
20.339	19.690	16634	15684	0	740
26.902	21.854	16634	15590	1	316
36.964	26.361	16634	15637	0	316
43.743	29.643	16634	15824	0	316
43.347	32.420	16634	16104	0	316
39.380	33.754	16634	16338	0	316
32.276	32.384	16634	16524	0	316
28.850	28.922	17009	16804	0	316
29.174	27.407	17009	17084	0	316
32.131	28.309	17259	17271	0	316
36.459	28.741	17259	17458	0	316
36.387	29.643	17634	17598	0	316
32.420	27.587	17634	17785	0	316
28.273	20.736	17884	18066	0	316
23.116	13.848	18259	18393	0	316
19.906	10.097	18259	18626	0	316
20.916	9.737	18259	18767	0	316
19.870	11.864	18884	18813	0	316
18.860	14.245	18884	18813	0	316
14.713	11.937	18884	18813	0	316
12.838	8.835	19134	18767	0	316
12.153	4.544	19134	18626	0	316
14.930	1.659	19509	18299	0	316
18.824	2.164	19509	17926	0	316
20.844	4.111	19509	17552	0	316
21.204	5.265	19134	17178	0	316
19.401	6.455	19134	16711	0	316
20.519	7.645	19134	16244	0	316
23.945	9.124	18884	15684	0	316
30.905	12.658	18509	15076	0	316
37.505	17.021	18509	14562	0	316
40.209	21.457	18259	14095	0	316
39.163	24.306	17884	13768	0	316
38.658	24.702	17634	13581	0	316
35.810	25.712	17634	13394	0	316
35.701	24.414	17259	13207	0	316
33.862	24.630	17259	13113	0	316
30.545	23.152	17009	13113	0	316
26.470	21.096	17009	13254	0	316
25.748	18.752	16634	13534	0	316
25.496	16.156	16634	13768	0	316
27.948	13.848	16634	14001	0	316
27.299	12.297	16634	14282	0	316
26.686	10.963	16634	14562	0	316
23.188	10.494	16634	14842	0	316
22.503	11.864	16634	15029	0	316
22.431	13.163	16384	15123	0	316
22.935	14.245	16384	15170	0	316
24.522	15.831	16384	15310	0	316
23.657	15.002	16134	15450	0	316
23.549	13.487	16134	15543	0	316
25.604	13.127	16134	15590	0	316
26.578	12.658	15759	15590	0	316
31.482	15.651	15759	15543	0	316
35.233	20.375	15509	15450	0	316
38.695	25.171	15509	15450	0	316
42.012	28.886	15509	15543	0	316
42.048	28.525	15134	15543	0	316
40.317	24.089	15134	15590	0	316
36.964	18.572	14884	15684	0	316
34.656	14.677	14884	15917	0	316
34.836	14.353	14884	16151	0	316
35.413	15.939	15134	16384	0	316
35.449	17.382	15509	16477	0	316
32.348	16.012	14884	16524	0	316
27.876	12.045	14884	16664	0	316
23.044	6.996	14884	16804	0	316
19.726	4.832	14884	16991	0	316
18.247	2.957	14884	17131	0	316
15.687	0.072	14884	17131	0	316
10.855	-4.400	14884	17131	0	316
4.472	-10.602	14884	17178	0	316
-1.947	-15.362	14884	17271	0	316
-5.013	-15.723	14884	17318	0	316
-1.839	-11.143	14884	17271	0	316
6.058	-2.560	14884	17131	0	316
13.271	2.272	14884	17131	0	316
15.939	0.505	14884	17178	0	316
14.028	-7.501	14884	17225	0	316
8.691	-18.067	14884	17271	0	316
5.914	-24.053	14884	17365	0	316
4.111	-24.883	15134	17505	0	316
1.262	-21.709	15134	17645	0	316
0.721	-18.897	15134	17739	0	316
0.144	-18.031	15134	17785	0	316
6.563	-17.166	15134	17879	0	316
13.199	-13.595	15759	17879	0	316
17.346	-8.835	15759	17739	0	316
14.677	-7.681	15759	17692	0	316
4.544	-10.710	16134	17692	0	316
-7.032	-20.231	15759	17645	0	316
-19.185	-31.879	15759	17552	0	316
-28.669	-42.950	15759	17552	0	316
-32.961	-49.657	15759	17412	0	316
-33.502	-51.388	15759	17225	0	316
-28.345	-52.218	15759	17038	0	316
-28.201	-54.706	15759	16898	0	316
-36.603	-65.056	16134	16898	0	316
-49.585	-77.822	16134	16898	0	316
-61.305	-88.027	16134	16898	0	316
-64.695	-90.912	16134	16851	0	316
-60.115	-87.450	16134	16757	0	316
-58.276	-86.080	16134	16664	0	316
-64.371	-87.991	16134	16477	0	316
-69.059	-90.948	16134	16338	0	316
-67.905	-85.792	16134	16198	0	316
-55.499	-74.432	16134	16104	0	316
-40.966	-63.541	16134	15964	0	316
-32.239	-60.404	15759	15824	0	316
-33.574	-65.236	15759	15590	0	316
-40.858	-68.374	15759	15450	0	316
-44.717	-65.669	15509	15356	0	316
-46.628	-56.185	15509	15356	0	316
-45.691	-47.854	15509	15497	0	316
-40.894	-43.887	15759	15777	0	316
-36.928	-43.419	15759	16104	0	316
-32.492	-43.419	15759	16384	0	316
-31.951	-44.212	16134	16664	0	316
-39.560	-46.953	16134	17038	0	316
-50.198	-53.119	16634	17271	0	316
-55.536	-59.106	16384	17271	0	316
-56.401	-62.856	16384	17225	0	316
-53.660	-65.633	16384	17225	0	316
-56.509	-66.823	16634	17271	0	316
-64.371	-70.609	16634	17225	0	316
-71.367	-71.763	16634	17084	0	316
-71.908	-68.951	16634	16944	0	316
-67.364	-63.469	16634	16851	0	316
-67.472	-60.296	16634	16804	0	316
-74.793	-61.233	17009	16851	0	316
-83.051	-66.246	17009	16944	0	316
-83.231	-67.003	17009	17084	0	316
-70.826	-63.902	17259	17084	0	316
-55.752	-57.447	17259	17084	0	316
-46.917	-52.362	17259	16991	0	316
-49.693	-50.847	17259	16851	0	316
-58.024	-51.605	17259	16664	0	316
-64.767	-52.290	17259	16430	0	316
-66.859	-52.146	17259	16244	0	316
-66.066	-51.605	17259	16011	0	316
-64.082	-52.290	17259	15917	0	316
-65.128	-52.687	17259	15917	0	316
-67.797	-54.057	17259	15964	0	316
-68.482	-56.690	17259	15917	0	316
-67.400	-59.142	17009	15824	0	316
-63.722	-61.342	17259	15730	0	316
-59.430	-63.072	17259	15730	0	316
-58.745	-61.053	17009	15730	0	316
-58.745	-60.404	17009	15637	0	316
-61.882	-60.332	16634	15497	0	316
-61.017	-62.532	16634	15356	0	316
-59.719	-64.948	16634	15170	0	316
-56.906	-65.597	16384	15123	0	316
-52.470	-63.181	16384	15076	0	316
-49.621	-57.339	16384	15029	0	316
-44.753	-51.028	16134	14889	0	316
-42.265	-45.763	16134	14796	0	316
-39.812	-43.815	16134	14749	0	316
-38.154	-42.986	15759	14749	0	316
-38.839	-46.159	15759	14796	0	316
-39.380	-49.693	15759	14842	0	316
-42.337	-52.470	15759	14889	0	316
-43.022	-53.083	15759	14842	0	316
-43.022	-51.677	15759	14889	0	316
-42.048	-49.225	15509	15076	0	316
-41.976	-49.189	15509	15216	0	316
-45.943	-50.307	15509	15450	0	316
-49.838	-53.696	15509	15870	0	316
-52.578	-57.843	15509	16384	0	316
-51.569	-59.466	15759	16711	0	316
-48.756	-60.115	15759	16991	0	316
-45.871	-59.971	15759	17225	0	316
-46.159	-59.899	15759	17412	0	316
-50.595	-62.387	15759	17505	0	316
-55.788	-67.292	15759	17458	0	316
-59.142	-71.908	16134	17458	0	316
-59.106	-73.494	16134	17552	0	316
-55.463	-72.917	16134	17739	0	316
-52.001	-71.836	16384	17972	0	316
-50.415	-71.475	16384	18112	0	316
-51.677	-72.629	16384	18159	0	316
-51.929	-72.088	16384	18112	0	316
-51.280	-71.006	16634	18019	0	316
-49.657	-67.400	16634	17879	0	316
-45.510	-65.020	16634	17692	0	316
-43.707	-64.587	16634	17458	1	736
-41.832	-65.344	16634	17178	0	736
-41.039	-64.190	16384	16851	0	736
-40.786	-63.649	16384	16524	0	736
-40.353	-62.532	16384	16384	0	736
-39.235	-59.466	16384	16338	0	736
-38.118	-57.375	16384	16384	0	736
-38.226	-59.430	16384	16338	0	736
-41.291	-61.161	16384	16291	0	736
-47.602	-66.066	16384	16291	0	736
-51.388	-69.455	16384	16338	0	736
-55.463	-71.511	16384	16430	0	736
-55.788	-71.078	16634	16524	0	736
-54.418	-69.600	16634	16477	0	736
-52.759	-68.518	16634	16384	0	736
-50.739	-67.111	16634	16384	0	736
-47.494	-64.876	16634	16477	0	736
-43.563	-64.371	16634	16570	0	736
-39.993	-63.974	16634	16711	0	736
-38.695	-65.236	17009	16804	0	736
-39.524	-66.967	17009	16898	0	736
-42.878	-67.580	17009	16898	0	736
-47.782	-68.915	17009	16851	0	736
-49.405	-69.455	17009	16804	0	736
-50.451	-70.393	17259	16711	0	736
-50.811	-71.944	17259	16664	0	736
-50.992	-74.757	17009	16570	0	736
-52.614	-74.684	17259	16430	0	736
-53.480	-73.747	17259	16291	0	736
-51.533	-69.528	17009	16057	0	736
-45.691	-65.308	16634	15730	0	736
-39.235	-60.801	16634	15497	0	736
-35.774	-60.656	16384	15450	0	736
-34.656	-62.748	16384	15497	0	736
-38.550	-65.777	16384	15590	0	736
-43.815	-69.816	16634	15730	0	736
-46.015	-72.124	16634	15964	0	736
-47.349	-73.206	16634	16198	0	736
-48.792	-74.576	16634	16244	0	736
-49.189	-77.209	16634	16057	0	736
-52.506	-80.058	16384	15824	0	736
-54.706	-82.149	16384	15590	0	736
-54.526	-82.330	16384	15310	0	736
-53.083	-79.517	16134	15076	0	736
-53.119	-77.858	16134	14889	0	736
-54.382	-77.642	15759	14889	0	736
-57.771	-81.140	15759	15076	0	736
-59.538	-84.818	15759	15263	0	736
-59.250	-86.441	16134	15403	0	736
-56.545	-83.484	16134	15590	0	736
-53.228	-79.012	16134	15777	0	736
-51.677	-74.612	16134	15964	0	736
-52.001	-74.107	16134	16104	0	736
-51.533	-78.471	16134	16198	0	736
-48.972	-81.753	16134	16338	0	736
-46.051	-84.890	16384	16430	0	736
-42.878	-84.205	16134	16664	0	736
-43.166	-83.880	16134	16898	0	736
-47.169	-84.602	16384	17131	0	736
-52.939	-86.801	16384	17318	0	736
-56.221	-88.893	16634	17598	0	736
-59.142	-88.424	16634	17926	0	736
-60.188	-86.477	16384	18066	0	736
-62.964	-85.755	17009	18066	0	736
-68.085	-86.044	17009	17972	0	736
-72.521	-85.070	17009	17926	0	736
-73.927	-83.556	17009	17879	0	736
-71.042	-80.418	16634	17645	0	736
-66.282	-75.514	16634	17365	0	736
-60.765	-73.675	16634	17084	0	736
-55.103	-72.160	16634	16711	0	736
-50.739	-71.511	16634	16384	0	736
-46.015	-70.718	16384	16104	0	736
-41.652	-68.193	16384	15870	0	736
-37.901	-65.344	16384	15684	0	736
-35.557	-60.296	16134	15497	0	736
-32.456	-55.968	16134	15403	0	736
-28.237	-52.542	16134	15403	0	736
-23.981	-49.080	16134	15497	0	736
-19.978	-47.097	16134	15637	1	316
-17.598	-43.274	16134	15824	0	316
-15.507	-42.661	16384	16011	0	316
-16.120	-41.688	16384	16151	0	316
-17.490	-44.969	16634	16338	0	316
-20.014	-49.153	16384	16430	0	316
-23.981	-53.300	16384	16430	0	316
-26.614	-55.283	16384	16384	0	316
-29.210	-55.391	16384	16384	0	316
-30.400	-54.598	16384	16338	0	316
-33.970	-55.427	16384	16291	0	316
-38.406	-57.735	16384	16338	0	316
-43.130	-61.991	16134	16338	0	316
-48.071	-64.010	16384	16291	0	316
-49.838	-63.686	16384	16151	0	316
-46.917	-63.253	16384	16011	0	316
-43.238	-61.774	16384	15870	0	316
-38.442	-62.063	16134	15777	0	316
-33.574	-59.863	16134	15824	0	316
-27.155	-56.365	16134	15917	0	316
-23.729	-51.461	16134	16057	0	316
-20.772	-46.881	16134	16198	0	316
-18.608	-44.897	16134	16244	0	316
-18.283	-43.238	16134	16244	0	316
-17.923	-39.740	16384	16151	0	316
-14.281	-35.629	16134	16057	0	316
-12.550	-31.699	15759	15917	0	316
-9.629	-28.561	15759	15730	0	316
-8.366	-27.263	15759	15637	0	316
-6.527	-26.109	15509	15637	0	316
-5.481	-27.083	15509	15730	0	316
-10.061	-28.777	15509	15870	0	316
-11.576	-32.780	15509	16011	0	316
-11.035	-35.593	15509	16198	0	316
-7.501	-34.547	15509	16291	0	316
-3.895	-31.807	15509	16291	0	316
-5.301	-28.417	15509	16384	0	316
-11.900	-30.977	15509	16524	0	316
-18.103	-35.665	15509	16664	0	316
-16.516	-39.993	15509	16617	0	316
-11.360	-40.894	15509	16477	0	316
-10.530	-40.353	15509	16384	0	316
-16.985	-41.904	15134	16291	0	316
-27.335	-47.926	15509	16291	0	316
-34.620	-56.149	15509	16244	0	316
-32.276	-61.017	15509	16198	0	316
-23.801	-61.918	15509	16338	0	316
-17.310	-59.034	15509	16524	0	316
-17.490	-57.735	15509	16711	0	316
-19.942	-56.617	15509	16851	0	316
-19.113	-55.211	15509	16944	0	316
-12.982	-50.847	15509	17084	0	316
-4.255	-45.510	15759	17178	0	316
-2.200	-41.003	15759	17318	0	316
-7.753	-41.075	15759	17412	0	316
-17.995	-42.265	15759	17505	0	316
-21.998	-43.347	16134	17552	0	316
-14.425	-41.219	16134	17552	0	316
-1.479	-38.478	16134	17552	0	316
4.977	-37.360	16134	17552	0	316
-0.829	-40.570	16384	17552	0	316
-14.353	-44.212	16384	17598	0	316
-20.736	-46.087	16384	17598	0	316
-14.713	-45.258	16384	17412	0	316
-2.633	-42.950	16384	17225	0	316
2.416	-39.885	16384	17038	0	316
-7.501	-38.045	16384	16944	0	316
-23.296	-36.928	16384	16944	0	316
-29.138	-35.774	16634	16898	0	316
-17.526	-35.413	16634	16898	0	316
0.252	-35.665	16634	16851	0	316
9.232	-36.026	16634	16851	0	316
4.544	-33.538	17009	16898	0	316
-9.592	-27.912	17009	16944	0	316
-17.346	-23.801	17009	16991	0	316
-14.966	-20.231	17009	16991	0	316
-4.147	-20.050	17259	16898	0	316
-0.397	-24.414	17259	16757	0	316
-4.977	-27.948	17259	16570	0	316
-12.441	-30.436	17259	16430	0	316
-15.651	-28.633	17259	16384	0	316
-9.989	-26.001	17259	16244	0	316
4.003	-21.709	17259	16151	0	316
12.153	-19.077	17259	16151	0	316
11.684	-20.591	17259	16057	0	316
2.380	-22.827	17259	15964	0	316
-6.780	-22.755	17009	15964	0	316
-7.681	-16.589	17009	16011	0	316
0.685	-6.708	17009	16057	0	316
12.189	4.796	17009	16057	0	316
17.634	9.629	17009	16104	0	316
14.497	8.294	17259	16104	0	316
8.186	3.318	17259	16057	0	316
6.960	1.010	17259	16011	0	316
12.910	1.875	17259	15964	0	316
24.053	6.527	17259	15917	0	316
31.518	12.802	17009	15777	0	316
31.915	16.841	17009	15637	0	316
25.388	19.906	17009	15543	0	316
25.893	24.558	17009	15450	0	316
32.816	29.102	16634	15263	0	316
45.835	36.423	16634	15029	0	316
54.706	42.625	16384	14796	0	316
49.874	41.796	16384	14562	0	316
36.206	34.872	16134	14375	0	316
21.024	24.666	16134	14282	0	316
20.447	18.824	15759	14328	0	316
30.617	22.106	15759	14469	0	316
43.455	30.941	15759	14609	0	316
47.818	38.226	15509	14749	0	316
40.822	39.812	15509	14983	0	316
28.417	37.360	15509	15356	0	316
21.060	34.475	15509	15637	0	316
21.421	35.882	15509	15824	0	316
28.525	38.406	15509	16057	0	316
32.492	37.757	15509	16291	0	316
32.744	33.790	15759	16570	0	316
25.640	29.210	15759	16851	0	316
17.562	26.758	15759	17084	0	316
12.586	29.859	15759	17178	0	316
15.975	35.990	16134	17178	0	316
26.938	43.671	16134	17131	0	316
42.120	50.126	16134	17178	0	316
50.054	53.696	16134	17178	0	316
46.953	52.362	16134	17225	0	316
32.925	46.087	16134	17225	0	316
19.185	35.810	16134	17271	0	316
13.163	28.777	16134	17271	0	316
17.923	24.919	16134	17318	0	316
30.004	27.191	16384	17365	0	316
33.429	29.931	16384	17412	0	316
27.047	31.518	16384	17505	0	316
14.641	31.699	16384	17552	0	316
4.003	31.879	16634	17598	0	316
3.606	30.617	16634	17692	0	316
12.766	28.237	16634	17739	0	316
21.673	23.044	17009	17785	0	316
21.709	17.779	17009	17739	0	316
15.795	16.156	17009	17505	0	316
8.186	18.644	17009	17271	0	316
5.481	22.358	16634	17084	0	316
13.956	25.279	16634	17084	1	564
25.099	29.030	16634	17131	0	564
35.557	31.626	17009	17225	0	564
39.380	36.855	17009	17318	0	564
40.101	40.101	17009	17225	0	564
36.819	41.976	17009	17038	0	564
34.692	42.589	17009	16851	0	564
35.990	44.068	17259	16711	0	564
39.380	47.530	17259	16664	0	564
43.743	49.982	17259	16664	0	564
45.871	49.657	17259	16570	0	564
44.068	45.186	17259	16430	0	564
39.849	42.481	17259	16338	0	564
33.574	39.452	17259	16198	0	564
31.410	38.298	17259	16151	0	564
30.328	39.560	17259	16198	0	564
31.482	39.019	17259	16151	0	564
32.744	37.072	17259	15964	0	564
31.879	35.954	17009	15777	0	564
32.492	32.961	17259	15637	0	564
30.725	29.895	17259	15590	0	564
29.787	29.463	17259	15590	0	564
30.436	29.931	17009	15590	0	564
31.951	33.610	17009	15684	0	564
34.006	37.324	17009	15870	0	564
34.547	40.245	17009	15964	0	564
34.656	41.039	17009	15917	0	564
33.718	42.445	17009	15824	0	564
34.547	42.373	17009	15824	0	564
36.170	43.851	17009	15917	0	564
38.045	46.772	17009	16057	0	564
39.416	50.054	17259	16244	0	564
39.596	51.533	17259	16384	0	564
41.075	52.362	17259	16524	0	564
43.310	51.821	17259	16570	0	564
50.018	52.542	17259	16477	0	564
55.752	55.247	17259	16338	0	564
60.981	60.151	17259	16104	0	564
62.568	62.315	17009	15777	0	564
61.450	61.955	17009	15450	0	564
55.896	57.158	16634	15263	0	564
48.395	50.090	16634	15123	0	564
41.111	44.537	16634	15029	0	564
34.511	39.019	16384	14983	0	564
33.934	37.468	16384	14983	0	564
39.776	37.396	16384	15029	0	564
52.759	38.911	16384	15123	0	564
64.443	41.868	16384	15310	0	564
70.393	43.310	16134	15497	0	564
69.492	43.347	16134	15684	0	564
61.017	39.524	16134	15870	0	564
52.651	36.062	16134	16057	0	564
48.503	35.124	16384	16244	0	564
48.287	39.272	16384	16477	0	564
54.598	47.602	16384	16757	0	564
59.647	56.113	16384	16991	0	564
63.686	58.384	16634	17131	0	564
62.351	57.158	16634	17225	0	564
59.647	54.490	16634	17271	0	564
56.040	55.499	16634	17225	0	564
55.716	61.522	16634	17178	0	564
62.532	65.885	16634	17084	0	564
70.501	68.410	16634	16991	0	564
76.668	65.994	16634	16944	0	564
79.228	60.620	16634	16898	0	564
74.648	54.922	16634	16898	0	564
68.446	50.920	16634	16898	0	564
61.666	47.494	16634	16851	0	564
57.555	46.232	16634	16804	0	564
53.480	47.530	16634	16757	0	564
52.038	48.972	16384	16617	0	564
51.821	49.657	16384	16430	0	564
50.739	44.825	16134	16338	0	564
49.549	38.586	16384	16244	0	564
45.150	32.636	16384	16244	0	564
41.075	30.364	16384	16291	0	564
37.541	31.843	16384	16384	0	564
38.731	36.891	16634	16430	0	564
42.734	40.930	16384	16617	0	564
48.756	41.904	16384	16804	0	564
54.273	41.543	16384	16944	0	564
57.952	41.796	16634	17038	0	564
59.178	43.419	16634	17084	0	564
56.257	47.097	16634	17131	0	564
53.877	51.821	16634	17084	0	564
51.352	53.805	16634	17038	0	564
50.956	53.083	16634	16898	0	564
52.326	51.280	16634	16711	0	564
55.499	49.657	16634	16524	0	564
57.411	49.333	16634	16430	0	564
58.673	50.018	16634	16384	0	564
58.024	47.494	16634	16384	0	564
54.742	45.114	16634	16384	0	564
52.182	40.930	16634	16384	0	564
48.503	37.108	16634	16338	0	564
47.386	35.629	16634	16198	0	564
45.078	36.314	16634	16057	0	564
42.409	36.747	16634	15917	0	564
39.163	37.288	16634	15730	0	564
33.718	35.233	16384	15543	0	564
28.201	33.934	16384	15403	0	564
22.647	31.735	16384	15310	0	564
19.546	31.554	16134	15310	0	564
17.923	33.141	16134	15356	0	564
19.618	33.862	16134	15356	0	564
22.647	33.718	16134	15356	0	564
24.414	33.682	16134	15310	0	564
24.847	34.259	16134	15403	0	564
25.207	37.180	15759	15543	0	564
21.890	40.570	15759	15637	0	564
19.690	43.022	15759	15730	0	564
17.634	41.327	15759	15824	0	564
17.634	37.865	15759	15824	0	564
20.880	33.033	15759	15824	0	564
24.702	28.886	15509	15824	0	564
27.984	29.282	15759	15824	0	564
29.427	30.256	15759	15730	0	564
30.040	30.941	15509	15637	0	564
28.381	32.276	15509	15637	0	564
28.958	33.285	15509	15637	0	564
28.273	33.321	15134	15590	0	564
26.361	34.079	15134	15543	0	564
24.847	33.574	15134	15543	0	564
21.313	31.626	14884	15637	0	564
19.005	27.660	14884	15777	0	564
18.500	25.568	14884	15824	0	564
18.933	23.296	14884	15824	0	564
20.267	24.198	14509	15824	0	564
20.664	24.847	14509	15870	0	564
20.303	27.696	14884	15964	0	564
18.428	29.138	14884	16057	0	564
18.103	29.607	14509	16198	0	564
18.500	28.705	14509	16384	0	564
18.752	27.010	14509	16570	0	564
19.401	27.010	14509	16757	0	564
21.132	27.984	14509	16944	0	564
20.700	30.508	14884	17178	0	564
19.618	32.889	14884	17412	0	564
17.057	32.167	14884	17505	0	564
14.785	31.446	15134	17505	0	564
14.497	29.968	15134	17412	0	564
15.074	29.968	15134	17318	0	564
16.300	27.587	14884	17225	0	564
15.038	26.181	14884	17084	0	564
12.730	22.034	14884	16944	1	576
10.169	20.014	14884	16898	0	576
8.727	18.860	14884	16898	0	576
7.537	19.726	14884	16898	0	576
6.671	20.123	14884	16898	0	576
4.147	20.591	14884	16898	0	576
1.803	20.772	14884	16898	0	576
1.010	19.834	15134	16804	0	576
0.144	18.320	15509	16711	0	576
-0.721	15.723	14884	16617	0	576
-1.479	13.776	14884	16617	0	576
-2.416	14.894	15134	16757	0	576
0.433	19.510	15134	16851	0	576
5.842	24.666	15134	16991	0	576
11.720	28.994	15134	17178	0	576
13.091	27.948	15509	17412	0	576
6.383	23.044	15509	17692	0	576
-4.688	16.012	15759	17832	0	576
-13.451	10.061	15759	17879	0	576
-16.985	6.924	15759	17832	0	576
-15.471	7.970	16134	17832	0	576
-13.199	10.206	16134	17926	0	576
-12.514	13.018	16384	18066	0	576
-15.615	15.435	16384	18206	0	576
-17.743	14.858	16634	18299	0	576
-18.536	13.776	16634	18299	0	576
-18.933	10.855	17009	18253	0	576
-20.339	8.619	17009	18066	0	576
-22.467	7.573	17009	17832	0	576
-23.945	10.494	17009	17645	0	576
-23.044	13.199	17259	17458	0	576
-18.752	16.156	17259	17225	0	576
-11.648	16.805	17259	16991	0	576
-6.203	16.697	17259	16851	0	576
-2.128	17.166	17259	16804	0	576
-2.416	19.113	17634	16711	0	576
-2.885	21.204	17634	16430	0	576
-5.193	21.926	17634	16198	0	576
-7.248	20.123	17259	15964	0	576
-6.599	18.644	17634	15777	0	576
-6.780	19.221	17259	15637	0	576
-4.868	19.618	17259	15450	0	576
-4.580	19.401	17009	15263	0	576
-5.301	18.356	17009	15076	0	576
-7.970	15.975	17009	14842	0	576
-9.520	15.975	16634	14562	0	576
-11.612	17.562	16634	14375	0	576
-11.432	20.195	16384	14328	0	576
-10.494	20.627	16384	14282	0	576
-10.710	19.762	16384	14282	0	576
-11.287	18.428	16384	14375	0	576
-13.415	17.562	16384	14609	0	576
-14.533	18.464	16384	14796	0	576
-15.218	20.447	16384	15029	0	576
-13.018	22.755	16384	15356	0	576
-10.025	26.794	16384	15777	0	576
-9.484	28.164	16634	16198	0	576
-8.619	28.814	16634	16477	0	576
-10.025	27.948	16634	16617	0	576
-8.691	26.506	16634	16617	0	576
-5.842	27.984	16634	16570	0	576
-1.442	30.797	16634	16617	0	576
4.904	35.629	16634	16711	0	576
8.258	38.731	16634	16711	0	576
11.287	37.937	16634	16524	0	576
9.016	34.403	16634	16244	0	576
6.960	30.508	16384	15964	0	576
5.049	27.912	16384	15777	0	576
4.400	29.066	16384	15637	0	576
6.131	29.859	16134	15590	0	576
8.619	29.715	16134	15543	0	576
9.448	29.282	16134	15590	0	576
10.638	27.299	16134	15637	0	576
12.477	29.391	16134	15637	0	576
14.497	31.230	15759	15637	0	576
15.723	33.357	15759	15590	0	576
15.939	33.177	15759	15777	0	576
13.631	30.220	15759	16057	0	576
9.052	27.840	16134	16384	0	576
5.301	25.965	16134	16524	1	316
4.508	28.020	16134	16570	0	316
6.419	30.689	16134	16617	0	316
8.871	34.187	16134	16664	0	316
12.153	34.475	16134	16757	0	316
12.550	32.203	16134	16898	0	316
12.622	31.410	16134	16991	0	316
13.668	33.213	16384	17084	0	316
15.579	35.629	16634	17271	0	316
17.887	39.957	16384	17552	0	316
18.572	40.426	16634	17879	0	316
19.834	39.776	16634	18206	0	316
21.277	37.901	17009	18393	0	316
24.270	37.396	17009	18533	0	316
26.722	38.695	17259	18533	0	316
27.624	39.452	17259	18440	0	316
26.037	40.498	17259	18112	0	316
22.539	40.137	17259	17692	0	316
21.096	39.452	17259	17178	0	316
21.854	38.622	17009	16664	0	316
25.243	39.957	17009	16384	0	316
26.794	40.570	17009	16151	0	316
25.640	42.661	17009	15964	0	316
21.204	41.796	17009	15777	0	316
13.595	37.865	17009	15684	0	316
9.304	35.197	16634	15590	0	316
6.203	31.013	16634	15497	0	316
9.989	32.167	16634	15403	0	316
14.028	36.387	16634	15310	0	316
17.851	41.003	16634	15310	0	316
19.726	45.150	16634	15356	0	316
18.067	45.474	16384	15356	0	316
16.625	44.969	16384	15310	0	316
15.723	43.166	16384	15356	0	316
14.858	42.120	16384	15450	0	316
12.658	39.993	16384	15543	0	316
10.819	38.262	16384	15637	0	316
8.799	37.252	16384	15730	0	316
9.989	36.928	16384	15870	0	316
11.396	37.649	16384	16011	0	316
14.064	36.459	16384	16057	0	316
14.605	34.079	16384	16104	0	316
17.598	33.429	16384	16057	0	316
21.024	35.377	16134	15964	0	316
25.207	40.534	16134	15777	0	316
28.345	44.681	16134	15590	0	316
26.614	46.304	15759	15543	0	316
23.549	43.058	15759	15684	0	316
21.168	41.291	15759	15917	0	316
20.627	41.796	16134	16198	0	316
21.313	43.960	16134	16384	0	316
23.368	47.205	16134	16617	0	316
24.342	46.845	16134	16757	0	316
23.332	45.041	16134	16898	0	316
20.736	42.301	16134	16898	0	316
20.159	41.580	16134	16851	0	316
17.418	43.383	16134	16851	0	316
15.254	45.294	16134	16851	0	316
11.900	45.114	16134	16804	0	316
9.196	40.606	16134	16664	0	316
11.323	34.475	16134	16570	0	316
17.166	30.076	16134	16524	0	316
30.220	30.076	16134	16477	0	316
35.846	32.636	16134	16477	0	316
32.708	31.915	16134	16477	0	316
21.241	26.109	16134	16477	0	316
8.907	17.310	16134	16477	0	316
0.288	8.366	15759	16477	0	316
-2.488	6.419	15759	16430	0	316
-4.075	7.681	15759	16430	0	316
-7.862	10.097	15759	16524	0	316
-10.242	9.412	15759	16570	0	316
-9.809	7.825	15759	16524	0	316
-7.321	3.823	15759	16524	0	316
-4.508	-1.515	16384	16570	0	316
-6.924	-5.481	16384	16617	0	316
-11.251	-8.114	16134	16524	0	316
-13.668	-8.979	16134	16384	0	316
-13.451	-7.717	16134	16244	0	316
-10.746	-5.554	16134	16104	1	316
-7.248	-5.770	16134	16057	0	316
-9.989	-5.806	16134	16151	0	316
-12.405	-3.859	16384	16244	0	316
-15.002	-0.108	16134	16338	0	316
-13.018	7.357	16134	16477	0	316
-6.960	14.605	16134	16711	0	316
2.380	20.195	16134	16851	0	316
10.025	23.585	16134	16898	0	316
14.497	24.162	16384	16898	0	316
14.713	24.775	16384	16991	0	316
13.992	23.765	16384	17038	0	316
11.287	23.801	16384	17084	0	316
13.235	26.001	16384	17178	0	316
17.454	28.381	16634	17225	0	316
21.890	30.220	16634	17131	0	316
23.981	30.653	16634	16944	0	316
20.267	28.561	16634	16757	0	316
15.002	29.643	16634	16664	0	316
13.343	35.160	16384	16711	0	316
20.411	42.986	16634	16851	0	316
33.646	47.782	16634	17038	0	316
46.159	45.799	17009	17178	0	316
45.799	37.685	17009	17178	0	316
35.088	31.374	17009	17038	0	316
19.690	31.230	16634	16757	0	316
14.785	37.973	16634	16524	0	316
22.286	43.635	16634	16338	0	316
36.314	46.087	16634	16151	0	316
44.573	45.691	16384	16057	0	316
40.966	44.320	16634	16057	0	316
32.239	45.330	16634	16057	0	316
27.155	45.366	16634	16104	0	316
31.266	43.455	16634	16198	0	316
38.478	39.668	16634	16384	0	316
40.065	35.882	17009	16711	0	316
35.305	36.783	17009	16991	0	316
29.138	38.406	17259	17178	0	316
23.801	39.019	17259	17318	0	316
23.116	34.692	17634	17365	0	316
23.080	29.859	17634	17318	0	316
24.089	26.289	17634	17131	0	316
24.017	27.948	17634	17038	0	316
28.092	32.853	17884	17084	0	316
32.023	38.118	17884	17131	0	316
36.603	40.750	17884	17131	0	316
38.406	38.190	17884	16991	0	316
38.226	32.997	17884	16757	0	316
36.459	28.381	17634	16477	0	316
36.062	23.044	17634	16244	0	316
34.295	22.286	17634	15964	0	316
33.646	23.080	17634	15684	0	316
32.456	25.965	17259	15403	0	316
32.384	30.292	17259	15170	0	316
32.167	33.682	17009	14889	0	316
37.036	35.665	17009	14702	0	316
45.402	39.199	17009	14562	0	316
56.509	42.084	16634	14422	0	316
64.515	44.969	16634	14235	0	316
65.525	47.025	16384	14142	0	316
59.322	45.691	16384	14188	0	316
50.198	43.238	16384	14282	0	316
44.356	39.668	16134	14422	0	316
45.510	39.344	16134	14656	0	316
51.064	39.380	16134	15029	0	316
52.434	39.127	16384	15403	0	316
48.395	37.252	16384	15730	0	316
40.750	36.026	16384	15917	0	316
35.954	35.701	16134	15964	0	316
36.423	34.980	16134	15964	0	316
43.058	34.836	16134	15917	0	316
45.005	29.210	16134	15824	0	316
42.806	23.512	15759	15637	0	316
32.239	17.923	15759	15543	0	316
25.676	16.264	15509	15497	0	316
23.837	18.680	15509	15497	0	316
30.184	22.827	15134	15497	0	316
38.406	26.109	15134	15450	0	316
41.111	25.676	15134	15403	0	316
39.127	24.053	14884	15450	0	316
33.826	20.952	15134	15543	0	316
30.508	19.437	15134	15730	0	316
30.545	20.988	15134	15917	0	316
32.420	22.539	15134	16151	0	316
34.115	26.037	15134	16384	0	316
33.321	26.902	15134	16617	0	316
33.970	29.282	14884	16757	0	316
33.466	29.174	14884	16851	0	316
33.141	28.128	15134	17131	0	316
33.105	26.361	15134	17552	0	316
29.823	23.044	15509	18019	0	316
29.282	20.772	15509	18299	0	316
27.696	19.690	15759	18486	0	316
27.587	20.303	15759	18673	0	316
27.696	20.447	15759	18720	0	316
24.847	19.113	16134	18673	0	316
23.909	17.706	16134	18626	0	316
21.493	15.218	16134	18393	0	316
20.014	15.038	16384	18112	0	316
22.142	16.120	16384	17785	1	396
22.683	17.851	16384	17552	0	396
24.739	18.247	16384	17412	0	396
23.873	18.464	16384	17225	0	396
25.856	20.014	16384	17084	0	396
28.273	22.683	16384	16991	0	396
32.239	26.109	16384	16944	0	396
35.016	29.246	16384	16898	0	396
35.377	29.282	16634	16898	0	396
32.564	28.633	16384	16944	0	396
32.672	27.660	16384	16991	0	396
32.961	26.578	16384	16991	0	396
36.747	27.155	16634	17038	0	396
37.757	25.965	16634	17038	0	396
33.862	25.207	16634	16991	0	396
29.282	24.125	16634	16898	0	396
25.424	23.008	16634	16804	0	396
24.450	23.729	16634	16711	0	396
25.712	23.585	17009	16664	0	396
27.515	22.250	17009	16617	0	396
28.633	21.349	17009	16477	0	396
30.184	20.231	17009	16384	0	396
29.895	21.277	17009	16384	0	396
31.374	22.575	17009	16338	0	396
30.148	23.837	17009	16244	0	396
27.624	23.945	17009	16104	0	396
25.532	24.017	17009	16011	0	396
27.263	25.856	17009	15964	0	396
32.420	28.669	17009	15917	0	396
38.406	31.771	17009	15870	0	396
42.409	33.862	17009	15824	0	396
43.960	32.780	17009	15824	0	396
40.642	31.338	17009	15824	0	396
36.928	30.040	17009	15730	0	396
36.242	29.030	17009	15590	0	396
35.918	28.525	17009	15450	0	396
34.944	28.777	16634	15403	0	396
36.675	28.597	16634	15356	0	396
35.810	26.902	16634	15403	0	396
36.098	28.561	16634	15497	0	396
36.783	29.210	16634	15730	0	396
35.557	29.427	17009	15964	0	396
34.115	28.128	17009	16198	0	396
32.600	25.207	17009	16430	0	396
29.174	22.647	17259	16664	0	396
27.768	20.519	17259	16711	0	396
27.155	19.834	17009	16617	0	396
26.614	17.598	17009	16524	0	396
27.119	14.785	17009	16477	0	396
26.542	11.792	17009	16384	0	396
25.207	13.054	16634	16338	0	396
25.568	16.985	16634	16198	0	396
26.433	23.549	16634	16011	0	396
29.066	29.679	16634	15917	0	396
30.977	32.492	16634	15917	0	396
34.583	32.744	16634	15917	0	396
37.108	31.374	16634	16011	0	396
41.363	31.554	16634	16057	0	396
44.032	32.780	16634	16104	0	396
46.592	35.124	16634	16104	0	396
45.763	36.423	16384	16011	0	396
44.933	36.387	16384	15964	0	396
42.553	36.783	16384	15870	0	396
41.183	39.091	16384	15730	0	396
40.389	41.760	16134	15590	0	396
42.193	44.248	16134	15543	0	396
44.140	42.950	16134	15590	0	396
43.022	41.219	16134	15684	0	396
39.993	37.180	16134	15870	0	396
33.466	34.944	16134	16057	0	396
28.525	32.384	16134	16198	0	396
24.558	30.977	16134	16244	0	396
25.135	28.850	16134	16291	0	396
24.991	29.354	16134	16338	0	396
25.532	30.761	16134	16338	0	396
26.145	32.744	15759	16291	0	396
28.669	34.800	15759	16198	0	396
36.928	38.406	15759	16104	0	396
47.638	42.697	15759	16011	0	396
56.149	46.448	15509	15824	0	396
58.961	49.946	15759	15637	0	396
51.497	51.497	15509	15497	0	396
42.589	49.044	15509	15450	0	396
39.452	46.881	15134	15310	0	396
43.274	45.150	15134	15216	0	396
52.867	44.176	14884	15216	0	396
57.952	46.809	14884	15263	0	396
59.358	50.270	14884	15310	0	396
54.814	54.309	14884	15450	0	396
52.651	56.040	14509	15684	0	396
55.175	54.382	14509	15964	0	396
59.971	52.182	14509	16244	0	396
61.305	50.703	14884	16524	0	396
58.312	51.641	15134	16898	0	396
48.792	52.254	15509	17225	0	396
37.505	49.802	15134	17505	0	396
30.653	42.697	15509	17692	0	396
31.446	36.567	15509	17832	0	396
35.124	33.898	15509	17972	0	396
40.606	36.387	15759	18112	0	396
40.714	40.714	15759	18159	0	396
36.603	40.822	15759	18112	0	396
29.643	35.160	15759	18019	0	396
22.106	27.227	15759	17926	0	396
16.589	21.060	15759	17739	0	396
16.913	19.546	15759	17552	0	396
25.856	23.837	15759	17318	0	396
37.072	28.345	15759	17131	0	396
44.753	31.735	15759	16944	0	396
41.183	31.735	15759	16711	0	396
29.391	30.941	15509	16477	0	396
19.185	29.354	15509	16291	0	396
21.601	30.220	15134	15964	0	396
32.276	31.338	15134	15590	0	396
40.498	31.879	15509	15450	0	396
34.908	27.299	15134	15450	0	396
21.132	22.575	15134	15590	0	396
12.189	18.283	15134	15777	0	396
14.533	17.490	15509	16011	0	396
26.433	19.870	15509	16338	0	396
32.816	21.962	15759	16711	0	396
27.299	20.050	15759	17131	0	396
14.641	13.884	16134	17505	0	396
6.058	6.852	16384	17879	0	396
8.799	4.039	16384	18253	0	396
19.149	4.255	16634	18533	0	396
28.489	6.816	17009	18673	0	396
34.331	7.393	17009	18673	0	396
34.079	7.645	17009	18533	0	396
31.843	8.042	17259	18253	0	396
28.741	12.045	17259	17972	0	396
25.027	18.644	17259	17598	0	396
26.974	23.332	17259	17131	1	528
31.158	23.801	17009	16757	0	528
37.144	22.142	17009	16524	0	528
41.976	22.142	17009	16384	0	528
39.524	24.486	17009	16244	0	528
35.593	28.850	17009	16104	0	528
30.256	33.321	16634	16011	0	528
30.004	33.898	16634	15870	0	528
33.141	33.646	16634	15730	0	528
34.728	32.636	16634	15637	0	528
31.807	29.895	16634	15637	0	528
25.676	25.929	16634	15730	0	528
18.824	21.962	17009	15917	0	528
19.149	18.175	17009	15964	0	528
24.053	17.851	17009	15870	0	528
30.436	18.103	17009	15777	0	528
30.508	17.995	17009	15777	0	528
26.253	15.398	17009	15824	0	528
19.041	12.045	17009	15870	0	528
17.815	7.465	17009	15917	0	528
18.356	7.321	17009	15917	0	528
19.870	7.898	17009	15964	0	528
19.618	11.828	17009	16011	0	528
17.598	13.992	17009	16011	0	528
18.608	17.274	17009	15917	0	528
19.906	18.644	17009	15824	0	528
23.116	20.159	17009	15730	0	528
23.873	21.241	16634	15637	0	528
25.099	23.729	16634	15590	0	528
25.424	24.847	16634	15543	0	528
28.345	26.433	16634	15497	0	528
32.059	29.138	16634	15450	0	528
35.521	31.013	16634	15450	0	528
37.360	30.112	16384	15497	0	528
35.016	28.886	16384	15543	0	528
29.968	25.171	16384	15637	0	528
22.431	18.716	16384	15824	0	528
16.012	14.461	16634	16104	0	528
12.694	13.379	16634	16338	0	528
13.631	15.651	16634	16430	0	528
14.569	16.913	16634	16524	0	528
15.543	17.598	16634	16664	0	528
13.451	12.009	16634	16804	0	528
12.730	5.590	16634	16898	0	528
13.595	0.974	17009	16991	0	528
16.408	0.865	17009	17038	0	528
22.683	5.481	17009	17084	0	528
26.614	10.963	17009	17131	0	528
27.299	14.713	16634	17131	0	528
24.739	17.382	16634	17084	0	528
22.755	18.211	17009	17038	0	528
19.906	20.123	17009	16991	0	528
21.709	23.873	17009	16991	0	528
25.207	27.443	17009	16991	0	528
28.850	30.833	17009	17038	0	528
31.807	31.338	17009	17038	0	528
36.639	31.446	17259	17038	0	528
41.363	31.987	17259	16944	0	528
45.294	33.321	17259	16898	0	528
48.972	33.934	17259	16898	0	528
50.270	33.646	17259	16851	0	528
48.215	34.692	17259	16804	0	528
48.720	37.144	17259	16711	0	528
48.576	40.173	17259	16617	0	528
48.720	42.589	17634	16617	0	528
46.520	41.219	17634	16711	0	528
44.068	36.639	17634	16757	0	528
40.606	33.502	17634	16664	0	528
38.262	30.184	17634	16570	0	528
39.199	29.499	17259	16430	0	528
40.353	28.489	17259	16291	0	528
41.183	24.053	17259	16151	0	528
36.098	17.995	17259	16011	0	528
29.895	9.448	17259	15870	0	528
22.178	0.469	17259	15777	0	528
20.267	-4.075	17259	15637	0	528
23.837	-2.957	17009	15450	0	528
30.112	2.993	17009	15263	0	528
31.915	10.638	17009	15076	0	528
26.902	15.975	16634	15076	0	528
18.788	15.218	16634	15076	0	528
14.605	8.691	16634	15123	0	528
20.808	2.921	16634	15216	0	528
31.807	-1.587	16634	15310	0	528
39.055	0.144	16634	15450	0	528
34.547	2.813	16634	15637	0	528
17.743	3.859	16634	15870	0	528
1.515	-0.180	16634	16151	0	528
-5.157	-6.816	16634	16338	0	528
-0.793	-11.576	16634	16384	0	528
7.068	-13.018	16634	16384	0	528
8.114	-11.648	16634	16338	0	528
0.541	-11.973	16634	16198	0	528
-13.091	-17.129	16634	16011	0	528
-23.765	-25.568	16384	15824	0	528
-27.155	-34.295	16384	15777	0	528
-24.775	-40.389	16384	15777	0	528
-21.457	-40.894	16384	15777	0	528
-17.562	-36.170	16134	15870	0	528
-18.175	-30.436	16134	16011	0	528
-20.880	-29.210	16384	16198	0	528
-24.450	-34.331	16384	16291	0	528
-26.073	-43.274	16384	16384	0	528
-27.551	-49.261	16384	16384	0	528
-25.424	-45.114	16134	16477	0	528
-21.565	-31.518	16134	16477	0	528
-17.743	-16.084	16134	16384	0	528
-15.398	-9.773	16134	16384	0	528
-14.894	-11.792	16134	16384	0	528
-16.552	-18.752	16134	16430	0	528
-15.146	-21.709	16134	16524	0	528
-9.809	-19.582	16134	16524	0	528
-2.957	-13.018	16134	16617	0	528
-1.046	-8.907	16134	16711	0	528
-3.967	-10.350	16134	16804	0	528
-11.576	-13.668	16134	16944	0	528
-16.697	-16.661	16384	17084	0	528
-19.041	-17.995	16384	17225	0	528
-15.975	-16.913	16384	17365	0	528
-12.225	-14.425	16634	17552	0	528
-9.917	-12.189	16634	17692	0	528
-6.239	-10.566	16634	17739	0	528
-3.967	-9.160	16634	17552	0	528
-3.029	-10.674	16634	17271	0	528
-3.967	-12.081	16634	17038	0	528
-6.094	-15.002	16634	16804	0	528
-8.006	-15.146	16634	16570	0	528
-6.635	-14.136	16384	16338	0	528
-4.327	-11.576	16384	16151	0	528
-0.865	-7.357	16384	16011	0	528
2.019	-2.849	16134	15777	0	528
5.950	2.524	16134	15450	0	528
10.710	9.196	15759	15170	0	528
17.202	12.369	15759	15029	0	528
23.693	13.235	15759	15123	0	528
29.571	13.091	15759	15356	0	528
36.783	14.785	15759	15590	0	528
42.842	23.368	15759	15684	0	528
46.159	34.223	15759	15777	0	528
45.691	40.786	15759	15917	0	528
42.589	39.668	15759	16057	0	528
44.573	32.384	15759	16198	0	528
51.569	28.309	15759	16291	0	528
62.856	34.223	15759	16338	0	528
66.823	45.691	15759	16384	0	528
62.495	52.795	15759	16477	0	528
49.477	50.415	15759	16524	0	528
40.353	39.740	15759	16524	0	528
37.216	29.246	15759	16524	0	528
38.658	25.929	15759	16570	0	528
41.580	26.325	16134	16617	0	528
40.317	27.010	16134	16617	0	528
40.137	24.053	16134	16617	0	528
45.150	23.909	16134	16664	0	528
52.831	27.515	16134	16711	0	528
59.322	34.295	16134	16617	0	528
60.332	38.514	16134	16524	0	528
57.483	37.144	15759	16384	0	528
52.074	30.797	15759	16291	0	528
50.811	25.604	15759	16057	0	528
51.713	23.404	15509	15777	0	528
50.811	25.604	15509	15590	0	528
50.270	30.617	15134	15543	0	528
50.739	35.341	15134	15543	0	528
51.893	38.262	15134	15543	0	528
53.624	39.091	15134	15637	0	528
52.074	36.711	15134	15824	0	528
47.566	32.131	15134	15964	0	528
41.724	27.804	15134	16104	0	528
38.803	22.719	15134	16338	0	528
41.291	16.552	15134	16524	0	528
42.734	10.819	15134	16664	0	528
40.317	8.547	15509	16711	0	528
34.764	14.208	15759	16804	0	528
25.640	21.024	15509	16944	0	528
20.808	25.171	15509	17038	0	528
18.644	19.546	15759	17131	0	528
19.690	8.583	15759	17131	0	528
22.827	1.803	15759	17084	0	528
27.299	6.239	15759	17038	0	528
33.682	19.473	15509	16898	0	528
39.019	29.102	15509	16664	0	528
39.812	29.463	15509	16384	0	528
37.757	21.998	15509	16291	0	528
33.538	15.326	15509	16291	0	528
33.285	16.589	15509	16384	0	528
36.170	24.125	15509	16524	0	528
40.353	29.463	15509	16570	0	528
43.779	30.400	15509	16664	0	528
47.241	26.722	15509	16757	0	528
48.756	24.378	15509	16898	0	528
46.881	21.890	15509	16991	0	528
43.094	21.673	16134	17178	0	528
33.718	17.706	16134	17318	0	528
26.506	14.497	16134	17458	0	528
22.034	10.710	16384	17505	0	528
22.899	9.881	16384	17552	0	528
28.453	10.097	16384	17645	0	528
34.800	8.835	16634	17739	0	528
41.724	9.701	16634	17785	0	528
47.602	11.360	17009	17832	0	528
50.126	14.533	16634	17739	0	528
45.799	15.507	16634	17598	0	528
37.468	12.153	16634	17365	0	528
25.748	5.229	16634	17084	0	528
17.562	0.974	16634	16804	1	820
17.093	3.931	16634	16570	0	820
24.125	13.523	16634	16338	0	820
33.249	22.863	16384	16011	0	820
37.901	24.955	16384	15684	0	820
37.793	19.798	16384	15356	0	820
33.646	10.422	16134	15029	0	820
30.508	8.186	16134	14749	0	820
31.662	9.953	15759	14562	0	820
32.420	15.038	15759	14469	0	820
32.420	16.697	15509	14515	0	820
29.571	12.369	15759	14656	0	820
26.902	6.203	15759	14936	0	820
23.332	0.216	16134	15263	0	820
22.395	-2.885	16134	15637	0	820
19.618	-4.039	16134	16057	0	820
16.805	-7.753	16384	16384	0	820
13.740	-9.809	16384	16664	0	820
13.235	-11.648	16384	16898	0	820
11.035	-10.386	16634	17084	0	820
9.448	-8.727	16634	17131	0	820
7.104	-6.996	16634	17131	0	820
5.193	-8.439	16634	17084	0	820
5.301	-10.133	16634	17178	0	820
7.537	-10.819	17009	17271	0	820
11.323	-7.357	17009	17412	0	820
16.661	-2.452	16634	17458	0	820
20.880	2.128	17009	17412	0	820
26.001	5.157	17009	17271	0	820
26.542	5.878	17009	17131	0	820
26.037	4.291	17009	16944	0	820
24.739	2.849	17009	16804	0	820
25.856	3.426	17009	16664	0	820
31.410	5.662	17009	16524	0	820
37.973	12.045	17009	16384	0	820
44.104	18.860	17009	16338	0	820
48.035	24.306	17009	16198	0	820
48.576	26.542	16634	15964	0	820
49.225	27.696	16634	15730	0	820
50.343	26.578	16634	15497	0	820
49.910	25.748	16384	15403	0	820
48.684	23.116	16384	15310	0	820
44.645	18.933	16384	15216	0	820
41.616	15.398	16384	15170	0	820
37.973	13.740	16134	15123	0	820
34.620	16.012	16134	15076	0	820
32.348	20.087	16134	14889	0	820
28.886	23.549	15759	14702	0	820
26.974	27.155	15509	14515	0	820
27.732	27.624	15509	14422	0	820
30.472	27.047	15134	14375	0	820
35.377	26.866	15134	14469	0	820
38.442	30.112	15134	14656	0	820
40.930	38.226	14884	14889	0	820
42.229	47.530	15134	15216	0	820
44.861	53.985	15134	15497	0	820
46.845	52.398	15134	15684	0	820
51.352	47.999	15134	15870	0	820
55.391	46.195	15134	16057	0	820
58.132	50.307	15134	16198	0	820
57.411	57.519	15134	16338	0	820
57.050	59.502	15134	16477	0	820
56.004	53.841	15134	16757	0	820
51.749	41.724	15134	17038	0	820
48.720	31.266	15509	17412	0	820
43.491	23.296	15509	17832	0	820
40.570	21.673	15759	18159	0	820
39.524	21.854	15759	18346	0	820
39.596	23.981	16134	18580	0	820
41.039	24.378	16134	18813	0	820
36.711	22.972	16384	18954	0	820
32.276	19.401	16384	18907	0	820
30.761	14.533	16634	18767	0	820
31.194	11.973	16634	18673	0	820
31.735	13.704	16634	18533	0	820
29.282	15.398	16634	18393	0	820
23.765	17.851	17009	18206	0	820
18.500	17.815	17009	17926	0	820
15.615	14.100	17009	17552	0	820
15.290	8.258	16634	17178	1	316
16.589	2.128	16634	16804	0	316
20.772	-3.570	16634	16524	0	316
25.893	-5.409	16634	16291	0	316
34.547	-3.606	16634	16057	0	316
38.622	0.144	16384	15684	0	316
32.636	1.082	16384	15310	0	316
17.382	-3.750	16134	15029	0	316
0.829	-11.648	16134	14936	0	316
-8.655	-19.221	16134	14842	0	316
-2.993	-20.808	16134	14889	0	316
14.569	-18.247	16134	15076	0	316
29.859	-12.189	16134	15310	0	316
32.059	-10.314	16134	15497	0	316
13.992	-13.776	16134	15777	0	316
-10.350	-19.906	16134	16057	0	316
-26.578	-27.443	16384	16291	0	316
-22.034	-31.194	16384	16477	0	316
-3.210	-32.348	16634	16804	0	316
12.009	-28.309	16634	17084	0	316
12.153	-20.772	17009	17318	0	316
-3.462	-15.831	17009	17552	0	316
-21.601	-13.415	17259	17739	0	316
-26.614	-18.933	17259	17879	0	316
-18.933	-26.470	17634	17926	0	316
-5.590	-31.302	17634	17926	0	316
3.787	-28.886	17634	17879	0	316
2.380	-21.673	17884	17785	0	316
-7.032	-17.202	17884	17598	0	316
-14.641	-18.428	17884	17318	0	316
-16.300	-24.811	17884	17038	0	316
-12.189	-30.076	17884	16617	0	316
-6.491	-30.869	17634	16198	0	316
-4.183	-26.830	17259	15824	0	316
-3.606	-23.188	17259	15590	0	316
-4.868	-22.286	17259	15450	0	316
-4.977	-22.827	17009	15263	0	316
-6.419	-25.099	17009	15123	0	316
-8.114	-23.368	17009	14983	0	316
-10.999	-20.808	16634	14936	0	316
-9.160	-19.978	16634	14796	0	316
-5.373	-24.053	16634	14609	0	316
-2.128	-31.735	16384	14469	0	316
-4.796	-38.262	16384	14375	0	316
-11.287	-38.695	16134	14375	0	316
-17.490	-33.069	16134	14328	0	316
-16.841	-24.342	16134	14375	0	316
-8.330	-18.536	15759	14469	0	316
1.082	-19.510	15759	14609	0	316
5.770	-22.611	15759	14796	0	316
0.613	-25.063	15759	14983	0	316
-11.792	-25.965	15759	15216	0	316
-20.159	-26.109	15509	15450	0	316
-18.500	-23.008	15509	15590	0	316
-4.868	-18.644	15509	15684	0	316
13.163	-10.242	15759	15824	0	316
25.279	-0.072	15759	16057	0	316
25.965	6.022	15759	16384	0	316
20.050	5.626	15759	16617	0	316
13.848	0.577	15759	16757	0	316
14.677	-3.714	15759	16804	0	316
16.949	-4.508	15759	16851	0	316
21.565	0.325	15759	16944	0	316
21.168	4.940	15759	17038	0	316
19.365	7.212	15759	17178	0	316
18.536	6.491	16134	17365	0	316
18.680	4.327	16134	17505	0	316
19.365	4.255	16134	17598	0	316
19.365	3.787	16134	17739	0	316
19.834	3.426	16384	17879	0	316
20.231	2.344	16384	17926	0	316
20.375	0.613	16384	17879	0	316
17.851	0.325	16384	17785	0	316
15.398	1.442	16384	17692	0	316
12.622	3.606	16634	17739	0	316
10.710	4.364	16634	17879	0	316
12.189	3.426	16634	17926	0	316
16.516	4.364	17009	17879	0	316
19.257	7.285	17009	17692	0	316
24.089	12.802	17009	17552	0	316
26.686	19.221	17009	17412	0	316
29.282	23.368	17009	17225	0	316
31.302	26.325	17009	17038	0	316
35.737	26.758	17009	16851	0	316
39.704	26.145	17009	16757	0	316
41.183	25.965	17009	16711	0	316
40.065	23.008	17259	16664	0	316
35.629	18.247	17259	16617	0	316
30.905	14.930	17009	16524	0	316
31.410	14.245	17009	16384	0	316
34.079	17.310	17009	16151	0	316
38.586	22.611	16634	15964	0	316
40.858	25.063	16634	15824	0	316
38.442	25.099	16634	15777	0	316
33.466	20.483	16634	15637	0	316
27.696	15.398	16634	15543	0	316
24.630	12.153	16634	15403	0	316
23.729	11.287	16384	15310	0	316
24.883	9.629	16384	15216	0	316
26.506	10.746	16384	15123	0	316
26.686	9.917	16384	15029	0	316
27.587	10.133	16134	14936	0	316
27.443	10.278	16134	14842	0	316
25.784	9.124	16134	14842	0	316
24.017	9.016	15759	14842	0	316
23.260	9.304	15759	14983	0	316
23.873	13.199	15759	15123	0	316
30.040	18.716	15759	15216	0	316
37.396	25.352	15509	15216	0	316
43.058	29.968	15509	15263	0	316
46.520	31.879	15759	15403	0	316
44.573	32.528	15759	15543	0	316
43.996	33.033	15759	15637	0	316
44.248	34.980	15759	15777	0	316
47.061	36.170	15759	16057	0	316
50.343	37.829	15759	16338	0	316
51.893	37.000	15759	16570	0	316
49.225	33.934	15759	16898	0	316
46.772	32.131	16134	17225	0	316
43.599	28.814	16134	17458	0	316
41.724	27.515	16134	17505	0	316
38.154	25.893	16134	17505	0	316
32.853	22.070	16134	17365	0	316
22.719	15.975	16134	17131	0	316
15.975	9.340	16134	16944	0	316
13.920	2.669	16134	16851	0	316
19.365	2.741	16134	16804	0	316
28.597	6.239	16134	16711	0	316
33.862	12.009	16134	16664	0	316
31.230	14.641	15759	16617	0	316
23.404	12.441	15759	16617	0	316
18.139	6.780	15759	16570	0	316
22.467	3.173	15759	16524	0	316
34.583	3.354	15759	16524	0	316
48.503	7.321	15759	16570	0	316
52.903	11.287	16134	16757	0	316
44.140	11.648	16134	16851	0	316
31.771	10.350	16134	16851	0	316
21.313	9.520	16134	16944	0	316
19.185	8.366	16134	17084	0	316
23.945	9.484	16384	17271	0	316
26.650	9.376	16384	17458	0	316
23.729	9.592	16634	17598	0	316
17.562	7.681	16634	17692	0	316
13.920	5.626	16634	17692	0	316
15.831	1.623	16634	17552	0	316
19.329	-1.334	17009	17458	0	316
20.375	-1.154	17009	17458	0	316
12.946	-1.226	17009	17458	0	316
1.442	-3.606	17009	17412	0	316
-4.940	-12.477	17259	17225	0	316
-3.282	-20.447	17259	17178	0	316
3.931	-26.037	17259	17225	0	316
5.590	-24.378	17634	17318	0	316
-3.642	-21.313	17634	17318	0	316
-19.654	-24.811	17634	17225	0	316
-27.047	-31.554	17634	17038	0	316
-21.313	-37.324	17884	16804	0	316
-6.671	-38.118	17884	16617	0	316
3.426	-35.052	17634	16430	0	316
