neuroNicle FX2
D3F25R12
Bluetooth SPP
2023년 11월 6일 월요일
오후 4:31
time interval = 4msec
EEG1	EEG2	PPG	sdPPG	pulse	peak_interval(msec)
-32.167	-44.681	16018	15589	0	316
-25.784	-39.235	16004	15344	0	316
-20.700	-36.387	15994	15150	0	316
-16.444	-34.403	15991	15170	0	316
-14.064	-32.456	15988	15313	0	316
-11.937	-31.807	15988	15446	0	316
-13.595	-30.220	15980	15538	0	316
-13.235	-28.814	15986	15680	0	316
-11.179	-24.162	15988	15925	0	316
-6.635	-17.310	15999	16242	0	316
-3.101	-13.668	16007	16537	0	316
-0.288	-9.484	16015	16781	0	316
-1.659	-11.864	16026	16986	0	316
-4.544	-16.697	16034	17210	0	316
-6.599	-19.942	16058	17557	0	316
-8.619	-21.709	16080	18006	0	316
-8.222	-21.565	16110	18486	0	316
-11.576	-24.017	16137	18904	0	316
-16.552	-31.626	16163	19220	0	316
-24.919	-42.481	16190	19435	0	316
-30.436	-50.234	16215	19608	0	316
-35.557	-53.805	16236	19700	0	316
-34.692	-49.477	16269	19720	0	316
-30.148	-39.091	16282	19690	0	316
-24.017	-32.348	16296	19486	0	316
-19.329	-20.916	16309	19190	0	316
-11.648	-16.697	16341	19169	0	316
-9.052	-11.864	16366	19363	1	436
-6.635	-11.792	16382	19332	0	436
-5.445	-14.172	16386	18914	0	436
-8.943	-18.067	16386	18302	0	436
-12.622	-23.260	16389	17781	0	436
-14.245	-25.532	16386	17312	0	436
-10.061	-23.116	16363	16465	0	436
-3.246	-18.716	16317	15191	0	436
3.859	-10.530	16285	14038	0	436
6.311	-5.626	16261	13425	0	436
5.373	-5.337	16247	13221	0	436
-3.282	-10.530	16223	13068	0	436
-11.360	-18.464	16207	12864	0	436
-15.074	-22.863	16190	12762	0	436
-10.891	-19.690	16188	12884	0	436
0.974	-9.124	16182	13221	0	436
16.769	4.436	16201	13793	0	436
24.739	14.064	16209	14466	0	436
22.106	12.802	16228	15027	0	436
8.799	4.364	16231	15405	0	436
0.541	-4.616	16236	15609	0	436
-0.469	-6.022	16247	15772	0	436
10.746	4.580	16250	16068	0	436
28.092	24.919	16263	16435	0	436
45.005	43.274	16285	16771	0	436
55.752	55.103	16296	17108	0	436
57.843	56.329	16317	17506	0	436
56.329	51.965	16328	17771	0	436
51.893	46.989	16325	17598	0	436
52.759	47.890	16317	17057	0	436
54.670	50.270	16301	16608	0	436
61.882	55.536	16287	16313	0	436
63.649	56.978	16277	16017	0	436
65.741	57.411	16274	15833	0	436
63.505	52.470	16271	15823	0	436
61.882	48.251	16269	15864	0	436
61.450	42.842	16261	15793	0	436
61.666	43.743	16258	15691	0	436
63.902	47.277	16263	15844	0	436
64.623	56.257	16274	16242	0	436
63.145	58.925	16296	16639	0	436
58.024	53.191	16301	16914	0	436
50.379	43.815	16312	17057	0	436
48.756	35.629	16317	17159	0	436
51.641	36.567	16328	17281	0	436
57.627	45.078	16339	17343	0	436
64.840	51.713	16336	17210	0	436
65.777	56.004	16336	17026	0	436
63.577	52.290	16341	17037	0	436
59.935	50.090	16363	17292	0	436
53.732	45.799	16384	17710	0	436
49.549	41.616	16410	18139	0	436
43.924	36.855	16429	18445	0	436
41.760	30.797	16454	18618	0	436
40.786	26.217	16472	18792	0	436
39.452	22.647	16499	18904	0	436
36.314	24.847	16510	18843	0	436
37.180	28.056	16521	18649	0	436
41.075	37.144	16537	18465	0	436
45.186	40.966	16551	18332	0	436
46.736	38.983	16561	18261	0	436
45.258	30.725	16578	18200	0	436
37.252	20.159	16591	18149	0	436
32.131	14.785	16605	18067	0	436
31.662	15.074	16621	17935	0	436
32.312	18.897	16626	17730	0	436
33.754	19.870	16642	17577	0	436
36.278	21.241	16667	17659	0	436
39.993	23.368	16685	17894	0	436
44.969	24.162	16702	17914	0	436
46.448	27.660	16702	17567	0	436
45.258	30.256	16699	17047	0	436
38.442	26.794	16702	16577	0	436
29.354	19.257	16696	16231	0	436
23.260	12.982	16693	15966	0	436
20.664	9.232	16688	15691	0	436
23.765	11.179	16680	15323	0	436
27.443	19.546	16675	14976	0	436
28.417	23.404	16661	14711	0	436
26.181	20.988	16653	14476	0	436
22.575	15.507	16642	14252	0	436
17.959	10.891	16626	14038	0	436
18.356	11.396	16615	13854	0	436
20.700	16.625	16605	13782	0	436
21.457	17.562	16602	13925	0	436
22.791	15.110	16605	14201	0	436
21.277	8.583	16594	14323	0	436
22.322	6.167	16561	13895	0	436
20.411	7.501	16499	12854	0	436
20.664	13.018	16443	11660	0	436
21.060	16.192	16389	10844	0	436
18.860	16.552	16344	10476	0	436
19.654	13.451	16290	10221	0	436
19.149	10.025	16250	9987	0	436
19.546	8.186	16207	10017	0	436
18.933	7.681	16182	10415	0	436
18.752	4.183	16161	10946	0	436
15.290	2.633	16147	11497	0	436
12.477	1.010	16128	12058	0	436
9.016	0.000	16110	12640	0	436
5.085	-1.659	16110	13303	0	436
4.508	-2.777	16107	14038	0	436
4.255	-4.616	16107	14793	0	436
3.642	-5.049	16107	15497	0	436
2.019	-3.750	16101	16007	0	436
2.488	-3.318	16107	16404	0	436
5.337	-3.173	16112	16965	0	436
11.612	-5.481	16134	17720	0	436
18.536	-3.714	16147	18384	0	436
19.437	-1.226	16153	18802	0	436
15.867	0.469	16163	18955	0	436
8.294	-0.036	16166	19006	0	436
2.669	-4.940	16166	19067	0	436
0.974	-11.468	16174	19139	0	436
-1.911	-16.084	16169	19128	0	436
-3.462	-19.510	16177	19047	0	436
-6.347	-17.238	16180	19047	0	436
-5.481	-15.831	16196	19190	0	436
-3.642	-11.612	16209	19424	0	436
-0.216	-13.487	16231	19608	0	436
-3.173	-17.129	16236	19628	0	436
-12.189	-27.371	16247	19496	0	436
-25.712	-40.570	16261	19363	0	436
-39.163	-54.093	16271	19322	0	436
-46.628	-58.745	16277	19241	0	436
-50.198	-61.342	16282	18945	1	500
-49.874	-61.161	16277	18526	0	500
-54.021	-60.945	16277	18159	0	500
-59.899	-67.688	16277	17894	0	500
-67.797	-77.569	16282	17669	0	500
-71.836	-82.907	16277	17435	0	500
-67.580	-84.169	16274	17159	0	500
-58.060	-77.678	16271	16863	0	500
-47.241	-65.020	16261	16516	0	500
-40.858	-54.850	16258	16231	0	500
-37.432	-44.933	16263	16201	0	500
-36.062	-41.039	16271	16435	0	500
-32.853	-41.976	16274	16557	0	500
-26.073	-42.734	16269	16333	0	500
-21.349	-42.301	16258	15874	0	500
-18.933	-40.894	16236	15456	0	500
-23.080	-42.048	16223	15099	0	500
-27.696	-42.734	16193	14660	0	500
-30.869	-48.828	16166	14078	0	500
-34.620	-53.408	16126	13476	0	500
-36.242	-57.988	16099	13058	0	500
-39.344	-59.647	16075	12884	0	500
-43.166	-58.529	16058	12884	0	500
-47.926	-57.483	16039	13027	0	500
-53.047	-58.168	16029	13252	0	500
-57.483	-57.627	16026	13589	0	500
-56.978	-60.151	16026	14089	0	500
-54.237	-60.765	16039	14721	0	500
-44.897	-55.211	16053	15425	0	500
-33.934	-50.884	16056	15976	0	500
-27.551	-45.835	16048	16109	0	500
-25.243	-41.868	16042	16007	0	500
-27.587	-39.560	16048	16150	0	500
-27.335	-34.583	16056	16598	0	500
-23.080	-28.453	16072	17159	0	500
-15.687	-18.247	16093	17649	0	500
-5.734	-12.694	16093	17863	0	500
-1.731	-6.888	16099	17812	0	500
1.226	-4.760	16101	17863	0	500
2.164	-7.862	16123	18077	0	500
3.823	-9.304	16137	18343	0	500
6.275	-12.045	16147	18577	0	500
4.327	-14.100	16163	18679	0	500
-1.190	-14.172	16177	18649	0	500
-2.885	-9.845	16190	18720	0	500
1.587	-3.065	16215	18965	0	500
11.251	4.580	16234	19200	0	500
20.050	12.766	16247	19241	0	500
23.693	13.523	16261	19088	0	500
15.903	7.104	16274	18955	0	500
6.419	-0.216	16296	18965	0	500
0.685	-6.780	16317	19088	0	500
6.888	-1.154	16339	19200	0	500
21.421	12.910	16358	19179	0	500
38.695	34.367	16384	19118	0	500
52.398	52.254	16402	19179	0	500
60.296	61.233	16432	19312	0	500
58.673	62.820	16456	19384	0	500
58.961	60.368	16481	19322	0	500
62.784	60.873	16505	19230	0	500
68.193	62.423	16532	19230	0	500
73.530	66.174	16572	19404	0	500
76.992	71.150	16605	19659	0	500
77.209	76.127	16642	19812	0	500
75.514	80.310	16675	19812	0	500
73.422	81.067	16707	19751	0	500
69.924	74.684	16739	19771	0	500
63.686	61.522	16782	19863	0	500
58.132	52.975	16820	19955	0	500
58.312	49.910	16855	19975	0	500
58.132	50.847	16890	19873	0	500
58.240	54.273	16923	19659	0	500
54.742	52.903	16941	19384	0	500
47.818	45.655	16968	19026	0	500
44.176	41.616	16985	18649	0	500
45.763	40.606	17003	18210	0	500
49.225	44.140	17003	17577	0	500
51.280	46.881	16998	16771	0	500
50.162	46.736	16995	16058	0	500
44.789	40.137	16990	15487	1	316
41.471	35.233	16982	14905	0	316
40.137	31.626	16963	14211	0	316
40.534	31.013	16944	13476	0	316
41.580	34.728	16923	12884	0	316
41.327	38.118	16909	12538	0	316
42.481	39.308	16890	12344	0	316
42.625	40.966	16882	12180	0	316
44.753	37.396	16861	11956	0	316
41.832	31.482	16842	11752	0	316
35.593	22.178	16817	11599	0	316
23.188	12.514	16796	11507	0	316
11.828	3.354	16782	11548	0	316
7.393	1.190	16766	11670	0	316
11.864	8.150	16753	11844	0	316
29.427	21.962	16747	12129	0	316
44.068	37.829	16742	12619	0	316
56.726	48.323	16747	13221	0	316
56.726	47.458	16742	13670	0	316
50.920	40.173	16726	13772	0	316
42.012	29.823	16710	13680	0	316
38.947	25.929	16702	13782	0	316
39.993	26.037	16696	14129	0	316
43.130	29.643	16688	14507	0	316
43.635	31.699	16696	14864	0	316
41.688	32.384	16688	15221	0	316
38.298	27.047	16693	15558	0	316
35.485	23.549	16693	15854	0	316
34.908	22.250	16693	16119	0	316
35.990	17.815	16696	16333	0	316
34.475	17.887	16688	16455	0	316
29.823	16.084	16680	16424	0	316
27.083	16.841	16669	16313	0	316
22.431	14.136	16667	16282	0	316
22.178	14.821	16648	16252	0	316
22.431	11.864	16615	15813	0	316
22.683	11.179	16572	14925	0	316
24.630	15.038	16524	14068	0	316
20.447	13.595	16494	13640	0	316
17.166	13.199	16467	13578	0	316
12.405	8.511	16451	13721	0	316
8.727	4.580	16432	13956	0	316
8.907	4.652	16413	14109	0	316
9.376	4.472	16384	14048	0	316
10.422	5.698	16366	13884	0	316
10.314	5.842	16341	13936	0	316
10.422	8.619	16331	14293	0	316
14.100	15.146	16323	14731	0	316
20.808	22.142	16323	15201	0	316
24.342	22.827	16331	15803	0	316
22.899	18.247	16349	16598	0	316
19.582	8.943	16371	17445	0	316
13.487	5.013	16386	18077	0	316
12.694	4.291	16386	18312	0	316
14.930	7.970	16389	18281	0	316
17.454	10.710	16400	18404	0	316
19.942	6.419	16413	18781	0	316
15.362	1.659	16429	19139	0	316
13.740	-1.442	16445	19394	0	316
11.864	0.541	16467	19618	0	316
14.641	6.563	16483	19843	0	316
16.949	9.340	16510	20047	0	316
14.425	8.402	16526	20139	0	316
12.081	2.633	16540	20118	0	316
3.823	-4.724	16551	19955	0	316
2.236	-9.629	16551	19537	0	316
4.003	-9.448	16548	18965	0	316
8.114	-7.140	16548	18486	0	316
14.713	-1.479	16540	18149	0	316
15.795	3.859	16545	17863	0	316
17.238	4.977	16540	17608	0	316
12.730	2.416	16545	17384	0	316
4.868	-6.094	16548	17169	0	316
-1.803	-13.199	16545	17006	0	316
-6.275	-19.185	16553	16935	0	316
-4.760	-15.471	16553	16873	0	316
3.065	-8.583	16553	16720	0	316
9.845	-2.272	16551	16486	0	316
10.638	-2.669	16551	16282	0	316
2.452	-9.629	16545	16129	1	316
-12.658	-23.152	16551	16038	0	316
-26.830	-30.364	16545	15925	0	316
-29.499	-32.997	16534	15752	0	316
-22.972	-28.092	16534	15578	0	316
-12.297	-21.277	16526	15517	0	316
-6.563	-16.733	16534	15568	0	316
-11.540	-22.214	16526	15527	0	316
-28.994	-33.826	16507	15262	0	316
-47.205	-55.283	16494	14895	0	316
-58.925	-70.934	16481	14660	0	316
-64.299	-79.986	16467	14589	0	316
-61.089	-77.353	16454	14497	0	316
-56.149	-69.996	16437	14374	0	316
-56.257	-64.623	16424	14262	0	316
-55.680	-65.525	16410	14201	0	316
-55.716	-64.443	16405	14313	0	316
-53.408	-61.305	16405	14629	0	316
-49.477	-58.312	16405	14987	0	316
-47.962	-54.201	16389	15068	0	316
-50.487	-57.880	16371	14833	0	316
-52.506	-64.731	16352	14466	0	316
-52.975	-68.338	16325	14180	0	316
-46.953	-67.724	16301	14038	0	316
-40.750	-59.358	16285	14027	0	316
-31.049	-50.992	16269	14129	0	316
-30.328	-43.022	16258	14272	0	316
-30.148	-41.760	16247	14446	0	316
-36.423	-47.025	16236	14670	0	316
-42.445	-52.759	16234	15007	0	316
-46.015	-59.214	16234	15354	0	316
-44.032	-55.499	16220	15568	0	316
-35.882	-49.189	16217	15650	0	316
-25.532	-38.947	16204	15711	0	316
-17.274	-32.384	16201	15844	0	316
-13.451	-28.633	16190	15987	0	316
-19.041	-31.158	16182	16058	0	316
-21.709	-32.744	16169	16048	0	316
-25.856	-34.079	16163	16068	0	316
-21.349	-34.115	16153	16191	0	316
-16.552	-33.141	16155	16354	0	316
-10.674	-32.925	16150	16465	0	316
-12.766	-31.662	16142	16547	0	316
-17.670	-32.925	16139	16628	0	316
-27.047	-32.816	16139	16710	0	316
-33.574	-35.665	16134	16832	0	316
-36.026	-37.649	16134	16945	0	316
-36.459	-40.750	16128	16996	0	316
-35.665	-41.399	16126	17016	0	316
-32.312	-40.173	16126	17026	0	316
-29.102	-35.810	16126	17057	0	316
-22.755	-31.915	16120	17077	0	316
-21.962	-29.030	16120	17088	0	316
-21.132	-27.587	16120	17108	0	316
-22.611	-29.499	16115	17139	0	316
-21.637	-25.820	16123	17241	0	316
-11.143	-20.916	16139	17516	0	316
-2.993	-13.704	16147	17884	0	316
4.796	-8.871	16161	18077	0	316
4.327	-7.862	16163	18047	0	316
-1.154	-8.439	16166	17894	0	316
-6.816	-9.340	16166	17761	0	316
-8.979	-6.924	16169	17710	0	316
-8.078	-5.229	16177	17720	0	316
-3.714	-5.914	16177	17690	0	316
-0.397	-6.094	16182	17588	0	316
4.508	-6.599	16190	17588	0	316
7.104	-7.537	16207	17761	0	316
11.432	-5.265	16220	17975	0	316
14.497	-1.695	16242	18179	0	316
19.401	4.472	16258	18343	0	316
25.063	14.605	16277	18486	0	316
35.197	25.929	16296	18628	0	316
41.904	34.620	16323	18720	0	316
46.917	36.855	16336	18751	0	316
45.546	34.944	16355	18812	0	316
42.986	32.276	16379	18945	0	316
44.501	34.187	16402	19118	0	316
53.768	42.661	16432	19281	0	316
64.479	52.218	16456	19404	0	316
75.009	64.154	16486	19414	0	316
81.464	72.196	16505	19281	0	316
85.755	77.533	16507	18894	0	316
86.044	80.851	16507	18312	0	316
86.188	78.327	16513	17812	0	316
80.310	74.107	16521	17455	0	316
71.439	64.118	16521	17149	0	316
63.686	58.168	16521	16812	0	316
62.748	54.273	16507	16344	0	316
68.842	60.079	16505	15772	0	316
78.219	66.498	16494	15313	0	316
84.061	73.422	16486	15048	0	316
81.897	72.376	16481	14905	0	316
71.186	63.866	16478	14752	0	316
58.853	53.696	16472	14578	0	316
50.307	46.556	16470	14538	0	316
49.838	43.671	16472	14701	0	316
52.759	43.851	16491	15007	0	316
60.079	42.120	16499	15333	0	316
63.036	44.897	16510	15629	0	316
61.991	45.871	16534	15976	0	316
59.106	45.871	16551	16384	0	316
49.080	44.609	16567	16741	0	316
43.238	39.849	16588	16965	0	316
37.360	33.646	16599	17077	0	316
36.314	31.843	16613	17159	0	316
38.442	35.124	16631	17292	0	316
41.183	39.344	16648	17537	0	316
40.822	42.012	16669	17771	0	316
40.966	41.219	16675	17720	0	316
41.111	39.488	16667	17251	0	316
42.770	38.875	16656	16618	0	316
47.530	41.760	16653	16242	0	316
51.352	48.936	16658	16160	0	316
52.074	50.090	16656	16119	0	316
44.717	43.599	16658	16068	0	316
37.541	36.170	16661	16038	0	316
29.787	28.489	16661	16007	0	316
23.657	25.388	16669	16038	0	316
22.214	27.912	16696	16384	0	316
26.614	30.400	16723	16986	0	316
28.453	33.466	16742	17424	0	316
35.088	34.439	16764	17567	0	316
40.714	36.278	16780	17628	0	316
43.094	38.767	16796	17669	0	316
46.123	40.353	16809	17730	0	316
46.340	41.363	16831	17843	0	316
45.114	43.238	16844	17914	0	316
45.150	39.885	16855	17832	0	316
42.120	36.711	16861	17649	0	316
37.144	31.049	16850	17179	0	316
32.420	25.279	16823	16282	0	316
25.207	19.618	16793	15272	0	316
20.664	15.939	16766	14507	0	316
18.644	13.740	16747	14048	0	316
23.512	17.959	16734	13884	0	316
28.777	23.404	16729	13946	0	316
32.492	27.587	16726	14129	0	316
30.148	24.089	16726	14344	0	316
25.640	21.241	16729	14619	0	316
23.080	19.437	16739	14966	0	316
22.972	20.159	16753	15395	0	316
25.820	22.503	16769	15854	0	316
26.181	22.358	16780	16221	0	316
21.421	15.975	16791	16424	0	316
15.290	13.920	16796	16547	0	316
14.461	15.110	16804	16659	0	316
14.533	17.382	16809	16761	0	316
16.156	19.834	16815	16802	0	316
17.418	16.625	16809	16679	0	316
15.362	15.723	16796	16364	0	316
16.192	13.668	16788	15987	0	316
16.480	17.202	16774	15711	0	316
20.916	16.949	16764	15527	0	316
20.880	17.598	16755	15446	0	316
21.745	17.598	16750	15425	0	316
23.585	20.772	16742	15395	0	316
24.811	22.791	16734	15313	0	316
26.578	22.863	358	3901	0	63
45.438	29.968	15721	18414	0	976
46.845	33.033	15756	18975	0	976
39.235	34.006	15786	19537	0	976
34.151	31.987	15827	20016	0	976
34.187	29.282	15859	20394	0	976
37.468	26.650	15899	20710	0	976
40.642	26.542	15948	21047	0	976
38.767	22.575	15988	21404	0	976
32.780	18.897	16029	21639	0	976
25.965	14.821	16066	21730	0	976
22.106	11.287	16112	21781	0	976
20.050	11.071	16153	21812	0	976
20.880	13.595	16188	21751	0	976
17.418	13.812	16228	21598	0	976
18.752	12.153	16258	21394	0	976
17.202	9.124	16287	21098	0	976
19.185	4.400	16304	20598	0	976
19.329	2.488	16325	19924	0	976
21.854	3.678	16339	19343	0	976
21.745	6.888	16355	18924	0	976
23.909	11.973	16368	18496	0	976
26.902	14.749	16376	17914	0	976
26.325	12.333	16379	17251	0	976
29.246	13.379	16386	16710	0	976
32.564	14.858	16397	16424	0	976
37.144	18.716	16413	16344	0	976
42.661	24.702	16429	16282	0	976
43.635	30.076	16437	16048	0	976
42.986	30.797	16443	15742	0	976
38.298	28.020	16456	15589	0	976
34.620	25.676	16472	15619	0	976
32.023	21.745	16491	15680	0	976
29.787	19.329	16505	15711	0	976
28.705	19.005	16513	15640	0	976
28.128	20.736	16513	15354	0	976
26.902	20.050	16507	14936	0	976
22.647	17.995	16507	14670	0	976
14.894	9.737	16510	14558	0	976
6.094	3.426	16507	14456	0	976
-1.515	-1.767	16507	14354	0	976
-2.380	-5.445	16505	14252	0	976
0.865	-0.902	16499	14191	0	976
4.436	2.705	16507	14272	0	976
8.186	3.498	16518	14507	0	976
8.763	4.147	16518	14691	0	976
7.104	-0.288	16518	14691	0	976
7.609	-4.724	16518	14619	0	976
7.681	-8.547	16510	14609	0	976
10.278	-6.527	16513	14670	0	976
11.251	-1.154	16510	14701	0	976
15.362	7.140	16494	14558	0	976
14.605	14.353	16481	14262	0	976
17.670	17.634	16464	13976	0	976
17.274	14.677	16443	13782	0	976
20.916	11.396	16429	13691	0	976
23.080	7.429	16416	13742	0	976
25.460	5.734	16413	13874	0	976
24.162	4.580	16410	14078	0	976
16.841	1.947	16405	14374	0	976
11.828	-1.082	16413	14772	0	976
8.799	-4.183	16416	15211	0	976
10.061	-5.157	16427	15589	0	976
15.182	-5.986	16437	15966	0	976
13.631	-8.114	16451	16404	0	976
9.340	-12.261	16467	16945	0	976
1.587	-17.634	16494	17465	0	976
-1.623	-15.975	16507	17832	0	976
1.551	-12.550	16521	18067	1	316
7.645	-6.780	16537	18210	0	316
12.550	-2.957	16545	18220	0	316
12.477	-4.832	16548	18098	0	316
10.097	-7.609	16559	18006	0	316
6.996	-8.439	16561	17986	0	316
9.448	-5.662	16572	17975	0	316
11.540	-0.180	16578	17935	0	316
15.867	2.849	16588	17884	0	316
15.543	1.190	16588	17771	0	316
14.533	-1.695	16594	17588	0	316
14.641	-5.590	16594	17394	0	316
16.156	-3.859	16599	17210	0	316
21.890	0.613	16594	17037	0	316
26.758	4.508	16594	16843	0	316
26.866	3.678	16599	16649	0	316
25.640	-0.865	16594	16516	0	316
20.664	-10.206	16588	16333	0	316
12.586	-16.913	16578	16078	0	316
10.169	-23.152	16580	15925	0	316
6.924	-24.414	16580	15946	0	316
8.475	-22.214	16586	16007	0	316
10.710	-19.473	16580	15987	0	316
14.569	-15.903	16580	15864	0	316
13.127	-17.598	16572	15711	0	316
10.602	-19.077	16572	15609	0	316
6.708	-20.050	16564	15589	0	316
3.390	-17.274	16561	15558	0	316
4.003	-14.605	16545	15374	0	316
6.311	-10.458	16518	14854	0	316
6.960	-13.199	16486	14180	0	316
10.350	-14.100	16459	13721	0	316
10.746	-14.281	16437	13538	0	316
14.208	-12.874	16413	13415	0	316
18.824	-6.888	16392	13313	0	316
22.322	0.974	16379	13344	0	316
26.974	5.626	16366	13497	0	316
28.453	7.140	16352	13701	0	316
26.325	6.094	16352	13976	0	316
25.388	3.029	16341	14303	0	316
22.863	0.613	16328	14517	0	316
23.296	1.659	16312	14548	0	316
26.001	4.400	16298	14558	0	316
30.689	11.468	16282	14629	0	316
34.656	15.326	16274	14731	0	316
35.341	20.267	16250	14813	0	316
33.718	18.860	16231	14721	0	316
26.578	13.631	16201	14476	0	316
18.897	6.708	16177	14252	0	316
12.910	1.298	16147	14150	0	316
12.153	2.056	16115	13997	0	316
17.202	6.708	16075	13680	0	316
22.647	13.018	16039	13344	0	316
29.030	21.601	16007	13221	0	316
34.151	22.214	15986	13384	0	316
34.547	22.358	15972	13772	0	316
35.016	19.978	15961	14262	0	316
35.737	17.670	15953	14762	0	316
37.216	21.132	15953	15293	0	316
39.524	24.702	15959	15884	0	316
40.606	26.361	15967	16547	0	316
41.111	26.001	15980	17210	0	316
38.406	22.899	15991	17741	0	316
35.016	18.175	16002	18169	0	316
32.023	16.372	16018	18608	0	316
28.597	13.776	16034	19037	0	316
23.801	13.054	16053	19424	0	316
21.277	10.999	16069	19690	0	316
18.644	8.583	16075	19720	0	316
18.428	7.104	16069	19435	0	316
15.435	6.744	16058	18975	0	316
11.792	4.796	16048	18486	0	316
7.068	1.262	16034	18037	0	316
5.517	-0.180	16026	17700	0	316
6.599	0.072	16015	17424	0	316
11.612	-0.180	15999	17098	0	316
14.894	2.813	15986	16741	0	316
12.622	2.272	15980	16588	0	316
9.448	-0.793	15986	16700	0	316
4.075	-3.534	15988	16884	0	316
0.216	-5.373	15986	16924	0	316
1.010	-4.400	15980	16832	0	316
3.678	-3.137	15980	16700	0	316
8.907	0.974	15980	16628	0	316
12.946	4.940	15977	16659	0	316
17.238	8.078	15977	16720	0	316
17.490	6.455	15975	16669	0	316
18.392	3.426	15967	16526	0	316
16.192	0.505	15964	16455	0	316
16.552	-0.541	15967	16486	0	316
16.156	2.416	15964	16526	0	316
19.726	6.131	15959	16414	0	316
22.827	10.025	15948	16211	0	316
26.253	12.333	15945	16058	0	316
26.289	10.638	15940	16048	0	316
21.132	7.248	15937	16099	0	316
18.103	3.606	15932	16109	0	316
14.605	-0.144	15926	16027	0	316
16.552	-1.659	15918	15905	0	316
14.245	-2.849	15910	15782	0	316
11.251	-6.491	15897	15691	0	316
3.137	-12.441	15891	15599	0	316
-2.813	-16.877	15878	15487	0	316
-1.370	-13.992	15856	15272	0	316
6.419	-8.222	15829	14884	0	316
15.254	0.613	15805	14415	0	316
23.837	5.698	15778	14078	0	316
23.801	5.662	15751	13925	0	316
21.781	2.092	15735	13895	0	316
22.647	1.947	15711	13844	0	316
23.729	4.183	15684	13731	0	316
28.056	12.045	15668	13670	0	316
31.482	17.454	15649	13762	0	316
30.508	19.077	15635	13976	0	316
29.066	17.454	15622	14231	0	316
24.775	12.333	15608	14436	0	316
19.041	5.517	15595	14599	0	316
14.317	-0.649	15581	14762	0	316
9.340	-1.731	15568	14803	0	316
9.484	-0.685	15535	14701	0	316
12.838	3.787	15506	14487	0	316
16.769	9.160	15465	14099	0	316
17.526	9.268	15428	13640	0	316
17.851	3.714	15401	13476	0	316
15.254	0.577	15374	13670	0	316
14.930	-2.669	15358	13946	0	316
13.812	-0.613	15341	14242	0	316
18.933	0.793	15328	14568	0	316
21.529	6.311	15312	14844	0	316
26.722	9.124	15287	14874	0	316
29.066	10.133	15261	14701	0	316
27.551	10.422	15234	14619	0	316
23.044	7.862	15209	14711	0	316
20.050	6.491	15185	14772	0	316
18.139	6.094	15158	14803	0	316
20.159	10.025	15150	14946	0	316
19.618	9.484	15131	15252	0	316
19.365	8.835	15123	15609	0	316
15.867	3.354	15112	15864	0	316
10.133	-3.065	15096	15997	0	316
5.698	-7.104	15088	16180	0	316
2.813	-8.655	15085	16526	0	316
2.813	-6.022	15088	17047	0	316
7.609	-1.046	15099	17567	0	316
11.540	3.137	15110	17996	0	316
10.386	1.839	15118	18445	0	316
2.200	-6.744	15142	18996	0	316
-10.602	-18.428	15163	19557	0	316
-20.880	-27.299	15190	20006	0	316
-23.152	-30.400	15207	20261	0	316
-16.264	-25.460	15223	20394	0	316
-7.717	-17.310	15244	20547	0	316
0.469	-8.763	15266	20741	0	316
4.472	-5.554	15287	20863	0	316
4.580	-8.511	15304	20822	0	316
-0.108	-11.504	15320	20659	0	316
-3.931	-17.346	15333	20465	0	316
-6.635	-22.322	15347	20251	0	316
-6.239	-18.392	15355	19986	1	632
1.298	-11.179	15360	19628	0	632
11.864	-1.262	15366	19179	0	632
17.526	2.741	15358	18649	0	632
18.320	1.190	15347	18006	0	632
9.737	-7.285	15341	17343	0	632
1.334	-14.317	15333	16945	0	632
-3.787	-16.661	15333	16751	0	632
-4.183	-9.953	15320	16384	0	632
1.370	-4.291	15301	15742	0	632
2.921	-3.750	15274	15068	0	632
2.200	-9.340	15258	14568	0	632
-0.865	-17.562	15236	14231	0	632
-1.587	-19.906	15209	13854	0	632
1.370	-18.500	15177	13354	0	632
5.806	-9.989	15150	12895	0	632
8.799	-4.796	15126	12691	0	632
8.799	-5.590	15118	12803	0	632
5.770	-11.035	15104	13109	0	632
1.839	-16.480	15099	13466	0	632
0.865	-20.736	15101	13823	0	632
2.524	-16.120	15099	14231	0	632
9.917	-9.376	15104	14752	0	632
17.526	2.056	15126	15384	0	632
22.322	10.242	15137	16048	0	632
25.135	15.218	15153	16577	0	632
24.775	16.516	15166	16996	0	632
20.664	14.930	15193	17455	0	632
22.863	17.815	15212	18006	0	632
26.578	18.788	15244	18588	0	632
30.833	23.693	15271	19057	0	632
30.364	23.152	15287	19312	0	632
29.715	21.818	15293	19230	0	632
23.188	18.283	15304	18965	0	632
19.437	13.271	15317	18822	0	632
17.959	8.871	15328	18853	0	632
20.627	8.475	15344	18924	0	632
22.683	7.465	15366	18975	0	632
24.775	9.629	15374	18863	0	632
30.148	12.369	15374	18567	0	632
33.466	17.743	15382	18220	0	632
36.675	18.680	15384	17965	0	632
36.531	19.942	15406	17935	0	632
34.367	19.437	15420	18037	0	632
32.384	19.473	15433	18088	0	632
32.708	22.503	15455	18169	0	632
33.105	24.342	15487	18363	0	632
35.016	27.407	15514	18690	0	632
33.826	27.299	15549	19088	0	632
32.420	21.168	15584	19424	0	632
32.239	20.231	15624	19649	0	632
33.141	21.421	15657	19822	0	632
33.285	22.863	15694	19975	0	632
32.744	25.135	15724	20026	0	632
31.735	28.237	15748	19884	0	632
32.997	28.525	15778	19639	0	632
35.449	30.112	15802	19435	0	632
38.514	33.826	15827	19312	0	632
38.009	33.826	15854	19210	0	632
33.213	29.463	15880	19047	0	632
25.676	22.755	15899	18832	0	632
20.014	13.956	15924	18628	0	632
17.238	9.629	15945	18424	0	632
20.195	8.727	15961	18179	0	632
20.195	7.862	15980	17863	0	632
20.267	7.681	15988	17506	0	632
13.595	3.534	15999	17098	0	632
6.744	-4.183	15994	16557	0	632
-0.505	-8.186	15986	15884	0	632
-1.875	-9.845	15975	15180	0	632
0.108	-7.285	15964	14670	0	632
3.101	-2.200	15959	14323	0	632
5.842	3.029	15945	13936	0	632
5.770	4.508	15926	13446	0	632
5.734	4.796	15907	12966	0	632
5.734	1.839	15872	12395	0	632
7.717	-1.298	15837	11793	0	632
11.612	-2.200	15813	11384	0	632
16.012	-1.154	15786	11221	0	632
21.132	3.246	15770	11221	0	632
23.080	6.527	15759	11425	0	632
22.611	8.583	15746	11803	0	632
20.303	7.357	15743	12231	0	632
16.625	2.921	15743	12640	0	632
16.192	-1.118	15738	13119	0	632
12.874	-4.868	15746	13691	0	632
9.412	-8.006	15762	14344	0	632
5.914	-8.402	15773	15058	0	632
3.282	-8.222	15792	15742	0	632
4.508	-5.950	15805	16313	0	632
8.294	-3.137	15827	16822	0	632
10.530	-2.777	15845	17363	0	632
10.025	-2.669	15872	17935	0	632
7.501	-3.823	15907	18475	0	632
4.796	-4.977	15926	18914	0	632
5.445	-6.203	15948	19128	0	632
7.285	-7.321	15953	19047	0	632
10.783	-7.321	15959	18761	0	632
14.461	-5.698	15961	18496	0	632
16.913	-1.983	15972	18312	0	632
20.231	2.777	15967	18098	0	632
20.483	6.275	15959	17700	0	632
21.204	5.085	15951	17210	0	632
21.060	3.570	15951	16955	0	632
16.589	2.344	15961	17037	0	632
14.821	0.361	15975	17241	0	632
10.133	-2.524	15986	17353	0	632
7.357	-4.940	15988	17292	0	632
6.599	-6.022	15994	17190	0	632
8.475	-3.642	16004	17159	0	632
13.848	1.947	16013	17149	0	632
16.480	8.294	16015	17077	0	632
20.700	9.448	16015	16904	0	632
17.995	7.104	16018	16730	0	632
15.110	1.479	16026	16659	0	632
8.222	-5.770	16034	16720	0	632
3.282	-8.763	16045	16822	0	632
1.154	-10.746	16048	16802	0	632
3.426	-6.780	16045	16639	0	632
7.753	-3.462	16045	16435	0	632
13.127	1.695	16042	16242	0	632
18.067	7.248	16039	16017	0	632
22.142	11.396	16021	15691	0	632
25.460	14.425	16007	15323	0	632
26.614	16.589	15994	15017	0	632
25.496	13.595	15986	14813	0	632
22.791	9.160	15972	14680	0	632
16.589	5.337	15964	14538	0	632
13.523	1.479	15945	14354	0	632
9.088	-0.793	15924	14129	0	632
5.337	-2.921	15897	13813	0	632
5.481	-3.318	15878	13497	0	632
8.835	-2.885	15864	13487	0	632
11.576	-1.731	15854	13762	0	632
14.389	-0.938	15851	14038	0	632
12.730	-4.508	15832	14191	0	632
7.789	-7.934	15824	14211	0	632
2.921	-13.379	15805	14201	0	632
1.406	-14.136	15797	14282	0	632
2.777	-13.307	15786	14517	0	632
6.708	-8.871	15786	14813	0	632
12.586	-5.481	15778	15099	0	632
15.795	-0.757	15783	15405	0	632
19.654	2.777	15786	15813	0	632
17.490	4.400	15800	16272	0	632
14.821	3.065	15802	16659	0	632
8.547	-0.902	15792	16751	0	632
4.544	-4.904	15773	16384	0	632
3.823	-5.301	15738	15752	0	632
8.294	-3.678	15719	15333	0	632
18.500	2.524	15703	15252	0	632
25.279	6.419	15689	15242	0	632
30.256	8.078	15665	15150	0	632
29.607	4.472	15641	14905	0	632
27.010	1.442	15611	14568	0	632
23.440	-2.056	15584	14293	0	632
23.296	-3.065	15557	14170	0	632
24.775	-0.685	15535	14191	0	632
23.837	1.118	15517	14242	0	632
24.847	1.479	15492	14191	0	632
25.604	2.236	15465	14078	0	632
24.739	0.902	15446	14129	0	632
22.286	-0.577	15438	14405	0	632
22.070	-2.488	15422	14721	0	632
17.887	-3.390	15409	14874	0	632
17.887	-0.361	15387	14874	0	632
18.752	4.039	15368	14956	0	632
19.726	5.986	15366	15272	0	632
19.329	5.301	15368	15762	0	632
17.743	1.046	15366	16231	0	632
20.772	-3.642	15368	16577	0	632
24.522	-4.796	15374	16965	0	632
29.318	-3.426	15382	17445	0	632
31.013	-2.524	15395	17904	0	632
27.876	-1.515	15406	18292	0	632
22.611	-1.226	15420	18567	0	632
22.611	1.010	15422	18761	0	632
28.020	5.626	15438	18924	0	632
34.836	8.907	15452	19139	0	632
42.048	11.684	15473	19414	0	632
43.383	13.487	15482	19577	0	632
41.399	10.566	15495	19598	0	632
39.380	10.242	15508	19567	0	632
38.658	12.153	15522	19557	0	632
38.983	12.297	15533	19496	0	632
38.695	12.117	15541	19322	0	632
35.665	10.242	15549	19098	1	744
31.013	3.498	15554	18873	0	744
24.198	-3.101	15557	18639	0	744
18.644	-7.212	15562	18435	0	744
17.454	-9.592	15584	18445	0	744
15.290	-8.799	15603	18669	0	744
17.093	-7.104	15616	18771	0	744
16.769	-4.652	15624	18526	0	744
15.615	-3.823	15622	18067	0	744
19.654	-2.669	15624	17649	0	744
21.132	0.649	15624	17384	0	744
26.217	6.563	15630	17220	0	744
27.479	11.071	15635	17088	0	744
22.142	12.081	15635	16863	0	744
13.487	9.232	15630	16547	0	744
10.206	0.757	15624	16242	0	744
8.078	-7.248	15622	15987	0	744
10.242	-8.402	15611	15721	0	744
14.894	-6.924	15600	15384	0	744
18.356	-2.200	15587	15078	0	744
18.933	1.839	15581	14874	0	744
21.421	4.544	15573	14803	0	744
21.096	2.669	15562	14762	0	744
16.552	-1.118	15557	14640	0	744
7.176	-7.501	15541	14446	0	744
2.488	-12.730	15522	14272	0	744
0.757	-12.441	15517	14221	0	744
5.626	-9.124	15508	14282	0	744
12.874	-2.380	15500	14354	0	744
14.785	2.452	15490	14354	0	744
10.963	-0.108	15479	14344	0	744
2.705	-5.373	15465	14374	0	744
-1.695	-11.504	15455	14425	0	744
-1.082	-11.973	15446	14476	0	744
3.823	-9.881	15433	14487	0	744
11.287	-4.652	15414	14446	0	744
17.815	0.974	15387	14221	0	744
22.467	4.255	15352	13793	0	744
26.686	4.219	15312	13242	0	744
25.424	2.957	15266	12670	0	744
23.657	1.118	15225	12293	0	744
20.700	-1.983	15190	12160	0	744
14.894	-4.688	15155	12119	0	744
13.920	-7.393	15128	12221	0	744
12.153	-9.340	15104	12497	0	744
10.891	-13.343	15088	12905	0	744
12.117	-19.834	15072	13323	0	744
9.953	-24.739	15058	13711	0	744
5.337	-31.049	15056	14211	0	744
2.200	-37.541	15056	14884	0	744
-4.508	-40.966	15069	15691	0	744
-9.448	-42.337	15077	16486	0	744
-8.655	-43.960	15088	17139	0	744
-4.291	-41.075	15101	17608	0	744
0.865	-38.009	15110	18026	0	744
6.671	-35.124	15123	18455	0	744
7.321	-37.108	15131	18741	0	744
1.587	-40.858	15131	18802	0	744
-6.671	-44.428	15139	18843	0	744
-10.819	-47.025	15145	19006	0	744
-5.481	-39.849	15169	19271	0	744
5.986	-30.256	15180	19547	0	744
19.077	-20.519	15193	19690	0	744
30.004	-11.287	15204	19659	0	744
31.879	-10.133	15209	19496	0	744
28.237	-13.487	15209	19261	0	744
20.159	-19.077	15209	18965	0	744
13.812	-26.650	15204	18598	0	744
7.537	-30.725	15204	18271	0	744
6.924	-28.561	15204	18016	0	744
11.215	-21.962	15196	17700	0	744
19.365	-14.677	15185	17332	0	744
26.181	-8.258	15182	17098	0	744
28.597	-7.212	15185	17047	0	744
27.119	-12.622	15190	17037	0	744
20.483	-18.247	15190	16965	0	744
13.487	-24.378	15190	16853	0	744
6.347	-29.391	15190	16761	0	744
1.515	-33.898	15199	16761	0	744
-4.291	-37.180	15207	16863	1	316
-5.986	-38.983	15212	16996	0	316
-4.003	-36.891	15217	17016	0	316
2.957	-29.931	15207	16761	0	316
9.376	-22.575	15199	16384	0	316
14.497	-20.303	15204	16231	0	316
12.261	-23.116	15209	16384	0	316
5.914	-30.508	15220	16618	0	316
1.479	-36.639	15234	16832	0	316
3.498	-35.701	15247	17047	0	316
13.127	-28.669	15261	17251	0	316
23.585	-17.562	15279	17496	0	316
31.987	-7.681	15306	17853	0	316
30.833	-3.426	15333	18271	0	316
26.938	-5.193	15358	18608	0	316
20.772	-11.973	15379	18700	0	316
17.454	-17.743	15384	18557	0	316
18.752	-20.123	15406	18404	0	316
20.952	-17.274	15420	18353	0	316
25.929	-12.622	15436	18384	0	316
26.506	-6.635	15452	18414	0	316
25.135	-2.993	15473	18384	0	316
23.837	-1.262	15487	18322	0	316
17.743	-1.767	15508	18363	0	316
15.723	-4.832	15541	18526	0	316
10.278	-9.340	15560	18659	0	316
5.878	-14.136	15581	18679	0	316
2.705	-15.975	15608	18659	0	316
3.642	-15.687	15635	18700	0	316
5.698	-12.514	15662	18751	0	316
11.071	-8.763	15681	18771	0	316
9.773	-9.881	15703	18720	0	316
9.124	-11.323	15732	18628	0	316
3.137	-14.461	15751	18557	0	316
1.551	-20.483	15775	18547	0	316
2.596	-19.293	15805	18567	0	316
8.439	-18.103	15827	18496	0	316
12.622	-12.225	15845	18343	0	316
16.661	-6.239	15864	18139	0	316
12.009	-3.318	15880	17945	0	316
8.258	-3.318	15905	17792	0	316
3.462	-7.248	15921	17669	0	316
3.895	-9.412	15940	17588	0	316
5.265	-9.773	15961	17526	0	316
9.016	-7.321	15972	17343	0	316
11.035	-4.977	15977	17006	0	316
14.208	-4.652	15986	16628	0	316
11.828	-8.186	15994	16333	0	316
8.871	-11.251	16002	16099	0	316
3.823	-17.670	16007	15915	0	316
-1.226	-18.536	16013	15721	0	316
-3.787	-20.087	16007	15487	0	316
-6.058	-17.562	16002	15119	0	316
-11.828	-19.293	15986	14578	0	316
-16.048	-20.880	15972	14027	0	316
-17.238	-25.532	15961	13670	0	316
-13.704	-27.515	15948	13497	0	316
-4.003	-26.397	15940	13446	0	316
3.534	-24.089	15937	13497	0	316
4.832	-23.693	15934	13599	0	316
0.721	-27.047	15926	13680	0	316
-3.101	-28.309	15926	13762	0	316
-4.472	-28.309	15918	13813	0	316
-3.029	-24.666	15907	13803	0	316
1.947	-17.634	15897	13752	0	316
6.058	-11.215	15883	13640	0	316
10.386	-6.419	15845	13282	0	316
13.235	-1.154	15816	12772	0	316
19.978	-0.433	15789	12548	0	316
22.070	-3.859	15775	12670	0	316
23.368	-8.186	15756	12874	0	316
23.909	-10.999	15746	13038	0	316
22.827	-8.294	15724	13150	0	316
24.378	-2.416	15708	13282	0	316
22.286	-0.144	15694	13538	0	316
18.428	1.911	15692	13915	0	316
14.064	-0.757	15692	14354	0	316
9.737	-6.239	15689	14782	0	316
7.717	-7.212	15678	15048	0	316
7.862	-10.278	15676	15242	0	316
7.393	-10.674	15681	15670	0	316
5.373	-11.540	15692	16323	0	316
4.688	-12.117	15708	16924	0	316
5.950	-10.494	15724	17435	0	316
9.268	-8.330	15735	17873	0	316
13.343	-5.626	15751	18220	0	316
15.074	-3.065	15773	18557	0	316
16.264	-0.829	15786	18894	0	316
18.860	1.154	15805	19149	0	316
22.719	7.176	15816	19251	0	316
29.679	14.533	15832	19292	0	316
36.891	21.313	15843	19292	0	316
41.940	21.313	15856	19281	0	316
44.753	19.690	15870	19230	0	316
45.222	18.536	15872	19108	0	316
43.310	16.444	15878	18832	0	316
39.127	19.293	15880	18475	1	384
33.646	18.933	15878	18149	0	384
30.617	20.916	15878	17894	0	384
32.239	20.988	15880	17618	0	384
36.134	23.440	15870	17302	0	384
41.940	25.496	15867	16986	0	384
44.392	22.935	15867	16690	0	384
40.498	19.654	15854	16414	0	384
36.855	10.638	15845	16099	0	384
32.528	6.058	15827	15670	0	384
30.040	4.327	15800	15058	0	384
28.237	4.364	15762	14313	0	384
28.128	9.520	15738	13742	0	384
27.335	11.612	15724	13619	0	384
28.237	13.018	15716	13864	0	384
26.938	11.576	15708	14089	0	384
28.417	12.477	15694	14078	0	384
29.246	16.300	15678	13936	0	384
33.826	18.500	15657	13844	0	384
37.144	23.837	15643	13854	0	384
40.101	22.431	15630	13925	0	384
37.072	20.772	15608	13905	0	384
31.987	16.805	15587	13772	0	384
27.119	12.982	15568	13721	0	384
26.614	12.766	15554	13874	0	384
23.152	12.441	15549	14211	0	384
22.683	9.701	15544	14599	0	384
21.204	3.318	15544	14976	0	384
14.569	-1.515	15541	15282	0	384
8.871	-10.999	15530	15487	0	384
-0.036	-16.589	15527	15640	0	384
-5.986	-17.743	15530	15936	0	384
-7.934	-19.762	15533	16333	0	384
-7.862	-19.041	15535	16669	0	384
-4.327	-19.546	15546	17016	0	384
-3.210	-20.916	15560	17424	0	384
-3.823	-19.582	15562	17751	0	384
-5.626	-23.693	15557	17639	0	384
-7.068	-24.522	15535	17179	0	384
-8.691	-27.371	15519	16781	0	384
-10.710	-31.735	15506	16537	0	384
-7.753	-30.905	15495	16354	0	384
-3.498	-28.994	15487	16272	0	384
-0.649	-23.729	15482	16374	0	384
2.488	-19.005	15490	16547	0	384
4.472	-17.706	15479	16639	0	384
4.039	-15.110	15473	16588	0	384
4.652	-17.995	15473	16526	0	384
3.137	-16.841	15463	16516	0	384
1.803	-17.779	15465	16577	0	384
1.731	-15.759	15460	16669	0	384
5.373	-11.251	15460	16659	0	384
12.225	-2.957	15452	16628	0	384
18.644	3.678	15455	16690	0	384
23.765	7.862	15463	16863	0	384
21.385	7.429	15460	16975	0	384
16.949	0.685	15463	17006	0	384
7.934	-5.950	15463	17047	0	384
1.118	-13.127	15473	17210	0	384
-2.633	-13.487	15492	17516	0	384
-0.974	-11.576	15503	17853	0	384
4.544	-7.465	15517	18057	0	384
8.402	-1.839	15530	18159	0	384
14.425	1.298	15535	18190	0	384
14.713	2.308	15541	18108	0	384
18.320	2.056	15544	17945	0	384
19.077	2.344	15544	17730	0	384
22.431	1.515	15549	17516	0	384
23.837	5.193	15544	17353	0	384
27.443	10.494	15546	17241	0	384
33.213	17.634	15549	17139	0	384
40.353	27.732	15546	16996	0	384
47.097	31.699	15546	16802	0	384
50.234	32.672	15541	16567	0	384
49.657	30.040	15522	16221	0	384
45.474	25.388	15506	15752	0	384
41.796	23.152	15492	15344	0	384
41.688	20.447	15473	15058	0	384
40.353	19.149	15463	14854	0	384
38.550	19.149	15452	14731	0	384
38.586	16.985	15433	14609	0	384
39.668	17.887	15422	14517	0	384
41.399	21.385	15411	14538	0	384
41.796	23.657	15411	14691	0	384
40.894	21.349	15409	14905	0	384
35.737	19.041	15411	15150	0	384
32.239	15.723	15414	15446	0	384
30.797	15.002	15422	15833	0	384
32.276	16.192	15438	16293	0	384
30.436	18.860	15449	16710	0	384
28.561	16.336	15460	16996	0	384
25.893	14.461	15473	17169	0	384
26.073	11.143	15468	17261	0	384
24.883	9.412	15473	17200	0	384
27.840	11.828	15463	16955	0	384
29.715	13.018	15460	16751	0	384
33.357	16.084	15463	16690	0	384
37.829	20.195	15452	16669	0	384
41.255	24.955	15455	16639	0	384
42.265	24.089	15452	16639	0	384
38.045	20.988	15460	16649	0	384
32.420	10.963	15455	16659	0	384
27.479	6.239	15452	16618	0	384
27.299	3.967	15452	16516	0	384
30.581	6.996	15441	16384	0	384
35.557	12.730	15438	16252	0	384
39.344	14.858	15428	16109	0	384
38.045	9.953	15425	15976	0	384
32.564	3.570	15409	15793	0	384
23.657	-4.796	15398	15548	0	384
12.802	-14.028	15387	15364	0	384
4.327	-19.041	15371	15252	0	384
-1.010	-24.486	15355	15078	0	384
-0.252	-26.938	15331	14731	0	384
3.354	-26.938	15301	14333	0	384
5.950	-27.263	15285	14089	0	384
5.662	-26.361	15266	14068	0	384
4.868	-22.214	15258	14201	0	384
5.734	-18.969	15250	14436	0	384
10.025	-20.772	15244	14711	0	384
12.477	-22.791	15239	14966	0	384
8.943	-28.309	15225	15078	0	384
2.524	-31.085	15220	15119	0	384
-3.101	-30.400	15212	15293	0	384
-2.056	-25.568	15209	15538	0	384
5.626	-20.014	15212	15823	0	384
16.805	-18.428	15220	16252	0	384
20.519	-17.310	15239	16832	0	384
19.834	-22.286	15263	17496	0	384
11.504	-26.902	15287	18149	0	384
4.075	-35.160	15306	18628	0	384
-1.118	-39.885	15325	18822	0	384
-1.082	-41.183	15331	18822	0	384
1.551	-37.072	15339	18792	0	384
2.705	-33.213	15358	18894	0	384
0.072	-33.826	15384	19169	0	384
-2.633	-39.127	15401	19475	0	384
-4.940	-44.609	15425	19588	0	384
-0.325	-47.241	15441	19598	0	384
7.032	-39.849	15473	19771	0	384
13.704	-27.299	15508	20139	0	384
14.785	-16.552	15544	20486	0	384
11.323	-14.172	15581	20741	0	384
10.458	-15.507	15616	20894	0	384
14.317	-17.346	15651	20955	0	384
24.450	-17.851	15684	20965	0	384
33.790	-11.720	15716	20945	0	384
33.141	-10.169	15743	20822	0	384
24.991	-12.117	15770	20557	0	384
18.392	-17.057	15789	20251	1	596
13.704	-22.791	15824	20016	0	596
18.103	-26.361	15854	19924	0	596
19.726	-25.279	15883	19894	0	596
18.031	-26.650	15910	19781	0	596
11.107	-27.407	15937	19588	0	596
5.193	-31.266	15967	19363	0	596
7.717	-30.761	15988	19077	0	596
11.684	-31.194	15999	18598	0	596
12.117	-29.679	16004	17955	0	596
7.970	-30.148	15994	17149	0	596
-0.108	-31.951	15975	16119	0	596
-1.659	-31.771	15953	15078	0	596
7.285	-27.948	15940	14333	0	596
20.087	-17.454	15932	13915	0	596
30.076	-12.117	15924	13691	0	596
24.666	-12.045	15918	13538	0	596
14.966	-21.385	15905	13293	0	596
4.616	-27.479	15897	13007	0	596
6.852	-30.328	15886	12936	0	596
18.608	-22.467	15891	13089	0	596
30.941	-8.655	15897	13395	0	596
38.983	-3.101	15905	13772	0	596
33.718	-4.472	15910	14119	0	596
26.145	-14.858	15926	14507	0	596
19.690	-22.935	15948	15027	0	596
20.700	-28.020	15975	15670	0	596
21.277	-26.506	16004	16333	0	596
20.916	-25.568	16034	16914	0	596
15.939	-25.316	16061	17435	0	596
13.018	-27.083	16099	17935	0	596
11.179	-25.640	16139	18475	0	596
17.021	-20.555	16169	18965	0	596
17.598	-19.401	16204	19241	0	596
16.769	-21.637	16223	19281	0	596
11.540	-25.352	16244	19200	0	596
7.898	-28.994	16258	18904	0	596
6.491	-28.561	16258	18404	0	596
7.140	-27.876	16255	17843	0	596
5.373	-27.948	16247	17179	0	596
2.993	-28.417	16223	16404	0	596
4.111	-28.597	16217	15793	0	596
8.402	-24.486	16207	15446	0	596
16.372	-16.516	16204	15221	0	596
22.395	-9.556	16201	15089	0	596
28.814	-3.282	16204	15038	0	596
28.489	0.793	16201	15027	0	596
28.850	0.397	16207	15068	0	596
25.279	-3.318	16207	15129	0	596
22.178	-7.898	16209	15211	0	596
17.779	-13.235	16217	15313	0	596
19.690	-14.136	16209	15293	0	596
19.690	-12.477	16207	15160	0	596
22.431	-13.776	16207	15170	0	596
21.709	-15.579	16217	15374	0	596
14.930	-22.395	16220	15599	0	596
12.441	-25.243	16228	15711	0	596
9.160	-26.686	16223	15711	0	596
7.862	-24.739	16228	15701	0	596
5.409	-23.440	16234	15762	0	596
5.481	-28.561	16231	15864	0	596
5.013	-33.321	16236	15956	0	596
9.629	-34.908	16236	16027	0	596
13.884	-30.941	16236	16058	0	596
18.752	-24.991	16234	15966	0	596
17.887	-16.733	16228	15803	0	596
17.382	-14.785	16231	15772	0	596
16.877	-12.730	16223	15833	0	596
20.050	-14.172	16228	15884	0	596
22.395	-10.783	16234	15956	0	596
25.171	-7.862	16231	16078	0	596
26.542	-5.337	16236	16191	0	596
25.568	-4.291	16231	16170	0	596
25.568	-3.029	16209	15823	0	596
28.164	-2.885	16188	15231	0	596
30.004	-1.947	16153	14568	0	596
32.167	-0.974	16120	13987	0	596
30.112	-1.479	16093	13629	0	596
26.794	-5.049	16075	13538	0	596
23.188	-7.681	16056	13609	0	596
20.375	-10.169	16045	13731	0	596
17.093	-12.297	16034	13915	0	596
15.362	-12.477	16034	14323	0	596
12.730	-9.124	16053	14987	0	596
14.605	-6.239	16061	15711	0	596
19.221	-3.606	16075	16252	0	596
20.050	-5.265	16080	16537	0	596
18.247	-12.766	16080	16679	0	596
11.864	-17.598	16080	16781	0	596
8.871	-18.644	16080	16853	0	596
10.999	-13.595	16075	16843	0	596
16.985	-3.931	16072	16781	0	596
21.673	-0.361	16069	16751	0	596
18.716	-0.974	16069	16832	0	596
16.516	-4.364	16080	17016	0	596
13.415	-4.219	16083	17230	0	596
18.536	-0.216	16088	17394	0	596
24.558	5.554	16096	17516	0	596
28.128	8.042	16096	17547	0	596
25.316	5.301	16093	17394	0	596
18.969	-0.433	16085	17108	0	596
11.864	-2.741	16072	16812	0	596
10.133	-0.902	16066	16577	0	596
13.091	2.705	16053	16374	0	596
14.353	5.517	16045	16150	0	596
16.372	3.173	16029	15915	0	596
14.605	0.252	16015	15691	0	596
12.153	-4.075	16004	15527	0	596
9.448	-8.042	15991	15405	0	596
6.275	-8.907	15967	15170	0	596
5.229	-10.061	15951	14895	0	596
4.436	-7.573	15951	14884	0	596
3.137	-9.737	15940	15119	0	596
3.787	-10.278	15937	15354	0	596
1.839	-11.612	15934	15476	0	596
1.334	-15.326	15924	15507	0	596
2.560	-12.622	15913	15487	0	596
7.681	-4.219	15905	15415	0	596
14.605	4.508	15878	15211	0	596
20.916	14.425	15854	14874	0	596
26.037	18.428	15840	14650	0	596
25.640	17.598	15818	14650	0	596
19.257	9.016	15816	14813	0	596
10.891	-1.190	15805	15109	0	596
4.472	-7.068	15813	15456	0	596
3.029	-10.061	15805	15721	0	596
11.143	-6.167	15805	15874	0	596
21.926	-1.046	15800	16058	0	596
31.230	3.282	15805	16313	0	596
32.816	3.750	15802	16547	0	596
26.542	1.731	15805	16690	0	596
17.634	-2.524	15802	16771	0	596
9.088	-5.013	15800	16853	0	596
6.203	-8.979	15802	16965	0	596
8.114	-7.321	15802	17098	0	596
13.091	-4.688	15805	17230	0	596
19.690	-0.974	15805	17302	0	596
22.142	1.298	15810	17332	0	596
24.486	-0.144	15802	17292	0	596
23.837	-1.695	15800	17128	0	596
22.178	-1.911	15783	16853	0	596
22.539	0.974	15775	16628	0	596
22.647	5.085	15765	16516	0	596
26.325	7.176	15762	16404	0	596
30.112	10.278	15746	16180	0	596
31.482	11.576	15721	15874	0	596
31.951	11.323	15705	15487	0	596
29.174	9.665	15678	15058	0	596
23.909	7.068	15654	14772	0	596
20.844	5.049	15635	14589	0	596
21.457	4.652	15616	14497	0	596
19.618	6.131	15608	14558	0	596
17.454	2.813	15600	14782	0	596
11.143	-4.904	15597	15089	0	596
4.760	-12.441	15584	15262	0	596
3.931	-15.218	15560	15089	0	596
6.131	-14.136	15535	14742	0	596
8.799	-9.196	15522	14629	0	596
11.540	-4.832	15514	14854	0	596
8.799	-5.229	15508	15180	0	596
8.583	-4.400	15514	15538	0	596
8.402	-6.167	15517	15976	0	596
9.629	-5.770	15519	16384	0	596
8.006	-6.455	15519	16618	0	596
6.203	-7.645	15527	16771	0	596
4.219	-7.248	15527	17026	0	596
5.337	-7.465	15533	17292	0	596
8.691	-2.885	15527	17353	0	596
10.927	1.154	15530	17261	0	596
13.523	5.770	15519	17210	0	596
14.894	8.006	15519	17220	0	596
17.923	10.746	15519	17241	0	596
19.834	9.160	15522	17271	0	596
26.578	9.160	15519	17292	0	596
30.076	10.278	15522	17322	0	596
37.144	16.012	15530	17475	0	596
41.616	19.005	15546	17761	0	596
46.484	23.981	15549	17935	0	596
48.323	27.010	15546	17802	0	596
46.015	24.486	15544	17537	0	596
39.055	19.437	15544	17363	0	596
28.994	11.576	15546	17292	0	596
15.218	0.505	15541	17230	0	596
4.508	-8.799	15541	17118	0	596
-0.757	-14.064	15530	16904	0	596
-0.397	-12.730	15506	16384	0	596
7.970	-4.219	15473	15589	0	596
15.615	5.590	15446	14905	0	596
23.729	13.523	15422	14527	0	596
25.424	15.759	15401	14354	0	596
23.729	14.353	15393	14313	0	596
24.450	8.799	15382	14425	0	596
22.539	4.724	15371	14629	0	596
23.981	3.606	15368	14833	0	596
26.433	6.419	15366	15017	0	596
26.361	10.025	15358	15211	0	596
28.525	13.992	15352	15354	0	596
29.571	15.543	15347	15415	0	596
30.977	16.805	15339	15538	0	596
28.417	9.809	15344	15782	0	596
23.657	3.210	15341	16027	0	596
14.785	-4.544	15339	16119	0	596
8.222	-13.812	15331	16140	0	596
5.337	-15.471	15341	16364	0	596
4.832	-12.117	15352	16781	0	596
5.013	-10.999	15366	17220	0	596
3.678	-11.973	15374	17537	0	596
3.534	-12.514	15384	17720	0	596
6.996	-14.172	15387	17812	0	596
16.661	-9.304	15398	17924	0	596
24.162	-2.236	15409	18047	0	596
29.607	2.560	15420	18108	0	596
29.463	3.714	15425	18077	0	596
24.486	1.262	15433	18088	0	596
22.539	-1.623	15446	18210	0	596
20.159	-6.671	15473	18475	0	596
14.713	-11.360	15490	18822	0	596
13.559	-14.785	15517	19098	0	596
14.172	-10.891	15544	19281	0	596
21.493	-2.921	15568	19465	0	596
27.912	3.354	15595	19659	0	596
28.164	5.193	15622	19832	0	596
20.339	-3.750	15649	19894	0	596
5.445	-15.903	15676	19894	0	596
-4.219	-23.693	15697	19924	0	596
-2.200	-23.404	15732	19945	0	596
7.248	-14.281	15751	19873	0	596
17.779	-7.537	15773	19730	0	596
18.608	-5.626	15802	19588	1	912
13.595	-11.864	15824	19465	0	912
1.190	-22.070	15851	19343	0	912
-9.376	-30.833	15864	19169	0	912
-13.595	-34.692	15886	18975	0	912
-14.136	-32.456	15913	18802	0	912
-11.215	-27.840	15932	18659	0	912
-9.845	-21.637	15948	18465	0	912
-3.967	-14.136	15964	18169	0	912
0.865	-12.369	15975	17832	0	912
1.623	-15.362	15980	17424	0	912
-0.433	-24.234	15986	16975	0	912
-8.475	-35.016	15986	16537	0	912
-16.012	-40.786	15986	16150	0	912
-20.627	-39.452	15994	15874	0	912
-15.615	-31.662	16004	15823	0	912
-11.360	-21.818	16021	15915	0	912
-10.602	-19.077	16034	16058	0	912
-12.297	-22.611	16056	16180	0	912
-20.772	-32.203	16075	16293	0	912
-25.640	-42.770	16099	16465	0	912
-27.660	-46.159	16123	16771	0	912
-26.289	-46.772	16155	17169	0	912
-25.893	-44.320	16193	17577	0	912
-23.765	-40.822	16234	17986	0	912
-25.929	-39.632	16263	18332	0	912
-30.328	-40.137	16301	18618	0	912
-35.593	-41.796	16341	18822	0	912
-38.478	-45.294	16368	18924	0	912
-37.973	-45.258	16392	18863	0	912
-37.072	-45.005	16405	18608	0	912
-35.269	-44.969	16419	18200	0	912
-34.692	-43.887	16432	17832	0	912
-33.177	-42.914	16459	17741	0	912
-28.994	-41.075	16486	17822	0	912
-20.303	-35.990	16499	17792	0	912
-12.297	-30.220	16518	17506	0	912
-6.419	-26.758	16524	17077	0	912
-2.200	-23.008	16524	16649	0	912
2.380	-17.779	16532	16293	0	912
7.248	-10.674	16526	15884	0	912
9.989	-4.400	16513	15333	0	912
10.710	-4.255	16499	14701	0	912
7.898	-4.508	16491	14170	0	912
7.285	-10.602	16472	13844	0	912
5.157	-13.487	16472	13711	0	912
4.652	-14.172	16467	13680	0	912
8.222	-12.261	16467	13660	0	912
9.412	-6.924	16459	13660	0	912
13.631	-3.390	16459	13742	0	912
15.867	0.865	16464	13936	0	912
16.084	1.442	16470	14191	0	912
11.684	-1.479	16472	14374	0	912
6.599	-3.823	16467	14487	0	912
3.642	-6.744	16478	14629	0	912
4.111	-6.203	16481	14854	0	912
11.900	-1.334	16483	15089	0	912
18.320	6.960	16478	15191	0	912
27.732	16.300	16478	15109	0	912
30.364	23.404	16459	14905	0	912
30.761	26.902	16443	14568	0	912
26.001	24.017	16416	14191	0	912
23.693	19.618	16400	13956	0	912
21.998	15.687	16386	13915	0	912
22.575	16.589	16379	13997	0	912
28.597	19.185	16368	14150	0	912
33.970	24.450	16368	14395	0	912
39.632	30.653	16371	14803	0	912
41.003	32.853	16384	15374	0	912
38.226	30.545	16400	15997	0	912
36.242	30.184	16413	16506	0	912
37.865	28.705	16427	16863	0	912
42.914	29.679	16432	17098	0	912
46.845	32.636	16445	17302	0	912
47.638	34.151	16456	17506	0	912
41.147	32.276	16467	17669	0	912
32.636	28.237	16478	17771	0	912
27.191	22.647	16478	17761	0	912
25.135	20.519	16486	17720	0	912
21.132	17.526	16494	17730	0	912
18.860	14.136	16497	17771	0	912
14.858	12.369	16499	17741	0	912
13.271	14.641	16505	17608	0	912
15.831	14.641	16507	17435	0	912
21.854	19.978	16507	17302	0	912
22.214	21.168	16507	17169	0	912
20.267	20.483	16505	16955	0	912
15.182	14.785	16494	16669	0	912
11.360	14.208	16486	16384	0	912
12.694	14.100	16478	16109	0	912
21.168	20.159	16464	15803	0	912
27.119	26.145	16445	15507	0	912
29.318	29.968	16437	15242	0	912
28.381	29.931	16416	14956	0	912
23.873	26.325	16392	14609	0	912
18.392	20.339	16371	14242	0	912
16.625	18.933	16352	13987	0	912
12.730	14.208	16336	13905	0	912
12.045	15.218	16331	14017	0	912
12.622	13.595	16314	14170	0	912
17.779	18.680	16290	14119	0	912
25.207	22.611	16263	13793	0	912
29.607	26.001	16234	13395	0	912
29.607	28.381	16207	13231	0	912
26.614	24.198	16188	13282	0	912
24.486	21.493	16163	13364	0	912
25.352	20.303	16150	13507	0	912
27.732	20.087	16142	13823	0	912
29.354	21.060	16137	14344	0	912
26.902	24.270	16139	14884	0	912
23.801	23.476	16123	15191	0	912
25.243	26.073	16107	15089	0	912
28.128	29.607	16080	14782	0	912
33.105	28.777	16066	14752	0	912
36.278	28.417	16056	15068	0	912
35.810	25.135	16056	15507	0	912
35.413	24.270	16056	15936	0	912
36.639	22.503	16061	16364	0	912
36.928	25.099	16066	16761	0	912
34.295	25.424	16080	17220	0	912
31.302	24.666	16101	17873	0	912
28.092	21.565	16120	18526	0	912
27.010	19.149	16128	18802	0	912
27.263	15.362	16128	18679	0	912
26.289	14.064	16123	18435	0	912
25.243	10.855	16126	18261	0	912
21.890	6.960	16126	18200	0	912
15.687	5.301	16123	18179	0	912
15.254	2.957	16123	18026	0	912
11.684	3.967	16112	17690	0	912
9.809	6.671	16101	17353	0	912
8.475	7.970	16096	17159	0	912
6.022	5.193	16093	17067	0	912
3.065	1.479	16088	16996	0	912
1.695	-0.541	16085	16884	0	912
3.570	-3.101	16083	16832	0	912
9.412	1.154	16093	16935	0	912
14.966	3.967	16096	17077	0	912
14.966	7.032	16099	17118	0	912
16.228	5.157	16088	16986	0	912
13.199	0.180	16093	16812	0	912
12.117	-2.452	16088	16761	0	912
15.146	-3.137	16099	16853	0	912
15.939	-0.541	16101	17006	0	912
17.887	4.940	16110	17118	0	912
19.293	10.133	16115	17159	0	912
24.558	13.199	16120	17149	0	912
30.292	15.398	16120	17118	0	912
31.735	14.317	16123	17077	0	912
28.201	10.025	16128	17037	0	912
20.483	5.986	16126	16996	0	912
15.651	1.875	16123	16863	0	912
14.785	0.577	16112	16496	0	912
16.264	2.524	16096	16038	0	912
18.247	2.560	16088	15803	0	912
14.353	1.262	16085	15813	0	912
14.713	-0.721	16075	15701	0	912
14.281	-1.839	16056	15323	0	912
17.021	-1.515	16029	14833	0	912
16.552	0.216	16004	14415	0	912
15.723	1.983	15988	14252	0	912
12.982	4.724	15980	14323	0	912
11.504	6.419	15975	14517	0	912
15.326	7.393	15967	14731	0	912
14.425	9.232	15975	15038	0	912
17.706	9.556	15980	15476	0	912
17.418	8.258	15991	15936	0	912
20.880	6.131	15999	16282	0	912
23.873	7.032	16002	16455	0	912
26.433	9.304	16002	16557	0	912
28.489	11.504	16002	16598	0	912
23.837	15.002	15994	16537	0	912
21.421	17.562	15988	16424	0	912
22.503	16.949	15988	16384	0	912
22.034	18.031	15986	16455	0	912
22.431	17.526	15986	16526	0	912
21.132	16.877	15986	16598	0	912
16.877	14.317	15986	16679	0	912
16.516	13.704	15988	16690	0	912
17.382	14.389	15980	16598	0	912
22.611	14.821	15975	16414	0	912
22.178	17.382	15959	16211	0	912
19.654	17.129	15948	16027	0	912
13.163	15.326	15934	15854	0	912
8.979	10.710	15924	15701	0	912
4.508	7.176	15907	15538	0	912
4.436	3.354	15894	15293	0	912
6.599	4.652	15872	15058	0	912
11.468	9.160	15870	15109	0	912
15.759	15.182	15878	15436	0	912
19.293	19.978	15872	15782	0	912
21.421	20.772	15878	16038	0	912
21.890	19.473	15880	16191	0	912
17.382	14.064	15878	16313	0	912
14.245	12.982	15880	16465	0	912
7.717	10.674	15880	16608	0	912
3.931	10.422	15878	16639	0	912
3.318	13.163	15870	16557	0	912
7.753	11.360	15867	16475	0	912
15.074	13.343	15864	16455	0	912
18.031	15.471	15864	16537	0	912
19.942	12.189	15867	16618	0	912
14.064	9.016	15845	16475	0	912
7.862	3.606	15818	15936	0	912
2.128	-1.370	15786	15191	0	912
-0.613	1.190	15762	14691	0	912
1.262	3.642	15746	14527	0	912
6.094	6.996	15721	14476	0	912
8.799	6.455	15708	14456	0	912
9.520	2.128	15694	14507	0	912
8.691	-1.479	15678	14599	0	912
6.131	-3.426	15676	14752	0	912
3.714	-5.878	15678	15191	0	912
1.659	-8.330	15697	15905	0	912
2.380	-7.537	15705	16475	0	912
4.616	-5.085	15705	16669	0	912
8.835	1.010	15697	16608	0	912
13.307	6.239	15692	16577	0	912
10.638	5.337	15692	16659	0	912
4.796	-3.859	15692	16781	0	912
-1.262	-9.232	15692	16853	0	912
-3.462	-13.127	15689	16884	0	912
2.452	-6.816	15684	16935	0	912
8.006	1.010	15692	17057	0	912
12.009	4.796	15697	17281	0	912
10.350	1.551	15708	17506	0	912
4.580	-5.950	15716	17659	0	912
0.685	-12.658	15721	17812	0	912
-0.288	-12.586	15738	18047	0	912
2.308	-11.035	15759	18343	0	912
4.003	-6.094	15775	18618	0	912
3.354	-2.056	15797	18812	0	912
-0.577	-2.524	15810	18955	0	912
-5.085	-2.452	15837	19128	0	912
-5.554	-0.216	15859	19363	0	912
-3.570	1.587	15883	19567	0	912
-2.164	2.993	15910	19639	0	912
-3.210	1.947	15926	19618	0	912
-7.032	-0.902	15948	19608	0	912
-11.432	-5.157	15975	19628	0	912
-12.838	-4.327	15994	19628	0	912
-9.773	-1.515	16015	19557	1	964
-2.957	4.796	16034	19414	0	964
0.721	9.773	16053	19220	0	964
2.056	5.590	16056	18863	0	964
-2.128	-2.452	16069	18445	0	964
-6.996	-12.189	16085	18302	0	964
-9.340	-16.877	16112	18435	0	964
-2.380	-9.629	16134	18475	0	964
8.006	6.167	16142	18292	0	964
14.208	20.014	16155	17975	0	964
16.228	24.234	16169	17720	0	964
8.114	13.127	16193	17669	0	964
-5.085	-2.452	16217	17802	0	964
-17.093	-19.546	16247	18006	0	964
-24.702	-28.705	16269	18118	0	964
-27.407	-26.794	16296	18159	0	964
-24.162	-19.473	16323	18241	0	964
-20.231	-11.973	16355	18332	0	964
-18.356	-9.917	16371	18292	0	964
-20.014	-12.874	16386	18057	0	964
-20.375	-16.264	16400	17741	0	964
-18.500	-19.510	16410	17496	0	964
-13.487	-16.372	16437	17424	0	964
-7.862	-13.956	16454	17445	0	964
-4.255	-12.946	16472	17384	0	964
-2.236	-9.701	16481	17128	0	964
-0.036	-6.888	16467	16547	0	964
4.291	-0.433	16459	15742	0	964
9.629	6.635	16443	15068	0	964
13.595	7.285	16437	14640	0	964
12.982	4.400	16429	14333	0	964
8.330	-5.806	16416	14089	0	964
1.983	-15.471	16402	13813	0	964
-3.714	-24.089	16389	13517	0	964
-8.258	-25.532	16384	13354	0	964
-5.373	-16.949	16382	13395	0	964
-3.246	-8.186	16376	13517	0	964
0.685	-2.957	16368	13578	0	964
0.361	-6.563	16363	13609	0	964
-3.210	-16.985	16363	13731	0	964
-10.746	-31.410	16368	14048	0	964
-17.166	-39.957	16382	14558	0	964
-22.791	-43.707	16397	15119	0	964
-24.306	-39.885	16410	15609	0	964
-21.421	-33.574	16432	16129	0	964
-19.437	-26.325	16454	16700	0	964
-14.533	-24.486	16481	17169	0	964
-15.795	-29.282	16494	17424	0	964
-17.093	-36.459	16510	17537	0	964
-20.159	-41.219	16518	17618	0	964
-19.473	-40.426	16534	17690	0	964
-17.526	-35.197	16545	17761	0	964
-13.018	-28.777	16561	17843	0	964
-13.199	-25.388	16572	17863	0	964
-13.271	-22.935	16586	17843	0	964
-15.218	-21.457	16594	17832	0	964
-11.468	-16.480	16607	17781	0	964
-4.364	-13.631	16605	17618	0	964
2.813	-9.124	16615	17404	0	964
5.986	-11.900	16626	17353	0	964
3.210	-14.966	16634	17373	0	964
-0.938	-13.199	16642	17261	0	964
-5.157	-9.484	16642	17037	0	964
-1.551	-0.036	16645	16863	0	964
5.265	8.439	16653	16730	0	964
11.648	10.927	16648	16567	0	964
15.939	9.016	16648	16374	0	964
19.365	4.291	16653	16272	0	964
17.274	-0.325	16672	16404	0	964
15.903	-2.957	16685	16741	0	964
11.648	-0.793	16707	16996	0	964
12.514	5.698	16710	16986	0	964
15.146	13.884	16710	16730	0	964
21.241	21.313	16710	16455	0	964
27.515	21.781	16710	16293	0	964
28.453	16.805	16712	16221	0	964
24.162	6.671	16715	16201	0	964
18.536	1.154	16723	16221	0	964
18.428	1.082	16729	16262	0	964
20.123	8.547	16737	16333	0	964
25.063	21.313	16750	16465	0	964
29.030	29.066	16761	16608	0	964
30.617	32.312	16764	16618	0	964
30.761	30.977	16766	16526	0	964
34.331	28.489	16769	16424	0	964
39.993	28.164	16777	16384	0	964
41.543	28.020	16780	16364	0	964
41.832	24.594	16780	16293	0	964
36.964	18.969	16782	16211	0	964
31.662	17.238	16788	16170	0	964
28.994	15.903	16788	16150	0	964
29.751	21.024	16793	16170	0	964
30.653	24.162	16815	16404	0	964
34.079	25.604	16831	16843	0	964
36.314	23.368	16842	17088	0	964
37.865	19.437	16842	16904	0	964
39.344	18.103	16831	16465	0	964
38.298	15.831	16828	16119	0	964
40.137	18.608	16820	15895	0	964
40.750	21.096	16804	15619	0	964
40.498	25.135	16788	15211	0	964
38.370	26.470	16769	14803	0	964
34.692	22.719	16753	14497	0	964
28.164	19.942	16739	14323	0	964
23.837	10.783	16726	14303	0	964
16.733	3.895	16715	14313	0	964
15.903	-1.479	16707	14293	0	964
12.766	-2.777	16693	14282	0	964
18.031	-0.180	16680	14252	0	964
24.162	5.626	16667	14160	0	964
28.453	9.845	16642	14048	0	964
29.282	8.907	16629	14007	0	964
25.424	4.183	16615	13997	0	964
17.995	-4.940	16591	14007	0	964
13.776	-8.655	16586	14078	0	964
9.953	-10.422	16567	14221	0	964
11.792	-6.996	16559	14354	0	964
15.435	-2.633	16540	14466	0	964
15.218	-1.911	16537	14619	0	964
14.858	-4.832	16532	14813	0	964
12.117	-10.242	16518	15038	0	964
8.258	-16.084	16507	15180	0	964
7.176	-22.142	16497	15211	0	964
6.022	-23.044	16478	15191	0	964
4.832	-23.837	16467	15160	0	964
3.678	-23.224	16445	15119	0	964
2.524	-19.618	16429	15089	0	964
1.334	-21.962	16416	15109	0	964
3.137	-20.555	16400	15201	0	964
7.753	-19.942	16384	15262	0	964
19.005	-18.103	16368	15211	0	964
26.506	-13.631	16341	15058	0	964
31.771	-8.042	16309	14680	0	964
29.895	-8.186	16269	14150	0	964
26.145	-7.970	16236	13823	0	964
20.195	-11.684	16204	13762	0	964
20.808	-13.992	16182	13844	0	964
21.168	-16.408	16163	14089	0	964
19.834	-14.785	16163	14517	0	964
20.555	-15.939	16163	15089	0	964
20.375	-15.110	16161	15680	0	964
21.781	-18.247	16166	16201	0	964
23.981	-17.815	16169	16679	0	964
24.955	-18.608	16188	17241	0	964
26.361	-17.057	16196	17832	0	964
27.587	-14.569	16215	18271	0	964
27.624	-12.658	16215	18496	0	964
23.945	-13.307	16217	18486	0	964
19.185	-20.339	16215	18373	0	964
14.821	-25.676	16215	18312	0	964
13.956	-30.725	16209	18281	0	964
15.831	-32.239	16215	18261	0	964
22.431	-27.768	16215	18210	0	964
24.198	-23.657	16201	17996	0	964
23.621	-21.745	16196	17679	0	964
21.493	-24.486	16201	17669	0	964
16.913	-27.732	16215	17996	0	964
15.398	-30.797	16220	18220	0	964
14.605	-30.725	16228	18169	0	964
17.562	-28.633	16220	17945	0	964
20.050	-25.676	16217	17649	0	964
24.883	-24.053	16215	17445	0	964
26.145	-22.214	16217	17404	0	964
27.732	-22.467	16220	17353	0	964
26.902	-22.719	16209	17210	0	964
24.775	-22.431	16215	17077	0	964
18.572	-24.270	16209	17016	0	964
12.369	-27.443	16217	16975	0	964
5.878	-30.941	16209	16884	0	964
2.128	-37.432	16209	16720	0	964
2.560	-42.878	16204	16557	0	964
8.114	-45.366	16204	16486	0	964
12.730	-43.743	16209	16537	0	964
12.910	-40.065	16209	16649	0	964
7.068	-39.055	16209	16618	0	964
-0.721	-40.426	16188	16262	0	964
-6.708	-45.005	16169	15680	0	964
-8.547	-47.205	16155	15272	0	964
-1.551	-45.186	16139	15150	0	964
8.655	-39.849	16134	15119	0	964
13.631	-35.233	16123	15078	0	964
15.579	-34.800	16112	15048	0	964
8.475	-41.724	16101	14997	0	964
-3.534	-54.634	16093	14915	0	964
-13.415	-64.551	16088	15017	0	964
-15.254	-69.636	16093	15395	0	964
-11.684	-64.118	16096	15772	0	964
0.433	-52.867	16093	15844	0	964
8.006	-40.786	16075	15670	0	964
8.619	-36.531	16061	15487	0	964
6.491	-44.609	16056	15384	0	964
-2.813	-56.221	16031	15231	0	964
-12.189	-69.383	16004	14864	0	964
-21.313	-79.336	15975	14405	0	964
-25.640	-80.094	15951	14099	0	964
-25.424	-74.180	15937	14048	0	964
-19.726	-64.948	15921	14211	0	964
-8.078	-55.355	15910	14487	0	964
0.829	-47.854	15907	14742	0	964
4.616	-48.395	15899	14997	0	964
3.570	-52.506	15897	15262	0	964
0.938	-59.070	15899	15640	0	964
-1.515	-62.315	15907	16150	0	964
-1.803	-60.837	15921	16618	0	964
0.000	-58.565	15926	16986	0	964
1.298	-55.572	15937	17363	0	964
-0.902	-52.146	15959	17812	0	964
-0.865	-53.336	15975	18281	0	964
-2.308	-53.732	15988	18547	0	964
-2.380	-58.601	15988	18496	0	964
-4.255	-65.092	15980	18159	0	964
-7.032	-72.521	15975	17802	0	964
-14.461	-77.930	15967	17588	0	964
-20.339	-81.680	15972	17465	1	852
-27.984	-81.789	15964	17332	0	852
-31.807	-81.176	15959	17179	0	852
-35.341	-80.130	15945	16894	0	852
-35.593	-80.527	15934	16547	0	852
-37.072	-83.051	15932	16394	0	852
-36.891	-87.595	15932	16455	0	852
-37.793	-92.752	15934	16526	0	852
-35.990	-97.512	15926	16516	0	852
-33.502	-94.987	15921	16435	0	852
-27.984	-91.850	15921	16384	0	852
-19.942	-84.854	15921	16424	0	852
-15.867	-78.074	15932	16547	0	852
-13.451	-77.894	15932	16710	0	852
-15.182	-80.454	15940	16904	0	852
-15.975	-89.362	15961	17210	0	852
-17.923	-97.404	15980	17628	0	852
-15.435	-107.934	16004	18057	0	852
-15.903	-113.127	16026	18414	0	852
-15.579	-116.661	16048	18659	0	852
-16.264	-117.093	16072	18843	0	852
-16.625	-114.605	16096	19047	0	852
-18.067	-111.360	16120	19302	0	852
-22.539	-111.071	16150	19516	0	852
-29.210	-112.261	16163	19516	0	852
-35.016	-114.317	16174	19169	0	852
-39.452	-115.615	16177	18690	0	852
-37.432	-111.432	16188	18394	0	852
-33.357	-101.911	16204	18332	0	852
-28.886	-90.155	16217	18322	0	852
-24.775	-80.923	16236	18353	0	852
-22.935	-74.216	16261	18424	0	852
-21.854	-71.763	16282	18475	0	852
-20.267	-71.655	16304	18506	0	852
-20.087	-71.403	16325	18537	0	852
-17.274	-70.465	16352	18618	0	852
-16.336	-65.849	16379	18720	0	852
-13.487	-58.853	16397	18639	0	852
-10.242	-48.467	16410	18353	0	852
-7.357	-42.373	16419	18077	0	852
-9.448	-41.435	16437	17924	0	852
-17.057	-47.422	16459	17884	0	852
-28.164	-57.916	16481	17884	0	852
-35.846	-61.810	16497	17853	0	852
-36.423	-58.781	16518	17792	0	852
-28.381	-48.503	16540	17730	0	852
-20.014	-36.783	16559	17720	0	852
-14.425	-29.859	16580	17730	0	852
-18.067	-29.895	16602	17720	0	852
-22.972	-33.790	16621	17690	0	852
-28.453	-38.839	16648	17649	0	852
-30.112	-40.137	16667	17659	0	852
-31.158	-39.560	16693	17720	0	852
-28.922	-36.747	16710	17690	0	852
-27.299	-32.276	16723	17516	0	852
-24.053	-25.496	16739	17292	0	852
-18.356	-20.772	16761	17128	0	852
-13.704	-14.605	16766	16986	0	852
-9.809	-14.858	16766	16649	0	852
-9.016	-14.172	16755	16038	0	852
-9.737	-13.091	16739	15282	0	852
-10.314	-14.749	16726	14650	0	852
-12.838	-13.415	16712	14221	0	852
-14.353	-13.091	16699	13895	0	852
-13.523	-15.074	16683	13578	0	852
-14.533	-13.451	16661	13191	0	852
-11.287	-13.091	16640	12731	0	852
-10.494	-14.100	16607	12293	0	852
-13.595	-16.156	16591	12058	0	852
-19.762	-21.313	16575	12119	0	852
-27.443	-25.893	16572	12415	0	852
-30.292	-23.368	16567	12844	0	852
-29.102	-21.385	16575	13293	0	852
-20.339	-15.290	16572	13711	0	852
-15.146	-12.514	16580	14129	0	852
-12.225	-11.720	16586	14578	0	852
-15.615	-17.526	16599	15068	0	852
-20.627	-22.034	16605	15538	0	852
-25.279	-26.830	16618	15956	0	852
-24.919	-27.768	16629	16262	1	316
-23.693	-24.594	16634	16537	0	316
-18.969	-19.077	16653	16935	0	316
-13.920	-12.405	16675	17343	0	316
-11.396	-7.285	16675	17537	0	316
-8.907	-6.996	16669	17343	0	316
-7.609	-8.511	16658	16884	0	316
-8.439	-9.665	16656	16547	0	316
-9.412	-12.694	16645	16424	0	316
-10.746	-13.884	16642	16384	0	316
-11.973	-17.526	16645	16424	0	316
-17.887	-18.572	16645	16496	0	316
-18.969	-20.087	16656	16669	0	316
-19.834	-15.687	16683	17159	0	316
-17.346	-10.746	16720	17904	0	316
-14.713	-4.832	16739	18445	0	316
-11.396	-4.147	16750	18526	0	316
-8.294	-7.212	16753	18281	0	316
-9.773	-10.638	16755	17996	0	316
-12.802	-14.497	16761	17812	0	316
-15.435	-15.146	16766	17730	0	316
-23.188	-13.487	16774	17669	0	316
-26.433	-11.107	16788	17628	0	316
-24.089	-7.321	16804	17751	0	316
-20.050	-5.049	16820	17986	0	316
-12.802	-2.741	16844	18149	0	316
-11.504	-5.229	16855	18169	0	316
-13.379	-7.717	16869	18057	0	316
-17.166	-12.802	16871	17894	0	316
-22.935	-14.208	16877	17649	0	316
-26.253	-12.802	16863	17159	0	316
-28.020	-9.881	16844	16404	0	316
-31.518	-4.832	16815	15568	0	316
-37.144	-3.859	16774	14578	0	316
-40.534	-7.321	16729	13568	0	316
-42.625	-7.898	16702	12987	0	316
-41.435	-8.583	16683	12915	0	316
-34.187	-4.580	16672	13027	0	316
-30.112	0.829	16661	13160	0	316
-30.941	3.173	16653	13344	0	316
-36.351	-0.252	16645	13589	0	316
-43.671	-6.780	16642	13854	0	316
-46.232	-8.583	16642	14140	0	316
-41.435	-5.409	16634	14446	0	316
-31.807	3.606	16634	14721	0	316
-25.099	12.369	16629	14813	0	316
-21.781	19.041	16607	14762	0	316
-20.591	17.923	16605	14813	0	316
-22.070	15.290	16602	15068	0	316
-24.847	8.294	16605	15415	0	316
-25.604	2.236	16607	15772	0	316
-28.597	-1.767	16613	16099	0	316
-29.246	-1.659	16618	16394	0	316
-25.279	2.957	16626	16690	0	316
-16.120	11.648	16634	17006	0	316
-8.186	22.142	16648	17292	0	316
-0.685	29.859	16648	17475	0	316
1.911	31.590	16653	17516	0	316
-2.236	26.506	16642	17302	0	316
-9.881	17.562	16626	16873	0	316
-16.841	7.212	16613	16496	0	316
-25.316	-0.469	16605	16262	0	316
-30.292	-2.128	16588	16119	0	316
-28.417	-3.642	16586	16089	0	316
-22.286	0.397	16588	16252	0	316
-14.894	5.301	16602	16598	0	316
-8.078	11.215	16613	17016	0	316
-6.022	13.848	16629	17384	0	316
-12.730	9.088	16645	17628	0	316
-18.103	1.551	16653	17822	0	316
-20.411	-9.953	16667	17975	0	316
-20.844	-13.812	16680	18077	0	316
-18.283	-9.989	16683	18067	0	316
-16.805	-3.498	16680	17832	0	316
-17.454	3.859	16667	17373	0	316
-18.572	6.491	16656	16843	0	316
-22.142	2.452	16642	16465	0	316
-21.313	-4.291	16631	16272	0	316
-23.693	-10.350	16618	15956	0	316
-27.191	-15.543	16586	15323	0	316
-26.506	-15.362	16553	14589	0	316
-26.181	-15.723	16526	14150	0	316
-23.837	-12.874	16513	14058	0	316
-21.926	-13.487	16494	14007	0	316
-25.316	-19.257	16472	13915	0	316
-29.463	-24.558	16459	13936	0	316
-34.115	-30.472	16454	14089	0	316
-35.377	-31.951	16445	14313	0	316
-33.177	-30.869	16443	14619	0	316
-31.230	-28.705	16437	14925	0	316
-29.679	-26.361	16440	15180	0	316
-28.164	-24.089	16432	15384	0	316
-27.371	-22.899	16424	15497	0	316
-25.496	-22.431	16416	15507	0	316
-23.981	-20.123	16410	15589	0	316
-22.322	-21.565	16405	15731	0	316
-22.503	-19.437	16402	15905	0	316
-19.726	-20.267	16402	16140	0	316
-20.555	-21.565	16405	16445	0	316
-21.421	-27.732	16413	16751	0	316
-22.755	-33.754	16424	17037	0	316
-23.260	-35.485	16429	17312	0	316
-22.431	-35.377	16437	17486	0	316
-20.123	-34.151	16432	17475	0	316
-20.555	-34.006	16429	17332	0	316
-19.185	-37.649	16429	17220	0	316
-19.942	-42.697	16429	17230	0	316
-16.156	-45.222	16427	17261	0	316
-12.730	-45.763	16424	17200	0	316
-9.376	-48.828	16419	17077	0	316
-11.576	-54.021	16432	17159	0	316
-18.608	-66.354	16443	17475	0	316
-26.866	-78.471	16456	17751	0	316
-34.872	-87.739	16464	17832	0	316
-38.118	-92.283	16467	17761	0	316
-35.593	-88.821	16464	17598	0	316
-30.436	-85.683	16454	17261	0	316
-26.253	-83.051	16437	16720	0	316
-25.712	-85.034	16416	16150	0	316
-26.506	-93.545	16397	15670	0	316
-27.047	-105.806	16379	15333	0	316
-24.847	-115.615	16371	15242	0	316
-20.591	-123.008	16371	15395	0	316
-16.012	-119.401	16371	15640	0	316
-15.903	-110.530	16371	15803	0	316
-15.182	-97.367	16366	15782	0	316
-18.320	-82.834	16341	15456	0	316
-17.815	-73.278	16314	14925	0	316
-20.447	-63.758	16301	14609	0	316
-19.870	-56.726	16287	14629	0	316
-22.972	-48.756	16282	14854	0	316
-26.217	-42.878	16285	15160	0	316
-26.902	-38.514	16287	15436	0	316
-26.830	-34.692	16282	15640	0	316
-23.657	-30.977	16285	15833	0	316
-16.769	-26.974	16282	16017	0	316
-15.831	-18.752	16282	16109	0	316
-15.543	-14.605	16261	15987	0	316
-19.149	-11.396	16250	15742	0	316
-19.546	-9.304	16244	15619	0	316
-19.113	-8.763	16234	15701	0	316
-14.930	-6.347	16236	15915	0	316
-13.163	-2.813	16234	16150	0	316
-10.133	-0.541	16223	16160	0	316
-12.333	1.947	16193	15680	0	316
-12.441	3.282	16142	14701	0	316
-11.937	3.534	16093	13721	0	316
-15.867	4.580	16056	13242	0	316
-15.110	6.311	16031	13180	0	316
-13.379	8.475	16013	13354	0	316
-11.251	16.012	16007	13752	0	316
-3.678	24.198	16018	14476	0	316
5.698	34.547	16034	15405	0	316
10.242	40.750	16056	16313	0	316
12.694	44.573	16083	17190	0	316
12.622	41.327	16115	18139	0	316
8.907	35.701	16163	19139	0	316
6.888	31.085	16207	20128	0	316
5.517	28.994	16258	20996	0	316
9.809	29.138	16309	21720	0	316
11.648	30.581	16355	22343	0	316
13.631	34.511	16410	22884	0	316
17.454	36.423	16459	23332	0	316
18.897	37.541	16510	23669	0	316
23.873	40.209	16564	23873	0	316
28.705	45.258	16607	23935	0	316
36.134	48.143	16656	23853	0	316
38.695	54.454	16696	23649	0	316
36.567	54.598	16734	23353	0	316
33.970	54.273	16769	22986	0	316
31.446	50.234	16804	22577	1	680
31.987	52.218	16831	22037	0	680
35.557	51.929	16855	21445	0	680
39.308	55.536	16890	21026	0	680
39.019	52.110	16925	20761	0	680
34.511	49.693	16944	20332	0	680
30.725	43.094	16968	19690	0	680
28.777	39.776	16982	19026	0	680
29.354	40.426	16995	18424	0	680
30.761	41.688	17012	17873	0	680
33.429	43.202	17020	17384	0	680
33.393	43.419	17030	16914	0	680
32.492	40.570	17044	16404	0	680
31.626	35.521	17036	15844	0	680
29.318	27.696	17030	15180	0	680
23.116	21.457	17022	14507	0	680
16.012	13.199	17017	14007	0	680
7.681	4.796	17012	13691	0	680
3.606	0.721	17012	13507	0	680
7.104	1.479	17012	13456	0	680
15.615	5.986	17020	13527	0	680
24.125	11.432	17030	13670	0	680
30.328	15.471	17044	13936	0	680
31.374	11.864	17063	14313	0	680
31.735	9.016	17071	14578	0	680
32.816	8.330	17074	14578	0	680
32.636	9.124	17074	14425	0	680
32.095	9.773	17074	14344	0	680
27.371	7.609	17076	14405	0	680
26.650	1.298	17074	14425	0	680
26.794	-7.104	17065	14272	0	680
29.210	-11.612	17049	13976	0	680
27.371	-19.437	17033	13721	0	680
21.096	-24.991	17022	13589	0	680
11.684	-34.187	17020	13578	0	680
5.013	-42.120	17006	13660	0	680
4.364	-46.592	17003	13772	0	680
6.996	-49.080	16995	13915	0	680
14.461	-47.926	16995	14119	0	680
13.776	-49.008	16993	14333	0	680
10.674	-55.463	16985	14517	0	680
2.488	-65.272	16990	14691	0	680
-7.140	-76.524	16985	14895	0	680
-15.326	-85.611	16993	15180	0	680
-18.536	-85.828	17006	15599	0	680
-13.992	-83.556	17012	16099	0	680
-8.943	-75.550	17030	16516	0	680
-2.200	-70.177	17047	16853	0	680
2.380	-67.761	17052	17139	0	680
1.659	-70.393	17071	17404	0	680
-1.551	-75.875	17087	17700	0	680
-6.888	-83.916	17106	18026	0	680
-11.468	-89.939	17130	18332	0	680
-18.572	-93.256	17144	18526	0	680
-21.313	-93.112	17154	18506	0	680
-22.322	-87.919	17160	18332	0	680
-19.582	-83.159	17168	18169	0	680
-17.887	-79.805	17173	18037	0	680
-16.661	-78.002	17173	17863	0	680
-19.654	-84.205	17181	17659	0	680
-25.424	-88.352	17184	17506	0	680
-26.361	-94.879	17192	17384	0	680
-28.453	-93.184	17195	17251	0	680
-25.820	-91.778	17198	17139	0	680
-27.155	-84.097	17198	16996	0	680
-25.929	-80.022	17198	16802	0	680
-29.030	-77.461	17206	16700	0	680
-28.994	-74.432	17208	16690	0	680
-26.830	-71.475	17214	16659	0	680
-23.945	-66.823	17214	16506	0	680
-20.591	-61.918	17208	16303	0	680
-16.697	-58.204	17208	16119	0	680
-13.091	-55.752	17206	16027	0	680
-7.068	-51.533	17211	16068	0	680
-4.760	-49.405	17219	16180	0	680
-2.921	-46.376	17222	16170	0	680
-5.265	-45.799	17214	16027	0	680
-11.432	-47.854	17211	15874	0	680
-14.858	-50.270	17214	15813	0	680
-16.589	-49.838	17214	15833	0	680
-15.254	-50.270	17214	15833	0	680
-13.920	-47.602	17214	15782	0	680
-11.864	-42.373	17208	15752	0	680
-8.006	-37.505	17206	15670	0	680
-6.635	-31.374	17192	15466	0	680
-6.203	-28.741	17181	15180	0	680
-6.888	-26.938	17160	14895	0	680
-6.383	-27.840	17144	14609	0	680
-6.203	-29.246	17125	14354	0	680
-1.659	-28.633	17106	14191	0	680
-0.541	-30.472	17098	14119	0	680
-1.587	-29.895	17079	14140	0	680
-4.400	-30.653	17071	14262	0	680
-7.717	-30.184	17063	14395	0	680
-10.602	-31.482	17049	14456	0	680
-11.143	-31.699	17044	14497	0	680
-12.189	-31.879	17025	14578	0	680
-9.989	-30.941	17020	14691	0	680
-4.400	-25.929	17006	14721	0	680
-1.983	-21.601	16982	14629	0	680
-0.793	-22.070	16968	14548	0	680
-3.282	-22.935	16955	14599	0	680
-10.025	-27.479	16955	14854	0	680
-14.245	-32.889	16950	15211	0	680
-14.605	-34.692	16944	15476	0	680
-15.723	-33.934	16939	15650	0	680
-15.290	-32.744	16941	15884	0	680
-17.238	-31.230	16941	16252	0	680
-17.634	-29.030	16952	16639	0	680
-17.526	-26.253	16952	16914	0	680
-12.441	-22.070	16958	17047	0	680
-6.527	-18.103	16958	17149	0	680
-2.164	-13.018	16958	17261	0	680
0.613	-12.802	16963	17404	0	680
3.462	-13.379	16982	17720	0	680
2.488	-14.497	16998	18169	0	680
-2.272	-19.978	17017	18526	0	680
-6.347	-24.955	17025	18628	0	680
-13.884	-29.931	17033	18618	0	680
-16.192	-33.502	17049	18700	0	680
-14.966	-30.256	17065	18822	0	680
-7.573	-25.856	17065	18720	0	680
-1.551	-20.195	17057	18322	0	680
1.298	-20.050	17049	17792	0	680
-0.613	-21.926	17038	17302	0	680
-3.534	-21.168	17025	16904	0	680
-4.508	-16.336	17017	16547	0	680
-0.793	-5.301	16998	16150	0	680
6.744	4.255	16976	15650	0	680
10.314	7.717	16955	15150	0	680
8.258	0.397	16931	14772	0	680
1.947	-10.746	16914	14538	0	680
-3.606	-17.706	16890	14364	0	680
-3.426	-18.247	16874	14140	0	680
4.075	-7.789	16855	13915	0	680
13.740	4.472	16834	13793	0	680
22.467	14.100	16809	13711	0	680
24.847	15.651	16788	13558	0	680
21.781	13.956	16764	13436	0	680
17.129	7.862	16742	13436	0	680
9.376	0.180	16726	13558	0	680
2.885	-4.327	16712	13762	0	680
-1.479	-5.914	16702	14007	0	680
-3.029	-5.013	16688	14262	0	680
0.757	-1.010	16680	14476	0	680
2.885	3.462	16667	14629	0	680
7.357	3.750	16648	14711	0	680
6.960	1.623	16631	14782	0	680
3.714	-1.515	16621	14854	0	680
2.092	-5.950	16602	14936	0	680
0.397	-9.629	16586	14987	0	680
2.416	-11.468	16561	14936	0	680
6.347	-10.025	16540	14833	0	680
10.855	-3.029	16518	14803	0	680
15.146	2.741	16491	14640	0	680
14.100	7.934	16454	14293	0	680
15.002	10.025	16427	14068	0	680
17.490	10.242	16400	14058	0	680
21.601	12.441	16376	14129	0	680
27.768	16.120	16355	14282	0	680
28.092	20.627	16341	14507	0	680
26.902	18.247	16323	14701	0	680
16.913	13.343	16298	14772	0	680
10.855	6.167	16282	14793	0	680
3.029	-1.370	16261	14966	0	680
1.226	-3.318	16258	15364	0	680
2.669	-0.180	16258	15874	0	680
7.753	6.924	16255	16323	0	680
13.631	12.586	16258	16761	0	680
18.031	18.680	16269	17220	0	680
19.942	18.788	16269	17628	0	680
16.949	17.418	16274	17935	0	680
12.730	14.353	16285	18210	0	680
8.871	11.432	16290	18516	0	680
6.780	13.523	16298	18761	0	680
8.366	14.389	16298	18802	0	680
12.730	18.752	16301	18690	0	680
13.668	19.365	16298	18598	0	680
13.740	20.411	16298	18577	0	680
12.189	19.834	16298	18486	0	680
10.963	24.702	16287	18210	0	680
11.900	29.931	16282	17843	0	680
13.812	30.725	16271	17577	0	680
13.307	28.453	16269	17455	0	680
11.107	24.919	16269	17445	0	680
14.245	25.063	16263	17424	0	680
17.418	30.184	16263	17332	0	680
22.070	34.223	16263	17261	0	680
20.339	34.079	16261	17220	0	680
10.638	27.479	16258	17108	0	680
-2.849	19.546	16250	16873	0	680
-13.163	16.048	16236	16588	0	680
-17.779	13.668	16231	16384	0	680
-20.339	10.422	16234	16384	0	680
-20.736	6.419	16234	16567	0	680
-23.837	1.731	16247	16873	0	680
-27.624	-2.560	16255	17108	0	680
-29.427	-4.219	16263	17241	0	680
-29.643	-5.013	16271	17363	0	680
-33.321	-6.780	16296	17628	0	680
-37.000	-7.285	16312	18026	0	680
-43.130	-9.016	16341	18445	0	680
-48.467	-11.468	16368	18832	0	680
-50.234	-16.985	16392	19200	0	680
-43.851	-20.231	16424	19506	0	680
-36.891	-22.503	16464	19843	0	680
-33.213	-21.349	16507	20394	0	680
-32.708	-23.512	16567	21128	0	680
-40.101	-30.797	16613	21669	0	680
-46.592	-37.973	16656	21812	0	680
-51.388	-46.953	16693	21761	0	680
-49.838	-47.169	16737	21792	0	680
-46.556	-39.091	16782	21935	0	680
-37.973	-28.201	16823	21986	0	680
-29.535	-19.041	16858	21832	0	680
-23.621	-15.543	16898	21537	0	680
-24.306	-15.795	16928	21200	1	864
-27.263	-19.329	16958	20894	0	864
-33.826	-22.322	16995	20649	0	864
-36.855	-23.801	17025	20424	0	864
-36.278	-22.575	17057	20118	0	864
-34.151	-23.549	17084	19751	0	864
-31.590	-21.565	17114	19445	0	864
-29.102	-16.985	17152	19261	0	864
-26.974	-13.523	17181	19108	0	864
-25.784	-10.710	17208	18843	0	864
-22.358	-6.167	17235	18496	0	864
-19.329	-1.442	17262	18179	0	864
-12.045	4.003	17281	17924	0	864
-7.285	9.665	17305	17679	0	864
-4.400	10.999	17319	17322	0	864
-5.481	9.160	17343	16914	0	864
-6.527	3.246	17357	16577	0	864
-6.094	3.426	17373	16354	0	864
-1.623	7.321	17384	16119	0	864
5.013	15.831	17400	15864	0	864
14.749	25.929	17408	15599	0	864
19.798	32.961	17410	15293	0	864
24.847	34.908	17408	14823	0	864
22.575	32.023	17402	14231	0	864
18.283	26.758	17386	13731	0	864
10.963	23.837	17386	13425	0	864
10.674	19.510	17375	13201	0	864
11.648	19.582	17359	12884	0	864
11.071	16.805	17346	12487	0	864
12.694	15.831	17327	12170	0	864
8.150	12.838	17316	12048	0	864
7.681	12.441	17305	12099	0	864
9.809	13.487	17295	12262	0	864
13.127	14.749	17292	12436	0	864
13.740	16.048	17286	12640	0	864
15.435	16.192	17289	12946	0	864
15.867	18.175	17295	13354	0	864
17.490	21.854	17295	13793	0	864
22.106	27.227	17303	14170	0	864
28.814	33.574	17308	14487	0	864
34.331	35.846	17313	14844	0	864
36.603	37.432	17330	15272	0	864
40.822	36.747	17340	15752	0	864
41.111	36.531	17354	16140	0	864
40.966	37.973	17362	16414	0	864
41.796	39.127	17375	16700	0	864
42.048	39.163	17394	16996	0	864
39.488	36.459	17402	17281	0	864
36.351	31.662	17424	17567	0	864
33.285	24.775	17448	17863	0	864
27.660	20.159	17451	17996	0	864
22.935	15.038	17451	17832	0	864
19.978	14.317	17451	17475	0	864
16.300	12.081	17448	17169	0	864
16.408	7.753	17443	16914	0	864
11.251	5.445	17424	16516	0	864
5.445	0.541	17400	15864	0	864
-1.659	-3.787	17373	15150	0	864
-4.724	-5.193	17348	14660	0	864
-4.940	-7.140	17335	14466	0	864
2.056	-4.327	17327	14487	0	864
4.327	-1.082	17319	14589	0	864
7.501	0.974	17313	14680	0	864
4.977	0.902	17319	14874	0	864
0.721	-1.442	17327	15272	0	864
0.505	-3.534	17332	15721	0	864
1.370	-1.118	17346	16119	0	864
6.239	6.094	17357	16445	0	864
10.602	13.235	17359	16628	0	864
14.245	20.123	17354	16486	0	864
13.307	18.320	17335	16109	0	864
12.694	15.651	17330	15844	0	864
14.172	9.953	17316	15803	0	864
14.497	5.698	17316	15844	0	864
13.668	5.698	17316	15956	0	864
9.773	3.859	17316	16150	0	864
0.577	-2.813	17330	16414	0	864
-8.583	-11.107	17340	16771	0	864
-13.054	-18.320	17357	17128	0	864
-15.651	-18.860	17362	17363	0	864
-14.569	-15.074	17367	17373	0	864
-9.737	-9.592	17362	17190	0	864
-9.520	-6.924	17359	16996	0	864
-11.756	-13.595	17362	16884	0	864
-15.615	-19.401	17348	16771	0	864
-20.988	-24.702	17340	16506	0	864
-20.555	-22.863	17327	16160	0	864
-17.995	-19.293	17330	16038	0	864
-9.448	-12.658	17332	16211	0	864
-6.131	-11.973	17343	16445	0	864
-6.022	-14.425	17340	16567	0	864
-9.196	-17.887	17343	16537	0	864
-9.412	-17.454	17335	16455	0	864
-9.484	-16.228	17340	16424	0	864
-7.321	-14.353	17335	16414	0	864
-6.022	-13.920	17332	16323	0	864
-8.402	-17.238	17319	16048	0	864
-11.360	-15.831	17303	15742	0	864
-12.802	-12.730	17295	15599	0	864
-9.809	-8.727	17292	15691	0	864
-5.950	-5.770	17300	15905	0	864
-5.013	-7.465	17303	16078	0	864
-7.429	-14.425	17303	16201	0	864
-17.634	-22.899	17308	16333	0	864
-30.617	-29.823	17313	16506	0	864
-36.495	-33.970	17319	16690	0	864
-39.632	-32.312	17319	16781	0	864
-35.629	-27.479	17330	16802	0	864
-32.167	-23.549	17327	16771	0	864
-33.718	-20.916	17327	16669	0	864
-33.213	-16.877	17322	16577	0	864
-31.482	-13.992	17330	16679	0	864
-27.119	-7.068	17335	16853	0	864
-21.313	-4.039	17327	16792	0	864
-18.175	0.072	17322	16537	0	864
-17.382	1.839	17308	16252	0	864
-18.680	0.829	17295	15946	0	864
-17.310	1.695	17286	15660	0	864
-19.257	-0.469	17268	15466	0	864
-19.185	-4.039	17260	15303	0	864
-17.923	-2.596	17246	15099	0	864
-11.360	1.623	17227	14987	0	864
-6.455	5.445	17227	15068	0	864
-1.911	8.619	17222	15242	0	864
-6.924	4.364	17219	15354	0	864
-16.805	-4.652	17214	15395	0	864
-25.243	-13.559	17206	15425	0	864
-27.587	-20.231	17200	15517	0	864
-24.883	-18.103	17206	15721	0	864
-18.211	-16.480	17200	15915	0	864
-13.018	-11.973	17181	15762	0	864
-14.641	-11.900	17146	15150	0	864
-15.290	-13.992	17111	14374	0	864
-16.192	-15.110	17079	13925	0	864
-17.851	-15.831	17060	13833	0	864
-15.218	-11.179	17036	13813	0	864
-12.081	-3.859	17012	13803	0	864
-5.229	0.721	16995	13844	0	864
0.288	7.501	16979	13976	0	864
3.570	8.366	16971	14201	0	864
2.019	3.714	16958	14446	0	864
-1.190	1.298	16952	14691	0	864
-4.364	-0.613	16936	14874	0	864
-4.291	2.741	16917	14905	0	864
-0.036	9.881	16896	14813	0	864
5.878	15.615	16877	14803	0	864
12.550	20.627	16869	14966	0	864
17.202	22.431	16858	15221	0	864
21.601	21.781	16844	15425	0	864
18.572	22.575	16831	15507	0	864
16.480	19.221	16820	15558	0	864
12.514	17.670	16815	15701	0	864
7.104	10.169	16807	15925	0	864
-2.560	4.544	16793	16089	0	864
-14.208	-6.780	16782	16150	0	864
-26.253	-15.615	16780	16282	0	864
-34.223	-20.700	16780	16557	0	864
-33.790	-17.779	16782	16884	0	864
-25.352	-8.547	16780	17108	0	864
-15.975	0.325	16774	17190	0	864
-8.042	4.039	16774	17200	0	864
-7.321	1.118	16774	17292	0	864
-10.602	-4.436	16777	17475	0	864
-13.307	-6.671	16780	17690	0	864
-11.504	-4.075	16782	17802	0	864
-3.895	2.416	16780	17812	0	864
4.904	9.592	16782	17812	0	864
10.602	15.867	16782	17832	0	864
14.245	19.618	16788	17863	0	864
14.100	22.178	16788	17822	0	864
11.684	22.647	16788	17720	0	864
9.989	17.995	16780	17547	0	864
11.468	17.634	16761	17118	0	864
15.218	17.706	16739	16577	0	864
23.945	22.683	16737	16354	0	864
26.542	23.729	16734	16455	0	864
26.686	24.522	16720	16424	0	864
19.005	19.041	16702	16099	0	864
8.042	8.583	16680	15609	0	864
-2.236	-0.325	16656	15180	0	864
-14.136	-9.665	16626	14782	0	864
-19.834	-16.300	16588	14180	0	864
-21.601	-16.841	16537	13405	0	864
-16.877	-13.379	16499	12854	0	864
-12.586	-9.088	16464	12629	0	864
-11.612	-7.285	16440	12640	0	864
-14.425	-12.946	16424	12895	0	864
-22.034	-20.014	16410	13303	0	864
-24.198	-25.135	16400	13691	0	864
-21.060	-24.450	16392	14089	0	864
-13.848	-19.041	16386	14507	0	864
-6.167	-13.451	16384	14905	0	864
-1.118	-11.107	16382	15282	0	864
-3.318	-12.009	16382	15691	0	864
-6.816	-14.677	16384	16140	0	864
-10.350	-16.120	16386	16608	0	864
-9.124	-13.343	16392	17006	0	864
-5.734	-12.405	16389	17200	0	864
-3.534	-12.261	16384	17200	0	864
-5.626	-12.730	16382	17200	0	864
-9.016	-16.769	16379	17281	0	864
-12.658	-17.598	16371	17281	0	864
-12.477	-18.752	16363	17190	0	864
-9.016	-16.192	16358	17159	0	864
-7.032	-17.274	16355	17210	0	864
-9.232	-17.057	16344	17190	0	864
-13.451	-20.195	16339	17026	0	864
-20.808	-22.322	16325	16812	0	864
-20.014	-25.027	16317	16710	0	864
-19.041	-26.542	16317	16802	0	864
-11.756	-25.676	16328	17098	0	864
-8.330	-18.860	16339	17516	0	864
-4.436	-14.713	16355	17904	0	864
-5.878	-9.484	16376	18241	0	864
-5.698	-7.176	16389	18577	0	864
-5.698	-7.934	16410	18884	0	864
-4.868	-8.763	16429	19128	0	864
-3.895	-6.347	16451	19343	0	864
0.397	0.072	16472	19547	0	864
2.596	6.131	16505	19822	0	864
4.544	10.530	16545	20220	0	864
3.210	12.441	16578	20649	0	864
0.938	13.415	16615	20945	0	864
-0.252	11.864	16656	21118	0	864
3.065	14.966	16683	21210	0	864
9.665	21.890	16723	21261	0	864
13.379	24.666	16755	21312	0	864
16.877	26.866	16793	21312	0	864
15.326	26.109	16828	21241	0	864
13.704	25.388	16858	21108	0	864
15.687	22.827	16885	20894	0	864
14.858	22.431	16912	20588	0	864
16.516	25.279	16936	20251	1	928
16.156	26.325	16966	19945	0	928
16.841	29.174	16982	19628	0	928
17.021	30.617	16998	19190	0	928
21.493	33.646	17006	18618	0	928
24.270	35.377	17022	18128	0	928
26.037	38.009	17044	17812	0	928
26.253	37.973	17057	17618	0	928
23.152	37.432	17076	17465	0	928
22.935	35.377	17092	17230	0	928
25.748	37.360	17106	16996	0	928
27.768	40.642	17127	16843	0	928
29.066	41.543	17146	16761	0	928
27.010	39.560	17160	16639	0	928
24.919	35.918	17173	16424	0	928
25.027	33.033	17184	16272	0	928
27.407	32.600	17206	16262	0	928
26.722	29.931	17233	16394	0	928
25.243	28.453	17262	16649	0	928
20.664	25.207	17281	16863	0	928
20.447	25.063	17313	17016	0	928
20.700	25.424	17343	17220	0	928
17.166	22.791	17381	17506	0	928
11.396	18.788	17410	17771	0	928
3.029	13.631	17448	17996	0	928
-3.967	11.323	17481	18190	0	928
-5.157	11.900	17518	18322	0	928
-4.219	13.559	17548	18394	0	928
-1.370	17.166	17583	18486	0	928
1.947	17.887	17613	18537	0	928
4.796	22.214	17640	18455	0	928
7.357	23.693	17656	18230	0	928
5.517	22.719	17677	17884	0	928
1.010	20.916	17691	17496	0	928
-4.544	14.677	17696	17159	0	928
-9.484	11.937	17712	16884	0	928
-8.727	11.251	17723	16679	0	928
-4.364	13.054	17734	16414	0	928
1.046	15.579	17731	16007	0	928
4.940	16.372	17734	15548	0	928
9.088	15.687	17734	15231	0	928
9.304	12.189	17739	15038	0	928
7.429	9.701	17737	14844	0	928
6.383	9.160	17737	14538	0	928
7.573	10.783	17726	14252	0	928
9.016	14.028	17731	14099	0	928
13.127	19.798	17726	14089	0	928
14.317	22.467	17726	14099	0	928
15.471	24.414	17726	14038	0	928
11.612	21.673	17723	13997	0	928
7.862	17.454	17731	14099	0	928
4.796	12.477	17734	14354	0	928
1.479	7.501	17747	14650	0	928
-0.469	5.986	17747	14895	0	928
-0.144	5.517	17753	14976	0	928
3.210	9.412	17734	14762	0	928
3.931	14.569	17720	14293	0	928
5.590	16.769	17696	13915	0	928
5.157	19.293	17683	13731	0	928
0.144	14.966	17672	13640	0	928
-3.390	13.127	17650	13568	0	928
-6.888	12.009	17629	13395	0	928
-6.563	13.199	17605	13119	0	928
-1.298	16.985	17583	12956	0	928
2.416	16.300	17569	13048	0	928
3.895	16.661	17551	13272	0	928
2.452	12.225	17543	13436	0	928
-1.551	9.052	17524	13517	0	928
-4.652	6.275	17518	13670	0	928
-4.868	3.498	17507	13966	0	928
-1.731	3.426	17505	14364	0	928
2.272	5.337	17494	14691	0	928
6.924	8.258	17483	14854	0	928
9.160	9.917	17475	14987	0	928
8.042	8.042	17475	15211	0	928
3.642	1.226	17470	15538	0	928
-1.551	-6.275	17467	15833	0	928
-5.445	-8.655	17470	16038	0	928
-7.753	-9.629	17464	16201	0	928
-7.970	-4.003	17464	16424	0	928
-7.321	-0.144	17470	16751	0	928
-7.248	-0.072	17475	17077	0	928
-9.556	-1.767	17478	17302	0	928
-14.317	-6.671	17489	17424	0	928
-18.572	-11.323	17489	17537	0	928
-23.296	-14.821	17491	17690	0	928
-20.519	-15.651	17497	17873	0	928
-17.310	-13.343	17497	17914	0	928
-14.208	-15.579	17491	17669	0	928
-19.077	-20.772	17478	17271	0	928
-26.866	-29.823	17467	16955	0	928
-35.341	-36.242	17456	16741	0	928
-39.163	-37.216	17448	16557	0	928
-34.511	-31.915	17440	16445	0	928
-26.902	-26.109	17435	16374	0	928
-21.096	-21.745	17421	16170	0	928
-18.356	-22.791	17402	15905	0	928
-18.500	-24.919	17400	15813	0	928
-20.519	-27.119	17397	15956	0	928
-22.322	-29.607	17394	16129	0	928
-23.801	-32.961	17389	16191	0	928
-25.532	-34.115	17386	16170	0	928
-23.621	-33.826	17381	16160	0	928
-21.529	-31.230	17381	16211	0	928
-19.834	-27.515	17381	16293	0	928
-14.317	-19.473	17373	16323	0	928
-11.720	-14.281	17367	16262	0	928
-8.799	-7.176	17357	16170	0	928
-8.439	-2.849	17357	16140	0	928
-7.393	-3.714	17354	16211	0	928
-11.684	-7.537	17357	16333	0	928
-13.487	-13.812	17346	16364	0	928
-12.405	-16.264	17346	16313	0	928
-12.225	-16.012	17335	16252	0	928
-9.088	-11.396	17335	16231	0	928
-6.239	-9.448	17330	16272	0	928
-4.472	-6.671	17330	16333	0	928
-2.488	-7.068	17316	16252	0	928
-1.803	-6.203	17300	15936	0	928
-0.288	-5.914	17276	15527	0	928
-0.721	-8.330	17260	15180	0	928
-4.580	-11.360	17238	14936	0	928
-10.025	-15.579	17219	14772	0	928
-17.166	-21.457	17195	14578	0	928
-22.322	-24.342	17168	14323	0	928
-23.368	-27.047	17146	14119	0	928
-21.781	-28.092	17138	14221	0	928
-16.192	-25.352	17133	14640	0	928
-13.343	-16.913	17138	15150	0	928
-9.304	-10.061	17133	15517	0	928
-11.179	-5.950	17130	15701	0	928
-11.973	-7.393	17125	15803	0	928
-13.704	-11.215	17119	15946	0	928
-13.271	-15.362	17125	16160	0	928
-10.169	-12.982	17119	16374	0	928
-3.606	-5.265	17117	16486	0	928
2.993	3.895	17114	16567	0	928
7.248	10.386	17114	16710	0	928
10.710	13.018	17119	16975	0	928
10.746	11.576	17130	17261	0	928
10.206	8.691	17130	17435	0	928
11.035	5.662	17138	17475	0	928
13.343	5.626	17133	17486	0	928
18.644	8.727	17133	17475	0	928
20.916	11.612	17133	17465	0	928
25.135	17.274	17130	17373	0	928
26.578	18.320	17119	17179	0	928
26.542	20.339	17111	16935	0	928
25.568	17.706	17103	16710	0	928
26.578	18.139	17103	16639	0	928
27.155	17.923	17114	16884	0	928
25.496	18.608	17127	17322	0	928
24.306	17.923	17130	17537	0	928
22.575	14.569	17125	17281	0	928
21.204	14.028	17106	16771	0	928
23.260	17.093	17098	16323	0	928
30.112	22.178	17076	16027	0	928
34.547	28.994	17065	15874	0	928
36.747	33.538	17063	15823	0	928
37.757	32.780	17052	15793	0	928
37.180	29.607	17052	15803	0	928
37.252	30.076	17047	15854	0	928
39.524	30.148	17044	15905	0	928
43.455	34.620	17036	15874	0	928
43.924	37.649	17020	15701	0	928
43.238	39.560	17006	15456	0	928
43.887	37.541	16993	15252	0	928
46.123	36.170	16979	15191	0	928
48.467	37.432	16971	15201	0	928
53.913	39.199	16955	15180	0	928
56.329	43.274	16941	15048	0	928
59.322	47.097	16904	14650	0	928
59.538	47.205	16871	14068	0	928
53.732	44.609	16842	13629	0	928
44.140	35.918	16807	13374	0	928
31.626	26.109	16774	13170	0	928
22.214	18.320	16742	13038	0	928
17.887	13.956	16720	13038	0	928
17.634	13.415	16699	13191	0	928
13.127	11.864	16688	13548	0	928
6.671	6.635	16683	14058	0	928
4.724	1.767	16675	14497	0	928
6.780	0.180	16656	14650	0	928
11.900	2.380	16640	14660	0	928
18.716	4.652	16621	14752	0	928
20.339	8.258	16607	14956	0	928
23.224	11.432	16599	15201	0	928
24.702	13.559	16586	15395	0	928
30.581	20.231	16567	15487	0	928
35.665	21.890	16567	15701	0	928
36.495	22.250	16567	16140	0	928
36.855	19.149	16564	16567	0	928
36.278	17.815	16561	16781	0	928
34.079	13.091	16548	16781	0	928
30.617	10.206	16540	16761	0	928
24.414	4.760	16532	16853	0	928
17.057	2.741	16534	17057	0	928
14.461	3.390	16537	17292	0	928
13.415	8.583	16532	17424	0	928
19.978	16.985	16532	17465	0	928
25.676	19.401	16524	17526	0	928
29.174	19.654	16532	17628	0	928
30.220	15.146	16532	17730	0	928
29.679	12.838	16524	17730	0	928
29.751	12.766	16521	17628	0	928
31.122	15.290	16518	17526	0	928
28.273	19.437	16510	17445	0	928
24.558	17.815	16507	17343	0	928
21.637	17.923	16499	17169	0	928
18.067	14.064	16483	16975	0	928
20.988	13.920	16472	16781	0	928
21.601	11.756	16456	16475	0	928
19.762	8.006	16437	16068	0	928
16.516	4.724	16416	15701	0	928
10.855	1.370	16397	15436	0	928
9.953	0.505	16371	15140	0	928
11.864	1.875	16339	14691	0	928
14.461	4.508	16309	14242	0	928
13.307	3.642	16290	14129	0	928
11.720	4.760	16285	14384	0	928
6.563	4.327	16285	14793	0	928
5.517	5.409	16274	15129	0	928
6.058	5.770	16269	15323	0	928
8.763	5.121	16263	15476	0	928
7.573	2.957	16261	15711	0	928
1.947	-0.541	16261	16017	0	928
-6.888	-3.967	16263	16323	0	928
-12.910	-6.419	16269	16608	0	928
-17.815	-9.917	16269	16812	0	928
-14.713	-10.206	16261	16822	0	928
-13.163	-11.720	16255	16751	0	928
-12.225	-10.566	16255	16843	0	928
-14.136	-11.432	16258	17016	0	928
-20.700	-13.127	16258	17190	0	928
-25.243	-13.487	16269	17394	0	928
-28.597	-15.362	16282	17659	0	928
-27.587	-11.287	16298	18047	0	928
-24.342	-9.989	16323	18547	0	928
-19.113	-5.878	16352	19067	0	928
-18.247	-6.671	16376	19455	0	928
-18.824	-8.511	16392	19649	0	928
-22.358	-10.927	16413	19720	0	928
-25.965	-12.658	16432	19771	0	928
-24.594	-11.071	16454	19843	0	928
-25.099	-6.996	16470	19853	0	928
-24.017	-5.121	16483	19690	0	928
-23.512	-3.859	16499	19465	0	928
-27.227	-6.996	16521	19465	0	928
-30.545	-11.828	16553	19690	0	928
-34.764	-15.615	16580	19904	0	928
-38.334	-19.185	16613	19945	0	928
-42.301	-20.447	16629	19853	1	1004
-42.806	-21.854	16658	19761	0	1004
-40.137	-21.024	16685	19741	0	1004
-37.937	-18.175	16710	19710	0	1004
-35.737	-16.805	16729	19557	0	1004
-35.124	-13.776	16753	19281	0	1004
-35.701	-14.605	16769	19016	0	1004
-32.420	-13.848	16793	18832	0	1004
-26.325	-10.494	16817	18751	0	1004
-19.762	-9.160	16842	18720	0	1004
-15.903	-6.419	16861	18659	0	1004
-14.425	-7.140	16888	18537	0	1004
-14.317	-8.150	16914	18424	0	1004
-13.595	-8.835	16931	18292	0	1004
-9.737	-6.203	16941	17965	0	1004
-6.239	-2.741	16944	17455	0	1004
-6.924	1.298	16955	16975	0	1004
-9.196	1.839	16958	16649	0	1004
-13.559	1.118	16968	16404	0	1004
-14.100	-2.056	16976	16221	0	1004
-13.271	-4.616	16982	15976	0	1004
-6.094	-2.633	16966	15436	0	1004
-0.685	2.885	16941	14568	0	1004
3.282	7.501	16917	13772	0	1004
3.498	10.783	16904	13354	0	1004
1.731	11.612	16896	13231	0	1004
0.541	11.071	16896	13344	0	1004
-1.226	10.422	16904	13650	0	1004
0.541	10.891	16912	14038	0	1004
4.652	13.379	16931	14425	0	1004
8.258	13.812	16944	14844	0	1004
12.333	17.959	16944	15078	0	1004
15.831	21.637	16952	15068	0	1004
15.867	25.640	16952	15109	0	1004
18.320	30.833	16966	15323	0	1004
19.221	36.783	16971	15619	0	1004
25.316	41.976	16993	16017	0	1004
33.357	49.693	17022	16547	0	1004
43.707	53.841	17047	17128	0	1004
54.814	60.188	17074	17577	0	1004
57.627	59.358	17098	17894	0	1004
55.103	54.273	17127	18220	0	1004
46.412	45.258	17160	18618	0	1004
41.111	36.855	17195	19006	0	1004
37.937	35.846	17214	19159	0	1004
40.606	40.498	17219	18832	0	1004
43.022	46.232	17208	18037	0	1004
39.452	46.340	17195	17190	0	1004
32.023	40.642	17192	16700	0	1004
23.693	31.662	17200	16639	0	1004
21.781	25.568	17222	16863	0	1004
18.464	21.890	17235	17057	0	1004
19.978	20.339	17241	16996	0	1004
18.644	15.290	17246	16802	0	1004
12.730	12.477	17254	16679	0	1004
6.708	9.917	17265	16669	0	1004
7.789	10.674	17278	16690	0	1004
10.710	18.356	17276	16577	0	1004
16.769	23.693	17278	16323	0	1004
24.739	28.237	17289	16191	0	1004
26.542	31.554	17295	16323	0	1004
28.850	34.187	17316	16537	0	1004
29.463	34.692	17327	16710	0	1004
32.636	37.757	17340	16761	0	1004
36.134	39.488	17346	16730	0	1004
37.901	36.423	17357	16679	0	1004
36.603	32.384	17362	16679	0	1004
34.475	28.669	17381	16710	0	1004
32.312	25.424	17384	16690	0	1004
27.804	23.981	17389	16608	0	1004
25.532	23.404	17400	16567	0	1004
20.014	24.486	17410	16628	0	1004
16.589	20.916	17424	16730	0	1004
12.441	18.247	17429	16761	0	1004
11.864	15.939	17435	16598	0	1004
9.989	11.828	17413	16119	0	1004
7.501	8.511	17394	15395	0	1004
3.895	5.554	17375	14793	0	1004
4.580	5.878	17354	14425	0	1004
5.950	5.806	17343	14180	0	1004
8.402	7.501	17322	13976	0	1004
13.451	11.612	17300	13680	0	1004
16.661	16.264	17281	13364	0	1004
20.844	19.149	17268	13364	0	1004
25.460	24.775	17265	13650	0	1004
27.515	26.830	17260	13823	0	1004
28.381	27.840	17235	13782	0	1004
30.797	31.230	17224	13711	0	1004
35.810	35.233	17211	13752	0	1004
40.822	40.678	17208	13976	0	1004
44.501	43.022	17206	14313	0	1004
42.337	39.452	17195	14558	0	1004
32.023	29.174	17181	14609	0	1004
21.709	16.985	17173	14670	0	1004
15.975	5.373	17168	14915	0	1004
15.038	2.813	17173	15272	0	1004
19.870	5.698	17173	15609	0	1004
23.621	11.396	17171	15854	0	1004
23.476	12.694	17171	16058	0	1004
20.087	11.035	17171	16272	0	1004
13.163	7.032	17179	16526	0	1004
9.520	3.931	17184	16802	0	1004
8.402	3.750	17187	16996	0	1004
6.058	2.236	17187	17098	0	1004
4.039	-2.344	17187	17169	0	1004
1.803	-8.222	17192	17271	0	1004
0.144	-9.124	17192	17363	0	1004
1.551	-7.212	17195	17363	0	1004
2.705	-4.652	17192	17261	0	1004
3.823	0.144	17184	17108	0	1004
1.190	-1.551	17181	16975	0	1004
-2.524	-4.904	17173	16853	0	1004
-3.750	-5.698	17168	16700	0	1004
-0.397	-2.596	17157	16496	0	1004
6.203	6.527	17141	16201	0	1004
18.572	16.084	17114	15711	0	1004
24.847	24.702	17084	15109	0	1004
26.289	22.322	17044	14497	0	1004
22.250	16.480	16998	13762	0	1004
12.369	6.311	16944	12946	0	1004
7.104	3.173	16904	12344	0	1004
7.825	5.121	16863	12017	0	1004
11.360	10.206	16823	11884	0	1004
14.028	12.081	16796	11946	0	1004
14.821	12.730	16774	12160	0	1004
10.963	8.402	16750	12436	0	1004
3.462	3.859	16734	12793	0	1004
1.262	0.072	16723	13272	0	1004
-1.406	-1.587	16715	13874	0	1004
0.902	-2.056	16715	14558	0	1004
5.662	-0.072	16723	15272	0	1004
9.989	3.246	16726	15874	0	1004
12.730	4.977	16726	16344	0	1004
13.668	5.662	16729	16751	0	1004
16.552	4.400	16739	17179	0	1004
15.759	6.744	16750	17588	0	1004
16.877	6.635	16742	17812	0	1004
12.730	4.147	16734	17720	0	1004
9.989	2.488	16712	17373	0	1004
9.665	1.118	16688	16996	0	1004
12.333	2.921	16672	16669	0	1004
22.358	8.691	16653	16414	0	1004
31.302	19.329	16631	16242	0	1004
41.003	28.994	16615	16099	0	1004
46.628	38.154	16588	15844	0	1004
48.828	43.310	16561	15517	0	1004
43.130	39.272	16545	15323	0	1004
34.836	29.102	16526	15395	0	1004
25.063	16.192	16526	15640	0	1004
19.834	9.124	16510	15803	0	1004
18.572	9.917	16491	15752	0	1004
21.241	12.910	16481	15660	0	1004
25.207	17.562	16470	15721	0	1004
23.440	16.661	16464	15884	0	1004
21.781	15.254	16454	16078	0	1004
15.182	11.900	16451	16303	0	1004
13.307	8.979	16454	16537	0	1004
7.970	6.563	16456	16832	0	1004
2.524	4.544	16467	17210	0	1004
1.551	3.173	16470	17588	0	1004
-2.705	3.606	16472	17822	0	1004
-0.325	3.678	16472	17843	0	1004
2.669	4.364	16467	17639	0	1004
9.917	5.193	16456	17343	0	1004
14.677	6.635	16445	17179	0	1004
17.418	10.025	16440	17108	0	1004
20.159	10.025	16437	17016	0	1004
14.497	5.842	16427	16924	0	1004
8.763	1.154	16424	16873	0	1004
4.760	-2.885	16424	16904	0	1004
8.330	-0.036	16437	17159	0	1004
16.733	7.393	16451	17588	0	1004
24.234	16.372	16454	17853	0	1004
27.696	18.464	16454	17730	0	1004
22.683	16.372	16443	17394	0	1004
18.139	11.792	16437	17108	0	1004
15.398	9.052	16437	16965	0	1004
18.464	11.179	16432	16945	0	1004
22.395	12.225	16429	16935	0	1004
22.431	10.891	16427	16884	0	1004
21.781	6.383	16432	16884	0	1004
18.752	5.301	16437	16975	0	1004
19.978	5.193	16440	17047	0	1004
19.077	6.816	16440	17006	0	1004
17.454	7.212	16432	16843	0	1004
10.566	0.505	16427	16598	0	1004
2.849	-7.573	16416	16364	0	1004
-0.469	-11.071	16400	16058	0	1004
4.508	-5.878	16382	15640	0	1004
11.648	1.370	16352	15027	0	1004
16.372	7.898	16301	14180	0	1004
16.697	7.212	16250	13262	0	1004
11.396	3.606	16217	12680	0	1004
6.022	0.829	16182	12497	0	1004
7.609	2.128	16155	12436	0	1004
10.278	6.094	16123	12425	0	1004
13.163	10.278	16101	12466	0	1004
15.398	10.494	16072	12487	0	1004
14.461	9.520	16042	12446	0	1004
11.828	8.439	16015	12527	0	1004
10.530	8.042	16002	12895	0	1004
6.491	5.842	15986	13354	0	1004
2.596	3.282	15967	13650	0	1004
-0.433	1.947	15948	13793	0	1004
0.072	1.623	15932	13987	0	1004
5.878	6.203	15918	14313	0	1004
10.422	10.350	15905	14660	0	1004
14.569	11.360	15883	14884	0	1004
8.727	3.931	15867	14976	0	1004
1.947	-6.455	15854	15078	0	1004
-0.108	-11.396	15837	15323	0	1004
3.137	-10.566	15832	15691	0	1004
17.166	1.515	15824	16058	0	1004
28.741	13.848	15816	16282	0	1004
36.026	23.332	15792	16272	0	1004
34.151	22.827	15778	16140	0	1004
27.155	18.320	15770	16242	0	1004
22.358	14.677	15773	16639	0	1004
23.945	14.497	15778	17128	0	1004
31.013	21.673	15783	17608	0	1004
40.750	30.689	15802	18128	0	1004
45.907	34.800	15824	18751	0	1004
45.258	32.744	15856	19445	0	1004
39.776	27.010	15878	20006	0	1004
32.312	20.375	15891	20220	0	1004
25.243	13.487	15905	20179	0	1004
18.716	12.297	15934	20271	0	1004
14.858	11.179	15959	20618	0	1004
10.494	10.891	15988	20996	0	1004
12.081	10.746	16018	21241	0	1004
13.091	13.018	16039	21261	0	1004
14.028	12.081	16058	21088	0	1004
14.497	10.458	16093	21037	0	1004
10.927	10.278	16137	21384	0	1004
7.573	5.554	16193	22026	0	1004
5.157	2.741	16247	22577	0	1004
4.508	2.019	16287	22771	0	1004
6.094	4.796	16336	22720	0	1004
9.448	8.186	16379	22649	1	952
15.182	15.146	16416	22588	0	952
19.726	17.779	16459	22435	0	952
21.709	22.719	16494	22200	0	952
20.664	23.801	16534	21945	0	952
21.277	26.253	16575	21730	0	952
21.709	31.374	16615	21526	0	952
27.010	34.403	16656	21322	0	952
33.610	37.721	16693	21047	0	952
36.964	37.793	16723	20659	0	952
36.423	35.593	16753	20220	0	952
33.177	30.581	16782	19792	0	952
28.561	27.119	16815	19445	0	952
21.024	21.818	16844	19179	0	952
14.569	17.490	16871	18853	0	952
8.078	10.422	16896	18414	0	952
1.659	9.412	16912	17935	0	952
0.180	7.285	16931	17486	0	952
1.695	8.943	16952	17128	0	952
4.616	11.612	16979	16863	0	952
7.537	10.458	16990	16588	0	952
8.547	7.645	16998	16180	0	952
9.520	6.527	16998	15619	0	952
7.753	5.445	17006	15089	0	952
8.979	7.068	17017	14752	0	952
9.232	10.746	17017	14568	0	952
11.323	13.631	17022	14374	0	952
17.923	21.818	17022	14058	0	952
23.152	26.470	17012	13670	0	952
29.427	31.590	17009	13374	0	952
30.977	32.600	17009	13180	0	952
27.732	30.184	16998	13058	0	952
26.542	28.309	16998	12976	0	952
28.453	30.653	16993	12925	0	952
36.891	39.632	16990	12946	0	952
44.501	46.917	16995	13078	0	952
47.782	49.730	16985	13221	0	952
44.717	45.005	16985	13252	0	952
36.531	36.242	16976	13242	0	952
26.758	27.551	16979	13354	0	952
21.601	21.673	16976	13609	0	952
14.677	18.897	16985	13976	0	952
10.494	14.389	16995	14395	0	952
6.563	11.504	16998	14742	0	952
1.551	6.671	17009	15007	0	952
0.325	5.626	17017	15262	0	952
-0.144	3.173	17030	15599	0	952
-2.236	1.118	17047	16027	0	952
-0.829	-1.082	17065	16516	0	952
-0.397	-3.714	17087	17006	0	952
3.354	0.613	17111	17394	0	952
7.898	3.390	17127	17628	0	952
12.261	7.285	17138	17720	0	952
15.110	10.458	17152	17720	0	952
14.064	9.665	17157	17659	0	952
11.107	8.402	17160	17526	0	952
10.855	7.970	17160	17312	0	952
9.845	7.825	17160	17057	0	952
8.979	7.140	17154	16771	0	952
10.783	8.258	17152	16465	0	952
10.458	7.753	17141	16191	0	952
11.035	11.792	17127	15813	0	952
18.031	16.913	17106	15313	0	952
27.227	26.722	17087	14854	0	952
38.911	34.944	17074	14568	0	952
44.537	39.091	17052	14384	0	952
42.697	38.550	17033	14180	0	952
34.115	31.807	17017	13946	0	952
21.493	23.296	16998	13721	0	952
15.435	18.067	16971	13578	0	952
13.235	18.933	16963	13578	0	952
15.507	18.500	16944	13691	0	952
14.281	20.050	16928	13691	0	952
13.884	17.706	16898	13466	0	952
11.720	14.605	16863	13129	0	952
10.783	11.107	16834	12884	0	952
15.146	10.278	16807	12793	0	952
18.788	12.802	16780	12752	0	952
23.621	14.353	16753	12752	0	952
26.037	16.444	16726	12813	0	952
25.640	19.329	16699	12905	0	952
26.001	19.870	16680	13078	0	952
20.411	16.012	16680	13548	0	952
17.274	8.943	16675	14293	0	952
12.333	4.760	16672	14915	0	952
12.405	0.577	16658	15170	0	952
12.766	1.334	16645	15180	0	952
18.572	7.321	16626	15221	0	952
21.349	12.658	16615	15344	0	952
26.181	16.300	16599	15527	0	952
24.306	19.546	16591	15752	0	952
22.972	19.077	16580	15936	0	952
17.526	13.956	16567	16038	0	952
9.629	7.501	16561	16160	0	952
3.642	2.200	16551	16354	0	952
-0.757	-0.397	16545	16516	0	952
-1.659	-0.757	16532	16547	0	952
1.334	1.190	16513	16506	0	952
6.852	4.472	16507	16526	0	952
12.622	5.950	16505	16669	0	952
13.776	6.563	16494	16832	0	952
12.910	3.787	16491	16884	0	952
4.436	-4.255	16481	16873	0	952
-3.787	-14.966	16470	16894	0	952
-9.809	-21.349	16467	17016	0	952
-11.215	-22.070	16472	17210	0	952
-8.078	-17.779	16470	17394	0	952
-2.128	-11.215	16470	17475	0	952
1.659	-7.140	16464	17414	0	952
3.462	-8.727	16456	17373	0	952
0.902	-12.477	16456	17404	0	952
-2.236	-14.353	16456	17465	0	952
-7.357	-18.752	16464	17567	0	952
-11.143	-20.375	16459	17649	0	952
-12.514	-24.017	16454	17537	0	952
-11.864	-26.758	16437	17149	0	952
-9.016	-29.246	16405	16516	0	952
-5.554	-27.515	16371	15742	0	952
-6.455	-24.811	16341	15099	0	952
-9.592	-25.856	16309	14650	0	952
-14.785	-25.568	16282	14282	0	952
-19.690	-29.823	16250	14068	0	952
-16.336	-28.273	16236	14129	0	952
-10.133	-25.460	16234	14425	0	952
-5.481	-20.627	16223	14742	0	952
-3.570	-17.490	16217	14997	0	952
-4.688	-13.956	16217	15364	0	952
-4.364	-11.396	16228	15874	0	952
-2.885	-8.078	16236	16404	0	952
-1.010	-7.753	16250	16924	0	952
-2.633	-12.730	16263	17384	0	952
-6.816	-16.769	16274	17761	0	952
-10.855	-20.519	16290	18088	0	952
-11.107	-19.942	16301	18322	0	952
-7.285	-16.228	16314	18465	0	952
-4.039	-13.451	16325	18618	0	952
-2.741	-10.169	16339	18832	0	952
0.865	-8.402	16358	19047	0	952
1.839	-5.770	16379	19241	0	952
1.298	-4.832	16397	19404	0	952
0.829	-8.511	16410	19465	0	952
-3.642	-15.038	16419	19363	0	952
-10.242	-21.313	16427	19149	0	952
-13.992	-24.702	16429	18822	0	952
-12.477	-19.618	16424	18394	0	952
-6.275	-12.622	16424	17935	0	952
1.406	-2.308	16410	17486	0	952
7.248	1.010	16397	16975	0	952
3.246	-4.868	16376	16303	0	952
-1.695	-12.045	16349	15538	0	952
-9.989	-20.952	16328	14925	0	952
-8.799	-20.159	16309	14589	0	952
-1.226	-14.172	16296	14487	0	952
10.602	-0.072	16287	14466	0	952
24.991	12.441	16274	14446	0	952
34.511	21.457	16271	14436	0	952
37.468	22.827	16255	14446	0	952
34.006	18.680	16247	14466	0	952
25.135	10.783	16242	14507	0	952
19.546	5.662	16228	14578	0	952
16.625	2.236	16223	14680	0	952
23.260	8.619	16217	14864	0	952
29.210	15.723	16228	15170	0	952
35.593	22.106	16231	15609	0	952
34.656	25.352	16236	15987	0	952
30.328	26.001	16228	15987	0	952
26.938	24.450	16207	15660	0	952
27.696	22.827	16196	15415	0	952
28.922	23.116	16182	15405	0	952
32.564	17.598	16177	15436	0	952
32.889	12.550	16163	15466	0	952
36.098	10.278	16161	15527	0	952
38.514	14.461	16153	15568	0	952
47.999	24.702	16142	15609	0	952
51.352	33.646	16155	15925	0	952
46.087	34.800	16166	16516	0	952
37.252	27.984	16180	17016	0	952
26.037	14.461	16177	17077	0	952
21.890	8.078	16174	16853	0	952
26.433	9.124	16163	16628	0	952
38.190	17.346	16147	16445	0	952
43.094	25.712	16128	16170	0	952
44.068	28.237	16107	15680	0	952
38.911	24.486	16069	15078	0	952
32.131	18.716	16045	14619	0	952
28.633	15.254	16018	14374	0	952
28.381	11.360	15994	14272	0	952
28.958	10.963	15975	14221	0	952
31.158	12.694	15953	14191	0	952
31.699	13.740	15945	14242	0	952
32.059	14.497	15932	14425	0	952
26.974	15.002	15926	14803	0	952
22.070	10.674	15934	15293	0	952
16.661	7.285	15934	15731	0	952
13.848	8.114	15940	16078	0	952
16.516	10.350	15940	16394	0	952
17.706	11.864	15945	16720	0	952
17.995	11.576	15948	17016	0	952
15.254	9.556	15953	17210	0	952
17.743	8.511	15959	17343	0	952
21.421	11.720	15959	17465	0	952
27.515	16.408	15953	17506	0	952
31.085	17.274	15959	17445	0	952
30.004	18.103	15959	17445	0	952
25.532	15.507	15959	17547	0	952
22.250	16.661	15948	17435	0	952
25.171	18.392	15932	16996	0	952
28.237	24.450	15910	16475	0	952
33.213	26.289	15899	16140	0	952
36.242	26.109	15886	16058	0	952
35.701	24.919	15886	16180	0	952
33.502	21.060	15891	16384	0	952
30.004	15.002	15886	16537	0	952
23.837	7.104	15894	16639	0	952
13.668	2.560	15899	16863	0	952
7.140	-4.003	15918	17210	0	952
-0.685	-3.931	15926	17567	0	952
-4.075	-5.085	15940	17853	0	952
-3.426	-3.029	15959	18088	0	952
-2.128	-2.344	15980	18384	0	952
4.147	0.938	16007	18781	0	952
11.973	6.347	16034	19230	0	952
16.516	6.203	16066	19588	0	952
17.274	3.642	16099	19873	0	952
8.475	-4.940	16128	20190	0	952
-3.750	-15.975	16169	20557	0	952
-12.514	-17.995	16209	20924	0	952
-10.350	-12.694	16250	21149	0	952
1.190	0.108	16282	21200	0	952
15.398	14.281	16314	21128	0	952
23.621	22.503	16339	20924	0	952
23.981	18.824	16352	20516	0	952
13.343	12.117	16363	19894	0	952
5.013	2.741	16368	19261	1	932
-1.442	-2.560	16379	18730	0	932
-0.685	-1.983	16376	18149	0	932
4.688	4.508	16371	17496	0	932
11.900	9.881	16371	16945	0	932
15.218	12.477	16376	16577	0	932
14.461	6.239	16379	16344	0	932
3.498	-6.167	16379	16068	0	932
-5.806	-13.848	16379	15731	0	932
-13.127	-17.490	16379	15487	0	932
-13.812	-12.333	16386	15446	0	932
-11.684	-4.652	16400	15558	0	932
-9.016	-4.039	16413	15742	0	932
-7.393	-7.248	16429	15925	0	932
-7.429	-15.471	16456	16211	0	932
-6.708	-20.303	16478	16557	0	932
-4.688	-21.637	16505	16884	0	932
-4.075	-18.392	16524	17118	0	932
-5.445	-14.461	16545	17230	0	932
-7.862	-11.648	16561	17230	0	932
-10.819	-12.333	16586	17271	0	932
-13.054	-12.369	16605	17424	0	932
-13.018	-15.867	16631	17628	0	932
-15.435	-17.779	16648	17751	0	932
-16.336	-19.185	16661	17639	0	932
-20.375	-22.827	16669	17312	0	932
-20.844	-22.863	16680	17047	0	932
-21.204	-20.375	16685	16945	0	932
-13.163	-16.589	16696	16822	0	932
-4.111	-7.573	16696	16537	0	932
4.039	-1.370	16683	15966	0	932
12.586	4.219	16658	15180	0	932
15.759	5.950	16642	14578	0	932
12.838	2.092	16631	14272	0	932
5.013	-4.904	16629	14119	0	932
-4.616	-11.973	16615	14058	0	932
-11.179	-17.057	16607	13946	0	932
-11.720	-14.389	16591	13782	0	932
-5.301	-7.104	16588	13731	0	932
4.977	3.787	16580	13833	0	932
12.369	8.799	16578	13936	0	932
13.199	9.340	16564	13915	0	932
14.136	3.967	16559	13874	0	932
10.530	-2.416	16548	13997	0	932
9.665	-1.875	16553	14303	0	932
17.923	4.291	16561	14772	0	932
24.234	13.595	16575	15262	0	932
32.312	27.119	16578	15619	0	932
37.036	32.528	16578	15752	0	932
36.387	33.105	16564	15609	0	932
33.033	29.535	16553	15344	0	932
29.571	25.099	16537	15170	0	932
30.833	26.289	16532	15078	0	932
35.016	31.085	16518	15027	0	932
40.822	37.216	16507	15048	0	932
44.068	38.154	16505	15170	0	932
45.222	37.036	16499	15323	0	932
40.029	32.276	16497	15538	0	932
36.098	29.931	16505	15793	0	932
34.728	30.292	16497	15925	0	932
35.449	31.987	16483	15813	0	932
36.423	32.672	16467	15568	0	932
37.000	30.581	16454	15405	0	932
33.466	26.361	16445	15405	0	932
31.158	21.060	16437	15446	0	932
28.633	16.949	16416	15344	0	932
30.040	18.428	16397	15109	0	932
33.718	20.267	16384	14956	0	932
35.774	25.279	16376	15027	0	932
34.403	25.099	16368	15201	0	932
32.095	26.506	16355	15323	0	932
29.931	26.542	16344	15333	0	932
30.328	26.506	16339	15364	0	932
33.826	27.551	16328	15446	0	932
37.541	29.535	16317	15538	0	932
40.065	30.653	16314	15609	0	932
41.363	32.203	16298	15650	0	932
40.606	32.528	16290	15752	0	932
40.750	30.545	16296	15987	0	932
38.334	28.345	16304	16384	0	932
36.278	24.739	16312	16853	0	932
32.131	22.395	16323	17251	0	932
30.653	23.909	16325	17475	0	932
30.472	24.414	16325	17475	0	932
32.312	28.237	16314	17261	0	932
31.554	29.968	16309	17016	0	932
29.607	28.417	16298	16884	0	932
23.368	24.378	16290	16832	0	932
19.582	20.483	16287	16781	0	932
23.621	21.132	16282	16659	0	932
28.056	22.683	16263	16435	0	932
35.269	25.279	16255	16201	0	932
37.396	26.433	16244	16048	0	932
35.341	24.630	16234	16038	0	932
34.692	21.745	16234	16150	0	932
32.095	20.988	16247	16414	0	932
26.794	15.290	16261	16924	0	932
18.175	8.186	16287	17598	0	932
7.248	-2.452	16314	18241	0	932
2.092	-7.501	16339	18700	0	932
3.390	-7.357	16358	18965	0	932
10.855	-2.019	16379	19139	0	932
16.120	3.967	16400	19343	0	932
18.103	8.366	16427	19557	0	932
14.425	6.167	16443	19679	0	932
9.989	1.118	16467	19659	0	932
9.520	-3.137	16481	19567	0	932
7.645	-6.563	16505	19516	0	932
8.006	-7.717	16524	19547	0	932
9.376	-4.436	16548	19608	0	932
14.858	3.246	16564	19547	0	932
18.608	7.789	16586	19394	0	932
25.676	15.290	16602	19230	0	932
29.210	16.156	16618	19047	0	932
27.263	15.903	16626	18741	0	932
22.899	13.379	16631	18322	0	932
19.329	9.556	16640	17894	0	932
17.346	11.215	16640	17506	0	932
19.654	14.677	16640	17118	0	932
22.972	18.392	16645	16792	0	932
25.424	23.008	16658	16751	0	932
24.306	21.601	16675	16914	0	932
14.894	12.622	16685	16924	0	932
5.950	2.019	16693	16690	0	932
-1.370	-6.527	16693	16384	0	932
-2.380	-10.314	16699	16231	0	932
1.551	-6.599	16710	16231	0	932
6.347	-1.875	16715	16180	0	932
6.888	0.757	16712	15966	0	932
4.652	-2.344	16702	15589	0	932
0.216	-8.150	16696	15129	0	932
-2.308	-11.973	16672	14640	0	932
-6.022	-17.815	16645	14048	0	932
-9.953	-19.978	16607	13303	0	932
-12.261	-21.781	16567	12558	0	932
-13.740	-21.421	16534	11997	0	932
-10.314	-16.372	16499	11680	0	932
-6.239	-15.579	16481	11599	0	932
-6.491	-15.867	16454	11650	0	932
-11.071	-19.149	16429	11680	0	932
-15.795	-23.116	16405	11691	0	932
-15.831	-22.106	16382	11762	0	932
-12.874	-14.533	16363	11936	0	932
-4.003	-7.393	16344	12201	0	932
1.082	-1.695	16325	12497	0	932
1.947	-0.613	16312	12793	0	932
-1.551	-2.560	16298	13119	0	932
-3.246	-5.373	16282	13446	0	932
-4.868	-6.094	16271	13833	0	932
-3.750	-4.183	16271	14364	0	932
-2.488	-0.793	16271	14864	0	932
0.649	4.760	16247	15058	0	932
3.570	9.232	16228	14915	0	932
3.354	8.402	16196	14670	0	932
1.587	4.616	16174	14538	0	932
-3.967	-4.472	16147	14548	0	932
-10.710	-11.828	16134	14680	0	932
-12.946	-11.684	16115	14874	0	932
-10.350	-8.799	16101	15099	0	932
-7.825	-0.902	16096	15425	0	932
-2.596	4.183	16099	15884	0	932
-1.370	3.642	16099	16374	0	932
-2.092	2.128	16096	16720	0	932
-1.911	-0.505	16093	16924	0	932
0.469	-1.515	16088	17037	0	932
6.960	2.164	16083	17159	0	932
14.028	10.566	16083	17353	0	932
23.368	17.743	16085	17577	0	932
23.585	20.952	16085	17730	0	932
20.231	18.320	16083	17781	0	932
12.297	11.251	16080	17802	0	932
4.652	4.003	16080	17843	0	932
5.085	2.777	16083	17884	0	932
11.071	8.691	16072	17802	0	932
23.404	19.257	16066	17598	0	932
32.131	28.886	16053	17384	0	932
37.649	32.564	16045	17190	0	932
38.550	32.095	16034	17006	0	932
36.459	30.472	16018	16812	0	932
39.560	28.417	16007	16608	0	932
41.003	30.400	15991	16344	0	932
40.029	30.148	15964	15884	0	932
33.466	25.171	15932	15303	0	932
26.325	19.437	15899	14833	0	932
15.975	13.812	15870	14507	0	932
12.946	15.651	15843	14211	0	932
11.323	17.598	15802	13844	0	932
15.362	22.322	15770	13436	0	932
19.329	24.955	15738	13170	0	932
28.237	28.453	15705	13140	0	932
34.295	32.384	15689	13252	0	932
41.904	35.846	15662	13384	0	932
41.724	38.118	15638	13476	0	932
36.639	36.819	15616	13629	0	932
31.013	33.321	15603	13925	0	932
25.496	29.282	15595	14344	0	932
22.250	28.669	15584	14752	0	932
23.224	28.453	15570	15048	0	932
24.666	28.886	15557	15160	0	932
21.096	27.263	15535	15231	0	932
20.087	26.037	15530	15476	0	932
19.582	22.142	15530	15925	0	932
18.211	19.041	15530	16344	0	932
18.644	16.949	15522	16618	0	932
15.831	14.245	15506	16690	0	932
14.533	10.746	15495	16608	0	932
10.530	9.665	15492	16669	0	932
9.412	7.248	15490	16955	0	932
9.340	6.996	15490	17251	0	932
10.061	7.681	15490	17424	0	932
10.061	10.674	15482	17516	0	932
9.665	12.153	15487	17649	0	932
10.710	12.189	15503	17955	0	932
10.855	12.261	15517	18475	0	932
12.946	13.054	15541	19026	0	932
19.690	17.598	15554	19353	0	932
24.089	24.847	15568	19414	0	932
29.246	34.547	15584	19486	0	932
36.062	41.327	15614	19832	0	932
40.209	47.277	15651	20414	0	932
42.301	47.566	15689	21006	0	932
43.563	47.494	15732	21435	0	932
40.209	44.392	15770	21720	0	932
37.288	40.353	15792	21751	0	932
32.672	37.613	15818	21496	0	932
28.922	34.620	15837	21159	0	932
25.352	30.689	15859	20894	0	932
22.034	25.893	15883	20730	0	932
21.421	22.755	15913	20741	1	912
18.824	14.389	15961	20935	0	912
17.526	10.819	16002	21210	0	912
13.523	7.681	16045	21353	0	912
12.297	9.845	16088	21394	0	912
11.973	16.805	16128	21424	0	912
11.900	19.401	16180	21475	0	912
11.360	20.808	16220	21486	0	912
8.547	14.208	16263	21384	0	912
7.753	9.160	16298	21200	0	912
10.494	7.645	16336	20955	0	912
17.851	10.963	16363	20557	0	912
23.801	17.887	16384	20006	0	912
27.696	24.522	16397	19343	0	912
27.660	27.660	16405	18588	0	912
21.998	26.109	16410	17802	0	912
15.182	21.096	16410	17026	0	912
11.251	18.211	16410	16313	0	912
10.855	15.579	16416	15772	0	912
13.451	19.401	16424	15487	0	912
21.565	23.224	16437	15364	0	912
25.784	24.666	16440	15201	0	912
26.145	24.125	16451	14915	0	912
24.378	18.247	16454	14670	0	912
17.202	14.605	16467	14619	0	912
15.398	11.756	16478	14701	0	912
15.290	14.172	16486	14793	0	912
19.365	17.057	16499	14813	0	912
21.529	19.401	16513	14844	0	912
21.890	17.634	16521	14936	0	912
17.562	15.146	16540	15089	0	912
17.166	14.172	16559	15323	0	912
19.834	15.615	16578	15558	0	912
23.909	20.267	16591	15701	0	912
27.299	18.572	16607	15813	0	912
20.880	15.615	16621	15976	0	912
15.651	8.835	16642	16170	0	912
9.953	8.619	16667	16384	0	912
11.287	10.169	16683	16588	0	912
13.379	12.441	16702	16751	0	912
13.776	12.658	16720	16832	0	912
14.425	12.117	16737	16884	0	912
11.900	10.674	16750	16904	0	912
15.182	10.963	16764	16884	0	912
17.995	16.985	16774	16781	0	912
22.719	17.779	16769	16475	0	912
25.640	21.385	16769	16099	0	912
28.128	21.854	16774	15915	0	912
29.102	22.322	16769	15772	0	912
26.542	21.060	16764	15405	0	912
17.238	14.894	16750	14966	0	912
8.294	8.114	16739	14650	0	912
1.839	2.596	16734	14456	0	912
1.803	0.180	16729	14364	0	912
7.140	2.777	16723	14364	0	912
13.235	8.475	16720	14384	0	912
17.598	12.730	16710	14364	0	912
17.310	13.776	16707	14303	0	912
20.988	13.704	16699	14293	0	912
21.060	12.910	16696	14405	0	912
21.565	13.920	16699	14578	0	912
20.808	12.514	16693	14691	0	912
17.418	11.900	16685	14762	0	912
18.716	15.759	16685	14874	0	912
22.827	18.897	16685	15038	0	912
29.787	24.955	16685	15140	0	912
33.934	30.869	16672	15089	0	912
32.239	27.804	16656	14905	0	912
26.578	20.916	16640	14650	0	912
16.985	10.350	16621	14497	0	912
9.052	0.325	16613	14507	0	912
5.770	-5.229	16602	14548	0	912
5.301	-4.255	16588	14640	0	912
8.547	-0.505	16586	14793	0	912
8.979	5.698	16575	14936	0	912
11.720	7.212	16567	15027	0	912
7.501	6.960	16559	15089	0	912
4.652	2.056	16553	15191	0	912
0.793	-3.750	16545	15374	0	912
-1.262	-7.212	16545	15558	0	912
-0.649	-7.176	16537	15650	0	912
0.757	-3.967	16526	15680	0	912
4.364	0.865	16521	15711	0	912
6.311	6.599	16507	15762	0	912
14.461	8.258	16505	15793	0	912
17.815	9.196	16491	15752	0	912
21.168	6.058	16481	15711	0	912
17.274	6.383	16470	15782	0	912
13.018	5.554	16472	15956	0	912
11.432	9.124	16470	16160	0	912
17.887	15.507	16467	16272	0	912
27.804	22.755	16456	16282	0	912
35.413	24.378	16451	16303	0	912
35.701	21.601	16454	16424	0	912
31.446	18.644	16445	16537	0	912
27.119	13.343	16440	16475	0	912
24.017	14.208	16427	16344	0	912
23.116	14.100	16419	16272	0	912
21.529	12.802	16416	16313	0	912
17.346	8.042	16410	16394	0	912
15.471	3.895	16410	16455	0	912
13.307	1.190	16405	16506	0	912
16.480	1.118	16397	16486	0	912
16.084	3.065	16379	16242	0	912
16.985	5.013	16355	15772	0	912
12.477	6.599	16336	15323	0	912
9.809	9.196	16312	15048	0	912
8.907	9.124	16287	14884	0	912
10.602	6.383	16261	14660	0	912
11.323	4.544	16234	14344	0	912
13.271	3.426	16215	14221	0	912
14.713	3.534	16207	14395	0	912
17.021	8.186	16193	14670	0	912
22.791	15.002	16188	14915	0	912
30.076	18.608	16177	15129	0	912
33.970	23.765	16177	15384	0	912
34.908	25.243	16174	15701	0	912
32.312	23.621	16180	16089	0	912
29.679	23.621	16180	16465	0	912
29.318	20.772	16177	16669	0	912
32.925	23.621	16163	16577	0	912
37.108	25.496	16153	16364	0	912
37.793	27.479	16147	16333	0	912
37.072	28.345	16139	16516	0	912
33.538	27.010	16139	16690	0	912
29.931	23.404	16134	16710	0	912
26.578	18.464	16112	16475	0	912
21.457	11.323	16093	16119	0	912
15.038	3.101	16075	15844	0	912
12.514	-4.796	16058	15660	0	912
10.891	-9.989	16039	15538	0	912
10.746	-11.432	16021	15466	0	912
9.232	-9.737	16002	15303	0	912
10.314	-6.852	15986	15140	0	912
9.088	-1.190	15980	15333	0	912
10.242	3.642	15988	15874	0	912
10.422	6.635	15988	16313	0	912
7.789	4.436	15980	16394	0	912
2.669	0.541	15975	16303	0	912
1.406	-6.816	15964	16262	0	912
1.947	-11.107	15959	16323	0	912
3.787	-12.946	15959	16465	0	912
6.419	-8.078	15953	16639	0	912
7.176	-6.852	15959	16761	0	912
2.488	-8.042	15951	16822	0	912
-5.662	-13.415	15948	16863	0	912
-14.064	-23.368	15940	16873	0	912
-19.437	-25.856	15940	16884	0	912
-14.028	-22.286	15934	16873	0	912
-4.652	-10.891	15932	16843	0	912
6.491	-1.370	15932	16884	0	912
11.179	1.839	15934	17067	0	912
6.599	-4.508	15945	17363	0	912
-2.560	-16.516	15951	17547	0	912
-12.189	-27.876	15937	17373	0	912
-20.664	-35.449	15924	16914	0	912
-20.880	-34.620	15913	16557	0	912
-19.113	-28.489	15899	16424	0	912
-10.278	-19.257	15894	16333	0	912
-2.596	-11.648	15891	16252	0	912
3.173	-6.167	15883	16242	0	912
2.921	-5.517	15878	16252	0	912
2.849	-6.383	15872	16221	0	912
0.902	-6.888	15867	16191	0	912
4.688	-7.357	15864	16191	0	912
12.838	-1.226	15854	16140	0	912
21.890	5.806	15837	15925	0	912
31.987	14.245	15824	15629	0	912
34.656	18.428	15810	15446	0	912
29.895	19.654	15800	15425	0	912
22.322	14.785	15783	15374	0	912
11.756	7.970	15765	15170	0	912
4.003	4.472	15743	14854	0	912
3.498	4.183	15719	14629	0	912
4.904	5.481	15705	14589	0	912
7.212	6.744	15694	14691	0	912
8.330	9.052	15684	14844	0	912
8.799	4.291	15678	15027	0	912
5.049	1.623	15665	15150	0	912
4.688	-1.947	15641	15007	0	912
3.282	-4.075	15616	14711	0	912
3.534	-5.481	15600	14629	0	912
3.606	-5.950	15587	14762	0	912
5.373	-4.075	15584	14925	0	912
6.239	0.072	15573	15150	0	912
7.898	3.642	15570	15456	0	912
8.402	5.806	15568	15782	0	912
6.347	5.481	15562	15997	0	912
2.128	1.983	15557	16129	0	912
1.551	-1.803	15554	16293	0	912
