neuroNicle FX2
D3F25R12
Bluetooth SPP
2023년 3월 28일 화요일
오후 2:31
time interval = 4msec
EEG1	EEG2	PPG	sdPPG	pulse	peak_interval(msec)
-5.157	-6.635	15937	17009	0	316
-11.360	-7.285	16384	17599	0	316
-16.769	-10.891	16699	18044	0	316
-20.014	-16.300	17173	18224	0	316
-16.877	-17.779	17436	18263	0	316
-7.898	-13.307	17699	18239	0	316
1.623	-3.246	17884	18141	0	316
13.595	8.366	17962	17985	0	316
19.834	16.372	18015	17780	0	316
23.332	17.887	18094	17541	0	316
20.087	14.785	18094	17277	0	316
15.290	13.018	18094	17004	0	316
12.117	13.054	17962	16725	0	316
13.631	15.723	17884	16467	0	316
20.555	17.310	17752	16223	0	316
28.381	15.615	17831	16072	0	316
31.735	13.054	18147	16228	0	316
31.879	11.648	18410	16633	0	316
25.532	12.766	18805	16921	0	316
18.536	13.271	18936	16969	0	316
12.730	12.261	19015	16911	0	316
7.248	6.671	19147	16794	0	316
4.327	3.390	19199	16623	0	316
0.793	1.118	19015	16413	0	316
-2.885	4.724	19015	16184	0	316
-6.239	9.809	18936	15950	0	316
-5.842	14.281	18673	15725	0	316
2.993	16.192	18541	15506	0	316
15.759	16.552	18410	15305	0	316
29.823	15.687	18147	15125	0	316
37.468	15.398	17962	14968	0	316
37.216	13.559	17884	14920	0	316
31.951	12.802	18147	15188	0	316
28.525	14.064	18357	15701	0	316
27.515	17.346	18541	16096	0	316
30.328	20.808	18752	16248	0	316
30.256	20.736	18805	16292	0	316
28.056	17.634	18752	16277	0	316
25.135	13.199	18752	16204	0	316
20.087	10.169	18673	16096	0	316
13.812	6.311	18489	15955	0	316
6.383	0.000	18410	15794	0	316
-5.770	-10.242	18357	15720	0	316
-13.559	-18.788	18541	15945	0	316
-16.192	-23.368	18805	16408	0	316
-14.353	-18.139	19068	16755	0	316
-11.864	-12.838	19199	16852	0	316
-10.386	-10.819	19199	16818	0	316
-14.569	-15.723	19199	16720	0	316
-17.166	-23.404	19068	16579	0	316
-17.310	-28.597	19068	16413	0	316
-14.677	-28.453	19068	16316	0	316
-10.169	-23.008	19199	16486	0	316
-5.049	-15.110	19541	16877	0	316
0.180	-9.953	19673	17131	0	316
4.364	-6.094	19936	17135	0	316
5.698	-6.275	19936	17018	0	316
5.409	-8.366	19805	16842	0	316
3.101	-10.169	19726	16618	0	316
1.623	-11.287	19462	16365	0	316
1.623	-10.242	19331	16087	0	316
3.642	-7.429	19015	15803	0	316
3.823	-7.032	18884	15520	0	316
2.921	-7.429	18489	15247	0	316
1.298	-8.258	18147	15003	0	316
-2.524	-10.530	17831	14802	0	316
-8.114	-14.245	17489	14636	0	316
-14.136	-18.860	17226	14500	0	316
-21.601	-24.630	16910	14387	0	316
-25.856	-27.515	16647	14319	0	316
-25.171	-26.073	16332	14295	0	316
-18.933	-20.231	16069	14304	0	316
-10.206	-14.317	15806	14343	0	316
-2.236	-10.927	15542	14407	0	316
1.767	-9.484	15279	14480	0	316
0.793	-9.917	15148	14573	0	316
-2.056	-9.629	14884	14685	0	316
-3.498	-6.960	14621	14827	0	316
-2.596	-3.678	14490	14978	0	316
1.334	-2.524	14358	15139	0	316
5.157	-1.298	14227	15296	0	316
9.737	-0.685	14016	15457	0	316
12.982	2.272	13963	15613	0	316
16.156	5.193	14095	15877	0	316
16.408	10.061	14358	16432	0	316
12.838	11.540	14806	17199	0	316
6.491	10.206	15148	17804	0	316
1.082	7.753	15542	18127	0	316
-1.154	4.255	15674	18302	0	316
-0.036	1.442	15858	18390	0	316
1.659	0.000	15937	18390	0	316
0.216	0.000	15990	18317	0	316
-3.354	1.406	16069	18200	0	316
-9.845	1.406	15990	18034	0	316
-15.218	-0.902	16200	17946	0	316
-18.969	-7.537	16568	18146	1	568
-22.611	-14.713	17041	18566	0	568
-21.601	-19.654	17357	18835	0	568
-19.690	-18.824	17620	18830	0	568
-13.487	-12.550	17752	18683	0	568
-7.970	-5.229	17831	18459	0	568
-4.400	-1.118	17884	18175	0	568
-3.714	-4.508	17884	17863	0	568
-7.032	-12.514	17831	17526	0	568
-10.927	-21.493	17620	17179	0	568
-14.641	-28.453	17568	16833	0	568
-15.471	-27.335	17357	16496	0	568
-13.379	-23.476	17226	16179	0	568
-9.412	-17.815	17041	15882	0	568
-4.075	-12.081	16831	15603	0	568
-1.875	-8.691	16515	15364	0	568
-3.895	-6.311	16332	15159	0	568
-7.681	-5.157	16121	14993	0	568
-10.386	-6.311	15858	14856	0	568
-11.035	-7.104	15727	14754	0	568
-8.150	-6.888	15463	14680	0	568
-4.544	-3.498	15279	14636	0	568
-3.065	1.154	15069	14617	0	568
-3.210	4.760	14937	14627	0	568
-6.635	3.246	14674	14666	0	568
-9.304	-0.072	14542	14729	0	568
-12.838	-4.544	14411	14817	0	568
-14.172	-6.888	14358	14920	0	568
-15.146	-8.655	14148	15032	0	568
-16.480	-11.684	14095	15159	0	568
-19.582	-15.254	14016	15286	0	568
-24.125	-16.300	13884	15418	0	568
-27.479	-14.136	13832	15545	0	568
-28.237	-9.953	13753	15676	0	568
-26.902	-6.780	13700	15803	0	568
-22.106	-6.599	13700	15935	0	568
-15.759	-8.402	13621	16067	0	568
-11.179	-9.160	13569	16189	0	568
-9.016	-5.013	13621	16306	0	568
-8.691	-0.685	13569	16413	0	568
-11.287	2.849	13569	16525	0	568
-10.638	4.003	13621	16628	0	568
-9.340	0.216	13621	16716	0	568
-5.914	-4.075	13621	16803	0	568
-3.859	-6.996	13700	16891	0	568
-5.626	-9.484	13700	16969	0	568
-8.366	-8.835	13753	17033	0	568
-13.054	-8.042	13884	17087	0	568
-14.785	-4.724	13832	17126	0	568
-14.064	-3.354	13884	17135	0	568
-10.386	-1.587	14016	17145	0	568
-8.835	-1.911	13963	17155	0	568
-6.455	-4.183	14016	17165	0	568
-7.501	-5.085	14095	17165	0	568
-6.275	-4.940	14095	17145	0	568
-8.511	-5.301	14148	17116	0	568
-12.189	-7.753	14227	17087	0	568
-17.779	-11.828	14227	17062	0	568
-23.585	-14.533	14227	17028	0	568
-25.352	-14.821	14227	16979	0	568
-21.060	-11.179	14358	16935	0	568
-14.930	-7.970	14279	16901	0	568
-9.881	-8.258	14358	16882	0	568
-9.520	-10.314	14490	16862	0	568
-11.071	-12.766	14490	16838	0	568
-12.910	-10.169	14490	16803	0	568
-13.415	-4.616	14542	16769	0	568
-12.117	0.108	14621	16740	0	568
-9.268	-0.036	14621	16716	0	568
-10.169	-3.246	14621	16696	0	568
-11.071	-9.088	14674	16676	0	568
-13.812	-9.989	14753	16652	0	568
-15.723	-8.511	14884	16633	0	568
-16.877	-4.508	14806	16613	0	568
-14.605	-0.469	14806	16598	0	568
-13.271	-0.216	14884	16579	0	568
-8.511	-0.541	14937	16550	0	568
-6.527	-2.236	14937	16525	0	568
-6.347	-3.065	15016	16506	0	568
-4.652	-3.354	15016	16496	1	316
-4.364	-1.803	15069	16496	0	316
-2.344	0.288	15148	16496	0	316
1.911	3.101	15200	16486	0	316
5.481	5.626	15200	16476	0	316
6.996	7.140	15200	16457	0	316
7.934	8.330	15200	16442	0	316
4.977	7.248	15332	16432	0	316
2.416	7.934	15463	16520	0	316
-0.902	8.150	15937	16911	0	316
-2.200	10.530	16515	17531	0	316
-4.364	10.386	16962	18005	0	316
-2.849	10.386	17357	18195	0	316
0.072	8.583	17699	18244	0	316
5.662	9.412	17962	18205	0	316
13.812	11.432	18094	18078	0	316
19.906	15.795	18147	17887	0	316
20.375	19.473	18226	17653	0	316
18.716	21.349	18278	17384	0	316
15.290	21.673	18226	17101	0	316
15.218	23.765	18147	16808	0	316
20.483	25.460	18094	16525	0	316
30.220	29.859	18015	16258	0	316
35.882	33.033	17831	16009	0	316
38.190	35.918	17699	15779	0	316
35.557	38.695	17620	15564	0	316
30.905	40.534	17436	15369	0	316
26.073	45.366	17305	15208	0	316
26.325	49.405	17094	15076	0	316
26.866	53.985	16962	14973	0	316
29.607	56.185	16778	14900	0	316
32.095	56.437	16647	14861	0	316
33.574	52.470	16515	14837	0	316
34.511	47.999	16384	14827	0	316
33.502	44.861	16253	14837	0	316
33.718	45.258	16121	14866	0	316
34.259	46.772	15990	14915	0	316
33.249	47.710	15858	14983	0	316
30.653	42.625	15858	15066	0	316
25.063	33.285	15727	15159	0	316
19.870	26.325	15674	15266	0	316
17.274	25.099	15595	15384	0	316
19.329	33.141	15542	15501	0	316
23.044	41.363	15542	15613	0	316
23.152	44.933	15463	15716	0	316
20.375	39.632	15411	15813	0	316
12.658	30.400	15332	15911	0	316
7.537	23.909	15332	15999	0	316
7.645	26.433	15279	16082	0	316
12.009	32.312	15279	16165	0	316
19.473	36.819	15279	16248	0	316
22.503	34.620	15279	16331	0	316
24.702	28.561	15200	16408	0	316
24.955	24.378	15200	16471	0	316
24.342	26.794	15200	16525	0	316
24.739	32.131	15200	16574	0	316
23.765	37.036	15200	16613	0	316
20.519	33.646	15279	16647	0	316
18.788	27.479	15200	16681	0	316
17.562	18.933	15200	16706	0	316
16.228	15.074	15200	16716	0	316
13.740	16.949	15200	16730	0	316
10.422	23.981	15200	16755	0	316
11.107	30.076	15279	16784	0	316
12.081	34.620	15279	16803	0	316
15.975	32.059	15279	16823	0	316
18.067	24.666	15279	16828	0	316
15.579	15.687	15332	16828	0	316
12.081	7.393	15332	16823	0	316
9.160	1.731	15332	16813	0	316
6.708	-1.695	15411	16799	0	316
3.029	-1.154	15411	16789	0	316
0.433	2.993	15595	16886	0	316
-1.623	9.232	15990	17272	0	316
0.433	15.795	16515	17858	0	316
5.806	18.175	16962	18283	0	316
9.881	16.156	17305	18429	0	316
12.658	12.910	17568	18444	0	316
11.828	12.153	17831	18376	0	316
13.235	13.848	18094	18332	0	316
19.005	19.293	18673	18537	0	316
25.640	23.476	19199	18937	0	316
30.148	26.614	19673	19167	0	316
27.948	25.352	19989	19103	0	316
19.149	22.791	20331	18893	0	316
12.117	19.654	20331	18591	0	316
9.016	18.320	20462	18215	0	316
11.792	17.526	20384	17790	1	348
14.172	15.687	20384	17336	0	348
12.081	12.441	20199	16882	0	348
6.599	7.789	20120	16437	0	348
-0.902	6.491	19857	16009	0	348
-5.554	6.671	19673	15593	0	348
-7.753	8.583	19541	15315	0	348
-9.845	7.645	19726	15374	0	348
-7.285	6.419	19989	15696	0	348
-2.128	5.986	20199	15901	0	348
8.547	9.520	20199	15882	0	348
18.247	12.658	20199	15759	0	348
22.467	14.930	20068	15598	0	348
20.988	12.982	19989	15418	0	348
20.303	12.766	19805	15222	0	348
25.171	16.156	19541	15022	0	348
33.213	22.034	19331	14822	0	348
40.534	26.830	19015	14627	0	348
42.301	28.958	18805	14446	0	348
39.596	26.506	18541	14285	0	348
38.478	28.164	18147	14158	0	348
40.173	31.699	17884	14060	0	348
46.484	36.964	17568	13997	0	348
50.307	40.570	17305	13968	0	348
51.316	40.426	17041	13958	0	348
49.261	36.964	16778	13968	0	348
46.195	32.203	16384	13997	0	348
40.209	27.227	16121	14051	0	348
37.396	24.594	15858	14134	0	348
36.098	25.965	15674	14246	0	348
36.531	28.164	15463	14383	0	348
35.521	30.292	15279	14539	0	348
35.341	29.931	15069	14710	0	348
34.079	26.578	14937	14890	0	348
34.043	25.676	14753	15086	0	348
35.810	27.804	14674	15281	0	348
36.928	31.771	14542	15476	0	348
38.731	34.439	14490	15667	0	348
38.947	33.862	14358	15843	0	348
39.993	30.545	14490	16116	0	348
40.353	28.814	14806	16676	0	348
38.334	27.587	15332	17448	0	348
34.764	25.929	15674	18049	0	348
31.194	24.017	15990	18356	0	348
31.013	20.772	16200	18522	0	348
30.977	18.464	16384	18605	0	348
34.656	19.690	16515	18605	0	348
37.180	23.693	16647	18542	0	348
35.521	28.237	16699	18415	0	348
31.013	29.463	16699	18239	0	348
22.142	27.010	16699	18034	0	348
11.540	21.385	16647	17814	0	348
5.698	14.172	16515	17590	0	348
3.967	7.176	16515	17355	0	348
5.626	4.832	16436	17131	0	348
7.537	4.760	16332	16916	0	348
9.881	6.275	16253	16725	0	348
11.323	9.773	16200	16550	0	348
13.992	11.756	15990	16384	0	348
17.526	12.838	15858	16253	0	348
17.706	12.874	15806	16131	0	348
16.300	15.471	15674	16038	0	348
13.235	18.283	15542	15955	0	348
13.631	25.279	15463	15882	0	348
16.048	30.184	15411	15828	0	348
21.565	31.807	15279	15789	0	348
27.840	30.076	15148	15764	0	348
29.066	25.099	15200	15759	0	348
27.768	22.178	15016	15769	0	348
23.981	21.998	14937	15799	0	348
22.791	22.575	14937	15833	0	348
22.791	20.519	14884	15867	0	348
22.683	14.966	14937	15916	0	348
21.457	8.943	14806	15969	0	348
14.353	6.671	14753	16013	0	348
8.294	8.691	14753	16048	0	348
3.246	14.245	14753	16087	0	348
1.911	16.913	14674	16131	0	348
1.587	17.129	14621	16179	0	348
-1.226	11.937	14621	16233	0	348
-2.885	7.825	14621	16282	0	348
-4.039	2.993	14674	16336	0	348
-1.154	1.839	14621	16384	0	348
6.455	1.298	14542	16432	0	348
16.697	2.128	14753	16569	0	348
22.719	2.993	15200	16989	0	348
24.630	3.390	15727	17638	0	348
21.204	4.255	16200	18141	0	348
16.372	5.950	16515	18366	0	348
12.622	11.107	16831	18434	0	348
12.874	16.661	16962	18420	0	348
13.163	21.457	17226	18327	0	348
12.694	23.260	17305	18180	0	348
13.920	22.467	17357	17990	0	348
16.444	20.087	17436	17760	0	348
19.401	20.988	17489	17521	0	348
22.791	22.106	17357	17272	0	348
20.952	21.132	17357	17013	0	348
13.740	16.661	17226	16750	0	348
3.787	7.140	17173	16486	0	348
-5.878	-1.551	17041	16248	0	348
-10.891	-4.472	16910	16038	0	348
-12.225	-1.695	16962	15950	0	348
-8.835	4.219	17305	16189	0	348
-3.823	7.501	17699	16667	0	348
1.226	6.635	17962	17018	0	348
5.481	1.406	18147	17111	0	348
7.393	-2.633	18357	17082	0	348
8.943	-3.534	18410	16984	0	348
7.248	-2.669	18410	16828	0	348
2.200	-4.868	18357	16633	0	348
-0.505	-7.248	18278	16413	0	348
-2.957	-8.222	18226	16194	0	348
-0.252	-5.914	18094	15974	0	348
6.167	0.938	17884	15764	0	348
12.153	6.383	17752	15564	0	348
17.238	4.940	17568	15374	0	348
16.661	1.334	17436	15208	0	348
13.595	-2.344	17173	15066	0	348
10.494	-0.757	16962	14949	0	348
8.619	6.635	16778	14856	0	348
11.179	15.038	16568	14798	0	348
17.743	21.277	16436	14768	0	348
23.729	23.296	16253	14763	0	348
26.758	20.519	16069	14778	0	348
22.467	15.831	15937	14812	0	348
15.074	9.448	15727	14876	0	348
9.448	7.068	15595	14954	0	348
5.950	4.544	15463	15047	0	348
6.960	2.885	15411	15149	0	348
6.708	-1.442	15279	15252	0	348
5.121	-5.698	15200	15349	0	348
-0.180	-9.304	15332	15550	0	348
-2.993	-7.934	15595	16057	0	348
-5.698	-5.409	16069	16789	0	348
-6.275	-2.344	16436	17375	0	348
-5.878	-2.056	16699	17687	0	348
-5.914	-3.678	16962	17848	0	348
-6.599	-5.337	17173	17926	0	348
-8.511	-7.681	17226	17922	0	348
-12.441	-9.016	17305	17843	0	348
-15.975	-9.809	17357	17712	0	348
-18.175	-10.350	17357	17546	0	348
-18.788	-10.819	17305	17350	0	348
-16.877	-10.927	17173	17135	0	348
-12.477	-9.124	17094	16911	0	348
-9.376	-5.698	16962	16681	0	348
-4.580	0.757	16962	16564	0	348
1.010	5.734	17226	16774	0	348
6.455	8.799	17620	17223	0	348
11.900	6.996	17962	17546	0	348
13.163	2.416	18147	17609	0	348
10.999	-2.813	18278	17546	0	348
5.265	-7.501	18278	17419	0	348
-1.118	-9.701	18357	17238	0	348
-4.616	-10.927	18489	17116	0	348
-5.698	-9.016	18884	17370	0	348
-7.609	-6.708	19726	18122	0	348
-9.629	-4.544	20515	18937	0	348
-12.586	-1.659	21173	19338	0	348
-15.326	-2.236	21568	19338	0	348
-14.858	-3.714	21962	19225	0	348
-14.389	-6.599	22620	19284	0	348
-12.153	-7.573	23147	19474	0	348
-10.025	-6.311	23673	19552	0	348
-5.409	-2.344	24331	19606	0	348
-1.046	1.839	24857	19718	0	348
3.678	4.183	25252	19587	0	348
4.760	3.714	25462	19128	0	348
3.895	3.462	25462	18503	1	676
2.596	4.219	25331	17800	0	676
2.596	6.347	24989	17033	0	676
5.914	9.232	24726	16238	0	676
7.357	10.710	24278	15437	0	676
7.176	9.773	23752	14680	0	676
7.789	7.393	23147	13968	0	676
6.275	6.022	22620	13308	0	676
5.734	7.429	21962	12718	0	676
6.383	7.357	21252	12215	0	676
3.498	7.609	20726	11800	0	676
-1.298	3.967	19989	11477	0	676
-5.229	1.659	19410	11238	0	676
-7.429	1.010	18673	11077	0	676
-6.275	2.560	18094	10994	0	676
-1.334	5.662	17489	10979	0	676
2.272	5.157	16962	11033	0	676
2.885	2.524	16332	11140	0	676
-0.397	-2.019	15858	11311	0	676
-2.741	-5.049	15411	11541	0	676
-2.777	-6.455	14937	11819	0	676
0.577	-7.393	14542	12136	0	676
4.688	-6.816	14095	12468	0	676
6.094	-7.501	13700	12825	0	676
5.734	-8.907	13437	13191	0	676
4.039	-7.573	13095	13562	0	676
3.714	-3.282	12911	13933	0	676
3.570	3.570	12569	14309	0	676
2.416	9.448	12437	14685	0	676
-1.911	12.225	12174	15061	0	676
-5.013	11.684	12121	15432	0	676
-8.366	8.294	11911	15799	0	676
-8.258	7.537	11858	16145	0	676
-8.006	5.878	11779	16471	0	676
-7.537	3.570	11727	16784	0	676
-8.475	-2.849	11727	17072	0	676
-12.694	-11.937	11648	17331	0	676
-17.454	-18.428	11727	17565	0	676
-22.431	-22.647	11779	17760	0	676
-26.397	-21.601	11727	17922	0	676
-28.381	-20.014	11779	18068	0	676
-28.669	-19.654	11779	18185	0	676
-28.309	-22.178	11858	18278	0	676
-26.073	-23.404	11911	18337	0	676
-25.316	-23.224	11911	18371	0	676
-21.096	-19.618	11990	18390	0	676
-17.310	-14.858	11990	18395	0	676
-12.405	-12.297	12174	18390	0	676
-9.953	-14.425	12174	18376	0	676
-9.376	-17.598	12174	18351	0	676
-9.665	-20.267	12516	18420	0	676
-10.133	-18.283	12963	18781	0	676
-8.979	-13.054	13621	19347	0	676
-7.645	-5.554	14095	19753	0	676
-7.429	-2.705	14490	19875	0	676
-8.294	-2.849	14937	19860	0	610
18.356	19.257	14016	16886	0	316
16.697	17.382	14016	16925	0	316
16.480	15.903	14016	16945	0	316
16.697	13.956	14148	16955	0	316
16.012	12.081	14148	16960	0	316
14.461	11.287	14227	16955	0	316
13.307	13.415	14279	16945	0	316
15.723	17.959	14358	16930	0	316
20.844	21.421	14279	16906	0	316
23.657	23.224	14358	16867	0	316
23.765	22.827	14358	16828	0	316
20.483	23.044	14621	16886	0	316
17.815	23.693	15016	17253	0	316
17.887	24.919	15542	17843	0	316
20.627	27.515	16069	18298	0	316
21.277	26.289	16436	18478	0	316
22.972	25.965	16778	18517	0	316
20.988	23.801	17041	18483	0	316
20.123	23.476	17226	18366	0	316
21.565	21.601	17305	18200	0	316
20.736	20.916	17436	17995	0	316
20.267	19.726	17489	17770	0	316
18.428	18.175	17489	17521	0	316
16.264	17.129	17568	17253	0	316
16.048	15.795	17568	16979	0	316
16.985	15.038	17489	16716	0	316
17.598	13.415	17436	16462	0	316
15.615	11.612	17357	16233	0	316
13.415	9.376	17173	15999	0	316
13.668	10.061	17226	15882	0	316
14.894	14.749	17568	16082	0	316
19.582	18.608	18015	16525	0	316
23.909	23.476	18278	16847	0	316
25.135	24.919	18489	16925	0	316
25.460	23.368	18673	16901	0	316
24.053	22.250	18805	16818	0	316
21.962	19.005	18752	16681	0	316
20.591	16.480	18752	16501	0	316
19.437	15.254	18752	16292	0	316
22.683	16.733	18620	16062	0	316
27.840	18.969	18410	15818	0	316
30.581	18.716	18278	15584	0	316
27.299	14.533	18147	15374	0	316
17.815	5.409	17962	15183	0	316
6.383	-2.128	17699	15008	0	316
-1.046	-7.212	17489	14851	1	316
-0.793	-6.419	17305	14719	0	316
4.291	-5.409	17094	14617	0	316
7.789	-3.895	16831	14539	0	316
7.970	-5.914	16568	14485	0	316
4.616	-8.366	16384	14466	0	316
3.282	-10.494	16200	14475	0	316
5.878	-6.599	15990	14514	0	316
12.622	2.019	15858	14573	0	316
18.752	13.992	15727	14651	0	316
21.565	21.421	15542	14754	0	316
17.526	22.719	15411	14876	0	316
14.605	18.716	15332	15008	0	316
13.235	13.235	15200	15130	0	316
14.966	9.412	15069	15252	0	316
19.942	6.347	14937	15374	0	316
20.952	5.301	14884	15506	0	316
19.618	3.029	14806	15642	0	316
16.841	1.623	14806	15784	0	316
12.730	-0.721	14674	15921	0	316
10.350	-4.436	14621	16052	0	316
6.924	-9.989	14621	16184	0	316
4.616	-14.389	14621	16301	0	316
1.515	-17.129	14542	16408	0	316
-3.173	-16.552	14542	16506	0	316
-7.212	-16.444	14542	16593	0	316
-10.350	-15.326	14542	16672	0	316
-6.924	-15.002	14542	16745	0	316
2.344	-12.477	14490	16813	0	316
14.172	-7.789	14542	16872	0	316
20.808	-3.173	14621	16925	0	316
18.824	-0.036	14542	16965	0	316
12.874	-0.180	14542	16999	0	316
5.626	-2.236	14621	17028	0	316
5.517	-6.599	14674	17048	0	316
8.006	-7.717	14621	17052	0	316
10.278	-5.806	14621	17043	0	316
11.720	-3.137	14674	17028	0	316
13.956	1.515	14674	17013	0	316
16.552	2.705	14753	17004	0	316
22.791	0.505	14674	16989	0	316
24.198	-5.590	14674	16979	0	316
20.627	-12.333	14753	16979	0	316
11.900	-19.473	14884	16979	0	316
3.967	-24.198	14884	16979	0	316
0.000	-25.135	14884	16969	0	316
-0.974	-26.758	15016	16960	0	316
-1.046	-27.948	15016	16945	0	316
-5.481	-31.626	15069	16921	0	316
-11.684	-35.665	15069	16882	0	316
-13.668	-35.701	15069	16838	0	316
-10.783	-32.672	15069	16794	0	316
-3.642	-27.804	15148	16750	0	316
-0.397	-22.827	15148	16706	0	316
-1.479	-20.195	15200	16667	0	316
-7.212	-18.860	15200	16647	0	316
-10.242	-17.887	15200	16628	0	316
-11.828	-19.185	15200	16613	0	316
-9.556	-21.601	15279	16598	0	316
-9.737	-26.073	15332	16584	0	316
-11.360	-29.968	15332	16569	0	316
-11.828	-31.843	15463	16554	0	316
-12.189	-30.076	15595	16637	0	316
-9.917	-26.397	15990	17009	0	316
-6.744	-20.375	16568	17604	0	316
-2.524	-15.110	17041	18049	0	316
0.685	-13.199	17305	18224	0	316
2.741	-15.687	17699	18254	0	316
2.560	-20.411	17884	18205	0	316
-1.298	-23.765	18094	18078	0	316
-5.085	-23.585	18147	17902	0	316
-9.737	-21.781	18226	17687	0	316
-11.143	-19.329	18278	17448	0	316
-14.317	-19.978	18278	17184	0	316
-16.661	-23.585	18357	17013	0	316
-18.247	-26.109	18752	17155	0	316
-19.690	-28.128	19199	17531	0	316
-18.788	-26.974	19541	17760	0	316
-15.759	-26.037	19857	17721	0	316
-12.405	-23.801	19989	17565	0	316
-12.982	-23.440	19989	17355	0	316
-13.776	-24.991	20120	17092	0	316
-17.743	-28.561	19989	16794	0	316
-22.575	-31.843	19989	16471	0	316
-23.296	-31.951	19805	16145	0	316
-22.611	-27.047	19673	15808	0	316
-15.831	-15.362	19410	15481	0	316
-8.475	-2.092	19199	15183	0	316
-3.282	7.104	18936	14915	0	316
-1.839	10.386	18673	14690	0	316
-3.895	7.104	18489	14495	0	316
-6.455	3.246	18226	14324	0	316
-5.698	3.787	18094	14285	0	316
-1.623	6.203	18226	14578	0	316
2.813	9.917	18541	15139	0	316
6.996	12.441	18752	15579	0	316
9.376	12.297	18752	15764	0	316
8.835	12.297	18805	15833	0	316
6.239	11.864	18805	15847	0	316
4.796	12.081	18673	15808	0	316
4.039	9.484	18620	15745	0	316
6.239	7.285	18541	15657	0	316
9.196	5.590	18357	15554	0	316
13.740	2.777	18094	15437	0	316
14.245	1.118	17884	15325	0	316
14.425	0.108	17699	15208	0	316
11.612	2.019	17436	15105	0	316
9.160	5.590	17173	15017	0	316
6.239	11.179	16962	14954	0	316
3.895	13.704	16778	14915	0	316
3.390	12.838	16515	14900	0	316
2.164	6.347	16332	14905	0	316
2.633	2.092	16121	14929	0	316
3.859	0.469	15937	14978	0	316
7.753	3.570	15727	15047	0	316
9.881	7.717	15542	15125	0	316
11.360	8.871	15332	15208	0	316
8.042	7.176	15279	15315	0	316
3.967	3.210	15069	15427	0	316
0.757	2.200	14937	15535	0	316
1.082	4.977	14937	15652	0	316
3.282	8.186	14753	15774	0	316
6.455	10.206	14621	15901	0	316
8.439	10.494	14621	16018	0	316
7.321	10.602	14542	16121	0	316
6.022	9.340	14411	16204	0	316
4.219	11.612	14358	16282	0	316
3.570	14.389	14279	16360	0	316
1.947	17.238	14358	16442	0	316
2.993	18.860	14148	16525	0	316
4.508	17.454	14148	16613	0	316
6.022	15.362	14227	16701	0	316
7.068	12.874	14148	16784	0	316
7.717	11.792	14095	16862	0	316
5.481	12.009	14227	16945	0	316
2.921	11.828	14227	17023	0	316
3.029	9.809	14358	17199	0	316
0.469	6.094	14884	17653	0	316
-0.072	4.508	15411	18312	0	316
-2.236	2.056	15858	18815	0	316
-2.416	1.695	16332	19030	0	316
-3.354	2.056	16647	19084	0	316
-0.793	1.298	16910	19040	0	316
0.288	0.036	16962	18913	0	316
1.442	-1.370	17094	18717	0	316
0.829	-2.849	17226	18473	0	316
0.072	-2.957	17436	18307	1	584
-1.551	-1.551	17884	18425	0	584
-0.144	1.442	18278	18761	0	584
2.921	4.940	18805	18947	0	584
7.321	8.763	19068	18854	0	584
12.045	12.622	19199	18625	0	584
13.451	16.300	19331	18332	0	584
14.713	17.129	19410	17980	0	584
13.235	18.139	19331	17580	0	584
14.677	17.959	19278	17160	0	584
16.084	18.572	19068	16745	0	584
17.093	17.743	19068	16355	0	584
16.336	17.021	18884	15979	0	584
14.677	14.245	18541	15623	0	584
11.648	10.674	18410	15286	0	584
8.366	8.186	18147	14983	0	584
7.645	5.337	18094	14822	0	584
4.544	5.121	18226	15003	0	584
1.551	4.075	18489	15437	0	584
0.793	5.121	18673	15755	0	584
1.803	7.429	18752	15823	0	584
4.652	11.071	18673	15789	0	584
8.366	12.333	18673	15701	0	584
8.547	12.838	18620	15584	0	584
10.025	11.143	18410	15447	0	584
11.648	9.304	18278	15305	0	584
15.723	7.825	18094	15164	0	584
21.024	9.052	17962	15032	0	584
22.431	11.143	17699	14915	0	584
23.260	14.713	17436	14812	0	584
24.486	18.067	17173	14724	0	584
27.551	21.421	17094	14749	0	584
32.167	23.152	17357	15086	0	584
34.728	22.395	17620	15672	0	584
32.564	18.752	17752	16126	0	584
25.424	13.884	17962	16331	0	584
18.175	9.556	17962	16408	0	584
14.281	7.501	18015	16437	0	584
12.658	7.898	17962	16413	0	584
14.749	11.215	17884	16350	0	584
17.598	13.018	17699	16248	0	584
17.274	14.281	17620	16131	0	584
17.202	13.559	17436	15999	0	584
17.274	13.018	17305	15867	0	584
19.185	11.540	17094	15740	0	584
21.204	13.451	16910	15628	0	584
23.368	16.841	16647	15530	0	584
26.289	20.267	16436	15452	0	584
27.660	23.404	16253	15379	0	584
28.669	24.198	16069	15330	0	584
28.814	23.981	15858	15301	0	584
28.525	20.808	15727	15291	0	584
25.424	17.057	15542	15291	0	584
21.818	12.658	15279	15301	0	584
15.831	8.871	15148	15320	0	584
8.511	5.806	14937	15344	0	584
2.272	5.914	14937	15476	0	584
-2.019	4.796	15200	15926	0	584
-4.508	3.426	15595	16603	0	584
-4.003	1.623	15858	17150	0	584
-4.760	-0.974	16121	17433	0	584
-4.580	-3.065	16253	17580	0	584
-6.383	-5.986	16384	17653	0	584
-7.970	-8.979	16436	17658	0	584
-9.737	-11.540	16515	17609	0	584
-11.612	-13.343	16515	17511	0	584
-13.235	-13.451	16436	17375	0	584
-11.432	-13.199	16568	17321	0	584
-10.963	-11.323	16962	17560	0	584
-8.366	-8.583	17357	18014	0	584
-5.554	-6.816	17699	18312	0	584
-4.400	-5.229	17884	18317	0	584
-5.878	-5.986	17962	18180	0	584
-6.203	-6.167	18015	17985	0	584
-6.131	-5.626	18094	17736	0	584
-6.527	-6.491	18015	17448	0	584
-7.970	-6.347	17884	17135	0	584
-10.494	-7.176	17699	16808	0	584
-13.343	-9.232	17568	16481	0	584
-11.360	-9.196	17357	16179	0	584
-7.212	-8.799	17173	15891	0	584
0.288	-7.898	16962	15628	0	584
3.101	-8.547	16647	15398	0	584
0.072	-7.645	16436	15193	0	584
-6.744	-7.285	16200	15017	0	584
-13.127	-6.094	15937	14871	0	584
-15.398	-3.787	15674	14763	0	584
-12.117	-3.065	15542	14690	0	584
-4.255	-2.705	15279	14661	0	584
-0.108	-2.777	15069	14671	0	584
2.560	-3.029	15016	14700	0	584
2.741	-2.452	14753	14749	0	584
3.065	1.082	14542	14817	0	584
5.662	3.498	14411	14895	0	584
9.953	6.455	14279	14978	0	584
13.235	7.934	14148	15081	0	584
14.641	9.268	14016	15198	0	584
15.687	8.114	13963	15325	0	584
14.245	7.681	13832	15462	0	584
13.199	6.203	13753	15603	0	584
10.783	5.517	13753	15740	0	584
8.907	3.931	13621	15882	0	584
6.635	4.400	13621	16028	0	584
7.068	6.094	13621	16175	0	584
11.973	11.071	13569	16311	0	584
16.769	15.110	13569	16432	0	584
25.135	20.014	13700	16545	0	584
28.489	23.332	13569	16657	0	584
30.653	22.395	13700	16755	0	584
27.227	20.988	13621	16847	0	584
24.630	19.149	13700	16930	0	584
22.214	20.123	13753	16994	0	584
22.034	23.765	13753	17043	0	584
23.080	28.777	13753	17072	0	584
23.657	32.239	13963	17194	0	584
20.736	31.518	14411	17609	0	584
18.103	26.830	15016	18239	0	584
15.975	23.729	15411	18703	0	584
16.480	20.303	15806	18879	0	584
17.562	18.139	16069	18908	0	584
15.182	15.939	16332	18854	0	584
8.727	12.514	16436	18727	0	584
1.839	9.881	16568	18527	0	584
-3.210	6.383	16647	18273	0	584
-8.186	2.092	16647	17995	1	496
-11.287	-5.554	16647	17707	0	496
-18.067	-12.550	16647	17419	0	496
-25.316	-17.706	16568	17131	0	496
-28.922	-19.257	16515	16857	0	496
-29.895	-18.536	16436	16598	0	496
-27.515	-17.923	16332	16350	0	496
-23.873	-18.428	16200	16116	0	496
-20.519	-18.788	16069	15916	0	496
-20.519	-17.959	15990	15750	0	496
-20.411	-15.435	15858	15603	0	496
-20.952	-13.091	15727	15467	0	496
-22.034	-10.314	15674	15354	0	496
-19.221	-10.350	15463	15271	0	496
-17.562	-12.297	15332	15222	0	496
-13.668	-11.864	15279	15198	0	496
-12.766	-13.018	15332	15305	0	496
-12.874	-11.360	15727	15725	0	496
-13.054	-8.114	16121	16375	0	496
-12.622	-5.445	16436	16877	0	496
-11.107	-3.246	16778	17111	0	496
-9.340	-1.551	16962	17204	0	496
-7.862	-2.056	17226	17311	0	496
-9.124	-3.787	17831	17653	0	496
-11.143	-7.321	18357	18175	0	496
-12.658	-8.511	18752	18503	0	496
-15.218	-9.592	19068	18527	0	496
-15.687	-7.934	19199	18385	0	496
-16.372	-8.583	19410	18161	0	496
-16.480	-7.537	19410	17868	0	496
-14.064	-7.645	19331	17526	0	496
-9.737	-3.750	19278	17155	0	496
-4.147	1.587	19147	16769	0	496
-1.154	6.383	18936	16384	0	496
2.524	6.888	18752	16009	0	496
2.344	5.049	18489	15652	0	496
4.003	1.623	18226	15325	0	496
4.616	0.325	17962	15027	0	496
6.058	2.236	17699	14773	0	496
6.167	4.580	17436	14563	0	496
7.501	9.592	17094	14387	0	496
10.242	12.369	16831	14246	0	496
15.687	16.300	16568	14138	0	496
20.159	19.293	16332	14080	0	496
21.385	20.880	16069	14065	0	496
18.428	19.365	15806	14085	0	496
14.749	15.975	15595	14134	0	496
9.268	12.189	15332	14207	0	496
5.373	8.943	15200	14300	0	496
4.327	8.006	15016	14412	0	496
4.616	11.792	14884	14544	0	496
6.203	12.946	14674	14680	0	496
9.376	13.812	14490	14817	0	496
10.350	12.153	14542	15066	0	496
12.658	12.982	14806	15633	0	496
16.264	14.425	15332	16423	0	496
19.293	20.519	15595	17067	0	496
24.702	24.558	15858	17428	0	496
27.263	28.850	16069	17638	0	496
30.833	29.499	16253	17765	0	496
32.744	30.761	16332	17809	0	496
36.567	32.708	16384	17795	0	496
40.317	35.774	16436	17726	0	496
43.094	38.875	16436	17614	0	496
44.284	42.048	16384	17467	0	496
46.232	44.789	16332	17292	0	496
47.458	44.140	16253	17106	0	496
47.602	42.373	16121	16925	0	496
48.179	38.911	16121	16842	0	496
51.424	38.009	16515	17072	0	496
55.824	39.776	16910	17536	0	496
63.325	46.232	17173	17873	0	496
66.715	49.477	17436	17946	0	496
69.023	51.064	17568	17902	0	496
66.318	48.972	17699	17790	0	496
64.118	48.251	17699	17619	0	496
66.246	49.874	17699	17404	0	496
69.095	53.732	17699	17160	0	496
71.223	57.230	17568	16906	0	496
69.564	56.257	17357	16647	0	496
65.200	52.831	17305	16393	0	496
62.676	50.920	17094	16145	0	496
60.151	50.703	16910	15896	0	496
61.053	51.064	16778	15667	0	496
59.538	50.884	16568	15471	0	496
56.942	49.261	16332	15301	0	496
54.490	44.933	16121	15154	0	496
50.920	39.668	15937	15037	0	496
48.756	35.882	15727	14959	0	496
43.960	32.636	15542	14915	0	496
41.507	30.761	15411	14890	0	496
37.468	27.660	15200	14885	0	496
34.728	27.155	15016	14905	0	496
32.708	23.873	14806	14954	0	496
30.689	22.214	14753	15022	0	496
30.545	21.529	14674	15105	0	496
31.374	23.152	14542	15198	0	496
35.846	25.532	14411	15305	0	496
38.226	26.361	14358	15418	0	496
40.606	24.883	14279	15525	0	496
41.471	24.414	14148	15637	0	496
41.724	24.234	14095	15755	0	496
40.570	27.768	14095	15882	0	496
39.019	31.843	14016	16004	0	496
38.406	35.990	13963	16126	0	496
38.370	36.170	13963	16243	0	496
36.747	31.771	14095	16360	0	496
35.016	26.397	14148	16559	0	496
31.410	21.168	14621	17052	0	496
29.571	20.267	15148	17746	0	496
30.761	25.532	15595	18273	0	496
34.944	30.545	15937	18522	0	496
37.252	35.557	16200	18630	0	496
37.541	34.800	16384	18639	0	496
33.934	32.131	16568	18566	0	496
33.574	30.508	16699	18434	0	496
33.970	31.807	16778	18259	0	496
38.154	34.475	16831	18039	0	496
41.868	35.088	16778	17800	1	472
42.445	33.790	16778	17550	0	472
41.435	31.518	16831	17394	0	472
40.534	29.391	17226	17531	0	472
39.596	30.797	17699	17897	0	472
37.252	32.203	18015	18127	0	472
36.170	32.853	18226	18097	0	472
31.987	29.174	18357	17951	0	472
29.679	23.873	18489	17741	0	472
26.109	16.985	18541	17472	0	472
22.467	13.235	18410	17160	0	472
19.221	12.153	18410	16833	0	472
15.795	11.287	18278	16496	0	472
11.973	12.081	18147	16165	0	472
10.061	14.641	17884	15828	0	472
7.970	16.444	17620	15506	0	472
8.691	19.510	17357	15213	0	472
12.802	21.781	17173	14954	0	472
18.608	21.709	16910	14734	0	472
25.748	22.575	16647	14553	0	472
29.210	25.388	16384	14417	0	472
30.040	30.040	16200	14329	0	472
29.607	34.043	15937	14280	0	472
30.472	34.980	15727	14260	0	472
33.141	33.285	15463	14265	0	472
37.288	31.482	15279	14295	0	472
40.389	31.518	15200	14358	0	472
40.209	33.718	14937	14441	0	472
40.606	38.190	14753	14549	0	472
39.993	42.481	14806	14783	0	472
41.003	44.753	15069	15335	0	472
41.147	42.445	15542	16116	0	472
37.288	36.711	15858	16740	0	472
31.338	27.551	16121	17087	0	472
23.080	19.113	16332	17292	0	472
17.382	12.622	16436	17414	0	472
15.290	11.648	16568	17458	0	472
16.192	12.658	16647	17443	0	472
18.500	15.218	16647	17389	0	472
19.978	16.084	16647	17301	0	472
16.192	13.559	16568	17189	0	472
10.386	6.708	16568	17067	0	472
4.039	0.072	16568	16935	0	472
0.541	-5.121	16384	16799	0	472
0.000	-7.465	16436	16755	0	472
1.551	-5.806	16831	17009	0	472
1.947	-4.147	17226	17487	0	472
-1.010	-6.744	17568	17819	0	472
-5.085	-9.629	17831	17892	0	472
-10.350	-16.084	17884	17829	0	472
-15.471	-22.070	17962	17702	0	472
-17.310	-26.001	18094	17521	0	472
-19.582	-27.696	18015	17316	0	472
-20.231	-29.354	18015	17087	0	472
-23.476	-32.023	17884	16828	0	472
-28.381	-36.206	17699	16550	0	472
-32.889	-41.616	17568	16277	0	472
-35.954	-44.681	17357	16013	0	472
-34.043	-45.979	17226	15784	0	472
-31.482	-42.986	17041	15579	0	472
-27.263	-39.091	16831	15393	0	472
-26.433	-32.780	16568	15237	0	472
-26.433	-28.705	16384	15105	0	472
-26.181	-26.181	16200	14998	0	472
-24.270	-28.345	15990	14915	0	472
-21.998	-29.968	15727	14861	0	472
-19.834	-30.184	15595	14842	0	472
-16.048	-26.433	15463	14846	0	472
-13.704	-18.464	15279	14885	0	472
-9.989	-11.071	15200	14939	0	472
-5.193	-7.645	15016	15017	0	472
-4.832	-7.862	14884	15105	0	472
-5.590	-10.710	14806	15193	0	472
-9.629	-14.461	14674	15286	0	472
-11.648	-15.038	14621	15384	0	472
-11.035	-13.091	14490	15491	0	472
-7.789	-7.898	14358	15598	0	472
-3.210	-3.714	14279	15701	0	472
-1.370	-1.767	14227	15808	0	472
-0.144	-3.137	14148	15916	0	472
-0.036	-5.517	14148	16028	0	472
-0.938	-8.547	14148	16135	0	472
0.072	-7.934	14016	16233	0	472
-0.288	-7.825	13963	16311	0	472
-2.019	-5.806	14016	16375	0	472
-3.642	-3.859	13963	16432	0	472
-6.780	-5.229	13884	16506	0	472
-10.097	-6.527	13963	16589	0	472
-12.874	-10.891	13963	16676	0	472
-15.002	-16.841	13884	16769	0	472
-18.392	-21.132	14016	16862	0	472
-18.824	-22.539	14016	16935	0	472
-23.368	-25.532	14016	16989	0	472
-28.381	-28.777	14095	17038	0	472
-34.836	-35.233	14227	17077	0	472
-42.625	-41.868	14148	17106	0	472
-49.549	-46.448	14279	17131	0	472
-53.047	-48.359	14358	17150	0	472
-53.624	-49.369	14358	17165	0	472
-51.280	-48.900	14411	17184	0	472
-49.874	-50.270	14490	17204	0	472
-48.467	-50.234	14621	17214	0	472
-48.359	-49.189	14621	17194	0	472
-49.874	-49.153	14621	17155	0	472
-49.585	-47.962	14753	17111	0	472
-49.008	-47.566	14806	17062	0	472
-47.710	-45.943	14806	17013	0	472
-46.628	-43.238	14937	17067	0	472
-43.166	-40.498	15463	17419	0	472
-43.022	-38.045	15990	17985	0	472
-39.921	-35.449	16647	18493	0	472
-38.045	-32.708	17436	19015	0	472
-37.865	-30.220	18278	19635	0	472
-37.649	-28.237	18884	20036	0	472
-36.206	-24.991	19410	20094	0	472
-33.538	-23.404	19805	19943	0	472
-29.354	-18.428	20199	19679	0	472
-23.368	-14.281	20331	19318	0	472
-20.195	-11.756	20462	18874	0	472
-20.772	-9.989	20331	18366	1	476
-19.618	-10.278	20384	17819	0	476
-17.021	-9.773	20199	17267	0	476
-13.054	-5.770	20068	16730	0	476
-8.294	-0.180	19805	16228	0	476
-3.065	4.904	19673	15740	0	476
-1.154	8.402	19410	15291	0	476
0.072	10.314	19068	14885	0	476
-1.082	8.907	18805	14529	0	476
-1.803	9.052	18489	14221	0	476
-1.226	8.943	18147	13968	0	476
1.947	12.153	17884	13767	0	476
8.439	13.740	17620	13616	0	476
12.802	16.516	17357	13518	0	476
15.254	17.418	17041	13474	0	476
13.668	18.320	16778	13474	0	476
10.494	20.123	16568	13513	0	476
6.311	20.988	16332	13596	0	476
3.570	22.250	16121	13709	0	476
-0.974	17.779	15937	13845	0	476
-2.452	12.153	15806	13997	0	476
-2.705	5.481	15595	14158	0	476
-4.183	2.344	15463	14324	0	476
-5.481	1.370	15332	14505	0	476
-11.107	1.190	15200	14695	0	476
-17.887	0.685	15148	14885	0	476
-22.431	-2.092	14937	15061	0	476
-21.024	-3.931	14806	15232	0	476
-16.120	-4.039	14806	15403	0	476
-8.078	-3.210	14674	15574	0	476
-3.895	-1.082	14621	15740	0	476
-3.570	0.721	14542	15906	0	476
-5.049	2.092	14490	16067	0	476
-5.806	2.921	14490	16214	0	476
-5.337	3.065	14490	16355	0	476
-1.479	4.327	14411	16476	0	476
4.508	6.022	14358	16593	0	476
9.160	9.052	14411	16691	0	476
12.045	11.468	14490	16779	0	476
10.891	10.422	14358	16862	0	476
5.986	8.258	14411	16930	0	476
-0.577	3.606	14411	16974	0	476
-6.022	0.216	14358	16999	0	476
-8.871	-2.452	14279	17023	0	476
-9.629	-4.111	14358	17043	0	476
-6.671	-1.767	14411	17077	0	476
-3.210	2.236	14358	17101	0	476
0.144	5.445	14358	17126	0	476
-0.685	7.717	14411	17150	0	476
-4.760	5.193	14490	17165	0	476
-7.104	2.164	14490	17175	0	476
-5.121	2.236	14542	17194	0	476
1.046	8.907	14621	17214	0	476
11.540	17.093	14753	17228	0	476
18.824	23.549	14753	17238	0	476
21.457	27.912	14806	17243	0	476
22.178	25.352	14937	17243	0	476
21.745	24.089	14937	17233	0	476
22.719	24.414	15148	17214	0	476
22.539	26.686	15069	17184	0	476
25.279	30.797	15148	17150	0	476
24.378	32.672	15200	17101	0	476
23.549	32.961	15279	17052	0	476
20.880	29.318	15279	17009	0	476
19.906	26.145	15411	16965	0	476
19.582	23.585	15411	16911	0	476
21.241	23.765	15411	16852	0	476
23.044	24.666	15463	16803	0	476
24.450	25.532	15463	16764	0	476
25.027	25.424	15595	16725	0	476
25.965	23.837	15595	16686	0	476
25.640	22.503	15595	16637	0	476
27.010	21.132	15595	16589	0	476
26.181	21.493	15727	16545	0	476
29.066	23.837	15727	16506	0	476
31.554	28.453	15727	16457	0	476
34.006	31.735	15727	16408	0	476
33.862	33.538	15727	16370	0	476
32.239	33.321	15674	16336	0	476
31.771	32.997	15937	16393	0	476
33.213	34.439	16332	16755	0	476
37.360	38.478	16831	17345	0	476
41.363	41.940	17305	17804	0	476
43.058	43.743	17620	18000	0	476
40.317	41.904	17962	18053	0	476
37.721	37.685	18147	18024	0	476
34.115	35.521	18357	17912	0	476
32.925	33.898	18489	17731	0	476
31.987	33.898	18410	17502	0	476
32.384	33.646	18489	17243	0	476
31.590	30.833	18410	16984	0	476
30.364	26.686	18357	16716	0	476
31.338	22.647	18357	16545	0	476
30.689	22.935	18752	16676	0	476
31.482	24.666	19199	17043	0	476
30.581	26.974	19410	17287	0	476
30.508	29.391	19673	17277	0	476
30.545	29.715	19673	17145	0	476
31.049	26.037	19805	16965	0	476
30.617	23.476	19726	16735	0	476
31.807	20.664	19726	16467	0	476
30.545	20.303	19594	16189	0	476
30.148	21.601	19410	15911	0	476
29.679	25.388	19278	15642	0	476
29.499	27.551	19015	15379	0	476
28.237	29.318	18936	15149	0	476
28.381	28.273	18673	14954	0	476
26.397	27.587	18410	14788	0	476
25.388	24.955	18226	14651	0	476
24.702	24.883	18015	14534	0	476
26.217	25.063	17752	14431	0	476
24.775	27.083	17489	14358	0	476
23.981	25.640	17305	14314	0	476
19.690	24.883	17094	14304	0	476
15.651	20.447	16778	14319	0	476
12.658	17.418	16647	14358	0	476
12.117	15.651	16515	14422	0	476
11.756	16.264	16253	14509	0	476
14.497	18.356	16121	14622	0	476
17.093	20.339	16069	14739	0	476
19.185	20.519	15858	14856	0	476
20.483	16.877	15674	14983	0	476
20.988	12.874	15542	15115	0	476
20.916	10.278	15411	15266	0	476
21.024	10.458	15411	15423	0	476
23.657	13.740	15279	15574	0	476
24.991	17.634	15200	15711	0	476
25.063	19.762	15148	15838	0	476
25.712	19.041	15069	15965	0	476
23.765	17.670	15016	16096	0	476
22.286	16.697	14937	16218	0	476
20.123	15.507	14937	16336	0	476
18.716	15.687	14884	16442	0	476
16.408	15.182	14937	16540	0	476
14.461	14.641	14806	16637	0	476
13.523	13.415	14806	16725	0	476
14.317	11.792	14806	16803	0	476
16.408	12.694	14884	16867	0	476
20.303	13.343	14884	16921	0	476
22.250	12.622	14806	16965	0	476
24.017	14.677	14884	16994	0	476
24.198	15.182	14806	17018	0	476
22.972	16.156	14884	17038	0	476
22.322	16.300	14884	17043	0	476
19.762	15.218	14806	17048	0	476
17.851	12.261	14884	17048	0	476
16.661	10.061	14884	17052	0	476
19.762	11.937	14937	17062	0	476
22.863	15.254	14937	17072	0	476
28.164	19.401	15016	17077	0	476
27.263	21.277	15069	17077	0	476
23.693	17.526	15069	17072	0	476
17.923	12.297	15069	17052	0	476
15.795	6.996	15200	17033	0	476
16.697	6.563	15200	17009	0	476
19.185	7.176	15200	16984	0	476
20.700	8.042	15279	16950	0	476
18.139	9.304	15279	16911	0	476
15.110	7.248	15279	16867	0	476
12.802	8.150	15332	16828	0	476
12.369	8.979	15542	16896	0	476
11.612	10.422	15990	17267	0	476
11.576	9.052	16515	17863	0	476
13.956	8.078	16962	18312	0	476
16.192	6.888	17305	18473	0	476
21.385	8.402	17699	18483	0	476
24.919	10.314	17884	18415	0	476
25.352	12.261	18226	18376	0	476
23.837	14.353	18752	18581	0	476
20.087	13.920	19278	18952	0	476
17.743	12.550	19805	19137	0	476
15.435	9.088	20068	19035	0	476
15.002	4.652	20384	18800	0	476
15.110	3.462	20462	18488	1	692
15.038	5.373	20594	18112	0	692
14.497	9.629	20515	17692	0	692
14.028	13.812	20462	17248	0	692
10.927	13.956	20384	16794	0	692
6.996	10.169	20120	16360	0	692
3.390	8.078	19989	15930	0	692
0.541	7.068	19726	15515	0	692
1.370	8.366	19541	15134	0	692
3.354	8.727	19278	14798	0	692
4.436	9.520	18884	14500	0	692
5.626	8.186	18673	14246	0	692
5.193	9.881	18410	14041	0	692
4.796	12.225	18226	13968	0	692
4.724	15.110	18357	14231	0	692
7.501	17.490	18620	14759	0	692
9.304	18.824	18805	15178	0	692
12.189	20.483	18805	15359	0	692
13.127	22.070	18805	15437	0	692
10.819	21.998	18805	15452	0	692
9.124	23.332	18620	15418	0	692
9.953	22.322	18541	15344	0	692
14.425	23.332	18410	15252	0	692
18.392	23.657	18147	15149	0	692
19.437	22.467	17884	15047	0	692
16.805	19.329	17699	14964	0	692
12.550	16.300	17489	14900	0	692
10.819	14.497	17305	14851	0	692
10.242	14.497	16962	14812	0	692
11.504	15.687	16778	14783	0	692
10.530	14.894	16515	14768	0	692
10.674	10.819	16436	14876	0	692
9.304	7.465	16647	15291	0	692
10.602	3.678	16962	15945	0	692
10.602	5.409	17173	16467	0	692
9.304	7.573	17305	16735	0	692
9.376	10.891	17436	16882	0	692
8.186	14.281	17489	16965	0	692
9.016	16.300	17489	16989	0	692
9.917	18.860	17489	16965	0	692
11.864	20.447	17436	16901	0	692
12.153	21.132	17357	16803	0	692
11.287	20.519	17173	16696	0	692
11.684	20.050	17094	16574	0	692
12.225	19.978	16962	16452	0	692
11.360	18.320	16831	16331	0	692
11.540	15.507	16647	16204	0	692
11.287	13.343	16515	16087	0	692
7.717	9.809	16332	15999	0	692
5.878	7.789	16200	15930	0	692
1.046	5.409	16069	15872	0	692
-2.993	3.029	15858	15818	0	692
-5.986	2.200	15727	15769	0	692
-4.868	4.616	15674	15833	0	692
-0.505	9.917	16121	16218	0	692
6.094	15.687	16384	16833	0	692
9.629	19.077	16699	17306	0	692
12.045	19.546	16962	17511	0	692
12.910	18.103	17041	17575	0	692
15.471	19.149	17173	17580	0	692
18.752	21.529	17226	17521	0	692
21.962	25.171	17226	17414	0	692
20.808	28.489	17226	17262	0	692
19.113	27.551	17094	17092	0	692
15.939	25.388	17041	16906	0	692
15.002	22.539	16910	16711	0	692
17.166	19.005	16778	16510	0	692
16.877	18.067	16647	16326	0	692
15.543	16.661	16436	16150	0	692
13.415	13.920	16332	15994	0	692
9.773	11.937	16253	15857	0	692
7.248	9.917	15990	15725	0	692
7.862	7.825	15858	15623	0	692
8.655	8.727	15674	15550	0	692
9.124	10.602	15542	15506	0	692
11.576	12.874	15411	15491	0	692
10.314	14.605	15332	15506	0	692
9.665	15.110	15200	15525	0	692
7.573	12.441	15069	15550	0	692
6.022	11.107	15069	15584	0	692
6.419	10.927	14884	15628	0	692
9.448	12.225	14753	15681	0	692
12.982	17.202	14753	15730	0	692
18.247	22.178	14674	15784	0	692
23.188	25.135	14542	15843	0	692
25.893	28.128	14490	15911	0	692
27.876	30.004	14411	15974	0	692
26.073	29.282	14411	16038	0	692
21.854	29.066	14358	16106	0	692
16.805	29.138	14279	16175	0	692
13.235	28.201	14279	16238	0	692
14.100	28.092	14279	16292	0	692
15.074	26.397	14227	16350	0	692
18.031	25.135	14227	16398	0	692
17.995	21.818	14227	16442	0	692
14.930	19.185	14148	16476	0	692
12.982	18.103	14095	16506	0	692
11.143	17.995	14095	16545	0	692
11.937	18.680	14148	16584	0	692
10.746	21.132	14016	16623	0	692
11.323	20.736	14095	16647	0	692
7.321	20.159	14095	16667	0	692
6.852	17.995	14016	16696	0	692
8.475	16.769	14095	16740	0	692
11.612	16.228	14148	16774	0	692
13.595	17.166	14148	16803	0	692
14.100	18.572	14148	16823	0	692
11.251	20.772	14148	16852	0	692
9.268	22.178	14358	16877	0	692
6.780	21.277	14279	16901	0	692
5.373	18.572	14358	16911	0	692
1.767	14.245	14411	16901	0	692
-3.606	9.592	14411	16891	0	692
-6.527	9.124	14358	16872	0	692
-7.321	9.917	14411	16847	0	692
-4.940	11.684	14490	16833	0	692
-0.974	13.127	14490	16823	0	692
1.442	11.035	14542	16818	0	692
2.705	9.160	14621	16818	0	692
3.931	8.042	14674	16813	0	692
6.780	9.592	14674	16803	0	692
8.366	13.271	14753	16794	0	692
11.468	15.795	14806	16779	0	692
12.369	16.336	14806	16774	0	692
10.602	16.012	15016	16774	0	692
10.963	15.471	14937	16774	0	692
10.278	15.687	15016	16769	0	692
11.432	17.129	15069	16740	0	692
15.218	18.464	15069	16706	0	692
20.195	18.356	15148	16672	0	692
21.601	16.552	15200	16633	0	692
19.401	13.812	15200	16593	0	692
14.641	11.143	15200	16559	0	692
9.592	8.439	15279	16520	0	692
8.258	9.268	15279	16486	0	692
10.278	8.799	15279	16471	0	692
11.360	8.294	15411	16462	0	692
8.655	6.203	15332	16452	0	692
3.101	3.065	15411	16447	0	692
-1.442	4.003	15411	16447	0	692
-1.767	6.058	15463	16447	0	692
0.216	9.268	15542	16437	0	692
5.481	11.432	15542	16427	0	692
5.301	11.792	15542	16413	0	692
4.219	9.304	15674	16403	0	692
2.272	10.350	15595	16393	0	692
3.282	12.946	15674	16398	0	692
7.970	16.589	15674	16403	0	692
12.225	17.923	15674	16403	0	692
15.507	15.074	15806	16398	0	692
15.074	10.278	15806	16384	0	692
14.245	6.708	15937	16447	0	692
12.982	7.862	16384	16808	0	692
13.054	10.746	16910	17399	0	692
13.487	13.054	17305	17843	0	692
12.982	12.297	17699	18009	0	692
12.189	7.753	17884	18044	0	692
11.071	4.255	18094	18000	0	692
9.629	2.849	18226	17878	0	692
8.006	4.255	18541	17809	0	692
7.032	5.770	19015	18009	0	692
7.140	7.789	19541	18410	0	692
7.753	5.337	19989	18634	0	692
9.665	2.560	20252	18571	0	692
12.189	1.298	20515	18356	0	692
10.891	0.577	20515	18068	0	692
9.232	1.875	20594	17717	0	692
4.364	2.056	20515	17331	1	668
3.426	-1.118	20384	16921	0	668
5.085	-2.272	20331	16510	0	668
8.583	-2.777	20120	16121	0	668
13.054	0.361	19989	15750	0	668
12.802	4.760	19673	15398	0	668
13.054	10.494	19541	15081	0	668
12.550	12.261	19278	14793	0	668
13.776	11.756	18936	14539	0	668
12.838	8.799	18673	14319	0	668
12.586	4.291	18410	14129	0	668
10.206	-1.190	18226	14080	0	668
6.852	-4.003	18410	14378	0	668
5.662	-6.960	18884	15042	0	668
4.652	-9.340	19410	15886	0	668
2.849	-11.251	20068	16691	0	668
2.092	-12.622	20462	17228	0	668
1.983	-10.819	20857	17438	0	668
1.983	-11.287	20989	17458	0	668
2.452	-11.504	21120	17360	0	668
1.479	-11.612	21173	17170	0	668
1.334	-11.107	20989	16916	0	668
0.072	-9.665	20910	16623	0	668
1.911	-4.616	20647	16297	0	668
6.058	-1.190	20462	15955	0	668
9.268	0.252	20120	15613	0	668
11.540	0.433	19857	15296	0	668
12.297	0.865	19462	14998	0	668
12.477	2.056	19331	14837	0	668
12.369	3.642	19410	15012	0	668
11.937	4.940	19594	15452	0	668
10.638	3.462	19594	15784	0	668
8.366	0.613	19726	15872	0	668
8.150	-1.875	19673	15843	0	668
8.294	-2.921	19462	15769	0	668
7.573	-2.669	19410	15657	0	668
7.032	-1.911	19068	15520	0	668
4.544	-3.498	18884	15369	0	668
3.895	-5.914	18673	15198	0	668
3.210	-6.275	18278	15017	0	668
3.137	-7.717	18015	14842	0	668
3.642	-6.996	17620	14690	0	668
2.705	-6.347	17305	14568	0	668
1.911	-4.868	16962	14480	0	668
3.029	-2.056	16647	14431	0	668
2.993	2.200	16332	14417	0	668
5.626	6.708	16069	14436	0	668
6.203	10.242	15806	14475	0	668
8.835	12.477	15542	14534	0	668
9.340	14.785	15200	14607	0	668
13.307	14.713	15016	14710	0	668
15.903	15.218	14884	14837	0	668
19.041	15.290	14542	14978	0	668
21.241	13.812	14358	15120	0	668
20.519	13.776	14227	15261	0	668
19.510	14.425	14148	15408	0	668
17.093	12.009	13884	15564	0	668
14.858	9.088	13753	15725	0	668
12.117	5.950	13753	15896	0	668
11.215	2.092	13569	16067	0	668
13.523	0.757	13569	16243	0	668
16.480	3.318	13490	16408	0	668
19.798	6.599	13490	16574	0	668
21.854	10.314	13437	16725	0	668
20.591	12.117	13437	16862	0	668
18.139	12.946	13490	16994	0	668
16.012	13.559	13437	17111	0	668
15.759	11.468	13437	17228	0	668
14.281	9.773	13569	17331	0	668
13.523	7.357	13569	17419	0	668
13.127	5.409	13621	17487	0	668
11.143	5.013	13753	17541	0	668
11.864	6.960	13700	17580	0	668
13.704	7.789	13832	17619	0	668
13.668	6.455	13832	17653	0	668
13.018	6.383	13884	17677	0	668
13.595	7.248	13963	17687	0	668
12.441	8.150	14148	17677	0	668
14.353	9.556	14095	17643	0	668
13.812	10.061	14148	17594	0	668
15.074	8.114	14279	17541	0	668
15.831	7.717	14279	17492	0	668
17.706	7.465	14358	17438	0	668
21.096	7.789	14411	17375	0	668
22.935	9.520	14490	17321	0	668
21.168	12.189	14490	17262	0	668
20.339	14.245	14542	17194	0	668
16.084	13.992	14621	17126	0	668
14.749	12.297	14674	17057	0	668
12.369	8.114	14674	16989	0	668
13.704	7.068	14753	16921	0	668
15.687	7.825	14753	16862	0	668
18.680	10.638	14806	16794	0	668
20.411	11.287	14806	16735	0	668
18.464	9.881	14806	16681	0	668
15.290	7.357	14884	16628	0	668
13.595	6.311	14884	16569	0	668
15.651	8.042	14937	16501	0	668
19.690	11.107	14884	16442	0	668
22.250	10.963	14806	16384	0	668
21.673	9.052	14884	16336	0	668
18.031	2.488	14806	16282	0	668
16.300	-0.288	14937	16233	0	668
17.562	1.442	14806	16189	0	668
23.116	7.609	14753	16155	0	668
28.741	14.966	14806	16145	0	668
28.994	17.815	14806	16140	0	668
29.102	14.281	14884	16145	0	668
24.955	10.819	14806	16155	0	668
24.702	7.717	14806	16170	0	668
25.604	9.917	14884	16189	0	668
27.696	14.930	14937	16214	0	668
28.201	20.339	14937	16233	0	668
27.804	21.926	14884	16248	0	668
25.460	19.798	14884	16258	0	668
22.755	14.317	14937	16267	0	668
20.988	11.287	15016	16287	0	668
20.411	8.583	15016	16316	0	668
21.060	10.602	15016	16345	0	668
22.863	12.550	15016	16370	0	668
24.919	14.605	15069	16384	0	668
25.712	14.785	15069	16393	0	668
26.722	14.317	15200	16418	0	668
25.135	15.615	15200	16442	0	668
23.512	14.425	15200	16462	0	668
19.365	13.127	15200	16467	0	668
16.084	12.622	15279	16467	0	668
15.831	12.838	15279	16471	0	668
17.959	12.586	15279	16476	0	668
21.096	14.966	15411	16481	0	668
20.880	14.821	15411	16486	0	668
20.267	12.153	15411	16481	0	668
17.815	9.809	15411	16471	0	668
16.120	7.717	15595	16554	0	668
15.002	6.383	16069	16940	0	668
15.795	9.232	16568	17550	0	668
15.975	11.071	17041	18019	0	668
17.238	13.559	17436	18210	0	668
18.175	12.946	17699	18259	0	668
19.437	12.730	17884	18224	0	668
19.690	11.504	18015	18117	0	668
20.123	12.081	18226	17966	0	668
23.368	13.956	18357	17775	0	668
22.683	12.189	18357	17546	1	572
20.087	11.432	18278	17287	0	572
12.874	9.665	18357	17023	0	572
6.311	5.734	18278	16769	0	572
1.370	4.111	18226	16525	0	572
0.361	1.515	18094	16292	0	572
-0.072	-4.255	18015	16057	0	572
0.793	-7.789	17884	15833	0	572
1.082	-8.691	17699	15623	0	572
1.839	-5.554	17620	15437	0	572
5.914	1.767	17357	15276	0	572
8.871	10.458	17226	15139	0	572
11.035	15.398	17094	15032	0	572
12.009	15.867	16962	14954	0	572
11.396	11.973	16831	14905	0	572
11.179	9.124	16699	14881	0	572
13.091	7.789	16568	14876	0	572
15.615	10.602	16436	14890	0	572
21.096	16.372	16332	14920	0	572
22.286	19.906	16200	14968	0	572
20.700	20.014	16069	15022	0	572
14.208	16.769	15990	15091	0	572
7.862	11.684	15858	15164	0	572
2.777	6.455	15727	15252	0	572
5.085	4.111	15674	15344	0	572
8.150	1.911	15595	15442	0	572
12.514	3.967	15595	15530	0	572
15.362	6.852	15463	15618	0	572
16.733	10.242	15411	15711	0	572
15.723	12.369	15332	15813	0	572
12.946	12.117	15332	15916	0	572
10.242	9.124	15279	16018	0	572
8.655	8.186	15200	16121	0	572
11.287	9.232	15279	16214	0	572
15.254	13.235	15200	16301	0	572
19.005	16.949	15200	16384	0	572
17.923	21.060	15148	16452	0	572
16.336	24.414	15200	16506	0	572
13.956	25.893	15148	16550	0	572
12.946	25.099	15200	16589	0	572
14.208	22.719	15148	16623	0	572
14.533	19.870	15069	16647	0	572
15.074	16.480	15069	16667	0	572
15.290	14.497	15148	16691	0	572
14.930	13.018	15069	16720	0	572
13.920	12.045	15148	16740	0	572
10.746	8.583	15148	16750	0	572
5.590	5.373	15069	16755	0	572
-0.469	1.515	15069	16764	0	572
-4.724	-2.633	15148	16779	0	572
-3.642	-3.029	15148	16794	0	572
0.974	0.649	15200	16803	0	572
6.167	5.770	15200	16808	0	572
9.665	8.763	15332	16906	0	572
10.133	10.855	15806	17306	0	572
10.386	10.638	16436	17931	0	572
11.323	11.432	16910	18405	0	572
12.766	13.018	17226	18595	0	572
14.281	13.127	17568	18639	0	572
10.819	9.737	17752	18595	0	572
9.665	5.734	17962	18473	0	572
9.088	4.472	18094	18283	0	572
11.287	8.979	18226	18058	0	572
15.074	15.615	18147	17800	0	572
18.428	21.998	18226	17516	0	572
17.959	22.575	18147	17218	0	572
15.290	18.247	18094	16930	0	572
10.206	12.874	18015	16662	0	572
8.439	8.835	17884	16413	0	572
10.783	8.078	17831	16184	0	572
12.514	7.032	17699	15960	0	572
14.533	6.708	17620	15759	0	572
13.487	6.924	17436	15589	0	572
9.556	5.554	17305	15447	0	572
8.222	7.357	17173	15320	0	572
9.881	10.783	17094	15208	0	572
15.110	12.369	16831	15110	0	572
18.392	14.461	16699	15027	0	572
21.781	14.930	16568	14964	0	572
20.627	14.461	16436	14925	1	316
18.211	14.064	16332	14920	0	316
15.038	12.910	16200	14949	0	316
12.802	11.792	16069	15003	0	316
11.107	10.710	15990	15066	0	316
11.143	8.439	15858	15144	0	316
10.819	8.186	15806	15227	0	316
10.819	7.825	15990	15427	0	316
13.054	8.979	16332	15926	0	316
16.336	10.169	16699	16642	0	316
20.050	11.792	17173	17223	0	316
21.349	12.982	17489	17541	0	316
20.519	10.458	17752	17707	0	316
14.749	8.727	17962	17770	0	316
7.393	3.570	18015	17756	0	316
4.472	1.767	18094	17673	0	316
4.075	0.902	18147	17541	0	316
5.013	1.587	18147	17370	0	316
5.914	1.298	18094	17175	0	316
4.039	-1.010	17962	16965	0	316
2.921	-0.757	18015	16759	0	316
3.931	0.577	17831	16550	0	316
7.934	7.068	17752	16350	0	316
12.261	13.559	17568	16155	0	316
14.677	17.129	17436	15979	0	316
12.189	15.254	17226	15823	0	316
12.802	12.730	17173	15681	0	316
12.910	10.386	16910	15550	0	316
16.372	10.566	16778	15432	0	316
16.444	11.792	16647	15349	0	316
15.651	10.819	16436	15296	0	316
12.189	7.140	16332	15257	0	316
7.753	2.416	16200	15237	0	316
5.265	-0.974	15990	15222	0	316
3.426	-1.767	15858	15222	0	316
2.705	-2.344	15727	15242	0	316
1.551	-4.580	15727	15286	0	316
0.108	-7.429	15542	15354	0	316
0.902	-10.386	15411	15427	0	316
-0.144	-10.602	15279	15496	0	316
-0.649	-9.556	15279	15579	0	316
-2.741	-7.321	15200	15681	0	316
-5.265	-7.898	15069	15789	0	316
-6.383	-7.573	15069	15886	0	316
-6.239	-7.285	15016	15974	0	316
-2.056	-4.147	14937	16052	0	316
1.298	-0.902	14937	16140	0	316
2.380	0.902	14937	16238	0	316
0.216	-0.252	14937	16341	0	316
-4.364	-2.416	14937	16432	0	316
-5.445	-3.173	14884	16525	0	316
-4.039	-4.291	14937	16613	0	316
1.046	-2.272	14937	16686	0	316
6.131	0.072	15016	16764	0	316
8.186	1.551	15069	16833	0	316
6.599	1.875	15069	16886	0	316
4.183	2.380	15069	16925	0	316
-0.144	1.731	15148	16955	0	316
-1.839	0.829	15148	16969	0	316
-2.849	0.721	15200	16979	0	316
-2.272	1.370	15200	16984	0	316
-1.010	-0.469	15200	16984	0	316
2.092	-1.803	15279	16974	0	316
2.164	-3.029	15332	16960	0	316
2.452	-6.599	15332	16945	0	316
-0.902	-8.114	15332	16930	0	316
-3.967	-8.547	15411	16911	0	316
-7.104	-9.592	15411	16882	0	316
-4.724	-7.393	15411	16857	0	316
-1.190	-2.741	15463	16838	0	316
5.085	0.144	15674	16916	0	316
7.212	3.787	16121	17277	0	316
7.321	5.301	16647	17853	0	316
6.311	5.229	17094	18283	0	316
7.068	3.714	17489	18449	0	316
11.071	6.131	17752	18473	0	316
16.408	9.484	17884	18410	0	316
21.565	14.569	18094	18263	0	316
25.784	20.700	18226	18058	0	316
26.109	24.594	18278	17814	0	316
26.109	25.712	18226	17546	1	320
22.539	24.522	18278	17272	0	320
17.238	20.447	18226	16994	0	320
13.812	16.372	18226	16725	0	320
9.989	13.235	18015	16467	0	320
7.898	11.035	18015	16233	0	320
6.816	10.819	18015	16111	0	320
5.373	10.963	18410	16297	0	320
6.960	11.540	18673	16716	0	320
10.710	14.281	19068	17004	0	320
15.002	15.326	19278	17043	0	320
16.552	16.012	19278	16950	0	320
13.271	14.930	19410	16803	0	320
8.763	12.405	19331	16608	0	320
4.977	11.612	19278	16388	0	320
5.950	11.828	19199	16155	0	320
9.520	15.831	19015	15906	0	320
13.848	17.093	18884	15657	0	320
16.877	16.408	18752	15423	0	320
15.867	13.776	18489	15218	0	320
15.254	10.783	18357	15047	0	320
12.477	9.881	18147	14895	0	320
13.343	13.271	17962	14763	0	320
13.740	18.392	17699	14646	0	320
17.021	19.149	17357	14544	0	320
17.815	16.769	17226	14470	0	320
16.156	12.838	16962	14422	0	320
13.235	8.907	16699	14407	0	320
11.828	11.937	16515	14422	0	320
12.153	16.048	16332	14456	0	320
15.074	20.916	16121	14505	0	320
17.959	22.214	15937	14573	0	320
18.933	21.818	15727	14661	0	320
16.913	18.824	15542	14768	0	320
12.838	14.172	15542	14895	0	320
6.527	9.088	15463	15125	0	320
3.462	4.075	15806	15662	0	320
5.121	3.426	16200	16418	0	320
7.970	7.104	16515	17033	0	320
13.884	11.504	16778	17375	0	320
15.146	16.156	16962	17570	0	320
14.497	15.651	17173	17677	0	320
12.946	11.360	17173	17692	0	320
13.307	9.232	17305	17643	0	320
16.841	8.258	17226	17546	0	320
17.598	7.681	17226	17414	0	320
19.113	9.845	17173	17262	0	320
17.670	9.340	17094	17106	0	320
15.651	8.907	17094	17038	0	320
13.199	7.285	17489	17262	0	320
14.028	6.527	17831	17707	0	320
13.235	6.635	18226	18014	0	320
14.172	7.212	18410	18058	0	320
12.405	8.114	18541	17975	0	320
11.251	8.655	18541	17824	0	320
11.432	8.547	18541	17614	0	320
10.638	5.301	18541	17370	0	320
12.081	3.029	18489	17092	0	320
12.730	2.705	18410	16891	0	320
12.153	6.455	18752	16979	0	320
10.242	10.061	19147	17301	0	320
8.763	12.658	19278	17502	0	320
5.229	9.448	19462	17453	0	320
2.308	3.678	19462	17292	0	320
4.147	-0.649	19462	17072	0	320
8.439	2.128	19594	16911	0	320
13.956	7.465	19936	17023	0	320
17.093	12.514	20331	17345	0	320
15.002	10.169	20515	17511	0	320
8.439	4.003	20594	17404	0	320
2.921	-2.885	20647	17175	0	320
1.370	-2.993	20515	16896	0	320
4.616	4.472	20515	16569	0	320
11.540	12.982	20252	16223	0	320
19.582	17.995	20120	15872	0	320
24.162	15.723	19805	15520	0	320
24.125	8.799	19541	15183	0	320
22.575	1.911	19331	14973	0	320
20.014	0.685	19462	15091	0	320
22.286	0.902	19726	15457	0	320
24.486	3.282	19726	15701	0	320
28.489	1.442	19726	15701	0	320
25.207	-2.019	19541	15589	0	320
22.503	-5.265	19462	15447	0	320
16.300	-5.590	19147	15276	0	320
15.615	-2.921	19199	15193	0	320
17.887	-0.072	19331	15403	0	320
20.267	-0.793	19462	15833	0	320
20.844	-5.626	19594	16121	0	320
18.392	-9.556	19541	16170	0	320
16.012	-13.199	19541	16101	0	320
17.418	-13.523	19462	15979	0	320
21.781	-11.468	19199	15803	0	320
24.414	-11.648	19015	15598	0	320
25.207	-12.477	18673	15374	0	320
19.041	-14.785	18357	15149	0	320
13.920	-14.821	18015	14925	0	320
12.117	-12.874	17699	14719	0	320
17.490	-8.943	17305	14549	0	320
25.496	-3.390	16910	14412	0	320
31.158	0.288	16568	14304	0	320
32.780	2.308	16253	14241	0	320
29.066	3.750	15858	14217	0	320
25.279	6.203	15542	14217	0	320
25.604	8.511	15200	14241	0	320
28.092	12.658	14937	14300	0	320
30.581	15.110	14674	14387	0	320
29.102	12.838	14411	14514	0	320
23.476	9.773	14148	14656	0	320
17.093	4.436	13963	14812	0	320
12.117	0.577	13832	14978	0	320
9.629	0.757	13569	15144	0	320
9.629	3.390	13437	15305	0	320
9.845	5.193	13358	15471	0	320
9.953	5.013	13095	15647	0	320
8.871	3.462	13042	15838	0	320
8.763	1.010	12911	16023	0	320
10.350	2.344	12911	16204	0	320
14.749	6.419	12779	16384	0	320
20.988	12.874	12832	16559	0	320
25.316	15.074	12779	16725	0	320
29.427	15.146	12779	16872	0	320
28.453	12.189	12700	16999	0	320
28.525	11.540	12779	17111	0	320
28.164	10.963	12700	17209	0	320
30.436	13.848	12779	17292	0	320
30.725	14.894	12779	17360	0	320
28.850	16.372	12832	17404	0	320
25.856	14.100	12779	17428	0	320
22.106	11.648	12779	17438	0	320
20.087	8.439	12832	17443	0	320
18.320	3.787	12832	17453	0	320
17.454	5.842	12832	17467	0	320
14.785	8.366	12832	17477	0	320
10.891	10.891	12963	17492	0	320
6.419	9.556	12963	17502	0	320
3.354	3.137	13095	17507	0	320
2.921	-3.498	13095	17502	0	320
4.327	-7.176	13227	17497	0	320
9.016	-5.121	13306	17492	0	320
12.622	-1.010	13358	17477	0	320
12.441	2.524	13437	17458	0	320
11.432	4.616	13490	17428	0	320
11.432	7.537	13832	17497	0	320
13.415	12.333	14279	17858	0	320
17.815	17.021	14884	18434	0	320
19.978	18.752	15411	18869	0	320
20.519	17.274	15806	19020	0	320
18.536	11.251	16200	19025	0	320
16.084	8.619	16436	18947	0	320
14.461	8.583	16647	18796	0	320
13.776	11.900	16831	18571	0	320
14.389	14.605	16962	18293	0	320
13.848	15.795	17041	17975	1	612
14.425	13.379	17041	17638	0	612
14.389	11.071	16962	17301	0	612
12.550	6.960	16910	16974	0	612
11.071	3.678	16831	16657	0	612
8.439	2.993	16778	16350	0	612
4.580	1.731	16647	16043	0	612
-0.829	2.777	16515	15764	0	612
-4.977	1.370	16384	15530	0	612
-7.753	-0.865	16253	15344	0	612
-8.402	-2.380	16121	15198	0	612
-4.039	-3.354	15990	15066	0	612
1.767	0.108	15858	14959	0	612
5.554	4.616	15727	14895	0	612
7.104	8.583	15595	14861	0	612
6.167	8.583	15595	14851	0	612
3.534	7.970	15463	14861	0	612
2.488	6.383	15332	14890	0	612
3.750	5.554	15200	14929	0	612
7.032	8.150	15279	14978	0	612
7.681	9.845	15069	15042	0	612
9.304	10.999	15016	15125	0	612
9.809	12.694	15016	15232	0	612
9.665	14.245	14937	15354	0	612
8.871	16.552	14937	15467	0	612
9.953	19.437	14937	15574	0	612
10.386	21.709	14884	15681	0	612
10.602	21.168	14884	15789	0	612
9.484	20.231	14884	15891	0	612
6.527	16.264	14884	15989	0	612
0.865	10.999	14884	16082	0	612
-5.409	6.852	14806	16160	0	612
-9.773	1.731	14884	16218	0	612
-11.360	-0.288	14806	16258	0	612
-12.405	-2.669	14806	16292	0	612
-9.809	-4.255	14753	16326	0	612
-8.006	-3.029	14674	16360	0	612
-5.409	-1.010	14753	16384	0	612
-2.344	4.832	14674	16413	0	612
1.659	10.746	14753	16437	0	612
3.534	17.562	14674	16462	0	612
5.770	20.916	14674	16496	0	612
5.409	20.159	14806	16633	0	612
3.318	16.877	15332	17057	0	612
3.137	13.559	15806	17707	0	612
3.101	11.756	16253	18205	0	612
5.517	14.353	16647	18429	0	612
6.996	17.057	16962	18508	0	612
8.871	19.365	17094	18498	0	612
7.970	18.644	17305	18400	0	612
8.547	16.480	17436	18234	0	612
8.979	14.858	17489	18019	0	612
11.540	14.894	17568	17780	0	612
13.307	16.552	17489	17536	0	612
15.002	18.933	17489	17287	0	612
16.156	20.700	17436	17033	0	612
13.992	21.529	17357	16764	0	612
11.900	19.005	17305	16501	0	612
8.078	14.569	17173	16262	0	612
4.472	8.439	17041	16028	0	612
1.659	2.669	16910	15813	0	612
-1.118	-3.318	16699	15618	0	612
-1.983	-6.203	16568	15452	0	612
-1.226	-5.554	16436	15330	0	612
2.128	0.613	16332	15237	0	612
7.970	6.960	16121	15174	0	612
12.189	13.163	15990	15125	0	612
12.153	13.920	15858	15091	0	612
11.720	10.133	15806	15076	0	612
10.638	7.573	15674	15086	0	612
12.261	6.563	15542	15115	0	612
17.346	12.117	15463	15159	0	612
21.637	15.795	15411	15208	0	612
23.621	17.526	15279	15271	0	612
21.313	17.634	15200	15344	0	612
16.552	16.264	15069	15437	0	612
13.163	16.913	15069	15535	0	612
10.891	20.772	15016	15642	0	612
13.704	24.847	15016	15740	0	612
19.654	29.535	14937	15838	0	612
23.549	30.581	14937	15940	0	612
24.991	28.922	14884	16048	0	612
23.945	24.450	14937	16150	0	612
19.510	17.815	14937	16243	0	612
17.562	14.317	14937	16326	0	612
18.572	13.848	14937	16393	0	612
19.942	16.264	14884	16462	0	612
20.375	16.769	14937	16520	0	612
17.598	11.864	14884	16569	0	612
13.415	3.859	15016	16613	0	612
9.340	-2.164	14937	16652	0	612
11.612	-1.875	14937	16696	0	612
15.723	5.445	15016	16735	0	612
21.024	14.605	15016	16774	0	612
21.421	15.867	15148	16803	0	612
16.552	10.386	15069	16833	0	612
10.350	3.570	15069	16847	0	612
5.626	-0.974	15148	16852	0	612
7.717	2.019	15148	16842	0	612
13.920	9.737	15148	16833	0	612
20.844	14.713	15279	16823	0	612
24.522	16.300	15200	16813	0	612
24.270	14.353	15200	16799	0	612
24.198	13.704	15200	16769	0	612
23.657	14.389	15279	16735	0	612
25.532	17.670	15279	16701	0	612
27.479	21.168	15279	16667	0	612
26.397	21.998	15279	16628	0	612
23.116	19.690	15279	16593	0	612
18.428	17.093	15279	16569	0	612
12.333	14.677	15279	16554	0	612
9.304	15.398	15279	16540	0	612
8.078	17.093	15279	16525	0	612
10.963	19.546	15332	16510	0	612
12.766	19.401	15332	16506	0	612
14.425	15.867	15332	16501	0	612
11.937	14.064	15332	16506	0	612
9.160	11.468	15411	16506	0	612
5.842	12.045	15411	16510	0	612
3.859	11.540	15463	16515	0	612
4.832	10.350	15463	16520	0	612
3.678	7.825	15595	16525	0	612
3.426	8.402	15542	16535	0	612
4.796	10.963	15595	16550	0	612
6.419	16.949	15595	16564	0	612
8.294	20.736	15727	16564	0	612
10.097	21.565	15727	16554	0	612
9.953	17.057	15727	16540	0	612
7.789	11.648	15727	16525	0	612
4.436	7.357	15727	16506	0	612
3.354	4.544	15727	16486	0	612
3.210	6.455	15858	16462	0	612
5.409	9.448	15806	16432	0	612
6.058	13.054	15806	16403	0	612
5.554	12.009	15806	16380	0	612
3.750	9.665	15806	16355	0	612
-0.325	3.642	15727	16336	0	612
-2.560	-0.721	15806	16321	0	612
-2.272	-3.570	15806	16316	0	612
-2.236	-4.508	15806	16321	0	612
-1.839	-3.859	15806	16321	0	612
-0.325	-2.705	15806	16316	0	612
0.288	-0.361	15806	16316	0	612
2.056	-0.216	15806	16316	0	612
2.236	-0.649	15937	16326	0	612
3.570	-0.613	15858	16345	0	612
2.885	1.334	15937	16365	0	612
4.255	8.835	15937	16380	0	612
6.203	15.867	15937	16384	0	612
7.753	18.897	15937	16393	0	612
8.907	14.785	15990	16398	0	612
8.799	9.629	15990	16408	0	612
8.943	7.717	16069	16413	0	612
11.937	12.514	16069	16418	0	612
16.120	19.257	16069	16418	0	612
19.437	22.575	16069	16423	0	612
19.185	19.185	16121	16432	0	612
16.120	11.071	16121	16447	0	612
11.323	5.878	16121	16457	0	612
7.825	4.796	16200	16462	0	612
5.734	8.330	16200	16457	0	612
5.373	10.278	16200	16447	0	612
3.462	10.061	16200	16427	0	612
-0.757	4.327	16200	16408	0	612
-5.229	-1.010	16200	16388	0	612
-8.619	-5.878	16200	16375	0	612
-10.566	-8.583	16253	16360	0	612
-9.340	-7.681	16253	16350	0	612
-5.049	-4.472	16253	16345	0	612
-0.469	0.252	16332	16350	0	612
2.488	4.003	16253	16355	0	612
5.193	5.770	16253	16360	0	612
5.626	3.246	16253	16360	0	612
4.255	0.036	16253	16345	0	612
2.560	-4.147	16253	16326	0	612
1.983	-4.940	16200	16297	0	612
3.029	-2.128	16200	16282	0	612
5.806	5.121	16200	16277	0	612
11.468	14.389	16200	16282	0	612
16.372	22.647	16200	16297	0	612
19.798	27.191	16200	16326	0	612
19.473	25.063	16253	16365	0	612
17.238	20.483	16253	16398	0	612
12.514	15.975	16332	16427	0	612
10.999	13.091	16332	16447	0	612
11.215	11.323	16332	16452	0	612
11.828	10.999	16332	16452	0	612
14.245	10.783	16384	16447	0	612
13.343	10.386	16384	16442	0	612
11.179	9.556	16384	16437	0	612
6.491	4.183	16384	16432	0	612
3.173	-1.442	16384	16427	0	612
-2.019	-8.583	16384	16432	0	612
-4.652	-10.350	16436	16442	0	612
-3.534	-7.032	16436	16447	0	612
-0.325	1.551	16436	16442	0	612
5.626	8.619	16436	16432	0	612
9.845	11.107	16436	16413	0	612
8.907	9.917	16436	16388	0	612
6.167	2.344	16436	16380	0	612
2.272	-2.344	16436	16360	0	612
0.433	-5.121	16436	16345	0	612
1.190	-2.993	16436	16341	0	612
3.606	1.442	16568	16423	0	612
4.580	4.940	17041	16808	0	612
5.265	6.347	17489	17414	0	612
5.085	6.419	17962	17868	0	612
6.167	3.967	18410	18136	0	612
4.796	2.452	19147	18571	0	612
6.419	1.659	19805	19142	0	612
6.383	3.137	20384	19484	0	612
8.222	7.032	20910	19592	0	612
9.268	9.917	21647	19811	0	612
10.891	13.199	22436	20148	0	612
11.107	13.271	22884	20260	0	612
12.982	10.494	23278	20036	0	612
13.776	11.396	23673	19723	0	612
15.831	11.179	24199	19606	0	612
16.769	12.982	24726	19635	0	612
16.408	11.828	24989	19455	1	876
12.946	10.242	25199	18976	0	876
9.773	6.094	25199	18351	0	876
4.724	4.111	25120	17668	0	876
2.019	6.419	24857	16945	0	876
0.144	8.727	24594	16214	0	876
1.479	11.107	24199	15496	0	876
2.705	10.638	23805	14812	0	876
5.734	9.052	23357	14177	0	876
7.429	7.321	22831	13596	0	876
9.737	8.258	22226	13074	0	876
7.537	7.537	21699	12615	0	876
6.022	8.042	21173	12219	0	876
1.298	6.167	20515	11897	0	876
-1.154	8.547	20068	11658	0	876
0.902	14.497	19410	11502	0	876
6.852	23.080	18884	11419	0	876
15.723	29.427	18357	11399	0	876
19.149	31.554	17752	11433	0	876
19.149	28.164	17357	11536	0	876
15.326	22.719	16910	11702	0	876
12.153	18.644	16436	11926	0	876
14.100	17.418	16121	12185	0	876
18.680	17.238	15727	12483	0	876
20.447	18.139	15411	12801	0	876
19.510	17.418	15332	13230	0	876
14.461	15.867	15411	13958	0	876
10.963	14.317	15674	14900	0	876
9.881	13.379	15858	15686	0	876
9.845	12.514	15937	16204	0	876
11.756	12.730	16121	16579	0	876
10.855	11.864	16121	16882	0	876
9.917	12.153	16121	17106	0	876
10.530	13.740	16121	17258	0	876
11.648	15.939	16069	17355	0	876
15.579	18.716	15990	17409	0	876
19.149	20.195	15937	17433	0	876
21.385	17.887	15858	17438	0	876
22.935	15.975	15806	17414	0	876
22.863	15.002	15806	17360	0	876
24.089	16.552	15595	17297	0	876
25.063	21.132	15463	17233	0	876
25.279	25.604	15332	17165	0	876
23.332	27.407	15200	17087	0	876
18.788	27.263	15148	16999	0	876
15.182	22.611	14937	16921	0	876
12.369	15.507	14884	16857	0	876
11.900	9.989	14753	16808	0	876
15.326	7.321	14621	16764	0	876
16.048	7.465	14542	16730	0	876
17.202	9.448	14542	16706	0	876
16.372	8.691	14411	16696	0	876
15.507	7.357	14358	16696	0	876
15.939	5.193	14279	16696	0	876
18.392	7.898	14279	16691	0	876
22.106	13.307	14148	16681	0	876
23.909	15.471	14148	16676	0	876
23.801	15.326	14148	16676	0	876
24.991	12.477	14016	16672	0	876
25.929	10.927	13963	16672	0	876
27.984	12.189	14016	16686	0	876
30.364	11.792	14016	16720	0	876
28.561	11.720	13963	16759	0	876
27.948	9.196	14016	16794	0	876
26.145	5.049	14148	16823	0	876
25.460	2.777	14016	16852	0	876
24.847	3.354	14095	16882	0	876
23.512	1.551	14148	16901	0	876
20.519	-0.325	14148	16911	0	876
16.949	-1.082	14227	16925	0	876
14.136	-1.731	14279	16935	0	876
11.756	-2.705	14279	16935	0	876
11.215	-2.669	14279	16921	0	876
11.287	-1.551	14358	16901	0	876
11.215	-1.154	14358	16877	0	876
12.261	-0.902	14358	16842	0	876
10.855	0.865	14411	16808	0	876
12.009	2.560	14358	16774	0	876
15.795	3.678	14490	16745	0	876
20.808	8.907	14411	16711	0	876
27.010	12.045	14411	16676	0	876
26.650	13.776	14490	16642	0	876
24.486	12.730	14621	16716	0	876
18.428	8.258	15069	17087	0	876
15.290	5.986	15595	17682	0	876
17.274	5.373	16069	18122	0	876
20.411	7.825	16384	18278	0	876
21.241	7.970	16647	18293	0	876
16.444	5.121	16910	18234	0	876
10.025	-1.334	17041	18112	0	876
4.760	-7.393	17094	17936	0	876
3.101	-10.386	17173	17726	0	876
5.373	-10.566	17226	17487	0	876
6.167	-8.475	17173	17243	0	876
6.131	-6.419	17226	16994	0	876
4.111	-5.373	17173	16755	0	876
2.596	-3.823	17094	16535	0	876
1.551	-6.960	17041	16336	0	876
2.092	-8.042	16962	16131	0	876
1.334	-11.720	16910	15945	0	876
1.515	-12.009	16910	15872	0	876
2.993	-11.973	17226	16111	0	876
6.635	-9.845	17699	16579	0	876
8.979	-8.330	17962	16921	0	876
11.504	-9.701	18147	17004	0	876
12.009	-10.710	18357	16969	0	876
8.691	-10.819	18410	16877	0	876
9.232	-8.366	18410	16745	0	876
10.494	-3.426	18410	16569	0	876
13.487	2.272	18410	16370	0	876
15.146	6.744	18226	16160	0	876
14.677	8.222	18226	15950	0	876
12.117	6.635	18015	15745	0	876
11.828	6.635	17884	15545	0	876
15.831	9.989	17699	15354	0	876
19.834	13.668	17489	15198	0	876
21.277	15.903	17305	15066	0	876
15.939	14.281	17094	14949	0	876
7.645	7.429	16910	14856	0	876
3.173	2.416	16778	14802	0	876
4.616	0.505	16568	14773	0	876
12.586	3.498	16436	14759	0	876
17.238	7.429	16253	14759	0	876
17.382	6.888	16069	14768	0	876
11.828	3.318	15858	14788	0	876
7.609	1.262	15727	14817	0	876
6.311	-1.839	15542	14866	0	876
8.150	-0.108	15463	14934	0	876
10.242	4.075	15279	15027	0	876
12.550	9.773	15148	15134	0	876
16.300	15.146	15016	15247	0	876
21.313	18.536	14937	15364	0	876
26.578	19.834	14806	15476	0	876
27.840	15.687	14806	15589	0	876
23.909	8.006	14674	15696	0	876
18.500	2.957	14621	15808	0	876
14.677	-0.252	14542	15926	0	876
14.389	-0.288	14542	16048	0	876
17.093	2.092	14490	16165	0	876
19.257	1.262	14411	16277	0	876
18.464	-0.361	14411	16384	0	876
16.120	-3.714	14490	16481	0	876
11.828	-6.094	14358	16569	0	876
9.845	-7.212	14411	16647	0	876
8.294	-8.042	14411	16720	0	876
6.816	-9.160	14411	16794	0	876
5.626	-11.468	14411	16862	0	876
4.147	-12.622	14490	16925	0	876
4.291	-11.648	14542	16984	0	876
6.708	-10.458	14542	17038	0	876
9.701	-8.114	14542	17087	0	876
10.999	-5.878	14621	17111	0	876
9.953	-5.590	14621	17121	0	876
9.052	-7.681	14753	17116	0	876
8.763	-6.780	14674	17111	0	876
10.710	-6.383	14884	17194	0	876
15.254	-2.777	15332	17565	0	876
19.798	1.298	15858	18161	0	876
21.673	5.806	16332	18610	0	876
20.627	5.554	16699	18781	0	876
18.320	5.878	17041	18796	0	876
14.100	3.498	17226	18727	0	876
10.278	2.741	17436	18591	0	876
8.871	2.957	17568	18395	0	876
9.448	2.993	17620	18161	0	876
10.314	0.397	17620	17883	1	660
10.494	-3.390	17699	17580	0	660
9.160	-7.898	17568	17258	0	660
4.147	-10.314	17489	16935	0	660
-0.397	-12.297	17568	16716	0	660
-3.859	-11.504	17831	16823	0	660
-5.590	-10.458	18226	17179	0	660
-3.714	-10.097	18541	17414	0	660
-3.065	-8.511	18805	17404	0	660
-1.875	-8.691	18805	17282	0	660
-4.580	-9.629	19015	17111	0	660
-6.816	-12.369	19015	16882	0	660
-8.511	-9.989	18884	16608	0	660
-4.760	-5.409	18805	16321	0	660
1.695	1.262	18673	16028	0	660
7.068	6.708	18489	15740	0	660
9.196	5.698	18278	15467	0	660
8.006	4.291	18094	15203	0	660
4.940	3.354	17884	14964	0	660
3.642	5.121	17620	14763	0	660
5.301	9.232	17436	14612	0	660
5.734	10.133	17173	14500	0	660
5.662	10.350	16910	14417	0	660
5.878	7.753	16699	14353	0	660
4.400	7.465	16515	14319	0	660
4.183	9.160	16332	14319	0	660
5.734	12.297	16069	14334	0	660
6.347	12.189	15858	14378	0	660
6.239	11.648	15727	14451	0	660
5.445	9.737	15674	14558	0	660
2.164	7.537	15463	14685	0	660
-0.757	7.825	15332	14822	0	660
-3.426	7.465	15200	14964	0	660
-4.868	5.409	15148	15100	0	660
-7.357	1.334	15016	15237	0	660
-4.904	-1.695	14937	15379	0	660
-0.938	-0.974	14806	15520	0	660
5.013	0.938	14753	15662	0	660
8.835	2.524	14674	15803	0	660
10.422	3.426	14621	15940	0	660
7.285	1.334	14674	16077	0	660
4.039	-1.406	14542	16214	0	660
3.678	-1.947	14542	16336	0	660
4.472	-1.947	14542	16432	0	660
5.734	1.334	14542	16525	0	660
9.556	6.058	14490	16613	0	660
11.540	12.045	14490	16691	0	660
12.369	15.795	14490	16759	0	660
14.064	18.175	14542	16818	0	660
12.009	17.490	14490	16872	0	660
10.278	18.572	14542	16925	0	660
9.773	20.014	14542	16979	0	660
8.511	22.250	14542	17018	0	660
8.835	21.854	14542	17043	0	660
8.727	21.781	14542	17052	0	660
7.573	21.493	14621	17057	0	660
6.239	21.926	14806	17160	0	660
4.111	23.621	15279	17555	0	660
3.462	24.847	15806	18166	0	660
4.436	23.260	16200	18620	0	660
6.311	19.510	16568	18800	0	660
9.088	17.706	16910	18840	0	660
11.720	13.307	17173	18791	0	660
11.756	11.612	17357	18674	0	660
11.468	12.297	17436	18503	0	660
11.937	13.848	17568	18293	0	660
12.982	16.733	17620	18044	0	660
13.091	18.175	17699	17765	0	660
14.028	16.877	17620	17472	0	660
13.523	15.903	17620	17184	0	660
15.182	15.579	17489	16906	0	660
18.247	19.005	17436	16633	0	660
23.981	22.755	17357	16370	0	660
25.929	25.929	17226	16116	0	660
23.116	23.945	17094	15886	0	660
17.490	19.293	16962	15681	0	660
13.415	14.821	16778	15510	0	660
11.179	13.992	16699	15369	0	660
13.451	15.867	16568	15261	0	660
15.651	19.365	16436	15178	1	316
15.182	19.329	16332	15120	0	316
12.261	16.192	16200	15091	0	316
8.114	11.215	16069	15076	0	316
6.203	9.701	15990	15076	0	316
4.580	9.592	15990	15183	0	316
5.878	11.792	16515	15701	0	316
9.448	12.982	17357	16755	0	316
12.405	12.838	18278	17902	0	316
14.389	11.468	18936	18639	0	316
14.930	12.117	19541	18971	0	316
13.091	11.612	19936	19084	0	316
9.232	10.602	20331	19045	0	316
6.599	11.973	20462	18869	0	316
6.780	11.215	20647	18581	0	316
7.501	10.278	20594	18205	0	316
10.314	9.881	20515	17770	0	316
11.900	8.547	20462	17306	0	316
13.451	7.789	20199	16842	0	316
16.625	8.691	20199	16486	0	316
20.736	11.143	20331	16437	0	316
23.008	11.937	20594	16633	0	316
24.847	13.307	20594	16706	0	316
22.827	12.333	20726	16550	0	316
22.322	13.740	20594	16306	0	316
25.027	14.785	20515	16033	0	316
27.335	16.733	20331	15735	0	316
28.633	19.113	20120	15427	0	316
28.128	19.726	19805	15115	0	316
28.056	22.827	19594	14817	0	316
28.237	24.775	19199	14544	0	316
30.761	26.145	18884	14304	0	316
31.771	24.991	18620	14099	0	316
27.660	19.221	18147	13933	0	316
24.089	15.074	17831	13797	0	316
21.457	13.018	17489	13694	0	316
23.657	16.228	17173	13640	0	316
29.282	21.024	16831	13626	0	316
33.285	22.431	16436	13635	0	316
34.079	21.818	16121	13670	0	316
31.879	17.418	15858	13738	0	316
29.643	14.172	15595	13836	0	316
28.561	13.704	15332	13958	0	316
29.679	15.471	15069	14119	0	316
32.997	19.293	14884	14300	0	316
35.521	21.926	14674	14485	0	316
38.514	25.640	14411	14671	0	316
39.380	24.414	14279	14856	0	316
39.885	21.962	14148	15056	0	316
37.757	20.375	13963	15257	0	316
38.695	18.392	13884	15457	0	316
40.606	18.933	13753	15662	0	316
42.481	20.483	13621	15867	0	316
42.734	20.195	13621	16072	0	316
39.560	19.041	13621	16272	0	316
36.928	18.247	13490	16462	0	316
34.620	18.031	13569	16633	0	316
33.429	17.634	13490	16784	0	316
33.610	16.805	13490	16911	0	316
31.122	14.208	13490	17028	0	316
28.597	8.979	13437	17131	0	316
23.945	4.472	13490	17228	0	316
19.762	0.180	13490	17316	0	316
17.670	-2.200	13490	17394	0	316
16.552	0.757	13569	17458	0	316
16.949	6.239	13569	17511	0	316
19.690	11.468	13621	17565	0	316
21.421	15.651	13753	17619	0	316
22.034	18.572	13753	17653	0	316
23.296	16.589	13832	17668	0	316
22.322	14.497	14016	17658	0	316
20.988	12.514	13963	17629	0	316
17.851	8.583	14016	17590	0	316
15.831	6.058	14095	17550	0	316
15.903	4.291	14095	17511	0	316
15.218	5.481	14148	17467	0	316
16.336	7.176	14279	17424	0	316
15.975	10.314	14279	17370	0	316
13.163	11.143	14279	17301	0	316
10.891	7.609	14358	17223	1	316
8.006	2.272	14490	17150	0	316
5.734	-2.164	14411	17092	0	316
5.193	-4.616	14490	17033	0	316
6.635	-1.190	14490	16974	0	316
11.864	4.003	14621	16911	0	316
15.795	8.114	14542	16857	0	316
19.618	9.520	14621	16808	0	316
18.464	8.619	14621	16764	0	316
12.946	2.813	14753	16716	0	316
8.439	-2.849	14674	16667	0	316
3.750	-6.203	14674	16618	0	316
4.724	-6.960	14753	16559	0	316
6.491	-2.344	14753	16496	0	316
7.970	3.678	14753	16442	0	316
10.278	6.996	14753	16408	0	316
11.071	8.294	14806	16393	0	316
14.677	5.517	14806	16384	0	316
15.687	2.128	14884	16384	0	316
14.425	-0.829	14884	16393	0	316
10.422	-3.426	14884	16398	0	316
3.318	-5.301	15016	16403	0	316
0.613	-6.888	15016	16408	0	316
0.541	-8.979	15069	16418	0	316
1.406	-8.871	15069	16423	0	316
1.587	-12.369	15148	16413	0	316
-0.829	-14.281	15148	16403	0	316
-5.806	-17.166	15200	16393	0	316
-8.655	-18.428	15200	16393	0	316
-10.746	-17.562	15279	16388	0	316
-8.763	-16.661	15279	16388	0	316
-7.285	-16.084	15332	16393	0	316
-3.246	-15.687	15332	16403	0	316
1.010	-14.317	15411	16418	0	316
4.039	-11.323	15463	16427	0	316
6.635	-6.816	15463	16432	0	316
7.068	-4.832	15463	16437	0	316
6.708	-5.445	15674	16437	0	316
5.301	-6.816	15595	16423	0	316
8.042	-7.934	15595	16408	0	316
9.917	-5.626	15595	16393	0	316
12.405	-1.479	15595	16384	0	316
14.136	3.750	15674	16370	0	316
12.982	7.825	15674	16350	0	316
13.271	9.665	15674	16336	0	316
12.910	9.304	15674	16326	0	316
13.163	7.068	15806	16408	0	316
15.002	5.337	16332	16794	0	316
15.362	3.426	16831	17404	0	316
14.028	3.101	17226	17863	0	316
12.369	1.983	17752	18146	0	316
8.979	2.777	18489	18591	0	316
7.176	2.056	19147	19191	0	316
7.357	2.921	19857	19557	0	316
10.458	3.426	20252	19592	0	316
13.343	2.885	20647	19425	0	316
13.848	1.623	20778	19152	0	316
13.379	0.974	20989	18786	0	316
14.317	3.173	20989	18356	0	316
15.939	9.845	21120	17980	0	316
20.231	15.110	21515	17873	0	316
22.214	20.050	21778	17985	0	316
20.772	19.510	22041	17966	0	316
17.959	17.057	22226	17687	0	316
14.966	15.290	22226	17297	0	316
16.769	17.815	22094	16857	0	316
20.664	22.899	21962	16384	0	316
25.784	27.587	21778	15911	0	316
28.705	27.191	21568	15442	0	316
27.263	26.037	21173	14998	0	316
23.260	20.880	20910	14573	0	316
19.762	17.093	20515	14192	0	316
18.031	15.795	20120	13855	0	316
20.375	16.444	19857	13572	0	316
22.070	19.257	19410	13333	0	316
23.008	18.788	18936	13147	0	316
21.493	19.005	18620	13015	0	316
19.365	18.897	18278	12937	0	316
20.195	20.952	17884	12903	0	316
22.034	21.349	17489	12903	1	316
23.981	21.673	17173	12952	0	316
22.503	17.779	16831	13040	0	316
17.815	10.638	16515	13162	0	316
13.812	5.734	16200	13303	0	316
12.946	4.724	15937	13465	0	316
15.615	7.140	15674	13650	0	316
19.221	12.261	15463	13855	0	316
21.421	16.408	15200	14080	0	316
19.041	19.762	15016	14304	0	316
16.552	21.926	14753	14534	0	316
13.235	21.060	14621	14763	0	316
12.405	19.005	14542	15003	0	316
10.314	15.759	14358	15261	0	316
9.088	11.864	14227	15520	0	316
6.635	7.717	14358	15857	0	316
4.436	7.357	14753	16471	0	316
1.695	6.239	15148	17301	0	316
0.902	8.547	15542	17970	0	316
0.829	6.491	15806	18351	0	316
1.226	5.914	16121	18566	0	316
3.210	5.806	16332	18678	0	316
3.570	8.943	16436	18693	0	316
5.662	14.821	16515	18639	0	316
5.806	21.962	16568	18532	0	316
6.203	23.945	16568	18390	0	316
7.753	22.106	16568	18224	0	316
8.943	20.303	16515	18039	0	316
10.674	21.673	16436	17839	0	316
15.615	25.135	16384	17629	0	316
17.887	27.335	16332	17409	0	316
18.572	26.866	16253	17199	0	316
17.093	20.447	16121	17004	0	316
14.533	16.084	16121	16818	0	316
13.487	14.461	15990	16642	0	316
12.838	16.552	15858	16476	0	316
10.278	17.310	15727	16336	0	316
7.898	15.939	15595	16209	0	316
3.246	11.612	15463	16111	0	316
0.397	7.176	15411	16028	0	316
-2.236	5.157	15279	15965	0	316
-3.173	7.068	15200	15906	0	316
-4.291	11.828	15069	15862	0	316
-3.714	14.569	15016	15838	0	316
-0.072	15.867	14937	15838	0	316
4.364	14.461	14884	15852	0	316
6.780	12.441	14806	15872	0	316
6.383	12.874	14753	15896	0	316
3.354	11.828	14674	15926	0	316
-0.902	12.117	14674	15955	0	316
-3.354	11.864	14621	15994	0	316
-2.849	11.107	14542	16038	0	316
-0.685	12.694	14542	16092	0	316
2.849	14.713	14490	16145	0	316
5.265	17.490	14621	16214	0	316
5.373	20.050	14490	16292	0	316
4.832	22.034	14542	16370	0	316
7.068	24.666	14542	16427	0	316
8.150	26.686	14621	16471	0	316
10.602	25.856	14542	16506	0	316
9.196	22.683	14621	16545	0	316
4.688	16.985	14621	16593	0	316
-1.839	12.261	14674	16642	0	316
-4.760	7.717	14674	16691	0	316
-4.688	8.979	14674	16725	0	316
-2.164	8.258	14884	16852	0	316
-1.695	8.439	15332	17272	0	316
-2.344	4.652	15990	17907	0	316
-6.924	2.092	16436	18395	0	316
-12.369	1.154	16778	18600	0	316
-15.182	4.219	17094	18649	0	316
-15.002	6.311	17305	18615	0	316
-13.559	7.429	17568	18503	0	316
-11.107	6.599	17699	18327	0	316
-10.530	4.183	17752	18102	0	316
-10.819	3.137	17752	17843	0	316
-12.730	2.416	17752	17560	0	316
-13.451	0.902	17752	17267	0	316
-13.631	-0.577	17831	17072	0	316
-12.730	-1.659	18226	17175	0	316
-11.648	-0.216	18541	17511	0	316
-7.825	2.524	18884	17717	0	316
-6.599	4.039	19147	17673	0	316
-5.842	2.669	19199	17516	0	316
-5.626	-0.685	19331	17301	0	316
-6.635	-3.678	19410	17033	0	316
-5.409	-3.967	19278	16730	0	316
-2.849	-1.587	19199	16403	0	316
-1.226	2.560	18936	16072	0	316
-1.370	6.996	18884	15740	0	316
-3.823	6.599	18620	15432	0	316
-6.780	4.508	18357	15149	0	316
-7.681	2.380	18094	14895	0	316
-6.167	-0.649	17884	14685	0	316
-4.039	-1.695	17699	14509	0	316
-2.524	-0.613	17436	14363	0	316
-2.524	0.144	17094	14251	0	316
-3.101	-0.072	16910	14163	0	316
-1.695	0.469	16647	14109	0	316
1.046	2.452	16384	14094	0	316
4.436	4.904	16200	14119	0	316
8.042	6.996	15990	14182	0	316
9.160	6.996	15806	14260	0	316
8.655	7.032	15727	14451	0	316
6.419	5.373	15990	14944	0	316
2.416	5.265	16332	15676	0	316
-0.433	6.058	16568	16272	0	316
-3.606	4.724	16831	16603	0	316
-4.652	0.757	16962	16803	0	316
-5.337	-5.085	17094	16930	0	316
-3.137	-8.691	17173	16984	0	316
-0.288	-10.206	17094	16974	0	316
3.931	-6.455	17094	16925	0	316
8.907	-1.947	17041	16838	0	316
9.989	0.577	16962	16735	0	316
9.592	-0.865	16831	16628	0	316
7.825	-5.121	16778	16520	0	316
7.970	-7.681	16647	16413	0	316
9.088	-5.878	16568	16316	0	316
10.025	-4.616	16436	16223	0	316
9.412	-1.334	16332	16145	0	316
7.862	-2.524	16332	16170	0	316
5.229	-4.796	16647	16486	0	316
4.255	-4.580	17041	17038	0	316
2.741	-4.652	17305	17453	0	316
1.082	-3.282	17489	17614	0	316
-2.741	-3.498	17620	17653	0	316
-2.669	-5.878	17831	17629	0	316
0.757	-5.373	17831	17531	0	316
5.481	-2.488	17884	17384	0	316
8.691	1.551	17831	17209	0	316
8.150	4.652	17699	17004	0	316
3.498	3.498	17699	16784	0	316
-1.659	0.829	17489	16559	0	316
-4.436	-1.442	17357	16355	0	316
-1.875	-2.633	17305	16165	0	316
2.885	-0.541	17041	15984	0	316
5.049	1.767	16910	15813	0	316
4.940	1.803	16699	15662	0	316
2.669	3.678	16568	15530	0	316
-1.406	3.173	16384	15423	0	316
-2.957	2.308	16200	15325	0	316
-2.056	1.731	16069	15252	0	316
-0.865	1.370	15858	15198	0	316
0.469	0.721	15674	15174	0	316
2.452	2.416	15463	15164	0	316
3.967	5.265	15411	15169	0	316
9.016	6.563	15200	15188	0	316
11.828	8.583	15069	15222	0	316
15.615	10.133	15016	15266	0	316
18.139	9.665	14806	15335	0	316
17.598	10.530	14674	15432	0	316
15.867	11.900	14621	15540	0	316
14.245	13.668	14621	15637	0	316
13.848	16.084	14490	15730	0	316
14.497	17.851	14358	15823	0	316
16.264	18.211	14358	15901	0	316
16.336	16.048	14279	15984	0	316
16.120	12.874	14227	16067	0	316
13.163	9.917	14227	16155	0	316
11.864	8.655	14227	16253	0	316
9.448	8.691	14148	16360	0	316
8.330	8.583	14095	16467	0	316
7.140	10.602	14148	16569	0	316
7.934	13.559	14279	16662	0	316
8.655	16.408	14148	16750	0	316
11.937	20.772	14227	16838	0	316
12.514	21.890	14358	16916	0	316
11.864	18.969	14358	16979	0	316
9.556	18.211	14358	17033	0	316
6.455	17.057	14411	17062	0	316
6.022	18.464	14490	17072	0	316
5.734	20.844	14411	17062	0	316
6.094	20.519	14411	17043	0	316
6.816	16.444	14490	17023	0	316
5.049	11.828	14621	17004	0	316
2.200	6.275	14490	16974	0	316
-0.433	5.481	14542	16950	0	316
-2.452	7.681	14542	16925	0	316
-1.803	12.081	14621	16911	0	316
2.488	16.589	14621	16901	0	316
6.491	18.103	14621	16896	0	316
10.963	16.949	14753	16891	0	316
10.206	12.946	14806	16886	0	316
9.124	11.287	14806	16877	0	316
4.760	8.619	14806	16862	0	316
2.524	8.727	14937	16842	0	316
0.072	7.681	14937	16823	0	316
0.180	7.681	15016	16803	0	316
1.875	7.429	15069	16784	0	316
4.688	8.294	15069	16774	0	316
8.835	9.412	15148	16769	0	316
11.323	11.828	15200	16764	0	316
11.504	12.081	15279	16755	0	316
11.323	12.838	15332	16740	0	316
10.097	14.064	15411	16725	0	316
8.655	14.028	15411	16706	0	316
8.619	12.766	15463	16686	0	316
7.285	10.458	15463	16662	0	316
5.301	8.330	15595	16637	0	316
4.724	6.852	15595	16618	0	316
5.554	7.321	15674	16603	0	316
5.950	10.350	15674	16574	0	316
9.809	15.831	15806	16540	0	316
11.468	17.562	15727	16491	0	316
14.136	21.745	15727	16442	0	316
16.480	21.673	15727	16384	0	316
18.536	21.132	15727	16326	0	316
17.851	21.096	15674	16262	0	316
17.490	20.483	15674	16204	0	316
15.074	20.123	15674	16165	0	316
12.838	19.113	15674	16140	0	316
9.088	15.867	15595	16116	0	316
9.701	12.694	15595	16096	0	316
10.242	10.602	15727	16106	0	316
13.127	9.737	15595	16126	0	316
14.317	11.071	15595	16140	0	316
13.018	12.189	15595	16150	0	316
7.898	11.468	15595	16155	0	316
3.823	8.366	15674	16170	0	316
0.793	3.895	15674	16184	0	316
1.118	0.541	15595	16189	0	316
2.344	-1.731	15595	16194	0	316
3.137	-1.370	15595	16194	0	316
3.750	0.180	15674	16189	0	316
8.475	5.662	15595	16184	0	316
14.749	13.812	15542	16179	0	316
22.683	21.745	15542	16179	0	316
28.273	26.037	15595	16194	0	316
29.859	26.145	15542	16214	0	316
27.948	22.250	15542	16233	0	316
24.306	20.014	15542	16262	0	316
22.611	20.087	15542	16282	0	316
20.736	21.132	15595	16297	0	316
21.457	21.313	15542	16306	0	316
21.745	19.762	15542	16321	0	316
22.647	17.526	15542	16345	0	316
22.070	15.543	15595	16375	0	316
19.113	15.182	15595	16403	0	316
16.120	11.792	15595	16442	0	316
13.163	10.602	15674	16476	0	316
12.658	7.429	15674	16506	0	316
11.360	5.301	15806	16525	0	316
12.297	2.236	15727	16540	0	316
13.127	0.397	15806	16550	0	316
13.812	0.361	15806	16554	0	316
15.723	1.479	15806	16559	0	316
16.841	5.481	15806	16559	0	316
17.454	7.321	15858	16550	0	316
18.536	8.006	15858	16530	0	316
19.077	5.734	15858	16520	0	316
20.375	6.203	15937	16515	0	316
19.077	7.717	15937	16510	0	316
18.644	12.117	15937	16496	0	316
19.005	16.012	16069	16569	0	316
18.752	18.500	16515	16945	0	316
20.988	16.444	16962	17536	0	316
21.204	11.792	17436	17975	0	316
19.654	8.727	17752	18132	0	316
18.608	7.393	18094	18146	0	316
16.697	9.412	18147	18088	0	316
17.346	12.369	18410	17966	0	316
19.582	12.550	18410	17795	0	316
19.185	11.612	18541	17580	0	316
18.788	7.068	18410	17345	1	1056
14.245	5.662	18410	17096	0	1056
9.520	4.291	18410	16842	0	1056
7.212	4.796	18357	16593	0	1056
7.465	3.426	18226	16365	0	1056
9.052	2.669	18147	16145	0	1056
12.838	0.108	18015	15935	0	1056
13.271	0.072	17884	15740	0	1056
15.074	1.803	17699	15559	0	1056
14.281	5.698	17620	15393	0	1056
14.461	8.907	17436	15252	0	1056
13.559	12.153	17305	15139	0	1056
14.425	14.858	17094	15056	0	1056
15.939	15.975	16962	14998	0	1056
18.211	18.464	16778	14964	0	1056
20.159	19.654	16647	14944	0	1056
19.690	19.473	16515	14944	0	1056
17.454	17.238	16384	14959	0	1056
13.812	14.461	16253	14993	0	1056
10.891	10.566	16121	15047	0	1056
8.006	8.547	16069	15110	0	1056
5.193	6.347	15937	15188	0	1056
2.813	7.717	15858	15276	0	1056
1.298	8.222	15806	15379	0	1056
1.875	10.206	15727	15491	0	1056
4.832	11.900	15674	15598	0	1056
5.950	12.009	15595	15706	0	1056
5.517	11.828	15542	15823	0	1056
2.416	9.340	15674	15945	0	1056
0.180	7.537	15542	16057	0	1056
-0.793	6.275	15542	16160	0	1056
1.659	6.419	15463	16248	0	1056
4.868	9.701	15542	16326	0	1056
11.504	15.435	15542	16403	0	1056
15.038	22.431	15463	16471	0	1056
17.815	26.325	15463	16540	0	1056
16.156	24.630	15542	16623	0	1056
11.360	19.257	15542	16696	0	1056
8.943	14.425	15542	16750	0	1056
8.511	12.838	15595	16794	0	1056
13.091	18.464	15595	16847	0	1056
15.543	22.647	15674	16896	0	1056
15.002	24.486	15727	16935	0	1056
9.953	19.257	15727	16960	0	1056
2.957	10.602	15727	16965	0	1056
-3.859	2.921	15727	16955	0	1056
-5.914	-0.036	15806	16940	0	1056
-6.744	-1.226	15937	16921	0	1056
-5.301	-0.108	15858	16901	0	1056
-6.022	0.902	15858	16886	0	1056
-5.445	1.154	15858	16867	0	1056
-5.590	0.325	15858	16828	0	1056
-2.777	0.108	15858	16784	0	1056
-2.092	-2.092	15858	16745	0	1056
-2.308	-3.354	15937	16706	0	1056
-3.246	-4.400	15937	16667	0	1056
-3.354	-3.210	15937	16623	0	1056
-0.938	0.974	15937	16589	0	1056
4.147	3.173	15937	16564	0	1056
8.006	4.724	15937	16550	0	1056
9.845	5.662	15937	16525	0	1056
10.097	5.950	15937	16491	0	1056
10.819	6.311	15990	16462	0	1056
9.665	6.635	15937	16437	0	1056
7.212	4.003	15937	16413	0	1056
5.626	1.406	15937	16384	0	1056
0.938	-3.642	15858	16355	0	1056
-1.875	-6.311	15990	16432	0	1056
-4.544	-7.285	16436	16813	0	1056
-4.580	-6.960	16962	17419	0	1056
-4.760	-5.265	17357	17878	0	1056
-2.236	-2.993	17699	18073	0	1056
-1.623	-0.793	18015	18132	0	1056
-0.865	0.072	18226	18092	0	1056
-1.767	-1.334	18410	17966	0	1056
-3.246	-2.813	18410	17785	0	1056
-3.642	-3.931	18489	17570	0	1056
-3.642	-3.065	18489	17326	0	1056
-1.442	-1.334	18410	17062	0	1056
0.505	2.128	18489	16896	1	316
3.895	4.832	18884	17038	0	316
5.481	6.239	19331	17409	0	316
6.599	5.914	19541	17638	0	316
9.881	5.590	19805	17609	0	316
12.874	3.318	19857	17448	0	316
16.913	4.832	19989	17233	0	316
20.339	8.727	19857	16969	0	316
24.486	15.507	19857	16681	0	316
26.361	20.267	19673	16380	0	316
29.318	22.503	19594	16062	0	316
31.554	19.329	19462	15759	0	316
32.997	13.920	19199	15476	0	316
30.941	10.169	19015	15222	0	316
30.436	9.304	18884	15095	0	316
28.922	9.340	19199	15291	0	316
24.847	11.143	19462	15730	0	316
23.044	10.278	19541	16052	0	316
20.447	9.448	19726	16140	0	316
19.149	8.907	19673	16121	0	316
20.411	10.963	19673	16048	0	316
25.676	13.307	19541	15926	0	316
31.554	13.884	19541	15774	0	316
36.242	13.776	19331	15603	0	316
38.767	11.937	19068	15423	0	316
38.550	10.530	18936	15247	0	316
36.675	9.268	18752	15081	0	316
36.206	11.215	18357	14925	0	316
36.062	12.081	18147	14783	0	316
33.574	11.287	17884	14671	0	316
29.895	7.898	17699	14593	0	316
24.739	1.695	17357	14539	0	316
18.897	-5.337	17173	14509	0	316
16.084	-9.448	16831	14509	0	316
15.218	-9.124	16647	14524	0	316
15.146	-6.347	16568	14651	0	316
13.848	-4.508	16778	15095	0	316
11.612	-3.787	17041	15784	0	316
9.124	-5.517	17305	16350	0	316
9.484	-6.671	17489	16642	0	316
9.124	-7.032	17620	16803	0	316
11.468	-3.750	17752	16984	0	316
12.874	-0.108	18147	17404	0	316
11.612	2.488	18673	18009	0	316
13.956	4.940	19147	18425	0	316
16.264	5.193	19278	18532	0	316
19.546	3.967	19541	18478	0	316
20.014	5.157	19594	18332	0	316
17.851	4.508	19673	18107	0	316
14.641	5.698	19594	17824	0	316
12.586	9.592	19410	17492	0	316
13.163	12.514	19278	17135	0	316
16.012	16.120	19015	16779	0	316
19.185	18.716	18884	16427	0	316
21.673	18.283	18620	16092	0	316
22.827	16.372	18278	15769	0	316
21.601	13.668	17962	15476	0	316
18.500	12.622	17699	15213	0	316
13.595	8.186	17357	14988	0	316
9.268	5.049	17094	14802	0	316
8.078	1.731	16778	14656	0	316
9.052	-1.551	16436	14558	0	316
9.989	-3.137	16200	14505	0	316
10.422	-2.813	15990	14480	0	316
9.737	-3.246	15727	14490	0	316
8.366	-3.931	15542	14529	0	316
8.871	-4.003	15279	14588	0	316
10.314	-2.164	15148	14666	0	316
11.864	0.649	14884	14763	0	316
12.369	5.229	14674	14871	0	316
14.785	7.862	14542	14993	0	316
16.805	8.258	14358	15115	0	316
19.906	7.321	14358	15247	0	316
21.493	7.898	14095	15384	0	316
20.555	7.537	14016	15535	0	316
17.562	10.169	13963	15691	0	316
15.110	11.396	13832	15852	0	316
15.038	11.468	13832	16013	0	316
15.759	11.648	13753	16175	0	316
15.038	8.763	13700	16331	1	316
13.163	2.813	13700	16467	0	316
9.196	-1.515	13753	16598	0	316
6.491	-6.311	13700	16720	0	316
5.337	-4.472	13753	16828	0	316
6.239	0.216	13700	16925	0	316
6.491	6.780	13700	17009	0	316
6.924	8.150	13753	17077	0	316
6.311	5.337	13753	17140	0	316
4.544	-1.911	13832	17199	0	316
3.462	-8.006	13884	17243	0	316
3.173	-10.530	13832	17272	0	316
6.347	-5.914	13884	17287	0	316
9.376	2.164	13963	17287	0	316
14.028	8.763	13884	17277	0	316
15.002	11.720	13963	17262	0	316
14.353	10.819	14016	17248	0	316
13.163	5.734	14016	17228	0	316
12.441	4.219	14016	17218	0	316
14.677	5.121	14148	17204	0	316
15.759	6.239	14148	17184	0	316
16.769	8.222	14148	17155	0	316
14.569	9.448	14227	17121	0	316
11.900	9.845	14279	17082	0	316
7.068	9.953	14279	17048	0	316
2.128	6.960	14358	17018	0	316
-2.849	0.685	14411	16984	0	316
-6.347	-7.501	14411	16950	0	316
-7.357	-10.710	14490	16916	0	316
-7.393	-9.701	14542	16886	0	316
-5.698	-2.164	14621	16862	0	316
-4.652	4.580	14621	16828	0	316
-4.364	7.429	14621	16794	0	316
-4.580	6.311	14884	16862	0	316
-3.318	3.823	15332	17233	0	316
-3.714	0.938	15858	17824	0	316
-4.075	0.216	16332	18254	0	316
-4.183	2.272	16699	18405	0	316
-4.003	4.688	17041	18415	0	316
-1.154	7.573	17305	18356	0	316
3.570	11.323	17489	18224	0	316
9.448	13.343	17620	18039	0	316
15.543	16.084	17699	17819	0	316
19.257	17.093	17699	17565	0	316
19.041	17.129	17752	17292	0	316
17.598	16.589	17699	17013	0	316
12.874	13.631	17699	16740	0	316
8.871	12.441	17620	16481	0	316
6.167	9.052	17489	16238	0	316
3.137	8.979	17436	16009	0	316
1.659	6.491	17305	15799	0	316
0.793	6.455	17173	15603	0	316
1.659	5.698	17094	15432	0	316
1.334	2.849	16962	15281	0	316
1.839	0.144	16831	15149	0	316
-0.757	-2.813	16699	15037	0	316
-3.173	-6.996	16568	14944	0	316
-3.426	-5.445	16436	14885	0	316
-1.803	-3.029	16332	14866	0	316
1.298	0.685	16200	14866	0	316
3.173	4.904	16069	14885	0	316
3.101	6.347	15937	14925	0	316
2.813	5.049	15858	14978	0	316
3.210	4.508	15727	15047	0	316
6.671	3.787	15674	15125	0	316
12.225	4.544	15542	15208	0	316
15.326	6.671	15595	15291	0	316
16.048	9.592	15463	15384	0	316
14.461	10.927	15411	15481	0	316
11.396	13.307	15332	15579	0	316
11.900	14.930	15279	15672	0	316
14.461	15.759	15200	15764	0	316
18.969	16.012	15200	15857	0	316
21.204	16.877	15200	15955	0	316
21.168	16.264	15148	16048	0	316
19.654	15.723	15148	16140	0	316
16.625	13.199	15069	16228	0	316
14.641	9.196	15148	16311	0	316
12.910	5.157	15069	16384	0	316
10.927	2.019	15200	16457	0	316
9.665	1.262	15148	16520	0	316
8.979	2.813	15148	16584	0	316
7.898	3.967	15200	16647	0	316
7.501	4.977	15200	16696	0	316
7.285	3.678	15200	16730	0	316
7.429	5.301	15279	16759	0	316
8.547	4.652	15279	16789	0	316
12.405	5.121	15279	16813	0	316
13.595	3.282	15279	16833	0	316
15.326	3.354	15332	16842	0	316
14.100	2.019	15332	16847	0	316
12.441	3.426	15332	16838	0	316
9.845	7.862	15411	16823	0	316
9.412	12.153	15411	16799	0	316
10.206	13.920	15332	16764	0	316
10.061	15.579	15332	16725	0	316
12.514	15.002	15411	16686	0	316
12.550	12.658	15332	16647	0	316
13.235	13.415	15332	16618	0	316
13.776	13.595	15411	16598	0	316
13.848	15.651	15332	16584	0	316
10.999	15.038	15332	16569	0	316
10.494	14.569	15332	16564	0	316
8.547	14.533	15411	16569	0	316
6.888	13.379	15411	16569	0	316
3.426	12.910	15411	16559	0	316
1.226	13.199	15411	16540	0	316
-2.272	11.071	15542	16525	0	316
-2.885	10.458	15463	16520	0	316
-0.974	9.953	15463	16515	0	316
0.938	9.304	15463	16506	0	316
-0.252	9.160	15542	16491	0	316
-4.327	8.763	15542	16476	0	316
-7.934	6.924	15542	16467	0	316
-11.684	6.131	15542	16476	0	316
-11.251	6.888	15595	16501	0	316
-10.530	8.366	15674	16525	0	316
-10.710	9.845	15674	16540	0	316
-13.595	8.907	15674	16535	0	316
-16.877	5.049	15858	16618	0	316
-20.808	-0.613	16332	16999	0	316
-22.503	-3.426	16831	17585	0	316
-21.745	-2.669	17226	18014	0	316
-19.221	2.092	17620	18175	0	316
-16.769	8.511	17884	18219	0	316
-10.674	10.783	18094	18185	0	316
-8.006	10.855	18278	18063	0	316
-6.347	8.294	18357	17878	0	316
-7.032	6.167	18357	17638	0	316
-10.097	4.472	18410	17375	1	516
-12.153	4.039	18410	17101	0	516
-14.100	4.760	18278	16838	0	516
-13.127	4.508	18226	16584	0	516
-12.189	4.977	18147	16350	0	516
-12.874	5.698	18094	16121	0	516
-13.018	5.842	17884	15911	0	516
-13.018	5.806	17752	15720	0	516
-10.602	5.229	17620	15554	0	516
-6.275	6.708	17489	15403	0	516
-3.065	6.131	17436	15271	0	516
-3.390	5.121	17305	15169	0	516
-5.914	4.147	17094	15091	0	516
-10.206	2.380	16962	15032	0	516
-10.674	0.974	16831	14998	0	516
-7.789	1.226	16699	14973	0	516
-4.940	2.236	16699	15061	0	516
-1.839	4.472	16962	15462	0	516
-3.318	7.140	17436	16106	0	516
-5.013	6.635	17699	16613	0	516
-5.481	4.003	17962	16862	0	516
-3.931	1.010	18094	16984	0	516
-2.200	-1.803	18226	17043	0	516
0.252	-2.380	18357	17038	0	516
-0.325	-3.678	18357	16974	0	516
-2.993	-5.481	18357	16862	0	516
-7.501	-10.458	18226	16720	0	516
-11.035	-15.218	18226	16564	0	516
-13.812	-18.175	18147	16403	0	516
-14.858	-18.716	18015	16253	0	516
-14.425	-19.654	17884	16101	0	516
-13.199	-19.293	17884	16048	0	516
-12.946	-18.608	18147	16292	0	516
-12.333	-15.939	18541	16745	0	516
-10.097	-11.648	18673	17057	0	516
-6.744	-8.186	18936	17121	0	516
-3.390	-5.121	19015	17072	0	516
-2.164	-3.967	18936	16974	0	516
0.036	-2.777	18936	16833	0	516
0.505	-1.334	18936	16652	0	516
0.829	1.334	18752	16442	0	516
2.596	3.426	18752	16316	0	516
2.921	4.977	19068	16486	0	516
2.128	5.878	19331	16896	0	516
2.344	5.770	19594	17160	0	516
2.416	7.717	19673	17160	0	516
2.308	6.311	19805	17043	0	516
1.298	5.842	19805	16862	0	516
-2.488	4.436	19594	16633	0	516
-6.635	1.442	19541	16380	0	516
-9.412	-1.983	19278	16101	0	516
-12.550	-4.868	19068	15823	0	516
-14.533	-5.013	18884	15559	0	516
-13.704	-6.455	18541	15315	0	516
-13.848	-5.770	18278	15100	0	516
-12.117	-3.787	18094	14915	0	516
-8.583	-2.957	17752	14763	0	516
-5.806	-1.839	17489	14646	0	516
-4.291	-0.793	17173	14549	0	516
-3.750	-0.613	16910	14475	0	516
-3.354	-1.479	16647	14422	0	516
-2.308	-1.551	16384	14407	0	516
-0.649	-0.865	16200	14431	0	516
1.515	0.108	15937	14485	0	516
3.390	2.452	15727	14553	0	516
3.859	5.698	15595	14641	0	516
4.039	6.599	15332	14744	0	516
6.094	6.924	15148	14856	0	516
6.383	7.176	14937	14983	0	516
6.022	7.825	14884	15115	0	516
6.491	8.114	14753	15252	0	516
5.157	8.799	14621	15388	0	516
5.662	9.592	14411	15525	0	516
8.078	8.979	14358	15667	0	516
6.383	6.491	14279	15803	0	516
3.859	4.183	14148	15935	0	516
0.649	1.551	14016	16062	0	516
-1.731	-1.515	14016	16175	0	516
-1.551	-1.659	13963	16282	0	516
1.118	0.541	13832	16393	0	516
3.967	3.570	13884	16515	0	516
4.580	3.931	13832	16642	0	516
4.111	2.452	13753	16764	0	516
4.724	-1.479	13884	16872	0	516
4.436	-5.445	13832	16965	0	516
6.383	-5.445	13832	17052	0	516
6.671	-2.380	13963	17135	0	516
7.393	3.606	13963	17218	0	516
6.671	8.511	13963	17287	0	516
6.058	7.789	14095	17336	0	516
7.032	5.481	14095	17360	0	516
7.032	2.596	14095	17375	0	516
5.445	-1.334	14148	17375	0	516
4.977	-1.875	14227	17365	0	516
2.596	-2.056	14358	17448	0	516
0.433	-2.092	14884	17824	0	516
-0.757	-4.364	15411	18410	0	516
-2.200	-5.806	15858	18840	0	516
-4.364	-7.248	16384	19084	0	516
-3.354	-8.691	17094	19489	0	516
-1.406	-8.655	17884	20031	0	516
-0.216	-7.645	18541	20348	0	516
3.390	-3.390	18936	20334	0	516
4.580	2.164	19410	20134	0	516
5.445	8.042	19673	19816	0	516
5.157	10.746	19726	19406	0	516
5.049	9.737	19857	18927	1	424
1.875	4.977	19726	18400	0	424
0.505	-0.288	19726	17848	0	424
-0.288	-4.400	19541	17297	0	424
-1.406	-4.255	19410	16764	0	424
-1.767	-2.957	19278	16272	0	424
-2.813	0.361	18936	15799	0	424
-3.101	3.967	18752	15359	0	424
-3.029	5.121	18489	14973	0	424
1.515	7.068	18147	14646	0	424
4.436	6.203	17884	14373	0	424
8.691	7.789	17699	14148	0	424
8.691	5.950	17436	13977	0	424
6.780	3.498	17305	13948	0	424
4.364	1.875	17489	14260	0	424
3.137	0.000	17699	14842	0	424
1.767	1.479	18015	15315	0	424
1.226	3.318	18094	15554	0	424
1.803	4.868	18226	15676	0	424
3.534	5.590	18147	15725	0	424
6.347	3.967	18147	15711	0	424
10.566	3.967	18094	15662	0	424
14.677	4.580	17962	15593	0	424
16.156	8.402	17831	15506	0	424
17.129	13.704	17620	15413	0	424
19.978	19.401	17489	15315	0	424
22.250	21.781	17436	15310	0	424
25.640	22.863	17620	15608	0	424
30.436	22.070	17962	16145	0	424
30.977	22.647	18147	16545	0	424
31.266	24.666	18226	16686	0	424
27.083	24.378	18357	16706	0	424
23.404	24.053	18357	16672	0	424
22.214	20.844	18278	16584	0	424
23.152	18.536	18147	16457	0	424
26.974	18.752	18015	16301	0	424
30.328	20.267	17884	16126	0	424
30.653	21.565	17699	15960	0	424
26.001	23.116	17489	15799	0	424
21.998	20.808	17226	15637	0	424
19.654	19.257	17173	15584	0	424
20.627	18.788	17357	15838	0	424
22.755	18.788	17699	16336	0	424
23.873	18.211	17884	16701	0	424
20.195	17.382	17962	16833	0	424
14.858	14.858	18015	16847	0	424
12.838	11.396	18015	16803	0	424
12.009	9.737	18015	16701	0	424
13.018	8.727	17884	16559	0	424
14.208	10.783	17752	16388	0	424
14.425	12.369	17489	16214	0	424
15.975	16.372	17357	16038	0	424
16.300	18.788	17173	15877	0	424
17.743	18.969	16962	15725	0	424
18.067	17.346	16778	15584	0	424
16.985	16.228	16568	15457	0	424
16.805	18.211	16384	15349	0	424
16.552	21.745	16121	15247	0	424
17.634	24.811	15937	15169	0	424
17.779	26.073	15674	15120	0	424
18.031	22.611	15411	15091	0	424
17.057	16.264	15200	15081	0	424
14.930	12.694	15148	15086	0	424
10.710	11.143	14806	15105	0	424
10.710	13.054	14753	15242	0	424
11.071	15.615	15200	15794	0	424
15.326	19.221	15990	16867	0	424
17.634	19.510	16778	18024	0	424
16.841	16.120	17436	18771	0	424
12.982	11.143	17962	19118	0	424
7.032	8.511	18278	19250	0	424
4.652	5.842	18541	19230	0	424
5.229	8.583	18752	19079	0	424
4.977	11.504	18884	18840	0	424
5.265	15.038	18936	18625	0	424
3.029	17.382	19410	18659	0	424
3.173	18.824	19805	18879	0	424
4.075	18.283	20120	18932	0	424
6.455	16.372	20199	18708	0	424
5.554	12.838	20331	18361	0	424
1.623	11.612	20252	17951	0	424
-1.731	11.504	20199	17497	0	424
-1.226	13.812	19857	17023	0	424
0.902	15.435	19805	16545	0	424
4.652	15.398	19541	16077	0	424
4.904	12.874	19147	15628	0	424
4.760	10.458	18884	15213	0	424
0.974	8.186	18489	14837	0	424
0.577	6.383	18094	14505	0	424
1.298	6.996	17752	14231	0	424
3.462	7.753	17436	14007	0	424
4.327	7.321	17094	13831	0	424
5.409	9.268	16778	13704	0	424
5.445	10.530	16332	13601	0	424
5.554	12.550	15990	13548	0	424
7.789	14.136	15727	13548	0	424
10.638	14.317	15411	13592	0	424
13.163	11.828	15148	13660	0	424
13.235	8.763	14884	13743	0	424
10.963	3.606	14542	13841	0	424
7.970	0.325	14279	13963	0	424
3.750	-4.868	14095	14114	0	424
-0.505	-7.501	13884	14285	0	424
-1.587	-6.924	13621	14475	0	424
-0.757	-8.619	13490	14685	0	424
0.938	-7.934	13437	14905	0	424
1.551	-10.458	13174	15125	0	424
-1.442	-12.946	13095	15335	0	424
-2.885	-14.785	12911	15530	0	424
-4.940	-12.658	12911	15725	0	424
-2.092	-7.970	12779	15921	0	424
3.318	-1.659	12779	16111	0	424
6.239	1.515	12648	16301	0	424
8.006	2.200	12700	16481	0	424
8.475	0.144	12648	16667	0	424
6.239	-1.442	12700	16842	0	424
5.842	-2.200	12648	17009	0	424
4.977	0.865	12779	17150	0	424
5.698	3.462	12700	17272	0	424
5.806	4.832	12832	17370	0	424
6.744	5.445	12963	17546	0	424
6.744	4.003	13437	18000	0	424
6.094	3.137	14016	18664	0	424
5.626	3.137	14490	19172	0	424
7.934	5.049	14937	19391	0	424
10.602	7.429	15279	19465	0	424
12.946	8.222	15463	19445	0	424
14.713	7.717	15806	19328	0	424
11.684	5.662	15858	19133	0	424
8.979	5.806	16121	18986	0	424
5.121	8.619	16647	19108	1	520
4.003	11.468	17226	19440	0	520
7.104	14.100	17568	19611	0	520
8.763	13.631	17962	19499	0	520
10.674	13.235	18357	19352	0	520
10.674	11.071	18936	19435	0	520
9.340	9.881	19541	19670	0	520
7.212	8.511	20068	19709	0	520
9.088	6.383	20252	19450	0	520
11.540	6.311	20515	19050	0	520
13.668	9.160	20594	18571	0	520
14.966	11.071	20594	18034	0	520
12.153	11.720	20515	17477	0	520
8.871	12.550	20331	16921	0	520
7.753	10.530	20199	16380	0	520
8.330	12.189	19857	15847	0	520
12.946	16.949	19673	15335	0	520
15.687	21.709	19331	14866	0	520
17.021	24.414	19015	14441	0	520
15.615	23.693	18673	14065	0	520
13.595	21.349	18357	13743	0	520
13.595	18.320	17962	13474	0	520
15.435	18.356	17568	13250	0	520
13.956	19.437	17226	13079	0	520
11.396	19.473	16910	12962	0	520
6.708	16.949	16515	12903	0	520
3.426	12.117	16200	12898	0	520
1.983	8.366	15858	12937	0	520
3.787	4.724	15595	13015	0	520
5.481	3.895	15279	13133	0	520
3.859	4.075	15069	13274	0	520
2.128	8.006	14806	13450	0	520
1.190	11.612	14542	13640	0	520
2.813	15.290	14358	13836	0	520
4.940	17.454	14148	14036	0	520
6.311	15.002	13963	14256	0	520
6.924	13.848	13753	14490	0	520
5.481	12.946	13700	14749	0	520
4.508	15.182	13569	15017	0	520
5.914	19.293	13490	15281	0	520
7.032	20.700	13437	15540	0	520
8.583	19.906	13306	15789	0	520
6.960	17.093	13358	16023	0	520
5.878	12.730	13306	16238	0	520
3.498	9.629	13306	16432	0	520
1.731	7.212	13306	16618	0	520
0.541	5.554	13227	16794	0	520
-0.180	6.311	13358	16945	0	520
-0.397	7.789	13306	17077	0	520
-1.875	8.186	13306	17184	0	520
-3.570	9.304	13437	17267	0	520
-5.373	6.744	13306	17331	0	520
-4.868	2.957	13437	17384	0	520
-2.344	3.101	13437	17433	0	520
2.236	6.058	13437	17472	0	520
6.491	8.907	13569	17492	0	520
7.825	10.494	13490	17502	0	520
3.895	6.744	13569	17492	0	520
1.587	2.741	13569	17467	0	520
0.793	-0.288	13621	17443	0	520
5.481	2.777	13700	17419	0	520
13.235	11.143	13621	17404	0	520
19.978	20.772	13753	17389	0	520
23.224	26.397	13884	17365	0	520
20.555	26.325	13832	17336	0	520
17.202	24.017	13884	17301	0	520
15.038	18.500	14016	17253	0	520
15.362	16.480	13963	17199	0	520
14.930	14.461	13963	17145	0	520
13.812	13.091	14095	17092	0	520
10.819	9.196	14016	17038	0	520
6.203	4.219	14095	16994	0	520
5.229	2.452	14148	16950	0	520
3.895	1.406	14148	16906	0	520
4.147	1.154	14227	16862	0	520
1.334	-0.397	14279	16823	0	520
-2.669	-3.065	14358	16789	0	520
-3.823	-4.544	14358	16759	0	520
-2.272	-1.442	14411	16735	0	520
2.380	4.796	14490	16706	1	316
8.799	11.071	14490	16667	0	316
13.992	12.910	14490	16628	0	316
14.389	8.763	14542	16593	0	316
13.343	2.560	14621	16559	0	316
13.631	0.757	14621	16520	0	316
14.100	2.344	14621	16486	0	316
17.670	9.917	14674	16457	0	316
21.349	13.920	14753	16432	0	316
22.070	17.166	14753	16408	0	316
22.467	17.815	14674	16384	0	316
21.313	18.320	14884	16452	0	316
22.395	18.788	15332	16823	0	316
22.791	19.582	15858	17428	0	316
22.683	18.356	16332	17887	0	316
19.942	13.848	16647	18063	0	316
17.057	9.376	16962	18102	0	316
13.091	3.246	17226	18078	0	316
11.179	0.433	17436	17985	0	316
9.016	-0.865	17568	17834	0	316
7.825	-0.469	17568	17638	0	316
7.429	1.587	17620	17399	0	316
6.311	3.318	17568	17145	0	316
8.511	5.698	17568	16891	0	316
11.107	8.763	17568	16633	0	316
13.992	12.586	17489	16380	0	316
16.264	12.550	17357	16135	0	316
14.858	10.494	17226	15906	0	316
11.828	6.599	17094	15706	0	316
11.215	4.977	16962	15525	0	316
13.631	6.527	16910	15364	0	316
17.382	13.415	16699	15222	0	316
20.772	19.654	16515	15100	0	316
23.260	20.988	16384	14998	0	316
22.322	18.933	16200	14920	0	316
20.952	14.064	16069	14866	0	316
19.726	10.746	15990	14842	0	316
17.815	9.556	15937	14856	0	316
13.776	11.071	15727	14900	0	316
12.117	10.097	15595	14954	0	316
9.484	8.042	15542	15027	0	316
7.212	3.787	15411	15115	0	316
5.229	2.308	15411	15213	0	316
3.354	-0.144	15332	15315	0	316
4.111	-1.659	15200	15418	0	316
4.868	-0.902	15200	15510	0	316
6.888	0.144	15148	15603	0	316
9.376	3.462	15069	15696	0	316
9.845	5.626	15016	15789	0	316
10.061	6.888	15016	15877	0	316
12.261	7.970	14937	15960	0	316
15.903	7.465	15016	16038	0	316
17.238	8.547	14884	16121	0	316
18.752	10.855	14884	16209	0	316
15.651	12.189	15016	16388	0	316
9.701	10.169	15463	16877	0	316
5.806	6.347	15990	17575	0	316
3.426	2.380	16436	18107	0	316
2.705	-0.469	16778	18346	0	316
4.003	-0.757	17041	18439	0	316
5.914	2.128	17305	18473	0	316
6.852	3.859	17489	18434	0	316
7.573	3.462	17620	18332	0	316
7.609	0.938	17699	18156	0	316
7.032	-0.361	17831	18039	0	316
8.294	0.180	18357	18195	0	316
8.655	2.019	18805	18551	0	316
10.891	3.787	19147	18747	0	316
9.737	3.606	19410	18669	0	316
10.061	3.318	19673	18454	0	316
9.773	2.777	19673	18171	0	316
10.061	4.472	19726	17819	0	316
11.360	5.409	19594	17433	0	316
11.576	5.265	19541	17033	0	316
12.117	4.111	19594	16735	0	316
12.946	3.714	19805	16745	0	316
13.127	3.931	20120	16984	0	316
13.992	5.157	20462	17179	0	316
12.369	6.527	20989	17433	0	316
11.360	6.239	21515	17804	0	316
8.150	5.806	21831	17990	0	316
7.789	4.003	22094	17878	0	316
7.934	4.760	22173	17619	0	316
10.061	3.534	22226	17277	0	316
12.081	3.534	22094	16862	0	316
12.153	2.019	21910	16398	0	316
11.720	0.541	21647	15921	0	316
11.107	-3.318	21436	15437	0	316
12.802	-6.167	20989	14983	0	316
18.536	-5.950	20726	14573	0	316
26.073	-2.272	20252	14202	0	316
30.436	2.344	19936	13875	0	316
34.295	9.737	19462	13592	0	316
33.826	11.179	19068	13352	0	316
30.977	10.025	18541	13157	0	316
27.840	6.058	18226	13006	0	316
23.080	2.885	17752	12898	0	316
19.978	2.092	17357	12844	0	316
17.202	2.813	16962	12840	0	316
16.300	4.327	16515	12879	0	316
16.336	3.462	16200	12957	0	316
16.192	3.967	15806	13079	0	316
14.136	2.019	15542	13230	0	316
13.199	2.056	15200	13411	0	316
13.091	2.488	14884	13606	0	316
13.307	2.488	14674	13811	0	316
12.910	1.262	14358	14031	0	316
11.323	0.252	14095	14265	0	316
11.107	0.108	13963	14514	0	316
10.674	1.226	13753	14773	0	316
13.199	4.688	13700	15134	0	316
16.913	8.330	14095	15803	0	316
20.087	10.855	14490	16686	0	316
20.555	13.307	14806	17419	0	316
21.349	12.514	15069	17858	0	316
19.005	8.402	15279	18136	0	316
16.480	5.193	15463	18317	0	316
14.281	2.560	15674	18410	0	316
13.054	2.128	15674	18429	0	316
13.956	4.364	15727	18381	0	316
14.245	7.321	15674	18283	0	316
16.228	7.321	15674	18151	0	316
17.562	6.239	15674	17995	0	316
17.995	6.635	15595	17824	0	316
19.005	7.285	15542	17653	0	316
19.798	9.016	15411	17472	0	316
18.175	10.566	15332	17297	0	316
16.625	10.386	15279	17131	0	316
13.812	9.304	15148	16979	0	316
12.910	7.501	15016	16842	0	316
10.494	3.859	14937	16706	0	316
7.717	2.200	14806	16584	0	316
6.491	2.200	14884	16486	0	316
4.904	3.714	14674	16408	0	316
5.662	6.167	14542	16355	0	316
7.248	7.717	14542	16306	0	316
9.737	6.599	14490	16262	0	316
10.602	5.950	14411	16228	0	316
11.828	5.626	14279	16209	0	316
13.595	10.386	14279	16214	0	316
15.182	14.497	14358	16228	0	316
17.887	17.670	14358	16345	0	316
18.788	18.392	14806	16759	0	316
20.808	17.202	15332	17409	0	316
22.106	16.552	15727	17907	0	316
20.700	16.300	16121	18122	0	316
17.995	17.779	16384	18190	0	316
14.172	18.067	16568	18185	0	316
10.025	16.084	16699	18097	0	316
7.212	12.009	16699	17946	0	316
6.203	10.963	16778	17746	0	316
7.248	10.169	16778	17516	0	316
9.304	11.287	16778	17272	0	316
10.494	11.973	16699	17018	0	316
11.648	8.943	16568	16755	0	316
11.900	6.563	16515	16491	0	316
8.583	4.039	16384	16243	0	316
6.419	2.128	16200	16009	0	316
3.390	2.128	16069	15813	0	316
0.505	0.613	15937	15642	0	316
0.577	-0.469	15727	15491	0	316
1.947	-0.036	15595	15379	0	316
7.248	4.075	15595	15305	0	316
10.278	8.222	15411	15276	0	316
14.533	12.225	15279	15266	0	316
13.451	14.317	15148	15266	0	316
12.946	15.038	15148	15286	0	316
11.251	14.533	15016	15320	0	316
11.973	15.471	14937	15369	0	316
12.622	15.254	14884	15423	0	316
12.694	16.156	14753	15476	0	316
13.343	16.841	14753	15540	0	316
11.792	16.156	14674	15608	0	316
10.746	15.651	14674	15686	0	316
9.917	12.333	14621	15764	0	316
8.258	9.340	14542	15852	0	316
6.852	6.671	14542	15945	0	316
5.481	6.599	14542	16038	0	316
3.534	7.934	14542	16116	0	316
4.039	8.150	14490	16194	0	316
3.895	7.357	14542	16267	0	316
4.904	4.688	14542	16345	0	316
5.554	-0.216	14542	16403	0	316
5.481	-4.147	14490	16462	0	316
2.596	-7.537	14753	16628	0	316
2.128	-10.350	15200	17087	0	316
1.082	-10.999	15727	17751	0	316
0.433	-10.927	16200	18249	0	316
0.288	-7.970	16515	18468	0	316
-1.190	-5.229	16831	18537	0	316
-2.164	1.911	17041	18522	0	316
-3.101	4.940	17305	18439	0	316
-3.390	6.599	17357	18302	0	316
-3.210	3.173	17436	18117	0	316
-3.534	-0.541	17489	17897	1	776
-2.200	-1.298	17489	17648	0	776
-1.515	1.154	17489	17389	0	776
-1.406	3.678	17357	17121	0	776
-1.839	2.236	17357	16842	0	776
-5.265	-3.210	17436	16672	0	776
-8.402	-8.655	17752	16813	0	776
-8.547	-10.566	18147	17194	0	776
-5.590	-6.563	18410	17438	0	776
-2.128	-0.721	18620	17433	0	776
1.406	0.685	18752	17306	0	776
1.659	-1.154	18752	17121	0	776
0.108	-5.626	18752	16882	0	776
-0.216	-7.068	18673	16613	0	776
0.793	-4.616	18620	16336	0	776
3.498	0.793	18410	16057	0	776
5.301	4.111	18278	15794	0	776
2.993	3.498	18147	15545	0	776
-1.515	0.288	17884	15320	0	776
-5.770	-2.308	17699	15115	0	776
-7.285	-2.272	17436	14939	0	776
-6.996	1.406	17226	14788	0	776
-3.390	4.400	17041	14666	0	776
-0.938	5.445	16831	14573	0	776
-0.541	5.878	16647	14514	0	776
-0.361	3.570	16436	14490	0	776
0.325	1.767	16253	14490	0	776
0.252	1.515	16069	14514	0	776
-0.180	1.695	15858	14563	0	776
-1.587	1.803	15727	14641	0	776
-3.714	2.200	15542	14729	0	776
-5.193	2.741	15463	14837	0	776
-4.291	2.885	15332	14954	0	776
-1.442	2.921	15200	15086	0	776
0.865	3.823	15069	15218	0	776
2.019	4.364	15069	15344	0	776
0.577	5.193	14937	15467	0	776
-0.361	4.255	14884	15589	0	776
-1.479	3.246	14806	15716	0	776
-0.793	0.108	14753	15857	0	776
0.108	-2.164	14674	15994	0	776
1.551	-2.092	14621	16116	0	776
1.803	-0.649	14674	16223	0	776
3.750	2.344	14542	16321	0	776
4.652	4.400	14542	16403	0	776
2.813	4.760	14542	16481	0	776
0.793	3.787	14542	16559	0	776
-2.849	-0.793	14490	16623	0	776
-6.347	-3.895	14490	16681	0	776
-7.321	-6.203	14411	16730	0	776
-4.003	-5.806	14542	16774	0	776
-1.983	-1.767	14411	16823	0	776
3.210	2.019	14490	16877	0	776
5.806	3.246	14490	16930	0	776
7.537	3.570	14621	16979	0	776
7.681	1.659	14542	17018	0	776
8.475	1.911	14621	17052	0	776
8.402	5.626	14621	17082	0	776
8.763	7.789	14674	17101	0	776
6.888	9.232	14753	17106	0	776
5.734	8.475	14753	17111	0	776
2.669	4.075	14806	17111	0	776
0.902	1.479	14937	17106	0	776
0.036	1.947	14937	17087	0	776
-0.649	2.272	14937	17057	0	776
-0.974	2.596	14937	17018	0	776
-1.479	0.541	15016	16974	0	776
-0.361	-1.731	15016	16930	0	776
3.823	-2.380	15148	16891	0	776
10.314	1.046	15069	16847	0	776
16.228	5.373	15069	16808	0	776
19.221	7.537	15148	16779	0	776
17.310	5.229	15148	16759	0	776
11.864	0.433	15148	16745	0	776
6.708	-3.534	15332	16716	0	776
7.321	-3.895	15200	16676	0	776
10.710	-1.695	15200	16623	0	776
17.670	3.606	15279	16569	0	776
23.765	8.006	15279	16530	0	776
25.424	10.097	15279	16496	0	776
24.666	10.097	15332	16471	0	776
22.070	7.825	15332	16452	0	776
20.050	6.816	15332	16442	0	776
20.267	6.671	15332	16427	0	776
22.142	8.258	15411	16418	0	776
22.539	11.504	15411	16403	0	776
22.827	10.530	15332	16384	0	776
20.159	7.789	15332	16365	0	776
20.339	3.534	15463	16345	0	776
19.654	-1.875	15411	16341	0	776
19.041	-5.770	15411	16341	0	776
15.831	-9.412	15411	16350	0	776
10.025	-9.737	15463	16355	0	776
3.354	-10.133	15463	16360	0	776
0.829	-7.934	15542	16370	0	776
2.849	-7.645	15542	16384	0	776
7.032	-6.239	15674	16403	0	776
9.701	-8.330	15595	16413	0	776
12.802	-7.321	15674	16418	0	776
11.900	-5.986	15674	16413	0	776
11.107	-3.426	15674	16403	0	776
12.766	-2.741	15674	16384	0	776
13.740	-2.344	15674	16355	0	776
17.887	-2.380	15674	16326	0	776
19.690	-2.452	15674	16311	0	776
21.313	1.479	15674	16316	0	776
22.611	7.501	15806	16326	0	776
21.818	10.638	15727	16336	0	776
22.358	12.369	15727	16336	0	776
20.555	10.350	15674	16336	0	776
18.860	7.248	15674	16341	0	776
15.146	2.200	15674	16345	0	776
10.386	-2.128	15727	16345	0	776
5.229	-6.347	15727	16336	0	776
0.325	-12.514	15727	16326	0	776
-4.508	-18.392	15727	16316	0	776
-6.635	-20.627	15727	16321	0	776
-5.770	-19.654	15858	16350	0	776
-3.787	-15.254	15806	16380	0	776
1.010	-9.917	15858	16403	0	776
5.878	-5.590	15858	16427	0	776
9.917	-3.390	15858	16442	0	776
9.665	-3.931	15858	16437	0	776
9.953	-3.931	15858	16413	0	776
7.068	-4.111	16069	16496	0	776
7.609	-1.767	16515	16896	0	776
8.186	0.757	17041	17526	0	776
9.881	2.200	17489	18009	0	776
11.468	3.967	17884	18215	0	776
13.559	4.364	18147	18288	0	776
16.841	4.508	18410	18273	0	776
17.923	4.760	18620	18180	0	776
18.752	4.291	18673	18029	0	776
19.870	7.465	18805	17839	0	776
20.591	8.547	18884	17614	1	536
21.277	13.199	18805	17355	0	536
20.050	13.668	18805	17082	0	536
13.848	12.045	18805	16803	0	536
6.347	5.842	18620	16525	0	536
1.695	1.046	18620	16262	0	536
1.298	-0.144	18410	16009	0	536
4.940	2.019	18278	15779	0	536
9.701	5.265	18094	15569	0	536
10.278	9.304	17962	15388	0	536
11.035	11.107	17831	15242	0	536
7.609	11.179	17699	15110	0	536
7.934	9.881	17489	14998	0	536
8.330	10.855	17305	14905	0	536
10.061	11.720	17094	14837	0	536
12.766	14.353	17041	14793	0	536
14.966	18.139	16778	14768	0	536
18.392	21.277	16647	14759	0	536
21.781	23.116	16436	14778	0	536
20.952	25.352	16332	14817	0	536
18.283	26.866	16200	14890	0	536
14.028	28.273	16121	14973	0	536
10.783	26.361	15990	15061	0	536
12.081	25.532	15858	15134	0	536
16.733	22.322	15858	15208	0	536
19.870	19.834	15674	15291	0	536
17.815	18.752	15542	15384	0	536
13.379	12.766	15463	15491	0	536
3.029	3.390	15332	15603	0	536
-4.255	-2.705	15332	15720	0	536
-7.970	-5.337	15279	15833	0	536
-7.465	-0.505	15200	15945	0	536
-5.409	7.248	15279	16052	0	536
-2.164	11.576	15148	16155	0	536
-0.108	11.396	15069	16248	0	536
2.452	10.242	15148	16350	0	536
5.770	9.520	15069	16442	0	536
8.475	11.251	15069	16535	0	536
9.737	12.009	15200	16618	0	536
7.934	9.520	15069	16691	0	536
7.970	8.871	15069	16750	0	536
6.131	7.898	15148	16808	0	536
5.193	11.251	15148	16857	0	536
4.183	13.054	15148	16901	0	536
1.370	13.307	15279	16935	0	536
-0.938	12.045	15200	16965	0	536
-2.921	8.402	15200	16989	0	536
-2.236	9.268	15279	17004	0	536
0.000	8.763	15332	17009	0	536
3.318	10.097	15332	17004	0	536
4.796	7.681	15411	16989	0	536
3.246	4.940	15411	16974	0	536
0.361	1.154	15411	16974	0	536
-5.590	-1.551	15463	16984	0	536
-7.609	-2.849	15463	16999	0	536
-8.366	-4.724	15595	17004	0	536
-7.465	-4.255	15674	16999	0	536
-5.517	-5.590	15674	16994	0	536
-3.210	-3.534	15727	16979	0	536
-3.029	-1.983	15806	16955	0	536
-3.029	-0.433	15858	16921	0	536
-5.626	-0.577	15858	16882	0	536
-8.114	-1.659	15858	16838	0	536
-10.710	-2.957	15937	16789	0	536
-9.989	-3.678	15937	16740	0	536
-8.294	-3.390	15937	16691	0	536
-4.977	-0.505	15937	16647	0	536
-3.065	1.298	15990	16608	0	536
-3.750	2.344	16069	16574	0	536
-6.491	2.128	16069	16535	0	536
-9.556	0.361	16069	16491	0	536
-11.648	-0.505	16069	16447	0	536
-11.468	-0.252	15990	16408	0	536
-10.530	1.262	15990	16375	0	536
-9.701	2.056	15990	16336	0	536
-8.366	3.534	15990	16306	0	536
-6.960	5.445	15990	16292	0	536
-4.039	5.770	16069	16277	0	536
-1.190	9.340	16121	16262	0	536
1.731	12.045	15990	16243	0	536
4.760	14.966	15990	16218	0	536
5.157	17.021	15990	16199	0	536
5.950	18.933	15990	16184	0	536
7.176	18.536	15937	16165	0	536
7.104	19.149	15937	16145	0	536
7.248	18.428	15858	16126	0	536
8.763	18.933	15937	16116	0	536
7.609	19.473	15858	16116	0	536
6.671	18.175	15858	16121	0	536
3.173	16.877	15806	16126	0	536
-0.577	15.795	15937	16228	0	536
-3.137	13.704	16384	16633	0	536
-4.544	12.009	16910	17277	0	536
-3.246	11.071	17305	17775	0	536
-3.678	10.242	17699	18005	0	536
-5.013	7.934	17962	18102	0	536
-7.104	5.662	18147	18122	0	536
-7.753	3.895	18410	18058	0	536
-6.924	1.947	18541	17931	0	536
-2.128	1.587	18620	17756	0	536
3.714	4.436	18620	17550	0	536
7.248	8.114	18673	17326	1	404
9.665	11.937	18673	17092	0	404
9.737	17.274	18541	16847	0	404
6.058	19.077	18489	16603	0	404
3.101	19.365	18410	16370	0	404
3.173	19.113	18278	16145	0	404
3.570	17.851	18147	15940	0	404
6.924	16.985	18015	15745	0	404
11.179	18.897	17962	15569	0	404
12.802	19.473	17752	15413	0	404
13.271	20.555	17620	15281	0	404
11.720	20.736	17436	15169	0	404
11.864	19.510	17305	15086	0	404
11.360	19.870	17173	15032	0	404
13.631	20.591	17041	14998	0	404
14.064	21.313	16831	14978	0	404
11.179	18.067	16699	14968	0	404
6.131	13.848	16568	14983	0	404
-0.252	8.186	16515	15017	0	404
-5.229	5.445	16384	15071	0	404
-5.770	5.373	16253	15134	0	404
-2.849	8.366	16200	15213	0	404
-1.983	9.953	16069	15296	0	404
-0.433	7.934	15990	15379	0	404
-1.406	4.940	15858	15467	0	404
-2.596	1.983	15806	15564	0	404
-0.144	1.406	15727	15662	0	404
3.570	4.255	15674	15764	0	404
6.347	8.114	15858	15974	0	404
7.429	10.746	16332	16471	0	404
6.491	10.133	16647	17184	0	404
5.590	8.763	17173	17736	0	404
6.635	7.104	17436	18000	0	404
7.285	8.042	17699	18122	0	404
9.124	9.196	17884	18161	0	404
8.691	11.468	17962	18122	0	404
7.393	11.684	18015	18014	0	404
5.265	10.674	18094	17848	0	404
4.255	8.619	18094	17648	0	404
5.085	6.347	18094	17424	0	404
5.229	4.724	17962	17179	0	404
6.671	3.895	17884	16945	0	404
9.160	5.517	17831	16725	0	404
9.989	6.527	17699	16520	0	404
11.107	8.799	17620	16331	0	404
12.622	9.160	17436	16145	0	404
13.379	10.602	17305	15979	0	404
14.677	9.304	17094	15838	0	404
15.038	8.258	16962	15706	0	404
13.776	6.311	16831	15589	0	404
11.251	7.032	16699	15496	0	404
10.602	7.248	16568	15432	0	404
12.009	10.566	16436	15388	0	404
