neuroNicle FX2
D3F25R12
Bluetooth SPP
2023년 11월 21일 화요일
오전 10:47
time interval = 4msec
EEG1	EEG2	PPG	sdPPG	pulse	peak_interval(msec)
-56.762	-57.086	16386	16681	0	400
-55.968	-53.660	16384	16401	0	400
-47.962	-47.746	16384	16138	0	400
-40.642	-39.272	16382	15883	0	400
-34.151	-35.269	16378	15653	0	400
-31.230	-36.026	16376	15441	0	400
-30.977	-38.875	16373	15254	0	400
-29.282	-40.534	16373	15092	0	400
-28.417	-41.580	16369	14981	0	400
-28.489	-38.370	16367	14905	0	400
-30.977	-36.639	16365	14854	0	400
-33.898	-35.016	16363	14888	0	400
-38.118	-36.134	16363	15126	0	400
-40.930	-37.144	16365	15534	0	400
-42.878	-40.281	16367	15874	0	400
-45.907	-39.776	16367	16138	0	400
-48.395	-40.606	16369	16503	0	400
-48.215	-39.849	16373	16970	0	400
-45.691	-43.022	16375	17319	0	400
-43.996	-49.333	16377	17523	0	400
-42.589	-54.057	16380	17804	0	400
-44.464	-56.690	16384	18161	0	400
-51.352	-51.677	16386	18356	0	400
-58.961	-46.989	16386	18365	0	400
-65.885	-41.435	16389	18254	0	400
-72.340	-41.507	16389	18084	0	400
-77.353	-42.409	16389	17846	0	400
-80.779	-44.537	16389	17574	0	400
-80.238	-43.058	16388	17259	1	736
-79.877	-39.560	16386	16919	0	736
-79.264	-38.586	16384	16545	0	736
-78.435	-39.885	16382	16180	0	736
-79.805	-43.419	16380	15823	0	736
-81.392	-49.369	16377	15517	0	736
-83.411	-50.018	16375	15279	0	736
-83.303	-50.920	16372	15066	0	736
-80.959	-51.424	16370	14939	0	736
-80.130	-52.434	16370	15024	0	736
-79.661	-56.942	16372	15288	0	736
-79.120	-61.305	16371	15500	0	736
-81.464	-62.207	16371	15662	0	736
-83.880	-62.099	16373	15959	0	736
-81.284	-61.450	16375	16367	0	736
-76.812	-59.502	16377	16656	0	736
-73.819	-58.060	16379	16843	0	736
-71.799	-59.430	16382	17115	0	736
-71.691	-61.233	16384	17463	0	736
-73.242	-62.207	16386	17685	0	736
-75.514	-63.145	16388	17710	0	736
-75.298	-62.568	16389	17625	0	736
-74.576	-60.765	16389	17472	0	736
-72.881	-59.106	16389	17259	0	736
-70.609	-58.529	16388	17030	0	736
-68.770	-59.719	16386	16775	0	736
-70.069	-60.945	16384	16503	0	736
-76.163	-64.912	16384	16240	0	736
-79.264	-69.023	16382	15985	0	736
-79.228	-70.321	16380	15764	0	736
-74.324	-68.554	16378	15568	0	736
-67.400	-63.758	16377	15373	0	736
-63.722	-61.053	16375	15194	0	736
-67.364	-59.286	16373	15109	0	736
-71.763	-60.115	16373	15237	0	736
-74.360	-61.414	16374	15534	0	736
-69.744	-59.070	16374	15781	0	736
-60.296	-55.319	16377	15942	0	736
-50.559	-52.939	16379	16274	0	736
-47.962	-49.477	16384	16851	0	736
-50.595	-50.198	16386	17446	0	736
-55.463	-51.677	16390	17846	0	736
-60.692	-54.021	16395	18186	0	736
-64.190	-57.807	16399	18509	0	736
-65.308	-62.099	16403	18654	0	736
-66.823	-62.532	16405	18560	0	736
-68.121	-62.604	16406	18339	0	736
-66.102	-61.269	16405	18042	0	736
-62.279	-61.089	16403	17693	0	736
-58.853	-61.955	16403	17293	0	736
-58.457	-65.092	16401	16877	0	736
-59.647	-65.489	16400	16477	0	736
-63.794	-65.308	16398	16112	0	736
-68.049	-62.171	16395	15755	0	736
-71.114	-62.279	16393	15441	0	736
-73.927	-62.315	16390	15143	0	736
-76.632	-66.066	16388	14879	0	736
-78.615	-71.006	16384	14641	0	736
-73.062	-73.386	16384	14505	0	736
-61.197	-72.016	16384	14582	0	736
-45.618	-68.518	16384	14820	0	736
-31.122	-65.489	16382	15024	0	736
-24.919	-63.830	16382	15117	0	736
-24.017	-66.751	16382	15211	0	736
-20.736	-69.924	16384	15475	0	736
-15.002	-71.944	16384	15849	0	736
-3.678	-70.826	16386	16163	0	736
6.347	-68.446	16389	16528	0	736
12.441	-68.157	16394	17123	0	736
16.192	-69.636	16397	17727	0	736
21.493	-71.799	16401	18093	0	736
24.702	-75.766	16406	18365	0	736
27.155	-76.307	16410	18628	0	736
28.994	-72.593	16412	18705	0	736
32.889	-67.472	16413	18543	0	736
42.012	-63.181	16414	18254	0	736
51.028	-58.709	16414	17906	0	736
58.817	-56.726	16412	17514	0	736
52.903	-58.961	16410	17081	0	736
40.822	-62.243	16409	16630	1	316
26.253	-64.479	16407	16223	0	316
15.723	-66.246	16405	15823	0	316
12.838	-67.833	16400	15441	0	316
10.386	-66.498	16398	15117	0	316
4.940	-67.184	16396	15007	0	316
-4.760	-69.095	16396	15066	0	316
-12.910	-70.646	16395	15109	0	316
-11.612	-69.419	16394	15100	0	316
-4.400	-67.400	16395	15220	0	316
1.911	-66.246	16396	15466	0	316
-1.406	-66.534	16396	15602	0	316
-18.139	-69.203	16395	15645	0	316
-34.620	-73.927	16396	15781	0	316
-46.087	-76.091	16397	16027	0	316
-49.693	-76.776	16396	16172	0	316
-47.349	-77.281	16397	16197	0	316
-43.635	-76.668	16398	16308	0	316
-42.409	-77.281	16399	16469	0	316
-43.130	-78.723	16399	16528	0	316
-46.736	-79.300	16398	16435	0	316
-50.884	-81.176	16397	16265	0	316
-58.312	-80.779	16395	16053	0	316
-59.611	-77.642	16392	15806	0	316
-57.519	-75.153	16391	15577	0	316
-57.483	-70.357	16389	15381	0	316
-56.690	-69.924	16384	15211	0	316
-59.574	-70.285	16384	15041	0	316
-63.289	-71.655	16380	14888	0	316
-66.210	-73.458	16377	14769	0	316
-68.410	-76.307	16376	14658	0	316
-68.338	-76.920	16372	14565	0	316
-66.030	-76.091	16369	14522	0	316
-61.342	-72.953	16367	14582	0	316
-59.827	-68.554	16368	14837	0	316
-57.916	-65.633	16368	15245	0	316
-58.997	-67.580	16367	15577	0	316
-61.558	-70.646	16369	15832	0	316
-62.712	-74.252	16370	16189	0	316
-62.712	-73.206	16372	16622	0	316
-62.964	-70.826	16372	16936	0	316
-66.030	-68.590	16374	17123	0	316
-67.652	-68.049	16377	17404	0	316
-70.285	-71.403	16379	17761	0	316
-72.232	-72.881	16382	17991	0	316
-72.593	-73.747	16382	18016	0	316
-72.124	-71.799	16382	17940	0	316
-71.691	-71.944	16382	17804	0	316
-74.937	-74.107	16382	17625	0	316
-78.219	-78.904	16382	17412	0	316
-78.002	-85.359	16380	17166	0	316
-76.812	-86.909	16378	16919	0	316
-72.160	-91.309	16377	16664	0	316
-72.845	-94.086	16375	16418	0	316
-81.572	-102.596	16373	16214	0	316
-94.446	-112.261	16373	16027	0	316
-109.160	-119.149	16370	15866	0	316
-114.461	-123.585	16368	15721	0	316
-113.307	-122.827	16367	15653	0	316
-108.475	-118.572	16368	15772	0	316
-106.924	-117.057	16368	16036	0	316
-110.206	-116.120	16369	16248	0	316
-115.254	-116.228	16370	16392	0	316
-121.890	-116.805	16372	16656	0	316
-122.286	-116.733	16374	17004	0	316
-119.834	-113.523	16376	17217	0	316
-110.963	-108.799	16377	17310	0	316
-100.938	-107.068	16380	17480	0	316
-92.211	-105.157	16382	17744	0	316
-92.030	-107.285	16384	17897	0	316
-95.961	-108.835	16386	17872	0	316
-102.993	-108.439	16386	17744	0	316
-107.357	-105.373	16386	17548	0	316
-105.662	-101.731	16386	17293	0	316
-98.774	-98.990	16384	17030	0	316
-94.014	-97.548	16384	16749	0	316
-92.643	-99.315	16384	16469	0	316
-92.860	-101.262	16382	16214	0	316
-95.925	-98.233	16379	15968	0	316
-96.971	-92.319	16378	15755	0	316
-92.860	-84.674	16377	15551	0	316
-93.076	-80.563	16375	15364	0	316
-91.886	-83.592	16372	15186	0	316
-94.555	-89.398	16371	15083	0	316
-96.466	-95.384	16371	15203	0	316
-93.797	-94.555	16374	15500	0	316
-87.775	-89.470	16373	15747	0	316
-82.726	-87.955	16373	15908	0	316
-81.680	-84.385	16376	16214	0	316
-83.952	-87.342	16380	16800	0	316
-89.758	-88.027	16384	17438	0	316
-92.319	-86.080	16389	17872	0	316
-92.247	-85.647	16393	18220	0	316
-89.434	-80.058	16397	18543	0	316
-87.523	-77.461	16399	18679	0	316
-85.539	-76.488	16403	18586	0	316
-86.837	-76.163	16403	18356	0	316
-86.152	-77.714	16403	18059	0	316
-85.395	-79.084	16403	17693	0	316
-83.087	-81.031	16401	17251	1	396
-82.546	-79.048	16399	16783	0	396
-81.969	-77.678	16396	16350	0	396
-82.330	-77.173	16394	15951	0	396
-82.041	-76.127	16392	15577	0	396
-79.877	-75.406	16389	15237	0	396
-74.107	-73.278	16386	14922	0	396
-68.770	-67.111	16384	14658	0	396
-60.224	-58.961	16382	14454	0	396
-55.139	-51.352	16379	14344	0	396
-48.143	-46.989	16378	14446	0	396
-47.638	-43.419	16378	14692	0	396
-47.674	-36.928	16378	14888	0	396
-46.123	-26.001	16377	15032	0	396
-44.248	-9.989	16380	15313	0	396
-37.541	9.917	16382	15687	0	396
-28.164	29.066	16382	15968	0	396
-20.123	45.546	16382	16129	0	396
-14.713	56.942	16384	16376	0	396
-15.146	64.299	16386	16698	0	396
-14.966	72.917	16386	16911	0	396
-13.054	86.909	16388	17004	0	396
-10.458	106.058	16390	17166	0	396
-7.609	121.096	16393	17404	0	396
-8.078	127.948	16393	17514	0	396
-16.913	117.959	16394	17429	0	396
-27.371	101.442	16393	17251	0	396
-38.839	86.585	16393	17021	0	396
-50.198	76.127	16392	16766	0	396
-59.899	71.655	16390	16494	0	396
-68.698	65.525	16386	16223	0	396
-78.507	52.326	16384	15942	0	396
-86.982	37.180	16384	15662	0	396
-96.827	24.558	16380	15390	0	396
-104.724	15.074	16378	15143	0	396
-111.612	12.117	16375	14947	0	396
-114.930	7.248	16373	14786	0	396
-115.146	-2.236	16370	14684	0	396
-111.035	-17.346	16367	14607	0	396
-106.960	-29.391	16365	14573	0	396
-101.839	-36.819	16362	14556	0	396
-103.534	-38.514	16359	14565	0	396
-106.022	-37.216	16359	14667	0	396
-112.694	-36.711	16359	14981	0	396
-120.808	-44.248	16360	15449	0	396
-123.981	-55.319	16361	15832	0	396
-128.309	-67.688	16361	16121	0	396
-125.207	-77.786	16365	16486	0	396
-123.224	-86.909	16367	16945	0	396
-120.375	-89.722	16368	17268	0	396
-122.539	-96.033	16371	17404	0	396
-125.424	-99.892	16371	17455	0	396
-129.859	-104.255	16371	17455	0	396
-130.040	-106.635	16371	17412	0	396
-128.020	-105.662	16370	17327	0	396
-128.777	-105.914	16371	17225	0	396
-128.922	-104.508	16370	17115	0	396
-130.400	-103.354	16369	16996	0	396
-133.466	-102.560	16369	16877	0	396
-135.377	-102.344	16368	16741	0	396
-135.918	-105.590	16367	16613	0	396
-136.639	-109.484	16365	16494	0	396
-135.521	-114.281	16365	16384	0	396
-133.105	-114.749	16365	16359	0	396
-128.814	-112.441	16365	16486	0	396
-125.568	-110.999	16369	16749	0	396
-123.801	-112.441	16369	16928	0	396
-119.185	-115.326	16370	17021	0	396
-118.392	-116.444	16372	17217	0	396
-116.625	-115.615	16376	17514	0	396
-115.254	-111.937	16378	17693	0	396
-115.615	-109.376	16380	17778	0	396
-115.507	-112.766	16384	17940	0	396
-115.146	-115.435	16386	18195	0	396
-116.300	-116.228	16389	18331	0	396
-113.740	-109.845	16391	18271	0	396
-110.999	-99.639	16392	18084	0	396
-105.914	-92.066	16392	17838	0	396
-101.911	-87.991	16391	17531	0	396
-98.594	-91.201	16391	17208	0	396
-96.394	-96.177	16390	16885	0	396
-96.718	-96.069	16389	16579	0	396
-98.233	-93.725	16386	16274	0	396
-98.017	-90.876	16386	15951	0	396
-97.079	-89.326	16384	15645	0	396
-95.348	-93.112	16382	15364	0	396
-91.057	-96.177	16379	15126	0	396
-93.112	-98.630	16377	14922	0	396
-94.951	-98.630	16376	14820	0	396
-100.325	-97.764	16376	14939	0	396
-104.147	-94.735	16377	15228	0	396
-101.551	-91.525	16377	15466	0	396
-98.053	-87.955	16379	15636	0	396
-90.948	-82.221	16382	15917	0	396
-85.467	-78.723	16384	16282	0	396
-81.572	-79.733	16384	16528	0	396
-82.402	-83.051	16386	16681	0	396
-83.988	-84.277	16389	16928	0	396
-89.254	-85.142	16391	17242	0	396
-89.254	-81.536	16393	17438	0	396
-90.696	-77.930	16394	17429	0	396
-86.765	-77.245	16394	17319	0	396
-82.726	-77.678	16395	17157	0	396
-76.704	-75.406	16394	16953	0	396
-69.888	-70.573	16393	16715	0	396
-66.174	-64.263	16391	16443	0	396
-64.767	-60.440	16390	16172	0	396
-66.210	-60.692	16388	15900	0	396
-69.347	-61.594	16386	15636	0	396
-69.492	-60.656	16384	15390	0	396
-64.443	-59.070	16382	15160	0	396
-57.519	-53.696	16379	14964	0	396
-53.191	-50.884	16376	14820	0	396
-49.946	-48.864	16375	14769	0	396
-51.821	-48.720	16376	14905	0	396
-53.191	-49.982	16376	15203	0	396
-56.942	-54.021	16376	15458	0	396
-58.889	-58.132	16376	15628	0	396
-62.928	-62.135	16378	15976	0	396
-66.498	-64.190	16382	16605	0	396
-67.761	-63.469	16386	17268	0	396
-67.400	-60.224	16390	17736	0	396
-66.426	-58.745	16395	18118	0	396
-67.436	-56.798	16399	18492	0	396
-65.236	-58.745	16403	18679	0	396
-60.909	-61.233	16405	18654	0	396
-52.867	-61.882	16406	18492	0	396
-37.180	-55.355	16407	18237	0	396
-22.214	-51.172	16406	17906	0	396
-10.674	-44.825	16405	17531	1	516
-1.262	-43.527	16405	17123	0	516
2.669	-45.835	16401	16707	0	516
7.753	-48.864	16399	16282	0	516
12.586	-47.494	16397	15874	0	516
22.647	-45.510	16393	15483	0	516
28.273	-42.337	16390	15126	0	516
29.391	-39.668	16386	14820	0	516
28.561	-37.108	16384	14573	0	516
25.604	-32.276	16382	14437	0	516
24.991	-25.279	16382	14514	0	516
28.056	-21.637	16382	14760	0	516
30.508	-15.615	16382	14964	0	516
33.321	-14.317	16382	15100	0	516
34.511	-9.809	16382	15373	0	516
33.574	-6.816	16384	15755	0	516
31.879	-4.940	16384	16036	0	516
27.660	-3.967	16384	16223	0	516
22.935	-6.275	16388	16494	0	516
19.942	-6.996	16390	16860	0	516
22.142	-6.455	16392	17089	0	516
21.168	-7.898	16392	17132	0	516
19.870	-12.009	16393	17081	0	516
11.107	-16.733	16391	16945	0	516
0.325	-24.739	16391	16749	0	516
-8.511	-29.463	16389	16511	0	516
-13.127	-31.735	16386	16274	0	516
-11.900	-32.384	16384	16036	0	516
-10.458	-34.656	16384	15798	0	516
-15.074	-38.009	16382	15568	0	516
-22.719	-44.176	16378	15364	0	516
-35.124	-51.641	16376	15203	0	516
-46.556	-58.204	16375	15083	0	516
-56.690	-64.803	16372	15015	0	516
-64.407	-70.934	16370	14981	0	516
-71.006	-77.065	16369	15058	0	516
-77.317	-81.644	16368	15220	0	516
-80.671	-84.385	16368	15364	0	516
-84.205	-86.116	16367	15500	0	516
-85.755	-88.965	16368	15798	0	516
-84.205	-93.509	16371	16223	0	516
-84.241	-93.545	16371	16562	0	516
-81.464	-95.564	16373	16817	0	516
-78.435	-90.696	16376	17149	0	516
-75.442	-86.224	16378	17565	0	516
-75.586	-81.753	16382	17838	0	516
-76.596	-80.959	16384	17965	0	516
-81.284	-80.995	16386	18152	0	516
-85.467	-84.421	16389	18399	0	516
-91.129	-90.263	16391	18501	0	516
-93.184	-94.771	16392	18416	0	516
-96.069	-101.515	16393	18229	0	516
-99.459	-108.114	16393	17974	0	516
-104.255	-114.100	16392	17668	0	516
-111.648	-123.260	16391	17336	0	516
-122.935	-134.692	16391	17004	0	516
-133.321	-144.825	16388	16673	0	516
-145.150	-152.651	16386	16350	0	516
-153.732	-153.805	16384	16027	0	516
-161.197	-153.408	16382	15738	0	516
-164.948	-153.264	16380	15483	0	516
-169.564	-156.113	16378	15262	0	516
-169.996	-164.118	16378	15083	0	516
-170.718	-168.265	16375	14998	0	516
-169.419	-168.734	16375	15134	0	516
-169.816	-167.797	16376	15432	0	516
-168.770	-167.292	16376	15670	0	516
-169.528	-169.780	16377	15832	0	516
-170.249	-169.203	16379	16095	0	516
-167.724	-167.761	16382	16452	0	516
-165.417	-164.335	16384	16715	0	516
-164.263	-159.250	16384	16860	0	516
-161.774	-159.502	16386	17089	0	516
-160.548	-160.115	16389	17395	0	516
-159.538	-158.132	16391	17574	0	516
-155.608	-157.880	16392	17574	0	516
-153.264	-155.175	16393	17472	0	516
-150.956	-154.201	16393	17319	0	516
-152.542	-159.034	16393	17106	0	516
-153.228	-161.666	16391	16851	0	516
-154.129	-163.253	16391	16571	0	516
-148.864	-159.683	16388	16265	0	516
-142.553	-150.018	16386	15951	0	516
-135.449	-137.865	16384	15670	0	516
-131.699	-132.528	16382	15432	0	516
-134.439	-131.735	16379	15237	0	516
-135.124	-137.324	16377	15058	0	516
-134.620	-140.173	16376	14930	0	516
-131.374	-141.507	16374	14888	0	516
-129.463	-140.353	16374	15049	0	516
-132.348	-137.216	16374	15356	0	516
-135.665	-132.312	16374	15611	0	516
-138.911	-125.063	16375	15798	0	516
-136.783	-111.900	16378	16112	0	516
-133.393	-103.967	16380	16528	0	516
-132.744	-96.213	16382	16834	0	516
-136.928	-93.906	16384	17004	0	516
-147.061	-95.528	16386	17259	0	516
-157.771	-96.033	16389	17591	0	516
-164.623	-93.906	16391	17778	0	516
-169.239	-93.797	16392	17761	0	516
-168.446	-89.434	16392	17616	0	516
-168.915	-86.441	16392	17404	0	516
-170.285	-82.546	16391	17157	0	516
-172.016	-82.762	16390	16885	0	516
-173.170	-82.474	16389	16605	0	516
-171.980	-82.257	16386	16333	0	516
-166.282	-82.510	16384	16070	0	516
-158.420	-78.904	16384	15798	0	516
-147.890	-73.927	16380	15526	0	516
-133.718	-65.633	16378	15279	0	516
-121.385	-54.454	16375	15058	0	516
-106.780	-42.734	16372	14888	0	516
-91.958	-28.994	16371	14828	0	516
-75.802	-15.507	16372	14998	0	516
-59.647	-5.409	16372	15339	0	516
-42.445	5.770	16372	15619	0	516
-26.325	13.379	16373	15823	0	516
-11.900	23.224	16375	16206	0	516
5.337	34.547	16382	16843	0	516
22.647	49.982	16384	17514	0	516
42.806	72.268	16389	17965	0	516
63.000	97.620	16393	18331	0	516
87.234	123.332	16397	18679	0	516
105.481	149.910	16400	18858	0	516
126.830	172.124	16403	18781	0	516
144.501	190.804	16403	18560	0	516
162.856	207.789	16403	18271	0	516
175.117	213.559	16403	17948	0	516
182.185	212.766	16403	17599	1	516
180.779	204.111	16401	17225	0	516
171.078	191.850	16400	16826	0	516
156.401	181.031	16388	17642	0	316
-32.456	-33.574	16386	17302	0	316
-29.463	-31.266	16384	16936	0	316
-27.407	-29.643	16384	16562	0	316
-29.174	-29.102	16382	16197	0	316
-32.492	-30.040	16378	15832	0	316
-35.449	-32.456	16375	15492	0	316
-34.367	-33.033	16372	15211	0	316
-30.292	-30.436	16370	14998	0	316
-27.010	-28.922	16369	14896	0	316
-25.820	-26.722	16369	15032	0	316
-25.171	-27.768	16369	15364	0	316
-26.037	-26.433	16370	15636	0	316
-26.506	-24.775	16371	15823	0	316
-24.919	-22.791	16374	16214	0	316
-23.693	-19.978	16379	16953	0	316
-21.890	-19.329	16384	17702	0	316
-22.611	-18.392	16389	18186	0	316
-21.854	-18.860	16394	18586	0	316
-22.431	-19.510	16398	18986	0	316
-23.044	-19.149	16403	19181	0	316
-22.539	-21.637	16405	19071	0	316
-24.955	-21.890	16407	18798	0	316
-29.174	-25.027	16407	18424	0	316
-34.367	-28.705	16406	17974	0	316
-38.298	-32.348	16403	17489	0	316
-42.625	-35.737	16401	16987	0	316
-44.753	-37.252	16399	16503	0	316
-44.681	-37.793	16397	16036	0	316
-44.248	-37.649	16394	15568	0	316
-41.435	-37.288	16391	15117	0	316
-38.767	-37.432	16386	14709	0	316
-37.685	-38.658	16384	14352	0	316
-38.478	-40.353	16379	14038	0	316
-39.235	-39.560	16376	13859	0	316
-37.865	-36.675	16376	13961	0	316
-37.432	-32.456	16376	14276	0	316
-35.305	-28.345	16375	14539	0	316
-33.574	-25.207	16375	14726	0	316
-31.266	-24.270	16376	15066	0	316
-29.643	-21.781	16378	15551	0	316
-27.227	-20.375	16379	15908	0	316
-25.279	-18.031	16382	16138	0	316
-24.125	-19.005	16384	16469	0	316
-23.621	-17.815	16386	16919	0	316
-23.332	-18.175	16388	17200	0	316
-22.575	-15.975	16388	17242	0	316
-23.873	-14.749	16388	17166	0	316
-25.424	-12.441	16386	17021	0	316
-27.335	-13.271	16386	16834	0	316
-32.023	-16.625	16384	16622	0	316
-37.541	-23.729	16384	16409	0	316
-41.255	-29.318	16382	16197	0	316
-42.409	-32.492	16380	15985	0	316
-40.894	-32.636	16378	15772	0	316
-38.118	-29.318	16375	15577	0	316
-36.170	-28.128	16375	15390	0	316
-36.062	-28.489	16371	15211	0	316
-37.360	-30.256	16368	15058	0	316
-38.478	-30.977	16365	14998	0	316
-38.658	-30.833	16367	15169	0	316
-38.839	-30.400	16367	15500	0	316
-39.596	-29.427	16367	15747	0	316
-38.478	-28.669	16368	15900	0	316
-36.170	-26.506	16370	16214	0	316
-32.167	-24.234	16372	16664	0	316
-29.715	-23.729	16373	16996	0	316
-29.318	-23.080	16375	17183	0	316
-31.987	-23.476	16379	17455	0	316
-33.393	-26.073	16382	17829	0	316
-34.620	-24.811	16384	18059	0	316
-33.574	-22.935	16386	18118	0	316
-31.662	-20.952	16389	18280	0	316
-31.482	-18.428	16393	18543	0	316
-32.744	-15.795	16394	18645	0	316
-33.754	-16.480	16395	18509	0	316
-35.810	-20.159	16396	18246	0	316
-38.154	-25.532	16396	17931	0	316
-41.580	-29.859	16395	17591	0	316
-45.691	-34.079	16393	17208	1	500
-47.241	-34.079	16392	16792	0	500
-49.513	-33.105	16390	16384	0	500
-49.477	-33.069	16386	15976	0	500
-48.648	-33.646	16384	15577	0	500
-50.595	-36.531	16382	15194	0	500
-50.270	-39.163	16378	14854	0	500
-49.080	-40.137	16375	14565	0	500
-47.349	-39.380	16372	14335	0	500
-43.166	-34.836	16370	14208	0	500
-40.498	-29.535	16369	14335	0	500
-37.613	-25.784	16369	14684	0	500
-36.459	-25.352	16369	14981	0	500
-35.413	-28.777	16369	15126	0	500
-35.233	-30.184	16369	15288	0	500
-36.098	-31.987	16371	15645	0	500
-36.170	-31.013	16373	16129	0	500
-37.432	-29.571	16374	16469	0	500
-37.396	-27.263	16378	16681	0	500
-35.701	-26.506	16380	17021	0	500
-33.826	-24.198	16384	17480	0	500
-30.004	-22.647	16384	17761	0	500
-28.273	-22.214	16386	17795	0	500
-28.020	-21.457	16386	17685	0	500
-29.210	-22.755	16386	17506	0	500
-32.239	-26.073	16386	17276	0	500
-33.393	-27.010	16384	17013	0	500
-34.367	-28.814	16384	16741	0	500
-32.708	-29.354	16382	16452	0	500
-32.889	-27.912	16379	16155	0	500
-32.889	-28.345	16377	15849	0	500
-33.754	-28.453	16374	15568	0	500
-35.882	-28.345	16371	15330	0	500
-36.242	-29.210	16369	15143	0	500
-36.603	-28.128	16368	15058	0	500
-35.449	-28.525	16368	15237	0	500
-33.357	-27.515	16369	15602	0	500
-31.266	-23.332	16369	15891	0	500
-27.660	-22.034	16372	16078	0	500
-26.181	-18.933	16373	16384	0	500
-26.758	-19.870	16376	16826	0	500
-27.732	-19.113	16378	17132	0	500
-30.184	-20.447	16380	17302	0	500
-31.518	-21.854	16384	17591	0	500
-30.941	-20.952	16386	17991	0	500
-28.128	-22.034	16390	18237	0	500
-24.558	-19.762	16391	18246	0	500
-23.476	-18.969	16392	18101	0	500
-21.998	-18.500	16393	17880	0	500
-23.729	-18.067	16393	17616	0	500
-25.748	-20.375	16391	17302	0	500
-25.496	-20.664	16391	16953	0	500
-27.119	-22.935	16388	16588	0	500
-29.246	-26.650	16386	16240	0	500
-31.879	-29.895	16384	15917	0	500
-35.269	-33.249	16382	15619	0	500
-37.541	-34.043	16379	15347	0	500
-37.216	-31.807	16377	15100	0	500
-34.656	-30.220	16376	14879	0	500
-32.853	-28.741	16373	14760	0	500
-30.689	-29.751	16373	14896	0	500
-29.030	-28.886	16374	15237	0	500
-27.587	-28.345	16374	15517	0	500
-24.883	-26.037	16375	15721	0	500
-22.935	-22.395	16379	16146	0	500
-19.942	-19.113	16384	16911	0	500
-20.231	-19.690	16390	17685	0	500
-18.356	-16.048	16395	18203	0	500
-18.211	-14.677	16400	18628	0	500
-16.697	-12.441	16406	19028	0	500
-17.670	-14.245	16409	19198	0	500
-19.546	-16.516	16411	19079	0	500
-21.818	-21.168	16413	18807	0	500
-26.506	-23.765	16413	18433	0	500
-26.902	-24.558	16411	17982	0	500
-26.542	-21.673	16410	17472	0	500
-26.361	-19.113	16409	16936	0	500
-27.515	-22.106	16406	16392	0	500
-30.436	-24.702	16403	15874	0	500
-35.413	-30.328	16398	15398	1	316
-38.442	-34.583	16396	14964	0	316
-39.091	-35.774	16391	14556	0	316
-37.973	-32.853	16386	14191	0	316
-35.413	-29.968	16384	13884	0	316
-34.223	-29.931	16382	13714	0	316
-33.141	-28.922	16380	13833	0	316
-32.997	-31.013	16380	14157	0	316
-31.699	-30.797	16379	14420	0	316
-27.948	-26.433	16379	14607	0	316
-22.250	-22.827	16382	14947	0	316
-17.995	-16.048	16384	15441	0	316
-14.785	-14.461	16384	15789	0	316
-17.526	-14.136	16384	16010	0	316
-17.959	-16.192	16386	16342	0	316
-19.257	-15.651	16389	16775	0	316
-17.021	-17.238	16391	17072	0	316
-16.877	-17.418	16391	17140	0	316
-16.372	-19.113	16391	17081	0	316
-17.634	-19.149	16391	16953	0	316
-16.120	-21.096	16390	16775	0	316
-17.129	-18.031	16388	16554	0	316
-16.084	-19.473	16386	16299	0	316
-20.231	-21.601	16384	16036	0	316
-21.998	-25.496	16382	15789	0	316
-25.027	-27.948	16379	15560	0	316
-23.873	-27.335	16376	15364	0	316
-21.818	-26.686	16373	15186	0	316
-22.611	-26.037	16371	15024	0	316
-22.827	-28.201	16370	14905	0	316
-26.145	-32.528	16365	14828	0	316
-28.128	-35.124	16362	14752	0	316
-28.886	-34.295	16359	14692	0	316
-26.506	-31.518	16357	14658	0	316
-23.981	-28.056	16356	14726	0	316
-23.693	-25.965	16356	15041	0	316
-25.316	-27.407	16357	15551	0	316
-24.486	-28.814	16358	15976	0	316
-25.496	-28.814	16359	16282	0	316
-21.349	-26.073	16363	16698	0	316
-16.661	-24.198	16365	17251	0	316
-15.471	-21.998	16368	17642	0	316
-14.677	-21.132	16371	17872	0	316
-17.526	-23.765	16374	18203	0	316
-17.202	-23.549	16378	18620	0	316
-18.211	-22.647	16382	18884	0	316
-14.497	-21.818	16384	18909	0	316
-9.953	-18.500	16384	18798	0	316
-5.770	-17.238	16384	18594	0	316
-5.806	-16.516	16384	18331	0	316
-9.376	-20.123	16384	18025	0	316
-15.182	-27.335	16384	17693	0	316
-22.791	-30.833	16384	17344	0	316
-25.712	-33.970	16382	16987	0	316
-28.164	-34.547	16380	16639	0	316
-30.941	-34.043	16378	16316	0	316
-30.256	-34.511	16376	16010	0	316
-29.463	-36.026	16374	15738	0	316
-28.056	-34.836	16372	15517	0	316
-24.486	-32.744	16371	15398	0	316
-21.565	-31.554	16371	15509	0	316
-22.178	-29.066	16372	15798	0	316
-19.257	-27.047	16374	16027	0	316
-18.788	-22.972	16375	16163	0	316
-16.012	-18.464	16377	16426	0	316
-17.310	-18.247	16380	16817	0	316
-17.166	-19.257	16382	17098	0	316
-21.024	-24.270	16384	17225	0	316
-22.250	-26.650	16386	17455	0	316
-24.594	-29.174	16391	17770	0	316
-25.676	-30.400	16393	17923	0	316
-24.883	-29.499	16395	17855	0	316
-22.286	-27.804	16395	17676	0	316
-21.096	-23.729	16394	17429	0	316
-15.903	-19.041	16394	17115	0	316
-15.579	-17.706	16393	16775	0	316
-15.254	-17.851	16391	16418	0	316
-19.437	-22.791	16389	16070	0	316
-20.627	-25.712	16386	15721	0	316
-23.585	-26.217	16384	15407	0	316
-22.863	-26.217	16382	15109	0	316
-18.969	-23.909	16380	14845	0	316
-18.500	-21.890	16376	14616	0	316
-16.084	-23.440	16373	14429	0	316
-18.247	-22.791	16370	14276	0	316
-18.139	-21.854	16367	14182	0	316
-19.726	-23.404	16365	14140	0	316
-19.690	-20.988	16362	14140	0	316
-21.349	-22.719	16361	14233	0	316
-22.431	-24.486	16361	14582	0	316
-22.431	-25.279	16362	15109	0	316
-23.621	-27.010	16363	15543	0	316
-23.440	-29.318	16365	15874	0	316
-23.549	-29.066	16369	16359	0	316
-23.909	-31.518	16372	16962	0	316
-22.899	-30.725	16377	17421	0	316
-22.467	-29.931	16377	17642	0	316
-22.106	-28.561	16379	17727	0	316
-20.591	-25.243	16379	17727	0	316
-20.014	-22.358	16379	17625	0	316
-17.057	-18.680	16379	17463	0	316
-16.336	-17.706	16378	17293	0	316
-15.507	-16.300	16378	17106	0	316
-17.021	-18.969	16376	16902	0	316
-17.562	-18.933	16376	16681	0	316
-21.277	-21.998	16375	16469	0	316
-22.899	-22.034	16373	16274	0	316
-25.316	-22.863	16371	16087	0	316
-27.191	-26.722	16369	15917	0	316
-29.282	-27.948	16370	15849	0	316
-30.833	-30.256	16370	16027	0	316
-32.456	-31.554	16372	16384	0	316
-31.482	-31.843	16373	16630	0	316
-27.479	-30.833	16374	16775	0	316
-26.109	-29.679	16378	17047	0	316
-24.847	-30.508	16382	17421	0	316
-23.801	-29.246	16384	17642	0	316
-23.873	-27.624	16384	17719	0	316
-21.745	-25.712	16389	17931	0	316
-17.706	-24.017	16393	18254	0	316
-17.166	-20.303	16395	18416	0	316
-15.038	-18.464	16396	18339	0	316
-14.461	-17.238	16398	18144	0	316
-14.064	-15.579	16397	17880	0	316
-10.494	-11.540	16398	17565	0	316
-8.871	-10.746	16397	17234	0	316
-5.481	-8.619	16396	16885	0	316
-2.669	-7.176	16394	16537	0	316
-2.056	-8.691	16393	16206	0	316
-3.931	-8.655	16391	15866	0	316
-6.239	-11.504	16388	15543	0	316
-8.943	-12.514	16386	15237	0	316
-12.297	-15.435	16384	14973	0	316
-13.343	-15.723	16382	14752	0	316
-14.858	-17.634	16379	14650	0	316
-17.129	-17.418	16382	14803	0	316
-18.969	-21.926	16382	15143	0	316
-22.250	-23.909	16382	15407	0	316
-21.962	-25.748	16384	15568	0	316
-19.870	-25.604	16384	15874	0	316
-20.123	-23.332	16386	16316	0	316
-19.365	-22.286	16389	16613	0	316
-21.926	-24.702	16391	16792	0	316
-24.594	-25.460	16394	17072	0	316
-25.965	-25.965	16397	17463	0	316
-25.027	-25.496	16399	17676	0	316
-23.008	-24.017	16401	17727	0	316
-20.772	-21.313	16405	17846	0	316
-21.277	-23.476	16408	18050	0	316
-21.709	-23.332	16411	18093	0	316
-25.099	-25.604	16411	17940	0	316
-27.840	-28.669	16410	17676	0	316
-28.597	-28.164	16410	17336	0	316
-23.909	-27.191	16409	16928	0	316
-19.437	-22.611	16406	16494	0	316
-15.723	-21.241	16403	16061	0	316
-12.838	-17.454	16400	15636	0	316
-11.540	-18.464	16397	15245	0	316
-10.746	-16.264	16394	14905	0	316
-7.681	-15.543	16391	14607	0	316
-8.186	-13.163	16388	14344	0	316
-10.169	-15.579	16384	14114	0	316
-15.615	-18.067	16382	13961	0	316
-18.211	-23.188	16379	13927	0	316
-21.493	-26.506	16379	14140	0	316
-22.647	-28.922	16379	14539	0	316
-25.027	-32.456	16379	14871	0	316
-28.092	-32.564	16379	15100	0	316
-30.472	-32.203	16382	15466	0	316
-29.535	-31.410	16384	15951	0	316
-27.876	-29.571	16384	16308	0	316
-25.460	-27.912	16384	16511	0	316
-25.532	-28.237	16388	16826	0	316
-28.201	-28.633	16391	17259	0	316
-28.164	-28.381	16393	17540	0	316
-28.381	-27.948	16394	17591	0	316
-28.453	-29.102	16394	17506	0	316
-27.191	-29.499	16394	17361	0	316
-26.109	-28.741	16393	17157	0	316
-25.171	-27.479	16391	16902	0	316
-23.080	-25.027	16390	16622	0	316
-18.752	-22.070	16388	16350	0	316
-17.238	-20.844	16386	16078	0	316
-18.211	-19.834	16384	15815	0	316
-16.300	-18.680	16382	15577	0	316
-14.785	-18.536	16378	15381	0	316
-12.369	-14.569	16376	15228	0	316
-9.340	-12.658	16373	15083	0	316
-8.907	-12.333	16372	15024	0	316
-11.937	-12.586	16372	15211	0	316
-13.307	-16.805	16373	15577	0	316
-18.103	-17.670	16373	15857	0	316
-17.166	-20.591	16373	16044	0	316
-17.743	-20.952	16377	16376	0	316
-17.490	-22.827	16380	16834	0	316
-20.844	-25.496	16382	17166	0	316
-21.854	-28.056	16384	17361	0	316
-26.470	-29.174	16386	17676	0	316
-28.886	-31.410	16390	18076	0	316
-28.561	-30.617	16391	18314	0	316
-27.840	-30.004	16394	18297	0	316
-29.066	-30.581	16394	18161	0	316
-29.499	-30.977	16395	17965	0	316
-31.554	-34.403	16394	17702	0	316
-33.285	-37.973	16394	17395	1	816
-34.800	-41.543	16392	17047	0	816
-35.557	-44.068	16390	16690	0	816
-35.449	-43.563	16388	16350	0	816
-34.980	-41.796	16386	16027	0	816
-35.088	-39.235	16384	15721	0	816
-30.508	-35.593	16382	15432	0	816
-28.525	-33.429	16378	15160	0	816
-24.883	-31.951	16375	14913	0	816
-23.188	-30.545	16374	14794	0	816
-20.808	-29.679	16374	14939	0	816
-21.060	-28.741	16375	15296	0	816
-22.719	-28.237	16375	15585	0	816
-19.510	-26.938	16376	15772	0	816
-19.473	-25.424	16378	16104	0	816
-17.887	-25.424	16382	16537	0	816
-19.654	-27.227	16384	16843	0	816
-20.591	-29.066	16384	16996	0	816
-23.440	-30.941	16389	17344	0	816
-27.840	-30.869	16394	18016	0	816
-26.722	-29.463	16400	18696	0	816
-26.542	-27.371	16405	19037	0	816
-24.594	-27.371	16409	19122	0	816
-23.765	-26.073	16413	19232	0	816
-21.024	-24.089	16417	19368	0	816
-20.555	-23.945	16420	19309	0	816
-19.690	-21.313	16422	18994	0	816
-16.192	-19.618	16420	18535	0	816
-16.697	-19.546	16420	17999	0	816
-15.038	-18.608	16418	17412	0	816
-14.713	-19.510	16415	16800	0	816
-15.146	-18.392	16412	16197	0	816
-10.458	-16.949	16409	15628	0	816
-7.140	-11.828	16406	15100	0	816
-4.508	-6.852	16401	14684	0	816
-1.911	-3.606	16400	14531	0	816
-0.793	-0.180	16398	14573	0	816
1.334	1.515	16398	14556	0	816
4.400	4.039	16396	14480	0	816
7.753	5.734	16396	14599	0	816
12.477	8.835	16397	14888	0	816
14.172	9.665	16397	15041	0	816
13.884	10.530	16396	15083	0	816
17.562	12.838	16397	15279	0	816
21.421	19.834	16398	15628	0	816
28.561	27.840	16398	15849	0	816
35.810	36.819	16398	15866	0	816
39.849	41.363	16397	15764	0	816
40.714	41.111	16395	15619	0	816
36.928	38.875	16393	15441	0	816
35.413	36.964	16391	15245	0	816
34.006	37.468	16388	15049	0	816
32.023	37.829	16384	14862	0	816
30.184	35.629	16382	14692	0	816
26.866	32.564	16379	14556	0	816
21.241	27.227	16376	14454	0	816
20.447	24.342	16373	14395	0	816
20.303	21.132	16370	14361	0	816
18.969	21.241	16367	14344	0	816
18.356	18.608	16365	14352	0	816
13.451	15.651	16360	14378	0	816
9.773	11.648	16358	14437	0	816
5.301	6.852	16356	14531	0	816
3.065	2.705	16355	14692	0	816
1.298	1.118	16355	15075	0	816
1.731	0.000	16355	15628	0	816
3.823	1.118	16356	16078	0	816
7.465	3.859	16357	16392	0	816
11.035	7.898	16361	16817	0	816
12.405	10.891	16363	17370	0	816
9.989	11.179	16365	17804	0	816
6.239	9.268	16369	18076	0	816
5.914	7.068	16372	18433	0	816
8.186	8.114	16376	18858	0	816
13.091	12.405	16378	19113	0	816
22.503	18.608	16380	19113	0	816
25.171	23.621	16382	18977	0	816
24.594	20.411	16382	18747	0	816
18.897	17.093	16382	18450	0	816
14.425	10.458	16382	18110	1	316
12.297	8.619	16382	17753	0	316
14.208	12.045	16378	17395	0	316
17.634	15.254	16377	17047	0	316
25.316	21.926	16375	16698	0	316
30.725	26.578	16373	16384	0	316
36.964	33.466	16370	16095	0	316
44.969	40.894	16369	15849	0	316
51.497	46.051	16367	15636	0	316
53.805	50.920	16365	15526	0	316
56.221	50.234	16367	15636	0	316
56.545	50.631	16368	15925	0	316
56.726	52.074	16368	16129	0	316
59.430	51.821	16369	16248	0	316
60.260	53.805	16372	16520	0	316
61.378	54.922	16375	16945	0	316
62.820	55.427	16377	17259	0	316
64.876	59.611	16379	17421	0	316
66.715	60.188	16384	17685	0	316
66.390	60.296	16386	18050	0	316
63.433	58.060	16389	18254	0	316
58.745	52.182	16391	18212	0	316
54.706	48.756	16392	18042	0	316
50.992	43.924	16393	17795	0	316
48.143	41.399	16392	17489	0	316
42.084	37.072	16391	17149	0	316
36.170	34.908	16390	16800	0	316
32.348	30.941	16388	16460	0	316
29.535	27.551	16386	16138	0	316
26.470	23.621	16384	15823	0	316
25.604	21.096	16382	15526	0	316
22.719	16.805	16380	15237	0	316
22.214	15.579	16377	14981	0	316
17.526	11.864	16375	14752	0	316
15.146	7.934	16373	14641	0	316
9.520	3.606	16374	14760	0	316
6.058	-0.649	16374	15066	0	316
4.075	-2.524	16374	15305	0	316
2.705	-3.426	16374	15466	0	316
2.128	-3.173	16377	15849	0	316
-1.875	-3.534	16382	16562	0	316
-4.327	-6.527	16386	17327	0	316
-8.330	-10.999	16392	17846	0	316
-13.523	-14.821	16397	18288	0	316
-17.598	-21.745	16403	18722	0	316
-21.818	-26.794	16407	18935	0	316
-26.794	-33.538	16409	18866	0	316
-32.636	-39.849	16410	18637	0	316
-36.964	-47.097	16410	18305	0	316
-43.743	-53.444	16410	17880	0	316
-47.602	-56.076	16409	17404	0	316
-49.766	-60.584	16407	16911	0	316
-52.074	-60.873	16403	16409	0	316
-52.470	-59.683	16400	15925	0	316
-55.680	-62.315	16397	15449	0	316
-56.329	-63.938	16394	14998	0	316
-57.158	-65.164	16390	14599	0	316
-60.692	-67.184	16386	14250	0	316
-62.820	-68.229	16384	13961	0	316
-63.253	-67.580	16380	13774	0	316
-62.135	-65.994	16379	13842	0	316
-58.096	-61.846	16378	14131	0	316
-48.900	-56.113	16377	14378	0	316
-44.717	-49.946	16377	14573	0	316
-41.327	-47.962	16378	14930	0	316
-39.344	-47.386	16380	15432	0	316
-39.740	-45.907	16382	15823	0	316
-39.127	-46.340	16382	16095	0	316
-36.964	-44.392	16384	16469	0	316
-37.468	-43.094	16388	16945	0	316
-35.954	-43.527	16389	17234	0	316
-38.370	-45.330	16390	17276	0	316
-44.320	-50.739	16390	17200	0	316
-52.362	-56.293	16390	17072	0	316
-60.909	-65.344	16389	16902	0	316
-66.210	-69.383	16388	16690	0	316
-64.443	-68.121	16386	16443	0	316
-58.060	-62.604	16384	16197	0	316
-49.405	-53.732	16382	15942	0	316
-45.655	-48.503	16379	15704	0	316
-43.707	-44.645	16377	15475	0	316
-43.527	-45.402	16374	15271	0	316
-43.166	-45.330	16371	15092	0	316
-40.281	-42.878	16369	14939	0	316
-38.406	-39.993	16365	14820	0	316
-37.505	-38.695	16362	14743	0	316
-38.839	-38.658	16359	14718	0	316
-41.363	-41.435	16358	14718	0	316
-41.363	-42.517	16356	14769	0	316
-39.776	-41.688	16354	14845	0	316
-35.124	-39.127	16352	14947	0	316
-31.194	-37.577	16351	15041	0	316
-30.220	-35.305	16351	15220	0	316
-30.905	-36.423	16353	15687	0	316
-32.780	-36.170	16357	16537	0	316
-34.403	-37.288	16362	17438	0	316
-32.997	-36.387	16368	18110	0	316
-31.771	-36.639	16374	18696	0	316
-28.994	-33.502	16380	19283	0	316
-25.063	-29.463	16384	19666	0	316
-18.139	-21.854	16386	19751	0	316
-9.160	-13.920	16388	19649	0	316
-0.361	-4.616	16391	19428	0	316
8.114	2.669	16390	19122	0	316
12.946	10.025	16391	18756	0	316
20.844	14.749	16390	18348	1	420
25.063	22.214	16389	17931	0	420
30.256	26.722	16388	17497	0	420
34.439	29.499	16386	17089	0	420
38.767	35.377	16384	16715	0	420
45.330	40.930	16384	16367	0	420
54.778	49.297	16382	16027	0	420
65.994	61.233	16380	15713	0	420
72.485	65.489	16378	15509	0	420
71.691	65.236	16379	15551	0	420
67.220	61.342	16380	15764	0	420
64.695	59.358	16380	15908	0	420
63.649	60.837	16382	15959	0	420
68.229	67.039	16384	16189	0	420
73.927	72.990	16386	16554	0	420
78.687	77.642	16386	16800	0	420
83.592	80.382	16389	16902	0	420
87.018	86.765	16393	17098	0	420
94.302	92.499	16396	17395	0	420
97.836	98.918	16398	17557	0	420
98.810	100.144	16399	17489	0	420
96.574	97.800	16399	17319	0	420
91.922	91.958	16399	17089	0	420
85.503	86.621	16397	16809	0	420
79.950	80.887	16397	16477	0	420
78.579	77.822	16395	16138	0	420
74.468	74.865	16393	15789	0	420
71.511	72.016	16390	15449	0	420
69.672	70.249	16388	15143	0	420
68.698	69.347	16384	14871	0	420
69.744	69.492	16382	14650	0	420
71.367	69.996	16380	14488	0	420
70.934	68.085	16377	14361	0	420
66.102	65.020	16375	14327	0	420
56.581	54.670	16375	14531	0	420
43.310	45.979	16376	14913	0	420
33.357	34.547	16377	15211	0	420
20.952	22.972	16378	15415	0	420
13.054	13.415	16379	15772	0	420
3.137	-0.108	16382	16265	0	420
-10.710	-14.930	16384	16622	0	420
-27.047	-33.718	16384	16851	0	420
-48.792	-53.660	16388	17174	0	420
-68.878	-74.937	16391	17574	0	420
-92.860	-98.341	16392	17787	0	420
-115.903	-119.582	16394	17761	0	420
-141.255	-144.356	16394	17616	0	420
-163.541	-165.849	16394	17421	0	420
-184.241	-188.857	16393	17174	0	420
-200.036	-204.255	16392	16885	0	420
-212.117	-217.706	16390	16571	0	420
-220.808	-226.722	16388	16265	0	420
-228.164	-232.059	16386	15968	0	420
-231.807	-236.495	16384	15696	0	420
-234.547	-236.747	16382	15458	0	420
-236.026	-236.747	16379	15254	0	420
-232.239	-234.656	16376	15075	0	420
-229.282	-229.643	16373	14913	0	420
-221.168	-225.279	16372	14862	0	420
-212.477	-216.192	16372	15049	0	420
-201.587	-206.599	16372	15432	0	420
-189.975	-196.213	16375	15730	0	420
-181.825	-186.080	16374	15925	0	420
-175.045	-179.625	16377	16333	0	420
-171.872	-175.875	16384	17072	0	420
-166.895	-171.475	16388	17838	0	420
-159.502	-166.318	16392	18348	0	420
-146.484	-155.968	16398	18756	0	420
-132.059	-142.120	16403	19147	0	420
-117.526	-126.686	16407	19317	0	420
-105.914	-115.507	16409	19198	0	420
-96.394	-104.616	16410	18909	0	420
-86.909	-95.925	16410	18526	0	420
-79.877	-88.929	16408	18084	0	420
-72.737	-80.130	16407	17599	0	420
-67.724	-77.028	16406	17115	0	420
-63.866	-73.386	16403	16630	0	420
-62.532	-71.691	16400	16155	0	420
-60.260	-68.410	16397	15679	0	420
-57.303	-66.607	16393	15254	0	420
-58.889	-66.859	16390	14871	0	420
-59.827	-68.013	16386	14514	0	420
-64.479	-71.763	16384	14191	0	420
-68.806	-73.026	16380	13987	0	420
-69.672	-71.475	16379	14046	0	420
-67.761	-70.646	16379	14318	0	420
-66.138	-66.715	16380	14556	0	420
-65.308	-65.308	16378	14718	0	420
-66.318	-65.164	16379	15032	0	420
-68.013	-65.092	16382	15500	0	420
-69.383	-67.111	16382	15857	0	420
-69.131	-69.131	16384	16087	0	420
-69.095	-70.718	16384	16409	0	420
-71.223	-72.268	16388	16834	0	420
-73.206	-74.035	16390	17115	0	420
-75.586	-75.838	16390	17149	0	420
-76.271	-76.632	16389	17055	0	420
-77.605	-77.425	16390	16911	0	420
-78.074	-76.848	16388	16715	0	420
-76.091	-75.261	16386	16503	0	420
-74.901	-71.836	16384	16282	0	420
-70.501	-66.246	16382	16044	0	420
-64.479	-60.765	16380	15815	0	420
-57.735	-53.805	16377	15585	0	420
-52.146	-50.667	16377	15364	0	420
-46.989	-45.799	16373	15152	0	420
-42.048	-41.183	16370	14990	0	420
-36.855	-36.783	16367	14862	0	420
-30.617	-31.122	16363	14777	0	420
-21.529	-23.404	16361	14709	0	420
-16.048	-16.733	16359	14684	0	420
-9.520	-13.235	16356	14684	0	420
-7.393	-9.773	16355	14777	0	420
-4.183	-7.285	16356	15117	0	420
-0.865	-5.121	16357	15662	0	420
5.662	1.839	16360	16104	0	420
12.153	10.242	16360	16426	0	420
20.339	19.149	16363	16885	0	420
24.739	21.168	16368	17446	0	420
26.001	24.919	16370	17863	0	420
27.948	25.496	16373	18110	0	420
30.761	27.587	16377	18441	0	420
36.026	31.987	16382	18858	0	420
41.976	38.370	16384	19079	0	420
50.270	44.176	16386	19054	0	420
52.001	50.523	16388	18901	0	420
55.968	54.273	16388	18679	0	420
59.647	60.656	16388	18390	0	420
65.633	65.849	16386	18050	0	420
73.711	73.062	16386	17676	0	420
81.284	79.228	16384	17268	1	520
87.595	86.080	16384	16860	0	520
93.184	89.650	16382	16460	0	520
96.538	95.636	16379	16095	0	520
102.308	98.918	16376	15755	0	520
107.825	105.517	16376	15458	0	520
111.756	109.196	16372	15211	0	520
112.910	110.530	16371	15066	0	520
112.153	110.999	16371	15160	0	520
110.350	108.114	16371	15458	0	520
106.924	104.832	16373	15696	0	520
103.354	100.036	16374	15874	0	520
97.981	96.430	16376	16223	0	520
92.607	90.948	16379	16681	0	520
86.513	88.532	16382	17004	0	520
83.339	84.529	16384	17183	0	520
84.529	85.179	16386	17446	0	520
83.700	83.988	16391	17795	0	520
84.025	81.644	16393	17965	0	520
81.897	79.697	16395	17923	0	520
76.704	75.442	16396	17770	0	520
71.259	71.763	16395	17531	0	520
68.013	67.869	16394	17225	0	520
63.000	65.633	16393	16885	0	520
60.368	63.433	16392	16537	0	520
57.988	60.945	16390	16197	0	520
54.850	58.637	16386	15849	0	520
51.713	53.660	16386	15509	0	520
47.133	49.441	16384	15194	0	520
44.356	44.897	16382	14905	0	520
39.596	40.858	16377	14684	0	520
37.613	39.272	16375	14531	0	520
36.134	38.190	16373	14505	0	520
34.511	35.305	16373	14726	0	520
32.564	33.105	16374	15134	0	520
30.833	30.364	16376	15458	0	520
29.282	26.974	16376	15679	0	520
26.506	24.847	16380	16104	0	520
25.604	22.286	16384	16877	0	520
23.621	19.978	16390	17676	0	520
23.332	19.834	16395	18203	0	520
24.630	19.293	16401	18637	0	520
24.739	21.241	16407	19062	0	520
23.008	22.755	16410	19266	0	520
20.195	17.706	16413	19181	0	520
11.648	10.927	16414	18935	0	520
1.803	0.685	16414	18577	0	520
-8.835	-10.386	16413	18135	0	520
-19.582	-19.870	16412	17634	0	520
-33.718	-29.751	16411	17098	0	520
-46.736	-44.609	16408	16554	0	520
-64.190	-60.079	16405	16044	0	520
-83.484	-79.986	16400	15568	0	520
-102.633	-103.534	16398	15126	0	520
-125.496	-127.804	16394	14743	0	520
-153.119	-153.408	16391	14386	0	520
-179.048	-181.572	16386	14063	0	520
-207.898	-205.878	16384	13859	0	520
-232.276	-227.551	16384	13927	0	520
-248.503	-245.979	16384	14225	0	520
-265.777	-263.145	16382	14471	0	520
-281.717	-279.553	16382	14650	0	520
-299.928	-298.882	16384	14990	0	520
-321.132	-318.788	16384	15458	0	520
-338.875	-338.586	16386	15772	0	520
-358.457	-358.060	16386	15959	0	520
-376.415	-376.632	16389	16265	0	520
-396.899	-396.286	16391	16673	0	520
-417.598	-416.552	16393	16945	0	520
-436.747	-434.187	16393	17004	0	520
-451.929	-445.835	16393	16953	0	520
-460.260	-454.382	16392	16834	0	520
-466.354	-458.889	16391	16656	0	520
-474.180	-466.354	16390	16418	0	520
-480.527	-473.927	16388	16163	0	520
-487.847	-482.618	16384	15883	0	520
-490.552	-484.421	16384	15619	0	520
-488.568	-480.454	16380	15390	0	520
-480.851	-474.396	16377	15194	0	520
-474.324	-465.308	16374	15024	1	316
-464.912	-456.690	16371	14862	0	316
-459.719	-449.369	16368	14718	0	316
-447.746	-439.776	16365	14667	0	316
-433.934	-426.361	16365	14854	0	316
-419.870	-413.559	16365	15237	0	316
-405.734	-401.262	16367	15543	0	316
-393.797	-389.434	16365	15747	0	316
-385.106	-381.356	16367	16087	0	316
-377.894	-374.973	16369	16554	0	316
-371.078	-367.797	16371	16911	0	316
-368.121	-364.371	16373	17157	0	316
-364.046	-358.601	16376	17497	0	316
-360.404	-354.201	16379	17931	0	316
-356.509	-349.477	16382	18195	0	316
-350.090	-343.671	16384	18305	0	316
-344.933	-341.003	16386	18501	0	316
-337.793	-334.295	16391	18790	0	316
-329.751	-327.515	16393	18909	0	316
-318.067	-315.687	16395	18790	0	316
-305.049	-302.777	16396	18552	0	316
-291.742	-287.450	16396	18220	0	316
-278.255	-273.891	16394	17838	0	316
-260.079	-258.240	16393	17421	0	316
-244.176	-240.317	16392	17004	0	316
-226.506	-223.873	16390	16588	0	316
-210.963	-208.799	16386	16197	0	316
-198.630	-196.538	16384	15823	0	316
-188.929	-188.460	16382	15475	0	316
-182.871	-182.330	16379	15160	0	316
-176.812	-176.199	16376	14879	0	316
-172.160	-171.655	16373	14633	0	316
-168.626	-168.049	16371	14497	0	316
-165.056	-165.308	16372	14624	0	316
-162.532	-164.840	16372	14947	0	316
-164.876	-166.679	16371	15211	0	316
-167.508	-168.915	16372	15381	0	316
-169.924	-172.593	16373	15704	0	316
-170.285	-174.035	16377	16155	0	316
-167.652	-172.557	16378	16486	0	316
-164.371	-169.672	16379	16681	0	316
-159.322	-162.856	16382	16996	0	316
-155.824	-158.024	16384	17395	0	316
-148.612	-149.982	16386	17642	0	316
-139.308	-142.661	16389	17642	0	316
-127.840	-132.672	16389	17523	0	316
-117.670	-123.116	16388	17344	0	316
-106.888	-111.396	16388	17098	0	316
-98.233	-102.380	16386	16809	0	316
-91.165	-90.984	16384	16503	0	316
-81.572	-81.644	16382	16197	0	316
-71.799	-69.996	16380	15900	0	316
-61.810	-59.827	16379	15611	0	316
-51.965	-50.307	16375	15347	0	316
-41.327	-41.652	16372	15126	0	316
-32.528	-34.547	16370	14947	0	316
-25.207	-26.902	16367	14837	0	316
-14.641	-20.159	16367	14828	0	316
-6.203	-7.898	16367	15049	0	316
4.003	0.036	16367	15441	0	316
15.867	11.179	16369	15755	0	316
22.539	19.473	16369	15976	0	316
30.941	26.361	16372	16350	0	316
38.009	33.285	16374	16843	0	316
46.736	42.157	16376	17208	0	316
56.473	52.939	16380	17412	0	316
70.934	65.272	16384	17770	0	316
84.638	80.274	16390	18416	0	316
97.079	92.283	16396	19071	0	316
107.357	102.524	16400	19402	0	316
115.435	111.864	16403	19402	0	316
120.880	116.408	16405	19215	0	316
124.991	120.700	16406	18901	0	316
130.148	125.460	16407	18501	0	316
130.292	127.335	16406	18042	0	316
131.626	128.886	16403	17540	0	316
131.446	130.617	16401	17055	0	316
129.499	129.535	16400	16579	0	316
125.893	126.397	16397	16112	0	316
124.378	124.270	16394	15662	1	316
120.808	120.519	16391	15228	0	316
121.709	121.890	16388	14828	0	316
125.207	122.431	16386	14556	0	316
124.702	123.512	16384	14548	0	316
120.483	119.473	16384	14752	0	316
111.251	112.045	16384	14905	0	316
103.354	104.003	16384	14973	0	316
95.781	97.187	16386	15288	0	316
93.292	94.843	16391	15951	0	316
95.709	94.771	16394	16647	0	316
98.413	96.394	16398	17115	0	316
102.524	100.325	16403	17497	0	316
108.511	105.914	16406	17889	0	316
112.514	111.035	16409	18084	0	316
113.343	113.199	16411	18008	0	316
111.720	111.756	16411	17795	0	316
105.301	106.383	16410	17480	0	316
100.505	101.406	16410	17089	0	316
98.918	99.171	16407	16656	0	316
98.161	98.594	16405	16214	0	316
100.361	100.180	16401	15772	0	316
101.046	100.685	16398	15364	0	316
99.531	98.666	16395	14990	0	316
97.043	97.367	16390	14658	0	316
94.194	94.771	16388	14369	0	316
91.057	93.653	16384	14114	0	316
90.083	94.483	16380	13910	0	316
87.270	92.355	16379	13850	0	316
89.903	91.850	16378	14046	0	316
88.965	90.408	16377	14420	0	316
90.083	87.739	16377	14709	0	316
87.883	86.801	16376	14913	0	316
85.142	83.844	16378	15262	0	316
80.851	78.687	16379	15755	0	316
75.875	74.901	16380	16129	0	316
74.901	72.485	16382	16359	0	316
76.235	72.953	16384	16673	0	316
79.769	76.596	16386	17098	0	316
82.871	81.248	16386	17378	0	316
85.467	81.717	16388	17446	0	316
85.251	81.536	16389	17412	0	316
81.428	79.300	16389	17302	0	316
80.707	76.379	16388	17115	0	316
79.409	76.884	16386	16885	0	316
79.733	77.894	16384	16639	0	316
81.608	79.517	16384	16392	0	316
81.536	78.940	16382	16155	0	316
80.346	76.884	16378	15925	0	316
77.425	75.298	16376	15713	0	316
76.163	72.665	16373	15509	0	316
74.288	71.836	16371	15330	0	316
71.331	69.852	16369	15177	0	316
65.957	66.571	16365	15041	0	316
61.125	61.125	16363	14939	0	316
55.896	57.519	16360	14871	0	316
56.185	58.240	16357	14811	0	316
56.870	58.601	16356	14837	0	316
56.762	59.178	16356	15100	0	316
57.411	59.250	16357	15551	0	316
54.526	54.922	16358	15951	0	316
54.922	53.696	16358	16248	0	316
54.922	52.651	16362	16681	0	316
57.591	56.509	16365	17234	0	316
59.574	55.319	16370	17651	0	316
59.719	57.627	16371	17906	0	316
61.305	59.322	16375	18254	0	316
63.145	60.512	16379	18679	0	316
64.840	63.361	16382	18918	0	316
68.482	67.508	16384	18909	0	316
70.321	69.347	16384	18773	0	316
70.790	70.357	16386	18560	0	316
69.528	70.249	16386	18271	0	316
68.193	69.600	16384	17940	0	316
68.049	69.492	16384	17574	0	316
69.888	71.727	16384	17191	0	316
70.934	73.819	16382	16817	0	316
69.780	73.458	16379	16443	0	316
65.380	67.256	16377	16121	0	316
58.384	60.692	16375	15832	0	316
50.559	54.093	16374	15594	0	316
49.369	48.720	16372	15381	0	316
47.818	46.520	16370	15262	0	316
46.809	45.402	16371	15381	0	316
43.274	41.075	16373	15687	0	316
39.091	37.973	16373	15934	0	316
37.360	38.045	16374	16078	0	316
39.055	38.983	16376	16367	0	316
40.389	39.849	16379	16775	0	316
41.471	42.409	16382	17089	0	316
40.570	40.930	16384	17251	0	316
38.586	39.993	16386	17506	0	316
39.163	37.973	16391	17863	0	316
41.616	39.668	16394	18050	0	316
41.255	40.101	16395	18008	0	316
41.507	39.885	16395	17846	0	316
38.875	38.658	16397	17625	0	316
35.810	37.901	16396	17336	0	316
31.807	34.800	16395	17004	0	316
29.931	32.348	16393	16639	0	316
27.732	31.590	16392	16291	0	316
26.145	29.354	16390	15934	0	316
26.794	27.912	16388	15611	0	316
25.820	26.578	16384	15339	0	316
23.368	26.578	16382	15100	0	316
21.313	24.522	16380	14896	0	316
21.060	24.594	16378	14709	0	316
17.382	25.027	16377	14616	0	316
19.473	25.856	16377	14760	0	316
17.310	24.594	16377	15075	0	316
15.939	23.224	16377	15313	0	316
14.461	23.152	16377	15458	0	316
17.129	23.837	16380	15815	0	316
20.988	26.686	16384	16528	0	316
26.145	31.302	16389	17285	0	316
27.551	31.446	16394	17787	0	316
25.027	29.246	16399	18186	0	316
21.096	25.207	16405	18586	0	316
17.887	22.755	16407	18790	0	316
16.552	22.539	16409	18722	0	316
18.752	23.152	16411	18492	0	316
19.690	23.404	16411	18178	0	316
22.214	25.063	16411	17804	0	316
21.565	22.899	16409	17387	0	316
21.745	21.673	16407	16953	0	316
21.204	22.250	16405	16486	0	316
19.149	20.159	16401	16027	0	316
18.572	20.736	16399	15585	0	316
16.048	18.283	16396	15177	0	316
15.435	17.887	16392	14811	0	316
12.333	13.776	16388	14480	0	316
9.917	11.143	16384	14191	0	316
9.124	9.052	16382	13970	0	316
9.629	8.799	16378	13799	0	316
10.133	10.206	16374	13663	0	316
9.989	11.432	16371	13587	0	316
8.799	10.566	16369	13561	0	316
6.816	8.799	16365	13638	0	316
5.517	9.304	16365	13953	0	316
5.950	8.439	16368	14446	0	316
7.934	9.088	16368	14947	0	316
8.547	10.855	16370	15500	0	316
6.167	10.350	16372	16155	0	316
4.003	8.078	16375	16647	0	316
0.793	6.599	16377	16987	0	316
-0.865	7.212	16382	17395	0	316
1.190	7.068	16384	17889	0	316
6.275	9.484	16386	18212	0	316
8.907	10.746	16388	18280	0	316
11.360	12.117	16389	18212	0	316
10.530	11.143	16390	18059	0	316
8.763	10.097	16389	17829	0	316
7.429	10.819	16388	17540	0	316
4.724	10.638	16386	17225	0	316
4.652	9.088	16384	16911	0	316
2.560	8.294	16384	16613	0	316
3.606	8.366	16380	16342	0	316
4.075	8.871	16380	16129	0	316
4.291	8.763	16380	16138	0	316
3.065	8.547	16382	16316	0	316
2.019	6.744	16382	16426	0	316
-1.082	5.842	16382	16401	0	316
-1.406	5.013	16380	16325	0	316
-2.236	5.626	16379	16214	0	316
-0.036	6.347	16378	16095	0	316
-0.433	5.914	16377	16019	0	316
-2.849	1.515	16378	16146	0	316
-6.347	-0.072	16380	16418	0	316
-11.540	-5.806	16380	16622	0	316
-14.172	-8.691	16382	16715	0	316
-16.516	-11.576	16384	16919	0	316
-14.641	-11.612	16386	17242	0	316
-14.894	-13.487	16388	17446	0	316
-17.202	-15.326	16389	17429	0	316
-17.887	-17.887	16390	17293	0	316
-22.214	-22.503	16389	17089	0	316
-26.614	-25.676	16388	16834	0	316
-28.489	-28.309	16386	16579	0	316
-30.436	-31.049	16386	16342	0	316
-30.184	-33.105	16384	16087	0	316
-30.725	-35.088	16382	15832	0	316
-30.761	-36.603	16380	15602	0	316
-31.410	-38.190	16378	15390	0	316
-33.429	-40.065	16375	15203	0	316
-33.898	-40.858	16373	15049	0	316
-38.262	-44.464	16371	14905	0	316
-38.911	-44.897	16369	14845	0	316
-40.930	-44.428	16369	15024	0	316
-39.632	-43.238	16370	15390	0	316
-37.144	-42.517	16370	15687	0	316
-35.052	-38.334	16372	15908	0	316
-32.889	-37.036	16374	16257	0	316
-31.446	-36.062	16376	16698	0	316
-30.977	-34.800	16378	17004	0	316
-31.843	-37.360	16380	17166	0	316
-34.115	-40.281	16384	17497	0	316
-36.495	-40.570	16390	18144	0	316
-37.937	-40.570	16395	18781	0	316
-37.288	-39.344	16399	19096	0	316
-36.278	-37.324	16403	19105	0	316
-35.737	-38.190	16405	18926	0	316
-36.351	-38.586	16405	18620	0	316
-37.685	-39.885	16403	18246	0	316
-38.298	-40.642	16405	17838	0	316
-38.442	-39.812	16403	17412	1	816
-35.088	-36.423	16401	16970	0	816
-31.122	-32.131	16399	16520	0	816
-28.525	-29.535	16396	16104	0	816
-25.316	-26.542	16393	15687	0	816
-25.099	-27.335	16391	15296	0	816
-25.424	-29.427	16386	14930	0	816
-27.515	-30.797	16384	14599	0	816
-29.210	-31.374	16382	14301	0	816
-28.741	-32.456	16377	14072	0	816
-28.705	-30.076	16374	13927	0	816
-28.056	-29.318	16372	13902	0	816
-27.876	-28.994	16372	14106	0	816
-29.246	-28.489	16373	14514	0	816
-30.472	-28.705	16373	14862	0	816
-30.653	-29.138	16373	15134	0	816
-29.715	-28.958	16375	15534	0	816
-30.472	-30.581	16377	16053	0	816
-32.059	-31.626	16378	16418	0	816
-31.626	-31.554	16379	16605	0	816
-30.653	-30.977	16380	16681	0	816
-29.968	-29.030	16382	16681	0	816
-28.489	-29.282	16380	16639	0	816
-27.984	-28.597	16379	16562	0	816
-27.227	-28.561	16378	16460	0	816
-25.640	-24.306	16376	16359	0	816
-22.178	-20.447	16375	16206	0	816
-19.365	-19.293	16373	16036	0	816
-19.834	-17.887	16371	15883	0	816
-16.841	-20.736	16370	15747	0	816
-18.464	-19.942	16367	15628	0	816
-16.697	-19.906	16365	15526	0	816
-15.579	-16.480	16365	15543	0	816
-13.884	-16.480	16365	15798	0	816
-12.622	-13.992	16367	16206	0	816
-11.828	-13.992	16368	16520	0	816
-9.809	-12.802	16370	16724	0	816
-8.511	-11.756	16373	17106	0	816
-8.835	-12.622	16379	17804	0	816
-10.566	-13.307	16384	18509	0	816
-13.235	-17.526	16389	18960	0	816
-19.005	-20.916	16396	19394	0	816
-21.096	-25.856	16405	20014	0	816
-22.935	-26.542	16412	20576	0	816
-25.460	-27.119	16415	20763	0	816
-26.073	-28.525	16420	20593	0	816
-30.148	-30.869	16423	20219	0	816
-33.574	-35.701	16424	19717	0	816
-35.701	-38.154	16423	19130	0	816
-34.475	-38.911	16423	18484	0	816
-32.131	-35.233	16420	17787	0	816
-28.922	-31.735	16417	17089	0	816
-26.470	-28.345	16414	16401	0	816
-24.847	-26.866	16412	15772	0	816
-23.765	-24.306	16407	15169	0	816
-21.926	-24.378	16403	14607	0	816
-18.680	-22.250	16399	14123	0	816
-18.031	-19.293	16394	13697	0	816
-15.435	-16.949	16390	13323	0	816
-15.831	-14.028	16386	13017	0	816
-14.641	-13.595	16382	12788	0	816
-15.362	-12.658	16378	12703	0	816
-14.353	-12.081	16377	12890	0	816
-10.927	-11.828	16376	13289	0	816
-11.612	-12.117	16375	13638	0	816
-14.749	-16.048	16377	13919	0	816
-18.969	-23.621	16377	14352	0	816
-26.758	-29.715	16378	14905	0	816
-30.833	-36.351	16379	15339	0	816
-35.197	-39.055	16380	15645	0	816
-39.091	-42.193	16382	16061	0	816
-43.815	-46.123	16384	16554	0	816
-47.097	-46.845	16386	16911	0	816
-45.943	-48.215	16386	17038	0	816
-44.717	-46.845	16386	17030	0	816
-41.471	-43.779	16386	16945	0	816
-39.272	-40.786	16384	16792	0	816
-38.695	-40.065	16384	16613	0	816
-37.324	-39.163	16382	16443	0	816
-35.737	-37.649	16380	16274	1	316
-33.718	-37.324	16378	16078	0	316
-29.030	-32.636	16375	15874	0	316
-22.755	-26.109	16373	15704	0	316
-16.264	-17.634	16370	15568	0	316
-9.665	-12.261	16369	15441	0	316
-4.327	-6.275	16365	15322	0	316
-2.164	-4.183	16363	15228	0	316
0.974	-3.534	16361	15194	0	316
-0.397	-3.895	16359	15186	0	316
-0.541	-5.229	16356	15203	0	316
-1.623	-6.058	16356	15279	0	316
-1.695	-6.239	16357	15577	0	316
-1.875	-6.599	16358	16053	0	316
-2.633	-7.321	16359	16443	0	316
-7.321	-10.891	16361	16732	0	316
-13.668	-16.336	16365	17132	0	316
-19.221	-20.700	16369	17616	0	316
-25.604	-25.748	16371	17948	0	316
-28.669	-29.571	16372	18067	0	316
-31.122	-30.977	16373	18076	0	316
-30.977	-33.249	16374	17991	0	316
-33.141	-36.134	16374	17846	0	316
-35.088	-39.308	16374	17668	0	316
-38.442	-43.202	16373	17463	0	316
-39.163	-45.078	16372	17234	0	316
-38.009	-42.481	16371	17013	0	316
-33.610	-38.334	16370	16792	0	316
-27.515	-33.177	16369	16588	0	316
-23.621	-29.138	16367	16392	0	316
-23.909	-28.741	16365	16223	0	316
-23.512	-27.624	16365	16070	0	316
-24.414	-28.922	16363	15993	0	316
-23.873	-28.741	16365	16146	0	316
-23.260	-27.840	16368	16443	0	316
-22.467	-26.073	16368	16681	0	316
-22.863	-25.712	16370	16826	0	316
-24.486	-25.856	16373	17115	0	316
-23.296	-25.063	16377	17531	0	316
-22.142	-25.135	16380	17812	0	316
-22.935	-24.775	16382	17940	0	316
-23.621	-23.585	16386	18127	0	316
-26.001	-24.739	16390	18382	0	316
-27.587	-27.551	16392	18484	0	316
-27.948	-29.715	16394	18373	0	316
-27.804	-32.672	16394	18161	0	316
-28.489	-33.105	16395	17880	0	316
-29.499	-33.105	16394	17548	0	316
-30.040	-29.968	16394	17174	0	316
-28.453	-27.010	16391	16783	0	316
-27.155	-27.083	16391	16392	0	316
-25.243	-27.984	16388	16036	0	316
-26.001	-30.905	16386	15687	0	316
-24.450	-31.446	16384	15364	0	316
-22.142	-30.508	16382	15066	0	316
-20.375	-29.066	16379	14811	0	316
-17.851	-28.597	16376	14616	0	316
-20.844	-29.571	16377	14505	0	316
-22.647	-30.941	16375	14607	0	316
-23.729	-30.328	16375	14888	0	316
-21.637	-27.479	16375	15126	0	316
-16.913	-23.080	16376	15288	0	316
-15.290	-22.070	16379	15662	0	316
-14.569	-21.024	16384	16384	0	316
-18.572	-24.558	16388	17149	0	316
-19.113	-27.371	16393	17685	0	316
-21.349	-26.037	16398	18118	0	316
-17.166	-21.313	16403	18535	0	316
-13.668	-18.320	16407	18747	0	316
-10.638	-14.461	16409	18688	0	316
-11.900	-17.382	16411	18458	0	316
-15.831	-21.096	16410	18152	0	316
-18.969	-25.027	16409	17778	0	316
-22.322	-26.433	16410	17361	0	316
-23.116	-26.650	16408	16928	0	316
-23.549	-26.650	16406	16477	0	316
-24.919	-28.381	16403	16061	0	316
-25.676	-30.256	16400	15645	0	316
-24.847	-30.112	16396	15237	0	316
-24.270	-29.968	16394	14871	0	316
-24.739	-28.128	16390	14539	0	316
-26.037	-27.047	16386	14267	0	316
-27.768	-27.299	16384	14106	0	316
-27.948	-28.128	16384	14199	0	316
-24.811	-27.083	16384	14488	0	316
-20.808	-23.585	16384	14735	0	316
-18.067	-23.296	16384	14905	0	316
-14.858	-20.736	16384	15228	0	316
-13.812	-19.978	16386	15696	0	316
-11.215	-17.021	16386	16044	0	316
-9.124	-15.615	16389	16240	0	316
-5.950	-13.595	16391	16520	0	316
-6.311	-15.435	16394	16902	0	316
-6.491	-16.841	16395	17140	0	316
-9.232	-19.618	16396	17183	0	316
-10.169	-18.644	16396	17123	0	316
-10.206	-18.680	16396	16987	0	316
-8.619	-16.408	16395	16783	0	316
-8.583	-17.346	16392	16511	0	316
-10.602	-17.887	16391	16223	0	316
-16.264	-23.008	16389	15925	0	316
-20.772	-25.532	16384	15653	0	316
-22.935	-27.047	16382	15398	0	316
-23.008	-26.470	16379	15177	0	316
-18.392	-25.316	16378	14981	0	316
-19.149	-24.522	16376	14837	0	316
-19.329	-26.289	16372	14743	0	316
-22.791	-29.859	16370	14760	0	316
-26.650	-31.590	16371	15015	0	316
-30.040	-33.934	16371	15441	0	316
-33.213	-35.701	16372	15772	0	316
-33.934	-37.036	16373	15993	0	316
-32.816	-35.846	16375	16342	0	316
-29.354	-34.006	16377	16817	0	316
-25.171	-30.941	16379	17183	0	316
-21.709	-26.325	16382	17404	0	316
-16.805	-22.575	16386	17710	0	316
-16.300	-20.880	16388	18110	0	316
-12.730	-17.526	16391	18356	0	316
-12.117	-16.805	16393	18441	0	316
-8.871	-14.317	16397	18586	0	316
-7.357	-13.776	16401	18815	0	316
-8.475	-13.487	16403	18875	0	316
-10.314	-15.759	16405	18696	0	316
-15.471	-16.985	16403	18390	0	316
-17.310	-19.365	16405	18016	0	316
-20.627	-20.483	16403	17591	0	316
-20.195	-22.647	16401	17115	0	316
-21.745	-23.837	16399	16630	0	316
-24.125	-27.263	16395	16163	0	316
-24.955	-28.381	16392	15721	0	316
-28.164	-31.879	16389	15322	0	316
-29.499	-32.059	16386	14947	0	316
-30.292	-33.610	16384	14624	0	316
-32.384	-34.475	16380	14361	0	316
-30.761	-35.269	16376	14157	0	316
-32.203	-36.603	16374	14055	0	316
-33.357	-38.082	16373	14208	0	316
-34.295	-39.127	16373	14582	0	316
-32.600	-37.144	16374	14905	0	316
-30.076	-34.511	16374	15126	0	316
-27.371	-32.023	16376	15466	0	316
-24.053	-28.850	16377	15917	0	316
-21.024	-27.551	16378	16257	0	316
-19.546	-25.893	16380	16443	0	316
-15.831	-24.955	16382	16741	0	316
-13.812	-24.089	16386	17149	0	316
-11.468	-20.772	16386	17429	0	316
-11.900	-21.421	16388	17497	0	316
-12.550	-18.860	16388	17446	0	316
-10.278	-19.329	16388	17327	0	316
-10.891	-16.228	16388	17149	0	316
-8.583	-15.002	16386	16945	0	316
-5.157	-11.360	16386	16715	0	316
-4.868	-9.160	16384	16477	0	316
-5.193	-8.655	16384	16240	0	316
-7.212	-10.169	16380	16002	0	316
-11.900	-12.514	16378	15764	0	316
-14.497	-17.346	16376	15534	0	316
-19.113	-20.519	16373	15339	0	316
-19.257	-23.080	16373	15186	0	316
-21.890	-23.008	16370	15134	0	316
-21.854	-21.277	16370	15322	0	316
-22.935	-22.142	16371	15696	0	316
-22.972	-22.178	16371	15993	0	316
-22.214	-23.657	16373	16189	0	316
-25.135	-25.784	16376	16503	0	316
-25.532	-24.702	16378	16928	0	316
-26.470	-25.027	16380	17208	0	316
-28.309	-26.794	16382	17344	0	316
-25.712	-27.587	16384	17582	0	316
-22.467	-25.424	16388	17923	0	316
-18.464	-23.044	16390	18084	0	316
-18.680	-21.565	16391	18008	0	316
-19.293	-21.060	16391	17787	0	316
-24.883	-22.972	16390	17506	0	316
-26.614	-25.424	16389	17191	0	316
-25.929	-24.234	16388	16860	0	316
-22.827	-21.601	16386	16537	0	316
-19.149	-19.401	16384	16214	0	316
-18.211	-17.202	16382	15891	0	316
-18.897	-18.716	16379	15602	0	316
-17.706	-17.382	16377	15339	0	316
-20.159	-19.293	16374	15100	0	316
-20.808	-19.221	16371	14888	0	316
-24.919	-21.709	16368	14709	0	316
-28.525	-22.791	16367	14641	0	316
-30.617	-24.991	16367	14828	0	316
-32.023	-27.191	16367	15194	0	316
-32.492	-29.463	16367	15483	0	316
-31.554	-28.958	16368	15696	0	316
-32.239	-29.499	16371	16104	0	316
-31.879	-28.886	16376	16843	0	316
-32.276	-28.309	16382	17634	0	316
-33.574	-28.705	16386	18195	0	316
-33.321	-31.158	16391	18654	0	316
-33.429	-30.941	16397	19105	0	316
-32.600	-31.158	16401	19343	0	316
-32.528	-31.338	16405	19300	0	316
-30.148	-31.158	16406	19088	0	316
-29.318	-30.076	16405	18773	0	316
-27.984	-29.246	16407	18373	0	316
-29.427	-29.968	16405	17923	1	808
-31.230	-32.348	16403	17455	0	808
-35.197	-36.675	16403	16970	0	808
-37.937	-39.055	16399	16486	0	808
-36.206	-39.199	16396	16010	0	808
-33.429	-35.665	16393	15551	0	808
-29.787	-31.554	16391	15152	0	808
-26.686	-29.968	16386	14803	0	808
-25.171	-27.876	16384	14497	0	808
-26.397	-28.092	16382	14301	0	808
-27.479	-29.535	16382	14369	0	808
-28.561	-29.282	16382	14658	0	808
-30.761	-31.230	16382	14888	0	808
-33.862	-33.466	16382	15032	0	808
-37.180	-35.954	16384	15305	0	808
-39.019	-39.199	16384	15713	0	808
-38.767	-39.488	16384	15993	0	808
-36.603	-39.380	16384	16146	0	808
-34.728	-37.288	16388	16384	0	808
-33.177	-35.197	16391	16698	0	808
-33.502	-35.593	16391	16894	0	808
-31.735	-34.187	16391	16902	0	808
-30.617	-34.079	16391	16800	0	808
-28.850	-32.059	16391	16647	0	808
-29.499	-31.049	16389	16452	0	808
-29.715	-32.420	16388	16240	0	808
-33.249	-33.141	16386	16036	0	808
-33.141	-33.213	16384	15832	0	808
-31.699	-31.807	16382	15628	0	808
-28.958	-27.876	16380	15415	0	808
-25.063	-23.981	16377	15203	0	808
-23.909	-22.719	16374	15007	0	808
-22.575	-22.322	16371	14854	0	808
-23.440	-25.171	16369	14726	0	808
-25.460	-27.479	16365	14650	0	808
-25.712	-27.551	16362	14616	0	808
-24.342	-26.001	16360	14624	0	808
-24.270	-23.981	16358	14667	0	808
-22.322	-21.096	16358	14794	0	808
-19.293	-19.510	16358	15160	0	808
-20.627	-21.493	16360	15713	0	808
-21.745	-22.539	16360	16163	0	808
-23.693	-24.089	16363	16477	0	808
-26.902	-27.407	16365	16894	0	808
-30.436	-30.148	16371	17421	0	808
-34.043	-33.610	16372	17795	0	808
-36.495	-37.613	16375	18008	0	808
-38.947	-39.272	16378	18288	0	808
-38.262	-40.462	16382	18654	0	808
-36.567	-39.235	16384	18884	0	808
-33.141	-38.370	16386	18901	0	808
-30.400	-36.351	16388	18790	0	808
-27.840	-35.016	16389	18586	0	808
-26.758	-33.466	16389	18305	0	808
-26.614	-31.374	16389	17974	0	808
-27.335	-31.518	16388	17608	0	808
-28.417	-31.049	16386	17217	0	808
-29.859	-32.780	16384	16817	0	808
-30.112	-32.131	16384	16443	0	808
-30.148	-31.049	16382	16121	0	808
-27.083	-27.732	16379	15832	0	808
-24.162	-24.486	16377	15577	0	808
-21.385	-21.745	16374	15364	0	808
-21.313	-21.060	16373	15237	0	808
-23.116	-23.008	16373	15364	0	808
-25.171	-24.450	16375	15670	0	808
-27.010	-24.991	16376	15908	0	808
-26.578	-25.099	16377	16061	0	808
-25.243	-24.811	16379	16350	0	808
-27.443	-23.621	16382	16766	0	808
-29.282	-26.650	16384	17055	0	808
-30.689	-30.364	16386	17191	0	808
-32.528	-33.213	16390	17412	0	808
-32.528	-33.754	16393	17719	0	808
-32.131	-34.728	16395	17855	0	808
-35.016	-35.160	16396	17770	0	808
-37.216	-37.288	16396	17565	0	808
-39.199	-39.055	16396	17302	0	808
-36.855	-36.819	16395	16979	0	808
-33.610	-32.744	16394	16647	0	808
-26.397	-28.345	16391	16333	0	808
-22.683	-25.099	16390	16019	0	808
-22.683	-24.234	16386	15713	0	808
-20.267	-24.630	16384	15424	0	808
-20.483	-21.349	16384	15169	0	808
-17.418	-17.238	16380	14922	0	808
-13.271	-13.668	16377	14701	0	808
-9.412	-11.504	16376	14522	0	808
-10.314	-10.891	16373	14446	0	808
-12.910	-15.362	16373	14616	0	808
-15.182	-17.743	16373	14973	0	808
-20.303	-21.565	16373	15271	0	808
-20.772	-20.952	16373	15424	0	808
-21.132	-21.313	16374	15577	0	808
-19.870	-18.788	16376	15900	0	808
-17.598	-19.401	16378	16350	0	808
-20.411	-21.096	16380	16732	0	808
-22.791	-26.433	16384	17208	0	808
-28.633	-32.131	16391	17914	0	808
-32.023	-34.367	16396	18594	0	808
-33.033	-32.600	16400	18935	0	808
-30.725	-30.184	16403	18960	0	808
-27.010	-25.316	16405	18815	0	808
-23.657	-21.962	16405	18577	0	808
-23.296	-22.503	16406	18271	0	808
-20.664	-20.952	16406	17897	0	808
-20.014	-19.582	16405	17455	1	424
-20.880	-20.627	16401	17004	0	424
-19.293	-18.644	16399	16554	0	424
-20.627	-19.906	16396	16129	0	424
-20.844	-17.418	16395	15730	0	424
-20.880	-16.552	16391	15356	0	424
-15.903	-12.405	16388	15015	0	424
-12.081	-9.160	16386	14794	0	424
-6.744	-7.104	16386	14820	0	424
-3.318	-5.337	16386	15049	0	424
-2.993	-5.734	16384	15203	0	424
-5.409	-8.006	16386	15271	0	424
-8.619	-9.665	16386	15492	0	424
-10.855	-10.999	16389	15857	0	424
-11.612	-11.864	16390	16121	0	424
-13.054	-12.946	16391	16282	0	424
-16.336	-16.120	16394	16545	0	424
-19.077	-19.185	16396	16911	0	424
-22.755	-23.873	16397	17140	0	424
-26.902	-25.820	16398	17149	0	424
-24.378	-25.568	16397	17030	0	424
-22.467	-24.162	16398	16851	0	424
-22.250	-26.181	16396	16630	0	424
-20.519	-26.109	16395	16384	0	424
-22.575	-27.732	16393	16121	0	424
-25.784	-28.886	16391	15840	0	424
-26.325	-27.696	16389	15560	0	424
-26.145	-27.804	16386	15305	0	424
-25.820	-26.722	16384	15109	0	424
-24.883	-25.712	16382	14964	0	424
-22.070	-25.496	16379	14854	0	424
-20.952	-23.188	16376	14760	0	424
-19.041	-20.447	16375	14743	0	424
-14.785	-19.257	16375	14964	0	424
-13.199	-16.156	16375	15364	0	424
-12.261	-15.903	16376	15679	0	424
-10.386	-14.172	16376	15883	0	424
-10.999	-14.461	16380	16189	0	424
-13.235	-13.704	16382	16596	0	424
-13.776	-13.343	16382	16885	0	424
-18.139	-15.831	16384	17030	0	424
-19.726	-16.084	16386	17276	0	424
-22.503	-18.356	16389	17625	0	424
-23.440	-16.228	16389	17821	0	424
-22.575	-15.651	16392	17846	0	424
-20.014	-13.235	16394	17948	0	424
-17.634	-11.648	16396	18127	0	424
-18.356	-12.297	16398	18178	0	424
-18.897	-14.317	16399	18042	0	424
-24.306	-20.627	16399	17787	0	424
-27.840	-26.037	16397	17472	0	424
-32.925	-32.492	16396	17106	0	424
-34.403	-33.754	16394	16707	0	424
-34.872	-33.321	16391	16316	0	424
-34.872	-31.410	16390	15942	0	424
-35.413	-30.581	16386	15585	0	424
-36.278	-31.807	16384	15254	0	424
-35.990	-34.403	16380	14964	0	424
-34.620	-31.735	16377	14718	0	424
-30.905	-29.102	16376	14505	0	424
-28.777	-25.099	16372	14369	0	424
-28.273	-23.729	16370	14361	0	424
-29.787	-21.529	16370	14590	0	424
-33.141	-20.736	16370	14990	0	424
-30.148	-19.473	16371	15305	0	424
-27.984	-13.054	16371	15534	0	424
-24.234	-11.900	16373	15900	0	424
-23.549	-11.468	16375	16367	0	424
-23.044	-11.215	16377	16690	0	424
-28.489	-14.497	16380	16902	0	424
-34.800	-17.562	16382	17217	0	424
-39.668	-21.096	16384	17616	0	424
-42.229	-21.024	16386	17846	0	424
-43.960	-21.673	16386	17846	0	424
-40.317	-19.762	16388	17727	0	424
-37.000	-21.998	16388	17557	0	424
-35.521	-22.250	16386	17353	0	424
-37.757	-24.811	16386	17115	0	424
-39.740	-25.748	16384	16851	0	424
-41.219	-26.758	16384	16562	0	424
-41.904	-26.938	16382	16274	0	424
-42.806	-29.282	16379	15985	0	424
-42.193	-31.230	16378	15747	0	424
-42.553	-30.508	16377	15560	0	424
-41.219	-29.138	16373	15398	0	424
-38.045	-27.804	16371	15271	0	424
-32.131	-23.873	16370	15237	0	424
-30.328	-21.781	16370	15424	0	424
-26.542	-20.519	16372	15789	0	424
-25.820	-18.067	16373	16070	0	424
-23.657	-17.129	16374	16248	0	424
-23.188	-13.956	16376	16554	0	424
-22.647	-14.497	16380	17081	0	424
-20.988	-13.668	16384	17540	0	424
-20.519	-11.468	16386	17804	0	424
-16.841	-11.251	16390	18076	0	424
-15.146	-9.701	16394	18390	0	424
-13.668	-10.566	16396	18526	0	424
-16.733	-12.658	16398	18433	0	424
-19.690	-18.103	16399	18212	0	424
-26.361	-19.510	16398	17914	0	424
-31.158	-22.539	16398	17565	0	424
-34.403	-25.532	16397	17183	0	424
-37.072	-27.335	16394	16775	0	424
-38.731	-30.148	16393	16367	0	424
-39.668	-32.744	16390	15968	0	424
-41.471	-35.701	16388	15619	0	424
-40.930	-35.918	16384	15322	0	424
-39.740	-35.918	16382	15041	0	424
-36.206	-34.764	16379	14777	0	424
-33.033	-33.718	16376	14548	0	424
-31.590	-34.439	16374	14403	0	424
-32.744	-36.170	16375	14505	0	424
-32.672	-38.586	16374	14811	0	424
-32.997	-37.432	16374	15049	0	424
-29.318	-32.997	16374	15220	0	424
-25.207	-28.056	16376	15551	0	424
-20.772	-21.204	16378	16078	0	424
-19.582	-16.625	16382	16520	0	424
-18.752	-15.579	16384	16800	0	424
-18.716	-13.884	16386	17106	0	424
-15.435	-13.631	16389	17463	0	424
-14.461	-12.874	16391	17651	0	424
-11.792	-10.097	16391	17642	0	424
-12.369	-9.737	16393	17642	0	424
-15.218	-10.566	16395	17685	0	424
-16.733	-11.648	16395	17616	0	424
-19.726	-15.038	16394	17412	0	424
-19.726	-17.382	16395	17140	0	424
-20.555	-16.012	16392	16843	0	424
-21.493	-17.310	16391	16537	0	424
-22.791	-17.202	16389	16257	0	424
-24.162	-20.123	16388	15985	0	424
-25.279	-23.152	16384	15713	0	424
-26.253	-26.037	16384	15458	0	424
-28.345	-27.912	16382	15228	0	424
-29.571	-28.850	16378	15024	0	424
-31.158	-29.499	16375	14854	0	424
-33.285	-30.761	16373	14718	0	424
-31.122	-30.364	16371	14624	0	424
-30.689	-29.535	16369	14590	0	424
-28.345	-26.938	16367	14650	0	424
-26.650	-24.522	16368	14947	0	424
-24.306	-20.447	16370	15415	0	424
-21.601	-18.247	16371	15857	0	424
-20.411	-14.245	16375	16384	0	424
-21.168	-15.687	16380	17157	0	424
-21.818	-17.310	16386	17957	0	424
-25.279	-23.116	16391	18509	0	424
-24.991	-25.063	16396	18943	0	424
-21.745	-26.145	16403	19360	0	424
-18.969	-23.837	16407	19538	0	424
-15.182	-21.962	16408	19436	0	424
-18.031	-21.457	16409	19164	0	424
-19.618	-24.739	16409	18781	0	424
-23.585	-28.020	16409	18314	0	424
-27.443	-30.653	16407	17804	1	624
-28.561	-32.384	16406	17293	0	624
-29.787	-33.538	16403	16792	0	624
-31.013	-33.249	16400	16308	0	624
-32.095	-32.420	16397	15815	0	624
-30.256	-30.761	16394	15356	0	624
-28.669	-29.391	16391	14956	0	624
-28.994	-29.463	16388	14616	0	624
-25.965	-29.318	16384	14335	0	624
-27.696	-31.302	16382	14165	0	624
-27.948	-31.518	16382	14259	0	624
-26.758	-30.148	16382	14556	0	624
-23.693	-28.020	16382	14803	0	624
-21.601	-27.010	16382	14973	0	624
-22.611	-26.470	16384	15296	0	624
-21.998	-27.155	16384	15730	0	624
-23.332	-26.542	16384	16027	0	624
-23.981	-27.155	16386	16189	0	624
-21.998	-27.551	16389	16426	0	624
-22.395	-27.010	16391	16783	0	624
-22.755	-26.794	16391	16987	0	624
-23.549	-26.325	16392	16987	0	624
-24.342	-24.486	16391	16877	0	624
-25.640	-21.781	16391	16724	0	624
-25.063	-22.106	16389	16511	0	624
-25.243	-22.972	16388	16265	0	624
-23.801	-22.683	16386	16002	0	624
-19.690	-23.188	16384	15755	0	624
-18.680	-20.519	16382	15526	0	624
-16.625	-18.247	16378	15305	0	624
-18.283	-17.057	16375	15100	0	624
-18.716	-17.490	16372	14913	0	624
-20.483	-18.392	16369	14752	0	624
-21.241	-18.211	16367	14633	0	624
-19.077	-17.670	16363	14616	0	624
-18.572	-15.687	16363	14820	0	624
-16.120	-17.959	16365	15211	0	624
-17.346	-18.320	16365	15534	0	624
-17.093	-19.798	16365	15772	0	624
-19.185	-20.591	16368	16163	0	624
-18.464	-22.395	16370	16656	0	624
-18.969	-21.781	16371	17038	0	624
-16.552	-21.637	16373	17268	0	624
-18.103	-22.178	16376	17582	0	624
-19.690	-22.070	16382	17965	0	624
-23.440	-24.486	16382	18195	0	624
-23.440	-26.614	16384	18203	0	624
-21.060	-25.171	16384	18101	0	624
-18.211	-22.791	16384	17940	0	624
-13.704	-18.788	16384	17727	0	624
-14.605	-16.372	16384	17472	0	624
-17.706	-19.149	16382	17191	0	624
-21.060	-19.798	16380	16894	0	624
-22.863	-24.775	16378	16596	0	624
-24.522	-26.289	16376	16299	0	624
-22.286	-26.794	16374	16010	0	624
-20.195	-25.856	16372	15755	0	624
-19.798	-23.512	16369	15543	0	624
-16.264	-20.231	16368	15364	0	624
-16.552	-17.923	16365	15288	0	624
-14.208	-14.389	16367	15449	0	624
-11.071	-12.081	16369	15781	0	624
-9.773	-8.655	16369	16027	0	624
-6.022	-6.311	16369	16172	0	624
-5.914	-3.823	16372	16494	0	624
-4.616	-4.436	16378	17157	0	624
-3.714	-5.085	16384	17855	0	624
-4.616	-7.573	16388	18322	0	624
-6.131	-9.160	16393	18688	0	624
-10.314	-12.369	16398	19045	0	624
-13.199	-17.021	16400	19207	0	624
-19.185	-19.546	16403	19105	0	624
-22.070	-24.306	16403	18832	0	624
-25.676	-26.614	16405	18475	0	624
-28.633	-26.145	16405	18084	0	624
-28.164	-27.443	16405	17668	0	624
-28.128	-27.768	16403	17225	0	624
-27.407	-28.850	16400	16749	0	624
-27.335	-28.633	16397	16265	0	624
-29.787	-29.823	16395	15806	0	624
-29.895	-29.931	16392	15398	0	624
-31.194	-32.023	16390	15032	0	624
-30.112	-32.961	16386	14692	0	624
-30.148	-32.528	16384	14386	0	624
-27.984	-31.951	16382	14208	0	624
-27.010	-29.318	16382	14293	0	624
-23.693	-25.748	16382	14582	0	624
-19.437	-21.781	16382	14837	0	624
-15.939	-19.365	16382	15007	0	624
-12.946	-15.218	16382	15296	0	624
-7.537	-12.946	16384	15704	0	624
-6.744	-12.946	16384	15985	0	624
-6.527	-11.540	16386	16146	0	624
-8.799	-14.425	16388	16401	0	624
-12.874	-16.336	16391	16766	0	624
-18.283	-20.195	16392	16996	0	624
-18.464	-19.942	16393	17013	0	624
-21.565	-21.277	16393	16936	0	624
-21.349	-20.411	16393	16800	0	624
-24.053	-22.286	16391	16622	0	624
-26.181	-25.784	16390	16418	0	624
-28.237	-28.453	16389	16214	0	624
-29.715	-29.066	16386	15993	0	624
-31.230	-30.220	16384	15764	0	624
-31.194	-28.669	16382	15517	0	624
-30.184	-29.787	16380	15279	0	624
-30.220	-30.905	16377	15049	0	624
-26.974	-30.184	16374	14837	0	624
-25.027	-27.551	16370	14675	0	624
-23.404	-26.109	16368	14565	0	624
-22.683	-24.847	16365	14497	0	624
-22.791	-24.739	16362	14454	0	624
-23.296	-25.748	16360	14446	0	624
-25.279	-26.902	16358	14531	0	624
-24.847	-27.083	16358	14837	0	624
-26.397	-27.191	16359	15313	0	624
-26.722	-26.181	16360	15721	0	624
-23.765	-24.270	16361	16036	0	624
-22.647	-22.034	16363	16460	0	624
-21.673	-20.231	16367	16996	0	624
-20.303	-21.745	16369	17387	0	624
-22.070	-22.070	16371	17634	0	624
-23.116	-23.044	16375	17957	0	624
-24.739	-24.775	16378	18356	0	624
-27.840	-25.929	16382	18603	0	624
-29.607	-27.696	16384	18620	0	624
-32.528	-28.958	16384	18509	0	624
-35.197	-30.689	16384	18322	0	624
-34.043	-31.626	16384	18076	0	624
-37.108	-34.331	16384	17804	0	624
-35.052	-34.728	16384	17506	0	624
-33.934	-33.970	16382	17191	0	624
-31.446	-32.708	16380	16877	0	624
-29.246	-32.131	16379	16579	0	624
-28.958	-32.889	16377	16308	0	624
-28.561	-32.420	16375	16027	0	624
-25.856	-30.112	16372	15764	0	624
-23.332	-25.604	16370	15534	0	624
-19.329	-21.204	16370	15415	0	624
-18.933	-19.293	16370	15517	0	624
-17.706	-19.401	16370	15789	0	624
-19.077	-17.887	16371	16002	0	624
-15.254	-16.949	16374	16155	0	624
-13.343	-13.091	16375	16426	0	624
-11.864	-13.631	16377	16817	0	624
-13.018	-14.245	16379	17081	0	624
-16.084	-15.831	16382	17217	0	624
-16.444	-17.526	16384	17472	0	624
-17.310	-17.418	16388	17821	0	624
-16.913	-19.077	16390	18016	0	624
-19.149	-19.077	16392	17982	0	624
-19.473	-19.978	16393	17812	0	624
-21.024	-20.123	16392	17565	0	624
-18.860	-18.428	16392	17259	0	624
-20.591	-21.132	16390	16936	0	624
-21.962	-24.162	16389	16605	0	624
-26.578	-30.112	16386	16282	0	624
-31.626	-33.033	16386	15959	0	624
-31.410	-32.961	16384	15662	0	624
-30.004	-30.040	16382	15390	0	624
-28.237	-28.056	16379	15152	0	624
-27.984	-26.001	16376	14939	0	624
-29.066	-26.361	16374	14760	0	624
-31.338	-29.823	16374	14701	0	624
-31.735	-31.482	16373	14871	0	624
-29.210	-32.023	16374	15220	0	624
-26.866	-33.934	16374	15500	0	624
-24.702	-30.653	16375	15679	0	624
-22.431	-27.371	16377	16027	0	624
-20.087	-22.827	16384	16656	0	624
-15.831	-20.159	16386	17293	0	624
-15.435	-17.346	16391	17736	0	624
-16.300	-20.123	16394	18110	0	624
-18.392	-22.034	16399	18475	0	624
-20.916	-24.053	16403	18645	0	624
-21.565	-23.873	16403	18577	0	624
-16.877	-18.680	16405	18365	0	624
-13.487	-14.894	16406	18076	0	624
-8.907	-11.504	16406	17702	0	624
-7.248	-10.061	16403	17276	1	716
-6.455	-13.451	16400	16834	0	716
-8.547	-13.523	16399	16384	0	716
-12.045	-17.057	16396	15968	0	716
-14.497	-16.985	16393	15560	0	716
-17.995	-20.339	16390	15194	0	716
-19.257	-21.385	16386	14871	0	716
-23.657	-24.919	16384	14616	0	716
-24.666	-27.155	16382	14403	0	716
-26.542	-28.597	16380	14310	0	716
-27.948	-30.040	16379	14454	0	716
-27.551	-31.013	16380	14777	0	716
-29.427	-30.941	16379	15024	0	716
-29.679	-32.203	16379	15169	0	716
-32.384	-34.223	16382	15449	0	716
-32.239	-34.295	16382	15874	0	716
-30.328	-32.997	16384	16189	0	716
-30.472	-31.085	16384	16384	0	716
-29.751	-27.047	16386	16698	0	716
-30.545	-25.316	16390	17106	0	716
-34.006	-27.083	16392	17361	0	716
-33.502	-29.210	16393	17378	0	716
-34.151	-29.066	16393	17285	0	716
-30.653	-26.830	16393	17149	0	716
-27.191	-24.017	16393	16970	0	716
-24.702	-20.447	16391	16758	0	716
-22.178	-17.418	16389	16503	0	716
-20.014	-18.103	16388	16248	0	716
-18.897	-14.389	16386	15985	0	716
-16.444	-13.848	16384	15738	0	716
-18.139	-15.326	16382	15526	0	716
-17.815	-17.562	16379	15347	0	716
-20.591	-20.555	16377	15194	0	716
-19.942	-22.106	16374	15075	0	716
-19.978	-20.050	16374	15058	0	716
-19.401	-19.906	16374	15245	0	716
-20.267	-20.231	16374	15594	0	716
-23.585	-22.214	16375	15857	0	716
-24.955	-25.965	16375	16027	0	716
-25.712	-27.587	16377	16342	0	716
-27.732	-28.922	16382	16766	0	716
-28.020	-29.751	16382	17064	0	716
-29.499	-30.689	16384	17208	0	716
-30.400	-32.059	16386	17429	0	716
-28.525	-32.456	16389	17761	0	716
-26.902	-30.581	16390	17948	0	716
-27.083	-28.417	16392	17982	0	716
-28.092	-27.660	16395	18025	0	716
-30.004	-28.056	16397	18101	0	716
-28.525	-27.624	16398	18059	0	716
-25.279	-25.640	16399	17863	0	716
-20.411	-21.168	16398	17599	0	716
-16.661	-19.437	16397	17285	0	716
-16.120	-17.382	16395	16945	0	716
-16.697	-20.555	16394	16588	0	716
-19.041	-21.241	16391	16248	0	716
-18.680	-21.998	16389	15891	0	716
-19.149	-21.421	16386	15560	0	716
-15.471	-20.844	16384	15245	0	716
-17.021	-23.224	16382	14973	0	716
-18.428	-23.621	16378	14752	0	716
-24.125	-24.883	16376	14590	0	716
-28.164	-26.614	16374	14480	0	716
-30.220	-28.633	16372	14480	0	716
-30.436	-29.354	16373	14718	0	716
-27.948	-31.915	16374	15152	0	716
-29.679	-35.305	16374	15534	0	716
-32.276	-39.308	16375	15806	0	716
-36.891	-41.832	16378	16163	0	716
-39.127	-45.078	16382	16596	0	716
-39.055	-44.392	16382	16902	0	716
-35.593	-42.084	16384	17055	0	716
-31.626	-39.632	16386	17310	0	716
-29.030	-38.262	16390	17659	0	716
-26.866	-37.000	16392	17855	0	716
-24.847	-35.016	16392	17829	0	716
-22.503	-32.095	16392	17693	0	716
-17.057	-27.660	16392	17497	0	716
-13.812	-22.791	16392	17251	0	716
-9.737	-20.880	16391	16970	0	716
-9.917	-18.320	16389	16656	0	716
-11.648	-19.690	16386	16350	0	716
-11.576	-17.634	16384	16053	0	716
-13.523	-19.582	16384	15764	0	716
-11.612	-19.005	16380	15483	0	716
-11.107	-20.519	16377	15228	0	716
-12.369	-22.034	16375	15007	0	716
-16.625	-21.962	16372	14837	0	716
-18.680	-22.827	16370	14786	0	716
-21.673	-25.748	16370	14973	0	716
-22.286	-24.125	16371	15339	0	716
-18.283	-24.270	16372	15636	0	716
-15.939	-21.565	16371	15789	0	716
-13.776	-19.329	16372	15942	0	716
-15.182	-22.972	16376	16265	0	716
-19.546	-26.397	16377	16698	0	716
-24.522	-29.931	16380	17072	0	716
-26.542	-31.662	16384	17506	0	716
-28.056	-32.095	16390	18161	0	716
-25.604	-31.699	16394	18798	0	716
-26.433	-32.384	16399	19088	0	716
-25.207	-33.790	16401	19088	0	716
-26.614	-33.285	16403	18926	0	716
-25.532	-33.213	16405	18645	0	716
-22.647	-32.600	16403	18288	0	716
-20.519	-30.761	16403	17889	0	716
-19.510	-30.256	16401	17463	1	424
-17.887	-28.489	16400	17021	0	424
-19.618	-28.777	16398	16571	0	424
-18.897	-27.155	16396	16146	0	424
-18.716	-26.073	16393	15721	0	424
-15.254	-22.322	16390	15322	0	424
-13.451	-20.050	16386	14947	0	424
-10.025	-17.743	16384	14692	0	424
-8.294	-17.346	16384	14675	0	424
-6.708	-16.012	16384	14854	0	424
-6.888	-16.300	16382	14998	0	424
-8.006	-14.317	16382	15066	0	424
-7.898	-16.048	16384	15356	0	424
-10.061	-15.435	16388	15976	0	424
-12.045	-19.077	16392	16630	0	424
-14.389	-20.519	16395	17072	0	424
-18.933	-22.899	16399	17429	0	424
-19.293	-23.909	16403	17787	0	424
-22.106	-25.135	16406	17948	0	424
-21.818	-28.309	16407	17863	0	424
-22.755	-30.328	16407	17642	0	424
-23.909	-32.095	16406	17353	0	424
-21.385	-30.869	16405	17004	0	424
-19.726	-25.820	16403	16622	0	424
-15.579	-22.719	16400	16231	0	424
-16.552	-20.159	16397	15832	0	424
-17.310	-21.204	16394	15441	0	424
-21.601	-24.053	16391	15075	0	424
-21.277	-23.440	16388	14743	0	424
-19.401	-19.654	16384	14454	0	424
-12.766	-17.166	16380	14208	0	424
-10.097	-12.766	16377	14029	0	424
-8.655	-11.432	16375	13961	0	424
-11.360	-14.569	16374	14148	0	424
-15.362	-14.497	16374	14522	0	424
-17.526	-17.238	16373	14828	0	424
-18.752	-16.372	16373	15041	0	424
-19.149	-19.329	16376	15390	0	424
-22.070	-19.834	16376	15874	0	424
-24.666	-23.621	16377	16248	0	424
-24.775	-24.342	16379	16494	0	424
-25.099	-23.801	16382	16843	0	424
-20.087	-23.296	16384	17268	0	424
-17.779	-20.627	16384	17531	0	424
-20.195	-22.863	16386	17574	0	424
-22.647	-26.650	16386	17489	0	424
-29.787	-30.869	16386	17361	0	424
-34.079	-36.134	16384	17191	0	424
-35.088	-38.190	16384	16979	0	424
-34.187	-40.462	16384	16749	0	424
-32.420	-38.009	16382	16511	0	424
-29.030	-36.495	16379	16308	0	424
-27.371	-33.357	16377	16104	0	424
-25.856	-31.410	16375	15917	0	424
-25.965	-32.492	16373	15738	0	424
-27.840	-32.780	16372	15585	0	424
-28.777	-35.088	16370	15458	0	424
-30.581	-35.016	16367	15347	0	424
-31.915	-35.305	16365	15245	0	424
-31.482	-34.295	16362	15134	0	424
-30.581	-33.177	16359	15058	0	424
-30.112	-30.112	16358	15075	0	424
-26.794	-26.001	16359	15313	0	424
-24.089	-24.089	16360	15696	0	424
-24.378	-22.899	16360	16019	0	424
-25.243	-22.322	16361	16257	0	424
-24.125	-23.296	16365	16639	0	424
-22.683	-20.736	16368	17149	0	424
-20.555	-18.067	16370	17531	0	424
-14.605	-17.923	16372	17761	0	424
-13.127	-16.733	16378	18076	0	424
-12.369	-15.831	16382	18475	0	424
-10.350	-17.743	16384	18722	0	424
-10.999	-16.408	16386	18739	0	424
-10.458	-16.985	16386	18620	0	424
-9.953	-15.975	16386	18416	0	424
-10.278	-17.562	16388	18144	0	424
-14.533	-18.211	16388	17846	0	424
-17.166	-20.952	16386	17523	0	424
-23.008	-25.388	16384	17174	0	424
-25.207	-24.522	16384	16817	0	424
-26.145	-25.532	16382	16486	0	424
-25.604	-24.162	16380	16180	0	424
-24.847	-22.250	16379	15900	0	424
-25.135	-22.250	16378	15645	0	424
-25.748	-22.719	16375	15407	0	424
-25.604	-19.834	16373	15254	0	424
-23.260	-20.411	16373	15330	0	424
-20.447	-18.464	16374	15585	0	424
-19.113	-18.067	16374	15772	0	424
-16.084	-15.651	16376	15883	0	424
-16.048	-15.867	16378	16121	0	424
-15.254	-14.497	16380	16486	0	424
-16.228	-16.228	16382	16741	0	424
-16.733	-15.362	16384	16860	0	424
-16.048	-18.139	16386	17089	0	424
-17.779	-17.634	16389	17421	0	424
-17.238	-19.546	16391	17608	0	424
-17.887	-19.077	16392	17591	0	424
-18.320	-20.736	16393	17463	0	424
-21.818	-20.952	16392	17276	0	424
-23.368	-25.496	16392	17047	0	424
-25.784	-30.256	16391	16792	0	424
-29.679	-35.016	16390	16528	0	424
-30.977	-39.632	16389	16248	0	424
-30.220	-41.147	16386	15934	0	424
-30.400	-42.842	16384	15602	0	424
-28.922	-41.868	16382	15288	0	424
-28.705	-42.661	16379	15015	0	424
-27.804	-41.327	16376	14786	0	424
-26.073	-40.714	16373	14607	0	424
-23.837	-37.865	16371	14531	0	424
-19.149	-34.475	16372	14701	0	424
-18.680	-31.482	16372	15058	0	424
-16.949	-29.751	16372	15356	0	424
-19.221	-30.797	16373	15577	0	424
-17.562	-28.237	16376	16002	0	424
-17.057	-24.775	16382	16707	0	424
-12.405	-22.647	16386	17429	0	424
-11.648	-19.834	16390	17923	0	424
-11.828	-21.204	16395	18356	0	424
-12.297	-23.368	16400	18773	0	424
-12.369	-22.539	16403	18986	0	424
-11.215	-21.024	16407	18901	0	424
-7.104	-16.661	16407	18662	0	424
-5.878	-14.785	16406	18322	0	424
-5.770	-10.999	16406	17914	0	424
-6.635	-10.278	16405	17472	1	508
-6.744	-10.891	16403	17013	0	508
-5.229	-9.412	16400	16554	0	508
-5.193	-10.133	16398	16112	0	508
-4.147	-11.143	16395	15696	0	508
-7.032	-13.343	16391	15313	0	508
-13.559	-20.339	16389	14973	0	508
-18.392	-25.784	16384	14675	0	508
-24.739	-29.895	16382	14437	0	508
-27.335	-32.059	16379	14233	0	508
-28.814	-32.997	16378	14080	0	508
-27.984	-34.331	16374	13961	0	508
-26.974	-33.790	16371	13876	0	508
-25.604	-33.970	16368	13816	0	508
-24.306	-33.321	16365	13876	0	508
-24.234	-33.033	16365	14165	0	508
-26.073	-32.528	16365	14641	0	508
-26.109	-31.915	16367	15117	0	508
-25.929	-30.328	16371	15628	0	508
-25.965	-27.696	16373	16214	0	508
-24.053	-25.820	16374	16647	0	508
-21.024	-23.873	16376	16945	0	508
-20.555	-20.303	16379	17319	0	508
-16.769	-17.706	16382	17744	0	508
-15.074	-14.245	16384	18008	0	508
-13.740	-15.038	16386	18067	0	508
-15.867	-14.497	16386	18016	0	508
-16.769	-15.903	16386	17906	0	508
-19.221	-18.283	16386	17727	0	508
-19.654	-19.221	16386	17480	0	508
-21.854	-20.519	16384	17191	0	508
-21.493	-23.801	16384	16911	0	508
-22.899	-23.837	16382	16647	0	508
-25.171	-25.496	16382	16384	0	508
-26.109	-26.506	16380	16214	0	508
-25.532	-25.316	16380	16240	0	508
-24.991	-23.657	16382	16443	0	508
-25.388	-23.549	16382	16579	0	508
-25.568	-23.621	16384	16639	0	508
-28.164	-25.532	16386	16826	0	508
-32.095	-29.463	16386	17115	0	508
-32.276	-31.122	16389	17276	0	508
-32.528	-30.472	16390	17310	0	508
-30.472	-30.328	16393	17429	0	508
-30.220	-25.820	16396	17625	0	508
-26.758	-23.008	16396	17685	0	508
-27.912	-23.224	16399	17634	0	508
-31.230	-23.981	16401	17685	0	508
-35.088	-28.633	16403	17821	0	508
-38.767	-33.105	16406	17821	0	508
-41.255	-34.908	16406	17642	0	508
-38.803	-33.862	16406	17378	0	508
-34.980	-31.590	16406	17072	0	508
-32.708	-29.282	16403	16715	0	508
-31.410	-29.859	16403	16342	0	508
-31.987	-28.489	16400	15968	0	508
-31.915	-29.174	16397	15602	0	508
-32.528	-30.148	16394	15245	0	508
-32.636	-28.561	16391	14896	0	508
-31.194	-29.895	16388	14590	0	508
-31.122	-30.040	16384	14318	0	508
-28.237	-29.102	16382	14106	0	508
-25.424	-29.030	16379	13919	0	508
-24.486	-30.581	16376	13833	0	508
-24.306	-31.554	16375	14004	0	508
-24.883	-32.492	16375	14369	0	508
-25.171	-30.977	16374	14684	0	508
-23.981	-29.427	16375	14930	0	508
-19.762	-26.397	16377	15305	0	508
-17.598	-23.549	16379	15798	0	508
-13.668	-23.765	16380	16163	0	508
-13.271	-20.844	16382	16384	0	508
-12.982	-21.637	16384	16698	0	508
-14.100	-21.637	16384	17089	0	508
-15.362	-20.159	16386	17344	0	508
-14.749	-20.267	16388	17404	0	508
-14.858	-18.356	16388	17361	0	508
-15.110	-20.050	16388	17251	0	508
-18.824	-21.313	16386	17081	0	508
-20.664	-23.188	16386	16877	0	508
-24.162	-26.325	16384	16656	0	508
-21.926	-25.929	16384	16409	0	508
-19.473	-23.729	16382	16163	0	508
-18.103	-22.250	16379	15917	0	508
-14.821	-20.772	16376	15696	0	508
-19.618	-21.565	16374	15500	0	508
-22.755	-26.361	16371	15322	0	508
-27.263	-31.807	16368	15169	0	508
-29.246	-32.564	16368	15100	0	508
-26.253	-30.905	16367	15271	0	508
-21.926	-25.496	16368	15619	0	508
-18.969	-22.575	16368	15900	0	508
-15.975	-19.365	16369	16104	0	508
-17.093	-18.500	16371	16426	0	508
-16.300	-21.781	16373	16877	0	508
-16.516	-21.277	16375	17208	0	508
-15.110	-22.935	16379	17404	0	508
-13.992	-21.493	16382	17685	0	508
-14.966	-19.437	16384	18042	0	508
-13.704	-18.356	16386	18237	0	508
-15.002	-15.723	16386	18220	0	508
-13.992	-18.500	16389	18084	0	508
-15.038	-18.428	16389	17872	0	508
-14.713	-19.401	16386	17591	0	508
-13.956	-19.473	16386	17259	0	508
-16.228	-20.736	16384	16911	0	508
-15.723	-19.726	16384	16571	0	508
-17.995	-20.808	16382	16257	0	508
-17.418	-20.519	16379	15959	0	508
-19.834	-21.673	16377	15696	0	508
-17.274	-23.837	16376	15466	0	508
-18.500	-23.044	16373	15262	0	508
-17.346	-22.647	16370	15083	0	508
-20.339	-23.188	16369	15007	0	508
-20.159	-22.322	16369	15160	0	508
-21.060	-22.899	16370	15475	0	508
-21.313	-22.719	16370	15721	0	508
-17.670	-19.473	16371	15891	0	508
-16.552	-19.510	16374	16257	0	508
-16.084	-17.634	16380	16919	0	508
-18.716	-20.555	16384	17599	0	508
-19.005	-21.962	16386	18059	0	508
-24.162	-23.873	16393	18424	0	508
-25.929	-24.811	16397	18773	0	508
-27.119	-26.361	16400	18926	0	508
-28.922	-26.758	16403	18815	0	508
-28.164	-26.722	16403	18560	0	508
-24.991	-24.486	16403	18212	0	508
-21.637	-22.575	16403	17812	0	508
-21.781	-22.106	16400	17395	1	516
-21.962	-23.332	16399	16962	0	516
-24.811	-23.621	16397	16528	0	516
-25.856	-24.883	16395	16095	0	516
-23.981	-23.801	16393	15662	0	516
-22.250	-21.854	16390	15254	0	516
-25.279	-24.486	16384	14871	0	516
-28.273	-28.597	16382	14556	0	516
-33.141	-31.699	16379	14310	0	516
-35.269	-32.997	16378	14182	0	516
-33.862	-31.013	16377	14301	0	516
-30.328	-28.020	16377	14599	0	516
-29.282	-27.263	16377	14845	0	516
-30.725	-29.282	16377	15032	0	516
-32.312	-30.869	16378	15347	0	516
-32.384	-33.502	16380	15781	0	516
-32.456	-30.436	16382	16095	0	516
-28.525	-29.607	16382	16282	0	516
-25.388	-27.804	16384	16571	0	516
-27.047	-28.237	16386	16979	0	516
-28.164	-28.489	16389	17242	0	516
-30.004	-29.282	16391	17353	0	516
-28.489	-27.263	16394	17540	0	516
-26.289	-24.739	16397	17804	0	516
-24.234	-23.152	16399	17914	0	516
-23.657	-20.880	16399	17821	0	516
-23.188	-20.123	16399	17608	0	516
-23.765	-20.736	16398	17336	0	516
-21.168	-19.221	16396	17021	0	516
-18.716	-19.762	16395	16690	0	516
-18.536	-17.995	16393	16376	0	516
-17.310	-19.582	16391	16053	0	516
-20.339	-18.716	16389	15721	0	516
-22.106	-22.467	16386	15381	0	516
-26.830	-26.974	16384	15066	0	516
-31.482	-29.282	16380	14794	0	516
-34.115	-30.184	16377	14565	0	516
-34.872	-29.643	16374	14395	0	516
-33.141	-27.984	16370	14276	0	516
-31.590	-27.263	16368	14191	0	516
-28.777	-28.381	16365	14140	0	516
-28.850	-29.931	16361	14140	0	516
-29.859	-31.122	16360	14182	0	516
-29.787	-32.023	16358	14310	0	516
-28.201	-30.220	16359	14658	0	516
-26.397	-28.705	16359	15177	0	516
-22.575	-25.063	16360	15679	0	516
-21.745	-22.142	16365	16206	0	516
-20.411	-21.673	16368	16800	0	516
-20.087	-19.762	16370	17285	0	516
-21.096	-19.221	16372	17540	0	516
-19.293	-18.644	16373	17659	0	516
-20.483	-16.949	16374	17693	0	516
-18.860	-16.336	16374	17668	0	516
-19.077	-16.625	16374	17591	0	516
-16.300	-14.100	16374	17497	0	516
-18.031	-14.894	16374	17378	0	516
-17.887	-13.631	16374	17225	0	516
-19.690	-15.002	16372	17047	0	516
-21.818	-15.939	16371	16868	0	516
-20.555	-18.897	16370	16681	0	516
-22.972	-19.185	16370	16503	0	516
-22.827	-22.070	16368	16342	0	516
-24.089	-21.890	16367	16248	0	516
-25.243	-21.854	16367	16367	0	516
-25.316	-22.935	16370	16639	0	516
-24.522	-21.926	16370	16834	0	516
-25.460	-24.125	16371	16919	0	516
-24.991	-23.873	16374	17123	0	516
-24.342	-23.332	16378	17438	0	516
-25.676	-24.558	16379	17625	0	516
-27.083	-26.758	16382	17685	0	516
-29.931	-28.705	16384	17838	0	516
-33.862	-33.177	16386	18076	0	516
-36.891	-36.783	16389	18178	0	516
-37.144	-36.567	16390	18101	0	516
-37.036	-37.036	16391	17931	0	516
-35.846	-36.278	16391	17702	0	516
-34.872	-33.934	16391	17404	0	516
-34.764	-33.502	16390	17089	0	516
-35.413	-33.105	16389	16792	0	516
-36.423	-32.456	16388	16511	0	516
-35.990	-33.754	16386	16240	0	516
-34.439	-31.266	16384	15968	0	516
-30.905	-30.400	16384	15721	0	516
-27.047	-29.174	16382	15483	0	516
-24.486	-26.794	16380	15262	0	516
-26.109	-25.676	16378	15066	0	516
-27.840	-27.371	16377	14964	0	516
-30.653	-28.020	16377	15075	0	516
-32.528	-30.761	16377	15364	0	516
-34.475	-33.321	16378	15585	0	516
-35.990	-36.314	16380	15721	0	516
-37.577	-37.396	16382	16036	0	516
-38.586	-38.298	16386	16656	0	516
-35.629	-36.711	16390	17310	0	516
-32.997	-33.213	16395	17744	0	516
-31.013	-32.276	16399	18101	0	516
-31.735	-30.617	16405	18458	0	516
-34.043	-32.239	16408	18611	0	516
-36.603	-33.502	16410	18526	0	516
-39.921	-36.278	16410	18305	0	516
-40.065	-38.226	16411	17999	0	516
-41.688	-40.209	16410	17599	0	516
-40.642	-39.993	16409	17140	0	516
-39.560	-38.731	16407	16673	0	516
-36.351	-35.846	16403	16240	0	516
-33.213	-33.682	16401	15806	0	516
-30.545	-31.807	16398	15398	0	516
-28.741	-30.436	16395	15024	0	516
-26.686	-27.840	16392	14701	0	516
-26.001	-24.847	16390	14429	0	516
-25.532	-23.729	16386	14216	0	516
-25.893	-21.854	16384	14114	0	516
-27.155	-22.575	16384	14250	0	516
-28.922	-24.847	16384	14573	0	516
-29.066	-24.342	16384	14828	0	516
-26.938	-21.962	16384	15007	0	516
-23.909	-20.483	16384	15322	0	516
-22.431	-17.995	16386	15730	0	516
-23.368	-19.798	16386	16010	0	516
-25.279	-21.565	16388	16180	0	516
-29.643	-24.414	16390	16426	0	516
-31.374	-25.171	16392	16792	0	516
-31.302	-24.089	16394	17038	0	516
-30.076	-22.611	16395	17081	0	516
-30.112	-24.414	16394	17004	0	516
-28.958	-23.368	16393	16860	0	516
-27.984	-24.017	16392	16664	0	516
-28.850	-26.830	16391	16443	0	516
-31.338	-29.210	16389	16223	0	516
-34.511	-30.148	16386	15968	0	516
-36.783	-31.518	16384	15713	0	516
-35.810	-29.102	16382	15466	0	516
-33.357	-26.145	16379	15245	0	516
-29.931	-22.827	16376	15058	0	516
-29.499	-21.854	16374	14913	0	516
-28.994	-23.188	16371	14803	0	516
-27.515	-22.899	16370	14718	0	516
-25.965	-22.070	16365	14658	0	516
-23.909	-22.322	16362	14641	0	516
-23.873	-21.818	16361	14641	0	516
-27.299	-22.539	16359	14743	0	516
-31.230	-24.883	16360	15066	0	516
-32.744	-27.371	16361	15568	0	516
-32.131	-24.775	16361	15976	0	516
-30.256	-23.188	16363	16291	0	516
-24.739	-21.060	16367	16715	0	516
-21.998	-19.041	16369	17259	0	516
-21.890	-20.447	16372	17659	0	516
-21.781	-20.952	16375	17923	0	516
-23.873	-22.034	16379	18254	0	516
-24.955	-22.611	16382	18662	0	516
-23.512	-22.755	16384	18892	0	516
-22.827	-23.368	16386	18866	0	516
-21.854	-21.421	16388	18722	0	516
-21.204	-20.087	16388	18501	0	516
-22.863	-20.303	16388	18212	0	516
-24.342	-20.123	16386	17872	1	632
-25.207	-23.909	16386	17523	0	632
-26.109	-25.135	16384	17174	0	632
-26.470	-25.460	16384	16834	0	632
-25.856	-25.604	16382	16520	0	632
-24.702	-24.342	16380	16231	0	632
-24.125	-23.296	16379	15934	0	632
-23.873	-22.250	16376	15679	0	632
-24.234	-22.935	16374	15458	0	632
-25.460	-22.575	16373	15339	0	632
-26.217	-24.089	16373	15432	0	632
-23.404	-22.503	16374	15696	0	632
-20.050	-18.608	16375	15891	0	632
-18.103	-15.795	16375	16002	0	632
-14.389	-12.477	16377	16257	0	632
-16.625	-15.290	16380	16613	0	632
-19.221	-17.562	16382	16860	0	632
-21.637	-21.601	16384	16979	0	632
-21.890	-21.096	16386	17208	0	632
-24.162	-21.313	16389	17531	0	632
-22.899	-18.644	16391	17719	0	632
-22.286	-18.428	16393	17693	0	632
-23.296	-18.320	16393	17565	0	632
-21.709	-21.385	16393	17370	0	632
-21.926	-22.395	16392	17123	0	632
-24.955	-23.260	16391	16851	0	632
-25.748	-25.568	16390	16545	0	632
-26.650	-24.919	16388	16231	0	632
-27.227	-24.234	16386	15917	0	632
-28.453	-26.722	16384	15645	0	632
-28.850	-28.092	16382	15407	0	632
-31.987	-29.210	16380	15186	0	632
-31.843	-29.391	16378	15007	0	632
-29.751	-26.830	16375	14862	0	632
-25.893	-23.729	16373	14760	0	632
-23.368	-20.483	16372	14675	0	632
-21.096	-17.670	16369	14616	0	632
-21.854	-19.077	16367	14590	0	632
-20.519	-16.084	16365	14607	0	632
-19.077	-17.057	16365	14718	0	632
-19.077	-15.218	16365	15066	0	632
-15.110	-14.605	16367	15585	0	632
-14.136	-13.920	16370	16070	0	632
-14.966	-12.333	16374	16571	0	632
-13.595	-12.802	16377	17149	0	632
-15.002	-12.946	16380	17574	0	632
-14.064	-10.674	16382	17753	0	632
-16.985	-13.559	16384	17795	0	632
-17.490	-14.966	16384	17736	0	632
-22.286	-18.752	16384	17582	0	632
-24.955	-20.844	16384	17395	0	632
-27.551	-24.234	16382	17174	0	632
-28.633	-22.719	16382	16936	0	632
-28.741	-24.198	16380	16690	0	632
-28.994	-25.243	16378	16452	0	632
-29.895	-25.207	16378	16231	0	632
-30.653	-26.506	16375	16019	0	632
-31.951	-26.506	16374	15832	0	632
-31.518	-26.542	16372	15679	0	632
-31.662	-26.578	16371	15611	0	632
-30.941	-26.578	16371	15772	0	632
-34.620	-28.453	16373	16095	0	632
-35.016	-30.292	16374	16333	0	632
-38.550	-32.925	16375	16443	0	632
-38.370	-33.718	16377	16715	0	632
-35.846	-32.023	16382	17200	0	632
-33.033	-28.525	16384	17634	0	632
-30.905	-25.712	16388	17897	0	632
-28.922	-25.135	16392	18161	0	632
-27.371	-26.037	16396	18467	0	632
-25.893	-24.558	16399	18628	0	632
-25.063	-22.142	16401	18552	0	632
-19.257	-17.382	16401	18356	0	632
-16.949	-12.081	16403	18067	0	632
-13.091	-9.412	16401	17702	0	632
-13.559	-11.107	16400	17310	0	632
-14.245	-14.821	16399	16902	0	632
-18.860	-17.562	16397	16511	0	632
-21.349	-21.024	16396	16138	0	632
-24.017	-22.106	16393	15781	0	632
-27.191	-21.565	16391	15466	0	632
-26.325	-22.719	16388	15194	0	632
-28.092	-23.116	16386	14956	0	632
-26.758	-22.358	16384	14743	0	632
-28.345	-25.063	16382	14641	0	632
-28.273	-24.450	16384	14769	0	632
-28.201	-25.532	16384	15075	0	632
-27.443	-26.109	16384	15313	0	632
-27.371	-26.325	16384	15458	0	632
-26.794	-25.784	16386	15730	0	632
-29.751	-27.587	16388	16129	0	632
-32.203	-28.994	16389	16409	0	632
-32.131	-28.741	16391	16545	0	632
-31.446	-26.866	16393	16775	0	632
-26.722	-22.214	16395	17089	0	632
-22.322	-20.591	16398	17285	0	632
-16.769	-15.831	16398	17293	0	632
-16.733	-17.851	16399	17225	0	632
-16.552	-17.310	16399	17115	0	632
-17.634	-16.949	16399	16936	0	632
-16.012	-14.497	16397	16698	0	632
-16.264	-13.704	16396	16435	0	632
-16.156	-13.307	16393	16155	0	632
-16.841	-15.759	16392	15883	0	632
-18.139	-15.182	16389	15645	0	632
-15.867	-12.694	16386	15432	0	632
-15.867	-13.091	16384	15220	0	632
-16.192	-13.523	16382	15007	0	632
-21.998	-17.959	16380	14820	0	632
-24.847	-22.791	16377	14684	0	632
-27.840	-26.758	16376	14590	0	632
-28.777	-25.316	16373	14522	0	632
-30.436	-26.397	16370	14480	0	632
-32.636	-28.309	16368	14522	0	632
-34.547	-31.410	16368	14786	0	632
-36.098	-33.069	16370	15220	0	632
-34.728	-34.006	16370	15585	0	632
-35.521	-33.862	16370	15857	0	632
-37.396	-34.043	16373	16240	0	632
-37.829	-33.069	16376	16724	0	632
-36.675	-33.105	16377	17106	0	632
-32.600	-29.030	16380	17344	0	632
-27.515	-24.125	16384	17659	0	632
-21.421	-20.014	16386	18033	0	632
-19.041	-16.480	16388	18254	0	632
-17.382	-15.435	16389	18254	0	632
-17.021	-13.054	16390	18135	0	632
-16.264	-11.828	16389	17940	0	632
-16.552	-10.530	16390	17693	0	632
-13.199	-8.366	16388	17412	0	632
-13.956	-7.393	16386	17123	1	520
-12.333	-5.986	16386	16826	0	520
-12.730	-3.678	16384	16545	0	520
-12.009	-2.705	16382	16291	0	520
-10.783	-1.370	16382	16061	0	520
-9.304	-2.019	16379	15849	0	520
-10.061	-1.911	16378	15653	0	520
-11.035	-5.373	16377	15483	0	520
-13.487	-8.330	16374	15381	0	520
-17.743	-12.766	16375	15492	0	520
-19.870	-16.625	16375	15772	0	520
-23.765	-19.473	16376	16010	0	520
-28.201	-23.657	16377	16163	0	520
-31.302	-26.470	16380	16452	0	520
-32.203	-29.427	16382	16868	0	520
-30.220	-28.633	16384	17132	0	520
-25.784	-26.686	16386	17251	0	520
-23.116	-24.234	16389	17463	0	520
-22.034	-24.342	16391	17761	0	520
-23.837	-25.027	16393	17923	0	520
-25.748	-27.083	16395	17863	0	520
-23.657	-25.784	16395	17693	0	520
-18.464	-20.411	16394	17472	0	520
-15.002	-17.454	16395	17208	0	520
-12.586	-12.297	16393	16928	0	520
-10.927	-12.297	16392	16630	0	520
-12.766	-11.900	16390	16316	0	520
-12.982	-12.910	16389	16002	0	520
-11.684	-14.281	16386	15721	0	520
-12.477	-13.523	16384	15466	0	520
-13.343	-14.497	16382	15245	0	520
-12.766	-15.002	16380	15041	0	520
-14.245	-15.326	16377	14871	0	520
-13.631	-16.012	16376	14786	0	520
-16.444	-16.697	16376	14922	0	520
-19.690	-20.087	16376	15237	0	520
-24.594	-20.555	16378	15492	0	520
-26.397	-22.250	16378	15670	0	520
-27.010	-22.972	16380	15976	0	520
-26.758	-22.647	16382	16384	0	520
-27.119	-24.017	16384	16673	0	520
-28.237	-27.227	16384	16834	0	520
-31.013	-28.237	16388	17089	0	520
-31.266	-28.056	16390	17446	0	520
-31.302	-28.381	16392	17668	0	520
-31.085	-27.443	16394	17685	0	520
-31.013	-28.092	16395	17642	0	520
-31.194	-28.777	16397	17736	0	520
-31.266	-29.427	16400	17923	0	520
-31.158	-27.984	16403	17982	0	520
-30.112	-27.479	16403	17838	0	520
-29.246	-26.506	16403	17574	0	520
-28.020	-23.945	16401	17268	0	520
-25.676	-20.844	16400	16928	0	520
-21.673	-17.743	16398	16579	0	520
-16.552	-13.884	16397	16240	0	520
-14.389	-11.143	16395	15883	0	520
-12.838	-10.963	16391	15551	0	520
-14.245	-11.792	16390	15313	0	520
-19.365	-14.713	16390	15322	0	520
-20.411	-19.978	16390	15500	0	520
-21.745	-21.998	16390	15602	0	520
-21.096	-20.483	16390	15628	0	520
-17.238	-20.123	16392	15806	0	520
-16.733	-17.057	16392	16112	0	520
-17.310	-19.113	16394	16308	0	520
-22.322	-21.313	16394	16376	0	520
-26.866	-23.873	16396	16520	0	520
-29.499	-26.289	16398	16758	0	520
-27.515	-24.486	16399	16877	0	520
-25.604	-24.811	16399	16809	0	520
-23.801	-25.099	16399	16656	0	520
-26.037	-24.702	16398	16452	0	520
-26.433	-25.532	16395	16214	0	520
-26.037	-25.929	16393	15934	0	520
-23.837	-26.325	16391	15662	0	520
-23.008	-24.991	16389	15390	0	520
-24.378	-25.712	16386	15126	0	520
-24.991	-26.650	16384	14896	0	520
-28.128	-27.083	16380	14726	0	520
-27.696	-28.345	16378	14607	0	520
-28.345	-28.128	16375	14522	0	520
-26.686	-26.361	16373	14446	0	520
-26.361	-23.621	16370	14395	0	520
-26.506	-20.880	16367	14378	0	520
-26.542	-21.673	16365	14395	0	520
-27.443	-21.565	16362	14437	0	520
-27.587	-22.070	16360	14565	0	520
-26.073	-21.313	16361	14888	0	520
-21.962	-17.057	16361	15356	0	520
-20.050	-15.579	16361	15738	0	520
-20.916	-13.523	16362	16044	0	520
-21.168	-16.444	16365	16477	0	520
-22.539	-18.824	16369	17038	0	520
-23.476	-18.860	16371	17463	0	520
-22.539	-18.356	16375	17744	0	520
-21.818	-18.320	16378	18093	0	520
-22.431	-17.418	16382	18501	0	520
-20.988	-19.401	16384	18747	0	520
-22.611	-19.221	16384	18756	0	520
-20.664	-19.906	16386	18620	0	520
-19.473	-17.923	16386	18416	0	520
-18.933	-18.356	16386	18169	0	520
-16.841	-16.877	16386	17880	0	520
-15.254	-17.670	16384	17582	1	416
-15.687	-15.687	16384	17259	0	416
-14.785	-17.959	16384	16936	0	416
-18.392	-19.293	16382	16622	0	416
-19.005	-21.709	16379	16325	0	416
-19.473	-19.906	16377	16036	0	416
-17.238	-18.320	16375	15772	0	416
-15.939	-12.694	16372	15560	0	416
-13.451	-11.756	16371	15449	0	416
-15.182	-11.612	16372	15568	0	416
-15.038	-13.199	16373	15857	0	416
-15.939	-15.362	16374	16070	0	416
-15.074	-14.389	16375	16197	0	416
-14.317	-14.821	16377	16435	0	416
-17.779	-14.389	16379	16800	0	416
-19.257	-17.923	16382	17064	0	416
-21.854	-19.257	16384	17208	0	416
-20.952	-20.808	16386	17438	0	416
-18.175	-19.978	16390	17753	0	416
-17.779	-20.772	16392	17914	0	416
-17.598	-21.204	16393	17863	0	416
-21.709	-25.532	16394	17702	0	416
-24.811	-27.263	16394	17480	0	416
-25.063	-28.273	16394	17217	0	416
-25.929	-25.207	16393	16936	0	416
-22.719	-22.539	16391	16656	0	416
-21.060	-20.627	16390	16367	0	416
-22.358	-19.473	16388	16070	0	416
-21.529	-21.781	16386	15772	0	416
-22.539	-21.673	16384	15483	0	416
-23.188	-22.034	16382	15220	0	416
-21.529	-20.231	16379	14998	0	416
-22.070	-17.995	16377	14820	0	416
-20.231	-16.300	16375	14760	0	416
-19.834	-14.858	16376	14922	0	416
-21.168	-16.012	16377	15245	0	416
-19.437	-16.985	16377	15509	0	416
-20.483	-20.087	16378	15687	0	416
-20.736	-18.500	16382	16061	0	416
-22.899	-21.313	16384	16724	0	416
-26.542	-20.411	16390	17412	0	416
-29.931	-24.162	16394	17863	0	416
-33.357	-26.722	16399	18220	0	416
-34.043	-28.201	16403	18577	0	416
-30.725	-25.640	16407	18739	0	416
-27.335	-23.621	16408	18662	0	416
-23.729	-18.392	16409	18441	0	416
-20.123	-19.690	16410	18135	0	416
-20.627	-18.464	16410	17753	0	416
-22.106	-21.493	16408	17327	0	416
-23.693	-23.296	16406	16894	0	416
-26.650	-24.089	16403	16443	0	416
-25.640	-23.008	16401	16019	0	416
-21.673	-21.565	16398	15619	0	416
-20.483	-17.346	16395	15245	0	416
-16.228	-17.238	16392	14905	0	416
-15.975	-15.254	16389	14616	0	416
-15.110	-16.408	16386	14361	0	416
-17.274	-15.831	16384	14191	0	416
-17.815	-18.860	16384	14259	0	416
-19.185	-18.211	16382	14522	0	416
-19.906	-20.159	16382	14752	0	416
-20.988	-20.700	16382	14913	0	416
-22.322	-23.080	16384	15228	0	416
-23.404	-24.558	16384	15696	0	416
-24.558	-24.991	16386	16044	0	416
-24.919	-26.181	16386	16265	0	416
-25.027	-25.712	16390	16554	0	416
-27.551	-25.640	16392	16945	0	416
-29.354	-27.047	16393	17183	0	416
-31.735	-27.263	16395	17217	0	416
-32.528	-27.263	16394	17140	0	416
-30.797	-25.965	16394	16996	0	416
-29.210	-26.001	16393	16800	0	416
-27.551	-26.974	16392	16571	0	416
-25.748	-25.965	16390	16325	0	416
-23.909	-25.243	16388	16070	0	416
-22.178	-23.080	16386	15832	0	416
-21.565	-21.673	16384	15594	0	416
-21.781	-18.247	16382	15373	0	416
-19.221	-18.175	16378	15169	0	416
-22.034	-17.598	16375	15007	0	416
-21.818	-19.618	16373	14871	0	416
-21.781	-18.067	16370	14769	0	416
-22.070	-19.690	16368	14684	0	416
-21.096	-18.788	16365	14633	0	416
-21.818	-18.572	16361	14616	0	416
-18.536	-16.300	16358	14599	0	416
-18.211	-15.579	16357	14624	0	416
-14.677	-11.251	16356	14735	0	416
-12.802	-9.737	16354	14939	0	416
-12.189	-9.737	16353	15203	0	416
-17.382	-9.737	16356	15696	0	416
-19.726	-15.651	16361	16494	0	416
-23.080	-17.562	16367	17361	0	416
-25.496	-20.339	16370	17957	0	416
-26.974	-23.080	16374	18348	0	416
-29.102	-25.965	16378	18773	0	416
-31.049	-25.893	16384	19249	0	416
-33.610	-27.912	16386	19530	0	416
-33.213	-30.004	16389	19547	0	416
-33.357	-30.436	16391	19411	0	416
-33.646	-30.869	16393	19190	0	416
-32.564	-31.699	16393	18875	0	416
-31.446	-31.446	16393	18484	0	416
-28.309	-27.876	16391	18050	1	420
-26.181	-25.171	16391	17616	0	420
-25.316	-25.712	16389	17183	0	420
-26.686	-26.397	16386	16766	0	420
-28.237	-26.938	16384	16384	0	420
-28.453	-27.696	16384	16019	0	420
-25.532	-23.585	16380	15687	0	420
-19.546	-18.103	16379	15449	0	420
-17.526	-15.903	16380	15441	0	420
-15.651	-13.704	16382	15628	0	420
-18.933	-16.264	16380	15772	0	420
-20.339	-15.903	16382	15857	0	420
-21.132	-17.057	16384	16087	0	420
-19.221	-15.362	16384	16426	0	420
-15.723	-16.516	16386	16647	0	420
-16.949	-14.713	16388	16741	0	420
-18.247	-16.841	16391	16919	0	420
-21.313	-18.067	16394	17183	0	420
-23.512	-20.483	16395	17319	0	420
-24.414	-20.664	16396	17259	0	420
-25.676	-23.945	16396	17098	0	420
-26.902	-23.729	16396	16877	0	420
-29.030	-24.378	16395	16605	0	420
-29.318	-25.604	16392	16308	0	420
-28.814	-25.135	16390	15993	0	420
-27.551	-24.270	16388	15679	0	420
-26.866	-24.594	16386	15390	0	420
-25.856	-24.234	16384	15143	0	420
-25.388	-23.008	16382	14922	0	420
-26.037	-23.296	16378	14743	0	420
-23.368	-23.152	16376	14590	0	420
-23.080	-19.978	16373	14471	0	420
-19.113	-20.195	16371	14454	0	420
-17.274	-17.490	16372	14641	0	420
-16.949	-17.238	16372	14981	0	420
-17.238	-15.218	16372	15262	0	420
-15.651	-14.497	16372	15449	0	420
-12.694	-10.097	16375	15764	0	420
-6.924	-4.724	16376	16214	0	420
-2.957	-0.938	16377	16537	0	420
-2.957	0.397	16379	16749	0	420
-6.563	-1.118	16382	17047	0	420
-11.432	-5.950	16384	17438	0	420
-13.992	-8.943	16386	17676	0	420
-16.625	-10.566	16386	17702	0	420
-15.759	-10.494	16388	17616	0	420
-14.821	-11.215	16388	17489	0	420
-14.461	-10.242	16386	17302	0	420
-12.297	-8.871	16386	17089	0	420
-12.477	-10.602	16384	16843	0	420
-14.821	-11.360	16384	16579	0	420
-19.437	-13.920	16382	16350	0	420
-25.712	-21.349	16380	16121	0	420
-30.472	-25.460	16378	15891	0	420
-32.059	-27.155	16376	15679	0	420
-30.725	-27.371	16374	15492	0	420
-28.705	-27.227	16372	15339	0	420
-26.614	-23.981	16371	15271	0	420
-27.912	-25.027	16372	15441	0	420
-28.309	-26.325	16373	15781	0	420
-28.525	-24.630	16373	16061	0	420
-24.558	-21.926	16374	16240	0	420
-19.546	-19.257	16377	16605	0	420
-17.202	-14.136	16384	17276	0	420
-15.579	-13.956	16388	17948	0	420
-18.211	-14.533	16393	18382	0	420
-18.572	-13.740	16397	18747	0	420
-19.690	-13.451	16403	19105	0	420
-17.418	-12.081	16407	19266	0	420
-16.625	-10.206	16408	19156	0	420
-15.326	-11.107	16410	18884	0	420
-16.805	-12.405	16410	18535	0	420
-16.625	-12.802	16410	18135	0	420
-16.625	-14.858	16410	17702	0	420
-18.860	-13.595	16408	17242	0	420
-16.805	-15.110	16405	16766	0	420
-19.077	-15.002	16403	16299	0	420
-18.572	-13.956	16400	15840	0	420
-20.988	-14.064	16397	15398	0	420
-21.349	-13.812	16394	14990	0	420
-23.476	-15.579	16391	14624	0	420
-27.119	-17.670	16386	14293	0	420
-28.597	-22.358	16384	14089	0	420
-30.076	-22.899	16384	14157	0	420
-29.138	-23.657	16384	14429	0	420
-28.020	-23.296	16384	14650	0	420
-29.571	-21.673	16384	14794	0	420
-29.282	-21.890	16384	15075	0	420
-30.292	-22.106	16386	15492	0	420
-29.643	-20.988	16386	15806	0	420
-27.912	-21.854	16388	16010	0	420
-27.263	-22.539	16390	16308	0	420
-28.453	-23.837	16393	16698	0	420
-27.948	-24.414	16394	16970	0	420
-28.201	-23.621	16395	17038	0	420
-24.666	-22.250	16395	16996	0	420
-22.539	-20.736	16395	16877	0	420
-21.998	-19.726	16394	16698	0	420
-21.385	-21.745	16392	16469	0	420
-22.791	-20.519	16391	16214	0	420
-24.270	-21.060	16389	15951	0	420
-22.358	-20.050	16386	15687	0	420
-23.296	-19.582	16384	15441	0	420
-23.549	-22.178	16382	15228	0	420
-24.775	-25.316	16378	15049	0	420
-29.535	-29.427	16375	14896	0	420
-31.626	-32.276	16373	14786	0	420
-33.249	-33.393	16370	14701	0	420
-34.800	-32.348	16368	14641	0	420
-33.682	-30.617	16365	14599	0	420
-34.475	-29.427	16361	14582	0	420
-33.285	-28.597	16359	14650	0	420
-33.754	-29.354	16360	14913	0	420
-32.636	-30.905	16361	15347	0	420
-31.338	-32.384	16361	15721	0	420
-27.227	-28.489	16362	16002	0	420
-23.368	-24.666	16365	16409	0	420
-19.365	-17.562	16368	16936	0	420
-16.012	-16.120	16370	17327	0	420
-18.680	-15.939	16372	17574	0	420
-20.014	-20.844	16376	17897	0	420
-23.152	-23.116	16379	18297	0	420
-22.395	-23.765	16382	18543	0	420
-20.231	-22.214	16384	18560	0	420
-19.690	-19.690	16384	18450	0	420
-16.192	-19.726	16384	18280	0	420
-17.598	-17.598	16384	18050	0	420
-17.129	-18.608	16384	17787	0	420
-19.942	-17.129	16384	17489	0	420
-19.293	-20.267	16382	17157	0	420
-23.296	-22.178	16380	16826	0	420
-23.801	-24.955	16378	16511	0	420
-25.784	-27.660	16376	16240	0	420
-27.407	-29.607	16374	15976	0	420
-28.056	-28.633	16372	15764	0	420
-27.984	-29.318	16371	15602	0	420
-27.479	-29.066	16369	15466	0	420
-28.417	-29.463	16367	15356	0	420
-27.768	-26.686	16365	15254	0	420
-25.316	-23.657	16363	15169	0	420
-21.024	-18.897	16362	15177	0	420
-18.716	-14.930	16362	15415	0	420
-15.579	-13.127	16365	15823	0	420
-16.192	-13.956	16365	16138	0	420
-13.704	-14.389	16368	16342	0	420
-14.353	-10.963	16371	16647	0	420
-12.910	-10.638	16373	17081	0	420
-13.307	-10.891	16375	17395	0	420
-18.356	-12.946	16377	17506	0	420
-19.077	-17.779	16378	17489	0	420
-22.395	-19.401	16378	17412	0	420
-22.899	-21.926	16379	17268	0	420
-23.549	-21.709	16378	17098	0	420
-26.181	-22.863	16377	16911	0	420
-25.604	-23.080	16376	16707	0	420
-26.758	-21.313	16375	16486	0	420
-27.263	-21.204	16373	16274	0	420
-26.433	-18.464	16371	16053	0	420
-26.001	-19.473	16372	15857	0	420
-26.578	-19.401	16369	15713	0	420
-28.850	-21.637	16367	15611	0	420
-30.364	-24.594	16367	15611	0	420
-31.735	-24.991	16369	15815	0	420
-32.744	-25.027	16370	16155	0	420
-32.780	-26.758	16371	16409	0	420
-32.023	-25.568	16373	16571	0	420
-32.925	-27.263	16377	16911	0	420
-33.466	-30.148	16382	17548	0	420
-33.862	-30.941	16386	18195	0	420
-32.528	-29.895	16391	18620	0	420
-29.391	-29.427	16397	18952	0	420
-27.371	-26.253	16403	19283	0	420
-25.568	-23.621	16407	19428	0	420
-23.909	-22.827	16410	19292	0	420
-23.296	-19.726	16410	19003	0	420
-23.549	-19.401	16410	18620	0	420
-20.014	-14.749	16410	18152	0	420
-18.897	-12.045	16410	17642	1	708
-16.480	-9.340	16408	17132	0	708
-18.139	-12.045	16406	16630	0	708
-18.716	-13.848	16403	16146	0	708
-23.440	-16.949	16400	15687	0	708
-27.984	-21.745	16398	15254	0	708
-29.607	-22.395	16395	14862	0	708
-28.561	-21.998	16392	14522	0	708
-25.568	-22.683	16389	14233	0	708
-24.270	-20.988	16386	14072	0	708
-22.178	-21.349	16386	14157	0	708
-22.142	-19.546	16386	14429	0	708
-23.801	-19.473	16384	14650	0	708
-22.827	-19.798	16384	14786	0	708
-21.565	-17.706	16386	15049	0	708
-23.260	-19.401	16388	15432	0	708
-21.204	-17.057	16389	15704	0	708
-20.087	-16.012	16390	15874	0	708
-17.634	-11.720	16392	16146	0	708
-16.372	-9.412	16395	16511	0	708
-13.163	-9.412	16395	16749	0	708
-14.100	-10.999	16396	16783	0	708
-13.379	-11.937	16396	16724	0	708
-14.569	-14.858	16396	16596	0	708
-15.110	-15.182	16395	16426	0	708
-15.326	-15.110	16393	16231	0	708
-15.939	-15.867	16391	16010	0	708
-14.749	-14.930	16389	15789	0	708
-15.290	-16.336	16386	15577	0	708
-14.245	-15.038	16384	15390	0	708
-15.795	-16.048	16382	15228	0	708
-16.444	-15.939	16379	15075	0	708
-21.132	-18.139	16377	14947	0	708
-23.693	-20.123	16374	14837	0	708
-28.309	-24.486	16373	14786	0	708
-29.499	-27.047	16371	14837	0	708
-30.220	-27.984	16370	14973	0	708
-28.453	-29.210	16368	15092	0	708
-26.073	-28.489	16370	15245	0	708
-26.253	-28.561	16370	15577	0	708
-26.758	-28.128	16371	16053	0	708
-27.587	-26.217	16372	16426	0	708
-28.417	-26.506	16375	16690	0	708
-27.912	-25.712	16377	17055	0	708
-25.243	-24.522	16380	17514	0	708
-22.647	-23.332	16382	17829	0	708
-19.726	-21.277	16384	18008	0	708
-17.634	-18.031	16388	18254	0	708
-14.605	-16.444	16391	18552	0	708
-14.100	-13.956	16394	18679	0	708
-14.281	-12.153	16395	18594	0	708
-11.756	-9.917	16395	18407	0	708
-13.595	-7.140	16395	18144	0	708
-15.182	-9.737	16395	17846	0	708
-18.716	-10.638	16394	17523	0	708
-22.611	-13.631	16394	17200	0	708
-25.171	-16.985	16392	16877	0	708
-24.450	-19.870	16390	16571	0	708
-23.621	-21.421	16389	16274	0	708
-26.037	-23.296	16386	15959	0	708
-27.443	-28.056	16384	15645	0	708
-31.662	-31.590	16382	15339	0	708
-34.728	-35.160	16379	15058	0	708
-34.764	-35.810	16377	14879	0	708
-33.646	-34.403	16376	14939	0	708
-29.715	-30.977	16376	15194	0	708
-24.702	-25.063	16378	15398	0	708
-20.555	-21.637	16377	15526	0	708
-15.146	-21.745	16379	15798	0	708
-15.038	-20.988	16382	16189	0	708
-15.795	-21.926	16382	16452	0	708
-14.894	-22.719	16384	16588	0	708
-15.507	-21.096	16386	16826	0	708
-13.235	-22.322	16388	17166	0	708
-11.720	-21.385	16390	17378	0	708
-10.314	-20.700	16390	17378	0	708
-7.501	-19.618	16391	17276	0	708
-6.671	-14.064	16391	17123	0	708
-3.642	-9.845	16390	16919	0	708
-3.101	-8.871	16388	16681	0	708
-4.219	-7.825	16386	16418	0	708
-5.626	-9.376	16384	16155	0	708
-6.852	-11.107	16384	15917	0	708
-7.825	-13.992	16382	15696	0	708
-9.881	-13.812	16379	15492	0	708
-12.081	-15.723	16377	15313	0	708
-13.631	-15.795	16375	15152	0	708
-17.057	-19.329	16374	15024	0	708
-18.860	-20.231	16372	14990	0	708
-22.286	-24.666	16372	15177	0	708
-24.017	-26.974	16372	15526	0	708
-26.614	-28.777	16373	15789	0	708
-26.397	-32.131	16374	15959	0	708
-24.558	-31.843	16376	16231	0	708
-22.827	-31.482	16377	16588	0	708
-22.106	-31.771	16379	16843	0	708
-22.178	-31.879	16380	16979	0	708
-23.621	-33.538	16384	17225	0	708
-25.640	-32.564	16384	17548	0	708
-21.854	-29.679	16386	17744	0	708
-16.661	-23.621	16388	17753	0	708
-12.405	-19.546	16390	17719	0	708
-9.881	-16.697	16392	17761	0	708
-7.825	-18.536	16394	17863	0	708
-8.835	-19.690	16395	17838	0	708
-9.340	-19.437	16394	17659	0	708
-9.448	-20.591	16394	17404	0	708
-9.016	-17.779	16393	17115	0	708
-10.133	-18.969	16392	16800	0	708
-11.432	-17.021	16391	16486	0	708
-11.432	-17.129	16388	16172	0	708
-10.530	-15.579	16386	15849	0	708
-10.746	-12.622	16384	15560	0	708
-9.448	-11.792	16384	15381	0	708
-7.140	-9.773	16384	15432	0	708
-8.006	-10.278	16384	15670	0	708
-10.674	-12.694	16384	15823	0	708
-13.920	-13.379	16384	15874	0	708
-14.966	-18.500	16386	16053	0	708
-20.627	-19.906	16388	16367	0	708
-21.854	-26.145	16388	16545	0	708
-25.676	-30.112	16389	16605	0	708
-26.794	-32.600	16391	16758	0	708
-28.128	-33.898	16394	17021	0	708
-26.470	-33.177	16395	17166	0	708
-24.522	-32.239	16396	17140	0	708
-24.630	-34.547	16396	17030	0	708
-23.909	-35.124	16395	16860	0	708
-22.972	-33.718	16394	16613	0	708
-20.700	-30.617	16393	16350	0	708
-15.471	-25.676	16391	16087	0	708
-14.966	-22.647	16389	15832	0	708
-13.559	-22.142	16386	15585	0	708
-15.867	-23.368	16384	15356	0	708
-16.048	-20.880	16384	15152	0	708
-14.497	-19.077	16382	14964	0	708
-12.441	-14.894	16378	14811	0	708
-7.573	-13.163	16375	14701	0	708
-6.094	-10.169	16373	14684	0	708
-5.517	-12.369	16373	14888	0	708
-7.393	-16.300	16374	15271	0	708
-10.674	-18.572	16374	15577	0	708
-13.379	-22.863	16376	15781	0	708
-17.057	-25.316	16378	16104	0	708
-17.093	-25.171	16380	16528	0	708
-19.401	-24.414	16382	16843	0	708
-19.401	-26.542	16384	17038	0	708
-20.772	-27.010	16386	17310	0	708
-19.798	-28.417	16388	17659	0	708
-19.834	-28.164	16390	17846	0	708
-17.562	-28.273	16392	17889	0	708
-18.536	-28.381	16395	17999	0	708
-18.067	-28.164	16398	18186	0	708
-20.303	-30.076	16399	18229	0	708
-20.664	-29.391	16400	18076	0	708
-17.310	-27.119	16399	17821	0	708
-14.245	-23.729	16398	17506	0	708
-9.629	-19.365	16397	17140	0	708
-5.662	-16.805	16396	16758	0	708
-4.039	-13.956	16394	16392	0	708
-3.967	-11.792	16392	16053	0	708
-3.065	-9.917	16389	15721	0	708
-2.092	-7.501	16386	15415	0	708
-1.839	-6.816	16384	15134	0	708
-2.524	-6.491	16382	14896	0	708
-2.596	-7.934	16378	14692	0	708
-4.977	-9.160	16375	14548	0	708
-8.907	-12.081	16375	14514	0	708
-11.179	-15.074	16375	14709	0	708
-13.343	-15.975	16375	15075	0	708
-13.776	-19.870	16375	15390	0	708
-14.208	-19.221	16376	15619	0	708
-13.884	-20.375	16378	15976	0	708
-11.648	-17.959	16382	16401	0	708
-10.963	-18.211	16382	16707	0	708
-12.477	-15.903	16384	16902	0	708
-12.766	-18.536	16386	17183	0	708
-17.598	-20.087	16390	17540	0	708
-19.473	-24.198	16391	17744	0	708
-20.123	-25.171	16392	17736	0	708
-16.877	-24.306	16392	17599	0	708
-14.497	-21.745	16392	17412	0	708
-12.730	-21.313	16392	17183	0	708
-12.333	-19.077	16391	16928	0	708
-14.533	-21.277	16389	16647	0	708
-16.805	-22.899	16388	16367	0	708
-20.159	-24.306	16384	16087	0	708
-21.529	-26.145	16384	15840	0	708
-22.178	-27.083	16380	15619	0	708
-19.401	-24.883	16379	15424	0	708
-15.074	-22.431	16377	15245	0	708
-13.018	-18.103	16374	15083	0	708
-12.874	-14.749	16373	15007	0	708
-14.208	-16.661	16373	15160	0	708
-16.480	-16.985	16373	15500	0	708
-14.713	-16.805	16375	15755	0	708
-15.074	-17.706	16375	15925	0	708
-14.136	-16.697	16377	16231	0	708
-13.848	-19.762	16379	16656	0	708
-17.598	-23.440	16382	16979	0	708
-17.779	-25.388	16384	17174	0	708
-20.916	-26.866	16386	17429	0	708
-21.818	-27.371	16389	17744	0	708
-21.709	-26.217	16391	17906	0	708
-21.168	-25.965	16392	17863	0	708
-18.175	-25.929	16391	17702	0	708
-18.464	-24.017	16392	17480	0	708
-16.697	-21.060	16390	17225	0	708
-16.552	-21.493	16389	16953	1	832
-13.920	-18.680	16388	16664	0	832
-13.920	-17.346	16386	16384	0	832
-13.740	-19.257	16384	16104	0	832
-10.819	-17.202	16384	15849	0	832
-10.169	-16.985	16380	15602	0	832
-5.337	-13.631	16378	15381	0	832
-0.793	-5.950	16376	15186	0	832
0.757	-5.301	16374	15015	0	832
-2.308	-5.481	16373	14939	0	832
-7.104	-10.638	16373	15100	0	832
-11.864	-15.579	16373	15424	0	832
-15.651	-19.113	16373	15662	0	832
-13.487	-16.733	16373	15798	0	832
-13.668	-16.120	16376	16112	0	832
-14.930	-15.687	16380	16715	0	832
-16.697	-18.969	16384	17336	0	832
-21.854	-20.303	16388	17770	0	832
-21.745	-24.955	16393	18127	0	832
-21.998	-24.053	16397	18492	0	832
-23.008	-23.765	16399	18671	0	832
-22.755	-25.424	16401	18611	0	832
-23.116	-25.460	16401	18441	0	832
-26.289	-28.164	16403	18186	0	832
-26.866	-30.220	16403	17855	0	832
-28.561	-31.338	16401	17472	0	832
-30.256	-30.869	16400	17055	0	832
-30.112	-30.076	16397	16630	0	832
-27.876	-29.427	16395	16214	0	832
-27.984	-28.994	16393	15798	0	832
-26.578	-28.417	16389	15398	0	832
-24.558	-28.705	16386	15041	0	832
-23.657	-27.191	16384	14735	0	832
-19.185	-24.162	16382	14488	0	832
-16.877	-20.375	16380	14344	0	832
-12.153	-19.437	16378	14420	0	832
-10.819	-17.021	16378	14709	0	832
-10.097	-15.795	16377	14964	0	832
-8.078	-12.802	16378	15152	0	832
-8.691	-10.674	16379	15466	0	832
-8.150	-9.592	16382	15908	0	832
-8.583	-9.989	16382	16240	0	832
-8.907	-12.874	16384	16443	0	832
-11.648	-15.579	16386	16809	0	832
-14.353	-16.408	16392	17463	0	832
-15.290	-21.313	16397	18110	0	832
-20.267	-22.755	16400	18441	0	832
-22.575	-26.253	16405	18535	0	832
-25.929	-28.201	16408	18654	0	832
-27.335	-30.581	16412	18807	0	832
-30.869	-33.105	16413	18798	0	832
-29.895	-34.475	16414	18560	0	832
-30.400	-34.764	16414	18212	0	832
-28.237	-33.790	16414	17804	0	832
-27.840	-32.600	16412	17327	0	832
-28.201	-31.266	16409	16817	0	832
-27.515	-30.184	16407	16325	0	832
-26.433	-29.174	16405	15840	0	832
-25.099	-27.912	16401	15373	0	832
-21.745	-26.686	16397	14947	0	832
-19.654	-23.657	16393	14565	0	832
-19.149	-21.673	16390	14216	0	832
-15.795	-18.824	16386	13902	0	832
-14.172	-16.192	16384	13714	0	832
-11.540	-16.264	16382	13791	0	832
-8.727	-14.172	16382	14072	0	832
-7.717	-12.261	16379	14301	0	832
-6.708	-11.720	16379	14463	0	832
-7.248	-11.973	16379	14777	0	832
-9.881	-13.235	16380	15228	0	832
-13.451	-17.057	16382	15594	0	832
-15.579	-17.238	16382	15840	0	832
-16.084	-20.447	16384	16180	0	832
-17.562	-19.293	16386	16588	0	832
-17.166	-20.988	16386	16868	0	832
